DTS Sentinel unit serial number:	SN413079Multiplexer serial number:	ORYXHardware model number:	OX4-SRSoftware version number:	ORYX F/W v4.00 Oryx Data Collector v3.7.2.0data status	okinstallation	princeton_trtdifferential loss correction	single-endedforward channel	channel 1reverse channel	N/Adate	2019/09/19time	01:30:35forward acquisition time	60.00reverse acquisition time	0.00gamma	496.2192k internal	0.2344k external	0.2344temperature offset calibration	1.0021default loss term (dB/km)	0.3790temperature slope calibration	1.0000multiplexer offset coefficient	1.0000multiplexer slope coefficient	1.0000fibre end	0.00T internal ref (°C)	21.56T ext. ref 1 (°C)	0.71T ext. ref 2 (°C)	15.10length (m)	temperature (°C)	Stokes	anti-Stokes-747.200	-200.000	-0.004	-0.042
-746.185	-200.000	0.000	0.281
-745.171	561.252	-0.057	-0.137
-744.156	-200.000	0.010	0.318
-743.142	-109.922	-0.252	0.053
-742.127	800.000	-0.062	-0.234
-741.112	-200.000	0.061	-0.439
-740.098	800.000	-0.052	0.209
-739.083	800.000	-0.014	0.044
-738.069	260.572	-0.107	0.186
-737.054	-200.000	-0.016	-0.209
-736.039	40.875	-0.404	0.364
-735.025	-200.000	-0.052	-0.321
-734.010	-134.189	-0.149	0.018
-732.996	-132.951	0.211	-0.027
-731.981	800.000	0.054	-0.171
-730.966	800.000	0.074	0.214
-729.952	-108.521	-0.368	-0.079
-728.937	22.234	0.075	-0.061
-727.923	-84.730	-0.147	0.046
-726.908	-39.900	0.198	0.103
-725.894	-200.000	0.024	-0.198
-724.879	370.251	-0.106	0.215
-723.864	62.153	0.164	0.163
-722.850	-200.000	-0.019	0.121
-721.835	-5.264	-0.113	-0.077
-720.821	-99.590	-0.043	0.011
-719.806	-100.011	-0.101	0.025
-718.791	166.579	0.131	-0.185
-717.777	595.168	0.066	-0.163
-716.762	332.540	0.150	-0.289
-715.748	-88.633	0.167	0.050
-714.733	-117.318	-0.197	-0.036
-713.718	-200.000	0.017	-0.127
-712.704	-59.338	-0.238	-0.102
-711.689	343.044	-0.063	0.123
-710.675	-20.126	0.085	0.052
-709.660	-57.687	-0.418	0.183
-708.645	79.799	-0.076	-0.082
-707.631	95.782	-0.226	0.258
-706.616	120.799	-0.062	-0.077
-705.602	133.764	-0.285	0.369
-704.587	800.000	-0.053	0.182
-703.572	-200.000	-0.030	0.204
-702.558	44.290	-0.201	-0.184
-701.543	-112.813	0.314	0.062
-700.529	21.617	0.131	-0.106
-699.514	-69.237	0.238	-0.092
-698.499	583.952	0.099	-0.242
-697.485	-200.000	-0.145	0.001
-696.470	-53.463	-0.092	-0.042
-695.456	548.555	-0.059	0.140
-694.441	135.069	0.113	-0.147
-693.426	543.361	0.136	0.325
-692.412	-46.609	0.265	-0.130
-691.397	160.478	0.079	-0.111
-690.383	-200.000	0.003	0.239
-689.368	-189.236	-0.207	0.002
-688.354	-200.000	-0.017	0.092
-687.339	-200.000	-0.289	-0.001
-686.324	-200.000	0.001	0.041
-685.310	-200.000	-0.025	0.407
-684.295	800.000	-0.112	-0.435
-683.281	82.190	-0.163	0.177
-682.266	-52.063	0.196	0.091
-681.251	-9.679	0.101	0.067
-680.237	-4.653	0.287	-0.198
-679.222	-26.749	-0.326	-0.190
-678.208	-131.291	0.064	-0.009
-677.193	800.000	0.027	-0.108
-676.178	-200.000	0.027	0.228
-675.164	492.589	0.052	0.119
-674.149	30.110	-0.083	0.071
-673.135	-96.390	0.121	-0.032
-672.120	94.250	-0.166	0.188
-671.105	-200.000	-0.058	0.450
-670.091	-25.613	-0.071	-0.042
-669.076	-182.866	-0.070	-0.001
-668.062	-115.642	0.358	0.067
-667.047	70.122	-0.201	0.207
-666.032	176.961	0.262	-0.380
-665.018	-147.379	-0.182	-0.015
-664.003	55.985	-0.169	-0.163
-662.989	83.664	-0.246	-0.267
-661.974	48.764	0.346	-0.323
-660.959	-200.000	0.051	-0.257
-659.945	800.000	0.042	-0.130
-658.930	-121.955	-0.152	0.025
-657.916	-32.228	0.061	0.034
-656.901	-200.000	-0.041	0.289
-655.886	131.343	-0.067	-0.086
-654.872	698.979	-0.088	-0.230
-653.857	-52.572	-0.299	-0.138
-652.843	-200.000	-0.024	0.115
-651.828	395.819	-0.093	0.194
-650.814	135.595	-0.196	-0.255
-649.799	-2.196	0.060	-0.042
-648.784	108.871	0.063	-0.075
-647.770	800.000	-0.032	-0.123
-646.755	-80.952	-0.343	0.113
-645.741	-200.000	-0.014	-0.255
-644.726	-200.000	0.064	-0.376
-643.711	-71.840	-0.085	-0.032
-642.697	-109.229	-0.283	0.060
-641.682	647.027	0.171	0.435
-640.668	800.000	0.065	0.212
-639.653	91.123	0.037	0.041
-638.638	-200.000	0.008	-0.083
-637.624	346.290	-0.094	-0.184
-636.609	-158.908	0.206	0.012
-635.595	247.552	0.188	-0.316
-634.580	-200.000	-0.011	-0.292
-633.565	-13.151	0.204	-0.132
-632.551	71.929	-0.267	-0.277
-631.536	-154.555	-0.193	-0.013
-630.522	3.925	0.187	-0.136
-629.507	-200.000	-0.026	-0.141
-628.492	-129.692	-0.181	0.025
-627.478	129.361	0.245	0.312
-626.463	-200.000	-0.038	-0.180
-625.449	-74.703	0.319	0.114
-624.434	458.824	-0.091	0.201
-623.419	-133.579	0.092	-0.012
-622.405	-151.947	-0.136	-0.010
-621.390	-64.705	0.197	0.080
-620.376	-15.423	0.220	0.140
-619.361	-63.320	-0.175	0.072
-618.346	-107.135	-0.200	-0.044
-617.332	-70.076	-0.155	-0.059
-616.317	800.000	-0.036	0.108
-615.303	-40.601	0.274	0.141
-614.288	-8.836	0.003	0.002
-613.273	-101.297	0.209	0.051
-612.259	-159.436	-0.057	-0.003
-611.244	-200.000	0.000	-0.113
-610.230	-22.695	-0.202	0.122
-609.215	334.394	-0.050	-0.096
-608.201	-58.444	-0.160	0.069
-607.186	-200.000	-0.001	0.214
-606.171	259.794	-0.089	0.153
-605.157	312.303	0.146	0.272
-604.142	-111.540	0.456	-0.092
-603.128	-70.666	-0.260	-0.098
-602.113	-171.082	0.328	-0.011
-601.098	-83.275	-0.238	0.076
-600.084	-74.965	-0.370	-0.132
-599.069	-130.903	-0.270	0.036
-598.055	58.790	0.247	-0.241
-597.040	26.308	-0.163	-0.136
-596.025	800.000	-0.074	0.264
-595.011	-200.000	-0.030	-0.149
-593.996	581.440	0.068	-0.165
-592.982	-17.907	-0.115	0.071
-591.967	670.772	-0.048	0.123
-590.952	-200.000	0.010	0.122
-589.938	104.976	-0.298	-0.349
-588.923	102.748	0.100	0.116
-587.909	233.657	0.129	0.211
-586.894	800.000	-0.069	-0.189
-585.879	-200.000	-0.022	0.096
-584.865	332.434	0.013	-0.025
-583.850	-139.643	-0.268	0.028
-582.836	800.000	-0.075	0.207
-581.821	-200.000	0.008	-0.060
-580.806	-146.218	-0.133	0.012
-579.792	246.748	-0.035	-0.059
-578.777	161.270	-0.096	-0.134
-577.763	-200.000	-0.023	0.437
-576.748	-17.566	-0.201	0.126
-575.733	-109.053	0.405	0.086
-574.719	84.305	-0.141	0.153
-573.704	244.233	-0.249	-0.415
-572.690	302.709	-0.044	0.081
-571.675	170.731	0.028	0.040
-570.661	-112.716	0.252	0.050
-569.646	226.792	0.053	0.086
-568.631	522.353	0.023	-0.053
-567.617	161.464	-0.117	-0.162
-566.602	-139.851	0.083	0.009
-565.588	445.319	-0.094	-0.206
-564.573	-77.233	0.392	0.135
-563.558	49.016	-0.123	-0.115
-562.544	127.286	0.042	0.053
-561.529	783.543	-0.067	0.183
-560.515	-71.763	0.098	-0.036
-559.500	-48.566	0.292	-0.140
-558.485	-105.201	-0.296	-0.067
-557.471	453.136	-0.032	-0.071
-556.456	-109.423	0.147	-0.031
-555.442	-124.037	0.217	-0.034
-554.427	-200.000	-0.049	-0.264
-553.412	34.467	0.084	0.073
-552.398	-200.000	-0.020	-0.196
-551.383	142.941	0.158	-0.209
-550.369	-200.000	0.003	0.036
-549.354	-57.070	0.274	0.120
-548.339	-136.731	0.318	-0.036
-547.325	-124.081	-0.173	-0.027
-546.310	202.512	0.131	-0.201
-545.296	-87.786	-0.238	-0.071
-544.281	800.000	-0.093	-0.364
-543.266	154.129	-0.196	0.266
-542.252	305.330	0.029	0.053
-541.237	50.428	0.293	-0.275
-540.223	12.604	0.264	-0.202
-539.208	-200.000	0.004	-0.063
-538.193	-200.000	0.029	0.157
-537.179	-200.000	-0.022	0.141
-536.164	-19.120	-0.069	0.043
-535.150	-200.000	-0.036	0.319
-534.135	-50.143	0.075	-0.035
-533.121	800.000	0.083	0.263
-532.106	131.149	0.172	0.219
-531.091	-8.251	-0.283	0.189
-530.077	266.172	-0.140	0.243
-529.062	-20.314	0.127	-0.078
-528.048	800.000	0.137	-0.439
-527.033	325.579	0.031	0.058
-526.018	-51.101	-0.257	-0.119
-525.004	13.022	0.183	-0.140
-523.989	-200.000	-0.015	-0.113
-522.975	800.000	-0.016	0.051
-521.960	-113.442	-0.137	-0.027
-520.945	800.000	-0.058	-0.180
-519.931	-100.846	0.313	-0.076
-518.916	800.000	-0.052	0.191
-517.902	-133.633	0.387	-0.048
-516.887	-85.632	-0.730	-0.225
-515.872	-37.145	0.151	0.080
-514.858	122.792	0.351	-0.436
-513.843	98.293	0.153	-0.175
-512.829	668.209	-0.119	0.305
-511.814	-143.870	-0.067	-0.006
-510.799	-174.563	-0.370	-0.010
-509.785	-49.858	-0.015	0.007
-508.770	-59.391	0.206	0.088
-507.756	119.816	0.068	0.084
-506.741	18.007	0.059	0.047
-505.726	278.644	0.128	-0.227
-504.712	800.000	-0.041	0.156
-503.697	-57.122	-0.120	-0.052
-502.683	-101.527	-0.220	0.053
-501.668	119.711	-0.021	-0.026
-500.653	-200.000	0.000	0.069
-499.639	-200.000	0.021	-0.163
-498.624	63.451	0.019	0.019
-497.610	-129.362	-0.244	0.034
-496.595	152.187	-0.066	-0.089
-495.581	-94.623	0.201	0.054
-494.566	-177.107	0.039	0.001
-493.551	-200.000	-0.039	0.256
-492.537	697.207	0.171	0.446
-491.522	75.609	-0.171	0.179
-490.508	41.901	-0.102	0.091
-489.493	-174.642	0.218	-0.006
-488.478	800.000	-0.043	0.141
-487.464	748.227	0.041	0.111
-486.449	800.000	-0.093	0.402
-485.435	-90.643	0.208	0.059
-484.420	25.391	-0.111	-0.092
-483.405	-42.384	0.215	-0.108
-482.391	-200.000	0.012	-0.246
-481.376	178.215	0.151	-0.218
-480.362	-200.000	-0.033	0.445
-479.347	-26.227	0.097	0.057
-478.332	800.000	-0.057	-0.210
-477.318	268.682	0.101	-0.175
-476.303	-44.297	-0.338	-0.168
-475.289	706.693	-0.086	0.226
-474.274	123.089	-0.102	0.126
-473.259	-22.269	0.442	-0.266
-472.245	-122.935	0.104	0.017
-471.230	-120.025	-0.239	0.041
-470.216	211.532	0.073	-0.113
-469.201	258.475	0.073	0.125
-468.186	-5.140	-0.089	0.061
-467.172	-119.437	0.225	-0.039
-466.157	-200.000	0.064	-0.371
-465.143	-62.469	-0.261	0.108
-464.128	800.000	0.120	-0.353
-463.113	-99.943	0.044	-0.011
-462.099	-200.000	0.060	-0.281
-461.084	359.268	0.237	-0.470
-460.070	-66.587	-0.139	-0.055
-459.055	59.746	-0.244	0.239
-458.040	-73.904	0.341	0.123
-457.026	-200.000	-0.019	-0.234
-456.011	251.514	-0.096	-0.162
-454.997	-102.762	-0.237	0.056
-453.982	-134.434	-0.282	-0.034
-452.968	-200.000	-0.037	0.198
-451.953	-104.774	0.166	-0.038
-450.938	-200.000	-0.004	0.206
-449.924	800.000	-0.016	-0.055
-448.909	58.040	-0.116	0.112
-447.895	-19.359	0.134	0.082
-446.880	368.257	-0.086	-0.172
-445.865	-200.000	0.007	0.082
-444.851	-26.106	-0.119	0.069
-443.836	-84.417	0.224	0.070
-442.822	800.000	0.102	0.379
-441.807	693.119	-0.108	0.280
-440.792	-135.879	0.142	0.017
-439.778	-73.307	0.140	0.051
-438.763	-87.657	-0.245	0.073
-437.749	800.000	0.081	0.263
-436.734	72.443	-0.013	-0.013
-435.719	77.420	0.186	0.196
-434.705	-200.000	0.025	-0.384
-433.690	-200.000	-0.005	0.221
-432.676	268.062	0.066	-0.114
-431.661	-67.390	-0.046	-0.018
-430.646	-142.591	-0.180	0.017
-429.632	769.014	0.034	0.092
-428.617	-26.461	0.075	-0.044
-427.603	-132.059	-0.360	0.046
-426.588	-146.897	0.161	-0.014
-425.573	-200.000	-0.042	-0.208
-424.559	800.000	-0.064	0.182
-423.544	-45.185	-0.140	-0.069
-422.530	-200.000	-0.035	-0.155
-421.515	177.471	0.158	-0.228
-420.500	-13.124	-0.225	0.145
-419.486	-11.662	-0.160	0.104
-418.471	162.284	0.238	0.330
-417.457	-119.108	-0.262	0.045
-416.442	-90.925	-0.329	0.094
-415.428	508.340	0.028	-0.065
-414.413	181.352	-0.140	-0.203
-413.398	604.266	0.037	0.090
-412.384	99.274	-0.213	0.243
-411.369	-100.375	-0.107	0.026
-410.355	-200.000	0.015	0.462
-409.340	456.820	-0.121	-0.265
-408.325	-58.225	-0.092	-0.040
-407.311	125.297	-0.092	-0.115
-406.296	-200.000	-0.017	-0.102
-405.282	191.981	-0.150	0.224
-404.267	-92.166	-0.051	-0.014
-403.252	-84.898	0.040	-0.012
-402.238	399.556	0.035	-0.072
-401.223	77.174	0.043	-0.045
-400.209	-52.741	-0.205	-0.093
-399.194	-121.921	-0.101	0.016
-398.179	-200.000	-0.083	0.000
-397.165	-101.895	0.281	0.067
-396.150	-103.751	0.375	-0.087
-395.136	15.924	-0.259	0.201
-394.121	737.977	-0.106	0.280
-393.106	-116.557	-0.235	0.043
-392.092	800.000	-0.009	-0.035
-391.077	-96.941	0.299	0.077
-390.063	-200.000	0.018	0.093
-389.048	-36.423	0.143	-0.076
-388.033	-9.925	-0.214	0.141
-387.019	348.638	-0.064	-0.125
-386.004	227.907	-0.156	-0.251
-384.990	66.027	-0.227	0.228
-383.975	432.767	-0.123	0.264
-382.960	-126.435	-0.152	0.022
-381.946	-200.000	-0.044	0.428
-380.931	-200.000	0.039	0.181
-379.917	776.905	0.091	-0.245
-378.902	595.107	0.073	-0.179
-377.888	160.245	0.255	-0.350
-376.873	-200.000	-0.026	0.139
-375.858	25.455	-0.266	-0.219
-374.844	-111.183	-0.247	0.050
-373.829	38.758	-0.269	-0.237
-372.815	-60.976	0.176	-0.073
-371.800	-142.902	0.274	-0.026
-370.785	716.554	-0.116	-0.305
-369.771	34.410	-0.058	-0.050
-368.756	-200.000	0.045	-0.207
-367.742	205.671	-0.057	-0.088
-366.727	-27.583	-0.304	-0.174
-365.712	37.363	0.217	-0.189
-364.698	94.994	0.187	0.210
-363.683	-17.644	0.279	-0.173
-362.669	-54.631	-0.331	-0.148
-361.654	-20.673	0.243	-0.147
-360.639	-192.202	-0.039	-0.000
-359.625	138.426	0.091	0.118
-358.610	389.784	0.065	-0.133
-357.596	53.937	-0.055	-0.052
-356.581	223.836	0.112	-0.179
-355.566	152.665	-0.144	-0.194
-354.552	-200.000	-0.004	-0.104
-353.537	-50.587	0.271	-0.126
-352.523	-18.964	0.345	0.212
-351.508	3.249	-0.188	0.135
-350.493	-87.150	0.232	-0.070
-349.479	-200.000	-0.009	-0.200
-348.464	466.103	-0.068	0.151
-347.450	-61.478	-0.188	-0.078
-346.435	800.000	0.122	0.471
-345.420	-200.000	-0.042	-0.185
-344.406	200.808	-0.120	0.182
-343.391	60.369	-0.251	0.245
-342.377	-63.070	0.233	0.095
-341.362	-54.841	0.150	-0.067
-340.348	10.133	0.242	0.181
-339.333	-159.232	0.160	0.009
-338.318	800.000	0.039	-0.146
-337.304	800.000	-0.027	-0.106
-336.289	-42.555	0.203	0.102
-335.275	-125.339	-0.149	-0.022
-334.260	-12.706	-0.169	-0.108
-333.245	45.513	-0.150	-0.136
-332.231	279.689	-0.055	-0.096
-331.216	-14.617	-0.156	0.099
-330.202	-78.196	0.176	0.060
-329.187	-200.000	-0.003	0.178
-328.172	763.034	-0.054	-0.144
-327.158	-135.646	0.419	0.049
-326.143	170.517	-0.229	-0.323
-325.129	8.241	-0.094	0.070
-324.114	151.583	-0.137	-0.184
-323.099	78.069	-0.138	0.145
-322.085	31.704	-0.086	0.073
-321.070	800.000	-0.064	-0.267
-320.056	18.366	-0.278	0.218
-319.041	104.812	-0.198	0.230
-318.026	-53.755	0.036	-0.016
-317.012	-120.423	-0.138	-0.023
-315.997	256.542	-0.208	-0.352
-314.983	-153.921	-0.317	0.021
-313.968	-200.000	-0.004	0.202
-312.953	240.854	-0.078	0.127
-311.939	128.176	-0.159	-0.199
-310.924	800.000	0.111	-0.364
-309.910	395.195	0.126	-0.258
-308.895	320.333	0.045	0.084
-307.880	-89.888	0.049	0.014
-306.866	-200.000	0.051	-0.265
-305.851	63.842	0.154	-0.152
-304.837	800.000	0.093	-0.321
-303.822	-133.011	0.127	-0.016
-302.807	8.992	-0.267	0.198
-301.793	-54.342	0.354	-0.158
-300.778	-136.136	-0.284	0.033
-299.764	78.151	0.055	-0.057
-298.749	800.000	-0.118	0.324
-297.735	170.461	-0.053	0.075
-296.720	-77.992	0.172	0.058
-295.705	-149.679	0.166	0.013
-294.691	-53.878	-0.146	-0.066
-293.676	30.314	-0.437	-0.367
-292.662	-4.785	0.065	-0.044
-291.647	800.000	0.046	-0.173
-290.632	263.558	0.089	0.152
-289.618	800.000	0.107	-0.300
-288.603	-149.230	-0.099	0.008
-287.589	-200.000	0.051	0.395
-286.574	321.935	-0.158	0.295
-285.559	-29.664	0.113	0.063
-284.545	-126.467	-0.148	-0.022
-283.530	-79.306	-0.317	-0.106
-282.516	177.119	0.137	0.197
-281.501	84.207	0.259	0.278
-280.486	65.166	0.260	0.258
-279.472	234.847	0.071	0.114
-278.457	-39.703	0.101	0.052
-277.443	143.128	-0.113	-0.148
-276.428	-32.581	0.177	-0.097
-275.413	54.541	-0.127	-0.120
-274.399	-183.405	0.213	0.004
-273.384	232.066	-0.050	0.081
-272.370	181.877	0.052	0.075
-271.355	181.987	0.126	-0.182
-270.340	-200.000	-0.043	-0.231
-269.326	42.101	-0.068	-0.060
-268.311	-44.271	-0.154	0.076
-267.297	800.000	-0.029	0.087
-266.282	-200.000	-0.007	0.074
-265.267	226.106	0.019	-0.031
-264.253	-200.000	0.002	-0.133
-263.238	-200.000	-0.005	-0.051
-262.224	-69.093	-0.369	-0.140
-261.209	143.265	0.149	-0.195
-260.195	-200.000	0.020	0.420
-259.180	-135.764	0.300	-0.035
-258.165	292.217	-0.005	0.009
-257.151	49.872	0.038	-0.035
-256.136	-200.000	0.007	0.041
-255.122	-200.000	0.063	-0.306
-254.107	304.226	-0.168	0.306
-253.092	20.508	0.192	0.153
-252.078	-47.977	0.254	0.121
-251.063	45.085	-0.064	0.058
-250.049	-8.152	0.234	0.155
-249.034	-92.060	-0.176	0.049
-248.019	-200.000	-0.010	0.064
-247.005	-14.963	0.099	0.062
-245.990	-43.719	0.342	0.169
-244.976	51.691	0.234	0.218
-243.961	-200.000	-0.033	0.267
-242.946	328.160	-0.141	0.265
-241.932	-200.000	0.054	-0.305
-240.917	-75.358	-0.134	0.047
-239.903	800.000	-0.039	-0.126
-238.888	-112.141	0.113	0.022
-237.873	585.325	-0.020	-0.049
-236.859	-46.784	-0.495	0.238
-235.844	-200.000	0.004	-0.255
-234.830	-92.655	0.236	0.065
-233.815	-91.085	-0.206	0.058
-232.800	0.820	-0.084	-0.059
-231.786	-28.093	0.347	-0.197
-230.771	-56.397	-0.421	-0.183
-229.757	26.533	0.232	0.191
-228.742	800.000	0.110	0.339
-227.727	-200.000	0.017	-0.078
-226.713	73.423	0.237	0.243
-225.698	-200.000	-0.018	0.223
-224.684	-39.757	0.263	0.135
-223.669	-94.572	-0.189	-0.050
-222.655	-200.000	0.055	0.258
-221.640	-200.000	-0.004	0.209
-220.625	800.000	0.060	0.213
-219.611	-191.665	0.282	-0.003
-218.596	800.000	0.079	-0.253
-217.582	4.303	0.050	-0.036
-216.567	-200.000	0.040	-0.253
-215.552	-127.542	0.330	-0.047
-214.538	648.578	-0.023	-0.058
-213.523	446.596	0.116	-0.249
-212.509	-97.362	0.182	0.046
-211.494	-30.132	-0.172	-0.096
-210.479	10.531	-0.134	-0.100
-209.465	-200.000	0.002	-0.185
-208.450	800.000	-0.039	0.114
-207.436	-146.112	-0.415	0.036
-206.421	-101.905	0.231	0.055
-205.406	96.576	-0.220	-0.247
-204.392	82.521	-0.104	0.111
-203.377	-53.815	0.167	0.074
-202.363	800.000	-0.101	0.317
-201.348	101.378	-0.075	0.086
-200.333	716.624	0.046	0.119
-199.319	60.992	-0.221	0.215
-198.304	-155.942	0.068	0.004
-197.290	-200.000	-0.043	-0.251
-196.275	798.480	0.062	0.168
-195.260	-40.081	-0.129	0.066
-194.246	-200.000	-0.016	-0.127
-193.231	-200.000	-0.020	-0.118
-192.217	-200.000	0.023	-0.284
-191.202	-200.000	0.007	0.143
-190.187	-200.000	0.016	-0.106
-189.173	-62.747	0.154	-0.062
-188.158	-94.120	0.251	-0.067
-187.144	-200.000	0.009	-0.157
-186.129	-200.000	0.041	-0.359
-185.114	18.508	-0.205	0.161
-184.100	-63.169	0.165	0.067
-183.085	703.791	0.098	0.253
-182.071	79.237	0.124	0.131
-181.056	102.794	-0.166	-0.191
-180.042	-47.109	0.113	-0.054
-179.027	242.265	-0.121	-0.199
-178.012	-200.000	-0.035	-0.156
-176.998	113.030	0.226	0.269
-175.983	170.426	0.097	0.137
-174.969	-87.224	-0.166	-0.049
-173.954	7.996	-0.188	-0.138
-172.939	-200.000	-0.016	-0.125
-171.925	397.843	0.108	0.221
-170.910	-143.934	-0.122	0.011
-169.896	800.000	-0.062	-0.217
-168.881	-89.677	-0.250	0.072
-167.866	-200.000	0.009	0.273
-166.852	-200.000	0.048	0.472
-165.837	120.565	-0.129	-0.157
-164.823	535.692	0.129	-0.299
-163.808	-105.824	0.556	0.123
-162.793	-131.653	-0.208	-0.027
-161.779	112.287	0.167	-0.198
-160.764	130.834	0.196	-0.247
-159.750	-85.993	-0.226	-0.068
-158.735	-105.810	-0.173	0.038
-157.720	-55.014	0.124	-0.055
-156.706	283.851	0.026	-0.045
-155.691	63.635	0.080	0.079
-154.677	-200.000	-0.023	0.503
-153.662	47.102	0.034	0.031
-152.647	-83.023	0.127	-0.040
-151.633	-25.727	0.258	0.149
-150.618	68.116	0.207	-0.207
-149.604	75.445	0.168	-0.174
-148.589	-43.637	-0.266	-0.131
-147.574	-200.000	0.005	0.101
-146.560	800.000	0.021	-0.063
-145.545	-140.094	-0.288	-0.030
-144.531	121.761	-0.273	0.333
-143.516	14.430	0.372	-0.284
-142.502	-0.845	0.087	-0.060
-141.487	192.256	0.143	0.210
-140.472	-143.388	-0.407	0.038
-139.458	-149.581	0.138	0.011
-138.443	23.979	-0.281	-0.227
-137.429	-98.616	0.202	0.050
-136.414	-25.908	0.169	0.097
-135.399	-79.503	0.265	-0.087
-134.385	-200.000	-0.067	0.324
-133.370	-16.561	0.224	0.139
-132.356	-40.604	0.140	0.071
-131.341	113.224	0.099	-0.117
-130.326	800.000	0.060	-0.247
-129.312	-53.730	0.090	0.040
-128.297	249.467	-0.187	-0.309
-127.283	-200.000	-0.004	0.103
-126.268	800.000	-0.159	0.571
-125.253	51.228	-0.204	0.189
-124.239	-200.000	-0.011	0.238
-123.224	-99.915	0.057	0.014
-122.210	-200.000	-0.002	-0.040
