DTS Sentinel unit serial number:	SN413079Multiplexer serial number:	ORYXHardware model number:	OX4-SRSoftware version number:	ORYX F/W v4.00 Oryx Data Collector v3.7.2.0data status	okinstallation	princeton_trtdifferential loss correction	single-endedforward channel	channel 1reverse channel	N/Adate	2019/09/15time	02:54:35forward acquisition time	60.00reverse acquisition time	0.00gamma	496.2192k internal	0.2323k external	0.2323temperature offset calibration	0.9994default loss term (dB/km)	0.3790temperature slope calibration	1.0000multiplexer offset coefficient	1.0000multiplexer slope coefficient	1.0000fibre end	0.00T internal ref (°C)	31.27T ext. ref 1 (°C)	4.57T ext. ref 2 (°C)	25.67length (m)	temperature (°C)	Stokes	anti-Stokes-747.200	224.742	0.181	-0.295
-746.185	-144.554	0.256	-0.024
-745.171	-200.000	0.019	0.220
-744.156	-200.000	0.005	0.278
-743.142	-28.340	0.162	-0.094
-742.127	-58.538	-0.257	0.112
-741.112	49.228	-0.099	0.094
-740.098	51.930	-0.236	0.227
-739.083	800.000	0.064	-0.185
-738.069	-45.030	-0.209	-0.105
-737.054	55.571	0.286	-0.279
-736.039	58.288	-0.265	-0.262
-735.025	800.000	0.048	0.171
-734.010	-100.972	0.223	-0.055
-732.996	-171.406	-0.157	0.005
-731.981	-200.000	0.011	0.112
-730.966	800.000	0.048	0.209
-729.952	-20.351	-0.215	-0.133
-728.937	67.599	0.270	-0.278
-727.923	-14.825	-0.017	-0.011
-726.908	123.604	-0.079	-0.100
-725.894	54.844	0.026	-0.025
-724.879	-51.245	-0.355	-0.168
-723.864	74.992	-0.183	0.195
-722.850	-10.568	-0.173	0.116
-721.835	800.000	-0.011	-0.033
-720.821	-200.000	0.037	-0.251
-719.806	-200.000	0.009	-0.072
-718.791	-200.000	0.008	-0.164
-717.777	-150.557	0.369	0.029
-716.762	-72.856	0.047	-0.017
-715.748	-73.988	-0.341	-0.125
-714.733	-200.000	-0.034	-0.221
-713.718	-52.836	0.098	0.046
-712.704	-200.000	0.034	0.272
-711.689	-200.000	0.032	-0.458
-710.675	-200.000	0.025	-0.211
-709.660	-169.890	-0.091	-0.003
-708.645	356.243	0.111	-0.223
-707.631	250.362	-0.109	-0.186
-706.616	40.468	-0.318	0.289
-705.602	-13.124	-0.087	0.057
-704.587	36.473	-0.371	-0.330
-703.572	-108.628	0.045	0.010
-702.558	-88.363	-0.131	0.039
-701.543	335.020	-0.037	-0.073
-700.529	-148.237	-0.144	0.012
-699.514	-34.231	-0.041	-0.023
-698.499	-84.910	0.235	-0.074
-697.485	800.000	-0.091	-0.273
-696.470	-5.007	-0.277	0.192
-695.456	-200.000	0.016	0.234
-694.441	165.174	-0.128	0.183
-693.426	-81.404	-0.239	0.079
-692.412	18.433	0.132	-0.106
-691.397	-137.442	-0.235	-0.027
-690.383	-200.000	0.048	0.269
-689.368	-78.601	0.041	0.014
-688.354	800.000	-0.077	0.249
-687.339	0.174	-0.199	0.143
-686.324	412.248	-0.025	-0.054
-685.310	-200.000	-0.016	-0.103
-684.295	82.431	0.164	-0.179
-683.281	-106.209	0.216	0.049
-682.266	-200.000	-0.025	0.188
-681.251	-112.160	0.125	0.025
-680.237	-200.000	-0.032	-0.143
-679.222	127.179	-0.042	-0.054
-678.208	-200.000	0.034	-0.159
-677.193	40.586	-0.090	-0.082
-676.178	96.020	-0.257	-0.296
-675.164	-160.976	0.056	0.003
-674.149	-200.000	-0.046	0.330
-673.135	60.148	-0.116	0.115
-672.120	48.579	0.187	0.177
-671.105	25.241	0.280	0.234
-670.091	620.180	-0.059	-0.148
-669.076	-200.000	0.034	0.231
-668.062	-142.461	0.268	0.027
-667.047	-200.000	-0.056	-0.273
-666.032	10.272	0.246	0.189
-665.018	-38.110	0.217	-0.116
-664.003	135.053	-0.053	-0.069
-662.989	146.324	-0.229	-0.309
-661.974	208.946	0.078	0.123
-660.959	-200.000	0.039	-0.197
-659.945	-137.074	-0.281	0.032
-658.930	-200.000	0.003	-0.073
-657.916	-200.000	0.065	-0.286
-656.901	-85.033	-0.117	0.037
-655.886	-109.527	-0.365	-0.077
-654.872	-68.059	-0.380	0.149
-653.857	93.473	0.142	0.162
-652.843	319.214	0.136	0.259
-651.828	-99.559	0.177	0.045
-650.814	0.116	0.082	-0.059
-649.799	729.113	0.103	0.277
-648.784	-199.232	-0.335	-0.002
-647.770	800.000	0.014	-0.059
-646.755	-57.301	-0.263	-0.117
-645.741	-145.319	-0.375	0.034
-644.726	14.305	0.163	-0.128
-643.711	-5.646	0.226	0.156
-642.697	49.185	-0.205	-0.193
-641.682	55.563	-0.136	-0.133
-640.668	-200.000	-0.019	-0.140
-639.653	544.761	-0.129	0.310
-638.638	210.894	-0.138	-0.218
-637.624	640.438	-0.035	-0.089
-636.609	114.399	0.077	-0.094
-635.595	-200.000	-0.027	-0.137
-634.580	-83.879	0.224	-0.072
-633.565	33.525	-0.166	-0.145
-632.551	-32.749	0.209	-0.117
-631.536	436.488	-0.061	-0.134
-630.522	-186.467	-0.083	-0.001
-629.507	800.000	0.145	-0.462
-628.492	154.100	-0.086	-0.118
-627.478	-200.000	0.028	-0.183
-626.463	-200.000	-0.017	-0.320
-625.449	-65.985	0.110	-0.044
-624.434	-200.000	0.014	0.084
-623.419	340.613	-0.158	0.309
-622.405	-53.969	0.112	0.051
-621.390	-28.599	-0.043	0.025
-620.376	-200.000	-0.023	0.122
-619.361	-123.173	-0.221	-0.036
-618.346	10.043	-0.103	-0.079
-617.332	-200.000	-0.075	0.000
-616.317	-200.000	0.059	-0.410
-615.303	440.815	0.099	-0.218
-614.288	-109.945	0.142	0.030
-613.273	-200.000	-0.059	0.267
-612.259	-200.000	-0.009	0.162
-611.244	43.520	-0.147	0.135
-610.230	352.515	0.143	0.285
-609.215	24.205	-0.390	0.324
-608.201	-122.153	0.367	0.060
-607.186	5.564	0.185	0.138
-606.171	-95.514	0.288	0.078
-605.157	-46.068	-0.123	-0.061
-604.142	38.090	0.125	-0.112
-603.128	-86.874	0.211	0.065
-602.113	750.971	0.094	0.254
-601.098	-181.339	0.162	0.003
-600.084	-29.263	0.171	-0.098
-599.069	800.000	0.044	0.185
-598.055	-81.106	0.249	-0.083
-597.040	-94.035	0.275	-0.076
-596.025	669.118	0.057	-0.148
-595.011	-86.104	0.171	0.053
-593.996	800.000	0.081	0.296
-592.982	706.527	0.052	0.138
-591.967	87.325	-0.185	-0.206
-590.952	-23.029	0.079	0.048
-589.938	-28.656	0.016	0.009
-588.923	119.965	-0.180	-0.225
-587.909	225.010	-0.190	0.308
-586.894	210.754	-0.078	-0.123
-585.879	800.000	0.037	-0.128
-584.865	-104.680	0.277	0.064
-583.850	28.215	-0.196	-0.166
-582.836	1.628	0.273	-0.197
-581.821	-14.537	-0.135	0.087
-580.806	-43.113	-0.164	0.083
-579.792	-146.321	-0.032	0.003
-578.777	109.348	0.052	0.062
-577.763	-40.547	-0.261	0.136
-576.748	317.513	-0.103	0.196
-575.733	-31.516	0.145	-0.082
-574.719	-7.365	-0.211	-0.144
-573.704	-200.000	-0.029	0.216
-572.690	-200.000	0.049	-0.226
-571.675	-3.536	-0.165	0.115
-570.661	-46.201	0.053	-0.026
-569.646	-167.428	-0.207	0.008
-568.631	116.115	-0.150	0.184
-567.617	-83.855	-0.272	-0.087
-566.602	464.839	-0.138	-0.309
-565.588	57.996	-0.094	0.092
-564.573	-200.000	-0.049	-0.319
-563.558	800.000	-0.061	-0.233
-562.544	-128.128	-0.341	-0.049
-561.529	87.863	0.258	-0.287
-560.515	-34.237	0.217	0.120
-559.500	-96.966	-0.277	-0.073
-558.485	-200.000	-0.063	-0.280
-557.471	-51.562	-0.142	-0.066
-556.456	538.532	0.041	0.098
-555.442	-119.165	-0.045	0.008
-554.427	-104.082	-0.248	0.058
-553.412	-43.821	-0.013	-0.006
-552.398	229.534	0.174	-0.285
-551.383	211.582	0.180	-0.284
-550.369	-124.597	-0.255	0.040
-549.354	-200.000	-0.009	-0.206
-548.339	800.000	0.062	-0.255
-547.325	577.474	-0.093	-0.228
-546.310	-32.882	0.221	-0.123
-545.296	-46.812	-0.420	0.206
-544.281	-59.944	-0.228	0.098
-543.266	417.870	0.021	0.044
-542.252	-139.568	-0.028	-0.003
-541.237	-17.323	0.190	0.120
-540.223	169.349	0.223	-0.319
-539.208	90.715	0.279	0.313
-538.193	348.334	0.118	-0.233
-537.179	800.000	-0.014	0.053
-536.164	-200.000	0.048	0.454
-535.150	199.256	-0.129	-0.199
-534.135	200.842	0.096	0.148
-533.121	-200.000	0.013	0.111
-532.106	295.277	-0.160	-0.292
-531.091	741.756	0.059	0.158
-530.077	-114.065	-0.083	-0.016
-529.062	115.902	0.133	-0.163
-528.048	-63.767	0.224	0.092
-527.033	-5.109	-0.150	-0.103
-526.018	481.559	-0.021	-0.048
-525.004	-125.008	0.076	0.012
-523.989	-27.539	-0.442	-0.257
-522.975	-123.126	-0.259	-0.042
-521.960	-76.716	-0.302	0.106
-520.945	-200.000	0.007	-0.114
-519.931	386.470	-0.077	0.159
-518.916	-200.000	-0.004	-0.074
-517.902	-56.314	0.092	-0.041
-516.887	55.921	-0.033	0.032
-515.872	-77.066	0.069	0.024
-514.858	-12.998	-0.116	-0.075
-513.843	-200.000	0.011	0.186
-512.829	-200.000	-0.015	-0.196
-511.814	-200.000	0.042	-0.185
-510.799	-88.438	-0.049	-0.015
-509.785	72.701	0.128	0.133
-508.770	-34.252	-0.463	-0.254
-507.756	-153.105	-0.153	0.011
-506.741	-90.565	-0.136	0.039
-505.726	800.000	-0.039	0.149
-504.712	-43.281	0.075	0.038
-503.697	3.997	0.097	0.071
-502.683	-200.000	0.081	0.421
-501.668	109.628	0.215	0.258
-500.653	380.725	0.099	0.204
-499.639	-51.974	0.033	-0.015
-498.624	-47.466	0.191	-0.093
-497.610	-64.191	-0.056	-0.023
-496.595	105.158	-0.096	0.113
-495.581	145.773	0.080	0.107
-494.566	-200.000	0.004	-0.038
-493.551	-132.835	0.247	-0.032
-492.537	800.000	0.095	-0.270
-491.522	448.263	0.084	-0.185
-490.508	-200.000	0.055	-0.393
-489.493	5.175	-0.173	0.127
-488.478	-73.096	-0.050	-0.018
-487.464	-87.072	0.151	-0.046
-486.449	-200.000	0.013	0.095
-485.435	164.215	0.065	-0.091
-484.420	-55.347	0.291	0.131
-483.405	209.288	-0.062	-0.097
-482.391	-19.845	-0.167	-0.103
-481.376	-44.861	0.103	0.051
-480.362	87.816	-0.277	-0.307
-479.347	74.479	-0.156	-0.164
-478.332	16.473	-0.211	0.167
-477.318	-111.197	0.053	0.011
-476.303	75.860	-0.102	0.107
-475.289	-12.694	-0.359	0.234
-474.274	-25.116	-0.317	-0.188
-473.259	-200.000	0.025	-0.112
-472.245	162.115	-0.112	0.156
-471.230	-1.056	-0.297	-0.210
-470.216	800.000	-0.103	0.409
-469.201	-59.423	0.404	0.173
-468.186	-2.599	0.211	-0.148
-467.172	188.870	0.294	-0.440
-466.157	-200.000	0.009	-0.193
-465.143	-49.048	-0.252	-0.121
-464.128	-65.768	0.233	-0.093
-463.113	4.691	-0.050	0.037
-462.099	259.496	-0.049	0.085
-461.084	-200.000	-0.003	0.169
-460.070	215.328	-0.151	-0.240
-459.055	-178.090	-0.192	0.005
-458.040	-200.000	0.024	-0.170
-457.026	-200.000	-0.072	-0.389
-456.011	-200.000	0.003	-0.196
-454.997	46.483	0.077	-0.071
-453.982	-125.095	0.116	0.018
-452.968	-65.569	-0.132	0.053
-451.953	-70.813	-0.136	0.051
-450.938	320.832	0.105	-0.199
-449.924	-31.441	0.055	-0.031
-448.909	-80.889	-0.376	-0.124
-447.895	603.847	0.106	0.264
-446.880	-50.640	-0.171	-0.080
-445.865	-97.631	0.176	-0.045
-444.851	243.305	-0.127	-0.212
-443.836	53.859	0.122	0.117
-442.822	26.040	-0.255	-0.212
-441.807	-200.000	-0.036	0.156
-440.792	-76.947	-0.156	0.054
-439.778	31.872	0.152	-0.130
-438.763	7.021	0.209	0.155
-437.749	188.254	-0.037	0.055
-436.734	19.525	-0.180	-0.145
-435.719	-44.801	0.200	-0.099
-434.705	-93.396	0.139	0.039
-433.690	263.466	-0.100	0.174
-432.676	248.856	0.034	0.058
-431.661	115.384	-0.147	-0.179
-430.646	579.878	0.114	0.279
-429.632	29.028	-0.058	0.049
-428.617	-131.781	-0.018	-0.002
-427.603	-106.008	-0.221	-0.050
-426.588	495.521	-0.074	0.169
-425.573	-200.000	-0.037	0.269
-424.559	800.000	-0.068	0.287
-423.544	472.348	0.110	0.248
-422.530	-200.000	0.010	0.186
-421.515	136.994	-0.176	0.229
-420.500	800.000	-0.103	-0.302
-419.486	800.000	-0.029	0.086
-418.471	-85.313	0.336	-0.105
-417.457	-30.824	0.272	0.153
-416.442	-200.000	0.010	0.116
-415.428	-200.000	0.047	0.227
-414.413	-29.545	0.115	0.065
-413.398	-38.654	-0.107	-0.056
-412.384	-2.977	-0.158	-0.110
-411.369	-44.455	0.327	-0.163
-410.355	-31.498	-0.155	-0.087
-409.340	-200.000	-0.005	0.192
-408.325	20.754	0.157	0.127
-407.311	604.989	0.149	-0.370
-406.296	-200.000	0.038	-0.255
-405.282	24.372	-0.104	-0.086
-404.267	-54.068	-0.414	0.188
-403.252	20.435	0.328	-0.264
-402.238	3.751	0.223	0.162
-401.223	-9.558	-0.201	0.133
-400.209	141.766	0.127	0.167
-399.194	-62.962	-0.110	-0.045
-398.179	800.000	-0.051	-0.220
-397.165	-200.000	-0.034	0.277
-396.150	-158.475	-0.473	-0.027
-395.136	55.604	-0.255	0.246
-394.121	-131.891	-0.328	-0.043
-393.106	70.245	0.291	0.299
-392.092	15.362	0.123	0.096
-391.077	-200.000	0.041	0.192
-390.063	32.401	0.121	-0.104
-389.048	506.233	-0.072	-0.167
-388.033	800.000	0.053	0.176
-387.019	-21.201	-0.055	-0.034
-386.004	26.791	-0.249	0.208
-384.990	167.245	-0.148	0.209
-383.975	-90.825	0.126	-0.036
-382.960	-200.000	0.020	0.123
-381.946	-164.731	-0.161	0.007
-380.931	20.068	-0.137	-0.110
-379.917	-28.563	0.140	-0.080
-378.902	-143.739	0.254	-0.024
-377.888	-160.453	0.129	-0.007
-376.873	659.965	0.086	-0.219
-375.858	-6.637	-0.347	0.235
-374.844	800.000	0.073	0.296
-373.829	800.000	-0.096	-0.295
-372.815	-110.542	-0.337	-0.069
-371.800	-118.501	-0.009	-0.002
-370.785	-200.000	0.029	0.256
-369.771	689.693	-0.013	-0.033
-368.756	-40.828	0.065	0.034
-367.742	-0.906	-0.133	0.094
-366.727	-200.000	-0.025	0.137
-365.712	-200.000	-0.009	-0.112
-364.698	81.695	0.146	-0.157
-363.683	-105.593	-0.178	0.040
-362.669	-144.624	-0.236	0.022
-361.654	218.591	0.138	-0.219
-360.639	19.603	-0.020	0.016
-359.625	-200.000	-0.018	0.153
-358.610	-32.755	-0.208	-0.115
-357.596	55.299	0.332	0.320
-356.581	-41.318	-0.347	0.178
-355.566	-97.795	0.259	-0.067
-354.552	-135.178	-0.033	0.004
-353.537	18.252	-0.087	-0.069
-352.523	-12.541	-0.018	-0.012
-351.508	-127.490	0.217	0.031
-350.493	208.768	0.036	-0.056
-349.479	-126.011	-0.135	-0.020
-348.464	-200.000	0.029	-0.168
-347.450	355.741	-0.101	0.201
-346.435	63.791	-0.191	0.190
-345.420	188.627	-0.054	0.080
-344.406	124.152	0.220	0.275
-343.391	-55.285	-0.429	0.191
-342.377	14.276	0.132	-0.102
-341.362	529.979	-0.046	-0.107
-340.348	800.000	-0.011	0.047
-339.333	3.424	0.315	-0.228
-338.318	563.366	-0.170	-0.410
-337.304	-200.000	0.093	0.534
-336.289	87.612	-0.039	0.043
-335.275	800.000	-0.035	0.112
-334.260	-200.000	0.067	0.456
-333.245	62.983	0.290	-0.289
-332.231	10.244	0.283	-0.214
-331.216	-120.581	0.347	-0.058
-330.202	-99.674	0.089	0.022
-329.187	-200.000	0.012	0.311
-328.172	326.698	0.190	0.361
-327.158	24.054	-0.161	-0.132
-326.143	-94.360	0.150	-0.041
-325.129	66.548	-0.297	-0.299
-324.114	-200.000	-0.071	0.397
-323.099	-19.456	0.201	0.124
-322.085	-200.000	0.002	-0.202
-321.070	-1.831	-0.281	0.197
-320.056	-200.000	0.044	-0.330
-319.041	249.889	0.099	0.167
-318.026	-200.000	0.006	-0.126
-317.012	-66.745	-0.365	-0.143
-315.997	229.296	-0.182	-0.296
-314.983	439.602	0.146	-0.316
-313.968	100.672	0.175	-0.201
-312.953	146.667	-0.104	-0.138
-311.939	-70.536	-0.211	-0.079
-310.924	-167.802	0.218	-0.009
-309.910	123.283	0.085	0.106
-308.895	-200.000	0.012	0.189
-307.880	779.900	-0.104	0.282
-306.866	-168.924	-0.281	-0.010
-305.851	-200.000	-0.021	0.104
-304.837	-200.000	0.059	0.332
-303.822	-37.668	-0.336	-0.178
-302.807	-200.000	-0.068	-0.326
-301.793	-25.061	0.142	-0.084
-300.778	73.562	0.124	0.129
-299.764	114.899	-0.179	-0.217
-298.749	-200.000	-0.052	-0.321
-297.735	-79.917	-0.193	0.064
-296.720	-167.611	0.213	-0.008
-295.705	-49.937	-0.138	-0.065
-294.691	428.378	-0.101	-0.217
-293.676	310.355	0.194	-0.360
-292.662	-88.601	-0.226	-0.067
-291.647	-122.645	0.284	-0.046
-290.632	-24.952	0.185	-0.109
-289.618	21.979	0.156	0.126
-288.603	78.253	0.222	0.235
-287.589	-9.986	0.345	-0.228
-286.574	-36.061	0.081	-0.044
-285.559	-91.160	-0.275	-0.078
-284.545	-37.137	0.093	-0.049
-283.530	288.824	-0.097	0.175
-282.516	-62.536	-0.192	0.079
-281.501	159.352	0.151	-0.208
-280.486	12.694	-0.162	-0.124
-279.472	-73.574	0.063	-0.023
-278.457	-0.121	0.215	-0.151
-277.443	28.902	-0.051	-0.043
-276.428	39.422	0.069	-0.061
-275.413	-36.720	0.096	0.051
-274.399	83.532	-0.043	0.046
-273.384	-100.194	0.458	0.113
-272.370	-57.757	0.113	0.049
-271.355	-132.951	0.200	0.025
-270.340	-58.731	0.225	-0.097
-269.326	-34.004	0.158	0.086
-268.311	-75.174	0.088	0.031
-267.297	151.965	0.153	0.207
-266.282	-200.000	0.012	0.101
-265.267	168.475	-0.153	0.215
-264.253	-44.514	-0.177	-0.088
-263.238	-142.040	0.199	0.020
-262.224	800.000	0.028	0.117
-261.209	84.304	-0.325	0.353
-260.195	748.425	0.054	-0.145
-259.180	65.049	-0.111	-0.112
-258.165	-57.435	0.406	-0.177
-257.151	309.188	0.081	-0.150
-256.136	800.000	-0.111	-0.382
-255.122	547.895	-0.056	0.132
-254.107	-200.000	0.018	0.122
-253.092	-57.214	-0.047	-0.020
-252.078	-200.000	-0.210	0.000
-251.063	540.878	-0.233	0.550
-250.049	800.000	0.032	0.141
-249.034	445.825	-0.058	-0.127
-248.019	211.243	0.197	0.307
-247.005	324.975	0.096	-0.182
-245.990	53.106	-0.278	-0.263
-244.976	125.017	-0.110	-0.137
-243.961	-23.759	-0.075	-0.044
-242.946	-200.000	-0.021	0.169
-241.932	389.394	-0.077	-0.158
-240.917	-82.378	0.090	0.029
-239.903	120.348	-0.198	0.244
-238.888	-200.000	-0.009	-0.175
-237.873	174.163	-0.056	-0.080
-236.859	-110.299	-0.375	-0.077
-235.844	98.683	0.115	0.131
-234.830	-200.000	-0.038	0.321
-233.815	-3.059	0.128	-0.089
-232.800	-133.717	0.223	0.027
-231.786	-1.777	-0.142	0.099
-230.771	438.834	-0.098	0.211
-229.757	29.447	-0.065	-0.054
-228.742	-200.000	0.004	-0.029
-227.727	-200.000	-0.064	-0.356
-226.713	697.013	0.076	0.197
-225.698	-43.381	-0.207	-0.103
-224.684	-165.661	0.232	-0.010
-223.669	482.509	0.103	0.231
-222.655	-62.607	0.331	0.136
-221.640	-157.994	0.139	-0.008
-220.625	61.673	0.250	0.247
-219.611	640.261	0.034	0.086
-218.596	-157.975	-0.072	-0.004
-217.582	-105.477	-0.187	-0.042
-216.567	79.038	0.156	0.166
-215.552	235.572	0.205	0.335
-214.538	-200.000	-0.009	-0.119
-213.523	97.036	-0.144	0.163
-212.509	-200.000	-0.024	0.164
-211.494	431.041	0.038	0.082
-210.479	153.799	0.121	-0.164
-209.465	-53.779	0.408	0.184
-208.450	752.306	0.078	-0.209
-207.436	-96.259	0.278	-0.073
-206.421	-1.725	-0.277	0.193
-205.406	608.938	-0.148	0.365
-204.392	800.000	-0.046	-0.125
-203.377	-98.227	-0.042	-0.011
-202.363	-159.727	-0.202	-0.011
-201.348	47.187	0.320	0.295
-200.333	800.000	0.028	0.085
-199.319	-41.466	-0.064	-0.033
-198.304	-38.128	-0.160	0.084
-197.290	-200.000	-0.101	-0.445
-196.275	265.115	0.107	-0.185
-195.260	-41.696	0.351	0.178
-194.246	-200.000	0.015	0.112
-193.231	-37.250	0.189	-0.100
-192.217	-200.000	0.011	0.144
-191.202	47.691	0.187	0.172
-190.187	800.000	-0.095	-0.276
-189.173	-90.746	0.095	-0.027
-188.158	-200.000	0.024	0.241
-187.144	-200.000	-0.003	0.197
-186.129	-200.000	0.039	0.338
-185.114	491.573	0.099	0.225
-184.100	92.195	0.182	-0.203
-183.085	-58.143	0.075	0.032
-182.071	16.123	0.242	-0.188
-181.056	184.845	0.115	0.169
-180.042	371.646	-0.163	0.327
-179.027	-47.222	0.256	-0.123
-178.012	-177.184	-0.259	0.006
-176.998	-66.455	-0.101	0.040
-175.983	-40.440	-0.220	0.113
-174.969	112.967	0.097	-0.116
-173.954	165.897	0.081	-0.113
-172.939	-180.189	0.454	-0.009
-171.925	-116.777	0.460	-0.083
-170.910	654.225	-0.062	0.156
-169.896	800.000	0.014	-0.055
-168.881	-132.367	-0.154	-0.020
-167.866	108.147	0.196	0.231
-166.852	5.585	-0.217	0.158
-165.837	386.386	-0.102	-0.208
-164.823	-15.708	0.402	-0.253
-163.808	52.395	-0.150	0.141
-162.793	797.949	-0.107	0.291
-161.779	-29.204	0.037	-0.021
-160.764	-76.123	0.298	0.104
-159.750	288.117	-0.078	-0.140
-158.735	-133.249	-0.076	-0.009
-157.720	-200.000	-0.005	-0.164
-156.706	-145.918	-0.305	0.027
-155.691	800.000	0.091	-0.250
-154.677	-80.078	0.284	-0.094
-153.662	-200.000	0.013	-0.170
-152.647	800.000	-0.028	0.100
-151.633	-74.122	0.380	-0.136
-150.618	-200.000	-0.023	-0.138
-149.604	800.000	-0.010	0.036
-148.589	-44.565	0.384	0.189
-147.574	-35.191	0.106	0.057
-146.560	-41.408	-0.072	0.036
-145.545	-3.145	-0.379	-0.260
-144.531	-200.000	0.015	-0.158
-143.516	189.796	-0.211	-0.312
-142.502	204.813	-0.117	-0.179
-141.487	-200.000	-0.039	0.249
-140.472	-200.000	0.037	0.211
-139.458	-200.000	-0.030	-0.362
-138.443	-12.314	0.053	0.034
-137.429	666.629	-0.102	0.259
-136.414	97.143	-0.104	-0.118
-135.399	-127.809	0.215	-0.031
-134.385	-200.000	-0.070	0.333
-133.370	-50.198	-0.352	0.164
-132.356	-73.506	0.416	-0.150
-131.341	800.000	-0.051	-0.199
-130.326	800.000	0.141	-0.436
-129.312	-200.000	-0.079	-0.403
-128.297	175.135	-0.135	-0.193
-127.283	-136.407	-0.299	-0.034
-126.268	255.913	0.116	0.195
-125.253	241.517	-0.103	-0.170
-124.239	30.618	-0.203	0.171
-123.224	18.283	-0.222	0.175
-122.210	-146.652	-0.105	0.009
-121.195	800.000	0.112	0.477
