DTS Sentinel unit serial number:	SN413079Multiplexer serial number:	ORYXHardware model number:	OX4-SRSoftware version number:	ORYX F/W v4.00 Oryx Data Collector v3.7.2.0data status	okinstallation	princeton_trtdifferential loss correction	single-endedforward channel	channel 1reverse channel	N/Adate	2019/09/18time	17:22:36forward acquisition time	60.00reverse acquisition time	0.00gamma	496.2192k internal	0.2291k external	0.2291temperature offset calibration	0.9996default loss term (dB/km)	0.3790temperature slope calibration	1.0000multiplexer offset coefficient	1.0000multiplexer slope coefficient	1.0000fibre end	0.00T internal ref (°C)	39.94T ext. ref 1 (°C)	0.90T ext. ref 2 (°C)	36.78length (m)	temperature (°C)	Stokes	anti-Stokes-747.200	-200.000	-0.024	0.156
-746.185	-200.000	0.009	0.079
-745.171	-16.318	0.301	-0.196
-744.156	103.769	0.132	0.159
-743.142	397.103	0.147	-0.315
-742.127	-2.473	-0.112	-0.080
-741.112	12.847	0.048	0.038
-740.098	800.000	0.049	0.220
-739.083	-50.824	0.127	0.061
-738.069	-142.288	-0.374	-0.038
-737.054	-200.000	0.018	-0.186
-736.039	-132.929	0.442	-0.058
-735.025	-200.000	-0.053	-0.360
-734.010	-25.250	-0.038	0.023
-732.996	-200.000	-0.033	-0.252
-731.981	-70.831	-0.219	0.084
-730.966	244.104	0.063	0.108
-729.952	619.206	0.084	-0.216
-728.937	390.559	0.130	-0.276
-727.923	-44.652	-0.547	0.280
-726.908	342.844	-0.157	-0.314
-725.894	-108.606	-0.085	-0.019
-724.879	800.000	0.044	0.135
-723.864	-86.808	-0.236	-0.074
-722.850	-85.688	0.176	-0.056
-721.835	14.375	0.039	-0.031
-720.821	52.514	0.044	-0.043
-719.806	-51.387	-0.172	0.082
-718.791	23.715	0.150	-0.126
-717.777	-150.486	-0.161	0.013
-716.762	112.214	-0.349	-0.432
-715.748	144.968	0.091	0.125
-714.733	116.758	-0.065	-0.081
-713.718	357.236	0.172	0.350
-712.704	79.212	0.244	0.268
-711.689	-41.943	-0.215	-0.113
-710.675	-161.202	0.058	-0.003
-709.660	31.320	0.058	-0.051
-708.645	200.571	0.164	-0.258
-707.631	800.000	-0.025	0.104
-706.616	-56.740	0.169	-0.076
-705.602	-106.462	0.161	0.037
-704.587	-28.221	0.443	-0.261
-703.572	-36.657	0.047	-0.026
-702.558	-133.507	0.175	0.022
-701.543	192.050	0.138	-0.213
-700.529	800.000	0.076	-0.315
-699.514	-68.915	0.147	-0.058
-698.499	494.523	0.095	-0.224
-697.485	-126.323	0.354	-0.054
-696.470	-200.000	-0.036	-0.243
-695.456	-58.624	0.189	-0.084
-694.441	-43.745	-0.331	0.171
-693.426	-79.978	0.347	0.119
-692.412	-123.484	-0.431	-0.070
-691.397	276.796	-0.124	0.226
-690.383	800.000	0.057	0.205
-689.368	54.353	-0.084	0.083
-688.354	257.440	0.047	-0.082
-687.339	-89.579	-0.180	0.054
-686.324	-200.000	0.010	-0.365
-685.310	-9.015	-0.193	-0.132
-684.295	-174.275	-0.254	-0.008
-683.281	-94.218	-0.161	0.045
-682.266	800.000	-0.044	0.147
-681.251	448.011	-0.094	0.210
-680.237	-159.686	-0.160	-0.009
-679.222	-181.337	-0.029	0.001
-678.208	51.900	-0.119	0.115
-677.193	-139.376	-0.163	-0.018
-676.178	154.055	-0.236	-0.331
-675.164	273.442	-0.172	-0.310
-674.149	800.000	-0.081	0.306
-673.135	800.000	0.047	-0.181
-672.120	551.771	0.021	0.052
-671.105	-126.659	0.409	-0.062
-670.091	89.099	-0.171	0.195
-669.076	-200.000	-0.032	0.246
-668.062	-125.469	-0.410	0.064
-667.047	-62.917	-0.360	-0.152
-666.032	13.328	-0.432	-0.342
-665.018	-140.932	0.185	0.019
-664.003	800.000	-0.070	0.295
-662.989	800.000	0.032	-0.137
-661.974	-154.278	-0.422	0.029
-660.959	-106.998	0.330	-0.075
-659.945	119.895	-0.267	-0.338
-658.930	77.427	0.229	-0.248
-657.916	800.000	-0.094	-0.321
-656.901	17.290	0.192	0.156
-655.886	-37.401	-0.182	0.099
-654.872	-4.997	0.347	-0.244
-653.857	-181.796	-0.437	-0.009
-652.843	45.871	-0.337	-0.318
-651.828	203.630	0.136	-0.215
-650.814	412.320	0.104	-0.225
-649.799	-83.090	-0.085	0.028
-648.784	-73.095	-0.287	0.107
-647.770	-56.033	-0.358	0.163
-646.755	-38.749	0.257	-0.139
-645.741	64.887	-0.135	-0.140
-644.726	211.235	-0.019	-0.031
-643.711	-200.000	-0.003	-0.403
-642.697	-52.753	0.011	0.005
-641.682	800.000	-0.088	0.269
-640.668	74.819	0.107	0.114
-639.653	675.867	0.053	-0.141
-638.638	-200.000	-0.061	-0.337
-637.624	800.000	-0.081	0.350
-636.609	-200.000	-0.010	0.099
-635.595	696.679	-0.034	-0.090
-634.580	-3.245	0.109	0.077
-633.565	193.404	-0.059	-0.092
-632.551	426.399	-0.177	-0.390
-631.536	800.000	0.026	0.085
-630.522	-29.323	-0.109	-0.064
-629.507	-200.000	-0.019	-0.230
-628.492	548.862	-0.076	0.185
-627.478	-130.889	-0.366	0.050
-626.463	538.838	0.072	-0.175
-625.449	325.615	0.069	-0.135
-624.434	14.517	-0.079	0.062
-623.419	-200.000	-0.008	0.322
-622.405	116.617	0.122	0.153
-621.390	249.741	-0.036	-0.063
-620.376	663.472	0.083	0.218
-619.361	-121.732	-0.323	0.054
-618.346	104.773	0.210	0.253
-617.332	164.390	0.150	-0.216
-616.317	-141.639	0.346	-0.036
-615.303	-105.829	-0.427	-0.098
-614.288	364.416	0.099	-0.202
-613.273	-13.195	-0.210	0.139
-612.259	167.996	-0.079	0.115
-611.244	61.496	0.280	0.284
-610.230	-200.000	-0.010	0.060
-609.215	800.000	-0.023	-0.099
-608.201	-200.000	-0.048	0.242
-607.186	82.405	-0.271	-0.299
-606.171	-34.284	-0.263	0.147
-605.157	800.000	0.054	-0.154
-604.142	21.396	0.051	-0.042
-603.128	-200.000	-0.023	0.142
-602.113	800.000	-0.064	-0.285
-601.098	-91.332	-0.268	0.078
-600.084	800.000	0.057	0.209
-599.069	-200.000	0.002	0.081
-598.055	-90.684	-0.313	0.092
-597.040	-200.000	-0.060	-0.322
-596.025	-200.000	0.004	-0.091
-595.011	-44.493	-0.087	-0.044
-593.996	-149.230	0.097	-0.008
-592.982	99.375	0.151	-0.178
-591.967	71.797	-0.199	-0.211
-590.952	584.521	-0.093	-0.233
-589.938	68.517	-0.181	-0.189
-588.923	-200.000	0.007	0.380
-587.909	199.943	0.095	0.148
-586.894	-75.534	0.084	-0.030
-585.879	-200.000	-0.003	0.120
-584.865	187.370	-0.080	0.121
-583.850	-67.712	0.112	-0.045
-582.836	-200.000	0.020	-0.337
-581.821	-200.000	-0.210	0.000
-580.806	161.400	-0.132	-0.188
-579.792	-200.000	-0.002	-0.118
-578.777	169.602	0.080	-0.116
-577.763	229.241	-0.101	-0.168
-576.748	-200.000	-0.031	-0.150
-575.733	723.590	-0.080	0.217
-574.719	-200.000	-0.027	0.164
-573.704	27.287	-0.209	-0.179
-572.690	-200.000	0.013	-0.133
-571.675	-175.066	0.378	-0.011
-570.661	-113.576	-0.143	0.028
-569.646	307.831	-0.116	-0.221
-568.631	114.920	0.126	0.156
-567.617	-101.781	0.223	-0.055
-566.602	800.000	0.113	0.371
-565.588	-15.259	0.289	0.188
-564.573	-200.000	0.009	0.184
-563.558	93.141	-0.157	-0.181
-562.544	30.956	-0.123	-0.107
-561.529	-23.972	0.256	-0.155
-560.515	125.025	-0.237	-0.303
-559.500	800.000	-0.007	-0.023
-558.485	-200.000	-0.014	-0.140
-557.471	-47.249	-0.381	-0.189
-556.456	69.857	0.055	0.058
-555.442	-4.790	0.154	0.108
-554.427	85.207	0.338	0.377
-553.412	-16.228	0.174	0.112
-552.398	-79.996	-0.333	0.114
-551.383	-116.987	-0.054	-0.010
-550.369	218.009	-0.132	0.215
-549.354	-200.000	0.021	0.171
-548.339	-125.356	0.160	0.025
-547.325	800.000	0.143	-0.416
-546.310	16.863	0.102	-0.082
-545.296	33.083	0.117	0.103
-544.281	-29.935	-0.235	-0.136
-543.266	-200.000	0.014	-0.520
-542.252	-91.960	0.055	-0.016
-541.237	-200.000	0.027	0.307
-540.223	-200.000	-0.107	0.000
-539.208	-200.000	-0.011	0.160
-538.193	318.716	0.071	-0.138
-537.179	148.046	-0.230	-0.314
-536.164	281.383	0.077	0.139
-535.150	157.604	-0.188	0.264
-534.135	-71.525	0.259	-0.099
-533.121	800.000	0.028	-0.109
-532.106	800.000	-0.153	-0.499
-531.091	-200.000	-0.005	-0.107
-530.077	138.000	0.341	-0.454
-529.062	-200.000	-0.002	-0.034
-528.048	-200.000	-0.003	-0.158
-527.033	-94.154	0.317	-0.088
-526.018	-200.000	-0.022	-0.130
-525.004	-23.453	0.080	0.049
-523.989	215.266	0.161	0.260
-522.975	800.000	0.019	0.064
-521.960	800.000	0.051	0.215
-520.945	566.789	0.140	-0.346
-519.931	53.842	-0.072	0.071
-518.916	269.700	0.100	-0.178
-517.902	-59.529	-0.109	-0.047
-516.887	609.863	0.158	0.399
-515.872	-200.000	-0.001	0.138
-514.858	-16.041	0.220	0.142
-513.843	-110.125	0.213	0.045
-512.829	77.954	0.080	-0.086
-511.814	462.836	-0.053	-0.120
-510.799	-181.345	-0.244	0.005
-509.785	12.961	0.090	0.070
-508.770	-33.449	0.127	0.071
-507.756	-31.885	0.089	-0.050
-506.741	-200.000	0.030	0.344
-505.726	129.257	0.213	-0.276
-504.712	-87.001	-0.132	-0.041
-503.697	-91.174	-0.236	-0.069
-502.683	444.232	-0.092	-0.206
-501.668	-157.951	0.184	0.011
-500.653	-40.403	0.161	0.085
-499.639	-81.261	-0.227	-0.076
-498.624	-200.000	-0.048	-0.244
-497.610	56.496	-0.034	0.033
-496.595	800.000	0.134	-0.399
-495.581	64.682	-0.136	0.139
-494.566	69.516	-0.124	0.130
-493.551	-31.284	-0.234	-0.134
-492.537	-189.666	0.180	-0.002
-491.522	-84.627	0.224	0.071
-490.508	-139.193	-0.273	0.030
-489.493	-99.426	0.279	0.071
-488.478	-92.490	0.059	-0.017
-487.464	-42.703	0.086	0.044
-486.449	249.119	0.132	-0.227
-485.435	24.288	-0.058	0.048
-484.420	-200.000	0.041	0.228
-483.405	33.296	-0.334	0.294
-482.391	472.269	-0.058	-0.133
-481.376	-124.009	-0.018	0.003
-480.362	11.761	-0.110	0.086
-479.347	180.916	0.058	0.086
-478.332	312.321	-0.094	0.180
-477.318	-200.000	-0.013	-0.210
-476.303	-121.927	0.248	-0.041
-475.289	-152.588	-0.103	0.007
-474.274	675.054	-0.195	0.513
-473.259	339.086	0.106	0.209
-472.245	800.000	0.131	0.422
-471.230	45.795	-0.146	0.137
-470.216	-105.922	-0.081	-0.019
-469.201	-103.280	-0.106	0.025
-468.186	-200.000	0.046	-0.240
-467.172	544.186	0.053	0.127
-466.157	218.083	0.193	0.311
-465.143	-194.435	-0.135	0.001
-464.128	722.791	0.057	-0.153
-463.113	165.444	-0.076	-0.109
-462.099	-25.264	0.092	0.055
-461.084	156.071	0.195	-0.273
-460.070	111.475	-0.403	0.492
-459.055	-79.906	0.336	-0.114
-458.040	800.000	0.042	-0.152
-457.026	-200.000	0.017	-0.249
-456.011	26.322	-0.145	0.122
-454.997	-200.000	-0.010	0.196
-453.982	32.823	0.166	0.145
-452.968	-200.000	-0.064	0.324
-451.953	74.982	0.146	-0.155
-450.938	-111.252	0.059	-0.012
-449.924	-126.478	0.257	-0.039
-448.909	-20.851	0.319	0.198
-447.895	95.263	0.140	-0.161
-446.880	123.764	-0.225	-0.285
-445.865	-200.000	0.039	-0.224
-444.851	-86.724	0.131	-0.040
-443.836	-95.260	0.202	0.055
-442.822	-200.000	-0.001	0.239
-441.807	702.509	0.113	-0.302
-440.792	-165.238	0.244	0.011
-439.778	800.000	-0.022	0.072
-438.763	-96.596	-0.173	0.046
-437.749	12.119	0.151	-0.118
-436.734	-147.460	-0.215	-0.018
-435.719	-31.675	-0.106	-0.060
-434.705	-200.000	-0.019	0.256
-433.690	39.043	-0.123	0.111
-432.676	163.454	-0.043	0.061
-431.661	-60.684	0.205	-0.088
-430.646	-200.000	0.036	-0.197
-429.632	-82.274	-0.259	0.085
-428.617	-97.133	0.106	0.028
-427.603	-116.961	-0.302	-0.056
-426.588	-98.506	-0.143	-0.037
-425.573	-63.611	-0.009	0.004
-424.559	253.131	0.118	0.204
-423.544	-67.962	-0.102	0.040
-422.530	800.000	-0.067	-0.221
-421.515	-200.000	-0.026	-0.156
-420.500	339.219	0.121	-0.239
-419.486	-133.360	-0.286	0.036
-418.471	800.000	-0.039	0.137
-417.457	62.341	-0.099	-0.099
-416.442	33.972	0.130	-0.115
-415.428	314.183	0.139	0.265
-414.413	-186.528	0.161	-0.002
-413.398	-200.000	0.003	0.039
-412.384	-6.219	-0.196	-0.135
-411.369	800.000	-0.149	0.436
-410.355	800.000	0.086	0.372
-409.340	252.115	0.051	0.087
-408.325	-12.698	-0.101	0.066
-407.311	7.713	-0.048	0.037
-406.296	-200.000	-0.032	0.159
-405.282	800.000	0.043	0.172
-404.267	19.341	0.236	-0.191
-403.252	30.770	0.290	0.250
-402.238	-155.098	0.156	-0.010
-401.223	-200.000	0.106	-0.535
-400.209	239.878	-0.171	-0.288
-399.194	-43.295	-0.169	-0.087
-398.179	-200.000	0.003	-0.153
-397.165	652.772	-0.123	-0.318
-396.150	9.388	0.091	0.069
-395.136	-70.411	0.263	0.101
-394.121	-18.543	-0.086	0.054
-393.106	533.928	0.161	0.384
-392.092	161.743	0.079	-0.111
-391.077	142.434	-0.211	0.283
-390.063	285.899	0.165	0.301
-389.048	80.241	0.099	0.108
-388.033	-68.079	-0.376	-0.148
-387.019	-112.193	-0.091	0.019
-386.004	-81.802	0.146	0.048
-384.990	-102.999	-0.055	-0.013
-383.975	-144.824	-0.159	0.015
-382.960	-200.000	0.015	-0.234
-381.946	-200.000	-0.002	-0.128
-380.931	60.740	-0.033	-0.033
-379.917	-102.248	0.436	-0.106
-378.902	37.779	-0.103	-0.093
-377.888	261.825	-0.101	-0.178
-376.873	-200.000	-0.034	-0.352
-375.858	67.298	-0.006	-0.006
-374.844	-73.346	-0.084	-0.031
-373.829	135.797	-0.160	-0.211
-372.815	-200.000	-0.022	-0.263
-371.800	800.000	0.075	-0.237
-370.785	210.607	-0.119	-0.188
-369.771	176.733	0.123	-0.181
-368.756	170.939	-0.102	-0.147
-367.742	-63.814	-0.284	-0.117
-366.727	-39.761	-0.085	-0.045
-365.712	-49.083	0.091	-0.044
-364.698	-31.277	0.150	0.085
-363.683	-123.895	-0.203	0.032
-362.669	-60.386	-0.174	0.075
-361.654	-114.221	-0.148	-0.029
-360.639	81.392	0.169	-0.185
-359.625	-158.756	0.196	0.011
-358.610	-130.050	0.389	0.054
-357.596	-174.054	0.154	-0.005
-356.581	16.162	-0.069	-0.055
-355.566	-12.983	0.201	0.132
-354.552	-200.000	0.010	0.051
-353.537	56.902	0.143	-0.141
-352.523	-200.000	0.036	-0.298
-351.508	-30.639	-0.200	0.114
-350.493	-99.456	0.063	-0.016
-349.479	-116.464	0.260	-0.048
-348.464	-64.881	0.192	-0.078
-347.450	-200.000	0.054	0.358
-346.435	-15.675	-0.147	-0.095
-345.420	-200.000	0.057	-0.396
-344.406	-13.761	-0.280	-0.183
-343.391	167.411	-0.170	0.244
-342.377	-200.000	-0.006	-0.179
-341.362	30.301	0.231	0.198
-340.348	800.000	0.023	-0.082
-339.333	142.870	0.153	-0.206
-338.318	-200.000	0.003	0.046
-337.304	-29.967	-0.099	-0.057
-336.289	68.139	-0.132	-0.136
-335.275	21.548	0.072	0.059
-334.260	-173.497	-0.224	0.007
-333.245	-200.000	-0.066	-0.415
-332.231	2.002	0.130	-0.095
-331.216	-200.000	-0.004	-0.195
-330.202	-62.767	0.073	-0.030
-329.187	-65.138	-0.086	-0.035
-328.172	-69.223	0.334	0.129
-327.158	-200.000	-0.019	-0.188
-326.143	398.138	-0.137	0.288
-325.129	102.073	-0.151	0.177
-324.114	261.690	0.037	0.064
-323.099	-64.346	0.324	0.133
-322.085	800.000	-0.067	-0.263
-321.070	-48.261	0.033	-0.016
-320.056	338.533	0.216	0.423
-319.041	626.362	-0.120	0.305
-318.026	800.000	-0.060	0.220
-317.012	800.000	0.060	-0.210
-315.997	226.710	0.059	0.096
-314.983	390.536	0.151	-0.316
-313.968	-130.916	0.164	0.022
-312.953	469.223	0.074	-0.168
-311.939	-200.000	0.018	-0.221
-310.924	334.812	0.187	0.364
-309.910	-200.000	-0.014	0.112
-308.895	-200.000	-0.010	0.050
-307.880	214.086	-0.106	-0.168
-306.866	249.988	0.141	0.241
-305.851	21.835	-0.181	-0.148
-304.837	-81.041	0.185	-0.062
-303.822	10.358	0.157	-0.121
-302.807	-144.025	0.186	0.018
-301.793	-59.333	0.142	-0.061
-300.778	-200.000	0.014	0.211
-299.764	-200.000	-0.047	0.212
-298.749	373.715	0.181	-0.370
-297.735	-200.000	0.042	0.253
-296.720	386.405	0.129	0.268
-295.705	800.000	0.030	-0.114
-294.691	-128.955	0.227	-0.032
-293.676	-200.000	-0.004	0.088
-292.662	95.442	-0.140	0.161
-291.647	-63.106	-0.167	0.069
-290.632	191.674	-0.144	0.218
-289.618	-105.003	-0.183	-0.042
-288.603	744.842	0.049	0.133
-287.589	3.218	-0.095	-0.069
-286.574	-7.603	-0.066	-0.045
-285.559	-78.506	0.119	-0.041
-284.545	74.036	0.145	0.153
-283.530	721.372	-0.118	0.316
-282.516	7.868	0.151	-0.114
-281.501	81.899	-0.124	-0.135
-280.486	-142.267	-0.228	0.023
-279.472	-200.000	0.028	0.465
-278.457	800.000	-0.108	0.387
-277.443	-179.065	0.026	0.001
-276.428	-121.682	-0.228	0.038
-275.413	778.417	0.037	-0.100
-274.399	-60.575	0.427	-0.182
-273.384	800.000	0.143	0.460
-272.370	-165.856	0.091	0.004
-271.355	-10.834	-0.170	0.113
-270.340	482.977	0.109	0.248
-269.326	-170.707	0.159	-0.006
-268.311	-40.712	-0.274	-0.143
-267.297	-22.394	0.162	0.098
-266.282	-200.000	0.001	-0.116
-265.267	310.775	-0.164	0.309
-264.253	-200.000	0.004	0.182
-263.238	222.600	-0.061	0.099
-262.224	-55.731	0.066	0.029
-261.209	800.000	0.025	0.082
-260.195	-105.493	0.077	-0.017
-259.180	-195.596	0.083	-0.001
-258.165	-37.117	0.337	-0.181
-257.151	196.945	0.104	0.159
-256.136	-200.000	0.001	-0.042
-255.122	203.786	0.193	-0.300
-254.107	-200.000	0.028	-0.154
-253.092	-64.946	0.117	-0.047
-252.078	626.554	-0.105	-0.266
-251.063	235.577	-0.082	0.135
-250.049	-145.364	0.399	-0.036
-249.034	-164.940	-0.328	-0.015
-248.019	800.000	-0.029	-0.127
-247.005	-105.288	-0.252	-0.058
-245.990	-117.031	-0.141	-0.026
-244.976	190.295	-0.082	0.123
-243.961	-137.951	0.196	-0.022
-242.946	-111.739	-0.039	0.008
-241.932	800.000	-0.073	-0.231
-240.917	-9.804	-0.127	-0.085
-239.903	-200.000	0.049	0.268
-238.888	-22.754	0.144	-0.087
-237.873	800.000	-0.062	-0.220
-236.859	195.255	0.080	0.122
-235.844	-77.065	0.096	0.034
-234.830	215.176	0.226	-0.360
-233.815	-58.177	-0.058	-0.025
-232.800	-45.616	-0.151	-0.075
-231.786	367.906	0.066	0.134
-230.771	32.197	0.009	-0.008
-229.757	-181.785	0.213	-0.004
-228.742	126.473	0.048	0.061
-227.727	-117.468	0.256	-0.046
-226.713	462.588	-0.092	0.205
-225.698	-49.034	-0.154	0.074
-224.684	800.000	-0.083	-0.261
-223.669	-200.000	0.020	-0.115
-222.655	565.486	-0.049	-0.120
-221.640	-79.293	-0.178	0.060
-220.625	-101.752	0.035	0.008
-219.611	-200.000	0.047	0.212
-218.596	-54.518	-0.246	-0.112
-217.582	3.715	0.075	0.055
-216.567	-200.000	0.050	-0.304
-215.552	103.555	-0.092	-0.109
-214.538	-51.145	-0.321	0.151
-213.523	-200.000	-0.020	-0.282
-212.509	800.000	0.121	0.469
-211.494	130.133	-0.284	0.364
-210.479	-200.000	0.015	0.186
-209.465	-21.279	0.037	-0.023
-208.450	-124.232	0.035	0.005
-207.436	-121.387	0.117	0.020
-206.421	-200.000	0.000	-0.190
-205.406	-93.615	-0.282	-0.078
-204.392	252.461	-0.207	-0.353
-203.377	-200.000	-0.023	-0.160
-202.363	-13.514	-0.146	0.095
-201.348	-200.000	0.020	0.243
-200.333	-86.366	-0.074	0.023
-199.319	-185.481	-0.217	0.003
-198.304	-200.000	-0.029	0.199
-197.290	44.297	0.239	-0.220
-196.275	222.009	-0.113	0.181
-195.260	-160.405	-0.145	-0.008
-194.246	56.282	0.197	-0.192
-193.231	-200.000	0.573	-0.001
-192.217	19.669	0.140	-0.113
-191.202	-200.000	0.011	0.297
-190.187	99.066	-0.150	0.173
-189.173	800.000	-0.101	0.372
-188.158	-200.000	0.022	0.222
-187.144	277.584	-0.056	-0.100
-186.129	360.853	0.087	-0.175
-185.114	586.592	-0.146	0.361
-184.100	-72.601	0.084	0.031
-183.085	598.422	0.063	0.157
-182.071	-23.720	0.236	-0.142
-181.056	-200.000	0.033	0.159
-180.042	-200.000	0.022	-0.167
-179.027	-200.000	-0.004	-0.029
-178.012	800.000	0.086	0.252
-176.998	-71.932	-0.254	-0.095
-175.983	800.000	0.079	-0.221
-174.969	36.971	-0.130	-0.115
-173.954	159.109	0.108	-0.150
-172.939	-104.794	-0.152	-0.035
-171.925	-113.254	-0.112	-0.022
-170.910	-120.456	-0.361	0.061
-169.896	96.102	-0.032	-0.037
-168.881	-200.000	0.002	-0.130
-167.866	774.577	0.079	-0.216
-166.852	219.618	0.088	-0.141
-165.837	-35.166	-0.203	0.111
-164.823	-200.000	-0.013	0.251
-163.808	271.543	-0.220	0.388
-162.793	800.000	0.090	0.372
-161.779	250.383	-0.067	-0.113
-160.764	-116.001	-0.292	0.054
-159.750	185.721	-0.191	0.284
-158.735	-126.830	-0.187	0.028
-157.720	96.891	-0.154	-0.176
-156.706	800.000	-0.067	0.272
-155.691	184.808	0.054	-0.080
-154.677	693.270	0.078	0.205
-153.662	101.429	-0.128	0.149
-152.647	-190.668	-0.148	-0.002
-151.633	-118.762	0.284	0.050
-150.618	219.350	-0.071	-0.113
-149.604	-108.476	0.336	-0.072
-148.589	-42.721	0.419	-0.213
-147.574	137.217	-0.101	-0.132
-146.560	751.325	-0.072	0.195
-145.545	800.000	-0.088	0.250
-144.531	-200.000	-0.043	0.298
-143.516	439.550	-0.101	-0.220
-142.502	336.250	-0.170	-0.330
-141.487	0.255	-0.274	-0.195
-140.472	78.814	0.212	0.227
-139.458	245.214	-0.059	-0.099
-138.443	-200.000	-0.001	-0.245
-137.429	-200.000	0.015	-0.081
-136.414	800.000	0.048	-0.190
-135.399	12.413	0.221	0.170
-134.385	106.540	0.148	0.175
-133.370	800.000	-0.017	-0.046
-132.356	-65.385	-0.178	-0.071
-131.341	-200.000	0.024	-0.162
-130.326	-52.866	0.113	-0.052
-129.312	-37.686	0.148	0.079
-128.297	188.337	-0.077	0.114
-127.283	0.208	0.033	0.023
-126.268	800.000	0.051	0.166
-125.253	271.216	0.090	0.158
-124.239	800.000	0.068	0.218
-123.224	106.669	-0.202	0.240
