DTS Sentinel unit serial number:	SN413079Multiplexer serial number:	ORYXHardware model number:	OX4-SRSoftware version number:	ORYX F/W v4.00 Oryx Data Collector v3.7.2.0data status	okinstallation	princeton_trtdifferential loss correction	single-endedforward channel	channel 1reverse channel	N/Adate	2019/09/16time	19:30:35forward acquisition time	60.00reverse acquisition time	0.00gamma	496.2192k internal	0.2316k external	0.2316temperature offset calibration	0.9952default loss term (dB/km)	0.3790temperature slope calibration	1.0000multiplexer offset coefficient	1.0000multiplexer slope coefficient	1.0000fibre end	0.00T internal ref (°C)	34.47T ext. ref 1 (°C)	0.07T ext. ref 2 (°C)	27.40length (m)	temperature (°C)	Stokes	anti-Stokes-747.200	-160.293	-0.149	-0.008
-746.185	238.722	0.161	0.271
-745.171	-77.766	0.115	0.040
-744.156	-97.144	0.461	0.122
-743.142	-177.573	0.132	-0.003
-742.127	24.759	-0.348	0.292
-741.112	790.409	-0.203	0.564
-740.098	7.039	-0.222	0.168
-739.083	49.192	-0.171	0.163
-738.069	800.000	-0.013	0.053
-737.054	-133.701	-0.197	0.025
-736.039	800.000	0.011	0.033
-735.025	-157.791	0.126	-0.008
-734.010	714.217	-0.125	-0.336
-732.996	8.475	-0.250	-0.190
-731.981	-88.213	0.276	-0.084
-730.966	-55.312	-0.252	-0.115
-729.952	-46.718	-0.120	-0.059
-728.937	-38.929	-0.129	-0.069
-727.923	121.768	-0.157	-0.198
-726.908	186.422	0.040	-0.060
-725.894	-118.393	-0.193	-0.035
-724.879	-110.520	0.118	-0.025
-723.864	118.224	0.250	0.312
-722.850	180.122	0.166	0.246
-721.835	54.972	-0.128	-0.125
-720.821	-27.194	-0.148	0.087
-719.806	578.919	-0.098	-0.242
-718.791	-20.695	-0.533	-0.331
-717.777	113.118	-0.140	-0.172
-716.762	-147.096	-0.144	-0.012
-715.748	-200.000	-0.020	0.313
-714.733	142.718	-0.091	-0.123
-713.718	-168.937	0.241	0.009
-712.704	-200.000	0.026	-0.521
-711.689	-79.982	0.319	0.109
-710.675	-36.392	0.218	0.119
-709.660	168.316	0.130	0.187
-708.645	40.933	0.306	-0.279
-707.631	53.565	0.201	-0.195
-706.616	-67.901	0.246	-0.097
-705.602	-200.000	0.018	0.240
-704.587	-122.579	0.331	-0.054
-703.572	117.877	-0.110	0.137
-702.558	-146.857	0.152	0.013
-701.543	44.026	0.185	0.171
-700.529	-1.438	0.160	0.114
-699.514	-32.618	-0.305	-0.172
-698.499	-63.733	0.285	0.118
-697.485	136.304	0.193	-0.254
-696.470	127.952	0.247	0.318
-695.456	-135.917	0.471	-0.056
-694.441	800.000	-0.119	0.391
-693.426	-83.440	0.173	0.056
-692.412	-24.841	0.217	0.131
-691.397	-200.000	-0.015	-0.165
-690.383	-200.000	-0.021	-0.141
-689.368	90.372	0.170	-0.192
-688.354	-20.431	-0.175	-0.109
-687.339	66.253	0.124	0.128
-686.324	-52.529	-0.245	-0.115
-685.310	800.000	-0.075	-0.209
-684.295	119.016	-0.111	0.138
-683.281	508.659	-0.007	0.016
-682.266	322.237	-0.007	0.013
-681.251	-63.339	-0.380	0.158
-680.237	105.840	0.140	-0.167
-679.222	-125.232	0.064	-0.010
-678.208	95.262	-0.097	0.112
-677.193	113.881	-0.186	-0.228
-676.178	74.005	0.245	0.260
-675.164	154.172	0.110	0.153
-674.149	17.655	0.203	-0.163
-673.135	-200.000	0.004	0.146
-672.120	-68.334	-0.206	-0.081
-671.105	-64.027	0.238	-0.098
-670.091	234.236	0.165	-0.275
-669.076	-10.307	-0.145	-0.097
-668.062	-97.210	0.233	-0.061
-667.047	-64.383	0.246	-0.101
-666.032	-33.826	-0.131	0.073
-665.018	177.293	0.139	0.204
-664.003	-200.000	-0.060	-0.334
-662.989	-101.267	-0.200	0.049
-661.974	-200.000	0.034	-0.212
-660.959	-200.000	-0.002	0.132
-659.945	800.000	-0.062	0.230
-658.930	-49.798	-0.248	-0.119
-657.916	170.737	-0.167	0.241
-656.901	-200.000	-0.007	0.099
-655.886	286.873	0.018	0.033
-654.872	-200.000	-0.007	-0.427
-653.857	622.545	0.052	0.132
-652.843	-95.812	0.085	0.023
-651.828	-110.702	0.433	-0.090
-650.814	-200.000	-0.013	0.152
-649.799	800.000	-0.072	-0.202
-648.784	-200.000	0.060	-0.289
-647.770	-39.164	-0.192	0.102
-646.755	22.722	0.272	0.225
-645.741	150.595	0.142	0.194
-644.726	-142.028	-0.341	0.034
-643.711	149.067	0.057	-0.078
-642.697	-47.324	0.188	-0.092
-641.682	-132.573	-0.206	0.027
-640.668	800.000	0.039	-0.112
-639.653	27.563	-0.202	-0.171
-638.638	800.000	0.073	-0.271
-637.624	72.929	-0.038	-0.040
-636.609	-136.065	0.289	0.034
-635.595	463.611	0.066	-0.150
-634.580	-200.000	-0.027	-0.230
-633.565	-200.000	-0.001	-0.039
-632.551	170.929	-0.151	0.219
-631.536	728.332	-0.025	0.066
-630.522	-150.204	0.237	0.018
-629.507	-138.230	-0.084	0.009
-628.492	800.000	-0.126	-0.388
-627.478	598.028	0.184	-0.459
-626.463	14.919	-0.126	-0.099
-625.449	-132.111	0.141	0.018
-624.434	-48.263	0.253	0.123
-623.419	-30.567	-0.373	0.213
-622.405	58.641	0.148	0.146
-621.390	-1.381	0.228	0.162
-620.376	-191.544	-0.184	-0.002
-619.361	15.757	0.153	-0.121
-618.346	800.000	-0.026	-0.092
-617.332	-63.040	-0.500	0.208
-616.317	199.810	0.189	0.292
-615.303	-106.745	-0.234	0.052
-614.288	-75.838	0.121	0.043
-613.273	146.167	0.346	-0.467
-612.259	-0.229	0.313	0.224
-611.244	800.000	0.049	0.184
-610.230	-200.000	-0.003	-0.210
-609.215	169.338	-0.128	0.185
-608.201	-129.704	0.206	-0.029
-607.186	303.014	-0.097	-0.181
-606.171	-55.469	0.121	-0.054
-605.157	710.605	-0.119	-0.318
-604.142	-200.000	-0.000	-0.047
-603.128	-8.794	0.103	0.070
-602.113	32.898	0.339	-0.295
-601.098	92.436	-0.200	0.227
-600.084	-63.171	0.253	0.105
-599.069	18.536	0.094	0.076
-598.055	161.917	0.232	-0.328
-597.040	-200.000	0.007	-0.164
-596.025	-54.914	-0.199	-0.091
-595.011	152.944	-0.152	0.210
-593.996	-30.853	0.263	0.150
-592.982	-200.000	0.043	0.239
-591.967	12.895	-0.122	-0.095
-590.952	-83.011	0.236	-0.077
-589.938	-200.000	-0.005	0.063
-588.923	-116.181	-0.231	-0.043
-587.909	-36.718	-0.095	0.051
-586.894	240.783	-0.199	0.335
-585.879	800.000	0.091	0.301
-584.865	40.876	0.138	-0.125
-583.850	305.641	-0.057	0.106
-582.836	-200.000	0.030	0.378
-581.821	-144.518	0.042	0.004
-580.806	-36.454	0.159	-0.086
-579.792	68.445	0.113	0.117
-578.777	-4.360	0.202	-0.141
-577.763	-41.187	-0.212	0.110
-576.748	-51.988	-0.351	-0.164
-575.733	134.612	-0.115	0.151
-574.719	-139.389	0.063	-0.007
-573.704	8.164	0.048	-0.037
-572.690	-46.945	-0.324	0.159
-571.675	-81.019	0.273	-0.091
-570.661	-13.222	0.160	0.104
-569.646	561.301	-0.067	0.164
-568.631	119.830	0.141	0.176
-567.617	-125.020	0.073	-0.011
-566.602	-94.184	0.127	0.035
-565.588	-149.542	-0.294	0.023
-564.573	-65.772	0.271	-0.109
-563.558	156.281	-0.099	-0.137
-562.544	-38.749	-0.070	0.037
-561.529	-73.234	0.122	0.045
-560.515	-34.133	0.313	0.173
-559.500	-200.000	0.017	0.129
-558.485	84.072	-0.268	0.294
-557.471	36.983	0.245	0.218
-556.456	13.988	-0.184	-0.144
-555.442	327.581	-0.078	-0.150
-554.427	89.143	0.253	-0.283
-553.412	294.950	-0.120	-0.222
-552.398	220.432	-0.162	-0.260
-551.383	-123.675	0.608	0.097
-550.369	53.195	0.140	0.134
-549.354	-64.351	-0.379	0.155
-548.339	-3.357	-0.298	0.209
-547.325	-137.950	0.228	0.026
-546.310	-73.991	-0.071	0.026
-545.296	-200.000	-0.059	-0.282
-544.281	529.040	0.153	0.363
-543.266	-78.872	-0.031	0.010
-542.252	751.412	-0.054	0.146
-541.237	177.673	-0.232	0.340
-540.223	-1.812	0.047	0.033
-539.208	462.459	-0.017	0.038
-538.193	-42.795	0.193	-0.099
-537.179	796.580	0.173	-0.478
-536.164	73.093	0.089	0.094
-535.150	800.000	0.032	-0.110
-534.135	-38.503	-0.292	0.155
-533.121	-200.000	-0.052	-0.339
-532.106	-44.533	0.133	0.067
-531.091	-129.999	-0.440	0.061
-530.077	5.318	0.119	0.088
-529.062	27.777	0.229	0.194
-528.048	800.000	0.108	0.310
-527.033	274.562	0.103	-0.184
-526.018	419.526	-0.073	0.156
-525.004	-94.006	-0.107	-0.029
-523.989	-71.215	-0.320	-0.121
-522.975	-56.143	-0.167	-0.075
-521.960	-80.153	0.210	-0.071
-520.945	-87.135	-0.191	0.058
-519.931	36.169	-0.346	0.306
-518.916	351.005	-0.046	-0.092
-517.902	-52.821	0.057	-0.027
-516.887	6.150	0.106	0.079
-515.872	-200.000	-0.040	-0.288
-514.858	83.454	0.081	0.088
-513.843	-200.000	0.014	0.153
-512.829	214.976	-0.039	0.063
-511.814	694.659	-0.080	0.211
-510.799	-200.000	0.013	-0.310
-509.785	49.525	0.216	0.204
-508.770	281.298	-0.127	-0.228
-507.756	-200.000	0.002	0.038
-506.741	-19.550	-0.221	-0.137
-505.726	-19.142	0.018	0.011
-504.712	-64.757	0.145	0.059
-503.697	2.569	0.050	0.037
-502.683	-200.000	-0.012	-0.154
-501.668	-200.000	0.034	0.206
-500.653	-98.272	-0.130	-0.033
-499.639	164.349	0.175	0.248
-498.624	157.195	-0.206	-0.286
-497.610	-89.630	-0.297	0.088
-496.595	80.620	0.037	0.040
-495.581	10.765	0.109	0.083
-494.566	114.211	0.196	0.240
-493.551	-200.000	0.022	-0.100
-492.537	-100.471	-0.197	0.049
-491.522	-19.723	0.036	-0.022
-490.508	308.781	-0.156	0.293
-489.493	-43.466	-0.141	-0.072
-488.478	-2.891	0.241	0.169
-487.464	-200.000	0.005	0.031
-486.449	-79.987	0.325	0.109
-485.435	436.799	0.074	-0.161
-484.420	341.911	-0.119	0.233
-483.405	-37.043	-0.085	0.046
-482.391	800.000	0.047	0.189
-481.376	-16.753	-0.266	0.169
-480.362	-49.392	-0.177	-0.085
-479.347	-103.515	0.134	0.032
-478.332	-145.615	-0.244	-0.022
-477.318	73.757	-0.215	-0.226
-476.303	737.280	0.103	-0.276
-475.289	-200.000	0.027	-0.215
-474.274	6.083	-0.169	-0.126
-473.259	-200.000	0.006	-0.045
-472.245	800.000	0.156	0.513
-471.230	157.094	-0.243	-0.337
-470.216	-200.000	-0.050	-0.221
-469.201	14.072	0.109	-0.085
-468.186	119.114	-0.200	-0.248
-467.172	238.887	0.082	-0.137
-466.157	-78.421	-0.199	-0.068
-465.143	59.343	-0.201	-0.199
-464.128	332.571	0.133	0.258
-463.113	146.676	-0.192	0.258
-462.099	-200.000	-0.004	-0.069
-461.084	93.483	0.098	0.111
-460.070	223.499	-0.100	-0.162
-459.055	784.462	0.114	-0.312
-458.040	10.403	-0.117	0.089
-457.026	800.000	0.013	-0.052
-456.011	-69.609	0.216	-0.083
-454.997	566.990	-0.023	-0.056
-453.982	800.000	-0.045	-0.151
-452.968	92.135	-0.091	0.103
-451.953	56.466	-0.304	0.296
-450.938	-135.880	-0.194	-0.023
-449.924	94.892	-0.177	0.202
-448.909	427.852	0.047	-0.102
-447.895	123.808	-0.048	-0.060
-446.880	800.000	-0.104	-0.375
-445.865	-42.968	0.207	0.105
-444.851	-2.682	-0.345	-0.242
-443.836	-112.433	0.271	0.054
-442.822	-59.128	0.295	-0.127
-441.807	-200.000	-0.000	-0.319
-440.792	-152.852	0.128	-0.009
-439.778	36.742	0.114	-0.101
-438.763	-63.573	-0.287	-0.118
-437.749	-68.421	0.153	0.060
-436.734	-77.841	0.345	-0.119
-435.719	-200.000	0.033	0.176
-434.705	-94.396	-0.046	0.013
-433.690	-100.817	0.123	-0.030
-432.676	28.973	-0.017	-0.014
-431.661	-151.569	0.270	0.020
-430.646	130.059	0.065	-0.083
-429.632	-111.469	0.520	-0.106
-428.617	800.000	-0.014	0.040
-427.603	-114.253	-0.241	0.047
-426.588	382.832	-0.022	0.045
-425.573	-78.789	0.244	0.083
-424.559	-200.000	-0.050	-0.234
-423.544	181.664	0.198	0.292
-422.530	-44.970	0.279	-0.139
-421.515	800.000	-0.037	-0.143
-420.500	-41.973	-0.130	-0.067
-419.486	-80.039	0.026	0.009
-418.471	306.387	0.089	-0.165
-417.457	-200.000	0.016	-0.099
-416.442	-158.510	-0.152	-0.009
-415.428	-60.764	0.179	0.076
-414.413	356.880	0.128	0.254
-413.398	-85.991	-0.228	0.071
-412.384	-11.675	0.048	-0.032
-411.369	320.498	-0.105	-0.199
-410.355	-176.917	-0.300	0.008
-409.340	-161.337	0.346	0.018
-408.325	35.706	0.085	0.075
-407.311	-7.191	0.212	0.144
-406.296	471.430	0.079	0.179
-405.282	-24.507	-0.161	-0.096
-404.267	-200.000	-0.007	-0.255
-403.252	355.599	0.157	0.312
-402.238	800.000	-0.013	0.047
-401.223	800.000	-0.078	0.291
-400.209	-54.353	0.247	0.112
-399.194	19.383	-0.118	0.095
-398.179	-200.000	-0.069	0.364
-397.165	800.000	0.011	-0.040
-396.150	-200.000	0.013	0.153
-395.136	-147.636	0.080	0.007
-394.121	-56.281	-0.075	0.033
-393.106	-200.000	-0.015	0.066
-392.092	800.000	0.004	0.018
-391.077	-51.653	0.110	-0.051
-390.063	-34.546	-0.461	0.252
-389.048	54.647	-0.156	0.150
-388.033	79.584	-0.222	0.238
-387.019	79.141	0.132	0.141
-386.004	200.935	0.098	-0.151
-384.990	14.835	0.250	-0.195
-383.975	-125.840	0.438	-0.066
-382.960	-12.294	-0.228	0.149
-381.946	354.957	0.049	-0.097
-380.931	85.030	-0.071	-0.078
-379.917	-5.374	0.214	0.147
-378.902	-27.972	0.155	-0.089
-377.888	5.694	0.220	-0.163
-376.873	256.820	-0.091	0.157
-375.858	170.114	-0.208	-0.297
-374.844	267.769	0.191	-0.333
-373.829	106.704	0.220	-0.260
-372.815	-200.000	0.029	0.195
-371.800	-53.564	-0.175	0.080
-370.785	117.449	-0.084	-0.104
-369.771	-114.506	0.313	-0.060
-368.756	-159.260	-0.158	0.009
-367.742	-200.000	-0.067	-0.413
-366.727	51.653	0.102	0.097
-365.712	800.000	0.054	-0.203
-364.698	324.227	0.079	0.150
-363.683	22.663	-0.257	-0.210
-362.669	800.000	0.078	0.254
-361.654	-150.191	-0.133	-0.010
-360.639	800.000	-0.089	-0.279
-359.625	-83.843	-0.114	-0.036
-358.610	-200.000	-0.028	0.162
-357.596	800.000	0.070	-0.238
-356.581	800.000	-0.054	-0.236
-355.566	291.746	-0.159	0.289
-354.552	-106.878	-0.115	-0.025
-353.537	-158.721	-0.267	-0.015
-352.523	-200.000	0.016	0.085
-351.508	-91.257	0.457	0.130
-350.493	-51.734	-0.329	0.153
-349.479	-72.032	0.113	0.042
-348.464	79.709	-0.125	-0.134
-347.450	178.226	0.076	0.111
-346.435	47.010	-0.268	0.249
-345.420	-11.218	0.209	0.137
-344.406	800.000	0.032	-0.133
-343.391	-90.331	0.304	0.088
-342.377	-9.751	-0.165	0.109
-341.362	192.069	-0.285	-0.429
-340.348	-58.976	0.262	-0.113
-339.333	800.000	-0.076	0.264
-338.318	91.987	-0.181	-0.204
-337.304	-98.938	0.451	-0.114
-336.289	800.000	0.037	0.159
-335.275	-200.000	0.013	0.072
-334.260	-65.686	0.208	0.083
-333.245	-125.009	-0.154	0.024
-332.231	-36.012	-0.017	0.009
-331.216	800.000	0.016	-0.064
-330.202	266.654	0.030	-0.052
-329.187	-103.948	0.095	0.022
-328.172	-75.650	-0.042	0.015
-327.158	-94.604	-0.030	0.008
-326.143	-98.632	-0.131	0.033
-325.129	171.338	0.106	-0.152
-324.114	71.588	-0.159	-0.165
-323.099	6.331	-0.141	-0.104
-322.085	-74.280	0.272	-0.098
-321.070	253.040	-0.205	-0.348
-320.056	239.544	-0.058	-0.096
-319.041	47.130	0.202	0.187
-318.026	-131.301	-0.223	0.029
-317.012	-66.492	0.247	-0.098
-315.997	443.007	-0.086	0.187
-314.983	-10.970	-0.307	0.202
-313.968	-101.378	-0.353	-0.086
-312.953	-200.000	0.014	0.118
-311.939	513.588	-0.105	0.245
-310.924	622.938	0.020	0.051
-309.910	-2.899	-0.124	0.086
-308.895	-59.161	-0.133	-0.057
-307.880	103.091	-0.189	0.221
-306.866	-108.164	-0.142	-0.031
-305.851	282.198	0.100	-0.179
-304.837	-19.699	0.225	0.139
-303.822	71.711	0.078	0.080
-302.807	-127.324	-0.135	0.020
-301.793	-60.996	-0.360	0.151
-300.778	-53.395	0.265	0.121
-299.764	-66.697	-0.063	-0.025
-298.749	-139.942	-0.181	0.019
-297.735	-125.361	0.290	-0.044
-296.720	192.851	0.088	-0.132
-295.705	52.238	0.017	0.016
-294.691	-200.000	0.002	-0.079
-293.676	800.000	-0.036	0.117
-292.662	12.650	0.238	0.183
-291.647	179.508	-0.159	0.231
-290.632	-200.000	0.061	0.374
-289.618	-98.666	0.281	0.071
-288.603	38.143	-0.048	-0.043
-287.589	145.879	0.086	-0.115
-286.574	2.239	0.139	0.100
-285.559	-68.650	0.287	0.111
-284.545	-6.289	0.213	0.145
-283.530	-118.890	0.168	-0.029
-282.516	-200.000	0.065	0.303
-281.501	170.474	-0.034	0.048
-280.486	800.000	-0.074	0.223
-279.472	-200.000	0.021	0.147
-278.457	-18.048	-0.251	-0.157
-277.443	503.567	0.068	0.156
-276.428	-41.562	-0.348	-0.178
-275.413	268.688	-0.075	0.131
-274.399	328.277	-0.169	0.323
-273.384	-195.989	-0.158	0.001
-272.370	-200.000	-0.010	-0.095
-271.355	65.131	0.096	-0.096
-270.340	-155.333	0.262	-0.017
-269.326	-111.983	-0.234	-0.047
-268.311	-76.811	-0.087	0.030
-267.297	28.626	0.093	0.078
-266.282	-142.183	0.155	-0.015
-265.267	-84.493	0.010	0.003
-264.253	40.419	-0.115	-0.103
-263.238	-120.669	0.129	-0.022
-262.224	-150.844	-0.246	0.019
-261.209	800.000	-0.054	0.229
-260.195	328.153	0.092	0.175
-259.180	664.501	-0.169	-0.434
-258.165	-51.997	0.280	0.130
-257.151	30.606	-0.134	0.114
-256.136	-29.335	0.218	0.124
-255.122	-200.000	0.018	-0.131
-254.107	-32.064	0.108	-0.060
-253.092	148.276	-0.045	-0.061
-252.078	148.685	-0.087	0.117
-251.063	227.904	0.081	0.131
-250.049	-4.079	0.200	0.138
-249.034	-27.887	0.115	0.066
-248.019	120.703	-0.098	0.121
-247.005	-161.466	-0.184	0.009
-245.990	-43.807	-0.244	0.122
-244.976	507.080	-0.043	0.100
-243.961	-70.922	0.121	0.045
-242.946	12.311	0.083	-0.064
-241.932	12.408	-0.033	-0.025
-240.917	235.967	0.050	0.083
-239.903	247.033	-0.196	0.329
-238.888	-161.108	0.265	-0.014
-237.873	3.726	-0.162	0.117
-236.859	436.077	0.041	0.089
-235.844	371.131	0.108	0.217
-234.830	174.510	-0.097	0.140
-233.815	233.021	0.090	0.146
-232.800	-80.527	0.247	-0.082
-231.786	60.180	0.121	0.119
-230.771	800.000	-0.015	-0.059
-229.757	-72.324	0.165	0.061
-228.742	316.807	-0.124	-0.232
-227.727	-128.743	-0.250	-0.035
-226.713	-200.000	-0.002	-0.229
-225.698	27.113	-0.040	0.034
-224.684	-200.000	-0.011	0.185
-223.669	-200.000	0.013	-0.138
-222.655	71.822	-0.308	-0.318
-221.640	-176.963	-0.214	0.005
-220.625	-200.000	0.063	0.347
-219.611	102.890	-0.150	0.174
-218.596	140.724	0.169	-0.221
-217.582	800.000	0.078	-0.293
-216.567	416.346	-0.057	0.120
-215.552	800.000	-0.041	-0.148
-214.538	-88.480	-0.339	0.100
-213.523	-99.165	0.128	0.032
-212.509	233.372	-0.028	-0.046
-211.494	-96.160	-0.151	-0.040
-210.479	135.385	-0.323	-0.416
-209.465	336.068	0.112	-0.216
-208.450	156.873	0.187	0.256
-207.436	-10.207	0.180	0.118
-206.421	235.455	-0.117	-0.191
-205.406	-80.500	-0.335	-0.111
-204.392	-200.000	-0.053	0.264
-203.377	171.307	-0.218	-0.311
-202.363	525.536	0.093	-0.217
-201.348	-137.572	-0.299	0.033
-200.333	-91.216	-0.409	0.116
-199.319	-79.096	0.155	-0.052
-198.304	343.174	-0.230	-0.447
-197.290	-200.000	-0.017	-0.203
-196.275	-6.936	0.268	-0.180
-195.260	385.861	0.249	-0.509
-194.246	-200.000	-0.000	0.059
-193.231	123.705	0.148	-0.184
-192.217	138.131	-0.219	-0.285
-191.202	-37.093	0.489	-0.260
-190.187	-8.376	0.066	-0.044
-189.173	-200.000	0.017	0.093
-188.158	-92.296	0.213	0.059
-187.144	699.827	0.099	0.258
-186.129	-108.074	-0.576	-0.124
-185.114	800.000	-0.131	-0.428
-184.100	-100.289	-0.197	-0.048
-183.085	62.197	0.050	-0.050
-182.071	-200.000	-0.027	0.173
-181.056	162.367	-0.144	-0.200
-180.042	-48.684	-0.133	0.063
-179.027	-200.000	0.005	-0.106
-178.012	499.752	0.081	0.185
-176.998	-127.549	-0.375	-0.054
-175.983	-60.813	-0.152	0.064
-174.969	41.586	0.164	0.148
-173.954	-0.843	0.113	-0.079
-172.939	-200.000	-0.013	-0.191
-171.925	800.000	0.029	-0.120
-170.910	657.347	0.115	-0.293
-169.896	800.000	-0.018	0.070
-168.881	-200.000	-0.006	-0.130
-167.866	-73.004	0.129	-0.047
-166.852	-24.756	0.095	0.056
-165.837	154.111	0.189	-0.257
-164.823	442.822	0.195	0.424
-163.808	-200.000	0.013	-0.116
-162.793	-10.705	-0.053	0.035
-161.779	478.729	-0.149	-0.335
-160.764	-45.126	0.250	0.123
-159.750	800.000	0.053	0.190
-158.735	262.124	0.075	0.129
-157.720	30.961	0.044	-0.037
-156.706	191.288	0.009	0.013
-155.691	29.372	-0.063	-0.053
-154.677	-53.759	0.267	-0.120
-153.662	-83.666	-0.142	-0.045
-152.647	171.381	-0.228	-0.324
-151.633	108.973	0.099	0.117
-150.618	0.044	0.098	0.069
-149.604	161.852	0.145	-0.201
-148.589	-14.797	0.149	0.095
-147.574	-34.816	0.253	0.137
-146.560	-127.957	0.113	0.016
-145.545	-200.000	0.009	-0.094
-144.531	44.634	-0.142	-0.129
-143.516	-17.986	0.229	0.142
-142.502	-200.000	0.022	-0.157
-141.487	-134.167	0.322	0.039
-140.472	-24.832	-0.198	0.116
-139.458	-200.000	-0.033	-0.193
-138.443	800.000	0.063	0.269
-137.429	112.253	0.087	0.104
-136.414	-170.943	-0.273	-0.009
-135.399	-25.403	0.273	0.159
-134.385	-74.367	0.151	0.054
-133.370	85.207	-0.156	-0.170
-132.356	-200.000	0.016	0.087
-131.341	-137.097	-0.089	-0.010
-130.326	122.331	-0.179	0.221
-129.312	-200.000	0.039	0.296
-128.297	-32.734	-0.266	-0.146
-127.283	-200.000	-0.013	0.183
-126.268	800.000	0.055	0.186
-125.253	-200.000	0.045	0.239
-124.239	-124.299	-0.100	0.015
-123.224	-200.000	0.037	0.217
-122.210	800.000	0.139	-0.412
-121.195	-168.700	0.383	-0.014
-120.180	485.734	0.095	-0.214
-119.166	183.319	0.092	-0.134
