DTS Sentinel unit serial number:	SN413079Multiplexer serial number:	ORYXHardware model number:	OX4-SRSoftware version number:	ORYX F/W v4.00 Oryx Data Collector v3.7.2.0data status	okinstallation	princeton_trtdifferential loss correction	single-endedforward channel	channel 1reverse channel	N/Adate	2019/09/13time	01:38:35forward acquisition time	60.00reverse acquisition time	0.00gamma	496.2192k internal	0.2330k external	0.2330temperature offset calibration	1.0146default loss term (dB/km)	0.3790temperature slope calibration	1.0000multiplexer offset coefficient	1.0000multiplexer slope coefficient	1.0000fibre end	0.00T internal ref (°C)	27.75T ext. ref 1 (°C)	3.76T ext. ref 2 (°C)	22.40length (m)	temperature (°C)	Stokes	anti-Stokes-747.200	-200.000	0.011	-0.210
-746.185	800.000	-0.088	0.260
-745.171	268.087	0.031	0.055
-744.156	221.846	0.071	0.115
-743.142	149.916	-0.098	0.134
-742.127	800.000	-0.159	0.464
-741.112	280.490	0.078	0.140
-740.098	-118.381	0.299	0.053
-739.083	-200.000	-0.013	0.452
-738.069	-200.000	0.020	-0.268
-737.054	800.000	0.034	0.115
-736.039	143.282	-0.301	0.403
-735.025	79.765	0.203	-0.219
-734.010	88.344	-0.284	-0.317
-732.996	-139.270	-0.386	0.042
-731.981	-1.228	0.125	-0.089
-730.966	-181.789	0.263	-0.005
-729.952	86.416	-0.244	-0.271
-728.937	25.119	0.038	0.032
-727.923	-120.487	-0.552	-0.094
-726.908	147.071	-0.121	-0.164
-725.894	-200.000	-0.106	-0.470
-724.879	-200.000	-0.017	-0.170
-723.864	-138.247	-0.129	-0.014
-722.850	177.777	0.121	0.178
-721.835	179.576	0.121	-0.178
-720.821	-200.000	-0.054	-0.292
-719.806	800.000	0.042	-0.129
-718.791	-57.858	-0.242	0.106
-717.777	4.569	-0.222	-0.164
-716.762	636.803	0.044	-0.113
-715.748	-181.988	-0.129	-0.002
-714.733	800.000	0.058	0.165
-713.718	-76.486	-0.263	-0.093
-712.704	97.612	0.068	-0.079
-711.689	-88.859	-0.182	0.054
-710.675	-200.000	0.001	-0.008
-709.660	179.500	-0.114	-0.168
-708.645	800.000	0.028	-0.109
-707.631	-122.053	0.360	-0.059
-706.616	10.655	-0.136	0.105
-705.602	-19.393	-0.137	-0.086
-704.587	800.000	0.069	-0.243
-703.572	289.034	-0.150	-0.273
-702.558	98.126	0.197	-0.228
-701.543	387.193	0.048	0.099
-700.529	-121.176	-0.344	-0.058
-699.514	-74.502	0.106	0.038
-698.499	-156.363	-0.213	-0.013
-697.485	39.809	-0.334	0.301
-696.470	-17.406	0.119	-0.075
-695.456	-152.090	-0.229	-0.017
-694.441	800.000	-0.056	-0.208
-693.426	-120.520	0.055	-0.009
-692.412	-23.301	-0.135	0.082
-691.397	-200.000	-0.023	-0.257
-690.383	193.687	0.140	-0.214
-689.368	800.000	0.060	0.246
-688.354	-118.910	0.105	0.019
-687.339	682.086	-0.133	-0.348
-686.324	-200.000	0.029	0.287
-685.310	-200.000	-0.006	-0.125
-684.295	-6.728	-0.051	-0.035
-683.281	642.578	-0.049	-0.125
-682.266	271.928	-0.048	-0.085
-681.251	45.128	0.166	0.154
-680.237	800.000	0.076	0.212
-679.222	-144.890	0.117	-0.011
-678.208	306.640	0.081	0.151
-677.193	-200.000	-0.067	0.329
-676.178	800.000	0.058	0.204
-675.164	-31.547	0.158	-0.089
-674.149	-85.704	-0.296	0.092
-673.135	-166.017	0.238	-0.010
-672.120	71.980	0.150	0.157
-671.105	-76.925	0.167	-0.059
-670.091	392.935	0.045	-0.093
-669.076	29.516	0.082	-0.070
-668.062	165.671	0.216	-0.307
-667.047	800.000	-0.077	-0.231
-666.032	800.000	0.017	0.068
-665.018	800.000	0.122	0.348
-664.003	100.170	0.088	0.102
-662.989	163.190	0.053	-0.075
-661.974	800.000	-0.047	0.199
-660.959	-128.051	-0.081	-0.012
-659.945	800.000	-0.044	0.159
-658.930	174.960	-0.220	-0.320
-657.916	800.000	0.078	-0.237
-656.901	800.000	-0.056	0.184
-655.886	-126.884	-0.078	-0.011
-654.872	800.000	-0.062	0.248
-653.857	-25.639	0.017	-0.010
-652.843	35.074	0.256	-0.225
-651.828	467.199	0.022	-0.049
-650.814	440.673	0.071	0.157
-649.799	800.000	0.041	0.147
-648.784	63.862	0.365	0.368
-647.770	32.967	-0.344	-0.299
-646.755	-199.394	-0.214	-0.001
-645.741	-41.791	-0.085	0.043
-644.726	-200.000	-0.023	-0.183
-643.711	247.492	-0.165	-0.279
-642.697	800.000	0.091	-0.291
-641.682	783.059	-0.034	0.094
-640.668	18.669	-0.221	0.178
-639.653	800.000	0.128	0.438
-638.638	199.207	-0.039	0.061
-637.624	-81.045	-0.448	-0.149
-636.609	-14.848	0.202	0.130
-635.595	-125.770	-0.152	-0.023
-634.580	96.267	-0.150	0.172
-633.565	34.191	-0.159	0.139
-632.551	-62.884	0.286	0.119
-631.536	-16.536	0.257	0.163
-630.522	362.049	-0.101	-0.202
-629.507	-30.038	0.228	0.130
-628.492	-116.692	-0.234	0.043
-627.478	-55.382	0.263	0.118
-626.463	-200.000	0.026	-0.159
-625.449	-200.000	0.027	0.248
-624.434	115.130	-0.146	-0.179
-623.419	377.908	0.035	-0.072
-622.405	452.311	-0.160	-0.355
-621.390	-77.182	-0.138	-0.048
-620.376	-200.000	0.000	0.616
-619.361	182.010	-0.096	0.142
-618.346	800.000	-0.027	0.099
-617.332	246.115	0.124	-0.209
-616.317	156.643	0.068	-0.094
-615.303	-200.000	0.048	0.235
-614.288	199.470	-0.202	-0.310
-613.273	223.305	-0.111	-0.179
-612.259	-142.665	0.341	0.033
-611.244	800.000	-0.055	-0.177
-610.230	-21.706	0.156	-0.095
-609.215	8.821	0.142	-0.107
-608.201	-9.146	0.170	0.114
-607.186	421.448	0.070	-0.150
-606.171	325.645	-0.132	0.252
-605.157	252.639	0.078	-0.134
-604.142	-101.147	0.251	-0.062
-603.128	56.455	0.106	0.103
-602.113	24.541	-0.120	0.099
-601.098	596.023	-0.124	0.307
-600.084	151.581	-0.014	0.019
-599.069	621.868	0.097	-0.243
-598.055	13.338	0.114	0.088
-597.040	-147.810	0.108	0.009
-596.025	-47.789	0.132	-0.064
-595.011	53.300	0.090	-0.086
-593.996	413.503	-0.036	0.076
-592.982	-65.134	-0.097	0.039
-591.967	-96.436	0.228	0.060
-590.952	-48.210	-0.090	-0.044
-589.938	-68.675	-0.156	0.061
-588.923	17.511	0.280	-0.223
-587.909	512.429	0.030	0.070
-586.894	241.259	-0.057	0.095
-585.879	-200.000	0.009	-0.085
-584.865	58.744	0.018	0.017
-583.850	-200.000	-0.011	-0.091
-582.836	36.930	0.233	0.206
-581.821	342.435	-0.163	-0.320
-580.806	200.577	-0.091	-0.139
-579.792	-112.318	-0.304	-0.061
-578.777	-200.000	0.030	0.256
-577.763	-37.265	0.197	0.105
-576.748	18.028	0.208	-0.166
-575.733	270.158	0.082	-0.144
-574.719	151.508	-0.067	0.091
-573.704	146.475	-0.121	0.162
-572.690	14.907	0.135	-0.106
-571.675	85.815	0.187	0.206
-570.661	-20.339	-0.246	-0.151
-569.646	800.000	-0.069	0.231
-568.631	-30.213	0.192	0.109
-567.617	-200.000	-0.003	-0.293
-566.602	800.000	0.066	0.222
-565.588	-106.295	-0.374	0.084
-564.573	68.530	0.286	-0.293
-563.558	-160.965	0.131	0.007
-562.544	-67.851	-0.270	-0.105
-561.529	-200.000	-0.000	0.313
-560.515	-200.000	0.026	-0.123
-559.500	14.328	0.065	-0.051
-558.485	-91.200	-0.312	-0.089
-557.471	-89.989	0.020	0.006
-556.456	-200.000	-0.061	0.330
-555.442	21.855	0.037	0.030
-554.427	-200.000	-0.007	0.142
-553.412	-7.421	-0.270	0.183
-552.398	-114.032	-0.181	0.035
-551.383	-200.000	0.028	-0.191
-550.369	-200.000	0.046	-0.218
-549.354	-122.938	0.117	0.019
-548.339	-82.157	0.269	0.088
-547.325	-113.834	-0.298	0.058
-546.310	-69.233	0.113	-0.043
-545.296	-123.650	0.284	0.045
-544.281	62.368	0.166	0.166
-543.266	52.630	0.176	0.168
-542.252	53.427	0.253	0.242
-541.237	257.921	-0.070	0.121
-540.223	43.208	0.218	-0.199
-539.208	-149.708	0.226	-0.018
-538.193	6.302	-0.038	0.028
-537.179	-11.024	0.051	-0.034
-536.164	-17.223	0.097	-0.061
-535.150	-200.000	-0.108	-0.612
-534.135	685.344	0.111	-0.290
-533.121	355.405	0.067	-0.132
-532.106	-200.000	0.005	0.058
-531.091	-14.808	-0.045	-0.029
-530.077	6.903	0.210	-0.156
-529.062	-71.547	0.040	0.015
-528.048	800.000	0.042	0.118
-527.033	-45.141	-0.119	-0.059
-526.018	-200.000	-0.005	-0.094
-525.004	-105.508	-0.119	-0.027
-523.989	-200.000	-0.038	-0.197
-522.975	-79.921	-0.151	0.051
-521.960	91.797	-0.180	0.202
-520.945	288.224	0.095	0.171
-519.931	-99.569	-0.060	0.015
-518.916	-119.309	0.219	-0.038
-517.902	-6.748	0.065	-0.044
-516.887	800.000	-0.104	0.370
-515.872	-182.662	-0.198	-0.004
-514.858	-200.000	-0.024	0.155
-513.843	800.000	0.043	0.143
-512.829	179.225	0.221	0.323
-511.814	-111.191	-0.043	0.009
-510.799	-167.433	-0.325	-0.013
-509.785	11.015	-0.165	0.125
-508.770	182.390	-0.149	-0.220
-507.756	-110.399	-0.296	-0.061
-506.741	-55.406	-0.143	-0.064
-505.726	198.683	-0.041	-0.063
-504.712	-79.457	-0.234	0.079
-503.697	-69.019	-0.109	-0.042
-502.683	6.450	0.326	-0.241
-501.668	-28.921	0.280	0.161
-500.653	-97.250	-0.137	0.036
-499.639	47.100	-0.208	0.193
-498.624	51.339	-0.086	0.081
-497.610	800.000	-0.086	-0.238
-496.595	272.935	-0.064	0.112
-495.581	800.000	-0.063	0.182
-494.566	-56.367	-0.007	-0.003
-493.551	278.960	-0.066	-0.117
-492.537	-63.064	0.390	-0.161
-491.522	-38.259	-0.088	-0.046
-490.508	119.460	-0.126	0.155
-489.493	480.799	0.055	0.124
-488.478	551.703	0.067	-0.159
-487.464	-103.287	0.263	0.062
-486.449	152.956	-0.037	-0.050
-485.435	800.000	-0.048	0.135
-484.420	478.324	0.043	-0.097
-483.405	-15.189	-0.187	-0.119
-482.391	-114.721	0.083	0.016
-481.376	-16.415	-0.240	-0.152
-480.362	800.000	-0.091	0.265
-479.347	800.000	0.080	0.250
-478.332	-200.000	0.007	-0.245
-477.318	-119.846	0.242	-0.041
-476.303	-36.421	-0.137	0.074
-475.289	0.961	-0.193	-0.138
-474.274	-115.978	-0.235	0.044
-473.259	66.788	0.175	-0.178
-472.245	21.477	0.166	-0.134
-471.230	187.684	0.157	0.233
-470.216	-200.000	-0.042	0.671
-469.201	-86.444	0.288	0.088
-468.186	1.103	-0.290	-0.207
-467.172	106.779	0.089	-0.105
-466.157	86.600	-0.091	0.100
-465.143	57.579	-0.046	0.045
-464.128	734.178	-0.109	-0.290
-463.113	373.784	-0.077	0.157
-462.099	46.698	-0.084	0.078
-461.084	114.037	0.114	0.138
-460.070	-110.158	-0.434	0.090
-459.055	433.505	-0.042	0.091
-458.040	-200.000	-0.018	-0.332
-457.026	123.431	0.153	0.191
-456.011	-130.701	-0.301	0.040
-454.997	-68.325	-0.315	0.122
-453.982	-148.183	-0.322	-0.027
-452.968	163.257	-0.177	0.247
-451.953	-200.000	0.006	0.272
-450.938	-75.304	-0.103	-0.037
-449.924	-200.000	-0.032	0.142
-448.909	2.330	-0.117	-0.084
-447.895	-80.031	-0.139	-0.046
-446.880	800.000	-0.019	0.079
-445.865	3.696	0.191	0.139
-444.851	-45.705	-0.190	0.093
-443.836	-77.114	-0.243	0.084
-442.822	2.998	0.117	-0.085
-441.807	93.840	0.086	0.097
-440.792	-0.671	-0.122	-0.086
-439.778	-109.567	0.179	0.037
-438.763	-200.000	-0.003	-0.119
-437.749	-0.040	-0.161	-0.114
-436.734	-60.392	-0.276	0.117
-435.719	-78.115	-0.058	-0.020
-434.705	-102.592	0.150	-0.036
-433.690	347.782	0.111	-0.217
-432.676	800.000	0.055	-0.238
-431.661	-132.211	0.051	-0.007
-430.646	-200.000	-0.055	0.265
-429.632	-200.000	0.016	0.189
-428.617	-0.444	0.079	-0.056
-427.603	-167.372	0.243	0.010
-426.588	-93.949	0.326	-0.089
-425.573	800.000	-0.059	-0.173
-424.559	504.968	-0.073	0.167
-423.544	800.000	0.093	0.378
-422.530	280.586	-0.069	-0.123
-421.515	40.149	-0.108	-0.097
-420.500	-30.376	0.132	0.074
-419.486	136.680	0.251	-0.325
-418.471	-73.678	-0.330	-0.119
-417.457	800.000	0.078	0.252
-416.442	-200.000	0.013	-0.257
-415.428	79.320	0.045	-0.048
-414.413	-7.362	0.174	-0.117
-413.398	-49.651	0.292	0.138
-412.384	464.793	0.074	-0.165
-411.369	-1.772	0.229	0.160
-410.355	319.358	0.114	-0.214
-409.340	-137.014	-0.082	-0.009
-408.325	800.000	0.075	-0.280
-407.311	-119.080	0.193	-0.034
-406.296	-3.654	0.299	0.207
-405.282	26.992	0.153	-0.127
-404.267	117.065	0.034	0.041
-403.252	6.926	0.156	0.116
-402.238	800.000	-0.116	-0.360
-401.223	74.599	0.205	0.214
-400.209	800.000	-0.038	0.143
-399.194	800.000	-0.137	-0.380
-398.179	-200.000	0.049	0.239
-397.165	281.341	0.192	0.342
-396.150	75.161	0.051	0.053
-395.136	107.584	-0.166	-0.196
-394.121	800.000	0.085	-0.257
-393.106	721.605	0.142	-0.375
-392.092	-58.778	0.271	-0.117
-391.077	-59.582	-0.114	0.048
-390.063	316.112	0.089	-0.167
-389.048	349.576	0.084	0.165
-388.033	491.673	0.144	0.329
-387.019	579.411	0.159	-0.387
-386.004	112.138	-0.116	0.140
-384.990	-159.238	-0.267	0.015
-383.975	800.000	-0.065	0.224
-382.960	-79.548	-0.257	-0.086
-381.946	23.105	0.390	0.318
-380.931	38.160	0.132	0.116
-379.917	-42.182	0.170	0.086
-378.902	-133.580	0.105	-0.013
-377.888	-157.670	-0.292	-0.017
-376.873	-200.000	0.065	-0.380
-375.858	-158.266	0.301	-0.017
-374.844	-53.924	0.332	0.150
-373.829	-55.768	-0.207	0.092
-372.815	-92.045	0.160	-0.045
-371.800	800.000	-0.114	0.421
-370.785	-162.162	-0.205	-0.010
-369.771	-173.344	-0.341	-0.010
-368.756	245.735	0.048	-0.080
-367.742	800.000	0.087	0.289
-366.727	-92.730	0.068	0.019
-365.712	220.319	0.112	-0.178
-364.698	-200.000	-0.027	-0.134
-363.683	800.000	0.045	0.155
-362.669	800.000	0.050	-0.192
-361.654	-113.973	0.260	0.050
-360.639	-44.558	0.222	-0.110
-359.625	-63.376	-0.133	0.054
-358.610	-120.278	-0.122	-0.021
-357.596	-72.983	0.229	-0.083
-356.581	-200.000	0.011	-0.218
-355.566	521.609	-0.203	-0.472
-354.552	142.264	0.139	-0.182
-353.537	185.203	-0.125	-0.184
-352.523	-84.084	-0.105	-0.033
-351.508	-200.000	-0.020	0.204
-350.493	-60.068	-0.146	0.062
-349.479	614.503	0.043	0.106
-348.464	536.467	0.010	-0.024
-347.450	30.226	-0.163	-0.138
-346.435	-27.074	-0.332	0.192
-345.420	180.567	-0.113	-0.165
-344.406	-53.705	0.314	-0.142
-343.391	85.517	0.125	-0.136
-342.377	546.074	0.083	0.197
-341.362	-71.154	0.133	0.050
-340.348	800.000	0.016	-0.056
-339.333	230.297	0.072	0.117
-338.318	83.743	-0.140	0.151
-337.304	-200.000	-0.019	0.275
-336.289	378.541	-0.110	-0.223
-335.275	435.303	-0.097	0.210
-334.260	375.715	0.159	0.321
-333.245	800.000	-0.114	-0.337
-332.231	600.436	-0.101	0.248
-331.216	-18.959	0.252	-0.155
-330.202	-200.000	0.042	-0.242
-329.187	-129.622	0.103	-0.014
-328.172	800.000	0.079	-0.301
-327.158	-119.919	-0.145	-0.025
-326.143	19.961	0.044	-0.035
-325.129	272.990	0.051	-0.089
-324.114	-111.401	0.464	-0.094
-323.099	-200.000	0.005	0.073
-322.085	-67.159	-0.191	-0.074
-321.070	316.551	0.066	0.124
-320.056	-114.108	-0.127	0.024
-319.041	58.605	0.064	0.062
-318.026	800.000	0.060	-0.233
-317.012	-200.000	0.013	-0.301
-315.997	-200.000	0.001	0.034
-314.983	-78.457	0.203	0.069
-313.968	90.198	-0.066	-0.073
-312.953	800.000	0.140	-0.437
-311.939	-4.371	-0.106	-0.073
-310.924	800.000	-0.060	-0.259
-309.910	-200.000	-0.047	-0.276
-308.895	-200.000	0.052	-0.238
-307.880	148.768	-0.087	0.116
-306.866	800.000	-0.097	0.313
-305.851	-14.504	-0.158	-0.100
-304.837	75.065	0.205	0.214
-303.822	-200.000	0.008	0.066
-302.807	572.999	0.062	-0.150
-301.793	255.893	0.102	-0.174
-300.778	316.356	-0.085	-0.158
-299.764	473.246	-0.012	-0.026
-298.749	113.154	-0.227	0.273
-297.735	509.544	-0.107	-0.247
-296.720	760.627	0.028	-0.076
-295.705	182.555	0.089	-0.130
-294.691	-168.455	-0.107	-0.004
-293.676	800.000	0.104	-0.428
-292.662	-181.054	-0.104	0.002
-291.647	-3.542	-0.145	0.099
-290.632	-70.466	-0.177	0.066
-289.618	-27.327	-0.097	-0.056
-288.603	160.971	-0.172	0.238
-287.589	-60.054	0.223	-0.094
-286.574	-187.340	-0.165	0.002
-285.559	-78.380	0.272	0.092
-284.545	88.166	0.271	-0.297
-283.530	18.616	0.102	-0.080
-282.516	-59.540	0.245	0.104
-281.501	231.452	-0.126	0.203
-280.486	132.579	-0.168	-0.214
-279.472	-146.366	-0.229	0.020
-278.457	800.000	-0.057	-0.212
-277.443	4.459	0.071	-0.052
-276.428	43.073	-0.365	0.329
-275.413	102.751	0.098	0.114
-274.399	800.000	0.028	-0.094
-273.384	-200.000	-0.019	-0.203
-272.370	27.755	-0.097	-0.081
-271.355	-47.604	-0.360	0.173
-270.340	-137.060	0.069	-0.008
-269.326	-0.812	-0.261	-0.183
-268.311	-22.184	0.141	-0.084
-267.297	-155.945	-0.027	0.002
-266.282	215.762	0.074	0.117
-265.267	10.558	0.066	0.050
-264.253	394.891	0.108	0.221
-263.238	-132.889	0.208	0.026
-262.224	32.710	-0.180	-0.154
-261.209	800.000	0.007	0.025
-260.195	-8.557	0.251	-0.167
-259.180	800.000	0.041	0.163
-258.165	-53.058	0.086	0.039
-257.151	800.000	-0.074	0.297
-256.136	-1.234	-0.163	0.114
-255.122	2.932	0.160	0.115
-254.107	-200.000	0.202	-0.000
-253.092	133.867	-0.138	0.176
-252.078	-105.497	0.388	-0.087
-251.063	96.721	-0.069	0.078
-250.049	-200.000	-0.011	0.089
-249.034	-200.000	-0.066	0.329
-248.019	-154.553	-0.507	-0.033
-247.005	159.046	-0.135	0.186
-245.990	10.417	0.247	0.186
-244.976	800.000	-0.128	-0.360
-243.961	201.035	0.055	0.084
-242.946	557.938	-0.075	-0.178
-241.932	-84.190	-0.155	-0.048
-240.917	-200.000	-0.031	0.505
-239.903	-15.358	0.222	-0.140
-238.888	9.191	-0.263	-0.196
-237.873	-200.000	0.039	-0.209
-236.859	-200.000	-0.026	-0.129
-235.844	-88.898	-0.331	0.097
-234.830	27.992	-0.239	-0.199
-233.815	-23.790	-0.085	-0.050
-232.800	-30.728	-0.289	-0.161
-231.786	260.816	0.122	-0.208
-230.771	-162.780	0.165	-0.008
-229.757	-177.329	-0.294	-0.007
-228.742	-22.727	-0.369	0.220
-227.727	-53.071	0.017	-0.008
-226.713	-61.277	-0.045	-0.019
-225.698	57.050	0.185	-0.178
-224.684	-79.010	-0.258	0.087
-223.669	-136.782	-0.374	0.042
-222.655	-66.750	0.152	-0.059
-221.640	320.535	0.140	-0.263
-220.625	25.592	-0.118	0.096
-219.611	390.670	-0.034	0.069
-218.596	-85.193	0.089	-0.028
-217.582	-24.407	0.081	0.048
-216.567	333.027	0.158	-0.300
-215.552	-28.682	-0.283	-0.160
-214.538	-90.217	0.217	0.062
-213.523	-63.451	-0.377	0.153
-212.509	-173.232	0.195	0.006
-211.494	62.217	-0.247	-0.243
-210.479	-105.350	0.105	0.024
-209.465	271.331	0.112	-0.195
-208.450	-151.862	0.190	-0.014
-207.436	30.463	-0.156	0.131
-206.421	-107.092	-0.140	-0.030
-205.406	15.712	0.147	-0.114
-204.392	-84.390	0.428	0.133
-203.377	131.159	-0.094	0.119
-202.363	-200.000	-0.003	0.194
-201.348	64.218	0.180	-0.179
-200.333	-200.000	-0.018	0.132
-199.319	800.000	-0.127	-0.429
-198.304	-200.000	0.000	0.087
-197.290	-200.000	-0.011	-0.218
-196.275	-200.000	-0.021	-0.092
-195.260	-200.000	0.008	-0.163
-194.246	34.017	0.081	-0.069
-193.231	-200.000	0.010	-0.181
-192.217	800.000	0.031	-0.089
-191.202	-102.440	-0.108	0.025
-190.187	-200.000	-0.002	0.142
-189.173	-143.433	0.373	-0.035
-188.158	385.163	-0.125	0.253
-187.144	800.000	0.019	-0.074
-186.129	800.000	-0.073	0.228
-185.114	800.000	-0.112	0.399
-184.100	7.259	-0.212	0.156
-183.085	114.332	-0.236	0.282
-182.071	-147.696	-0.096	-0.008
-181.056	800.000	-0.026	-0.075
-180.042	106.586	-0.059	-0.069
-179.027	-121.959	0.334	-0.054
-178.012	90.860	0.086	-0.094
-176.998	-200.000	0.010	0.068
-175.983	207.924	-0.056	0.085
-174.969	-200.000	-0.080	-0.422
-173.954	508.477	0.153	-0.349
-172.939	63.369	0.361	0.357
-171.925	40.465	-0.090	-0.080
-170.910	800.000	-0.047	-0.162
-169.896	30.290	0.149	0.126
-168.881	800.000	0.151	0.464
-167.866	753.674	0.125	0.333
-166.852	-39.615	-0.341	0.176
-165.837	-15.269	-0.088	0.055
-164.823	132.702	-0.163	0.207
-163.808	-59.071	0.406	-0.172
-162.793	-200.000	0.059	0.312
-161.779	-141.346	0.230	0.023
-160.764	-122.992	0.106	0.017
-159.750	800.000	0.064	-0.182
-158.735	28.389	-0.277	0.230
-157.720	-96.209	0.236	0.062
-156.706	-200.000	0.002	-0.059
-155.691	-66.707	0.116	0.045
-154.677	60.085	-0.066	0.064
-153.662	800.000	0.005	0.014
-152.647	-76.008	-0.302	0.105
-151.633	-60.385	-0.114	-0.048
-150.618	102.932	-0.168	0.193
-149.604	69.707	-0.068	0.069
-148.589	229.251	0.097	-0.155
-147.574	800.000	-0.082	0.258
-146.560	800.000	-0.029	-0.111
-145.545	800.000	-0.060	0.216
-144.531	-137.040	-0.260	-0.029
-143.516	800.000	-0.034	-0.104
-142.502	180.140	0.075	-0.109
-141.487	-33.658	0.173	0.094
-140.472	800.000	-0.035	-0.126
-139.458	-29.936	-0.321	-0.179
-138.443	217.583	0.114	0.179
-137.429	-71.387	-0.140	-0.051
-136.414	68.526	-0.290	0.292
-135.399	-200.000	-0.026	0.205
-134.385	-122.193	0.094	0.015
-133.370	144.609	0.176	0.231
-132.356	242.801	0.040	0.066
-131.341	-3.308	-0.286	0.196
-130.326	800.000	0.057	-0.192
-129.312	198.514	0.073	-0.110
-128.297	-72.313	-0.292	0.106
-127.283	-200.000	0.045	0.207
-126.268	-95.792	-0.162	0.043
-125.253	335.119	-0.021	-0.041
-124.239	-4.004	0.183	-0.125
-123.224	-200.000	0.025	0.213
-122.210	-167.384	-0.343	-0.014
-121.195	-51.780	-0.139	0.063
-120.180	57.740	-0.019	-0.018
