DTS Sentinel unit serial number:	SN413079Multiplexer serial number:	ORYXHardware model number:	OX4-SRSoftware version number:	ORYX F/W v4.00 Oryx Data Collector v3.7.2.0data status	okinstallation	princeton_trtdifferential loss correction	single-endedforward channel	channel 1reverse channel	N/Adate	2019/09/11time	14:48:11forward acquisition time	60.00reverse acquisition time	0.00gamma	496.2192k internal	0.2292k external	0.2292temperature offset calibration	0.9990default loss term (dB/km)	0.3790temperature slope calibration	1.0000multiplexer offset coefficient	1.0000multiplexer slope coefficient	1.0000fibre end	0.00T internal ref (°C)	42.50T ext. ref 1 (°C)	0.93T ext. ref 2 (°C)	38.44length (m)	temperature (°C)	Stokes	anti-Stokes-747.200	-4.458	-0.146	0.104
-746.185	-200.000	0.036	0.412
-745.171	-114.584	-0.269	-0.053
-744.156	48.878	0.232	0.223
-743.142	425.812	-0.052	0.114
-742.127	47.086	-0.155	0.148
-741.112	-31.183	0.116	0.067
-740.098	-60.726	0.270	-0.117
-739.083	800.000	0.066	-0.202
-738.069	-38.755	-0.312	0.169
-737.054	800.000	0.067	0.213
-736.039	0.423	-0.085	0.062
-735.025	-200.000	-0.082	0.386
-734.010	-96.765	-0.116	-0.031
-732.996	-50.066	-0.348	0.169
-731.981	17.122	0.275	0.223
-730.966	87.493	0.179	-0.202
-729.952	68.123	-0.170	-0.178
-728.937	63.591	-0.173	-0.178
-727.923	397.286	-0.105	-0.224
-726.908	-200.000	-0.006	-0.111
-725.894	-89.267	0.121	0.037
-724.879	8.219	-0.158	-0.121
-723.864	800.000	-0.057	-0.165
-722.850	800.000	0.078	-0.231
-721.835	-38.876	0.071	0.038
-720.821	800.000	-0.025	0.081
-719.806	-20.771	-0.233	-0.146
-718.791	163.216	0.051	-0.073
-717.777	-200.000	-0.008	0.201
-716.762	-122.419	0.487	-0.081
-715.748	-120.933	-0.185	-0.032
-714.733	-68.860	0.177	0.070
-713.718	213.579	-0.138	-0.223
-712.704	-13.504	-0.090	-0.060
-711.689	-42.363	0.202	0.106
-710.675	-200.000	0.010	-0.167
-709.660	-89.608	0.179	0.054
-708.645	-200.000	0.008	0.211
-707.631	-150.671	-0.229	-0.018
-706.616	-59.462	-0.167	-0.073
-705.602	260.378	0.029	0.051
-704.587	69.988	0.175	-0.185
-703.572	87.652	-0.102	0.116
-702.558	455.350	-0.039	0.088
-701.543	84.120	-0.109	-0.121
-700.529	283.034	0.082	-0.151
-699.514	49.571	0.104	0.100
-698.499	-200.000	0.004	-0.068
-697.485	357.541	-0.172	-0.350
-696.470	-200.000	-0.019	-0.247
-695.456	78.975	0.143	-0.157
-694.441	-169.354	-0.219	-0.008
-693.426	800.000	0.052	-0.164
-692.412	-138.197	-0.223	0.025
-691.397	-86.365	-0.331	-0.104
-690.383	800.000	-0.068	0.276
-689.368	-200.000	0.061	-0.390
-688.354	800.000	-0.032	0.095
-687.339	-77.100	0.132	-0.047
-686.324	-21.156	-0.135	-0.084
-685.310	-200.000	0.010	0.092
-684.295	-200.000	0.004	0.048
-683.281	49.026	0.190	0.183
-682.266	30.248	-0.217	0.189
-681.251	-182.849	0.074	-0.001
-680.237	800.000	0.077	0.308
-679.222	613.758	0.061	-0.156
-678.208	-200.000	-0.040	0.199
-677.193	-59.846	0.148	-0.065
-676.178	398.410	-0.133	-0.284
-675.164	-27.557	0.178	-0.106
-674.149	97.881	-0.079	0.093
-673.135	-125.765	0.182	0.028
-672.120	-200.000	-0.005	-0.036
-671.105	800.000	0.043	-0.175
-670.091	229.934	-0.052	0.087
-669.076	-5.156	-0.278	-0.195
-668.062	-130.138	-0.109	0.015
-667.047	800.000	0.088	0.364
-666.032	85.842	0.063	0.071
-665.018	519.328	-0.232	0.555
-664.003	-14.885	0.168	0.110
-662.989	-63.900	-0.374	-0.156
-661.974	-58.766	-0.246	0.109
-660.959	-5.850	-0.106	-0.074
-659.945	631.029	0.043	-0.111
-658.930	148.071	0.089	-0.122
-657.916	38.140	-0.221	-0.201
-656.901	-200.000	-0.001	-0.240
-655.886	-200.000	0.049	-0.256
-654.872	-67.109	0.099	-0.040
-653.857	-97.505	-0.097	-0.026
-652.843	273.354	-0.144	-0.259
-651.828	471.324	0.011	0.026
-650.814	-110.782	0.173	-0.036
-649.799	246.665	-0.086	-0.148
-648.784	225.897	-0.093	0.153
-647.770	139.417	-0.181	-0.243
-646.755	-200.000	0.046	-0.225
-645.741	-139.093	0.346	0.038
-644.726	800.000	0.064	-0.190
-643.711	353.026	0.146	0.295
-642.697	208.060	0.146	-0.233
-641.682	-105.967	-0.280	-0.064
-640.668	-200.000	0.045	0.314
-639.653	-168.928	-0.250	-0.010
-638.638	391.289	-0.129	-0.273
-637.624	-98.988	0.152	-0.039
-636.609	-200.000	-0.022	-0.200
-635.595	-153.815	-0.235	-0.016
-634.580	-30.701	0.178	0.103
-633.565	14.744	0.059	-0.047
-632.551	-62.629	-0.221	0.094
-631.536	-157.299	0.114	0.007
-630.522	64.405	-0.040	0.041
-629.507	-123.718	-0.151	-0.024
-628.492	-16.781	-0.130	-0.084
-627.478	291.815	0.055	0.102
-626.463	388.207	0.021	-0.045
-625.449	230.322	-0.044	-0.074
-624.434	-34.058	0.151	-0.085
-623.419	-200.000	-0.020	-0.195
-622.405	-64.141	0.348	0.144
-621.390	-78.476	0.042	0.015
-620.376	-182.873	0.601	-0.011
-619.361	583.299	-0.016	-0.040
-618.346	800.000	-0.042	0.138
-617.332	102.331	0.124	0.148
-616.317	-9.957	-0.176	0.119
-615.303	155.229	0.269	-0.377
-614.288	800.000	0.041	-0.121
-613.273	-200.000	-0.047	0.320
-612.259	800.000	0.069	0.231
-611.244	557.737	-0.087	0.215
-610.230	526.613	0.122	-0.294
-609.215	310.279	-0.190	0.363
-608.201	21.370	0.164	0.136
-607.186	301.185	0.126	-0.237
-606.171	472.268	-0.107	0.244
-605.157	800.000	0.054	-0.190
-604.142	35.750	-0.017	0.015
-603.128	344.083	0.025	0.049
-602.113	116.475	0.252	-0.315
-601.098	-30.785	-0.129	0.074
-600.084	800.000	0.047	0.134
-599.069	-61.585	0.082	0.035
-598.055	-109.396	0.094	0.020
-597.040	173.895	0.008	0.011
-596.025	-200.000	-0.005	-0.336
-595.011	-200.000	0.011	0.191
-593.996	-156.345	-0.046	0.003
-592.982	70.735	-0.040	-0.043
-591.967	378.958	-0.078	-0.162
-590.952	800.000	-0.026	-0.092
-589.938	-52.210	0.231	0.109
-588.923	-200.000	0.001	0.044
-587.909	-20.150	0.118	-0.074
-586.894	-200.000	0.002	-0.107
-585.879	-15.604	0.037	-0.024
-584.865	-8.255	-0.075	0.051
-583.850	-25.642	0.210	0.126
-582.836	373.825	-0.050	0.103
-581.821	-131.281	0.027	0.004
-580.806	-17.884	0.182	0.116
-579.792	35.160	-0.095	0.085
-578.777	-14.770	0.099	-0.065
-577.763	-27.211	0.122	0.072
-576.748	-159.970	-0.420	0.023
-575.733	-54.293	0.319	-0.147
-574.719	16.531	0.161	0.130
-573.704	-154.349	0.310	-0.021
-572.690	134.962	0.239	-0.316
-571.675	342.881	0.057	-0.113
-570.661	-200.000	-0.004	0.283
-569.646	-20.149	-0.072	-0.045
-568.631	-111.700	-0.243	-0.050
-567.617	103.865	-0.153	0.182
-566.602	800.000	0.091	-0.359
-565.588	261.858	0.061	-0.107
-564.573	-200.000	-0.012	-0.129
-563.558	372.871	0.104	0.214
-562.544	703.364	-0.044	0.118
-561.529	117.324	-0.257	-0.322
-560.515	781.946	0.026	-0.073
-559.500	-200.000	0.014	0.303
-558.485	-28.037	-0.105	-0.062
-557.471	800.000	0.024	-0.101
-556.456	436.965	-0.009	0.021
-555.442	-116.678	-0.030	0.006
-554.427	-140.237	0.237	0.025
-553.412	-5.364	0.041	-0.028
-552.398	-28.243	-0.236	0.139
-551.383	-93.191	0.096	0.027
-550.369	83.861	0.239	0.265
-549.354	83.776	0.074	-0.082
-548.339	800.000	0.069	-0.289
-547.325	73.100	0.186	0.197
-546.310	-200.000	0.002	0.050
-545.296	-200.000	-0.006	0.183
-544.281	-127.897	-0.136	0.020
-543.266	-78.310	-0.086	-0.030
-542.252	522.107	0.077	0.182
-541.237	-120.978	0.116	0.020
-540.223	-153.952	-0.164	0.011
-539.208	296.546	-0.020	-0.037
-538.193	37.434	-0.157	0.142
-537.179	-76.516	-0.340	0.121
-536.164	-30.639	-0.115	0.066
-535.150	-200.000	0.015	-0.197
-534.135	800.000	-0.083	-0.294
-533.121	-102.409	-0.183	0.044
-532.106	-101.558	-0.158	-0.039
-531.091	-5.694	0.117	-0.081
-530.077	-71.674	0.135	0.051
-529.062	-108.969	-0.102	-0.022
-528.048	-83.306	-0.307	0.100
-527.033	297.487	0.204	0.380
-526.018	15.528	-0.083	0.066
-525.004	800.000	0.016	0.050
-523.989	-134.708	0.147	0.018
-522.975	-71.726	-0.201	0.076
-521.960	-61.220	-0.249	0.107
-520.945	-61.843	-0.308	0.131
-519.931	-163.218	0.294	-0.014
-518.916	-166.836	0.362	0.015
-517.902	41.032	0.203	-0.186
-516.887	-70.723	-0.415	-0.159
-515.872	349.700	0.085	0.171
-514.858	-11.405	-0.294	0.196
-513.843	62.859	-0.250	-0.254
-512.829	561.343	0.047	-0.116
-511.814	23.423	-0.216	0.180
-510.799	-33.122	-0.474	0.267
-509.785	90.239	-0.042	0.048
-508.770	-200.000	0.010	0.146
-507.756	167.573	-0.067	-0.097
-506.741	224.413	0.014	0.023
-505.726	183.634	0.028	0.042
-504.712	182.363	0.113	-0.170
-503.697	-176.285	-0.048	-0.001
-502.683	-200.000	-0.012	-0.208
-501.668	52.531	-0.175	0.170
-500.653	223.419	-0.158	-0.259
-499.639	169.636	0.007	-0.010
-498.624	66.919	0.117	-0.121
-497.610	68.884	0.340	-0.354
-496.595	-200.000	-0.024	-0.112
-495.581	-19.125	-0.029	-0.018
-494.566	-118.188	0.236	-0.043
-493.551	-200.000	0.049	0.321
-492.537	70.537	0.119	-0.125
-491.522	800.000	0.038	0.150
-490.508	128.790	0.169	-0.219
-489.493	-200.000	-0.001	0.124
-488.478	-103.807	-0.245	0.058
-487.464	800.000	0.039	0.138
-486.449	373.921	-0.009	-0.018
-485.435	57.902	0.245	-0.243
-484.420	53.578	-0.078	-0.076
-483.405	-62.694	0.314	0.132
-482.391	327.658	0.095	0.184
-481.376	-200.000	-0.001	-0.063
-480.362	267.761	-0.165	-0.294
-479.347	-200.000	-0.033	-0.528
-478.332	-27.874	-0.084	0.050
-477.318	-200.000	0.048	0.279
-476.303	699.211	-0.099	0.263
-475.289	725.055	-0.122	0.330
-474.274	370.490	0.143	0.294
-473.259	-110.249	0.007	-0.002
-472.245	-16.118	0.225	0.145
-471.230	-56.630	-0.048	0.021
-470.216	-29.202	0.169	-0.098
-469.201	219.638	0.057	-0.092
-468.186	98.277	0.095	-0.111
-467.172	800.000	-0.088	0.282
-466.157	-27.991	-0.042	-0.024
-465.143	234.386	0.075	-0.125
-464.128	-96.487	-0.093	0.025
-463.113	57.758	0.145	-0.144
-462.099	124.454	0.071	-0.090
-461.084	-200.000	0.017	-0.221
-460.070	194.576	-0.184	-0.283
-459.055	368.811	-0.110	-0.226
-458.040	-200.000	0.016	-0.174
-457.026	8.146	-0.110	0.084
-456.011	-18.265	-0.172	0.109
-454.997	-74.252	0.351	-0.129
-453.982	-106.514	-0.453	-0.102
-452.968	104.403	0.261	-0.312
-451.953	-200.000	0.101	0.541
-450.938	4.678	-0.231	-0.172
-449.924	-69.114	0.122	-0.048
-448.909	-200.000	-0.016	-0.075
-447.895	800.000	-0.045	0.184
-446.880	12.644	0.133	0.104
-445.865	-37.485	0.126	-0.068
-444.851	-39.863	-0.243	0.128
-443.836	-67.136	0.280	0.112
-442.822	-61.136	-0.082	0.035
-441.807	73.546	0.204	-0.216
-440.792	15.633	0.234	0.186
-439.778	800.000	0.083	0.274
-438.763	800.000	-0.043	0.168
-437.749	182.463	-0.164	-0.244
-436.734	-192.405	0.274	-0.003
-435.719	43.259	-0.314	-0.290
-434.705	656.991	-0.078	0.204
-433.690	-9.052	-0.097	0.066
-432.676	291.756	-0.141	-0.260
-431.661	12.232	0.139	0.108
-430.646	24.655	0.238	0.200
-429.632	84.734	0.128	-0.142
-428.617	-200.000	-0.006	-0.086
-427.603	-102.589	0.427	0.103
-426.588	-200.000	0.021	0.093
-425.573	-100.617	-0.124	-0.031
-424.559	194.977	-0.162	0.249
-423.544	308.077	-0.141	-0.266
-422.530	202.826	-0.313	-0.488
-421.515	-82.514	0.220	0.072
-420.500	-42.646	0.219	0.113
-419.486	215.219	-0.063	-0.100
-418.471	-1.086	-0.040	-0.028
-417.457	22.878	-0.098	0.082
-416.442	800.000	-0.099	-0.312
-415.428	-200.000	0.064	-0.330
-414.413	201.064	-0.114	-0.178
-413.398	548.953	0.018	0.043
-412.384	171.625	0.128	-0.186
-411.369	26.428	0.131	-0.111
-410.355	37.562	0.272	-0.243
-409.340	199.197	-0.148	0.229
-408.325	-200.000	-0.008	0.048
-407.311	-200.000	0.019	-0.161
-406.296	431.362	-0.195	-0.426
-405.282	218.886	-0.101	0.163
-404.267	-86.176	0.275	0.086
-403.252	214.162	-0.122	-0.196
-402.238	-79.715	0.080	0.027
-401.223	800.000	-0.005	-0.020
-400.209	33.493	-0.113	-0.099
-399.194	146.440	0.205	-0.278
-398.179	800.000	0.065	-0.232
-397.165	327.830	0.023	-0.044
-396.150	-169.221	0.086	-0.003
-395.136	-200.000	-0.058	-0.300
-394.121	800.000	0.039	-0.157
-393.106	-200.000	0.042	-0.377
-392.092	800.000	0.056	0.219
-391.077	-81.394	0.263	0.088
-390.063	225.998	0.037	-0.061
-389.048	-124.081	-0.191	-0.030
-388.033	-122.769	-0.332	-0.054
-387.019	-175.346	-0.219	0.006
-386.004	-200.000	-0.034	-0.208
-384.990	-31.389	0.160	-0.091
-383.975	1.026	0.052	-0.038
-382.960	-58.664	-0.136	-0.059
-381.946	-6.949	0.191	0.131
-380.931	-85.669	0.188	0.059
-379.917	-200.000	-0.030	-0.210
-378.902	-130.519	-0.133	-0.018
-377.888	800.000	0.007	0.026
-376.873	-86.470	0.145	-0.045
-375.858	-200.000	0.011	-0.166
-374.844	-152.112	-0.075	-0.006
-373.829	40.041	0.220	-0.199
-372.815	-160.945	-0.153	0.008
-371.800	-134.097	0.128	0.016
-370.785	-16.508	-0.114	0.073
-369.771	-0.059	-0.089	-0.064
-368.756	409.720	0.107	0.229
-367.742	-69.971	-0.389	0.149
-366.727	-105.603	0.208	0.048
-365.712	800.000	-0.062	0.173
-364.698	41.036	0.087	0.079
-363.683	800.000	0.077	0.279
-362.669	-55.217	-0.317	-0.144
-361.654	-200.000	0.023	-0.173
-360.639	-83.742	0.461	-0.148
-359.625	-103.465	0.125	-0.030
-358.610	-200.000	-0.028	0.269
-357.596	47.904	0.124	0.117
-356.581	97.204	-0.044	-0.051
-355.566	-200.000	-0.004	0.084
-354.552	800.000	-0.086	0.341
-353.537	94.441	-0.045	0.052
-352.523	184.855	0.142	-0.212
-351.508	-10.045	0.144	-0.096
-350.493	-123.218	0.216	-0.035
-349.479	-200.000	-0.024	0.267
-348.464	-200.000	-0.035	0.178
-347.450	-47.948	0.343	-0.167
-346.435	127.337	-0.047	0.060
-345.420	-200.000	0.025	0.416
-344.406	92.094	-0.255	-0.290
-343.391	-108.472	0.225	-0.049
-342.377	191.943	-0.187	0.284
-341.362	-139.372	0.039	0.004
-340.348	-4.035	0.143	0.100
-339.333	-200.000	0.017	0.089
-338.318	160.221	0.227	-0.319
-337.304	-25.657	-0.098	-0.058
-336.289	-118.976	-0.343	0.061
-335.275	-132.772	-0.291	0.037
-334.260	87.499	-0.258	-0.288
-333.245	-84.426	-0.117	-0.037
-332.231	305.076	-0.134	-0.250
-331.216	-200.000	0.013	-0.157
-330.202	-200.000	-0.009	0.180
-329.187	-145.228	0.297	0.027
-328.172	9.790	-0.131	-0.100
-327.158	-6.116	-0.041	-0.028
-326.143	-89.357	-0.495	0.147
-325.129	-38.723	0.279	-0.148
-324.114	-200.000	-0.019	0.351
-323.099	131.255	-0.062	-0.081
-322.085	36.816	0.263	-0.234
-321.070	-105.703	-0.217	-0.049
-320.056	255.445	-0.129	-0.223
-319.041	-109.424	0.071	0.015
-318.026	-200.000	-0.023	0.132
-317.012	-27.999	0.074	-0.043
-315.997	88.410	-0.120	-0.134
-314.983	697.355	-0.147	0.389
-313.968	169.317	0.196	-0.282
-312.953	-113.709	0.297	-0.058
-311.939	2.564	-0.390	-0.284
-310.924	388.752	0.119	-0.249
-309.910	-115.387	-0.102	-0.019
-308.895	-53.906	-0.267	-0.122
-307.880	-153.582	0.145	0.010
-306.866	120.435	-0.227	0.284
-305.851	-48.651	-0.243	0.118
-304.837	-28.350	-0.066	0.038
-303.822	59.320	-0.098	0.097
-302.807	800.000	0.087	-0.296
-301.793	-67.916	-0.303	-0.119
-300.778	17.442	-0.164	-0.131
-299.764	-200.000	-0.018	-0.314
-298.749	440.731	-0.193	0.424
-297.735	-200.000	-0.009	0.064
-296.720	619.620	-0.024	-0.061
-295.705	800.000	0.052	-0.145
-294.691	54.842	0.140	-0.135
-293.676	800.000	0.042	-0.167
-292.662	40.208	-0.130	0.117
-291.647	-97.337	-0.160	-0.042
-290.632	275.441	-0.135	-0.241
-289.618	-200.000	-0.016	-0.195
-288.603	800.000	0.102	0.312
-287.589	-143.706	0.349	-0.033
-286.574	27.503	-0.289	-0.244
-285.559	21.205	0.107	0.087
-284.545	-126.815	0.204	0.030
-283.530	800.000	-0.015	0.062
-282.516	-26.706	0.320	-0.188
-281.501	-104.544	-0.063	-0.015
-280.486	52.551	-0.105	-0.101
-279.472	-103.758	-0.107	-0.025
-278.457	-200.000	-0.035	-0.263
-277.443	800.000	0.104	-0.454
-276.428	-200.000	-0.027	-0.166
-275.413	32.681	0.056	-0.049
-274.399	-200.000	-0.007	-0.071
-273.384	459.613	0.120	0.269
-272.370	800.000	-0.144	0.403
-271.355	-200.000	-0.033	0.426
-270.340	75.014	-0.160	-0.170
-269.326	-53.167	-0.415	0.192
-268.311	-200.000	0.009	0.179
-267.297	-200.000	0.047	0.318
-266.282	800.000	-0.027	-0.109
-265.267	264.560	0.108	0.188
-264.253	1.548	0.206	0.149
-263.238	-41.749	-0.304	0.157
-262.224	-26.553	-0.139	-0.082
-261.209	58.356	-0.169	0.167
-260.195	-179.454	-0.117	0.003
-259.180	-51.778	0.264	0.124
-258.165	-125.625	0.186	-0.028
-257.151	347.524	-0.078	-0.154
-256.136	-5.881	-0.259	-0.178
-255.122	-200.000	0.006	0.140
-254.107	-200.000	-0.019	0.087
-253.092	-9.079	0.247	-0.166
-252.078	-200.000	-0.015	0.287
-251.063	-53.687	0.168	0.077
-250.049	484.860	0.039	0.088
-249.034	112.579	-0.165	-0.200
-248.019	-146.016	-0.233	-0.021
-247.005	-166.824	-0.187	-0.008
-245.990	-43.905	-0.076	-0.038
-244.976	537.354	-0.102	0.242
-243.961	147.533	-0.061	0.083
-242.946	-53.432	0.199	-0.091
-241.932	-108.688	-0.259	0.056
-240.917	-67.674	-0.268	-0.105
-239.903	137.224	-0.039	-0.051
-238.888	800.000	0.064	0.236
-237.873	-36.385	0.147	0.080
-236.859	238.992	0.025	0.042
-235.844	-96.684	0.070	0.018
-234.830	-200.000	0.015	0.129
-233.815	-200.000	0.005	-0.051
-232.800	32.105	0.035	0.030
-231.786	-200.000	-0.028	-0.208
-230.771	-84.147	0.315	0.100
-229.757	242.025	0.086	-0.145
-228.742	-90.780	0.085	0.025
-227.727	800.000	-0.030	-0.109
-226.713	800.000	-0.105	0.336
-225.698	-33.225	-0.221	0.123
-224.684	800.000	-0.145	0.458
-223.669	6.038	0.205	-0.152
-222.655	-200.000	0.043	0.384
-221.640	64.790	-0.250	0.253
-220.625	-200.000	-0.001	0.300
-219.611	129.122	-0.066	-0.084
-218.596	193.806	0.221	0.336
-217.582	662.484	0.098	0.253
-216.567	145.556	-0.054	0.072
-215.552	-134.199	-0.240	-0.030
-214.538	800.000	-0.141	-0.440
-213.523	-58.440	0.250	0.109
-212.509	-200.000	0.017	-0.173
-211.494	89.688	0.079	-0.089
-210.479	800.000	-0.052	0.220
-209.465	503.104	-0.160	0.370
-208.450	261.104	0.126	-0.219
-207.436	-137.815	0.183	0.021
-206.421	151.901	-0.057	-0.078
-205.406	-186.653	0.372	-0.005
-204.392	-123.356	0.070	0.011
-203.377	-22.539	-0.264	0.160
-202.363	34.599	-0.107	0.094
-201.348	-51.005	0.087	-0.041
-200.333	-200.000	-0.047	-0.260
-199.319	10.933	-0.167	0.128
-198.304	-200.000	0.034	-0.296
-197.290	91.038	-0.162	0.182
-196.275	-50.056	-0.078	-0.037
-195.260	-81.241	0.264	0.087
-194.246	800.000	0.074	0.279
-193.231	73.258	-0.097	0.102
-192.217	800.000	0.059	0.213
-191.202	-153.413	-0.178	0.012
-190.187	-200.000	0.011	0.063
-189.173	-40.739	0.110	-0.057
-188.158	800.000	0.134	-0.429
-187.144	9.100	0.050	0.038
-186.129	321.703	0.106	-0.202
-185.114	38.105	-0.133	0.118
-184.100	107.300	0.206	0.245
-183.085	800.000	-0.079	0.227
-182.071	-68.918	-0.310	-0.120
-181.056	-193.558	0.130	-0.001
-180.042	474.425	0.172	0.388
-179.027	-200.000	0.013	0.071
-178.012	-109.006	-0.127	0.027
-176.998	-56.018	0.311	0.139
-175.983	-62.546	0.146	0.061
-174.969	-200.000	-0.007	0.140
-173.954	800.000	0.068	0.255
-172.939	73.133	0.176	0.185
-171.925	502.854	-0.099	-0.229
-170.910	252.913	0.127	-0.217
-169.896	-200.000	0.020	-0.139
-168.881	621.981	0.046	-0.116
-167.866	-200.000	0.003	-0.065
-166.852	-162.787	0.290	-0.014
-165.837	273.653	-0.083	-0.146
-164.823	332.203	-0.029	-0.056
-163.808	-107.555	-0.279	0.061
-162.793	149.845	0.211	0.286
-161.779	-200.000	0.031	0.280
-160.764	124.763	0.211	-0.266
-159.750	-200.000	0.037	0.169
-158.735	-200.000	0.014	0.112
-157.720	-76.316	-0.176	0.062
-156.706	63.801	-0.272	-0.273
-155.691	-28.540	0.179	0.103
-154.677	-160.824	-0.405	0.021
-153.662	-32.451	-0.102	-0.057
-152.647	211.612	-0.162	0.255
-151.633	-200.000	-0.015	0.084
-150.618	45.822	-0.076	-0.070
-149.604	156.389	-0.259	-0.358
-148.589	663.456	0.087	0.225
-147.574	92.390	0.054	-0.061
-146.560	32.296	0.114	-0.099
-145.545	-1.835	-0.381	-0.268
-144.531	4.688	0.286	-0.210
-143.516	116.172	0.105	0.128
-142.502	800.000	0.067	0.225
-141.487	800.000	0.106	0.374
-140.472	71.118	-0.156	0.162
-139.458	174.421	0.193	-0.279
-138.443	154.941	-0.045	-0.062
-137.429	96.878	0.055	-0.063
-136.414	-58.108	-0.274	0.119
-135.399	-26.252	-0.218	0.128
-134.385	-163.841	0.138	0.006
-133.370	-35.197	-0.195	0.106
-132.356	-162.274	0.165	0.008
-131.341	165.070	0.077	-0.109
-130.326	-82.110	-0.227	-0.074
-129.312	-96.862	-0.275	-0.072
-128.297	343.900	-0.031	-0.060
-127.283	192.673	0.015	0.023
-126.268	12.820	-0.259	-0.200
-125.253	261.385	0.152	-0.263
-124.239	-46.248	0.193	0.095
-123.224	-2.735	0.080	-0.056
-122.210	-74.942	0.059	0.021
-121.195	376.061	0.020	0.042
