DTS Sentinel unit serial number:	SN413079Multiplexer serial number:	ORYXHardware model number:	OX4-SRSoftware version number:	ORYX F/W v4.00 Oryx Data Collector v3.7.2.0data status	okinstallation	princeton_trtdifferential loss correction	single-endedforward channel	channel 1reverse channel	N/Adate	2019/09/17time	15:14:35forward acquisition time	60.00reverse acquisition time	0.00gamma	496.2192k internal	0.2295k external	0.2295temperature offset calibration	0.9964default loss term (dB/km)	0.3790temperature slope calibration	1.0000multiplexer offset coefficient	1.0000multiplexer slope coefficient	1.0000fibre end	0.00T internal ref (°C)	37.81T ext. ref 1 (°C)	0.38T ext. ref 2 (°C)	34.63length (m)	temperature (°C)	Stokes	anti-Stokes-747.200	-200.000	-0.060	0.307
-746.185	-111.864	-0.234	0.048
-745.171	32.845	0.151	0.133
-744.156	58.708	0.156	0.156
-743.142	237.210	-0.012	0.020
-742.127	71.224	-0.206	0.219
-741.112	-200.000	0.024	0.135
-740.098	-200.000	0.056	0.460
-739.083	343.656	0.101	0.202
-738.069	800.000	-0.064	0.264
-737.054	-46.433	-0.157	0.079
-736.039	800.000	-0.125	-0.417
-735.025	-82.698	0.572	0.189
-734.010	800.000	-0.025	-0.093
-732.996	-200.000	0.056	-0.411
-731.981	23.981	-0.184	-0.155
-730.966	800.000	0.054	-0.212
-729.952	-200.000	-0.003	-0.219
-728.937	251.252	0.063	-0.110
-727.923	-96.897	-0.208	0.056
-726.908	706.094	-0.206	0.555
-725.894	-200.000	0.001	0.226
-724.879	231.583	-0.182	0.304
-723.864	-200.000	0.004	-0.337
-722.850	-92.569	-0.315	0.090
-721.835	-200.000	-0.025	-0.348
-720.821	72.817	-0.059	0.063
-719.806	98.583	-0.198	0.233
-718.791	800.000	-0.082	-0.274
-717.777	10.123	-0.037	-0.029
-716.762	357.918	-0.031	-0.063
-715.748	-155.548	0.158	-0.010
-714.733	38.227	-0.159	-0.144
-713.718	30.005	-0.115	-0.100
-712.704	-200.000	-0.002	-0.232
-711.689	800.000	-0.042	0.175
-710.675	22.300	0.341	-0.284
-709.660	-88.055	0.237	-0.073
-708.645	-45.420	-0.298	-0.151
-707.631	64.258	-0.133	-0.137
-706.616	190.682	-0.210	-0.322
-705.602	-50.024	0.386	-0.187
-704.587	-31.461	0.213	0.122
-703.572	773.264	-0.047	-0.130
-702.558	342.449	-0.072	0.145
-701.543	32.599	-0.165	0.145
-700.529	101.180	0.119	-0.142
-699.514	-62.496	0.139	0.059
-698.499	-200.000	0.013	-0.231
-697.485	94.506	-0.014	0.017
-696.470	-111.844	-0.132	-0.027
-695.456	-103.611	0.124	0.030
-694.441	-54.252	-0.405	0.188
-693.426	-42.048	0.150	-0.078
-692.412	-29.227	-0.150	-0.088
-691.397	133.968	0.128	0.169
-690.383	-200.000	0.003	-0.145
-689.368	-5.463	0.195	0.136
-688.354	-92.963	-0.373	-0.106
-687.339	-198.407	0.284	-0.002
-686.324	-200.000	0.039	0.212
-685.310	157.068	-0.099	-0.140
-684.295	85.400	0.093	0.104
-683.281	-86.430	0.307	0.096
-682.266	-161.319	0.167	0.009
-681.251	800.000	0.105	-0.331
-680.237	-200.000	0.035	-0.352
-679.222	-200.000	0.067	0.377
-678.208	-200.000	-0.043	-0.265
-677.193	-20.194	-0.523	0.328
-676.178	-85.232	-0.090	-0.029
-675.164	-132.515	0.109	-0.014
-674.149	-70.900	0.168	0.064
-673.135	-118.602	-0.117	0.021
-672.120	-200.000	-0.004	0.234
-671.105	-68.779	-0.575	-0.227
-670.091	-19.206	-0.052	0.033
-669.076	13.951	0.356	0.282
-668.062	-8.463	0.334	0.229
-667.047	-8.118	0.152	-0.105
-666.032	124.366	-0.135	-0.173
-665.018	346.645	0.092	-0.184
-664.003	261.608	0.169	0.298
-662.989	-68.041	-0.227	0.090
-661.974	-200.000	0.025	-0.321
-660.959	20.731	0.165	-0.136
-659.945	-9.874	-0.190	0.129
-658.930	279.419	0.137	-0.248
-657.916	210.265	0.164	0.263
-656.901	335.497	0.041	-0.082
-655.886	17.336	-0.106	-0.086
-654.872	143.115	0.083	-0.113
-653.857	641.571	-0.047	-0.123
-652.843	800.000	-0.032	-0.114
-651.828	-60.797	0.148	0.064
-650.814	21.747	0.350	0.290
-649.799	81.457	-0.112	0.124
-648.784	341.731	-0.116	0.232
-647.770	149.407	0.217	-0.299
-646.755	800.000	-0.102	-0.297
-645.741	-59.620	-0.066	0.029
-644.726	-200.000	0.221	-0.001
-643.711	135.013	-0.352	-0.466
-642.697	-76.763	0.160	-0.057
-641.682	88.063	0.205	0.231
-640.668	128.367	0.092	-0.119
-639.653	197.852	-0.108	-0.168
-638.638	427.295	0.066	-0.145
-637.624	467.720	0.094	0.215
-636.609	-200.000	0.031	-0.235
-635.595	27.957	-0.186	-0.159
-634.580	-85.369	-0.159	-0.050
-633.565	-181.113	-0.283	-0.006
-632.551	22.233	0.282	-0.234
-631.536	-148.582	0.060	0.005
-630.522	-66.552	0.388	0.157
-629.507	85.417	-0.123	-0.137
-628.492	61.045	-0.286	0.289
-627.478	-46.849	-0.015	-0.008
-626.463	800.000	-0.009	0.031
-625.449	-61.809	-0.140	-0.060
-624.434	104.774	-0.098	0.117
-623.419	92.839	-0.063	-0.072
-622.405	-52.825	0.050	-0.024
-621.390	-75.456	-0.257	-0.093
-620.376	237.008	0.064	0.108
-619.361	13.706	0.131	-0.104
-618.346	97.312	0.109	-0.127
-617.332	525.390	0.055	0.131
-616.317	-109.878	0.047	-0.010
-615.303	-200.000	0.087	-0.459
-614.288	-200.000	-0.049	-0.304
-613.273	-200.000	0.018	0.179
-612.259	164.241	0.267	0.382
-611.244	-38.111	-0.041	0.022
-610.230	775.179	0.129	0.359
-609.215	-64.059	-0.219	-0.091
-608.201	-30.171	-0.179	-0.103
-607.186	-200.000	0.050	-0.380
-606.171	135.707	0.114	-0.151
-605.157	-98.127	0.441	-0.115
-604.142	-73.175	0.341	0.127
-603.128	14.822	0.115	-0.091
-602.113	-133.113	-0.227	0.029
-601.098	-67.387	-0.158	-0.063
-600.084	-200.000	-0.023	0.229
-599.069	-29.525	0.263	0.153
-598.055	176.470	-0.155	-0.229
-597.040	-163.478	0.210	0.010
-596.025	-200.000	0.026	-0.169
-595.011	-173.648	-0.101	-0.003
-593.996	800.000	-0.030	0.088
-592.982	-142.853	-0.060	-0.006
-591.967	74.734	-0.282	0.301
-590.952	-56.204	0.305	-0.138
-589.938	-13.491	-0.210	0.138
-588.923	800.000	0.035	0.139
-587.909	9.598	0.091	-0.070
-586.894	-144.012	0.303	-0.029
-585.879	-200.000	0.021	-0.232
-584.865	-41.408	0.179	0.094
-583.850	-151.479	-0.460	-0.035
-582.836	800.000	-0.089	-0.268
-581.821	-200.000	0.051	-0.308
-580.806	-52.194	0.269	-0.127
-579.792	-37.647	-0.123	0.067
-578.777	-63.144	0.206	0.086
-577.763	244.836	-0.168	0.286
-576.748	800.000	0.045	-0.135
-575.733	2.093	0.416	-0.305
-574.719	52.296	-0.166	-0.161
-573.704	-200.000	0.021	0.283
-572.690	-200.000	-0.021	-0.114
-571.675	800.000	-0.065	-0.275
-570.661	139.848	-0.193	-0.258
-569.646	-125.491	-0.175	0.027
-568.631	-64.929	-0.371	-0.152
-567.617	-200.000	0.016	-0.187
-566.602	800.000	0.085	-0.291
-565.588	142.989	0.203	-0.274
-564.573	-200.000	-0.009	0.098
-563.558	800.000	0.044	0.136
-562.544	800.000	0.031	-0.107
-561.529	-3.869	0.186	-0.131
-560.515	-111.075	-0.174	0.036
-559.500	19.740	0.009	0.007
-558.485	97.867	0.086	0.101
-557.471	545.513	0.047	0.113
-556.456	739.975	0.092	-0.251
-555.442	39.120	-0.104	0.094
-554.427	368.191	-0.040	0.081
-553.412	257.055	-0.140	0.245
-552.398	-78.715	0.182	0.063
-551.383	-200.000	-0.008	-0.238
-550.369	-28.197	-0.238	-0.140
-549.354	32.414	-0.103	0.090
-548.339	-48.472	0.117	0.057
-547.325	32.147	0.290	-0.254
-546.310	-98.782	-0.082	-0.021
-545.296	-115.455	0.134	0.026
-544.281	17.157	0.213	-0.171
-543.266	800.000	-0.144	0.435
-542.252	800.000	0.025	-0.106
-541.237	800.000	0.113	-0.320
-540.223	-43.539	-0.231	0.118
-539.208	-200.000	0.028	-0.205
-538.193	-200.000	0.289	0.001
-537.179	47.794	0.201	-0.191
-536.164	155.992	0.141	0.197
-535.150	-78.176	-0.283	-0.099
-534.135	123.998	0.176	0.224
-533.121	800.000	0.095	0.295
-532.106	382.445	-0.052	0.109
-531.091	508.256	0.075	0.176
-530.077	10.125	-0.167	-0.129
-529.062	800.000	-0.044	-0.145
-528.048	-102.174	0.263	0.064
-527.033	-200.000	0.001	0.160
-526.018	-149.577	0.011	-0.001
-525.004	-200.000	0.034	0.176
-523.989	-66.725	-0.369	-0.148
-522.975	150.306	-0.204	-0.280
-521.960	151.302	0.074	0.102
-520.945	-69.510	-0.104	-0.040
-519.931	-23.691	-0.144	-0.088
-518.916	-117.104	-0.236	0.044
-517.902	-200.000	-0.003	0.023
-516.887	-0.220	0.185	0.133
-515.872	128.246	0.029	0.037
-514.858	136.599	-0.087	-0.114
-513.843	800.000	-0.068	0.206
-512.829	-129.060	0.152	0.022
-511.814	6.345	0.320	-0.241
-510.799	-200.000	0.006	0.064
-509.785	18.020	-0.207	0.167
-508.770	-177.216	0.105	0.003
-507.756	-30.490	-0.082	0.047
-506.741	171.823	-0.158	-0.230
-505.726	112.222	0.137	0.167
-504.712	-200.000	0.003	0.052
-503.697	-83.973	-0.205	-0.066
-502.683	440.975	0.149	-0.330
-501.668	-200.000	-0.026	0.139
-500.653	212.900	-0.026	0.041
-499.639	287.760	-0.224	0.411
-498.624	578.947	0.031	-0.078
-497.610	-21.211	0.145	-0.090
-496.595	-200.000	0.021	-0.218
-495.581	-105.231	-0.256	-0.059
-494.566	126.605	0.140	-0.179
-493.551	-129.409	-0.126	-0.018
-492.537	800.000	-0.061	-0.172
-491.522	-82.894	-0.260	-0.085
-490.508	24.092	0.194	-0.162
-489.493	96.172	0.217	0.251
-488.478	129.984	0.122	0.158
-487.464	184.557	-0.173	0.259
-486.449	-136.141	0.422	0.050
-485.435	19.475	0.066	-0.054
-484.420	64.015	-0.231	0.235
-483.405	-200.000	-0.022	0.134
-482.391	20.358	-0.249	0.203
-481.376	-200.000	-0.032	0.362
-480.362	287.520	0.227	0.415
-479.347	-200.000	-0.026	-0.299
-478.332	-163.452	-0.206	0.010
-477.318	-200.000	0.010	-0.076
-476.303	-77.982	-0.065	0.023
-475.289	291.515	-0.022	-0.041
-474.274	-20.546	0.241	-0.150
-473.259	186.873	0.343	-0.517
-472.245	800.000	-0.061	-0.263
-471.230	93.727	0.044	0.050
-470.216	525.616	0.046	-0.109
-469.201	-200.000	-0.001	-0.024
-468.186	-200.000	-0.002	0.059
-467.172	493.512	-0.142	0.330
-466.157	-32.598	-0.165	0.093
-465.143	-200.000	0.049	0.382
-464.128	-75.034	0.024	0.009
-463.113	-200.000	0.005	-0.067
-462.099	594.783	0.093	0.233
-461.084	-200.000	-0.024	-0.218
-460.070	-200.000	0.000	-0.138
-459.055	-19.239	0.152	-0.095
-458.040	-18.509	-0.188	-0.118
-457.026	-84.488	0.221	0.070
-456.011	-200.000	-0.002	0.014
-454.997	48.719	0.358	0.339
-453.982	-200.000	0.002	-0.327
-452.968	-71.491	0.086	-0.033
-451.953	611.188	0.095	-0.239
-450.938	800.000	-0.040	0.173
-449.924	47.705	0.278	0.262
-448.909	643.269	-0.097	-0.251
-447.895	-94.682	0.078	0.022
-446.880	-118.195	0.058	-0.010
-445.865	420.486	-0.064	0.138
-444.851	800.000	0.068	0.237
-443.836	-52.840	-0.054	-0.025
-442.822	800.000	0.049	0.155
-441.807	68.265	-0.076	-0.078
-440.792	-122.352	0.078	-0.013
-439.778	-147.778	0.107	0.009
-438.763	-200.000	-0.011	-0.352
-437.749	109.820	-0.078	0.094
-436.734	-200.000	0.002	0.095
-435.719	-200.000	-0.014	-0.260
-434.705	28.827	-0.096	0.082
-433.690	93.045	-0.113	-0.129
-432.676	-200.000	0.017	0.236
-431.661	53.164	0.312	-0.302
-430.646	-200.000	-0.025	-0.211
-429.632	796.374	-0.050	-0.139
-428.617	122.562	0.288	-0.364
-427.603	-45.690	-0.217	-0.108
-426.588	-54.910	-0.310	-0.141
-425.573	-1.115	-0.246	-0.175
-424.559	800.000	0.097	0.322
-423.544	800.000	0.032	0.108
-422.530	-91.655	-0.218	-0.063
-421.515	427.393	0.186	0.405
-420.500	37.785	0.061	-0.055
-419.486	411.162	-0.065	0.139
-418.471	-162.054	0.157	-0.008
-417.457	-200.000	0.046	-0.233
-416.442	-200.000	0.019	-0.211
-415.428	-200.000	0.016	-0.124
-414.413	800.000	0.051	0.143
-413.398	800.000	0.058	0.203
-412.384	-8.597	-0.148	-0.100
-411.369	-200.000	0.027	0.261
-410.355	800.000	0.038	-0.156
-409.340	-69.380	0.336	-0.130
-408.325	-91.051	-0.370	-0.107
-407.311	800.000	-0.112	-0.347
-406.296	800.000	0.102	0.314
-405.282	-200.000	0.003	0.333
-404.267	92.479	-0.100	0.114
-403.252	128.635	-0.294	-0.378
-402.238	-200.000	-0.044	-0.232
-401.223	-8.601	0.195	0.132
-400.209	490.519	0.135	-0.312
-399.194	-200.000	-0.000	-0.105
-398.179	13.902	-0.059	0.046
-397.165	800.000	0.087	0.303
-396.150	306.671	0.118	-0.222
-395.136	329.020	0.144	0.280
-394.121	-109.506	-0.240	-0.051
-393.106	136.427	0.313	0.411
-392.092	-112.233	-0.334	0.068
-391.077	-200.000	0.034	-0.230
-390.063	-56.844	0.137	-0.061
-389.048	74.645	0.070	-0.075
-388.033	239.251	-0.036	0.061
-387.019	-200.000	0.003	0.030
-386.004	-92.441	0.061	-0.017
-384.990	-98.408	-0.165	0.042
-383.975	-158.323	-0.135	0.008
-382.960	131.176	-0.279	0.362
-381.946	488.235	0.170	0.390
-380.931	-200.000	0.014	-0.825
-379.917	344.125	-0.050	-0.100
-378.902	30.137	0.053	0.045
-377.888	160.056	0.100	-0.141
-376.873	-71.962	0.333	-0.125
-375.858	-46.276	-0.352	-0.174
-374.844	-200.000	-0.008	-0.067
-373.829	12.562	-0.138	-0.107
-372.815	800.000	0.099	0.337
-371.800	-90.230	-0.287	-0.084
-370.785	-200.000	-0.003	-0.174
-369.771	-200.000	0.024	-0.293
-368.756	-14.032	0.038	-0.025
-367.742	43.717	0.152	0.140
-366.727	-31.886	-0.098	0.056
-365.712	-116.030	-0.366	0.069
-364.698	-76.100	-0.253	-0.090
-363.683	-200.000	0.006	0.056
-362.669	-120.382	0.039	-0.007
-361.654	800.000	-0.044	0.143
-360.639	172.037	-0.169	-0.245
-359.625	-85.885	0.195	-0.061
-358.610	-200.000	-0.002	-0.256
-357.596	-53.486	-0.179	0.082
-356.581	122.414	-0.155	-0.195
-355.566	-17.899	-0.185	-0.117
-354.552	-53.931	0.232	0.106
-353.537	-109.704	-0.182	-0.039
-352.523	60.599	0.020	-0.020
-351.508	-200.000	-0.033	-0.329
-350.493	-200.000	0.021	-0.284
-349.479	641.235	0.056	0.145
-348.464	-31.927	-0.132	0.074
-347.450	-200.000	0.032	0.154
-346.435	775.171	-0.051	-0.141
-345.420	141.863	-0.053	-0.071
-344.406	12.162	-0.090	-0.070
-343.391	800.000	0.040	0.162
-342.377	14.418	-0.152	-0.119
-341.362	-83.573	0.301	0.097
-340.348	282.228	0.115	-0.208
-339.333	-175.902	-0.356	0.010
-338.318	800.000	-0.043	-0.165
-337.304	-87.381	-0.159	0.048
-336.289	-61.672	0.269	0.113
-335.275	-200.000	0.018	-0.328
-334.260	-64.295	-0.190	0.078
-333.245	-200.000	-0.009	-0.097
-332.231	97.944	-0.209	-0.241
-331.216	-200.000	0.049	0.452
-330.202	-195.543	-0.145	-0.001
-329.187	-117.754	0.257	-0.046
-328.172	164.495	-0.142	0.201
-327.158	19.763	-0.122	-0.099
-326.143	-105.777	-0.308	-0.070
-325.129	352.218	0.161	0.321
-324.114	14.889	0.260	0.205
-323.099	51.904	0.225	0.216
-322.085	127.865	0.177	0.227
-321.070	800.000	-0.073	0.292
-320.056	-200.000	-0.012	0.097
-319.041	15.115	-0.123	0.097
-318.026	-117.847	0.176	-0.032
-317.012	55.987	-0.130	0.127
-315.997	800.000	-0.080	-0.243
-314.983	-139.378	-0.359	-0.039
-313.968	421.642	-0.054	0.117
-312.953	-153.760	0.356	0.025
-311.939	-200.000	-0.048	0.295
-310.924	-47.741	-0.102	-0.050
-309.910	-62.219	0.269	0.113
-308.895	-45.786	-0.133	0.066
-307.880	5.815	-0.388	-0.288
-306.866	628.960	-0.167	-0.424
-305.851	-127.753	0.408	0.059
-304.837	51.632	0.228	-0.217
-303.822	213.966	-0.126	0.201
-302.807	-80.578	0.151	-0.050
-301.793	175.640	0.091	0.133
-300.778	-200.000	-0.033	0.265
-299.764	-164.411	-0.320	0.015
-298.749	404.519	0.196	-0.415
-297.735	-34.682	0.230	0.127
-296.720	-88.661	-0.328	-0.098
-295.705	-200.000	0.034	-0.273
-294.691	-200.000	-0.007	0.249
-293.676	800.000	-0.021	-0.073
-292.662	1.288	-0.066	-0.048
-291.647	448.539	-0.072	-0.158
-290.632	130.969	0.095	-0.122
-289.618	-84.416	-0.183	-0.058
-288.603	26.570	-0.160	0.134
-287.589	-118.732	0.119	-0.021
-286.574	-78.981	0.317	0.108
-285.559	800.000	-0.115	-0.344
-284.545	-28.369	0.148	-0.086
-283.530	-200.000	-0.014	-0.149
-282.516	-85.871	0.285	-0.089
-281.501	-87.742	0.134	-0.041
-280.486	-101.562	-0.466	0.114
-279.472	-200.000	0.073	0.336
-278.457	-200.000	0.029	0.351
-277.443	-32.943	-0.232	0.130
-276.428	93.610	0.205	-0.233
-275.413	-26.883	-0.016	0.009
-274.399	800.000	-0.104	0.307
-273.384	-200.000	0.024	0.325
-272.370	-95.640	-0.307	-0.083
-271.355	-155.166	0.054	0.004
-270.340	-200.000	-0.014	0.363
-269.326	-20.667	-0.422	0.260
-268.311	159.449	0.360	-0.502
-267.297	41.923	0.090	-0.082
-266.282	209.491	-0.106	-0.166
-265.267	-200.000	0.011	0.261
-264.253	75.181	-0.156	0.165
-263.238	3.299	-0.403	-0.294
-262.224	-200.000	-0.036	-0.387
-261.209	152.934	0.158	0.216
-260.195	800.000	0.016	-0.061
-259.180	347.508	-0.084	-0.165
-258.165	-103.851	0.115	-0.027
-257.151	-200.000	-0.004	-0.090
-256.136	132.058	-0.084	0.109
-255.122	-38.987	0.112	0.059
-254.107	-2.960	0.085	0.060
-253.092	800.000	-0.083	-0.258
-252.078	177.956	0.113	-0.165
-251.063	72.815	-0.236	0.247
-250.049	42.827	0.306	0.279
-249.034	-118.328	0.044	0.008
-248.019	366.715	-0.102	0.206
-247.005	-34.912	0.273	0.149
-245.990	800.000	-0.021	0.088
-244.976	754.245	0.113	0.306
-243.961	-114.052	0.120	-0.023
-242.946	219.184	0.189	0.303
-241.932	81.752	0.016	0.017
-240.917	352.817	0.051	0.101
-239.903	-127.776	-0.231	-0.033
-238.888	-12.759	-0.089	0.058
-237.873	750.774	0.092	0.248
-236.859	-75.572	-0.058	0.021
-235.844	-200.000	0.079	0.352
-234.830	-47.887	0.124	0.060
-233.815	15.518	-0.209	-0.165
-232.800	276.949	0.038	-0.068
-231.786	-200.000	-0.003	0.150
-230.771	-200.000	0.007	0.139
-229.757	-57.972	0.112	0.049
-228.742	525.918	0.089	-0.209
-227.727	800.000	0.032	0.099
-226.713	-87.830	-0.580	0.175
-225.698	-200.000	-0.027	-0.274
-224.684	-16.684	-0.291	-0.185
-223.669	16.117	0.166	0.131
-222.655	627.013	0.072	0.183
-221.640	-200.000	0.022	-0.119
-220.625	148.105	-0.258	-0.349
-219.611	-114.490	0.295	0.057
-218.596	613.697	0.080	0.200
-217.582	-200.000	-0.029	-0.403
-216.567	694.726	0.138	0.361
-215.552	-96.438	0.239	0.063
-214.538	279.113	-0.100	-0.178
-213.523	-29.160	-0.228	-0.131
-212.509	-200.000	0.032	-0.288
-211.494	-200.000	0.055	0.361
-210.479	-200.000	-0.058	0.381
-209.465	-86.700	0.349	0.107
-208.450	-200.000	0.037	0.387
-207.436	132.979	-0.073	0.095
-206.421	-33.510	0.216	-0.119
-205.406	-200.000	0.004	0.125
-204.392	24.644	0.102	0.085
-203.377	207.686	0.080	0.125
-202.363	-78.913	-0.173	0.059
-201.348	33.554	-0.335	-0.291
-200.333	-168.123	-0.218	-0.008
-199.319	-200.000	-0.024	0.284
-198.304	-200.000	0.016	0.103
-197.290	-46.997	0.257	0.126
-196.275	128.718	-0.074	0.094
-195.260	-60.630	-0.315	-0.134
-194.246	-200.000	0.023	0.317
-193.231	61.217	-0.123	-0.123
-192.217	-200.000	-0.049	0.217
-191.202	-87.586	-0.185	0.056
-190.187	11.699	-0.117	0.090
-189.173	-146.987	-0.231	-0.020
-188.158	191.490	-0.035	-0.053
-187.144	-200.000	-0.013	0.141
-186.129	-119.213	0.138	0.024
-185.114	-131.494	-0.249	-0.033
-184.100	-42.575	-0.256	0.131
-183.085	25.177	0.080	0.067
-182.071	-200.000	0.026	-0.474
-181.056	-80.936	0.163	0.054
-180.042	140.856	-0.064	-0.084
-179.027	299.502	-0.042	0.077
-178.012	178.132	-0.088	0.128
-176.998	217.488	0.139	0.221
-175.983	52.715	-0.152	0.145
-174.969	-200.000	0.035	0.167
-173.954	800.000	0.097	-0.331
-172.939	85.139	0.072	-0.079
-171.925	-120.227	0.218	0.037
-170.910	150.249	-0.112	0.152
-169.896	-200.000	-0.013	0.115
-168.881	116.813	0.193	-0.237
-167.866	106.918	-0.113	0.134
-166.852	42.777	-0.081	0.073
-165.837	462.950	0.110	-0.245
-164.823	51.037	0.231	0.219
-163.808	294.517	0.164	0.299
-162.793	-145.628	0.195	0.017
-161.779	273.153	0.166	-0.294
-160.764	-1.371	0.267	0.188
-159.750	-36.361	0.221	0.119
-158.735	21.953	0.161	0.131
-157.720	800.000	0.044	0.159
-156.706	401.221	-0.022	0.047
-155.691	20.110	-0.082	0.066
-154.677	120.375	0.236	-0.293
-153.662	-200.000	0.027	0.220
-152.647	1.229	-0.354	0.254
-151.633	-200.000	-0.015	-0.133
-150.618	441.773	-0.129	0.282
-149.604	187.200	0.143	0.213
-148.589	-125.819	0.179	-0.027
-147.574	163.352	0.086	-0.121
-146.560	684.216	0.032	0.083
-145.545	-104.746	0.119	-0.027
-144.531	-101.407	0.096	-0.023
-143.516	-42.656	-0.194	0.098
-142.502	800.000	-0.035	0.122
-141.487	-1.264	0.224	-0.158
-140.472	7.959	-0.094	0.070
-139.458	-2.906	0.228	-0.159
-138.443	-200.000	-0.044	0.416
-137.429	59.978	-0.178	0.176
-136.414	110.783	0.056	0.068
-135.399	-160.697	-0.291	0.015
-134.385	-38.995	-0.040	0.021
-133.370	-48.400	0.154	0.074
-132.356	3.832	-0.200	0.146
-131.341	-187.952	0.128	-0.002
-130.326	800.000	0.032	0.099
-129.312	-98.441	-0.208	-0.053
-128.297	176.378	-0.133	-0.193
-127.283	-9.205	-0.173	0.115
-126.268	794.257	-0.128	0.353
-125.253	-153.776	-0.206	0.014
-124.239	385.819	0.074	0.151
-123.224	173.578	-0.131	0.189
-122.210	-95.977	-0.319	-0.085
-121.195	187.843	0.129	0.193
-120.180	-64.744	-0.172	0.070
