DTS Sentinel unit serial number:	SN413079Multiplexer serial number:	ORYXHardware model number:	OX4-SRSoftware version number:	ORYX F/W v4.00 Oryx Data Collector v3.7.2.0data status	okinstallation	princeton_trtdifferential loss correction	single-endedforward channel	channel 1reverse channel	N/Adate	2019/09/14time	01:26:35forward acquisition time	60.00reverse acquisition time	0.00gamma	496.2192k internal	0.2337k external	0.2337temperature offset calibration	1.0075default loss term (dB/km)	0.3790temperature slope calibration	1.0000multiplexer offset coefficient	1.0000multiplexer slope coefficient	1.0000fibre end	0.00T internal ref (°C)	26.44T ext. ref 1 (°C)	3.19T ext. ref 2 (°C)	21.44length (m)	temperature (°C)	Stokes	anti-Stokes-747.200	48.326	-0.182	0.171
-746.185	456.019	0.049	0.110
-745.171	800.000	-0.094	0.359
-744.156	280.840	0.089	-0.159
-743.142	-200.000	0.015	0.089
-742.127	71.218	0.134	0.139
-741.112	21.466	0.058	0.047
-740.098	-200.000	0.022	0.232
-739.083	800.000	0.053	-0.231
-738.069	-142.427	-0.291	0.029
-737.054	199.032	0.146	-0.225
-736.039	-124.075	-0.332	-0.052
-735.025	-200.000	-0.029	0.142
-734.010	-43.726	-0.477	0.241
-732.996	51.986	-0.187	-0.179
-731.981	-37.991	0.225	-0.120
-730.966	-200.000	0.044	-0.264
-729.952	129.680	-0.084	-0.108
-728.937	-200.000	-0.011	0.208
-727.923	-200.000	0.039	-0.208
-726.908	353.384	0.039	-0.079
-725.894	-18.269	0.198	-0.124
-724.879	72.657	0.217	-0.228
-723.864	-200.000	-0.009	0.083
-722.850	51.181	-0.193	-0.184
-721.835	64.172	-0.291	-0.294
-720.821	49.439	-0.158	-0.149
-719.806	269.102	-0.114	0.201
-718.791	26.875	0.108	0.090
-717.777	601.637	-0.006	0.016
-716.762	-98.533	-0.358	-0.092
-715.748	800.000	0.044	0.162
-714.733	278.293	0.076	-0.136
-713.718	-150.150	-0.157	-0.012
-712.704	429.120	-0.192	-0.417
-711.689	159.083	0.119	-0.165
-710.675	-117.817	0.024	-0.004
-709.660	428.609	0.009	-0.020
-708.645	-89.060	0.265	0.078
-707.631	-200.000	0.004	0.092
-706.616	-200.000	0.257	-0.000
-705.602	-38.985	-0.248	0.131
-704.587	391.389	-0.184	-0.383
-703.572	-104.381	0.152	0.035
-702.558	89.165	-0.128	0.143
-701.543	167.306	0.058	-0.082
-700.529	-200.000	-0.039	-0.248
-699.514	126.742	0.126	0.160
-698.499	-200.000	-0.032	-0.314
-697.485	-77.655	-0.410	-0.142
-696.470	-200.000	0.025	-0.159
-695.456	672.903	-0.037	-0.096
-694.441	28.613	-0.128	-0.108
-693.426	42.993	-0.173	-0.158
-692.412	101.940	-0.136	0.159
-691.397	600.219	-0.069	0.172
-690.383	4.173	0.386	0.283
-689.368	-42.967	-0.152	-0.077
-688.354	-200.000	0.056	0.383
-687.339	800.000	0.025	-0.082
-686.324	364.433	-0.155	-0.312
-685.310	161.719	-0.247	-0.346
-684.295	77.930	-0.254	0.272
-683.281	-11.466	-0.179	-0.118
-682.266	-48.717	0.175	-0.084
-681.251	45.998	-0.208	-0.193
-680.237	-114.642	-0.427	0.082
-679.222	8.509	-0.210	0.158
-678.208	-135.629	-0.420	-0.050
-677.193	-60.408	0.204	0.087
-676.178	-17.119	-0.250	-0.158
-675.164	800.000	0.126	0.422
-674.149	38.254	-0.095	0.085
-673.135	-200.000	-0.015	-0.316
-672.120	-127.100	-0.177	-0.026
-671.105	101.246	0.242	0.282
-670.091	-200.000	0.001	-0.167
-669.076	800.000	0.055	-0.151
-668.062	41.073	0.070	-0.064
-667.047	43.841	-0.159	0.145
-666.032	248.363	-0.091	0.155
-665.018	-34.985	-0.220	-0.120
-664.003	77.877	-0.041	0.044
-662.989	-200.000	0.027	-0.146
-661.974	-143.450	-0.237	0.023
-660.959	-147.357	-0.202	-0.017
-659.945	236.101	-0.080	0.133
-658.930	-14.477	-0.313	-0.202
-657.916	-200.000	0.047	-0.539
-656.901	-71.507	0.312	0.117
-655.886	-200.000	-0.001	-0.031
-654.872	12.901	-0.064	-0.050
-653.857	-114.729	-0.398	0.076
-652.843	-170.455	0.159	-0.006
-651.828	800.000	-0.099	0.279
-650.814	44.389	-0.213	0.196
-649.799	23.183	0.103	-0.084
-648.784	661.971	0.017	0.044
-647.770	800.000	-0.075	0.243
-646.755	282.536	-0.033	0.059
-645.741	-4.945	-0.060	0.042
-644.726	43.922	-0.140	0.128
-643.711	-38.755	-0.250	0.132
-642.697	233.071	0.084	-0.138
-641.682	800.000	-0.048	0.161
-640.668	167.831	0.070	0.099
-639.653	-200.000	0.024	0.319
-638.638	800.000	-0.035	-0.112
-637.624	-136.078	-0.107	0.013
-636.609	-54.589	-0.219	0.099
-635.595	-200.000	-0.052	-0.474
-634.580	358.638	0.079	-0.157
-633.565	13.697	-0.167	0.129
-632.551	109.969	-0.205	-0.246
-631.536	-27.959	0.343	0.198
-630.522	-62.616	-0.134	-0.056
-629.507	124.914	-0.120	0.151
-628.492	-168.412	-0.230	-0.009
-627.478	45.581	0.094	-0.086
-626.463	-53.647	0.217	-0.099
-625.449	-59.062	0.208	0.090
-624.434	209.828	0.124	-0.194
-623.419	-67.482	0.176	-0.069
-622.405	157.070	-0.037	0.052
-621.390	-200.000	-0.004	0.112
-620.376	-119.434	0.506	-0.088
-619.361	-57.237	0.209	-0.092
-618.346	117.420	-0.123	-0.151
-617.332	561.587	0.050	-0.120
-616.317	117.402	0.236	-0.290
-615.303	-65.097	0.142	-0.057
-614.288	35.202	-0.259	-0.227
-613.273	22.790	-0.052	-0.043
-612.259	-56.212	0.409	0.182
-611.244	347.240	-0.142	-0.279
-610.230	800.000	0.066	0.271
-609.215	208.766	0.063	-0.098
-608.201	255.850	0.133	-0.228
-607.186	800.000	-0.013	0.044
-606.171	11.253	-0.229	-0.175
-605.157	61.852	0.040	-0.040
-604.142	198.776	0.144	0.220
-603.128	800.000	-0.080	-0.294
-602.113	215.481	-0.135	-0.214
-601.098	800.000	-0.057	0.173
-600.084	-112.941	-0.354	0.070
-599.069	6.739	-0.144	0.107
-598.055	649.297	-0.085	0.217
-597.040	238.930	0.058	-0.096
-596.025	800.000	-0.082	0.332
-595.011	-200.000	0.017	-0.145
-593.996	-125.350	-0.423	0.064
-592.982	223.898	0.147	-0.236
-591.967	-200.000	-0.005	0.047
-590.952	-37.643	0.203	0.108
-589.938	-79.077	0.101	-0.034
-588.923	-188.703	-0.260	0.003
-587.909	-30.051	-0.051	-0.029
-586.894	-53.012	0.083	-0.038
-585.879	-88.969	0.158	0.047
-584.865	-121.784	0.130	-0.021
-583.850	99.210	-0.148	0.171
-582.836	-15.745	-0.169	-0.107
-581.821	-91.884	0.411	-0.116
-580.806	-126.431	-0.170	-0.025
-579.792	-117.534	-0.281	-0.051
-578.777	-200.000	-0.011	-0.289
-577.763	738.097	0.083	0.221
-576.748	-200.000	-0.018	-0.390
-575.733	547.795	-0.093	-0.223
-574.719	227.669	-0.103	0.168
-573.704	-200.000	-0.014	0.109
-572.690	-200.000	0.013	0.274
-571.675	-33.591	0.151	0.083
-570.661	231.266	-0.115	0.187
-569.646	-33.377	-0.367	0.203
-568.631	189.775	-0.041	0.062
-567.617	800.000	-0.127	-0.398
-566.602	82.774	-0.215	-0.233
-565.588	-72.862	-0.475	0.174
-564.573	-34.047	0.208	-0.114
-563.558	412.105	0.078	-0.165
-562.544	25.411	0.294	0.243
-561.529	-36.071	0.212	-0.114
-560.515	-76.521	-0.163	-0.057
-559.500	-56.744	0.244	-0.107
-558.485	-76.775	0.355	0.124
-557.471	800.000	0.065	0.194
-556.456	-200.000	0.001	-0.062
-555.442	-52.297	-0.314	-0.145
-554.427	-128.237	0.114	-0.016
-553.412	-13.172	-0.160	-0.103
-552.398	443.990	-0.117	-0.255
-551.383	1.861	0.140	-0.101
-550.369	-7.982	-0.031	-0.021
-549.354	-91.024	-0.280	-0.080
-548.339	113.762	0.057	0.070
-547.325	-200.000	0.036	-0.292
-546.310	-99.057	0.261	-0.066
-545.296	58.779	0.106	-0.104
-544.281	110.503	-0.167	-0.200
-543.266	207.970	-0.088	0.137
-542.252	-3.163	0.242	-0.168
-541.237	62.576	0.093	0.093
-540.223	-200.000	0.002	-0.117
-539.208	305.448	-0.090	0.167
-538.193	-134.484	-0.171	0.021
-537.179	1.236	0.057	-0.041
-536.164	-119.128	-0.211	-0.037
-535.150	-108.718	-0.165	0.035
-534.135	19.408	0.130	-0.104
-533.121	800.000	-0.054	-0.158
-532.106	257.317	-0.076	0.130
-531.091	334.652	0.127	0.245
-530.077	-26.102	0.270	-0.158
-529.062	-149.922	-0.194	-0.015
-528.048	-53.324	-0.237	-0.108
-527.033	369.281	0.157	0.316
-526.018	416.552	0.010	-0.022
-525.004	348.029	-0.070	-0.137
-523.989	-143.786	-0.251	0.024
-522.975	-22.019	0.375	0.227
-521.960	-13.697	0.021	0.013
-520.945	800.000	-0.098	0.273
-519.931	-15.120	0.200	0.127
-518.916	220.631	0.060	-0.097
-517.902	-141.670	0.167	-0.017
-516.887	-114.993	-0.026	0.005
-515.872	18.436	-0.267	-0.212
-514.858	114.905	-0.192	0.233
-513.843	125.446	0.071	-0.089
-512.829	762.852	-0.067	0.182
-511.814	800.000	0.060	0.212
-510.799	-24.993	0.286	0.169
-509.785	11.374	-0.165	0.126
-508.770	-200.000	0.009	0.120
-507.756	-91.792	0.062	-0.017
-506.741	800.000	0.045	0.178
-505.726	-58.490	0.322	-0.139
-504.712	-200.000	-0.029	-0.262
-503.697	-162.078	0.239	-0.012
-502.683	-57.277	-0.257	0.112
-501.668	-128.947	-0.126	-0.018
-500.653	800.000	-0.039	-0.146
-499.639	348.035	0.027	-0.054
-498.624	-20.714	0.034	-0.021
-497.610	-57.381	0.103	-0.045
-496.595	12.057	-0.154	0.118
-495.581	-103.087	0.411	-0.097
-494.566	204.018	0.064	-0.099
-493.551	593.199	-0.051	0.125
-492.537	-200.000	-0.034	-0.235
-491.522	40.580	-0.405	-0.363
-490.508	591.247	-0.013	-0.032
-489.493	-114.811	0.240	-0.046
-488.478	-200.000	-0.002	0.086
-487.464	800.000	-0.033	-0.103
-486.449	-32.399	0.221	-0.123
-485.435	-29.349	-0.076	0.043
-484.420	16.613	0.257	0.202
-483.405	78.170	-0.278	0.295
-482.391	55.950	-0.186	0.179
-481.376	-190.764	0.302	0.003
-480.362	166.755	0.190	0.268
-479.347	-179.615	-0.161	0.003
-478.332	-196.092	-0.372	-0.003
-477.318	800.000	0.126	-0.419
-476.303	292.238	0.104	0.188
-475.289	-30.676	0.311	-0.175
-474.274	-200.000	-0.001	-0.181
-473.259	130.087	-0.068	-0.086
-472.245	-78.499	0.304	-0.104
-471.230	-144.782	-0.076	-0.007
-470.216	-76.915	-0.181	-0.063
-469.201	-8.585	0.460	0.307
-468.186	-113.543	-0.165	-0.032
-467.172	-42.518	0.315	-0.160
-466.157	-200.000	-0.043	-0.296
-465.143	-160.871	-0.327	0.017
-464.128	87.635	-0.253	-0.278
-463.113	800.000	0.047	-0.145
-462.099	-137.019	-0.286	0.032
-461.084	57.318	-0.274	-0.265
-460.070	-4.383	0.344	0.236
-459.055	-88.292	-0.250	0.074
-458.040	-41.465	-0.388	-0.198
-457.026	242.880	-0.094	-0.156
-456.011	800.000	-0.056	0.168
-454.997	-200.000	-0.062	-0.309
-453.982	207.627	-0.132	0.205
-452.968	163.812	-0.109	0.152
-451.953	16.303	-0.236	-0.185
-450.938	11.507	0.170	0.130
-449.924	-123.783	0.099	-0.015
-448.909	-129.592	-0.174	0.024
-447.895	725.529	0.048	-0.127
-446.880	-200.000	-0.021	0.185
-445.865	-200.000	0.041	0.195
-444.851	-113.491	0.306	0.059
-443.836	-200.000	-0.033	-0.246
-442.822	-152.674	-0.398	-0.028
-441.807	31.991	0.221	0.189
-440.792	-3.589	0.195	-0.135
-439.778	-95.526	0.220	0.058
-438.763	-200.000	-0.025	-0.252
-437.749	-147.338	-0.119	-0.010
-436.734	65.374	-0.181	-0.182
-435.719	-146.031	-0.367	0.032
-434.705	91.317	-0.175	-0.195
-433.690	317.105	0.100	0.188
-432.676	16.577	0.220	-0.173
-431.661	-20.742	-0.227	0.138
-430.646	159.286	-0.096	-0.132
-429.632	101.102	-0.122	0.141
-428.617	-133.372	0.179	-0.022
-427.603	-67.901	0.102	-0.040
-426.588	-84.294	0.379	0.119
-425.573	800.000	0.048	0.180
-424.559	-127.666	-0.055	-0.008
-423.544	-200.000	-0.021	-0.187
-422.530	21.082	-0.075	-0.060
-421.515	5.430	0.095	0.070
-420.500	-50.901	0.128	-0.060
-419.486	-52.210	0.401	-0.184
-418.471	50.961	-0.065	-0.061
-417.457	130.748	-0.149	-0.189
-416.442	690.065	0.018	-0.048
-415.428	119.971	-0.152	-0.187
-414.413	-200.000	-0.008	-0.193
-413.398	-101.285	0.368	0.089
-412.384	75.027	-0.132	0.138
-411.369	116.539	0.086	0.104
-410.355	-200.000	-0.008	0.045
-409.340	359.143	-0.084	-0.166
-408.325	68.820	0.193	-0.196
-407.311	197.846	-0.218	-0.330
-406.296	121.158	0.230	0.284
-405.282	-149.753	0.178	0.014
-404.267	-42.639	-0.682	0.344
-403.252	76.461	-0.014	-0.015
-402.238	-90.100	-0.232	-0.067
-401.223	-119.321	0.365	-0.063
-400.209	-136.902	-0.236	0.027
-399.194	-96.609	-0.407	0.106
-398.179	-200.000	0.030	0.221
-397.165	-40.037	0.315	0.162
-396.150	800.000	-0.033	0.103
-395.136	66.382	-0.094	0.095
-394.121	-38.901	-0.327	-0.171
-393.106	38.283	0.119	0.105
-392.092	-103.139	-0.159	-0.037
-391.077	-45.484	-0.418	0.205
-390.063	-61.886	-0.082	0.034
-389.048	-200.000	-0.006	-0.070
-388.033	-60.302	-0.115	0.048
-387.019	233.228	-0.087	-0.142
-386.004	-41.747	-0.036	-0.018
-384.990	74.575	-0.158	-0.164
-383.975	800.000	-0.073	0.251
-382.960	-200.000	0.005	-0.033
-381.946	-51.026	0.205	-0.095
-380.931	29.142	-0.149	-0.125
-379.917	-64.517	-0.265	0.107
-378.902	78.266	-0.021	0.022
-377.888	-50.180	0.284	0.133
-376.873	-40.993	-0.214	-0.109
-375.858	321.289	-0.055	0.103
-374.844	-99.923	0.144	-0.036
-373.829	305.832	0.096	-0.177
-372.815	-200.000	-0.071	-0.416
-371.800	-124.799	0.307	0.047
-370.785	-200.000	-0.011	-0.151
-369.771	-200.000	0.008	0.067
-368.756	-200.000	0.008	-0.120
-367.742	-200.000	-0.008	-0.055
-366.727	73.875	0.040	0.042
-365.712	-107.069	-0.179	0.039
-364.698	114.704	0.193	-0.233
-363.683	-165.886	0.379	0.016
-362.669	299.522	-0.071	0.129
-361.654	-43.071	0.310	-0.156
-360.639	-45.549	0.361	-0.177
-359.625	-85.062	0.146	-0.045
-358.610	-154.190	0.263	0.018
-357.596	389.195	0.084	0.173
-356.581	800.000	-0.042	0.163
-355.566	14.282	-0.068	0.053
-354.552	-54.805	-0.099	0.044
-353.537	138.871	0.102	-0.132
-352.523	-105.290	-0.405	-0.091
-351.508	-32.212	-0.270	0.149
-350.493	584.880	0.057	0.138
-349.479	59.658	-0.130	0.127
-348.464	106.849	-0.108	0.126
-347.450	-71.209	0.113	0.042
-346.435	30.615	0.158	0.133
-345.420	746.322	0.052	-0.138
-344.406	-200.000	-0.002	0.115
-343.391	548.824	-0.108	0.255
-342.377	-58.623	0.140	0.060
-341.362	800.000	0.067	-0.233
-340.348	137.901	-0.119	0.154
-339.333	-57.378	-0.325	-0.141
-338.318	-58.199	-0.385	-0.166
-337.304	236.540	-0.016	-0.026
-336.289	357.684	0.091	0.179
-335.275	46.075	-0.095	-0.087
-334.260	-143.661	-0.243	-0.023
-333.245	24.571	-0.163	0.134
-332.231	800.000	-0.117	0.384
-331.216	-63.011	-0.129	-0.052
-330.202	106.011	0.155	0.181
-329.187	65.916	0.303	0.303
-328.172	-107.813	0.204	0.044
-327.158	800.000	-0.049	0.171
-326.143	-84.425	-0.153	-0.048
-325.129	800.000	0.053	0.187
-324.114	-69.710	-0.143	-0.054
-323.099	138.079	0.164	0.213
-322.085	-200.000	-0.001	0.032
-321.070	-200.000	0.017	0.252
-320.056	-135.173	-0.136	-0.016
-319.041	-76.969	0.178	0.061
-318.026	-200.000	-0.021	0.249
-317.012	-200.000	0.012	-0.269
-315.997	636.728	-0.090	0.226
-314.983	-19.655	0.185	-0.113
-313.968	639.885	-0.109	-0.274
-312.953	800.000	0.056	-0.203
-311.939	86.428	-0.108	0.117
-310.924	-31.846	0.198	0.109
-309.910	299.897	0.092	-0.167
-308.895	-32.664	-0.088	0.049
-307.880	800.000	-0.071	-0.194
-306.866	-141.059	0.061	-0.006
-305.851	800.000	0.049	-0.157
-304.837	-133.469	-0.225	0.028
-303.822	800.000	-0.026	0.073
-302.807	-61.372	0.064	-0.027
-301.793	491.066	0.090	0.204
-300.778	800.000	0.030	0.115
-299.764	11.102	0.229	0.172
-298.749	43.517	-0.201	-0.181
-297.735	-200.000	0.025	-0.175
-296.720	210.760	-0.186	0.289
-295.705	-65.387	0.309	-0.123
-294.691	642.290	-0.153	-0.384
-293.676	-117.020	0.336	-0.060
-292.662	-64.554	-0.252	0.101
-291.647	-80.587	-0.343	-0.113
-290.632	-24.608	-0.104	-0.061
-289.618	800.000	-0.050	-0.200
-288.603	-50.099	-0.407	-0.190
-287.589	-200.000	-0.002	-0.343
-286.574	-10.795	-0.140	-0.091
-285.559	-200.000	0.001	-0.214
-284.545	-200.000	0.042	-0.321
-283.530	-200.000	-0.007	0.099
-282.516	219.056	0.134	-0.211
-281.501	-200.000	0.018	0.136
-280.486	-42.003	-0.272	0.137
-279.472	789.385	0.092	-0.248
-278.457	-60.183	0.137	0.058
-277.443	-200.000	0.001	0.397
-276.428	-200.000	-0.054	0.241
-275.413	-200.000	0.008	0.228
-274.399	-165.690	-0.204	0.009
-273.384	-200.000	0.022	0.102
-272.370	-200.000	0.001	0.088
-271.355	-22.298	0.175	0.105
-270.340	134.925	-0.130	0.166
-269.326	-200.000	-0.002	-0.107
-268.311	-200.000	0.011	0.163
-267.297	-200.000	0.017	0.264
-266.282	283.915	0.125	0.222
-265.267	-53.854	0.267	-0.120
-264.253	-34.892	0.135	0.073
-263.238	433.845	0.129	-0.276
-262.224	106.286	0.078	0.091
-261.209	-87.113	0.216	0.065
-260.195	-27.863	0.141	0.081
-259.180	720.801	0.131	-0.344
-258.165	27.960	0.126	-0.104
-257.151	-122.476	-0.461	-0.074
-256.136	-104.848	-0.156	-0.035
-255.122	-200.000	-0.063	0.309
-254.107	-56.362	0.405	0.177
-253.092	-73.681	-0.218	-0.078
-252.078	-1.916	0.125	-0.087
-251.063	-63.118	-0.171	0.069
-250.049	26.610	-0.146	-0.120
-249.034	-60.329	-0.141	0.059
-248.019	800.000	-0.088	0.294
-247.005	-140.576	-0.451	-0.046
-245.990	-95.575	0.524	-0.138
-244.976	79.188	0.038	0.040
-243.961	-55.031	0.242	-0.107
-242.946	-200.000	0.006	-0.308
-241.932	349.616	-0.047	0.092
-240.917	-136.507	-0.181	-0.021
-239.903	-168.894	0.215	-0.008
-238.888	328.605	0.130	-0.246
-237.873	-97.688	0.333	0.085
-236.859	55.754	0.377	0.360
-235.844	492.929	-0.114	0.256
-234.830	-200.000	-0.003	-0.060
-233.815	141.885	0.145	0.189
-232.800	-200.000	-0.015	-0.197
-231.786	-200.000	0.008	-0.284
-230.771	-200.000	-0.044	0.197
-229.757	-200.000	-0.001	0.112
-228.742	-63.254	0.116	0.047
-227.727	93.851	0.203	0.226
-226.713	-161.850	0.248	-0.012
-225.698	173.462	-0.114	-0.162
-224.684	-124.950	0.156	0.024
-223.669	291.454	-0.081	-0.145
-222.655	-200.000	0.022	-0.108
-221.640	-200.000	-0.028	0.337
-220.625	289.327	0.075	-0.134
-219.611	-15.502	-0.174	0.109
-218.596	108.322	-0.041	0.048
-217.582	-200.000	-0.053	0.449
-216.567	800.000	-0.066	0.178
-215.552	800.000	-0.140	0.409
-214.538	114.626	0.113	0.135
-213.523	-88.463	0.043	0.013
-212.509	232.644	0.184	0.297
-211.494	155.559	-0.093	-0.126
-210.479	-82.477	0.401	-0.128
-209.465	-186.649	-0.465	-0.006
-208.450	-55.886	0.296	-0.130
-207.436	66.046	0.208	0.207
-206.421	213.395	-0.194	-0.302
-205.406	-200.000	0.004	-0.073
-204.392	800.000	0.059	0.208
-203.377	-137.293	0.189	0.021
-202.363	10.062	-0.097	-0.072
-201.348	349.156	0.150	0.291
-200.333	-6.912	0.239	0.159
-199.319	82.696	-0.193	0.206
-198.304	-200.000	-0.003	-0.170
-197.290	-157.205	-0.198	0.012
-196.275	-200.000	0.010	0.134
-195.260	243.406	-0.052	0.086
-194.246	-61.796	0.150	0.062
-193.231	239.905	-0.162	-0.265
-192.217	-47.601	0.060	-0.029
-191.202	-200.000	0.024	0.209
-190.187	-30.425	0.085	0.047
-189.173	-141.766	-0.281	0.028
-188.158	800.000	-0.057	0.213
-187.144	631.571	0.126	0.314
-186.129	31.078	-0.077	-0.065
-185.114	-92.294	-0.091	0.025
-184.100	132.549	0.136	-0.173
-183.085	-96.505	0.104	-0.027
-182.071	36.446	0.137	-0.119
-181.056	-72.348	0.245	-0.089
-180.042	212.879	0.124	0.192
-179.027	288.703	0.001	-0.002
-178.012	-108.321	0.281	-0.060
-176.998	55.305	0.108	0.102
-175.983	641.875	-0.043	-0.107
-174.969	230.474	-0.142	-0.227
-173.954	603.774	-0.131	-0.319
-172.939	-89.994	0.242	0.069
-171.925	-19.599	0.175	-0.106
-170.910	124.688	-0.203	-0.251
-169.896	-90.462	0.430	0.122
-168.881	-34.852	0.267	-0.143
-167.866	-161.038	-0.279	0.014
-166.852	-200.000	-0.016	0.323
-165.837	31.122	-0.162	-0.136
-164.823	63.407	-0.217	-0.213
-163.808	800.000	-0.137	0.422
-162.793	396.376	0.023	0.047
-161.779	-82.869	-0.314	-0.100
-160.764	782.015	-0.110	-0.295
-159.750	237.594	0.217	0.352
-158.735	800.000	-0.077	0.222
-157.720	29.232	-0.045	0.038
-156.706	9.196	-0.128	-0.095
-155.691	98.768	0.077	-0.088
-154.677	-25.392	-0.078	0.045
-153.662	106.909	0.156	0.181
-152.647	510.769	0.110	-0.251
-151.633	-121.000	0.369	-0.061
-150.618	-63.336	0.191	0.077
-149.604	-200.000	-0.004	-0.401
-148.589	46.572	-0.233	-0.212
-147.574	-200.000	0.013	-0.186
-146.560	-46.470	0.092	0.044
-145.545	-200.000	-0.010	0.466
-144.531	374.041	-0.066	-0.132
-143.516	113.063	0.075	-0.089
-142.502	291.783	-0.071	-0.127
-141.487	3.061	0.156	-0.111
-140.472	-3.093	-0.134	-0.092
-139.458	-77.876	-0.079	0.027
-138.443	-54.459	0.222	-0.099
-137.429	238.599	-0.063	0.103
-136.414	137.780	0.138	0.177
-135.399	-107.836	0.203	-0.043
-134.385	117.287	0.068	0.082
-133.370	-135.162	0.288	-0.034
-132.356	-25.613	-0.154	-0.089
-131.341	7.733	-0.063	-0.046
-130.326	-200.000	0.039	0.331
-129.312	-61.836	-0.149	0.061
-128.297	-200.000	-0.100	-0.472
-127.283	-2.711	0.326	-0.223
-126.268	800.000	-0.072	-0.204
-125.253	605.225	-0.023	-0.055
-124.239	-84.708	0.172	-0.053
-123.224	-58.639	-0.060	0.025
-122.210	-145.594	0.207	-0.018
