DTS Sentinel unit serial number:	SN413079Multiplexer serial number:	ORYXHardware model number:	OX4-SRSoftware version number:	ORYX F/W v4.00 Oryx Data Collector v3.7.2.0data status	okinstallation	princeton_trtdifferential loss correction	single-endedforward channel	channel 1reverse channel	N/Adate	2019/09/15time	00:10:35forward acquisition time	60.00reverse acquisition time	0.00gamma	496.2192k internal	0.2320k external	0.2320temperature offset calibration	0.9990default loss term (dB/km)	0.3790temperature slope calibration	1.0000multiplexer offset coefficient	1.0000multiplexer slope coefficient	1.0000fibre end	0.00T internal ref (°C)	32.19T ext. ref 1 (°C)	4.58T ext. ref 2 (°C)	27.18length (m)	temperature (°C)	Stokes	anti-Stokes-747.200	-200.000	0.010	-0.293
-746.185	-96.549	-0.133	-0.036
-745.171	800.000	0.155	0.484
-744.156	-123.728	-0.090	0.014
-743.142	590.590	0.098	-0.245
-742.127	-48.807	0.293	-0.142
-741.112	800.000	-0.065	-0.275
-740.098	-135.139	-0.437	0.053
-739.083	-200.000	0.031	0.220
-738.069	-15.624	-0.154	0.099
-737.054	-11.034	0.458	0.306
-736.039	-96.397	-0.174	-0.047
-735.025	800.000	-0.045	0.190
-734.010	-123.366	0.203	0.033
-732.996	-22.558	-0.270	-0.165
-731.981	52.351	-0.284	0.274
-730.966	-200.000	-0.005	0.195
-729.952	-43.885	-0.134	-0.068
-728.937	800.000	-0.067	-0.203
-727.923	-86.562	0.146	-0.045
-726.908	173.700	-0.039	0.056
-725.894	-113.545	0.206	-0.041
-724.879	692.214	0.079	-0.209
-723.864	-92.569	-0.198	0.056
-722.850	-24.729	-0.304	-0.183
-721.835	34.541	-0.339	-0.299
-720.821	-27.759	-0.209	-0.122
-719.806	365.411	0.078	-0.159
-718.791	251.162	0.007	0.011
-717.777	-102.804	-0.151	0.036
-716.762	368.033	-0.080	0.164
-715.748	800.000	0.033	0.101
-714.733	-133.366	0.193	0.024
-713.718	800.000	0.044	-0.140
-712.704	64.120	-0.196	-0.200
-711.689	-200.000	-0.036	-0.206
-710.675	-170.643	0.272	0.009
-709.660	-166.367	0.440	-0.019
-708.645	-200.000	-0.028	-0.221
-707.631	170.688	0.278	-0.403
-706.616	-77.694	-0.271	-0.095
-705.602	-78.528	-0.161	-0.056
-704.587	541.882	-0.083	-0.200
-703.572	-154.382	0.284	0.019
-702.558	-3.463	-0.127	-0.089
-701.543	-95.155	0.145	-0.040
-700.529	41.763	-0.158	-0.145
-699.514	-132.988	0.201	0.026
-698.499	47.717	-0.097	-0.091
-697.485	-77.418	0.235	0.082
-696.470	508.557	0.154	-0.361
-695.456	-125.126	0.420	0.065
-694.441	101.057	0.121	-0.142
-693.426	-200.000	-0.003	0.200
-692.412	224.441	0.087	-0.142
-691.397	24.922	-0.118	-0.098
-690.383	-200.000	-0.063	0.338
-689.368	696.399	0.087	0.230
-688.354	-91.008	-0.095	-0.028
-687.339	-200.000	-0.047	0.243
-686.324	-200.000	-0.032	-0.370
-685.310	-78.771	0.195	-0.067
-684.295	-51.372	0.082	0.039
-683.281	249.781	0.083	-0.141
-682.266	96.569	-0.142	0.164
-681.251	19.493	0.185	0.150
-680.237	-108.812	-0.191	-0.041
-679.222	-116.084	0.062	0.012
-678.208	-12.150	0.198	-0.130
-677.193	-119.967	-0.196	-0.034
-676.178	678.313	-0.039	-0.102
-675.164	328.534	-0.106	-0.206
-674.149	7.262	0.049	-0.037
-673.135	339.211	0.091	-0.179
-672.120	-133.319	0.185	-0.023
-671.105	-147.707	-0.228	-0.019
-670.091	-24.064	-0.338	0.204
-669.076	216.202	-0.183	0.293
-668.062	-8.134	0.116	0.079
-667.047	6.071	-0.235	0.176
-666.032	48.396	0.093	0.088
-665.018	800.000	-0.018	-0.074
-664.003	517.161	0.033	-0.078
-662.989	75.889	0.051	-0.054
-661.974	42.329	-0.146	-0.134
-660.959	477.596	0.067	-0.153
-659.945	-87.650	-0.357	-0.109
-658.930	-200.000	0.049	-0.380
-657.916	587.196	-0.065	0.161
-656.901	58.636	-0.234	0.231
-655.886	-69.279	-0.114	-0.044
-654.872	93.964	-0.118	-0.135
-653.857	108.485	-0.172	-0.207
-652.843	-28.619	0.289	-0.168
-651.828	-32.648	0.236	-0.132
-650.814	-100.059	0.349	-0.088
-649.799	176.754	-0.220	0.322
-648.784	-172.328	-0.214	0.007
-647.770	471.477	0.122	-0.276
-646.755	-71.099	-0.127	0.048
-645.741	-128.076	0.178	0.026
-644.726	579.344	0.031	-0.077
-643.711	-200.000	-0.064	0.350
-642.697	274.806	0.082	-0.147
-641.682	96.533	-0.380	-0.439
-640.668	-200.000	-0.025	-0.124
-639.653	-200.000	0.017	0.124
-638.638	-200.000	-0.005	-0.046
-637.624	-200.000	-0.024	-0.165
-636.609	800.000	0.057	0.195
-635.595	800.000	0.049	-0.188
-634.580	-200.000	-0.111	-0.500
-633.565	-81.180	0.033	0.011
-632.551	117.003	0.035	0.043
-631.536	-200.000	0.017	0.114
-630.522	216.635	0.156	0.249
-629.507	800.000	0.052	-0.209
-628.492	100.333	0.122	-0.142
-627.478	-188.179	-0.173	0.002
-626.463	-200.000	0.050	-0.324
-625.449	327.543	-0.083	0.160
-624.434	-123.810	-0.098	0.016
-623.419	800.000	0.088	0.285
-622.405	-200.000	0.003	-0.242
-621.390	-13.606	0.383	-0.250
-620.376	800.000	-0.148	-0.462
-619.361	574.006	-0.122	0.300
-618.346	-4.504	-0.111	-0.077
-617.332	27.257	0.155	0.131
-616.317	107.237	0.235	-0.281
-615.303	33.759	0.138	0.121
-614.288	-200.000	0.015	-0.114
-613.273	106.724	-0.149	-0.178
-612.259	222.480	-0.120	0.194
-611.244	11.947	-0.181	0.140
-610.230	59.167	-0.172	0.170
-609.215	-153.570	0.235	-0.016
-608.201	-200.000	-0.021	-0.303
-607.186	29.239	0.150	-0.128
-606.171	56.296	-0.113	0.111
-605.157	77.763	-0.169	0.181
-604.142	-37.685	0.290	0.155
-603.128	48.989	0.126	0.119
-602.113	68.564	0.220	0.227
-601.098	-200.000	-0.027	0.363
-600.084	-200.000	0.024	0.126
-599.069	51.320	0.047	0.045
-598.055	-39.238	0.353	-0.186
-597.040	-200.000	-0.015	-0.074
-596.025	-200.000	0.018	-0.221
-595.011	-142.128	0.009	0.001
-593.996	9.701	0.117	-0.089
-592.982	-127.648	0.115	0.017
-591.967	-87.360	0.110	0.034
-590.952	-80.647	0.243	0.081
-589.938	113.402	-0.085	0.103
-588.923	-67.546	-0.168	0.066
-587.909	-17.735	-0.046	-0.029
-586.894	-200.000	-0.005	0.176
-585.879	-200.000	-0.003	0.048
-584.865	-83.570	-0.263	-0.084
-583.850	-200.000	0.005	0.322
-582.836	800.000	-0.037	-0.143
-581.821	644.877	0.161	-0.412
-580.806	800.000	-0.075	-0.259
-579.792	136.291	0.193	-0.253
-578.777	-4.762	-0.028	0.020
-577.763	75.257	-0.089	-0.094
-576.748	430.846	0.059	-0.129
-575.733	800.000	-0.103	0.349
-574.719	-158.048	-0.211	0.012
-573.704	-91.961	0.309	0.088
-572.690	586.496	0.069	0.170
-571.675	-200.000	0.013	0.232
-570.661	636.739	-0.119	0.302
-569.646	-68.847	0.035	-0.014
-568.631	611.576	-0.114	-0.286
-567.617	37.553	-0.039	-0.034
-566.602	169.145	0.251	-0.360
-565.588	-34.430	-0.015	0.008
-564.573	190.526	-0.168	-0.253
-563.558	384.551	-0.049	0.101
-562.544	-200.000	-0.002	-0.072
-561.529	-126.065	0.248	-0.037
-560.515	96.174	0.079	0.091
-559.500	-151.661	-0.097	-0.007
-558.485	-37.867	0.114	-0.061
-557.471	250.316	0.131	-0.224
-556.456	-110.789	-0.365	-0.075
-555.442	800.000	0.040	-0.156
-554.427	455.216	-0.027	-0.059
-553.412	63.134	-0.342	0.344
-552.398	-200.000	0.035	-0.171
-551.383	800.000	0.075	-0.254
-550.369	157.373	-0.196	-0.272
-549.354	-116.120	-0.198	0.037
-548.339	77.957	0.136	0.145
-547.325	-75.370	0.091	-0.032
-546.310	-200.000	-0.001	0.115
-545.296	-200.000	0.018	-0.097
-544.281	2.515	-0.068	0.049
-543.266	-200.000	0.015	0.259
-542.252	-139.099	0.296	0.032
-541.237	-94.889	-0.270	0.073
-540.223	-81.297	0.100	-0.033
-539.208	-197.525	-0.205	-0.001
-538.193	13.364	0.018	0.014
-537.179	-1.195	0.120	0.085
-536.164	-123.748	-0.183	0.029
-535.150	23.548	-0.185	0.152
-534.135	800.000	0.068	0.209
-533.121	-200.000	-0.050	0.223
-532.106	-200.000	-0.014	-0.256
-531.091	539.395	-0.163	-0.389
-530.077	99.825	-0.228	-0.265
-529.062	448.776	0.095	-0.209
-528.048	397.045	0.143	0.299
-527.033	106.035	-0.295	0.350
-526.018	191.557	0.005	-0.007
-525.004	225.830	-0.063	0.103
-523.989	-66.345	0.177	0.071
-522.975	-200.000	-0.045	0.370
-521.960	-200.000	-0.000	0.174
-520.945	540.216	-0.064	0.152
-519.931	-83.886	-0.220	0.070
-518.916	-76.010	0.380	-0.135
-517.902	-200.000	0.035	0.390
-516.887	-200.000	-0.017	0.342
-515.872	558.579	0.109	-0.264
-514.858	-175.800	-0.102	0.003
-513.843	-105.398	-0.334	-0.076
-512.829	-84.359	0.228	-0.072
-511.814	161.410	0.108	0.151
-510.799	800.000	0.040	-0.126
-509.785	326.864	-0.187	-0.358
-508.770	-14.429	0.358	-0.231
-507.756	309.134	0.098	0.184
-506.741	-200.000	0.062	0.360
-505.726	-32.948	-0.165	0.092
-504.712	-73.359	0.282	0.103
-503.697	80.992	0.242	0.261
-502.683	-180.069	-0.361	-0.008
-501.668	-200.000	0.042	-0.230
-500.653	123.001	0.096	0.120
-499.639	-122.643	-0.105	0.017
-498.624	-22.792	0.219	0.132
-497.610	-200.000	0.026	0.247
-496.595	-200.000	0.031	0.332
-495.581	188.157	0.174	-0.260
-494.566	287.952	-0.037	-0.066
-493.551	-167.146	0.154	-0.006
-492.537	77.756	-0.035	0.037
-491.522	-200.000	0.003	0.196
-490.508	0.300	0.123	-0.088
-489.493	7.426	0.192	-0.144
-488.478	-200.000	-0.030	-0.337
-487.464	-65.340	0.152	0.061
-486.449	-13.801	0.193	-0.125
-485.435	37.742	0.233	-0.207
-484.420	229.555	-0.107	-0.175
-483.405	51.101	-0.123	0.116
-482.391	54.122	-0.105	-0.101
-481.376	-200.000	0.045	0.207
-480.362	-200.000	0.008	-0.205
-479.347	184.441	-0.124	-0.184
-478.332	-200.000	-0.016	0.198
-477.318	-197.156	0.211	-0.001
-476.303	-200.000	-0.004	-0.211
-475.289	200.376	-0.005	0.007
-474.274	-98.002	0.307	-0.079
-473.259	800.000	-0.066	-0.284
-472.245	-140.189	-0.080	-0.008
-471.230	-200.000	0.003	0.043
-470.216	637.484	0.129	0.328
-469.201	-134.205	0.205	-0.025
-468.186	800.000	-0.049	0.159
-467.172	135.812	0.135	0.176
-466.157	800.000	-0.067	0.186
-465.143	-150.003	-0.204	0.016
-464.128	-57.016	-0.309	0.136
-463.113	452.965	0.221	-0.488
-462.099	-47.669	-0.055	0.027
-461.084	329.023	0.088	-0.169
-460.070	800.000	0.114	0.415
-459.055	-200.000	0.007	-0.057
-458.040	139.476	-0.125	0.164
-457.026	-200.000	-0.021	0.152
-456.011	296.296	-0.108	-0.197
-454.997	-200.000	-0.006	-0.039
-453.982	-200.000	0.001	0.250
-452.968	-113.031	-0.218	0.043
-451.953	103.162	-0.056	0.065
-450.938	-136.147	0.256	-0.030
-449.924	-200.000	0.017	-0.192
-448.909	362.348	-0.138	-0.276
-447.895	198.887	-0.020	0.030
-446.880	-35.951	0.149	0.081
-445.865	-200.000	-0.002	0.374
-444.851	800.000	0.080	-0.252
-443.836	90.249	-0.065	0.073
-442.822	-121.548	0.244	0.041
-441.807	-52.195	-0.258	0.119
-440.792	-200.000	-0.038	0.172
-439.778	75.445	0.116	-0.122
-438.763	-12.029	0.109	0.071
-437.749	-26.717	-0.116	-0.068
-436.734	191.273	-0.152	-0.228
-435.719	46.906	0.220	0.204
-434.705	-57.236	-0.210	-0.092
-433.690	-200.000	0.082	0.372
-432.676	-200.000	0.014	0.167
-431.661	-179.207	0.130	0.003
-430.646	-174.102	0.123	-0.004
-429.632	400.087	0.018	-0.038
-428.617	-200.000	-0.027	-0.137
-427.603	-138.114	-0.209	0.023
-426.588	-43.857	0.164	0.083
-425.573	272.429	-0.086	-0.151
-424.559	63.745	-0.150	0.151
-423.544	99.209	-0.279	-0.322
-422.530	556.372	0.157	0.378
-421.515	-200.000	-0.029	0.169
-420.500	190.095	0.022	-0.033
-419.486	99.198	-0.144	0.167
-418.471	-200.000	-0.037	0.194
-417.457	-200.000	-0.030	-0.160
-416.442	98.546	0.182	0.209
-415.428	729.743	0.018	-0.048
-414.413	276.552	-0.089	0.158
-413.398	4.346	0.197	-0.144
-412.384	89.020	-0.040	0.045
-411.369	-142.783	-0.152	0.015
-410.355	364.365	0.146	-0.294
-409.340	800.000	0.077	0.236
-408.325	-174.649	0.210	-0.006
-407.311	-31.269	0.134	-0.075
-406.296	-101.585	0.503	0.122
-405.282	22.212	0.194	-0.158
-404.267	-109.663	-0.196	0.041
-403.252	-200.000	-0.025	0.118
-402.238	-176.325	-0.138	-0.004
-401.223	24.051	-0.158	0.130
-400.209	519.847	-0.146	-0.342
-399.194	54.441	-0.100	-0.096
-398.179	800.000	0.047	-0.142
-397.165	81.286	-0.081	0.088
-396.150	800.000	0.058	0.173
-395.136	800.000	0.079	-0.315
-394.121	76.722	0.197	-0.208
-393.106	17.747	0.209	-0.166
-392.092	-64.534	-0.232	-0.094
-391.077	-92.852	-0.145	-0.040
-390.063	38.209	0.317	0.281
-389.048	-200.000	0.036	-0.260
-388.033	-143.107	0.107	-0.010
-387.019	-16.641	-0.094	0.060
-386.004	-136.101	-0.194	0.023
-384.990	-103.702	-0.074	-0.017
-383.975	15.588	-0.126	0.099
-382.960	122.713	0.099	0.123
-381.946	63.803	-0.116	-0.116
-380.931	800.000	0.045	0.196
-379.917	-67.606	0.333	0.130
-378.902	-200.000	0.027	0.173
-377.888	-101.556	0.508	0.123
-376.873	-11.387	-0.084	-0.055
-375.858	0.343	-0.158	-0.113
-374.844	-200.000	0.022	0.147
-373.829	-24.535	0.296	-0.176
-372.815	-42.631	-0.376	0.191
-371.800	-200.000	0.021	-0.298
-370.785	-74.249	-0.063	0.023
-369.771	-105.705	0.193	0.044
-368.756	269.977	0.163	0.286
-367.742	-60.457	-0.228	-0.096
-366.727	-92.625	-0.198	0.055
-365.712	157.636	-0.111	0.153
-364.698	-18.969	-0.174	-0.108
-363.683	800.000	-0.080	-0.269
-362.669	-200.000	0.052	-0.359
-361.654	69.878	0.141	-0.145
-360.639	-200.000	-0.088	-0.448
-359.625	-150.069	0.221	-0.017
-358.610	139.020	0.146	0.191
-357.596	524.940	0.089	-0.208
-356.581	-200.000	0.003	0.084
-355.566	372.080	-0.069	0.139
-354.552	69.059	0.161	-0.165
-353.537	800.000	0.031	0.136
-352.523	-18.210	0.274	-0.170
-351.508	-200.000	-0.013	-0.167
-350.493	256.438	-0.102	-0.175
-349.479	-145.478	-0.217	0.019
-348.464	-153.642	0.124	0.009
-347.450	-200.000	-0.003	-0.361
-346.435	166.532	-0.091	0.128
-345.420	-200.000	-0.034	0.262
-344.406	800.000	0.141	0.397
-343.391	63.755	0.179	-0.179
-342.377	-88.373	0.185	-0.055
-341.362	79.320	-0.151	0.161
-340.348	800.000	0.044	0.164
-339.333	223.074	0.141	0.225
-338.318	-97.990	-0.138	-0.035
-337.304	-65.531	-0.380	-0.152
-336.289	-83.733	-0.113	-0.036
-335.275	-35.410	-0.248	0.134
-334.260	14.076	0.069	-0.053
-333.245	800.000	0.051	0.193
-332.231	-39.175	0.215	-0.112
-331.216	-67.194	0.112	-0.044
-330.202	-33.446	-0.206	0.114
-329.187	42.222	-0.094	0.085
-328.172	57.503	-0.219	0.213
-327.158	45.140	0.006	-0.005
-326.143	-24.463	-0.183	0.108
-325.129	-40.839	0.224	0.115
-324.114	-138.427	0.353	-0.039
-323.099	49.556	0.185	-0.173
-322.085	800.000	-0.065	0.186
-321.070	-36.453	-0.099	-0.053
-320.056	-94.426	-0.056	0.015
-319.041	-1.680	0.089	-0.063
-318.026	-200.000	-0.005	-0.482
-317.012	2.235	-0.292	0.210
-315.997	-200.000	-0.006	0.391
-314.983	422.082	-0.066	0.140
-313.968	-200.000	-0.006	-0.283
-312.953	800.000	0.050	0.191
-311.939	16.087	-0.135	0.106
-310.924	-200.000	-0.022	0.164
-309.910	800.000	0.042	-0.158
-308.895	-76.123	-0.195	-0.068
-307.880	275.129	0.149	-0.263
-306.866	-45.630	0.109	-0.054
-305.851	-200.000	0.078	-0.450
-304.837	-62.786	-0.168	-0.069
-303.822	-200.000	-0.003	0.098
-302.807	61.432	-0.037	0.036
-301.793	-88.490	-0.149	-0.044
-300.778	8.810	-0.037	0.028
-299.764	-1.893	0.230	-0.161
-298.749	71.140	-0.089	0.092
-297.735	-200.000	-0.008	0.235
-296.720	-35.414	-0.159	-0.086
-295.705	-194.900	-0.050	-0.000
-294.691	191.531	-0.134	0.201
-293.676	414.286	0.180	-0.381
-292.662	595.697	-0.022	0.054
-291.647	190.225	-0.086	-0.128
-290.632	-187.446	-0.247	-0.003
-289.618	203.714	0.186	0.286
-288.603	-111.798	-0.180	0.036
-287.589	800.000	-0.031	0.117
-286.574	800.000	0.040	0.155
-285.559	-200.000	0.117	0.532
-284.545	-200.000	-0.095	-0.494
-283.530	-200.000	-0.022	-0.224
-282.516	44.672	0.115	-0.105
-281.501	-37.498	0.174	0.092
-280.486	-162.469	-0.399	-0.020
-279.472	269.472	0.027	0.047
-278.457	122.120	0.138	0.171
-277.443	-108.642	-0.101	0.021
-276.428	111.693	-0.101	0.121
-275.413	-59.176	-0.234	0.100
-274.399	-200.000	0.025	0.166
-273.384	-22.442	-0.063	-0.038
-272.370	351.193	-0.182	-0.358
-271.355	10.248	0.221	-0.167
-270.340	-118.630	0.096	0.017
-269.326	153.688	-0.295	-0.402
-268.311	800.000	-0.113	-0.460
-267.297	279.954	-0.123	-0.217
-266.282	-108.369	0.164	0.035
-265.267	800.000	-0.121	-0.384
-264.253	538.107	0.187	-0.440
-263.238	-200.000	0.011	0.369
-262.224	-147.667	-0.178	0.015
-261.209	-200.000	-0.016	-0.158
-260.195	55.257	0.107	0.103
-259.180	-61.896	-0.255	-0.106
-258.165	-200.000	-0.008	0.548
-257.151	-196.756	-0.078	0.001
-256.136	-200.000	0.038	-0.263
-255.122	140.925	-0.125	-0.164
-254.107	-60.730	0.260	0.109
-253.092	367.863	-0.064	-0.129
-252.078	800.000	0.030	-0.106
-251.063	-101.297	0.110	0.027
-250.049	800.000	-0.012	0.035
-249.034	12.284	0.162	0.124
-248.019	-200.000	0.009	-0.072
-247.005	334.533	-0.077	0.148
-245.990	-32.736	0.206	-0.114
-244.976	800.000	-0.071	-0.217
-243.961	800.000	-0.084	-0.307
-242.946	800.000	0.040	0.148
-241.932	-78.748	-0.405	0.137
-240.917	-53.330	-0.361	0.164
-239.903	382.493	0.194	0.396
-238.888	33.629	0.288	-0.249
-237.873	19.192	-0.205	0.163
-236.859	-145.312	0.346	-0.031
-235.844	507.890	0.107	0.247
-234.830	-200.000	0.002	-0.066
-233.815	112.697	-0.296	-0.355
-232.800	-193.435	-0.200	-0.002
-231.786	-200.000	-0.057	0.261
-230.771	-183.663	0.198	-0.003
-229.757	-83.845	0.195	0.062
-228.742	800.000	0.094	0.374
-227.727	110.970	0.041	-0.049
-226.713	94.034	-0.250	-0.281
-225.698	-174.052	-0.163	0.005
-224.684	-200.000	0.047	-0.257
-223.669	207.554	-0.155	0.239
-222.655	275.472	-0.093	0.163
-221.640	800.000	-0.093	-0.311
-220.625	-46.300	0.217	-0.106
-219.611	38.777	0.140	0.124
-218.596	-200.000	0.012	0.087
-217.582	-156.343	0.264	-0.016
-216.567	116.426	0.041	0.050
-215.552	-93.253	-0.088	-0.024
-214.538	32.894	0.069	-0.060
-213.523	-200.000	-0.001	-0.087
-212.509	411.972	0.106	-0.222
-211.494	136.803	-0.157	0.202
-210.479	-54.098	-0.135	0.061
-209.465	81.118	-0.125	-0.134
-208.450	333.844	-0.071	-0.136
-207.436	-17.191	0.367	0.229
-206.421	-156.238	-0.168	-0.010
-205.406	46.882	0.185	-0.170
-204.392	800.000	-0.034	-0.117
-203.377	59.100	0.115	-0.112
-202.363	800.000	0.071	0.204
-201.348	-200.000	-0.019	-0.222
-200.333	-41.311	0.236	-0.120
-199.319	-83.004	-0.294	0.094
-198.304	89.984	0.116	-0.128
-197.290	53.475	0.167	0.159
-196.275	424.091	-0.005	0.011
-195.260	275.605	0.021	-0.037
-194.246	-23.288	-0.224	-0.133
-193.231	69.354	-0.173	-0.176
-192.217	27.860	0.084	-0.070
-191.202	-43.417	0.113	-0.057
-190.187	-161.825	-0.152	-0.008
-189.173	-200.000	0.010	-0.135
-188.158	-94.275	0.370	0.100
-187.144	-200.000	0.050	-0.224
-186.129	-139.404	-0.338	0.036
-185.114	287.715	-0.106	0.189
-184.100	123.137	-0.122	0.151
-183.085	-200.000	0.008	-0.197
-182.071	110.846	-0.176	0.210
-181.056	-91.293	0.190	0.054
-180.042	-38.942	-0.100	0.052
-179.027	-200.000	0.173	0.001
-178.012	-177.687	-0.190	-0.005
-176.998	364.848	-0.060	0.119
-175.983	553.132	-0.124	-0.294
-174.969	800.000	-0.026	0.102
-173.954	68.636	0.210	0.213
-172.939	-94.292	-0.263	0.071
-171.925	1.556	0.151	0.108
-170.910	29.470	0.180	0.151
-169.896	-200.000	0.075	0.425
-168.881	800.000	0.076	0.230
-167.866	45.630	0.212	0.193
-166.852	-32.273	-0.383	0.211
-165.837	800.000	-0.071	-0.213
-164.823	791.249	0.071	0.192
-163.808	800.000	0.017	-0.071
-162.793	137.088	-0.106	0.137
-161.779	-23.755	-0.117	-0.069
-160.764	-114.825	-0.490	0.092
-159.750	-76.255	0.186	0.065
-158.735	-9.076	0.103	-0.068
-157.720	291.139	0.097	0.175
-156.706	-54.643	0.030	0.013
-155.691	-200.000	0.053	0.273
-154.677	-164.990	-0.432	-0.019
-153.662	201.982	-0.093	-0.142
-152.647	-200.000	0.021	-0.509
-151.633	522.366	-0.004	0.009
-150.618	43.392	0.327	-0.295
-149.604	65.250	0.196	-0.196
-148.589	-200.000	-0.013	0.264
-147.574	-100.542	-0.184	-0.045
-146.560	15.095	0.304	0.235
-145.545	-42.313	0.221	0.112
-144.531	175.069	-0.102	-0.145
-143.516	170.156	0.075	0.106
-142.502	13.722	0.146	0.112
-141.487	13.061	0.165	0.126
-140.472	-155.879	0.545	0.034
-139.458	-200.000	-0.047	-0.302
-138.443	509.886	-0.020	0.045
-137.429	-200.000	-0.018	-0.115
-136.414	-11.618	0.185	0.120
-135.399	245.448	-0.081	0.135
-134.385	-200.000	0.016	-0.108
-133.370	537.276	-0.158	-0.371
-132.356	-139.761	-0.102	-0.011
-131.341	-200.000	-0.000	0.152
-130.326	134.217	-0.246	0.315
-129.312	-200.000	0.032	-0.355
-128.297	-54.456	0.253	-0.113
-127.283	469.271	0.136	-0.302
-126.268	-200.000	-0.035	-0.301
-125.253	320.031	-0.125	0.234
-124.239	800.000	0.062	-0.197
-123.224	247.621	0.053	0.088
-122.210	-85.330	-0.164	0.050
-121.195	39.491	-0.208	0.184
