DTS Sentinel unit serial number:	SN413079Multiplexer serial number:	ORYXHardware model number:	OX4-SRSoftware version number:	ORYX F/W v4.00 Oryx Data Collector v3.7.2.0data status	okinstallation	princeton_trtdifferential loss correction	single-endedforward channel	channel 1reverse channel	N/Adate	2019/09/11time	11:52:11forward acquisition time	60.00reverse acquisition time	0.00gamma	496.2192k internal	0.2292k external	0.2292temperature offset calibration	0.9948default loss term (dB/km)	0.3790temperature slope calibration	1.0000multiplexer offset coefficient	1.0000multiplexer slope coefficient	1.0000fibre end	0.00T internal ref (°C)	38.94T ext. ref 1 (°C)	0.22T ext. ref 2 (°C)	37.26length (m)	temperature (°C)	Stokes	anti-Stokes-747.200	-136.229	-0.249	0.030
-746.185	165.121	-0.255	0.368
-745.171	-112.622	-0.168	0.034
-744.156	3.615	0.104	0.078
-743.142	522.804	0.147	-0.354
-742.127	-200.000	0.040	0.310
-741.112	-132.068	0.162	0.022
-740.098	-20.041	-0.173	0.109
-739.083	45.732	-0.079	-0.075
-738.069	-23.434	-0.080	-0.049
-737.054	-125.396	0.188	0.029
-736.039	16.824	-0.074	0.060
-735.025	265.246	0.097	0.174
-734.010	-60.624	0.129	0.056
-732.996	-40.229	-0.257	-0.137
-731.981	29.760	-0.142	-0.124
-730.966	-194.676	-0.267	0.002
-729.952	-55.588	-0.122	-0.056
-728.937	-143.826	-0.101	0.010
-727.923	356.735	-0.099	0.202
-726.908	-135.289	0.250	0.031
-725.894	7.147	0.109	0.083
-724.879	800.000	0.076	-0.275
-723.864	31.140	0.199	-0.174
-722.850	492.351	0.089	-0.210
-721.835	-200.000	-0.075	-0.393
-720.821	-200.000	-0.006	0.138
-719.806	-200.000	0.014	-0.101
-718.791	-56.567	0.172	-0.078
-717.777	-200.000	-0.020	0.154
-716.762	131.306	-0.136	0.179
-715.748	794.095	0.049	0.138
-714.733	800.000	0.101	-0.293
-713.718	-9.337	-0.297	-0.203
-712.704	-200.000	0.007	-0.083
-711.689	-117.083	-0.196	-0.036
-710.675	33.660	0.132	0.118
-709.660	23.404	-0.084	-0.071
-708.645	2.479	-0.203	-0.150
-707.631	6.730	0.107	0.081
-706.616	-155.471	0.190	0.013
-705.602	800.000	0.088	0.328
-704.587	102.609	0.023	-0.027
-703.572	-42.751	0.077	-0.040
-702.558	-95.363	-0.067	0.018
-701.543	-167.237	0.098	0.004
-700.529	-62.553	0.146	0.062
-699.514	-200.000	-0.011	0.167
-698.499	800.000	-0.041	-0.147
-697.485	71.752	-0.073	-0.077
-696.470	-200.000	0.028	-0.179
-695.456	-171.647	-0.056	-0.002
-694.441	104.068	0.128	-0.154
-693.426	800.000	-0.074	-0.308
-692.412	-83.444	-0.327	0.107
-691.397	-126.211	-0.408	-0.062
-690.383	-99.889	-0.227	0.058
-689.368	34.482	-0.112	-0.100
-688.354	-200.000	0.021	0.122
-687.339	-132.248	-0.178	0.023
-686.324	8.897	0.049	0.037
-685.310	-0.379	-0.058	-0.042
-684.295	-53.764	0.102	0.048
-683.281	-195.607	-0.333	-0.002
-682.266	-200.000	0.016	-0.335
-681.251	116.959	-0.128	-0.160
-680.237	-131.478	0.227	-0.031
-679.222	-135.231	0.188	0.023
-678.208	290.433	0.145	-0.269
-677.193	446.317	-0.114	-0.257
-676.178	-155.509	0.048	0.003
-675.164	554.764	-0.086	-0.212
-674.149	78.699	-0.065	-0.071
-673.135	-200.000	0.015	0.087
-672.120	-161.055	-0.282	-0.015
-671.105	157.335	0.088	0.124
-670.091	-47.706	-0.305	0.151
-669.076	-138.812	0.260	-0.029
-668.062	450.848	-0.105	0.237
-667.047	-2.178	-0.166	-0.119
-666.032	31.406	0.201	0.177
-665.018	158.599	0.123	0.174
-664.003	-41.395	0.182	-0.095
-662.989	7.817	0.141	-0.108
-661.974	733.647	0.064	0.176
-660.959	-44.344	0.150	-0.077
-659.945	800.000	0.132	-0.390
-658.930	51.807	0.286	-0.278
-657.916	-27.436	0.234	0.139
-656.901	-200.000	-0.028	-0.166
-655.886	800.000	-0.026	-0.116
-654.872	800.000	0.049	-0.155
-653.857	-50.296	0.145	0.070
-652.843	17.264	0.295	-0.239
-651.828	-81.581	-0.268	0.090
-650.814	629.608	-0.045	-0.117
-649.799	783.847	-0.049	-0.136
-648.784	-70.797	-0.163	-0.063
-647.770	-200.000	-0.020	-0.095
-646.755	-17.291	-0.172	-0.111
-645.741	612.984	0.124	0.317
-644.726	-200.000	0.041	-0.398
-643.711	-200.000	0.052	-0.425
-642.697	-23.568	-0.100	-0.061
-641.682	-181.353	-0.203	0.004
-640.668	272.801	-0.022	0.039
-639.653	101.588	0.108	-0.128
-638.638	-130.701	0.065	0.009
-637.624	-80.016	-0.502	0.172
-636.609	148.626	0.050	-0.069
-635.595	-200.000	0.022	0.289
-634.580	101.907	-0.193	-0.230
-633.565	-173.672	-0.114	0.003
-632.551	-44.165	-0.211	0.108
-631.536	-45.994	-0.249	0.125
-630.522	-173.104	-0.134	0.004
-629.507	800.000	-0.076	0.230
-628.492	-40.912	-0.263	-0.139
-627.478	-200.000	0.006	-0.064
-626.463	-200.000	0.002	-0.154
-625.449	117.659	0.052	-0.065
-624.434	-43.047	-0.264	-0.136
-623.419	20.593	-0.241	0.199
-622.405	-168.870	0.292	0.011
-621.390	272.516	0.084	0.150
-620.376	-2.791	0.323	0.230
-619.361	-76.150	-0.186	-0.067
-618.346	-200.000	-0.022	0.546
-617.332	-127.588	0.212	0.031
-616.317	205.142	-0.075	0.118
-615.303	268.491	-0.094	-0.168
-614.288	347.024	0.049	0.098
-613.273	39.599	-0.229	0.209
-612.259	165.087	-0.074	0.107
-611.244	178.649	-0.036	-0.054
-610.230	425.870	-0.100	-0.220
-609.215	-127.060	0.458	0.068
-608.201	-116.414	-0.160	-0.030
-607.186	291.173	-0.135	0.251
-606.171	-120.089	0.263	0.046
-605.157	-65.159	-0.139	-0.057
-604.142	-148.043	-0.180	-0.015
-603.128	-200.000	0.057	0.342
-602.113	-77.065	0.139	0.049
-601.098	-61.805	-0.417	-0.178
-600.084	800.000	0.049	-0.156
-599.069	100.982	-0.043	-0.051
-598.055	-200.000	0.004	-0.075
-597.040	21.998	-0.350	-0.291
-596.025	-200.000	0.027	0.445
-595.011	223.923	0.326	-0.535
-593.996	-149.438	-0.243	0.020
-592.982	-151.999	0.041	0.003
-591.967	-200.000	0.023	0.307
-590.952	-76.695	0.042	0.015
-589.938	-99.701	0.178	0.045
-588.923	110.688	-0.219	-0.268
-587.909	800.000	-0.077	-0.233
-586.894	-113.027	0.290	-0.058
-585.879	-143.697	-0.088	0.009
-584.865	-125.556	0.115	-0.018
-583.850	-33.667	0.083	-0.047
-582.836	434.698	-0.090	0.199
-581.821	-95.772	-0.198	-0.054
-580.806	779.658	0.038	0.105
-579.792	340.264	-0.084	-0.166
-578.777	-117.099	0.239	-0.044
-577.763	94.401	-0.269	-0.311
-576.748	-200.000	0.059	-0.282
-575.733	228.297	-0.159	0.263
-574.719	291.279	0.022	0.040
-573.704	-200.000	-0.015	0.102
-572.690	800.000	-0.068	-0.220
-571.675	281.796	0.024	-0.044
-570.661	358.867	-0.186	0.378
-569.646	-160.077	-0.234	0.013
-568.631	-150.240	-0.444	0.035
-567.617	-35.356	0.042	-0.023
-566.602	800.000	0.039	0.151
-565.588	144.795	0.188	0.255
-564.573	-200.000	0.037	0.216
-563.558	-200.000	0.014	0.084
-562.544	800.000	-0.075	0.256
-561.529	-200.000	-0.047	-0.349
-560.515	800.000	0.050	-0.166
-559.500	14.265	-0.249	0.197
-558.485	-139.822	0.305	-0.033
-557.471	29.168	-0.226	-0.195
-556.456	-21.018	0.011	0.007
-555.442	800.000	0.092	0.294
-554.427	-200.000	-0.016	0.154
-553.412	-52.616	0.184	-0.086
-552.398	323.723	0.113	0.220
-551.383	104.305	0.227	-0.271
-550.369	-40.906	0.286	-0.150
-549.354	-31.026	0.202	-0.116
-548.339	800.000	0.047	-0.132
-547.325	-143.288	0.223	0.022
-546.310	800.000	-0.043	-0.124
-545.296	367.112	-0.172	-0.352
-544.281	-38.356	-0.220	-0.118
-543.266	177.453	0.320	-0.473
-542.252	-81.208	-0.283	0.095
-541.237	-14.002	0.126	0.083
-540.223	-47.178	-0.066	0.033
-539.208	499.424	-0.071	0.166
-538.193	800.000	0.078	0.256
-537.179	507.208	0.151	-0.355
-536.164	10.366	0.378	-0.293
-535.150	-180.331	-0.138	-0.003
-534.135	220.460	-0.194	-0.316
-533.121	-102.413	-0.271	-0.066
-532.106	-31.145	-0.033	-0.019
-531.091	-200.000	0.012	0.142
-530.077	-200.000	-0.026	-0.143
-529.062	-127.796	0.131	-0.019
-528.048	54.286	0.268	0.262
-527.033	-66.629	-0.054	0.022
-526.018	-180.700	-0.197	-0.004
-525.004	-200.000	-0.043	-0.263
-523.989	-200.000	-0.003	0.479
-522.975	800.000	0.091	-0.378
-521.960	800.000	-0.031	0.126
-520.945	-72.908	0.173	-0.065
-519.931	181.261	-0.146	-0.217
-518.916	-185.587	-0.148	0.002
-517.902	-101.957	0.213	0.052
-516.887	620.736	-0.133	0.339
-515.872	57.397	-0.222	0.220
-514.858	87.394	0.089	-0.100
-513.843	-100.402	-0.118	0.030
-512.829	191.275	-0.058	0.089
-511.814	53.554	0.084	0.082
-510.799	-200.000	0.011	0.077
-509.785	800.000	0.153	0.431
-508.770	775.819	-0.069	-0.192
-507.756	-13.499	0.239	0.157
-506.741	336.639	-0.154	-0.303
-505.726	152.079	0.115	-0.158
-504.712	-86.779	-0.011	-0.003
-503.697	-54.089	-0.248	-0.114
-502.683	215.977	-0.059	-0.096
-501.668	27.348	0.146	-0.124
-500.653	-133.849	0.341	0.043
-499.639	-134.047	-0.229	0.029
-498.624	170.428	-0.113	-0.164
-497.610	-127.220	0.342	-0.051
-496.595	-74.243	0.134	-0.049
-495.581	-129.075	-0.198	-0.028
-494.566	78.953	0.105	0.114
-493.551	26.767	0.040	-0.034
-492.537	450.159	-0.177	0.397
-491.522	593.289	0.072	-0.181
-490.508	-49.960	-0.315	-0.152
-489.493	389.835	-0.038	-0.080
-488.478	-200.000	0.010	0.169
-487.464	-95.134	-0.268	0.073
-486.449	265.340	-0.143	0.252
-485.435	800.000	-0.065	-0.241
-484.420	302.888	-0.173	-0.325
-483.405	64.807	0.131	-0.133
-482.391	341.405	-0.082	0.163
-481.376	800.000	0.119	-0.382
-480.362	-140.878	-0.195	-0.020
-479.347	-87.034	0.255	0.079
-478.332	-200.000	-0.012	-0.074
-477.318	-89.841	-0.372	0.110
-476.303	800.000	0.027	-0.079
-475.289	-47.776	-0.249	0.122
-474.274	-200.000	0.048	-0.468
-473.259	24.791	-0.220	-0.185
-472.245	-179.168	0.212	0.005
-471.230	-91.715	0.064	0.018
-470.216	-200.000	0.023	-0.232
-469.201	285.306	0.144	-0.263
-468.186	384.833	-0.008	0.018
-467.172	-200.000	-0.031	-0.137
-466.157	406.699	0.042	-0.089
-465.143	672.848	-0.035	-0.092
-464.128	-156.883	0.188	-0.012
-463.113	207.689	0.039	0.061
-462.099	160.344	-0.135	-0.191
-461.084	-30.040	0.383	0.221
-460.070	335.794	0.038	0.075
-459.055	-151.906	0.129	-0.010
-458.040	80.111	0.269	0.292
-457.026	-146.177	0.289	-0.026
-456.011	-92.159	0.063	0.018
-454.997	-104.576	-0.145	-0.034
-453.982	800.000	0.065	-0.271
-452.968	-122.964	0.082	-0.013
-451.953	-142.048	-0.254	0.026
-450.938	-132.478	0.059	-0.008
-449.924	-121.995	0.147	-0.024
-448.909	640.635	-0.069	-0.177
-447.895	-158.312	-0.153	-0.009
-446.880	-123.200	-0.285	0.046
-445.865	-113.640	0.066	-0.013
-444.851	183.524	-0.086	0.128
-443.836	49.990	-0.257	0.246
-442.822	-200.000	-0.026	-0.238
-441.807	800.000	0.058	0.187
-440.792	323.053	-0.073	0.141
-439.778	800.000	-0.115	0.418
-438.763	-200.000	-0.026	0.220
-437.749	184.914	0.072	0.108
-436.734	12.961	-0.142	-0.111
-435.719	-10.672	0.247	-0.165
-434.705	-90.544	0.106	0.031
-433.690	800.000	-0.062	-0.241
-432.676	-75.368	-0.139	-0.050
-431.661	180.024	-0.058	0.086
-430.646	-50.891	-0.202	0.096
-429.632	633.832	0.055	-0.141
-428.617	182.442	0.122	0.182
-427.603	-48.635	0.085	0.041
-426.588	198.269	0.174	-0.268
-425.573	-137.517	0.173	0.020
-424.559	-129.717	0.210	0.029
-423.544	-200.000	0.025	-0.307
-422.530	101.809	0.123	-0.145
-421.515	112.281	0.260	-0.317
-420.500	800.000	0.048	-0.182
-419.486	800.000	-0.133	-0.370
-418.471	706.615	-0.070	-0.187
-417.457	-114.813	0.150	0.029
-416.442	-200.000	0.010	0.369
-415.428	-154.927	0.357	0.024
-414.413	121.298	0.163	0.206
-413.398	-200.000	0.040	0.533
-412.384	401.777	-0.102	-0.216
-411.369	-200.000	-0.021	-0.149
-410.355	1.352	-0.033	0.024
-409.340	-200.000	-0.029	0.348
-408.325	53.769	-0.368	-0.357
-407.311	-75.964	-0.107	-0.038
-406.296	-28.280	-0.033	-0.019
-405.282	-200.000	-0.022	-0.411
-404.267	-113.912	0.143	0.028
-403.252	-200.000	0.019	0.367
-402.238	-18.883	-0.407	0.256
-401.223	-35.020	0.160	0.088
-400.209	188.096	-0.106	-0.160
-399.194	-200.000	0.047	0.317
-398.179	-200.000	0.037	0.367
-397.165	16.738	-0.111	0.088
-396.150	800.000	-0.060	-0.233
-395.136	0.977	0.103	0.075
-394.121	165.433	0.070	0.101
-393.106	344.118	0.075	-0.148
-392.092	-177.529	-0.106	-0.003
-391.077	321.025	-0.075	0.144
-390.063	516.792	0.014	0.033
-389.048	-104.498	0.186	0.043
-388.033	33.917	-0.019	-0.017
-387.019	800.000	-0.145	0.408
-386.004	-21.437	0.247	-0.152
-384.990	-80.477	-0.205	0.069
-383.975	-200.000	0.032	-0.362
-382.960	-57.797	0.193	-0.085
-381.946	260.082	0.219	-0.382
-380.931	86.645	0.067	0.075
-379.917	800.000	-0.099	0.374
-378.902	214.853	0.142	-0.228
-377.888	0.716	0.055	-0.039
-376.873	800.000	0.036	0.109
-375.858	-5.353	0.236	0.163
-374.844	800.000	-0.033	-0.097
-373.829	600.288	-0.127	0.318
-372.815	-200.000	-0.004	-0.020
-371.800	522.860	0.093	0.220
-370.785	-85.170	-0.236	-0.075
-369.771	23.376	0.203	0.168
-368.756	19.914	-0.119	0.097
-367.742	70.101	0.273	-0.284
-366.727	800.000	0.016	0.056
-365.712	-148.703	0.211	0.017
-364.698	-108.341	-0.278	-0.060
-363.683	-143.524	-0.175	0.017
-362.669	157.971	0.180	0.252
-361.654	-36.897	0.095	-0.051
-360.639	-22.236	-0.093	-0.057
-359.625	410.657	0.079	-0.170
-358.610	800.000	0.114	-0.334
-357.596	132.547	-0.221	-0.287
-356.581	800.000	-0.059	0.218
-355.566	-4.335	0.135	-0.094
-354.552	800.000	0.102	-0.293
-353.537	486.857	0.067	0.155
-352.523	96.217	0.159	0.183
-351.508	-102.018	-0.206	-0.050
-350.493	143.788	-0.114	-0.153
-349.479	97.249	-0.179	-0.207
-348.464	-51.585	-0.102	-0.048
-347.450	-70.711	0.018	0.007
-346.435	-200.000	0.081	0.556
-345.420	-200.000	0.001	-0.090
-344.406	139.969	0.065	0.087
-343.391	164.353	0.070	-0.099
-342.377	88.800	-0.100	-0.112
-341.362	116.276	-0.063	0.077
-340.348	79.459	0.163	-0.176
-339.333	-123.601	-0.117	-0.019
-338.318	-118.102	0.356	-0.064
-337.304	-82.956	-0.034	-0.011
-336.289	-15.995	-0.027	-0.018
-335.275	800.000	0.094	-0.277
-334.260	-84.291	-0.214	-0.068
-333.245	-151.896	-0.029	-0.002
-332.231	180.163	-0.165	0.243
-331.216	800.000	0.083	0.286
-330.202	-126.696	-0.292	0.044
-329.187	-154.397	0.361	-0.024
-328.172	-39.414	-0.188	-0.099
-327.158	117.986	-0.112	-0.139
-326.143	-200.000	0.015	-0.133
-325.129	372.941	0.029	0.059
-324.114	111.088	0.202	-0.245
-323.099	-145.436	-0.111	-0.010
-322.085	309.549	-0.098	-0.185
-321.070	100.613	0.043	0.050
-320.056	800.000	-0.060	0.207
-319.041	310.807	0.075	0.142
-318.026	-97.340	0.244	-0.064
-317.012	-138.145	-0.275	0.031
-315.997	86.327	0.022	0.025
-314.983	347.290	0.107	-0.213
-313.968	-91.103	0.319	0.092
-312.953	264.739	-0.069	-0.120
-311.939	-52.490	-0.344	0.160
-310.924	-188.725	-0.114	0.001
-309.910	-200.000	-0.022	0.145
-308.895	-125.267	-0.245	-0.038
-307.880	276.748	-0.101	-0.180
-306.866	375.706	0.185	-0.380
-305.851	509.893	-0.117	0.274
-304.837	-92.995	0.277	-0.078
-303.822	-200.000	-0.004	0.025
-302.807	3.049	-0.087	-0.063
-301.793	-63.066	-0.178	0.074
-300.778	91.977	0.154	0.175
-299.764	-200.000	-0.004	0.156
-298.749	-200.000	0.042	0.261
-297.735	800.000	0.077	0.306
-296.720	-67.500	-0.098	0.039
-295.705	244.925	-0.135	0.228
-294.691	11.683	0.150	0.116
-293.676	31.634	-0.123	0.106
-292.662	628.701	0.119	0.304
-291.647	716.049	-0.049	-0.131
-290.632	-89.993	0.206	0.060
-289.618	392.196	-0.040	-0.084
-288.603	402.706	-0.088	0.186
-287.589	307.573	0.165	-0.309
-286.574	-200.000	0.022	-0.336
-285.559	-29.932	0.137	-0.079
-284.545	-82.965	0.343	-0.111
-283.530	695.916	-0.124	-0.328
-282.516	130.293	0.167	0.215
-281.501	-125.477	0.270	-0.041
-280.486	-76.451	-0.163	-0.058
-279.472	-200.000	-0.002	-0.180
-278.457	-188.803	-0.079	-0.001
-277.443	35.975	-0.096	-0.085
-276.428	-1.160	-0.186	-0.132
-275.413	-200.000	0.004	0.142
-274.399	-54.293	0.303	0.138
-273.384	-29.265	-0.396	-0.228
-272.370	760.216	-0.065	-0.178
-271.355	-179.376	0.143	0.003
-270.340	147.289	-0.164	0.222
-269.326	25.673	-0.186	0.156
-268.311	-183.376	-0.165	0.003
-267.297	-200.000	-0.071	-0.457
-266.282	-63.585	-0.547	-0.226
-265.267	269.154	-0.057	0.101
-264.253	-69.993	-0.189	-0.072
-263.238	-66.664	0.231	0.092
-262.224	-200.000	-0.004	0.369
-261.209	23.642	-0.049	-0.041
-260.195	-164.187	-0.239	0.011
-259.180	63.057	-0.163	-0.164
-258.165	-126.140	0.211	0.032
-257.151	3.465	-0.261	0.191
-256.136	-33.625	-0.159	0.088
-255.122	-200.000	0.019	0.178
-254.107	-47.434	0.207	-0.101
-253.092	-73.974	0.243	-0.089
-252.078	329.737	0.196	-0.378
-251.063	-200.000	-0.008	0.110
-250.049	-21.743	-0.205	-0.125
-249.034	-200.000	-0.001	-0.127
-248.019	-17.037	0.076	-0.048
-247.005	381.748	-0.134	0.276
-245.990	-200.000	0.002	0.110
-244.976	-200.000	-0.036	0.292
-243.961	248.151	0.117	0.199
-242.946	-65.640	0.261	0.105
-241.932	-102.607	0.210	-0.050
-240.917	-154.173	-0.442	0.030
-239.903	-117.075	0.213	-0.039
-238.888	800.000	0.057	0.199
-237.873	-78.581	0.243	0.083
-236.859	173.910	-0.182	0.264
-235.844	-67.969	-0.076	0.030
-234.830	800.000	-0.020	0.065
-233.815	153.064	0.117	-0.161
-232.800	-27.605	0.357	0.208
-231.786	-34.994	0.170	-0.093
-230.771	-50.289	0.186	0.088
-229.757	38.844	0.126	-0.113
-228.742	-127.227	0.180	-0.026
-227.727	205.668	0.215	0.335
-226.713	52.185	-0.193	0.185
-225.698	-69.626	0.149	0.057
-224.684	-0.266	0.111	-0.079
-223.669	-4.655	0.355	0.246
-222.655	320.741	-0.146	-0.278
-221.640	-200.000	-0.009	-0.192
-220.625	-62.205	0.352	-0.147
-219.611	-50.411	0.198	0.094
-218.596	234.188	0.063	0.104
-217.582	322.737	-0.042	0.080
-216.567	-3.197	-0.276	0.193
-215.552	800.000	-0.056	-0.187
-214.538	70.951	0.163	0.169
-213.523	-200.000	0.012	0.377
-212.509	259.367	-0.045	0.077
-211.494	749.860	-0.077	-0.208
-210.479	0.250	0.125	0.090
-209.465	439.560	-0.034	-0.074
-208.450	254.321	0.176	-0.301
-207.436	-148.025	-0.530	-0.044
-206.421	98.516	0.123	0.143
-205.406	-156.387	-0.231	0.014
-204.392	-25.193	0.349	-0.207
-203.377	664.435	0.095	0.247
-202.363	18.412	-0.350	0.280
-201.348	71.015	0.131	-0.136
-200.333	207.325	-0.070	-0.110
-199.319	230.863	-0.079	-0.130
-198.304	48.803	0.179	-0.168
-197.290	493.049	-0.052	0.120
-196.275	74.259	0.052	0.055
-195.260	11.576	-0.113	-0.087
-194.246	34.163	0.290	-0.253
-193.231	-118.016	-0.285	-0.051
-192.217	-200.000	0.033	0.293
-191.202	-200.000	0.039	-0.279
-190.187	-141.394	0.151	-0.015
-189.173	-87.032	0.190	0.058
-188.158	222.087	-0.170	-0.274
-187.144	-200.000	0.012	0.056
-186.129	-96.738	-0.106	-0.028
-185.114	118.373	-0.187	-0.231
-184.100	-2.753	0.208	0.145
-183.085	-151.478	-0.093	-0.007
-182.071	301.271	0.121	-0.224
-181.056	-17.558	-0.362	0.228
-180.042	743.824	-0.125	0.337
-179.027	-148.039	0.237	-0.020
-178.012	-102.557	0.050	0.012
-176.998	-44.539	0.277	0.139
-175.983	136.428	0.052	0.067
-174.969	631.875	-0.066	0.167
-173.954	-126.613	0.173	0.026
-172.939	33.525	0.085	0.074
-171.925	-161.607	0.308	0.016
-170.910	-2.327	0.051	-0.036
-169.896	-33.240	0.341	0.189
-168.881	800.000	0.094	0.270
-167.866	393.416	0.034	-0.071
-166.852	80.179	0.399	0.429
-165.837	-200.000	0.042	0.681
-164.823	-200.000	-0.018	0.373
-163.808	260.491	-0.171	-0.297
-162.793	57.301	-0.031	0.030
-161.779	-44.986	-0.103	0.051
-160.764	116.182	-0.190	-0.232
-159.750	-155.350	-0.136	-0.009
-158.735	-36.370	-0.113	-0.061
-157.720	-200.000	0.054	-0.363
-156.706	91.411	0.082	0.093
-155.691	-188.196	-0.400	0.005
-154.677	-119.227	0.186	-0.032
-153.662	-25.222	0.054	0.032
-152.647	-60.478	-0.295	-0.125
-151.633	-69.062	0.130	-0.050
-150.618	-154.500	0.520	0.035
-149.604	42.820	-0.190	-0.173
-148.589	-171.229	0.293	0.010
-147.574	180.849	0.155	0.227
-146.560	116.969	0.120	0.147
-145.545	-128.206	-0.284	-0.041
-144.531	217.621	0.105	0.167
-143.516	-18.952	0.148	-0.092
-142.502	-200.000	0.059	0.415
-141.487	232.823	0.316	-0.519
-140.472	800.000	-0.059	0.235
-139.458	-200.000	-0.007	0.262
-138.443	-75.446	0.141	0.050
-137.429	-88.157	-0.365	-0.109
-136.414	-12.934	0.288	-0.187
-135.399	-58.905	-0.233	0.101
-134.385	93.917	0.116	0.131
-133.370	-12.676	-0.226	-0.147
-132.356	27.898	-0.216	-0.182
-131.341	-200.000	0.058	-0.277
-130.326	-59.602	0.094	-0.040
-129.312	6.963	0.210	-0.156
-128.297	-139.172	-0.189	-0.020
-127.283	800.000	-0.028	-0.087
-126.268	-23.931	-0.188	0.112
-125.253	-200.000	-0.011	-0.079
-124.239	129.470	0.071	0.090
-123.224	125.712	-0.127	-0.160
-122.210	-84.881	0.119	0.037
