DTS Sentinel unit serial number:	SN413079Multiplexer serial number:	ORYXHardware model number:	OX4-SRSoftware version number:	ORYX F/W v4.00 Oryx Data Collector v3.7.2.0data status	okinstallation	princeton_trtdifferential loss correction	single-endedforward channel	channel 1reverse channel	N/Adate	2019/09/18time	16:02:35forward acquisition time	60.00reverse acquisition time	0.00gamma	496.2192k internal	0.2292k external	0.2292temperature offset calibration	0.9994default loss term (dB/km)	0.3790temperature slope calibration	1.0000multiplexer offset coefficient	1.0000multiplexer slope coefficient	1.0000fibre end	0.00T internal ref (°C)	37.45T ext. ref 1 (°C)	0.80T ext. ref 2 (°C)	36.87length (m)	temperature (°C)	Stokes	anti-Stokes-747.200	239.543	-0.047	0.080
-746.185	151.145	-0.093	-0.129
-745.171	539.503	0.078	-0.190
-744.156	800.000	-0.107	0.406
-743.142	35.000	0.291	0.261
-742.127	96.033	-0.192	-0.225
-741.112	207.203	-0.079	-0.127
-740.098	-93.456	-0.247	0.070
-739.083	141.707	0.226	0.306
-738.069	24.161	0.133	-0.113
-737.054	-18.845	-0.198	0.126
-736.039	-14.087	-0.166	0.109
-735.025	-89.654	0.178	-0.053
-734.010	-119.432	0.113	0.020
-732.996	321.759	0.253	-0.492
-731.981	-58.219	0.111	-0.050
-730.966	-101.708	-0.213	-0.053
-729.952	393.619	-0.091	-0.194
-728.937	800.000	-0.109	-0.339
-727.923	64.433	-0.236	0.243
-726.908	402.651	-0.105	0.226
-725.894	266.796	-0.047	-0.083
-724.879	93.832	0.261	-0.302
-723.864	-76.317	-0.213	-0.077
-722.850	16.332	0.443	0.357
-721.835	-133.173	-0.290	-0.037
-720.821	800.000	0.103	-0.350
-719.806	86.681	0.136	-0.154
-718.791	-200.000	-0.004	0.026
-717.777	-200.000	0.039	-0.219
-716.762	-110.787	0.338	-0.071
-715.748	-26.791	0.191	-0.114
-714.733	92.950	0.130	-0.150
-713.718	272.076	-0.118	-0.212
-712.704	63.217	0.222	-0.227
-711.689	152.974	0.197	-0.275
-710.675	117.401	0.113	-0.142
-709.660	-177.974	0.192	-0.005
-708.645	11.617	0.240	0.188
-707.631	-140.305	0.080	-0.009
-706.616	175.449	0.218	-0.322
-705.602	-118.735	-0.114	-0.021
-704.587	-200.000	-0.013	-0.353
-703.572	-179.502	0.076	0.002
-702.558	68.189	0.135	0.141
-701.543	-45.633	0.083	0.042
-700.529	-138.844	0.103	-0.011
-699.514	-160.232	-0.291	-0.016
-698.499	565.382	-0.112	-0.277
-697.485	169.242	-0.160	-0.233
-696.470	-121.794	0.313	-0.053
-695.456	-37.470	-0.242	0.132
-694.441	-151.659	0.181	0.014
-693.426	-200.000	-0.033	0.361
-692.412	-12.906	0.135	0.090
-691.397	216.977	0.079	0.128
-690.383	37.808	-0.086	0.078
-689.368	-43.354	0.155	-0.080
-688.354	-2.007	-0.172	0.123
-687.339	-78.832	-0.286	-0.100
-686.324	800.000	0.103	-0.425
-685.310	800.000	0.007	-0.027
-684.295	-50.291	-0.269	-0.130
-683.281	800.000	0.083	-0.286
-682.266	665.749	-0.157	0.415
-681.251	-156.540	0.312	0.020
-680.237	-200.000	-0.004	0.201
-679.222	-200.000	-0.004	0.112
-678.208	122.834	0.144	-0.183
-677.193	-56.251	-0.153	-0.070
-676.178	-106.551	-0.242	-0.055
-675.164	-169.438	-0.292	0.011
-674.149	-45.949	0.271	-0.137
-673.135	-149.678	-0.317	0.025
-672.120	233.257	0.142	0.239
-671.105	-39.741	0.328	0.175
-670.091	-124.277	-0.118	-0.019
-669.076	562.575	-0.102	-0.253
-668.062	83.169	0.198	-0.220
-667.047	17.204	0.291	0.236
-666.032	25.155	0.305	-0.259
-665.018	-128.634	0.332	0.048
-664.003	476.730	0.124	0.286
-662.989	-122.318	0.198	-0.033
-661.974	74.176	0.068	-0.073
-660.959	88.573	-0.151	-0.172
-659.945	486.227	-0.093	-0.215
-658.930	-200.000	0.018	0.502
-657.916	-200.000	0.021	0.254
-656.901	-106.108	-0.153	-0.035
-655.886	-81.739	-0.280	0.093
-654.872	19.063	0.256	-0.209
-653.857	69.508	-0.021	-0.022
-652.843	115.092	-0.102	-0.126
-651.828	37.822	0.066	-0.059
-650.814	196.590	-0.140	-0.217
-649.799	-200.000	-0.046	-0.389
-648.784	487.112	0.117	0.273
-647.770	800.000	-0.061	-0.255
-646.755	-88.294	0.128	0.039
-645.741	-200.000	-0.058	-0.301
-644.726	94.219	-0.211	0.244
-643.711	727.199	0.053	0.143
-642.697	-124.477	0.099	-0.016
-641.682	446.048	0.062	0.139
-640.668	253.775	-0.108	0.189
-639.653	251.409	0.076	-0.131
-638.638	-45.889	0.416	-0.209
-637.624	-13.688	0.125	-0.083
-636.609	-97.300	-0.066	0.018
-635.595	38.161	-0.223	-0.203
-634.580	642.064	-0.001	-0.003
-633.565	800.000	0.049	0.163
-632.551	288.170	0.229	0.423
-631.536	83.497	-0.214	0.238
-630.522	-200.000	0.008	0.132
-629.507	198.355	-0.051	0.079
-628.492	800.000	0.096	-0.325
-627.478	120.613	0.091	-0.115
-626.463	-146.231	0.303	0.027
-625.449	186.494	-0.094	0.143
-624.434	-26.550	-0.355	0.212
-623.419	-129.425	0.152	0.021
-622.405	-152.999	0.468	0.034
-621.390	800.000	-0.045	0.139
-620.376	-69.551	0.257	-0.100
-619.361	101.123	0.170	-0.202
-618.346	26.496	-0.072	0.061
-617.332	23.575	-0.152	0.127
-616.317	159.612	0.026	-0.037
-615.303	210.525	-0.086	0.137
-614.288	487.950	0.065	-0.152
-613.273	292.096	0.093	-0.172
-612.259	36.217	-0.279	0.250
-611.244	-69.959	-0.150	-0.058
-610.230	-170.479	-0.257	-0.009
-609.215	88.123	0.120	0.136
-608.201	207.093	-0.035	0.056
-607.186	800.000	0.096	0.279
-606.171	377.912	-0.028	0.058
-605.157	800.000	-0.045	-0.191
-604.142	85.576	0.030	0.033
-603.128	-53.211	-0.200	0.093
-602.113	-200.000	0.041	0.327
-601.098	4.907	0.175	0.131
-600.084	-200.000	0.011	0.101
-599.069	800.000	-0.090	0.261
-598.055	-9.522	-0.278	-0.189
-597.040	800.000	0.004	-0.013
-596.025	147.596	-0.137	-0.188
-595.011	-14.935	-0.209	0.136
-593.996	-200.000	0.022	0.184
-592.982	-107.272	-0.274	0.061
-591.967	-99.846	-0.175	0.045
-590.952	-23.635	-0.177	-0.108
-589.938	91.717	0.273	-0.312
-588.923	-97.135	0.172	0.046
-587.909	387.524	0.082	-0.172
-586.894	-39.784	-0.215	0.114
-585.879	-102.708	0.406	0.098
-584.865	-200.000	0.021	0.122
-583.850	194.565	-0.019	0.029
-582.836	-88.689	-0.197	0.059
-581.821	-200.000	0.015	0.168
-580.806	-88.096	-0.127	-0.039
-579.792	159.843	0.127	-0.181
-578.777	-109.717	-0.381	-0.082
-577.763	800.000	-0.020	-0.087
-576.748	43.680	-0.122	-0.113
-575.733	37.438	0.130	-0.117
-574.719	-200.000	-0.003	-0.101
-573.704	103.029	-0.188	0.223
-572.690	128.105	-0.138	-0.178
-571.675	-4.202	-0.090	-0.063
-570.661	-72.306	-0.211	0.080
-569.646	-113.321	-0.069	-0.014
-568.631	-2.752	-0.176	0.125
-567.617	-0.435	-0.185	0.134
-566.602	-1.355	-0.241	0.173
-565.588	307.389	-0.088	-0.167
-564.573	41.553	-0.136	0.126
-563.558	800.000	-0.048	-0.161
-562.544	800.000	0.065	-0.256
-561.529	800.000	0.048	0.192
-560.515	-63.290	0.221	0.093
-559.500	-34.929	0.140	-0.078
-558.485	50.798	0.096	-0.093
-557.471	-64.375	-0.262	0.108
-556.456	-35.685	-0.126	-0.069
-555.442	-107.212	0.270	0.060
-554.427	-14.870	0.284	-0.185
-553.412	-59.121	-0.206	0.090
-552.398	131.720	0.173	0.226
-551.383	800.000	-0.040	-0.138
-550.369	10.022	-0.220	0.170
-549.354	-17.663	-0.167	0.107
-548.339	-63.498	0.274	-0.114
-547.325	712.260	0.051	-0.138
-546.310	-160.985	-0.102	0.005
-545.296	-200.000	0.023	-0.263
-544.281	-200.000	-0.005	0.265
-543.266	128.889	0.077	-0.100
-542.252	-65.974	0.346	0.140
-541.237	-200.000	0.072	-0.469
-540.223	-108.719	-0.344	0.075
-539.208	-52.685	0.285	-0.133
-538.193	-20.036	-0.179	-0.112
-537.179	355.000	-0.161	0.325
-536.164	-172.825	0.163	0.005
-535.150	465.262	-0.068	0.154
-534.135	-65.789	0.211	0.086
-533.121	-200.000	-0.017	-0.314
-532.106	137.993	-0.164	-0.219
-531.091	419.496	0.076	-0.166
-530.077	-84.261	0.105	-0.034
-529.062	-145.121	-0.204	0.019
-528.048	-46.360	0.233	-0.116
-527.033	800.000	0.047	0.203
-526.018	800.000	0.065	0.232
-525.004	800.000	-0.104	0.347
-523.989	374.672	-0.007	0.015
-522.975	119.968	0.067	0.084
-521.960	-170.946	0.218	0.008
-520.945	48.454	-0.118	0.112
-519.931	62.060	0.277	-0.280
-518.916	524.124	0.097	-0.232
-517.902	-164.578	-0.319	0.015
-516.887	-77.193	0.118	-0.042
-515.872	217.424	0.083	0.134
-514.858	-45.070	-0.258	-0.130
-513.843	197.102	-0.173	-0.268
-512.829	255.661	0.171	0.296
-511.814	-101.781	0.268	-0.066
-510.799	-119.858	-0.185	-0.032
-509.785	-155.221	-0.187	-0.012
-508.770	269.307	0.149	-0.264
-507.756	-15.328	-0.186	0.121
-506.741	-200.000	0.026	-0.319
-505.726	-112.258	-0.042	-0.008
-504.712	-138.987	0.198	-0.022
-503.697	21.001	0.232	0.191
-502.683	-200.000	-0.043	-0.192
-501.668	-92.093	0.138	-0.040
-500.653	91.783	0.055	-0.062
-499.639	-107.812	-0.111	0.024
-498.624	-108.201	-0.250	0.055
-497.610	-200.000	-0.019	0.200
-496.595	-200.000	0.045	0.210
-495.581	-90.933	0.348	0.101
-494.566	139.302	-0.171	-0.228
-493.551	164.862	-0.179	0.256
-492.537	304.550	-0.133	-0.250
-491.522	-155.191	0.110	-0.007
-490.508	-61.004	-0.204	0.087
-489.493	-162.414	-0.085	0.004
-488.478	-52.684	0.190	-0.089
-487.464	564.549	-0.171	-0.421
-486.449	800.000	0.012	0.042
-485.435	800.000	0.084	0.331
-484.420	775.165	-0.093	-0.258
-483.405	-42.623	0.126	-0.065
-482.391	-77.540	-0.226	0.079
-481.376	-115.442	0.093	0.018
-480.362	31.825	0.155	-0.135
-479.347	-16.737	-0.046	0.030
-478.332	-6.526	-0.227	-0.157
-477.318	-200.000	-0.028	0.196
-476.303	-179.114	0.213	-0.005
-475.289	69.919	-0.213	-0.222
-474.274	30.421	-0.152	-0.131
-473.259	-13.132	-0.104	0.068
-472.245	339.367	-0.038	-0.074
-471.230	-200.000	0.046	-0.288
-470.216	-200.000	0.034	-0.263
-469.201	-107.779	0.188	0.042
-468.186	-187.235	0.135	0.002
-467.172	-200.000	-0.048	-0.245
-466.157	42.153	-0.292	-0.268
-465.143	-200.000	0.001	0.110
-464.128	-61.898	0.125	-0.053
-463.113	-123.089	-0.097	0.016
-462.099	-83.080	-0.011	-0.004
-461.084	-200.000	0.071	0.324
-460.070	-200.000	0.015	-0.083
-459.055	-200.000	0.023	0.288
-458.040	-200.000	-0.006	0.291
-457.026	333.552	-0.109	0.214
-456.011	254.294	-0.057	-0.099
-454.997	-72.422	-0.201	0.075
-453.982	-8.591	-0.152	0.103
-452.968	-116.597	0.032	-0.006
-451.953	-26.453	-0.353	0.209
-450.938	-134.101	0.210	0.026
-449.924	-200.000	-0.022	0.190
-448.909	36.795	-0.133	-0.119
-447.895	800.000	-0.016	0.053
-446.880	-10.801	0.180	-0.120
-445.865	-13.457	0.305	0.200
-444.851	-127.998	0.133	-0.019
-443.836	80.206	0.168	-0.182
-442.822	256.917	-0.058	-0.101
-441.807	-200.000	0.005	-0.116
-440.792	432.202	-0.061	-0.134
-439.778	-176.431	0.195	-0.005
-438.763	359.851	0.092	0.186
-437.749	-200.000	-0.003	0.143
-436.734	492.299	0.056	0.131
-435.719	-43.217	-0.074	0.038
-434.705	-200.000	-0.020	0.105
-433.690	800.000	0.071	-0.291
-432.676	-99.727	0.393	0.100
-431.661	245.610	0.048	0.082
-430.646	33.367	-0.085	-0.075
-429.632	-104.560	0.176	0.041
-428.617	418.756	0.072	0.155
-427.603	800.000	-0.038	0.165
-426.588	304.164	-0.144	0.271
-425.573	-117.963	-0.219	-0.040
-424.559	-200.000	0.014	-0.386
-423.544	-51.419	-0.175	-0.083
-422.530	-192.973	-0.193	0.002
-421.515	153.200	0.298	0.412
-420.500	-200.000	-0.017	-0.257
-419.486	-126.267	0.184	0.028
-418.471	695.619	-0.070	0.185
-417.457	-132.027	-0.391	-0.051
-416.442	22.349	0.100	0.082
-415.428	-200.000	-0.025	-0.698
-414.413	-47.198	0.228	-0.112
-413.398	800.000	-0.056	0.183
-412.384	-96.599	0.089	-0.024
-411.369	387.495	-0.051	-0.106
-410.355	-7.815	-0.193	0.132
-409.340	-91.368	0.077	0.022
-408.325	3.685	0.040	0.030
-407.311	607.970	-0.204	0.514
-406.296	-152.625	-0.082	0.006
-405.282	316.717	0.134	-0.256
-404.267	-186.396	0.217	-0.003
-403.252	431.293	0.088	0.193
-402.238	-133.973	0.093	0.012
-401.223	-200.000	0.015	-0.259
-400.209	149.944	-0.143	0.195
-399.194	-200.000	-0.002	0.171
-398.179	286.976	0.121	0.221
-397.165	-136.790	0.186	0.022
-396.150	-66.360	-0.052	0.021
-395.136	110.050	0.202	-0.245
-394.121	421.998	0.089	-0.193
-393.106	-200.000	0.061	-0.270
-392.092	-104.526	-0.184	-0.043
-391.077	-120.056	0.302	0.052
-390.063	-144.229	-0.064	0.006
-389.048	54.594	0.222	0.216
-388.033	-100.517	0.194	-0.048
-387.019	-10.466	-0.302	-0.202
-386.004	800.000	0.025	-0.106
-384.990	-159.316	-0.146	-0.008
-383.975	19.519	0.133	-0.108
-382.960	118.128	-0.196	0.243
-381.946	-200.000	0.039	-0.223
-380.931	-26.817	0.165	0.097
-379.917	89.035	0.148	0.166
-378.902	86.100	-0.110	-0.123
-377.888	-200.000	0.043	0.258
-376.873	586.769	0.060	-0.149
-375.858	-118.080	-0.283	0.051
-374.844	-200.000	0.020	0.149
-373.829	-200.000	-0.012	0.201
-372.815	353.849	0.039	0.078
-371.800	-200.000	0.024	0.371
-370.785	385.690	0.038	0.079
-369.771	31.490	0.159	0.138
-368.756	-200.000	0.016	0.097
-367.742	-154.161	-0.317	0.022
-366.727	-136.662	0.266	0.031
-365.712	50.473	-0.260	0.248
-364.698	56.283	-0.121	-0.119
-363.683	160.857	-0.283	-0.399
-362.669	99.385	-0.229	-0.267
-361.654	-3.557	-0.210	-0.147
-360.639	329.780	-0.022	-0.042
-359.625	-200.000	-0.009	0.413
-358.610	152.005	-0.128	-0.176
-357.596	-200.000	-0.023	-0.159
-356.581	-99.117	-0.179	-0.046
-355.566	-102.987	0.128	0.031
-354.552	-139.353	0.345	0.037
-353.537	-200.000	-0.013	-0.122
-352.523	-66.309	0.109	-0.044
-351.508	800.000	0.048	0.201
-350.493	-143.835	0.252	-0.024
-349.479	-73.421	-0.410	0.151
-348.464	-200.000	0.009	0.122
-347.450	800.000	-0.102	0.310
-346.435	275.822	-0.016	0.028
-345.420	-148.286	0.175	0.015
-344.406	800.000	-0.006	0.021
-343.391	293.819	-0.112	-0.207
-342.377	40.415	0.256	0.232
-341.362	94.410	-0.295	-0.338
-340.348	-133.523	-0.202	0.025
-339.333	47.565	0.197	-0.185
-338.318	-200.000	0.056	-0.283
-337.304	-137.741	0.076	-0.009
-336.289	-200.000	0.040	-0.197
-335.275	130.745	-0.088	-0.114
-334.260	42.479	-0.125	0.114
-333.245	800.000	-0.023	-0.098
-332.231	-103.631	0.402	-0.095
-331.216	141.816	0.151	-0.202
-330.202	800.000	0.017	-0.072
-329.187	86.237	-0.156	-0.173
-328.172	424.430	-0.150	-0.326
-327.158	-192.616	-0.173	0.002
-326.143	-44.393	-0.124	-0.063
-325.129	120.222	0.126	-0.157
-324.114	35.317	-0.139	-0.123
-323.099	82.168	-0.047	-0.051
-322.085	-1.369	-0.319	0.226
-321.070	-51.842	0.379	0.178
-320.056	34.358	-0.080	0.070
-319.041	-93.675	0.197	0.055
-318.026	60.328	0.120	0.120
-317.012	-63.459	-0.313	-0.129
-315.997	-174.230	0.125	0.004
-314.983	-112.815	0.156	-0.031
-313.968	-114.994	0.045	0.009
-312.953	-176.408	0.164	0.004
-311.939	-37.775	0.272	-0.146
-310.924	-200.000	-0.045	-0.384
-309.910	-158.334	0.204	0.012
-308.895	-200.000	0.017	0.246
-307.880	41.825	-0.232	0.212
-306.866	-104.814	-0.372	0.086
-305.851	326.398	-0.159	-0.307
-304.837	800.000	0.033	0.110
-303.822	300.524	-0.093	0.173
-302.807	-23.337	-0.224	-0.136
-301.793	185.649	-0.030	0.045
-300.778	567.616	-0.020	0.049
-299.764	800.000	0.115	0.398
-298.749	800.000	0.033	0.126
-297.735	-200.000	0.009	-0.144
-296.720	-126.615	0.179	-0.027
-295.705	73.430	0.163	-0.171
-294.691	800.000	-0.022	0.075
-293.676	66.718	0.152	0.155
-292.662	278.629	-0.068	-0.122
-291.647	-191.759	0.083	0.001
-290.632	-200.000	-0.411	0.001
-289.618	-46.671	0.068	0.033
-288.603	30.447	-0.084	0.072
-287.589	800.000	0.061	-0.242
-286.574	800.000	-0.012	-0.039
-285.559	-156.415	-0.292	-0.018
-284.545	-200.000	-0.018	-0.123
-283.530	-156.869	-0.143	0.009
-282.516	-52.575	0.223	0.103
-281.501	444.152	0.195	-0.431
-280.486	-92.708	-0.142	-0.040
-279.472	-61.080	-0.309	0.131
-278.457	24.369	-0.216	0.179
-277.443	45.877	0.140	0.130
-276.428	-125.274	-0.090	0.014
-275.413	800.000	-0.080	-0.264
-274.399	482.578	0.085	-0.195
-273.384	95.737	-0.211	0.242
-272.370	-98.940	-0.268	-0.068
-271.355	-34.317	0.177	0.098
-270.340	-9.177	0.272	-0.182
-269.326	74.695	-0.225	-0.238
-268.311	-107.125	-0.258	-0.057
-267.297	-200.000	0.007	0.044
-266.282	497.157	0.125	0.289
-265.267	759.339	-0.110	0.299
-264.253	-200.000	-0.010	-0.063
-263.238	-200.000	0.003	-0.051
-262.224	800.000	-0.041	0.140
-261.209	-105.305	0.117	0.027
-260.195	-168.923	0.154	-0.006
-259.180	-14.857	-0.229	0.148
-258.165	800.000	-0.044	-0.173
-257.151	-135.498	-0.383	0.046
-256.136	450.875	-0.122	0.271
-255.122	-200.000	0.041	0.315
-254.107	-135.004	-0.289	0.035
-253.092	-83.357	0.202	0.065
-252.078	-88.996	0.055	-0.016
-251.063	-100.900	0.067	-0.017
-250.049	274.456	0.201	-0.358
-249.034	-74.395	-0.074	0.027
-248.019	-164.191	0.157	0.007
-247.005	469.518	-0.098	-0.221
-245.990	199.375	0.122	0.187
-244.976	800.000	-0.013	0.041
-243.961	127.792	0.145	0.185
-242.946	52.991	0.166	-0.159
-241.932	-20.847	-0.084	-0.052
-240.917	-60.647	0.149	0.064
-239.903	-109.181	0.185	0.039
-238.888	-131.060	-0.219	-0.029
-237.873	-90.005	0.120	0.035
-236.859	-107.668	-0.107	-0.024
-235.844	-200.000	0.012	0.112
-234.830	-200.000	0.018	0.215
-233.815	8.666	-0.198	-0.150
-232.800	-200.000	0.059	0.271
-231.786	-136.282	0.503	0.059
-230.771	108.644	-0.020	-0.025
-229.757	16.808	-0.220	-0.175
-228.742	800.000	-0.051	0.149
-227.727	171.963	0.082	-0.118
-226.713	-200.000	0.013	-0.265
-225.698	-56.170	0.164	-0.073
-224.684	604.188	-0.117	-0.292
-223.669	-21.545	0.229	-0.140
-222.655	-200.000	-0.024	0.310
-221.640	166.436	-0.101	0.144
-220.625	326.106	0.140	-0.269
-219.611	800.000	0.081	-0.259
-218.596	-77.945	0.102	-0.035
-217.582	800.000	0.057	-0.231
-216.567	21.418	0.096	0.078
-215.552	69.167	-0.128	0.132
-214.538	647.837	0.054	-0.138
-213.523	161.554	0.199	-0.279
-212.509	697.996	-0.110	0.291
-211.494	-94.232	0.159	-0.044
-210.479	-200.000	-0.055	0.250
-209.465	-86.048	0.190	-0.059
-208.450	-153.712	-0.096	0.007
-207.436	-22.901	0.428	-0.259
-206.421	-200.000	-0.011	-0.252
-205.406	-34.587	0.243	-0.133
-204.392	-85.617	0.340	-0.106
-203.377	-108.653	-0.166	-0.036
-202.363	-200.000	-0.037	-0.617
-201.348	408.183	-0.119	-0.253
-200.333	-200.000	-0.037	0.310
-199.319	800.000	0.051	0.150
-198.304	-178.092	-0.278	0.007
-197.290	-133.738	0.043	0.005
-196.275	-200.000	0.023	-0.170
-195.260	800.000	-0.032	-0.097
-194.246	126.270	-0.112	-0.142
-193.231	-54.764	-0.139	-0.063
-192.217	781.143	-0.066	0.180
-191.202	49.383	0.086	-0.081
-190.187	522.931	-0.068	-0.161
-189.173	442.640	0.145	0.318
-188.158	41.221	0.348	0.315
-187.144	168.335	0.078	-0.111
-186.129	-200.000	-0.026	0.122
-185.114	-51.898	-0.253	0.118
-184.100	-200.000	0.022	0.234
-183.085	-200.000	-0.030	-0.139
-182.071	247.945	-0.118	0.200
-181.056	-0.799	0.187	0.133
-180.042	263.601	0.005	-0.008
-179.027	-108.539	-0.179	-0.038
-178.012	-200.000	0.076	-0.362
-176.998	211.222	-0.095	-0.150
-175.983	281.111	-0.203	0.363
-174.969	-1.163	0.060	-0.042
-173.954	104.129	-0.176	0.207
-172.939	800.000	0.025	0.095
-171.925	142.781	0.129	0.172
-170.910	31.842	0.215	-0.185
-169.896	-143.392	-0.038	0.004
-168.881	496.045	0.097	-0.224
-167.866	-200.000	0.076	0.381
-166.852	-162.731	0.222	-0.011
-165.837	5.044	0.158	0.117
-164.823	800.000	0.027	-0.083
-163.808	800.000	-0.020	0.073
-162.793	-57.846	0.321	0.141
-161.779	-146.643	-0.227	-0.020
-160.764	-61.576	-0.178	-0.075
-159.750	-101.876	-0.281	0.068
-158.735	-78.939	-0.285	0.097
-157.720	170.232	-0.038	0.054
-156.706	58.805	0.161	-0.158
-155.691	-80.115	0.257	-0.086
-154.677	-200.000	-0.006	0.156
-153.662	-200.000	-0.010	-0.087
-152.647	8.065	0.292	0.219
-151.633	-172.900	0.337	0.010
-150.618	-200.000	-0.022	0.095
-149.604	133.170	-0.170	0.220
-148.589	685.897	0.059	-0.155
-147.574	-200.000	0.024	0.143
-146.560	-126.565	0.102	-0.015
-145.545	92.466	-0.131	-0.148
-144.531	115.031	0.005	0.007
-143.516	800.000	0.132	0.422
-142.502	-200.000	-0.020	0.321
-141.487	340.915	0.100	0.195
-140.472	14.095	0.255	-0.198
-139.458	21.134	-0.040	-0.032
-138.443	-200.000	-0.022	-0.215
-137.429	800.000	-0.038	-0.122
-136.414	-46.720	0.126	0.062
-135.399	129.391	0.175	-0.224
-134.385	230.959	-0.090	-0.148
-133.370	143.885	0.159	0.212
-132.356	-43.302	-0.114	0.058
-131.341	-41.447	0.152	0.078
-130.326	60.358	-0.177	0.175
-129.312	-60.922	-0.118	-0.050
-128.297	-121.487	0.320	0.053
-127.283	-80.356	0.212	0.071
-126.268	351.643	-0.009	-0.018
-125.253	-53.693	0.303	0.138
-124.239	79.202	-0.170	0.182
-123.224	-73.987	-0.315	-0.114
-122.210	76.068	0.123	0.130
