DTS Sentinel unit serial number:	SN413079Multiplexer serial number:	ORYXHardware model number:	OX4-SRSoftware version number:	ORYX F/W v4.00 Oryx Data Collector v3.7.2.0data status	okinstallation	princeton_trtdifferential loss correction	single-endedforward channel	channel 1reverse channel	N/Adate	2019/09/15time	23:38:35forward acquisition time	60.00reverse acquisition time	0.00gamma	496.2192k internal	0.2332k external	0.2332temperature offset calibration	0.9973default loss term (dB/km)	0.3790temperature slope calibration	1.0000multiplexer offset coefficient	1.0000multiplexer slope coefficient	1.0000fibre end	0.00T internal ref (°C)	28.06T ext. ref 1 (°C)	9.23T ext. ref 2 (°C)	21.94length (m)	temperature (°C)	Stokes	anti-Stokes-747.200	-59.517	-0.096	0.042
-746.185	28.729	-0.229	-0.195
-745.171	465.296	-0.112	0.252
-744.156	795.698	-0.034	0.093
-743.142	-101.890	0.190	-0.046
-742.127	800.000	-0.046	0.198
-741.112	89.075	-0.171	0.191
-740.098	244.349	-0.098	-0.166
-739.083	114.651	-0.277	-0.339
-738.069	5.892	-0.199	0.148
-737.054	-82.993	0.269	-0.087
-736.039	151.539	-0.304	-0.417
-735.025	-36.535	0.207	-0.112
-734.010	-148.692	0.101	0.008
-732.996	-200.000	0.025	0.140
-731.981	-200.000	-0.014	0.072
-730.966	-91.015	0.192	0.055
-729.952	-152.145	-0.077	0.006
-728.937	800.000	-0.011	0.047
-727.923	-65.840	-0.284	-0.114
-726.908	554.582	-0.098	-0.236
-725.894	800.000	0.027	0.100
-724.879	-88.204	-0.353	-0.106
-723.864	-48.910	0.130	-0.063
-722.850	-146.972	0.236	-0.020
-721.835	-146.374	-0.253	0.022
-720.821	-200.000	0.009	-0.228
-719.806	-200.000	0.025	-0.147
-718.791	302.481	0.106	0.197
-717.777	800.000	0.070	0.297
-716.762	-48.483	-0.239	-0.116
-715.748	260.155	-0.225	-0.391
-714.733	-200.000	-0.027	-0.307
-713.718	-25.890	-0.161	-0.095
-712.704	-74.447	0.176	-0.064
-711.689	800.000	0.091	0.265
-710.675	264.295	0.165	-0.288
-709.660	47.330	-0.132	0.124
-708.645	185.687	0.229	0.341
-707.631	19.583	-0.239	0.193
-706.616	97.677	-0.248	0.286
-705.602	-200.000	-0.048	-0.360
-704.587	-200.000	-0.059	-0.324
-703.572	10.271	-0.321	-0.246
-702.558	800.000	-0.075	0.290
-701.543	302.168	-0.068	-0.127
-700.529	-182.885	0.152	-0.003
-699.514	-160.319	0.346	-0.019
-698.499	41.163	0.135	-0.123
-697.485	800.000	0.040	-0.155
-696.470	-200.000	-0.057	-0.331
-695.456	222.218	-0.096	-0.155
-694.441	-74.163	-0.020	-0.007
-693.426	512.340	-0.139	0.326
-692.412	-66.523	0.213	0.085
-691.397	-157.017	-0.130	0.008
-690.383	197.780	-0.102	0.156
-689.368	-200.000	-0.004	-0.040
-688.354	800.000	-0.093	0.313
-687.339	-200.000	0.019	-0.188
-686.324	-20.378	0.066	-0.041
-685.310	-123.081	-0.119	-0.019
-684.295	283.272	-0.104	0.187
-683.281	126.678	0.266	0.338
-682.266	-50.869	0.273	-0.129
-681.251	-58.136	0.200	-0.088
-680.237	-200.000	-0.030	-0.192
-679.222	-200.000	-0.057	0.396
-678.208	354.464	0.105	-0.209
-677.193	403.204	0.082	0.173
-676.178	-200.000	-0.025	0.132
-675.164	17.688	0.356	0.284
-674.149	15.730	-0.454	0.358
-673.135	252.813	-0.090	-0.154
-672.120	111.788	0.288	-0.349
-671.105	-110.702	-0.198	0.041
-670.091	305.859	-0.055	-0.103
-669.076	653.065	-0.100	0.257
-668.062	9.569	-0.169	-0.128
-667.047	-53.996	-0.278	0.127
-666.032	800.000	-0.103	-0.313
-665.018	-57.415	0.212	-0.093
-664.003	-200.000	0.011	0.164
-662.989	800.000	0.054	0.214
-661.974	29.172	0.182	0.155
-660.959	41.158	-0.379	-0.344
-659.945	-16.990	0.364	-0.231
-658.930	-86.349	-0.285	0.088
-657.916	50.608	-0.182	0.173
-656.901	800.000	-0.124	-0.386
-655.886	-104.977	0.228	-0.052
-654.872	8.236	0.224	-0.169
-653.857	-44.925	-0.191	-0.096
-652.843	-200.000	-0.040	-0.273
-651.828	-63.576	0.227	0.093
-650.814	-200.000	0.014	0.281
-649.799	103.237	-0.410	0.482
-648.784	800.000	0.151	-0.442
-647.770	24.508	-0.315	-0.261
-646.755	151.315	0.254	0.347
-645.741	88.781	-0.104	0.116
-644.726	-200.000	0.001	0.497
-643.711	-36.005	-0.165	0.089
-642.697	-118.228	-0.217	-0.039
-641.682	-85.294	-0.189	-0.059
-640.668	3.513	0.221	0.161
-639.653	272.129	-0.092	-0.162
-638.638	299.287	-0.168	-0.310
-637.624	-56.897	0.413	0.183
-636.609	-8.266	-0.153	0.103
-635.595	756.090	0.066	-0.179
-634.580	315.267	0.043	-0.081
-633.565	366.955	-0.163	0.330
-632.551	86.989	-0.181	0.200
-631.536	113.271	-0.227	0.276
-630.522	63.014	-0.170	-0.170
-629.507	-50.610	-0.337	0.159
-628.492	-200.000	0.009	0.041
-627.478	266.681	-0.104	-0.182
-626.463	800.000	-0.097	-0.280
-625.449	449.830	0.069	0.152
-624.434	-82.326	-0.374	-0.122
-623.419	130.712	0.116	-0.149
-622.405	-135.309	0.060	-0.007
-621.390	8.176	-0.191	-0.143
-620.376	-38.577	0.182	-0.096
-619.361	101.119	0.251	0.292
-618.346	-200.000	-0.021	0.211
-617.332	-134.433	0.190	0.023
-616.317	-200.000	0.028	0.309
-615.303	-100.552	-0.279	0.069
-614.288	-200.000	0.045	0.333
-613.273	800.000	-0.044	0.169
-612.259	-160.823	0.228	-0.012
-611.244	-104.886	-0.189	0.043
-610.230	-15.466	-0.317	0.203
-609.215	105.499	0.202	-0.239
-608.201	-92.598	-0.096	0.027
-607.186	-90.203	-0.275	-0.080
-606.171	800.000	-0.097	-0.292
-605.157	76.838	0.057	0.060
-604.142	-106.125	0.326	-0.073
-603.128	35.844	-0.264	-0.233
-602.113	-136.694	0.157	-0.018
-601.098	800.000	0.047	0.130
-600.084	166.977	-0.018	0.026
-599.069	-60.314	0.018	0.008
-598.055	69.470	-0.064	0.066
-597.040	713.937	0.110	0.292
-596.025	-200.000	0.025	-0.248
-595.011	-101.275	0.149	-0.036
-593.996	-140.288	-0.171	-0.018
-592.982	-200.000	-0.000	0.122
-591.967	-36.104	0.154	0.083
-590.952	92.487	-0.181	-0.204
-589.938	-178.771	-0.255	-0.006
-588.923	-200.000	0.020	-0.170
-587.909	-7.864	-0.290	0.196
-586.894	-117.517	-0.148	0.027
-585.879	-200.000	-0.042	-0.243
-584.865	-46.998	0.366	-0.179
-583.850	222.411	-0.077	-0.123
-582.836	-200.000	-0.029	0.127
-581.821	-107.217	-0.208	-0.046
-580.806	-13.974	0.193	0.124
-579.792	-200.000	0.023	-0.123
-578.777	800.000	0.084	0.249
-577.763	263.165	0.099	-0.172
-576.748	20.492	0.047	0.038
-575.733	-104.054	0.238	-0.055
-574.719	-200.000	-0.046	-0.295
-573.704	23.626	-0.176	-0.145
-572.690	746.526	0.106	-0.285
-571.675	786.499	-0.113	0.310
-570.661	-89.998	0.227	0.066
-569.646	3.235	-0.078	0.057
-568.631	-115.748	0.234	-0.044
-567.617	-95.024	0.197	-0.053
-566.602	-200.000	-0.004	0.124
-565.588	800.000	-0.038	-0.162
-564.573	383.637	-0.173	-0.356
-563.558	-200.000	-0.004	-0.320
-562.544	-145.952	0.195	-0.017
-561.529	800.000	0.015	-0.061
-560.515	15.031	0.190	-0.149
-559.500	800.000	0.064	0.200
-558.485	-111.970	-0.334	-0.067
-557.471	-70.777	-0.139	-0.053
-556.456	108.031	-0.166	0.198
-555.442	7.597	0.033	0.025
-554.427	800.000	-0.053	-0.177
-553.412	-200.000	-0.092	0.449
-552.398	17.401	-0.229	0.182
-551.383	800.000	0.119	0.393
-550.369	655.496	0.028	-0.072
-549.354	-130.249	0.222	0.030
-548.339	220.503	-0.134	-0.214
-547.325	-86.441	-0.244	0.075
-546.310	800.000	-0.071	-0.212
-545.296	141.077	-0.087	0.114
-544.281	-31.468	0.122	0.068
-543.266	92.307	-0.244	-0.274
-542.252	-200.000	-0.007	-0.132
-541.237	-200.000	-0.015	-0.213
-540.223	800.000	0.144	-0.421
-539.208	664.833	-0.040	-0.103
-538.193	94.219	-0.217	-0.246
-537.179	59.514	0.087	0.085
-536.164	-148.707	0.069	-0.006
-535.150	-112.330	0.056	0.011
-534.135	-21.149	0.163	0.100
-533.121	222.527	0.019	0.031
-532.106	440.064	0.018	0.040
-531.091	-153.489	-0.290	-0.020
-530.077	109.178	0.125	0.150
-529.062	-87.248	-0.354	-0.107
-528.048	56.122	0.086	0.083
-527.033	-136.847	-0.130	-0.015
-526.018	-129.775	-0.122	-0.017
-525.004	655.468	-0.114	-0.292
-523.989	11.936	0.168	-0.129
-522.975	800.000	-0.148	-0.597
-521.960	53.918	0.062	-0.059
-520.945	-56.709	-0.207	-0.091
-519.931	641.171	-0.061	0.155
-518.916	800.000	0.108	0.392
-517.902	-200.000	-0.010	-0.225
-516.887	0.390	0.125	-0.089
-515.872	-200.000	-0.011	0.122
-514.858	236.605	-0.048	0.080
-513.843	49.268	0.138	0.130
-512.829	-82.895	0.167	0.054
-511.814	52.341	-0.130	-0.124
-510.799	145.701	0.213	0.285
-509.785	5.943	0.134	0.099
-508.770	-62.271	0.147	-0.061
-507.756	-66.652	-0.176	-0.070
-506.741	50.380	0.194	0.183
-505.726	-200.000	0.006	0.060
-504.712	313.035	0.083	-0.156
-503.697	-98.272	0.368	0.094
-502.683	-200.000	0.030	0.161
-501.668	-145.474	0.221	0.020
-500.653	-200.000	0.045	0.230
-499.639	-61.838	-0.300	-0.125
-498.624	5.839	-0.198	-0.146
-497.610	800.000	-0.027	0.084
-496.595	10.141	0.151	-0.114
-495.581	384.585	-0.120	-0.246
-494.566	10.511	0.168	-0.127
-493.551	-95.310	0.302	-0.081
-492.537	-86.594	0.167	-0.051
-491.522	-200.000	0.002	-0.115
-490.508	31.128	-0.215	0.184
-489.493	-200.000	0.029	-0.137
-488.478	559.132	-0.074	0.178
-487.464	-200.000	0.043	-0.417
-486.449	668.690	0.112	-0.290
-485.435	-200.000	-0.007	-0.340
-484.420	-133.791	-0.398	-0.049
-483.405	-112.539	-0.252	0.050
-482.391	-87.178	-0.244	-0.074
-481.376	-92.767	-0.231	0.065
-480.362	-129.435	0.146	-0.020
-479.347	318.459	0.129	-0.243
-478.332	-200.000	0.040	0.295
-477.318	-200.000	0.032	0.245
-476.303	-168.005	-0.024	-0.001
-475.289	155.811	-0.235	-0.322
-474.274	800.000	-0.083	-0.229
-473.259	-88.769	-0.196	-0.058
-472.245	-168.895	0.207	-0.008
-471.230	800.000	-0.083	0.322
-470.216	-200.000	-0.030	0.192
-469.201	29.058	0.199	0.168
-468.186	-73.181	0.166	0.061
-467.172	-71.798	0.291	0.108
-466.157	-179.185	0.510	-0.011
-465.143	539.059	-0.052	-0.122
-464.128	1.251	-0.365	-0.261
-463.113	-200.000	0.039	-0.405
-462.099	76.502	-0.301	0.317
-461.084	-60.685	-0.116	-0.049
-460.070	-28.416	-0.209	0.120
-459.055	-113.106	-0.169	-0.033
-458.040	-134.297	-0.233	-0.029
-457.026	221.730	0.161	-0.258
-456.011	-200.000	-0.023	-0.274
-454.997	-200.000	-0.000	0.041
-453.982	800.000	-0.038	-0.130
-452.968	-129.425	0.191	-0.026
-451.953	305.333	-0.114	-0.211
-450.938	-0.575	-0.108	-0.077
-449.924	-200.000	-0.011	0.095
-448.909	-163.264	-0.201	-0.010
-447.895	-80.443	0.129	0.043
-446.880	-20.975	0.344	-0.210
-445.865	-200.000	-0.028	0.191
-444.851	-23.425	0.269	-0.161
-443.836	-109.500	-0.056	0.012
-442.822	-115.952	0.264	-0.049
-441.807	-200.000	0.020	0.137
-440.792	137.231	-0.136	-0.176
-439.778	-200.000	0.005	0.084
-438.763	-8.149	0.276	-0.185
-437.749	240.854	0.142	-0.235
-436.734	-103.935	-0.132	0.031
-435.719	518.916	-0.095	0.221
-434.705	-43.241	-0.156	-0.079
-433.690	75.710	0.121	-0.127
-432.676	-142.954	-0.201	0.019
-431.661	-63.746	-0.293	-0.119
-430.646	-200.000	-0.014	0.169
-429.632	690.235	-0.147	0.383
-428.617	687.501	-0.034	-0.088
-427.603	800.000	-0.026	-0.095
-426.588	-94.621	-0.124	0.034
-425.573	-200.000	0.036	0.224
-424.559	-200.000	-0.018	0.100
-423.544	-88.832	0.331	-0.098
-422.530	-61.713	0.210	-0.088
-421.515	686.536	0.099	-0.257
-420.500	800.000	0.053	0.194
-419.486	-200.000	0.068	-0.363
-418.471	255.199	-0.217	-0.370
-417.457	800.000	-0.044	0.154
-416.442	-7.095	0.062	0.041
-415.428	800.000	0.027	-0.076
-414.413	38.510	-0.199	0.177
-413.398	800.000	-0.025	0.096
-412.384	-200.000	0.063	0.380
-411.369	800.000	-0.066	0.273
-410.355	800.000	-0.088	0.376
-409.340	-113.074	0.255	-0.050
-408.325	701.729	-0.016	-0.043
-407.311	344.806	-0.141	-0.275
-406.296	-59.605	0.319	0.136
-405.282	0.767	0.114	0.081
-404.267	-16.916	-0.195	-0.122
-403.252	-40.569	-0.160	-0.082
-402.238	294.775	0.118	-0.213
-401.223	-200.000	-0.053	0.345
-400.209	-132.275	0.161	-0.021
-399.194	-24.187	-0.067	0.040
-398.179	16.152	-0.194	0.152
-397.165	359.518	0.155	0.307
-396.150	19.168	-0.262	0.208
-395.136	135.164	0.104	0.134
-394.121	-0.247	-0.086	0.061
-393.106	115.306	-0.044	0.053
-392.092	-169.855	0.165	0.006
-391.077	254.297	-0.217	0.367
-390.063	190.101	-0.143	-0.213
-389.048	394.130	0.065	0.135
-388.033	-20.115	-0.183	-0.112
-387.019	-200.000	-0.005	0.087
-386.004	-30.135	0.231	0.130
-384.990	-12.724	0.163	-0.105
-383.975	-73.840	0.193	0.070
-382.960	32.193	-0.149	0.128
-381.946	5.753	0.099	0.073
-380.931	-135.124	-0.135	-0.016
-379.917	-58.608	-0.054	0.023
-378.902	-24.557	0.108	0.064
-377.888	17.488	0.229	-0.180
-376.873	169.280	-0.113	-0.159
-375.858	11.991	0.303	0.231
-374.844	-200.000	-0.014	0.185
-373.829	-14.503	-0.066	-0.042
-372.815	800.000	0.038	-0.148
-371.800	-66.997	0.199	0.078
-370.785	112.733	0.036	-0.043
-369.771	-108.751	0.340	-0.072
-368.756	-85.461	0.364	-0.113
-367.742	65.038	0.265	-0.266
-366.727	-1.593	-0.227	0.158
-365.712	225.457	-0.147	-0.236
-364.698	214.103	-0.123	-0.193
-363.683	140.550	-0.145	0.189
-362.669	-200.000	0.031	-0.211
-361.654	-62.880	0.092	0.038
-360.639	-4.650	0.032	-0.022
-359.625	-200.000	0.022	0.249
-358.610	-162.579	0.043	-0.002
-357.596	-200.000	-0.003	-0.088
-356.581	22.346	-0.569	-0.461
-355.566	-59.811	0.333	0.141
-354.552	636.324	-0.067	0.169
-353.537	147.019	-0.042	0.057
-352.523	-151.332	0.306	-0.023
-351.508	-28.051	0.118	-0.067
-350.493	783.795	0.061	-0.166
-349.479	-123.559	0.179	-0.028
-348.464	-19.331	0.248	0.153
-347.450	-34.304	-0.201	0.109
-346.435	800.000	0.027	-0.077
-345.420	-200.000	-0.020	0.166
-344.406	54.797	-0.151	0.145
-343.391	82.009	0.077	0.082
-342.377	-35.042	-0.053	-0.029
-341.362	-169.380	-0.117	0.004
-340.348	-33.413	0.369	-0.202
-339.333	800.000	0.050	0.142
-338.318	-17.594	-0.460	0.287
-337.304	-127.539	0.348	-0.050
-336.289	769.843	-0.049	-0.132
-335.275	-94.290	-0.284	-0.077
-334.260	-5.862	0.238	-0.161
-333.245	800.000	-0.051	-0.150
-332.231	-61.217	-0.269	-0.112
-331.216	-42.995	0.006	-0.003
-330.202	-200.000	0.036	-0.159
-329.187	-200.000	-0.053	-0.256
-328.172	566.030	0.073	-0.176
-327.158	-42.900	0.435	0.219
-326.143	-58.287	0.167	-0.072
-325.129	31.923	-0.065	0.056
-324.114	-29.561	-0.160	-0.091
-323.099	139.535	-0.323	0.421
-322.085	84.470	0.075	-0.082
-321.070	-5.523	-0.053	0.036
-320.056	22.836	0.065	0.053
-319.041	-25.510	-0.087	0.051
-318.026	199.809	0.209	-0.317
-317.012	89.678	-0.029	-0.032
-315.997	209.154	-0.039	0.061
-314.983	20.163	-0.027	0.022
-313.968	-112.959	0.044	0.009
-312.953	-103.228	-0.104	-0.024
-311.939	-200.000	-0.001	-0.053
-310.924	231.233	-0.030	-0.049
-309.910	-200.000	0.368	0.002
-308.895	-185.297	-0.346	0.005
-307.880	73.152	0.029	0.030
-306.866	-200.000	0.018	-0.138
-305.851	-56.531	-0.190	0.083
-304.837	-48.315	0.239	-0.114
-303.822	-52.686	-0.137	-0.062
-302.807	128.185	-0.103	-0.129
-301.793	800.000	-0.066	0.205
-300.778	-85.840	-0.256	0.078
-299.764	-200.000	-0.001	0.052
-298.749	-22.531	-0.197	0.118
-297.735	311.113	0.090	-0.167
-296.720	-12.040	-0.282	-0.182
-295.705	34.508	0.046	-0.039
-294.691	-28.861	0.163	0.092
-293.676	800.000	0.082	-0.233
-292.662	-108.686	0.187	-0.040
-291.647	-200.000	0.058	0.301
-290.632	-101.276	-0.039	0.009
-289.618	-151.324	-0.056	0.004
-288.603	-77.499	0.285	-0.098
-287.589	-116.935	0.146	-0.026
-286.574	-200.000	0.018	-0.523
-285.559	-200.000	0.021	-0.203
-284.545	800.000	0.024	-0.087
-283.530	-200.000	0.033	-0.199
-282.516	-200.000	0.070	-0.305
-281.501	-111.955	-0.201	-0.040
-280.486	111.004	0.185	0.221
-279.472	261.346	0.262	0.447
-278.457	749.501	-0.142	0.378
-277.443	494.952	-0.177	0.402
-276.428	93.772	0.177	-0.199
-275.413	75.152	0.196	0.204
-274.399	-130.724	0.183	-0.024
-273.384	309.039	0.104	0.193
-272.370	-58.214	0.305	0.131
-271.355	95.011	-0.189	-0.213
-270.340	-82.717	0.365	-0.117
-269.326	352.953	0.055	-0.107
-268.311	18.879	-0.311	-0.246
-267.297	196.824	-0.097	-0.146
-266.282	6.252	0.141	0.103
-265.267	88.754	0.232	0.255
-264.253	-200.000	0.012	0.212
-263.238	800.000	-0.060	0.242
-262.224	-85.855	-0.131	-0.040
-261.209	-116.764	0.101	-0.018
-260.195	-167.791	0.066	-0.003
-259.180	-200.000	0.002	-0.208
-258.165	-86.082	-0.324	0.099
-257.151	-129.511	0.143	0.020
-256.136	218.757	0.077	0.121
-255.122	51.988	0.103	0.096
-254.107	-103.724	0.082	0.019
-253.092	-16.609	0.155	0.097
-252.078	-67.957	0.053	0.021
-251.063	23.089	0.097	-0.078
-250.049	-24.744	-0.350	0.206
-249.034	800.000	0.008	0.031
-248.019	-200.000	0.055	-0.368
-247.005	-145.604	0.183	-0.016
-245.990	-62.221	0.205	-0.084
-244.976	325.933	-0.025	0.047
-243.961	-46.062	0.085	-0.041
-242.946	219.970	0.182	-0.287
-241.932	114.866	-0.083	0.100
-240.917	-200.000	0.006	-0.264
-239.903	-67.721	-0.299	-0.116
-238.888	82.523	-0.160	-0.171
-237.873	635.182	-0.017	0.044
-236.859	-29.971	0.046	0.026
-235.844	800.000	-0.076	0.230
-234.830	5.598	-0.263	-0.192
-233.815	-165.213	-0.076	-0.003
-232.800	-193.036	-0.080	0.001
-231.786	25.820	0.148	-0.121
-230.771	22.507	0.162	0.131
-229.757	-200.000	0.033	-0.186
-228.742	-104.789	-0.261	0.059
-227.727	6.365	0.151	-0.111
-226.713	13.114	-0.136	0.104
-225.698	-29.143	-0.330	0.187
-224.684	-27.810	-0.186	-0.106
-223.669	39.510	0.221	0.195
-222.655	37.596	0.220	0.192
-221.640	-26.887	0.097	-0.056
-220.625	-6.265	-0.182	0.122
-219.611	-200.000	0.063	0.284
-218.596	-25.923	0.069	-0.040
-217.582	-200.000	0.053	0.515
-216.567	-73.566	-0.085	0.030
-215.552	-140.143	-0.279	0.029
-214.538	-33.093	0.309	-0.169
-213.523	137.782	-0.052	0.067
-212.509	151.648	0.222	0.298
-211.494	5.804	0.181	0.132
-210.479	61.165	-0.097	0.095
-209.465	93.656	0.100	0.111
-208.450	-89.097	-0.023	-0.007
-207.436	-57.540	-0.266	-0.115
-206.421	271.218	0.094	0.163
-205.406	257.114	-0.164	0.278
-204.392	80.219	-0.193	0.205
-203.377	-112.923	0.021	-0.004
-202.363	-200.000	-0.020	0.151
-201.348	-140.910	-0.262	-0.026
-200.333	56.842	0.133	0.128
-199.319	16.567	-0.110	-0.085
-198.304	111.207	0.045	0.053
-197.290	294.402	-0.076	0.136
-196.275	22.550	0.157	-0.127
-195.260	104.620	0.243	-0.281
-194.246	-200.000	0.017	-0.167
-193.231	-57.991	0.230	-0.099
-192.217	86.495	-0.207	-0.225
-191.202	458.051	0.043	-0.095
-190.187	800.000	0.012	-0.043
-189.173	-61.055	-0.014	-0.006
-188.158	-200.000	0.003	-0.521
-187.144	40.702	0.069	0.061
-186.129	-200.000	-0.019	-0.224
-185.114	-200.000	-0.003	0.046
-184.100	-200.000	0.017	0.307
-183.085	310.197	-0.056	0.104
-182.071	-7.518	-0.020	0.013
-181.056	800.000	-0.084	0.233
-180.042	135.359	0.069	-0.089
-179.027	47.381	-0.048	-0.044
-178.012	146.318	-0.107	-0.141
-176.998	87.940	-0.074	0.081
-175.983	5.298	0.072	-0.053
-174.969	-147.640	-0.220	-0.018
-173.954	246.443	0.073	-0.121
-172.939	-122.393	-0.227	0.036
-171.925	307.537	0.160	0.293
-170.910	-200.000	0.038	-0.268
-169.896	-200.000	0.043	-0.253
-168.881	274.938	0.071	-0.124
-167.866	-138.097	-0.054	0.006
-166.852	784.674	0.085	0.230
-165.837	-127.057	0.350	0.051
-164.823	-102.086	-0.192	-0.045
-163.808	-200.000	-0.024	0.190
-162.793	-38.279	-0.116	0.060
-161.779	650.605	-0.051	0.128
-160.764	169.699	0.294	0.414
-159.750	-115.172	0.310	-0.058
-158.735	-200.000	0.001	-0.037
-157.720	286.860	-0.119	-0.211
-156.706	-23.416	-0.217	0.128
-155.691	-200.000	0.028	0.275
-154.677	587.481	-0.103	0.249
-153.662	-200.000	0.005	-0.057
-152.647	-30.969	0.402	0.223
-151.633	697.031	0.108	0.279
-150.618	800.000	0.052	0.221
-149.604	-16.670	-0.149	-0.093
-148.589	-15.541	-0.149	-0.094
-147.574	-198.357	0.335	0.002
-146.560	800.000	-0.047	-0.160
-145.545	-12.653	0.077	0.049
-144.531	33.929	0.119	-0.101
-143.516	-75.592	0.375	0.131
-142.502	-200.000	0.053	0.240
-141.487	800.000	0.062	0.235
-140.472	230.939	0.131	0.211
-139.458	110.009	0.036	-0.042
-138.443	-35.923	-0.298	0.158
-137.429	-41.812	-0.181	0.091
-136.414	-110.811	-0.478	0.097
-135.399	800.000	-0.045	-0.150
-134.385	-200.000	-0.014	-0.172
-133.370	-146.710	-0.195	0.017
-132.356	-60.161	0.055	-0.023
-131.341	-5.756	-0.168	-0.113
-130.326	-115.046	-0.243	-0.045
-129.312	-117.715	-0.360	0.064
-128.297	32.147	0.047	-0.040
-127.283	170.939	0.029	0.041
-126.268	-72.491	0.486	-0.176
-125.253	-124.179	-0.117	-0.018
-124.239	-200.000	0.021	-0.266
-123.224	-200.000	0.028	-0.165
-122.210	502.348	-0.173	0.393
-121.195	-37.449	-0.153	-0.080
