DTS Sentinel unit serial number:	SN413079Multiplexer serial number:	ORYXHardware model number:	OX4-SRSoftware version number:	ORYX F/W v4.00 Oryx Data Collector v3.7.2.0data status	okinstallation	princeton_trtdifferential loss correction	single-endedforward channel	channel 1reverse channel	N/Adate	2019/09/12time	07:56:11forward acquisition time	60.00reverse acquisition time	0.00gamma	496.2192k internal	0.2314k external	0.2314temperature offset calibration	1.0041default loss term (dB/km)	0.3790temperature slope calibration	1.0000multiplexer offset coefficient	1.0000multiplexer slope coefficient	1.0000fibre end	0.00T internal ref (°C)	32.97T ext. ref 1 (°C)	1.67T ext. ref 2 (°C)	29.21length (m)	temperature (°C)	Stokes	anti-Stokes-747.200	82.819	-0.110	0.121
-746.185	28.406	-0.189	0.162
-745.171	707.744	0.162	-0.434
-744.156	800.000	0.056	0.200
-743.142	-30.740	-0.219	0.126
-742.127	800.000	-0.060	0.180
-741.112	145.276	0.078	0.105
-740.098	-147.932	-0.243	-0.020
-739.083	-200.000	0.010	0.170
-738.069	-200.000	-0.067	0.346
-737.054	277.481	-0.154	0.278
-736.039	124.953	-0.099	-0.127
-735.025	-200.000	-0.029	0.262
-734.010	213.393	0.078	-0.124
-732.996	224.762	-0.124	-0.203
-731.981	195.675	0.178	-0.274
-730.966	14.939	0.192	0.152
-729.952	-25.486	-0.094	-0.056
-728.937	-123.449	-0.302	0.049
-727.923	136.789	0.267	-0.354
-726.908	132.627	0.242	-0.316
-725.894	-85.132	-0.140	0.044
-724.879	32.961	0.231	0.203
-723.864	-122.803	0.073	0.012
-722.850	53.357	-0.053	-0.051
-721.835	-200.000	0.019	0.208
-720.821	-200.000	0.003	-0.076
-719.806	120.144	0.057	0.071
-718.791	7.028	0.173	0.131
-717.777	-26.097	-0.399	-0.237
-716.762	-200.000	-0.010	0.095
-715.748	18.514	-0.117	0.095
-714.733	-84.075	-0.023	-0.007
-713.718	80.369	-0.239	-0.261
-712.704	-200.000	-0.000	-0.090
-711.689	-3.250	0.164	-0.116
-710.675	-51.786	0.238	0.112
-709.660	199.735	0.180	0.279
-708.645	-200.000	0.010	-0.234
-707.631	-6.416	-0.056	-0.039
-706.616	-37.282	0.270	0.146
-705.602	19.500	0.246	0.200
-704.587	800.000	-0.031	-0.094
-703.572	100.848	0.406	0.478
-702.558	267.908	-0.016	-0.029
-701.543	-76.681	-0.015	0.005
-700.529	230.086	0.088	-0.145
-699.514	-101.811	0.099	-0.024
-698.499	-6.307	-0.244	0.169
-697.485	498.775	0.078	0.181
-696.470	160.643	0.027	-0.038
-695.456	800.000	0.070	-0.219
-694.441	-4.025	-0.213	0.150
-693.426	523.447	-0.160	0.379
-692.412	290.557	-0.081	-0.149
-691.397	-200.000	0.090	-0.406
-690.383	549.471	-0.076	0.185
-689.368	478.365	-0.079	-0.181
-688.354	0.173	0.118	0.085
-687.339	-95.729	0.179	0.048
-686.324	101.571	-0.235	0.277
-685.310	21.176	-0.111	0.091
-684.295	-200.000	-0.029	0.258
-683.281	152.660	-0.051	-0.070
-682.266	155.466	0.112	-0.156
-681.251	-40.815	-0.386	-0.202
-680.237	463.764	-0.016	-0.035
-679.222	-200.000	-0.012	-0.117
-678.208	-177.045	0.287	0.007
-677.193	-55.410	-0.438	-0.199
-676.178	-200.000	0.050	0.304
-675.164	146.866	-0.104	-0.142
-674.149	-95.457	-0.253	0.069
-673.135	800.000	-0.089	-0.253
-672.120	368.474	-0.161	0.329
-671.105	40.710	-0.300	0.273
-670.091	-180.136	0.327	-0.007
-669.076	-143.199	-0.165	0.016
-668.062	-104.759	-0.222	-0.052
-667.047	22.659	0.100	0.082
-666.032	-55.657	-0.120	-0.054
-665.018	-89.274	-0.192	-0.057
-664.003	425.472	0.142	0.310
-662.989	4.892	-0.198	0.147
-661.974	-86.091	0.027	-0.008
-660.959	146.633	0.078	-0.106
-659.945	209.152	0.236	0.373
-658.930	150.186	-0.073	-0.100
-657.916	139.136	-0.145	0.192
-656.901	372.440	0.027	0.055
-655.886	-110.586	-0.168	-0.035
-654.872	28.783	0.107	0.091
-653.857	87.770	0.023	-0.026
-652.843	75.201	-0.091	-0.097
-651.828	800.000	0.026	0.099
-650.814	-145.897	-0.331	0.030
-649.799	77.355	-0.107	-0.115
-648.784	527.467	-0.063	0.150
-647.770	800.000	-0.085	0.242
-646.755	115.973	0.125	-0.154
-645.741	38.940	-0.151	-0.136
-644.726	-166.276	0.206	-0.009
-643.711	-13.078	-0.298	-0.196
-642.697	170.127	-0.074	0.107
-641.682	-200.000	0.034	-0.207
-640.668	42.316	0.210	0.193
-639.653	-104.854	0.112	-0.026
-638.638	-147.108	0.162	-0.014
-637.624	2.829	0.147	-0.108
-636.609	41.205	0.069	-0.063
-635.595	800.000	-0.070	-0.289
-634.580	162.399	-0.334	-0.473
-633.565	800.000	-0.091	0.361
-632.551	-69.085	-0.205	-0.080
-631.536	-87.489	-0.229	0.070
-630.522	-21.459	-0.339	0.209
-629.507	-200.000	-0.447	-0.001
-628.492	-73.646	0.175	-0.064
-627.478	-19.291	0.328	0.206
-626.463	19.611	-0.181	-0.147
-625.449	-200.000	0.036	0.472
-624.434	50.813	-0.168	0.161
-623.419	-106.853	-0.326	-0.073
-622.405	-51.189	0.124	-0.059
-621.390	-117.642	0.202	0.037
-620.376	179.433	-0.015	0.022
-619.361	-123.299	-0.190	0.031
-618.346	-128.379	0.444	0.064
-617.332	-28.079	0.265	0.155
-616.317	-64.158	-0.157	-0.064
-615.303	-200.000	-0.063	-0.433
-614.288	137.290	-0.121	0.159
-613.273	-167.190	-0.069	0.003
-612.259	294.221	-0.156	-0.288
-611.244	-109.667	-0.206	0.044
-610.230	245.518	0.155	0.264
-609.215	178.850	0.147	0.217
-608.201	407.941	0.152	-0.325
-607.186	-123.850	0.268	0.043
-606.171	-147.250	-0.384	0.033
-605.157	-75.321	0.182	0.065
-604.142	-8.490	-0.149	0.101
-603.128	-94.796	-0.280	0.077
-602.113	269.320	0.169	-0.299
-601.098	800.000	-0.025	0.072
-600.084	107.499	-0.086	-0.104
-599.069	800.000	0.102	0.328
-598.055	147.695	-0.096	-0.131
-597.040	98.106	0.287	0.333
-596.025	-110.045	-0.206	0.044
-595.011	35.383	0.143	-0.127
-593.996	-13.302	0.226	-0.148
-592.982	800.000	0.095	-0.366
-591.967	17.779	-0.294	0.236
-590.952	-200.000	0.019	-0.309
-589.938	-53.681	0.157	0.072
-588.923	800.000	0.119	0.517
-587.909	0.490	0.201	0.145
-586.894	157.279	-0.035	-0.049
-585.879	800.000	0.063	-0.262
-584.865	492.424	-0.090	-0.208
-583.850	280.741	0.145	-0.261
-582.836	-142.110	0.174	0.017
-581.821	379.085	0.023	-0.046
-580.806	51.268	0.053	-0.051
-579.792	-151.814	-0.255	0.019
-578.777	375.645	0.107	0.220
-577.763	-79.426	-0.379	0.129
-576.748	134.024	0.069	0.091
-575.733	470.436	0.115	0.260
-574.719	-139.134	0.160	0.017
-573.704	-36.298	0.222	-0.120
-572.690	-61.427	0.294	0.125
-571.675	-90.636	-0.430	0.125
-570.661	401.669	0.160	0.339
-569.646	-11.189	0.392	-0.260
-568.631	133.152	0.214	-0.278
-567.617	-56.244	0.046	-0.021
-566.602	-40.588	0.225	0.118
-565.588	34.986	0.122	0.108
-564.573	-29.307	-0.261	-0.151
-563.558	-52.617	0.126	0.059
-562.544	-154.556	0.146	0.010
-561.529	37.511	-0.362	0.323
-560.515	-102.980	-0.133	0.032
-559.500	-69.391	-0.176	-0.068
-558.485	-26.814	0.222	-0.130
-557.471	-40.876	-0.244	0.127
-556.456	311.460	0.079	-0.149
-555.442	-200.000	0.043	0.321
-554.427	66.284	-0.127	0.130
-553.412	45.181	0.045	0.041
-552.398	4.442	-0.110	-0.081
-551.383	573.682	0.064	0.156
-550.369	38.288	0.256	0.230
-549.354	-54.583	-0.309	-0.140
-548.339	-200.000	-0.012	0.059
-547.325	64.923	0.193	-0.196
-546.310	140.363	0.065	-0.086
-545.296	466.584	0.023	-0.052
-544.281	-200.000	0.038	0.174
-543.266	-100.627	0.281	0.070
-542.252	66.063	0.155	-0.158
-541.237	-200.000	0.005	0.518
-540.223	-83.301	-0.443	-0.143
-539.208	-200.000	0.007	0.083
-538.193	669.063	-0.086	-0.224
-537.179	800.000	-0.029	0.125
-536.164	-63.583	-0.101	0.042
-535.150	140.414	-0.068	-0.091
-534.135	-200.000	0.013	-0.075
-533.121	-20.884	-0.344	-0.212
-532.106	299.924	0.020	-0.036
-531.091	-101.316	0.063	0.015
-530.077	-135.368	0.126	-0.015
-529.062	-200.000	0.006	-0.189
-528.048	-34.436	-0.191	-0.105
-527.033	198.198	-0.039	0.060
-526.018	800.000	-0.061	0.236
-525.004	-200.000	0.001	0.054
-523.989	-13.449	-0.206	-0.134
-522.975	-47.466	0.244	-0.119
-521.960	-200.000	0.037	-0.198
-520.945	-140.898	0.142	0.015
-519.931	-200.000	0.025	0.150
-518.916	244.105	-0.145	0.244
-517.902	-142.702	0.206	0.020
-516.887	225.592	-0.042	0.068
-515.872	-71.811	-0.253	0.095
-514.858	120.095	-0.098	-0.122
-513.843	-62.945	0.255	-0.106
-512.829	294.216	-0.063	0.115
-511.814	-58.568	-0.059	0.026
-510.799	33.668	0.079	-0.069
-509.785	601.005	-0.105	0.262
-508.770	800.000	-0.014	0.051
-507.756	-114.714	-0.206	-0.040
-506.741	209.349	0.210	-0.331
-505.726	51.354	0.159	-0.152
-504.712	-200.000	-0.021	0.182
-503.697	800.000	-0.060	0.189
-502.683	-200.000	0.165	0.000
-501.668	-170.887	-0.112	0.004
-500.653	-63.702	-0.243	-0.100
-499.639	-66.007	-0.388	-0.156
-498.624	422.028	0.044	0.094
-497.610	800.000	-0.094	0.311
-496.595	-189.757	-0.065	-0.001
-495.581	800.000	0.111	0.340
-494.566	167.190	-0.134	0.191
-493.551	15.504	-0.198	0.156
-492.537	-63.604	-0.058	0.024
-491.522	104.050	-0.046	0.054
-490.508	-76.474	-0.132	0.046
-489.493	77.531	0.166	-0.177
-488.478	-13.302	-0.130	-0.085
-487.464	-170.069	-0.150	0.005
-486.449	-171.988	-0.470	-0.015
-485.435	-170.603	0.205	-0.007
-484.420	-200.000	-0.055	-0.422
-483.405	-80.943	0.111	-0.037
-482.391	198.689	0.118	-0.181
-481.376	-200.000	0.010	0.194
-480.362	-153.310	-0.520	-0.036
-479.347	114.629	-0.103	-0.125
-478.332	203.195	-0.129	0.200
-477.318	-200.000	-0.038	0.445
-476.303	-200.000	-0.001	0.179
-475.289	800.000	-0.063	0.219
-474.274	31.956	-0.128	0.111
-473.259	269.553	0.163	-0.286
-472.245	-166.148	-0.506	0.022
-471.230	113.782	-0.109	-0.133
-470.216	-47.830	0.041	0.020
-469.201	-77.682	-0.111	-0.038
-468.186	-75.809	-0.230	-0.082
-467.172	380.402	-0.091	0.187
-466.157	-47.764	-0.218	-0.106
-465.143	-6.564	-0.171	-0.117
-464.128	34.261	0.239	-0.209
-463.113	-120.336	0.416	0.071
-462.099	-200.000	-0.038	-0.271
-461.084	-126.286	0.463	-0.069
-460.070	-71.026	-0.158	0.060
-459.055	228.067	-0.111	-0.181
-458.040	-163.045	-0.110	0.005
-457.026	36.577	-0.294	-0.260
-456.011	-154.838	-0.132	0.009
-454.997	-200.000	-0.002	0.199
-453.982	-200.000	-0.012	0.204
-452.968	158.769	-0.101	-0.141
-451.953	-69.313	-0.252	0.097
-450.938	341.201	-0.090	-0.177
-449.924	800.000	0.083	0.238
-448.909	-200.000	-0.002	-0.131
-447.895	-7.085	-0.210	-0.143
-446.880	-146.109	-0.210	0.019
-445.865	-200.000	0.020	-0.222
-444.851	-37.855	-0.051	-0.027
-443.836	-122.295	0.078	-0.013
-442.822	-92.268	-0.176	-0.050
-441.807	89.118	0.226	-0.253
-440.792	-164.285	0.355	-0.016
-439.778	-163.148	0.311	0.015
-438.763	-200.000	0.011	-0.142
-437.749	424.994	0.124	-0.268
-436.734	-200.000	-0.015	-0.219
-435.719	754.823	0.061	0.164
-434.705	-96.744	0.106	-0.028
-433.690	-60.894	0.413	-0.175
-432.676	800.000	-0.093	-0.282
-431.661	-17.291	0.044	0.028
-430.646	117.132	-0.173	0.212
-429.632	-140.260	0.203	0.021
-428.617	-200.000	0.007	0.218
-427.603	800.000	-0.040	0.130
-426.588	-74.021	0.162	-0.059
-425.573	36.274	0.118	-0.104
-424.559	-200.000	-0.079	0.407
-423.544	97.953	0.122	-0.140
-422.530	-30.163	-0.209	-0.119
-421.515	-164.422	-0.497	-0.023
-420.500	-134.679	-0.234	0.029
-419.486	-25.750	0.116	0.068
-418.471	220.621	0.179	-0.288
-417.457	-91.169	-0.166	0.048
-416.442	-91.381	0.194	-0.056
-415.428	800.000	-0.102	0.292
-414.413	245.090	-0.220	0.370
-413.398	221.457	-0.080	-0.128
-412.384	800.000	-0.075	0.318
-411.369	-200.000	-0.001	0.093
-410.355	-103.230	-0.200	-0.047
-409.340	22.104	0.264	-0.215
-408.325	-171.579	0.211	0.007
-407.311	-86.237	-0.497	0.153
-406.296	-170.809	0.125	0.004
-405.282	49.314	0.150	0.141
-404.267	-66.446	0.273	-0.109
-403.252	800.000	0.039	-0.146
-402.238	81.619	-0.093	-0.101
-401.223	-74.252	0.116	-0.042
-400.209	-175.337	-0.346	-0.010
-399.194	800.000	-0.098	-0.344
-398.179	46.571	-0.081	-0.075
-397.165	272.679	-0.086	0.152
-396.150	390.849	0.066	-0.138
-395.136	-135.427	-0.098	-0.012
-394.121	23.723	-0.210	0.173
-393.106	-61.394	0.258	-0.108
-392.092	63.187	0.106	-0.107
-391.077	301.001	0.155	-0.285
-390.063	-10.948	-0.080	0.053
-389.048	-85.572	-0.152	-0.047
-388.033	4.840	0.227	-0.167
-387.019	-61.687	-0.153	-0.064
-386.004	85.612	0.041	-0.045
-384.990	800.000	-0.022	-0.066
-383.975	77.938	0.232	-0.247
-382.960	48.794	0.128	0.120
-381.946	800.000	-0.100	0.385
-380.931	119.447	0.249	0.308
-379.917	13.841	-0.255	0.198
-378.902	18.731	-0.100	-0.080
-377.888	420.860	0.140	-0.300
-376.873	83.421	-0.176	-0.191
-375.858	-87.592	0.220	0.066
-374.844	247.948	0.257	-0.435
-373.829	-200.000	-0.051	-0.295
-372.815	3.460	-0.206	-0.150
-371.800	-135.615	-0.399	-0.047
-370.785	-123.831	-0.156	0.025
-369.771	-200.000	0.041	-0.223
-368.756	33.508	0.114	0.099
-367.742	174.974	0.159	0.229
-366.727	-151.281	0.109	0.008
-365.712	660.829	-0.102	-0.262
-364.698	-167.460	-0.082	0.003
-363.683	5.758	0.197	0.146
-362.669	800.000	0.023	-0.071
-361.654	128.655	-0.140	-0.179
-360.639	408.470	0.123	0.260
-359.625	772.050	-0.092	0.250
-358.610	-133.402	-0.149	0.019
-357.596	800.000	0.038	-0.156
-356.581	-136.937	0.073	0.008
-355.566	-200.000	-0.004	0.030
-354.552	-61.451	0.188	0.079
-353.537	47.607	0.157	-0.146
-352.523	155.181	0.118	-0.162
-351.508	-200.000	-0.006	-0.149
-350.493	43.126	-0.089	0.081
-349.479	-200.000	0.058	-0.319
-348.464	-53.429	-0.303	0.139
-347.450	257.675	0.121	0.209
-346.435	800.000	0.014	0.041
-345.420	-8.263	0.114	-0.077
-344.406	800.000	0.011	-0.049
-343.391	-200.000	-0.007	0.288
-342.377	-119.045	0.038	-0.007
-341.362	-49.896	-0.288	-0.136
-340.348	-67.993	0.073	-0.028
-339.333	-130.092	-0.339	0.046
-338.318	800.000	0.043	0.146
-337.304	-44.009	0.077	0.039
-336.289	-85.196	-0.222	-0.069
-335.275	-57.832	-0.159	0.069
-334.260	-195.588	0.123	-0.001
-333.245	-200.000	-0.005	-0.160
-332.231	219.845	0.158	0.253
-331.216	800.000	0.109	-0.345
-330.202	13.535	0.227	-0.175
-329.187	-124.687	0.212	0.033
-328.172	392.185	-0.036	0.074
-327.158	-200.000	-0.106	-0.528
-326.143	-200.000	-0.040	0.302
-325.129	-200.000	0.011	0.058
-324.114	-103.124	0.116	0.027
-323.099	-161.014	-0.190	0.010
-322.085	-52.069	0.250	-0.116
-321.070	-200.000	0.006	-0.086
-320.056	286.160	-0.073	-0.132
-319.041	94.492	0.063	0.071
-318.026	389.405	0.169	-0.349
-317.012	611.377	-0.065	0.161
-315.997	309.886	0.018	0.034
-314.983	-91.272	-0.136	0.039
-313.968	-81.763	-0.092	0.030
-312.953	-200.000	-0.013	-0.130
-311.939	-29.811	-0.088	0.050
-310.924	7.891	0.137	0.102
-309.910	146.605	0.132	0.177
-308.895	-70.319	0.284	-0.108
-307.880	-119.912	0.120	-0.020
-306.866	14.954	0.245	0.191
-305.851	20.502	-0.121	-0.097
-304.837	-12.767	-0.104	-0.068
-303.822	-9.067	0.229	-0.153
-302.807	42.647	-0.334	0.303
-301.793	800.000	-0.062	0.231
-300.778	79.838	0.193	-0.207
-299.764	156.499	-0.219	-0.301
-298.749	-66.098	0.190	0.075
-297.735	-25.228	-0.196	-0.116
-296.720	-112.921	-0.377	-0.074
-295.705	-200.000	0.041	-0.211
-294.691	527.658	-0.009	-0.020
-293.676	800.000	-0.080	-0.242
-292.662	327.248	-0.185	-0.353
-291.647	-86.206	0.416	0.128
-290.632	-157.560	-0.252	0.015
-289.618	-138.790	0.306	-0.033
-288.603	53.671	0.160	0.153
-287.589	-91.927	-0.135	-0.038
-286.574	-200.000	-0.018	0.194
-285.559	137.917	0.255	0.333
-284.545	-136.753	0.423	-0.049
-283.530	-200.000	0.009	0.362
-282.516	-89.046	-0.066	-0.019
-281.501	433.933	-0.065	0.140
-280.486	-68.503	-0.080	0.031
-279.472	-123.733	0.240	-0.038
-278.457	81.659	-0.223	0.240
-277.443	800.000	0.057	-0.158
-276.428	46.169	0.195	-0.180
-275.413	286.687	0.064	-0.115
-274.399	358.956	0.125	-0.248
-273.384	-200.000	-0.016	0.294
-272.370	800.000	0.074	-0.236
-271.355	-36.334	0.248	-0.133
-270.340	-170.419	-0.239	0.008
-269.326	-99.655	-0.239	0.060
-268.311	39.783	-0.120	0.107
-267.297	66.873	0.173	0.175
-266.282	433.245	0.104	-0.225
-265.267	-44.074	-0.213	-0.106
-264.253	-30.341	-0.158	0.089
-263.238	23.560	-0.138	-0.113
-262.224	68.106	0.109	0.111
-261.209	260.569	-0.116	0.199
-260.195	-32.176	0.124	-0.069
-259.180	280.368	0.243	-0.432
-258.165	800.000	0.082	0.248
-257.151	-53.292	-0.217	0.099
-256.136	137.674	-0.185	-0.240
-255.122	-63.601	0.313	-0.128
-254.107	-65.580	-0.222	0.089
-253.092	-105.038	-0.077	0.018
-252.078	509.989	0.147	-0.341
-251.063	-77.822	0.183	-0.063
-250.049	-200.000	0.003	-0.131
-249.034	800.000	0.038	-0.142
-248.019	800.000	-0.080	-0.338
-247.005	-10.720	-0.180	0.119
-245.990	-178.873	0.165	-0.004
-244.976	63.240	-0.208	-0.208
-243.961	800.000	0.032	0.115
-242.946	-8.176	-0.156	-0.105
-241.932	-200.000	-0.005	0.167
-240.917	-123.297	0.200	-0.032
-239.903	66.199	-0.275	0.278
-238.888	-200.000	-0.019	0.188
-237.873	-95.872	0.303	0.080
-236.859	492.230	0.138	0.314
-235.844	556.035	-0.083	-0.199
-234.830	277.111	-0.071	0.125
-233.815	-150.307	0.167	-0.013
-232.800	468.679	0.075	-0.166
-231.786	32.300	-0.249	0.213
-230.771	-122.966	-0.283	0.045
-229.757	251.466	0.066	-0.111
-228.742	121.110	-0.169	0.210
-227.727	478.911	-0.151	0.340
-226.713	-149.711	0.175	-0.014
-225.698	-101.867	0.119	0.029
-224.684	-145.724	0.091	-0.008
-223.669	-5.271	-0.163	0.111
-222.655	24.430	0.032	-0.026
-221.640	104.009	0.044	0.051
-220.625	800.000	0.039	0.165
-219.611	29.609	0.042	-0.035
-218.596	45.421	0.297	0.272
-217.582	-35.609	-0.278	-0.150
-216.567	74.932	-0.133	-0.139
-215.552	-107.271	0.237	0.052
-214.538	-130.216	0.136	-0.018
-213.523	-200.000	-0.028	-0.172
-212.509	164.855	-0.145	0.204
-211.494	-140.162	0.187	-0.019
-210.479	519.144	0.100	0.233
-209.465	29.733	-0.169	0.143
-208.450	272.151	-0.089	-0.156
-207.436	-142.858	0.088	-0.008
-206.421	-101.800	0.324	0.078
-205.406	-4.131	0.156	-0.107
-204.392	333.240	-0.205	0.393
-203.377	-200.000	0.008	0.151
-202.363	-95.314	0.166	0.044
-201.348	-107.586	0.348	0.076
-200.333	-143.130	0.115	-0.011
-199.319	-141.251	-0.174	0.018
-198.304	-111.642	0.180	0.036
-197.290	-166.361	-0.192	0.008
-196.275	108.925	0.142	0.169
-195.260	44.985	0.295	-0.270
-194.246	2.227	0.171	0.123
-193.231	-92.719	-0.141	0.039
-192.217	-200.000	0.103	0.000
-191.202	411.525	0.077	-0.162
-190.187	800.000	0.029	0.119
-189.173	-130.010	0.333	0.045
-188.158	100.672	0.448	-0.516
-187.144	51.584	0.054	-0.051
-186.129	-75.013	0.275	0.098
-185.114	-81.935	0.180	-0.058
-184.100	-35.108	-0.465	-0.251
-183.085	-42.637	0.223	-0.112
-182.071	-99.551	-0.193	-0.048
-181.056	36.737	-0.215	0.188
-180.042	800.000	0.018	0.050
-179.027	-63.758	-0.126	-0.051
-178.012	88.262	0.217	0.239
-176.998	552.509	-0.087	0.207
-175.983	-39.345	0.229	0.119
-174.969	800.000	-0.147	0.537
-173.954	-23.205	-0.304	0.182
-172.939	-72.754	0.088	0.032
-171.925	317.625	-0.053	-0.099
-170.910	266.329	-0.186	0.323
-169.896	384.708	0.103	0.210
-168.881	31.550	0.346	0.295
-167.866	-125.888	0.049	0.007
-166.852	-200.000	-0.017	-0.344
-165.837	800.000	0.037	0.121
-164.823	-111.378	0.092	0.019
-163.808	800.000	0.063	-0.198
-162.793	248.749	0.115	-0.193
-161.779	800.000	-0.123	-0.378
-160.764	-131.911	-0.123	0.016
-159.750	-108.059	-0.245	0.053
-158.735	-200.000	-0.010	-0.056
-157.720	-5.341	-0.094	0.064
-156.706	-159.575	0.265	-0.015
-155.691	-120.038	0.355	-0.060
-154.677	-200.000	-0.022	0.094
-153.662	86.405	-0.084	0.091
-152.647	215.229	-0.090	0.141
-151.633	-79.291	0.162	-0.054
-150.618	230.710	-0.260	0.421
-149.604	-64.613	-0.179	-0.072
-148.589	-44.928	0.163	-0.080
-147.574	31.329	0.150	0.127
-146.560	-200.000	-0.014	0.258
-145.545	392.812	0.101	0.208
-144.531	800.000	0.175	-0.483
-143.516	-122.866	0.121	0.019
-142.502	-80.849	-0.075	0.025
-141.487	-200.000	-0.018	0.083
-140.472	227.729	0.124	-0.200
-139.458	27.884	0.174	-0.145
-138.443	-158.604	-0.229	0.013
-137.429	-2.567	0.099	-0.068
-136.414	409.361	0.094	0.196
-135.399	800.000	0.114	0.317
-134.385	291.302	0.089	0.160
-133.370	62.823	-0.304	-0.301
-132.356	162.143	-0.105	-0.146
-131.341	-52.243	0.228	0.105
-130.326	-200.000	-0.008	0.188
-129.312	800.000	0.107	-0.344
-128.297	-200.000	-0.009	0.307
-127.283	156.772	-0.050	0.068
-126.268	128.141	-0.303	0.381
-125.253	800.000	-0.068	-0.197
-124.239	196.225	0.280	-0.422
-123.224	800.000	-0.088	0.257
-122.210	135.820	-0.261	0.336
-121.195	465.800	0.074	0.163
-120.180	459.227	-0.007	-0.015
