DTS Sentinel unit serial number:	SN413079Multiplexer serial number:	ORYXHardware model number:	OX4-SRSoftware version number:	ORYX F/W v4.00 Oryx Data Collector v3.7.2.0data status	okinstallation	princeton_trtdifferential loss correction	single-endedforward channel	channel 1reverse channel	N/Adate	2019/09/11time	11:12:11forward acquisition time	60.00reverse acquisition time	0.00gamma	496.2192k internal	0.2296k external	0.2296temperature offset calibration	0.9957default loss term (dB/km)	0.3790temperature slope calibration	1.0000multiplexer offset coefficient	1.0000multiplexer slope coefficient	1.0000fibre end	0.00T internal ref (°C)	37.53T ext. ref 1 (°C)	0.17T ext. ref 2 (°C)	33.66length (m)	temperature (°C)	Stokes	anti-Stokes-747.200	-49.491	0.154	0.075
-746.185	-61.413	-0.269	0.116
-745.171	-49.435	-0.081	0.040
-744.156	-200.000	-0.031	-0.215
-743.142	-127.499	-0.277	-0.041
-742.127	173.354	-0.130	0.191
-741.112	26.863	0.126	0.108
-740.098	-138.443	0.226	-0.025
-739.083	-161.480	-0.188	-0.010
-738.069	354.835	0.096	0.195
-737.054	-63.991	0.111	0.046
-736.039	6.575	-0.109	0.083
-735.025	-18.652	0.326	-0.207
-734.010	-15.358	0.101	0.066
-732.996	267.239	-0.052	-0.092
-731.981	-44.277	-0.324	-0.166
-730.966	-83.716	0.234	-0.076
-729.952	-19.904	-0.262	-0.165
-728.937	800.000	0.028	0.090
-727.923	-200.000	0.066	0.356
-726.908	-111.056	-0.664	-0.139
-725.894	-200.000	-0.024	-0.123
-724.879	-118.854	0.076	-0.014
-723.864	-200.000	-0.024	0.233
-722.850	13.616	-0.264	-0.209
-721.835	800.000	0.076	-0.277
-720.821	-200.000	-0.029	-0.151
-719.806	19.428	0.195	-0.160
-718.791	-200.000	-0.010	-0.319
-717.777	98.066	0.117	0.137
-716.762	68.817	-0.039	0.041
-715.748	-200.000	-0.020	-0.167
-714.733	392.872	-0.076	-0.161
-713.718	800.000	-0.111	-0.478
-712.704	-68.365	0.350	-0.139
-711.689	-33.393	-0.184	-0.104
-710.675	-31.150	0.179	0.103
-709.660	-200.000	-0.029	-0.175
-708.645	-200.000	0.003	-0.071
-707.631	15.960	0.108	0.087
-706.616	800.000	-0.055	-0.158
-705.602	52.523	0.076	0.074
-704.587	128.732	-0.104	-0.136
-703.572	255.899	-0.054	0.095
-702.558	106.656	0.096	-0.116
-701.543	40.805	-0.285	0.262
-700.529	-117.219	0.040	-0.007
-699.514	87.300	0.160	-0.180
-698.499	-68.507	0.249	-0.098
-697.485	-69.505	0.155	0.060
-696.470	-200.000	-0.044	0.230
-695.456	237.017	-0.095	0.160
-694.441	-70.149	0.271	-0.105
-693.426	100.611	-0.116	-0.137
-692.412	800.000	0.086	-0.256
-691.397	542.412	0.044	-0.107
-690.383	-95.729	0.264	0.072
-689.368	387.322	0.115	-0.242
-688.354	552.275	-0.101	-0.248
-687.339	-114.051	0.213	0.042
-686.324	-40.976	0.330	-0.174
-685.310	-200.000	-0.029	0.256
-684.295	-200.000	0.008	-0.218
-683.281	128.926	-0.121	-0.157
-682.266	-16.898	-0.403	0.260
-681.251	390.978	-0.126	0.266
-680.237	-200.000	-0.005	0.498
-679.222	110.322	-0.314	0.385
-678.208	48.439	0.266	-0.253
-677.193	72.720	-0.057	-0.060
-676.178	-200.000	0.207	0.001
-675.164	-200.000	0.024	-0.174
-674.149	-68.159	-0.243	0.097
-673.135	-143.688	0.484	0.047
-672.120	102.494	-0.038	-0.046
-671.105	292.367	0.158	-0.293
-670.091	-200.000	-0.018	0.351
-669.076	174.309	0.074	-0.109
-668.062	-200.000	-0.011	-0.119
-667.047	-50.943	0.116	0.056
-666.032	-114.683	0.227	0.044
-665.018	252.535	0.102	0.178
-664.003	800.000	-0.025	0.095
-662.989	54.678	-0.165	-0.162
-661.974	40.115	-0.224	-0.205
-660.959	-68.801	-0.315	-0.124
-659.945	-15.331	0.129	-0.084
-658.930	369.295	0.039	0.080
-657.916	222.205	-0.033	0.054
-656.901	800.000	0.036	0.102
-655.886	237.677	0.281	-0.474
-654.872	-20.897	0.371	-0.232
-653.857	-114.555	0.140	0.027
-652.843	800.000	-0.049	-0.159
-651.828	-124.104	0.372	-0.059
-650.814	-16.636	-0.429	0.276
-649.799	51.346	-0.015	0.014
-648.784	-53.904	0.067	0.031
-647.770	305.340	0.120	0.227
-646.755	358.652	-0.071	-0.145
-645.741	66.571	0.052	-0.054
-644.726	-98.935	-0.140	0.036
-643.711	-155.628	-0.157	0.010
-642.697	263.671	-0.139	-0.247
-641.682	211.094	0.122	-0.195
-640.668	800.000	0.053	0.170
-639.653	47.315	-0.188	0.178
-638.638	800.000	-0.103	0.345
-637.624	129.454	0.155	0.202
-636.609	-30.181	0.085	-0.049
-635.595	-200.000	-0.044	-0.304
-634.580	800.000	-0.116	-0.354
-633.565	151.034	0.203	-0.280
-632.551	-111.229	-0.337	0.070
-631.536	-6.164	0.176	-0.122
-630.522	182.884	-0.076	-0.113
-629.507	107.463	0.174	-0.210
-628.492	-47.866	-0.032	-0.016
-627.478	-94.609	-0.174	0.048
-626.463	7.397	-0.027	0.021
-625.449	-200.000	0.097	-0.447
-624.434	-76.097	0.132	0.047
-623.419	5.682	-0.141	0.106
-622.405	44.656	-0.221	0.206
-621.390	-140.712	0.317	-0.033
-620.376	-200.000	-0.008	-0.112
-619.361	800.000	0.073	-0.308
-618.346	211.335	-0.102	0.164
-617.332	-200.000	-0.065	0.365
-616.317	-140.255	-0.204	-0.022
-615.303	29.487	-0.137	0.118
-614.288	-12.943	0.164	-0.108
-613.273	-92.509	-0.246	-0.070
-612.259	184.734	-0.068	0.103
-611.244	304.577	-0.134	-0.252
-610.230	136.232	0.106	-0.141
-609.215	466.699	0.038	-0.086
-608.201	-101.567	0.145	0.036
-607.186	98.898	-0.124	-0.146
-606.171	800.000	0.083	-0.292
-605.157	-77.412	-0.046	0.016
-604.142	-123.015	0.193	-0.032
-603.128	143.029	-0.137	0.185
-602.113	173.492	-0.107	-0.157
-601.098	-46.400	0.298	-0.149
-600.084	59.363	-0.202	0.202
-599.069	318.462	0.122	-0.234
-598.055	-38.903	0.142	0.076
-597.040	255.003	-0.220	-0.384
-596.025	-174.923	-0.357	0.010
-595.011	405.206	-0.087	-0.186
-593.996	-200.000	-0.037	0.307
-592.982	327.006	-0.112	-0.218
-591.967	-93.585	-0.118	0.033
-590.952	-200.000	0.083	0.385
-589.938	-171.958	0.501	-0.017
-588.923	-33.381	-0.108	0.061
-587.909	-105.881	-0.213	-0.049
-586.894	800.000	-0.136	0.390
-585.879	-31.161	0.329	0.188
-584.865	188.261	-0.092	0.139
-583.850	384.001	-0.056	-0.116
-582.836	-73.898	-0.162	-0.060
-581.821	109.741	0.043	0.052
-580.806	65.511	-0.393	-0.404
-579.792	-172.033	0.277	-0.009
-578.777	-142.379	0.447	-0.045
-577.763	-116.197	-0.283	-0.053
-576.748	42.010	0.264	0.243
-575.733	-193.098	-0.304	0.003
-574.719	-88.756	0.061	-0.018
-573.704	-113.773	-0.198	-0.039
-572.690	-157.644	-0.323	-0.020
-571.675	89.933	0.133	-0.151
-570.661	-21.534	-0.257	-0.159
-569.646	150.260	0.070	-0.097
-568.631	108.655	-0.115	-0.139
-567.617	-99.345	0.021	-0.005
-566.602	-200.000	0.027	-0.126
-565.588	-200.000	-0.024	0.259
-564.573	-135.703	-0.370	-0.044
-563.558	173.457	0.163	-0.238
-562.544	-99.933	0.401	0.102
-561.529	-200.000	0.000	-0.318
-560.515	-102.336	-0.243	0.059
-559.500	272.292	-0.207	0.371
-558.485	-38.708	-0.044	-0.024
-557.471	-41.548	0.183	-0.096
-556.456	-42.732	0.183	0.094
-555.442	-104.087	-0.254	-0.060
-554.427	-200.000	-0.039	-0.186
-553.412	-200.000	0.003	-0.161
-552.398	-120.368	0.260	0.045
-551.383	-28.078	-0.153	0.090
-550.369	-140.524	0.062	-0.006
-549.354	-200.000	-0.007	-0.114
-548.339	-110.527	-0.116	-0.024
-547.325	-200.000	0.019	0.437
-546.310	-41.421	0.071	0.037
-545.296	176.629	0.213	0.315
-544.281	162.055	0.109	-0.155
-543.266	170.433	-0.104	-0.151
-542.252	-88.000	0.240	0.073
-541.237	18.842	-0.135	-0.109
-540.223	144.234	0.260	-0.352
-539.208	-200.000	-0.023	0.153
-538.193	12.599	0.354	-0.277
-537.179	183.837	0.122	-0.183
-536.164	-185.198	0.294	0.005
-535.150	273.796	-0.086	0.155
-534.135	800.000	-0.073	0.257
-533.121	124.406	-0.272	-0.347
-532.106	367.119	-0.127	-0.259
-531.091	9.496	0.112	0.086
-530.077	797.116	-0.036	-0.099
-529.062	-17.792	0.490	-0.311
-528.048	-116.740	0.494	0.092
-527.033	-40.928	0.267	0.140
-526.018	800.000	0.089	0.371
-525.004	71.608	0.172	0.181
-523.989	12.402	-0.141	-0.110
-522.975	-115.999	-0.076	0.014
-521.960	453.301	0.089	0.200
-520.945	-200.000	0.023	0.153
-519.931	8.731	-0.235	-0.180
-518.916	800.000	0.071	0.254
-517.902	-117.979	0.272	-0.049
-516.887	485.724	0.160	-0.369
-515.872	-72.345	-0.174	-0.065
-514.858	421.633	0.077	0.167
-513.843	-200.000	0.017	0.301
-512.829	115.133	0.071	-0.088
-511.814	130.654	-0.102	-0.133
-510.799	185.660	-0.113	-0.170
-509.785	-128.688	-0.220	0.031
-508.770	800.000	-0.082	0.257
-507.756	-66.711	-0.064	-0.025
-506.741	83.422	0.135	-0.149
-505.726	800.000	0.043	-0.176
-504.712	-87.483	-0.113	0.035
-503.697	287.521	-0.010	0.019
-502.683	-13.158	-0.507	-0.334
-501.668	-106.690	0.059	0.013
-500.653	-66.429	0.423	0.170
-499.639	441.831	-0.109	0.242
-498.624	78.832	0.023	0.025
-497.610	226.239	-0.112	-0.184
-496.595	800.000	-0.049	-0.168
-495.581	92.328	-0.182	0.208
-494.566	59.078	-0.290	0.288
-493.551	61.355	0.202	0.204
-492.537	-51.867	-0.183	0.086
-491.522	800.000	-0.126	-0.376
-490.508	-80.238	0.132	-0.045
-489.493	800.000	0.058	0.176
-488.478	115.923	-0.180	-0.222
-487.464	-200.000	0.011	0.128
-486.449	-200.000	0.031	-0.250
-485.435	-25.546	-0.038	0.023
-484.420	48.255	-0.184	0.175
-483.405	-8.986	-0.214	0.145
-482.391	653.464	-0.036	0.094
-481.376	26.394	0.230	0.194
-480.362	49.066	-0.126	0.120
-479.347	-4.990	-0.103	0.072
-478.332	-121.492	-0.209	0.035
-477.318	-47.710	0.076	-0.037
-476.303	117.709	0.151	0.188
-475.289	-200.000	0.040	0.193
-474.274	800.000	-0.036	-0.109
-473.259	13.606	0.206	0.162
-472.245	173.416	0.122	-0.178
-471.230	800.000	-0.033	-0.115
-470.216	174.580	-0.082	0.119
-469.201	-49.827	0.145	0.070
-468.186	191.818	-0.071	0.108
-467.172	-1.281	-0.088	0.063
-466.157	469.560	0.119	0.270
-465.143	-64.558	0.136	-0.056
-464.128	-200.000	0.009	0.104
-463.113	41.951	-0.099	-0.091
-462.099	-20.931	-0.232	0.143
-461.084	-11.655	0.468	0.310
-460.070	66.384	-0.107	-0.110
-459.055	123.822	0.242	-0.307
-458.040	360.878	0.136	0.275
-457.026	177.520	0.124	0.183
-456.011	319.447	0.073	0.139
-454.997	-91.636	0.028	-0.008
-453.982	382.370	-0.158	-0.327
-452.968	-79.435	-0.168	0.057
-451.953	-73.820	-0.283	-0.104
-450.938	56.086	-0.134	-0.132
-449.924	-85.211	0.365	-0.115
-448.909	-177.687	-0.241	-0.006
-447.895	198.888	0.041	-0.063
-446.880	-138.032	-0.339	-0.038
-445.865	208.521	0.102	0.160
-444.851	39.547	-0.170	-0.154
-443.836	-42.319	-0.095	-0.049
-442.822	75.884	-0.145	-0.155
-441.807	-13.520	-0.144	-0.094
-440.792	-9.517	0.250	0.168
-439.778	72.611	-0.107	0.112
-438.763	-200.000	0.057	-0.431
-437.749	114.672	0.112	0.138
-436.734	688.225	-0.128	0.337
-435.719	-99.873	-0.154	-0.039
-434.705	40.302	-0.146	0.132
-433.690	-29.031	-0.185	-0.107
-432.676	-96.554	-0.174	0.046
-431.661	-200.000	-0.056	0.252
-430.646	102.031	0.049	0.058
-429.632	94.538	-0.152	0.174
-428.617	-92.979	-0.083	-0.023
-427.603	20.973	-0.085	0.070
-426.588	-200.000	-0.028	-0.133
-425.573	136.516	-0.132	-0.174
-424.559	-139.361	0.074	-0.008
-423.544	800.000	0.073	-0.208
-422.530	-81.178	-0.312	0.104
-421.515	-74.515	-0.339	0.123
-420.500	48.798	0.334	-0.316
-419.486	-200.000	-0.047	-0.244
-418.471	176.493	-0.179	-0.262
-417.457	-30.320	-0.042	0.024
-416.442	-200.000	-0.019	-0.147
-415.428	800.000	-0.002	-0.005
-414.413	95.353	-0.108	-0.125
-413.398	-119.384	0.081	-0.014
-412.384	-200.000	-0.010	-0.057
-411.369	-95.211	0.152	0.041
-410.355	37.976	0.072	0.065
-409.340	800.000	-0.061	-0.211
-408.325	-113.379	0.343	0.068
-407.311	-200.000	0.035	0.161
-406.296	284.750	-0.110	0.199
-405.282	-97.407	-0.110	0.029
-404.267	-191.940	-0.284	-0.003
-403.252	44.603	-0.034	-0.031
-402.238	-8.118	-0.219	0.149
-401.223	-66.268	0.162	-0.065
-400.209	-200.000	0.029	-0.289
-399.194	-112.408	0.318	0.064
-398.179	-200.000	0.011	0.107
-397.165	-52.928	0.094	-0.044
-396.150	-38.400	-0.049	0.026
-395.136	1.482	-0.201	-0.146
-394.121	42.944	0.081	0.074
-393.106	800.000	-0.058	0.245
-392.092	-94.658	0.238	0.065
-391.077	-90.075	0.192	0.056
-390.063	800.000	0.044	0.126
-389.048	-68.617	-0.336	0.131
-388.033	4.130	-0.272	0.201
-387.019	362.073	0.111	-0.225
-386.004	173.355	0.066	-0.096
-384.990	-27.516	-0.008	-0.005
-383.975	293.852	-0.043	-0.079
-382.960	22.274	0.303	-0.249
-381.946	159.185	-0.060	-0.085
-380.931	-200.000	-0.030	0.201
-379.917	498.733	-0.050	0.115
-378.902	-200.000	-0.007	-0.149
-377.888	45.934	0.125	0.116
-376.873	-107.744	0.367	0.081
-375.858	129.241	-0.088	0.113
-374.844	800.000	0.036	-0.114
-373.829	90.654	-0.231	0.261
-372.815	-150.129	0.111	-0.009
-371.800	800.000	-0.084	0.283
-370.785	-31.419	0.048	-0.027
-369.771	-200.000	-0.052	0.338
-368.756	360.117	-0.060	-0.121
-367.742	-33.844	-0.212	0.117
-366.727	42.716	0.230	-0.211
-365.712	-12.881	-0.064	-0.042
-364.698	-103.241	0.090	-0.021
-363.683	-200.000	0.026	-0.207
-362.669	-72.118	0.325	0.121
-361.654	183.892	-0.021	0.031
-360.639	-26.567	0.158	0.093
-359.625	-70.513	0.244	-0.093
-358.610	-92.937	-0.141	0.040
-357.596	-11.820	0.059	-0.039
-356.581	800.000	-0.059	0.184
-355.566	800.000	0.015	-0.048
-354.552	-172.730	0.186	0.006
-353.537	800.000	0.064	-0.231
-352.523	-53.345	0.194	0.090
-351.508	-200.000	-0.044	0.266
-350.493	-61.124	-0.348	-0.148
-349.479	297.973	0.051	-0.095
-348.464	800.000	0.063	0.200
-347.450	116.956	-0.156	0.193
-346.435	223.974	-0.030	-0.049
-345.420	203.039	-0.053	-0.082
-344.406	-200.000	-0.060	-0.358
-343.391	457.680	-0.080	-0.179
-342.377	187.032	0.189	0.283
-341.362	-98.465	-0.164	0.042
-340.348	546.273	0.171	-0.411
-339.333	105.935	-0.183	0.218
-338.318	520.816	0.140	-0.330
-337.304	-127.865	-0.198	0.029
-336.289	-200.000	-0.002	0.022
-335.275	239.689	0.087	0.146
-334.260	-152.784	0.142	-0.010
-333.245	-14.256	-0.141	0.092
-332.231	-200.000	0.004	0.098
-331.216	47.301	-0.153	-0.143
-330.202	3.537	0.111	-0.082
-329.187	388.342	0.044	-0.091
-328.172	110.578	0.279	-0.338
-327.158	800.000	0.078	0.286
-326.143	800.000	0.045	-0.156
-325.129	242.336	-0.036	0.061
-324.114	57.131	-0.028	0.028
-323.099	243.371	-0.205	-0.346
-322.085	-82.851	0.092	0.030
-321.070	550.199	-0.079	-0.191
-320.056	182.997	-0.075	-0.112
-319.041	-31.284	-0.208	-0.118
-318.026	83.120	0.296	0.324
-317.012	800.000	0.029	-0.106
-315.997	-47.365	0.172	0.084
-314.983	39.258	0.203	0.183
-313.968	-57.341	0.021	0.009
-312.953	513.887	-0.080	0.189
-311.939	440.529	0.008	0.017
-310.924	-180.043	0.154	0.003
-309.910	-131.813	-0.169	-0.022
-308.895	-24.115	-0.176	-0.106
-307.880	-200.000	-0.035	0.369
-306.866	450.710	-0.080	0.177
-305.851	219.600	-0.156	0.251
-304.837	-200.000	0.008	0.221
-303.822	-200.000	-0.028	-0.182
-302.807	293.102	-0.101	0.185
-301.793	207.553	0.096	0.150
-300.778	-89.038	-0.204	-0.060
-299.764	-2.177	0.325	0.229
-298.749	-34.533	0.088	-0.048
-297.735	31.397	0.190	0.164
-296.720	-89.101	-0.288	0.085
-295.705	145.808	-0.070	0.094
-294.691	141.060	0.090	-0.120
-293.676	60.692	-0.340	-0.338
-292.662	-167.661	-0.111	-0.004
-291.647	44.649	0.176	0.162
-290.632	-15.179	-0.104	-0.067
-289.618	-175.384	-0.143	0.004
-288.603	-200.000	0.006	0.141
-287.589	-9.400	0.188	0.126
-286.574	-200.000	-0.026	-0.306
-285.559	-10.026	-0.140	0.094
-284.545	477.664	-0.061	-0.138
-283.530	176.677	0.129	-0.188
-282.516	-56.392	-0.330	-0.147
-281.501	-175.631	0.227	-0.006
-280.486	-99.609	0.277	0.070
-279.472	335.221	-0.112	-0.218
-278.457	-44.079	-0.037	0.019
-277.443	-26.921	-0.158	-0.092
-276.428	508.998	-0.022	-0.052
-275.413	130.553	-0.125	-0.161
-274.399	1.023	0.138	0.099
-273.384	-106.183	-0.164	0.037
-272.370	-50.762	0.320	0.151
-271.355	-139.475	-0.147	-0.016
-270.340	-200.000	-0.020	0.142
-269.326	253.973	-0.068	0.117
-268.311	-116.180	-0.171	0.032
-267.297	363.521	-0.135	-0.272
-266.282	49.540	-0.080	0.076
-265.267	-52.492	-0.164	0.076
-264.253	-53.665	0.244	0.112
-263.238	-170.229	0.279	0.010
-262.224	-98.990	-0.117	-0.030
-261.209	185.613	-0.054	0.080
-260.195	50.299	0.182	-0.172
-259.180	-111.079	-0.113	-0.023
-258.165	133.754	0.082	0.106
-257.151	-103.357	-0.293	-0.069
-256.136	-81.067	0.115	0.038
-255.122	182.964	-0.127	-0.187
-254.107	-115.847	0.174	0.033
-253.092	-177.620	-0.308	-0.007
-252.078	800.000	-0.039	0.108
-251.063	167.880	0.109	0.155
-250.049	237.471	0.182	0.303
-249.034	106.658	0.131	-0.156
-248.019	-109.876	0.188	0.039
-247.005	-164.782	0.156	0.007
-245.990	-97.677	0.307	-0.080
-244.976	-13.780	-0.178	0.115
-243.961	-200.000	-0.019	-0.154
-242.946	-90.424	-0.113	-0.033
-241.932	179.605	-0.126	-0.185
-240.917	-200.000	-0.009	0.256
-239.903	800.000	0.053	0.195
-238.888	-93.701	0.273	-0.076
-237.873	-95.128	0.137	-0.037
-236.859	522.465	-0.149	0.351
-235.844	130.941	-0.112	0.143
-234.830	-49.029	0.097	0.046
-233.815	255.411	-0.038	-0.065
-232.800	-123.077	-0.186	-0.030
-231.786	-73.167	0.212	0.078
-230.771	497.602	0.147	-0.339
-229.757	-90.640	0.119	-0.035
-228.742	-34.273	-0.206	-0.113
-227.727	-32.195	0.291	-0.163
-226.713	-115.442	-0.041	0.008
-225.698	-12.478	-0.136	0.089
-224.684	-200.000	-0.052	0.308
-223.669	172.870	0.015	-0.022
-222.655	800.000	-0.054	0.209
-221.640	204.558	0.118	-0.183
-220.625	-200.000	0.021	0.161
-219.611	-96.419	0.166	-0.044
-218.596	-200.000	0.010	0.251
-217.582	-168.740	-0.248	0.009
-216.567	-119.315	0.213	0.037
-215.552	-46.974	-0.298	-0.146
-214.538	-126.977	0.303	-0.045
-213.523	-131.842	-0.110	-0.014
-212.509	-200.000	0.030	0.170
-211.494	-103.478	0.443	0.104
-210.479	238.999	-0.097	-0.162
-209.465	-78.196	-0.145	0.050
-208.450	-8.279	0.185	0.125
-207.436	402.381	0.142	0.298
-206.421	429.640	0.033	0.071
-205.406	800.000	0.042	-0.164
-204.392	-21.863	-0.268	0.163
-203.377	-200.000	0.055	0.264
-202.363	-33.746	-0.277	-0.153
-201.348	800.000	-0.053	-0.182
-200.333	25.425	-0.296	0.246
-199.319	88.931	-0.220	0.245
-198.304	-200.000	-0.024	-0.217
-197.290	800.000	0.027	0.115
-196.275	214.224	0.057	0.090
-195.260	250.107	0.071	-0.120
-194.246	-29.134	0.232	-0.133
-193.231	-200.000	0.021	0.211
-192.217	-200.000	0.028	-0.330
-191.202	466.111	0.109	-0.243
-190.187	-126.473	0.500	-0.074
-189.173	55.095	0.285	0.275
-188.158	800.000	0.095	-0.339
-187.144	-77.592	0.228	-0.079
-186.129	119.147	0.246	0.305
-185.114	693.952	0.131	0.343
-184.100	179.964	0.166	-0.243
-183.085	-200.000	-0.052	-0.299
-182.071	192.311	-0.178	-0.269
-181.056	198.001	0.135	0.206
-180.042	301.318	0.142	-0.261
-179.027	800.000	-0.069	-0.231
-178.012	-12.397	-0.230	0.150
-176.998	-54.041	-0.280	-0.127
-175.983	-91.224	-0.040	0.011
-174.969	560.270	0.047	-0.114
-173.954	-8.095	-0.119	0.080
-172.939	284.418	0.086	0.154
-171.925	205.742	0.030	0.047
-170.910	606.129	0.021	-0.051
-169.896	468.672	-0.063	0.141
-168.881	-53.924	0.182	-0.083
-167.866	-200.000	-0.039	0.305
-166.852	-71.955	-0.031	0.012
-165.837	88.808	0.048	-0.053
-164.823	54.544	0.154	-0.148
-163.808	-122.372	-0.080	0.013
-162.793	800.000	-0.063	-0.228
-161.779	130.269	0.083	0.107
-160.764	157.414	0.174	0.241
-159.750	12.454	0.265	-0.204
-158.735	-38.565	-0.392	-0.207
-157.720	153.509	-0.162	-0.222
-156.706	-200.000	-0.017	0.107
-155.691	18.710	-0.015	0.012
-154.677	-87.881	0.361	-0.108
-153.662	800.000	-0.010	-0.041
-152.647	800.000	-0.050	0.201
-151.633	-73.538	0.147	-0.054
-150.618	423.828	0.114	-0.246
-149.604	82.963	-0.165	-0.179
-148.589	-139.934	0.118	0.012
-147.574	-104.883	-0.343	0.079
-146.560	261.972	-0.113	-0.195
-145.545	-48.046	0.227	-0.109
-144.531	-129.306	0.265	0.037
-143.516	-30.144	0.136	-0.077
-142.502	-36.034	0.094	0.051
-141.487	298.933	0.133	0.243
-140.472	667.741	0.129	0.334
-139.458	51.678	0.256	0.243
-138.443	-12.841	-0.339	-0.220
-137.429	800.000	-0.099	0.291
-136.414	292.906	0.110	0.200
-135.399	54.642	-0.128	0.123
-134.385	101.630	0.163	0.189
-133.370	800.000	0.070	0.264
-132.356	-146.539	-0.344	0.030
-131.341	-141.750	-0.254	-0.025
-130.326	-200.000	0.038	0.514
-129.312	-50.194	0.195	0.092
-128.297	27.343	0.258	-0.216
-127.283	0.080	-0.222	-0.158
-126.268	-43.255	0.095	-0.048
-125.253	-188.637	-0.331	0.004
-124.239	-56.546	0.104	-0.046
-123.224	597.437	-0.085	0.209
-122.210	800.000	0.109	0.359
-121.195	-200.000	-0.030	0.301
