DTS Sentinel unit serial number:	SN413079Multiplexer serial number:	ORYXHardware model number:	OX4-SRSoftware version number:	ORYX F/W v4.00 Oryx Data Collector v3.7.2.0data status	okinstallation	princeton_trtdifferential loss correction	single-endedforward channel	channel 1reverse channel	N/Adate	2019/09/14time	17:10:35forward acquisition time	60.00reverse acquisition time	0.00gamma	496.2192k internal	0.2295k external	0.2295temperature offset calibration	1.0051default loss term (dB/km)	0.3790temperature slope calibration	1.0000multiplexer offset coefficient	1.0000multiplexer slope coefficient	1.0000fibre end	0.00T internal ref (°C)	37.94T ext. ref 1 (°C)	5.01T ext. ref 2 (°C)	32.72length (m)	temperature (°C)	Stokes	anti-Stokes-747.200	69.264	0.067	0.070
-746.185	-200.000	-0.019	0.254
-745.171	800.000	0.016	-0.069
-744.156	18.382	-0.254	0.208
-743.142	29.991	0.137	-0.119
-742.127	-77.428	-0.547	-0.194
-741.112	-200.000	-0.054	-0.310
-740.098	171.300	0.101	0.147
-739.083	-85.199	0.126	0.040
-738.069	-32.355	-0.175	-0.100
-737.054	-41.641	0.092	-0.048
-736.039	-113.236	-0.089	0.018
-735.025	431.834	-0.067	0.148
-734.010	-37.256	-0.136	-0.074
-732.996	800.000	-0.042	-0.143
-731.981	454.094	0.053	0.120
-730.966	134.016	0.165	-0.218
-729.952	696.542	-0.161	0.433
-728.937	-126.020	0.389	-0.060
-727.923	-12.741	0.251	-0.167
-726.908	-200.000	-0.006	-0.261
-725.894	86.284	-0.126	-0.142
-724.879	-6.558	-0.370	-0.258
-723.864	33.990	-0.188	-0.168
-722.850	-92.249	-0.331	0.095
-721.835	-101.065	0.296	-0.074
-720.821	-26.937	0.194	0.116
-719.806	-38.657	-0.089	-0.048
-718.791	-19.914	-0.246	0.155
-717.777	-92.544	-0.182	0.052
-716.762	-200.000	0.053	0.293
-715.748	391.093	0.092	0.195
-714.733	55.083	-0.325	0.320
-713.718	674.919	0.115	-0.306
-712.704	-40.360	0.065	-0.035
-711.689	771.492	-0.066	-0.185
-710.675	188.679	0.100	0.153
-709.660	211.335	-0.148	0.238
-708.645	-200.000	0.003	-0.140
-707.631	-200.000	-0.051	0.470
-706.616	590.086	-0.078	0.196
-705.602	-200.000	-0.098	-0.000
-704.587	-63.874	0.240	-0.100
-703.572	-75.298	-0.136	0.049
-702.558	-200.000	0.064	0.427
-701.543	593.137	-0.030	0.076
-700.529	7.292	-0.323	-0.246
-699.514	116.031	-0.099	-0.124
-698.499	282.724	0.046	-0.083
-697.485	617.397	0.063	0.161
-696.470	97.658	-0.037	0.043
-695.456	248.861	-0.062	0.107
-694.441	-121.762	0.121	-0.020
-693.426	-200.000	-0.014	0.083
-692.412	274.969	-0.023	0.042
-691.397	140.013	-0.185	-0.249
-690.383	-200.000	-0.006	-0.129
-689.368	-104.249	0.268	-0.063
-688.354	511.795	-0.031	-0.074
-687.339	144.213	-0.132	0.179
-686.324	656.875	0.073	-0.191
-685.310	-200.000	0.006	-0.327
-684.295	800.000	-0.027	-0.113
-683.281	-0.222	-0.146	0.106
-682.266	-200.000	0.014	-0.082
-681.251	-200.000	-0.007	-0.041
-680.237	800.000	0.030	-0.109
-679.222	-112.951	-0.223	0.045
-678.208	-124.139	0.393	-0.063
-677.193	117.895	-0.192	0.242
-676.178	800.000	0.089	0.351
-675.164	-79.869	0.360	0.123
-674.149	-200.000	-0.020	0.206
-673.135	137.863	-0.154	0.205
-672.120	83.160	0.200	-0.221
-671.105	75.234	-0.130	0.140
-670.091	407.745	-0.036	-0.079
-669.076	172.454	0.089	-0.131
-668.062	-128.601	0.202	-0.029
-667.047	163.788	0.205	0.295
-666.032	-193.357	-0.110	-0.001
-665.018	587.250	-0.052	0.130
-664.003	-88.160	-0.389	0.119
-662.989	-149.748	0.343	-0.027
-661.974	148.533	0.021	0.029
-660.959	800.000	0.050	0.201
-659.945	-200.000	-0.036	0.396
-658.930	117.959	-0.214	-0.268
-657.916	19.958	-0.056	-0.046
-656.901	8.544	-0.212	0.163
-655.886	23.534	-0.281	0.235
-654.872	274.794	-0.127	0.230
-653.857	567.453	0.092	-0.227
-652.843	-200.000	0.025	0.175
-651.828	-5.043	0.156	0.109
-650.814	-200.000	0.009	0.081
-649.799	-114.553	-0.310	-0.060
-648.784	-200.000	-0.002	0.096
-647.770	-101.573	-0.196	-0.048
-646.755	-146.252	0.344	-0.031
-645.741	1.137	-0.050	0.036
-644.726	33.558	0.082	0.073
-643.711	44.196	-0.131	-0.122
-642.697	362.997	-0.087	0.178
-641.682	33.239	-0.256	0.226
-640.668	378.586	-0.186	-0.388
-639.653	110.547	-0.144	0.176
-638.638	124.931	0.194	0.249
-637.624	-102.083	-0.189	0.046
-636.609	-35.201	-0.147	0.082
-635.595	623.535	-0.170	0.436
-634.580	-154.620	-0.186	-0.013
-633.565	-200.000	-0.080	-0.388
-632.551	-1.076	-0.041	-0.029
-631.536	-200.000	0.015	0.116
-630.522	474.203	0.093	0.214
-629.507	203.948	0.038	0.060
-628.492	-25.458	-0.207	0.125
-627.478	-120.172	-0.222	0.039
-626.463	-9.032	-0.320	-0.218
-625.449	-200.000	-0.012	-0.166
-624.434	-200.000	-0.028	-0.169
-623.419	-15.814	-0.085	-0.055
-622.405	-200.000	0.035	-0.264
-621.390	-11.549	0.245	0.164
-620.376	-3.732	-0.138	0.097
-619.361	-45.228	-0.538	-0.272
-618.346	-200.000	0.001	-0.249
-617.332	-94.333	-0.097	0.027
-616.317	-200.000	-0.019	0.302
-615.303	47.606	-0.166	0.157
-614.288	-61.335	0.096	0.041
-613.273	154.481	-0.144	-0.201
-612.259	-200.000	0.000	-0.268
-611.244	9.892	-0.201	0.155
-610.230	-146.877	-0.290	-0.025
-609.215	298.222	0.157	0.294
-608.201	-200.000	0.000	-0.036
-607.186	-200.000	-0.001	0.185
-606.171	8.050	-0.181	0.138
-605.157	-73.794	-0.175	0.065
-604.142	194.449	0.144	-0.223
-603.128	-56.481	0.298	-0.135
-602.113	-200.000	-0.013	0.215
-601.098	-200.000	-0.013	0.137
-600.084	-200.000	-0.010	0.210
-599.069	-200.000	-0.037	-0.173
-598.055	-46.645	0.380	0.189
-597.040	283.037	0.119	-0.218
-596.025	-149.173	0.219	0.018
-595.011	327.736	-0.225	-0.439
-593.996	373.018	-0.177	-0.365
-592.982	295.733	-0.079	-0.147
-591.967	496.603	0.024	-0.055
-590.952	-200.000	0.026	-0.445
-589.938	-64.836	-0.321	-0.132
-588.923	-58.643	-0.254	0.112
-587.909	438.423	-0.044	0.096
-586.894	800.000	-0.049	0.170
-585.879	-21.551	-0.298	-0.185
-584.865	502.007	0.035	0.082
-583.850	-155.108	-0.094	0.006
-582.836	-200.000	0.011	0.075
-581.821	-182.894	-0.115	-0.002
-580.806	800.000	-0.064	-0.225
-579.792	-96.740	-0.249	-0.066
-578.777	28.242	-0.060	-0.051
-577.763	228.901	0.183	-0.303
-576.748	60.051	0.210	0.211
-575.733	747.568	-0.112	0.306
-574.719	145.473	0.087	-0.119
-573.704	-200.000	0.051	-0.392
-572.690	800.000	-0.039	-0.130
-571.675	-102.115	-0.118	0.029
-570.661	-200.000	0.024	-0.281
-569.646	800.000	0.028	0.124
-568.631	-200.000	0.005	-0.246
-567.617	-200.000	0.057	-0.273
-566.602	-48.302	0.031	0.015
-565.588	-63.451	0.229	-0.096
-564.573	-150.543	-0.177	-0.014
-563.558	-200.000	-0.040	-0.537
-562.544	347.103	0.094	0.188
-561.529	800.000	0.048	0.196
-560.515	-200.000	-0.017	-0.157
-559.500	413.442	0.111	0.239
-558.485	77.875	-0.206	0.223
-557.471	-87.284	0.296	-0.091
-556.456	35.805	0.117	0.104
-555.442	458.982	0.051	0.116
-554.427	203.994	0.052	0.082
-553.412	308.267	0.089	0.168
-552.398	-83.480	0.307	-0.100
-551.383	-200.000	-0.059	-0.284
-550.369	180.194	-0.231	-0.343
-549.354	-127.578	-0.283	0.042
-548.339	-150.866	-0.325	0.025
-547.325	-151.919	0.172	-0.013
-546.310	140.376	-0.016	-0.022
-545.296	-200.000	-0.013	0.151
-544.281	-45.805	-0.174	-0.087
-543.266	800.000	-0.082	0.290
-542.252	-24.500	0.252	-0.152
-541.237	-200.000	0.018	0.434
-540.223	-154.259	0.339	0.023
-539.208	292.010	-0.028	-0.052
-538.193	800.000	0.026	0.110
-537.179	-200.000	0.044	-0.244
-536.164	631.843	0.078	-0.200
-535.150	-200.000	-0.025	0.338
-534.135	-44.691	0.186	0.094
-533.121	-15.443	0.120	0.077
-532.106	14.625	-0.149	0.118
-531.091	-200.000	-0.001	0.153
-530.077	-200.000	-0.006	0.093
-529.062	488.150	-0.004	0.010
-528.048	227.701	0.119	-0.197
-527.033	78.517	0.255	0.277
-526.018	242.908	-0.082	0.139
-525.004	-35.801	-0.241	-0.132
-523.989	-33.372	0.147	-0.082
-522.975	-200.000	0.000	0.031
-521.960	-115.943	0.147	0.028
-520.945	-61.040	0.241	0.103
-519.931	-60.304	-0.089	-0.039
-518.916	26.984	0.169	-0.143
-517.902	-42.388	-0.225	-0.116
-516.887	-107.365	-0.139	0.031
-515.872	-129.139	-0.040	-0.006
-514.858	387.281	0.131	0.275
-513.843	-76.683	-0.311	-0.110
-512.829	800.000	-0.044	-0.144
-511.814	167.276	0.196	0.281
-510.799	800.000	0.024	-0.082
-509.785	167.932	-0.164	0.236
-508.770	-51.025	-0.140	0.066
-507.756	280.032	0.190	0.343
-506.741	29.279	0.196	-0.169
-505.726	-50.191	-0.209	-0.100
-504.712	62.636	0.052	-0.052
-503.697	-85.030	0.543	-0.172
-502.683	-95.213	0.240	0.065
-501.668	-142.833	0.111	0.011
-500.653	211.034	-0.068	0.108
-499.639	-200.000	-0.007	0.227
-498.624	607.595	0.155	-0.392
-497.610	332.044	-0.174	-0.339
-496.595	-42.783	0.330	0.170
-495.581	172.500	-0.085	0.124
-494.566	-69.047	-0.104	-0.041
-493.551	-200.000	0.016	0.173
-492.537	572.041	-0.091	0.225
-491.522	12.904	-0.159	0.124
-490.508	-54.800	0.072	-0.033
-489.493	-27.768	0.441	0.259
-488.478	112.163	-0.116	0.142
-487.464	302.020	0.138	0.259
-486.449	437.398	0.180	0.397
-485.435	106.760	-0.043	-0.051
-484.420	-200.000	0.018	-0.152
-483.405	-4.772	0.108	-0.076
-482.391	-78.969	0.070	-0.024
-481.376	800.000	0.184	-0.600
-480.362	84.186	-0.049	-0.054
-479.347	156.708	0.139	0.194
-478.332	800.000	0.033	0.093
-477.318	233.906	0.150	-0.251
-476.303	-200.000	-0.005	0.125
-475.289	146.336	0.245	-0.332
-474.274	-9.040	-0.303	-0.205
-473.259	800.000	-0.017	-0.071
-472.245	-126.858	-0.323	0.048
-471.230	138.756	0.094	-0.124
-470.216	-63.000	-0.354	0.148
-469.201	-28.771	0.040	-0.023
-468.186	150.646	0.133	-0.182
-467.172	-83.428	-0.228	-0.074
-466.157	30.025	0.139	0.120
-465.143	39.990	0.012	-0.011
-464.128	-200.000	-0.030	-0.376
-463.113	-19.776	0.079	0.049
-462.099	-159.903	0.372	0.021
-461.084	-60.795	0.270	0.116
-460.070	-200.000	-0.036	0.239
-459.055	357.664	0.106	-0.213
-458.040	-18.153	0.050	-0.032
-457.026	-200.000	0.017	-0.236
-456.011	-200.000	-0.066	0.402
-454.997	-200.000	0.008	0.131
-453.982	-110.645	-0.140	0.029
-452.968	328.974	-0.044	-0.085
-451.953	800.000	0.098	-0.430
-450.938	800.000	-0.040	-0.138
-449.924	226.470	0.090	-0.148
-448.909	-13.015	0.186	0.122
-447.895	-200.000	-0.034	-0.175
-446.880	-139.025	-0.389	0.043
-445.865	228.075	0.177	-0.292
-444.851	172.839	0.207	-0.302
-443.836	-200.000	-0.106	-0.497
-442.822	206.449	-0.106	-0.166
-441.807	99.778	0.073	0.086
-440.792	800.000	0.064	-0.235
-439.778	-92.613	-0.429	-0.122
-438.763	101.089	-0.057	0.067
-437.749	177.993	-0.151	-0.223
-436.734	-62.106	-0.413	-0.174
-435.719	483.160	-0.116	-0.267
-434.705	10.986	0.247	-0.190
-433.690	198.329	0.163	0.253
-432.676	21.863	-0.142	-0.117
-431.661	-138.663	-0.150	-0.017
-430.646	800.000	0.046	-0.140
-429.632	800.000	0.016	-0.060
-428.617	84.001	-0.043	-0.048
-427.603	-70.198	-0.100	0.038
-426.588	25.445	-0.089	0.075
-425.573	38.027	0.093	0.083
-424.559	-129.960	0.296	-0.041
-423.544	598.410	-0.067	0.166
-422.530	-200.000	-0.038	0.249
-421.515	-68.519	-0.137	0.054
-420.500	-57.357	0.110	0.049
-419.486	-70.083	0.080	-0.031
-418.471	591.052	0.062	-0.155
-417.457	72.370	0.118	0.124
-416.442	196.817	0.120	0.185
-415.428	-141.221	0.253	-0.026
-414.413	-142.931	-0.033	-0.003
-413.398	81.879	0.052	-0.056
-412.384	-49.446	0.323	0.155
-411.369	-139.422	0.137	0.015
-410.355	-72.595	-0.121	0.045
-409.340	9.843	-0.152	-0.116
-408.325	-34.252	0.114	0.063
-407.311	-200.000	-0.214	-0.001
-406.296	-6.592	-0.181	0.125
-405.282	23.476	0.166	0.138
-404.267	87.804	0.253	0.283
-403.252	-53.327	-0.180	-0.083
-402.238	-188.617	-0.388	-0.005
-401.223	-200.000	-0.038	0.337
-400.209	-7.963	-0.202	0.137
-399.194	-145.107	-0.453	0.042
-398.179	633.885	0.049	0.125
-397.165	26.986	0.150	-0.127
-396.150	53.207	-0.076	0.073
-395.136	16.866	-0.130	-0.104
-394.121	-200.000	0.007	0.134
-393.106	-123.716	-0.132	-0.021
-392.092	489.124	-0.085	-0.197
-391.077	800.000	0.020	-0.086
-390.063	218.490	-0.056	-0.090
-389.048	-84.172	-0.176	0.056
-388.033	-164.788	0.194	0.009
-387.019	-27.398	0.343	0.201
-386.004	712.087	0.098	-0.262
-384.990	-200.000	0.012	0.243
-383.975	-200.000	0.028	0.209
-382.960	-67.898	-0.041	0.016
-381.946	-38.052	-0.443	0.237
-380.931	-133.785	-0.146	0.018
-379.917	335.250	-0.038	-0.074
-378.902	800.000	-0.061	0.229
-377.888	-144.407	0.380	-0.036
-376.873	-200.000	-0.005	0.256
-375.858	86.884	-0.104	-0.116
-374.844	76.335	-0.194	-0.207
-373.829	291.928	-0.148	-0.271
-372.815	-86.135	-0.215	-0.067
-371.800	286.516	-0.039	0.072
-370.785	800.000	-0.050	0.177
-369.771	22.466	-0.328	-0.270
-368.756	-129.866	0.269	-0.037
-367.742	-196.745	-0.276	0.002
-366.727	800.000	-0.054	-0.156
-365.712	-17.964	-0.149	-0.094
-364.698	-66.666	0.197	-0.079
-363.683	367.130	-0.049	0.099
-362.669	-162.118	-0.425	0.022
-361.654	161.490	-0.277	-0.390
-360.639	8.723	0.191	0.145
-359.625	417.407	-0.013	-0.028
-358.610	-67.099	0.227	-0.090
-357.596	-200.000	-0.039	-0.352
-356.581	126.606	-0.231	0.294
-355.566	800.000	-0.067	0.239
-354.552	740.428	-0.067	0.181
-353.537	-200.000	0.004	-0.097
-352.523	800.000	0.094	0.335
-351.508	-200.000	0.067	0.327
-350.493	-23.572	-0.416	0.252
-349.479	25.152	-0.292	-0.244
-348.464	-31.978	-0.377	-0.213
-347.450	50.606	-0.291	0.277
-346.435	-200.000	-0.046	0.264
-345.420	-75.663	0.051	0.018
-344.406	-44.545	0.009	-0.005
-343.391	-8.643	-0.097	-0.065
-342.377	520.090	-0.148	0.350
-341.362	-103.747	0.265	0.062
-340.348	48.401	0.043	-0.040
-339.333	-71.271	-0.137	0.052
-338.318	-114.012	0.097	-0.019
-337.304	-21.786	0.124	-0.076
-336.289	611.551	0.043	-0.109
-335.275	-0.330	-0.168	0.120
-334.260	417.040	-0.076	-0.163
-333.245	-81.301	-0.281	0.093
-332.231	-25.075	0.266	-0.159
-331.216	-200.000	0.008	0.200
-330.202	-20.562	0.081	0.050
-329.187	-32.346	0.213	-0.120
-328.172	-146.499	-0.185	-0.016
-327.158	722.255	-0.030	0.080
-326.143	133.092	-0.287	0.372
-325.129	355.178	0.071	-0.143
-324.114	241.350	-0.195	0.327
-323.099	-74.021	0.210	-0.077
-322.085	63.912	0.224	-0.227
-321.070	-12.727	0.029	-0.019
-320.056	-200.000	-0.006	-0.213
-319.041	-200.000	-0.013	0.148
-318.026	-99.353	0.134	-0.034
-317.012	-12.006	0.481	0.317
-315.997	15.266	0.205	0.162
-314.983	-170.614	0.118	-0.004
-313.968	240.054	-0.105	-0.176
-312.953	800.000	-0.042	0.138
-311.939	-200.000	-0.038	0.279
-310.924	-200.000	-0.011	0.066
-309.910	800.000	-0.134	-0.581
-308.895	113.577	0.135	0.165
-307.880	-190.129	0.052	0.001
-306.866	45.747	0.195	-0.182
-305.851	-94.553	0.215	-0.059
-304.837	-82.639	0.227	0.074
-303.822	19.280	-0.361	-0.291
-302.807	800.000	0.070	0.216
-301.793	144.290	0.191	0.256
-300.778	-142.172	-0.184	0.018
-299.764	10.976	0.152	0.117
-298.749	20.342	-0.189	-0.154
-297.735	-135.680	0.221	-0.026
-296.720	264.845	0.105	-0.184
-295.705	-166.511	-0.123	0.005
-294.691	122.263	0.018	-0.022
-293.676	70.747	0.136	-0.141
-292.662	800.000	0.041	0.145
-291.647	115.074	-0.129	-0.159
-290.632	-40.635	-0.286	0.149
-289.618	16.123	0.262	-0.208
-288.603	800.000	0.058	-0.243
-287.589	315.492	-0.090	0.171
-286.574	458.916	-0.065	0.144
-285.559	800.000	-0.026	-0.108
-284.545	-88.171	0.110	-0.033
-283.530	-5.391	-0.133	0.092
-282.516	-121.195	0.081	0.014
-281.501	800.000	0.054	0.234
-280.486	12.751	0.022	0.017
-279.472	-200.000	0.052	-0.230
-278.457	-21.556	0.102	0.063
-277.443	-106.398	-0.206	-0.046
-276.428	211.323	-0.023	0.036
-275.413	83.869	-0.069	0.076
-274.399	12.856	-0.120	-0.093
-273.384	62.729	-0.110	0.111
-272.370	-19.567	-0.061	-0.038
-271.355	-127.126	-0.016	0.002
-270.340	705.171	-0.102	-0.271
-269.326	367.744	0.095	0.192
-268.311	-77.915	-0.260	0.090
-267.297	-200.000	-0.028	-0.418
-266.282	388.279	-0.238	0.493
-265.267	-48.477	0.113	0.054
-264.253	82.279	0.057	0.063
-263.238	177.416	0.127	0.186
-262.224	387.638	-0.150	0.310
-261.209	-192.151	-0.107	0.001
-260.195	363.888	-0.062	-0.126
-259.180	-164.107	-0.393	0.018
-258.165	-2.355	-0.159	-0.112
-257.151	31.168	-0.164	0.141
-256.136	158.773	0.232	0.324
-255.122	-150.392	0.269	-0.021
-254.107	55.812	0.293	0.285
-253.092	800.000	0.067	-0.220
-252.078	49.358	0.075	-0.071
-251.063	-108.089	0.295	-0.064
-250.049	118.103	-0.046	-0.057
-249.034	644.497	-0.041	0.104
-248.019	800.000	0.066	0.252
-247.005	-101.806	-0.323	-0.078
-245.990	800.000	0.164	0.485
-244.976	-81.841	0.450	0.148
-243.961	-154.779	0.256	-0.017
-242.946	156.433	0.183	-0.253
-241.932	-21.260	0.098	0.060
-240.917	-200.000	-0.008	0.067
-239.903	-200.000	0.006	0.121
-238.888	88.944	0.192	0.214
-237.873	800.000	-0.014	0.043
-236.859	220.803	0.123	-0.198
-235.844	-72.470	0.196	0.073
-234.830	-1.085	0.224	0.159
-233.815	-149.100	-0.241	0.019
-232.800	21.089	-0.072	0.059
-231.786	-200.000	-0.007	-0.254
-230.771	90.632	-0.149	0.167
-229.757	92.936	0.111	-0.125
-228.742	-192.085	-0.217	-0.002
-227.727	-125.972	0.074	0.011
-226.713	221.738	-0.085	-0.137
-225.698	-200.000	0.044	0.219
-224.684	-82.577	0.066	-0.022
-223.669	-98.120	0.175	0.045
-222.655	-200.000	0.006	0.146
-221.640	-78.546	0.383	-0.131
-220.625	-200.000	-0.001	-0.346
-219.611	736.713	-0.093	-0.250
-218.596	-68.642	-0.222	0.086
-217.582	69.725	0.256	-0.264
-216.567	-36.025	0.054	0.029
-215.552	-200.000	-0.050	0.329
-214.538	42.184	-0.195	-0.177
-213.523	-73.078	0.170	0.063
-212.509	-65.744	0.152	0.061
-211.494	-58.165	-0.162	0.071
-210.479	800.000	-0.060	-0.265
-209.465	394.662	0.077	-0.162
-208.450	800.000	0.057	-0.175
-207.436	-200.000	-0.052	-0.445
-206.421	-6.132	-0.066	-0.045
-205.406	-125.735	0.423	0.064
-204.392	-200.000	-0.016	0.123
-203.377	-200.000	0.135	0.000
-202.363	86.356	-0.101	-0.111
-201.348	-200.000	-0.018	-0.146
-200.333	-132.636	-0.157	0.020
-199.319	360.062	0.121	-0.243
-198.304	-200.000	0.052	-0.383
-197.290	-36.804	-0.047	-0.025
-196.275	236.115	0.160	-0.264
-195.260	45.809	0.244	0.225
-194.246	125.384	0.108	-0.137
-193.231	-200.000	0.003	0.186
-192.217	-66.601	0.431	0.171
-191.202	-32.673	-0.278	-0.155
-190.187	211.500	-0.138	-0.218
-189.173	-133.324	0.242	-0.031
-188.158	8.040	0.230	-0.173
-187.144	-100.606	-0.027	0.007
-186.129	-126.969	0.144	0.021
-185.114	-7.261	0.144	0.097
-184.100	-172.804	0.228	0.007
-183.085	800.000	-0.108	-0.465
-182.071	-148.350	0.094	-0.008
-181.056	626.242	0.112	0.283
-180.042	-171.178	-0.347	0.012
-179.027	-200.000	0.030	0.300
-178.012	800.000	-0.033	0.100
-176.998	-200.000	-0.042	-0.272
-175.983	232.191	0.079	0.130
-174.969	-24.397	0.455	0.271
-173.954	-12.158	0.304	0.199
-172.939	-27.573	0.207	-0.120
-171.925	78.449	0.291	0.311
-170.910	-111.378	-0.117	0.024
-169.896	-99.103	0.104	-0.026
-168.881	6.784	-0.196	0.146
-167.866	-114.991	0.301	0.057
-166.852	-200.000	-0.001	0.031
-165.837	-106.972	0.035	0.008
-164.823	-200.000	0.020	0.122
-163.808	-35.111	0.237	0.129
-162.793	34.856	-0.128	0.112
-161.779	647.195	-0.039	-0.100
-160.764	232.649	0.035	0.058
-159.750	-200.000	-0.065	-0.309
-158.735	111.533	-0.095	-0.115
-157.720	-27.452	0.403	0.234
-156.706	42.860	-0.020	-0.018
-155.691	800.000	-0.072	0.288
-154.677	-43.707	-0.240	0.121
-153.662	-200.000	-0.003	-0.124
-152.647	-121.437	0.087	-0.014
-151.633	-34.838	-0.297	-0.162
-150.618	-200.000	0.035	0.200
-149.604	90.215	-0.162	-0.181
-148.589	-200.000	-0.058	0.620
-147.574	415.633	0.073	0.155
-146.560	100.392	-0.163	0.189
-145.545	-121.023	0.117	0.020
-144.531	123.972	-0.178	0.224
-143.516	381.039	0.119	0.243
-142.502	58.962	0.268	-0.263
-141.487	-107.932	0.114	-0.025
-140.472	208.396	0.221	0.346
-139.458	312.920	-0.121	-0.227
-138.443	70.016	0.361	-0.372
-137.429	-1.689	-0.075	-0.052
-136.414	-200.000	0.014	-0.167
-135.399	514.266	-0.069	-0.161
-134.385	-109.525	-0.440	-0.093
-133.370	-109.228	-0.250	-0.053
-132.356	800.000	-0.043	-0.172
-131.341	-151.611	-0.222	-0.016
-130.326	169.439	-0.203	-0.289
-129.312	15.614	-0.213	-0.167
-128.297	37.802	0.265	-0.235
-127.283	-6.214	0.147	-0.100
-126.268	-4.410	0.208	0.144
-125.253	-39.902	-0.085	-0.044
-124.239	-24.648	0.209	-0.124
-123.224	224.752	0.039	0.064
-122.210	34.318	0.304	0.265
-121.195	-200.000	-0.014	0.168
