DTS Sentinel unit serial number:	SN413079Multiplexer serial number:	ORYXHardware model number:	OX4-SRSoftware version number:	ORYX F/W v4.00 Oryx Data Collector v3.7.2.0data status	okinstallation	princeton_trtdifferential loss correction	single-endedforward channel	channel 1reverse channel	N/Adate	2019/09/19time	15:14:35forward acquisition time	60.00reverse acquisition time	0.00gamma	496.2192k internal	0.2315k external	0.2315temperature offset calibration	1.0019default loss term (dB/km)	0.3790temperature slope calibration	1.0000multiplexer offset coefficient	1.0000multiplexer slope coefficient	1.0000fibre end	0.00T internal ref (°C)	33.56T ext. ref 1 (°C)	1.14T ext. ref 2 (°C)	30.52length (m)	temperature (°C)	Stokes	anti-Stokes-747.200	-6.850	-0.074	-0.051
-746.185	800.000	0.143	0.403
-745.171	243.351	-0.123	0.210
-744.156	79.727	-0.186	0.202
-743.142	-200.000	0.002	0.021
-742.127	787.656	0.151	0.419
-741.112	-65.481	-0.044	-0.018
-740.098	-74.767	-0.219	0.080
-739.083	-77.233	0.092	0.033
-738.069	15.424	-0.108	-0.086
-737.054	-175.170	0.284	0.008
-736.039	13.564	-0.307	-0.241
-735.025	-7.790	-0.160	0.109
-734.010	-105.794	0.126	-0.029
-732.996	75.283	-0.073	0.077
-731.981	479.939	0.017	0.039
-730.966	800.000	0.086	-0.251
-729.952	-86.139	0.201	0.063
-728.937	800.000	-0.062	-0.212
-727.923	-200.000	0.024	0.114
-726.908	-108.165	0.204	0.045
-725.894	30.856	0.069	-0.060
-724.879	282.070	-0.079	0.144
-723.864	387.203	0.061	0.127
-722.850	-200.000	0.027	-0.256
-721.835	-200.000	-0.028	0.250
-720.821	-200.000	0.012	0.253
-719.806	-200.000	0.035	0.196
-718.791	800.000	0.123	-0.448
-717.777	125.618	-0.135	-0.173
-716.762	-153.148	0.066	-0.005
-715.748	-147.401	-0.067	-0.006
-714.733	135.009	0.076	-0.100
-713.718	800.000	0.039	0.112
-712.704	-200.000	-0.008	-0.125
-711.689	-117.293	-0.123	0.023
-710.675	217.257	0.062	-0.100
-709.660	111.498	-0.041	0.050
-708.645	26.206	0.082	-0.069
-707.631	-184.797	0.332	0.005
-706.616	42.907	0.053	-0.048
-705.602	-66.235	0.387	-0.156
-704.587	-135.052	-0.466	0.057
-703.572	131.832	-0.046	0.059
-702.558	-96.542	-0.208	0.056
-701.543	-200.000	0.011	0.060
-700.529	-22.230	0.217	0.133
-699.514	-49.265	0.325	-0.157
-698.499	445.454	0.177	-0.393
-697.485	-69.766	-0.160	-0.062
-696.470	-133.583	-0.136	0.017
-695.456	800.000	0.098	-0.284
-694.441	-87.212	-0.310	-0.095
-693.426	46.460	-0.145	-0.136
-692.412	643.420	0.083	-0.213
-691.397	654.379	-0.045	0.117
-690.383	762.121	0.068	-0.188
-689.368	-200.000	-0.036	-0.258
-688.354	473.992	-0.176	-0.402
-687.339	407.347	-0.152	-0.325
-686.324	-36.263	-0.123	-0.067
-685.310	-200.000	0.003	-0.188
-684.295	-67.196	-0.043	-0.017
-683.281	-200.000	0.016	-0.106
-682.266	160.423	-0.310	0.437
-681.251	72.409	0.026	-0.027
-680.237	-81.619	-0.311	-0.103
-679.222	-52.611	0.498	0.233
-678.208	54.694	-0.201	-0.196
-677.193	612.206	0.169	-0.427
-676.178	217.940	0.038	0.062
-675.164	129.136	-0.100	0.129
-674.149	84.730	0.150	-0.166
-673.135	-70.508	0.315	-0.120
-672.120	-117.406	-0.487	-0.089
-671.105	32.707	-0.106	-0.092
-670.091	45.215	-0.306	0.285
-669.076	9.703	-0.243	-0.187
-668.062	800.000	-0.043	-0.159
-667.047	800.000	-0.074	-0.257
-666.032	-38.715	0.056	-0.030
-665.018	-122.435	-0.130	0.021
-664.003	-106.006	-0.051	-0.011
-662.989	-10.036	0.218	0.146
-661.974	1.735	-0.182	0.132
-660.959	-200.000	-0.006	-0.138
-659.945	-166.786	0.319	0.013
-658.930	269.159	-0.033	0.058
-657.916	-55.847	-0.153	-0.069
-656.901	-33.479	-0.121	-0.067
-655.886	-74.457	0.140	-0.051
-654.872	800.000	-0.057	-0.172
-653.857	-77.558	0.176	-0.062
-652.843	59.417	0.079	-0.078
-651.828	310.753	0.168	0.318
-650.814	-39.072	-0.037	0.020
-649.799	-25.607	-0.392	0.234
-648.784	96.087	0.085	-0.098
-647.770	21.651	0.125	0.103
-646.755	-25.779	0.053	-0.032
-645.741	-44.670	0.098	0.050
-644.726	-200.000	0.025	-0.217
-643.711	800.000	-0.068	0.223
-642.697	17.786	-0.146	0.117
-641.682	30.204	0.180	0.155
-640.668	722.452	-0.163	0.439
-639.653	-200.000	-0.044	-0.233
-638.638	75.401	-0.298	-0.317
-637.624	-22.684	-0.052	-0.032
-636.609	70.406	0.163	-0.170
-635.595	-62.700	-0.328	0.137
-634.580	-50.424	-0.257	0.122
-633.565	105.996	0.262	-0.313
-632.551	-200.000	-0.008	-0.091
-631.536	800.000	-0.047	-0.199
-630.522	265.989	0.154	-0.271
-629.507	-114.170	0.265	-0.052
-628.492	518.701	-0.104	-0.245
-627.478	-200.000	-0.019	0.117
-626.463	-200.000	-0.002	0.098
-625.449	-157.566	-0.340	-0.021
-624.434	82.490	0.074	0.081
-623.419	-119.345	0.270	0.047
-622.405	644.986	-0.095	0.244
-621.390	162.925	0.079	-0.111
-620.376	-38.001	0.245	-0.131
-619.361	-13.880	-0.118	0.077
-618.346	-96.519	0.317	-0.084
-617.332	-200.000	-0.010	-0.192
-616.317	-200.000	0.003	-0.128
-615.303	18.971	0.309	-0.250
-614.288	153.041	0.116	0.160
-613.273	-200.000	0.028	0.362
-612.259	-127.086	-0.340	0.050
-611.244	-180.264	-0.208	0.004
-610.230	-200.000	0.061	-0.352
-609.215	800.000	0.148	-0.453
-608.201	-93.822	0.311	-0.086
-607.186	325.177	0.147	-0.284
-606.171	800.000	-0.071	-0.293
-605.157	-78.733	-0.239	0.082
-604.142	-42.305	0.331	-0.170
-603.128	800.000	0.042	0.135
-602.113	435.974	0.130	0.286
-601.098	-72.050	0.183	-0.069
-600.084	-27.167	-0.241	-0.142
-599.069	53.904	-0.056	-0.054
-598.055	-72.560	-0.080	-0.030
-597.040	271.752	0.137	-0.243
-596.025	24.607	0.189	-0.158
-595.011	403.899	0.072	0.153
-593.996	57.041	-0.205	-0.202
-592.982	-200.000	-0.004	0.174
-591.967	-200.000	0.010	0.196
-590.952	65.202	-0.028	0.028
-589.938	77.703	-0.235	-0.252
-588.923	-200.000	-0.016	0.186
-587.909	269.811	0.065	-0.114
-586.894	-200.000	0.046	-0.230
-585.879	-152.359	-0.170	0.012
-584.865	711.677	-0.122	0.324
-583.850	-0.500	-0.230	0.164
-582.836	762.159	-0.150	-0.410
-581.821	-138.698	0.063	-0.007
-580.806	-120.342	0.102	0.017
-579.792	115.368	-0.271	-0.333
-578.777	-64.652	-0.300	-0.123
-577.763	76.521	0.383	0.408
-576.748	191.377	-0.101	0.153
-575.733	-73.754	-0.336	0.123
-574.719	-145.800	-0.281	0.025
-573.704	-3.763	-0.172	0.121
-572.690	-200.000	0.007	0.091
-571.675	-200.000	-0.024	-0.369
-570.661	-200.000	0.015	-0.197
-569.646	561.794	0.143	-0.349
-568.631	-101.769	0.217	-0.053
-567.617	456.757	0.021	0.047
-566.602	-81.503	0.258	-0.085
-565.588	117.058	0.208	0.257
-564.573	360.683	-0.057	-0.114
-563.558	183.533	-0.146	0.217
-562.544	-140.538	-0.197	0.021
-561.529	226.837	0.090	-0.147
-560.515	-92.510	0.352	-0.099
-559.500	552.799	-0.090	-0.217
-558.485	44.685	0.042	0.039
-557.471	-36.642	-0.083	-0.045
-556.456	-200.000	-0.064	-0.392
-555.442	-17.895	-0.198	0.125
-554.427	800.000	0.047	-0.159
-553.412	-43.472	-0.116	0.059
-552.398	19.591	0.146	0.118
-551.383	-200.000	-0.042	-0.335
-550.369	-200.000	0.046	-0.236
-549.354	-143.682	0.216	-0.021
-548.339	-82.621	-0.194	0.063
-547.325	-28.797	-0.268	-0.155
-546.310	800.000	0.154	-0.585
-545.296	-7.503	-0.161	-0.110
-544.281	243.494	-0.106	-0.179
-543.266	211.880	-0.062	-0.099
-542.252	56.554	0.098	-0.096
-541.237	800.000	-0.018	-0.062
-540.223	30.795	-0.238	-0.205
-539.208	57.406	0.135	-0.133
-538.193	4.013	0.228	0.167
-537.179	259.890	0.098	-0.169
-536.164	-182.121	0.270	-0.005
-535.150	800.000	0.013	0.047
-534.135	-200.000	-0.011	0.081
-533.121	127.602	-0.066	0.085
-532.106	-152.996	0.248	-0.018
-531.091	-119.813	-0.401	0.069
-530.077	160.384	0.051	-0.072
-529.062	-130.172	-0.284	0.039
-528.048	800.000	-0.086	0.298
-527.033	-200.000	0.027	0.400
-526.018	19.760	-0.369	-0.298
-525.004	299.716	-0.115	-0.213
-523.989	-39.451	-0.096	-0.051
-522.975	-181.070	0.280	-0.006
-521.960	207.030	0.112	0.175
-520.945	135.318	0.099	0.130
-519.931	-43.785	0.075	-0.038
-518.916	45.975	-0.202	-0.187
-517.902	-5.075	0.029	-0.020
-516.887	19.896	-0.154	-0.125
-515.872	13.081	0.225	0.175
-514.858	-126.309	0.579	0.087
-513.843	4.988	0.160	-0.118
-512.829	93.131	-0.064	0.073
-511.814	-16.259	-0.129	0.082
-510.799	-143.160	-0.218	-0.021
-509.785	452.243	0.043	-0.096
-508.770	-200.000	-0.029	-0.200
-507.756	251.274	-0.065	-0.110
-506.741	50.905	-0.258	-0.246
-505.726	95.501	0.168	0.192
-504.712	-200.000	-0.015	0.132
-503.697	90.820	-0.076	0.086
-502.683	24.581	0.074	0.062
-501.668	50.259	0.361	-0.342
-500.653	-141.521	-0.062	0.006
-499.639	-65.623	0.088	0.035
-498.624	112.872	-0.147	0.179
-497.610	-138.878	-0.134	0.015
-496.595	-200.000	-0.012	-0.275
-495.581	-136.840	-0.267	0.031
-494.566	-188.076	-0.300	0.004
-493.551	58.561	0.144	-0.142
-492.537	-200.000	0.018	0.120
-491.522	436.536	0.120	-0.262
-490.508	-200.000	0.069	0.306
-489.493	-63.182	-0.335	-0.139
-488.478	40.855	-0.271	-0.245
-487.464	121.830	0.152	0.190
-486.449	-200.000	-0.033	-0.176
-485.435	-200.000	-0.058	0.332
-484.420	112.961	0.110	-0.133
-483.405	-165.428	-0.209	0.009
-482.391	43.046	0.032	-0.030
-481.376	-128.006	-0.064	0.009
-480.362	-200.000	-0.005	-0.272
-479.347	135.200	-0.097	0.126
-478.332	20.239	-0.203	0.165
-477.318	4.380	-0.326	0.240
-476.303	1.346	0.345	0.249
-475.289	-154.164	0.155	0.010
-474.274	-85.752	0.112	0.035
-473.259	65.338	-0.188	-0.191
-472.245	-47.636	-0.047	0.023
-471.230	-110.040	-0.198	-0.041
-470.216	7.724	0.198	-0.149
-469.201	-148.674	0.317	-0.026
-468.186	-7.265	0.115	0.078
-467.172	-200.000	0.006	0.298
-466.157	-101.600	0.392	-0.095
-465.143	-115.619	-0.262	0.049
-464.128	-45.884	-0.365	-0.181
-463.113	172.622	0.088	0.128
-462.099	14.304	0.270	0.211
-461.084	310.033	-0.080	0.149
-460.070	800.000	-0.115	0.408
-459.055	10.129	0.324	-0.247
-458.040	77.754	-0.166	-0.177
-457.026	31.115	-0.080	-0.069
-456.011	-194.881	0.191	-0.001
-454.997	41.395	-0.178	-0.161
-453.982	-179.245	0.240	-0.005
-452.968	-200.000	-0.033	-0.255
-451.953	800.000	0.120	0.337
-450.938	-143.793	-0.236	-0.022
-449.924	-200.000	0.048	0.210
-448.909	-200.000	0.042	0.254
-447.895	297.253	-0.134	0.246
-446.880	-121.979	-0.143	-0.024
-445.865	128.932	-0.121	0.154
-444.851	11.500	0.317	0.243
-443.836	800.000	-0.026	0.108
-442.822	201.152	0.029	-0.045
-441.807	800.000	0.074	-0.255
-440.792	167.872	-0.203	-0.290
-439.778	33.855	-0.041	-0.036
-438.763	202.929	-0.108	-0.168
-437.749	-200.000	-0.026	-0.121
-436.734	153.598	0.021	-0.028
-435.719	7.113	-0.186	-0.139
-434.705	22.705	0.078	0.064
-433.690	-67.976	-0.108	0.042
-432.676	600.378	-0.043	-0.108
-431.661	262.176	0.244	0.424
-430.646	-111.656	-0.482	0.098
-429.632	-69.217	0.036	-0.014
-428.617	328.245	-0.130	-0.249
-427.603	99.965	0.032	0.037
-426.588	66.700	-0.146	-0.149
-425.573	-50.238	-0.208	0.098
-424.559	-134.655	-0.432	-0.053
-423.544	-105.835	0.461	-0.104
-422.530	-83.651	0.163	0.052
-421.515	204.649	-0.280	0.435
-420.500	800.000	-0.063	-0.205
-419.486	-200.000	-0.033	0.190
-418.471	439.444	0.089	0.195
-417.457	-143.093	-0.257	0.025
-416.442	-200.000	0.041	0.237
-415.428	-153.820	-0.117	-0.008
-414.413	-43.427	-0.370	-0.187
-413.398	10.306	-0.094	-0.071
-412.384	615.588	0.128	-0.322
-411.369	-159.781	0.305	-0.017
-410.355	-29.604	-0.110	0.063
-409.340	133.095	0.178	-0.230
-408.325	202.937	-0.043	-0.066
-407.311	4.717	0.411	0.302
-406.296	-132.847	-0.382	-0.049
-405.282	800.000	-0.032	-0.125
-404.267	312.837	-0.066	0.124
-403.252	6.823	0.257	0.192
-402.238	29.531	0.124	0.106
-401.223	800.000	0.028	-0.092
-400.209	74.845	-0.257	0.271
-399.194	-107.066	0.278	0.061
-398.179	209.849	0.078	0.123
-397.165	-200.000	0.005	0.026
-396.150	554.316	-0.129	-0.310
-395.136	-200.000	0.014	-0.163
-394.121	-200.000	0.026	0.120
-393.106	-200.000	-0.014	0.118
-392.092	-173.293	0.212	-0.006
-391.077	-200.000	-0.025	0.310
-390.063	120.290	-0.082	0.102
-389.048	-200.000	0.000	-0.012
-388.033	-106.411	0.244	0.054
-387.019	-200.000	-0.053	-0.377
-386.004	-64.797	0.098	-0.040
-384.990	-200.000	-0.008	0.046
-383.975	144.252	0.147	0.196
-382.960	198.203	-0.257	0.393
-381.946	-80.494	0.247	-0.082
-380.931	232.721	-0.196	0.322
-379.917	-200.000	0.003	0.092
-378.902	-200.000	0.014	-0.086
-377.888	-28.698	-0.250	-0.144
-376.873	-106.562	-0.140	0.031
-375.858	-200.000	-0.033	-0.328
-374.844	-200.000	0.000	0.083
-373.829	-27.069	0.057	-0.033
-372.815	95.782	-0.179	-0.205
-371.800	11.718	-0.196	0.150
-370.785	29.864	-0.154	-0.131
-369.771	-165.649	0.262	-0.011
-368.756	800.000	0.100	-0.281
-367.742	-200.000	-0.022	0.118
-366.727	788.348	0.039	0.106
-365.712	-42.398	-0.197	0.100
-364.698	18.613	0.163	-0.130
-363.683	-200.000	-0.008	0.316
-362.669	362.335	0.075	-0.151
-361.654	-193.258	0.158	-0.001
-360.639	-67.403	-0.395	0.155
-359.625	378.224	-0.198	-0.403
-358.610	-133.177	0.187	0.024
-357.596	577.192	0.060	-0.146
-356.581	800.000	0.071	0.216
-355.566	-4.942	-0.327	0.225
-354.552	-25.608	-0.202	-0.119
-353.537	739.769	-0.039	0.106
-352.523	434.128	0.119	0.258
-351.508	-62.907	0.046	0.019
-350.493	430.939	-0.156	0.337
-349.479	-95.955	0.279	-0.074
-348.464	-140.299	0.431	0.045
-347.450	-118.625	0.124	0.022
-346.435	-200.000	0.014	-0.069
-345.420	498.257	-0.030	0.069
-344.406	-30.881	0.112	-0.063
-343.391	221.685	-0.060	0.096
-342.377	393.886	-0.155	0.323
-341.362	141.833	0.169	-0.223
-340.348	-109.591	0.436	-0.092
-339.333	-89.165	0.300	0.088
-338.318	-200.000	-0.022	-0.150
-337.304	22.082	0.200	-0.163
-336.289	-175.847	-0.050	-0.001
-335.275	800.000	-0.068	0.230
-334.260	800.000	0.035	-0.106
-333.245	18.686	-0.167	-0.133
-332.231	23.391	0.247	-0.202
-331.216	-110.933	0.111	-0.023
-330.202	-19.348	-0.099	0.061
-329.187	2.968	0.105	0.076
-328.172	-200.000	-0.088	-0.483
-327.158	-18.124	-0.075	-0.047
-326.143	-200.000	0.062	0.452
-325.129	59.057	-0.115	-0.113
-324.114	20.912	0.129	0.104
-323.099	-41.391	0.122	-0.063
-322.085	33.671	-0.169	0.146
-321.070	-69.047	-0.335	-0.129
-320.056	684.396	0.054	0.140
-319.041	196.797	-0.212	-0.322
-318.026	257.079	0.181	-0.310
-317.012	306.730	-0.106	0.197
-315.997	145.391	0.190	0.254
-314.983	-184.318	-0.133	0.002
-313.968	92.943	-0.123	-0.139
-312.953	-37.007	0.209	0.111
-311.939	-27.236	0.177	0.103
-310.924	-74.181	-0.332	0.120
-309.910	-134.020	0.211	-0.026
-308.895	-200.000	-0.052	0.291
-307.880	-200.000	0.009	0.127
-306.866	150.995	-0.174	0.236
-305.851	181.088	-0.241	0.352
-304.837	290.236	-0.062	-0.111
-303.822	117.186	0.098	-0.120
-302.807	-200.000	0.638	-0.003
-301.793	-76.449	0.245	0.086
-300.778	-69.608	-0.115	-0.044
-299.764	-90.962	0.182	0.052
-298.749	-43.099	-0.210	-0.106
-297.735	-123.037	0.091	0.015
-296.720	-151.229	-0.308	0.023
-295.705	65.401	-0.147	-0.148
-294.691	-90.682	-0.115	-0.033
-293.676	-200.000	0.020	-0.126
-292.662	800.000	-0.089	0.353
-291.647	-200.000	-0.068	0.302
-290.632	7.453	-0.099	-0.073
-289.618	-1.416	-0.186	-0.131
-288.603	25.107	-0.149	0.123
-287.589	800.000	0.066	-0.273
-286.574	-82.153	0.327	-0.106
-285.559	138.387	-0.182	0.237
-284.545	800.000	-0.109	0.413
-283.530	-40.431	-0.202	-0.104
-282.516	56.773	-0.248	0.241
-281.501	-48.798	-0.302	0.144
-280.486	-100.839	0.464	-0.114
-279.472	-4.183	0.251	-0.173
-278.457	-124.720	0.064	-0.010
-277.443	-75.136	0.281	-0.100
-276.428	120.296	-0.125	-0.155
-275.413	60.695	0.016	0.016
-274.399	-200.000	0.021	0.384
-273.384	-86.237	-0.250	0.077
-272.370	-37.296	0.224	-0.119
-271.355	800.000	-0.027	0.076
-270.340	-52.481	0.155	0.071
-269.326	-39.752	-0.150	-0.078
-268.311	800.000	0.034	-0.123
-267.297	54.730	-0.123	-0.118
-266.282	698.601	0.093	-0.243
-265.267	-200.000	0.016	0.130
-264.253	-106.277	-0.386	-0.086
-263.238	9.480	-0.072	0.054
-262.224	31.188	-0.163	0.139
-261.209	352.420	-0.114	-0.224
-260.195	16.787	-0.040	0.032
-259.180	296.949	0.180	0.328
-258.165	-130.341	-0.254	0.034
-257.151	6.543	-0.110	-0.081
-256.136	581.388	0.059	0.144
-255.122	269.398	-0.109	0.190
-254.107	367.244	0.207	0.415
-253.092	634.741	0.100	0.251
-252.078	-66.372	-0.152	0.060
-251.063	-116.990	-0.245	0.045
-250.049	-55.512	-0.568	-0.253
-249.034	-11.378	0.212	0.139
-248.019	0.401	0.177	-0.126
-247.005	451.950	-0.074	0.163
-245.990	-29.364	0.153	0.087
-244.976	-19.573	0.156	0.096
-243.961	219.590	-0.136	0.216
-242.946	295.990	-0.017	-0.030
-241.932	-1.719	-0.121	-0.084
-240.917	-200.000	0.040	0.194
-239.903	-200.000	-0.043	0.322
-238.888	-19.944	0.074	0.046
-237.873	42.885	-0.264	0.239
-236.859	218.075	-0.072	0.114
-235.844	-200.000	0.027	-0.281
-234.830	76.663	-0.234	-0.246
-233.815	52.755	0.131	-0.124
-232.800	722.181	0.051	-0.134
-231.786	-200.000	0.016	-0.334
-230.771	111.569	-0.167	0.200
-229.757	-142.200	0.132	-0.013
-228.742	-100.088	-0.149	0.037
-227.727	-200.000	0.001	-0.152
-226.713	90.874	-0.218	-0.243
-225.698	693.680	-0.068	0.176
-224.684	-2.568	-0.112	-0.078
-223.669	-100.296	0.153	-0.038
-222.655	-123.620	-0.107	-0.017
-221.640	20.963	0.162	-0.130
-220.625	-200.000	0.027	-0.348
-219.611	800.000	0.043	0.147
-218.596	16.004	0.064	0.050
-217.582	-112.581	0.175	0.035
-216.567	-104.547	0.225	-0.052
-215.552	-200.000	-0.030	0.373
-214.538	-200.000	0.038	0.225
-213.523	64.272	-0.146	0.145
-212.509	-177.047	0.334	0.008
-211.494	15.784	0.100	0.078
-210.479	-13.828	-0.119	0.076
-209.465	-148.751	0.283	0.023
-208.450	-93.991	-0.145	-0.040
-207.436	-71.589	0.514	0.191
-206.421	180.519	0.057	0.083
-205.406	469.781	0.141	-0.314
-204.392	-57.090	-0.119	-0.052
-203.377	-141.893	0.219	-0.022
-202.363	-141.610	0.160	0.016
-201.348	-200.000	-0.006	-0.086
-200.333	-153.103	0.343	-0.024
-199.319	800.000	-0.092	0.298
-198.304	240.812	-0.027	0.045
-197.290	-33.129	0.125	-0.069
-196.275	368.715	-0.096	-0.192
-195.260	-200.000	-0.045	0.317
-194.246	-124.181	0.261	-0.041
-193.231	26.737	-0.095	-0.079
-192.217	-106.355	-0.138	-0.031
-191.202	10.869	0.077	0.058
-190.187	-50.997	0.326	0.152
-189.173	-200.000	-0.017	0.163
-188.158	23.854	0.055	0.045
-187.144	-11.459	0.282	0.184
-186.129	87.385	-0.264	-0.290
-185.114	92.976	0.195	-0.218
-184.100	800.000	-0.047	0.175
-183.085	388.319	0.057	-0.117
-182.071	-108.200	0.308	-0.066
-181.056	-43.113	0.215	-0.108
-180.042	130.125	0.182	-0.231
-179.027	-178.362	-0.306	0.007
-178.012	800.000	-0.063	-0.200
-176.998	-30.426	0.400	0.225
-175.983	-200.000	-0.023	-0.266
-174.969	800.000	-0.027	0.089
-173.954	614.390	-0.027	0.067
-172.939	-39.595	0.102	-0.053
-171.925	479.126	-0.024	0.053
-170.910	29.361	0.138	-0.116
-169.896	-81.837	0.116	-0.038
-168.881	174.706	-0.046	0.066
-167.866	48.471	0.076	-0.070
-166.852	-200.000	-0.006	0.302
-165.837	277.104	0.060	-0.106
-164.823	-200.000	-0.063	-0.401
-163.808	800.000	0.053	0.204
-162.793	167.851	-0.115	0.162
-161.779	-160.791	0.264	0.014
-160.764	146.154	0.203	0.270
-159.750	-17.551	0.206	-0.128
-158.735	800.000	0.034	0.138
-157.720	297.379	-0.029	0.052
-156.706	8.323	0.100	-0.074
-155.691	87.511	0.220	-0.241
-154.677	-18.048	0.184	-0.114
-153.662	-156.386	-0.283	-0.018
-152.647	-70.145	0.130	0.049
-151.633	9.973	-0.465	0.350
-150.618	800.000	-0.129	0.523
-149.604	88.138	-0.124	-0.136
-148.589	-200.000	0.057	-0.345
-147.574	-147.767	-0.342	0.028
-146.560	-200.000	0.047	-0.397
-145.545	143.284	0.111	-0.146
-144.531	-26.446	-0.092	0.053
-143.516	-200.000	-0.034	0.161
-142.502	-200.000	0.016	0.079
-141.487	-42.075	0.155	0.078
-140.472	-64.252	0.079	0.032
-139.458	-200.000	0.020	-0.236
-138.443	-40.164	-0.171	-0.088
-137.429	-94.914	0.307	-0.082
-136.414	795.978	0.137	-0.374
-135.399	59.134	-0.293	0.286
-134.385	-17.253	-0.229	0.143
-133.370	12.833	-0.219	0.167
-132.356	800.000	-0.037	0.131
-131.341	2.759	-0.040	-0.029
-130.326	260.036	0.111	0.190
-129.312	123.444	0.206	0.255
-128.297	12.827	-0.214	0.164
-127.283	47.957	0.056	-0.052
-126.268	408.645	0.031	-0.066
-125.253	-6.190	-0.134	0.091
-124.239	277.774	0.061	0.108
-123.224	-120.251	0.432	0.073
-122.210	30.407	0.092	-0.078
-121.195	12.162	-0.171	0.130
-120.180	270.537	0.047	-0.082
