DTS Sentinel unit serial number:	SN413079Multiplexer serial number:	ORYXHardware model number:	OX4-SRSoftware version number:	ORYX F/W v4.00 Oryx Data Collector v3.7.2.0data status	okinstallation	princeton_trtdifferential loss correction	single-endedforward channel	channel 1reverse channel	N/Adate	2019/09/13time	00:06:35forward acquisition time	60.00reverse acquisition time	0.00gamma	496.2192k internal	0.2329k external	0.2329temperature offset calibration	1.0147default loss term (dB/km)	0.3790temperature slope calibration	1.0000multiplexer offset coefficient	1.0000multiplexer slope coefficient	1.0000fibre end	0.00T internal ref (°C)	28.62T ext. ref 1 (°C)	3.76T ext. ref 2 (°C)	23.27length (m)	temperature (°C)	Stokes	anti-Stokes-747.200	-30.404	-0.038	-0.021
-746.185	407.248	0.076	0.162
-745.171	-22.303	0.414	0.253
-744.156	45.513	0.278	0.258
-743.142	-98.323	0.311	0.080
-742.127	11.694	-0.248	0.191
-741.112	-61.120	0.194	0.083
-740.098	-106.005	-0.153	-0.035
-739.083	-78.055	0.049	0.017
-738.069	-183.971	-0.207	0.004
-737.054	-200.000	-0.002	-0.027
-736.039	-102.637	-0.087	0.021
-735.025	70.601	-0.407	0.424
-734.010	42.786	0.084	-0.077
-732.996	-200.000	0.010	-0.323
-731.981	-37.984	-0.200	-0.107
-730.966	-2.043	0.162	-0.114
-729.952	-90.491	-0.299	0.087
-728.937	-2.096	-0.356	-0.252
-727.923	104.971	-0.049	0.058
-726.908	-200.000	-0.017	-0.426
-725.894	161.636	0.066	0.093
-724.879	-104.863	-0.238	0.055
-723.864	-151.227	0.448	0.034
-722.850	-40.990	0.083	-0.043
-721.835	80.109	-0.145	-0.157
-720.821	370.786	-0.156	-0.319
-719.806	-136.517	0.283	-0.033
-718.791	110.674	-0.141	-0.170
-717.777	2.364	-0.107	-0.078
-716.762	-71.333	0.440	-0.166
-715.748	-200.000	0.006	-0.037
-714.733	-85.648	0.202	0.063
-713.718	-200.000	-0.057	0.382
-712.704	4.780	-0.029	-0.022
-711.689	-200.000	-0.066	-0.305
-710.675	-69.451	-0.111	-0.043
-709.660	22.124	0.131	-0.108
-708.645	70.853	-0.102	-0.106
-707.631	335.335	-0.222	-0.433
-706.616	-200.000	-0.027	0.193
-705.602	132.218	0.039	-0.050
-704.587	-92.122	-0.188	0.053
-703.572	-200.000	-0.024	0.207
-702.558	-200.000	-0.026	-0.176
-701.543	172.893	0.155	-0.224
-700.529	9.409	-0.306	-0.233
-699.514	-68.594	0.206	-0.080
-698.499	-19.139	0.216	-0.135
-697.485	-104.468	-0.161	0.037
-696.470	2.507	0.156	-0.113
-695.456	-200.000	0.016	-0.171
-694.441	-114.088	-0.223	-0.043
-693.426	15.332	0.145	0.115
-692.412	124.969	0.230	-0.292
-691.397	36.438	-0.150	0.133
-690.383	-200.000	-0.067	-0.416
-689.368	239.245	-0.087	0.146
-688.354	782.829	0.115	-0.316
-687.339	-10.461	-0.138	-0.092
-686.324	-125.420	-0.204	0.031
-685.310	-75.466	0.202	-0.072
-684.295	7.795	0.286	0.215
-683.281	144.959	-0.159	-0.214
-682.266	-58.591	-0.114	0.050
-681.251	-200.000	0.059	0.292
-680.237	-117.637	-0.150	0.027
-679.222	-200.000	0.072	0.322
-678.208	74.577	0.053	-0.056
-677.193	433.148	0.047	0.103
-676.178	51.941	-0.097	-0.093
-675.164	149.308	-0.023	0.031
-674.149	-15.100	0.212	-0.137
-673.135	-14.636	-0.466	0.301
-672.120	406.286	-0.235	-0.498
-671.105	108.900	-0.237	-0.285
-670.091	-100.001	-0.129	-0.032
-669.076	800.000	-0.049	-0.141
-668.062	-133.640	-0.262	-0.033
-667.047	-200.000	0.008	-0.224
-666.032	159.675	-0.267	-0.373
-665.018	800.000	0.046	-0.146
-664.003	130.469	0.132	-0.170
-662.989	800.000	-0.043	-0.130
-661.974	-200.000	-0.027	-0.355
-660.959	-200.000	0.025	-0.119
-659.945	-200.000	0.025	-0.119
-658.930	-200.000	0.027	0.124
-657.916	693.399	0.029	0.077
-656.901	-3.201	-0.179	-0.125
-655.886	186.693	0.112	-0.168
-654.872	-200.000	-0.005	0.084
-653.857	16.707	-0.153	-0.121
-652.843	-104.356	-0.413	0.096
-651.828	-144.117	-0.119	-0.011
-650.814	259.491	0.184	-0.319
-649.799	800.000	0.024	-0.084
-648.784	-200.000	0.040	0.199
-647.770	-111.386	0.232	0.047
-646.755	304.603	0.056	0.104
-645.741	-3.423	0.266	-0.186
-644.726	-150.981	0.216	-0.016
-643.711	-179.569	-0.030	-0.001
-642.697	171.363	0.078	0.112
-641.682	-200.000	0.010	0.087
-640.668	10.177	0.355	0.271
-639.653	140.572	-0.175	-0.232
-638.638	-39.213	-0.305	0.161
-637.624	-200.000	0.001	0.098
-636.609	800.000	0.010	0.031
-635.595	-81.197	-0.232	0.077
-634.580	783.001	-0.057	0.155
-633.565	-70.753	-0.148	0.056
-632.551	-50.930	-0.211	0.099
-631.536	48.608	0.076	0.072
-630.522	59.599	0.259	-0.256
-629.507	-199.318	-0.631	0.003
-628.492	162.546	-0.113	-0.159
-627.478	226.431	0.147	0.239
-626.463	280.951	-0.109	-0.196
-625.449	-131.498	0.082	-0.011
-624.434	-31.915	0.219	0.123
-623.419	-10.596	-0.224	-0.149
-622.405	-200.000	0.039	0.330
-621.390	800.000	0.080	0.318
-620.376	-76.645	0.132	0.046
-619.361	-70.569	-0.072	-0.027
-618.346	800.000	-0.125	-0.349
-617.332	800.000	0.050	0.193
-616.317	-200.000	-0.067	0.683
-615.303	-155.110	0.284	0.019
-614.288	728.738	0.024	0.065
-613.273	-66.511	-0.403	0.160
-612.259	160.406	-0.139	-0.195
-611.244	800.000	-0.098	-0.300
-610.230	800.000	0.081	0.248
-609.215	-3.626	0.181	0.126
-608.201	-200.000	-0.038	0.640
-607.186	126.049	0.067	0.085
-606.171	-200.000	-0.022	-0.279
-605.157	-200.000	0.000	0.190
-604.142	305.374	-0.050	0.093
-603.128	93.478	0.109	-0.123
-602.113	586.117	-0.119	-0.294
-601.098	800.000	-0.030	0.089
-600.084	-200.000	0.032	-0.198
-599.069	7.018	0.126	0.094
-598.055	-59.945	-0.134	0.057
-597.040	-55.469	0.343	-0.154
-596.025	-119.601	0.023	-0.004
-595.011	-200.000	0.033	0.195
-593.996	-70.642	-0.130	0.049
-592.982	-70.984	0.106	0.040
-591.967	-146.130	-0.255	0.022
-590.952	3.083	-0.157	0.114
-589.938	800.000	-0.112	0.365
-588.923	110.113	0.107	0.129
-587.909	-72.029	-0.455	0.169
-586.894	-200.000	0.003	-0.299
-585.879	218.624	-0.062	-0.099
-584.865	-144.331	-0.289	-0.027
-583.850	-107.008	-0.120	0.027
-582.836	-200.000	-0.057	-0.471
-581.821	92.611	0.141	-0.159
-580.806	-171.557	0.145	-0.005
-579.792	2.480	0.196	-0.142
-578.777	-73.427	-0.196	0.072
-577.763	-160.039	-0.453	0.025
-576.748	784.386	-0.065	-0.177
-575.733	69.318	-0.117	-0.121
-574.719	-102.770	-0.281	0.067
-573.704	800.000	-0.027	-0.108
-572.690	66.785	-0.189	-0.193
-571.675	-200.000	-0.017	0.168
-570.661	-200.000	-0.001	-0.220
-569.646	155.698	-0.199	-0.274
-568.631	-200.000	-0.003	0.176
-567.617	21.121	-0.224	-0.182
-566.602	-200.000	0.043	-0.268
-565.588	-86.150	0.072	-0.022
-564.573	-116.208	0.223	-0.041
-563.558	179.244	0.142	-0.208
-562.544	105.628	0.322	0.381
-561.529	-200.000	0.007	-0.211
-560.515	-120.576	-0.288	0.049
-559.500	-200.000	0.049	0.250
-558.485	-82.429	0.122	0.040
-557.471	33.404	0.104	0.091
-556.456	-200.000	-0.020	0.098
-555.442	-200.000	0.020	0.143
-554.427	-16.973	-0.050	0.032
-553.412	-200.000	-0.512	0.001
-552.398	97.658	0.236	0.271
-551.383	591.125	-0.059	-0.145
-550.369	11.253	0.080	-0.061
-549.354	305.542	0.054	0.101
-548.339	-103.362	-0.282	-0.066
-547.325	-157.457	0.129	-0.008
-546.310	-46.607	0.114	0.056
-545.296	-15.052	-0.202	-0.129
-544.281	-122.780	0.172	-0.028
-543.266	-42.660	-0.229	-0.116
-542.252	-143.457	0.195	-0.019
-541.237	84.922	-0.201	-0.221
-540.223	800.000	-0.080	0.297
-539.208	-200.000	0.018	-0.193
-538.193	-74.718	0.266	0.096
-537.179	347.074	0.103	0.203
-536.164	-10.522	-0.049	0.033
-535.150	-47.610	-0.165	-0.080
-534.135	-9.277	-0.090	-0.060
-533.121	-200.000	0.387	0.001
-532.106	-81.130	-0.105	-0.035
-531.091	31.943	0.228	0.196
-530.077	-41.514	-0.268	-0.138
-529.062	800.000	-0.055	0.155
-528.048	69.661	0.254	0.261
-527.033	8.163	0.086	-0.064
-526.018	32.496	0.105	0.091
-525.004	-61.891	0.056	0.023
-523.989	-65.798	0.129	0.052
-522.975	-49.871	-0.083	0.039
-521.960	800.000	0.053	0.200
-520.945	92.684	-0.068	-0.077
-519.931	362.743	-0.117	0.234
-518.916	-200.000	0.002	-0.164
-517.902	-200.000	0.010	0.083
-516.887	-15.781	0.156	0.099
-515.872	-200.000	-0.010	-0.160
-514.858	165.184	-0.125	0.176
-513.843	-98.611	0.068	0.017
-512.829	34.510	0.122	0.107
-511.814	-164.833	-0.319	-0.014
-510.799	212.857	0.109	-0.172
-509.785	-86.952	-0.171	0.052
-508.770	800.000	0.043	0.156
-507.756	-49.479	0.154	-0.073
-506.741	750.939	0.023	0.062
-505.726	-200.000	-0.198	-0.001
-504.712	-200.000	-0.041	0.215
-503.697	-123.595	-0.076	0.012
-502.683	321.566	-0.039	-0.073
-501.668	125.802	-0.128	0.161
-500.653	575.614	0.068	-0.166
-499.639	616.424	-0.039	0.098
-498.624	-99.181	-0.187	-0.047
-497.610	-46.388	-0.465	0.228
-496.595	-92.384	0.259	0.073
-495.581	73.450	-0.156	-0.163
-494.566	-1.504	-0.334	-0.235
-493.551	-49.176	-0.073	0.035
-492.537	-138.735	-0.136	0.015
-491.522	-200.000	0.018	-0.108
-490.508	6.961	-0.383	-0.284
-489.493	-200.000	0.037	-0.204
-488.478	38.224	0.201	-0.179
-487.464	-111.794	0.351	0.071
-486.449	-200.000	-0.005	-0.101
-485.435	-200.000	0.004	0.213
-484.420	20.380	0.113	0.091
-483.405	-200.000	0.021	0.244
-482.391	-157.081	-0.126	0.008
-481.376	-11.696	0.337	-0.221
-480.362	800.000	-0.067	-0.198
-479.347	-13.596	-0.037	0.024
-478.332	-95.885	-0.228	0.061
-477.318	-200.000	-0.008	0.163
-476.303	-162.627	-0.358	-0.018
-475.289	-8.142	-0.090	-0.060
-474.274	169.151	0.160	-0.227
-473.259	430.866	-0.085	0.184
-472.245	-160.254	0.498	0.027
-471.230	48.260	-0.203	0.190
-470.216	800.000	-0.032	0.097
-469.201	21.830	-0.200	0.162
-468.186	195.995	0.089	0.135
-467.172	-200.000	0.039	-0.316
-466.157	800.000	-0.027	-0.095
-465.143	580.186	-0.042	0.103
-464.128	-124.345	-0.230	-0.036
-463.113	800.000	-0.076	-0.213
-462.099	-200.000	0.018	0.125
-461.084	583.958	0.156	0.383
-460.070	-200.000	0.072	-0.362
-459.055	101.996	-0.197	-0.230
-458.040	158.542	0.195	-0.270
-457.026	243.047	-0.151	-0.252
-456.011	-87.578	0.281	0.085
-454.997	-183.098	0.349	-0.006
-453.982	-112.599	-0.305	-0.061
-452.968	64.131	-0.115	-0.115
-451.953	19.075	-0.193	-0.154
-450.938	-128.152	-0.097	0.014
-449.924	-93.185	0.259	0.072
-448.909	202.512	0.085	-0.131
-447.895	10.135	0.349	-0.264
-446.880	290.616	0.085	-0.154
-445.865	-137.316	-0.159	-0.018
-444.851	-200.000	0.029	-0.227
-443.836	-63.509	-0.092	-0.038
-442.822	-200.000	-0.063	-0.282
-441.807	-29.686	-0.018	-0.010
-440.792	-13.034	0.194	0.125
-439.778	758.284	-0.033	0.088
-438.763	51.145	0.024	-0.022
-437.749	-88.777	-0.288	0.085
-436.734	-200.000	0.007	-0.097
-435.719	727.367	0.098	-0.259
-434.705	-200.000	0.044	-0.433
-433.690	-21.769	0.188	-0.114
-432.676	800.000	0.019	-0.064
-431.661	53.429	-0.046	0.044
-430.646	-47.070	-0.345	0.167
-429.632	-46.684	-0.271	0.132
-428.617	634.305	-0.124	0.313
-427.603	-200.000	-0.007	0.150
-426.588	-144.215	0.186	0.017
-425.573	-40.153	0.098	0.051
-424.559	800.000	0.075	0.227
-423.544	800.000	-0.070	-0.204
-422.530	800.000	0.070	-0.263
-421.515	622.220	-0.155	-0.388
-420.500	-5.387	-0.075	0.052
-419.486	-45.311	-0.032	0.016
-418.471	-200.000	-0.013	-0.227
-417.457	61.708	-0.206	-0.204
-416.442	4.951	-0.194	-0.142
-415.428	-200.000	0.019	-0.194
-414.413	800.000	0.047	-0.161
-413.398	144.775	0.186	-0.247
-412.384	145.110	-0.041	-0.055
-411.369	-87.314	-0.272	0.082
-410.355	-152.886	0.067	0.005
-409.340	-200.000	0.034	-0.198
-408.325	118.414	-0.124	0.152
-407.311	-91.168	0.410	-0.117
-406.296	-87.909	0.085	-0.025
-405.282	-200.000	0.022	0.194
-404.267	644.655	-0.140	0.355
-403.252	-200.000	0.003	0.162
-402.238	62.762	0.205	-0.204
-401.223	-105.394	-0.271	-0.061
-400.209	408.790	0.068	-0.144
-399.194	800.000	0.089	0.255
-398.179	-47.030	-0.114	0.055
-397.165	-200.000	0.008	0.061
-396.150	-35.341	0.067	-0.036
-395.136	155.669	0.158	-0.216
-394.121	647.182	-0.132	-0.335
-393.106	86.960	-0.256	-0.281
-392.092	-161.357	0.348	-0.018
-391.077	29.403	0.339	-0.286
-390.063	-4.426	0.265	-0.182
-389.048	-122.216	0.179	0.029
-388.033	159.963	0.152	-0.211
-387.019	-200.000	-0.004	0.069
-386.004	139.923	-0.086	-0.112
-384.990	-74.636	0.222	-0.079
-383.975	-123.356	-0.214	0.034
-382.960	-72.716	-0.194	-0.071
-381.946	-170.438	0.194	-0.007
-380.931	-168.502	-0.107	-0.004
-379.917	-56.199	-0.223	0.099
-378.902	-7.682	-0.065	0.043
-377.888	444.791	0.104	-0.226
-376.873	-127.227	-0.120	-0.017
-375.858	-21.649	-0.241	0.146
-374.844	28.657	0.116	-0.098
-373.829	239.397	-0.112	-0.185
-372.815	-151.006	0.209	-0.016
-371.800	-200.000	-0.032	-0.220
-370.785	424.874	0.078	0.168
-369.771	122.362	0.205	-0.255
-368.756	315.291	0.149	0.279
-367.742	-70.057	0.331	-0.125
-366.727	-9.696	0.047	-0.031
-365.712	111.618	-0.098	0.118
-364.698	-152.855	-0.115	-0.008
-363.683	-107.769	0.150	-0.032
-362.669	-50.830	0.052	-0.024
-361.654	800.000	-0.045	0.188
-360.639	-200.000	0.059	-0.259
-359.625	-15.278	-0.270	0.171
-358.610	-12.225	0.349	-0.227
-357.596	-108.039	-0.166	-0.036
-356.581	-85.324	0.238	-0.074
-355.566	-200.000	0.003	-0.160
-354.552	-28.306	-0.051	0.029
-353.537	274.308	-0.100	-0.175
-352.523	-200.000	0.009	0.195
-351.508	-200.000	-0.019	0.213
-350.493	27.911	0.066	0.055
-349.479	-117.833	0.155	-0.028
-348.464	8.297	-0.116	-0.087
-347.450	20.293	-0.048	0.038
-346.435	462.971	0.130	0.288
-345.420	-200.000	-0.013	0.296
-344.406	80.853	-0.129	0.138
-343.391	740.735	0.016	0.043
-342.377	605.823	0.042	0.104
-341.362	75.332	0.228	-0.239
-340.348	-168.026	0.074	-0.003
-339.333	184.518	0.026	0.039
-338.318	-46.620	0.044	-0.021
-337.304	-39.006	-0.055	-0.029
-336.289	-26.891	-0.304	0.176
-335.275	-56.104	-0.191	0.085
-334.260	-149.086	-0.145	0.012
-333.245	-2.951	0.283	-0.196
-332.231	-23.996	0.221	0.131
-331.216	-84.483	-0.315	-0.099
-330.202	44.654	-0.212	-0.193
-329.187	31.782	0.039	0.033
-328.172	68.868	0.087	0.088
-327.158	800.000	-0.051	-0.181
-326.143	-200.000	-0.025	-0.190
-325.129	95.833	0.222	-0.251
-324.114	800.000	-0.048	-0.194
-323.099	561.383	0.064	-0.153
-322.085	-34.105	0.325	0.177
-321.070	-200.000	0.002	-0.038
-320.056	800.000	-0.021	0.064
-319.041	-53.181	-0.191	-0.087
-318.026	-200.000	0.010	0.157
-317.012	-110.447	-0.169	0.035
-315.997	-200.000	-0.248	-0.001
-314.983	-70.497	-0.188	0.071
-313.968	285.223	0.114	-0.204
-312.953	-113.864	-0.220	0.042
-311.939	-86.776	-0.422	0.128
-310.924	-200.000	0.021	0.095
-309.910	51.977	0.177	0.167
-308.895	-200.000	-0.011	0.151
-307.880	-200.000	-0.046	0.452
-306.866	666.538	0.064	0.165
-305.851	33.410	-0.156	-0.134
-304.837	800.000	-0.014	0.040
-303.822	-31.847	0.227	0.126
-302.807	5.612	0.128	-0.093
-301.793	414.558	0.147	0.309
-300.778	92.476	0.253	-0.283
-299.764	-107.522	0.246	0.053
-298.749	-5.982	0.211	-0.143
-297.735	-200.000	0.042	-0.316
-296.720	-200.000	-0.041	-0.202
-295.705	-96.760	0.253	-0.066
-294.691	800.000	0.083	0.323
-293.676	195.379	-0.003	-0.004
-292.662	110.941	0.048	-0.057
-291.647	-119.990	-0.305	0.052
-290.632	-200.000	-0.016	0.155
-289.618	66.636	-0.125	0.126
-288.603	-96.006	-0.165	0.043
-287.589	190.765	-0.133	0.197
-286.574	413.232	0.169	0.356
-285.559	-132.424	0.501	-0.064
-284.545	-65.636	-0.288	-0.114
-283.530	116.872	-0.264	-0.320
-282.516	59.074	0.111	0.108
-281.501	6.635	0.237	-0.175
-280.486	-138.926	-0.112	-0.012
-279.472	321.720	0.045	0.085
-278.457	-73.911	0.077	-0.028
-277.443	16.324	0.127	0.099
-276.428	118.723	0.105	0.128
-275.413	212.775	0.121	0.189
-274.399	-3.104	-0.087	-0.060
-273.384	108.874	0.067	0.079
-272.370	-34.651	0.112	0.060
-271.355	32.266	-0.483	0.412
-270.340	142.026	-0.094	-0.123
-269.326	1.742	0.200	-0.143
-268.311	348.148	-0.105	0.206
-267.297	65.084	-0.085	-0.085
-266.282	-136.686	-0.514	-0.059
-265.267	-82.088	0.125	-0.040
-264.253	165.655	-0.218	0.305
-263.238	-86.959	0.137	-0.041
-262.224	474.099	-0.028	-0.063
-261.209	-95.264	0.117	0.031
-260.195	59.499	0.273	0.266
-259.180	-90.053	0.224	0.065
-258.165	800.000	0.052	-0.212
-257.151	-200.000	0.005	0.121
-256.136	800.000	0.080	0.279
-255.122	-200.000	-0.029	-0.236
-254.107	257.035	0.158	0.269
-253.092	-68.591	0.177	-0.068
-252.078	-115.899	0.052	-0.010
-251.063	-200.000	0.014	0.060
-250.049	800.000	-0.034	0.142
-249.034	90.138	0.111	0.123
-248.019	292.194	0.123	0.222
-247.005	-200.000	-0.017	0.329
-245.990	66.661	-0.226	0.227
-244.976	363.958	-0.137	0.272
-243.961	49.136	0.319	-0.296
-242.946	800.000	-0.031	0.105
-241.932	800.000	0.049	-0.191
-240.917	-32.934	-0.272	-0.149
-239.903	-72.773	0.178	0.065
-238.888	-200.000	0.007	-0.227
-237.873	-200.000	0.015	-0.270
-236.859	-200.000	-0.012	-0.217
-235.844	503.925	0.050	0.114
-234.830	221.521	0.107	0.170
-233.815	-52.434	-0.158	-0.072
-232.800	39.758	0.068	0.061
-231.786	-69.272	0.032	-0.012
-230.771	-19.817	-0.158	0.096
-229.757	-69.756	-0.086	0.032
-228.742	275.184	-0.021	0.037
-227.727	250.946	0.247	0.415
-226.713	36.400	0.038	-0.033
-225.698	-163.657	0.065	0.003
-224.684	800.000	0.061	-0.205
-223.669	-200.000	0.012	-0.131
-222.655	38.235	0.280	0.246
-221.640	800.000	-0.034	0.145
-220.625	-18.222	0.223	-0.138
-219.611	-27.351	-0.053	-0.030
-218.596	34.718	-0.128	0.111
-217.582	260.712	0.098	0.167
-216.567	7.145	0.402	0.296
-215.552	-200.000	-0.036	-0.307
-214.538	119.374	0.183	0.224
-213.523	-113.361	-0.276	-0.053
-212.509	-200.000	0.078	0.373
-211.494	185.314	0.126	0.185
-210.479	5.135	-0.104	-0.076
-209.465	800.000	0.052	0.158
-208.450	-17.237	0.061	-0.038
-207.436	-159.866	-0.144	0.008
-206.421	-160.159	-0.229	-0.012
-205.406	172.016	0.043	-0.062
-204.392	473.779	-0.060	0.134
-203.377	-82.595	0.126	0.040
-202.363	-96.734	0.178	-0.046
-201.348	800.000	0.033	0.113
-200.333	-200.000	0.085	-0.497
-199.319	-200.000	-0.036	-0.177
-198.304	333.610	0.134	-0.256
-197.290	82.260	0.060	0.064
-196.275	76.999	-0.193	0.202
-195.260	800.000	-0.110	-0.307
-194.246	266.820	-0.082	-0.142
-193.231	274.617	-0.039	-0.068
-192.217	755.187	-0.100	0.266
-191.202	800.000	0.041	-0.160
-190.187	-65.659	-0.073	0.029
-189.173	48.792	0.144	-0.133
-188.158	41.213	-0.186	-0.166
-187.144	-200.000	0.007	0.048
-186.129	62.429	-0.146	0.144
-185.114	-176.368	0.101	-0.003
-184.100	0.375	-0.176	0.124
-183.085	800.000	-0.033	-0.114
-182.071	-175.496	0.179	-0.005
-181.056	-23.513	0.151	-0.089
-180.042	-200.000	-0.010	-0.339
-179.027	614.696	-0.045	-0.110
-178.012	-94.311	0.200	0.054
-176.998	-80.593	-0.173	0.057
-175.983	67.797	0.071	0.071
-174.969	800.000	0.165	0.450
-173.954	529.370	0.102	-0.238
-172.939	11.409	0.183	-0.138
-171.925	-19.020	-0.192	0.118
-170.910	265.989	-0.120	-0.206
-169.896	800.000	-0.034	-0.100
-168.881	-200.000	-0.014	0.089
-167.866	-200.000	-0.047	0.246
-166.852	536.433	0.123	-0.288
-165.837	-200.000	0.022	-0.397
-164.823	-115.768	0.186	0.034
-163.808	114.100	0.175	-0.209
-162.793	-30.201	0.104	0.058
-161.779	-200.000	0.003	0.099
-160.764	-198.252	-0.245	-0.001
-159.750	-8.356	-0.144	-0.096
-158.735	-95.250	0.222	0.059
-157.720	800.000	0.132	0.370
-156.706	-129.797	0.195	0.026
-155.691	-200.000	-0.043	0.236
-154.677	-170.630	-0.216	0.007
-153.662	-30.708	-0.357	-0.199
-152.647	490.863	0.029	0.065
-151.633	-9.353	0.194	-0.128
-150.618	-34.494	0.251	-0.135
-149.604	-2.681	-0.102	-0.070
-148.589	31.347	-0.188	-0.159
-147.574	-87.636	0.392	-0.116
-146.560	-200.000	-0.003	0.283
-145.545	-119.876	0.247	0.042
-144.531	800.000	-0.023	0.084
-143.516	-200.000	-0.004	-0.086
-142.502	-116.804	-0.176	-0.032
-141.487	80.634	-0.283	-0.301
-140.472	-200.000	-0.007	-0.053
-139.458	-200.000	0.026	0.127
-138.443	567.298	0.017	-0.041
-137.429	-0.362	0.274	-0.192
-136.414	-98.545	-0.166	-0.042
-135.399	800.000	0.043	-0.139
-134.385	-26.852	0.202	0.116
-133.370	389.862	0.126	0.257
-132.356	-163.267	0.273	0.013
-131.341	-128.143	0.177	0.025
-130.326	-103.957	0.176	-0.040
-129.312	800.000	-0.054	0.165
-128.297	261.832	0.126	0.214
-127.283	506.599	-0.237	-0.540
-126.268	800.000	0.067	-0.225
-125.253	-111.341	-0.090	0.018
-124.239	-119.205	-0.244	0.042
-123.224	-122.692	0.058	0.009
-122.210	-99.191	0.171	-0.043
-121.195	143.519	0.357	-0.467
