DTS Sentinel unit serial number:	SN413079Multiplexer serial number:	ORYXHardware model number:	OX4-SRSoftware version number:	ORYX F/W v4.00 Oryx Data Collector v3.7.2.0data status	okinstallation	princeton_trtdifferential loss correction	single-endedforward channel	channel 1reverse channel	N/Adate	2019/09/15time	15:10:35forward acquisition time	60.00reverse acquisition time	0.00gamma	496.2192k internal	0.2292k external	0.2292temperature offset calibration	0.9949default loss term (dB/km)	0.3790temperature slope calibration	1.0000multiplexer offset coefficient	1.0000multiplexer slope coefficient	1.0000fibre end	0.00T internal ref (°C)	40.50T ext. ref 1 (°C)	4.97T ext. ref 2 (°C)	37.90length (m)	temperature (°C)	Stokes	anti-Stokes-747.200	-38.618	0.166	0.090
-746.185	-200.000	-0.024	0.208
-745.171	-200.000	0.025	0.173
-744.156	-200.000	-0.023	0.279
-743.142	679.175	0.019	0.051
-742.127	-200.000	0.001	0.267
-741.112	-53.694	0.238	0.111
-740.098	-71.965	-0.333	0.127
-739.083	-200.000	-0.036	-0.252
-738.069	-50.155	-0.333	0.161
-737.054	-74.275	0.200	-0.074
-736.039	-200.000	0.149	0.000
-735.025	133.161	0.177	0.233
-734.010	441.837	-0.071	0.160
-732.996	146.906	-0.186	-0.257
-731.981	-200.000	0.038	0.214
-730.966	-200.000	-0.058	-0.281
-729.952	-121.196	-0.108	-0.019
-728.937	-200.000	-0.047	-0.330
-727.923	-75.998	-0.078	-0.028
-726.908	-182.766	0.128	0.002
-725.894	8.989	-0.030	0.023
-724.879	-110.218	-0.212	0.045
-723.864	16.018	-0.256	-0.206
-722.850	-92.373	0.117	0.034
-721.835	800.000	-0.070	-0.268
-720.821	-200.000	-0.170	0.001
-719.806	182.367	0.165	-0.248
-718.791	-200.000	0.010	-0.146
-717.777	78.586	0.254	0.278
-716.762	-7.839	0.206	-0.142
-715.748	71.797	-0.067	-0.071
-714.733	16.535	-0.218	-0.176
-713.718	50.876	0.078	0.075
-712.704	-133.403	-0.217	0.028
-711.689	-200.000	-0.069	0.367
-710.675	-56.167	0.190	0.087
-709.660	-137.412	0.408	-0.047
-708.645	-120.679	0.180	0.031
-707.631	-80.684	-0.310	0.105
-706.616	800.000	-0.025	-0.104
-705.602	-43.710	-0.182	-0.094
-704.587	-55.748	-0.074	-0.034
-703.572	16.922	0.193	0.156
-702.558	-200.000	-0.051	-0.323
-701.543	92.899	-0.233	0.269
-700.529	-7.756	0.244	-0.168
-699.514	196.186	-0.080	-0.125
-698.499	29.134	0.208	0.180
-697.485	-96.086	0.169	0.046
-696.470	-149.146	-0.199	0.016
-695.456	409.369	0.101	0.218
-694.441	800.000	-0.038	-0.135
-693.426	116.411	-0.089	0.111
-692.412	-200.000	0.018	-0.125
-691.397	-200.000	-0.028	0.134
-690.383	-200.000	-0.001	0.125
-689.368	-8.113	-0.488	-0.336
-688.354	190.226	-0.084	0.128
-687.339	116.802	-0.020	0.025
-686.324	-200.000	0.011	-0.394
-685.310	-133.306	-0.447	0.058
-684.295	-108.227	-0.102	-0.022
-683.281	-92.898	0.093	0.026
-682.266	800.000	-0.116	0.408
-681.251	-166.064	-0.276	-0.012
-680.237	97.191	-0.189	0.222
-679.222	-91.812	0.130	0.038
-678.208	-200.000	-0.044	-0.270
-677.193	-137.012	-0.118	-0.014
-676.178	466.255	0.120	-0.274
-675.164	41.843	-0.244	-0.225
-674.149	-118.849	-0.289	-0.052
-673.135	174.357	0.098	-0.145
-672.120	456.794	0.151	-0.343
-671.105	586.427	-0.018	0.045
-670.091	232.425	-0.072	0.120
-669.076	-64.107	-0.126	-0.053
-668.062	153.537	-0.168	-0.234
-667.047	172.696	0.147	0.216
-666.032	72.921	-0.123	-0.132
-665.018	-101.108	-0.076	-0.019
-664.003	-200.000	-0.026	0.164
-662.989	-152.682	0.096	-0.007
-661.974	108.806	0.143	-0.174
-660.959	-112.462	0.164	0.033
-659.945	-51.661	-0.249	-0.118
-658.930	-200.000	-0.066	-0.300
-657.916	32.225	0.283	0.249
-656.901	-111.171	-0.313	-0.065
-655.886	77.885	-0.086	-0.094
-654.872	-83.642	0.114	0.037
-653.857	-122.095	0.269	0.045
-652.843	-149.742	0.224	-0.018
-651.828	247.972	-0.160	0.276
-650.814	-200.000	-0.051	0.246
-649.799	-55.744	-0.159	-0.072
-648.784	-77.503	-0.162	-0.057
-647.770	4.990	0.058	-0.044
-646.755	82.191	0.126	0.139
-645.741	-179.331	-0.190	0.004
-644.726	112.191	0.102	-0.125
-643.711	6.873	0.315	-0.240
-642.697	-71.181	-0.126	0.048
-641.682	349.953	-0.016	0.031
-640.668	800.000	0.050	-0.187
-639.653	-200.000	0.002	0.075
-638.638	500.776	0.033	0.077
-637.624	-112.552	-0.129	-0.026
-636.609	-53.026	0.145	-0.068
-635.595	504.426	-0.063	0.149
-634.580	422.361	-0.147	-0.322
-633.565	-150.392	-0.377	0.030
-632.551	52.503	0.081	-0.079
-631.536	-95.981	0.072	-0.020
-630.522	-200.000	-0.432	-0.001
-629.507	496.427	-0.035	-0.082
-628.492	-112.559	-0.132	0.027
-627.478	62.796	0.161	0.164
-626.463	-0.545	-0.201	0.146
-625.449	-61.540	0.262	0.112
-624.434	-78.144	0.202	-0.071
-623.419	71.074	0.241	0.254
-622.405	-111.132	0.321	-0.067
-621.390	5.940	-0.364	-0.275
-620.376	-200.000	-0.043	-0.442
-619.361	358.966	-0.172	-0.350
-618.346	-45.576	0.167	0.084
-617.332	428.467	0.113	0.250
-616.317	-83.071	-0.065	-0.021
-615.303	62.297	-0.042	0.043
-614.288	-200.000	-0.028	0.158
-613.273	-69.569	-0.442	0.172
-612.259	-200.000	-0.025	0.126
-611.244	-38.768	0.246	-0.132
-610.230	-200.000	-0.007	-0.225
-609.215	51.138	-0.276	-0.267
-608.201	-110.055	-0.058	0.012
-607.186	-132.029	-0.228	-0.030
-606.171	603.428	0.131	-0.331
-605.157	155.977	-0.240	0.337
-604.142	-200.000	0.045	0.377
-603.128	161.171	0.107	0.152
-602.113	14.422	0.118	0.094
-601.098	-200.000	0.028	0.187
-600.084	-118.170	0.190	-0.034
-599.069	237.637	-0.252	-0.425
-598.055	-47.935	0.058	-0.028
-597.040	-200.000	0.003	0.106
-596.025	6.650	-0.185	0.140
-595.011	151.299	-0.232	-0.321
-593.996	117.983	-0.119	0.149
-592.982	-87.270	0.145	-0.045
-591.967	26.725	-0.062	-0.053
-590.952	245.519	-0.028	0.047
-589.938	52.221	0.182	0.176
-588.923	-200.000	0.089	0.523
-587.909	-200.000	0.045	-0.228
-586.894	-142.912	-0.024	-0.002
-585.879	14.793	-0.105	0.083
-584.865	-200.000	-0.006	0.213
-583.850	674.266	-0.070	-0.186
-582.836	800.000	0.085	-0.347
-581.821	142.888	-0.188	0.255
-580.806	-154.676	-0.130	-0.009
-579.792	800.000	0.035	-0.116
-578.777	212.195	-0.146	-0.235
-577.763	-200.000	-0.006	0.344
-576.748	-123.931	0.168	0.027
-575.733	92.038	0.111	0.127
-574.719	-98.059	0.102	0.027
-573.704	-53.552	-0.089	-0.041
-572.690	-91.726	0.271	0.078
-571.675	-200.000	0.012	-0.218
-570.661	334.280	-0.039	-0.076
-569.646	-65.288	0.357	0.146
-568.631	800.000	-0.088	-0.330
-567.617	8.054	-0.173	0.132
-566.602	800.000	0.025	-0.111
-565.588	-36.544	-0.057	0.031
-564.573	113.831	-0.128	0.158
-563.558	91.628	0.139	0.159
-562.544	-138.654	-0.263	-0.029
-561.529	800.000	0.050	0.147
-560.515	271.186	0.106	0.190
-559.500	55.687	-0.368	-0.363
-558.485	144.142	0.022	-0.030
-557.471	6.401	0.032	0.024
-556.456	-117.521	0.296	-0.054
-555.442	-167.599	-0.133	0.005
-554.427	-150.071	0.042	-0.003
-553.412	-200.000	0.007	-0.099
-552.398	102.224	-0.086	0.102
-551.383	-200.000	0.035	0.250
-550.369	228.731	-0.103	-0.171
-549.354	800.000	0.074	0.270
-548.339	-40.684	-0.151	-0.079
-547.325	649.550	0.116	0.301
-546.310	800.000	0.042	-0.146
-545.296	408.634	-0.144	-0.309
-544.281	-4.806	-0.027	0.019
-543.266	88.101	-0.101	-0.114
-542.252	-164.534	-0.270	0.012
-541.237	267.701	0.085	0.151
-540.223	-78.763	0.126	-0.044
-539.208	96.209	-0.266	0.309
-538.193	215.225	-0.082	-0.132
-537.179	800.000	-0.023	-0.086
-536.164	-68.365	0.300	0.118
-535.150	131.631	0.145	-0.189
-534.135	-200.000	0.015	0.301
-533.121	-127.011	0.127	0.019
-532.106	-45.266	-0.136	0.069
-531.091	47.436	0.161	0.153
-530.077	-109.025	-0.299	-0.065
-529.062	-4.209	-0.180	0.126
-528.048	-33.748	0.215	-0.121
-527.033	-165.430	-0.173	-0.008
-526.018	-145.350	-0.414	-0.038
-525.004	-14.124	-0.203	-0.133
-523.989	53.890	0.204	0.199
-522.975	149.090	-0.164	-0.225
-521.960	800.000	0.094	-0.269
-520.945	-32.499	-0.092	-0.052
-519.931	-200.000	-0.016	0.360
-518.916	99.964	0.139	-0.163
-517.902	-200.000	-0.014	-0.209
-516.887	-10.073	-0.107	0.072
-515.872	-159.811	-0.101	0.006
-514.858	-200.000	-0.034	-0.184
-513.843	-200.000	0.021	-0.098
-512.829	-200.000	-0.004	-0.069
-511.814	-70.895	0.141	-0.054
-510.799	-200.000	-0.016	-0.110
-509.785	-95.618	0.254	0.069
-508.770	-51.013	-0.490	-0.233
-507.756	253.629	-0.223	-0.386
-506.741	275.247	0.095	0.171
-505.726	-133.652	-0.103	-0.013
-504.712	-9.602	0.159	-0.108
-503.697	144.496	-0.101	0.137
-502.683	113.041	-0.167	-0.205
-501.668	55.150	-0.300	-0.294
-500.653	-46.083	0.146	-0.073
-499.639	800.000	0.034	-0.099
-498.624	30.258	0.168	-0.145
-497.610	-102.529	-0.042	0.010
-496.595	-200.000	0.010	0.375
-495.581	800.000	-0.099	0.279
-494.566	-28.436	-0.089	0.052
-493.551	-104.163	0.265	-0.063
-492.537	594.792	0.070	-0.175
-491.522	-111.618	-0.346	-0.071
-490.508	-69.970	-0.157	-0.061
-489.493	113.879	-0.107	0.132
-488.478	64.166	0.166	-0.169
-487.464	6.807	-0.056	-0.042
-486.449	153.280	-0.227	0.315
-485.435	-7.181	-0.139	-0.095
-484.420	56.123	-0.123	0.121
-483.405	439.567	-0.073	0.161
-482.391	800.000	0.051	-0.172
-481.376	-5.405	0.202	0.141
-480.362	-26.649	-0.226	0.134
-479.347	310.685	-0.032	-0.061
-478.332	38.422	-0.399	-0.360
-477.318	-3.932	0.283	-0.199
-476.303	765.401	-0.077	0.211
-475.289	-78.092	0.021	-0.007
-474.274	800.000	0.116	-0.448
-473.259	-0.101	0.116	0.083
-472.245	100.837	-0.042	0.049
-471.230	-1.899	-0.366	0.261
-470.216	-200.000	-0.009	0.099
-469.201	-200.000	0.073	-0.000
-468.186	48.671	-0.257	0.244
-467.172	-42.887	0.095	-0.049
-466.157	10.685	-0.081	0.063
-465.143	800.000	0.123	-0.431
-464.128	800.000	0.063	-0.181
-463.113	800.000	0.076	-0.234
-462.099	47.411	-0.136	-0.128
-461.084	800.000	-0.072	0.210
-460.070	228.572	-0.160	-0.265
-459.055	-30.206	-0.098	-0.056
-458.040	74.645	-0.143	0.152
-457.026	-124.581	-0.216	-0.034
-456.011	-101.540	0.153	0.038
-454.997	-112.507	0.142	-0.029
-453.982	-37.649	0.106	-0.057
-452.968	-200.000	0.003	-0.140
-451.953	97.814	0.033	0.039
-450.938	666.929	0.042	-0.111
-449.924	195.849	-0.194	0.298
-448.909	-167.608	-0.259	-0.010
-447.895	-59.230	-0.169	-0.074
-446.880	333.311	0.122	0.238
-445.865	-85.476	-0.280	-0.088
-444.851	136.306	0.263	-0.347
-443.836	-51.176	0.215	-0.102
-442.822	-200.000	-0.008	-0.237
-441.807	-44.219	0.168	0.085
-440.792	800.000	-0.065	0.259
-439.778	-26.308	0.180	0.107
-438.763	167.658	0.154	0.222
-437.749	280.647	-0.087	0.158
-436.734	109.599	-0.201	0.243
-435.719	-24.681	-0.137	0.083
-434.705	800.000	0.045	0.175
-433.690	-150.514	0.087	0.007
-432.676	4.259	-0.061	-0.045
-431.661	247.950	-0.088	-0.151
-430.646	-126.410	0.292	-0.044
-429.632	20.507	0.268	-0.219
-428.617	17.393	0.078	0.063
-427.603	-200.000	-0.024	0.119
-426.588	724.895	-0.063	-0.171
-425.573	678.640	-0.106	0.278
-424.559	-40.618	0.227	-0.119
-423.544	360.844	0.095	0.192
-422.530	298.024	-0.014	-0.026
-421.515	-100.081	-0.300	0.076
-420.500	-186.101	-0.330	0.005
-419.486	-200.000	-0.024	0.161
-418.471	-41.724	0.351	-0.182
-417.457	-200.000	0.050	0.261
-416.442	-200.000	-0.022	0.134
-415.428	22.176	-0.035	-0.028
-414.413	-36.603	-0.171	-0.093
-413.398	-200.000	0.011	-0.365
-412.384	63.082	0.101	-0.102
-411.369	4.659	0.272	0.202
-410.355	495.348	-0.156	0.361
-409.340	14.635	0.233	-0.184
-408.325	335.587	-0.104	0.204
-407.311	800.000	0.129	-0.364
-406.296	-35.094	-0.099	0.055
-405.282	318.979	0.117	-0.224
-404.267	-27.625	-0.067	0.039
-403.252	-93.621	0.302	-0.084
-402.238	-42.029	-0.156	-0.081
-401.223	-200.000	-0.028	-0.168
-400.209	795.923	0.004	0.011
-399.194	-72.990	-0.139	0.052
-398.179	349.234	0.068	0.136
-397.165	-158.503	0.290	-0.017
-396.150	93.028	-0.104	-0.119
-395.136	-200.000	0.000	-0.187
-394.121	-131.721	0.219	-0.029
-393.106	21.295	-0.202	-0.166
-392.092	-200.000	0.012	0.175
-391.077	800.000	0.099	-0.378
-390.063	-200.000	-0.046	-0.339
-389.048	-200.000	0.008	-0.107
-388.033	271.999	-0.036	-0.064
-387.019	-103.291	-0.408	0.097
-386.004	-153.172	-0.355	-0.025
-384.990	-116.073	0.217	0.041
-383.975	354.244	0.119	-0.238
-382.960	120.455	-0.141	0.177
-381.946	-95.280	-0.110	-0.030
-380.931	78.073	0.084	-0.090
-379.917	800.000	0.064	0.215
-378.902	-200.000	0.001	-0.103
-377.888	56.098	-0.192	0.188
-376.873	-129.444	0.208	0.029
-375.858	-200.000	0.026	0.237
-374.844	-17.507	0.238	-0.151
-373.829	-82.042	0.059	-0.019
-372.815	-81.072	-0.099	-0.033
-371.800	99.704	0.107	-0.125
-370.785	-136.115	-0.062	0.007
-369.771	-5.551	0.450	0.311
-368.756	8.716	0.121	-0.092
-367.742	63.396	-0.047	0.047
-366.727	-200.000	0.004	0.169
-365.712	-125.644	0.076	-0.012
-364.698	-37.814	0.280	-0.150
-363.683	-62.158	0.107	-0.045
-362.669	186.612	-0.110	0.165
-361.654	-79.199	-0.096	-0.033
-360.639	248.572	0.080	-0.136
-359.625	3.611	0.131	0.097
-358.610	19.585	-0.066	0.053
-357.596	251.406	-0.042	-0.072
-356.581	-15.815	0.080	-0.052
-355.566	77.046	0.084	-0.090
-354.552	269.826	0.080	0.141
-353.537	376.155	-0.051	0.104
-352.523	-100.092	0.194	-0.049
-351.508	518.905	-0.053	0.125
-350.493	379.458	-0.086	-0.178
-349.479	184.930	-0.157	-0.235
-348.464	277.695	-0.074	-0.134
-347.450	207.577	0.102	0.160
-346.435	-80.483	-0.191	0.064
-345.420	-5.631	0.045	0.031
-344.406	19.799	-0.120	-0.097
-343.391	-93.086	-0.097	0.027
-342.377	800.000	-0.077	0.292
-341.362	36.612	0.133	0.119
-340.348	22.907	0.075	0.062
-339.333	94.040	0.233	-0.266
-338.318	490.772	-0.119	0.276
-337.304	-3.470	0.052	0.036
-336.289	-200.000	-0.002	-0.094
-335.275	8.139	-0.185	-0.140
-334.260	49.620	-0.341	0.324
-333.245	-200.000	-0.010	0.082
-332.231	800.000	-0.113	-0.397
-331.216	-188.452	0.072	-0.001
-330.202	753.409	-0.015	-0.040
-329.187	800.000	0.059	0.168
-328.172	-50.110	0.083	-0.040
-327.158	-99.051	-0.216	0.055
-326.143	800.000	0.051	-0.222
-325.129	12.443	-0.118	-0.091
-324.114	-85.652	-0.084	-0.026
-323.099	194.839	-0.085	0.130
-322.085	-96.408	-0.057	-0.015
-321.070	800.000	-0.040	0.137
-320.056	800.000	-0.051	-0.173
-319.041	465.303	-0.060	0.136
-318.026	4.189	-0.139	0.102
-317.012	-103.238	-0.194	-0.046
-315.997	63.450	-0.069	0.069
-314.983	-54.388	0.214	-0.098
-313.968	800.000	0.041	0.114
-312.953	-148.807	0.031	-0.003
-311.939	-93.152	-0.225	-0.063
-310.924	-200.000	0.019	-0.121
-309.910	-200.000	-0.012	-0.192
-308.895	668.579	0.083	-0.216
-307.880	-14.592	0.032	0.021
-306.866	124.034	-0.208	0.263
-305.851	21.810	0.195	0.160
-304.837	-94.734	-0.132	-0.036
-303.822	-200.000	-0.021	0.138
-302.807	113.570	0.104	0.128
-301.793	-85.681	-0.230	0.072
-300.778	-118.186	0.118	0.021
-299.764	127.581	0.059	0.075
-298.749	-10.168	-0.072	-0.048
-297.735	-200.000	0.016	0.117
-296.720	26.251	0.135	0.113
-295.705	2.383	0.155	-0.113
-294.691	40.390	0.185	0.168
-293.676	-124.371	-0.486	-0.076
-292.662	-75.386	0.185	0.066
-291.647	47.763	0.108	-0.102
-290.632	47.316	-0.024	-0.022
-289.618	-18.879	-0.098	-0.061
-288.603	162.880	0.129	-0.183
-287.589	-125.215	0.375	0.058
-286.574	-86.721	-0.169	0.052
-285.559	182.928	-0.091	0.135
-284.545	800.000	0.073	0.218
-283.530	-87.758	0.211	-0.064
-282.516	-200.000	-0.083	-0.416
-281.501	-167.166	0.134	-0.005
-280.486	-200.000	-0.019	-0.159
-279.472	800.000	0.032	0.133
-278.457	84.495	0.244	-0.269
-277.443	-39.671	-0.174	0.092
-276.428	-75.241	-0.244	-0.088
-275.413	-19.266	0.025	-0.015
-274.399	92.385	0.180	-0.204
-273.384	62.399	0.227	0.228
-272.370	-200.000	0.023	-0.201
-271.355	-200.000	0.001	-0.026
-270.340	-135.706	0.222	0.026
-269.326	166.972	0.100	0.142
-268.311	800.000	0.080	-0.242
-267.297	102.468	-0.026	-0.030
-266.282	96.211	0.266	0.306
-265.267	-200.000	0.022	-0.237
-264.253	-153.751	0.332	-0.023
-263.238	-40.056	0.199	0.104
-262.224	314.157	0.050	0.095
-261.209	20.404	0.146	0.119
-260.195	-29.655	0.434	-0.249
-259.180	-159.444	0.091	0.005
-258.165	-79.443	-0.074	0.025
-257.151	-151.641	0.116	-0.009
-256.136	122.801	-0.156	0.196
-255.122	-7.857	0.195	0.132
-254.107	800.000	0.081	-0.313
-253.092	155.910	-0.142	-0.197
-252.078	120.792	-0.201	-0.251
-251.063	800.000	-0.025	0.072
-250.049	439.296	-0.065	-0.143
-249.034	49.985	0.097	0.092
-248.019	0.636	-0.202	-0.145
-247.005	-44.273	0.289	0.145
-245.990	-53.683	0.267	-0.122
-244.976	37.201	0.219	0.195
-243.961	-73.445	0.209	0.077
-242.946	370.982	-0.025	0.052
-241.932	-109.177	-0.364	0.078
-240.917	-133.712	-0.177	-0.022
-239.903	624.808	-0.132	0.334
-238.888	800.000	-0.017	-0.049
-237.873	354.180	0.093	0.185
-236.859	186.003	0.177	0.264
-235.844	800.000	0.042	0.151
-234.830	518.373	0.022	0.051
-233.815	-54.091	-0.201	-0.092
-232.800	-174.639	0.400	-0.011
-231.786	-67.310	0.272	0.107
-230.771	89.372	-0.036	0.040
-229.757	89.145	0.283	0.316
-228.742	-6.575	-0.079	-0.054
-227.727	-9.741	0.084	-0.056
-226.713	-132.165	0.231	-0.030
-225.698	-69.001	-0.398	-0.154
-224.684	800.000	0.009	0.030
-223.669	581.890	0.052	-0.128
-222.655	-82.262	-0.198	-0.065
-221.640	72.614	0.154	0.161
-220.625	210.401	-0.092	0.145
-219.611	-22.238	0.236	-0.143
-218.596	-1.702	-0.204	0.144
-217.582	-14.301	0.131	-0.085
-216.567	24.945	0.156	0.129
-215.552	-200.000	0.056	0.362
-214.538	-77.783	0.105	0.036
-213.523	173.578	0.125	-0.180
-212.509	-200.000	0.035	-0.358
-211.494	-102.380	-0.237	-0.057
-210.479	30.377	-0.194	0.166
-209.465	-154.465	0.491	0.033
-208.450	108.523	-0.134	0.160
-207.436	-200.000	-0.021	0.161
-206.421	-200.000	0.009	-0.143
-205.406	-99.911	0.300	-0.075
-204.392	800.000	0.065	0.277
-203.377	89.706	0.064	0.071
-202.363	-86.293	-0.082	-0.025
-201.348	-116.348	-0.244	-0.045
-200.333	-200.000	0.021	-0.181
-199.319	-57.406	0.170	0.075
-198.304	-113.323	0.179	0.035
-197.290	73.665	-0.091	0.096
-196.275	-55.171	-0.046	0.021
-195.260	137.156	-0.052	-0.068
-194.246	800.000	0.051	-0.153
-193.231	-126.899	-0.210	-0.031
-192.217	-200.000	-0.005	0.109
-191.202	-45.360	-0.484	0.240
-190.187	-200.000	0.001	-0.241
-189.173	135.961	0.221	-0.289
-188.158	75.450	-0.033	0.035
-187.144	-200.000	-0.001	-0.175
-186.129	-46.966	-0.161	0.079
-185.114	78.328	-0.187	0.200
-184.100	-10.243	0.215	0.143
-183.085	-200.000	-0.048	0.513
-182.071	-19.752	0.302	0.187
-181.056	117.408	0.054	0.066
-180.042	679.699	-0.156	0.406
-179.027	-200.000	-0.013	0.142
-178.012	-64.613	0.345	0.140
-176.998	-200.000	0.014	-0.220
-175.983	-55.285	0.085	-0.038
-174.969	-200.000	-0.016	0.161
-173.954	800.000	-0.104	0.340
-172.939	130.276	0.263	-0.338
-171.925	632.453	0.071	-0.179
-170.910	-200.000	0.194	-0.000
-169.896	118.134	-0.118	0.146
-168.881	-200.000	0.006	0.132
-167.866	-200.000	0.010	-0.100
-166.852	-4.628	-0.086	0.060
-165.837	-62.578	-0.121	-0.050
-164.823	51.717	0.101	-0.096
-163.808	648.712	-0.147	-0.375
-162.793	745.506	-0.161	-0.433
-161.779	150.261	0.152	-0.207
-160.764	-200.000	0.012	0.196
-159.750	33.044	-0.189	-0.164
-158.735	-200.000	0.035	0.565
-157.720	-147.904	0.286	-0.024
-156.706	800.000	-0.069	-0.258
-155.691	-200.000	-0.071	0.348
-154.677	-93.608	0.185	0.051
-153.662	-200.000	0.027	-0.158
-152.647	800.000	-0.132	0.413
-151.633	59.000	0.117	-0.115
-150.618	-114.499	0.367	0.071
-149.604	4.894	-0.178	0.131
-148.589	-75.230	-0.264	-0.094
-147.574	426.652	0.175	0.377
-146.560	-89.925	0.125	0.037
-145.545	800.000	-0.119	-0.332
-144.531	-140.261	-0.369	0.039
-143.516	364.995	0.035	0.070
-142.502	2.010	-0.340	0.245
-141.487	-107.543	-0.287	-0.063
-140.472	-143.137	0.111	0.011
-139.458	396.351	-0.176	0.368
-138.443	-22.608	0.125	0.076
-137.429	41.975	-0.100	-0.091
-136.414	-125.317	0.176	0.027
-135.399	-200.000	-0.047	0.308
-134.385	506.330	-0.145	0.336
-133.370	800.000	0.072	0.253
-132.356	-67.170	0.138	-0.054
-131.341	-165.382	-0.126	0.006
-130.326	41.627	0.038	0.034
-129.312	-54.490	-0.185	-0.084
-128.297	131.555	-0.088	0.113
-127.283	-200.000	-0.013	-0.063
-126.268	-25.043	0.176	0.105
-125.253	-174.593	-0.187	-0.005
-124.239	-200.000	-0.004	-0.166
-123.224	800.000	-0.065	-0.252
-122.210	398.490	0.165	0.344
-121.195	-200.000	-0.050	0.245
