DTS Sentinel unit serial number:	SN413079Multiplexer serial number:	ORYXHardware model number:	OX4-SRSoftware version number:	ORYX F/W v4.00 Oryx Data Collector v3.7.2.0data status	okinstallation	princeton_trtdifferential loss correction	single-endedforward channel	channel 1reverse channel	N/Adate	2019/09/13time	21:58:35forward acquisition time	60.00reverse acquisition time	0.00gamma	496.2192k internal	0.2331k external	0.2331temperature offset calibration	1.0084default loss term (dB/km)	0.3790temperature slope calibration	1.0000multiplexer offset coefficient	1.0000multiplexer slope coefficient	1.0000fibre end	0.00T internal ref (°C)	28.00T ext. ref 1 (°C)	3.14T ext. ref 2 (°C)	22.76length (m)	temperature (°C)	Stokes	anti-Stokes-747.200	-151.191	-0.092	0.007
-746.185	-200.000	0.026	-0.158
-745.171	-142.169	0.138	0.014
-744.156	-200.000	0.006	0.172
-743.142	241.928	0.194	0.326
-742.127	345.002	0.041	-0.081
-741.112	-27.483	0.246	-0.144
-740.098	148.683	-0.305	0.415
-739.083	-200.000	-0.082	0.409
-738.069	-4.210	-0.298	0.208
-737.054	-200.000	-0.016	0.149
-736.039	-200.000	0.003	-0.135
-735.025	-139.065	0.488	0.053
-734.010	-200.000	-0.021	0.198
-732.996	116.289	0.217	-0.267
-731.981	-132.658	0.047	0.006
-730.966	800.000	0.017	0.056
-729.952	-200.000	-0.039	-0.210
-728.937	-151.612	-0.362	0.027
-727.923	-30.787	-0.193	-0.110
-726.908	-7.101	-0.112	0.077
-725.894	-99.696	0.254	-0.064
-724.879	-186.658	-0.211	-0.003
-723.864	348.479	0.041	0.081
-722.850	24.618	-0.339	0.282
-721.835	-200.000	0.011	0.197
-720.821	17.970	0.107	0.085
-719.806	-200.000	0.089	-0.414
-718.791	-200.000	0.022	-0.269
-717.777	49.790	-0.191	-0.181
-716.762	-170.724	-0.265	0.009
-715.748	534.143	-0.108	-0.256
-714.733	532.932	0.192	-0.457
-713.718	235.915	0.085	-0.141
-712.704	-200.000	0.019	-0.557
-711.689	-0.585	0.124	-0.088
-710.675	-200.000	-0.046	0.225
-709.660	-34.762	-0.156	0.086
-708.645	-135.360	0.141	0.017
-707.631	74.778	-0.166	-0.175
-706.616	-55.162	0.174	-0.078
-705.602	68.319	0.140	-0.144
-704.587	202.466	-0.026	-0.041
-703.572	-82.149	-0.205	-0.067
-702.558	82.857	0.131	0.143
-701.543	-200.000	-0.042	-0.288
-700.529	200.920	0.147	0.228
-699.514	234.531	0.097	0.161
-698.499	111.772	-0.056	0.068
-697.485	160.016	0.041	0.058
-696.470	-5.598	0.422	-0.291
-695.456	62.714	-0.046	-0.046
-694.441	-137.977	0.355	0.040
-693.426	-144.059	0.243	-0.023
-692.412	421.870	-0.117	-0.253
-691.397	-116.477	-0.181	0.034
-690.383	-161.655	-0.541	-0.028
-689.368	142.451	0.092	0.122
-688.354	-72.347	-0.320	-0.119
-687.339	-139.074	-0.204	0.022
-686.324	-15.902	-0.237	0.151
-685.310	32.968	0.029	0.025
-684.295	-90.909	-0.225	-0.065
-683.281	-23.323	0.217	-0.131
-682.266	146.103	0.130	-0.175
-681.251	-92.603	0.370	0.104
-680.237	-19.474	-0.066	-0.041
-679.222	361.323	-0.198	-0.398
-678.208	-200.000	0.108	-0.509
-677.193	-120.667	-0.144	-0.025
-676.178	-3.995	-0.127	0.088
-675.164	-46.525	-0.403	-0.198
-674.149	-200.000	-0.018	-0.311
-673.135	88.110	-0.271	-0.301
-672.120	106.830	0.026	-0.031
-671.105	26.053	0.117	0.098
-670.091	-41.909	-0.237	0.122
-669.076	-87.277	-0.094	-0.029
-668.062	-200.000	-0.103	-0.516
-667.047	-200.000	0.010	-0.102
-666.032	-38.463	-0.065	-0.035
-665.018	-9.772	-0.371	0.248
-664.003	-128.169	0.133	0.019
-662.989	-200.000	-0.001	0.138
-661.974	-200.000	-0.076	-0.401
-660.959	726.774	0.107	0.287
-659.945	800.000	-0.048	-0.170
-658.930	-149.503	0.183	-0.015
-657.916	-20.757	-0.088	0.054
-656.901	800.000	0.050	0.192
-655.886	-53.176	-0.201	-0.093
-654.872	-134.848	-0.252	0.031
-653.857	-200.000	0.042	-0.383
-652.843	800.000	0.083	0.242
-651.828	-200.000	-0.021	-0.098
-650.814	-95.322	0.392	0.106
-649.799	-66.464	0.128	0.051
-648.784	-120.357	0.296	-0.050
-647.770	-67.385	0.271	0.107
-646.755	800.000	-0.135	-0.468
-645.741	157.696	0.030	0.042
-644.726	445.974	0.107	0.236
-643.711	320.998	0.187	0.356
-642.697	170.859	-0.169	0.243
-641.682	7.443	-0.204	-0.153
-640.668	313.411	0.087	-0.164
-639.653	-200.000	-0.022	-0.116
-638.638	62.941	0.077	-0.077
-637.624	-20.212	0.118	-0.073
-636.609	-2.189	-0.132	0.093
-635.595	336.553	0.151	0.293
-634.580	-111.723	-0.270	-0.055
-633.565	44.798	0.271	0.250
-632.551	-79.264	-0.272	-0.092
-631.536	-31.639	-0.210	-0.118
-630.522	-200.000	-0.005	-0.267
-629.507	800.000	-0.079	-0.278
-628.492	-50.108	0.224	0.106
-627.478	-200.000	-0.057	0.297
-626.463	-200.000	-0.015	0.072
-625.449	0.622	-0.320	-0.229
-624.434	-200.000	-0.019	-0.120
-623.419	-55.572	-0.096	0.043
-622.405	20.020	0.029	-0.023
-621.390	4.289	-0.406	0.298
-620.376	-200.000	0.000	0.033
-619.361	-200.000	0.018	0.114
-618.346	-64.253	-0.075	0.030
-617.332	-128.095	0.257	0.037
-616.317	-18.375	-0.334	0.209
-615.303	359.989	-0.056	-0.113
-614.288	-18.073	-0.149	0.093
-613.273	-55.826	0.180	-0.081
-612.259	-40.702	-0.147	-0.076
-611.244	178.472	-0.293	0.428
-610.230	-68.574	-0.289	-0.112
-609.215	-89.623	-0.137	-0.040
-608.201	-21.865	0.272	-0.165
-607.186	53.804	-0.202	0.194
-606.171	225.604	-0.111	0.180
-605.157	-78.416	-0.082	-0.028
-604.142	192.937	-0.196	-0.296
-603.128	-102.300	-0.171	0.041
-602.113	0.935	-0.069	-0.050
-601.098	25.125	0.144	0.120
-600.084	215.467	0.082	-0.130
-599.069	800.000	-0.048	-0.149
-598.055	-111.159	-0.068	-0.014
-597.040	-100.234	0.216	-0.054
-596.025	-68.542	0.183	0.071
-595.011	143.885	-0.125	0.166
-593.996	-200.000	0.005	-0.110
-592.982	103.673	0.170	0.199
-591.967	-144.316	0.330	0.031
-590.952	800.000	-0.101	0.326
-589.938	-191.285	-0.335	0.003
-588.923	-200.000	0.044	-0.221
-587.909	800.000	-0.072	0.267
-586.894	430.987	0.132	-0.285
-585.879	-4.975	-0.244	-0.168
-584.865	-10.351	0.134	0.089
-583.850	-200.000	0.006	0.146
-582.836	800.000	0.011	-0.039
-581.821	49.962	-0.125	-0.118
-580.806	-16.486	-0.407	-0.258
-579.792	-16.208	0.249	-0.158
-578.777	34.406	-0.202	-0.176
-577.763	219.532	-0.115	-0.184
-576.748	-63.486	0.270	0.111
-575.733	-29.534	-0.055	0.031
-574.719	7.631	-0.167	-0.125
-573.704	68.751	0.238	-0.244
-572.690	-31.979	-0.346	-0.194
-571.675	30.927	-0.137	0.117
-570.661	-200.000	0.033	0.222
-569.646	-100.012	0.421	0.105
-568.631	-26.565	-0.104	-0.061
-567.617	800.000	0.079	-0.275
-566.602	800.000	0.067	-0.229
-565.588	43.986	-0.206	-0.188
-564.573	382.758	-0.131	-0.270
-563.558	-123.854	0.178	-0.028
-562.544	-129.394	-0.171	-0.024
-561.529	35.908	-0.058	-0.051
-560.515	422.182	0.133	0.286
-559.500	800.000	0.082	-0.236
-558.485	800.000	0.081	0.237
-557.471	-69.168	0.238	0.091
-556.456	-93.663	-0.231	-0.064
-555.442	18.258	-0.062	-0.049
-554.427	-200.000	0.008	-0.153
-553.412	800.000	0.002	0.008
-552.398	-61.827	-0.100	-0.042
-551.383	535.191	-0.016	0.039
-550.369	800.000	-0.077	0.269
-549.354	-87.955	-0.125	0.037
-548.339	595.925	-0.068	-0.169
-547.325	-200.000	0.005	0.037
-546.310	800.000	-0.090	0.267
-545.296	-34.799	0.278	-0.152
-544.281	263.206	0.071	0.123
-543.266	555.482	-0.088	0.211
-542.252	34.284	-0.370	0.322
-541.237	-53.384	0.246	-0.113
-540.223	800.000	0.040	-0.120
-539.208	-83.817	0.363	0.115
-538.193	39.531	-0.072	-0.065
-537.179	47.502	-0.130	0.121
-536.164	-141.964	-0.099	-0.010
-535.150	2.679	0.409	0.296
-534.135	-23.855	-0.264	-0.158
-533.121	153.098	-0.201	-0.275
-532.106	407.616	-0.179	-0.379
-531.091	-200.000	0.063	-0.435
-530.077	81.122	0.106	0.114
-529.062	354.173	-0.144	0.286
-528.048	-51.409	0.524	0.244
-527.033	-200.000	0.000	-0.332
-526.018	-111.474	-0.138	-0.028
-525.004	-113.105	0.058	0.011
-523.989	-141.573	-0.261	0.026
-522.975	-200.000	-0.013	0.353
-521.960	-98.086	0.235	-0.060
-520.945	-200.000	-0.039	0.173
-519.931	-200.000	0.016	-0.228
-518.916	153.899	-0.066	-0.090
-517.902	-200.000	-0.074	-0.433
-516.887	-24.253	-0.111	-0.066
-515.872	138.482	-0.124	-0.163
-514.858	800.000	0.063	0.184
-513.843	-50.581	0.122	-0.058
-512.829	434.181	-0.097	0.210
-511.814	-108.024	-0.202	0.044
-510.799	-79.350	-0.099	0.033
-509.785	265.704	0.208	0.361
-508.770	-65.988	-0.181	0.072
-507.756	-131.249	0.019	-0.003
-506.741	-101.366	-0.171	-0.042
-505.726	-21.623	0.250	0.152
-504.712	-72.668	0.203	-0.075
-503.697	-200.000	-0.011	-0.302
-502.683	-109.463	0.271	0.057
-501.668	-35.476	-0.189	0.102
-500.653	120.631	0.205	-0.254
-499.639	398.224	-0.037	-0.077
-498.624	108.266	0.269	-0.320
-497.610	44.270	0.186	0.170
-496.595	-200.000	0.044	0.252
-495.581	14.643	-0.133	-0.104
-494.566	800.000	-0.042	-0.147
-493.551	-200.000	-0.033	0.179
-492.537	-200.000	0.051	0.225
-491.522	317.947	0.129	0.243
-490.508	701.330	0.049	-0.130
-489.493	-200.000	0.001	0.102
-488.478	455.299	0.063	-0.140
-487.464	740.313	-0.095	0.255
-486.449	275.173	-0.149	-0.263
-485.435	154.165	-0.150	-0.205
-484.420	800.000	0.046	-0.143
-483.405	20.849	-0.354	-0.286
-482.391	-200.000	-0.062	-0.270
-481.376	-125.358	0.122	-0.019
-480.362	-144.325	-0.152	-0.014
-479.347	800.000	0.056	-0.178
-478.332	413.283	0.108	0.228
-477.318	-200.000	0.014	-0.351
-476.303	800.000	-0.079	0.272
-475.289	212.506	-0.082	0.128
-474.274	698.613	-0.154	0.403
-473.259	116.845	-0.084	0.102
-472.245	368.160	-0.081	-0.163
-471.230	-116.490	-0.011	0.002
-470.216	104.534	0.121	-0.142
-469.201	373.398	-0.042	0.086
-468.186	136.385	-0.025	-0.033
-467.172	-100.652	-0.213	0.052
-466.157	-15.610	0.299	0.190
-465.143	-38.762	-0.032	-0.017
-464.128	800.000	-0.052	0.153
-463.113	-81.569	0.334	0.109
-462.099	-200.000	-0.034	0.220
-461.084	331.395	0.106	-0.204
-460.070	643.686	0.063	-0.160
-459.055	-49.966	0.159	0.075
-458.040	-5.607	0.264	0.180
-457.026	800.000	0.084	-0.264
-456.011	-200.000	-0.062	0.311
-454.997	-61.570	-0.055	-0.023
-453.982	800.000	-0.070	0.261
-452.968	-60.481	0.402	-0.170
-451.953	-4.193	0.302	0.208
-450.938	-82.754	-0.110	0.035
-449.924	-136.197	-0.114	-0.013
-448.909	97.029	-0.207	0.237
-447.895	-47.233	0.094	-0.045
-446.880	-88.255	-0.075	0.022
-445.865	126.681	0.005	0.006
-444.851	-131.366	0.284	0.037
-443.836	306.081	-0.241	-0.446
-442.822	-86.315	0.064	0.019
-441.807	-200.000	-0.024	-0.492
-440.792	-185.932	-0.203	-0.003
-439.778	-23.205	-0.073	-0.044
-438.763	-44.604	-0.111	0.055
-437.749	-200.000	-0.054	0.303
-436.734	758.623	0.067	-0.181
-435.719	81.376	-0.176	-0.189
-434.705	-19.085	-0.300	0.185
-433.690	-98.912	-0.124	-0.031
-432.676	320.823	-0.253	0.478
-431.661	51.748	-0.122	0.115
-430.646	-47.645	0.161	-0.078
-429.632	-117.844	-0.366	0.065
-428.617	444.309	0.196	-0.426
-427.603	-167.083	0.081	0.003
-426.588	237.279	0.085	-0.140
-425.573	-10.007	-0.125	0.082
-424.559	800.000	0.122	0.363
-423.544	800.000	-0.032	0.090
-422.530	98.921	-0.070	0.080
-421.515	642.768	-0.022	-0.056
-420.500	-200.000	-0.031	0.318
-419.486	417.378	-0.052	0.111
-418.471	154.062	-0.047	-0.064
-417.457	-34.754	0.158	-0.086
-416.442	-200.000	0.035	-0.197
-415.428	44.932	0.131	0.120
-414.413	-84.761	0.143	-0.045
-413.398	-17.954	-0.043	-0.027
-412.384	191.370	-0.091	0.136
-411.369	-85.042	0.231	-0.072
-410.355	123.601	0.058	-0.072
-409.340	-165.126	-0.209	-0.009
-408.325	-35.365	0.117	0.063
-407.311	-178.973	0.239	0.005
-406.296	-84.442	-0.070	0.022
-405.282	37.538	-0.179	-0.158
-404.267	-47.912	0.047	-0.023
-403.252	-200.000	-0.016	-0.327
-402.238	-42.008	0.193	-0.098
-401.223	-200.000	-0.011	0.098
-400.209	-153.294	-0.315	0.022
-399.194	800.000	-0.047	0.168
-398.179	763.632	-0.040	0.108
-397.165	141.991	-0.097	-0.128
-396.150	-200.000	-0.051	0.312
-395.136	46.478	-0.091	-0.084
-394.121	-200.000	0.163	-0.000
-393.106	-10.834	0.301	0.198
-392.092	800.000	-0.025	-0.098
-391.077	800.000	-0.050	0.180
-390.063	-112.134	0.165	-0.033
-389.048	-168.580	0.122	-0.005
-388.033	166.499	0.096	-0.134
-387.019	-96.282	0.177	-0.046
-386.004	484.465	-0.029	0.066
-384.990	417.302	-0.025	-0.052
-383.975	-30.974	-0.079	-0.044
-382.960	113.969	0.187	-0.225
-381.946	168.676	0.055	-0.077
-380.931	337.118	0.186	0.359
-379.917	39.155	-0.094	0.084
-378.902	9.156	0.160	-0.120
-377.888	761.605	0.192	-0.516
-376.873	-155.330	0.035	0.002
-375.858	-44.593	0.176	-0.087
-374.844	139.149	-0.330	-0.431
-373.829	132.435	-0.135	-0.172
-372.815	-200.000	-0.025	0.217
-371.800	319.181	-0.086	-0.162
-370.785	147.881	-0.128	0.171
-369.771	-10.481	0.304	0.200
-368.756	-83.897	0.130	-0.041
-367.742	55.752	-0.111	-0.107
-366.727	-200.000	-0.024	0.122
-365.712	-200.000	0.000	0.091
-364.698	163.121	-0.123	0.171
-363.683	-103.397	-0.140	0.033
-362.669	800.000	-0.085	0.335
-361.654	-44.987	0.222	-0.109
-360.639	-4.825	-0.295	0.202
-359.625	-114.690	0.106	0.020
-358.610	-111.580	-0.136	-0.027
-357.596	-124.396	-0.199	-0.031
-356.581	-181.352	-0.396	0.008
-355.566	-0.533	-0.020	0.014
-354.552	800.000	-0.028	0.112
-353.537	-130.564	0.332	-0.044
-352.523	-74.721	0.249	-0.089
-351.508	-57.025	0.393	-0.172
-350.493	68.153	0.212	0.215
-349.479	443.805	-0.022	0.049
-348.464	106.516	-0.162	0.190
-347.450	800.000	-0.059	-0.162
-346.435	405.268	0.081	-0.168
-345.420	-200.000	-0.007	-0.098
-344.406	110.761	-0.216	0.258
-343.391	-148.796	-0.108	-0.009
-342.377	-78.608	-0.190	0.064
-341.362	11.692	-0.151	-0.115
-340.348	-74.466	0.197	0.070
-339.333	6.383	0.257	0.189
-338.318	203.430	0.095	-0.145
-337.304	569.127	-0.044	0.107
-336.289	-200.000	-0.006	-0.050
-335.275	94.874	-0.079	-0.089
-334.260	800.000	-0.046	-0.129
-333.245	-114.847	0.403	-0.076
-332.231	156.316	0.026	-0.036
-331.216	-50.732	-0.088	-0.041
-330.202	383.189	0.065	-0.133
-329.187	504.779	-0.118	-0.269
-328.172	-146.853	0.033	-0.003
-327.158	-0.903	0.278	0.195
-326.143	-200.000	0.036	0.205
-325.129	800.000	-0.064	0.189
-324.114	-31.835	-0.170	-0.094
-323.099	14.786	0.082	-0.063
-322.085	-120.735	-0.147	-0.025
-321.070	800.000	0.099	0.365
-320.056	-200.000	0.019	0.171
-319.041	19.320	0.144	0.114
-318.026	417.142	0.020	0.042
-317.012	512.047	-0.100	-0.229
-315.997	-130.547	0.170	0.023
-314.983	-200.000	0.149	0.000
-313.968	-7.633	-0.127	0.085
-312.953	-14.378	-0.084	-0.054
-311.939	489.870	0.110	-0.249
-310.924	-31.061	0.223	0.125
-309.910	-200.000	0.020	-0.261
-308.895	274.820	0.034	0.060
-307.880	-102.679	-0.141	0.033
-306.866	15.342	-0.327	-0.253
-305.851	-42.653	-0.421	0.212
-304.837	-35.241	0.082	0.044
-303.822	-200.000	-0.033	0.355
-302.807	5.785	-0.257	-0.188
-301.793	800.000	0.142	-0.391
-300.778	757.701	0.027	0.071
-299.764	-87.286	0.141	0.042
-298.749	-80.113	0.133	-0.044
-297.735	-200.000	0.081	-0.409
-296.720	190.762	0.111	0.165
-295.705	-31.118	-0.349	0.194
-294.691	-140.943	-0.482	0.049
-293.676	-124.143	-0.100	-0.015
-292.662	-173.732	-0.213	-0.006
-291.647	-78.352	0.184	-0.063
-290.632	200.435	-0.113	-0.172
-289.618	131.034	0.293	0.372
-288.603	-157.643	-0.445	0.026
-287.589	-171.708	-0.534	-0.017
-286.574	-143.243	0.225	-0.021
-285.559	-13.123	-0.251	-0.161
-284.545	-4.876	0.152	-0.103
-283.530	35.673	0.194	-0.169
-282.516	800.000	0.055	-0.152
-281.501	-89.641	0.059	0.017
-280.486	-200.000	0.028	0.213
-279.472	-79.307	-0.087	0.029
-278.457	-200.000	-0.020	0.260
-277.443	-48.395	0.159	-0.076
-276.428	-200.000	-0.019	0.087
-275.413	214.513	0.134	0.210
-274.399	-164.028	-0.155	0.007
-273.384	-200.000	-0.012	0.205
-272.370	-200.000	0.011	0.184
-271.355	151.387	0.079	-0.106
-270.340	-200.000	0.035	-0.384
-269.326	-49.221	0.075	0.035
-268.311	-162.704	0.233	0.011
-267.297	800.000	-0.047	-0.131
-266.282	279.897	0.017	0.029
-265.267	800.000	0.099	0.292
-264.253	-98.299	0.333	0.084
-263.238	-200.000	-0.036	0.270
-262.224	-200.000	-0.003	-0.366
-261.209	529.858	-0.152	-0.354
-260.195	-88.762	-0.173	-0.051
-259.180	76.757	0.211	-0.221
-258.165	-200.000	-0.027	0.303
-257.151	28.231	0.230	0.192
-256.136	190.518	0.226	-0.335
-255.122	-200.000	-0.004	0.105
-254.107	-29.662	-0.031	-0.018
-253.092	37.750	0.041	0.036
-252.078	-68.316	0.257	0.099
-251.063	800.000	0.187	-0.529
-250.049	-200.000	0.007	0.088
-249.034	-146.433	0.340	-0.029
-248.019	495.274	-0.078	-0.177
-247.005	-135.426	0.218	-0.026
-245.990	-81.006	0.327	-0.107
-244.976	800.000	0.075	0.278
-243.961	145.301	-0.111	-0.147
-242.946	-200.000	-0.010	-0.056
-241.932	667.631	-0.087	-0.223
-240.917	245.351	-0.062	0.102
-239.903	-161.858	-0.081	-0.004
-238.888	67.321	0.084	0.085
-237.873	237.969	0.063	0.103
-236.859	84.323	-0.337	-0.363
-235.844	-139.940	0.141	0.015
-234.830	-200.000	0.025	0.312
-233.815	67.294	-0.235	-0.237
-232.800	57.432	-0.011	-0.010
-231.786	-99.846	-0.469	0.116
-230.771	-93.605	-0.395	-0.108
-229.757	-92.061	0.290	-0.081
-228.742	-200.000	-0.008	0.053
-227.727	-148.030	0.169	-0.014
-226.713	182.669	0.180	0.262
-225.698	-57.322	-0.148	0.064
-224.684	28.454	-0.205	-0.171
-223.669	-72.793	0.539	0.196
-222.655	-64.663	0.118	-0.047
-221.640	-76.497	0.295	-0.102
-220.625	-24.832	-0.210	-0.123
-219.611	-59.622	0.106	-0.045
-218.596	-92.142	-0.049	-0.014
-217.582	-187.632	0.366	-0.005
-216.567	-175.768	-0.225	0.006
-215.552	292.670	-0.132	0.238
-214.538	-126.519	0.213	0.031
-213.523	-166.559	0.333	-0.014
-212.509	-200.000	-0.028	-0.154
-211.494	31.262	0.077	0.065
-210.479	110.935	-0.065	-0.077
-209.465	306.383	0.095	-0.174
-208.450	140.874	0.219	0.286
-207.436	-15.882	0.223	0.140
-206.421	352.839	-0.150	0.292
-205.406	800.000	0.080	0.259
-204.392	-71.665	-0.219	-0.080
-203.377	-105.127	-0.269	-0.061
-202.363	-31.579	-0.251	0.139
-201.348	348.880	-0.087	0.170
-200.333	-179.368	-0.109	-0.002
-199.319	70.142	-0.109	0.110
-198.304	28.115	-0.047	0.039
-197.290	-49.207	-0.013	-0.006
-196.275	71.089	0.111	-0.113
-195.260	-119.944	-0.063	-0.011
-194.246	110.765	-0.261	-0.309
-193.231	211.517	-0.140	0.217
-192.217	9.473	-0.083	-0.062
-191.202	679.445	-0.107	0.275
-190.187	-200.000	-0.038	-0.259
-189.173	-88.032	-0.037	-0.011
-188.158	106.349	-0.088	0.103
-187.144	-73.199	-0.118	-0.042
-186.129	561.581	0.111	0.263
-185.114	-200.000	-0.011	-0.309
-184.100	104.690	0.237	-0.275
-183.085	390.404	-0.083	-0.169
-182.071	553.204	0.112	0.264
-181.056	252.163	0.108	-0.181
-180.042	16.068	0.129	0.100
-179.027	-33.326	-0.277	-0.151
-178.012	-24.103	-0.169	-0.099
-176.998	410.564	-0.075	0.157
-175.983	-173.946	0.307	0.009
-174.969	-103.081	-0.324	-0.076
-173.954	289.936	-0.213	-0.380
-172.939	-52.525	0.232	-0.106
-171.925	-108.963	0.490	0.103
-170.910	-43.706	0.345	-0.171
-169.896	545.296	0.115	-0.271
-168.881	-85.538	-0.209	-0.064
-167.866	-147.216	0.027	0.002
-166.852	-2.032	0.079	0.055
-165.837	-71.313	0.185	0.068
-164.823	-83.073	-0.206	-0.065
-163.808	288.884	-0.129	0.229
-162.793	89.650	0.206	0.226
-161.779	4.229	0.146	0.105
-160.764	-200.000	-0.006	0.154
-159.750	228.078	0.318	0.510
-158.735	57.875	0.248	0.239
-157.720	-17.990	-0.030	0.018
-156.706	354.816	-0.212	0.414
-155.691	-102.253	0.066	-0.016
-154.677	800.000	-0.109	-0.336
-153.662	-37.507	0.211	-0.110
-152.647	-32.480	-0.042	-0.023
-151.633	-48.855	-0.161	-0.076
-150.618	-144.539	0.146	-0.013
-149.604	217.028	0.122	-0.190
-148.589	-58.924	0.164	-0.070
-147.574	-17.537	0.117	-0.072
-146.560	800.000	0.125	0.346
-145.545	-200.000	-0.037	0.390
-144.531	-18.483	-0.182	-0.111
-143.516	-200.000	0.018	-0.223
-142.502	45.906	-0.122	0.111
-141.487	-200.000	0.002	0.049
-140.472	800.000	0.092	0.356
-139.458	98.334	-0.260	0.294
-138.443	26.430	-0.053	0.043
-137.429	-45.043	-0.111	0.055
-136.414	50.992	-0.053	0.050
-135.399	631.893	-0.158	-0.394
-134.385	-154.823	-0.124	-0.008
-133.370	-200.000	-0.039	-0.424
-132.356	-190.019	-0.191	-0.002
-131.341	-27.914	0.311	-0.177
-130.326	88.735	0.277	-0.303
-129.312	192.277	-0.045	-0.067
-128.297	114.568	0.144	0.173
-127.283	800.000	0.076	0.293
-126.268	75.839	-0.196	0.203
-125.253	-147.867	0.054	0.004
-124.239	800.000	-0.050	-0.183
-123.224	-168.642	0.163	-0.006
-122.210	782.143	0.033	0.090
