DTS Sentinel unit serial number:	SN413079Multiplexer serial number:	ORYXHardware model number:	OX4-SRSoftware version number:	ORYX F/W v4.00 Oryx Data Collector v3.7.2.0data status	okinstallation	princeton_trtdifferential loss correction	single-endedforward channel	channel 1reverse channel	N/Adate	2019/09/17time	09:10:35forward acquisition time	60.00reverse acquisition time	0.00gamma	496.2192k internal	0.2326k external	0.2326temperature offset calibration	0.9960default loss term (dB/km)	0.3790temperature slope calibration	1.0000multiplexer offset coefficient	1.0000multiplexer slope coefficient	1.0000fibre end	0.00T internal ref (°C)	28.31T ext. ref 1 (°C)	0.14T ext. ref 2 (°C)	25.21length (m)	temperature (°C)	Stokes	anti-Stokes-747.200	35.080	0.036	0.032
-746.185	374.316	0.094	0.193
-745.171	314.574	-0.189	0.359
-744.156	-200.000	0.012	0.152
-743.142	309.525	0.109	-0.206
-742.127	5.681	0.082	0.061
-741.112	800.000	-0.042	0.143
-740.098	-200.000	-0.051	0.395
-739.083	-86.266	0.050	0.016
-738.069	-200.000	0.021	-0.336
-737.054	800.000	-0.091	-0.328
-736.039	-72.474	-0.445	-0.166
-735.025	-200.000	0.081	0.357
-734.010	-199.553	0.074	0.000
-732.996	204.898	-0.224	-0.350
-731.981	2.825	-0.258	-0.189
-730.966	-131.152	0.139	-0.019
-729.952	-129.883	-0.239	-0.033
-728.937	144.341	-0.245	-0.330
-727.923	-13.593	0.140	-0.092
-726.908	35.340	-0.277	-0.245
-725.894	800.000	-0.050	-0.185
-724.879	100.339	-0.169	0.198
-723.864	-200.000	-0.011	-0.521
-722.850	800.000	0.061	-0.251
-721.835	-33.611	-0.213	0.118
-720.821	90.608	-0.078	-0.088
-719.806	75.520	0.204	-0.217
-718.791	-172.200	-0.163	0.005
-717.777	-132.207	0.196	0.026
-716.762	-92.882	-0.158	-0.044
-715.748	8.280	0.102	-0.077
-714.733	115.481	0.069	0.084
-713.718	159.347	-0.101	0.141
-712.704	9.098	0.189	0.144
-711.689	-89.738	-0.273	0.080
-710.675	800.000	0.080	0.311
-709.660	-200.000	-0.008	0.089
-708.645	-200.000	0.017	0.171
-707.631	-200.000	0.020	-0.130
-706.616	205.671	0.084	0.131
-705.602	-200.000	0.001	0.147
-704.587	-106.712	-0.098	0.022
-703.572	-3.527	0.040	-0.028
-702.558	268.582	0.045	0.079
-701.543	389.843	0.057	-0.120
-700.529	272.543	-0.040	0.071
-699.514	66.173	0.098	-0.100
-698.499	-51.454	-0.173	-0.082
-697.485	800.000	-0.076	0.267
-696.470	800.000	0.086	0.313
-695.456	-6.869	0.231	-0.158
-694.441	-200.000	-0.001	-0.214
-693.426	5.882	0.051	-0.038
-692.412	-102.453	-0.522	-0.126
-691.397	800.000	0.031	-0.116
-690.383	-26.348	0.118	-0.070
-689.368	-86.713	-0.183	-0.056
-688.354	-110.460	0.259	0.054
-687.339	-91.079	-0.322	0.093
-686.324	-200.000	-0.027	0.245
-685.310	-61.078	-0.278	-0.118
-684.295	121.080	-0.161	-0.202
-683.281	63.669	0.210	-0.212
-682.266	-74.927	0.155	0.056
-681.251	128.454	0.093	0.119
-680.237	-111.986	0.093	0.019
-679.222	-200.000	0.016	0.126
-678.208	800.000	-0.038	-0.142
-677.193	-97.790	0.060	0.016
-676.178	313.811	-0.049	-0.094
-675.164	-200.000	-0.057	-0.421
-674.149	-37.519	0.192	0.103
-673.135	615.863	0.074	-0.186
-672.120	-28.010	0.240	-0.140
-671.105	800.000	0.032	-0.094
-670.091	-95.015	0.259	0.070
-669.076	13.362	-0.161	0.125
-668.062	-170.781	0.122	-0.004
-667.047	-200.000	0.010	-0.103
-666.032	11.450	-0.144	-0.111
-665.018	-61.507	0.081	-0.034
-664.003	255.302	0.127	-0.219
-662.989	-200.000	-0.016	0.268
-661.974	-86.017	0.127	-0.040
-660.959	192.473	0.170	0.259
-659.945	15.245	-0.101	0.079
-658.930	-200.000	-0.139	-0.001
-657.916	392.281	0.088	-0.184
-656.901	-36.122	0.049	0.027
-655.886	800.000	0.129	-0.397
-654.872	-158.502	-0.226	0.013
-653.857	-200.000	-0.249	-0.001
-652.843	32.083	0.112	-0.097
-651.828	131.809	0.118	-0.153
-650.814	-145.935	-0.421	-0.037
-649.799	-122.317	0.262	-0.043
-648.784	177.911	-0.047	0.069
-647.770	800.000	0.073	-0.225
-646.755	80.340	-0.274	0.297
-645.741	-28.480	0.277	0.160
-644.726	46.578	-0.269	-0.251
-643.711	-136.081	-0.182	0.021
-642.697	-128.474	0.143	-0.020
-641.682	-119.413	0.200	-0.035
-640.668	41.033	0.106	0.096
-639.653	-92.418	0.392	-0.111
-638.638	71.423	0.222	-0.231
-637.624	23.461	-0.096	0.079
-636.609	-200.000	0.020	-0.173
-635.595	-98.385	-0.143	0.037
-634.580	-70.950	0.339	0.128
-633.565	283.251	-0.094	0.170
-632.551	572.726	-0.023	0.056
-631.536	-9.550	0.047	-0.032
-630.522	800.000	0.053	-0.186
-629.507	110.161	0.169	0.204
-628.492	800.000	-0.061	0.213
-627.478	270.860	-0.168	0.297
-626.463	-30.653	-0.105	0.060
-625.449	-183.892	-0.224	0.004
-624.434	-80.290	0.246	-0.083
-623.419	78.740	-0.112	0.120
-622.405	-200.000	-0.025	-0.193
-621.390	-200.000	-0.047	-0.321
-620.376	186.462	0.094	-0.141
-619.361	-68.858	0.198	-0.077
-618.346	-175.149	0.340	0.009
-617.332	314.490	-0.114	-0.216
-616.317	165.381	-0.061	0.086
-615.303	-46.991	-0.157	0.077
-614.288	123.760	0.128	0.161
-613.273	-42.855	-0.198	0.101
-612.259	208.574	-0.073	-0.115
-611.244	-200.000	-0.012	-0.225
-610.230	674.022	-0.108	-0.281
-609.215	-138.853	-0.199	-0.022
-608.201	242.469	0.080	-0.135
-607.186	-157.338	0.242	0.015
-606.171	148.545	0.044	0.060
-605.157	800.000	0.060	-0.191
-604.142	689.949	-0.074	-0.193
-603.128	-200.000	0.037	-0.275
-602.113	25.574	-0.216	-0.180
-601.098	-90.544	0.325	-0.094
-600.084	218.047	-0.080	0.128
-599.069	-44.230	-0.073	-0.037
-598.055	800.000	-0.057	-0.197
-597.040	-154.798	-0.093	-0.006
-596.025	132.412	-0.190	0.245
-595.011	40.950	-0.101	-0.092
-593.996	-171.362	0.140	0.005
-592.982	139.854	0.112	-0.148
-591.967	34.329	0.254	-0.222
-590.952	-200.000	-0.047	0.364
-589.938	-79.672	0.187	-0.063
-588.923	-200.000	-0.009	-0.042
-587.909	800.000	0.055	-0.206
-586.894	-39.233	0.119	0.062
-585.879	-74.569	-0.074	-0.027
-584.865	-96.521	0.307	-0.081
-583.850	-39.988	0.096	0.050
-582.836	367.597	-0.229	-0.464
-581.821	130.393	-0.270	0.346
-580.806	-200.000	0.006	0.184
-579.792	-23.494	-0.161	0.097
-578.777	800.000	-0.063	0.204
-577.763	-7.781	-0.161	0.109
-576.748	37.809	-0.055	-0.049
-575.733	428.171	-0.071	-0.154
-574.719	-200.000	-0.018	0.151
-573.704	787.429	0.149	0.410
-572.690	202.534	0.118	0.182
-571.675	-200.000	0.020	-0.177
-570.661	45.535	0.242	-0.224
-569.646	-53.272	-0.044	0.020
-568.631	64.214	0.086	0.086
-567.617	13.553	-0.131	-0.101
-566.602	520.421	-0.111	0.262
-565.588	149.544	0.124	0.169
-564.573	125.699	0.273	-0.346
-563.558	101.370	-0.097	-0.113
-562.544	-200.000	0.012	0.249
-561.529	203.594	0.202	-0.313
-560.515	497.864	-0.187	-0.430
-559.500	-73.336	0.130	-0.048
-558.485	-20.998	-0.141	-0.087
-557.471	202.494	-0.192	-0.297
-556.456	-88.817	-0.186	0.055
-555.442	-155.857	-0.089	-0.006
-554.427	-200.000	0.007	0.058
-553.412	2.255	-0.292	0.211
-552.398	77.789	-0.130	0.139
-551.383	-121.905	0.323	-0.053
-550.369	-139.765	-0.359	0.038
-549.354	-200.000	0.041	0.263
-548.339	122.313	-0.113	-0.142
-547.325	383.166	-0.031	0.064
-546.310	116.697	-0.224	-0.276
-545.296	800.000	0.143	-0.461
-544.281	414.790	0.080	-0.171
-543.266	800.000	-0.080	0.286
-542.252	106.957	0.059	0.070
-541.237	800.000	-0.088	-0.293
-540.223	85.887	-0.192	-0.212
-539.208	800.000	-0.070	-0.228
-538.193	692.113	0.115	-0.301
-537.179	-200.000	-0.001	0.046
-536.164	-132.096	-0.382	0.050
-535.150	196.459	-0.037	0.057
-534.135	800.000	0.075	0.268
-533.121	278.342	-0.052	-0.092
-532.106	-93.580	0.249	0.069
-531.091	12.168	0.232	0.179
-530.077	-168.871	0.393	-0.015
-529.062	-200.000	0.023	0.270
-528.048	-118.490	0.255	0.045
-527.033	800.000	0.046	0.136
-526.018	523.364	-0.127	0.298
-525.004	-70.482	-0.096	-0.036
-523.989	370.242	-0.024	0.048
-522.975	-200.000	-0.044	-0.214
-521.960	-139.666	0.276	0.029
-520.945	-68.803	-0.405	0.157
-519.931	121.233	-0.117	0.146
-518.916	-200.000	0.053	-0.254
-517.902	-200.000	0.018	-0.107
-516.887	80.208	0.070	0.076
-515.872	79.818	-0.087	0.094
-514.858	-16.702	-0.183	-0.115
-513.843	-153.272	-0.327	0.023
-512.829	-54.929	-0.056	0.025
-511.814	-187.760	0.278	0.004
-510.799	-193.525	-0.231	-0.002
-509.785	74.040	0.286	0.300
-508.770	-130.870	0.247	0.033
-507.756	-200.000	-0.038	-0.253
-506.741	556.655	-0.130	-0.313
-505.726	-72.087	-0.176	-0.065
-504.712	485.510	-0.118	-0.268
-503.697	285.045	0.092	0.165
-502.683	4.818	0.245	0.180
-501.668	800.000	0.073	-0.303
-500.653	-28.175	-0.162	-0.093
-499.639	183.500	0.272	0.402
-498.624	-175.833	0.097	-0.003
-497.610	186.570	0.215	-0.320
-496.595	557.910	-0.105	-0.252
-495.581	-115.223	0.260	-0.049
-494.566	1.038	-0.226	-0.162
-493.551	-169.245	0.038	0.001
-492.537	-116.056	-0.465	-0.086
-491.522	800.000	-0.080	0.260
-490.508	40.079	0.299	-0.268
-489.493	-100.820	-0.210	-0.052
-488.478	-5.498	-0.177	-0.121
-487.464	-93.611	-0.336	-0.093
-486.449	-200.000	-0.060	-0.290
-485.435	42.818	0.092	0.084
-484.420	373.211	-0.031	-0.062
-483.405	-200.000	-0.030	0.194
-482.391	141.877	0.156	-0.206
-481.376	-39.346	0.282	-0.148
-480.362	800.000	0.060	-0.175
-479.347	-200.000	0.005	-0.170
-478.332	-161.227	-0.179	-0.009
-477.318	374.061	0.075	-0.153
-476.303	272.526	0.141	-0.248
-475.289	33.938	0.135	0.117
-474.274	800.000	-0.066	0.189
-473.259	800.000	-0.051	-0.208
-472.245	59.815	-0.243	0.240
-471.230	17.312	-0.130	0.103
-470.216	-200.000	0.026	-0.178
-469.201	-200.000	-0.018	-0.090
-468.186	462.136	0.127	0.284
-467.172	372.009	0.028	0.057
-466.157	-200.000	0.017	0.209
-465.143	231.376	-0.092	-0.150
-464.128	-80.160	-0.366	0.122
-463.113	332.458	0.177	0.341
-462.099	-29.914	-0.082	0.046
-461.084	-164.504	0.008	-0.000
-460.070	800.000	-0.060	0.232
-459.055	800.000	-0.031	-0.109
-458.040	124.518	0.153	0.192
-457.026	468.387	0.152	-0.340
-456.011	800.000	-0.078	0.237
-454.997	65.739	0.038	-0.039
-453.982	70.505	0.305	0.314
-452.968	176.204	-0.066	0.096
-451.953	-34.167	-0.010	-0.006
-450.938	217.489	-0.061	-0.097
-449.924	-200.000	0.041	-0.382
-448.909	88.605	0.213	0.236
-447.895	800.000	-0.115	0.398
-446.880	800.000	-0.082	0.316
-445.865	-101.372	0.071	-0.017
-444.851	800.000	-0.032	0.090
-443.836	800.000	-0.034	-0.095
-442.822	203.031	0.040	0.061
-441.807	160.474	-0.093	-0.130
-440.792	800.000	0.079	0.310
-439.778	210.317	-0.188	-0.294
-438.763	-117.361	0.231	-0.042
-437.749	-54.870	-0.104	-0.047
-436.734	85.228	-0.206	0.225
-435.719	24.147	-0.180	0.148
-434.705	-39.566	0.154	-0.081
-433.690	-200.000	0.011	0.145
-432.676	-200.000	0.021	-0.202
-431.661	97.938	0.108	-0.124
-430.646	-66.893	0.225	0.089
-429.632	-11.695	0.127	0.083
-428.617	-200.000	0.009	0.157
-427.603	800.000	0.012	-0.050
-426.588	165.429	0.099	-0.139
-425.573	-132.468	-0.041	-0.005
-424.559	-105.088	0.286	-0.065
-423.544	-102.095	-0.388	0.093
-422.530	30.202	0.132	-0.112
-421.515	-86.958	-0.283	-0.086
-420.500	800.000	-0.065	0.241
-419.486	8.884	-0.070	0.053
-418.471	134.772	0.043	-0.056
-417.457	800.000	0.083	0.227
-416.442	166.847	0.103	-0.145
-415.428	-200.000	-0.013	0.072
-414.413	-200.000	0.005	-0.073
-413.398	-20.969	0.308	0.188
-412.384	266.942	-0.129	-0.224
-411.369	44.368	-0.106	0.097
-410.355	-21.155	0.432	0.263
-409.340	-63.785	0.242	0.099
-408.325	800.000	0.042	-0.180
-407.311	800.000	-0.070	-0.194
-406.296	-99.962	-0.409	-0.102
-405.282	-200.000	-0.010	-0.054
-404.267	-200.000	0.001	0.069
-403.252	-200.000	-0.016	-0.084
-402.238	-200.000	-0.008	-0.108
-401.223	156.307	0.118	0.162
-400.209	41.323	-0.309	0.278
-399.194	168.415	0.259	-0.368
-398.179	-80.109	0.254	-0.085
-397.165	-54.441	0.102	0.046
-396.150	-200.000	0.007	-0.286
-395.136	-164.691	0.223	-0.010
-394.121	536.164	-0.189	0.447
-393.106	-200.000	-0.041	-0.224
-392.092	-177.670	0.206	-0.005
-391.077	41.782	-0.242	0.218
-390.063	-200.000	0.045	-0.462
-389.048	-200.000	-0.001	-0.257
-388.033	55.211	-0.176	-0.169
-387.019	800.000	-0.042	-0.156
-386.004	191.699	-0.070	-0.106
-384.990	-200.000	0.018	-0.191
-383.975	-39.660	-0.293	-0.152
-382.960	165.631	0.034	-0.048
-381.946	84.725	0.106	-0.116
-380.931	-75.201	0.097	0.035
-379.917	113.470	-0.151	0.182
-378.902	-200.000	0.020	-0.172
-377.888	177.730	0.109	-0.157
-376.873	298.987	0.083	0.152
-375.858	3.249	-0.142	-0.102
-374.844	-11.042	-0.268	0.176
-373.829	97.582	0.082	0.094
-372.815	-44.854	0.410	-0.203
-371.800	190.654	0.029	0.044
-370.785	185.686	0.088	-0.130
-369.771	-200.000	-0.037	-0.165
-368.756	-51.936	-0.207	0.096
-367.742	-10.028	-0.031	-0.021
-366.727	112.719	0.113	0.136
-365.712	800.000	-0.012	0.035
-364.698	-147.997	0.132	-0.011
-363.683	25.386	-0.164	-0.136
-362.669	800.000	0.020	0.081
-361.654	-183.895	0.155	0.003
-360.639	-46.307	-0.223	0.109
-359.625	-103.152	0.267	-0.063
-358.610	55.545	0.146	-0.140
-357.596	94.019	0.110	0.124
-356.581	156.350	-0.053	-0.072
-355.566	-1.166	0.136	0.095
-354.552	94.612	0.231	-0.261
-353.537	-200.000	0.020	-0.269
-352.523	800.000	-0.059	-0.200
-351.508	800.000	0.004	0.014
-350.493	-200.000	0.038	0.422
-349.479	-48.839	-0.235	-0.112
-348.464	800.000	0.080	-0.247
-347.450	800.000	0.094	0.367
-346.435	175.794	-0.179	-0.258
-345.420	-87.624	0.262	0.079
-344.406	346.377	0.123	0.240
-343.391	-30.569	-0.304	-0.171
-342.377	-7.284	0.073	0.049
-341.362	-200.000	0.034	0.244
-340.348	-200.000	-0.011	0.237
-339.333	30.141	-0.166	0.140
-338.318	800.000	0.130	-0.412
-337.304	-61.191	-0.174	0.073
-336.289	-200.000	-0.034	-0.301
-335.275	338.304	-0.143	-0.276
-334.260	-38.939	-0.101	-0.053
-333.245	-94.374	0.247	0.067
-332.231	-98.545	0.312	-0.079
-331.216	335.058	-0.111	0.214
-330.202	-24.429	-0.127	-0.075
-329.187	466.922	0.162	-0.360
-328.172	3.127	-0.114	0.083
-327.158	-122.418	-0.368	0.059
-326.143	800.000	-0.083	-0.278
-325.129	37.827	-0.172	-0.152
-324.114	30.571	-0.121	-0.103
-323.099	-66.966	0.118	-0.046
-322.085	800.000	0.040	-0.158
-321.070	-105.305	-0.322	0.073
-320.056	-200.000	-0.520	-0.002
-319.041	15.784	0.039	-0.030
-318.026	-87.559	0.237	0.071
-317.012	-200.000	0.007	0.194
-315.997	310.054	0.147	0.273
-314.983	800.000	-0.064	0.210
-313.968	-200.000	0.023	0.365
-312.953	207.787	-0.191	-0.296
-311.939	-93.836	0.379	-0.104
-310.924	800.000	-0.087	0.242
-309.910	-19.113	0.320	0.197
-308.895	-39.325	-0.219	-0.114
-307.880	169.213	0.040	0.056
-306.866	22.546	-0.021	0.017
-305.851	-15.704	0.174	0.110
-304.837	-56.228	0.131	-0.058
-303.822	-58.192	0.069	0.030
-302.807	16.914	-0.273	0.214
-301.793	-112.116	-0.393	0.078
-300.778	800.000	0.097	0.352
-299.764	385.624	0.132	-0.270
-298.749	460.282	0.010	-0.022
-297.735	800.000	-0.037	-0.137
-296.720	-54.029	0.098	-0.044
-295.705	-146.104	0.319	0.028
-294.691	800.000	0.070	0.222
-293.676	-63.675	0.063	-0.025
-292.662	-162.344	-0.390	-0.019
-291.647	-200.000	-0.010	-0.046
-290.632	223.427	-0.190	-0.303
-289.618	612.662	-0.035	-0.086
-288.603	122.135	-0.157	-0.194
-287.589	-160.688	-0.106	0.006
-286.574	589.972	0.045	0.111
-285.559	-200.000	0.034	0.184
-284.545	-23.687	0.119	-0.071
-283.530	-69.806	0.346	-0.131
-282.516	194.904	0.129	0.194
-281.501	663.628	-0.044	0.112
-280.486	109.797	0.044	-0.052
-279.472	392.894	0.012	0.025
-278.457	46.987	0.322	0.296
-277.443	-118.854	-0.243	-0.042
-276.428	-120.312	-0.220	-0.037
-275.413	-168.140	-0.207	0.008
-274.399	-36.515	-0.085	-0.046
-273.384	365.663	-0.084	-0.168
-272.370	516.028	0.074	0.171
-271.355	-200.000	-0.016	0.409
-270.340	-4.231	0.221	0.151
-269.326	566.307	0.027	0.064
-268.311	181.117	-0.170	-0.248
-267.297	-200.000	-0.031	-0.219
-266.282	-154.050	0.065	0.004
-265.267	630.400	-0.065	0.162
-264.253	419.135	0.110	0.232
-263.238	59.123	-0.027	-0.026
-262.224	22.019	0.116	-0.093
-261.209	-40.411	0.111	0.057
-260.195	-48.454	0.103	-0.049
-259.180	280.006	-0.205	-0.362
-258.165	-65.834	-0.314	0.124
-257.151	520.031	-0.128	-0.296
-256.136	-66.919	-0.191	0.075
-255.122	87.361	-0.098	0.107
-254.107	163.753	-0.064	-0.090
-253.092	-200.000	-0.009	-0.143
-252.078	20.251	-0.129	-0.103
-251.063	76.374	0.104	0.109
-250.049	67.226	0.148	-0.149
-249.034	4.877	0.205	-0.149
-248.019	-3.307	-0.257	0.177
-247.005	170.501	0.129	-0.183
-245.990	197.909	-0.234	0.354
-244.976	-200.000	-0.081	-0.373
-243.961	392.888	-0.149	-0.306
-242.946	-118.551	0.104	0.018
-241.932	-143.954	-0.159	-0.015
-240.917	-21.547	-0.131	0.079
-239.903	101.854	-0.186	0.215
-238.888	-91.899	0.272	0.076
-237.873	-77.052	0.200	0.069
-236.859	-200.000	0.000	-0.146
-235.844	195.203	0.077	-0.115
-234.830	800.000	0.054	0.188
-233.815	71.955	0.077	-0.079
-232.800	103.958	0.167	-0.194
-231.786	-168.917	-0.150	-0.006
-230.771	171.974	-0.170	0.242
-229.757	-104.036	-0.089	0.020
-228.742	159.714	-0.030	-0.041
-227.727	-7.366	-0.093	0.062
-226.713	161.083	0.267	0.369
-225.698	51.801	-0.188	-0.177
-224.684	-200.000	-0.080	0.421
-223.669	-51.001	0.242	-0.112
-222.655	-60.761	-0.126	-0.053
-221.640	-200.000	0.018	-0.126
-220.625	17.440	-0.266	-0.208
-219.611	-173.924	-0.237	-0.007
-218.596	-85.985	0.312	-0.095
-217.582	-125.567	0.251	-0.038
-216.567	246.444	0.121	0.202
-215.552	-200.000	0.082	0.546
-214.538	61.325	-0.272	0.267
-213.523	589.979	-0.064	-0.157
-212.509	-0.687	0.426	0.299
-211.494	-28.734	-0.049	-0.028
-210.479	-103.540	-0.305	-0.071
-209.465	800.000	-0.068	0.255
-208.450	-200.000	0.062	0.341
-207.436	800.000	0.040	-0.138
-206.421	-200.000	0.054	0.280
-205.406	111.087	-0.046	0.054
-204.392	-81.933	-0.076	-0.024
-203.377	153.958	-0.130	-0.176
-202.363	-105.026	-0.304	0.069
-201.348	352.031	-0.108	-0.210
-200.333	-78.496	-0.107	-0.036
-199.319	800.000	0.072	0.311
-198.304	50.466	0.313	0.292
-197.290	2.166	0.277	0.198
-196.275	-200.000	0.041	0.346
-195.260	30.039	-0.221	-0.186
-194.246	800.000	0.133	0.377
-193.231	351.942	-0.072	0.141
-192.217	280.534	0.076	0.134
-191.202	43.865	-0.305	0.276
-190.187	24.583	-0.133	-0.108
-189.173	384.407	0.094	0.191
-188.158	75.724	-0.088	-0.092
-187.144	24.438	-0.205	0.167
-186.129	426.706	0.165	0.351
-185.114	800.000	0.061	-0.246
-184.100	592.303	-0.117	0.286
-183.085	270.180	0.167	-0.290
-182.071	-200.000	0.009	0.319
-181.056	-114.247	0.634	0.121
-180.042	-72.655	0.271	0.099
-179.027	287.688	-0.081	-0.145
-178.012	17.745	-0.078	-0.061
-176.998	670.072	-0.043	0.110
-175.983	221.185	-0.106	0.168
-174.969	-99.521	-0.134	-0.033
-173.954	-77.733	0.147	0.050
-172.939	-126.872	0.461	-0.067
-171.925	800.000	0.158	0.508
-170.910	90.682	-0.114	-0.126
-169.896	-185.586	-0.183	-0.003
-168.881	-136.140	0.152	-0.018
-167.866	800.000	0.054	-0.224
-166.852	-200.000	-0.007	-0.070
-165.837	800.000	-0.032	0.121
-164.823	-200.000	0.008	0.186
-163.808	-44.310	-0.135	0.067
-162.793	-200.000	0.001	-0.037
-161.779	800.000	0.045	-0.140
-160.764	-200.000	-0.437	-0.001
-159.750	-10.839	-0.087	-0.057
-158.735	-82.232	0.178	0.057
-157.720	-200.000	-0.027	-0.175
-156.706	-31.969	0.484	0.267
-155.691	645.655	-0.099	0.249
-154.677	800.000	0.083	-0.304
-153.662	359.700	0.141	-0.278
-152.647	-111.613	-0.205	0.041
-151.633	35.495	-0.049	-0.043
-150.618	-200.000	0.037	-0.232
-149.604	-61.174	0.179	0.074
-148.589	-168.522	0.160	0.006
-147.574	340.028	-0.068	-0.131
-146.560	-94.554	0.129	-0.035
-145.545	-120.375	0.257	0.043
-144.531	165.684	-0.104	0.145
-143.516	-57.600	-0.299	0.129
-142.502	111.673	0.182	0.216
-141.487	269.438	-0.027	-0.047
-140.472	-141.494	0.172	-0.017
-139.458	-56.475	-0.172	0.075
-138.443	-68.480	-0.195	-0.074
-137.429	-200.000	0.008	-0.080
-136.414	559.814	-0.073	0.174
-135.399	-25.912	0.050	0.029
-134.385	800.000	0.055	0.200
-133.370	-28.323	-0.130	0.074
-132.356	268.916	-0.121	0.209
-131.341	172.105	-0.031	-0.044
-130.326	-85.483	0.162	-0.050
-129.312	-16.789	0.094	-0.058
-128.297	800.000	-0.098	-0.271
-127.283	-200.000	0.007	-0.074
-126.268	-113.824	0.260	-0.050
-125.253	-200.000	-0.007	-0.141
-124.239	49.688	-0.216	-0.200
-123.224	52.985	0.141	0.133
-122.210	196.831	-0.106	0.160
-121.195	6.451	-0.120	0.087
