DTS Sentinel unit serial number:	SN413079Multiplexer serial number:	ORYXHardware model number:	OX4-SRSoftware version number:	ORYX F/W v4.00 Oryx Data Collector v3.7.2.0data status	okinstallation	princeton_trtdifferential loss correction	single-endedforward channel	channel 1reverse channel	N/Adate	2019/09/11time	23:12:11forward acquisition time	60.00reverse acquisition time	0.00gamma	496.2192k internal	0.2318k external	0.2318temperature offset calibration	1.0059default loss term (dB/km)	0.3790temperature slope calibration	1.0000multiplexer offset coefficient	1.0000multiplexer slope coefficient	1.0000fibre end	0.00T internal ref (°C)	34.50T ext. ref 1 (°C)	1.86T ext. ref 2 (°C)	28.07length (m)	temperature (°C)	Stokes	anti-Stokes-747.200	151.135	-0.078	0.108
-746.185	-56.511	0.089	-0.040
-745.171	-20.304	0.052	-0.033
-744.156	-73.079	0.222	-0.082
-743.142	-90.172	0.077	0.023
-742.127	188.342	0.199	0.301
-741.112	122.266	0.079	-0.100
-740.098	-200.000	-0.088	0.463
-739.083	5.275	-0.089	-0.066
-738.069	-83.734	0.171	-0.055
-737.054	-20.172	-0.253	-0.158
-736.039	-105.732	-0.437	-0.100
-735.025	366.002	0.216	0.440
-734.010	800.000	0.074	0.241
-732.996	-79.303	0.268	0.092
-731.981	81.936	-0.169	0.185
-730.966	45.513	0.119	0.111
-729.952	-200.000	-0.003	-0.041
-728.937	-135.080	-0.224	-0.027
-727.923	-87.037	0.345	-0.106
-726.908	86.899	0.076	0.085
-725.894	-39.922	-0.080	0.042
-724.879	-125.842	-0.175	-0.027
-723.864	-200.000	0.020	0.245
-722.850	-102.485	-0.161	0.039
-721.835	-88.229	-0.149	-0.045
-720.821	-113.346	-0.430	-0.085
-719.806	38.665	-0.109	-0.099
-718.791	119.796	-0.010	-0.013
-717.777	800.000	0.043	-0.132
-716.762	-89.275	-0.105	0.031
-715.748	2.163	-0.174	-0.127
-714.733	800.000	-0.076	-0.268
-713.718	-69.467	0.246	-0.095
-712.704	-86.621	0.212	-0.066
-711.689	-89.008	-0.198	-0.059
-710.675	93.037	0.134	0.153
-709.660	-49.100	0.171	0.083
-708.645	-150.375	-0.181	0.014
-707.631	132.323	-0.082	-0.107
-706.616	254.643	0.089	-0.154
-705.602	403.510	-0.089	0.189
-704.587	-96.848	-0.071	-0.019
-703.572	-18.764	-0.241	0.152
-702.558	-41.443	0.095	-0.049
-701.543	455.526	-0.101	0.227
-700.529	64.579	-0.068	0.069
-699.514	-200.000	0.013	-0.219
-698.499	-197.441	0.256	0.002
-697.485	-75.039	-0.229	0.083
-696.470	-200.000	0.013	-0.251
-695.456	42.564	0.142	-0.130
-694.441	20.273	-0.166	-0.136
-693.426	40.821	0.135	0.123
-692.412	-39.138	-0.196	-0.104
-691.397	15.385	0.081	-0.064
-690.383	217.556	-0.106	-0.170
-689.368	75.882	-0.282	-0.301
-688.354	800.000	-0.086	-0.254
-687.339	-60.370	0.118	-0.051
-686.324	432.149	-0.119	0.261
-685.310	-98.698	-0.292	-0.075
-684.295	800.000	0.017	-0.071
-683.281	-200.000	-0.023	0.200
-682.266	-141.230	0.165	-0.017
-681.251	-138.745	-0.209	0.023
-680.237	800.000	-0.017	-0.063
-679.222	-10.913	0.050	0.033
-678.208	85.371	0.238	-0.264
-677.193	-79.033	-0.160	-0.055
-676.178	-200.000	-0.094	-0.420
-675.164	-200.000	0.058	0.441
-674.149	800.000	-0.122	-0.347
-673.135	-153.041	-0.061	-0.004
-672.120	-149.125	-0.123	0.010
-671.105	296.011	-0.130	-0.241
-670.091	-24.651	0.242	-0.145
-669.076	-119.720	-0.504	0.088
-668.062	9.650	-0.109	-0.084
-667.047	-59.927	0.135	-0.058
-666.032	800.000	-0.013	0.042
-665.018	88.618	0.166	0.186
-664.003	-102.641	0.287	0.069
-662.989	75.385	0.085	-0.091
-661.974	201.427	0.114	0.178
-660.959	-45.653	0.245	-0.122
-659.945	211.559	-0.256	-0.407
-658.930	-10.828	0.055	-0.037
-657.916	-140.197	-0.331	0.035
-656.901	-158.047	0.133	0.008
-655.886	328.360	0.058	0.112
-654.872	-67.524	0.129	0.051
-653.857	-93.006	0.252	-0.071
-652.843	540.222	-0.029	0.070
-651.828	-7.527	-0.069	0.047
-650.814	-126.026	-0.172	0.026
-649.799	-86.186	-0.223	-0.069
-648.784	-12.912	-0.134	0.088
-647.770	-75.944	0.145	-0.052
-646.755	-200.000	-0.013	-0.168
-645.741	394.207	0.066	-0.139
-644.726	-36.713	-0.200	-0.108
-643.711	419.613	-0.001	-0.003
-642.697	-200.000	-0.008	-0.069
-641.682	-143.887	-0.333	-0.032
-640.668	-9.040	0.079	-0.054
-639.653	-8.332	0.161	0.109
-638.638	650.991	-0.165	0.425
-637.624	-200.000	-0.044	-0.252
-636.609	58.926	-0.182	0.180
-635.595	94.056	0.035	0.041
-634.580	-200.000	0.031	0.299
-633.565	-6.794	-0.278	0.191
-632.551	-109.968	-0.224	0.047
-631.536	26.297	0.297	-0.250
-630.522	-134.195	0.116	-0.014
-629.507	-200.000	-0.044	0.240
-628.492	-78.079	0.143	-0.049
-627.478	110.000	0.192	0.232
-626.463	307.562	0.294	0.552
-625.449	-134.646	-0.028	0.003
-624.434	-200.000	0.019	0.183
-623.419	-200.000	-0.010	0.168
-622.405	181.422	0.092	0.137
-621.390	-200.000	-0.025	0.155
-620.376	-112.712	0.116	-0.023
-619.361	-113.927	0.410	0.080
-618.346	-105.176	0.102	0.023
-617.332	-91.853	-0.090	-0.026
-616.317	-56.075	0.164	-0.073
-615.303	800.000	0.048	-0.180
-614.288	297.459	0.133	0.246
-613.273	-135.945	0.160	-0.019
-612.259	-66.061	0.166	-0.067
-611.244	60.991	0.153	0.153
-610.230	-80.566	0.261	-0.088
-609.215	73.228	0.191	0.201
-608.201	-46.949	-0.374	0.184
-607.186	188.120	-0.218	0.328
-606.171	-200.000	0.002	-0.212
-605.157	-200.000	0.005	0.109
-604.142	-41.179	0.200	0.104
-603.128	-99.504	0.232	0.059
-602.113	318.586	0.035	0.067
-601.098	-200.000	0.009	0.044
-600.084	800.000	-0.063	-0.270
-599.069	-73.510	0.383	0.140
-598.055	-200.000	0.041	-0.296
-597.040	800.000	-0.078	0.244
-596.025	-77.174	-0.280	0.098
-595.011	30.352	-0.282	0.242
-593.996	373.352	0.160	0.328
-592.982	23.000	-0.094	0.078
-591.967	-200.000	0.020	0.423
-590.952	800.000	-0.097	0.399
-589.938	-200.000	-0.011	0.204
-588.923	120.633	0.042	-0.052
-587.909	-200.000	0.015	0.147
-586.894	-200.000	-0.013	-0.221
-585.879	109.959	-0.060	0.073
-584.865	621.791	0.146	-0.371
-583.850	144.567	0.161	-0.216
-582.836	-11.814	-0.170	0.112
-581.821	178.169	-0.179	-0.263
-580.806	-113.858	0.261	0.051
-579.792	-200.000	-0.002	-0.128
-578.777	-172.870	0.214	-0.007
-577.763	218.783	-0.152	0.245
-576.748	57.758	0.277	0.273
-575.733	-18.980	-0.344	-0.215
-574.719	-92.922	-0.028	0.008
-573.704	-53.962	0.395	0.181
-572.690	-200.000	0.311	0.000
-571.675	135.677	0.088	-0.115
-570.661	-29.029	0.070	0.041
-569.646	228.835	0.276	0.453
-568.631	-50.863	0.175	0.083
-567.617	26.258	-0.120	-0.101
-566.602	80.831	0.338	0.366
-565.588	123.070	-0.161	-0.202
-564.573	800.000	0.063	-0.277
-563.558	-85.941	-0.320	-0.100
-562.544	147.538	0.104	-0.141
-561.529	-39.696	0.113	0.060
-560.515	-200.000	0.032	-0.393
-559.500	-82.453	0.239	0.078
-558.485	800.000	-0.089	-0.300
-557.471	-58.125	-0.029	-0.013
-556.456	70.969	-0.082	0.085
-555.442	-96.869	0.117	0.031
-554.427	-81.683	-0.447	-0.147
-553.412	-121.202	0.296	0.050
-552.398	50.164	-0.142	-0.135
-551.383	-79.170	-0.137	-0.047
-550.369	92.036	0.174	-0.197
-549.354	800.000	-0.067	-0.272
-548.339	-200.000	0.024	-0.301
-547.325	-200.000	-0.002	-0.335
-546.310	105.295	0.183	0.217
-545.296	41.121	-0.160	0.145
-544.281	43.456	0.131	-0.120
-543.266	17.743	-0.245	-0.196
-542.252	48.023	0.064	-0.060
-541.237	-44.650	-0.094	-0.047
-540.223	89.814	0.222	-0.249
-539.208	99.824	-0.212	-0.247
-538.193	244.823	0.131	-0.222
-537.179	-200.000	-0.028	-0.202
-536.164	-200.000	0.004	-0.083
-535.150	-44.675	-0.285	-0.143
-534.135	15.233	-0.223	0.175
-533.121	-36.069	0.042	0.023
-532.106	-45.241	0.273	-0.136
-531.091	-82.603	0.339	-0.110
-530.077	-55.710	-0.058	0.026
-529.062	-110.348	0.257	0.054
-528.048	303.168	0.205	0.381
-527.033	112.626	0.276	-0.336
-526.018	-82.167	-0.184	-0.060
-525.004	800.000	0.014	0.059
-523.989	2.484	0.132	-0.096
-522.975	154.888	-0.186	-0.257
-521.960	304.953	-0.087	0.162
-520.945	-81.905	-0.138	-0.045
-519.931	800.000	0.017	0.051
-518.916	-20.765	-0.035	0.021
-517.902	43.760	-0.184	-0.169
-516.887	-200.000	0.014	0.266
-515.872	-200.000	-0.016	0.117
-514.858	-200.000	0.002	0.324
-513.843	-200.000	-0.005	-0.147
-512.829	112.975	-0.102	-0.124
-511.814	800.000	-0.062	0.180
-510.799	-102.595	-0.146	-0.035
-509.785	81.965	-0.158	-0.171
-508.770	91.086	-0.125	0.140
-507.756	325.597	-0.101	0.195
-506.741	-200.000	-0.045	0.223
-505.726	133.677	-0.094	-0.122
-504.712	35.982	-0.192	-0.169
-503.697	-200.000	-0.079	-0.348
-502.683	-38.888	0.221	0.117
-501.668	-9.964	0.196	-0.131
-500.653	-200.000	-0.041	0.413
-499.639	128.405	-0.169	0.216
-498.624	371.294	0.216	-0.439
-497.610	-200.000	-0.031	0.142
-496.595	290.951	0.094	-0.172
-495.581	-177.844	-0.450	0.011
-494.566	36.550	-0.234	0.207
-493.551	-131.296	-0.287	-0.038
-492.537	800.000	0.002	-0.008
-491.522	153.244	0.173	0.237
-490.508	96.775	-0.116	0.134
-489.493	16.791	0.112	0.089
-488.478	-147.747	-0.115	-0.010
-487.464	-3.477	-0.503	-0.351
-486.449	134.684	-0.130	-0.168
-485.435	-145.306	-0.243	-0.022
-484.420	-172.983	-0.230	-0.007
-483.405	-94.380	-0.395	-0.108
-482.391	433.849	0.118	0.258
-481.376	43.858	0.156	-0.143
-480.362	253.670	0.091	-0.156
-479.347	133.596	0.036	0.046
-478.332	-200.000	-0.018	-0.092
-477.318	200.171	0.069	0.107
-476.303	-147.011	0.157	0.014
-475.289	419.895	0.024	0.052
-474.274	-15.683	-0.413	0.264
-473.259	-23.552	0.101	0.061
-472.245	445.622	0.155	-0.341
-471.230	38.245	-0.025	0.023
-470.216	-130.914	-0.333	0.045
-469.201	-50.410	0.315	-0.149
-468.186	-92.303	-0.270	0.076
-467.172	153.335	-0.035	-0.048
-466.157	141.012	0.128	0.170
-465.143	-200.000	0.006	-0.275
-464.128	281.237	-0.077	-0.138
-463.113	187.450	-0.049	0.073
-462.099	494.667	-0.058	-0.134
-461.084	36.189	-0.110	0.097
-460.070	800.000	0.091	-0.287
-459.055	-76.046	-0.297	0.105
-458.040	71.327	0.282	0.293
-457.026	81.591	0.061	0.067
-456.011	-15.299	0.149	0.095
-454.997	190.676	-0.082	0.123
-453.982	788.492	0.056	0.155
-452.968	-143.208	0.413	0.040
-451.953	-48.713	0.125	0.060
-450.938	-127.289	-0.199	0.029
-449.924	-74.682	0.217	-0.078
-448.909	17.483	-0.177	0.141
-447.895	1.062	-0.138	0.099
-446.880	-200.000	-0.032	0.425
-445.865	-200.000	-0.118	0.000
-444.851	762.549	-0.116	0.314
-443.836	-200.000	0.005	-0.261
-442.822	-6.892	0.261	0.178
-441.807	-17.329	0.123	-0.077
-440.792	77.889	-0.078	-0.083
-439.778	75.934	-0.051	-0.054
-438.763	139.773	0.016	0.021
-437.749	-90.428	-0.237	-0.069
-436.734	231.440	-0.050	-0.083
-435.719	-82.462	0.144	-0.047
-434.705	-13.124	-0.056	0.037
-433.690	226.083	-0.225	0.365
-432.676	327.217	-0.030	0.058
-431.661	-87.910	-0.280	-0.084
-430.646	-200.000	0.008	-0.470
-429.632	133.165	-0.179	0.232
-428.617	290.069	0.072	0.130
-427.603	260.583	-0.107	-0.185
-426.588	-7.408	-0.197	-0.134
-425.573	-102.571	0.295	0.071
-424.559	33.682	-0.099	0.086
-423.544	-200.000	-0.004	0.295
-422.530	-200.000	-0.033	-0.214
-421.515	-200.000	0.008	-0.108
-420.500	-200.000	0.008	-0.536
-419.486	63.947	0.156	-0.157
-418.471	415.412	-0.025	-0.052
-417.457	-200.000	0.002	-0.130
-416.442	-200.000	-0.064	0.305
-415.428	-89.035	-0.290	0.086
-414.413	280.190	-0.043	0.076
-413.398	10.227	0.274	0.208
-412.384	54.691	0.358	0.345
-411.369	-200.000	-0.008	0.331
-410.355	800.000	-0.079	0.312
-409.340	800.000	-0.055	0.196
-408.325	460.805	-0.041	-0.091
-407.311	-159.259	0.299	-0.017
-406.296	-2.905	-0.089	0.062
-405.282	-120.883	0.311	0.052
-404.267	106.720	0.055	0.066
-403.252	31.536	0.119	-0.102
-402.238	-200.000	0.025	-0.147
-401.223	800.000	0.010	-0.043
-400.209	-17.996	0.181	0.113
-399.194	-200.000	0.016	-0.236
-398.179	14.605	-0.249	-0.194
-397.165	-5.970	-0.079	0.054
-396.150	-122.354	0.403	-0.066
-395.136	-61.737	0.289	0.121
-394.121	39.656	0.174	-0.156
-393.106	-157.360	-0.284	0.017
-392.092	800.000	0.088	0.296
-391.077	-136.339	0.094	-0.011
-390.063	-14.393	0.260	0.167
-389.048	-9.218	-0.158	0.106
-388.033	-170.224	0.178	-0.006
-387.019	800.000	-0.022	0.079
-386.004	-12.179	-0.202	-0.132
-384.990	-43.019	0.324	0.164
-383.975	256.088	0.102	-0.175
-382.960	-46.851	-0.118	-0.058
-381.946	-27.596	0.092	0.054
-380.931	-105.602	0.183	-0.041
-379.917	-200.000	-0.043	0.379
-378.902	610.807	0.072	-0.179
-377.888	800.000	-0.084	-0.234
-376.873	460.097	0.124	0.275
-375.858	800.000	0.065	0.216
-374.844	382.918	-0.095	-0.194
-373.829	-88.263	-0.087	-0.026
-372.815	183.511	0.049	-0.073
-371.800	-132.082	0.299	-0.039
-370.785	-191.189	-0.188	0.002
-369.771	72.415	-0.126	0.131
-368.756	800.000	0.065	-0.239
-367.742	-9.720	0.145	0.096
-366.727	-5.751	-0.357	-0.244
-365.712	23.913	-0.182	-0.150
-364.698	800.000	-0.078	0.274
-363.683	800.000	0.033	0.120
-362.669	230.362	-0.132	0.216
-361.654	-74.102	-0.184	0.066
-360.639	-44.486	-0.301	0.150
-359.625	117.908	-0.039	0.048
-358.610	-200.000	-0.042	-0.272
-357.596	269.651	0.106	0.186
-356.581	-81.831	0.116	-0.038
-355.566	-119.594	0.123	-0.021
-354.552	-0.911	0.134	-0.095
-353.537	-200.000	-0.029	0.277
-352.523	-200.000	0.014	0.295
-351.508	13.376	-0.234	0.181
-350.493	-200.000	-0.043	0.214
-349.479	496.581	-0.095	-0.219
-348.464	-53.977	-0.378	-0.172
-347.450	-40.200	-0.159	0.083
-346.435	-200.000	0.042	0.204
-345.420	-200.000	0.065	0.418
-344.406	339.057	-0.056	-0.108
-343.391	391.857	-0.160	-0.331
-342.377	72.009	0.218	-0.226
-341.362	298.396	0.142	-0.260
-340.348	100.930	-0.288	-0.333
-339.333	800.000	0.124	0.353
-338.318	-9.081	-0.120	-0.080
-337.304	95.912	0.162	0.184
-336.289	70.278	-0.210	-0.216
-335.275	-97.612	0.217	-0.056
-334.260	751.561	0.208	-0.560
-333.245	447.878	0.070	0.155
-332.231	21.050	0.162	-0.131
-331.216	530.626	0.088	0.206
-330.202	-90.735	0.054	0.015
-329.187	7.345	0.216	-0.161
-328.172	-95.627	0.029	-0.008
-327.158	-200.000	-0.040	0.369
-326.143	-200.000	-0.026	-0.229
-325.129	96.928	0.434	-0.496
-324.114	-55.178	0.134	-0.060
-323.099	90.892	-0.191	-0.214
-322.085	78.128	0.031	-0.033
-321.070	-103.607	-0.177	-0.041
-320.056	-200.000	-0.092	0.465
-319.041	-19.628	-0.250	-0.154
-318.026	-19.784	-0.041	-0.025
-317.012	-63.477	-0.331	-0.135
-315.997	122.489	0.069	0.086
-314.983	310.327	-0.031	-0.058
-313.968	-200.000	0.066	-0.344
-312.953	78.098	-0.276	0.293
-311.939	680.272	0.073	0.188
-310.924	7.670	0.091	0.068
-309.910	-154.550	-0.161	0.011
-308.895	92.469	-0.156	0.175
-307.880	-200.000	-0.016	-0.081
-306.866	342.676	-0.163	-0.317
-305.851	-137.915	0.120	0.013
-304.837	16.367	-0.146	0.114
-303.822	-200.000	-0.023	-0.217
-302.807	-118.991	0.271	-0.047
-301.793	-24.307	0.134	0.079
-300.778	800.000	0.084	-0.352
-299.764	-176.569	-0.151	0.004
-298.749	159.429	0.022	-0.031
-297.735	9.988	0.174	0.132
-296.720	333.437	0.014	-0.027
-295.705	-200.000	-0.035	0.192
-294.691	206.112	0.295	0.456
-293.676	-124.354	-0.196	0.030
-292.662	-155.421	0.373	0.024
-291.647	800.000	0.033	-0.125
-290.632	-85.401	-0.417	-0.129
-289.618	-3.469	0.273	-0.189
-288.603	29.813	0.113	0.096
-287.589	-134.413	0.128	0.016
-286.574	-83.465	0.196	0.062
-285.559	154.100	-0.108	-0.147
-284.545	272.782	0.064	-0.112
-283.530	-59.817	-0.156	0.067
-282.516	198.269	-0.244	-0.371
-281.501	-135.038	0.260	-0.031
-280.486	-44.877	0.159	0.079
-279.472	167.448	0.141	0.199
-278.457	-34.426	-0.069	0.037
-277.443	184.854	0.113	-0.166
-276.428	-45.427	0.085	-0.042
-275.413	-200.000	-0.046	0.331
-274.399	-77.484	-0.386	-0.133
-273.384	-70.388	-0.076	0.029
-272.370	800.000	0.060	0.168
-271.355	182.893	0.226	-0.331
-270.340	-200.000	0.011	-0.160
-269.326	-74.670	-0.153	0.055
-268.311	-100.826	-0.086	0.021
-267.297	-96.909	-0.234	-0.061
-266.282	-74.727	0.088	0.031
-265.267	118.582	0.069	-0.085
-264.253	800.000	-0.009	-0.037
-263.238	-49.373	-0.173	0.082
-262.224	-132.010	0.125	-0.016
-261.209	123.231	0.213	0.265
-260.195	-200.000	-0.045	-0.370
-259.180	29.196	-0.158	0.133
-258.165	160.804	0.102	0.141
-257.151	186.139	0.193	0.286
-256.136	-168.596	0.138	-0.005
-255.122	-132.319	-0.241	0.031
-254.107	-83.022	0.289	-0.093
-253.092	55.679	-0.386	0.372
-252.078	87.829	0.378	0.416
-251.063	28.573	0.087	0.073
-250.049	-200.000	0.055	-0.248
-249.034	-200.000	-0.095	-0.554
-248.019	-118.590	-0.256	0.045
-247.005	9.162	-0.141	0.106
-245.990	-31.001	0.154	0.086
-244.976	-69.483	0.151	0.058
-243.961	617.779	-0.044	0.109
-242.946	0.117	0.210	-0.148
-241.932	-111.358	-0.193	0.039
-240.917	283.949	0.104	0.185
-239.903	-137.371	-0.357	-0.040
-238.888	-172.738	0.124	0.004
-237.873	-30.861	-0.280	0.157
-236.859	800.000	-0.029	-0.106
-235.844	69.037	-0.172	-0.176
-234.830	162.747	0.188	-0.262
-233.815	-94.427	0.327	-0.089
-232.800	-200.000	0.023	0.430
-231.786	800.000	-0.181	0.556
-230.771	312.361	0.106	0.197
-229.757	800.000	-0.071	-0.247
-228.742	800.000	0.068	-0.293
-227.727	44.571	-0.076	-0.069
-226.713	250.976	-0.098	-0.166
-225.698	245.138	0.128	-0.213
-224.684	466.387	0.103	-0.228
-223.669	-13.560	-0.219	-0.141
-222.655	-200.000	-0.005	0.151
-221.640	-31.174	-0.126	0.071
-220.625	-100.886	-0.125	-0.031
-219.611	-200.000	-0.028	0.128
-218.596	-95.300	-0.080	0.021
-217.582	-88.009	0.166	-0.049
-216.567	67.999	-0.072	-0.073
-215.552	-200.000	0.002	0.114
-214.538	616.773	-0.105	-0.262
-213.523	-200.000	0.079	-0.342
-212.509	-175.754	0.179	0.005
-211.494	-200.000	0.060	0.278
-210.479	-12.974	0.241	0.155
-209.465	800.000	-0.087	-0.278
-208.450	279.540	-0.082	0.145
-207.436	-100.541	0.270	-0.066
-206.421	331.545	0.149	-0.285
-205.406	528.557	-0.033	0.076
-204.392	-141.427	-0.186	-0.019
-203.377	-200.000	-0.024	0.109
-202.363	277.121	-0.107	-0.188
-201.348	-135.363	-0.118	0.014
-200.333	4.258	-0.161	-0.117
-199.319	-25.129	-0.112	0.066
-198.304	94.708	0.158	0.179
-197.290	800.000	0.113	-0.364
-196.275	-127.443	-0.091	0.013
-195.260	-200.000	0.008	-0.437
-194.246	8.506	0.347	-0.259
-193.231	-95.086	0.231	0.062
-192.217	29.513	-0.055	-0.046
-191.202	-152.050	-0.298	0.022
-190.187	108.009	-0.132	0.156
-189.173	-200.000	-0.025	0.177
-188.158	514.809	-0.071	0.164
-187.144	120.936	0.096	-0.118
-186.129	500.945	0.069	0.158
-185.114	202.945	-0.048	-0.073
-184.100	139.843	0.104	0.135
-183.085	-59.091	0.014	0.006
-182.071	92.097	0.185	-0.206
-181.056	-200.000	0.000	-0.150
-180.042	-96.568	-0.380	0.099
-179.027	-200.000	0.058	0.293
-178.012	103.372	-0.087	-0.101
-176.998	76.034	-0.094	-0.098
-175.983	-160.445	0.140	0.007
-174.969	104.613	-0.102	-0.119
-173.954	-136.273	-0.198	0.023
-172.939	-200.000	-0.042	0.324
-171.925	-41.397	-0.092	-0.047
-170.910	129.011	-0.032	-0.041
-169.896	-9.416	0.115	0.076
-168.881	85.752	-0.297	-0.323
-167.866	678.267	0.166	-0.428
-166.852	800.000	-0.021	0.066
-165.837	-33.286	-0.205	0.112
-164.823	-34.792	-0.424	-0.229
-163.808	18.195	0.219	-0.173
-162.793	-48.071	-0.155	0.074
-161.779	81.822	-0.138	0.147
-160.764	-200.000	0.024	-0.106
-159.750	-21.969	0.057	0.034
-158.735	70.584	0.163	-0.167
-157.720	-98.048	0.163	-0.041
-156.706	-200.000	-0.019	-0.150
-155.691	-200.000	0.016	-0.195
-154.677	34.163	-0.223	-0.192
-153.662	-127.842	-0.161	0.023
-152.647	-200.000	-0.028	-0.251
-151.633	-94.008	0.481	0.131
-150.618	-82.185	0.280	-0.090
-149.604	364.815	-0.032	0.063
-148.589	-159.446	-0.113	0.006
-147.574	-116.601	0.311	-0.057
-146.560	30.495	0.211	-0.178
-145.545	44.926	0.131	0.119
-144.531	715.508	0.030	0.079
-143.516	-113.361	0.205	0.040
-142.502	-129.672	0.324	0.044
-141.487	-105.211	-0.306	0.069
-140.472	322.096	0.033	-0.062
-139.458	34.796	0.210	0.182
-138.443	-3.510	-0.182	0.125
-137.429	-200.000	-0.034	0.162
-136.414	537.366	-0.104	0.244
-135.399	505.013	-0.049	0.112
-134.385	-31.769	0.179	-0.099
-133.370	-200.000	0.007	-0.286
-132.356	-141.193	0.207	-0.021
-131.341	-200.000	-0.014	0.087
-130.326	-39.128	-0.165	0.086
-129.312	-120.435	0.379	0.064
-128.297	14.528	-0.270	-0.208
-127.283	-85.833	0.122	0.037
-126.268	-200.000	0.009	-0.213
-125.253	5.056	-0.169	-0.123
-124.239	187.639	-0.210	0.310
-123.224	374.008	-0.070	-0.140
-122.210	122.909	-0.222	-0.275
-121.195	-116.117	0.226	0.042
-120.180	-133.813	0.353	-0.043
