DTS Sentinel unit serial number:	SN413079Multiplexer serial number:	ORYXHardware model number:	OX4-SRSoftware version number:	ORYX F/W v4.00 Oryx Data Collector v3.7.2.0data status	okinstallation	princeton_trtdifferential loss correction	single-endedforward channel	channel 1reverse channel	N/Adate	2019/09/11time	04:40:11forward acquisition time	60.00reverse acquisition time	0.00gamma	496.2192k internal	0.2331k external	0.2331temperature offset calibration	0.9922default loss term (dB/km)	0.3790temperature slope calibration	1.0000multiplexer offset coefficient	1.0000multiplexer slope coefficient	1.0000fibre end	0.00T internal ref (°C)	29.53T ext. ref 1 (°C)	-0.28T ext. ref 2 (°C)	23.25length (m)	temperature (°C)	Stokes	anti-Stokes-747.200	-122.572	0.189	-0.031
-746.185	-99.763	-0.418	-0.105
-745.171	-61.877	0.396	0.167
-744.156	-89.642	-0.120	-0.035
-743.142	-200.000	-0.000	-0.215
-742.127	55.028	-0.237	0.230
-741.112	-136.668	0.145	-0.017
-740.098	-80.506	0.277	0.093
-739.083	-122.423	0.213	-0.035
-738.069	-200.000	0.000	0.049
-737.054	688.504	-0.084	-0.221
-736.039	-81.914	0.068	0.022
-735.025	-200.000	-0.005	0.083
-734.010	-98.778	0.234	-0.060
-732.996	101.426	-0.277	-0.324
-731.981	440.057	0.108	-0.238
-730.966	-200.000	-0.013	0.357
-729.952	24.927	0.088	-0.074
-728.937	240.541	-0.043	0.073
-727.923	311.866	0.144	-0.271
-726.908	-99.369	0.164	-0.041
-725.894	-200.000	0.011	-0.197
-724.879	-126.046	-0.278	0.042
-723.864	-131.675	-0.335	-0.044
-722.850	-31.867	0.035	0.020
-721.835	-92.810	0.181	-0.051
-720.821	-200.000	0.004	-0.346
-719.806	-124.054	0.278	-0.044
-718.791	-38.970	-0.321	-0.170
-717.777	-83.172	-0.021	-0.007
-716.762	800.000	0.084	-0.307
-715.748	-171.935	0.136	-0.004
-714.733	-200.000	0.021	-0.200
-713.718	-58.099	0.332	-0.146
-712.704	187.330	-0.127	-0.190
-711.689	-113.233	0.244	0.048
-710.675	182.809	0.142	-0.211
-709.660	-29.466	-0.217	0.125
-708.645	-62.208	-0.079	0.033
-707.631	252.831	-0.140	-0.240
-706.616	108.552	0.103	-0.124
-705.602	-126.213	-0.290	-0.044
-704.587	-49.132	0.287	-0.138
-703.572	-104.618	0.256	-0.059
-702.558	-131.828	0.344	-0.045
-701.543	-51.853	-0.131	-0.061
-700.529	800.000	0.096	-0.305
-699.514	-94.086	0.080	0.022
-698.499	-200.000	0.034	-0.521
-697.485	800.000	0.094	-0.393
-696.470	-200.000	0.017	0.086
-695.456	41.472	0.279	-0.254
-694.441	138.033	0.171	-0.225
-693.426	114.329	-0.198	-0.242
-692.412	83.396	0.275	-0.301
-691.397	-152.868	-0.253	0.018
-690.383	31.398	0.276	-0.238
-689.368	-105.601	-0.268	-0.061
-688.354	800.000	0.095	-0.266
-687.339	46.630	0.140	-0.130
-686.324	800.000	-0.020	-0.082
-685.310	127.363	0.099	-0.126
-684.295	800.000	0.103	-0.447
-683.281	-200.000	-0.015	-0.126
-682.266	97.582	0.074	-0.086
-681.251	114.666	0.116	-0.142
-680.237	-89.895	-0.133	-0.039
-679.222	800.000	0.113	0.327
-678.208	-180.557	-0.098	0.002
-677.193	800.000	-0.087	-0.269
-676.178	28.587	-0.057	-0.049
-675.164	-51.985	-0.495	0.231
-674.149	-157.099	0.225	0.014
-673.135	-160.402	-0.396	-0.021
-672.120	140.376	0.097	-0.129
-671.105	522.454	0.114	0.268
-670.091	-119.945	-0.255	-0.044
-669.076	-121.288	-0.271	0.045
-668.062	23.937	0.173	-0.143
-667.047	-32.651	0.268	-0.150
-666.032	317.222	0.100	0.190
-665.018	-53.475	0.103	0.048
-664.003	800.000	0.073	-0.319
-662.989	13.609	0.151	-0.118
-661.974	6.626	0.082	0.061
-660.959	-200.000	-0.007	0.213
-659.945	314.268	0.152	-0.286
-658.930	-24.471	-0.557	-0.333
-657.916	127.222	-0.166	-0.211
-656.901	-74.160	0.353	0.128
-655.886	632.815	-0.080	0.204
-654.872	-200.000	0.009	-0.171
-653.857	-63.267	0.163	-0.067
-652.843	-200.000	-0.027	-0.381
-651.828	-200.000	0.035	0.196
-650.814	160.421	-0.133	-0.186
-649.799	-200.000	-0.036	-0.231
-648.784	-200.000	-0.036	0.217
-647.770	100.056	-0.099	-0.116
-646.755	49.574	-0.174	0.164
-645.741	-106.817	-0.201	0.045
-644.726	-120.695	-0.326	0.055
-643.711	172.597	-0.145	-0.209
-642.697	800.000	0.054	0.173
-641.682	130.429	0.042	-0.053
-640.668	-88.624	0.157	-0.047
-639.653	81.349	0.088	0.095
-638.638	-96.561	0.138	-0.036
-637.624	98.629	-0.155	0.179
-636.609	-200.000	-0.019	0.157
-635.595	258.473	-0.086	0.149
-634.580	38.137	0.222	-0.198
-633.565	390.039	-0.056	-0.116
-632.551	391.231	-0.059	0.124
-631.536	259.057	-0.097	-0.167
-630.522	-60.259	0.205	-0.087
-629.507	9.363	-0.195	0.148
-628.492	-21.037	0.020	0.012
-627.478	-42.458	-0.369	-0.189
-626.463	34.898	-0.071	-0.063
-625.449	-94.670	-0.344	0.094
-624.434	-118.666	0.182	-0.032
-623.419	-200.000	-0.024	-0.235
-622.405	68.843	0.163	-0.167
-621.390	33.316	0.467	0.406
-620.376	117.202	-0.031	-0.038
-619.361	-96.822	-0.256	-0.067
-618.346	-200.000	0.012	-0.422
-617.332	435.411	0.084	-0.184
-616.317	-39.923	-0.139	-0.073
-615.303	-43.263	-0.239	0.121
-614.288	699.968	-0.040	-0.106
-613.273	800.000	0.070	-0.251
-612.259	800.000	0.068	0.285
-611.244	-28.506	-0.085	0.049
-610.230	-167.865	0.155	-0.006
-609.215	147.038	0.088	-0.119
-608.201	-21.255	-0.161	-0.099
-607.186	-65.675	-0.153	0.062
-606.171	-52.236	-0.276	0.128
-605.157	800.000	-0.033	-0.094
-604.142	800.000	0.089	0.254
-603.128	-139.128	-0.324	-0.035
-602.113	-29.646	-0.104	0.060
-601.098	-114.695	0.045	0.009
-600.084	341.728	0.066	-0.129
-599.069	-59.729	-0.050	-0.021
-598.055	339.554	-0.175	0.341
-597.040	49.154	-0.143	-0.134
-596.025	800.000	0.099	-0.424
-595.011	-57.243	0.163	0.072
-593.996	-23.698	-0.022	0.013
-592.982	37.679	0.131	0.117
-591.967	-20.420	0.175	0.108
-590.952	414.064	0.056	0.119
-589.938	-200.000	-0.001	-0.171
-588.923	-87.867	0.290	-0.087
-587.909	-132.083	-0.248	0.032
-586.894	382.491	-0.127	-0.261
-585.879	235.946	0.119	-0.197
-584.865	-103.654	0.348	-0.082
-583.850	-74.842	-0.194	0.070
-582.836	130.913	-0.155	-0.199
-581.821	-2.444	0.039	0.027
-580.806	-144.442	0.208	0.019
-579.792	792.360	0.064	-0.177
-578.777	-200.000	0.023	-0.146
-577.763	14.902	0.274	-0.215
-576.748	53.353	-0.014	0.013
-575.733	240.715	0.201	-0.336
-574.719	-83.805	0.073	-0.023
-573.704	154.294	-0.161	0.222
-572.690	-12.331	-0.124	0.081
-571.675	-200.000	0.015	0.162
-570.661	77.524	-0.223	0.237
-569.646	800.000	0.025	0.075
-568.631	-115.361	-0.364	0.069
-567.617	-148.074	-0.469	-0.039
-566.602	-200.000	0.011	0.160
-565.588	-45.947	0.093	0.046
-564.573	170.973	0.152	0.218
-563.558	100.294	-0.121	0.141
-562.544	-200.000	0.023	0.153
-561.529	-84.351	0.117	-0.037
-560.515	-13.581	-0.204	0.132
-559.500	452.463	0.073	0.161
-558.485	800.000	-0.117	0.380
-557.471	-50.080	0.208	0.099
-556.456	800.000	0.080	-0.253
-555.442	-64.100	-0.167	-0.068
-554.427	88.226	-0.088	0.097
-553.412	-117.578	-0.150	0.027
-552.398	230.648	0.071	-0.115
-551.383	49.107	-0.146	-0.137
-550.369	414.861	-0.056	-0.119
-549.354	800.000	-0.076	0.220
-548.339	297.491	-0.016	0.028
-547.325	-103.745	0.179	0.042
-546.310	-47.769	0.084	0.041
-545.296	149.885	0.092	-0.124
-544.281	-149.675	0.423	-0.033
-543.266	-97.171	-0.251	0.065
-542.252	165.027	-0.065	-0.092
-541.237	119.456	0.201	0.248
-540.223	70.628	0.098	-0.101
-539.208	800.000	0.079	-0.293
-538.193	-200.000	0.037	-0.214
-537.179	-200.000	-0.047	0.262
-536.164	-200.000	-0.012	-0.081
-535.150	-103.562	0.222	0.052
-534.135	-37.178	0.189	0.101
-533.121	800.000	0.040	0.128
-532.106	251.718	0.136	-0.230
-531.091	-115.585	0.116	0.022
-530.077	-200.000	-0.042	0.315
-529.062	-56.100	-0.061	0.027
-528.048	-67.197	0.019	0.007
-527.033	-44.468	-0.268	0.134
-526.018	-200.000	0.033	0.192
-525.004	800.000	-0.081	-0.224
-523.989	53.788	-0.349	0.335
-522.975	-161.611	0.337	-0.017
-521.960	63.145	0.096	-0.096
-520.945	-127.204	-0.198	0.029
-519.931	152.297	0.075	-0.102
-518.916	83.229	-0.056	0.061
-517.902	671.295	-0.159	-0.412
-516.887	-77.119	0.129	-0.045
-515.872	339.648	-0.063	0.122
-514.858	674.106	-0.082	-0.211
-513.843	151.009	-0.148	-0.201
-512.829	-76.545	-0.282	0.099
-511.814	-109.593	0.213	0.045
-510.799	96.158	0.113	0.128
-509.785	-57.082	-0.070	-0.031
-508.770	-33.883	-0.201	0.111
-507.756	-47.965	0.127	0.061
-506.741	-200.000	0.035	-0.159
-505.726	-13.832	0.135	-0.087
-504.712	800.000	-0.037	0.136
-503.697	312.295	0.074	0.139
-502.683	-171.756	-0.177	-0.006
-501.668	-34.731	-0.135	-0.074
-500.653	202.894	-0.134	-0.207
-499.639	-200.000	0.051	-0.259
-498.624	-130.156	-0.208	-0.028
-497.610	-12.788	0.071	0.046
-496.595	-90.170	0.457	-0.133
-495.581	-43.244	0.084	-0.042
-494.566	97.893	-0.193	0.221
-493.551	9.322	0.187	0.141
-492.537	-46.259	0.194	-0.095
-491.522	800.000	-0.072	0.248
-490.508	135.800	0.083	0.108
-489.493	-79.890	-0.168	0.056
-488.478	-77.509	0.086	-0.030
-487.464	-105.745	0.233	-0.053
-486.449	-106.008	0.118	0.026
-485.435	-47.481	0.260	0.126
-484.420	337.401	0.127	-0.247
-483.405	167.344	0.055	-0.078
-482.391	103.407	-0.138	0.161
-481.376	198.026	0.127	0.194
-480.362	-172.004	0.147	0.005
-479.347	-150.502	0.167	0.013
-478.332	390.815	0.048	0.099
-477.318	800.000	0.065	-0.212
-476.303	-200.000	-0.033	-0.400
-475.289	-200.000	-0.029	0.152
-474.274	133.513	-0.069	0.089
-473.259	-127.951	-0.553	0.079
-472.245	800.000	0.024	-0.092
-471.230	-101.819	0.258	0.062
-470.216	-200.000	-0.010	-0.329
-469.201	-200.000	-0.012	0.240
-468.186	-156.271	-0.055	-0.003
-467.172	-55.617	0.315	-0.140
-466.157	-116.589	0.315	0.058
-465.143	-104.300	0.121	-0.028
-464.128	35.297	-0.165	0.144
-463.113	261.205	0.138	0.237
-462.099	-131.879	-0.100	0.013
-461.084	-2.985	0.078	-0.055
-460.070	-25.989	-0.319	0.187
-459.055	-101.568	-0.099	0.024
-458.040	-94.595	0.184	0.050
-457.026	-89.769	-0.301	-0.088
-456.011	-152.318	0.050	-0.004
-454.997	800.000	-0.104	-0.292
-453.982	-50.633	0.342	-0.160
-452.968	11.918	0.091	0.070
-451.953	-24.657	0.205	-0.121
-450.938	-200.000	-0.022	0.180
-449.924	-84.835	0.191	0.060
-448.909	699.443	-0.128	-0.334
-447.895	-200.000	0.026	0.332
-446.880	188.892	0.159	-0.237
-445.865	-55.498	0.348	0.155
-444.851	266.885	-0.128	0.223
-443.836	306.463	0.047	-0.088
-442.822	-154.489	0.197	-0.013
-441.807	15.278	-0.151	0.118
-440.792	-90.967	-0.276	-0.079
-439.778	57.344	-0.125	0.121
-438.763	-173.587	0.434	-0.013
-437.749	3.813	0.052	0.038
-436.734	18.719	-0.041	-0.033
-435.719	-200.000	0.022	-0.322
-434.705	-115.030	-0.305	0.058
-433.690	-170.178	-0.346	-0.012
-432.676	-200.000	-0.014	-0.081
-431.661	-104.302	0.078	0.018
-430.646	-200.000	0.008	0.063
-429.632	800.000	-0.092	0.257
-428.617	-166.814	0.182	-0.007
-427.603	-200.000	0.009	0.059
-426.588	-127.085	-0.157	0.023
-425.573	200.582	0.133	-0.203
-424.559	209.989	-0.207	0.323
-423.544	-200.000	-0.077	0.341
-422.530	-54.081	-0.164	-0.074
-421.515	-118.665	-0.180	0.032
-420.500	-200.000	-0.017	0.197
-419.486	11.314	0.217	0.165
-418.471	800.000	-0.058	-0.185
-417.457	-146.937	0.264	0.023
-416.442	-99.703	0.141	-0.035
-415.428	-200.000	-0.064	-0.285
-414.413	-14.590	0.158	-0.101
-413.398	-40.046	0.183	0.095
-412.384	-140.735	0.458	-0.047
-411.369	131.452	0.144	-0.184
-410.355	-163.410	-0.173	-0.008
-409.340	74.095	0.175	-0.183
-408.325	-143.865	-0.420	-0.039
-407.311	-67.757	-0.113	-0.044
-406.296	2.691	-0.220	0.159
-405.282	-150.050	0.183	-0.014
-404.267	-168.708	0.094	0.004
-403.252	31.120	0.129	-0.110
-402.238	102.849	-0.088	-0.103
-401.223	28.557	0.400	-0.336
-400.209	23.493	-0.108	0.089
-399.194	-200.000	-0.015	0.111
-398.179	-9.630	-0.331	0.219
-397.165	14.579	-0.250	0.194
-396.150	800.000	0.030	-0.111
-395.136	-2.031	0.188	-0.131
-394.121	136.452	0.067	0.087
-393.106	800.000	-0.046	0.186
-392.092	800.000	0.012	-0.044
-391.077	95.273	0.111	0.126
-390.063	511.097	0.080	0.184
-389.048	-154.911	-0.361	-0.024
-388.033	-49.422	0.239	-0.113
-387.019	-152.018	-0.240	0.017
-386.004	185.816	0.134	-0.198
-384.990	-200.000	0.003	-0.244
-383.975	86.688	-0.032	-0.036
-382.960	91.103	0.168	0.187
-381.946	-8.184	0.065	0.044
-380.931	-90.287	0.149	-0.043
-379.917	-61.510	0.179	-0.074
-378.902	-47.235	0.240	-0.116
-377.888	-168.894	0.094	0.004
-376.873	401.103	0.147	-0.306
-375.858	-75.296	0.210	0.074
-374.844	574.788	-0.074	-0.180
-373.829	800.000	-0.040	-0.161
-372.815	-200.000	-0.044	0.192
-371.800	-40.490	0.162	0.084
-370.785	-65.815	0.140	0.055
-369.771	-67.713	-0.223	0.087
-368.756	-200.000	0.012	0.144
-367.742	-127.691	-0.060	-0.009
-366.727	19.821	0.147	0.118
-365.712	204.991	-0.028	0.043
-364.698	277.054	-0.189	-0.333
-363.683	190.196	-0.094	-0.140
-362.669	800.000	-0.058	-0.215
-361.654	-42.322	0.228	-0.115
-360.639	-79.518	0.161	0.054
-359.625	-41.697	0.170	0.087
-358.610	-136.772	-0.143	-0.016
-357.596	287.137	0.067	0.120
-356.581	107.599	0.196	0.231
-355.566	87.214	-0.071	-0.078
-354.552	-7.014	-0.203	-0.136
-353.537	228.810	-0.056	-0.090
-352.523	-119.225	-0.293	0.051
-351.508	604.228	0.052	0.128
-350.493	283.229	-0.088	0.157
-349.479	267.160	-0.049	0.084
-348.464	-200.000	0.021	0.174
-347.450	421.592	-0.090	0.192
-346.435	-92.744	-0.265	-0.073
-345.420	29.170	0.135	-0.113
-344.406	-70.101	0.058	-0.022
-343.391	174.035	0.124	0.178
-342.377	-60.330	0.157	-0.066
-341.362	66.460	-0.173	0.174
-340.348	94.443	0.151	0.170
-339.333	-83.580	0.083	-0.026
-338.318	23.055	-0.214	0.174
-337.304	125.710	0.105	-0.131
-336.289	800.000	0.027	0.087
-335.275	800.000	0.006	0.017
-334.260	673.353	0.124	-0.319
-333.245	-159.771	0.201	0.011
-332.231	-200.000	0.004	-0.182
-331.216	-200.000	-0.040	-0.381
-330.202	21.277	-0.214	-0.172
-329.187	57.439	-0.040	0.039
-328.172	800.000	-0.046	-0.138
-327.158	0.084	-0.292	-0.206
-326.143	800.000	0.092	-0.331
-325.129	150.277	0.116	-0.156
-324.114	-1.378	-0.096	0.067
-323.099	361.377	0.055	-0.109
-322.085	-151.667	-0.108	-0.008
-321.070	36.076	0.134	-0.117
-320.056	251.288	-0.253	0.425
-319.041	-106.101	0.380	0.085
-318.026	379.653	-0.134	-0.271
-317.012	-200.000	-0.080	-0.414
-315.997	-9.074	0.108	0.072
-314.983	-200.000	0.041	0.247
-313.968	800.000	-0.029	0.081
-312.953	539.793	-0.085	0.199
-311.939	-15.082	0.274	-0.174
-310.924	294.345	0.100	0.181
-309.910	-200.000	-0.020	0.097
-308.895	-200.000	-0.048	0.370
-307.880	-179.273	-0.054	0.001
-306.866	-173.718	-0.094	0.003
-305.851	-200.000	0.022	0.253
-304.837	-133.293	0.094	-0.012
-303.822	800.000	0.062	-0.198
-302.807	-107.155	-0.098	-0.021
-301.793	800.000	-0.054	-0.166
-300.778	191.611	-0.084	0.125
-299.764	500.416	0.056	0.127
-298.749	800.000	0.052	0.164
-297.735	800.000	-0.044	-0.137
-296.720	57.943	0.097	0.094
-295.705	-83.879	-0.319	0.100
-294.691	-102.287	-0.114	0.027
-293.676	198.327	0.141	0.214
-292.662	800.000	0.098	-0.312
-291.647	261.118	-0.074	0.127
-290.632	36.520	-0.109	0.095
-289.618	-135.723	0.161	-0.019
-288.603	-200.000	-0.081	-0.374
-287.589	-61.465	-0.222	-0.092
-286.574	-76.966	-0.209	0.072
-285.559	-200.000	0.021	0.179
-284.545	-60.190	-0.209	-0.088
-283.530	192.476	0.198	0.295
-282.516	-200.000	0.015	-0.236
-281.501	-141.590	-0.113	0.011
-280.486	-87.751	-0.123	-0.037
-279.472	73.561	-0.256	-0.265
-278.457	-135.648	-0.243	0.028
-277.443	800.000	-0.023	0.080
-276.428	-200.000	0.017	0.098
-275.413	32.753	0.186	0.159
-274.399	-200.000	-0.001	-0.174
-273.384	-76.571	-0.036	-0.012
-272.370	295.148	-0.120	0.217
-271.355	40.304	0.260	-0.231
-270.340	-35.535	-0.133	0.071
-269.326	-183.329	0.344	0.006
-268.311	-60.613	-0.137	-0.057
-267.297	154.434	0.186	-0.253
-266.282	165.476	0.074	0.103
-265.267	156.690	-0.050	-0.069
-264.253	-17.219	0.054	0.034
-263.238	-4.137	0.047	0.032
-262.224	-200.000	0.052	0.280
-261.209	-17.217	-0.589	0.367
-260.195	-200.000	0.026	0.238
-259.180	-108.839	-0.230	0.049
-258.165	-115.193	-0.094	-0.018
-257.151	-200.000	-0.033	-0.404
-256.136	-200.000	0.031	-0.149
-255.122	-150.896	-0.181	-0.014
-254.107	176.722	-0.172	0.248
-253.092	46.597	0.138	-0.126
-252.078	-5.175	-0.224	0.152
-251.063	-138.811	-0.473	-0.051
-250.049	-43.992	0.057	-0.028
-249.034	-117.694	0.453	-0.080
-248.019	-82.937	0.314	0.100
-247.005	-200.000	-0.034	0.201
-245.990	-200.000	-0.049	0.316
-244.976	90.647	0.086	0.095
-243.961	56.569	0.262	-0.251
-242.946	82.597	0.364	0.390
-241.932	148.185	0.133	-0.177
-240.917	-12.720	-0.110	0.071
-239.903	-200.000	0.066	0.303
-238.888	800.000	-0.076	-0.270
-237.873	88.534	-0.122	0.134
-236.859	-126.544	0.065	0.009
-235.844	74.826	0.085	0.088
-234.830	88.324	-0.013	0.015
-233.815	-98.434	0.137	0.035
-232.800	294.934	0.152	-0.273
-231.786	800.000	-0.029	0.114
-230.771	76.819	-0.201	0.210
-229.757	800.000	-0.075	-0.264
-228.742	-200.000	0.000	-0.196
-227.727	0.600	0.133	-0.094
-226.713	110.705	-0.278	0.330
-225.698	150.475	-0.039	-0.052
-224.684	800.000	-0.054	0.217
-223.669	-20.360	-0.099	0.060
-222.655	420.043	0.074	0.156
-221.640	-101.693	0.405	-0.097
-220.625	102.917	0.018	-0.020
-219.611	247.713	0.154	-0.256
-218.596	-162.239	-0.329	-0.016
-217.582	-74.133	0.326	0.116
-216.567	629.744	0.037	-0.092
-215.552	-200.000	-0.027	-0.227
-214.538	-7.285	0.490	-0.328
-213.523	-200.000	0.067	-0.350
-212.509	-200.000	-0.014	-0.088
-211.494	-42.107	-0.210	-0.106
-210.479	800.000	0.046	0.195
-209.465	800.000	-0.084	-0.347
-208.450	667.275	0.037	-0.094
-207.436	169.197	-0.113	-0.159
-206.421	118.003	-0.033	-0.040
-205.406	120.873	0.212	-0.260
-204.392	68.705	0.201	0.203
-203.377	180.170	0.282	0.408
-202.363	800.000	-0.031	-0.111
-201.348	-52.780	0.177	0.080
-200.333	403.313	-0.063	0.132
-199.319	-4.842	0.482	0.327
-198.304	-95.823	-0.440	-0.116
-197.290	-200.000	0.021	-0.093
-196.275	-165.022	0.217	-0.010
-195.260	20.019	0.241	0.191
-194.246	82.832	-0.165	-0.177
-193.231	-26.519	-0.414	0.239
-192.217	-200.000	-0.014	0.229
-191.202	719.944	0.138	-0.361
-190.187	26.110	-0.118	-0.097
-189.173	64.577	-0.110	-0.109
-188.158	177.838	-0.115	0.165
-187.144	113.149	-0.191	0.228
-186.129	244.450	-0.100	0.165
-185.114	49.542	-0.279	0.258
-184.100	57.003	0.235	0.226
-183.085	-56.935	0.423	-0.184
-182.071	18.468	-0.068	-0.054
-181.056	800.000	-0.122	-0.378
-180.042	72.044	-0.221	-0.226
-179.027	-32.104	0.225	-0.124
-178.012	221.301	-0.069	0.110
-176.998	27.571	-0.078	-0.065
-175.983	449.834	0.076	0.165
-174.969	-113.444	0.138	0.027
-173.954	800.000	-0.008	0.031
-172.939	605.751	-0.107	-0.263
-171.925	251.904	0.125	-0.210
-170.910	97.034	-0.178	0.201
-169.896	800.000	-0.112	-0.331
-168.881	-65.408	-0.044	0.017
-167.866	83.270	-0.142	-0.153
-166.852	106.332	-0.113	0.132
-165.837	374.031	0.143	-0.286
-164.823	-86.701	-0.111	0.034
-163.808	-12.232	-0.182	0.117
-162.793	-43.730	-0.175	0.087
-161.779	-180.467	0.226	-0.005
-160.764	-69.519	-0.313	0.118
-159.750	13.773	-0.366	-0.280
-158.735	34.819	0.146	-0.126
-157.720	2.134	0.014	0.010
-156.706	800.000	-0.120	0.354
-155.691	-200.000	-0.007	-0.039
-154.677	338.152	0.025	-0.048
-153.662	-200.000	-0.006	0.311
-152.647	-92.537	-0.145	0.040
-151.633	-200.000	0.071	0.329
-150.618	343.113	0.193	0.372
-149.604	-108.116	0.180	-0.038
-148.589	-13.484	-0.191	-0.122
-147.574	-199.978	0.244	-0.001
-146.560	94.083	-0.182	-0.203
-145.545	-48.103	0.183	0.087
-144.531	619.649	0.080	0.197
-143.516	-66.116	0.180	-0.071
-142.502	800.000	-0.080	-0.223
-141.487	-133.269	0.347	0.043
-140.472	-45.751	-0.252	0.123
-139.458	53.022	-0.101	0.095
-138.443	230.602	-0.119	-0.192
-137.429	-95.906	-0.175	0.046
-136.414	-80.810	0.224	-0.073
-135.399	-121.739	-0.149	-0.024
-134.385	330.921	0.044	-0.084
-133.370	-41.879	-0.562	-0.283
-132.356	101.740	-0.012	0.014
-131.341	800.000	0.118	0.346
-130.326	-70.549	0.223	-0.083
-129.312	-23.313	0.271	0.160
-128.297	-200.000	0.033	0.243
-127.283	20.920	0.228	-0.182
-126.268	800.000	-0.038	-0.123
-125.253	-0.288	0.372	-0.260
-124.239	-200.000	0.011	0.087
-123.224	-4.001	0.212	-0.144
-122.210	-200.000	0.021	-0.232
-121.195	-8.098	0.223	0.148
