DTS Sentinel unit serial number:	SN413079Multiplexer serial number:	ORYXHardware model number:	OX4-SRSoftware version number:	ORYX F/W v4.00 Oryx Data Collector v3.7.2.0data status	okinstallation	princeton_trtdifferential loss correction	single-endedforward channel	channel 1reverse channel	N/Adate	2019/09/10time	15:36:11forward acquisition time	60.00reverse acquisition time	0.00gamma	496.2192k internal	0.2298k external	0.2298temperature offset calibration	0.9922default loss term (dB/km)	0.3790temperature slope calibration	1.0000multiplexer offset coefficient	1.0000multiplexer slope coefficient	1.0000fibre end	0.00T internal ref (°C)	37.97T ext. ref 1 (°C)	-0.27T ext. ref 2 (°C)	32.40length (m)	temperature (°C)	Stokes	anti-Stokes-747.200	-32.629	0.090	0.051
-746.185	-28.351	0.259	0.153
-745.171	-200.000	0.009	0.131
-744.156	-5.883	-0.186	0.130
-743.142	-112.489	-0.049	-0.010
-742.127	203.638	-0.079	-0.126
-741.112	141.397	0.219	-0.296
-740.098	429.916	0.138	0.305
-739.083	-84.566	-0.178	-0.057
-738.069	28.103	0.162	0.140
-737.054	-78.547	0.034	0.012
-736.039	116.912	0.088	-0.111
-735.025	-144.008	0.514	-0.049
-734.010	289.692	-0.096	0.178
-732.996	800.000	-0.037	-0.161
-731.981	-200.000	0.039	-0.315
-730.966	62.247	-0.176	0.180
-729.952	-97.776	-0.335	-0.088
-728.937	58.956	-0.172	-0.172
-727.923	800.000	-0.026	-0.087
-726.908	111.691	0.104	-0.128
-725.894	274.091	-0.044	0.080
-724.879	-45.505	0.061	0.031
-723.864	-200.000	-0.018	-0.513
-722.850	800.000	0.063	-0.264
-721.835	-46.080	0.145	0.073
-720.821	-94.733	0.079	-0.022
-719.806	53.394	-0.086	0.084
-718.791	649.003	-0.140	-0.365
-717.777	-200.000	0.003	-0.129
-716.762	146.435	-0.114	0.157
-715.748	-29.962	-0.060	-0.035
-714.733	-200.000	0.007	0.051
-713.718	-168.788	-0.265	-0.010
-712.704	800.000	0.087	0.255
-711.689	-31.714	-0.054	0.031
-710.675	-91.492	0.353	-0.103
-709.660	-125.609	-0.185	-0.029
-708.645	4.438	-0.241	0.180
-707.631	83.684	-0.100	0.111
-706.616	150.116	-0.121	-0.167
-705.602	-37.492	0.172	-0.093
-704.587	103.354	0.198	-0.236
-703.572	-139.765	-0.135	0.015
-702.558	-200.000	-0.020	0.191
-701.543	-68.016	0.078	-0.031
-700.529	800.000	-0.022	0.084
-699.514	800.000	-0.032	-0.113
-698.499	460.571	0.182	-0.412
-697.485	-200.000	0.081	-0.422
-696.470	-147.946	0.064	-0.005
-695.456	154.384	0.157	0.219
-694.441	-168.944	0.274	0.010
-693.426	-123.007	-0.219	0.036
-692.412	-200.000	-0.020	0.186
-691.397	-166.893	-0.186	0.008
-690.383	-69.379	0.236	0.092
-689.368	419.173	0.070	0.153
-688.354	161.625	-0.152	0.217
-687.339	-29.068	-0.273	0.160
-686.324	122.954	0.088	-0.112
-685.310	-109.067	0.062	0.013
-684.295	-110.976	0.235	0.049
-683.281	142.806	-0.080	-0.108
-682.266	-167.379	0.314	-0.013
-681.251	-65.398	-0.155	0.063
-680.237	800.000	0.025	-0.095
-679.222	-12.252	-0.111	0.074
-678.208	-200.000	-0.022	-0.214
-677.193	-200.000	0.007	-0.045
-676.178	-51.449	-0.168	0.080
-675.164	702.819	-0.122	-0.327
-674.149	-56.276	-0.140	-0.063
-673.135	-77.961	-0.059	0.021
-672.120	-113.587	-0.136	-0.027
-671.105	-34.170	-0.046	0.026
-670.091	-106.399	-0.306	-0.070
-669.076	132.410	0.107	0.141
-668.062	305.414	-0.168	-0.318
-667.047	34.608	-0.115	-0.102
-666.032	31.707	0.129	0.113
-665.018	-5.123	0.269	-0.188
-664.003	-42.861	-0.518	-0.268
-662.989	56.740	0.071	0.070
-661.974	-200.000	-0.025	0.442
-660.959	-66.350	-0.413	0.167
-659.945	-200.000	-0.002	-0.081
-658.930	800.000	-0.090	0.307
-657.916	156.058	-0.092	0.129
-656.901	679.226	0.126	0.333
-655.886	11.439	-0.291	-0.227
-654.872	-200.000	-0.310	0.001
-653.857	-5.619	-0.112	0.078
-652.843	-138.930	-0.218	0.024
-651.828	72.147	0.171	-0.181
-650.814	-177.318	-0.193	-0.005
-649.799	-200.000	-0.009	-0.056
-648.784	-2.734	0.073	0.052
-647.770	-200.000	0.051	0.284
-646.755	231.245	-0.118	0.197
-645.741	24.545	0.272	-0.228
-644.726	-145.186	0.143	-0.013
-643.711	40.427	0.081	0.074
-642.697	800.000	0.027	-0.089
-641.682	202.529	0.159	-0.249
-640.668	-200.000	0.011	0.058
-639.653	-132.147	-0.316	0.042
-638.638	-75.905	-0.080	0.029
-637.624	-45.338	0.106	0.054
-636.609	-82.110	-0.226	-0.075
-635.595	-26.025	-0.183	0.110
-634.580	246.138	0.124	-0.212
-633.565	800.000	0.072	-0.307
-632.551	-200.000	0.033	0.170
-631.536	101.265	0.155	-0.183
-630.522	-200.000	0.027	-0.253
-629.507	-113.089	-0.169	-0.034
-628.492	116.831	0.205	0.256
-627.478	-113.514	-0.128	-0.025
-626.463	-200.000	0.062	-0.455
-625.449	-200.000	-0.068	-0.463
-624.434	-92.744	-0.400	-0.114
-623.419	800.000	-0.014	0.043
-622.405	800.000	0.114	0.398
-621.390	800.000	-0.090	0.359
-620.376	-200.000	0.065	-0.443
-619.361	410.058	0.056	0.120
-618.346	217.166	0.053	0.085
-617.332	401.091	0.080	-0.170
-616.317	524.499	-0.095	-0.228
-615.303	-128.551	-0.285	0.041
-614.288	-200.000	-0.059	0.338
-613.273	-121.069	-0.246	0.042
-612.259	-200.000	-0.002	-0.070
-611.244	-199.238	-0.044	-0.000
-610.230	-200.000	0.076	-0.344
-609.215	-200.000	0.011	0.141
-608.201	344.868	0.072	0.144
-607.186	427.631	-0.098	0.214
-606.171	-54.810	-0.156	0.072
-605.157	-52.904	0.165	-0.077
-604.142	276.476	0.144	-0.261
-603.128	-200.000	-0.010	-0.048
-602.113	158.790	-0.044	-0.062
-601.098	19.164	0.029	-0.024
-600.084	-67.080	-0.136	0.054
-599.069	467.544	0.051	-0.116
-598.055	72.100	-0.038	-0.040
-597.040	-200.000	0.000	0.200
-596.025	-200.000	0.033	0.179
-595.011	-12.533	-0.150	-0.099
-593.996	800.000	0.105	0.348
-592.982	61.470	-0.205	-0.207
-591.967	800.000	-0.062	-0.178
-590.952	238.723	0.127	0.214
-589.938	379.999	0.107	0.223
-588.923	-200.000	-0.073	0.373
-587.909	370.629	0.099	-0.204
-586.894	-51.190	-0.168	0.080
-585.879	-200.000	-0.071	-0.399
-584.865	231.242	0.100	-0.166
-583.850	167.143	0.102	-0.147
-582.836	-58.864	-0.119	0.052
-581.821	-200.000	-0.038	-0.177
-580.806	119.787	-0.068	-0.085
-579.792	-97.723	0.225	-0.059
-578.777	257.444	0.137	-0.238
-577.763	-15.760	-0.162	0.105
-576.748	-100.981	-0.184	-0.046
-575.733	-40.534	0.128	-0.067
-574.719	-200.000	0.066	-0.351
-573.704	132.865	0.092	0.120
-572.690	-200.000	0.007	-0.036
-571.675	-21.928	0.117	-0.072
-570.661	-57.879	0.028	-0.012
-569.646	103.121	-0.134	-0.159
-568.631	325.874	-0.112	0.217
-567.617	-99.946	-0.062	0.016
-566.602	254.006	0.099	0.171
-565.588	220.161	0.194	0.315
-564.573	-79.522	0.216	0.074
-563.558	-200.000	0.027	-0.240
-562.544	-88.079	0.171	-0.052
-561.529	37.528	0.255	-0.230
-560.515	362.246	-0.119	-0.242
-559.500	-23.153	-0.114	0.070
-558.485	-45.517	0.244	-0.123
-557.471	-55.802	-0.219	-0.099
-556.456	-58.484	-0.118	-0.052
-555.442	-12.507	-0.249	0.165
-554.427	-84.175	-0.277	-0.089
-553.412	-138.127	-0.015	0.002
-552.398	-22.601	0.231	-0.142
-551.383	267.122	-0.050	0.089
-550.369	-138.654	-0.092	0.010
-549.354	187.610	-0.110	0.166
-548.339	-200.000	0.078	-0.369
-547.325	-200.000	0.020	-0.299
-546.310	-149.469	-0.158	-0.013
-545.296	-148.811	-0.115	-0.009
-544.281	376.567	-0.009	0.019
-543.266	-91.058	0.103	0.030
-542.252	-200.000	-0.010	0.120
-541.237	7.489	0.284	-0.215
-540.223	271.758	0.095	0.170
-539.208	36.702	-0.145	-0.129
-538.193	138.242	0.071	0.095
-537.179	395.963	0.088	-0.185
-536.164	800.000	-0.049	-0.144
-535.150	-67.726	0.117	0.046
-534.135	-200.000	-0.008	-0.207
-533.121	-200.000	0.017	-0.152
-532.106	591.975	-0.145	-0.363
-531.091	188.441	0.152	-0.231
-530.077	-200.000	0.026	0.316
-529.062	198.322	-0.016	-0.025
-528.048	252.817	0.070	0.121
-527.033	-20.485	-0.100	-0.062
-526.018	46.270	0.208	-0.195
-525.004	-94.826	0.123	-0.034
-523.989	-13.491	-0.117	0.077
-522.975	-113.982	-0.348	-0.068
-521.960	17.207	-0.362	-0.291
-520.945	-25.855	0.135	-0.081
-519.931	127.973	-0.056	-0.073
-518.916	125.462	-0.137	0.175
-517.902	-74.883	0.160	0.058
-516.887	253.833	-0.132	0.229
-515.872	52.354	0.210	0.203
-514.858	403.367	-0.140	0.299
-513.843	2.524	-0.171	0.126
-512.829	127.690	-0.159	0.205
-511.814	17.288	0.096	-0.077
-510.799	800.000	-0.073	0.286
-509.785	-114.861	-0.036	-0.007
-508.770	17.437	-0.167	-0.134
-507.756	800.000	-0.049	-0.139
-506.741	-200.000	-0.027	0.130
-505.726	72.604	0.108	0.114
-504.712	-15.607	-0.213	-0.137
-503.697	-200.000	-0.041	0.428
-502.683	-21.642	0.090	0.055
-501.668	-123.292	0.102	-0.016
-500.653	-3.744	0.160	-0.112
-499.639	-19.104	0.210	-0.132
-498.624	-44.964	0.293	0.148
-497.610	245.469	0.192	0.327
-496.595	386.226	0.008	0.017
-495.581	181.242	-0.247	0.367
-494.566	-116.925	0.082	0.015
-493.551	-107.727	-0.256	-0.056
-492.537	5.651	0.190	0.142
-491.522	800.000	0.039	-0.147
-490.508	-94.027	-0.145	-0.040
-489.493	193.513	0.229	0.351
-488.478	800.000	0.074	0.289
-487.464	-68.285	-0.140	-0.055
-486.449	-163.521	-0.308	0.015
-485.435	-200.000	-0.005	-0.294
-484.420	-18.757	-0.094	-0.059
-483.405	43.148	0.158	-0.146
-482.391	-75.874	-0.207	0.074
-481.376	129.095	0.171	0.220
-480.362	13.716	-0.123	-0.097
-479.347	-40.761	-0.259	-0.136
-478.332	62.679	0.143	-0.144
-477.318	229.311	-0.203	-0.334
-476.303	99.094	-0.259	-0.302
-475.289	800.000	0.035	-0.102
-474.274	70.561	-0.080	0.084
-473.259	-200.000	0.015	-0.127
-472.245	531.759	0.168	-0.402
-471.230	318.531	-0.231	0.442
-470.216	800.000	0.145	0.558
-469.201	15.288	0.188	0.149
-468.186	-119.858	0.366	-0.064
-467.172	107.270	0.114	-0.137
-466.157	-8.545	0.284	-0.193
-465.143	-99.106	0.203	-0.052
-464.128	207.416	-0.102	0.161
-463.113	4.621	-0.144	-0.107
-462.099	-59.968	0.216	0.093
-461.084	-109.068	0.286	-0.062
-460.070	484.604	0.087	0.199
-459.055	50.995	-0.052	-0.050
-458.040	229.996	-0.102	-0.168
-457.026	-145.384	-0.138	-0.013
-456.011	800.000	0.019	-0.081
-454.997	-40.950	0.150	0.078
-453.982	-153.555	0.137	0.010
-452.968	-76.679	-0.157	-0.056
-451.953	291.728	0.050	0.092
-450.938	-99.715	-0.261	0.066
-449.924	-102.453	-0.140	0.034
-448.909	-15.541	-0.244	-0.157
-447.895	130.518	-0.084	0.109
-446.880	-163.720	0.590	0.028
-445.865	11.002	-0.236	-0.182
-444.851	212.654	-0.183	-0.292
-443.836	336.332	0.176	-0.344
-442.822	-86.737	0.345	0.107
-441.807	-200.000	0.029	0.290
-440.792	-96.359	-0.345	0.092
-439.778	-200.000	0.010	0.063
-438.763	-200.000	0.018	-0.288
-437.749	-200.000	-0.017	0.347
-436.734	299.399	-0.289	0.538
-435.719	339.358	-0.140	0.275
-434.705	11.522	0.100	0.077
-433.690	15.831	-0.140	0.111
-432.676	-11.210	0.502	-0.333
-431.661	191.388	0.136	-0.207
-430.646	65.352	-0.176	-0.180
-429.632	800.000	-0.124	-0.465
-428.617	800.000	-0.138	0.409
-427.603	173.123	-0.114	-0.165
-426.588	58.815	-0.297	-0.295
-425.573	666.983	-0.014	-0.036
-424.559	499.704	0.048	0.111
-423.544	175.634	-0.256	-0.375
-422.530	152.622	-0.095	-0.131
-421.515	-60.512	-0.154	-0.066
-420.500	-23.382	-0.277	0.168
-419.486	413.866	0.022	0.048
-418.471	-200.000	0.034	-0.189
-417.457	-186.108	0.579	-0.009
-416.442	-23.698	-0.100	-0.061
-415.428	15.986	-0.302	0.240
-414.413	52.906	-0.108	0.104
-413.398	-107.660	0.122	-0.027
-412.384	127.582	-0.067	0.086
-411.369	-25.395	-0.157	0.093
-410.355	-200.000	0.012	-0.087
-409.340	-180.007	-0.197	0.004
-408.325	-123.934	-0.059	-0.009
-407.311	-200.000	-0.010	-0.237
-406.296	9.680	-0.326	-0.249
-405.282	-83.762	0.126	0.041
-404.267	-178.287	-0.117	-0.003
-403.252	-182.689	-0.200	-0.004
-402.238	-28.050	0.047	0.027
-401.223	800.000	-0.031	0.118
-400.209	-89.268	0.322	0.096
-399.194	-200.000	-0.015	-0.278
-398.179	718.864	-0.153	-0.410
-397.165	-200.000	-0.021	0.141
-396.150	285.386	0.155	0.282
-395.136	-48.114	0.256	-0.124
-394.121	89.500	0.092	0.103
-393.106	-175.929	-0.080	0.002
-392.092	-23.127	0.266	0.161
-391.077	-200.000	0.022	-0.269
-390.063	-34.263	0.118	0.065
-389.048	32.996	0.231	0.201
-388.033	-200.000	-0.007	-0.369
-387.019	-31.758	0.248	-0.140
-386.004	576.219	-0.213	0.524
-384.990	-20.888	-0.155	0.095
-383.975	4.440	0.112	0.082
-382.960	-114.750	0.115	-0.022
-381.946	190.497	0.201	0.304
-380.931	-18.818	-0.266	0.167
-379.917	745.863	-0.026	0.071
-378.902	246.074	-0.058	0.098
-377.888	694.391	0.036	-0.095
-376.873	219.810	-0.062	0.100
-375.858	62.966	-0.218	-0.220
-374.844	143.991	-0.070	0.094
-373.829	100.761	-0.159	-0.185
-372.815	185.032	0.056	0.084
-371.800	-155.578	0.398	0.026
-370.785	-126.315	0.311	-0.047
-369.771	800.000	0.046	-0.196
-368.756	-21.162	-0.082	-0.051
-367.742	-81.946	0.342	0.112
-366.727	-78.664	-0.017	-0.006
-365.712	-128.477	0.341	0.049
-364.698	-200.000	0.013	-0.254
-363.683	-94.969	-0.260	-0.071
-362.669	-76.346	-0.167	0.059
-361.654	-132.824	0.309	0.040
-360.639	43.534	0.147	0.135
-359.625	-59.324	-0.118	-0.051
-358.610	87.953	-0.239	0.266
-357.596	-19.584	0.236	-0.147
-356.581	-52.684	-0.090	0.042
-355.566	73.643	0.142	-0.150
-354.552	-158.680	0.407	0.024
-353.537	-112.366	-0.107	0.021
-352.523	-74.004	-0.266	0.097
-351.508	103.888	-0.024	-0.028
-350.493	-200.000	-0.054	0.317
-349.479	800.000	0.107	0.365
-348.464	-89.221	0.241	0.071
-347.450	35.029	-0.279	-0.246
-346.435	30.896	-0.159	0.137
-345.420	-12.306	-0.047	0.031
-344.406	-5.825	-0.202	0.139
-343.391	20.343	0.024	0.019
-342.377	-95.427	0.070	-0.019
-341.362	453.958	-0.070	-0.156
-340.348	-112.259	0.101	0.020
-339.333	-125.038	0.291	-0.045
-338.318	800.000	0.098	0.396
-337.304	5.159	-0.188	0.139
-336.289	-95.438	-0.190	-0.051
-335.275	-98.699	0.179	0.046
-334.260	-137.602	-0.225	0.025
-333.245	71.540	-0.228	0.238
-332.231	-77.972	-0.113	-0.039
-331.216	171.768	-0.044	-0.063
-330.202	-64.892	0.121	-0.049
-329.187	800.000	-0.034	0.096
-328.172	-39.089	-0.137	-0.072
-327.158	-140.585	0.260	0.027
-326.143	702.827	-0.187	0.495
-325.129	-106.037	-0.176	0.040
-324.114	-200.000	0.037	-0.212
-323.099	131.179	0.047	-0.061
-322.085	-102.817	0.169	-0.040
-321.070	-114.014	0.312	0.061
-320.056	800.000	0.086	0.259
-319.041	97.386	-0.206	-0.237
-318.026	755.325	-0.043	-0.118
-317.012	-147.386	0.280	0.024
-315.997	-5.812	0.203	-0.140
-314.983	800.000	0.070	-0.234
-313.968	-47.674	-0.289	0.141
-312.953	-36.826	0.367	-0.198
-311.939	496.840	0.054	-0.124
-310.924	414.862	0.090	0.192
-309.910	60.558	0.086	0.086
-308.895	-3.830	-0.075	-0.052
-307.880	44.803	-0.085	0.079
-306.866	-100.589	0.180	-0.045
-305.851	-171.558	0.172	-0.006
-304.837	-45.087	0.193	-0.096
-303.822	-171.955	-0.052	0.002
-302.807	-65.674	0.193	0.077
-301.793	-18.838	-0.168	0.105
-300.778	-158.309	-0.335	-0.020
-299.764	257.450	0.135	-0.233
-298.749	64.769	-0.045	0.046
-297.735	-136.426	0.172	0.020
-296.720	102.710	0.118	-0.138
-295.705	20.002	-0.150	-0.122
-294.691	-106.044	0.076	-0.017
-293.676	-200.000	-0.038	-0.293
-292.662	40.816	0.204	0.185
-291.647	-66.441	-0.068	0.027
-290.632	-39.868	0.098	0.051
-289.618	-106.157	-0.153	-0.035
-288.603	-145.752	0.187	0.017
-287.589	104.824	0.013	0.015
-286.574	-69.334	-0.251	-0.097
-285.559	150.892	0.142	0.193
-284.545	-200.000	-0.016	-0.353
-283.530	-95.715	-0.163	-0.044
-282.516	562.357	-0.134	0.324
-281.501	-3.292	0.084	-0.059
-280.486	-20.876	-0.234	-0.144
-279.472	-60.215	-0.184	-0.078
-278.457	-62.913	-0.312	-0.129
-277.443	-58.762	-0.088	-0.038
-276.428	67.130	-0.087	0.089
-275.413	-127.185	0.558	-0.082
-274.399	-168.550	0.169	0.006
-273.384	60.650	-0.167	-0.165
-272.370	800.000	-0.026	0.077
-271.355	-42.301	0.079	-0.040
-270.340	356.995	-0.066	0.131
-269.326	-200.000	-0.067	0.307
-268.311	-200.000	0.064	0.300
-267.297	156.560	0.042	0.059
-266.282	300.830	0.039	0.072
-265.267	44.836	0.075	-0.069
-264.253	419.417	-0.056	0.119
-263.238	466.487	0.008	0.019
-262.224	-12.609	-0.259	-0.170
-261.209	-46.936	-0.270	-0.132
-260.195	63.962	-0.138	0.139
-259.180	-30.559	0.219	0.124
-258.165	-95.207	0.306	0.082
-257.151	-200.000	0.004	-0.158
-256.136	469.589	0.048	-0.108
-255.122	-63.190	-0.260	0.107
-254.107	-90.827	-0.270	-0.078
-253.092	17.137	0.092	-0.073
-252.078	209.429	-0.073	0.114
-251.063	-111.520	-0.321	0.065
-250.049	122.859	-0.193	-0.242
-249.034	-24.920	0.223	0.133
-248.019	-89.532	-0.256	0.075
-247.005	-0.745	-0.273	-0.194
-245.990	-40.416	-0.138	-0.072
-244.976	-87.718	-0.316	0.095
-243.961	37.437	-0.224	-0.198
-242.946	-84.891	-0.124	-0.039
-241.932	-85.011	0.147	0.046
-240.917	60.235	-0.253	0.250
-239.903	-85.764	0.225	0.070
-238.888	2.208	0.358	0.259
-237.873	-42.956	-0.225	0.114
-236.859	-68.259	0.112	0.044
-235.844	-53.095	0.260	0.120
-234.830	800.000	-0.041	-0.157
-233.815	-86.951	-0.063	-0.019
-232.800	330.054	-0.030	0.058
-231.786	-200.000	0.056	0.366
-230.771	-129.570	0.252	-0.035
-229.757	-12.255	-0.063	-0.041
-228.742	800.000	0.063	-0.197
-227.727	-162.408	0.092	-0.005
-226.713	-10.848	0.210	-0.139
-225.698	-200.000	-0.314	0.001
-224.684	-200.000	-0.077	-0.345
-223.669	-33.306	-0.310	-0.172
-222.655	1.584	-0.176	-0.127
-221.640	800.000	-0.125	0.429
-220.625	-200.000	0.078	0.513
-219.611	800.000	-0.137	0.519
-218.596	-137.744	-0.092	0.010
-217.582	670.265	0.084	0.216
-216.567	-61.381	0.232	0.098
-215.552	-7.290	0.148	-0.100
-214.538	-200.000	-0.014	0.088
-213.523	99.666	0.151	-0.175
-212.509	283.229	0.035	0.063
-211.494	-200.000	0.022	0.359
-210.479	-200.000	0.033	0.317
-209.465	7.897	-0.256	-0.192
-208.450	-61.393	0.287	-0.121
-207.436	115.427	0.170	-0.208
-206.421	800.000	0.087	-0.270
-205.406	88.314	-0.234	-0.259
-204.392	-178.866	-0.075	0.002
-203.377	-11.917	-0.169	-0.111
-202.363	166.459	0.050	-0.071
-201.348	-88.034	-0.331	0.099
-200.333	-103.078	0.286	-0.068
-199.319	261.919	0.284	-0.491
-198.304	55.513	-0.114	0.110
-197.290	137.969	0.183	-0.240
-196.275	800.000	0.063	0.191
-195.260	29.602	-0.105	-0.089
-194.246	-136.420	-0.235	-0.027
-193.231	469.249	-0.043	0.097
-192.217	800.000	0.042	-0.129
-191.202	581.707	0.068	0.167
-190.187	-200.000	0.010	0.094
-189.173	-92.837	0.318	-0.089
-188.158	-200.000	0.033	-0.249
-187.144	-71.727	0.069	0.026
-186.129	-76.733	0.261	0.091
-185.114	-110.919	0.373	0.077
-184.100	-85.554	-0.145	0.045
-183.085	10.605	0.323	0.246
-182.071	-121.931	-0.062	-0.010
-181.056	-131.772	-0.296	-0.039
-180.042	-200.000	0.010	0.108
-179.027	800.000	-0.043	0.140
-178.012	-111.763	0.183	-0.037
-176.998	-127.474	-0.286	0.041
-175.983	446.972	-0.132	0.290
-174.969	-76.535	-0.084	0.030
-173.954	-32.760	0.271	-0.150
-172.939	474.205	-0.030	-0.067
-171.925	-57.531	0.098	0.043
-170.910	-123.087	0.343	-0.055
-169.896	-132.812	0.194	0.025
-168.881	-200.000	0.013	0.122
-167.866	-59.417	-0.241	0.104
-166.852	-200.000	-0.002	0.277
-165.837	-52.742	0.063	-0.029
-164.823	256.146	0.178	0.306
-163.808	-200.000	0.008	-0.294
-162.793	366.312	0.223	-0.448
-161.779	800.000	0.037	-0.130
-160.764	7.854	0.181	0.136
-159.750	172.978	0.128	-0.183
-158.735	-200.000	-0.001	0.009
-157.720	59.834	-0.098	0.097
-156.706	527.546	0.077	0.181
-155.691	82.919	0.045	0.049
-154.677	-167.405	-0.139	-0.006
-153.662	31.710	-0.087	0.075
-152.647	131.825	-0.154	0.197
-151.633	81.662	0.070	0.076
-150.618	-118.327	-0.091	-0.016
-149.604	-200.000	-0.041	-0.277
-148.589	-200.000	-0.061	-0.300
-147.574	-102.565	-0.197	-0.047
-146.560	117.563	-0.157	0.193
-145.545	-90.357	0.214	0.062
-144.531	-142.114	-0.320	0.032
-143.516	193.455	-0.138	0.209
-142.502	409.040	-0.121	-0.255
-141.487	656.787	-0.083	-0.213
-140.472	-120.009	0.176	-0.030
-139.458	-200.000	0.049	0.260
-138.443	707.664	-0.089	0.236
-137.429	-80.678	-0.041	-0.014
-136.414	-200.000	0.084	-0.000
-135.399	-67.295	0.168	0.066
-134.385	103.987	-0.255	0.299
-133.370	56.208	-0.265	0.257
-132.356	800.000	0.040	0.123
-131.341	-200.000	0.027	0.264
-130.326	628.737	0.058	0.146
-129.312	143.720	0.182	-0.242
-128.297	134.679	0.015	0.020
-127.283	-135.346	0.429	-0.051
-126.268	-200.000	-0.005	-0.320
-125.253	-200.000	-0.022	-0.179
-124.239	-73.640	0.332	0.120
-123.224	532.788	0.084	-0.199
-122.210	-50.615	0.389	0.183
-121.195	47.063	-0.225	0.209
