DTS Sentinel unit serial number:	SN413079Multiplexer serial number:	ORYXHardware model number:	OX4-SRSoftware version number:	ORYX F/W v4.00 Oryx Data Collector v3.7.2.0data status	okinstallation	princeton_trtdifferential loss correction	single-endedforward channel	channel 1reverse channel	N/Adate	2019/09/11time	08:20:11forward acquisition time	60.00reverse acquisition time	0.00gamma	496.2192k internal	0.2319k external	0.2319temperature offset calibration	0.9947default loss term (dB/km)	0.3790temperature slope calibration	1.0000multiplexer offset coefficient	1.0000multiplexer slope coefficient	1.0000fibre end	0.00T internal ref (°C)	32.72T ext. ref 1 (°C)	0.06T ext. ref 2 (°C)	30.00length (m)	temperature (°C)	Stokes	anti-Stokes-747.200	9.783	-0.175	-0.134
-746.185	-200.000	-0.020	0.357
-745.171	467.474	0.088	0.199
-744.156	-200.000	0.015	0.167
-743.142	27.908	0.256	-0.218
-742.127	115.582	0.149	0.184
-741.112	-122.226	0.320	0.053
-740.098	800.000	0.076	0.304
-739.083	800.000	0.031	0.121
-738.069	108.900	0.282	0.341
-737.054	61.956	-0.080	-0.080
-736.039	-97.999	0.299	0.078
-735.025	-187.979	-0.478	-0.006
-734.010	43.047	-0.371	-0.343
-732.996	-59.673	0.052	0.022
-731.981	308.576	-0.079	0.149
-730.966	-31.470	0.174	-0.099
-729.952	87.948	-0.144	-0.162
-728.937	-108.746	-0.091	0.020
-727.923	799.693	0.145	0.405
-726.908	-152.251	0.286	0.021
-725.894	-90.953	-0.179	-0.052
-724.879	689.539	0.169	-0.446
-723.864	65.900	0.055	-0.057
-722.850	-34.206	-0.344	-0.191
-721.835	800.000	-0.078	-0.226
-720.821	53.956	0.168	0.163
-719.806	224.121	-0.184	-0.301
-718.791	-200.000	-0.043	-0.226
-717.777	85.536	-0.248	-0.275
-716.762	-111.655	0.270	0.055
-715.748	92.392	-0.089	0.102
-714.733	-68.992	-0.273	0.106
-713.718	-168.493	-0.077	0.003
-712.704	-38.444	0.155	-0.083
-711.689	-99.823	-0.157	-0.040
-710.675	37.105	-0.092	-0.083
-709.660	-107.572	-0.105	-0.023
-708.645	-131.953	-0.155	0.020
-707.631	104.369	0.136	0.162
-706.616	711.242	0.089	0.238
-705.602	-136.983	0.149	-0.017
-704.587	-200.000	-0.034	0.238
-703.572	-40.135	-0.238	-0.125
-702.558	449.660	-0.090	0.200
-701.543	40.374	0.146	-0.133
-700.529	-111.239	0.354	0.073
-699.514	-102.186	-0.261	-0.063
-698.499	16.719	-0.230	0.184
-697.485	-176.700	-0.230	0.006
-696.470	-129.049	0.179	-0.025
-695.456	800.000	-0.090	0.303
-694.441	-89.200	0.186	-0.056
-693.426	91.474	0.207	0.235
-692.412	-18.518	-0.179	-0.113
-691.397	-8.433	0.155	-0.105
-690.383	-30.776	-0.164	0.094
-689.368	396.277	0.085	0.179
-688.354	-7.872	0.154	0.105
-687.339	-71.744	-0.082	-0.031
-686.324	515.728	-0.037	0.086
-685.310	675.585	-0.076	0.200
-684.295	-200.000	-0.007	0.122
-683.281	-200.000	0.044	0.232
-682.266	-127.866	-0.353	0.051
-681.251	-38.968	0.126	0.067
-680.237	64.008	-0.223	-0.227
-679.222	-89.855	-0.079	-0.023
-678.208	119.353	-0.100	0.125
-677.193	114.599	0.270	-0.333
-676.178	80.277	-0.058	-0.062
-675.164	-161.429	0.219	0.011
-674.149	-200.000	0.001	-0.046
-673.135	-180.021	0.138	0.003
-672.120	79.764	-0.456	-0.494
-671.105	-112.721	0.142	-0.028
-670.091	-111.509	-0.089	-0.018
-669.076	194.549	0.175	0.267
-668.062	-113.783	-0.143	-0.028
-667.047	-200.000	0.051	0.309
-666.032	147.757	0.111	-0.152
-665.018	800.000	0.077	-0.299
-664.003	791.605	0.073	0.204
-662.989	-52.057	0.369	0.173
-661.974	-200.000	-0.047	-0.280
-660.959	350.628	0.187	-0.374
-659.945	800.000	0.060	-0.200
-658.930	204.720	-0.241	0.378
-657.916	-26.841	-0.132	-0.078
-656.901	-97.307	-0.127	-0.033
-655.886	-200.000	-0.018	0.082
-654.872	404.468	0.065	0.139
-653.857	-200.000	-0.024	0.185
-652.843	-115.937	0.206	0.039
-651.828	-76.749	-0.250	-0.088
-650.814	-50.100	-0.185	-0.088
-649.799	78.901	0.145	-0.156
-648.784	-41.670	0.169	0.088
-647.770	-200.000	0.037	-0.308
-646.755	335.012	0.008	-0.015
-645.741	800.000	0.038	0.143
-644.726	-200.000	-0.005	-0.075
-643.711	640.160	0.110	-0.282
-642.697	-29.300	0.154	-0.089
-641.682	-104.243	-0.272	0.064
-640.668	136.075	0.253	-0.332
-639.653	800.000	-0.094	-0.391
-638.638	167.058	0.123	0.176
-637.624	-200.000	0.009	0.096
-636.609	-43.402	0.100	0.051
-635.595	137.825	0.052	-0.069
-634.580	114.265	-0.111	0.136
-633.565	-169.984	-0.235	0.008
-632.551	-200.000	0.040	-0.366
-631.536	-74.584	0.189	0.068
-630.522	800.000	0.015	0.065
-629.507	115.106	0.006	-0.008
-628.492	-200.000	0.017	0.132
-627.478	31.800	0.272	0.236
-626.463	-34.408	0.140	0.077
-625.449	800.000	-0.062	-0.180
-624.434	605.491	0.206	-0.516
-623.419	174.692	0.122	-0.178
-622.405	-23.738	-0.209	0.126
-621.390	-41.854	-0.417	0.215
-620.376	-133.618	0.192	-0.024
-619.361	76.765	-0.089	0.096
-618.346	-116.276	-0.053	-0.010
-617.332	400.708	-0.062	-0.130
-616.317	-92.326	0.095	0.027
-615.303	583.479	-0.149	-0.367
-614.288	800.000	0.025	0.071
-613.273	-8.275	-0.103	0.069
-612.259	-97.918	-0.410	-0.106
-611.244	-61.033	0.329	-0.140
-610.230	-106.464	-0.425	0.095
-609.215	-114.362	-0.215	-0.042
-608.201	-200.000	-0.029	0.162
-607.186	-200.000	0.032	-0.543
-606.171	-129.781	-0.330	0.046
-605.157	578.496	0.085	-0.209
-604.142	-117.857	-0.226	0.041
-603.128	105.954	0.082	-0.097
-602.113	325.477	0.230	-0.442
-601.098	57.974	-0.047	-0.046
-600.084	-47.739	-0.189	0.092
-599.069	-176.910	0.100	-0.003
-598.055	111.111	0.383	0.463
-597.040	800.000	-0.079	-0.257
-596.025	-200.000	0.012	-0.079
-595.011	-101.801	-0.377	-0.092
-593.996	9.983	-0.065	-0.050
-592.982	-126.391	-0.093	-0.014
-591.967	-200.000	-0.035	-0.351
-590.952	603.596	-0.045	-0.113
-589.938	-71.834	0.135	-0.050
-588.923	-2.013	0.203	-0.143
-587.909	148.105	0.105	-0.142
-586.894	152.025	-0.151	0.207
-585.879	94.567	-0.183	0.209
-584.865	-146.439	-0.200	-0.018
-583.850	-88.598	0.055	0.016
-582.836	39.575	-0.204	-0.184
-581.821	-151.275	0.081	0.006
-580.806	-40.837	-0.172	0.090
-579.792	708.513	0.122	0.324
-578.777	116.514	0.234	-0.289
-577.763	-4.924	-0.080	-0.055
-576.748	293.707	-0.083	-0.153
-575.733	695.899	-0.052	0.136
-574.719	280.818	-0.051	0.092
-573.704	-120.267	-0.153	0.026
-572.690	-72.223	0.160	0.059
-571.675	-200.000	-0.053	0.248
-570.661	-55.239	-0.160	-0.072
-569.646	-121.376	0.146	-0.024
-568.631	-67.317	-0.139	0.055
-567.617	-10.181	-0.201	0.134
-566.602	-143.945	0.103	0.010
-565.588	-144.844	-0.273	-0.025
-564.573	37.626	0.215	0.192
-563.558	-200.000	0.056	0.269
-562.544	-200.000	0.036	0.181
-561.529	800.000	0.040	0.146
-560.515	252.504	-0.013	-0.023
-559.500	-36.171	-0.075	-0.041
-558.485	741.108	0.045	0.121
-557.471	-15.587	-0.187	-0.120
-556.456	-58.251	-0.094	-0.041
-555.442	111.796	0.141	0.171
-554.427	25.191	-0.172	0.144
-553.412	5.073	0.265	0.196
-552.398	-118.620	0.330	-0.058
-551.383	-63.621	-0.019	-0.008
-550.369	-141.415	-0.175	0.018
-549.354	131.339	0.149	0.192
-548.339	-138.121	0.251	0.028
-547.325	477.571	0.084	-0.190
-546.310	-200.000	-0.018	-0.197
-545.296	-59.479	-0.081	0.035
-544.281	-200.000	0.022	0.224
-543.266	-83.280	-0.247	-0.080
-542.252	79.723	-0.331	-0.357
-541.237	181.871	-0.182	0.269
-540.223	54.867	0.229	0.222
-539.208	-84.035	0.348	0.111
-538.193	72.937	0.064	0.067
-537.179	128.379	0.220	0.282
-536.164	-76.781	-0.455	0.160
-535.150	800.000	0.066	-0.256
-534.135	661.668	-0.146	-0.377
-533.121	11.382	0.018	-0.014
-532.106	-19.664	-0.098	0.061
-531.091	77.843	-0.208	-0.222
-530.077	-22.639	-0.311	-0.189
-529.062	77.490	0.205	0.219
-528.048	-143.723	0.248	0.024
-527.033	-163.703	-0.346	0.016
-526.018	20.385	-0.218	-0.176
-525.004	-92.654	0.216	-0.061
-523.989	-86.774	0.296	-0.091
-522.975	101.786	-0.270	0.316
-521.960	665.777	0.100	-0.260
-520.945	-14.459	0.103	0.067
-519.931	-45.509	-0.015	-0.008
-518.916	69.408	-0.235	-0.242
-517.902	417.182	0.060	-0.128
-516.887	151.347	0.107	-0.146
-515.872	-200.000	-0.021	-0.122
-514.858	-68.637	0.076	-0.030
-513.843	50.722	0.059	-0.056
-512.829	63.466	-0.352	0.354
-511.814	46.862	-0.124	0.115
-510.799	125.997	-0.240	-0.304
-509.785	159.567	-0.056	0.079
-508.770	-53.215	-0.162	-0.075
-507.756	-29.617	0.144	0.083
-506.741	-31.519	-0.385	-0.217
-505.726	-200.000	-0.010	0.057
-504.712	-200.000	0.000	-0.116
-503.697	-200.000	-0.015	-0.222
-502.683	-28.512	0.172	-0.100
-501.668	-158.226	-0.266	0.016
-500.653	-84.316	-0.056	-0.018
-499.639	-21.806	-0.111	-0.067
-498.624	-200.000	-0.033	-0.171
-497.610	-108.343	0.353	0.076
-496.595	36.088	0.119	-0.105
-495.581	405.197	-0.142	-0.300
-494.566	-156.099	-0.213	-0.014
-493.551	-42.361	-0.172	0.088
-492.537	-97.428	-0.101	-0.026
-491.522	-77.618	0.141	0.049
-490.508	-103.878	0.152	-0.036
-489.493	42.341	-0.142	0.130
-488.478	175.918	-0.089	-0.129
-487.464	-1.595	-0.129	0.091
-486.449	64.541	-0.090	-0.091
-485.435	-51.740	0.141	0.066
-484.420	-183.805	-0.236	0.004
-483.405	-112.495	-0.058	0.012
-482.391	-200.000	0.007	0.089
-481.376	-200.000	-0.009	0.218
-480.362	-200.000	-0.012	0.115
-479.347	-147.679	0.169	0.014
-478.332	62.524	0.155	-0.155
-477.318	86.940	-0.096	-0.106
-476.303	-102.774	0.337	0.080
-475.289	154.070	0.162	-0.222
-474.274	149.750	0.058	-0.078
-473.259	690.342	0.070	0.184
-472.245	-200.000	0.035	0.374
-471.230	284.012	-0.125	-0.225
-470.216	70.772	-0.221	-0.229
-469.201	164.382	-0.138	-0.195
-468.186	339.019	0.254	0.495
-467.172	-80.525	0.370	0.123
-466.157	30.109	0.020	-0.017
-465.143	-123.014	-0.322	0.052
-464.128	191.291	0.046	-0.069
-463.113	-114.754	0.260	-0.050
-462.099	800.000	-0.103	0.312
-461.084	117.026	0.095	0.117
-460.070	-83.375	0.212	-0.068
-459.055	800.000	0.066	0.190
-458.040	-64.516	-0.097	-0.039
-457.026	-88.944	0.106	-0.031
-456.011	800.000	0.058	0.183
-454.997	319.664	0.019	0.037
-453.982	273.023	0.100	0.177
-452.968	800.000	-0.031	0.097
-451.953	-200.000	-0.025	-0.132
-450.938	-23.371	0.173	-0.104
-449.924	-101.807	0.256	0.062
-448.909	-200.000	-0.005	-0.061
-447.895	-200.000	-0.013	0.072
-446.880	-136.482	0.128	-0.015
-445.865	-3.648	-0.314	-0.218
-444.851	0.358	-0.087	0.062
-443.836	-101.887	0.297	0.072
-442.822	644.942	0.123	-0.314
-441.807	233.565	-0.139	-0.228
-440.792	-200.000	-0.041	-0.216
-439.778	176.312	-0.102	0.148
-438.763	215.210	-0.189	-0.299
-437.749	800.000	-0.008	-0.029
-436.734	800.000	-0.015	0.063
-435.719	-37.627	-0.059	0.031
-434.705	-23.845	-0.236	-0.141
-433.690	-12.386	-0.321	-0.210
-432.676	-93.700	-0.271	0.075
-431.661	-44.688	0.123	0.062
-430.646	-200.000	0.054	0.243
-429.632	-82.964	-0.403	0.130
-428.617	-39.255	-0.162	0.085
-427.603	-62.128	0.403	0.168
-426.588	-48.112	0.104	0.050
-425.573	800.000	0.063	-0.215
-424.559	388.603	0.100	-0.206
-423.544	178.368	0.192	0.280
-422.530	-51.459	0.245	-0.115
-421.515	-200.000	0.002	-0.157
-420.500	-101.074	0.269	-0.066
-419.486	-137.835	0.267	-0.030
-418.471	-128.647	0.348	-0.049
-417.457	-200.000	0.007	-0.260
-416.442	79.453	0.162	0.173
-415.428	47.905	0.114	0.107
-414.413	-109.003	0.270	-0.057
-413.398	-108.393	-0.170	0.037
-412.384	201.040	-0.043	0.067
-411.369	-171.439	-0.071	0.002
-410.355	-118.462	0.625	0.111
-409.340	-68.301	0.298	-0.115
-408.325	150.937	0.035	0.047
-407.311	-200.000	-0.032	-0.163
-406.296	124.205	-0.185	0.232
-405.282	-200.000	0.015	-0.329
-404.267	-52.830	0.153	0.070
-403.252	209.687	-0.105	-0.165
-402.238	412.861	0.095	0.201
-401.223	-30.048	0.252	0.143
-400.209	49.476	-0.093	0.087
-399.194	-4.854	-0.189	0.130
-398.179	275.665	0.100	-0.177
-397.165	-200.000	0.030	-0.285
-396.150	515.853	0.036	0.083
-395.136	54.338	-0.126	0.121
-394.121	-28.600	-0.027	0.015
-393.106	800.000	0.014	0.058
-392.092	12.605	0.105	-0.081
-391.077	168.635	-0.158	-0.225
-390.063	63.260	-0.281	0.281
-389.048	18.813	-0.350	0.280
-388.033	-70.360	-0.206	-0.078
-387.019	-121.838	-0.308	-0.051
-386.004	-200.000	-0.048	-0.238
-384.990	59.370	-0.080	-0.078
-383.975	800.000	0.072	0.308
-382.960	-135.754	0.289	-0.034
-381.946	-17.789	-0.100	0.062
-380.931	19.068	-0.184	0.147
-379.917	-139.946	0.120	0.013
-378.902	147.309	0.087	0.117
-377.888	160.059	-0.115	-0.159
-376.873	-200.000	0.028	0.264
-375.858	-137.179	-0.341	-0.039
-374.844	-2.721	0.175	-0.122
-373.829	800.000	-0.038	-0.117
-372.815	132.483	0.189	-0.243
-371.800	760.509	-0.155	0.418
-370.785	69.154	0.221	0.227
-369.771	38.063	0.063	0.056
-368.756	-40.404	-0.090	-0.046
-367.742	102.476	0.233	0.271
-366.727	-109.012	0.151	-0.032
-365.712	-5.786	-0.114	-0.077
-364.698	-27.175	0.329	-0.191
-363.683	88.267	0.111	-0.123
-362.669	-200.000	0.036	-0.529
-361.654	124.287	-0.111	0.139
-360.639	-20.002	-0.235	0.144
-359.625	-200.000	0.002	0.140
-358.610	-29.574	-0.111	0.063
-357.596	-200.000	0.054	0.376
-356.581	-77.391	0.280	-0.097
-355.566	-153.001	0.150	0.011
-354.552	-51.202	-0.186	0.087
-353.537	52.726	0.248	-0.236
-352.523	249.509	-0.319	-0.538
-351.508	8.792	0.069	-0.052
-350.493	-200.000	0.007	0.071
-349.479	800.000	0.086	0.289
-348.464	800.000	0.036	-0.135
-347.450	-200.000	0.007	0.057
-346.435	-200.000	-0.010	0.055
-345.420	206.131	-0.172	-0.266
-344.406	155.695	-0.095	-0.130
-343.391	-81.100	0.293	0.097
-342.377	6.014	-0.252	0.186
-341.362	11.828	0.135	0.103
-340.348	-200.000	-0.030	0.140
-339.333	175.421	0.063	-0.091
-338.318	-41.481	-0.077	-0.039
-337.304	22.493	-0.144	0.117
-336.289	220.460	-0.131	0.209
-335.275	-142.657	-0.480	0.047
-334.260	-200.000	-0.010	-0.333
-333.245	-95.003	-0.313	-0.084
-332.231	578.875	0.118	0.288
-331.216	109.157	0.098	0.116
-330.202	-164.006	-0.148	0.007
-329.187	-200.000	-0.046	-0.249
-328.172	-56.894	-0.177	0.078
-327.158	84.958	-0.178	0.194
-326.143	82.582	0.215	0.233
-325.129	19.396	-0.210	-0.168
-324.114	-129.025	0.236	-0.033
-323.099	-200.000	-0.041	-0.330
-322.085	240.579	-0.230	-0.382
-321.070	546.978	-0.160	-0.380
-320.056	83.238	0.079	-0.085
-319.041	-110.840	0.218	0.045
-318.026	-119.390	-0.022	0.004
-317.012	-37.589	0.184	-0.097
-315.997	-95.941	0.231	-0.061
-314.983	-200.000	-0.018	-0.132
-313.968	-87.191	0.341	-0.103
-312.953	-74.238	-0.361	-0.130
-311.939	71.023	0.156	-0.161
-310.924	70.889	-0.262	0.270
-309.910	-6.021	0.061	0.042
-308.895	-96.055	-0.297	0.079
-307.880	-37.395	0.106	-0.056
-306.866	59.219	0.080	0.078
-305.851	-190.882	-0.312	-0.003
-304.837	257.930	0.020	-0.035
-303.822	70.912	-0.019	-0.019
-302.807	-31.480	0.050	0.028
-301.793	-67.347	0.299	-0.117
-300.778	800.000	-0.125	0.463
-299.764	220.908	-0.114	0.181
-298.749	-111.630	-0.350	0.071
-297.735	-79.684	-0.247	0.083
-296.720	-200.000	-0.214	0.000
-295.705	-200.000	-0.017	-0.275
-294.691	71.548	-0.015	-0.015
-293.676	34.279	-0.269	-0.233
-292.662	106.172	0.064	0.076
-291.647	800.000	-0.000	0.002
-290.632	-189.787	-0.263	-0.003
-289.618	-200.000	-0.015	-0.261
-288.603	-65.325	0.214	0.085
-287.589	174.566	-0.100	0.144
-286.574	326.803	-0.057	-0.108
-285.559	-200.000	0.025	0.428
-284.545	-200.000	0.011	0.077
-283.530	-44.298	0.238	0.119
-282.516	800.000	0.070	-0.227
-281.501	360.576	-0.078	0.154
-280.486	800.000	-0.024	0.085
-279.472	-200.000	-0.031	0.396
-278.457	-1.547	0.157	0.110
-277.443	-70.642	0.299	-0.112
-276.428	-45.471	-0.172	0.084
-275.413	-81.257	-0.360	-0.118
-274.399	-200.000	0.003	-0.049
-273.384	-101.279	0.069	0.017
-272.370	57.732	0.099	0.096
-271.355	-200.000	-0.015	-0.074
-270.340	182.704	-0.077	-0.113
-269.326	-80.232	-0.150	-0.050
-268.311	-106.494	0.064	-0.014
-267.297	92.797	-0.169	0.189
-266.282	-73.409	-0.153	0.055
-265.267	795.180	0.039	-0.107
-264.253	121.396	-0.203	0.250
-263.238	-200.000	-0.017	0.237
-262.224	72.637	-0.117	0.121
-261.209	-31.351	-0.370	0.207
-260.195	-109.967	0.315	0.065
-259.180	58.508	-0.168	0.164
-258.165	9.608	0.125	-0.094
-257.151	-38.999	0.303	-0.158
-256.136	-148.164	-0.327	0.027
-255.122	-16.285	0.172	-0.108
-254.107	148.210	-0.079	0.106
-253.092	-142.620	-0.177	0.017
-252.078	-200.000	-0.014	-0.193
-251.063	-21.196	0.187	0.113
-250.049	-200.000	-0.026	0.558
-249.034	-48.338	0.101	-0.048
-248.019	309.027	0.048	-0.089
-247.005	-83.616	-0.150	-0.047
-245.990	-78.206	0.400	0.136
-244.976	125.597	-0.287	-0.360
-243.961	172.523	0.132	0.188
-242.946	-103.861	0.161	0.037
-241.932	-119.306	-0.257	0.044
-240.917	-23.651	-0.311	0.185
-239.903	800.000	-0.048	-0.204
-238.888	305.057	-0.190	-0.349
-237.873	-12.479	-0.059	0.038
-236.859	341.314	0.232	-0.450
-235.844	-96.642	-0.105	0.027
-234.830	22.983	-0.198	0.161
-233.815	4.737	0.294	0.214
-232.800	714.839	0.047	-0.124
-231.786	-200.000	-0.011	0.125
-230.771	-200.000	0.005	0.481
-229.757	184.970	-0.240	-0.354
-228.742	800.000	-0.031	0.125
-227.727	-32.068	0.178	0.099
-226.713	-200.000	0.012	0.089
-225.698	-55.413	-0.269	-0.120
-224.684	-59.315	0.206	0.088
-223.669	385.051	-0.076	0.155
-222.655	6.756	0.127	0.094
-221.640	-47.482	0.179	-0.086
-220.625	138.934	-0.087	-0.113
-219.611	-106.335	0.138	0.031
-218.596	-200.000	0.024	-0.281
-217.582	-55.638	0.323	-0.143
-216.567	-16.824	0.162	0.102
-215.552	414.880	-0.061	0.128
-214.538	158.259	-0.083	-0.114
-213.523	800.000	-0.050	0.176
-212.509	-200.000	0.025	-0.167
-211.494	274.482	0.049	0.085
-210.479	-14.013	0.019	0.012
-209.465	800.000	0.078	0.302
-208.450	64.526	0.170	0.170
-207.436	800.000	0.022	-0.073
-206.421	378.018	-0.125	-0.252
-205.406	4.500	0.235	0.171
-204.392	-22.302	0.174	0.104
-203.377	-127.779	0.186	0.027
-202.363	-45.938	0.103	0.050
-201.348	-200.000	0.008	0.228
-200.333	-171.748	-0.059	0.002
-199.319	-16.180	-0.065	-0.041
-198.304	-5.052	0.151	-0.103
-197.290	-24.784	0.296	0.174
-196.275	-55.252	-0.220	0.098
-195.260	-200.000	0.200	-0.001
-194.246	-107.691	0.349	0.075
-193.231	57.562	0.156	0.151
-192.217	639.969	-0.126	0.319
-191.202	608.094	0.163	0.404
-190.187	633.992	-0.236	0.593
-189.173	-102.813	0.361	-0.085
-188.158	-200.000	0.010	-0.218
-187.144	13.036	0.138	0.106
-186.129	-200.000	0.042	0.242
-185.114	5.512	-0.249	0.182
-184.100	27.910	-0.047	-0.039
-183.085	-51.011	-0.086	0.040
-182.071	192.432	-0.102	0.152
-181.056	252.878	0.196	0.331
-180.042	-48.711	0.056	-0.027
-179.027	-127.206	0.166	0.024
-178.012	-47.773	0.079	0.038
-176.998	340.901	0.086	-0.166
-175.983	-200.000	0.025	0.133
-174.969	379.991	-0.045	-0.091
-173.954	97.691	0.159	-0.181
-172.939	-92.399	-0.232	-0.065
-171.925	39.168	0.249	0.220
-170.910	684.622	-0.047	-0.122
-169.896	5.344	0.280	-0.204
-168.881	294.701	0.164	-0.296
-167.866	800.000	0.124	0.484
-166.852	-85.378	0.258	-0.080
-165.837	57.790	-0.056	0.054
-164.823	-109.244	-0.315	0.066
-163.808	-44.584	-0.170	-0.084
-162.793	278.474	0.128	0.225
-161.779	154.300	0.201	-0.273
-160.764	-200.000	0.035	-0.277
-159.750	7.764	-0.023	0.017
-158.735	-168.452	-0.066	0.003
-157.720	171.888	0.184	-0.261
-156.706	-132.767	-0.188	0.024
-155.691	-64.412	0.188	-0.075
-154.677	-200.000	-0.003	0.030
-153.662	800.000	0.065	-0.223
-152.647	272.991	0.167	-0.292
-151.633	-200.000	0.038	-0.164
-150.618	-77.542	0.181	-0.062
-149.604	57.099	0.155	-0.149
-148.589	190.849	0.213	0.317
-147.574	-200.000	0.099	0.000
-146.560	-66.521	0.065	-0.025
-145.545	14.213	-0.152	0.117
-144.531	-88.353	-0.260	0.077
-143.516	-149.282	-0.105	0.008
-142.502	-142.917	-0.079	-0.008
-141.487	-200.000	0.094	-0.445
-140.472	-200.000	-0.049	0.313
-139.458	-141.240	0.327	-0.033
-138.443	318.534	0.100	0.186
-137.429	7.691	-0.116	-0.086
-136.414	53.672	0.235	-0.223
-135.399	-200.000	-0.010	0.136
-134.385	7.301	-0.201	0.148
-133.370	-184.021	-0.117	-0.002
-132.356	-200.000	-0.014	0.107
-131.341	800.000	-0.071	-0.216
-130.326	-200.000	0.010	-0.081
-129.312	-68.884	0.262	0.100
-128.297	-78.371	0.451	0.153
-127.283	798.873	0.028	-0.076
-126.268	76.607	-0.259	-0.271
-125.253	196.820	-0.090	-0.136
-124.239	-9.241	0.289	-0.190
-123.224	162.198	0.152	-0.210
-122.210	-39.763	0.133	0.068
-121.195	-127.326	0.027	-0.004
-120.180	35.313	-0.085	0.074
