DTS Sentinel unit serial number:	SN413079Multiplexer serial number:	ORYXHardware model number:	OX4-SRSoftware version number:	ORYX F/W v4.00 Oryx Data Collector v3.7.2.0data status	okinstallation	princeton_trtdifferential loss correction	single-endedforward channel	channel 1reverse channel	N/Adate	2019/09/17time	22:26:35forward acquisition time	60.00reverse acquisition time	0.00gamma	496.2192k internal	0.2340k external	0.2340temperature offset calibration	0.9976default loss term (dB/km)	0.3790temperature slope calibration	1.0000multiplexer offset coefficient	1.0000multiplexer slope coefficient	1.0000fibre end	0.00T internal ref (°C)	25.39T ext. ref 1 (°C)	0.18T ext. ref 2 (°C)	18.52length (m)	temperature (°C)	Stokes	anti-Stokes-747.200	-200.000	0.006	-0.131
-746.185	156.919	-0.211	0.293
-745.171	148.916	-0.133	-0.180
-744.156	-200.000	-0.013	-0.206
-743.142	-21.654	0.159	0.097
-742.127	45.520	-0.158	-0.147
-741.112	-54.531	-0.224	-0.102
-740.098	800.000	-0.115	0.322
-739.083	800.000	-0.124	0.370
-738.069	87.848	0.151	0.167
-737.054	80.287	-0.068	0.073
-736.039	-117.353	-0.175	-0.032
-735.025	-122.230	0.492	-0.081
-734.010	-71.697	-0.396	-0.148
-732.996	-154.827	-0.174	-0.012
-731.981	800.000	-0.090	-0.267
-730.966	44.327	0.057	-0.053
-729.952	-170.967	0.201	0.007
-728.937	-190.176	-0.550	0.006
-727.923	-127.480	-0.210	-0.031
-726.908	-200.000	0.020	-0.197
-725.894	-140.185	-0.209	-0.022
-724.879	-23.637	-0.423	-0.254
-723.864	-163.157	-0.196	-0.009
-722.850	62.657	-0.176	-0.176
-721.835	-73.203	-0.125	0.046
-720.821	-27.722	0.326	0.190
-719.806	-127.308	-0.456	-0.067
-718.791	-200.000	-0.008	-0.130
-717.777	474.177	0.062	0.139
-716.762	-30.696	-0.172	0.098
-715.748	56.536	-0.162	-0.158
-714.733	35.549	0.041	0.036
-713.718	544.271	0.035	0.083
-712.704	-108.867	-0.200	-0.043
-711.689	579.831	-0.071	-0.174
-710.675	115.765	0.049	0.060
-709.660	8.625	-0.071	-0.054
-708.645	-57.750	-0.118	-0.052
-707.631	-30.099	0.211	-0.120
-706.616	81.888	0.252	-0.274
-705.602	304.359	-0.185	0.344
-704.587	-27.576	-0.225	0.131
-703.572	22.813	0.243	-0.199
-702.558	58.833	-0.140	-0.138
-701.543	800.000	0.081	-0.232
-700.529	34.823	0.220	-0.193
-699.514	-200.000	-0.004	0.123
-698.499	-200.000	-0.082	-0.392
-697.485	-40.264	-0.321	-0.167
-696.470	156.436	-0.095	-0.131
-695.456	-15.363	0.378	-0.242
-694.441	-90.801	-0.090	0.026
-693.426	-5.377	0.225	0.154
-692.412	-91.775	0.281	0.080
-691.397	-146.136	-0.119	-0.010
-690.383	-16.894	-0.370	-0.234
-689.368	28.501	-0.066	-0.056
-688.354	-140.537	0.017	0.002
-687.339	143.914	-0.106	0.142
-686.324	800.000	-0.096	0.298
-685.310	551.760	-0.173	-0.416
-684.295	264.973	0.036	0.063
-683.281	800.000	-0.023	-0.080
-682.266	-131.187	0.359	0.048
-681.251	-20.244	0.074	0.046
-680.237	2.674	-0.054	-0.039
-679.222	-6.016	0.386	0.264
-678.208	14.520	0.098	-0.077
-677.193	264.841	-0.090	-0.157
-676.178	-53.111	-0.227	-0.104
-675.164	-55.249	0.147	-0.066
-674.149	34.495	-0.069	0.060
-673.135	-2.433	-0.160	-0.112
-672.120	-179.118	-0.192	-0.004
-671.105	-27.683	0.161	-0.093
-670.091	215.535	-0.227	-0.360
-669.076	6.494	0.234	-0.174
-668.062	-144.712	-0.134	-0.012
-667.047	339.275	0.125	-0.244
-666.032	-39.898	-0.261	-0.136
-665.018	143.110	0.223	-0.297
-664.003	60.951	-0.324	-0.321
-662.989	-200.000	-0.000	0.024
-661.974	800.000	0.071	-0.235
-660.959	-200.000	0.010	-0.071
-659.945	6.754	0.139	0.104
-658.930	-200.000	-0.007	0.093
-657.916	800.000	-0.100	0.290
-656.901	208.687	-0.083	0.129
-655.886	-120.114	0.270	-0.046
-654.872	368.464	0.145	0.293
-653.857	193.805	-0.132	-0.200
-652.843	170.061	-0.092	0.132
-651.828	102.465	0.187	-0.219
-650.814	800.000	-0.044	-0.127
-649.799	605.757	-0.107	0.267
-648.784	-200.000	-0.012	-0.103
-647.770	14.380	0.091	-0.071
-646.755	22.724	-0.148	-0.121
-645.741	284.664	-0.147	-0.264
-644.726	128.625	-0.084	0.107
-643.711	-105.846	-0.253	-0.057
-642.697	71.474	0.153	-0.158
-641.682	800.000	-0.068	0.286
-640.668	40.424	-0.088	0.079
-639.653	-165.626	-0.469	-0.020
-638.638	142.684	0.084	-0.111
-637.624	-48.520	0.272	-0.131
-636.609	-43.534	-0.238	0.120
-635.595	50.924	0.079	0.075
-634.580	-161.964	0.084	-0.004
-633.565	-200.000	-0.004	-0.086
-632.551	-129.839	0.030	-0.004
-631.536	-189.366	0.407	0.005
-630.522	-54.214	-0.265	0.120
-629.507	183.112	0.050	-0.074
-628.492	-200.000	0.034	0.383
-627.478	-119.655	0.072	0.012
-626.463	123.077	-0.178	0.222
-625.449	-190.722	0.180	-0.002
-624.434	248.083	0.046	0.077
-623.419	-39.644	0.194	-0.102
-622.405	-165.252	-0.305	0.013
-621.390	-200.000	0.068	-0.363
-620.376	-54.504	-0.289	0.131
-619.361	-138.817	-0.065	-0.007
-618.346	-105.773	-0.282	-0.063
-617.332	94.506	0.240	-0.272
-616.317	-133.030	-0.187	0.024
-615.303	252.178	-0.079	0.135
-614.288	-200.000	0.021	-0.228
-613.273	314.483	0.235	-0.442
-612.259	269.365	0.054	-0.094
-611.244	800.000	0.174	-0.536
-610.230	-166.695	0.060	-0.002
-609.215	-200.000	0.064	0.301
-608.201	101.556	-0.141	-0.163
-607.186	140.601	-0.127	-0.167
-606.171	-97.823	-0.290	-0.075
-605.157	147.058	0.158	0.211
-604.142	-82.184	-0.415	0.135
-603.128	-127.105	-0.109	0.016
-602.113	-162.716	-0.054	-0.003
-601.098	78.529	-0.179	-0.190
-600.084	-200.000	0.067	-0.413
-599.069	800.000	-0.105	0.344
-598.055	-74.783	-0.181	0.065
-597.040	176.990	0.075	0.109
-596.025	-74.413	-0.241	0.087
-595.011	-141.850	-0.334	0.033
-593.996	-200.000	-0.021	-0.279
-592.982	5.626	0.188	0.138
-591.967	92.452	-0.232	0.260
-590.952	-200.000	0.038	0.196
-589.938	800.000	-0.046	0.193
-588.923	800.000	-0.065	0.271
-587.909	155.823	-0.128	-0.176
-586.894	-95.608	0.180	0.048
-585.879	-199.491	0.238	0.001
-584.865	800.000	0.017	-0.052
-583.850	-123.411	0.267	0.042
-582.836	551.789	-0.098	0.234
-581.821	-81.148	0.096	-0.032
-580.806	-7.613	0.201	-0.136
-579.792	-200.000	-0.014	0.161
-578.777	2.990	-0.096	-0.069
-577.763	-49.186	0.436	-0.207
-576.748	202.478	0.141	0.216
-575.733	-93.587	-0.556	0.153
-574.719	-200.000	0.036	-0.186
-573.704	-89.619	0.064	0.019
-572.690	92.364	0.115	0.130
-571.675	-200.000	0.041	-0.335
-570.661	140.197	0.148	-0.195
-569.646	-200.000	0.009	0.105
-568.631	-134.191	-0.173	-0.021
-567.617	-74.089	0.201	-0.073
-566.602	744.324	-0.161	0.432
-565.588	-128.264	-0.342	0.049
-564.573	-146.690	-0.074	-0.006
-563.558	-200.000	0.001	0.116
-562.544	13.970	-0.232	0.180
-561.529	-200.000	0.123	0.000
-560.515	107.632	-0.207	-0.245
-559.500	800.000	-0.123	0.457
-558.485	-200.000	0.024	0.110
-557.471	-101.624	0.256	0.062
-556.456	89.114	0.048	-0.053
-555.442	-16.557	-0.130	0.082
-554.427	151.162	-0.186	0.252
-553.412	437.913	0.105	-0.227
-552.398	18.432	-0.092	-0.073
-551.383	139.728	-0.038	-0.049
-550.369	-200.000	0.034	-0.221
-549.354	-200.000	-0.107	-0.572
-548.339	47.462	-0.149	0.138
-547.325	302.180	0.092	0.170
-546.310	376.153	-0.037	-0.075
-545.296	214.403	0.282	0.444
-544.281	-200.000	-0.039	-0.386
-543.266	-89.222	-0.144	0.042
-542.252	177.149	0.127	0.183
-541.237	3.070	-0.105	0.076
-540.223	-20.789	-0.012	0.007
-539.208	-29.131	-0.305	-0.174
-538.193	-200.000	0.006	0.282
-537.179	-19.734	0.107	-0.066
-536.164	800.000	-0.030	-0.092
-535.150	-3.956	0.304	-0.210
-534.135	13.121	-0.201	-0.155
-533.121	-97.225	-0.178	-0.046
-532.106	263.628	-0.021	-0.035
-531.091	25.768	-0.114	0.094
-530.077	110.509	0.104	-0.125
-529.062	-49.951	-0.293	0.138
-528.048	-40.262	0.034	-0.018
-527.033	-1.385	0.061	-0.043
-526.018	-92.278	-0.370	-0.104
-525.004	191.699	-0.080	0.120
-523.989	-113.393	0.145	-0.028
-522.975	-200.000	-0.003	0.025
-521.960	793.276	-0.044	0.121
-520.945	-179.230	0.130	0.003
-519.931	-30.005	-0.259	0.146
-518.916	-50.133	0.346	-0.163
-517.902	-68.929	-0.278	0.107
-516.887	800.000	-0.127	-0.549
-515.872	133.420	0.064	-0.082
-514.858	91.281	-0.165	0.184
-513.843	129.670	0.190	-0.241
-512.829	344.844	0.079	0.154
-511.814	-200.000	-0.019	0.212
-510.799	-45.765	-0.200	0.098
-509.785	350.471	-0.105	0.205
-508.770	-136.238	0.113	0.013
-507.756	-200.000	0.097	-0.512
-506.741	433.617	0.086	-0.186
-505.726	107.148	-0.145	-0.171
-504.712	-200.000	0.321	-0.000
-503.697	-98.850	0.025	-0.006
-502.683	-102.115	0.545	0.130
-501.668	24.909	0.082	0.068
-500.653	-200.000	0.048	0.314
-499.639	-8.337	-0.225	0.151
-498.624	-200.000	0.009	-0.148
-497.610	98.105	-0.180	-0.206
-496.595	40.541	0.210	-0.188
-495.581	194.188	0.048	0.073
-494.566	-92.230	0.248	0.070
-493.551	-14.161	0.083	-0.053
-492.537	18.465	-0.084	-0.066
-491.522	-200.000	-0.036	-0.182
-490.508	-78.095	-0.160	0.055
-489.493	513.107	0.043	0.100
-488.478	39.121	-0.146	0.130
-487.464	-148.039	0.319	-0.026
-486.449	-131.335	-0.338	-0.044
-485.435	-104.531	0.127	-0.029
-484.420	688.977	-0.087	-0.227
-483.405	800.000	0.011	0.045
-482.391	-92.702	0.213	0.059
-481.376	-4.048	0.244	0.168
-480.362	-200.000	-0.035	0.347
-479.347	25.505	-0.031	0.026
-478.332	-91.218	0.210	0.060
-477.318	-17.010	0.147	-0.092
-476.303	-159.892	0.009	0.000
-475.289	226.483	-0.152	0.244
-474.274	486.386	-0.111	0.252
-473.259	-200.000	0.026	0.193
-472.245	-200.000	-0.011	0.245
-471.230	-200.000	-0.017	0.169
-470.216	-185.390	0.120	0.002
-469.201	-181.092	0.126	-0.003
-468.186	48.053	-0.176	-0.163
-467.172	-4.534	0.290	-0.199
-466.157	-10.391	0.122	-0.080
-465.143	-81.245	0.045	0.015
-464.128	-200.000	0.022	-0.096
-463.113	137.987	-0.180	-0.234
-462.099	-43.820	0.047	-0.024
-461.084	-200.000	0.013	-0.086
-460.070	19.607	-0.266	0.212
-459.055	-8.814	0.274	-0.182
-458.040	-85.468	0.304	0.094
-457.026	-173.424	0.214	0.006
-456.011	112.135	0.140	0.167
-454.997	90.577	-0.238	-0.265
-453.982	-143.649	0.154	-0.015
-452.968	800.000	-0.086	0.325
-451.953	-110.196	-0.274	0.057
-450.938	29.793	-0.187	0.158
-449.924	3.329	0.021	-0.015
-448.909	459.042	0.083	-0.183
-447.895	-200.000	-0.065	-0.591
-446.880	800.000	0.043	-0.124
-445.865	-43.735	-0.442	-0.221
-444.851	170.747	0.252	-0.357
-443.836	697.411	-0.021	-0.054
-442.822	-200.000	-0.017	-0.143
-441.807	-98.292	0.283	-0.072
-440.792	51.109	0.086	-0.081
-439.778	142.899	0.093	-0.122
-438.763	432.952	0.106	0.227
-437.749	154.550	0.108	0.148
-436.734	80.291	0.057	0.061
-435.719	-200.000	-0.039	0.216
-434.705	198.452	0.130	0.197
-433.690	-14.248	-0.189	0.121
-432.676	64.300	-0.180	-0.179
-431.661	617.274	-0.024	0.059
-430.646	169.261	-0.212	-0.299
-429.632	50.297	-0.178	-0.167
-428.617	88.380	-0.122	-0.134
-427.603	666.598	0.025	-0.064
-426.588	-200.000	-0.009	0.165
-425.573	-100.217	-0.289	-0.071
-424.559	-29.160	-0.292	0.166
-423.544	800.000	-0.022	-0.075
-422.530	108.197	0.120	0.142
-421.515	-43.850	-0.183	0.091
-420.500	-87.458	-0.297	0.089
-419.486	15.845	0.119	0.092
-418.471	-131.501	0.205	0.027
-417.457	194.131	0.277	-0.416
-416.442	513.753	-0.043	-0.099
-415.428	312.745	0.060	-0.112
-414.413	265.929	-0.130	0.225
-413.398	800.000	-0.066	-0.221
-412.384	-88.275	0.154	-0.046
-411.369	-131.596	-0.069	-0.009
-410.355	497.538	-0.084	0.191
-409.340	38.785	-0.231	0.204
-408.325	-13.740	0.082	-0.053
-407.311	326.309	0.089	-0.168
-406.296	-193.097	0.103	0.001
-405.282	38.861	-0.108	-0.095
-404.267	-102.574	0.118	0.028
-403.252	80.098	-0.091	0.097
-402.238	-47.759	0.071	0.034
-401.223	17.429	-0.091	-0.071
-400.209	-146.798	-0.082	0.007
-399.194	-33.541	0.246	-0.134
-398.179	-60.780	0.150	0.063
-397.165	-200.000	0.002	0.085
-396.150	-75.156	0.090	0.032
-395.136	800.000	0.116	0.330
-394.121	10.743	-0.073	-0.055
-393.106	-200.000	0.046	0.211
-392.092	-152.316	-0.131	0.009
-391.077	-123.501	0.160	-0.025
-390.063	-80.464	-0.138	0.045
-389.048	50.876	0.058	0.054
-388.033	-31.434	0.195	-0.108
-387.019	133.385	0.115	-0.147
-386.004	572.458	0.096	0.231
-384.990	800.000	-0.090	-0.376
-383.975	115.003	0.188	0.227
-382.960	800.000	-0.098	-0.291
-381.946	-55.423	-0.140	-0.062
-380.931	-134.881	0.168	-0.020
-379.917	1.850	0.246	-0.176
-378.902	-99.531	0.065	0.016
-377.888	290.952	0.156	0.280
-376.873	128.528	-0.128	-0.161
-375.858	-97.013	-0.326	0.084
-374.844	-142.908	0.148	0.014
-373.829	134.211	0.219	-0.281
-372.815	-200.000	0.020	-0.121
-371.800	91.622	-0.031	0.034
-370.785	-137.787	0.168	-0.019
-369.771	-61.123	-0.203	0.085
-368.756	-200.000	0.013	-0.204
-367.742	-130.294	0.220	0.030
-366.727	-59.983	0.181	-0.077
-365.712	140.502	-0.097	0.127
-364.698	229.229	-0.169	0.272
-363.683	-31.435	-0.579	0.322
-362.669	55.255	0.154	0.147
-361.654	-6.293	0.277	-0.187
-360.639	-200.000	0.025	-0.316
-359.625	-115.855	0.237	0.044
-358.610	110.724	-0.208	0.247
-357.596	-200.000	-0.040	-0.438
-356.581	13.735	-0.132	-0.101
-355.566	9.055	0.050	-0.037
-354.552	-96.941	-0.101	0.026
-353.537	-172.407	-0.223	0.007
-352.523	439.188	-0.073	0.157
-351.508	-9.894	0.442	-0.290
-350.493	-108.510	-0.373	-0.079
-349.479	-200.000	0.002	-0.062
-348.464	-134.150	0.164	-0.020
-347.450	-200.000	-0.013	0.166
-346.435	-3.896	-0.027	-0.019
-345.420	-92.240	-0.272	0.076
-344.406	-200.000	0.061	0.273
-343.391	15.994	-0.266	-0.207
-342.377	-52.922	0.170	-0.077
-341.362	800.000	-0.044	-0.180
-340.348	-144.764	-0.227	0.021
-339.333	-157.285	0.137	0.008
-338.318	-67.562	0.103	0.040
-337.304	404.986	-0.187	-0.389
-336.289	-104.125	-0.146	0.034
-335.275	-112.221	-0.155	0.031
-334.260	-64.224	0.154	-0.062
-333.245	800.000	-0.038	0.127
-332.231	800.000	0.017	0.055
-331.216	-105.524	-0.131	-0.029
-330.202	18.318	0.163	0.129
-329.187	-200.000	-0.059	-0.301
-328.172	40.815	0.067	0.059
-327.158	3.003	-0.420	0.301
-326.143	489.265	0.142	-0.320
-325.129	-200.000	-0.056	-0.407
-324.114	800.000	-0.048	-0.150
-323.099	269.352	-0.112	0.193
-322.085	101.886	-0.193	0.223
-321.070	102.269	0.054	0.062
-320.056	-0.955	-0.236	-0.165
-319.041	42.141	0.260	0.233
-318.026	-18.720	-0.184	0.113
-317.012	102.012	0.163	0.187
-315.997	-106.397	0.499	0.110
-314.983	-97.581	-0.141	-0.036
-313.968	800.000	0.090	-0.260
-312.953	800.000	0.038	-0.117
-311.939	-200.000	0.028	0.138
-310.924	-154.015	0.130	-0.009
-309.910	800.000	0.052	-0.170
-308.895	-31.806	-0.059	0.033
-307.880	190.429	-0.256	-0.378
-306.866	168.692	-0.099	0.139
-305.851	172.496	0.053	0.075
-304.837	3.536	-0.195	-0.140
-303.822	-95.654	-0.303	-0.080
-302.807	542.780	0.005	0.012
-301.793	500.347	0.072	-0.163
-300.778	-14.942	0.142	-0.090
-299.764	-33.741	-0.079	-0.043
-298.749	-200.000	-0.040	-0.311
-297.735	-122.824	0.371	0.059
-296.720	362.105	0.093	-0.183
-295.705	-103.807	0.315	-0.073
-294.691	50.301	0.136	0.127
-293.676	-200.000	0.013	0.067
-292.662	796.785	0.025	-0.068
-291.647	800.000	0.111	0.375
-290.632	-59.921	-0.064	0.027
-289.618	614.812	0.035	-0.087
-288.603	-55.018	-0.295	0.131
-287.589	-46.044	0.099	-0.048
-286.574	-28.754	0.146	0.083
-285.559	599.398	0.166	-0.406
-284.545	16.150	-0.124	-0.096
-283.530	405.395	0.155	0.321
-282.516	-98.451	-0.121	0.031
-281.501	-200.000	0.010	-0.108
-280.486	-200.000	-0.022	0.113
-279.472	-2.562	-0.085	0.059
-278.457	158.742	-0.196	-0.267
-277.443	17.446	0.081	-0.063
-276.428	118.080	-0.023	-0.028
-275.413	359.446	-0.214	0.422
-274.399	464.993	0.057	-0.125
-273.384	79.562	-0.166	-0.175
-272.370	-200.000	0.363	-0.001
-271.355	64.112	0.275	-0.272
-270.340	260.718	0.033	0.056
-269.326	-80.732	-0.397	0.130
-268.311	-106.051	0.164	0.036
-267.297	-18.378	-0.213	-0.131
-266.282	-200.000	-0.052	0.509
-265.267	800.000	-0.070	0.262
-264.253	-95.551	-0.301	-0.079
-263.238	-1.689	0.202	0.140
-262.224	-200.000	-0.016	-0.172
-261.209	323.156	0.172	-0.322
-260.195	43.001	-0.109	-0.098
-259.180	3.323	-0.318	0.228
-258.165	-91.965	0.053	-0.015
-257.151	-66.674	0.154	-0.060
-256.136	495.421	-0.042	0.094
-255.122	-112.135	0.354	-0.070
-254.107	-69.613	-0.045	-0.017
-253.092	800.000	-0.064	0.180
-252.078	686.177	0.121	0.311
-251.063	-200.000	-0.014	-0.121
-250.049	800.000	0.078	-0.326
-249.034	-112.878	0.267	0.052
-248.019	136.957	-0.080	-0.102
-247.005	280.065	-0.184	0.324
-245.990	2.548	-0.070	-0.050
-244.976	29.629	-0.097	0.081
-243.961	-200.000	-0.010	0.203
-242.946	-143.719	0.262	0.024
-241.932	-33.975	0.171	0.093
-240.917	363.188	0.080	0.157
-239.903	-200.000	-0.015	0.131
-238.888	-11.102	-0.288	0.187
-237.873	150.195	0.154	0.206
-236.859	-200.000	0.036	-0.203
-235.844	-170.574	-0.148	0.005
-234.830	800.000	0.112	0.476
-233.815	-0.471	0.176	0.123
-232.800	-138.771	-0.301	-0.032
-231.786	447.452	-0.140	0.304
-230.771	491.656	0.070	-0.159
-229.757	800.000	0.076	0.206
-228.742	-72.528	0.313	0.114
-227.727	147.687	0.282	0.374
-226.713	-200.000	0.004	0.185
-225.698	-132.887	-0.333	0.042
-224.684	-200.000	0.018	-0.127
-223.669	-200.000	-0.052	0.300
-222.655	135.947	0.015	0.019
-221.640	-71.889	-0.265	-0.097
-220.625	370.709	0.111	0.220
-219.611	74.699	-0.195	0.202
-218.596	119.535	0.106	-0.129
-217.582	-200.000	-0.002	0.027
-216.567	-70.501	-0.091	-0.034
-215.552	-118.830	0.095	0.016
-214.538	753.457	0.039	0.104
-213.523	-128.983	-0.201	-0.028
-212.509	99.265	0.229	0.260
-211.494	-70.055	-0.348	-0.130
-210.479	26.887	-0.154	0.127
-209.465	-34.803	-0.047	0.025
-208.450	800.000	-0.057	0.181
-207.436	70.234	0.163	0.166
-206.421	-17.870	-0.050	0.031
-205.406	113.488	-0.151	-0.180
-204.392	124.371	-0.061	-0.075
-203.377	11.665	0.037	0.028
-202.363	-200.000	0.003	-0.130
-201.348	269.820	-0.055	0.094
-200.333	736.440	0.024	0.063
-199.319	-4.855	-0.031	-0.021
-198.304	800.000	0.131	-0.370
-197.290	411.842	-0.145	-0.301
-196.275	-200.000	-0.030	-0.249
-195.260	9.730	0.117	-0.087
-194.246	107.722	-0.100	-0.117
-193.231	800.000	0.067	-0.193
-192.217	-200.000	0.025	-0.219
-191.202	-200.000	0.012	-0.144
-190.187	-122.275	-0.129	0.021
-189.173	65.869	0.072	0.072
-188.158	100.647	-0.186	-0.212
-187.144	10.314	0.146	-0.109
-186.129	-102.777	-0.380	0.089
-185.114	137.544	0.123	0.157
-184.100	-200.000	-0.060	0.371
-183.085	-167.113	0.383	-0.015
-182.071	1.274	0.380	0.267
-181.056	119.689	0.265	0.322
-180.042	83.867	0.145	-0.155
-179.027	511.569	-0.069	-0.159
-178.012	46.872	0.102	0.093
-176.998	-93.330	-0.159	0.043
-175.983	-159.805	0.127	0.007
-174.969	-17.197	0.041	-0.025
-173.954	-200.000	-0.007	0.104
-172.939	-178.137	0.071	0.002
-171.925	63.644	0.220	-0.216
-170.910	354.309	-0.070	-0.136
-169.896	-172.969	0.155	-0.005
-168.881	622.129	-0.051	-0.125
-167.866	209.093	-0.246	0.378
-166.852	-134.353	0.464	0.056
-165.837	-43.158	0.137	-0.068
-164.823	95.359	0.101	0.112
-163.808	121.046	-0.134	-0.164
-162.793	151.111	0.247	0.329
-161.779	8.160	-0.170	0.125
-160.764	332.311	-0.116	-0.219
-159.750	-44.857	0.342	0.167
-158.735	-64.989	0.271	-0.107
-157.720	-36.677	0.063	-0.033
-156.706	628.620	-0.070	0.174
-155.691	800.000	-0.054	-0.154
-154.677	-200.000	-0.003	-0.287
-153.662	-121.005	0.334	-0.055
-152.647	-161.520	0.121	0.006
-151.633	-180.522	0.288	0.006
-150.618	88.096	0.041	-0.045
-149.604	800.000	-0.066	0.210
-148.589	-114.630	0.266	-0.050
-147.574	-74.263	-0.299	0.106
-146.560	-68.292	0.359	-0.137
-145.545	800.000	-0.053	-0.172
-144.531	113.719	0.304	0.361
-143.516	269.253	-0.149	-0.256
-142.502	-98.376	0.288	0.072
-141.487	-109.299	0.018	0.004
-140.472	-200.000	0.003	0.222
-139.458	173.338	0.166	0.234
-138.443	-16.230	0.213	-0.132
-137.429	-200.000	0.002	-0.284
-136.414	-200.000	0.003	-0.135
-135.399	225.241	0.254	0.402
-134.385	-200.000	0.001	-0.227
-133.370	56.747	-0.150	-0.143
-132.356	-8.934	-0.323	-0.212
-131.341	74.744	0.132	-0.136
-130.326	-46.960	0.158	0.075
-129.312	451.682	0.059	-0.128
-128.297	38.784	-0.171	-0.149
-127.283	128.725	-0.043	0.054
-126.268	51.144	-0.133	-0.124
-125.253	-24.335	0.100	-0.058
-124.239	-101.872	0.153	-0.036
-123.224	-72.141	0.322	0.117
-122.210	-200.000	0.054	0.236
-121.195	-16.329	-0.234	0.145
