DTS Sentinel unit serial number:	SN413079Multiplexer serial number:	ORYXHardware model number:	OX4-SRSoftware version number:	ORYX F/W v4.00 Oryx Data Collector v3.7.2.0data status	okinstallation	princeton_trtdifferential loss correction	single-endedforward channel	channel 1reverse channel	N/Adate	2019/09/14time	06:02:35forward acquisition time	60.00reverse acquisition time	0.00gamma	496.2192k internal	0.2335k external	0.2335temperature offset calibration	1.0081default loss term (dB/km)	0.3790temperature slope calibration	1.0000multiplexer offset coefficient	1.0000multiplexer slope coefficient	1.0000fibre end	0.00T internal ref (°C)	26.81T ext. ref 1 (°C)	3.40T ext. ref 2 (°C)	21.01length (m)	temperature (°C)	Stokes	anti-Stokes-747.200	-200.000	-0.013	-0.281
-746.185	-200.000	-0.041	-0.302
-745.171	92.372	0.093	0.105
-744.156	-2.694	0.125	0.088
-743.142	800.000	0.037	-0.140
-742.127	-48.314	-0.033	-0.016
-741.112	800.000	-0.066	-0.219
-740.098	337.991	0.099	-0.193
-739.083	84.477	0.107	0.117
-738.069	-200.000	-0.011	0.195
-737.054	3.005	0.105	0.077
-736.039	-123.018	-0.172	0.028
-735.025	-82.784	0.369	0.120
-734.010	-132.322	-0.168	-0.022
-732.996	-158.489	-0.360	-0.021
-731.981	-200.000	0.027	0.196
-730.966	800.000	-0.015	-0.047
-729.952	800.000	-0.022	0.074
-728.937	68.115	0.046	-0.047
-727.923	-200.000	0.024	-0.187
-726.908	2.700	-0.195	-0.142
-725.894	309.716	0.130	0.245
-724.879	-44.077	-0.350	0.176
-723.864	-200.000	0.028	0.241
-722.850	-200.000	0.003	0.080
-721.835	-200.000	-0.024	0.128
-720.821	101.700	0.204	-0.239
-719.806	31.899	0.131	-0.113
-718.791	-200.000	0.008	0.088
-717.777	-200.000	-0.003	0.045
-716.762	800.000	-0.166	0.568
-715.748	800.000	-0.089	0.334
-714.733	-112.100	-0.159	-0.032
-713.718	-38.107	-0.192	-0.102
-712.704	-200.000	-0.044	0.209
-711.689	34.462	0.195	-0.170
-710.675	125.154	-0.102	-0.129
-709.660	-97.917	-0.338	0.088
-708.645	-9.988	-0.206	-0.138
-707.631	-200.000	0.009	0.133
-706.616	-23.670	-0.167	-0.101
-705.602	-135.615	0.145	-0.017
-704.587	-16.269	-0.190	-0.121
-703.572	-168.681	-0.228	-0.009
-702.558	-51.625	-0.054	0.025
-701.543	800.000	-0.077	0.252
-700.529	-76.559	-0.088	-0.031
-699.514	106.617	0.220	-0.262
-698.499	146.567	-0.094	0.126
-697.485	21.921	-0.176	0.144
-696.470	780.664	0.173	-0.475
-695.456	-200.000	-0.001	-0.243
-694.441	14.500	-0.344	-0.269
-693.426	-119.041	-0.248	-0.044
-692.412	223.633	-0.074	-0.120
-691.397	-200.000	0.035	0.163
-690.383	-77.333	0.266	0.093
-689.368	244.890	-0.179	0.302
-688.354	800.000	0.055	0.186
-687.339	-200.000	-0.021	-0.123
-686.324	76.068	0.157	0.166
-685.310	-23.517	0.147	0.088
-684.295	-63.658	0.264	0.109
-683.281	800.000	-0.023	0.096
-682.266	-100.015	0.308	0.077
-681.251	165.139	-0.185	0.261
-680.237	38.939	0.112	0.100
-679.222	-135.158	-0.164	0.020
-678.208	-16.054	-0.172	-0.110
-677.193	800.000	-0.078	-0.253
-676.178	112.241	0.031	-0.037
-675.164	-105.947	-0.348	0.078
-674.149	-51.777	0.326	-0.152
-673.135	-200.000	-0.003	0.095
-672.120	-200.000	0.271	0.000
-671.105	-22.428	-0.276	0.168
-670.091	-62.849	0.152	0.063
-669.076	34.820	-0.178	-0.156
-668.062	-200.000	0.026	0.149
-667.047	-5.281	-0.322	0.222
-666.032	-200.000	-0.028	-0.224
-665.018	106.279	0.233	-0.277
-664.003	18.921	-0.304	0.244
-662.989	344.106	-0.052	-0.101
-661.974	436.960	-0.082	-0.178
-660.959	54.841	0.047	0.045
-659.945	-200.000	0.041	-0.216
-658.930	615.810	0.042	0.105
-657.916	-107.319	0.151	0.033
-656.901	800.000	0.069	0.242
-655.886	784.629	0.103	0.284
-654.872	-148.644	-0.114	-0.009
-653.857	-32.469	-0.031	0.018
-652.843	3.942	0.260	-0.191
-651.828	-200.000	-0.040	0.228
-650.814	77.082	-0.186	0.197
-649.799	-200.000	0.124	0.000
-648.784	-106.887	-0.117	-0.026
-647.770	84.210	-0.194	-0.213
-646.755	-145.094	-0.102	-0.009
-645.741	-96.553	-0.162	-0.043
-644.726	730.616	0.078	-0.208
-643.711	-1.977	0.250	-0.176
-642.697	-37.905	0.091	0.048
-641.682	6.715	-0.181	0.135
-640.668	49.152	-0.163	-0.153
-639.653	-14.578	-0.130	-0.084
-638.638	24.451	-0.303	0.251
-637.624	38.263	0.111	-0.099
-636.609	798.585	-0.127	-0.349
-635.595	-200.000	0.019	0.215
-634.580	-109.075	0.200	-0.043
-633.565	330.297	0.061	-0.118
-632.551	199.026	-0.055	0.084
-631.536	16.321	-0.149	-0.118
-630.522	-200.000	0.004	0.117
-629.507	-126.550	-0.213	-0.032
-628.492	287.589	-0.107	-0.193
-627.478	-42.204	0.069	-0.035
-626.463	-129.726	-0.163	-0.022
-625.449	-96.783	-0.289	-0.076
-624.434	-65.630	-0.127	0.051
-623.419	-200.000	0.064	-0.460
-622.405	-72.613	-0.119	-0.044
-621.390	207.157	-0.191	-0.297
-620.376	-200.000	0.024	-0.151
-619.361	332.284	-0.066	-0.127
-618.346	-110.109	0.140	-0.029
-617.332	66.372	-0.084	-0.085
-616.317	800.000	0.099	-0.411
-615.303	-26.680	-0.102	-0.060
-614.288	116.914	-0.079	-0.097
-613.273	-67.529	-0.108	-0.042
-612.259	10.094	-0.170	0.129
-611.244	336.251	-0.148	-0.287
-610.230	276.015	-0.020	-0.036
-609.215	51.819	0.220	-0.209
-608.201	-85.732	-0.222	-0.069
-607.186	341.718	-0.096	-0.187
-606.171	354.103	0.123	-0.244
-605.157	-200.000	0.063	0.277
-604.142	-72.632	-0.172	0.063
-603.128	-119.490	-0.145	-0.025
-602.113	-96.854	0.141	0.037
-601.098	-136.483	-0.275	0.032
-600.084	-200.000	-0.029	-0.156
-599.069	-200.000	-0.019	0.308
-598.055	800.000	0.040	0.147
-597.040	-200.000	0.002	0.233
-596.025	800.000	0.050	0.173
-595.011	174.159	0.017	-0.024
-593.996	98.389	-0.174	0.201
-592.982	-200.000	0.004	0.302
-591.967	-200.000	-0.020	0.261
-590.952	124.110	-0.213	0.267
-589.938	800.000	0.022	0.081
-588.923	233.153	0.065	-0.107
-587.909	-45.093	-0.246	0.122
-586.894	41.917	0.153	-0.139
-585.879	-200.000	0.024	-0.218
-584.865	-24.415	-0.272	0.162
-583.850	-62.351	0.150	-0.062
-582.836	-200.000	-0.025	-0.139
-581.821	7.579	-0.418	0.312
-580.806	-200.000	-0.004	-0.104
-579.792	61.917	-0.354	0.352
-578.777	800.000	-0.066	0.188
-577.763	163.427	0.063	0.089
-576.748	255.376	-0.127	-0.217
-575.733	-87.683	-0.244	0.074
-574.719	-144.254	0.014	-0.001
-573.704	-180.960	0.285	-0.006
-572.690	686.110	0.133	0.346
-571.675	505.680	0.069	0.160
-570.661	800.000	-0.046	0.197
-569.646	-158.834	-0.103	0.006
-568.631	-112.105	0.245	-0.049
-567.617	-148.412	0.239	-0.020
-566.602	800.000	-0.055	-0.190
-565.588	-34.090	-0.101	-0.055
-564.573	-43.607	-0.176	-0.089
-563.558	24.740	-0.272	-0.225
-562.544	-200.000	-0.039	-0.277
-561.529	-6.352	0.128	-0.087
-560.515	-200.000	0.006	-0.385
-559.500	-11.214	-0.088	0.058
-558.485	73.870	0.256	0.267
-557.471	95.880	0.028	-0.032
-556.456	15.112	0.131	-0.102
-555.442	123.166	-0.189	0.236
-554.427	-200.000	-0.099	-0.509
-553.412	800.000	0.043	-0.119
-552.398	-187.758	-0.127	0.002
-551.383	232.616	-0.056	-0.092
-550.369	-92.660	-0.127	-0.036
-549.354	68.640	-0.107	0.109
-548.339	-71.497	0.168	0.063
-547.325	-87.104	0.100	0.030
-546.310	-137.724	0.014	-0.002
-545.296	4.029	-0.110	0.081
-544.281	-101.143	-0.160	0.039
-543.266	-82.910	0.126	0.040
-542.252	449.168	0.152	-0.335
-541.237	-200.000	-0.033	-0.209
-540.223	-25.903	-0.170	-0.100
-539.208	-49.131	0.114	-0.054
-538.193	-24.278	-0.030	0.018
-537.179	5.045	-0.052	-0.038
-536.164	-73.113	-0.045	-0.017
-535.150	-102.892	0.211	0.050
-534.135	-7.481	0.230	-0.155
-533.121	78.933	0.104	-0.111
-532.106	205.487	-0.015	-0.024
-531.091	-42.546	-0.186	-0.094
-530.077	-200.000	0.018	-0.267
-529.062	-158.686	0.362	-0.021
-528.048	24.424	-0.092	0.076
-527.033	800.000	-0.076	0.275
-526.018	-200.000	0.054	-0.268
-525.004	-138.768	0.431	0.047
-523.989	75.914	-0.079	0.083
-522.975	-158.226	0.080	-0.005
-521.960	-200.000	-0.032	0.254
-520.945	-200.000	-0.053	0.243
-519.931	37.749	-0.235	0.208
-518.916	197.002	0.111	0.169
-517.902	185.102	0.205	0.303
-516.887	103.908	0.295	-0.346
-515.872	159.303	-0.050	-0.069
-514.858	-200.000	-0.021	-0.267
-513.843	31.974	0.062	-0.053
-512.829	-56.363	-0.375	-0.166
-511.814	-79.748	-0.022	0.007
-510.799	-7.474	0.065	0.044
-509.785	-67.769	-0.119	0.046
-508.770	168.734	-0.126	0.178
-507.756	341.538	-0.061	0.119
-506.741	11.402	0.234	-0.178
-505.726	145.135	-0.111	0.147
-504.712	-94.769	0.067	-0.018
-503.697	800.000	0.041	-0.177
-502.683	800.000	-0.020	-0.078
-501.668	1.765	-0.471	-0.338
-500.653	7.676	-0.097	0.072
-499.639	36.924	-0.089	-0.078
-498.624	180.583	0.171	-0.250
-497.610	403.612	-0.162	-0.340
-496.595	179.105	0.182	-0.265
-495.581	55.023	-0.180	-0.173
-494.566	800.000	0.118	0.379
-493.551	-106.292	-0.523	0.117
-492.537	-88.078	0.072	0.021
-491.522	61.271	0.244	0.241
-490.508	-200.000	-0.008	0.127
-489.493	800.000	-0.018	-0.068
-488.478	-32.489	-0.174	0.097
-487.464	800.000	-0.016	-0.061
-486.449	800.000	-0.055	0.230
-485.435	-68.707	0.203	-0.078
-484.420	86.809	-0.180	0.197
-483.405	-200.000	0.009	0.241
-482.391	800.000	0.088	-0.255
-481.376	95.045	-0.207	-0.234
-480.362	652.725	-0.026	-0.065
-479.347	90.569	-0.060	-0.067
-478.332	-114.868	0.072	-0.014
-477.318	-82.809	0.129	0.042
-476.303	254.689	0.145	0.248
-475.289	-127.715	-0.201	-0.029
-474.274	88.216	0.196	-0.216
-473.259	190.616	-0.101	-0.150
-472.245	29.149	-0.202	-0.170
-471.230	800.000	0.027	-0.097
-470.216	-17.450	0.288	-0.180
-469.201	-54.283	0.133	0.060
-468.186	-51.981	0.261	0.121
-467.172	131.027	0.228	-0.291
-466.157	-92.367	-0.390	-0.109
-465.143	-30.835	-0.127	0.071
-464.128	-200.000	0.023	-0.100
-463.113	-176.193	0.648	-0.017
-462.099	-106.848	0.058	0.013
-461.084	-63.243	0.500	0.205
-460.070	-56.782	0.420	-0.184
-459.055	-111.295	0.330	-0.067
-458.040	800.000	-0.080	0.299
-457.026	58.091	-0.208	0.203
-456.011	0.980	0.235	0.167
-454.997	8.355	0.214	-0.160
-453.982	32.592	-0.151	-0.130
-452.968	-23.696	-0.358	0.213
-451.953	-155.380	-0.130	0.008
-450.938	800.000	0.023	-0.099
-449.924	359.733	0.039	0.078
-448.909	5.083	-0.106	0.078
-447.895	30.434	-0.156	0.132
-446.880	-81.804	-0.090	-0.029
-445.865	-200.000	0.014	-0.168
-444.851	800.000	-0.073	0.251
-443.836	-65.721	0.084	-0.033
-442.822	-58.673	0.114	0.049
-441.807	29.132	-0.115	-0.097
-440.792	96.170	0.261	0.296
-439.778	-72.705	0.204	0.075
-438.763	-200.000	-0.016	-0.225
-437.749	23.907	-0.248	0.203
-436.734	-33.138	-0.094	-0.052
-435.719	58.638	-0.168	-0.163
-434.705	157.606	0.152	0.209
-433.690	-200.000	0.014	0.129
-432.676	-32.630	0.016	-0.009
-431.661	800.000	-0.090	0.288
-430.646	-135.219	0.208	-0.025
-429.632	-200.000	0.022	0.153
-428.617	-103.039	0.277	0.065
-427.603	351.958	0.128	-0.251
-426.588	326.183	-0.081	-0.154
-425.573	30.080	0.113	-0.095
-424.559	-127.210	-0.200	0.029
-423.544	-102.042	-0.110	-0.026
-422.530	-150.042	-0.244	-0.019
-421.515	-119.504	-0.096	0.017
-420.500	-93.612	-0.395	-0.108
-419.486	800.000	-0.124	0.468
-418.471	-6.279	0.112	0.076
-417.457	-200.000	0.002	-0.381
-416.442	3.821	0.100	0.072
-415.428	70.227	-0.209	0.215
-414.413	-20.728	0.198	-0.121
-413.398	-190.891	-0.163	0.002
-412.384	23.472	0.212	0.173
-411.369	-200.000	-0.008	-0.129
-410.355	317.537	-0.095	-0.179
-409.340	290.520	-0.079	0.142
-408.325	800.000	-0.068	0.227
-407.311	20.733	-0.369	-0.296
-406.296	-68.432	0.205	0.079
-405.282	-73.527	-0.152	0.055
-404.267	-91.257	-0.324	-0.092
-403.252	-43.606	-0.041	-0.021
-402.238	-149.460	-0.250	0.020
-401.223	52.691	0.100	-0.094
-400.209	33.100	0.086	0.074
-399.194	-200.000	0.010	0.155
-398.179	-142.589	-0.139	-0.013
-397.165	405.091	-0.075	0.158
-396.150	-46.957	0.083	-0.040
-395.136	-140.465	0.250	-0.026
-394.121	-200.000	-0.024	-0.273
-393.106	172.616	0.201	-0.286
-392.092	-0.897	0.262	0.184
-391.077	800.000	-0.088	0.346
-390.063	-41.589	0.313	0.159
-389.048	240.594	0.082	-0.135
-388.033	-51.154	0.251	0.117
-387.019	246.655	-0.092	0.154
-386.004	275.696	0.038	0.067
-384.990	-16.696	-0.115	-0.072
-383.975	-25.269	0.290	0.170
-382.960	102.975	-0.308	0.357
-381.946	-153.700	0.077	0.005
-380.931	-200.000	-0.048	0.210
-379.917	-154.966	0.636	0.041
-378.902	542.636	-0.097	0.229
-377.888	-38.163	-0.482	-0.253
-376.873	-17.636	0.336	-0.209
-375.858	232.408	-0.138	0.225
-374.844	450.268	-0.142	0.311
-373.829	154.207	-0.119	-0.162
-372.815	48.325	-0.088	0.082
-371.800	-159.822	-0.200	0.011
-370.785	-200.000	0.006	-0.211
-369.771	78.507	0.030	-0.031
-368.756	-200.000	0.012	-0.252
-367.742	800.000	0.078	-0.228
-366.727	-100.374	-0.139	0.034
-365.712	-200.000	-0.018	0.212
-364.698	210.338	-0.052	-0.081
-363.683	213.426	-0.025	0.040
-362.669	43.748	0.282	-0.255
-361.654	-15.957	-0.090	0.057
-360.639	-104.475	-0.088	0.020
-359.625	134.902	-0.363	-0.466
-358.610	-131.163	0.254	0.033
-357.596	-186.575	-0.409	-0.006
-356.581	-46.001	0.135	-0.066
-355.566	232.326	0.083	0.136
-354.552	800.000	0.067	-0.222
-353.537	321.973	0.143	0.268
-352.523	585.563	0.076	-0.184
-351.508	-200.000	-0.039	-0.449
-350.493	-200.000	-0.010	-0.139
-349.479	-22.775	0.082	0.049
-348.464	-5.025	0.019	-0.013
-347.450	-70.116	0.097	-0.036
-346.435	-16.194	0.139	-0.087
-345.420	-200.000	0.079	0.487
-344.406	299.579	0.089	0.162
-343.391	-4.856	-0.118	0.081
-342.377	238.508	-0.123	0.202
-341.362	-4.998	0.194	0.132
-340.348	9.586	0.084	-0.063
-339.333	306.709	0.095	0.174
-338.318	701.172	-0.036	-0.093
-337.304	225.510	-0.123	-0.196
-336.289	-3.474	-0.144	0.099
-335.275	-22.808	-0.250	0.149
-334.260	800.000	-0.076	-0.225
-333.245	-136.249	0.155	0.018
-332.231	23.968	0.414	0.338
-331.216	-46.357	-0.085	0.041
-330.202	-155.940	0.257	-0.016
-329.187	-95.073	0.306	-0.082
-328.172	-138.897	0.375	-0.040
-327.158	-65.460	-0.182	0.072
-326.143	358.306	-0.178	-0.351
-325.129	-60.208	0.104	-0.044
-324.114	492.226	0.046	0.105
-323.099	-200.000	-0.055	0.249
-322.085	90.782	0.057	0.063
-321.070	-200.000	-0.048	-0.270
-320.056	-112.271	-0.356	0.071
-319.041	118.299	-0.162	0.197
-318.026	-118.637	-0.057	0.010
-317.012	-99.880	0.198	-0.049
-315.997	-99.511	0.124	0.031
-314.983	-45.394	0.397	0.194
-313.968	-177.631	0.461	0.011
-312.953	-86.511	0.075	0.023
-311.939	-59.848	-0.358	0.151
-310.924	-200.000	-0.022	-0.111
-309.910	-177.253	0.403	0.010
-308.895	-72.139	-0.243	-0.089
-307.880	10.819	-0.055	0.041
-306.866	800.000	0.046	-0.199
-305.851	715.446	-0.168	-0.439
-304.837	800.000	0.091	0.247
-303.822	-49.403	0.215	0.101
-302.807	-81.788	0.211	0.068
-301.793	1.437	-0.184	-0.131
-300.778	-8.075	0.084	-0.056
-299.764	92.384	-0.199	-0.221
-298.749	83.642	0.210	-0.226
-297.735	-126.319	-0.159	-0.023
-296.720	-200.000	-0.004	0.124
-295.705	-44.347	0.284	0.140
-294.691	-85.558	-0.279	0.086
-293.676	583.365	0.034	0.082
-292.662	-200.000	-0.027	0.165
-291.647	313.884	0.103	0.192
-290.632	-200.000	0.035	-0.270
-289.618	-200.000	-0.023	-0.134
-288.603	800.000	-0.065	0.194
-287.589	-12.572	-0.303	0.195
-286.574	61.030	0.173	0.170
-285.559	-200.000	-0.012	0.108
-284.545	-199.496	0.225	-0.001
-283.530	-144.214	0.207	-0.019
-282.516	22.710	0.116	-0.093
-281.501	-4.555	-0.165	0.112
-280.486	-200.000	0.042	0.256
-279.472	800.000	-0.080	-0.253
-278.457	-200.000	0.013	-0.161
-277.443	766.516	0.070	-0.188
-276.428	2.383	-0.216	-0.154
-275.413	141.076	0.028	-0.037
-274.399	800.000	-0.063	0.209
-273.384	-40.966	0.164	0.084
-272.370	698.316	0.060	0.154
-271.355	-136.024	-0.110	-0.013
-270.340	-200.000	0.017	0.172
-269.326	70.928	0.196	0.200
-268.311	-200.000	0.018	-0.085
-267.297	-109.129	0.138	0.029
-266.282	-138.351	-0.102	-0.011
-265.267	-5.823	-0.384	-0.259
-264.253	73.687	0.115	-0.118
-263.238	410.340	0.136	-0.284
-262.224	-111.976	-0.366	-0.073
-261.209	653.376	-0.075	-0.191
-260.195	-35.946	0.184	0.098
-259.180	800.000	-0.087	0.309
-258.165	-76.791	-0.145	-0.050
-257.151	-75.205	0.209	0.074
-256.136	-35.806	0.172	0.092
-255.122	-200.000	-0.041	0.191
-254.107	-200.000	-0.001	-0.248
-253.092	294.890	0.177	0.320
-252.078	299.344	0.083	0.150
-251.063	11.977	-0.072	0.055
-250.049	-200.000	0.036	0.242
-249.034	136.264	-0.174	-0.224
-248.019	38.713	0.245	0.215
-247.005	-94.705	0.063	0.017
-245.990	-111.692	0.338	0.067
-244.976	-200.000	-0.000	-0.332
-243.961	70.983	-0.088	0.090
-242.946	-21.063	-0.280	-0.169
-241.932	91.326	-0.100	0.110
-240.917	-200.000	0.019	0.321
-239.903	-157.626	-0.108	-0.006
-238.888	-148.171	-0.216	0.018
-237.873	189.111	-0.174	0.257
-236.859	-200.000	0.009	0.099
-235.844	698.288	0.064	0.165
-234.830	-5.347	-0.157	0.106
-233.815	61.096	-0.134	-0.131
-232.800	83.169	-0.170	-0.183
-231.786	-59.663	-0.170	-0.072
-230.771	-200.000	0.011	-0.148
-229.757	-166.428	0.370	-0.015
-228.742	318.737	0.033	-0.061
-227.727	-0.843	-0.368	-0.257
-226.713	-34.775	-0.304	-0.164
-225.698	-10.204	0.221	0.144
-224.684	800.000	-0.069	0.233
-223.669	49.708	0.203	0.188
-222.655	-200.000	-0.016	-0.118
-221.640	-60.677	0.072	0.030
-220.625	-200.000	-0.051	0.245
-219.611	-200.000	-0.017	0.095
-218.596	23.169	-0.119	-0.097
-217.582	-200.000	0.016	-0.163
-216.567	-33.507	-0.148	-0.080
-215.552	-104.418	-0.317	0.072
-214.538	39.559	0.058	-0.052
-213.523	-102.085	0.204	0.048
-212.509	134.466	0.109	0.139
-211.494	-71.180	-0.342	0.126
-210.479	-23.968	0.298	-0.175
-209.465	-177.050	0.363	0.009
-208.450	-136.798	0.310	0.035
-207.436	93.020	0.142	0.158
-206.421	-158.956	0.259	-0.014
-205.406	-172.810	0.231	-0.007
-204.392	-200.000	-0.043	0.320
-203.377	-200.000	0.021	-0.180
-202.363	298.624	-0.120	0.217
-201.348	-186.831	-0.186	0.003
-200.333	-87.042	0.238	0.071
-199.319	-94.965	0.258	0.069
-198.304	53.885	0.012	-0.011
-197.290	-200.000	-0.056	0.309
-196.275	-200.000	-0.011	0.177
-195.260	95.012	0.085	0.095
-194.246	35.739	-0.166	-0.143
-193.231	250.546	-0.123	-0.206
-192.217	15.489	-0.260	0.201
-191.202	-35.986	0.344	0.183
-190.187	-200.000	0.025	0.203
-189.173	336.709	-0.069	0.133
-188.158	42.431	0.229	-0.205
-187.144	-46.261	0.304	0.147
-186.129	12.404	-0.116	-0.088
-185.114	374.722	0.157	-0.315
-184.100	-156.950	0.115	-0.007
-183.085	27.268	-0.201	-0.166
-182.071	229.004	0.111	0.178
-181.056	-200.000	-0.104	0.656
-180.042	34.078	0.321	0.275
-179.027	-153.342	0.248	0.017
-178.012	74.226	0.068	-0.070
-176.998	800.000	0.008	-0.030
-175.983	800.000	-0.022	-0.070
-174.969	-200.000	0.028	0.240
-173.954	800.000	-0.060	0.247
-172.939	-200.000	0.030	0.144
-171.925	-200.000	0.047	-0.314
-170.910	201.423	0.138	-0.209
-169.896	800.000	0.057	-0.157
-168.881	275.421	-0.027	-0.047
-167.866	158.503	0.137	0.187
-166.852	-74.336	0.244	0.087
-165.837	-39.316	-0.163	0.084
-164.823	800.000	0.026	-0.108
-163.808	-37.171	-0.011	0.006
-162.793	-61.215	-0.173	-0.072
-161.779	32.967	0.116	-0.098
-160.764	199.863	0.073	-0.111
-159.750	-77.728	-0.036	-0.012
-158.735	-74.990	-0.270	-0.095
-157.720	3.596	0.182	-0.130
-156.706	27.941	-0.259	-0.214
-155.691	22.020	0.229	-0.184
-154.677	477.419	-0.136	-0.302
-153.662	800.000	0.027	-0.088
-152.647	-122.471	-0.072	-0.012
-151.633	-200.000	0.003	-0.162
-150.618	753.795	0.031	0.082
-149.604	-62.781	0.534	0.217
-148.589	800.000	0.026	0.073
-147.574	215.204	-0.046	-0.071
-146.560	23.868	-0.071	-0.057
-145.545	106.904	0.132	0.154
-144.531	-200.000	-0.043	0.260
-143.516	526.925	-0.152	0.352
-142.502	-38.003	-0.276	0.144
-141.487	800.000	-0.052	0.175
-140.472	-102.192	-0.192	-0.045
-139.458	-12.869	-0.197	-0.126
-138.443	-59.786	0.224	0.094
-137.429	45.073	-0.393	0.356
-136.414	-104.749	0.035	-0.008
-135.399	41.850	-0.247	0.219
-134.385	9.033	0.263	-0.195
-133.370	41.712	0.317	-0.282
-132.356	-166.669	-0.072	-0.003
-131.341	-171.407	0.370	-0.012
-130.326	800.000	0.057	-0.188
-129.312	685.910	0.040	0.102
-128.297	106.527	-0.092	0.107
-127.283	54.616	0.132	-0.125
-126.268	45.930	0.241	-0.219
-125.253	245.052	-0.123	-0.203
-124.239	-200.000	-0.027	-0.200
-123.224	-168.157	0.119	-0.005
-122.210	-200.000	0.022	0.285
-121.195	-78.277	-0.214	0.072
