DTS Sentinel unit serial number:	SN413079Multiplexer serial number:	ORYXHardware model number:	OX4-SRSoftware version number:	ORYX F/W v4.00 Oryx Data Collector v3.7.2.0data status	okinstallation	princeton_trtdifferential loss correction	single-endedforward channel	channel 1reverse channel	N/Adate	2019/09/12time	19:59:34forward acquisition time	15.00reverse acquisition time	0.00gamma	496.2192k internal	0.2324k external	0.2324temperature offset calibration	1.0142default loss term (dB/km)	0.3790temperature slope calibration	1.0000multiplexer offset coefficient	1.0000multiplexer slope coefficient	1.0000fibre end	0.00T internal ref (°C)	31.75T ext. ref 1 (°C)	3.56T ext. ref 2 (°C)	26.39length (m)	temperature (°C)	Stokes	anti-Stokes-747.200	-200.000	-0.034	-0.522
-746.185	-200.000	-0.010	-0.105
-745.171	-83.202	0.190	0.062
-744.156	-88.130	-0.913	0.276
-743.142	800.000	0.166	-0.529
-742.127	8.532	-0.225	0.171
-741.112	-33.390	-0.885	-0.494
-740.098	6.701	0.730	0.548
-739.083	224.406	0.310	0.506
-738.069	-5.837	0.327	-0.226
-737.054	-200.000	0.003	-0.389
-736.039	-50.802	-0.423	0.201
-735.025	-97.511	0.488	0.128
-734.010	800.000	0.081	-0.338
-732.996	15.054	-0.355	-0.281
-731.981	-200.000	-0.164	-1.003
-730.966	-109.806	-0.606	-0.128
-729.952	-200.000	-0.022	0.187
-728.937	-126.509	0.342	-0.051
-727.923	54.115	-0.561	-0.544
-726.908	-180.741	0.670	-0.014
-725.894	174.494	-0.322	-0.470
-724.879	53.161	-0.174	0.168
-723.864	-1.357	0.104	0.074
-722.850	114.725	-0.149	-0.184
-721.835	800.000	-0.096	-0.375
-720.821	389.400	-0.236	0.494
-719.806	-110.361	0.226	-0.047
-718.791	57.906	-0.436	-0.430
-717.777	89.696	-0.184	0.208
-716.762	3.685	0.751	0.552
-715.748	110.309	0.452	0.547
-714.733	-92.227	-0.154	0.044
-713.718	-112.734	0.122	-0.024
-712.704	-17.450	-0.192	0.122
-711.689	67.526	-0.257	-0.265
-710.675	63.650	-0.017	0.017
-709.660	800.000	-0.216	0.610
-708.645	-14.570	-0.681	0.442
-707.631	-122.102	0.543	-0.090
-706.616	-200.000	-0.119	-0.613
-705.602	-200.000	-0.225	-1.615
-704.587	-200.000	0.019	-0.651
-703.572	-55.782	0.290	-0.131
-702.558	-200.000	-0.079	0.541
-701.543	580.288	0.308	-0.761
-700.529	-169.727	-0.986	-0.036
-699.514	-88.890	0.543	0.162
-698.499	515.242	-0.339	-0.797
-697.485	-9.171	0.375	-0.253
-696.470	-69.248	0.639	0.247
-695.456	-116.548	-0.567	-0.105
-694.441	-58.280	0.576	-0.253
-693.426	800.000	-0.192	0.562
-692.412	341.847	0.179	0.353
-691.397	-200.000	-0.004	0.140
-690.383	401.879	0.085	-0.179
-689.368	-200.000	0.412	0.001
-688.354	88.209	-0.367	0.410
-687.339	-13.125	0.302	-0.198
-686.324	674.274	0.046	-0.120
-685.310	111.814	0.277	-0.337
-684.295	-10.087	0.566	-0.379
-683.281	-200.000	-0.053	-0.777
-682.266	-133.689	0.630	-0.079
-681.251	-107.323	0.253	-0.056
-680.237	800.000	-0.048	-0.158
-679.222	514.387	0.125	0.294
-678.208	-111.068	0.616	-0.127
-677.193	-78.088	0.965	-0.334
-676.178	-134.079	-0.597	-0.074
-675.164	93.776	0.841	-0.960
-674.149	-69.887	-0.861	0.331
-673.135	6.304	0.377	-0.281
-672.120	20.274	0.294	0.239
-671.105	283.234	-0.202	-0.365
-670.091	-12.916	-0.606	-0.397
-669.076	-181.902	-0.630	-0.012
-668.062	-200.000	-0.172	-0.816
-667.047	-61.394	1.166	-0.494
-666.032	-17.499	-0.880	-0.557
-665.018	-48.815	-0.409	-0.197
-664.003	-31.989	0.346	0.195
-662.989	-19.406	0.806	-0.503
-661.974	-200.000	0.074	-1.010
-660.959	-155.706	-0.125	-0.008
-659.945	114.865	0.489	0.600
-658.930	174.870	0.524	-0.763
-657.916	800.000	0.320	-0.991
-656.901	154.713	-0.283	0.391
-655.886	686.541	0.327	0.859
-654.872	487.663	-0.154	0.354
-653.857	-134.228	0.343	-0.042
-652.843	476.577	-0.166	0.377
-651.828	57.052	0.224	-0.220
-650.814	-200.000	-0.029	-0.658
-649.799	108.867	-0.319	0.384
-648.784	485.281	-0.443	-1.015
-647.770	75.315	-0.122	0.130
-646.755	-43.591	-0.496	-0.252
-645.741	-142.782	-0.696	0.068
-644.726	-171.047	0.598	-0.020
-643.711	19.032	0.482	0.388
-642.697	91.637	0.356	-0.403
-641.682	-88.762	-0.499	0.149
-640.668	110.709	-0.256	0.309
-639.653	-135.348	1.020	-0.123
-638.638	-200.000	-0.081	-0.451
-637.624	800.000	-0.194	0.546
-636.609	509.749	-0.067	-0.156
-635.595	58.751	-0.266	-0.263
-634.580	19.234	-0.384	-0.310
-633.565	-200.000	-0.067	-1.037
-632.551	109.709	-0.288	0.347
-631.536	-143.021	-0.996	0.097
-630.522	308.489	0.209	0.392
-629.507	800.000	-0.156	0.468
-628.492	-136.563	-0.666	-0.078
-627.478	800.000	0.162	-0.552
-626.463	1.238	-0.478	-0.345
-625.449	800.000	-0.213	0.731
-624.434	-163.969	0.751	0.035
-623.419	-200.000	0.088	-0.433
-622.405	-150.709	0.629	-0.048
-621.390	-73.949	-0.348	0.127
-620.376	-67.834	0.140	0.055
-619.361	-92.709	-0.393	-0.110
-618.346	-156.083	-0.981	-0.062
-617.332	4.580	0.157	0.116
-616.317	49.142	1.218	-1.150
-615.303	-200.000	0.133	-0.679
-614.288	-23.374	0.185	0.112
-613.273	166.510	0.496	0.705
-612.259	-26.816	0.281	-0.165
-611.244	71.941	-0.457	0.477
-610.230	24.505	0.007	0.006
-609.215	149.516	0.129	0.176
-608.201	-59.583	0.873	0.376
-607.186	800.000	0.087	-0.321
-606.171	312.207	-0.134	0.253
-605.157	-200.000	-0.119	0.673
-604.142	83.057	0.109	0.119
-603.128	46.114	0.406	0.378
-602.113	600.332	-0.357	-0.890
-601.098	9.910	-0.857	0.653
-600.084	203.703	0.332	0.516
-599.069	-42.055	0.407	0.209
-598.055	17.632	0.256	0.204
-597.040	119.140	-0.159	-0.197
-596.025	800.000	0.121	0.436
-595.011	-44.740	0.419	0.210
-593.996	-152.662	0.394	-0.028
-592.982	-25.685	-0.363	0.215
-591.967	348.403	0.302	-0.598
-590.952	67.306	0.400	-0.409
-589.938	-11.389	0.162	0.107
-588.923	193.626	0.253	-0.385
-587.909	-109.747	0.570	0.120
-586.894	-71.912	-0.802	-0.299
-585.879	-81.537	-0.097	0.032
-584.865	-200.000	0.031	0.542
-583.850	136.812	0.118	-0.155
-582.836	-33.764	-0.233	-0.129
-581.821	29.856	0.143	-0.122
-580.806	605.219	-0.415	-1.036
-579.792	290.936	-0.573	-1.044
-578.777	-5.172	-0.304	0.209
-577.763	-95.370	-0.594	0.160
-576.748	800.000	-0.118	0.362
-575.733	84.730	0.853	-0.937
-574.719	800.000	0.142	0.522
-573.704	87.045	-0.308	-0.341
-572.690	57.964	-0.287	0.282
-571.675	383.961	0.165	0.340
-570.661	200.020	-0.458	-0.705
-569.646	313.703	-0.094	-0.177
-568.631	-7.879	-0.548	0.371
-567.617	-143.344	-0.180	-0.017
-566.602	800.000	0.131	-0.449
-565.588	124.214	0.104	-0.131
-564.573	-159.580	-0.274	0.015
-563.558	-200.000	0.195	0.867
-562.544	338.940	0.311	-0.607
-561.529	-26.684	0.456	-0.268
-560.515	-129.348	-0.320	0.045
-559.500	800.000	-0.120	0.432
-558.485	-133.690	0.404	0.051
-557.471	-83.687	-0.947	-0.303
-556.456	66.312	-0.245	-0.249
-555.442	-48.538	-0.689	-0.332
-554.427	112.744	0.614	-0.745
-553.412	478.199	0.283	0.643
-552.398	-49.386	-0.614	0.294
-551.383	103.974	-0.343	-0.404
-550.369	-129.093	-0.478	-0.067
-549.354	51.216	0.202	0.192
-548.339	99.086	0.387	0.448
-547.325	55.427	0.191	0.185
-546.310	201.354	0.383	-0.590
-545.296	117.138	0.123	-0.151
-544.281	-200.000	-0.068	-0.552
-543.266	132.550	0.416	-0.538
-542.252	-88.436	-0.558	-0.167
-541.237	-79.326	-0.268	-0.091
-540.223	-88.767	0.732	-0.218
-539.208	142.427	-0.558	-0.741
-538.193	-107.663	-0.208	-0.046
-537.179	-62.459	0.031	0.013
-536.164	80.112	0.198	-0.214
-535.150	64.737	0.095	0.096
-534.135	201.718	-0.173	0.266
-533.121	626.914	0.085	-0.215
-532.106	-200.000	0.035	-0.240
-531.091	556.510	-0.309	0.746
-530.077	23.854	0.343	0.283
-529.062	47.598	-0.631	0.589
-528.048	-28.667	-0.410	-0.236
-527.033	-172.841	0.245	-0.008
-526.018	-92.036	-0.461	0.131
-525.004	155.029	0.096	-0.133
-523.989	111.187	-0.112	-0.135
-522.975	800.000	-0.105	-0.358
-521.960	-90.012	1.040	-0.304
-520.945	-200.000	-0.055	-0.981
-519.931	3.652	0.131	0.096
-518.916	450.402	-0.284	0.627
-517.902	-172.356	0.237	-0.008
-516.887	-178.021	0.096	-0.002
-515.872	-200.000	-0.121	0.639
-514.858	-143.634	-0.527	-0.050
-513.843	-200.000	0.148	-0.944
-512.829	-200.000	-0.000	0.203
-511.814	149.292	0.309	0.418
-510.799	271.226	0.360	-0.635
-509.785	-35.032	-0.238	-0.130
-508.770	67.575	0.813	0.831
-507.756	647.716	0.145	-0.370
-506.741	-171.822	-0.624	0.020
-505.726	-2.954	-0.628	0.439
-504.712	-36.782	0.533	0.286
-503.697	800.000	0.158	0.483
-502.683	800.000	0.123	0.341
-501.668	121.476	0.242	-0.302
-500.653	23.188	-0.438	-0.360
-499.639	-200.000	-0.001	-0.475
-498.624	-3.847	-0.401	0.279
-497.610	-192.339	0.187	-0.002
-496.595	32.652	0.347	0.300
-495.581	-21.775	0.279	-0.170
-494.566	-200.000	-0.048	-0.772
-493.551	414.037	0.336	0.715
-492.537	-157.060	-0.464	0.028
-491.522	35.548	-0.515	0.452
-490.508	-94.306	0.803	0.219
-489.493	48.095	0.499	0.466
-488.478	-200.000	0.085	0.385
-487.464	-38.131	0.404	-0.214
-486.449	241.963	-0.249	-0.417
-485.435	-200.000	0.002	0.324
-484.420	94.205	0.153	-0.174
-483.405	131.549	0.631	-0.811
-482.391	330.515	-0.089	0.171
-481.376	461.214	-0.284	-0.632
-480.362	15.359	-0.766	0.601
-479.347	-200.000	0.004	-0.249
-478.332	85.110	-0.133	0.145
-477.318	-200.000	-0.015	0.307
-476.303	186.119	0.346	-0.515
-475.289	-107.803	0.352	-0.077
-474.274	328.214	0.037	0.070
-473.259	775.453	0.170	-0.464
-472.245	-200.000	-0.069	0.984
-471.230	-200.000	-0.164	-0.826
-470.216	-15.042	0.556	0.356
-469.201	-113.418	-0.885	-0.173
-468.186	-163.228	0.155	-0.007
-467.172	800.000	-0.108	0.366
-466.157	74.575	-0.712	0.747
-465.143	-20.118	-0.085	0.052
-464.128	54.602	-0.363	-0.349
-463.113	-153.385	-0.316	0.022
-462.099	-70.414	-0.453	-0.171
-461.084	-200.000	-0.058	0.537
-460.070	339.440	-0.406	0.790
-459.055	468.963	0.171	0.384
-458.040	-147.235	-0.857	-0.073
-457.026	79.738	-0.951	-1.020
-456.011	-15.206	0.497	0.318
-454.997	93.348	-0.549	0.620
-453.982	-143.151	-0.332	-0.032
-452.968	152.416	-0.208	-0.284
-451.953	-137.320	0.104	0.012
-450.938	-63.722	-0.684	-0.280
-449.924	590.350	0.037	0.091
-448.909	434.335	0.264	0.573
-447.895	-7.836	-0.437	0.294
-446.880	68.196	0.271	-0.277
-445.865	346.282	0.178	0.348
-444.851	37.572	0.627	0.555
-443.836	-200.000	-0.043	-0.521
-442.822	171.184	0.125	0.179
-441.807	140.787	-0.250	-0.329
-440.792	137.473	-0.394	0.515
-439.778	3.995	0.504	0.368
-438.763	-139.220	0.420	-0.045
-437.749	-25.813	0.633	0.372
-436.734	800.000	-0.206	0.741
-435.719	23.396	-0.541	0.444
-434.705	4.510	-0.401	0.294
-433.690	-121.911	0.054	0.009
-432.676	-103.172	0.718	-0.169
-431.661	-163.532	-0.719	0.034
-430.646	-48.243	-0.371	0.178
-429.632	87.387	-0.266	0.294
-428.617	225.203	-0.307	0.496
-427.603	374.163	0.078	0.159
-426.588	175.180	0.385	0.556
-425.573	800.000	0.083	0.331
-424.559	23.587	-0.387	0.317
-423.544	-56.238	-0.608	0.270
-422.530	-63.354	0.740	-0.304
-421.515	-87.615	0.727	-0.219
-420.500	-32.036	0.568	0.317
-419.486	-92.429	0.440	0.123
-418.471	-200.000	0.202	0.906
-417.457	-72.346	-0.781	0.288
-416.442	-148.991	-0.230	0.018
-415.428	129.304	-0.776	0.988
-414.413	-75.198	-0.546	-0.194
-413.398	-200.000	-0.069	0.535
-412.384	162.741	-0.433	0.606
-411.369	-46.364	0.742	-0.363
-410.355	-200.000	-0.070	-0.866
-409.340	-200.000	-0.081	-0.398
-408.325	-200.000	0.061	-0.613
-407.311	-69.567	-0.493	-0.188
-406.296	-110.137	0.727	-0.151
-405.282	-194.077	-0.766	-0.006
-404.267	60.277	-0.277	0.273
-403.252	-200.000	-0.045	0.394
-402.238	-200.000	0.031	-0.339
-401.223	-79.320	0.266	-0.090
-400.209	800.000	0.148	-0.410
-399.194	519.715	-0.197	0.459
-398.179	800.000	-0.147	-0.610
-397.165	93.923	0.621	0.701
-396.150	186.828	-0.399	-0.592
-395.136	-98.522	-0.377	0.096
-394.121	-116.328	0.421	-0.078
-393.106	163.069	-0.282	0.395
-392.092	163.033	-0.452	0.632
-391.077	240.002	-0.027	-0.045
-390.063	196.368	0.232	-0.352
-389.048	217.284	-0.323	0.513
-388.033	93.065	-0.067	-0.076
-387.019	-18.528	-0.355	0.221
-386.004	296.868	-0.325	0.593
-384.990	143.193	0.173	-0.229
-383.975	-58.339	0.405	0.175
-382.960	197.027	-0.652	-0.990
-381.946	187.260	0.682	1.012
-380.931	216.949	0.528	0.837
-379.917	-30.545	-0.343	0.193
-378.902	-33.080	-0.540	-0.298
-377.888	2.021	-0.060	0.043
-376.873	-200.000	0.127	-0.731
-375.858	457.918	-0.275	0.609
-374.844	-125.014	1.621	-0.248
-373.829	36.059	0.181	0.158
-372.815	-200.000	-0.015	-0.278
-371.800	-98.663	-1.034	0.262
-370.785	-200.000	0.111	-1.016
-369.771	445.321	0.154	-0.336
-368.756	-200.000	-0.109	0.673
-367.742	-200.000	-0.010	-0.167
-366.727	-82.394	-0.170	0.055
-365.712	-134.569	-1.136	-0.138
-364.698	-109.516	-0.093	0.020
-363.683	78.503	0.050	0.054
-362.669	-199.149	0.760	0.004
-361.654	34.440	-0.489	0.425
-360.639	-4.591	0.349	0.240
-359.625	-200.000	-0.031	0.654
-358.610	800.000	0.441	-1.596
-357.596	400.841	0.228	-0.475
-356.581	14.027	0.336	-0.260
-355.566	-70.879	0.666	-0.250
-354.552	4.416	-0.622	-0.454
-353.537	20.772	-0.200	-0.161
-352.523	68.567	0.451	0.460
-351.508	-200.000	-0.014	0.099
-350.493	-17.839	0.747	-0.466
-349.479	800.000	0.170	-0.557
-348.464	121.210	-0.240	-0.297
-347.450	800.000	0.224	-0.737
-346.435	95.234	-0.067	-0.076
-345.420	323.109	0.092	-0.173
-344.406	104.726	0.053	-0.062
-343.391	106.418	-0.157	-0.185
-342.377	-200.000	-0.013	0.722
-341.362	114.011	0.488	-0.590
-340.348	167.863	-0.566	-0.800
-339.333	-170.871	0.079	0.003
-338.318	-104.648	0.441	-0.101
-337.304	105.330	0.242	0.283
-336.289	-67.300	0.687	-0.268
-335.275	-111.077	0.169	-0.034
-334.260	-5.700	0.108	-0.074
-333.245	34.899	0.661	0.574
-332.231	-105.279	-0.971	0.220
-331.216	236.690	-0.094	0.155
-330.202	-22.797	0.137	0.082
-329.187	-200.000	0.018	-0.184
-328.172	77.391	0.766	-0.810
-327.158	-200.000	-0.101	0.519
-326.143	800.000	0.114	0.356
-325.129	20.515	-0.524	-0.421
-324.114	217.375	0.172	-0.273
-323.099	-82.774	0.188	-0.060
-322.085	800.000	0.222	0.709
-321.070	-200.000	0.153	-0.768
-320.056	207.587	0.232	-0.360
-319.041	4.431	0.417	-0.304
-318.026	230.568	0.302	-0.490
-317.012	-200.000	-0.032	-0.283
-315.997	-200.000	-0.067	1.006
-314.983	13.121	-0.497	-0.382
-313.968	211.053	0.537	0.838
-312.953	-8.456	0.009	-0.006
-311.939	-69.406	0.142	-0.054
-310.924	0.133	0.658	0.466
-309.910	-112.808	-0.492	-0.097
-308.895	800.000	-0.080	-0.244
-307.880	285.289	0.121	-0.217
-306.866	53.614	0.315	0.300
-305.851	380.586	-0.226	-0.460
-304.837	376.544	0.136	-0.275
-303.822	-141.307	1.071	-0.108
-302.807	-156.879	0.345	0.021
-301.793	-16.430	-0.652	-0.410
-300.778	4.436	-0.147	0.107
-299.764	-200.000	-0.029	-0.875
-298.749	-25.725	-0.240	0.140
-297.735	-26.694	-0.807	-0.468
-296.720	93.039	0.187	0.210
-295.705	-124.681	0.952	-0.146
-294.691	166.752	0.548	-0.770
-293.676	322.510	0.123	0.232
-292.662	15.064	0.346	0.269
-291.647	-96.114	-0.348	-0.092
-290.632	168.788	0.360	0.509
-289.618	800.000	-0.034	0.134
-288.603	7.355	-0.376	0.278
-287.589	-200.000	-0.128	-0.904
-286.574	471.010	-0.198	-0.442
-285.559	-36.973	0.764	-0.406
-284.545	-188.845	0.174	-0.002
-283.530	-200.000	0.059	-0.336
-282.516	196.216	-0.140	0.211
-281.501	130.918	0.402	0.512
-280.486	292.904	-0.396	0.716
-279.472	605.636	-0.100	-0.246
-278.457	696.914	0.160	-0.417
-277.443	148.899	-0.156	-0.210
-276.428	-200.000	-0.072	-0.366
-275.413	-56.747	-0.692	0.303
-274.399	-85.093	0.679	0.211
-273.384	-200.000	0.005	0.806
-272.370	-84.443	-1.083	-0.339
-271.355	175.959	0.677	-0.974
-270.340	379.370	0.346	-0.701
-269.326	205.755	-0.634	-0.977
-268.311	-0.186	-0.312	-0.220
-267.297	-17.122	-0.700	-0.438
-266.282	-87.350	-0.516	-0.155
-265.267	-200.000	0.017	0.621
-264.253	-25.041	-0.411	-0.241
-263.238	-69.188	-0.306	-0.117
-262.224	-132.035	0.636	0.082
-261.209	-32.207	0.247	-0.137
-260.195	-200.000	0.077	-0.428
-259.180	216.066	0.093	0.146
-258.165	-200.000	0.091	0.494
-257.151	544.979	0.109	0.259
-256.136	-142.896	-0.839	-0.081
-255.122	-67.308	0.749	0.292
-254.107	-33.622	-0.057	0.031
-253.092	-200.000	-0.176	-1.123
-252.078	47.435	-0.096	-0.089
-251.063	-67.930	-0.157	0.061
-250.049	-200.000	0.134	0.868
-249.034	800.000	0.121	0.453
-248.019	800.000	0.168	0.499
-247.005	-200.000	-0.101	0.539
-245.990	-45.029	0.538	0.265
-244.976	-154.549	-0.683	-0.045
-243.961	-55.576	-0.854	0.379
-242.946	-106.624	-0.136	-0.030
-241.932	15.673	0.425	-0.331
-240.917	-130.442	-0.404	0.054
-239.903	-183.988	0.343	0.006
-238.888	-95.274	0.128	-0.034
-237.873	-99.571	0.132	-0.033
-236.859	-71.588	0.791	0.292
-235.844	-21.617	-0.068	-0.041
-234.830	-148.012	0.501	0.041
-233.815	-51.436	-0.265	0.123
-232.800	92.128	0.460	0.513
-231.786	-0.342	-0.404	0.284
-230.771	353.962	-0.466	0.916
-229.757	-200.000	-0.121	-0.853
-228.742	-200.000	-0.086	0.441
-227.727	33.209	-0.330	-0.283
-226.713	-30.391	0.681	0.382
-225.698	44.727	-0.352	0.320
-224.684	-156.294	0.740	-0.046
-223.669	-58.013	0.317	0.137
-222.655	-166.256	-0.526	0.022
-221.640	-44.182	0.354	-0.176
-220.625	56.288	0.362	-0.348
-219.611	-178.923	0.503	0.011
-218.596	800.000	-0.230	0.687
-217.582	-31.688	0.653	-0.363
-216.567	-200.000	-0.003	-0.492
-215.552	-12.126	-0.779	-0.504
-214.538	406.553	-0.244	-0.510
-213.523	57.323	-0.311	0.300
-212.509	-53.106	0.161	0.073
-211.494	-8.541	0.579	0.385
-210.479	-200.000	0.061	0.362
-209.465	79.861	0.538	0.571
-208.450	48.426	-0.322	0.298
-207.436	240.194	0.295	-0.486
-206.421	69.286	-0.461	0.469
-205.406	-25.901	-0.144	0.084
-204.392	53.398	0.404	-0.383
-203.377	-6.271	0.270	-0.182
-202.363	282.494	0.224	-0.397
-201.348	800.000	0.386	1.123
-200.333	193.662	0.135	0.203
-199.319	-145.054	0.413	0.037
-198.304	-69.614	-0.372	-0.141
-197.290	-47.771	0.292	0.140
-196.275	603.127	0.399	0.981
-195.260	43.129	0.442	0.399
-194.246	-52.536	0.667	0.305
-193.231	245.880	-0.721	-1.200
-192.217	-101.095	0.859	-0.208
-191.202	-12.235	0.100	0.065
-190.187	800.000	-0.214	0.589
-189.173	-46.990	-0.246	-0.119
-188.158	34.862	-0.324	0.280
-187.144	159.972	-0.026	-0.036
-186.129	749.292	-0.050	0.134
-185.114	800.000	-0.069	0.218
-184.100	239.909	-0.086	0.142
-183.085	-2.235	0.654	0.453
-182.071	800.000	0.349	0.998
-181.056	609.146	0.056	-0.139
-180.042	202.507	-0.406	0.618
-179.027	-135.529	0.875	0.103
-178.012	-110.270	0.577	0.119
-176.998	800.000	0.066	0.198
-175.983	164.962	0.330	-0.460
-174.969	457.549	-0.326	0.714
-173.954	690.039	-0.163	0.421
-172.939	-111.831	-0.587	0.117
-171.925	-158.536	-0.327	-0.019
-170.910	-112.383	0.221	0.044
-169.896	-84.018	0.307	0.096
-168.881	-18.484	-0.193	0.119
-167.866	-122.679	-0.352	-0.056
-166.852	136.715	0.263	-0.339
-165.837	-12.610	-0.234	-0.151
-164.823	37.514	-0.500	-0.438
-163.808	202.305	-0.203	-0.310
-162.793	-200.000	0.050	-0.416
-161.779	-200.000	0.046	0.741
-160.764	-123.605	0.154	0.024
-159.750	96.058	-0.873	-0.984
-158.735	253.004	0.202	-0.340
-157.720	72.265	0.456	-0.469
-156.706	63.719	0.305	-0.303
-155.691	-139.447	-0.696	-0.074
-154.677	297.418	-0.204	-0.370
-153.662	-50.326	-0.978	-0.456
-152.647	-133.251	0.800	-0.100
-151.633	-83.778	-0.517	-0.163
-150.618	302.356	0.240	-0.439
-149.604	800.000	0.121	0.427
-148.589	-200.000	-0.042	-0.258
-147.574	-82.816	0.973	-0.310
-146.560	354.147	0.519	-1.016
-145.545	-56.629	-0.993	-0.434
-144.531	-89.317	-0.731	0.213
-143.516	-116.000	0.254	0.047
-142.502	-61.477	-1.100	-0.456
-141.487	118.564	0.502	0.611
-140.472	-77.878	-0.776	-0.264
-139.458	-200.000	-0.005	0.075
-138.443	-52.095	0.399	0.183
-137.429	-32.362	0.399	0.219
-136.414	-12.995	0.554	-0.355
-135.399	-77.950	-0.659	-0.224
-134.385	-32.712	-0.651	-0.357
-133.370	-200.000	-0.060	0.702
-132.356	207.365	0.232	-0.357
-131.341	-111.746	0.248	0.050
-130.326	-200.000	0.145	1.466
-129.312	-200.000	0.114	0.677
-128.297	-7.273	0.230	0.154
-127.283	3.319	0.984	0.706
-126.268	-110.065	0.776	-0.160
-125.253	-154.525	-0.581	-0.038
-124.239	60.143	-0.530	0.517
-123.224	-200.000	-0.148	-0.724
-122.210	574.626	-0.246	-0.591
-121.195	509.225	0.168	-0.386
-120.180	154.228	0.277	0.374
