DTS Sentinel unit serial number:	SN413079Multiplexer serial number:	ORYXHardware model number:	OX4-SRSoftware version number:	ORYX F/W v4.00 Oryx Data Collector v3.7.2.0data status	okinstallation	princeton_trtdifferential loss correction	single-endedforward channel	channel 1reverse channel	N/Adate	2019/09/18time	03:34:35forward acquisition time	60.00reverse acquisition time	0.00gamma	496.2192k internal	0.2340k external	0.2340temperature offset calibration	0.9977default loss term (dB/km)	0.3790temperature slope calibration	1.0000multiplexer offset coefficient	1.0000multiplexer slope coefficient	1.0000fibre end	0.00T internal ref (°C)	22.81T ext. ref 1 (°C)	0.16T ext. ref 2 (°C)	17.75length (m)	temperature (°C)	Stokes	anti-Stokes-747.200	-112.786	0.263	0.052
-746.185	-28.814	-0.275	0.159
-745.171	-134.325	0.554	0.068
-744.156	800.000	-0.076	0.227
-743.142	-96.143	-0.087	-0.023
-742.127	800.000	-0.087	0.299
-741.112	800.000	0.049	0.145
-740.098	-141.819	-0.476	0.048
-739.083	7.964	0.114	-0.086
-738.069	635.137	-0.145	0.369
-737.054	135.109	-0.185	-0.241
-736.039	310.150	-0.061	-0.114
-735.025	-119.369	0.224	-0.039
-734.010	12.560	-0.381	-0.295
-732.996	-40.623	0.062	-0.032
-731.981	800.000	0.058	-0.165
-730.966	-104.749	0.210	-0.048
-729.952	-135.822	-0.238	0.028
-728.937	497.834	0.017	-0.039
-727.923	307.470	0.072	0.135
-726.908	-78.954	-0.280	0.095
-725.894	-135.519	0.123	0.015
-724.879	-83.235	-0.207	0.067
-723.864	448.256	-0.069	0.153
-722.850	144.313	-0.057	0.076
-721.835	-54.708	0.400	-0.181
-720.821	378.299	0.194	-0.398
-719.806	187.520	-0.148	-0.221
-718.791	221.883	-0.256	-0.411
-717.777	97.587	-0.110	-0.127
-716.762	-66.541	0.314	-0.125
-715.748	-200.000	-0.044	0.365
-714.733	64.300	-0.033	-0.033
-713.718	-66.172	0.212	0.084
-712.704	306.977	0.108	-0.201
-711.689	800.000	0.071	-0.270
-710.675	-51.873	-0.352	0.164
-709.660	-25.239	-0.171	0.101
-708.645	-66.363	0.110	-0.044
-707.631	173.273	-0.131	-0.189
-706.616	7.491	-0.384	-0.287
-705.602	-42.890	0.112	-0.057
-704.587	16.564	-0.196	-0.155
-703.572	-58.647	0.149	-0.064
-702.558	-137.365	-0.280	-0.032
-701.543	-200.000	0.017	0.293
-700.529	208.438	0.115	-0.180
-699.514	800.000	0.055	-0.213
-698.499	491.141	0.075	0.171
-697.485	431.890	0.069	-0.150
-696.470	-117.872	-0.167	0.030
-695.456	-92.002	0.126	0.036
-694.441	145.893	-0.229	0.307
-693.426	135.538	0.121	0.158
-692.412	199.329	-0.215	0.329
-691.397	-151.915	-0.405	0.030
-690.383	-65.073	0.306	0.124
-689.368	800.000	-0.096	0.315
-688.354	146.637	-0.165	0.222
-687.339	433.787	-0.108	-0.234
-686.324	-106.420	0.452	0.101
-685.310	318.116	0.269	-0.508
-684.295	-65.303	0.060	0.024
-683.281	-108.106	-0.063	-0.014
-682.266	105.718	-0.447	-0.529
-681.251	-200.000	0.015	-0.295
-680.237	800.000	0.112	-0.370
-679.222	-161.886	-0.278	0.014
-678.208	-200.000	0.007	-0.081
-677.193	153.961	-0.156	0.213
-676.178	-55.500	0.127	0.057
-675.164	800.000	0.126	0.423
-674.149	-200.000	-0.007	0.212
-673.135	-26.624	0.217	-0.127
-672.120	800.000	-0.044	0.136
-671.105	21.542	-0.122	-0.099
-670.091	-200.000	0.008	0.372
-669.076	26.815	-0.133	0.111
-668.062	-46.361	0.088	-0.043
-667.047	-82.419	-0.359	-0.117
-666.032	201.490	-0.266	-0.410
-665.018	-72.688	0.166	0.061
-664.003	-84.629	-0.400	0.126
-662.989	130.174	-0.224	0.286
-661.974	23.230	-0.276	-0.227
-660.959	-44.960	-0.088	-0.044
-659.945	74.685	0.138	-0.145
-658.930	-72.540	-0.317	-0.117
-657.916	206.272	0.270	0.419
-656.901	-127.002	0.202	-0.030
-655.886	141.175	-0.234	-0.309
-654.872	51.452	-0.225	0.213
-653.857	116.765	-0.073	0.090
-652.843	668.039	0.149	0.385
-651.828	-200.000	0.054	0.241
-650.814	-39.361	-0.041	-0.021
-649.799	434.429	0.096	-0.209
-648.784	270.360	-0.222	-0.389
-647.770	-76.252	-0.372	-0.131
-646.755	-42.152	0.249	-0.127
-645.741	220.013	-0.116	-0.186
-644.726	463.649	0.110	0.246
-643.711	100.352	-0.022	0.025
-642.697	-133.862	-0.225	-0.028
-641.682	418.531	-0.120	-0.256
-640.668	-11.695	0.555	0.364
-639.653	800.000	-0.019	0.080
-638.638	-200.000	0.006	0.051
-637.624	81.287	0.216	0.233
-636.609	-42.075	-0.231	0.118
-635.595	143.460	-0.247	-0.328
-634.580	104.211	0.194	-0.228
-633.565	-26.013	-0.246	-0.144
-632.551	800.000	0.038	-0.154
-631.536	-35.598	0.167	0.091
-630.522	-161.178	0.285	0.015
-629.507	-87.374	0.206	0.062
-628.492	100.858	-0.096	-0.112
-627.478	-125.875	0.146	-0.022
-626.463	-60.948	-0.193	-0.081
-625.449	-92.954	0.027	0.008
-624.434	25.603	0.184	-0.153
-623.419	280.111	0.173	0.308
-622.405	57.986	0.197	0.193
-621.390	-200.000	-0.044	-0.204
-620.376	100.568	-0.087	-0.101
-619.361	-200.000	0.009	-0.137
-618.346	34.405	-0.151	0.131
-617.332	141.881	0.086	0.113
-616.317	39.160	-0.396	0.353
-615.303	102.404	-0.060	-0.070
-614.288	-186.193	0.298	-0.004
-613.273	-61.352	-0.320	0.134
-612.259	284.192	-0.166	-0.298
-611.244	800.000	-0.073	-0.246
-610.230	-33.708	-0.241	0.133
-609.215	99.700	0.117	0.136
-608.201	800.000	-0.104	-0.423
-607.186	533.026	0.029	-0.068
-606.171	-133.341	-0.539	0.068
-605.157	-24.085	0.173	0.103
-604.142	-200.000	-0.063	0.374
-603.128	79.096	0.182	0.195
-602.113	-17.205	-0.253	0.159
-601.098	-55.841	-0.396	0.176
-600.084	-25.919	0.213	0.125
-599.069	-62.876	0.238	-0.098
-598.055	14.534	-0.258	0.201
-597.040	773.285	0.162	-0.441
-596.025	-200.000	-0.015	-0.157
-595.011	800.000	-0.076	0.285
-593.996	381.847	0.074	0.151
-592.982	-146.789	0.266	0.023
-591.967	-42.720	0.235	-0.119
-590.952	-21.953	0.292	-0.177
-589.938	-15.235	-0.205	-0.131
-588.923	111.404	0.033	-0.040
-587.909	-200.000	0.013	0.103
-586.894	160.575	0.165	-0.229
-585.879	-110.401	0.467	-0.097
-584.865	318.051	0.051	-0.096
-583.850	5.964	0.284	0.210
-582.836	-92.532	-0.297	-0.083
-581.821	-200.000	0.009	-0.330
-580.806	58.429	-0.131	-0.128
-579.792	368.313	-0.119	-0.241
-578.777	-200.000	-0.030	0.180
-577.763	-200.000	0.050	0.272
-576.748	-1.840	0.252	-0.177
-575.733	-126.806	0.311	0.046
-574.719	166.158	-0.063	-0.089
-573.704	-200.000	0.040	0.219
-572.690	-32.522	-0.177	-0.098
-571.675	-37.929	-0.217	-0.115
-570.661	177.007	0.160	0.232
-569.646	-109.884	-0.312	-0.065
-568.631	-71.072	-0.238	0.089
-567.617	-120.723	-0.188	-0.032
-566.602	-84.200	0.041	-0.013
-565.588	239.478	0.190	0.314
-564.573	800.000	-0.057	0.236
-563.558	105.248	0.052	0.061
-562.544	800.000	-0.060	0.211
-561.529	-105.754	0.328	0.074
-560.515	11.708	-0.110	0.084
-559.500	279.358	0.061	-0.109
-558.485	200.851	-0.237	-0.363
-557.471	-200.000	0.060	-0.412
-556.456	-86.049	0.178	0.055
-555.442	-130.326	0.209	-0.028
-554.427	800.000	0.060	0.190
-553.412	605.402	0.050	-0.123
-552.398	-21.186	-0.113	0.069
-551.383	800.000	0.042	-0.181
-550.369	-148.829	0.115	0.009
-549.354	-200.000	-0.005	0.245
-548.339	800.000	0.044	0.144
-547.325	-65.490	0.203	0.081
-546.310	-195.630	0.149	0.001
-545.296	38.667	0.278	-0.247
-544.281	76.418	-0.289	-0.304
-543.266	-75.860	0.127	0.045
-542.252	-124.116	-0.357	0.056
-541.237	-118.920	0.267	-0.047
-540.223	-2.390	-0.333	-0.232
-539.208	-35.175	-0.009	-0.005
-538.193	82.802	0.168	0.181
-537.179	-84.349	0.151	-0.048
-536.164	13.488	0.157	-0.121
-535.150	551.199	0.054	0.128
-534.135	800.000	0.047	-0.130
-533.121	-180.084	0.450	0.009
-532.106	10.912	-0.185	0.140
-531.091	115.906	0.107	0.130
-530.077	117.708	-0.046	0.056
-529.062	-79.407	-0.088	-0.030
-528.048	212.544	-0.223	0.350
-527.033	-188.588	0.552	0.007
-526.018	-165.313	-0.537	0.023
-525.004	443.976	0.212	-0.462
-523.989	-61.511	0.129	0.054
-522.975	171.460	0.034	-0.049
-521.960	-94.017	0.101	0.027
-520.945	143.777	-0.172	-0.227
-519.931	-200.000	-0.009	0.093
-518.916	-4.457	0.086	-0.059
-517.902	776.270	0.079	0.215
-516.887	-176.197	0.085	0.002
-515.872	-61.016	-0.188	0.079
-514.858	-79.934	0.205	-0.068
-513.843	645.578	0.072	-0.183
-512.829	-200.000	-0.018	-0.201
-511.814	-63.535	-0.195	0.080
-510.799	-32.250	0.236	0.131
-509.785	131.768	-0.058	0.074
-508.770	-200.000	0.083	-0.414
-507.756	-132.016	-0.271	-0.035
-506.741	800.000	-0.101	-0.325
-505.726	800.000	-0.023	-0.073
-504.712	-93.492	-0.139	0.038
-503.697	800.000	-0.093	-0.336
-502.683	-39.742	0.233	0.121
-501.668	-200.000	0.038	-0.241
-500.653	358.980	-0.154	-0.305
-499.639	-78.381	0.064	-0.022
-498.624	-152.198	-0.216	0.016
-497.610	-33.685	0.303	-0.166
-496.595	-195.055	-0.134	0.001
-495.581	-72.297	-0.401	-0.147
-494.566	587.849	-0.111	0.271
-493.551	-80.703	-0.267	-0.088
-492.537	800.000	-0.064	-0.228
-491.522	5.668	-0.085	-0.063
-490.508	800.000	-0.092	-0.381
-489.493	-200.000	0.069	-0.326
-488.478	-200.000	0.014	0.222
-487.464	-34.414	0.259	0.141
-486.449	800.000	0.041	-0.135
-485.435	138.382	-0.177	-0.231
-484.420	44.538	-0.083	-0.075
-483.405	-31.389	0.213	0.119
-482.391	-101.600	0.169	-0.041
-481.376	-52.664	0.234	0.107
-480.362	-174.834	-0.107	-0.003
-479.347	175.225	0.154	0.222
-478.332	81.134	0.280	0.299
-477.318	800.000	0.114	-0.444
-476.303	-189.003	0.172	0.002
-475.289	86.711	-0.217	0.238
-474.274	13.161	-0.220	0.169
-473.259	-112.836	-0.356	0.070
-472.245	-17.684	0.238	0.148
-471.230	-153.244	-0.311	0.022
-470.216	800.000	-0.004	-0.014
-469.201	-151.680	0.060	-0.004
-468.186	123.734	0.035	-0.044
-467.172	-200.000	-0.109	-0.000
-466.157	-200.000	0.008	0.269
-465.143	241.611	-0.185	0.306
-464.128	758.224	-0.158	0.425
-463.113	-63.351	0.222	0.091
-462.099	141.478	-0.194	-0.254
-461.084	466.862	-0.038	-0.085
-460.070	-169.551	0.099	-0.004
-459.055	221.918	-0.257	0.409
-458.040	84.329	0.237	0.257
-457.026	-89.836	0.195	-0.057
-456.011	-54.270	-0.213	-0.096
-454.997	415.165	0.116	0.244
-453.982	-50.012	0.226	0.106
-452.968	15.917	-0.126	-0.098
-451.953	-126.230	0.258	0.038
-450.938	-200.000	-0.058	-0.302
-449.924	-38.138	-0.191	-0.101
-448.909	-90.754	0.103	0.030
-447.895	31.815	-0.023	0.019
-446.880	-71.925	0.118	-0.043
-445.865	-200.000	0.032	-0.236
-444.851	-200.000	0.052	0.281
-443.836	-200.000	0.023	0.199
-442.822	-105.870	-0.155	-0.035
-441.807	248.254	-0.067	-0.113
-440.792	-200.000	-0.019	-0.146
-439.778	-200.000	-0.007	-0.284
-438.763	800.000	0.018	-0.054
-437.749	35.403	-0.134	-0.116
-436.734	-182.450	-0.425	0.008
-435.719	800.000	0.026	-0.105
-434.705	800.000	0.069	-0.222
-433.690	-171.991	-0.301	-0.010
-432.676	-101.856	-0.039	0.009
-431.661	633.686	0.042	0.106
-430.646	-122.788	0.047	0.007
-429.632	5.335	-0.186	-0.136
-428.617	800.000	0.118	-0.380
-427.603	21.699	-0.041	0.033
-426.588	72.252	-0.201	0.208
-425.573	122.218	0.062	0.076
-424.559	786.033	0.075	0.203
-423.544	44.307	-0.041	-0.037
-422.530	386.115	-0.067	0.136
-421.515	-12.830	0.171	-0.110
-420.500	106.303	0.198	0.232
-419.486	-150.217	-0.172	0.013
-418.471	124.771	-0.148	-0.185
-417.457	131.052	0.132	0.167
-416.442	-107.445	0.151	-0.033
-415.428	-200.000	-0.042	-0.292
-414.413	-53.864	0.056	-0.025
-413.398	-200.000	0.067	0.333
-412.384	-48.008	0.129	-0.062
-411.369	-200.000	-0.000	-0.140
-410.355	-200.000	-0.034	-0.247
-409.340	-73.831	-0.149	-0.054
-408.325	345.023	-0.169	0.328
-407.311	255.206	0.035	0.059
-406.296	88.605	-0.053	0.058
-405.282	420.532	-0.069	-0.147
-404.267	-200.000	-0.007	-0.169
-403.252	-101.891	-0.250	-0.060
-402.238	225.094	0.148	0.237
-401.223	371.838	-0.065	0.131
-400.209	-200.000	-0.017	-0.220
-399.194	-153.961	-0.275	0.019
-398.179	-13.717	0.118	-0.075
-397.165	-127.221	0.292	0.042
-396.150	181.046	-0.094	-0.136
-395.136	22.110	-0.098	-0.079
-394.121	-35.630	-0.269	0.144
-393.106	568.323	0.091	-0.218
-392.092	330.710	-0.188	0.357
-391.077	-200.000	0.020	-0.210
-390.063	-20.158	0.203	-0.124
-389.048	68.278	0.107	0.108
-388.033	33.662	-0.295	-0.253
-387.019	-200.000	-0.023	-0.130
-386.004	232.236	0.035	-0.056
-384.990	-194.128	-0.350	-0.003
-383.975	633.689	-0.079	0.197
-382.960	-200.000	-0.034	-0.228
-381.946	356.751	0.063	0.124
-380.931	88.991	-0.059	0.065
-379.917	285.550	-0.060	-0.107
-378.902	-148.167	-0.143	0.012
-377.888	392.426	0.069	0.141
-376.873	-84.226	-0.273	0.086
-375.858	236.839	-0.154	0.252
-374.844	147.540	0.168	0.224
-373.829	-115.112	0.177	-0.033
-372.815	242.022	-0.131	0.216
-371.800	34.131	-0.144	0.124
-370.785	447.505	0.139	-0.303
-369.771	339.174	0.066	-0.127
-368.756	155.837	0.100	-0.136
-367.742	229.025	-0.184	0.297
-366.727	-180.087	-0.020	0.000
-365.712	-11.642	0.327	-0.212
-364.698	-37.194	0.185	-0.098
-363.683	-16.525	0.323	-0.202
-362.669	-23.066	0.146	0.087
-361.654	800.000	0.066	0.189
-360.639	-200.000	0.031	-0.214
-359.625	83.762	0.266	-0.287
-358.610	313.890	-0.069	-0.129
-357.596	3.330	0.395	-0.284
-356.581	61.294	-0.181	-0.178
-355.566	-200.000	0.021	-0.169
-354.552	-200.000	0.065	0.489
-353.537	-200.000	-0.053	0.327
-352.523	-16.207	-0.287	-0.180
-351.508	-200.000	-0.032	0.156
-350.493	-31.979	-0.336	-0.186
-349.479	-24.665	0.018	0.011
-348.464	-100.777	0.161	-0.039
-347.450	-200.000	-0.018	-0.188
-346.435	-39.500	0.172	-0.089
-345.420	-150.762	0.450	0.034
-344.406	-87.770	-0.173	0.051
-343.391	-136.413	0.236	0.027
-342.377	258.772	0.131	-0.222
-341.362	800.000	0.159	-0.517
-340.348	-0.628	0.225	0.157
-339.333	71.240	0.131	-0.135
-338.318	-165.033	0.328	-0.014
-337.304	-98.042	0.305	-0.078
-336.289	-79.846	-0.151	0.050
-335.275	153.414	-0.099	-0.134
-334.260	-200.000	0.004	-0.189
-333.245	240.067	0.065	0.107
-332.231	-26.398	0.228	0.132
-331.216	-135.968	-0.149	-0.017
-330.202	-73.703	-0.401	0.144
-329.187	-142.695	0.275	-0.027
-328.172	-140.450	-0.007	0.001
-327.158	434.312	-0.195	-0.419
-326.143	169.026	-0.023	-0.033
-325.129	800.000	-0.010	0.027
-324.114	123.001	-0.336	-0.415
-323.099	161.150	-0.076	-0.104
-322.085	-200.000	0.002	0.014
-321.070	177.354	0.076	0.109
-320.056	-113.516	-0.175	-0.034
-319.041	-39.226	0.198	0.102
-318.026	-200.000	0.005	-0.371
-317.012	-54.698	0.247	-0.110
-315.997	-40.301	-0.143	0.073
-314.983	-81.471	0.085	0.027
-313.968	146.486	-0.074	-0.098
-312.953	-200.000	0.018	-0.159
-311.939	33.681	0.305	0.261
-310.924	24.100	0.250	0.204
-309.910	-200.000	-0.004	0.178
-308.895	-200.000	0.053	0.363
-307.880	-75.253	0.182	0.064
-306.866	-100.293	0.145	-0.036
-305.851	-3.431	0.271	0.186
-304.837	153.141	0.222	0.300
-303.822	-99.825	-0.081	-0.020
-302.807	89.931	-0.059	0.065
-301.793	45.064	-0.100	0.091
-300.778	-200.000	0.001	-0.169
-299.764	460.832	0.113	-0.248
-298.749	26.344	0.125	-0.103
-297.735	800.000	0.065	0.278
-296.720	-35.454	-0.107	-0.057
-295.705	-200.000	0.007	0.218
-294.691	164.751	-0.189	0.263
-293.676	-79.960	0.255	-0.084
-292.662	126.833	0.079	-0.098
-291.647	-107.011	0.058	0.013
-290.632	-200.000	-0.035	0.196
-289.618	-21.722	0.164	-0.098
-288.603	6.990	0.051	0.038
-287.589	264.018	-0.068	0.116
-286.574	-165.415	0.275	-0.012
-285.559	44.579	-0.208	-0.188
-284.545	-82.194	-0.264	-0.085
-283.530	800.000	-0.072	0.214
-282.516	800.000	0.122	0.366
-281.501	100.397	0.094	0.107
-280.486	-200.000	-0.002	-0.181
-279.472	-88.641	0.098	-0.029
-278.457	-43.262	-0.017	-0.008
-277.443	121.314	0.126	0.155
-276.428	454.038	-0.076	-0.166
-275.413	253.466	0.102	0.171
-274.399	401.857	0.134	-0.276
-273.384	25.660	0.303	0.248
-272.370	800.000	-0.048	-0.189
-271.355	130.516	-0.111	0.140
-270.340	-173.908	-0.364	0.011
-269.326	28.162	0.098	-0.081
-268.311	-200.000	0.004	-0.097
-267.297	800.000	0.045	-0.134
-266.282	-86.819	-0.095	-0.028
-265.267	104.366	-0.098	-0.113
-264.253	40.455	-0.041	-0.036
-263.238	-68.377	0.337	0.129
-262.224	106.282	0.103	-0.120
-261.209	134.104	-0.097	-0.123
-260.195	-155.461	-0.138	0.009
-259.180	40.015	0.349	0.309
-258.165	-55.532	0.227	0.100
-257.151	-128.177	-0.196	0.028
-256.136	429.914	0.241	0.513
-255.122	-124.943	-0.407	-0.062
-254.107	-114.777	0.065	0.012
-253.092	31.768	-0.213	0.180
-252.078	-200.000	-0.010	0.096
-251.063	-200.000	0.046	0.264
-250.049	-200.000	-0.019	0.450
-249.034	-177.609	-0.222	0.005
-248.019	-40.085	0.243	0.124
-247.005	-82.928	-0.048	-0.015
-245.990	32.464	-0.228	0.194
-244.976	-200.000	0.020	0.163
-243.961	-141.710	-0.269	-0.027
-242.946	800.000	-0.111	0.315
-241.932	168.450	-0.186	0.260
-240.917	-200.000	-0.054	-0.482
-239.903	-131.130	-0.246	-0.032
-238.888	800.000	0.033	0.121
-237.873	-188.578	0.082	-0.001
-236.859	229.415	-0.302	0.484
-235.844	502.169	-0.133	-0.303
-234.830	-43.790	-0.226	-0.112
-233.815	-95.322	0.332	-0.088
-232.800	-90.179	-0.231	-0.066
-231.786	-200.000	0.055	-0.372
-230.771	499.069	0.057	0.129
-229.757	-63.806	-0.303	-0.122
-228.742	582.610	-0.045	0.108
-227.727	-139.814	0.310	0.032
-226.713	800.000	0.048	-0.144
-225.698	-20.321	-0.219	-0.132
-224.684	800.000	0.113	0.424
-223.669	800.000	-0.103	-0.381
-222.655	-116.998	-0.157	-0.028
-221.640	-45.566	0.203	-0.098
-220.625	-200.000	-0.007	-0.128
-219.611	-40.751	0.235	-0.119
-218.596	-144.103	-0.188	0.017
-217.582	619.177	-0.055	-0.135
-216.567	-123.427	-0.228	0.036
-215.552	283.725	0.117	-0.206
-214.538	-200.000	-0.021	-0.210
-213.523	-34.752	0.228	-0.122
-212.509	-159.608	0.161	0.009
-211.494	-10.172	0.241	0.157
-210.479	800.000	-0.168	0.537
-209.465	339.970	-0.105	0.202
-208.450	113.775	-0.129	0.154
-207.436	386.930	0.102	0.206
-206.421	-89.093	-0.245	0.071
-205.406	-86.317	-0.210	0.064
-204.392	-6.217	-0.244	-0.164
-203.377	-152.924	-0.170	0.012
-202.363	800.000	0.044	0.181
-201.348	-138.668	0.190	0.020
-200.333	800.000	0.112	-0.377
-199.319	-28.941	0.257	0.145
-198.304	-134.886	-0.101	-0.012
-197.290	-59.237	-0.161	-0.068
-196.275	408.387	0.026	0.054
-195.260	800.000	0.084	0.353
-194.246	21.925	0.189	-0.152
-193.231	53.823	-0.033	0.031
-192.217	800.000	-0.115	0.315
-191.202	-200.000	0.001	0.148
-190.187	-200.000	0.004	0.441
-189.173	-177.137	0.092	0.002
-188.158	23.644	-0.183	-0.148
-187.144	-200.000	0.038	0.189
-186.129	800.000	-0.092	-0.386
-185.114	-35.808	-0.166	0.088
-184.100	800.000	0.092	-0.318
-183.085	128.190	0.195	0.244
-182.071	37.559	0.134	-0.117
-181.056	150.502	-0.225	-0.300
-180.042	-200.000	-0.026	-0.180
-179.027	-200.000	0.055	0.378
-178.012	511.196	0.084	0.193
-176.998	198.535	0.136	0.204
-175.983	157.935	0.022	0.030
-174.969	-110.246	-0.126	-0.026
-173.954	-50.669	-0.069	0.032
-172.939	65.592	-0.223	-0.221
-171.925	-135.640	0.087	-0.010
-170.910	-200.000	-0.011	-0.279
-169.896	-79.490	-0.134	-0.044
-168.881	2.189	0.261	-0.185
-167.866	-85.606	-0.253	0.077
-166.852	139.529	-0.255	0.329
-165.837	124.057	0.214	-0.264
-164.823	-98.146	0.129	0.033
-163.808	32.850	0.018	-0.015
-162.793	-43.632	-0.220	0.109
-161.779	-87.367	-0.269	0.080
-160.764	-87.059	-0.329	0.098
-159.750	-98.227	-0.166	0.042
-158.735	-157.717	0.255	0.015
-157.720	800.000	0.063	0.223
-156.706	-200.000	-0.030	0.247
-155.691	609.300	0.116	0.283
-154.677	-132.046	-0.174	-0.022
-153.662	-29.937	0.017	-0.010
-152.647	107.057	-0.145	0.168
-151.633	800.000	-0.048	0.178
-150.618	73.093	0.036	-0.036
-149.604	800.000	0.043	0.138
-148.589	-115.686	0.113	-0.021
-147.574	45.132	-0.142	-0.128
-146.560	29.919	-0.081	0.068
-145.545	-52.463	0.438	0.198
-144.531	212.563	-0.145	-0.223
-143.516	507.913	0.048	0.109
-142.502	-35.206	-0.127	-0.068
-141.487	-30.617	0.260	-0.144
-140.472	-200.000	0.031	0.245
-139.458	186.243	0.161	0.234
-138.443	-200.000	0.004	-0.196
-137.429	800.000	-0.053	-0.149
-136.414	-168.886	0.035	-0.001
-135.399	-200.000	0.072	-0.365
-134.385	-155.256	0.143	0.009
-133.370	-165.987	-0.138	0.006
-132.356	-46.645	-0.339	-0.162
-131.341	-70.516	0.308	0.114
-130.326	-200.000	-0.030	-0.178
-129.312	-105.432	0.265	0.059
-128.297	-130.465	-0.324	0.043
-127.283	-53.013	-0.058	-0.026
-126.268	194.081	0.087	0.128
-125.253	428.415	0.071	-0.151
-124.239	800.000	0.049	-0.151
-123.224	-34.473	-0.092	0.049
-122.210	552.303	0.058	0.137
