DTS Sentinel unit serial number:	SN413079Multiplexer serial number:	ORYXHardware model number:	OX4-SRSoftware version number:	ORYX F/W v4.00 Oryx Data Collector v3.7.2.0data status	okinstallation	princeton_trtdifferential loss correction	single-endedforward channel	channel 1reverse channel	N/Adate	2019/09/13time	04:06:35forward acquisition time	60.00reverse acquisition time	0.00gamma	496.2192k internal	0.2334k external	0.2334temperature offset calibration	1.0160default loss term (dB/km)	0.3790temperature slope calibration	1.0000multiplexer offset coefficient	1.0000multiplexer slope coefficient	1.0000fibre end	0.00T internal ref (°C)	26.94T ext. ref 1 (°C)	4.05T ext. ref 2 (°C)	21.25length (m)	temperature (°C)	Stokes	anti-Stokes-747.200	-0.728	-0.137	0.098
-746.185	-51.207	-0.254	0.120
-745.171	800.000	0.109	-0.305
-744.156	-51.121	-0.104	0.049
-743.142	-139.671	0.216	0.023
-742.127	0.528	-0.244	0.175
-741.112	32.182	0.220	-0.191
-740.098	-200.000	0.001	0.261
-739.083	-15.134	-0.064	-0.041
-738.069	800.000	0.054	-0.156
-737.054	-65.659	0.209	-0.084
-736.039	-200.000	-0.388	-0.002
-735.025	669.036	0.058	0.151
-734.010	67.155	0.188	-0.193
-732.996	800.000	0.042	-0.186
-731.981	-200.000	-0.011	-0.241
-730.966	-61.216	0.063	0.027
-729.952	-200.000	0.011	0.172
-728.937	-200.000	-0.010	0.165
-727.923	-200.000	0.006	-0.163
-726.908	-36.911	-0.222	0.120
-725.894	-200.000	0.028	-0.330
-724.879	365.090	-0.069	-0.140
-723.864	-62.113	0.123	0.052
-722.850	136.358	-0.224	0.293
-721.835	82.664	-0.158	0.172
-720.821	-49.473	0.061	0.029
-719.806	225.955	-0.037	0.060
-718.791	-52.243	-0.238	-0.111
-717.777	179.549	0.215	0.317
-716.762	-76.792	-0.184	-0.065
-715.748	214.322	0.208	0.330
-714.733	-200.000	-0.027	-0.222
-713.718	-76.861	-0.453	-0.159
-712.704	-76.138	-0.288	-0.102
-711.689	593.371	0.132	-0.327
-710.675	632.655	-0.102	0.259
-709.660	205.877	0.137	-0.213
-708.645	-27.737	0.180	0.105
-707.631	403.895	0.143	-0.303
-706.616	-1.610	-0.279	-0.198
-705.602	49.930	-0.160	-0.152
-704.587	-200.000	0.057	-0.353
-703.572	-200.000	-0.011	-0.143
-702.558	-90.380	0.145	0.042
-701.543	-65.438	0.340	0.137
-700.529	-74.921	-0.239	0.086
-699.514	257.841	-0.049	0.084
-698.499	25.374	-0.090	0.075
-697.485	-200.000	0.011	0.070
-696.470	36.326	-0.089	0.079
-695.456	-149.960	-0.446	-0.035
-694.441	30.509	-0.201	-0.173
-693.426	-25.667	0.090	-0.053
-692.412	123.017	-0.123	-0.155
-691.397	247.904	0.135	-0.229
-690.383	70.717	0.275	-0.286
-689.368	-67.523	0.101	-0.040
-688.354	-1.119	0.172	-0.122
-687.339	-131.348	-0.024	-0.003
-686.324	69.441	-0.324	0.335
-685.310	-200.000	-0.010	-0.256
-684.295	-9.869	-0.066	-0.044
-683.281	59.577	0.131	0.130
-682.266	94.123	-0.186	-0.211
-681.251	53.274	0.319	-0.307
-680.237	-72.826	-0.130	0.048
-679.222	288.718	-0.221	-0.402
-678.208	-200.000	0.001	-0.022
-677.193	103.847	0.017	-0.020
-676.178	251.645	-0.144	-0.247
-675.164	-129.083	0.103	0.015
-674.149	-200.000	-0.056	0.303
-673.135	29.865	-0.054	-0.046
-672.120	371.730	0.122	-0.248
-671.105	-156.203	-0.312	-0.020
-670.091	74.927	0.029	-0.031
-669.076	-77.568	0.136	0.047
-668.062	-100.126	0.154	0.038
-667.047	-200.000	0.012	0.326
-666.032	32.452	-0.326	-0.282
-665.018	715.399	-0.055	-0.146
-664.003	-124.939	-0.203	0.031
-662.989	29.245	-0.162	0.138
-661.974	-189.104	0.201	-0.002
-660.959	198.613	-0.085	-0.131
-659.945	-200.000	0.026	0.157
-658.930	218.385	0.148	-0.236
-657.916	240.559	0.038	0.063
-656.901	72.840	0.094	0.099
-655.886	-122.798	0.319	-0.052
-654.872	143.773	-0.117	-0.157
-653.857	264.544	0.061	0.106
-652.843	44.485	0.155	-0.142
-651.828	-42.172	-0.404	0.207
-650.814	201.053	0.086	-0.132
-649.799	-68.257	0.044	-0.017
-648.784	-200.000	0.001	-0.036
-647.770	390.958	0.138	0.287
-646.755	-55.533	-0.423	0.190
-645.741	-200.000	0.057	0.266
-644.726	-200.000	-0.016	-0.184
-643.711	84.799	0.128	0.140
-642.697	-156.407	0.405	0.025
-641.682	342.239	-0.064	0.125
-640.668	-30.067	-0.037	0.021
-639.653	109.620	0.231	-0.277
-638.638	44.311	-0.141	0.130
-637.624	-200.000	-0.015	0.190
-636.609	-200.000	0.021	-0.281
-635.595	-49.695	-0.250	-0.119
-634.580	-104.277	0.198	0.046
-633.565	-200.000	0.046	0.307
-632.551	19.495	-0.145	-0.116
-631.536	-41.193	-0.325	-0.168
-630.522	-57.656	-0.149	0.065
-629.507	179.607	-0.060	0.087
-628.492	-24.358	-0.302	-0.180
-627.478	-200.000	0.093	-0.466
-626.463	26.824	0.068	0.057
-625.449	420.082	0.044	-0.095
-624.434	286.481	-0.112	0.202
-623.419	-27.744	-0.209	0.122
-622.405	-88.001	-0.178	0.053
-621.390	-117.601	-0.115	0.021
-620.376	-200.000	0.000	-0.226
-619.361	78.973	0.058	-0.063
-618.346	-117.036	0.409	-0.075
-617.332	439.998	0.070	0.153
-616.317	50.555	-0.230	0.217
-615.303	-67.845	-0.063	0.025
-614.288	-200.000	0.014	-0.317
-613.273	-55.396	-0.317	-0.142
-612.259	195.482	-0.161	0.244
-611.244	-107.014	-0.229	-0.051
-610.230	-99.652	0.240	-0.060
-609.215	38.785	0.085	0.076
-608.201	-15.250	0.176	-0.113
-607.186	276.064	0.089	-0.157
-606.171	-200.000	-0.009	-0.053
-605.157	-45.040	-0.134	-0.067
-604.142	752.290	-0.138	0.372
-603.128	-46.367	-0.212	0.104
-602.113	-10.500	-0.229	0.151
-601.098	69.597	-0.112	-0.115
-600.084	-85.462	0.192	-0.060
-599.069	43.295	-0.213	0.195
-598.055	-200.000	0.018	-0.418
-597.040	34.186	-0.208	0.181
-596.025	422.048	0.032	-0.070
-595.011	-77.635	0.110	-0.038
-593.996	-69.979	0.206	0.079
-592.982	10.645	-0.164	-0.125
-591.967	-200.000	-0.028	0.218
-590.952	26.977	0.093	-0.078
-589.938	-141.025	-0.062	0.006
-588.923	151.069	-0.100	0.136
-587.909	-18.827	-0.192	0.119
-586.894	-76.600	0.299	0.105
-585.879	-80.809	-0.304	-0.101
-584.865	-136.980	0.081	-0.009
-583.850	593.798	-0.105	0.260
-582.836	11.266	0.224	0.171
-581.821	-146.858	0.258	-0.022
-580.806	104.072	0.145	-0.171
-579.792	622.964	0.178	0.447
-578.777	100.242	0.161	-0.186
-577.763	74.051	0.259	-0.272
-576.748	87.100	0.309	-0.341
-575.733	77.124	0.048	-0.051
-574.719	26.016	-0.233	0.194
-573.704	-149.540	-0.136	-0.011
-572.690	-200.000	-0.047	0.252
-571.675	-56.338	-0.368	-0.163
-570.661	-200.000	0.034	-0.150
-569.646	79.322	-0.069	-0.074
-568.631	-200.000	0.008	-0.225
-567.617	-200.000	-0.035	-0.168
-566.602	-200.000	-0.050	-0.344
-565.588	800.000	0.048	0.168
-564.573	-11.665	-0.163	0.107
-563.558	-69.724	-0.279	-0.106
-562.544	-52.127	-0.104	-0.048
-561.529	160.274	-0.063	-0.087
-560.515	524.849	-0.089	-0.210
-559.500	800.000	0.051	-0.207
-558.485	-200.000	0.045	0.232
-557.471	-200.000	-0.019	-0.100
-556.456	269.400	-0.053	0.093
-555.442	-2.162	0.240	-0.168
-554.427	51.974	-0.127	-0.121
-553.412	-154.980	-0.205	0.013
-552.398	-51.236	-0.214	0.100
-551.383	-84.475	-0.189	0.060
-550.369	800.000	-0.089	0.374
-549.354	-125.738	0.346	0.052
-548.339	-200.000	0.002	-0.040
-547.325	-97.205	-0.174	0.045
-546.310	-16.975	-0.247	-0.156
-545.296	5.503	0.197	0.145
-544.281	380.322	-0.073	0.149
-543.266	-111.067	-0.397	0.081
-542.252	-110.403	0.193	-0.040
-541.237	30.977	0.143	0.122
-540.223	23.572	-0.208	-0.170
-539.208	-62.000	0.096	-0.040
-538.193	-48.493	0.209	0.101
-537.179	-83.708	0.172	0.055
-536.164	600.042	0.085	0.211
-535.150	-59.401	-0.185	-0.079
-534.135	-200.000	0.005	0.060
-533.121	422.032	-0.084	0.180
-532.106	122.775	-0.140	0.175
-531.091	800.000	0.026	0.084
-530.077	-200.000	0.019	-0.103
-529.062	-11.125	0.420	0.276
-528.048	-120.133	0.392	-0.067
-527.033	7.581	-0.204	0.152
-526.018	41.202	0.252	-0.227
-525.004	-172.340	0.167	0.005
-523.989	-45.852	-0.265	0.131
-522.975	-114.222	-0.255	0.049
-521.960	-55.639	0.240	0.107
-520.945	680.629	-0.032	-0.084
-519.931	-166.143	-0.134	-0.006
-518.916	-6.375	0.020	0.014
-517.902	19.794	-0.116	-0.093
-516.887	120.036	0.054	-0.066
-515.872	-200.000	0.012	-0.278
-514.858	177.627	0.052	-0.075
-513.843	498.973	0.111	-0.254
-512.829	-200.000	0.036	0.174
-511.814	-136.563	-0.056	0.007
-510.799	-85.824	-0.198	-0.061
-509.785	-74.192	-0.285	-0.103
-508.770	217.518	0.153	-0.243
-507.756	-122.709	-0.031	-0.005
-506.741	30.640	-0.067	-0.057
-505.726	-85.501	0.182	0.057
-504.712	106.206	0.149	-0.175
-503.697	-105.022	-0.093	-0.021
-502.683	-200.000	-0.030	0.149
-501.668	561.311	0.049	0.117
-500.653	-80.388	0.266	0.088
-499.639	-46.798	-0.268	0.130
-498.624	800.000	0.188	0.527
-497.610	207.630	0.123	0.191
-496.595	-7.448	-0.032	-0.021
-495.581	75.617	-0.095	0.100
-494.566	343.167	0.089	0.174
-493.551	754.886	-0.042	-0.113
-492.537	113.115	-0.149	-0.180
-491.522	-37.529	-0.134	0.071
-490.508	-56.587	-0.210	0.092
-489.493	-95.040	0.042	-0.011
-488.478	35.359	-0.156	-0.136
-487.464	-200.000	-0.061	0.277
-486.449	-140.787	-0.195	0.020
-485.435	349.664	0.157	-0.310
-484.420	351.056	-0.019	-0.038
-483.405	-169.205	-0.110	-0.004
-482.391	-112.011	0.140	-0.028
-481.376	178.623	0.209	-0.304
-480.362	-37.491	-0.134	0.071
-479.347	703.602	0.054	-0.141
-478.332	-83.345	0.288	0.092
-477.318	-200.000	0.017	0.165
-476.303	-200.000	0.001	0.314
-475.289	114.893	0.227	0.276
-474.274	121.235	0.121	-0.150
-473.259	81.790	0.120	-0.129
-472.245	132.185	-0.151	0.193
-471.230	-36.813	-0.080	-0.043
-470.216	-22.218	0.034	-0.021
-469.201	-124.259	0.370	0.058
-468.186	133.727	0.257	-0.331
-467.172	92.550	-0.139	-0.156
-466.157	-200.000	-0.002	0.113
-465.143	-54.692	0.185	0.083
-464.128	38.901	-0.340	-0.302
-463.113	-96.336	0.212	-0.056
-462.099	-122.969	-0.207	-0.033
-461.084	-142.875	-0.374	-0.036
-460.070	102.751	-0.103	-0.120
-459.055	204.865	0.183	0.282
-458.040	-200.000	0.065	0.351
-457.026	-143.853	-0.445	-0.042
-456.011	-67.989	-0.037	0.014
-454.997	764.735	0.070	0.190
-453.982	-54.753	0.118	0.053
-452.968	-200.000	-0.060	0.554
-451.953	-3.521	0.413	-0.286
-450.938	-54.878	0.103	-0.046
-449.924	-81.276	-0.162	-0.053
-448.909	-168.541	-0.391	0.015
-447.895	3.593	0.233	0.169
-446.880	-200.000	-0.051	0.396
-445.865	65.168	0.114	0.114
-444.851	355.980	-0.122	0.241
-443.836	21.483	0.169	-0.136
-442.822	73.887	0.382	-0.398
-441.807	-58.156	0.142	-0.062
-440.792	-52.663	-0.126	0.058
-439.778	11.705	0.032	0.024
-438.763	-200.000	0.011	-0.350
-437.749	-200.000	0.017	0.161
-436.734	-75.710	-0.059	-0.021
-435.719	-200.000	-0.062	-0.277
-434.705	216.378	-0.066	0.104
-433.690	-32.900	-0.175	0.096
-432.676	-83.535	-0.271	-0.086
-431.661	-99.605	-0.357	0.089
-430.646	260.574	-0.103	0.177
-429.632	323.625	0.096	0.181
-428.617	360.483	0.067	-0.133
-427.603	800.000	-0.081	0.308
-426.588	-157.690	-0.135	0.008
-425.573	-137.156	0.242	-0.027
-424.559	-81.438	-0.194	0.064
-423.544	50.833	0.221	0.208
-422.530	181.646	-0.091	0.132
-421.515	-138.461	0.154	0.017
-420.500	472.295	0.119	0.266
-419.486	441.518	-0.065	0.141
-418.471	-200.000	-0.002	0.235
-417.457	800.000	0.039	-0.146
-416.442	-11.158	-0.209	-0.137
-415.428	101.432	-0.186	0.215
-414.413	800.000	0.025	0.086
-413.398	309.810	-0.103	0.191
-412.384	531.435	0.162	-0.381
-411.369	-200.000	-0.014	-0.114
-410.355	-104.007	0.164	-0.038
-409.340	568.334	0.056	0.135
-408.325	33.716	0.161	-0.139
-407.311	127.940	-0.154	-0.194
-406.296	301.381	-0.194	0.356
-405.282	40.692	0.109	0.098
-404.267	-200.000	0.035	-0.197
-403.252	-200.000	-0.021	0.172
-402.238	56.336	0.146	0.141
-401.223	528.004	0.062	-0.144
-400.209	258.970	0.119	-0.204
-399.194	800.000	-0.029	-0.110
-398.179	96.041	0.169	0.191
-397.165	-67.247	-0.233	0.091
-396.150	-200.000	-0.033	-0.152
-395.136	479.863	-0.113	-0.254
-394.121	-200.000	0.066	-0.311
-393.106	-7.388	-0.169	-0.113
-392.092	628.799	-0.148	-0.371
-391.077	-163.233	0.202	0.010
-390.063	-113.645	0.476	0.092
-389.048	-97.702	0.213	-0.055
-388.033	-200.000	0.029	0.315
-387.019	88.359	0.180	0.198
-386.004	-101.804	-0.181	-0.044
-384.990	184.537	-0.235	-0.345
-383.975	-200.000	0.074	0.386
-382.960	800.000	0.031	-0.119
-381.946	112.582	0.038	0.045
-380.931	59.431	0.058	-0.056
-379.917	274.587	0.029	-0.051
-378.902	-131.519	-0.294	0.038
-377.888	472.759	-0.039	-0.086
-376.873	-60.405	-0.087	0.037
-375.858	-169.585	0.127	0.005
-374.844	-8.019	-0.504	0.337
-373.829	219.289	0.108	0.172
-372.815	-53.186	-0.116	0.053
-371.800	800.000	-0.038	-0.129
-370.785	40.675	0.115	-0.103
-369.771	-200.000	-0.012	0.414
-368.756	-134.478	0.081	-0.010
-367.742	-141.012	-0.299	-0.030
-366.727	20.290	0.483	0.387
-365.712	-88.951	-0.425	0.125
-364.698	61.760	0.236	0.232
-363.683	502.052	0.175	0.401
-362.669	-200.000	-0.003	0.045
-361.654	734.974	-0.020	-0.052
-360.639	271.340	0.070	0.123
-359.625	55.684	-0.219	-0.210
-358.610	-200.000	-0.029	0.150
-357.596	-174.867	-0.166	-0.005
-356.581	17.917	0.373	-0.294
-355.566	-79.043	0.201	0.068
-354.552	315.962	0.138	0.258
-353.537	-21.810	0.290	0.175
-352.523	199.005	0.052	-0.079
-351.508	-3.033	0.261	-0.180
-350.493	446.831	0.066	0.144
-349.479	-141.555	0.078	-0.008
-348.464	3.362	-0.156	0.112
-347.450	-200.000	0.032	0.352
-346.435	-133.143	0.374	0.047
-345.420	8.128	0.123	-0.091
-344.406	-200.000	-0.015	-0.140
-343.391	800.000	-0.053	-0.152
-342.377	-94.519	-0.164	-0.044
-341.362	-108.332	-0.147	0.031
-340.348	233.767	-0.068	-0.110
-339.333	-200.000	-0.027	-0.312
-338.318	59.555	0.195	-0.191
-337.304	-189.640	-0.250	-0.003
-336.289	316.460	-0.064	-0.120
-335.275	-2.713	-0.184	-0.127
-334.260	-95.366	-0.258	-0.069
-333.245	-39.187	0.080	0.042
-332.231	-15.310	0.255	0.162
-331.216	271.737	-0.101	-0.176
-330.202	-35.385	-0.119	0.064
-329.187	-44.342	0.113	-0.056
-328.172	-200.000	-0.092	-0.416
-327.158	800.000	0.045	0.132
-326.143	-141.453	-0.132	0.013
-325.129	-155.049	0.335	-0.022
-324.114	108.015	-0.076	0.090
-323.099	-147.952	0.429	0.035
-322.085	-61.320	-0.115	-0.048
-321.070	-200.000	-0.009	-0.502
-320.056	-19.736	0.147	0.090
-319.041	-200.000	-0.025	0.125
-318.026	-41.754	0.253	-0.129
-317.012	-22.852	-0.328	-0.196
-315.997	-46.411	0.244	-0.119
-314.983	-200.000	0.028	0.284
-313.968	151.854	0.179	-0.241
-312.953	-118.304	-0.363	-0.064
-311.939	470.599	0.072	0.160
-310.924	-200.000	0.025	-0.116
-309.910	-15.189	-0.235	-0.148
-308.895	-12.608	0.350	-0.226
-307.880	-92.273	-0.090	-0.025
-306.866	752.954	-0.130	-0.346
-305.851	-200.000	0.032	0.211
-304.837	132.326	0.086	0.109
-303.822	171.240	-0.178	-0.253
-302.807	800.000	0.028	-0.100
-301.793	-130.385	0.118	0.016
-300.778	160.271	-0.118	-0.163
-299.764	373.418	-0.063	-0.126
-298.749	18.010	0.141	0.111
-297.735	-89.526	0.126	-0.036
-296.720	264.991	0.180	-0.310
-295.705	-120.288	-0.046	-0.008
-294.691	-200.000	0.005	0.143
-293.676	72.485	-0.134	0.138
-292.662	105.880	0.114	-0.134
-291.647	22.046	-0.165	-0.133
-290.632	154.899	0.223	0.303
-289.618	-70.213	0.306	-0.115
-288.603	-200.000	0.033	-0.198
-287.589	6.488	-0.274	0.201
-286.574	39.921	0.167	0.148
-285.559	-32.753	0.242	0.133
-284.545	67.886	-0.138	0.139
-283.530	224.939	0.162	0.258
-282.516	283.958	-0.059	0.104
-281.501	-200.000	-0.010	-0.106
-280.486	-121.283	0.071	0.012
-279.472	204.133	-0.210	0.322
-278.457	-72.323	-0.133	-0.049
-277.443	21.916	-0.176	-0.142
-276.428	245.308	-0.071	-0.117
-275.413	-11.419	0.071	-0.046
-274.399	-106.426	0.114	0.025
-273.384	800.000	0.030	0.102
-272.370	-200.000	-0.011	0.106
-271.355	431.158	-0.115	0.245
-270.340	-158.433	-0.143	-0.008
-269.326	-82.084	0.151	0.049
-268.311	67.142	-0.136	-0.136
-267.297	-8.513	-0.193	0.128
-266.282	62.470	0.242	0.238
-265.267	99.266	-0.019	-0.021
-264.253	800.000	0.051	-0.197
-263.238	134.947	-0.252	-0.322
-262.224	125.040	0.262	0.325
-261.209	44.641	-0.331	0.300
-260.195	800.000	0.013	0.042
-259.180	800.000	0.006	-0.022
-258.165	536.135	0.057	0.134
-257.151	145.732	0.226	0.299
-256.136	-64.143	-0.069	-0.028
-255.122	-200.000	0.000	0.035
-254.107	-200.000	-0.032	0.349
-253.092	40.639	-0.098	0.087
-252.078	-200.000	-0.023	0.272
-251.063	-86.182	-0.251	-0.076
-250.049	-71.896	0.218	0.080
-249.034	-15.319	-0.091	0.057
-248.019	331.028	0.137	0.259
-247.005	-62.662	-0.063	0.026
-245.990	444.711	-0.076	-0.164
-244.976	38.830	0.017	0.015
-243.961	224.428	-0.051	-0.081
-242.946	-128.063	0.148	-0.021
-241.932	-200.000	0.010	0.231
-240.917	-105.429	0.142	-0.032
-239.903	235.174	0.116	-0.189
-238.888	-200.000	-0.073	-0.556
-237.873	-95.040	0.147	-0.039
-236.859	-62.576	-0.298	0.122
-235.844	281.743	0.057	-0.100
-234.830	96.889	-0.215	-0.243
-233.815	800.000	0.096	-0.393
-232.800	-200.000	-0.022	-0.098
-231.786	-200.000	0.005	-0.074
-230.771	108.768	0.027	-0.032
-229.757	188.142	0.097	0.143
-228.742	181.761	0.027	-0.040
-227.727	223.466	0.176	-0.280
-226.713	-200.000	-0.066	-0.384
-225.698	494.756	-0.069	0.157
-224.684	-82.402	0.223	0.071
-223.669	-155.507	-0.278	-0.018
-222.655	800.000	-0.039	-0.138
-221.640	145.934	0.081	0.107
-220.625	201.932	0.063	-0.095
-219.611	-200.000	-0.026	-0.138
-218.596	-200.000	-0.005	-0.108
-217.582	211.141	0.024	0.038
-216.567	-72.566	0.220	0.080
-215.552	-78.346	-0.394	-0.133
-214.538	-60.427	0.373	0.156
-213.523	-127.541	-0.223	0.032
-212.509	-200.000	0.011	-0.076
-211.494	-132.030	0.213	0.027
-210.479	-2.828	0.121	0.083
-209.465	32.448	0.254	0.216
-208.450	800.000	-0.021	-0.060
-207.436	800.000	0.160	-0.438
-206.421	-117.448	-0.152	-0.027
-205.406	55.741	0.214	0.204
-204.392	-156.530	-0.139	-0.009
-203.377	91.465	0.107	-0.118
-202.363	-67.950	-0.329	-0.127
-201.348	-200.000	-0.007	0.121
-200.333	0.736	0.400	0.282
-199.319	736.335	-0.108	-0.285
-198.304	555.592	0.180	-0.426
-197.290	26.987	-0.064	-0.053
-196.275	-140.542	-0.335	0.034
-195.260	-200.000	0.015	0.149
-194.246	100.926	0.185	-0.212
-193.231	-200.000	0.007	0.097
-192.217	-12.037	0.209	-0.135
-191.202	290.273	0.101	-0.181
-190.187	18.741	0.156	0.123
-189.173	-99.995	0.105	0.026
-188.158	-25.481	0.281	-0.163
-187.144	-8.734	-0.131	0.087
-186.129	800.000	-0.044	-0.120
-185.114	800.000	-0.035	-0.107
-184.100	-200.000	0.007	-0.311
-183.085	-11.172	-0.114	0.074
-182.071	103.379	-0.236	-0.272
-181.056	-200.000	0.003	0.033
-180.042	-200.000	-0.003	0.350
-179.027	-200.000	-0.021	-0.094
-178.012	-153.837	-0.113	-0.008
-176.998	137.349	-0.116	0.150
-175.983	800.000	0.075	-0.296
-174.969	-22.806	0.059	-0.035
-173.954	-200.000	-0.040	0.198
-172.939	268.786	-0.142	-0.244
-171.925	-39.012	0.190	-0.098
-170.910	38.226	0.183	-0.160
-169.896	22.753	-0.210	0.169
-168.881	-200.000	0.022	-0.342
-167.866	187.190	0.094	0.138
-166.852	5.988	-0.097	-0.071
-165.837	-30.535	-0.247	0.138
-164.823	-91.442	0.136	0.038
-163.808	-56.401	0.054	0.023
-162.793	580.616	-0.081	-0.195
-161.779	346.559	0.123	-0.238
-160.764	386.831	-0.053	-0.107
-159.750	-200.000	0.025	-0.364
-158.735	800.000	-0.057	0.183
-157.720	800.000	0.060	-0.250
-156.706	-200.000	-0.050	0.224
-155.691	-200.000	-0.029	0.316
-154.677	-137.916	-0.220	0.024
-153.662	108.829	0.134	0.158
-152.647	800.000	-0.043	-0.147
-151.633	-53.263	-0.052	0.023
-150.618	637.753	0.016	-0.040
-149.604	-68.183	-0.282	0.108
-148.589	228.269	0.164	0.262
-147.574	-71.481	0.306	-0.112
-146.560	-200.000	0.002	-0.028
-145.545	48.755	0.152	0.140
-144.531	669.924	0.073	0.185
-143.516	555.913	0.120	0.285
-142.502	-200.000	0.013	-0.424
-141.487	-200.000	-0.018	-0.351
-140.472	-200.000	0.020	0.104
-139.458	-8.542	-0.287	-0.189
-138.443	-79.109	0.101	0.034
-137.429	-39.469	-0.031	-0.016
-136.414	-200.000	0.004	0.220
-135.399	-200.000	-0.007	0.211
-134.385	800.000	0.057	-0.204
-133.370	-200.000	-0.004	-0.060
-132.356	-64.597	0.216	0.086
-131.341	-200.000	0.004	0.090
-130.326	-200.000	-0.022	-0.199
-129.312	-82.612	-0.089	0.028
-128.297	72.546	-0.072	-0.074
-127.283	800.000	0.044	0.135
-126.268	-79.829	-0.113	0.037
-125.253	-117.177	0.022	0.004
-124.239	-153.068	0.147	-0.010
-123.224	22.368	0.366	0.293
-122.210	-84.688	0.231	-0.071
-121.195	-77.703	0.119	0.040
