DTS Sentinel unit serial number:	SN413079Multiplexer serial number:	ORYXHardware model number:	OX4-SRSoftware version number:	ORYX F/W v4.00 Oryx Data Collector v3.7.2.0data status	okinstallation	princeton_trtdifferential loss correction	single-endedforward channel	channel 1reverse channel	N/Adate	2019/09/12time	11:52:11forward acquisition time	60.00reverse acquisition time	0.00gamma	496.2192k internal	0.2293k external	0.2293temperature offset calibration	1.0042default loss term (dB/km)	0.3790temperature slope calibration	1.0000multiplexer offset coefficient	1.0000multiplexer slope coefficient	1.0000fibre end	0.00T internal ref (°C)	40.05T ext. ref 1 (°C)	2.01T ext. ref 2 (°C)	37.53length (m)	temperature (°C)	Stokes	anti-Stokes-747.200	96.942	-0.176	-0.206
-746.185	800.000	-0.083	0.314
-745.171	165.314	-0.227	-0.328
-744.156	-86.045	-0.302	0.096
-743.142	-2.902	0.098	-0.070
-742.127	9.270	-0.337	0.261
-741.112	-53.081	0.036	0.017
-740.098	-38.967	-0.263	0.142
-739.083	-92.552	-0.580	0.167
-738.069	98.252	0.342	0.403
-737.054	259.667	0.231	-0.408
-736.039	5.551	-0.357	-0.270
-735.025	-126.077	0.306	0.047
-734.010	52.146	0.189	-0.184
-732.996	36.285	-0.201	-0.181
-731.981	-200.000	-0.011	0.259
-730.966	-117.967	0.296	0.054
-729.952	-43.947	0.153	-0.079
-728.937	-123.745	0.073	-0.012
-727.923	-35.354	0.102	0.057
-726.908	-66.283	-0.213	-0.087
-725.894	180.891	-0.030	-0.045
-724.879	600.676	-0.108	-0.274
-723.864	140.649	-0.190	-0.256
-722.850	4.323	0.217	-0.163
-721.835	-128.188	-0.328	-0.048
-720.821	-147.945	-0.104	-0.009
-719.806	-112.005	-0.178	-0.037
-718.791	-35.987	-0.250	0.138
-717.777	-115.473	-0.246	0.047
-716.762	113.885	0.049	-0.060
-715.748	-200.000	0.008	-0.274
-714.733	-53.362	-0.245	-0.115
-713.718	167.694	0.151	-0.219
-712.704	67.567	0.203	0.212
-711.689	13.775	-0.104	-0.082
-710.675	-34.294	-0.194	0.109
-709.660	-56.523	-0.253	0.115
-708.645	-200.000	-0.019	-0.344
-707.631	362.010	-0.066	0.135
-706.616	800.000	-0.109	-0.322
-705.602	47.630	0.162	-0.154
-704.587	-29.301	-0.232	-0.136
-703.572	-200.000	0.049	-0.267
-702.558	-178.646	0.305	0.007
-701.543	-200.000	-0.078	-0.418
-700.529	-124.297	-0.306	0.049
-699.514	-200.000	0.036	-0.381
-698.499	167.231	0.108	-0.156
-697.485	7.576	0.203	0.155
-696.470	-200.000	0.022	-0.303
-695.456	-57.955	-0.312	-0.139
-694.441	-83.859	0.430	0.140
-693.426	-105.354	-0.116	-0.027
-692.412	79.227	-0.077	0.084
-691.397	-177.381	-0.392	-0.010
-690.383	102.490	0.059	0.070
-689.368	13.247	-0.087	-0.069
-688.354	-57.927	0.095	0.042
-687.339	-41.903	0.117	0.061
-686.324	-72.078	-0.334	0.127
-685.310	48.555	0.185	-0.177
-684.295	-161.155	-0.120	0.006
-683.281	192.262	-0.076	-0.117
-682.266	148.432	-0.170	-0.235
-681.251	800.000	-0.054	0.176
-680.237	344.444	-0.032	0.064
-679.222	552.208	-0.095	-0.234
-678.208	83.263	-0.204	-0.226
-677.193	-124.155	-0.232	0.037
-676.178	-200.000	-0.046	-0.288
-675.164	-5.624	0.178	-0.124
-674.149	-79.102	-0.311	0.108
-673.135	-171.077	0.096	-0.003
-672.120	-167.750	-0.018	-0.001
-671.105	-47.759	0.186	-0.092
-670.091	258.864	-0.154	0.270
-669.076	12.619	-0.156	0.122
-668.062	-200.000	0.030	-0.254
-667.047	-10.527	0.206	-0.139
-666.032	7.179	-0.165	0.126
-665.018	800.000	-0.061	-0.197
-664.003	-137.401	0.094	-0.011
-662.989	-200.000	0.012	-0.192
-661.974	-131.495	-0.054	0.007
-660.959	213.207	0.111	-0.178
-659.945	-153.214	0.183	-0.013
-658.930	-200.000	0.197	-0.001
-657.916	-8.522	-0.326	-0.223
-656.901	-52.524	0.242	-0.114
-655.886	-200.000	-0.057	-0.372
-654.872	-116.739	0.309	-0.058
-653.857	-108.499	0.069	0.015
-652.843	-89.791	-0.115	-0.034
-651.828	-176.554	0.057	0.002
-650.814	2.025	0.211	0.156
-649.799	-34.993	0.160	0.089
-648.784	-100.188	-0.149	0.038
-647.770	-116.668	-0.199	0.037
-646.755	275.561	-0.233	0.420
-645.741	-110.315	-0.184	0.039
-644.726	-70.272	-0.412	0.160
-643.711	800.000	-0.007	0.024
-642.697	-87.018	0.094	-0.029
-641.682	-200.000	-0.048	-0.239
-640.668	-83.418	-0.213	-0.069
-639.653	800.000	0.105	0.353
-638.638	-39.429	-0.142	-0.076
-637.624	214.954	-0.197	-0.318
-636.609	-32.504	0.161	-0.092
-635.595	-121.011	0.035	0.006
-634.580	-18.710	0.128	-0.081
-633.565	800.000	0.121	0.357
-632.551	-200.000	0.018	-0.086
-631.536	42.839	-0.033	0.031
-630.522	-200.000	0.001	-0.055
-629.507	-200.000	0.016	-0.107
-628.492	379.159	-0.087	0.181
-627.478	72.889	-0.039	0.042
-626.463	-78.306	-0.191	0.067
-625.449	-74.190	0.050	0.019
-624.434	-131.010	0.093	0.013
-623.419	-2.452	-0.304	0.217
-622.405	-122.377	-0.337	-0.056
-621.390	26.442	-0.147	-0.125
-620.376	800.000	0.089	-0.353
-619.361	-200.000	-0.012	0.119
-618.346	-139.627	-0.202	0.022
-617.332	-200.000	0.036	0.180
-616.317	-114.182	0.175	0.034
-615.303	800.000	-0.065	0.261
-614.288	-162.857	0.172	-0.009
-613.273	575.697	-0.248	-0.616
-612.259	105.089	0.066	0.079
-611.244	141.728	-0.033	-0.045
-610.230	-135.489	-0.130	-0.016
-609.215	-146.961	-0.355	0.031
-608.201	489.039	-0.089	-0.207
-607.186	-29.268	-0.068	0.040
-606.171	800.000	0.071	-0.285
-605.157	-150.260	0.338	0.027
-604.142	38.251	0.068	-0.062
-603.128	-200.000	0.017	-0.243
-602.113	38.720	-0.160	0.145
-601.098	-93.301	-0.164	-0.046
-600.084	-34.212	0.034	-0.019
-599.069	141.899	-0.206	0.278
-598.055	44.256	0.313	-0.292
-597.040	197.632	0.069	0.106
-596.025	-200.000	-0.024	-0.406
-595.011	135.688	-0.037	0.048
-593.996	22.960	0.250	0.208
-592.982	87.558	0.074	-0.084
-591.967	38.531	0.118	-0.107
-590.952	800.000	0.020	-0.085
-589.938	-137.544	-0.068	0.008
-588.923	463.802	-0.096	0.217
-587.909	-200.000	-0.003	-0.047
-586.894	3.650	0.089	-0.066
-585.879	-146.085	0.305	-0.027
-584.865	-200.000	-0.026	0.274
-583.850	23.710	0.047	0.039
-582.836	-66.460	0.160	0.065
-581.821	155.283	-0.118	-0.166
-580.806	92.298	-0.108	-0.123
-579.792	800.000	-0.088	-0.292
-578.777	1.130	-0.091	0.067
-577.763	-120.720	-0.200	0.034
-576.748	-33.212	-0.185	0.104
-575.733	-200.000	-0.020	-0.138
-574.719	800.000	-0.080	-0.227
-573.704	593.942	0.054	0.135
-572.690	-200.000	0.047	-0.315
-571.675	81.834	-0.083	0.092
-570.661	370.734	-0.119	-0.245
-569.646	136.376	-0.294	-0.390
-568.631	432.728	-0.103	-0.226
-567.617	-157.482	-0.199	0.012
-566.602	216.823	-0.191	0.309
-565.588	-9.395	0.272	-0.184
-564.573	141.504	-0.105	0.142
-563.558	-101.447	-0.156	0.039
-562.544	405.074	0.015	-0.033
-561.529	-200.000	0.002	-0.262
-560.515	-75.419	-0.264	-0.096
-559.500	185.111	-0.253	0.381
-558.485	-27.533	0.017	-0.010
-557.471	84.397	-0.177	0.197
-556.456	-9.866	0.028	-0.019
-555.442	-12.149	-0.090	-0.060
-554.427	389.160	-0.131	0.276
-553.412	250.889	0.174	0.300
-552.398	103.582	0.155	0.185
-551.383	-200.000	-0.027	-0.130
-550.369	-200.000	-0.032	0.276
-549.354	106.374	-0.157	-0.189
-548.339	699.369	-0.111	-0.295
-547.325	-191.879	-0.278	0.003
-546.310	-72.682	-0.328	-0.123
-545.296	25.332	0.202	-0.171
-544.281	-111.419	0.128	-0.027
-543.266	-12.223	-0.199	-0.132
-542.252	-57.077	-0.249	-0.112
-541.237	-44.429	0.163	0.083
-540.223	-148.866	-0.040	-0.003
-539.208	49.204	0.249	-0.237
-538.193	-193.418	0.082	-0.001
-537.179	21.085	0.163	-0.134
-536.164	78.987	0.222	0.242
-535.150	149.107	0.079	0.109
-534.135	-44.775	-0.028	-0.014
-533.121	167.098	-0.040	-0.058
-532.106	800.000	-0.096	-0.333
-531.091	188.216	0.172	-0.260
-530.077	220.051	-0.095	0.154
-529.062	-200.000	-0.021	0.149
-528.048	249.496	-0.126	0.217
-527.033	-88.343	-0.254	0.077
-526.018	211.879	0.062	0.099
-525.004	40.129	0.115	0.104
-523.989	-200.000	-0.002	-0.184
-522.975	34.148	0.169	-0.150
-521.960	73.547	-0.118	-0.126
-520.945	35.708	-0.157	0.140
-519.931	-200.000	-0.037	-0.443
-518.916	800.000	0.093	0.314
-517.902	44.796	-0.152	-0.142
-516.887	-200.000	-0.017	0.290
-515.872	-62.905	0.331	0.139
-514.858	-130.503	0.354	-0.048
-513.843	-56.485	0.152	-0.068
-512.829	484.906	-0.099	0.229
-511.814	168.950	0.069	-0.100
-510.799	-38.054	-0.253	0.136
-509.785	-9.243	0.046	0.031
-508.770	288.375	0.097	-0.179
-507.756	468.237	-0.027	-0.061
-506.741	222.365	-0.165	0.269
-505.726	-38.399	0.240	0.129
-504.712	-32.835	-0.368	-0.207
-503.697	800.000	0.051	0.221
-502.683	-200.000	-0.003	-0.021
-501.668	-48.041	0.127	0.062
-500.653	-200.000	0.008	0.341
-499.639	-200.000	0.002	0.029
-498.624	256.871	0.171	0.298
-497.610	-200.000	0.054	0.287
-496.595	-77.497	-0.247	0.087
-495.581	13.787	-0.337	0.265
-494.566	-200.000	0.034	-0.190
-493.551	-200.000	-0.011	0.390
-492.537	-106.897	0.319	0.072
-491.522	25.067	0.118	-0.099
-490.508	-200.000	0.223	0.000
-489.493	-96.540	-0.468	-0.125
-488.478	-149.155	0.171	0.014
-487.464	79.654	-0.166	-0.180
-486.449	-200.000	0.057	-0.271
-485.435	631.739	0.103	0.263
-484.420	483.122	0.066	0.153
-483.405	-69.528	0.188	0.073
-482.391	-158.559	0.365	0.021
-481.376	-66.863	-0.498	0.199
-480.362	-8.582	-0.216	0.147
-479.347	601.122	0.041	-0.104
-478.332	-200.000	-0.058	-0.280
-477.318	-200.000	-0.037	0.198
-476.303	320.045	0.195	0.374
-475.289	-163.186	0.132	0.006
-474.274	-86.903	-0.243	0.075
-473.259	-200.000	0.027	-0.120
-472.245	504.872	-0.069	-0.162
-471.230	-75.216	0.293	0.106
-470.216	4.472	0.266	0.197
-469.201	-129.200	-0.143	0.020
-468.186	800.000	0.046	-0.147
-467.172	79.460	-0.055	-0.059
-466.157	-200.000	-0.085	-0.438
-465.143	-200.000	-0.012	-0.114
-464.128	294.278	0.068	-0.125
-463.113	3.100	-0.102	0.075
-462.099	33.140	0.229	0.201
-461.084	-70.388	0.106	0.041
-460.070	306.623	0.038	-0.072
-459.055	297.414	0.184	-0.342
-458.040	-133.365	-0.102	-0.013
-457.026	-97.526	0.192	0.050
-456.011	-125.307	-0.077	-0.012
-454.997	271.126	0.086	-0.153
-453.982	140.311	-0.083	0.111
-452.968	390.504	-0.126	0.265
-451.953	-13.178	-0.253	0.166
-450.938	74.710	0.181	0.193
-449.924	235.492	-0.275	-0.459
-448.909	96.328	0.102	-0.117
-447.895	-142.373	-0.208	0.021
-446.880	13.766	-0.376	-0.295
-445.865	-40.375	0.325	-0.171
-444.851	49.627	-0.126	-0.120
-443.836	-108.329	-0.167	0.036
-442.822	508.062	0.081	-0.191
-441.807	-117.580	0.155	-0.028
-440.792	90.569	-0.078	-0.088
-439.778	-200.000	-0.039	0.255
-438.763	-111.060	-0.293	-0.061
-437.749	-77.256	0.463	0.163
-436.734	800.000	0.142	-0.409
-435.719	-200.000	0.001	-0.061
-434.705	-29.469	0.289	-0.167
-433.690	-90.438	-0.251	0.073
-432.676	-200.000	0.017	-0.103
-431.661	166.711	-0.132	0.189
-430.646	323.243	-0.231	-0.446
-429.632	-169.553	-0.155	-0.006
-428.617	11.665	0.014	-0.011
-427.603	-28.298	0.136	-0.079
-426.588	320.521	-0.178	-0.342
-425.573	-61.841	0.278	-0.118
-424.559	-29.729	0.089	-0.051
-423.544	179.770	-0.053	-0.079
-422.530	387.778	-0.061	0.127
-421.515	-200.000	-0.031	-0.152
-420.500	-200.000	-0.177	-0.001
-419.486	111.813	0.152	-0.185
-418.471	-34.631	0.079	-0.044
-417.457	-200.000	0.001	-0.156
-416.442	73.144	-0.200	-0.212
-415.428	-200.000	0.001	0.220
-414.413	-109.753	0.093	-0.020
-413.398	-137.784	0.319	0.036
-412.384	-200.000	-0.042	0.350
-411.369	-200.000	0.003	0.155
-410.355	206.661	0.189	0.297
-409.340	800.000	-0.074	0.209
-408.325	-92.785	0.160	0.045
-407.311	-92.988	-0.230	0.065
-406.296	136.583	0.204	0.269
-405.282	-3.966	0.163	-0.114
-404.267	-53.801	0.106	0.049
-403.252	800.000	-0.096	0.281
-402.238	430.887	-0.227	0.497
-401.223	-29.124	-0.149	-0.086
-400.209	616.436	0.028	0.071
-399.194	321.881	0.013	-0.025
-398.179	-200.000	-0.003	0.088
-397.165	37.407	0.133	0.119
-396.150	-152.153	-0.106	0.008
-395.136	-200.000	0.002	-0.279
-394.121	-58.370	0.246	-0.108
-393.106	-200.000	-0.010	0.043
-392.092	56.097	0.084	0.082
-391.077	-3.559	0.091	0.064
-390.063	-104.456	0.340	-0.079
-389.048	-102.250	0.400	-0.097
-388.033	800.000	-0.088	0.291
-387.019	-74.340	0.098	0.036
-386.004	-18.335	0.363	-0.229
-384.990	604.560	-0.074	0.187
-383.975	-86.877	-0.165	-0.051
-382.960	103.154	-0.300	-0.354
-381.946	180.639	0.103	0.153
-380.931	-177.989	-0.300	0.007
-379.917	-117.382	0.219	-0.040
-378.902	89.693	-0.306	0.345
-377.888	-200.000	0.058	0.345
-376.873	-30.663	-0.177	0.101
-375.858	-200.000	0.060	-0.368
-374.844	-178.729	0.197	0.005
-373.829	2.894	-0.289	-0.212
-372.815	-128.757	0.232	-0.033
-371.800	-28.583	0.206	0.120
-370.785	454.469	-0.032	0.071
-369.771	-200.000	-0.002	0.116
-368.756	5.674	-0.098	0.073
-367.742	-200.000	0.007	0.081
-366.727	-200.000	-0.021	-0.122
-365.712	-35.162	0.024	-0.013
-364.698	-200.000	-0.006	-0.092
-363.683	-45.687	0.018	0.009
-362.669	362.505	-0.145	-0.294
-361.654	-67.199	-0.298	-0.118
-360.639	25.289	0.089	0.074
-359.625	-93.960	0.292	0.081
-358.610	-130.667	-0.128	-0.017
-357.596	113.641	-0.196	-0.241
-356.581	-200.000	0.085	-0.448
-355.566	-120.320	0.213	-0.037
-354.552	-134.974	0.120	-0.015
-353.537	800.000	0.064	0.268
-352.523	224.956	-0.129	0.210
-351.508	167.834	-0.216	0.310
-350.493	-16.164	-0.194	0.124
-349.479	215.920	0.047	0.075
-348.464	-112.457	-0.351	-0.071
-347.450	110.696	-0.255	0.309
-346.435	49.258	-0.030	0.029
-345.420	-54.041	0.226	-0.104
-344.406	800.000	0.013	0.044
-343.391	-77.212	-0.180	0.063
-342.377	-200.000	-0.027	0.374
-341.362	381.562	-0.099	-0.204
-340.348	469.209	0.035	0.079
-339.333	-150.179	-0.153	0.012
-338.318	17.260	0.046	-0.037
-337.304	77.270	-0.143	0.153
-336.289	224.744	-0.215	0.350
-335.275	-200.000	-0.036	-0.288
-334.260	-121.999	0.111	-0.018
-333.245	-97.120	0.137	-0.036
-332.231	800.000	-0.039	0.132
-331.216	390.150	0.054	0.113
-330.202	800.000	0.148	-0.412
-329.187	-200.000	-0.032	-0.309
-328.172	500.525	0.050	-0.117
-327.158	800.000	0.064	-0.178
-326.143	-69.719	0.353	0.136
-325.129	185.732	-0.219	-0.328
-324.114	120.197	-0.108	-0.135
-323.099	94.262	-0.188	-0.215
-322.085	-173.329	0.191	-0.006
-321.070	800.000	0.035	-0.132
-320.056	-89.884	0.394	-0.116
-319.041	800.000	0.068	0.221
-318.026	-200.000	0.044	-0.228
-317.012	119.134	-0.067	-0.083
-315.997	88.169	0.119	0.132
-314.983	-63.477	0.170	-0.070
-313.968	-76.651	0.320	-0.113
-312.953	-15.859	-0.230	-0.148
-311.939	-93.296	0.252	0.070
-310.924	16.058	0.240	-0.190
-309.910	56.007	-0.216	-0.211
-308.895	-60.978	0.162	-0.069
-307.880	-160.917	0.239	-0.013
-306.866	-85.974	0.140	-0.043
-305.851	113.557	0.095	0.116
-304.837	-27.950	-0.355	0.207
-303.822	194.548	0.130	-0.199
-302.807	-200.000	0.034	0.253
-301.793	-114.591	-0.099	-0.019
-300.778	-43.972	-0.027	0.014
-299.764	11.453	-0.288	0.222
-298.749	-200.000	-0.004	-0.284
-297.735	-48.995	-0.097	0.047
-296.720	800.000	0.074	-0.240
-295.705	-200.000	0.010	-0.248
-294.691	420.095	0.059	-0.126
-293.676	-200.000	-0.016	-0.177
-292.662	800.000	0.047	0.202
-291.647	565.615	-0.113	0.276
-290.632	22.404	0.183	0.150
-289.618	-140.890	-0.364	-0.038
-288.603	-200.000	-0.003	0.025
-287.589	-18.779	-0.268	-0.168
-286.574	-200.000	0.035	-0.268
-285.559	37.607	0.175	-0.156
-284.545	-155.982	0.266	0.017
-283.530	-200.000	0.031	-0.245
-282.516	-82.210	0.334	0.109
-281.501	-136.346	-0.101	-0.012
-280.486	-200.000	-0.057	-0.340
-279.472	84.931	-0.113	-0.125
-278.457	-4.332	-0.070	-0.049
-277.443	800.000	-0.068	0.270
-276.428	174.881	0.177	-0.257
-275.413	0.519	-0.163	0.117
-274.399	-132.401	0.315	-0.041
-273.384	-144.173	0.473	-0.044
-272.370	-200.000	0.058	-0.268
-271.355	545.935	0.042	-0.101
-270.340	128.898	0.094	-0.121
-269.326	-200.000	0.062	-0.284
-268.311	800.000	0.089	0.385
-267.297	-22.253	0.424	0.258
-266.282	-19.178	-0.045	0.028
-265.267	-156.361	-0.173	-0.011
-264.253	800.000	0.043	0.144
-263.238	34.090	0.162	-0.141
-262.224	-145.153	-0.304	-0.028
-261.209	459.126	-0.063	-0.141
-260.195	800.000	0.010	-0.032
-259.180	-51.153	0.171	-0.080
-258.165	306.364	-0.189	0.352
-257.151	-124.372	-0.290	-0.045
-256.136	-200.000	0.242	-0.001
-255.122	429.355	-0.043	0.093
-254.107	-53.210	-0.128	-0.059
-253.092	-200.000	-0.036	0.270
-252.078	-200.000	0.014	-0.097
-251.063	219.758	0.092	-0.149
-250.049	-200.000	0.007	-0.065
-249.034	124.336	0.071	-0.090
-248.019	545.491	-0.080	0.193
-247.005	800.000	-0.104	0.312
-245.990	3.879	0.407	0.298
-244.976	7.511	0.110	-0.083
-243.961	-57.838	-0.153	-0.067
-242.946	-167.182	0.134	0.005
-241.932	-104.761	-0.114	-0.026
-240.917	-173.079	-0.137	-0.004
-239.903	141.969	0.178	0.236
-238.888	-85.123	0.173	0.054
-237.873	-200.000	0.020	-0.246
-236.859	64.145	0.125	-0.126
-235.844	139.248	0.092	0.122
-234.830	-136.733	0.320	-0.037
-233.815	152.708	-0.256	-0.351
-232.800	116.551	0.034	-0.042
-231.786	-131.936	0.342	0.045
-230.771	127.338	0.210	0.267
-229.757	-94.321	0.080	-0.022
-228.742	-123.527	0.130	-0.021
-227.727	96.926	-0.189	0.217
-226.713	200.676	0.135	0.208
-225.698	98.850	0.136	0.157
-224.684	-63.566	-0.175	-0.072
-223.669	800.000	-0.011	-0.045
-222.655	-17.718	0.141	-0.089
-221.640	-38.468	0.154	0.082
-220.625	324.988	0.037	-0.070
-219.611	144.203	-0.111	0.148
-218.596	703.042	-0.087	0.229
-217.582	-200.000	-0.026	-0.128
-216.567	-47.387	-0.150	0.073
-215.552	-200.000	-0.001	-0.117
-214.538	408.190	-0.160	-0.339
-213.523	436.621	-0.086	-0.187
-212.509	-200.000	0.011	0.414
-211.494	-55.291	-0.376	-0.169
-210.479	-199.726	-0.192	0.001
-209.465	-200.000	-0.035	-0.173
-208.450	-200.000	-0.031	0.306
-207.436	-73.246	0.173	0.063
-206.421	72.138	0.220	-0.230
-205.406	-61.157	-0.202	0.085
-204.392	800.000	0.030	-0.107
-203.377	-86.467	0.279	0.086
-202.363	5.298	-0.129	0.095
-201.348	514.862	-0.023	0.053
-200.333	-103.871	0.226	0.053
-199.319	463.600	-0.124	-0.277
-198.304	800.000	-0.061	0.216
-197.290	88.193	-0.298	0.332
-196.275	93.348	0.148	-0.168
-195.260	360.270	0.027	0.055
-194.246	-4.574	0.099	0.068
-193.231	800.000	0.039	0.163
-192.217	315.671	0.121	0.228
-191.202	10.063	-0.148	0.112
-190.187	-36.361	-0.029	-0.016
-189.173	-186.256	0.329	0.005
-188.158	-101.606	0.216	-0.052
-187.144	-58.463	0.020	-0.009
-186.129	230.921	-0.143	-0.235
-185.114	-99.431	0.251	0.063
-184.100	800.000	0.143	0.443
-183.085	680.022	-0.029	0.074
-182.071	-200.000	0.039	0.232
-181.056	308.323	0.192	0.359
-180.042	-138.622	-0.475	0.052
-179.027	-200.000	0.048	-0.313
-178.012	-200.000	0.011	0.328
-176.998	-190.274	0.393	0.004
-175.983	27.145	-0.044	-0.037
-174.969	-200.000	0.021	-0.140
-173.954	30.445	0.201	0.172
-172.939	-174.294	-0.256	-0.007
-171.925	-200.000	-0.015	0.098
-170.910	-200.000	-0.052	0.330
-169.896	524.727	0.021	0.049
-168.881	-96.232	0.136	0.036
-167.866	17.055	-0.158	0.125
-166.852	-162.778	0.125	0.006
-165.837	-110.750	0.020	-0.004
-164.823	122.173	0.106	-0.133
-163.808	76.071	-0.279	0.295
-162.793	111.079	0.226	0.272
-161.779	307.154	0.016	-0.030
-160.764	800.000	0.088	0.281
-159.750	-124.082	-0.259	-0.041
-158.735	800.000	0.094	-0.368
-157.720	-16.905	0.170	-0.108
-156.706	732.905	0.042	0.111
-155.691	-51.310	-0.130	0.061
-154.677	-127.299	-0.167	-0.024
-153.662	56.100	-0.216	-0.209
-152.647	-200.000	0.024	-0.206
-151.633	359.738	-0.147	-0.294
-150.618	-66.030	0.120	-0.048
-149.604	-87.634	0.163	-0.049
-148.589	299.306	0.050	0.091
-147.574	365.076	0.097	-0.195
-146.560	184.095	-0.127	-0.188
-145.545	-93.307	-0.196	-0.054
-144.531	-89.955	-0.118	0.034
-143.516	-147.047	-0.136	0.012
-142.502	800.000	-0.013	-0.044
-141.487	266.171	0.068	-0.119
-140.472	-38.729	0.010	0.005
-139.458	-44.917	-0.418	-0.208
-138.443	-70.160	-0.243	0.092
-137.429	187.637	0.183	0.273
-136.414	149.198	0.258	-0.349
-135.399	56.048	0.118	-0.114
-134.385	800.000	0.068	-0.259
-133.370	54.549	-0.167	-0.161
-132.356	-53.309	-0.077	-0.035
-131.341	302.540	0.090	-0.166
-130.326	-200.000	0.015	0.282
-129.312	-33.329	0.022	0.012
-128.297	162.626	-0.088	-0.124
-127.283	23.922	-0.266	-0.219
-126.268	-90.819	-0.075	0.022
-125.253	73.026	-0.260	-0.271
-124.239	-64.754	-0.140	0.057
-123.224	-31.297	0.116	0.065
-122.210	16.536	-0.156	-0.123
