DTS Sentinel unit serial number:	SN413079Multiplexer serial number:	ORYXHardware model number:	OX4-SRSoftware version number:	ORYX F/W v4.00 Oryx Data Collector v3.7.2.0data status	okinstallation	princeton_trtdifferential loss correction	single-endedforward channel	channel 1reverse channel	N/Adate	2019/09/15time	16:34:35forward acquisition time	60.00reverse acquisition time	0.00gamma	496.2192k internal	0.2292k external	0.2292temperature offset calibration	0.9935default loss term (dB/km)	0.3790temperature slope calibration	1.0000multiplexer offset coefficient	1.0000multiplexer slope coefficient	1.0000fibre end	0.00T internal ref (°C)	44.00T ext. ref 1 (°C)	5.61T ext. ref 2 (°C)	40.44length (m)	temperature (°C)	Stokes	anti-Stokes-747.200	382.079	-0.087	0.184
-746.185	712.187	-0.035	0.094
-745.171	-28.665	-0.279	-0.164
-744.156	-200.000	0.010	-0.091
-743.142	-60.154	-0.105	0.046
-742.127	212.785	0.208	0.336
-741.112	372.199	0.057	-0.118
-740.098	-200.000	0.073	0.397
-739.083	-90.921	-0.172	0.051
-738.069	137.832	-0.163	0.218
-737.054	-151.695	0.146	0.011
-736.039	68.832	-0.122	0.128
-735.025	-91.365	-0.229	0.067
-734.010	-50.394	-0.275	-0.133
-732.996	-200.000	0.005	-0.358
-731.981	-35.988	-0.185	-0.103
-730.966	-20.670	-0.347	-0.218
-729.952	-23.692	-0.312	0.191
-728.937	-135.072	-0.193	-0.024
-727.923	89.452	0.075	0.085
-726.908	179.113	-0.114	0.170
-725.894	170.450	-0.055	-0.081
-724.879	-107.349	-0.211	-0.047
-723.864	-0.119	0.042	0.031
-722.850	-200.000	0.005	0.192
-721.835	-59.895	-0.358	-0.157
-720.821	-194.145	-0.255	0.002
-719.806	-26.707	-0.034	0.020
-718.791	165.059	-0.116	0.168
-717.777	-80.667	-0.026	-0.009
-716.762	-56.677	0.186	-0.084
-715.748	-197.557	0.089	-0.001
-714.733	-47.404	-0.194	-0.096
-713.718	-149.493	0.064	-0.005
-712.704	-162.423	-0.080	0.004
-711.689	-133.097	-0.184	0.024
-710.675	-106.673	0.241	0.055
-709.660	454.888	-0.023	0.052
-708.645	130.169	-0.116	0.152
-707.631	-200.000	0.021	0.320
-706.616	66.675	0.216	-0.224
-705.602	-200.000	-0.066	0.364
-704.587	-69.419	0.247	0.097
-703.572	217.726	0.029	0.047
-702.558	149.208	0.102	0.141
-701.543	-76.501	0.258	-0.093
-700.529	-95.146	-0.484	0.133
-699.514	689.571	-0.038	-0.103
-698.499	316.126	-0.117	0.225
-697.485	-148.866	0.128	0.011
-696.470	-82.878	-0.101	0.033
-695.456	296.496	0.142	0.266
-694.441	652.577	0.052	-0.136
-693.426	156.355	0.039	-0.055
-692.412	-200.000	-0.005	0.095
-691.397	131.983	0.090	0.119
-690.383	-96.437	-0.255	-0.069
-689.368	-20.704	0.077	-0.049
-688.354	-183.953	-0.559	-0.010
-687.339	5.590	-0.155	0.117
-686.324	800.000	-0.079	0.226
-685.310	163.282	-0.237	0.341
-684.295	-45.185	-0.050	-0.025
-683.281	-92.625	-0.257	0.074
-682.266	21.255	-0.150	-0.124
-681.251	69.459	0.090	0.094
-680.237	-200.000	0.020	-0.106
-679.222	-13.876	-0.356	0.235
-678.208	104.350	-0.067	-0.080
-677.193	25.822	-0.092	-0.079
-676.178	57.509	0.191	0.191
-675.164	783.967	-0.076	-0.212
-674.149	-140.521	-0.114	-0.012
-673.135	-200.000	0.129	-0.000
-672.120	592.035	0.009	-0.022
-671.105	80.532	-0.169	0.186
-670.091	-200.000	-0.037	-0.232
-669.076	-41.647	0.239	-0.125
-668.062	-200.000	0.023	0.294
-667.047	800.000	-0.120	0.423
-666.032	-23.895	-0.283	0.173
-665.018	-200.000	-0.015	0.108
-664.003	-74.335	0.252	0.093
-662.989	-72.456	-0.383	0.145
-661.974	800.000	-0.020	0.066
-660.959	-111.520	0.081	-0.017
-659.945	108.068	-0.147	0.179
-658.930	800.000	-0.055	0.197
-657.916	88.600	0.077	-0.088
-656.901	209.887	-0.120	-0.192
-655.886	-200.000	0.008	-0.412
-654.872	-15.664	-0.083	-0.054
-653.857	-8.335	0.123	-0.084
-652.843	129.297	0.117	0.153
-651.828	131.982	0.043	0.057
-650.814	27.039	0.085	0.073
-649.799	617.650	0.082	-0.210
-648.784	800.000	0.109	-0.411
-647.770	700.135	-0.097	-0.259
-646.755	-200.000	0.031	0.314
-645.741	-19.630	-0.237	-0.149
-644.726	-155.148	0.369	-0.025
-643.711	-17.515	-0.065	0.042
-642.697	72.165	-0.136	0.145
-641.682	128.822	-0.117	-0.152
-640.668	2.795	0.247	0.183
-639.653	800.000	-0.051	0.214
-638.638	443.429	0.036	0.080
-637.624	60.458	-0.135	-0.137
-636.609	443.150	0.138	-0.308
-635.595	794.225	-0.067	0.189
-634.580	76.057	-0.204	0.220
-633.565	152.324	-0.127	0.176
-632.551	318.384	-0.130	0.250
-631.536	331.824	0.203	0.398
-630.522	463.451	-0.139	0.318
-629.507	10.832	0.220	0.171
-628.492	-58.791	-0.244	-0.108
-627.478	192.978	0.069	-0.106
-626.463	222.200	0.157	-0.257
-625.449	61.748	0.070	-0.071
-624.434	160.287	-0.127	-0.180
-623.419	800.000	-0.020	-0.083
-622.405	87.156	-0.081	-0.092
-621.390	124.782	0.247	-0.317
-620.376	527.745	0.064	-0.153
-619.361	316.884	0.192	0.369
-618.346	11.177	-0.146	-0.114
-617.332	58.844	-0.050	-0.050
-616.317	-88.135	0.234	0.072
-615.303	800.000	0.041	0.133
-614.288	-34.680	-0.245	-0.136
-613.273	-146.200	-0.059	0.005
-612.259	-163.071	0.115	0.006
-611.244	104.233	0.169	-0.203
-610.230	-132.249	0.159	0.021
-609.215	7.626	-0.123	-0.094
-608.201	-21.308	0.092	-0.057
-607.186	800.000	0.044	-0.191
-606.171	-113.120	0.143	0.029
-605.157	-200.000	0.015	-0.347
-604.142	410.753	0.082	-0.178
-603.128	60.786	-0.166	-0.167
-602.113	95.155	-0.143	-0.166
-601.098	800.000	-0.089	0.294
-600.084	-116.002	0.446	-0.085
-599.069	-116.007	-0.281	0.053
-598.055	800.000	0.113	-0.380
-597.040	-140.426	0.393	-0.042
-596.025	-200.000	0.020	-0.368
-595.011	-188.415	0.193	-0.002
-593.996	-6.512	-0.102	-0.070
-592.982	-54.157	0.181	-0.084
-591.967	-200.000	0.011	0.362
-590.952	800.000	0.078	0.262
-589.938	-118.423	0.275	0.050
-588.923	136.908	0.200	0.266
-587.909	-23.145	0.065	0.040
-586.894	202.604	0.035	-0.054
-585.879	520.076	0.078	-0.185
-584.865	-200.000	-0.015	0.255
-583.850	212.168	0.146	0.235
-582.836	-103.072	0.120	0.029
-581.821	516.121	-0.100	-0.237
-580.806	-200.000	0.028	-0.144
-579.792	-140.562	0.222	-0.023
-578.777	66.546	0.177	0.183
-577.763	528.082	-0.118	0.283
-576.748	116.410	0.219	0.273
-575.733	-200.000	-0.001	0.087
-574.719	-8.421	-0.241	0.165
-573.704	-200.000	-0.011	-0.135
-572.690	-200.000	-0.018	0.083
-571.675	-200.000	-0.029	-0.142
-570.661	96.472	0.107	-0.124
-569.646	-2.660	0.079	-0.057
-568.631	-65.160	-0.374	0.153
-567.617	35.726	-0.016	0.014
-566.602	95.274	-0.086	0.100
-565.588	800.000	-0.041	0.124
-564.573	470.472	0.085	0.195
-563.558	63.370	0.015	0.015
-562.544	800.000	-0.035	0.143
-561.529	160.126	0.217	-0.307
-560.515	-51.855	0.284	-0.134
-559.500	-146.158	0.073	-0.006
-558.485	3.547	-0.058	0.043
-557.471	-103.244	0.246	0.059
-556.456	-19.112	0.148	0.093
-555.442	-162.752	0.334	-0.017
-554.427	249.292	0.156	-0.269
-553.412	-200.000	-0.028	-0.275
-552.398	53.955	-0.143	-0.140
-551.383	55.407	-0.166	-0.163
-550.369	389.743	0.056	-0.119
-549.354	800.000	-0.144	-0.528
-548.339	246.702	0.184	-0.315
-547.325	-108.528	0.094	-0.021
-546.310	388.865	-0.118	-0.249
-545.296	-71.326	0.045	0.017
-544.281	-168.155	0.119	-0.005
-543.266	-69.487	0.291	-0.113
-542.252	800.000	0.040	-0.115
-541.237	-200.000	-0.017	-0.206
-540.223	214.397	0.055	0.089
-539.208	-63.348	-0.081	0.034
-538.193	41.866	-0.322	-0.296
-537.179	-149.617	-0.244	-0.020
-536.164	-117.190	0.123	-0.023
-535.150	200.964	0.067	-0.104
-534.135	-77.803	0.276	-0.097
-533.121	-11.361	0.245	0.164
-532.106	-114.926	0.206	-0.040
-531.091	101.178	0.135	-0.159
-530.077	-45.877	0.171	-0.086
-529.062	247.301	-0.096	0.165
-528.048	125.135	-0.287	0.367
-527.033	-169.122	0.056	0.002
-526.018	-37.400	-0.342	-0.185
-525.004	-130.478	-0.391	0.054
-523.989	-66.200	-0.039	-0.016
-522.975	25.675	-0.271	-0.229
-521.960	-59.898	-0.184	-0.080
-520.945	800.000	-0.064	-0.267
-519.931	83.450	-0.154	-0.170
-518.916	31.188	-0.270	-0.235
-517.902	662.569	-0.128	-0.334
-516.887	383.870	-0.113	0.237
-515.872	-120.927	-0.274	-0.047
-514.858	1.809	0.101	0.074
-513.843	-200.000	0.035	-0.229
-512.829	49.260	0.295	0.281
-511.814	-200.000	-0.009	-0.113
-510.799	87.335	-0.074	-0.083
-509.785	151.011	0.052	-0.072
-508.770	185.073	-0.225	0.339
-507.756	-25.458	0.203	0.122
-506.741	-119.280	-0.485	-0.086
-505.726	-168.885	-0.095	0.004
-504.712	800.000	-0.077	-0.324
-503.697	-125.776	0.367	0.056
-502.683	-200.000	0.014	0.414
-501.668	-48.003	0.035	-0.017
-500.653	-91.771	0.208	0.060
-499.639	193.259	-0.196	0.300
-498.624	-200.000	0.021	0.202
-497.610	-136.106	0.280	0.033
-496.595	179.900	-0.126	0.188
-495.581	-20.230	0.180	0.112
-494.566	65.910	-0.072	0.074
-493.551	95.099	0.296	0.342
-492.537	-118.675	0.063	0.011
-491.522	-38.826	-0.328	0.175
-490.508	326.468	-0.133	-0.258
-489.493	-73.137	0.225	0.083
-488.478	-52.073	-0.195	-0.092
-487.464	21.893	-0.050	0.041
-486.449	-186.403	0.247	0.004
-485.435	79.740	0.159	0.173
-484.420	-100.441	-0.015	-0.004
-483.405	384.568	-0.103	0.215
-482.391	-115.012	0.249	-0.048
-481.376	-14.880	0.300	0.195
-480.362	1.541	0.155	-0.113
-479.347	34.567	-0.288	0.254
-478.332	240.082	0.133	0.225
-477.318	40.735	0.074	0.068
-476.303	431.229	-0.059	0.129
-475.289	281.656	0.033	0.060
-474.274	18.992	0.080	0.065
-473.259	800.000	-0.048	0.192
-472.245	-134.231	-0.152	-0.019
-471.230	-200.000	-0.015	0.246
-470.216	-122.797	-0.501	-0.082
-469.201	-142.151	-0.052	0.005
-468.186	-151.379	-0.131	-0.010
-467.172	-70.569	-0.155	-0.059
-466.157	-92.225	0.241	-0.069
-465.143	342.900	-0.075	-0.149
-464.128	191.181	-0.120	0.183
-463.113	35.302	-0.037	-0.032
-462.099	-85.525	-0.153	-0.048
-461.084	427.556	-0.162	-0.355
-460.070	345.001	0.075	0.150
-459.055	243.667	-0.104	0.177
-458.040	-200.000	-0.054	0.422
-457.026	800.000	-0.103	-0.297
-456.011	0.345	0.112	-0.081
-454.997	50.937	0.241	0.231
-453.982	9.344	0.170	0.130
-452.968	38.617	-0.059	-0.053
-451.953	-200.000	0.008	-0.176
-450.938	-19.694	-0.299	-0.187
-449.924	-200.000	0.000	-0.077
-448.909	-154.352	-0.436	-0.030
-447.895	-200.000	0.012	0.103
-446.880	63.672	0.101	-0.102
-445.865	138.734	-0.127	-0.169
-444.851	279.084	0.081	0.146
-443.836	-200.000	0.078	0.363
-442.822	-135.937	0.158	-0.019
-441.807	-46.375	-0.126	-0.063
-440.792	-200.000	0.040	0.350
-439.778	-82.622	0.217	0.071
-438.763	181.384	0.142	-0.212
-437.749	-19.018	0.100	-0.063
-436.734	-43.896	-0.149	0.076
-435.719	45.022	-0.117	-0.109
-434.705	167.146	-0.157	0.225
-433.690	800.000	0.058	0.228
-432.676	28.890	0.109	0.094
-431.661	-76.678	0.144	0.051
-430.646	800.000	-0.037	0.125
-429.632	-178.795	-0.395	0.009
-428.617	475.627	-0.076	0.173
-427.603	-200.000	0.041	-0.193
-426.588	634.405	-0.022	0.055
-425.573	158.800	-0.316	-0.444
-424.559	-35.783	0.104	-0.057
-423.544	-3.640	-0.094	0.066
-422.530	-17.842	-0.168	0.106
-421.515	-200.000	-0.022	0.312
-420.500	-36.014	0.085	0.046
-419.486	-200.000	-0.009	-0.225
-418.471	-106.621	0.294	0.066
-417.457	-5.261	0.100	-0.070
-416.442	-200.000	-0.014	0.184
-415.428	-65.384	0.071	-0.029
-414.413	172.371	-0.150	0.218
-413.398	-164.752	-0.311	0.014
-412.384	-8.121	0.157	0.107
-411.369	-152.158	0.154	0.011
-410.355	800.000	0.089	0.318
-409.340	-200.000	0.007	0.106
-408.325	800.000	-0.017	-0.055
-407.311	-200.000	-0.041	-0.308
-406.296	430.489	-0.014	-0.032
-405.282	-137.921	0.162	0.018
-404.267	482.261	0.130	0.299
-403.252	-77.211	-0.057	0.020
-402.238	-150.287	-0.237	-0.018
-401.223	33.213	0.052	0.045
-400.209	632.893	0.097	0.248
-399.194	-121.480	0.048	-0.008
-398.179	546.729	0.140	-0.339
-397.165	-129.573	0.182	-0.025
-396.150	800.000	-0.061	-0.198
-395.136	-102.911	-0.379	-0.091
-394.121	-200.000	-0.356	0.001
-393.106	-18.061	-0.140	-0.089
-392.092	-200.000	-0.087	0.455
-391.077	800.000	-0.072	0.308
-390.063	220.552	-0.080	0.129
-389.048	2.084	0.024	-0.018
-388.033	800.000	-0.039	0.130
-387.019	-162.409	0.388	-0.019
-386.004	-144.889	0.158	-0.015
-384.990	-200.000	-0.024	-0.421
-383.975	218.269	-0.095	-0.152
-382.960	541.170	-0.067	0.162
-381.946	-87.030	0.163	0.050
-380.931	800.000	0.048	-0.154
-379.917	-118.117	0.135	0.024
-378.902	-200.000	-0.031	0.339
-377.888	527.065	-0.170	-0.405
-376.873	-200.000	-0.030	-0.311
-375.858	182.388	0.091	0.136
-374.844	250.672	-0.059	-0.101
-373.829	-117.560	0.031	0.006
-372.815	389.536	0.108	0.225
-371.800	-89.226	0.142	0.042
-370.785	257.200	-0.145	0.251
-369.771	-163.960	-0.486	-0.023
-368.756	47.519	0.126	-0.118
-367.742	325.125	-0.118	0.228
-366.727	-110.865	0.285	0.059
-365.712	-159.014	0.297	0.017
-364.698	800.000	-0.045	0.194
-363.683	214.083	-0.129	0.205
-362.669	30.014	-0.324	0.278
-361.654	257.985	0.107	-0.186
-360.639	2.413	0.313	-0.229
-359.625	-110.036	-0.171	-0.036
-358.610	70.345	0.202	0.210
-357.596	-56.230	0.204	-0.091
-356.581	800.000	0.059	-0.192
-355.566	-200.000	0.041	-0.199
-354.552	-53.577	-0.284	0.131
-353.537	-68.467	-0.327	-0.128
-352.523	-11.270	0.148	0.099
-351.508	-82.317	-0.151	-0.049
-350.493	800.000	-0.024	0.074
-349.479	-110.165	0.142	-0.030
-348.464	-106.891	-0.197	-0.044
-347.450	-46.336	-0.419	0.208
-346.435	800.000	0.039	0.141
-345.420	-22.377	0.051	-0.031
-344.406	-200.000	0.021	0.319
-343.391	-200.000	-0.016	0.274
-342.377	201.738	-0.121	0.188
-341.362	602.042	0.034	0.086
-340.348	255.514	-0.195	-0.338
-339.333	-18.036	-0.135	-0.085
-338.318	120.376	0.096	0.121
-337.304	-17.960	-0.277	0.175
-336.289	800.000	0.040	-0.148
-335.275	-33.854	0.190	-0.105
-334.260	-129.627	0.140	-0.019
-333.245	130.266	-0.167	0.216
-332.231	521.226	0.071	0.168
-331.216	-101.688	0.384	0.094
-330.202	-106.470	0.258	-0.058
-329.187	-148.751	0.617	-0.050
-328.172	-200.000	0.005	-0.206
-327.158	743.797	-0.113	0.307
-326.143	-200.000	-0.039	0.223
-325.129	800.000	0.097	0.386
-324.114	-97.216	-0.296	-0.078
-323.099	800.000	-0.048	-0.152
-322.085	800.000	-0.102	-0.414
-321.070	1.463	0.269	0.195
-320.056	322.010	-0.048	0.092
-319.041	92.802	-0.230	-0.261
-318.026	-200.000	-0.014	0.213
-317.012	479.110	0.101	-0.229
-315.997	-89.809	0.358	-0.105
-314.983	261.594	0.128	-0.223
-313.968	-25.195	0.219	0.130
-312.953	800.000	0.107	0.375
-311.939	-132.026	0.245	0.032
-310.924	-92.535	-0.428	-0.121
-309.910	405.210	-0.091	-0.192
-308.895	-200.000	0.042	-0.267
-307.880	-200.000	0.070	0.592
-306.866	-62.943	0.256	0.107
-305.851	769.816	-0.059	-0.163
-304.837	-200.000	-0.010	0.109
-303.822	-11.526	0.375	0.248
-302.807	-154.528	-0.330	0.022
-301.793	-200.000	-0.029	0.156
-300.778	800.000	0.016	-0.063
-299.764	55.182	0.105	-0.102
-298.749	-200.000	0.009	-0.086
-297.735	-61.045	0.291	0.124
-296.720	-25.355	0.276	-0.164
-295.705	-2.640	0.178	0.126
-294.691	-53.543	-0.149	-0.068
-293.676	119.010	0.201	-0.250
-292.662	646.422	0.174	-0.447
-291.647	800.000	-0.043	0.179
-290.632	32.796	-0.179	0.156
-289.618	372.786	0.060	0.123
-288.603	800.000	-0.148	-0.502
-287.589	800.000	-0.091	-0.266
-286.574	-200.000	-0.017	-0.287
-285.559	-200.000	0.041	-0.193
-284.545	-81.591	-0.286	-0.094
-283.530	800.000	-0.062	-0.175
-282.516	32.158	-0.041	0.036
-281.501	85.099	0.064	-0.071
-280.486	800.000	0.064	0.211
-279.472	-39.100	-0.057	0.030
-278.457	-134.463	0.148	-0.018
-277.443	-200.000	0.007	0.106
-276.428	-21.088	-0.158	-0.097
-275.413	-17.416	-0.200	-0.127
-274.399	-200.000	-0.143	-0.001
-273.384	800.000	-0.028	-0.088
-272.370	136.518	-0.143	0.188
-271.355	-200.000	-0.046	-0.368
-270.340	-126.466	0.124	-0.018
-269.326	35.605	-0.208	0.183
-268.311	-82.787	-0.220	0.072
-267.297	-77.470	0.233	-0.081
-266.282	-70.719	0.147	-0.056
-265.267	-12.599	-0.249	0.163
-264.253	182.131	-0.208	0.307
-263.238	-200.000	0.036	0.472
-262.224	-36.137	0.156	0.085
-261.209	49.792	0.121	-0.115
-260.195	270.228	0.120	-0.213
-259.180	800.000	-0.141	-0.401
-258.165	552.024	0.121	-0.291
-257.151	9.535	0.215	0.163
-256.136	-168.435	-0.121	0.005
-255.122	386.115	0.086	-0.178
-254.107	-77.474	-0.252	0.088
-253.092	-133.422	0.106	-0.013
-252.078	-200.000	-0.025	-0.196
-251.063	-85.501	-0.017	0.005
-250.049	-92.244	-0.100	0.028
-249.034	-82.040	-0.281	0.092
-248.019	156.581	0.156	0.217
-247.005	-188.423	0.132	0.002
-245.990	-200.000	-0.009	0.119
-244.976	18.091	-0.091	0.073
-243.961	200.988	-0.016	-0.025
-242.946	-89.115	0.275	-0.082
-241.932	-200.000	0.023	-0.238
-240.917	-200.000	-0.023	-0.179
-239.903	250.215	-0.125	-0.213
-238.888	37.482	-0.190	-0.169
-237.873	800.000	-0.045	0.159
-236.859	-138.752	-0.209	0.023
-235.844	-139.918	0.040	-0.004
-234.830	193.828	-0.202	0.307
-233.815	-160.160	-0.089	-0.005
-232.800	800.000	-0.058	-0.221
-231.786	-92.233	0.161	-0.046
-230.771	106.533	-0.042	-0.049
-229.757	137.167	0.167	-0.219
-228.742	139.719	-0.230	-0.304
-227.727	546.710	0.077	0.184
-226.713	92.572	-0.149	0.169
-225.698	-200.000	-0.000	-0.009
-224.684	-138.362	-0.338	-0.037
-223.669	33.644	0.135	-0.117
-222.655	308.184	-0.071	-0.133
-221.640	800.000	-0.067	-0.209
-220.625	115.242	-0.092	0.112
-219.611	-30.106	0.355	-0.202
-218.596	204.797	-0.116	0.181
-217.582	-148.768	-0.233	-0.019
-216.567	-103.891	0.184	0.043
-215.552	-22.554	0.155	-0.094
-214.538	387.276	0.059	0.122
-213.523	42.010	-0.054	0.049
-212.509	141.691	0.128	0.170
-211.494	148.361	0.123	0.167
-210.479	-200.000	-0.030	-0.254
-209.465	-74.139	0.447	-0.162
-208.450	-34.524	-0.239	0.131
-207.436	-57.801	-0.084	0.037
-206.421	535.463	-0.132	0.314
-205.406	-200.000	-0.028	-0.312
-204.392	-111.870	-0.077	0.016
-203.377	-154.764	0.265	0.018
-202.363	-200.000	0.006	0.038
-201.348	415.417	-0.045	0.096
-200.333	92.693	0.144	-0.163
-199.319	-61.085	0.013	0.006
-198.304	30.457	-0.102	0.087
-197.290	-200.000	0.062	0.388
-196.275	515.868	0.087	0.203
-195.260	17.079	0.122	0.097
-194.246	55.284	0.105	0.102
-193.231	-16.920	0.090	0.057
-192.217	-200.000	0.002	0.186
-191.202	-62.130	-0.041	-0.017
-190.187	800.000	0.048	-0.153
-189.173	-71.032	-0.148	-0.056
-188.158	-35.873	-0.063	0.034
-187.144	-113.319	-0.222	-0.044
-186.129	70.908	-0.141	0.147
-185.114	-11.028	-0.054	0.036
-184.100	-84.828	0.089	0.028
-183.085	-200.000	0.034	-0.372
-182.071	-162.325	-0.301	0.015
-181.056	-200.000	-0.031	0.273
-180.042	619.495	-0.037	-0.092
-179.027	800.000	0.069	-0.300
-178.012	-200.000	0.033	-0.182
-176.998	99.408	-0.217	-0.252
-175.983	181.940	-0.028	-0.041
-174.969	117.337	-0.207	-0.254
-173.954	28.455	0.114	-0.097
-172.939	370.633	0.108	-0.218
-171.925	-200.000	0.004	0.121
-170.910	302.581	-0.156	-0.288
-169.896	-153.393	0.381	-0.027
-168.881	55.282	-0.206	-0.200
-167.866	-114.895	-0.309	0.059
-166.852	92.840	0.073	-0.082
-165.837	-11.634	0.376	0.247
-164.823	46.753	0.230	0.214
-163.808	-108.660	-0.302	-0.065
-162.793	118.696	-0.103	0.127
-161.779	-200.000	-0.083	0.425
-160.764	-200.000	0.045	0.211
-159.750	-200.000	0.038	-0.255
-158.735	-200.000	-0.003	-0.097
-157.720	175.033	-0.118	-0.171
-156.706	369.900	-0.155	-0.313
-155.691	483.143	-0.096	0.219
-154.677	-100.138	-0.278	-0.069
-153.662	-38.629	-0.178	0.094
-152.647	-31.788	0.112	-0.063
-151.633	41.096	-0.068	0.062
-150.618	-146.528	0.202	-0.018
-149.604	-87.605	0.230	-0.069
-148.589	-200.000	-0.043	0.208
-147.574	181.402	-0.121	0.177
-146.560	800.000	-0.038	-0.133
-145.545	-67.809	-0.070	0.027
-144.531	636.167	-0.088	0.223
-143.516	-153.307	0.170	-0.012
-142.502	-86.216	0.195	0.060
-141.487	-110.375	-0.262	0.054
-140.472	-30.885	0.226	-0.128
-139.458	-49.010	-0.136	-0.065
-138.443	-73.359	-0.186	-0.068
-137.429	145.046	0.048	0.064
-136.414	-158.950	-0.111	0.006
-135.399	-200.000	-0.093	0.475
-134.385	160.788	-0.025	-0.034
-133.370	398.677	-0.116	-0.244
-132.356	-64.258	0.144	0.059
-131.341	-200.000	0.003	-0.118
-130.326	-200.000	-0.002	0.013
-129.312	-200.000	0.027	0.131
-128.297	-200.000	-0.018	0.099
-127.283	800.000	0.088	0.261
-126.268	119.504	0.183	-0.226
-125.253	12.437	0.189	0.145
-124.239	19.361	0.160	0.129
-123.224	-200.000	-0.010	0.074
-122.210	-167.394	-0.098	-0.004
