DTS Sentinel unit serial number:	SN413079Multiplexer serial number:	ORYXHardware model number:	OX4-SRSoftware version number:	ORYX F/W v4.00 Oryx Data Collector v3.7.2.0data status	okinstallation	princeton_trtdifferential loss correction	single-endedforward channel	channel 1reverse channel	N/Adate	2019/09/11time	18:20:11forward acquisition time	60.00reverse acquisition time	0.00gamma	496.2192k internal	0.2290k external	0.2290temperature offset calibration	0.9998default loss term (dB/km)	0.3790temperature slope calibration	1.0000multiplexer offset coefficient	1.0000multiplexer slope coefficient	1.0000fibre end	0.00T internal ref (°C)	44.00T ext. ref 1 (°C)	1.16T ext. ref 2 (°C)	38.95length (m)	temperature (°C)	Stokes	anti-Stokes-747.200	96.998	0.020	0.023
-746.185	-200.000	-0.072	0.415
-745.171	-1.454	-0.095	0.069
-744.156	156.342	0.121	0.172
-743.142	800.000	0.046	-0.157
-742.127	-55.191	-0.330	0.152
-741.112	-86.248	0.245	-0.077
-740.098	-19.500	0.107	0.068
-739.083	120.815	-0.327	0.416
-738.069	-103.259	0.260	0.063
-737.054	74.368	-0.185	0.199
-736.039	-124.382	0.221	0.035
-735.025	154.009	0.223	0.313
-734.010	800.000	0.038	-0.151
-732.996	93.860	-0.127	-0.147
-731.981	27.188	-0.269	-0.231
-730.966	473.484	0.024	0.055
-729.952	464.416	0.087	-0.200
-728.937	-200.000	-0.002	-0.315
-727.923	-200.000	-0.023	-0.267
-726.908	-43.202	0.148	-0.077
-725.894	-200.000	-0.011	-0.282
-724.879	181.197	-0.029	-0.044
-723.864	63.613	-0.241	-0.247
-722.850	241.487	0.112	-0.191
-721.835	2.163	0.095	-0.070
-720.821	800.000	-0.057	-0.179
-719.806	-200.000	-0.013	-0.206
-718.791	186.441	-0.222	-0.338
-717.777	127.744	-0.224	-0.291
-716.762	-33.544	0.140	0.079
-715.748	-103.656	-0.211	0.051
-714.733	585.133	-0.023	-0.057
-713.718	154.354	-0.109	0.153
-712.704	527.420	0.053	-0.127
-711.689	-60.831	0.095	-0.041
-710.675	202.205	-0.071	0.111
-709.660	155.862	-0.339	-0.478
-708.645	311.630	-0.099	0.190
-707.631	275.361	-0.071	0.130
-706.616	188.409	-0.122	0.186
-705.602	66.341	0.192	0.200
-704.587	-125.121	-0.316	0.050
-703.572	403.696	0.083	0.180
-702.558	800.000	0.047	-0.192
-701.543	268.970	-0.106	-0.191
-700.529	4.376	-0.166	0.124
-699.514	33.023	-0.185	0.164
-698.499	-200.000	0.008	0.256
-697.485	159.587	-0.158	-0.224
-696.470	233.003	-0.127	0.213
-695.456	195.323	-0.149	-0.232
-694.441	-64.724	0.290	-0.120
-693.426	-73.220	-0.194	0.073
-692.412	-200.000	-0.044	-0.354
-691.397	87.305	0.152	-0.171
-690.383	-200.000	0.012	0.236
-689.368	0.747	0.085	-0.062
-688.354	57.095	-0.133	-0.133
-687.339	679.719	0.089	0.238
-686.324	82.036	0.323	0.358
-685.310	-166.949	-0.185	0.008
-684.295	35.171	0.142	-0.127
-683.281	194.940	0.226	0.350
-682.266	-200.000	-0.004	0.153
-681.251	192.028	0.101	-0.155
-680.237	-12.629	-0.165	0.110
-679.222	-200.000	-0.025	0.162
-678.208	-110.283	0.075	-0.016
-677.193	185.774	0.049	-0.075
-676.178	-53.010	-0.241	-0.113
-675.164	-111.616	0.063	0.013
-674.149	-200.000	-0.066	0.326
-673.135	-200.000	-0.001	0.088
-672.120	505.334	-0.160	0.379
-671.105	85.053	0.204	0.228
-670.091	-148.944	0.229	-0.019
-669.076	-34.244	-0.162	0.091
-668.062	800.000	0.081	-0.265
-667.047	-200.000	-0.003	-0.103
-666.032	-131.649	-0.258	0.035
-665.018	26.341	0.130	0.111
-664.003	192.165	-0.081	-0.125
-662.989	-200.000	0.027	-0.377
-661.974	-39.338	0.066	0.035
-660.959	-200.000	-0.007	0.263
-659.945	105.562	0.190	0.229
-658.930	246.497	-0.034	0.059
-657.916	166.514	-0.049	-0.071
-656.901	-200.000	0.012	-0.084
-655.886	186.476	0.115	0.175
-654.872	176.428	-0.155	-0.230
-653.857	-107.093	0.332	-0.075
-652.843	-200.000	0.024	0.278
-651.828	49.592	-0.074	0.071
-650.814	-123.725	-0.215	-0.035
-649.799	800.000	0.047	-0.134
-648.784	2.662	0.282	-0.209
-647.770	86.137	-0.352	-0.395
-646.755	800.000	-0.081	-0.346
-645.741	800.000	0.130	0.454
-644.726	-142.499	-0.296	-0.030
-643.711	800.000	0.032	-0.124
-642.697	-69.004	-0.198	-0.078
-641.682	800.000	0.052	-0.232
-640.668	-90.138	-0.057	0.017
-639.653	-56.044	-0.163	-0.074
-638.638	800.000	-0.044	0.173
-637.624	-200.000	0.024	0.206
-636.609	-173.300	0.153	0.005
-635.595	-39.544	0.165	0.088
-634.580	-71.809	-0.237	-0.090
-633.565	-200.000	-0.002	0.007
-632.551	800.000	-0.073	-0.238
-631.536	160.307	-0.168	-0.239
-630.522	9.915	0.079	0.061
-629.507	-110.477	0.196	-0.041
-628.492	208.588	-0.046	0.073
-627.478	-44.913	0.203	0.103
-626.463	338.430	0.156	0.309
-625.449	-104.944	-0.077	0.018
-624.434	-125.645	-0.409	-0.063
-623.419	-0.439	-0.161	-0.117
-622.405	-118.029	-0.114	0.021
-621.390	-200.000	-0.003	0.413
-620.376	591.945	-0.111	-0.278
-619.361	36.206	-0.099	-0.089
-618.346	-166.614	0.308	-0.013
-617.332	34.722	-0.161	0.144
-616.317	-59.512	0.153	0.067
-615.303	800.000	-0.049	0.209
-614.288	-139.178	-0.070	-0.008
-613.273	800.000	-0.142	0.428
-612.259	31.934	-0.239	-0.210
-611.244	-96.108	-0.053	-0.014
-610.230	800.000	-0.020	-0.078
-609.215	543.323	-0.166	0.404
-608.201	158.477	-0.173	0.244
-607.186	-145.261	0.547	0.050
-606.171	30.060	-0.188	-0.164
-605.157	-98.791	0.180	-0.047
-604.142	670.740	0.128	-0.338
-603.128	-200.000	-0.005	-0.107
-602.113	800.000	-0.096	0.271
-601.098	-47.139	0.124	-0.062
-600.084	-183.143	0.025	0.000
-599.069	-48.917	0.209	-0.102
-598.055	-200.000	-0.023	0.196
-597.040	329.658	-0.041	-0.079
-596.025	520.910	0.070	0.167
-595.011	10.119	0.211	-0.163
-593.996	26.907	0.170	-0.145
-592.982	150.344	0.113	0.157
-591.967	38.178	0.283	-0.256
-590.952	-130.506	-0.291	-0.040
-589.938	103.095	-0.139	-0.166
-588.923	-91.610	0.142	0.041
-587.909	-200.000	-0.020	0.163
-586.894	-112.613	-0.254	-0.052
-585.879	800.000	0.052	0.198
-584.865	-200.000	0.091	-0.462
-583.850	-138.792	-0.308	0.034
-582.836	116.079	-0.065	0.082
-581.821	-151.022	-0.337	-0.026
-580.806	-164.570	-0.032	0.001
-579.792	253.804	0.126	-0.219
-578.777	-200.000	-0.007	0.034
-577.763	-59.874	-0.133	0.058
-576.748	-200.000	-0.039	0.332
-575.733	-84.151	-0.227	0.073
-574.719	-200.000	0.144	0.000
-573.704	395.297	-0.021	0.045
-572.690	38.809	-0.135	-0.122
-571.675	-200.000	-0.022	0.170
-570.661	-144.425	0.393	0.037
-569.646	86.102	-0.207	0.232
-568.631	-162.408	0.111	0.006
-567.617	-200.000	0.026	-0.176
-566.602	23.547	-0.111	-0.093
-565.588	-200.000	0.001	-0.268
-564.573	590.031	-0.063	0.159
-563.558	-200.000	0.017	0.174
-562.544	-71.104	-0.168	-0.064
-561.529	-119.169	0.184	-0.033
-560.515	-176.617	0.137	-0.004
-559.500	-200.000	0.024	0.148
-558.485	108.445	0.213	-0.258
-557.471	45.093	-0.093	-0.087
-556.456	800.000	0.088	0.316
-555.442	-46.556	-0.515	-0.257
-554.427	642.285	-0.116	-0.300
-553.412	-48.133	0.177	0.087
-552.398	131.335	-0.172	-0.224
-551.383	-135.120	-0.518	0.063
-550.369	638.977	0.062	-0.160
-549.354	159.144	0.097	-0.138
-548.339	236.827	0.162	-0.273
-547.325	-86.943	0.252	-0.078
-546.310	-25.514	0.174	-0.105
-545.296	121.776	0.131	0.166
-544.281	35.259	0.202	0.180
-543.266	-200.000	0.005	-0.291
-542.252	33.399	-0.135	-0.119
-541.237	-117.607	-0.369	0.068
-540.223	196.355	-0.141	0.219
-539.208	57.821	-0.135	0.134
-538.193	-117.410	-0.201	-0.037
-537.179	43.193	-0.250	0.232
-536.164	-34.392	-0.203	-0.113
-535.150	-25.295	0.036	0.022
-534.135	771.800	0.075	0.207
-533.121	8.122	-0.143	-0.109
-532.106	-96.967	-0.166	-0.044
-531.091	-200.000	-0.017	0.190
-530.077	489.935	0.039	-0.090
-529.062	800.000	0.064	0.200
-528.048	800.000	-0.087	0.288
-527.033	-33.948	0.236	0.132
-526.018	-33.874	-0.133	-0.074
-525.004	148.686	-0.122	-0.168
-523.989	122.837	-0.160	-0.203
-522.975	-18.849	0.100	-0.063
-521.960	-56.767	-0.319	-0.143
-520.945	-1.567	0.306	-0.219
-519.931	295.712	-0.026	-0.048
-518.916	59.760	0.098	-0.099
-517.902	-53.829	-0.262	0.121
-516.887	-200.000	0.020	0.127
-515.872	237.575	-0.102	-0.171
-514.858	-6.438	0.142	-0.098
-513.843	-200.000	-0.032	0.202
-512.829	42.030	0.165	-0.152
-511.814	-200.000	-0.031	-0.167
-510.799	-143.339	0.055	-0.005
-509.785	-17.571	0.087	-0.055
-508.770	-52.896	-0.185	0.086
-507.756	-200.000	-0.030	0.328
-506.741	-182.122	-0.257	0.005
-505.726	-25.545	0.219	0.131
-504.712	217.074	-0.158	-0.255
-503.697	-200.000	-0.002	-0.096
-502.683	166.647	0.150	-0.215
-501.668	-200.000	-0.003	-0.042
-500.653	670.436	-0.033	-0.087
-499.639	-66.705	-0.197	0.079
-498.624	367.567	-0.037	-0.076
-497.610	-50.073	0.242	0.116
-496.595	-200.000	0.010	-0.158
-495.581	28.398	0.095	0.081
-494.566	-101.687	-0.290	0.071
-493.551	29.838	-0.185	0.160
-492.537	691.295	0.037	0.100
-491.522	473.775	-0.045	-0.104
-490.508	74.294	0.105	-0.112
-489.493	-70.432	0.173	0.066
-488.478	246.199	0.063	-0.107
-487.464	-30.559	-0.347	0.199
-486.449	800.000	-0.095	0.270
-485.435	91.681	0.206	-0.235
-484.420	-56.030	-0.255	-0.115
-483.405	215.309	-0.190	-0.306
-482.391	474.940	0.120	-0.275
-481.376	-72.499	-0.435	0.163
-480.362	541.802	0.098	-0.238
-479.347	84.285	-0.064	-0.071
-478.332	-200.000	-0.046	0.265
-477.318	-44.264	0.245	0.125
-476.303	348.735	0.068	0.136
-475.289	-200.000	0.028	0.306
-474.274	108.448	-0.099	0.120
-473.259	-83.622	-0.218	-0.071
-472.245	-169.004	-0.168	-0.006
-471.230	245.880	-0.094	-0.161
-470.216	120.417	0.155	0.195
-469.201	-159.405	-0.343	0.019
-468.186	-82.351	0.187	0.062
-467.172	-200.000	0.023	-0.126
-466.157	-109.593	0.126	-0.027
-465.143	571.649	0.071	0.176
-464.128	144.603	-0.198	-0.268
-463.113	800.000	0.047	-0.136
-462.099	-184.446	0.324	0.005
-461.084	-55.701	0.059	-0.027
-460.070	-115.381	0.178	0.034
-459.055	296.806	0.106	-0.197
-458.040	-147.151	0.343	-0.030
-457.026	-54.773	0.141	0.065
-456.011	-184.913	-0.361	-0.006
-454.997	207.685	0.075	-0.118
-453.982	470.719	-0.109	-0.249
-452.968	-47.229	0.080	0.040
-451.953	-104.065	0.133	-0.031
-450.938	-200.000	-0.002	0.145
-449.924	-93.442	-0.340	0.095
-448.909	-200.000	0.014	-0.370
-447.895	642.079	0.223	0.575
-446.880	-200.000	0.003	0.038
-445.865	-19.246	0.069	0.043
-444.851	-200.000	0.019	-0.200
-443.836	86.453	-0.039	-0.044
-442.822	800.000	0.127	0.411
-441.807	87.228	0.131	0.147
-440.792	-200.000	-0.060	0.343
-439.778	216.271	-0.025	-0.040
-438.763	-22.148	-0.161	0.099
-437.749	352.298	-0.107	-0.215
-436.734	-36.309	-0.167	0.091
-435.719	-20.412	0.165	-0.103
-434.705	-116.683	-0.092	-0.017
-433.690	-8.016	-0.209	-0.143
-432.676	-37.807	-0.186	-0.100
-431.661	-49.459	-0.173	0.084
-430.646	19.593	0.153	-0.124
-429.632	-54.439	0.168	-0.077
-428.617	186.651	0.246	-0.371
-427.603	-11.473	-0.228	0.152
-426.588	-106.188	-0.311	-0.071
-425.573	682.587	-0.032	0.084
-424.559	511.144	-0.041	-0.096
-423.544	739.745	-0.057	-0.156
-422.530	306.813	0.096	-0.181
-421.515	-98.041	0.113	-0.030
-420.500	506.585	0.074	0.175
-419.486	-200.000	0.086	0.000
-418.471	48.106	0.237	0.224
-417.457	-100.274	0.170	-0.043
-416.442	-87.470	0.102	0.031
-415.428	82.137	0.161	-0.176
-414.413	-200.000	0.153	-0.001
-413.398	-122.288	0.120	0.020
-412.384	147.151	-0.034	0.047
-411.369	-112.481	-0.156	0.031
-410.355	107.608	-0.163	0.196
-409.340	-89.642	-0.285	-0.085
-408.325	151.674	-0.057	-0.079
-407.311	-50.321	-0.138	0.066
-406.296	800.000	-0.121	0.394
-405.282	-18.663	-0.116	0.073
-404.267	264.458	-0.153	-0.268
-403.252	-1.001	0.265	-0.190
-402.238	600.090	-0.007	0.018
-401.223	669.759	-0.061	0.159
-400.209	62.842	-0.156	0.158
-399.194	68.898	-0.096	-0.100
-398.179	-34.962	0.084	0.046
-397.165	-29.801	0.209	0.120
-396.150	18.360	-0.290	-0.234
-395.136	-6.635	0.277	0.191
-394.121	87.802	0.235	0.263
-393.106	-89.350	-0.266	-0.079
-392.092	42.825	0.343	-0.316
-391.077	767.178	-0.155	-0.426
-390.063	-194.565	-0.225	-0.002
-389.048	382.073	0.088	0.183
-388.033	256.735	0.043	0.075
-387.019	-121.891	0.409	-0.068
-386.004	-27.349	0.279	-0.164
-384.990	-149.879	-0.267	-0.021
-383.975	-103.242	0.248	0.059
-382.960	87.315	-0.158	0.177
-381.946	-200.000	0.051	0.238
-380.931	-200.000	0.056	0.575
-379.917	-47.896	-0.224	-0.110
-378.902	-153.396	-0.266	-0.019
-377.888	-130.955	-0.219	0.030
-376.873	251.847	-0.038	-0.066
-375.858	-200.000	-0.002	-0.137
-374.844	-200.000	0.021	-0.312
-373.829	104.929	0.042	-0.049
-372.815	-200.000	-0.022	0.143
-371.800	70.530	-0.182	-0.190
-370.785	800.000	-0.168	-0.574
-369.771	-121.723	-0.086	0.014
-368.756	-94.917	0.253	-0.069
-367.742	72.012	0.230	0.242
-366.727	-127.529	-0.053	0.008
-365.712	-0.473	0.063	-0.045
-364.698	-200.000	-0.013	-0.283
-363.683	79.169	0.258	0.279
-362.669	800.000	0.007	-0.024
-361.654	-32.160	-0.085	0.048
-360.639	383.499	0.104	0.217
-359.625	147.524	-0.083	0.112
-358.610	-200.000	-0.011	-0.056
-357.596	-77.080	-0.196	0.069
-356.581	-43.217	-0.204	-0.104
-355.566	258.962	-0.199	0.345
-354.552	-200.000	0.003	-0.033
-353.537	9.138	0.261	0.199
-352.523	-75.936	0.340	0.121
-351.508	159.836	0.159	0.223
-350.493	-143.338	-0.421	0.041
-349.479	-102.416	-0.073	-0.018
-348.464	-99.917	0.252	-0.064
-347.450	-188.789	-0.143	0.002
-346.435	253.018	-0.200	-0.345
-345.420	146.590	-0.083	-0.112
-344.406	-139.608	-0.284	0.031
-343.391	-200.000	0.022	-0.115
-342.377	-141.679	0.148	0.015
-341.362	-103.042	0.246	-0.059
-340.348	800.000	-0.119	-0.335
-339.333	-200.000	0.000	-0.381
-338.318	331.414	0.067	-0.130
-337.304	36.830	0.136	0.121
-336.289	-51.172	0.292	-0.138
-335.275	635.432	-0.043	-0.109
-334.260	41.711	-0.148	0.135
-333.245	-88.505	-0.160	-0.048
-332.231	152.307	0.239	0.329
-331.216	100.023	0.065	-0.076
-330.202	5.989	-0.330	0.247
-329.187	425.591	0.072	0.155
-328.172	-38.446	-0.253	-0.135
-327.158	-87.480	0.233	-0.071
-326.143	-86.348	0.320	0.099
-325.129	782.056	0.066	0.181
-324.114	-171.777	0.274	-0.009
-323.099	800.000	0.158	0.519
-322.085	-200.000	-0.007	0.318
-321.070	-199.594	0.319	-0.002
-320.056	45.916	0.145	0.135
-319.041	77.266	0.101	-0.108
-318.026	-155.091	-0.103	-0.007
-317.012	-64.205	0.118	-0.049
-315.997	99.820	0.068	0.079
-314.983	-49.163	0.311	-0.150
-313.968	-112.642	0.162	0.033
-312.953	48.450	-0.092	0.087
-311.939	800.000	0.079	-0.320
-310.924	-9.530	-0.430	-0.289
-309.910	-200.000	-0.024	-0.139
-308.895	-97.069	-0.172	-0.045
-307.880	84.823	-0.034	-0.037
-306.866	453.241	0.073	0.163
-305.851	-200.000	-0.027	0.263
-304.837	-184.918	-0.502	0.008
-303.822	-29.800	0.294	0.169
-302.807	800.000	-0.059	0.185
-301.793	455.776	0.078	-0.173
-300.778	800.000	-0.021	0.073
-299.764	-200.000	-0.019	0.276
-298.749	-144.631	-0.107	0.010
-297.735	5.287	0.217	-0.161
-296.720	100.645	0.106	-0.124
-295.705	-100.928	-0.022	-0.005
-294.691	-200.000	0.006	0.277
-293.676	-29.876	-0.263	0.151
-292.662	-1.498	0.056	0.040
-291.647	-74.005	0.398	-0.145
-290.632	800.000	-0.067	-0.190
-289.618	11.493	-0.171	0.132
-288.603	-25.914	0.297	-0.176
-287.589	54.262	0.224	-0.217
-286.574	-163.349	0.075	-0.004
-285.559	800.000	-0.080	0.353
-284.545	800.000	-0.035	0.099
-283.530	-142.210	-0.155	0.015
-282.516	800.000	0.054	-0.170
-281.501	594.251	-0.083	-0.205
-280.486	-200.000	-0.054	-0.303
-279.472	-82.177	0.088	-0.029
-278.457	-101.562	-0.071	-0.017
-277.443	-81.068	0.160	-0.053
-276.428	-116.490	-0.253	0.047
-275.413	216.719	-0.126	-0.201
-274.399	-200.000	-0.053	-0.343
-273.384	-200.000	-0.035	0.201
-272.370	-200.000	-0.001	-0.073
-271.355	-200.000	0.013	0.148
-270.340	-4.136	0.232	-0.162
-269.326	-72.034	-0.332	0.124
-268.311	-63.661	0.106	-0.044
-267.297	-69.490	0.268	0.103
-266.282	800.000	0.030	-0.121
-265.267	-200.000	0.011	-0.172
-264.253	-200.000	-0.064	0.299
-263.238	-98.885	0.091	-0.023
-262.224	276.396	-0.154	0.275
-261.209	-200.000	-0.001	0.061
-260.195	117.145	0.113	0.140
-259.180	-53.321	-0.273	0.126
-258.165	-200.000	-0.021	-0.101
-257.151	-200.000	0.034	0.225
-256.136	81.427	-0.253	-0.274
-255.122	-200.000	0.017	0.252
-254.107	26.916	0.122	0.103
-253.092	-200.000	0.039	0.239
-252.078	187.005	-0.082	0.123
-251.063	-136.056	0.369	-0.043
-250.049	-75.029	0.330	0.119
-249.034	800.000	-0.050	-0.172
-248.019	38.816	0.020	-0.018
-247.005	-15.860	-0.091	0.058
-245.990	800.000	0.080	0.261
-244.976	-200.000	0.044	0.200
-243.961	-135.549	-0.331	-0.040
-242.946	-4.141	-0.263	0.183
-241.932	-5.211	-0.102	-0.070
-240.917	-78.658	0.269	-0.092
-239.903	-200.000	0.043	0.247
-238.888	226.255	-0.143	0.233
-237.873	-52.484	-0.122	-0.057
-236.859	800.000	-0.041	0.178
-235.844	800.000	0.055	-0.181
-234.830	-48.711	0.343	0.165
-233.815	-200.000	-0.015	0.072
-232.800	256.695	0.215	0.371
-231.786	-24.357	-0.133	0.080
-230.771	-63.660	0.024	-0.010
-229.757	-183.440	0.402	-0.007
-228.742	346.990	-0.092	-0.181
-227.727	-48.712	-0.264	-0.127
-226.713	27.772	0.168	0.142
-225.698	241.187	-0.089	-0.150
-224.684	188.210	0.111	-0.166
-223.669	-200.000	0.072	0.334
-222.655	-129.482	-0.050	0.007
-221.640	-6.978	0.059	-0.040
-220.625	138.715	0.104	0.137
-219.611	800.000	-0.122	-0.411
-218.596	-72.416	-0.133	0.049
-217.582	-126.793	0.117	0.017
-216.567	-200.000	0.027	0.202
-215.552	-109.518	0.338	-0.072
-214.538	-93.456	0.010	-0.003
-213.523	-200.000	0.265	0.001
-212.509	26.646	0.083	-0.070
-211.494	800.000	0.040	0.156
-210.479	-124.846	0.099	0.015
-209.465	800.000	-0.039	0.143
-208.450	-55.613	-0.150	0.068
-207.436	800.000	-0.008	0.034
-206.421	-82.035	0.192	0.063
-205.406	800.000	0.043	0.131
-204.392	98.460	-0.125	-0.145
-203.377	-51.433	-0.163	-0.076
-202.363	-99.370	-0.514	-0.130
-201.348	800.000	0.055	0.186
-200.333	156.562	0.209	0.289
-199.319	147.378	0.060	-0.081
-198.304	-20.591	0.277	-0.171
-197.290	-200.000	-0.014	-0.180
-196.275	-84.314	0.221	0.070
-195.260	-72.783	-0.244	-0.090
-194.246	-43.415	0.139	-0.070
-193.231	134.813	0.088	-0.115
-192.217	-200.000	-0.031	0.212
-191.202	-57.532	-0.391	0.172
-190.187	-157.110	0.268	0.016
-189.173	60.621	0.127	0.126
-188.158	681.226	0.158	-0.412
-187.144	-93.093	0.449	0.125
-186.129	-200.000	-0.048	-0.361
-185.114	33.079	0.280	0.243
-184.100	-60.516	-0.270	-0.115
-183.085	-103.457	-0.156	-0.037
-182.071	314.862	0.210	-0.396
-181.056	273.180	-0.122	-0.216
-180.042	-76.009	-0.030	0.011
-179.027	-200.000	0.024	-0.105
-178.012	111.625	0.155	0.187
-176.998	78.794	-0.360	-0.386
-175.983	-200.000	-0.014	-0.085
-174.969	145.639	0.091	-0.122
-173.954	9.038	-0.071	0.054
-172.939	234.715	-0.095	0.157
-171.925	-54.242	-0.288	-0.131
-170.910	-146.815	0.218	-0.019
-169.896	405.023	0.108	0.228
-168.881	800.000	-0.055	-0.160
-167.866	107.002	-0.129	-0.153
-166.852	-200.000	0.035	-0.221
-165.837	89.949	0.278	0.311
-164.823	-111.380	0.258	0.053
-163.808	75.276	0.081	0.085
-162.793	-81.015	-0.128	0.042
-161.779	-63.289	0.150	-0.062
-160.764	-35.272	-0.125	0.068
-159.750	94.271	-0.079	-0.090
-158.735	-128.880	0.225	-0.032
-157.720	392.942	0.088	0.183
-156.706	224.521	0.184	-0.298
-155.691	800.000	0.079	0.235
-154.677	620.887	-0.033	0.083
-153.662	-162.906	0.125	0.006
-152.647	-97.541	0.089	-0.023
-151.633	138.768	-0.087	-0.114
-150.618	345.437	0.130	0.256
-149.604	-14.059	-0.359	0.232
-148.589	-116.351	0.197	0.036
-147.574	8.703	-0.182	0.137
-146.560	-77.569	0.043	0.015
-145.545	-200.000	0.005	-0.207
-144.531	-200.000	-0.001	-0.086
-143.516	-3.108	0.125	0.087
-142.502	-16.532	-0.251	-0.159
-141.487	-21.858	0.178	0.108
-140.472	139.706	0.056	0.074
-139.458	99.408	0.229	0.265
-138.443	-8.981	-0.191	0.128
-137.429	-28.133	0.329	-0.190
-136.414	154.490	0.071	0.097
-135.399	-152.587	0.311	-0.022
-134.385	-90.990	-0.067	0.019
-133.370	-33.238	-0.063	-0.035
-132.356	-200.000	0.078	-0.341
-131.341	-200.000	-0.014	-0.158
-130.326	68.160	0.133	-0.136
-129.312	132.098	-0.062	0.080
-128.297	660.325	0.046	0.119
-127.283	-156.780	-0.058	0.004
-126.268	-57.195	-0.202	-0.089
-125.253	-200.000	-0.018	0.122
-124.239	44.934	-0.065	-0.060
-123.224	-179.150	0.240	0.005
-122.210	111.767	-0.172	-0.207
