DTS Sentinel unit serial number:	SN413079Multiplexer serial number:	ORYXHardware model number:	OX4-SRSoftware version number:	ORYX F/W v4.00 Oryx Data Collector v3.7.2.0data status	okinstallation	princeton_trtdifferential loss correction	single-endedforward channel	channel 1reverse channel	N/Adate	2019/09/14time	14:58:36forward acquisition time	60.00reverse acquisition time	0.00gamma	496.2192k internal	0.2294k external	0.2294temperature offset calibration	1.0070default loss term (dB/km)	0.3790temperature slope calibration	1.0000multiplexer offset coefficient	1.0000multiplexer slope coefficient	1.0000fibre end	0.00T internal ref (°C)	39.06T ext. ref 1 (°C)	5.02T ext. ref 2 (°C)	34.66length (m)	temperature (°C)	Stokes	anti-Stokes-747.200	-62.548	0.232	-0.099
-746.185	-200.000	0.021	0.206
-745.171	-164.568	0.247	-0.011
-744.156	-78.062	0.152	0.054
-743.142	338.761	0.026	-0.052
-742.127	288.397	-0.135	0.250
-741.112	-52.624	0.201	-0.095
-740.098	22.727	0.182	0.153
-739.083	0.849	0.213	-0.156
-738.069	-133.144	0.379	-0.049
-737.054	-53.507	-0.196	0.092
-736.039	415.299	-0.019	-0.042
-735.025	-200.000	0.083	0.409
-734.010	-166.448	-0.166	0.007
-732.996	-4.557	-0.096	-0.068
-731.981	207.509	-0.191	0.305
-730.966	-118.342	0.169	-0.031
-729.952	139.261	0.140	-0.189
-728.937	136.429	-0.292	0.389
-727.923	238.439	-0.149	-0.253
-726.908	-119.190	0.360	0.064
-725.894	-200.000	-0.008	0.293
-724.879	22.275	0.150	0.126
-723.864	38.547	-0.197	-0.179
-722.850	118.904	-0.225	0.284
-721.835	-200.000	-0.073	-0.541
-720.821	752.331	-0.034	0.093
-719.806	-123.543	-0.041	-0.007
-718.791	-200.000	0.003	-0.098
-717.777	164.920	-0.169	0.243
-716.762	773.787	-0.058	-0.161
-715.748	587.553	0.156	0.392
-714.733	-115.846	-0.247	-0.047
-713.718	-40.642	0.078	0.041
-712.704	-166.788	-0.190	0.008
-711.689	283.251	-0.152	-0.278
-710.675	-200.000	0.024	0.290
-709.660	-200.000	0.013	0.078
-708.645	332.130	-0.028	-0.055
-707.631	253.897	-0.043	-0.075
-706.616	-79.493	0.187	0.065
-705.602	-200.000	0.019	-0.338
-704.587	-200.000	0.095	0.459
-703.572	224.463	-0.180	-0.297
-702.558	58.483	-0.089	0.089
-701.543	199.708	0.097	-0.153
-700.529	-200.000	-0.106	-0.487
-699.514	-200.000	0.099	-0.445
-698.499	-64.827	0.183	0.075
-697.485	244.680	0.291	0.499
-696.470	-200.000	-0.046	0.213
-695.456	-166.875	0.245	-0.010
-694.441	101.364	-0.135	0.161
-693.426	800.000	0.061	0.197
-692.412	-155.321	0.257	0.017
-691.397	237.357	-0.066	-0.112
-690.383	-95.814	0.414	-0.113
-689.368	800.000	-0.054	0.214
-688.354	-134.921	0.223	0.027
-687.339	400.013	0.063	-0.135
-686.324	187.433	0.057	-0.087
-685.310	185.958	0.128	0.194
-684.295	313.085	-0.156	-0.299
-683.281	-86.268	-0.317	0.099
-682.266	-200.000	0.062	-0.357
-681.251	-46.192	-0.136	-0.068
-680.237	-200.000	-0.040	-0.210
-679.222	-200.000	-0.001	-0.267
-678.208	-79.295	-0.223	-0.077
-677.193	-101.178	0.186	0.046
-676.178	-200.000	-0.019	-0.194
-675.164	129.624	-0.153	-0.200
-674.149	-81.516	0.184	-0.062
-673.135	106.591	-0.056	-0.068
-672.120	207.058	0.182	-0.289
-671.105	800.000	0.037	-0.112
-670.091	302.315	-0.083	0.157
-669.076	-200.000	-0.021	-0.097
-668.062	184.707	-0.192	-0.290
-667.047	601.188	-0.089	-0.225
-666.032	-17.541	0.236	0.152
-665.018	800.000	-0.063	0.211
-664.003	-36.904	0.090	-0.049
-662.989	-46.244	-0.043	-0.021
-661.974	184.501	0.073	-0.110
-660.959	-200.000	0.017	0.302
-659.945	19.644	0.060	-0.050
-658.930	85.232	-0.170	-0.190
-657.916	-51.644	0.175	-0.083
-656.901	-200.000	0.000	0.098
-655.886	17.830	-0.161	-0.131
-654.872	800.000	0.071	0.280
-653.857	50.717	-0.126	0.121
-652.843	-200.000	0.018	0.100
-651.828	82.423	0.234	-0.258
-650.814	-200.000	-0.042	0.257
-649.799	70.366	-0.160	-0.169
-648.784	-28.811	-0.156	0.091
-647.770	-8.112	0.124	-0.085
-646.755	-136.900	0.294	0.034
-645.741	216.371	-0.062	-0.100
-644.726	-149.037	-0.155	-0.013
-643.711	-81.347	0.256	-0.086
-642.697	65.806	0.061	0.063
-641.682	-181.759	-0.098	0.002
-640.668	-65.578	0.114	-0.047
-639.653	475.739	0.059	0.137
-638.638	382.830	-0.156	0.327
-637.624	-86.399	-0.386	0.121
-636.609	-156.549	0.314	0.020
-635.595	-87.812	0.149	-0.046
-634.580	505.540	-0.168	-0.397
-633.565	800.000	-0.032	0.126
-632.551	51.265	0.145	0.140
-631.536	-112.500	0.539	-0.110
-630.522	63.922	0.116	0.118
-629.507	62.102	0.151	0.153
-628.492	132.312	0.062	-0.082
-627.478	198.736	0.122	0.190
-626.463	97.058	0.050	0.058
-625.449	-143.123	0.111	-0.011
-624.434	-10.084	0.097	-0.066
-623.419	0.624	-0.293	-0.213
-622.405	13.984	0.169	0.134
-621.390	-200.000	0.008	-0.334
-620.376	304.435	0.102	-0.193
-619.361	-141.311	-0.547	0.057
-618.346	800.000	-0.058	0.196
-617.332	46.493	0.221	-0.209
-616.317	-135.627	0.184	0.022
-615.303	228.388	0.160	0.264
-614.288	-30.686	-0.215	0.124
-613.273	178.828	-0.047	-0.070
-612.259	800.000	-0.068	-0.296
-611.244	-200.000	-0.003	-0.074
-610.230	-200.000	0.006	-0.144
-609.215	65.857	-0.115	-0.119
-608.201	442.568	-0.034	0.075
-607.186	800.000	0.075	0.239
-606.171	-78.956	0.296	0.102
-605.157	507.155	-0.082	0.193
-604.142	-200.000	-0.009	-0.241
-603.128	-200.000	-0.012	-0.092
-602.113	413.847	-0.167	0.361
-601.098	-200.000	0.005	0.039
-600.084	-58.310	0.251	-0.111
-599.069	181.909	0.118	0.176
-598.055	46.689	0.022	-0.021
-597.040	53.224	-0.285	-0.277
-596.025	-200.000	-0.039	-0.205
-595.011	-108.726	0.243	-0.053
-593.996	-49.566	-0.301	0.146
-592.982	44.976	0.117	-0.110
-591.967	795.411	-0.138	-0.388
-590.952	-200.000	-0.006	0.075
-589.938	-5.054	-0.119	-0.083
-588.923	-97.519	0.265	0.070
-587.909	-12.001	0.043	0.028
-586.894	-200.000	0.004	0.029
-585.879	-30.207	-0.068	0.039
-584.865	178.275	-0.160	0.237
-583.850	-200.000	-0.021	0.220
-582.836	76.284	0.204	0.219
-581.821	-200.000	0.006	0.031
-580.806	-200.000	-0.071	-0.000
-579.792	800.000	-0.073	0.214
-578.777	89.996	0.039	0.044
-577.763	130.025	0.058	-0.076
-576.748	-200.000	-0.012	-0.343
-575.733	132.677	-0.059	-0.077
-574.719	-200.000	0.079	0.500
-573.704	10.985	0.309	0.240
-572.690	246.501	-0.219	-0.375
-571.675	47.402	0.176	-0.166
-570.661	800.000	0.092	-0.283
-569.646	194.725	-0.149	-0.230
-568.631	316.797	0.047	0.090
-567.617	-131.053	-0.075	0.010
-566.602	278.457	0.132	-0.239
-565.588	-99.265	-0.174	-0.045
-564.573	-33.110	0.042	-0.024
-563.558	448.146	0.180	-0.402
-562.544	235.218	-0.142	0.237
-561.529	-59.993	-0.109	-0.047
-560.515	-133.259	0.288	0.037
-559.500	-11.681	-0.104	-0.070
-558.485	-118.875	-0.192	-0.034
-557.471	-92.525	0.084	-0.024
-556.456	282.822	-0.188	-0.343
-555.442	-52.230	-0.129	-0.061
-554.427	-111.323	-0.246	0.051
-553.412	-32.442	0.147	0.083
-552.398	-124.744	-0.124	0.019
-551.383	-137.931	-0.404	-0.046
-550.369	-80.420	-0.173	0.059
-549.354	140.434	-0.040	-0.054
-548.339	-200.000	0.022	-0.112
-547.325	142.508	-0.141	0.189
-546.310	157.826	0.031	-0.044
-545.296	-100.623	0.175	0.044
-544.281	800.000	-0.068	0.216
-543.266	800.000	-0.042	0.170
-542.252	-121.751	0.412	0.069
-541.237	279.408	-0.092	0.166
-540.223	12.268	0.223	0.174
-539.208	800.000	-0.017	-0.065
-538.193	27.638	0.121	-0.104
-537.179	207.424	-0.083	-0.131
-536.164	-48.249	0.332	0.162
-535.150	250.231	-0.117	0.201
-534.135	-43.194	-0.154	-0.079
-533.121	-109.226	0.062	-0.013
-532.106	-200.000	-0.012	0.088
-531.091	800.000	0.072	-0.271
-530.077	800.000	0.083	-0.344
-529.062	-200.000	-0.020	-0.361
-528.048	-128.755	-0.310	-0.044
-527.033	-55.343	-0.283	-0.129
-526.018	46.221	0.249	-0.234
-525.004	268.342	0.228	-0.405
-523.989	-200.000	-0.083	-0.000
-522.975	-79.329	0.349	0.120
-521.960	53.530	-0.183	-0.178
-520.945	-0.735	0.115	-0.083
-519.931	520.861	-0.109	0.258
-518.916	234.165	-0.036	-0.061
-517.902	-99.057	0.176	0.045
-516.887	-200.000	0.098	-0.451
-515.872	-26.810	0.171	0.102
-514.858	79.531	-0.084	-0.092
-513.843	-35.903	-0.265	0.146
-512.829	-53.831	-0.040	-0.018
-511.814	-171.552	-0.212	-0.007
-510.799	46.416	-0.127	-0.119
-509.785	-200.000	-0.222	-0.001
-508.770	218.270	-0.176	-0.285
-507.756	589.612	-0.173	-0.432
-506.741	-200.000	-0.001	-0.154
-505.726	36.866	0.187	-0.168
-504.712	-200.000	0.043	-0.258
-503.697	-200.000	-0.032	-0.160
-502.683	-154.677	0.103	0.007
-501.668	-26.892	0.291	-0.172
-500.653	-48.907	-0.180	0.088
-499.639	800.000	0.105	-0.317
-498.624	-200.000	0.030	-0.278
-497.610	800.000	-0.084	0.235
-496.595	164.074	-0.139	0.198
-495.581	273.648	0.140	-0.251
-494.566	-89.982	-0.054	0.016
-493.551	-135.839	-0.251	-0.030
-492.537	800.000	-0.054	-0.226
-491.522	728.917	0.053	-0.142
-490.508	-96.852	0.193	0.051
-489.493	-200.000	-0.044	0.409
-488.478	-93.390	-0.059	0.016
-487.464	-37.692	0.276	-0.149
-486.449	188.028	-0.145	-0.219
-485.435	490.802	-0.085	0.198
-484.420	-59.932	0.159	-0.069
-483.405	-56.790	0.158	-0.071
-482.391	18.876	-0.157	-0.127
-481.376	-12.617	-0.397	0.262
-480.362	-54.804	-0.254	-0.116
-479.347	-96.677	0.077	0.021
-478.332	-75.391	-0.147	-0.053
-477.318	800.000	-0.067	0.297
-476.303	770.474	0.090	-0.247
-475.289	88.346	0.139	-0.156
-474.274	612.154	0.116	0.295
-473.259	190.615	-0.190	0.289
-472.245	546.976	-0.023	0.056
-471.230	349.625	-0.041	-0.081
-470.216	800.000	-0.073	-0.249
-469.201	-200.000	-0.015	-0.244
-468.186	-200.000	-0.016	-0.275
-467.172	-110.948	0.435	0.091
-466.157	15.784	0.269	0.214
-465.143	113.154	-0.207	0.254
-464.128	-200.000	-0.000	0.162
-463.113	351.530	0.072	0.144
-462.099	-89.228	0.501	-0.149
-461.084	-107.447	-0.252	-0.056
-460.070	5.044	-0.226	0.168
-459.055	-70.347	-0.477	0.183
-458.040	102.010	-0.176	0.208
-457.026	166.969	-0.144	-0.207
-456.011	-179.416	-0.172	0.004
-454.997	10.005	-0.141	0.108
-453.982	-89.478	0.266	-0.079
-452.968	-98.570	-0.261	0.067
-451.953	-164.805	0.205	0.009
-450.938	-4.885	-0.188	0.131
-449.924	123.451	-0.128	0.162
-448.909	370.661	-0.086	-0.176
-447.895	138.742	0.099	-0.131
-446.880	629.864	0.039	0.098
-445.865	-103.555	0.230	-0.055
-444.851	-138.790	0.070	-0.008
-443.836	-200.000	-0.020	0.137
-442.822	800.000	-0.113	0.334
-441.807	-114.641	0.321	-0.062
-440.792	800.000	0.048	0.199
-439.778	129.169	0.159	0.205
-438.763	-51.141	-0.216	-0.102
-437.749	-34.434	-0.142	0.079
-436.734	-200.000	0.024	0.313
-435.719	-200.000	-0.024	0.160
-434.705	800.000	-0.098	-0.276
-433.690	122.865	-0.163	0.206
-432.676	49.931	0.165	-0.157
-431.661	-85.780	-0.057	-0.018
-430.646	-21.141	-0.163	-0.101
-429.632	-200.000	-0.007	0.065
-428.617	800.000	-0.022	0.078
-427.603	69.951	0.213	0.222
-426.588	558.424	-0.174	-0.424
-425.573	-50.819	0.101	0.048
-424.559	-5.975	0.334	0.231
-423.544	800.000	0.069	-0.226
-422.530	800.000	0.019	0.068
-421.515	-57.843	0.169	-0.075
-420.500	-127.414	-0.211	-0.031
-419.486	522.643	0.037	0.087
-418.471	-200.000	-0.013	0.151
-417.457	173.023	-0.185	0.269
-416.442	7.092	0.143	0.108
-415.428	163.816	-0.090	-0.128
-414.413	308.986	-0.042	-0.080
-413.398	151.471	-0.276	-0.379
-412.384	33.457	-0.252	0.221
-411.369	-75.338	-0.517	0.186
-410.355	-200.000	0.043	0.319
-409.340	-200.000	-0.058	0.293
-408.325	-30.776	-0.175	-0.100
-407.311	-46.376	0.394	-0.196
-406.296	-200.000	0.037	-0.306
-405.282	62.450	-0.268	-0.271
-404.267	-200.000	0.047	-0.250
-403.252	-200.000	-0.085	0.471
-402.238	103.910	0.143	0.170
-401.223	-10.125	0.096	-0.064
-400.209	-1.778	-0.192	-0.136
-399.194	-103.041	-0.153	0.036
-398.179	-116.674	0.292	-0.054
-397.165	-200.000	0.397	0.001
-396.150	425.927	0.028	0.060
-395.136	42.985	0.173	-0.159
-394.121	222.529	-0.149	-0.242
-393.106	-200.000	0.045	-0.386
-392.092	-18.440	0.164	-0.103
-391.077	560.063	0.045	0.109
-390.063	780.214	0.086	0.238
-389.048	800.000	-0.023	0.102
-388.033	-105.118	0.167	0.039
-387.019	-105.252	0.265	-0.061
-386.004	596.277	0.040	0.100
-384.990	-200.000	-0.004	-0.171
-383.975	-200.000	-0.009	-0.127
-382.960	-118.941	-0.234	0.041
-381.946	800.000	-0.040	0.163
-380.931	-82.920	-0.188	0.061
-379.917	-200.000	0.020	0.132
-378.902	295.068	-0.047	0.087
-377.888	342.979	0.108	0.212
-376.873	216.044	0.033	-0.053
-375.858	306.400	0.091	0.170
-374.844	800.000	0.055	-0.203
-373.829	175.561	-0.141	-0.207
-372.815	-3.543	0.247	0.173
-371.800	-58.550	0.245	0.107
-370.785	-107.819	-0.368	-0.081
-369.771	800.000	0.052	-0.227
-368.756	526.849	0.051	0.120
-367.742	-200.000	-0.049	-0.444
-366.727	-200.000	0.011	-0.152
-365.712	-122.271	-0.363	0.060
-364.698	800.000	0.015	0.053
-363.683	-153.812	0.165	0.011
-362.669	-124.125	0.204	0.032
-361.654	365.297	-0.139	0.282
-360.639	-120.613	-0.335	-0.057
-359.625	-200.000	0.054	0.279
-358.610	-91.768	0.117	-0.034
-357.596	31.951	0.180	-0.156
-356.581	123.409	-0.155	0.196
-355.566	1.250	-0.057	-0.041
-354.552	722.656	-0.156	-0.420
-353.537	12.905	-0.111	-0.087
-352.523	-40.610	-0.079	-0.041
-351.508	-155.208	-0.068	-0.004
-350.493	-122.702	-0.513	-0.084
-349.479	-110.393	0.104	0.022
-348.464	16.777	0.257	-0.205
-347.450	-84.703	-0.015	0.005
-346.435	-186.687	0.254	-0.004
-345.420	72.793	-0.126	-0.132
-344.406	-5.568	0.178	-0.123
-343.391	-77.772	0.120	0.042
-342.377	27.388	0.077	-0.066
-341.362	-125.243	0.312	-0.048
-340.348	192.599	-0.107	0.162
-339.333	490.194	0.098	0.226
-338.318	800.000	0.053	0.225
-337.304	2.473	0.199	-0.145
-336.289	63.486	0.035	0.036
-335.275	380.625	0.171	-0.354
-334.260	-124.328	0.073	0.011
-333.245	482.729	-0.067	0.153
-332.231	396.281	-0.020	0.042
-331.216	233.379	-0.180	-0.297
-330.202	800.000	-0.123	0.346
-329.187	-115.026	0.182	-0.035
-328.172	151.190	0.013	0.018
-327.158	5.806	0.188	-0.140
-326.143	69.930	0.093	-0.097
-325.129	-93.879	0.103	-0.028
-324.114	-17.897	0.285	0.180
-323.099	-69.982	-0.099	0.038
-322.085	184.346	0.124	-0.184
-321.070	88.675	0.088	-0.098
-320.056	-200.000	0.017	-0.143
-319.041	-3.373	0.333	0.233
-318.026	-58.193	0.132	-0.058
-317.012	-24.995	0.306	-0.182
-315.997	159.730	-0.108	-0.151
-314.983	-173.222	0.270	0.008
-313.968	139.402	0.211	-0.279
-312.953	-200.000	0.450	0.002
-311.939	800.000	0.052	-0.164
-310.924	-122.186	0.120	-0.020
-309.910	-52.546	0.115	0.054
-308.895	-200.000	0.115	-0.516
-307.880	800.000	-0.052	0.179
-306.866	305.300	-0.083	0.155
-305.851	-114.996	-0.169	-0.032
-304.837	625.803	-0.119	0.302
-303.822	-107.367	-0.179	0.039
-302.807	679.941	-0.119	-0.312
-301.793	281.900	-0.046	0.083
-300.778	-84.232	-0.269	-0.086
-299.764	6.855	-0.121	0.091
-298.749	88.776	0.277	0.309
-297.735	-200.000	0.004	0.051
-296.720	800.000	-0.061	0.267
-295.705	-200.000	-0.013	-0.062
-294.691	-24.180	-0.125	-0.075
-293.676	57.685	-0.194	0.191
-292.662	132.132	-0.188	-0.243
-291.647	19.776	-0.331	-0.268
-290.632	-53.212	-0.344	0.159
-289.618	113.807	-0.205	-0.250
-288.603	46.991	0.236	-0.220
-287.589	-13.603	0.073	0.047
-286.574	186.342	-0.137	0.204
-285.559	-200.000	-0.092	0.471
-284.545	-128.684	-0.197	-0.028
-283.530	28.390	0.148	0.126
-282.516	-56.043	-0.126	0.056
-281.501	-200.000	-0.029	0.167
-280.486	-45.024	0.076	-0.038
-279.472	-122.985	0.242	0.039
-278.457	-128.391	-0.106	0.015
-277.443	800.000	0.112	0.384
-276.428	65.009	0.297	0.302
-275.413	383.857	-0.083	0.171
-274.399	-2.452	-0.254	0.179
-273.384	-24.045	0.162	-0.097
-272.370	17.977	0.159	0.127
-271.355	800.000	0.048	-0.175
-270.340	-200.000	0.008	0.114
-269.326	392.380	-0.093	0.194
-268.311	800.000	0.052	-0.173
-267.297	215.386	0.079	-0.125
-266.282	-200.000	0.063	-0.000
-265.267	172.084	0.208	0.300
-264.253	-46.773	0.198	0.097
-263.238	-106.114	-0.105	0.024
-262.224	13.780	-0.145	0.113
-261.209	772.038	0.082	0.223
-260.195	-200.000	-0.047	-0.371
-259.180	-13.430	0.118	-0.077
-258.165	147.115	-0.228	-0.308
-257.151	18.629	-0.175	-0.140
-256.136	-111.648	0.285	0.058
-255.122	-200.000	0.043	0.434
-254.107	800.000	0.071	-0.235
-253.092	-88.562	-0.281	0.084
-252.078	-101.052	0.283	-0.070
-251.063	-181.287	-0.223	0.004
-250.049	748.618	0.019	0.052
-249.034	40.824	0.030	-0.027
-248.019	147.655	-0.180	-0.243
-247.005	-125.952	-0.152	-0.023
-245.990	17.403	0.126	0.100
-244.976	435.828	-0.109	0.237
-243.961	113.787	-0.124	-0.152
-242.946	319.815	-0.139	-0.265
-241.932	800.000	0.022	0.095
-240.917	-200.000	0.055	-0.342
-239.903	-200.000	0.014	-0.170
-238.888	800.000	0.077	-0.304
-237.873	565.061	0.138	-0.336
-236.859	5.810	0.113	-0.084
-235.844	482.724	0.083	-0.189
-234.830	-75.531	-0.208	-0.074
-233.815	136.371	-0.085	0.111
-232.800	492.019	0.083	0.190
-231.786	67.395	-0.106	-0.108
-230.771	-200.000	0.121	0.616
-229.757	-138.082	-0.217	0.024
-228.742	100.474	-0.058	-0.067
-227.727	100.556	-0.137	-0.160
-226.713	-143.046	0.157	-0.015
-225.698	800.000	-0.044	0.148
-224.684	55.942	-0.205	-0.199
-223.669	38.290	-0.113	0.101
-222.655	364.402	0.050	-0.101
-221.640	-23.751	-0.091	-0.054
-220.625	559.394	-0.052	0.126
-219.611	-200.000	0.036	0.328
-218.596	645.993	-0.094	0.241
-217.582	113.472	0.069	0.084
-216.567	-200.000	0.055	-0.285
-215.552	442.730	-0.132	0.290
-214.538	-200.000	0.021	0.223
-213.523	-200.000	0.056	0.384
-212.509	24.010	-0.228	0.189
-211.494	-199.189	-0.030	-0.000
-210.479	800.000	0.051	-0.148
-209.465	-121.071	0.138	0.023
-208.450	298.417	0.032	-0.060
-207.436	100.762	-0.077	0.090
-206.421	711.632	0.057	0.151
-205.406	-120.865	-0.242	0.041
-204.392	-17.138	-0.213	0.135
-203.377	153.587	0.261	-0.357
-202.363	-200.000	0.025	0.191
-201.348	-200.000	-0.029	-0.181
-200.333	-104.367	0.422	0.098
-199.319	158.722	-0.033	-0.046
-198.304	7.291	0.391	0.292
-197.290	39.970	-0.154	0.139
-196.275	94.190	-0.109	0.124
-195.260	-87.099	0.247	-0.075
-194.246	161.042	-0.103	0.144
-193.231	-200.000	-0.005	0.112
-192.217	-2.732	0.166	0.116
-191.202	-112.622	0.200	0.040
-190.187	800.000	0.068	-0.189
-189.173	247.161	-0.076	0.128
-188.158	139.505	0.082	0.107
-187.144	84.475	-0.185	0.203
-186.129	601.721	0.190	0.472
-185.114	800.000	-0.029	0.103
-184.100	9.373	-0.091	-0.069
-183.085	-177.053	0.142	0.004
-182.071	-200.000	0.024	0.278
-181.056	329.362	-0.108	-0.208
-180.042	778.841	-0.089	-0.243
-179.027	-64.698	-0.271	-0.110
-178.012	-14.966	-0.085	-0.055
-176.998	62.878	-0.198	-0.199
-175.983	-88.250	0.134	0.040
-174.969	-11.540	0.409	0.269
-173.954	-200.000	0.037	0.423
-172.939	175.220	-0.168	0.243
-171.925	-62.137	0.170	-0.071
-170.910	190.594	0.026	0.038
-169.896	-14.519	-0.098	-0.063
-168.881	37.623	-0.078	0.069
-167.866	-70.085	0.172	0.065
-166.852	-25.181	-0.295	-0.175
-165.837	-51.540	-0.327	-0.153
-164.823	183.652	0.141	0.208
-163.808	-200.000	-0.002	-0.101
-162.793	-117.295	-0.085	0.015
-161.779	-85.273	-0.160	0.050
-160.764	800.000	0.122	-0.429
-159.750	77.695	-0.183	-0.195
-158.735	152.579	-0.181	0.247
-157.720	-69.729	-0.194	-0.074
-156.706	-200.000	0.005	0.204
-155.691	-56.513	0.250	-0.111
-154.677	-172.537	0.264	-0.008
-153.662	-200.000	-0.021	0.167
-152.647	135.671	-0.180	0.234
-151.633	800.000	0.044	0.174
-150.618	800.000	0.052	-0.226
-149.604	55.071	-0.118	-0.113
-148.589	-200.000	0.074	-0.404
-147.574	-34.233	0.133	0.073
-146.560	-200.000	0.063	-0.508
-145.545	-20.940	-0.262	0.160
-144.531	125.007	-0.262	0.330
-143.516	183.943	-0.032	-0.047
-142.502	-200.000	-0.038	0.171
-141.487	35.643	0.221	0.194
-140.472	-93.333	0.262	0.073
-139.458	-105.050	0.352	-0.080
-138.443	165.992	0.139	-0.197
-137.429	800.000	0.035	-0.106
-136.414	124.599	0.158	-0.198
-135.399	25.963	-0.189	0.158
-134.385	185.399	0.128	-0.190
-133.370	261.146	0.109	-0.188
-132.356	-102.063	0.399	0.096
-131.341	-169.999	-0.020	0.001
-130.326	-158.075	-0.192	0.011
-129.312	-200.000	-0.003	-0.115
-128.297	-146.096	-0.241	-0.021
-127.283	490.169	0.043	-0.097
-126.268	-58.610	-0.090	0.039
-125.253	0.868	-0.084	-0.060
-124.239	446.005	-0.074	0.162
-123.224	-86.381	-0.120	-0.037
-122.210	-97.325	-0.109	-0.028
