DTS Sentinel unit serial number:	SN413079Multiplexer serial number:	ORYXHardware model number:	OX4-SRSoftware version number:	ORYX F/W v4.00 Oryx Data Collector v3.7.2.0data status	okinstallation	princeton_trtdifferential loss correction	single-endedforward channel	channel 1reverse channel	N/Adate	2019/09/12time	19:13:34forward acquisition time	15.00reverse acquisition time	0.00gamma	496.2192k internal	0.2320k external	0.2320temperature offset calibration	1.0126default loss term (dB/km)	0.3790temperature slope calibration	1.0000multiplexer offset coefficient	1.0000multiplexer slope coefficient	1.0000fibre end	0.00T internal ref (°C)	32.56T ext. ref 1 (°C)	3.24T ext. ref 2 (°C)	27.10length (m)	temperature (°C)	Stokes	anti-Stokes-747.200	-132.330	-0.577	-0.075
-746.185	103.419	0.112	-0.133
-745.171	-108.280	-0.519	-0.113
-744.156	-164.308	-0.826	0.038
-743.142	-200.000	-0.564	0.003
-742.127	-200.000	0.153	1.021
-741.112	-9.207	0.378	0.256
-740.098	-87.876	-0.132	-0.040
-739.083	800.000	-0.225	-0.881
-738.069	-200.000	-0.067	-0.738
-737.054	-200.000	0.008	-0.289
-736.039	213.998	-0.669	-1.069
-735.025	23.013	0.360	0.298
-734.010	-200.000	0.099	1.032
-732.996	-3.646	-0.268	-0.189
-731.981	800.000	-0.116	0.432
-730.966	531.970	0.287	0.686
-729.952	211.542	0.349	0.555
-728.937	-36.041	-0.713	0.389
-727.923	-40.447	0.910	-0.478
-726.908	250.066	-0.771	-1.322
-725.894	147.154	0.593	-0.806
-724.879	-20.712	0.619	0.384
-723.864	116.809	0.213	0.264
-722.850	-116.572	-0.146	-0.027
-721.835	800.000	-0.258	-0.898
-720.821	603.351	0.078	0.197
-719.806	17.318	-0.354	-0.284
-718.791	288.617	-0.394	0.720
-717.777	141.011	0.114	0.153
-716.762	-12.530	0.340	-0.224
-715.748	70.275	-0.252	-0.263
-714.733	246.732	0.267	-0.455
-713.718	-98.575	0.552	0.142
-712.704	118.511	0.165	-0.205
-711.689	-116.388	-0.602	-0.112
-710.675	-104.921	0.350	-0.081
-709.660	196.654	0.636	-0.978
-708.645	-200.000	-0.019	-0.307
-707.631	-200.000	-0.018	0.189
-706.616	-200.000	0.037	0.376
-705.602	-62.097	0.286	0.120
-704.587	800.000	0.032	-0.136
-703.572	-117.270	0.872	-0.160
-702.558	-90.846	-0.887	-0.258
-701.543	800.000	-0.216	0.705
-700.529	17.255	-0.478	0.383
-699.514	279.257	0.135	-0.242
-698.499	-200.000	-0.001	-0.188
-697.485	236.087	0.114	-0.190
-696.470	12.270	0.187	-0.146
-695.456	8.645	0.291	0.221
-694.441	-138.772	0.340	0.037
-693.426	15.057	-0.326	-0.258
-692.412	221.184	-0.226	0.366
-691.397	-91.764	-0.965	-0.277
-690.383	-108.126	0.422	-0.092
-689.368	-39.502	-0.868	-0.459
-688.354	-109.567	-0.604	-0.129
-687.339	-106.484	0.665	0.150
-686.324	800.000	0.174	0.619
-685.310	61.055	-0.676	0.677
-684.295	8.146	0.430	-0.326
-683.281	-45.263	-0.607	0.304
-682.266	-56.890	0.651	0.290
-681.251	386.511	0.157	0.328
-680.237	-200.000	-0.017	-0.199
-679.222	-200.000	0.112	-0.732
-678.208	-55.458	1.105	-0.500
-677.193	508.051	-0.278	-0.651
-676.178	800.000	0.194	-0.560
-675.164	-109.390	1.010	0.216
-674.149	-16.798	-0.610	-0.389
-673.135	-183.990	1.201	-0.020
-672.120	-77.797	0.407	0.142
-671.105	269.140	0.083	0.148
-670.091	-62.408	0.440	-0.184
-669.076	-200.000	0.004	0.411
-668.062	-4.460	-0.226	-0.158
-667.047	800.000	-0.141	-0.474
-666.032	-200.000	0.132	0.760
-665.018	94.923	0.354	-0.406
-664.003	-76.540	0.038	0.014
-662.989	-90.376	-0.615	0.180
-661.974	-200.000	-0.035	-0.249
-660.959	48.342	-0.282	-0.266
-659.945	-200.000	-0.138	-0.762
-658.930	-23.399	0.297	0.180
-657.916	800.000	0.182	-0.707
-656.901	-107.169	-0.690	0.153
-655.886	551.967	0.028	-0.067
-654.872	342.081	-0.358	0.706
-653.857	-138.432	0.584	-0.065
-652.843	-200.000	-0.004	-0.032
-651.828	608.692	0.095	0.240
-650.814	800.000	-0.167	-0.621
-649.799	28.920	0.053	-0.045
-648.784	-200.000	-0.097	0.739
-647.770	-155.701	0.177	-0.011
-646.755	-77.264	-0.343	0.120
-645.741	167.751	0.729	-1.044
-644.726	-140.405	-0.985	0.103
-643.711	121.868	0.345	-0.434
-642.697	607.594	0.263	-0.662
-641.682	10.089	1.196	-0.915
-640.668	493.665	0.350	-0.808
-639.653	184.434	-0.400	-0.596
-638.638	800.000	-0.121	0.470
-637.624	-200.000	0.027	-0.472
-636.609	96.190	0.300	-0.346
-635.595	13.000	-0.389	0.303
-634.580	135.738	-0.301	0.394
-633.565	-200.000	-0.005	0.105
-632.551	74.082	0.255	-0.270
-631.536	706.425	0.125	-0.333
-630.522	-200.000	-0.002	-0.083
-629.507	-131.514	-0.721	-0.096
-628.492	225.960	0.056	0.091
-627.478	104.857	0.329	0.390
-626.463	-100.868	0.398	0.099
-625.449	604.979	0.177	0.443
-624.434	125.618	-0.363	-0.462
-623.419	406.427	0.259	-0.549
-622.405	245.207	-0.219	0.371
-621.390	-200.000	-0.084	-0.893
-620.376	151.256	-0.415	0.568
-619.361	106.040	-0.798	-0.950
-618.346	-137.040	0.624	-0.072
-617.332	800.000	0.048	-0.211
-616.317	121.525	-0.440	-0.552
-615.303	-178.969	-0.665	-0.015
-614.288	-43.904	-0.481	-0.243
-613.273	-200.000	-0.155	1.089
-612.259	-72.775	0.602	0.223
-611.244	800.000	-0.133	0.493
-610.230	49.211	-0.540	-0.511
-609.215	-200.000	-0.100	-0.492
-608.201	75.010	-0.399	-0.423
-607.186	800.000	-0.030	-0.106
-606.171	232.280	0.225	-0.371
-605.157	5.879	-0.269	-0.200
-604.142	-200.000	0.026	-0.517
-603.128	-141.406	-0.289	-0.029
-602.113	-82.662	0.472	0.154
-601.098	-182.558	0.612	0.011
-600.084	-200.000	0.061	-0.430
-599.069	-10.820	-0.771	0.512
-598.055	800.000	0.172	-0.569
-597.040	-76.998	-0.558	-0.196
-596.025	142.576	-0.143	0.191
-595.011	129.316	0.659	-0.846
-593.996	114.538	-0.289	0.354
-592.982	-103.765	-0.385	-0.090
-591.967	43.333	-0.503	-0.462
-590.952	258.569	-0.431	0.746
-589.938	487.555	0.267	0.612
-588.923	558.807	-0.069	0.168
-587.909	-106.115	-1.016	-0.229
-586.894	67.973	-0.802	-0.824
-585.879	585.578	0.462	1.141
-584.865	-200.000	0.022	-0.176
-583.850	-173.507	-0.178	0.005
-582.836	-200.000	0.037	-0.425
-581.821	800.000	0.161	0.469
-580.806	800.000	-0.303	-0.875
-579.792	51.575	-0.196	-0.188
-578.777	-145.365	-0.603	-0.055
-577.763	-114.630	0.841	0.162
-576.748	564.596	0.214	0.521
-575.733	487.873	-0.273	0.627
-574.719	-88.096	0.753	-0.227
-573.704	217.118	-0.246	-0.393
-572.690	37.026	0.334	-0.297
-571.675	-200.000	-0.188	0.994
-570.661	-113.386	0.122	-0.024
-569.646	-15.661	-0.234	0.150
-568.631	-200.000	0.040	-0.394
-567.617	29.277	-0.463	0.395
-566.602	-147.030	-0.617	-0.053
-565.588	-200.000	0.067	0.798
-564.573	232.904	-0.092	0.152
-563.558	-75.192	0.274	0.098
-562.544	-82.435	0.751	-0.245
-561.529	800.000	-0.080	-0.346
-560.515	800.000	0.165	0.534
-559.500	800.000	-0.058	0.195
-558.485	-116.513	-0.643	0.119
-557.471	169.769	0.392	-0.562
-556.456	723.227	-0.129	-0.344
-555.442	239.273	-0.378	-0.631
-554.427	-15.942	-0.600	-0.383
-553.412	92.218	0.746	-0.844
-552.398	-86.755	0.288	-0.088
-551.383	-74.982	0.340	0.122
-550.369	287.804	-0.399	0.725
-549.354	-105.495	-0.821	-0.187
-548.339	-200.000	0.081	-0.774
-547.325	800.000	0.160	0.471
-546.310	800.000	0.214	-0.644
-545.296	56.800	0.329	-0.322
-544.281	-200.000	-0.202	0.920
-543.266	-200.000	0.018	0.392
-542.252	-133.201	0.232	0.029
-541.237	-184.253	0.851	0.014
-540.223	100.675	-0.334	-0.389
-539.208	800.000	-0.147	-0.471
-538.193	140.222	0.118	0.156
-537.179	127.316	-0.524	-0.667
-536.164	-49.867	-0.393	-0.187
-535.150	234.847	-0.258	-0.427
-534.135	231.888	0.184	-0.302
-533.121	800.000	-0.438	-1.255
-532.106	-200.000	-0.010	0.830
-531.091	26.456	0.621	0.521
-530.077	70.339	-0.495	-0.513
-529.062	498.049	-0.165	0.382
-528.048	259.193	-0.268	-0.463
-527.033	45.878	0.451	0.418
-526.018	412.505	0.262	-0.558
-525.004	-109.925	0.943	-0.198
-523.989	-122.189	0.262	0.043
-522.975	-25.498	-0.559	0.331
-521.960	-32.222	0.499	0.279
-520.945	-12.724	-0.753	0.492
-519.931	-200.000	0.062	0.566
-518.916	-117.355	0.824	-0.150
-517.902	155.979	0.434	-0.600
-516.887	52.897	-0.090	-0.086
-515.872	14.587	0.393	-0.308
-514.858	-6.963	1.164	-0.792
-513.843	-76.366	-0.178	0.063
-512.829	119.895	-0.115	0.143
-511.814	800.000	0.257	0.742
-510.799	-173.878	0.331	-0.010
-509.785	-154.380	-0.370	-0.025
-508.770	-200.000	0.001	0.142
-507.756	-97.033	-0.925	-0.242
-506.741	-74.443	0.430	0.155
-505.726	267.808	0.382	0.670
-504.712	-51.925	0.423	0.197
-503.697	-82.540	0.823	-0.267
-502.683	-16.611	-0.874	0.555
-501.668	-43.136	0.145	0.073
-500.653	236.148	0.280	0.463
-499.639	-200.000	-0.028	0.429
-498.624	-28.172	-0.216	-0.125
-497.610	256.123	-0.249	0.428
-496.595	-108.106	0.665	0.144
-495.581	318.990	-0.124	-0.236
-494.566	-186.578	0.661	0.009
-493.551	255.865	-0.294	0.504
-492.537	-55.116	-0.448	0.202
-491.522	-4.928	-0.116	0.080
-490.508	-200.000	-0.007	-0.440
-489.493	612.946	0.264	-0.661
-488.478	160.009	0.058	-0.081
-487.464	-200.000	-0.038	-0.427
-486.449	56.050	-0.613	0.595
-485.435	282.206	0.123	-0.221
-484.420	-65.794	0.980	0.392
-483.405	-151.510	0.128	0.009
-482.391	584.463	0.229	0.564
-481.376	-133.212	0.367	-0.046
-480.362	124.231	0.204	0.256
-479.347	124.115	0.429	0.539
-478.332	-154.011	0.279	-0.019
-477.318	-31.239	0.174	-0.098
-476.303	-96.475	-0.916	0.242
-475.289	465.874	0.236	0.529
-474.274	201.762	-0.410	0.631
-473.259	-200.000	-0.045	-1.316
-472.245	-25.804	-0.433	0.255
-471.230	-77.835	0.318	-0.110
-470.216	-200.000	0.158	-0.922
-469.201	58.256	-0.747	0.733
-468.186	-200.000	0.025	0.724
-467.172	-200.000	-0.108	0.511
-466.157	-87.289	-0.140	0.042
-465.143	50.351	0.136	0.128
-464.128	-150.358	1.103	-0.085
-463.113	-82.927	0.377	-0.122
-462.099	800.000	0.024	0.086
-461.084	96.403	-0.349	-0.399
-460.070	-1.409	-0.505	-0.356
-459.055	-72.177	0.561	-0.208
-458.040	-126.439	-0.401	-0.060
-457.026	531.243	-0.278	0.656
-456.011	-96.335	0.487	-0.129
-454.997	11.855	0.385	-0.296
-453.982	776.456	-0.267	-0.728
-452.968	165.532	-0.517	0.731
-451.953	22.139	-0.809	0.660
-450.938	-200.000	1.169	0.004
-449.924	-14.124	-0.612	-0.395
-448.909	-200.000	0.112	0.502
-447.895	26.725	0.343	-0.287
-446.880	300.050	-0.406	-0.749
-445.865	33.323	0.445	-0.386
-444.851	245.213	-0.083	0.139
-443.836	800.000	0.319	0.983
-442.822	800.000	0.326	1.120
-441.807	-167.884	0.972	-0.038
-440.792	-8.806	-0.220	0.147
-439.778	77.382	0.371	0.394
-438.763	79.381	0.599	-0.642
-437.749	479.076	0.357	-0.808
-436.734	-32.125	-0.567	0.317
-435.719	-131.367	0.305	-0.040
-434.705	-33.640	0.542	-0.299
-433.690	181.706	0.199	-0.292
-432.676	187.031	-0.406	0.604
-431.661	346.401	0.328	0.645
-430.646	-154.473	0.717	-0.048
-429.632	-200.000	0.046	-0.357
-428.617	-123.132	-0.778	-0.125
-427.603	7.567	-0.419	0.313
-426.588	800.000	0.105	-0.396
-425.573	20.499	0.252	0.204
-424.559	89.391	0.579	0.644
-423.544	362.273	0.230	-0.461
-422.530	88.938	0.549	0.610
-421.515	800.000	-0.207	0.677
-420.500	-200.000	-0.007	-0.096
-419.486	800.000	0.344	-1.081
-418.471	-29.719	0.115	0.065
-417.457	-171.187	-0.451	-0.015
-416.442	-106.287	-0.871	-0.195
-415.428	800.000	-0.231	-0.754
-414.413	-200.000	-0.026	0.317
-413.398	-47.313	0.759	-0.369
-412.384	800.000	0.197	0.597
-411.369	263.214	-0.310	0.537
-410.355	178.901	-0.541	-0.789
-409.340	256.180	-0.382	-0.654
-408.325	248.198	0.294	-0.496
-407.311	88.016	0.231	0.256
-406.296	-20.383	-0.289	0.177
-405.282	-170.197	0.503	-0.018
-404.267	572.986	0.425	1.034
-403.252	-18.936	0.721	0.447
-402.238	-104.015	-0.221	0.051
-401.223	-200.000	0.006	0.221
-400.209	128.457	0.402	0.510
-399.194	190.363	-0.097	-0.145
-398.179	202.501	-0.261	-0.403
-397.165	-17.850	-0.249	-0.156
-396.150	-200.000	-0.072	0.394
-395.136	800.000	0.036	0.122
-394.121	800.000	-0.052	-0.228
-393.106	-80.824	-0.765	-0.253
-392.092	344.595	0.355	-0.694
-391.077	-200.000	0.126	-0.702
-390.063	51.011	0.305	-0.289
-389.048	-84.837	0.266	0.083
-388.033	800.000	-0.054	-0.191
-387.019	692.473	0.451	1.177
-386.004	-83.922	-0.224	0.071
-384.990	-95.708	-0.099	0.026
-383.975	50.894	-0.047	0.045
-382.960	406.891	0.109	-0.230
-381.946	96.474	-0.634	-0.723
-380.931	-111.983	-0.251	0.050
-379.917	197.367	0.390	0.593
-378.902	-31.685	-0.590	0.330
-377.888	96.667	-0.290	-0.331
-376.873	-101.522	0.353	0.085
-375.858	68.443	0.308	-0.315
-374.844	-149.622	1.044	0.082
-373.829	-16.647	0.362	0.229
-372.815	-200.000	0.054	-0.749
-371.800	800.000	-0.355	-1.114
-370.785	48.212	0.245	-0.228
-369.771	-177.657	0.569	-0.014
-368.756	13.361	0.474	-0.366
-367.742	51.202	0.600	-0.567
-366.727	-26.379	0.586	-0.342
-365.712	-108.926	0.555	-0.118
-364.698	-200.000	0.005	-0.160
-363.683	223.430	-0.157	0.252
-362.669	-200.000	0.031	-0.403
-361.654	-92.107	-0.413	-0.116
-360.639	226.638	0.116	0.187
-359.625	-52.653	-0.337	-0.155
-358.610	-126.421	0.984	0.146
-357.596	19.738	-0.191	-0.153
-356.581	-59.993	-0.803	-0.342
-355.566	800.000	-0.100	-0.380
-354.552	464.172	-0.189	0.420
-353.537	-139.590	-0.816	-0.087
-352.523	127.462	0.997	-1.260
-351.508	800.000	-0.185	0.544
-350.493	17.124	-0.510	-0.403
-349.479	91.433	0.205	0.229
-348.464	-2.985	-0.286	0.199
-347.450	-4.196	0.174	0.120
-346.435	800.000	0.064	-0.264
-345.420	-182.830	-0.287	-0.005
-344.406	98.838	-0.078	0.090
-343.391	-9.336	-0.795	-0.529
-342.377	-22.713	0.338	-0.203
-341.362	-115.424	0.829	-0.155
-340.348	-77.478	-0.780	0.269
-339.333	-98.256	-0.261	-0.067
-338.318	207.575	0.253	-0.392
-337.304	561.801	-0.180	0.433
-336.289	-200.000	-0.053	-0.654
-335.275	-21.056	0.503	0.306
-334.260	800.000	-0.233	0.807
-333.245	13.453	0.533	-0.411
-332.231	-119.863	0.522	0.089
-331.216	159.170	-0.575	0.796
-330.202	-200.000	-0.079	-0.359
-329.187	360.841	-0.074	0.147
-328.172	-73.412	0.148	0.054
-327.158	292.686	0.293	0.530
-326.143	-111.142	-0.907	-0.185
-325.129	-113.337	-0.277	0.054
-324.114	623.763	0.156	-0.390
-323.099	-60.752	0.494	0.208
-322.085	-67.309	0.820	-0.321
-321.070	-127.367	-0.567	-0.082
-320.056	-161.688	-0.482	0.024
-319.041	-200.000	-0.103	0.492
-318.026	68.502	-0.531	-0.541
-317.012	63.360	-0.437	0.436
-315.997	-119.330	0.341	-0.059
-314.983	-200.000	0.036	-0.444
-313.968	-200.000	0.063	0.390
-312.953	61.761	0.406	0.402
-311.939	-167.645	0.555	0.022
-310.924	-120.209	0.425	0.072
-309.910	58.091	0.423	0.412
-308.895	-128.789	-0.393	0.055
-307.880	275.874	-0.119	0.210
-306.866	800.000	-0.172	0.710
-305.851	322.403	0.274	0.519
-304.837	-86.834	0.234	-0.071
-303.822	800.000	0.064	0.235
-302.807	116.694	0.423	-0.516
-301.793	-154.507	0.383	0.025
-300.778	-200.000	0.062	0.467
-299.764	-200.000	-0.029	-0.888
-298.749	800.000	0.069	-0.195
-297.735	-96.658	0.598	0.156
-296.720	61.402	-0.513	0.507
-295.705	-41.293	-0.341	-0.175
-294.691	130.600	0.413	-0.525
-293.676	-23.528	-0.553	-0.330
-292.662	200.096	-0.174	0.265
-291.647	-200.000	-0.150	-1.265
-290.632	50.222	0.600	-0.563
-289.618	-158.314	-0.095	0.005
-288.603	-200.000	0.085	0.502
-287.589	-179.183	0.241	-0.005
-286.574	116.037	0.170	-0.207
-285.559	-106.449	0.408	-0.091
-284.545	243.355	0.171	-0.284
-283.530	-150.421	-0.527	0.040
-282.516	-200.000	-0.078	0.406
-281.501	-105.088	-0.419	-0.095
-280.486	-200.000	0.029	0.148
-279.472	-73.650	0.535	0.193
-278.457	6.608	0.678	-0.501
-277.443	-122.484	0.132	0.021
-276.428	68.555	-0.685	-0.697
-275.413	800.000	-0.320	-1.016
-274.399	-108.946	-0.208	-0.044
-273.384	126.667	0.099	-0.125
-272.370	-81.385	-0.148	-0.048
-271.355	663.312	-0.257	0.658
-270.340	-87.901	-0.177	0.053
-269.326	-17.619	0.394	-0.246
-268.311	-41.174	-0.764	-0.391
-267.297	800.000	0.151	0.615
-266.282	-122.556	-1.060	0.171
-265.267	145.017	-0.104	0.138
-264.253	-200.000	-0.124	-0.609
-263.238	8.445	-0.456	-0.341
-262.224	-200.000	-0.063	0.344
-261.209	-200.000	-0.126	-0.673
-260.195	-122.432	-0.425	-0.069
-259.180	-25.904	0.566	0.331
-258.165	-200.000	0.067	-0.447
-257.151	384.814	-0.245	0.501
-256.136	-200.000	-0.200	0.964
-255.122	800.000	-0.393	1.487
-254.107	-158.311	0.468	0.027
-253.092	-42.427	-0.690	0.349
-252.078	-28.705	0.362	0.206
-251.063	-92.516	-0.386	0.108
-250.049	135.663	-0.356	0.459
-249.034	800.000	-0.297	-1.011
-248.019	-87.902	-0.710	0.212
-247.005	-156.316	-0.562	-0.035
-245.990	103.338	-0.245	0.284
-244.976	-200.000	0.022	0.348
-243.961	-200.000	-0.077	0.551
-242.946	154.652	-0.429	0.584
-241.932	274.795	-0.068	0.119
-240.917	-39.885	-0.173	-0.090
-239.903	-200.000	-0.029	0.395
-238.888	79.170	0.290	-0.308
-237.873	-200.000	-0.108	0.981
-236.859	-200.000	-0.129	0.958
-235.844	300.036	0.188	0.344
-234.830	17.588	-0.021	0.016
-233.815	554.255	0.154	0.367
-232.800	800.000	-0.041	0.169
-231.786	-65.501	0.868	0.345
-230.771	-200.000	-0.003	0.099
-229.757	-76.310	-0.078	-0.027
-228.742	-46.689	0.449	-0.218
-227.727	-200.000	0.016	-0.457
-226.713	-104.277	-0.289	0.066
-225.698	-177.791	0.519	0.012
-224.684	-134.743	-0.543	0.065
-223.669	800.000	0.101	-0.350
-222.655	-161.197	0.366	-0.019
-221.640	-11.909	-0.799	0.519
-220.625	-116.202	0.770	0.142
-219.611	-99.453	-0.453	0.113
-218.596	548.847	-0.016	-0.038
-217.582	-132.783	-0.362	-0.046
-216.567	44.297	-0.399	-0.363
-215.552	800.000	0.066	0.227
-214.538	-89.340	-0.793	-0.231
-213.523	-16.248	-0.296	-0.186
-212.509	-200.000	0.031	-0.752
-211.494	86.631	-0.210	0.229
-210.479	800.000	0.150	-0.440
-209.465	699.561	-0.187	-0.488
-208.450	-59.885	0.470	-0.199
-207.436	-22.498	0.133	-0.080
-206.421	-119.467	-1.195	-0.205
-205.406	-85.924	0.458	-0.140
-204.392	-0.318	0.398	0.280
-203.377	75.982	0.550	0.575
-202.363	168.861	-0.751	1.060
-201.348	-200.000	0.077	0.458
-200.333	201.696	-0.328	0.500
-199.319	-36.782	0.020	0.011
-198.304	-113.155	-0.504	0.098
-197.290	-126.201	1.042	0.154
-196.275	800.000	-0.173	0.729
-195.260	-120.946	-0.352	0.059
-194.246	-74.836	-0.421	-0.150
-193.231	-22.373	0.186	-0.111
-192.217	800.000	-0.080	-0.282
-191.202	-169.030	-0.302	0.011
-190.187	150.583	-0.415	0.557
-189.173	-60.259	-0.575	0.242
-188.158	165.490	0.211	0.295
-187.144	-141.882	0.822	-0.081
-186.129	800.000	0.061	-0.254
-185.114	-31.729	0.783	-0.435
-184.100	188.135	0.252	0.373
-183.085	-200.000	-0.258	1.270
-182.071	-200.000	0.047	0.774
-181.056	172.968	-0.354	-0.504
-180.042	-200.000	0.021	0.289
-179.027	168.619	0.268	-0.377
-178.012	-200.000	-0.027	-0.156
-176.998	-37.884	0.613	0.322
-175.983	-200.000	-0.145	1.870
-174.969	-200.000	-0.004	-0.321
-173.954	-93.844	-0.694	0.189
-172.939	170.061	-0.121	-0.171
-171.925	-124.711	-0.103	0.016
-170.910	800.000	0.259	-0.993
-169.896	-91.678	0.957	-0.269
-168.881	-200.000	-0.040	0.829
-167.866	-200.000	0.091	-1.009
-166.852	208.503	-0.354	-0.546
-165.837	-200.000	-0.096	-0.900
-164.823	-19.829	0.200	-0.122
-163.808	-109.442	0.492	0.103
-162.793	-200.000	0.039	1.265
-161.779	-141.184	-0.354	0.036
-160.764	427.455	-0.275	-0.587
-159.750	-17.660	-0.343	0.213
-158.735	111.711	0.468	0.558
-157.720	140.136	-0.278	0.362
-156.706	47.632	-0.462	0.425
-155.691	68.418	-0.308	0.312
-154.677	-115.237	0.405	-0.076
-153.662	-200.000	0.019	-0.135
-152.647	800.000	0.084	-0.303
-151.633	-126.921	-0.713	-0.104
-150.618	78.751	0.612	0.647
-149.604	-200.000	0.179	-0.843
-148.589	99.600	0.216	-0.246
-147.574	218.169	-0.361	0.570
-146.560	-104.123	0.389	0.089
-145.545	-50.513	-0.085	0.040
-144.531	-53.365	0.082	0.037
-143.516	-79.248	0.502	0.168
-142.502	2.651	-0.163	0.117
-141.487	12.617	-0.453	-0.345
-140.472	-200.000	0.086	-0.401
-139.458	109.035	-0.576	-0.680
-138.443	-39.761	0.056	0.029
-137.429	249.284	-0.265	0.443
-136.414	18.260	0.296	0.234
-135.399	160.063	-0.532	0.732
-134.385	45.266	-0.235	0.214
-133.370	800.000	-0.042	0.132
-132.356	-200.000	0.078	0.479
-131.341	-96.130	0.780	-0.204
-130.326	18.524	-0.198	-0.156
-129.312	208.951	-0.125	-0.194
-128.297	-139.824	0.842	-0.088
-127.283	129.811	-0.146	0.184
-126.268	88.941	-0.352	0.386
-125.253	800.000	-0.060	0.200
-124.239	800.000	0.233	-0.640
-123.224	-200.000	0.015	-0.915
-122.210	-60.151	0.474	0.200
