DTS Sentinel unit serial number:	SN413079Multiplexer serial number:	ORYXHardware model number:	OX4-SRSoftware version number:	ORYX F/W v4.00 Oryx Data Collector v3.7.2.0data status	okinstallation	princeton_trtdifferential loss correction	single-endedforward channel	channel 1reverse channel	N/Adate	2019/09/16time	07:02:35forward acquisition time	60.00reverse acquisition time	0.00gamma	496.2192k internal	0.2331k external	0.2331temperature offset calibration	0.9984default loss term (dB/km)	0.3790temperature slope calibration	1.0000multiplexer offset coefficient	1.0000multiplexer slope coefficient	1.0000fibre end	0.00T internal ref (°C)	27.37T ext. ref 1 (°C)	11.50T ext. ref 2 (°C)	21.84length (m)	temperature (°C)	Stokes	anti-Stokes-747.200	-77.014	-0.045	-0.016
-746.185	254.949	-0.127	0.218
-745.171	-56.838	0.218	-0.097
-744.156	-89.946	0.306	0.090
-743.142	327.658	0.142	0.275
-742.127	-41.579	-0.189	0.098
-741.112	-42.272	-0.177	-0.091
-740.098	-122.023	0.188	0.031
-739.083	318.548	-0.052	0.100
-738.069	800.000	-0.061	0.236
-737.054	-101.053	0.038	-0.009
-736.039	162.217	-0.088	0.123
-735.025	-200.000	-0.057	0.549
-734.010	113.958	-0.347	-0.424
-732.996	-200.000	-0.018	-0.163
-731.981	-151.878	0.071	0.005
-730.966	-84.906	-0.123	0.039
-729.952	-200.000	0.001	-0.098
-728.937	-200.000	0.046	-0.280
-727.923	166.269	-0.031	-0.044
-726.908	-88.642	0.186	0.056
-725.894	53.363	-0.104	-0.100
-724.879	-110.970	0.052	0.011
-723.864	521.194	-0.135	0.320
-722.850	-74.577	0.082	-0.030
-721.835	-44.639	-0.201	0.101
-720.821	179.479	-0.166	-0.245
-719.806	-155.777	-0.173	0.011
-718.791	78.438	-0.227	-0.244
-717.777	18.571	-0.167	-0.134
-716.762	20.160	-0.173	-0.141
-715.748	-131.526	-0.424	0.056
-714.733	-129.892	-0.404	0.056
-713.718	-16.227	-0.080	-0.051
-712.704	191.524	0.064	0.097
-711.689	800.000	0.035	0.135
-710.675	-90.096	0.243	-0.071
-709.660	-59.623	0.173	-0.075
-708.645	82.540	0.068	-0.074
-707.631	18.669	0.154	0.123
-706.616	-96.146	0.290	0.077
-705.602	-42.850	0.165	0.084
-704.587	214.753	0.141	0.225
-703.572	477.375	-0.027	-0.061
-702.558	-2.538	-0.097	0.069
-701.543	-116.897	0.269	0.049
-700.529	33.099	0.159	0.138
-699.514	105.080	0.138	0.163
-698.499	116.329	-0.038	-0.047
-697.485	-21.106	0.138	-0.085
-696.470	-93.163	0.341	0.095
-695.456	-143.782	0.426	0.041
-694.441	13.063	-0.100	-0.078
-693.426	-200.000	-0.013	0.383
-692.412	204.274	0.095	-0.147
-691.397	343.270	0.144	0.284
-690.383	-84.930	-0.225	-0.071
-689.368	-138.056	0.103	-0.012
-688.354	-111.171	0.284	-0.058
-687.339	800.000	-0.044	-0.143
-686.324	-200.000	0.034	-0.266
-685.310	-28.697	0.311	0.180
-684.295	-192.375	0.204	0.002
-683.281	-200.000	0.004	0.371
-682.266	310.280	-0.059	0.111
-681.251	553.241	-0.081	0.196
-680.237	-170.584	-0.051	-0.002
-679.222	-200.000	-0.036	-0.184
-678.208	115.411	0.288	-0.353
-677.193	-13.735	-0.074	0.048
-676.178	-85.204	-0.361	-0.113
-675.164	-64.013	0.159	-0.065
-674.149	267.366	-0.083	-0.147
-673.135	800.000	-0.062	-0.223
-672.120	139.946	-0.021	0.028
-671.105	-75.020	-0.195	-0.070
-670.091	39.150	0.234	0.210
-669.076	800.000	0.049	0.192
-668.062	39.842	0.156	0.140
-667.047	426.672	0.095	-0.206
-666.032	-45.821	0.105	0.052
-665.018	46.787	-0.157	0.147
-664.003	-101.392	-0.072	0.018
-662.989	97.402	-0.103	-0.119
-661.974	-200.000	0.024	0.317
-660.959	399.266	0.123	-0.259
-659.945	-50.577	-0.395	-0.187
-658.930	414.757	0.044	-0.093
-657.916	422.306	0.164	0.353
-656.901	800.000	0.002	-0.008
-655.886	-113.427	-0.280	-0.055
-654.872	-117.349	-0.153	0.028
-653.857	-200.000	0.030	-0.619
-652.843	-0.809	0.220	0.156
-651.828	-200.000	-0.051	-0.230
-650.814	102.702	0.332	-0.390
-649.799	-200.000	0.026	0.319
-648.784	-200.000	-0.003	-0.271
-647.770	-144.051	0.031	-0.003
-646.755	-200.000	0.197	-0.001
-645.741	52.481	-0.147	0.141
-644.726	-134.882	-0.307	0.037
-643.711	21.685	-0.315	-0.257
-642.697	-57.557	0.156	0.068
-641.682	-200.000	0.023	-0.155
-640.668	41.258	-0.104	0.095
-639.653	392.139	-0.105	-0.218
-638.638	522.830	0.050	-0.118
-637.624	-75.863	0.314	-0.111
-636.609	-200.000	-0.009	-0.202
-635.595	42.179	-0.122	0.111
-634.580	48.809	-0.251	-0.236
-633.565	-105.530	0.298	-0.068
-632.551	37.964	-0.276	-0.246
-631.536	-95.950	-0.422	-0.113
-630.522	800.000	-0.037	-0.154
-629.507	248.779	0.110	-0.186
-628.492	4.206	-0.315	-0.231
-627.478	800.000	-0.122	-0.357
-626.463	68.143	-0.139	0.143
-625.449	-200.000	-0.011	-0.135
-624.434	-53.848	0.093	-0.042
-623.419	800.000	0.036	-0.108
-622.405	157.206	-0.205	-0.285
-621.390	-139.103	0.534	0.058
-620.376	-110.082	-0.401	0.084
-619.361	800.000	0.025	0.074
-618.346	80.154	-0.188	0.203
-617.332	-19.146	-0.396	-0.246
-616.317	-57.632	0.160	0.070
-615.303	-162.149	-0.139	0.007
-614.288	42.222	0.218	0.198
-613.273	-139.326	0.343	0.037
-612.259	-96.334	-0.284	-0.075
-611.244	426.180	-0.100	-0.217
-610.230	800.000	0.045	-0.194
-609.215	-83.040	-0.455	-0.147
-608.201	696.987	0.045	-0.119
-607.186	-156.835	-0.089	-0.005
-606.171	-50.057	0.227	0.108
-605.157	-95.578	0.054	-0.015
-604.142	152.017	0.203	-0.277
-603.128	607.406	-0.137	0.343
-602.113	800.000	0.069	0.302
-601.098	-115.763	0.184	0.034
-600.084	-163.583	-0.206	-0.010
-599.069	561.730	0.073	0.176
-598.055	63.732	0.123	0.123
-597.040	-38.689	-0.077	-0.041
-596.025	83.127	0.123	-0.134
-595.011	-122.153	0.230	-0.038
-593.996	-84.842	-0.453	0.142
-592.982	800.000	0.168	0.529
-591.967	-70.098	-0.131	-0.050
-590.952	-27.428	0.126	-0.073
-589.938	620.868	-0.034	-0.084
-588.923	800.000	-0.027	0.086
-587.909	568.548	0.123	0.299
-586.894	-26.446	-0.157	0.092
-585.879	671.596	0.030	-0.078
-584.865	-25.752	-0.373	0.220
-583.850	-76.465	0.322	0.113
-582.836	-200.000	0.016	0.183
-581.821	-96.246	-0.290	0.077
-580.806	41.542	0.037	0.033
-579.792	-49.895	-0.350	0.166
-578.777	-200.000	0.019	-0.202
-577.763	403.688	-0.101	0.212
-576.748	76.035	-0.034	-0.036
-575.733	46.794	0.255	-0.236
-574.719	511.023	0.032	-0.075
-573.704	800.000	0.088	0.278
-572.690	-105.615	-0.202	0.046
-571.675	96.757	0.216	0.247
-570.661	70.850	0.091	-0.095
-569.646	-85.034	0.426	-0.133
-568.631	121.761	0.266	-0.332
-567.617	-101.985	0.178	0.043
-566.602	800.000	0.025	0.107
-565.588	72.315	0.050	-0.052
-564.573	139.606	-0.121	0.159
-563.558	-200.000	0.054	-0.353
-562.544	-200.000	-0.061	-0.268
-561.529	25.990	0.272	0.227
-560.515	146.347	0.090	0.121
-559.500	144.490	0.156	-0.208
-558.485	-150.280	0.358	0.028
-557.471	-200.000	0.049	0.318
-556.456	-200.000	-0.001	-0.102
-555.442	-200.000	0.011	-0.219
-554.427	81.729	0.138	-0.149
-553.412	-112.923	-0.352	0.070
-552.398	-16.733	-0.074	0.047
-551.383	71.924	-0.335	0.348
-550.369	-38.446	0.183	0.096
-549.354	-86.687	-0.372	-0.114
-548.339	-123.678	0.080	0.013
-547.325	61.045	0.103	-0.102
-546.310	535.425	0.139	0.330
-545.296	-61.962	-0.492	-0.206
-544.281	-200.000	0.060	-0.280
-543.266	800.000	-0.024	-0.100
-542.252	63.684	0.092	0.093
-541.237	800.000	0.041	-0.167
-540.223	-200.000	0.011	0.090
-539.208	-50.393	-0.118	-0.056
-538.193	-5.613	-0.337	-0.231
-537.179	-16.041	-0.076	0.048
-536.164	-200.000	-0.027	-0.209
-535.150	-38.592	-0.174	0.092
-534.135	800.000	0.048	0.195
-533.121	18.134	0.100	-0.080
-532.106	126.270	-0.195	0.246
-531.091	567.282	0.077	-0.186
-530.077	308.849	-0.206	0.383
-529.062	-131.276	0.071	0.009
-528.048	557.604	0.076	-0.184
-527.033	13.827	0.228	0.177
-526.018	-13.023	-0.015	0.009
-525.004	6.424	-0.214	0.159
-523.989	800.000	0.143	0.565
-522.975	800.000	0.008	-0.027
-521.960	-200.000	0.038	0.359
-520.945	206.443	-0.069	-0.107
-519.931	-200.000	0.068	0.305
-518.916	-17.901	0.181	-0.113
-517.902	243.732	-0.194	-0.324
-516.887	-137.232	-0.290	0.033
-515.872	-73.765	-0.264	0.096
-514.858	-200.000	-0.013	0.131
-513.843	161.475	-0.134	-0.188
-512.829	196.207	0.100	0.152
-511.814	800.000	0.017	0.069
-510.799	216.869	-0.179	0.285
-509.785	40.994	-0.191	0.172
-508.770	-200.000	-0.031	-0.147
-507.756	-154.535	-0.225	0.015
-506.741	231.694	0.145	0.237
-505.726	-77.115	-0.276	0.096
-504.712	800.000	-0.086	0.250
-503.697	-200.000	0.017	-0.162
-502.683	135.752	-0.134	-0.174
-501.668	143.294	0.227	0.302
-500.653	-200.000	0.072	0.392
-499.639	225.638	-0.047	0.076
-498.624	-60.572	-0.203	0.086
-497.610	-81.752	0.139	-0.045
-496.595	-75.136	-0.089	0.032
-495.581	83.607	-0.235	0.255
-494.566	36.614	-0.088	0.077
-493.551	-35.579	-0.132	0.071
-492.537	190.889	-0.086	-0.129
-491.522	-200.000	-0.024	-0.122
-490.508	318.118	0.140	0.265
-489.493	-200.000	0.050	-0.221
-488.478	-70.787	0.326	-0.123
-487.464	272.433	0.140	-0.247
-486.449	800.000	0.071	0.195
-485.435	-55.675	0.205	0.092
-484.420	800.000	0.146	-0.448
-483.405	279.107	0.080	-0.142
-482.391	800.000	0.051	-0.205
-481.376	-180.380	0.229	-0.005
-480.362	8.200	-0.265	-0.198
-479.347	86.381	-0.155	0.171
-478.332	364.998	-0.110	0.221
-477.318	-99.274	-0.089	0.022
-476.303	-200.000	-0.001	-0.378
-475.289	624.767	-0.039	-0.097
-474.274	76.320	0.060	0.064
-473.259	724.861	0.076	-0.201
-472.245	-200.000	0.041	-0.272
-471.230	-21.983	0.209	0.126
-470.216	342.334	0.033	0.065
-469.201	-200.000	0.042	-0.386
-468.186	-200.000	-0.003	0.338
-467.172	-185.075	0.314	0.005
-466.157	337.654	-0.106	0.206
-465.143	-75.812	0.245	-0.086
-464.128	-200.000	0.023	-0.117
-463.113	800.000	0.077	0.241
-462.099	5.852	0.196	-0.144
-461.084	-200.000	0.039	-0.195
-460.070	39.456	0.174	0.155
-459.055	-100.731	0.135	0.033
-458.040	-19.297	-0.126	0.078
-457.026	164.235	-0.168	-0.235
-456.011	796.100	-0.032	0.088
-454.997	672.760	0.128	0.330
-453.982	67.482	0.218	0.222
-452.968	152.575	0.116	-0.158
-451.953	-200.000	0.031	0.150
-450.938	-73.139	0.143	-0.052
-449.924	76.547	0.130	-0.137
-448.909	170.416	-0.129	0.183
-447.895	97.355	-0.274	-0.313
-446.880	800.000	-0.042	-0.166
-445.865	444.298	-0.130	-0.283
-444.851	-162.810	0.122	-0.006
-443.836	-166.084	0.164	-0.007
-442.822	-25.660	-0.174	-0.102
-441.807	383.713	0.129	-0.264
-440.792	565.539	0.088	0.212
-439.778	-168.498	-0.153	0.006
-438.763	-200.000	-0.058	-0.274
-437.749	9.771	0.123	-0.092
-436.734	-131.425	-0.326	0.043
-435.719	83.501	-0.078	-0.084
-434.705	742.242	-0.067	-0.178
-433.690	-4.745	0.126	-0.086
-432.676	112.270	0.221	0.266
-431.661	-82.982	-0.106	-0.034
-430.646	-145.157	0.100	0.009
-429.632	425.938	-0.171	-0.367
-428.617	-151.482	0.205	0.015
-427.603	-25.810	-0.223	-0.131
-426.588	-162.788	-0.366	-0.018
-425.573	1.386	0.360	-0.257
-424.559	-39.943	-0.240	0.125
-423.544	-200.000	-0.034	-0.201
-422.530	232.222	-0.113	0.185
-421.515	-200.000	0.116	-0.508
-420.500	-92.260	-0.074	0.021
-419.486	-200.000	0.027	0.124
-418.471	-34.360	0.133	0.073
-417.457	-200.000	0.048	0.232
-416.442	92.803	-0.164	0.183
-415.428	-17.436	-0.266	0.166
-414.413	-84.159	0.316	-0.100
-413.398	-46.992	0.318	0.154
-412.384	800.000	0.062	-0.224
-411.369	136.938	-0.112	0.145
-410.355	30.789	-0.192	-0.163
-409.340	-200.000	-0.060	0.393
-408.325	278.895	-0.065	0.115
-407.311	347.506	-0.065	0.127
-406.296	-14.205	-0.068	-0.044
-405.282	-9.606	0.167	0.110
-404.267	800.000	-0.039	0.145
-403.252	228.766	0.104	-0.168
-402.238	301.562	-0.219	-0.403
-401.223	79.951	0.051	-0.054
-400.209	120.085	0.245	0.302
-399.194	800.000	0.104	0.424
-398.179	-83.391	0.172	-0.055
-397.165	465.451	-0.103	-0.230
-396.150	-136.603	-0.097	-0.011
-395.136	-200.000	0.008	-0.101
-394.121	74.399	0.191	0.199
-393.106	369.904	-0.010	-0.019
-392.092	-88.279	-0.341	0.101
-391.077	-47.856	-0.105	-0.050
-390.063	800.000	-0.094	-0.328
-389.048	11.604	0.206	-0.157
-388.033	214.792	-0.045	0.071
-387.019	-200.000	0.002	-0.135
-386.004	-22.614	-0.100	-0.060
-384.990	-200.000	0.025	-0.131
-383.975	-172.886	0.197	-0.006
-382.960	-200.000	-0.021	-0.168
-381.946	91.592	-0.048	-0.054
-380.931	-193.308	-0.339	-0.003
-379.917	-18.766	-0.138	-0.085
-378.902	-98.804	-0.114	-0.029
-377.888	-89.887	-0.435	0.126
-376.873	-19.958	0.194	0.119
-375.858	17.960	0.280	-0.221
-374.844	-12.978	0.189	0.122
-373.829	205.613	-0.161	0.248
-372.815	-200.000	0.012	0.101
-371.800	36.812	-0.192	0.168
-370.785	-200.000	0.007	-0.217
-369.771	-200.000	-0.008	-0.192
-368.756	-89.444	-0.120	-0.035
-367.742	-200.000	-0.014	0.065
-366.727	56.683	-0.106	0.103
-365.712	77.073	0.171	-0.180
-364.698	203.640	0.132	0.203
-363.683	260.128	0.160	0.274
-362.669	-110.099	0.216	0.045
-361.654	-147.807	-0.183	0.015
-360.639	-134.375	-0.143	0.017
-359.625	365.681	-0.081	0.161
-358.610	111.919	0.290	0.348
-357.596	-200.000	0.025	0.173
-356.581	-118.325	0.153	0.027
-355.566	17.898	0.165	-0.130
-354.552	-76.784	0.118	0.041
-353.537	800.000	-0.078	0.335
-352.523	-81.647	0.375	-0.122
-351.508	-200.000	-0.001	0.086
-350.493	185.970	-0.054	-0.080
-349.479	-200.000	0.009	0.119
-348.464	-10.988	-0.035	0.023
-347.450	343.239	0.105	0.203
-346.435	-120.425	-0.185	0.031
-345.420	-200.000	0.038	-0.264
-344.406	800.000	0.063	-0.178
-343.391	-89.140	-0.244	-0.071
-342.377	-79.079	-0.155	0.052
-341.362	54.905	0.141	0.134
-340.348	-46.654	0.363	0.176
-339.333	-146.281	-0.364	-0.032
-338.318	79.820	0.260	0.277
-337.304	30.440	0.197	-0.167
-336.289	65.591	0.202	-0.202
-335.275	-94.423	-0.070	-0.019
-334.260	-193.547	-0.072	0.001
-333.245	102.357	-0.179	-0.208
-332.231	-87.126	-0.083	0.025
-331.216	455.808	-0.063	-0.139
-330.202	-200.000	0.031	-0.172
-329.187	25.399	0.136	-0.112
-328.172	800.000	0.006	0.023
-327.158	-167.653	-0.219	-0.009
-326.143	-94.383	-0.197	0.053
-325.129	-200.000	-0.019	0.282
-324.114	245.326	0.167	0.278
-323.099	-42.163	0.009	0.004
-322.085	800.000	-0.050	-0.151
-321.070	-47.812	0.252	-0.121
-320.056	-200.000	-0.027	0.220
-319.041	166.950	0.077	-0.108
-318.026	-83.092	-0.166	-0.053
-317.012	474.779	0.135	0.303
-315.997	-200.000	-0.125	-0.000
-314.983	260.682	-0.037	0.064
-313.968	265.706	-0.139	0.240
-312.953	-46.095	-0.217	-0.106
-311.939	5.165	0.181	0.132
-310.924	800.000	0.115	0.379
-309.910	-77.296	-0.081	-0.028
-308.895	95.345	0.239	0.270
-307.880	-88.565	-0.251	-0.074
-306.866	86.903	-0.134	-0.146
-305.851	49.248	0.159	0.147
-304.837	-200.000	0.035	-0.208
-303.822	103.723	-0.240	-0.279
-302.807	67.117	-0.169	0.171
-301.793	287.665	-0.042	-0.075
-300.778	-46.779	-0.180	-0.087
-299.764	-122.052	-0.083	0.014
-298.749	6.779	-0.212	-0.156
-297.735	800.000	-0.074	0.225
-296.720	-46.496	0.293	0.142
-295.705	107.899	-0.178	0.210
-294.691	800.000	0.042	-0.155
-293.676	-200.000	-0.055	0.382
-292.662	423.283	0.081	0.173
-291.647	-105.398	0.555	-0.125
-290.632	-147.111	0.126	0.011
-289.618	253.701	0.166	0.280
-288.603	-34.958	-0.108	0.058
-287.589	-200.000	-0.010	0.230
-286.574	52.648	0.044	-0.041
-285.559	800.000	0.114	-0.321
-284.545	63.369	0.227	-0.225
-283.530	69.823	-0.093	0.095
-282.516	-200.000	0.011	0.245
-281.501	-79.847	0.282	-0.094
-280.486	636.578	-0.036	-0.090
-279.472	411.234	0.132	-0.276
-278.457	-200.000	-0.018	0.198
-277.443	-27.316	0.277	-0.159
-276.428	404.629	0.165	0.344
-275.413	12.382	0.215	0.164
-274.399	800.000	0.046	-0.198
-273.384	-34.438	0.109	-0.059
-272.370	19.939	0.093	-0.074
-271.355	800.000	0.051	0.145
-270.340	800.000	-0.082	-0.260
-269.326	433.545	0.074	-0.158
-268.311	-29.525	-0.194	-0.110
-267.297	69.382	-0.007	-0.007
-266.282	-200.000	0.001	-0.297
-265.267	655.390	-0.120	-0.304
-264.253	281.354	-0.167	-0.296
-263.238	800.000	0.089	-0.288
-262.224	96.688	-0.206	-0.233
-261.209	-22.675	0.147	0.088
-260.195	-48.858	-0.170	-0.081
-259.180	6.903	0.106	-0.078
-258.165	384.923	-0.087	0.177
-257.151	-182.250	0.291	0.005
-256.136	-141.327	0.170	-0.017
-255.122	800.000	0.051	0.169
-254.107	-200.000	-0.053	-0.260
-253.092	128.420	-0.078	-0.098
-252.078	-14.988	0.150	-0.095
-251.063	271.584	-0.022	0.038
-250.049	-200.000	0.029	0.226
-249.034	800.000	-0.081	0.260
-248.019	-154.880	-0.239	-0.016
-247.005	-40.825	0.183	-0.093
-245.990	263.899	0.095	0.162
-244.976	800.000	-0.111	0.440
-243.961	-15.812	0.255	-0.160
-242.946	-200.000	-0.008	-0.269
-241.932	-200.000	-0.029	-0.152
-240.917	179.449	-0.095	0.137
-239.903	-137.893	-0.269	0.030
-238.888	111.610	0.189	-0.225
-237.873	-75.995	0.136	0.047
-236.859	-72.307	-0.076	0.028
-235.844	-85.545	0.150	0.046
-234.830	-200.000	-0.002	0.134
-233.815	127.857	-0.090	0.113
-232.800	-87.235	0.093	0.028
-231.786	29.274	-0.099	-0.083
-230.771	-162.993	-0.139	-0.007
-229.757	-117.783	-0.162	0.029
-228.742	-133.581	-0.268	0.033
-227.727	800.000	-0.134	-0.436
-226.713	284.796	-0.136	-0.241
-225.698	-193.844	0.304	-0.003
-224.684	-81.998	0.274	0.088
-223.669	-1.687	0.142	-0.099
-222.655	-70.421	-0.216	-0.081
-221.640	26.963	0.156	-0.129
-220.625	800.000	-0.045	-0.161
-219.611	-75.621	0.363	0.127
-218.596	-114.195	0.230	0.044
-217.582	38.907	0.285	-0.251
-216.567	-17.317	0.406	-0.252
-215.552	-137.462	0.176	0.020
-214.538	-107.261	-0.174	0.038
-213.523	-35.867	0.247	-0.132
-212.509	14.592	-0.413	-0.318
-211.494	330.382	0.090	-0.170
-210.479	-200.000	-0.014	0.133
-209.465	-200.000	-0.064	0.324
-208.450	-103.209	0.122	0.028
-207.436	-54.863	-0.211	0.094
-206.421	163.983	-0.065	0.090
-205.406	108.964	-0.145	-0.171
-204.392	3.417	-0.183	0.131
-203.377	-200.000	-0.037	0.220
-202.363	-178.432	-0.349	-0.008
-201.348	-60.783	0.033	0.014
-200.333	-170.488	-0.182	0.006
-199.319	376.939	0.164	0.331
-198.304	-200.000	0.008	-0.078
-197.290	-112.473	0.131	-0.026
-196.275	800.000	-0.030	0.130
-195.260	-200.000	-0.024	0.336
-194.246	152.674	-0.139	0.188
-193.231	31.804	-0.059	0.050
-192.217	800.000	0.051	0.141
-191.202	-200.000	-0.037	0.198
-190.187	-200.000	0.034	-0.258
-189.173	-200.000	-0.017	-0.130
-188.158	44.285	0.299	-0.270
-187.144	-172.588	0.158	-0.005
-186.129	314.695	-0.069	0.127
-185.114	127.454	0.069	-0.086
-184.100	-200.000	0.027	0.307
-183.085	174.050	0.029	-0.041
-182.071	-200.000	-0.070	0.315
-181.056	-49.070	0.424	-0.200
-180.042	-135.891	0.183	-0.021
-179.027	365.288	0.117	0.231
-178.012	-122.703	0.151	-0.024
-176.998	3.173	-0.060	-0.043
-175.983	210.025	-0.101	-0.156
-174.969	-200.000	-0.002	0.184
-173.954	-200.000	0.038	-0.194
-172.939	404.341	0.043	0.090
-171.925	26.457	-0.233	0.192
-170.910	800.000	0.082	0.236
-169.896	-116.504	0.320	0.058
-168.881	-200.000	0.036	-0.335
-167.866	580.952	0.028	0.067
-166.852	248.408	0.134	-0.224
-165.837	-200.000	0.025	-0.114
-164.823	90.619	-0.168	0.185
-163.808	32.983	-0.006	-0.005
-162.793	-29.247	-0.363	-0.205
-161.779	-200.000	-0.174	-0.000
-160.764	125.327	-0.133	-0.165
-159.750	11.030	-0.187	-0.140
-158.735	-71.982	0.201	-0.073
-157.720	423.021	-0.012	0.025
-156.706	-123.078	-0.351	0.055
-155.691	-50.936	0.086	-0.040
-154.677	40.517	-0.055	-0.049
-153.662	113.606	-0.143	0.170
-152.647	-60.508	-0.088	-0.037
-151.633	-15.229	-0.073	-0.046
-150.618	352.063	0.245	0.477
-149.604	-31.678	-0.350	-0.193
-148.589	-165.469	0.242	-0.010
-147.574	61.697	0.131	0.128
-146.560	39.476	-0.239	-0.210
-145.545	-158.522	0.157	0.009
-144.531	800.000	0.205	-0.573
-143.516	-40.362	0.137	0.070
-142.502	175.284	0.102	-0.145
-141.487	-200.000	-0.011	-0.427
-140.472	146.578	-0.242	0.320
-139.458	245.233	0.169	0.279
-138.443	562.774	0.025	0.059
-137.429	-200.000	-0.077	0.378
-136.414	-200.000	0.015	-0.135
-135.399	-200.000	0.009	-0.079
-134.385	800.000	0.059	0.228
-133.370	60.183	0.220	-0.213
-132.356	-60.234	0.192	0.080
-131.341	-81.076	0.211	-0.069
-130.326	58.392	-0.089	-0.085
-129.312	-9.887	-0.106	0.069
-128.297	216.480	0.248	-0.388
-127.283	-66.864	-0.175	0.068
-126.268	64.946	-0.159	0.158
-125.253	800.000	0.028	-0.083
-124.239	-71.881	0.172	-0.063
-123.224	30.395	0.253	0.212
-122.210	-33.584	-0.236	0.128
-121.195	-110.098	-0.237	-0.049
