DTS Sentinel unit serial number:	SN413079Multiplexer serial number:	ORYXHardware model number:	OX4-SRSoftware version number:	ORYX F/W v4.00 Oryx Data Collector v3.7.2.0data status	okinstallation	princeton_trtdifferential loss correction	single-endedforward channel	channel 1reverse channel	N/Adate	2019/09/17time	09:54:35forward acquisition time	60.00reverse acquisition time	0.00gamma	496.2192k internal	0.2323k external	0.2323temperature offset calibration	0.9962default loss term (dB/km)	0.3790temperature slope calibration	1.0000multiplexer offset coefficient	1.0000multiplexer slope coefficient	1.0000fibre end	0.00T internal ref (°C)	29.50T ext. ref 1 (°C)	0.16T ext. ref 2 (°C)	25.27length (m)	temperature (°C)	Stokes	anti-Stokes-747.200	800.000	-0.071	-0.239
-746.185	20.299	-0.197	0.161
-745.171	-200.000	0.030	0.169
-744.156	800.000	0.020	-0.066
-743.142	-44.938	0.172	0.087
-742.127	41.433	-0.282	0.258
-741.112	57.091	-0.254	-0.250
-740.098	-200.000	0.030	0.226
-739.083	-59.246	0.253	0.110
-738.069	467.343	-0.003	0.006
-737.054	324.682	-0.133	0.256
-736.039	244.302	0.035	-0.059
-735.025	57.965	-0.141	-0.140
-734.010	-97.267	0.142	-0.037
-732.996	800.000	-0.043	0.121
-731.981	800.000	-0.114	-0.338
-730.966	-101.271	0.166	0.041
-729.952	-200.000	0.064	0.465
-728.937	8.672	0.251	-0.191
-727.923	-108.931	-0.187	0.040
-726.908	-200.000	0.018	0.166
-725.894	-122.847	-0.288	-0.047
-724.879	-200.000	0.018	0.188
-723.864	-200.000	-0.008	0.086
-722.850	339.087	0.149	-0.292
-721.835	5.567	-0.267	0.199
-720.821	-200.000	0.041	-0.234
-719.806	-153.095	0.192	0.014
-718.791	-74.511	-0.186	0.068
-717.777	-25.949	-0.248	0.147
-716.762	-77.129	-0.097	0.034
-715.748	-105.109	-0.550	0.127
-714.733	-153.899	-0.074	0.005
-713.718	-39.121	0.171	0.091
-712.704	229.350	-0.123	0.202
-711.689	30.795	0.241	0.209
-710.675	117.925	-0.327	0.406
-709.660	-85.579	-0.142	-0.045
-708.645	800.000	-0.048	0.183
-707.631	-200.000	0.016	-0.245
-706.616	488.732	0.177	-0.408
-705.602	-15.199	-0.356	-0.230
-704.587	-146.328	-0.272	-0.024
-703.572	-87.069	0.212	0.065
-702.558	46.596	-0.238	0.223
-701.543	104.122	-0.155	0.183
-700.529	-99.769	-0.181	0.046
-699.514	-74.817	-0.099	0.036
-698.499	502.725	0.042	0.097
-697.485	162.987	-0.058	0.083
-696.470	31.650	0.151	0.131
-695.456	147.511	-0.162	0.221
-694.441	32.237	-0.149	0.130
-693.426	337.343	0.038	0.075
-692.412	-44.850	-0.259	0.130
-691.397	-109.009	-0.167	0.036
-690.383	-200.000	0.067	-0.348
-689.368	-39.846	-0.236	0.124
-688.354	678.206	-0.097	-0.255
-687.339	-2.523	0.051	0.036
-686.324	-200.000	-0.016	-0.088
-685.310	78.453	0.199	0.214
-684.295	-48.141	-0.345	-0.168
-683.281	166.929	-0.136	-0.195
-682.266	5.154	-0.131	0.097
-681.251	-137.825	-0.197	-0.022
-680.237	-200.000	-0.080	-0.507
-679.222	-28.939	-0.069	0.040
-678.208	-47.428	-0.259	0.127
-677.193	-43.299	0.092	-0.047
-676.178	-4.571	0.329	0.229
-675.164	-162.637	-0.109	-0.005
-674.149	-30.073	-0.343	0.197
-673.135	800.000	0.049	-0.138
-672.120	193.937	-0.206	-0.314
-671.105	-165.738	-0.189	-0.008
-670.091	15.012	-0.236	0.186
-669.076	245.370	0.156	-0.265
-668.062	-166.097	-0.209	0.009
-667.047	-88.895	0.304	0.091
-666.032	66.242	0.082	-0.084
-665.018	188.095	-0.032	0.048
-664.003	127.114	-0.154	-0.197
-662.989	105.354	-0.133	0.158
-661.974	493.501	-0.083	0.192
-660.959	-149.967	-0.349	-0.027
-659.945	800.000	-0.070	0.225
-658.930	800.000	-0.028	-0.107
-657.916	676.526	0.030	-0.079
-656.901	-72.260	0.057	-0.021
-655.886	-90.194	0.335	0.098
-654.872	-200.000	-0.020	-0.370
-653.857	98.531	-0.249	-0.289
-652.843	157.607	0.160	-0.223
-651.828	-200.000	-0.036	-0.192
-650.814	35.859	0.076	0.067
-649.799	-171.132	0.110	0.004
-648.784	-200.000	-0.013	0.266
-647.770	16.541	0.122	0.097
-646.755	387.003	0.108	0.224
-645.741	608.023	0.093	-0.234
-644.726	-113.731	0.179	-0.035
-643.711	-82.243	0.223	0.073
-642.697	-200.000	0.051	0.359
-641.682	-151.144	0.313	0.024
-640.668	272.003	0.277	0.492
-639.653	436.159	-0.166	0.363
-638.638	580.861	0.047	0.115
-637.624	42.819	-0.105	-0.096
-636.609	-200.000	-0.042	0.331
-635.595	64.732	-0.264	-0.268
-634.580	35.480	0.153	-0.135
-633.565	91.307	0.150	-0.169
-632.551	-89.269	-0.242	-0.072
-631.536	-136.260	-0.338	0.040
-630.522	78.880	0.036	-0.039
-629.507	-31.817	0.258	-0.145
-628.492	168.174	-0.301	-0.431
-627.478	-17.156	-0.259	0.165
-626.463	-124.215	-0.326	-0.051
-625.449	-91.246	-0.438	0.126
-624.434	-88.675	0.125	-0.037
-623.419	-101.370	-0.188	-0.046
-622.405	800.000	0.004	-0.011
-621.390	800.000	0.050	0.165
-620.376	-200.000	0.255	-0.001
-619.361	176.017	0.265	-0.387
-618.346	-72.340	0.128	-0.048
-617.332	29.144	-0.150	0.128
-616.317	-81.189	0.131	0.043
-615.303	24.898	-0.020	0.017
-614.288	73.112	-0.101	0.107
-613.273	-0.356	0.225	0.161
-612.259	-10.367	-0.316	0.210
-611.244	-200.000	-0.094	0.530
-610.230	-200.000	0.078	0.496
-609.215	-92.523	-0.029	0.008
-608.201	-23.121	-0.187	0.113
-607.186	-116.961	0.189	0.035
-606.171	-25.423	-0.129	0.077
-605.157	-200.000	-0.003	-0.040
-604.142	800.000	0.027	-0.090
-603.128	-200.000	0.026	-0.293
-602.113	53.979	0.063	0.060
-601.098	-83.398	-0.078	0.025
-600.084	624.645	0.097	-0.245
-599.069	-58.154	-0.260	0.114
-598.055	800.000	-0.090	0.261
-597.040	51.034	-0.147	0.140
-596.025	31.099	-0.135	-0.117
-595.011	-200.000	0.006	-0.315
-593.996	-200.000	0.009	0.158
-592.982	-67.403	-0.370	0.146
-591.967	668.506	-0.110	-0.285
-590.952	357.717	-0.059	-0.118
-589.938	545.972	0.054	-0.130
-588.923	7.179	0.225	0.169
-587.909	77.318	0.100	0.107
-586.894	-13.927	0.339	0.220
-585.879	-54.378	-0.129	0.059
-584.865	-86.498	0.443	-0.137
-583.850	-67.110	-0.325	-0.129
-582.836	123.700	0.158	0.199
-581.821	800.000	0.018	-0.066
-580.806	-200.000	-0.002	-0.119
-579.792	-160.580	0.029	-0.002
-578.777	-200.000	-0.058	0.356
-577.763	459.394	0.103	-0.229
-576.748	30.421	-0.185	-0.159
-575.733	135.005	-0.210	0.274
-574.719	-66.669	-0.404	0.161
-573.704	-200.000	-0.020	-0.114
-572.690	177.634	0.221	0.323
-571.675	123.389	-0.024	0.030
-570.661	-165.422	0.150	0.007
-569.646	800.000	0.084	-0.298
-568.631	-17.340	0.295	-0.187
-567.617	335.419	0.195	-0.379
-566.602	-54.598	-0.192	0.087
-565.588	800.000	-0.086	-0.345
-564.573	252.882	-0.220	-0.376
-563.558	83.100	0.154	0.168
-562.544	46.871	-0.095	0.089
-561.529	-163.016	-0.265	0.013
-560.515	-77.875	-0.236	0.082
-559.500	-200.000	0.015	0.373
-558.485	29.318	-0.249	-0.212
-557.471	-84.180	-0.324	0.103
-556.456	157.006	-0.109	-0.151
-555.442	800.000	0.148	-0.489
-554.427	-66.028	-0.108	0.043
-553.412	-151.199	-0.072	-0.005
-552.398	517.499	-0.073	-0.172
-551.383	121.814	0.239	-0.299
-550.369	-200.000	-0.053	0.296
-549.354	30.119	0.190	-0.163
-548.339	36.407	0.295	-0.261
-547.325	-35.630	0.228	0.124
-546.310	-79.081	-0.130	0.044
-545.296	161.081	-0.223	-0.313
-544.281	800.000	0.010	-0.039
-543.266	-96.515	0.115	-0.030
-542.252	-36.562	-0.093	0.050
-541.237	128.477	-0.062	0.079
-540.223	-200.000	0.031	-0.238
-539.208	-87.915	-0.196	-0.059
-538.193	94.284	0.067	0.076
-537.179	-83.497	-0.132	-0.042
-536.164	-31.518	-0.308	0.173
-535.150	-131.210	-0.424	0.056
-534.135	373.352	-0.113	-0.230
-533.121	800.000	-0.083	-0.272
-532.106	96.261	0.104	-0.119
-531.091	-200.000	-0.076	-0.375
-530.077	82.545	0.098	0.107
-529.062	-68.911	0.208	0.080
-528.048	-200.000	0.011	0.050
-527.033	-14.711	-0.209	-0.134
-526.018	-41.829	0.279	-0.143
-525.004	299.799	-0.014	-0.026
-523.989	-200.000	0.004	-0.432
-522.975	-61.001	-0.306	0.129
-521.960	800.000	0.044	-0.168
-520.945	-9.368	-0.136	0.091
-519.931	83.921	0.025	-0.027
-518.916	-181.946	0.332	-0.006
-517.902	769.784	-0.024	0.066
-516.887	-71.705	-0.189	0.071
-515.872	-1.974	-0.207	-0.146
-514.858	-49.583	0.171	0.082
-513.843	17.716	-0.276	-0.220
-512.829	282.860	-0.058	-0.104
-511.814	123.942	-0.248	-0.312
-510.799	-59.893	0.252	0.108
-509.785	-200.000	-0.051	0.455
-508.770	-200.000	0.019	0.122
-507.756	-50.155	0.336	-0.159
-506.741	79.208	-0.286	0.307
-505.726	-67.441	-0.228	0.089
-504.712	-90.998	-0.262	-0.075
-503.697	-200.000	0.005	-0.050
-502.683	-144.361	-0.170	0.016
-501.668	800.000	-0.092	-0.276
-500.653	68.370	-0.132	-0.136
-499.639	800.000	0.076	-0.259
-498.624	208.053	-0.143	0.223
-497.610	4.382	-0.092	0.067
-496.595	-13.528	0.229	0.148
-495.581	628.670	0.050	-0.127
-494.566	-126.239	-0.239	0.036
-493.551	689.668	0.116	0.302
-492.537	281.870	-0.169	-0.303
-491.522	-138.506	-0.149	0.016
-490.508	-91.889	0.248	0.070
-489.493	-200.000	-0.020	0.115
-488.478	-200.000	0.021	0.215
-487.464	96.349	-0.227	0.259
-486.449	525.978	-0.031	-0.073
-485.435	800.000	0.072	0.304
-484.420	207.946	0.139	0.218
-483.405	166.234	0.106	0.150
-482.391	800.000	0.158	-0.470
-481.376	-200.000	0.127	-0.000
-480.362	8.202	-0.090	0.068
-479.347	581.803	-0.105	-0.258
-478.332	-149.505	-0.303	-0.024
-477.318	800.000	-0.081	-0.263
-476.303	-77.672	-0.171	0.059
-475.289	-22.164	-0.240	0.146
-474.274	-200.000	0.053	0.286
-473.259	695.552	-0.079	-0.206
-472.245	54.702	-0.088	-0.085
-471.230	3.456	-0.146	-0.107
-470.216	-200.000	-0.048	-0.488
-469.201	57.058	0.121	0.118
-468.186	-136.681	-0.230	-0.027
-467.172	-113.703	0.078	-0.015
-466.157	-200.000	0.052	-0.373
-465.143	485.099	0.221	-0.503
-464.128	181.181	-0.097	0.142
-463.113	-11.827	0.097	0.063
-462.099	700.033	0.126	0.331
-461.084	364.901	-0.025	0.049
-460.070	450.672	0.056	-0.124
-459.055	-149.922	-0.300	-0.023
-458.040	6.654	-0.235	-0.174
-457.026	-11.077	0.186	-0.122
-456.011	-63.036	-0.042	0.017
-454.997	-200.000	0.082	0.450
-453.982	67.918	-0.163	0.167
-452.968	261.955	0.111	-0.193
-451.953	-200.000	-0.042	0.338
-450.938	-13.900	-0.037	-0.024
-449.924	-83.035	-0.079	-0.025
-448.909	84.805	-0.124	-0.135
-447.895	-96.732	0.006	0.002
-446.880	-51.648	0.088	0.041
-445.865	-0.015	0.148	-0.105
-444.851	800.000	0.092	-0.365
-443.836	88.288	-0.182	-0.201
-442.822	-65.402	0.299	0.120
-441.807	-74.515	0.302	-0.108
-440.792	800.000	0.038	-0.118
-439.778	161.602	0.086	0.119
-438.763	-153.683	0.118	-0.008
-437.749	-120.467	-0.428	-0.073
-436.734	-122.867	-0.179	-0.029
-435.719	-200.000	0.009	-0.101
-434.705	24.839	-0.177	0.147
-433.690	516.479	-0.074	0.173
-432.676	-200.000	-0.009	-0.204
-431.661	-44.854	-0.285	-0.142
-430.646	-157.039	-0.397	-0.024
-429.632	-200.000	-0.073	0.391
-428.617	603.614	-0.087	0.217
-427.603	-46.736	0.147	-0.072
-426.588	-75.421	-0.352	-0.125
-425.573	63.664	0.221	0.221
-424.559	111.311	-0.116	0.139
-423.544	-54.549	0.034	-0.015
-422.530	-172.090	0.165	-0.005
-421.515	-31.645	0.182	0.102
-420.500	441.893	0.180	0.394
-419.486	-94.389	-0.302	0.082
-418.471	404.407	0.132	0.277
-417.457	-18.060	-0.143	0.089
-416.442	-167.774	-0.206	-0.008
-415.428	-26.988	0.243	-0.142
-414.413	800.000	0.090	-0.327
-413.398	-200.000	0.007	0.209
-412.384	800.000	0.037	0.114
-411.369	-200.000	0.022	0.122
-410.355	133.276	-0.127	0.164
-409.340	-131.702	0.169	-0.022
-408.325	-45.500	-0.221	0.109
-407.311	-57.908	0.132	0.058
-406.296	74.794	0.134	-0.141
-405.282	800.000	0.013	-0.054
-404.267	-200.000	0.016	0.168
-403.252	230.302	-0.178	0.290
-402.238	46.014	0.143	-0.132
-401.223	17.060	-0.043	-0.034
-400.209	-200.000	-0.047	-0.432
-399.194	153.495	0.135	-0.185
-398.179	684.555	-0.127	-0.330
-397.165	594.929	0.057	-0.141
-396.150	383.539	0.137	0.280
-395.136	-52.922	-0.149	0.068
-394.121	-36.540	-0.028	0.015
-393.106	-17.296	0.329	-0.207
-392.092	-200.000	0.018	-0.129
-391.077	16.595	0.069	0.055
-390.063	-114.106	-0.314	-0.061
-389.048	-24.488	0.158	0.093
-388.033	145.684	0.231	0.308
-387.019	-200.000	-0.035	0.168
-386.004	-110.330	-0.059	-0.012
-384.990	800.000	-0.046	-0.148
-383.975	-200.000	-0.040	0.183
-382.960	450.540	-0.073	0.161
-381.946	-200.000	0.381	-0.001
-380.931	240.604	-0.158	0.263
-379.917	-200.000	0.047	0.320
-378.902	-37.096	0.303	-0.161
-377.888	-108.700	0.407	-0.087
-376.873	88.591	-0.123	-0.136
-375.858	149.329	0.117	-0.157
-374.844	325.480	-0.263	0.500
-373.829	-11.330	-0.134	-0.088
-372.815	-115.530	0.406	0.076
-371.800	121.150	-0.390	0.483
-370.785	404.316	-0.104	-0.217
-369.771	-76.492	-0.232	0.081
-368.756	291.115	0.085	-0.153
-367.742	-113.739	-0.106	0.021
-366.727	775.045	0.104	0.284
-365.712	-31.905	0.216	-0.120
-364.698	71.081	-0.172	-0.177
-363.683	-81.715	0.176	0.057
-362.669	-161.656	0.267	-0.014
-361.654	120.661	-0.199	0.246
-360.639	412.125	-0.067	0.142
-359.625	-86.945	0.251	0.076
-358.610	87.929	0.240	0.265
-357.596	-87.802	0.082	0.025
-356.581	69.384	-0.109	0.111
-355.566	38.150	0.098	0.087
-354.552	383.513	-0.061	-0.125
-353.537	800.000	0.014	-0.061
-352.523	9.072	0.098	-0.073
-351.508	-59.434	0.069	-0.030
-350.493	97.331	0.297	0.339
-349.479	783.777	-0.071	-0.193
-348.464	-156.277	0.125	-0.008
-347.450	14.916	-0.140	0.109
-346.435	5.890	0.234	-0.172
-345.420	131.996	0.035	0.045
-344.406	-200.000	0.002	0.105
-343.391	-124.537	-0.302	-0.047
-342.377	800.000	0.025	-0.071
-341.362	50.013	-0.102	0.096
-340.348	-5.638	-0.313	-0.213
-339.333	-200.000	0.028	0.318
-338.318	-118.219	0.245	-0.043
-337.304	633.415	0.030	-0.076
-336.289	188.978	-0.141	-0.210
-335.275	800.000	-0.084	0.338
-334.260	-80.535	0.108	-0.036
-333.245	569.247	0.043	0.103
-332.231	-111.936	0.081	-0.016
-331.216	-200.000	0.026	-0.204
-330.202	234.857	-0.174	0.286
-329.187	800.000	0.136	-0.480
-328.172	62.348	-0.047	-0.047
-327.158	387.488	0.044	-0.091
-326.143	-200.000	0.000	-0.188
-325.129	399.903	-0.023	0.048
-324.114	48.111	0.047	-0.044
-323.099	-200.000	-0.030	0.202
-322.085	100.264	0.125	-0.144
-321.070	318.710	0.112	-0.211
-320.056	133.735	-0.219	0.281
-319.041	-47.249	0.221	-0.107
-318.026	-118.685	0.261	-0.046
-317.012	9.520	-0.067	-0.050
-315.997	-200.000	0.030	-0.231
-314.983	-95.476	-0.102	-0.027
-313.968	11.775	0.241	-0.184
-312.953	-43.297	-0.239	-0.120
-311.939	201.787	0.075	0.115
-310.924	185.044	0.126	-0.186
-309.910	-39.592	0.194	0.101
-308.895	12.830	-0.205	-0.157
-307.880	-86.341	-0.427	0.130
-306.866	-94.429	-0.120	-0.032
-305.851	-107.668	0.305	-0.066
-304.837	-126.704	0.229	0.034
-303.822	-71.575	-0.219	0.081
-302.807	32.052	0.244	-0.208
-301.793	-163.741	0.046	0.002
-300.778	274.526	0.139	-0.244
-299.764	325.406	-0.067	-0.126
-298.749	-79.226	-0.236	-0.079
-297.735	-42.647	-0.171	0.087
-296.720	467.274	-0.097	0.216
-295.705	249.343	0.087	-0.147
-294.691	-200.000	-0.009	0.100
-293.676	800.000	-0.057	0.212
-292.662	800.000	-0.111	0.359
-291.647	113.455	0.087	0.104
-290.632	63.246	0.304	0.302
-289.618	-118.212	-0.238	-0.042
-288.603	-74.766	0.344	0.123
-287.589	34.705	0.036	-0.032
-286.574	-114.839	0.174	0.033
-285.559	-108.212	-0.353	0.076
-284.545	296.401	0.136	-0.247
-283.530	800.000	-0.110	0.306
-282.516	-200.000	-0.010	0.416
-281.501	-62.768	-0.330	-0.136
-280.486	153.219	-0.146	-0.198
-279.472	-158.822	-0.266	-0.015
-278.457	-200.000	0.016	-0.133
-277.443	324.674	0.091	0.172
-276.428	36.270	-0.237	-0.207
-275.413	-49.727	0.481	-0.227
-274.399	375.162	-0.136	-0.275
-273.384	717.542	0.065	-0.172
-272.370	2.925	-0.077	-0.055
-271.355	800.000	-0.124	-0.514
-270.340	45.359	-0.349	0.320
-269.326	92.720	0.120	0.135
-268.311	-30.601	0.098	0.055
-267.297	-14.862	0.164	0.104
-266.282	243.199	0.126	-0.209
-265.267	303.294	0.032	0.059
-264.253	-100.310	0.377	0.093
-263.238	-151.591	0.230	0.017
-262.224	-82.398	0.075	-0.024
-261.209	-200.000	0.000	0.151
-260.195	410.210	0.247	0.518
-259.180	-200.000	-0.026	0.161
-258.165	87.383	0.095	0.105
-257.151	94.499	0.134	0.151
-256.136	-31.429	0.068	-0.038
-255.122	-200.000	0.008	-0.241
-254.107	-63.097	0.263	0.108
-253.092	490.810	-0.100	0.226
-252.078	-163.021	-0.309	-0.015
-251.063	-7.839	-0.306	-0.205
-250.049	800.000	0.094	0.405
-249.034	122.209	-0.079	-0.098
-248.019	-42.623	-0.236	0.119
-247.005	601.539	-0.067	-0.165
-245.990	800.000	0.010	0.030
-244.976	-200.000	0.005	0.099
-243.961	800.000	-0.020	0.083
-242.946	259.945	0.008	0.014
-241.932	-26.793	0.054	-0.031
-240.917	800.000	0.075	0.256
-239.903	-200.000	0.009	0.241
-238.888	204.890	-0.146	-0.224
-237.873	55.788	0.126	0.121
-236.859	-181.865	0.098	-0.002
-235.844	42.826	-0.156	-0.141
-234.830	183.038	-0.133	-0.194
-233.815	86.232	-0.197	-0.215
-232.800	-87.511	0.268	0.080
-231.786	-96.431	0.411	0.108
-230.771	212.257	0.048	-0.075
-229.757	-62.647	0.370	0.152
-228.742	-137.027	0.204	-0.023
-227.727	-200.000	0.006	0.056
-226.713	710.600	0.061	-0.159
-225.698	329.066	0.061	-0.115
-224.684	-197.544	0.133	-0.001
-223.669	631.858	0.096	0.241
-222.655	800.000	0.082	-0.264
-221.640	-14.798	0.189	0.120
-220.625	545.849	0.045	0.107
-219.611	800.000	-0.132	0.361
-218.596	-78.560	-0.340	0.115
-217.582	112.080	-0.112	-0.134
-216.567	702.062	-0.124	-0.322
-215.552	275.869	-0.058	0.102
-214.538	234.278	0.108	0.176
-213.523	-64.208	-0.032	-0.013
-212.509	-23.156	0.183	-0.109
-211.494	-127.309	-0.293	0.042
-210.479	200.399	-0.082	-0.124
-209.465	-153.909	0.318	-0.021
-208.450	462.281	-0.047	-0.104
-207.436	67.673	0.190	-0.192
-206.421	-200.000	0.003	-0.153
-205.406	-200.000	0.057	0.359
-204.392	23.168	-0.071	-0.057
-203.377	-104.604	0.272	-0.062
-202.363	-14.304	-0.118	0.075
-201.348	85.077	-0.160	-0.174
-200.333	-52.428	0.209	0.096
-199.319	263.193	0.121	-0.208
-198.304	-171.784	0.044	-0.001
-197.290	-129.920	-0.197	0.027
-196.275	800.000	0.021	0.058
-195.260	-200.000	0.005	-0.174
-194.246	-87.322	0.228	-0.069
-193.231	800.000	-0.070	-0.195
-192.217	-198.310	0.169	0.001
-191.202	-107.112	0.162	0.035
-190.187	319.963	-0.332	-0.623
-189.173	70.480	0.180	-0.183
-188.158	-200.000	0.071	0.339
-187.144	56.414	0.267	-0.256
-186.129	-96.496	0.400	-0.104
-185.114	-40.507	-0.016	-0.008
-184.100	777.854	-0.034	-0.093
-183.085	-46.881	0.148	-0.072
-182.071	-60.964	0.247	0.103
-181.056	110.437	-0.182	-0.216
-180.042	-63.835	0.206	0.083
-179.027	93.169	-0.094	-0.105
-178.012	-79.889	0.180	-0.060
-176.998	-92.301	0.297	-0.083
-175.983	-100.507	-0.310	-0.076
-174.969	103.827	0.154	-0.179
-173.954	800.000	0.059	0.204
-172.939	-200.000	-0.066	0.331
-171.925	800.000	0.110	-0.323
-170.910	83.993	0.107	-0.115
-169.896	-200.000	0.023	0.136
-168.881	800.000	-0.024	0.068
-167.866	-117.760	0.134	0.024
-166.852	294.016	-0.076	0.137
-165.837	352.030	-0.066	-0.130
-164.823	-128.400	-0.044	0.006
-163.808	-101.685	0.095	0.023
-162.793	243.214	-0.064	-0.105
-161.779	-60.806	0.184	0.077
-160.764	22.206	0.254	-0.205
-159.750	427.574	-0.079	-0.168
-158.735	-41.421	-0.405	0.206
-157.720	63.955	0.109	0.108
-156.706	-200.000	-0.423	-0.000
-155.691	-32.497	0.203	-0.112
-154.677	-18.357	-0.250	-0.154
-153.662	-200.000	-0.040	0.180
-152.647	-119.691	0.322	-0.055
-151.633	-200.000	-0.069	0.375
-150.618	-38.999	0.310	0.161
-149.604	-73.945	0.300	0.108
-148.589	-131.105	-0.228	0.030
-147.574	-200.000	-0.016	0.101
-146.560	800.000	0.049	0.182
-145.545	800.000	0.121	-0.355
-144.531	800.000	-0.065	-0.190
-143.516	499.925	-0.063	0.144
-142.502	-200.000	-0.005	0.254
-141.487	-36.285	-0.160	0.085
-140.472	-200.000	-0.020	0.127
-139.458	79.077	0.248	0.262
-138.443	-110.399	0.124	-0.026
-137.429	-22.251	-0.190	0.114
-136.414	-200.000	-0.044	0.411
-135.399	519.751	-0.088	0.205
-134.385	800.000	0.061	0.193
-133.370	-200.000	-0.040	-0.416
-132.356	-64.722	0.107	0.043
-131.341	-30.887	-0.105	0.059
-130.326	800.000	-0.016	0.051
-129.312	-31.222	-0.287	0.160
-128.297	62.194	0.229	0.225
-127.283	-200.000	0.041	0.382
-126.268	332.888	-0.339	0.646
-125.253	-23.016	-0.125	0.074
-124.239	37.033	0.223	0.195
-123.224	81.647	-0.342	0.365
-122.210	646.721	0.105	-0.264
-121.195	-38.424	0.162	0.085
-120.180	-148.223	0.072	0.006
