DTS Sentinel unit serial number:	SN413079Multiplexer serial number:	ORYXHardware model number:	OX4-SRSoftware version number:	ORYX F/W v4.00 Oryx Data Collector v3.7.2.0data status	okinstallation	princeton_trtdifferential loss correction	single-endedforward channel	channel 1reverse channel	N/Adate	2019/09/15time	10:42:35forward acquisition time	60.00reverse acquisition time	0.00gamma	496.2192k internal	0.2309k external	0.2309temperature offset calibration	0.9987default loss term (dB/km)	0.3790temperature slope calibration	1.0000multiplexer offset coefficient	1.0000multiplexer slope coefficient	1.0000fibre end	0.00T internal ref (°C)	34.25T ext. ref 1 (°C)	5.02T ext. ref 2 (°C)	29.52length (m)	temperature (°C)	Stokes	anti-Stokes-747.200	-200.000	-0.002	0.104
-746.185	800.000	0.105	0.390
-745.171	378.976	-0.064	-0.134
-744.156	5.369	-0.192	0.144
-743.142	163.826	0.194	0.278
-742.127	-84.112	-0.285	0.092
-741.112	-125.487	-0.086	-0.013
-740.098	-131.517	-0.093	0.012
-739.083	-135.891	0.111	-0.013
-738.069	-150.348	0.103	-0.008
-737.054	-143.269	0.197	-0.019
-736.039	-37.562	-0.221	0.120
-735.025	-140.917	0.218	-0.023
-734.010	266.165	-0.190	-0.337
-732.996	-136.532	-0.435	-0.051
-731.981	-134.438	-0.185	0.023
-730.966	2.537	0.156	0.115
-729.952	-29.740	-0.218	-0.126
-728.937	-79.579	-0.339	0.116
-727.923	-200.000	-0.001	0.245
-726.908	25.078	0.181	-0.153
-725.894	-160.098	-0.545	0.030
-724.879	-175.673	-0.082	-0.002
-723.864	-200.000	-0.035	-0.252
-722.850	93.009	-0.282	-0.323
-721.835	745.292	-0.089	0.244
-720.821	81.455	-0.198	-0.217
-719.806	-200.000	-0.005	0.165
-718.791	-29.170	-0.252	-0.147
-717.777	210.080	0.231	-0.368
-716.762	800.000	0.094	-0.390
-715.748	-200.000	-0.048	-0.335
-714.733	800.000	-0.039	-0.110
-713.718	149.929	0.157	-0.216
-712.704	-197.253	-0.189	-0.001
-711.689	35.131	-0.189	-0.168
-710.675	-200.000	-0.012	-0.138
-709.660	-26.973	0.138	0.082
-708.645	33.598	0.124	0.110
-707.631	-200.000	-0.016	-0.474
-706.616	392.815	-0.100	0.212
-705.602	51.005	0.096	-0.092
-704.587	-200.000	0.010	-0.166
-703.572	-93.414	0.293	0.082
-702.558	-200.000	0.009	-0.172
-701.543	170.824	0.108	0.157
-700.529	45.332	0.260	0.244
-699.514	188.717	0.162	-0.246
-698.499	-71.574	-0.186	-0.070
-697.485	-156.979	-0.175	-0.011
-696.470	-200.000	0.077	0.416
-695.456	-149.304	0.263	-0.021
-694.441	-200.000	0.003	-0.129
-693.426	-47.130	0.101	-0.050
-692.412	109.374	0.227	-0.276
-691.397	628.833	0.071	0.181
-690.383	88.789	-0.336	-0.379
-689.368	-128.631	-0.279	-0.040
-688.354	-171.859	-0.160	0.005
-687.339	2.138	-0.109	0.080
-686.324	-150.005	0.287	0.023
-685.310	-200.000	0.023	0.111
-684.295	71.258	-0.109	0.114
-683.281	-147.954	0.141	-0.012
-682.266	800.000	-0.101	0.442
-681.251	73.705	-0.258	0.274
-680.237	33.257	-0.279	-0.245
-679.222	671.316	0.060	0.158
-678.208	-119.162	0.234	-0.041
-677.193	37.774	-0.141	0.127
-676.178	-96.448	-0.173	-0.046
-675.164	-49.339	-0.263	-0.127
-674.149	-117.312	0.424	0.078
-673.135	82.494	0.119	-0.131
-672.120	-142.434	-0.058	-0.006
-671.105	-14.542	-0.169	0.110
-670.091	-164.687	0.202	-0.009
-669.076	800.000	0.054	0.208
-668.062	614.673	-0.052	0.131
-667.047	79.764	0.087	-0.094
-666.032	-40.321	0.114	0.060
-665.018	-0.565	0.094	-0.067
-664.003	-200.000	0.015	-0.103
-662.989	-176.186	0.071	0.002
-661.974	-5.294	-0.147	0.102
-660.959	-200.000	0.034	0.288
-659.945	800.000	0.071	0.291
-658.930	800.000	-0.043	-0.151
-657.916	33.028	-0.155	0.136
-656.901	-74.698	0.232	0.085
-655.886	87.247	0.085	-0.095
-654.872	22.503	0.140	-0.116
-653.857	-11.678	-0.306	-0.203
-652.843	125.357	0.112	0.143
-651.828	2.211	0.089	0.065
-650.814	-200.000	-0.003	-0.146
-649.799	-179.474	-0.320	0.007
-648.784	-77.863	0.320	0.112
-647.770	-105.151	-0.158	0.037
-646.755	-200.000	0.055	-0.267
-645.741	-200.000	0.039	0.223
-644.726	-200.000	0.010	-0.055
-643.711	351.360	0.081	-0.161
-642.697	205.008	0.070	0.111
-641.682	93.821	0.115	0.132
-640.668	13.299	0.150	-0.117
-639.653	-13.024	0.074	-0.049
-638.638	-45.540	0.106	-0.053
-637.624	-89.655	-0.216	0.064
-636.609	353.198	0.063	-0.125
-635.595	-109.210	-0.078	-0.017
-634.580	678.023	-0.087	-0.228
-633.565	153.323	-0.090	-0.124
-632.551	-94.510	-0.194	0.054
-631.536	-200.000	0.033	-0.160
-630.522	380.815	-0.080	-0.167
-629.507	100.956	0.159	0.187
-628.492	411.612	-0.083	0.178
-627.478	-101.656	-0.125	-0.031
-626.463	-90.865	-0.242	0.070
-625.449	-109.164	-0.556	-0.120
-624.434	-85.971	0.295	0.092
-623.419	225.282	-0.123	-0.202
-622.405	-137.182	0.113	0.013
-621.390	161.725	-0.171	-0.242
-620.376	152.778	0.050	0.069
-619.361	-200.000	-0.035	-0.187
-618.346	-69.308	0.210	0.081
-617.332	-91.103	0.164	-0.048
-616.317	-200.000	0.053	0.236
-615.303	-73.716	0.355	0.130
-614.288	285.043	-0.052	-0.094
-613.273	-200.000	0.027	0.124
-612.259	800.000	0.138	-0.427
-611.244	-13.348	0.168	0.110
-610.230	-200.000	0.026	0.223
-609.215	-200.000	0.025	0.139
-608.201	800.000	0.080	0.250
-607.186	-15.138	-0.020	0.013
-606.171	-44.174	-0.264	-0.134
-605.157	-53.799	-0.357	0.164
-604.142	-2.131	-0.213	-0.151
-603.128	-34.026	0.095	-0.053
-602.113	-45.405	-0.189	0.095
-601.098	-75.406	0.098	-0.035
-600.084	-72.102	0.216	0.081
-599.069	-53.963	-0.468	0.215
-598.055	157.192	-0.190	-0.266
-597.040	94.769	-0.155	0.178
-596.025	-200.000	0.013	-0.125
-595.011	351.184	-0.039	-0.077
-593.996	156.166	0.044	-0.062
-592.982	218.281	0.054	0.087
-591.967	-18.107	-0.188	0.119
-590.952	-95.063	0.229	0.062
-589.938	203.016	0.108	-0.169
-588.923	126.428	0.012	-0.015
-587.909	89.206	0.109	0.122
-586.894	800.000	-0.052	-0.165
-585.879	177.815	-0.218	0.322
-584.865	-164.581	0.250	-0.011
-583.850	234.902	-0.163	0.271
-582.836	-52.922	-0.294	-0.137
-581.821	363.149	0.055	0.112
-580.806	-55.274	0.078	0.036
-579.792	800.000	-0.144	-0.424
-578.777	-94.156	-0.205	-0.057
-577.763	-141.505	-0.088	0.009
-576.748	210.088	-0.020	-0.032
-575.733	595.614	0.081	0.201
-574.719	800.000	0.077	-0.264
-573.704	256.790	0.103	-0.179
-572.690	-27.535	-0.145	-0.085
-571.675	-127.077	-0.138	-0.020
-570.661	800.000	0.029	0.119
-569.646	-113.803	-0.388	-0.076
-568.631	23.457	0.048	0.040
-567.617	-80.256	0.118	0.040
-566.602	800.000	-0.071	0.243
-565.588	270.028	0.018	-0.032
-564.573	-134.385	0.348	-0.043
-563.558	-3.171	-0.227	0.160
-562.544	-38.402	-0.064	0.034
-561.529	42.625	-0.208	-0.191
-560.515	-124.889	0.041	-0.006
-559.500	287.743	-0.174	0.318
-558.485	20.504	-0.219	0.179
-557.471	51.478	-0.308	-0.295
-556.456	-139.735	-0.444	-0.048
-555.442	508.218	-0.012	0.028
-554.427	-200.000	0.005	0.184
-553.412	38.330	0.216	-0.194
-552.398	-200.000	-0.022	0.138
-551.383	-85.787	0.256	0.080
-550.369	323.012	0.111	-0.213
-549.354	476.384	-0.043	-0.099
-548.339	-28.010	-0.194	0.113
-547.325	-200.000	0.029	-0.227
-546.310	96.385	0.189	-0.218
-545.296	-175.694	0.293	0.008
-544.281	784.680	0.099	-0.273
-543.266	800.000	-0.016	-0.057
-542.252	-200.000	0.026	0.294
-541.237	150.782	-0.153	-0.210
-540.223	800.000	-0.033	0.111
-539.208	33.861	-0.221	0.194
-538.193	-157.246	0.246	-0.015
-537.179	-171.906	-0.225	0.007
-536.164	-162.701	-0.291	0.014
-535.150	-200.000	0.033	0.184
-534.135	-200.000	-0.034	0.386
-533.121	200.373	-0.168	0.260
-532.106	-200.000	0.028	-0.128
-531.091	-158.409	0.169	0.010
-530.077	-29.349	-0.160	-0.092
-529.062	218.940	0.065	0.104
-528.048	-187.722	0.132	0.002
-527.033	124.130	-0.073	-0.092
-526.018	-150.871	-0.152	-0.012
-525.004	-146.806	-0.200	-0.017
-523.989	74.808	-0.165	-0.175
-522.975	112.765	-0.199	-0.243
-521.960	-192.234	-0.245	0.002
-520.945	-88.230	-0.376	0.113
-519.931	-101.569	0.253	-0.062
-518.916	800.000	0.105	-0.314
-517.902	800.000	0.068	-0.277
-516.887	-44.942	-0.086	-0.043
-515.872	800.000	0.074	-0.216
-514.858	-17.251	0.150	0.095
-513.843	-200.000	-0.032	-0.151
-512.829	-42.094	0.313	-0.161
-511.814	-99.014	-0.120	0.031
-510.799	307.648	-0.122	-0.230
-509.785	29.965	0.266	0.228
-508.770	119.169	-0.127	-0.159
-507.756	-41.743	0.270	-0.140
-506.741	42.591	-0.035	-0.032
-505.726	448.496	-0.009	0.020
-504.712	59.863	-0.076	0.075
-503.697	262.799	-0.070	0.122
-502.683	-200.000	-0.014	0.269
-501.668	99.501	-0.069	-0.080
-500.653	-200.000	-0.038	0.306
-499.639	800.000	0.044	-0.169
-498.624	31.208	-0.201	-0.173
-497.610	85.537	-0.235	-0.260
-496.595	80.853	-0.128	-0.139
-495.581	-200.000	-0.017	0.121
-494.566	800.000	-0.094	0.308
-493.551	10.541	-0.101	-0.077
-492.537	-200.000	-0.013	0.062
-491.522	-49.126	0.300	-0.144
-490.508	42.152	0.312	-0.285
-489.493	-96.183	0.228	-0.061
-488.478	659.732	0.106	0.276
-487.464	45.330	-0.300	-0.279
-486.449	-200.000	-0.004	-0.233
-485.435	398.994	0.147	0.310
-484.420	333.911	0.213	-0.415
-483.405	800.000	0.026	-0.072
-482.391	27.480	-0.062	0.052
-481.376	105.116	0.179	-0.212
-480.362	119.379	0.124	-0.154
-479.347	30.303	-0.140	-0.120
-478.332	46.508	0.266	0.248
-477.318	800.000	0.054	0.231
-476.303	-200.000	-0.028	0.162
-475.289	800.000	0.105	-0.388
-474.274	-39.548	0.086	-0.045
-473.259	800.000	-0.082	-0.354
-472.245	119.554	-0.100	-0.125
-471.230	800.000	0.030	-0.105
-470.216	69.151	0.256	0.264
-469.201	60.595	0.019	-0.019
-468.186	229.594	-0.102	-0.167
-467.172	-27.302	-0.184	0.108
-466.157	239.378	0.110	0.184
-465.143	57.326	-0.097	0.095
-464.128	386.650	-0.048	-0.100
-463.113	-30.432	-0.166	-0.094
-462.099	-84.907	0.263	-0.083
-461.084	-150.156	0.066	0.005
-460.070	-125.790	-0.169	-0.026
-459.055	170.663	-0.116	0.167
-458.040	-161.739	0.143	-0.007
-457.026	-200.000	0.001	-0.057
-456.011	54.228	-0.278	0.268
-454.997	-200.000	0.011	0.064
-453.982	-23.228	0.283	-0.171
-452.968	53.518	-0.163	-0.157
-451.953	0.913	-0.141	0.101
-450.938	37.828	-0.201	-0.180
-449.924	-168.850	-0.374	-0.014
-448.909	-47.428	-0.348	0.170
-447.895	-200.000	0.027	-0.157
-446.880	-61.026	0.242	0.103
-445.865	620.349	0.039	-0.098
-444.851	745.996	-0.042	0.114
-443.836	-107.654	0.293	-0.064
-442.822	-68.270	0.088	0.034
-441.807	-200.000	0.057	-0.263
-440.792	-134.394	0.255	0.031
-439.778	-109.884	0.156	0.033
-438.763	-200.000	-0.007	0.115
-437.749	-4.867	0.377	0.261
-436.734	32.081	0.141	0.122
-435.719	-13.209	-0.137	0.089
-434.705	45.954	-0.201	0.187
-433.690	-200.000	0.034	0.278
-432.676	0.899	-0.271	0.195
-431.661	-21.198	-0.043	0.027
-430.646	-200.000	-0.004	-0.055
-429.632	3.666	-0.261	-0.191
-428.617	-93.014	-0.238	0.067
-427.603	-126.874	0.283	0.042
-426.588	-200.000	0.073	-0.322
-425.573	188.482	-0.108	0.162
-424.559	800.000	-0.069	-0.206
-423.544	-164.796	0.361	0.016
-422.530	800.000	-0.019	-0.054
-421.515	800.000	0.107	0.308
-420.500	-145.483	-0.037	-0.003
-419.486	-61.663	-0.176	-0.074
-418.471	800.000	-0.018	0.056
-417.457	-115.948	0.011	0.002
-416.442	-147.234	0.161	0.014
-415.428	9.867	-0.216	-0.164
-414.413	-200.000	-0.007	-0.057
-413.398	136.984	-0.064	-0.084
-412.384	-61.216	0.204	0.086
-411.369	35.630	-0.280	-0.246
-410.355	-7.601	-0.096	-0.065
-409.340	56.221	0.079	-0.076
-408.325	-200.000	-0.076	-0.339
-407.311	800.000	0.036	-0.101
-406.296	-134.798	0.234	0.028
-405.282	193.867	-0.148	-0.225
-404.267	-182.677	0.251	0.005
-403.252	31.348	0.157	0.135
-402.238	800.000	-0.019	-0.063
-401.223	-200.000	-0.047	-0.233
-400.209	-24.071	-0.173	0.104
-399.194	-56.036	-0.114	0.051
-398.179	-200.000	-0.011	-0.064
-397.165	800.000	-0.074	0.227
-396.150	-200.000	0.000	-0.164
-395.136	-88.060	0.266	-0.080
-394.121	333.488	-0.129	-0.251
-393.106	800.000	-0.068	0.258
-392.092	128.733	0.240	0.307
-391.077	800.000	0.011	0.035
-390.063	-139.652	0.384	0.041
-389.048	205.792	0.090	-0.141
-388.033	-43.139	0.116	0.059
-387.019	-39.092	-0.048	0.025
-386.004	3.933	0.250	0.183
-384.990	406.424	0.114	0.242
-383.975	622.200	0.058	0.146
-382.960	340.535	0.045	0.088
-381.946	-200.000	0.023	-0.229
-380.931	352.695	0.133	0.265
-379.917	-182.892	0.139	0.002
-378.902	127.543	0.153	-0.195
-377.888	-73.078	0.122	0.045
-376.873	38.794	-0.100	-0.090
-375.858	-76.251	0.264	-0.093
-374.844	-158.700	0.068	-0.004
-373.829	-69.813	-0.178	0.068
-372.815	800.000	0.102	-0.358
-371.800	-83.919	0.304	-0.097
-370.785	-200.000	0.022	-0.096
-369.771	-85.967	0.228	0.071
-368.756	-200.000	-0.024	0.134
-367.742	800.000	0.102	0.375
-366.727	-200.000	0.053	-0.283
-365.712	97.426	0.052	-0.060
-364.698	517.984	0.121	-0.284
-363.683	-200.000	0.028	0.140
-362.669	-180.000	0.316	-0.007
-361.654	227.958	0.063	-0.103
-360.639	223.975	-0.027	0.043
-359.625	82.540	-0.092	0.100
-358.610	207.996	-0.085	0.133
-357.596	108.461	0.117	0.139
-356.581	10.051	0.067	0.051
-355.566	-107.315	-0.075	0.017
-354.552	215.088	0.072	-0.114
-353.537	8.603	0.234	0.176
-352.523	223.452	-0.224	-0.361
-351.508	-200.000	-0.004	-0.098
-350.493	-66.890	-0.346	-0.137
-349.479	-186.980	0.288	0.004
-348.464	16.568	-0.279	-0.220
-347.450	113.546	0.029	-0.036
-346.435	-30.121	-0.157	-0.089
-345.420	800.000	0.071	0.199
-344.406	352.879	0.063	-0.125
-343.391	-112.204	-0.184	0.037
-342.377	-41.723	-0.104	-0.053
-341.362	-65.984	0.218	-0.087
-340.348	-200.000	0.032	0.159
-339.333	-49.659	-0.048	-0.023
-338.318	349.649	0.113	-0.222
-337.304	256.094	0.150	-0.257
-336.289	134.299	-0.124	0.161
-335.275	-166.777	0.240	0.010
-334.260	-86.504	-0.151	-0.046
-333.245	-128.826	-0.314	-0.044
-332.231	133.301	0.052	0.067
-331.216	227.486	-0.068	0.111
-330.202	229.073	-0.212	0.345
-329.187	-57.751	-0.269	0.118
-328.172	-164.025	-0.143	0.007
-327.158	405.979	-0.062	-0.131
-326.143	-200.000	0.081	0.405
-325.129	-0.279	0.234	0.166
-324.114	-19.661	0.369	-0.228
-323.099	-99.444	-0.175	-0.044
-322.085	-112.338	-0.255	-0.051
-321.070	1.918	-0.124	0.089
-320.056	-200.000	0.021	-0.146
-319.041	-52.873	0.209	-0.096
-318.026	-200.000	-0.048	0.246
-317.012	-9.423	0.018	-0.012
-315.997	-76.974	0.184	-0.064
-314.983	-10.764	-0.185	0.122
-313.968	-25.460	0.206	0.122
-312.953	144.723	0.115	-0.153
-311.939	-120.791	0.079	0.013
-310.924	-66.529	-0.268	-0.106
-309.910	36.769	0.141	0.124
-308.895	-100.309	-0.166	-0.041
-307.880	800.000	-0.043	0.136
-306.866	231.024	-0.077	0.126
-305.851	18.851	-0.220	0.176
-304.837	22.349	0.151	-0.124
-303.822	-6.971	-0.117	0.079
-302.807	-200.000	0.092	0.629
-301.793	-59.692	0.121	0.052
-300.778	121.773	0.141	-0.176
-299.764	208.268	-0.130	-0.203
-298.749	23.507	-0.215	-0.177
-297.735	800.000	-0.099	-0.343
-296.720	-200.000	-0.211	-0.001
-295.705	48.041	0.155	-0.144
-294.691	800.000	0.063	0.226
-293.676	580.544	0.107	-0.261
-292.662	210.615	0.073	-0.115
-291.647	-133.526	0.061	-0.008
-290.632	-107.643	-0.216	-0.047
-289.618	131.714	0.187	0.240
-288.603	-200.000	-0.002	0.169
-287.589	156.335	-0.072	-0.099
-286.574	-200.000	0.089	-0.528
-285.559	-200.000	-0.003	0.023
-284.545	-122.721	-0.385	-0.062
-283.530	37.812	0.181	-0.161
-282.516	-101.467	0.182	-0.044
-281.501	204.493	-0.115	0.178
-280.486	-5.306	0.221	-0.151
-279.472	-81.920	-0.225	-0.074
-278.457	-164.070	0.171	-0.008
-277.443	-188.096	0.228	0.003
-276.428	-6.353	-0.464	-0.315
-275.413	-72.937	-0.092	-0.034
-274.399	800.000	0.114	-0.369
-273.384	-19.712	0.062	0.038
-272.370	313.080	-0.065	-0.122
-271.355	-200.000	0.019	0.278
-270.340	-97.550	0.133	-0.034
-269.326	-23.521	0.333	0.199
-268.311	110.355	-0.098	0.117
-267.297	125.128	0.033	0.041
-266.282	-75.587	-0.387	-0.137
-265.267	225.988	0.117	-0.190
-264.253	-125.956	0.235	-0.035
-263.238	-81.792	-0.051	0.017
-262.224	211.441	0.173	-0.271
-261.209	14.961	-0.180	0.140
-260.195	119.401	-0.191	0.236
-259.180	800.000	0.066	-0.249
-258.165	-160.436	0.077	0.004
-257.151	-200.000	0.014	-0.075
-256.136	-66.147	0.072	0.028
-255.122	-75.773	0.268	0.095
-254.107	32.535	0.046	0.040
-253.092	414.971	-0.060	-0.127
-252.078	194.231	-0.216	-0.326
-251.063	800.000	-0.077	0.307
-250.049	-200.000	-0.064	-0.280
-249.034	-38.469	-0.195	-0.103
-248.019	120.217	-0.161	-0.199
-247.005	-129.613	0.139	0.019
-245.990	-110.435	-0.116	-0.024
-244.976	-21.468	0.214	0.130
-243.961	-144.113	0.192	0.018
-242.946	210.778	0.108	-0.169
-241.932	77.297	0.210	0.223
-240.917	800.000	0.085	0.342
-239.903	-22.658	-0.271	-0.163
-238.888	11.717	0.260	-0.199
-237.873	-200.000	0.053	-0.334
-236.859	-200.000	0.024	0.214
-235.844	361.699	0.086	0.172
-234.830	371.587	0.169	-0.342
-233.815	-200.000	0.042	0.220
-232.800	-200.000	0.004	-0.129
-231.786	-34.505	-0.286	-0.156
-230.771	-200.000	-0.065	-0.327
-229.757	19.127	0.312	0.249
-228.742	47.466	-0.098	-0.091
-227.727	-78.307	-0.190	0.065
-226.713	-52.443	0.193	0.089
-225.698	77.864	0.221	0.235
-224.684	-16.091	-0.288	0.182
-223.669	800.000	-0.033	0.113
-222.655	-73.583	-0.124	0.045
-221.640	800.000	0.059	0.170
-220.625	-106.466	0.045	0.010
-219.611	-200.000	-0.013	0.142
-218.596	-66.025	-0.266	0.105
-217.582	118.271	-0.075	0.093
-216.567	184.187	-0.054	0.079
-215.552	17.793	-0.034	0.027
-214.538	-140.257	0.331	0.035
-213.523	34.747	0.123	0.107
-212.509	-200.000	0.012	0.100
-211.494	-200.000	0.016	-0.293
-210.479	204.411	-0.035	0.054
-209.465	-200.000	0.059	0.273
-208.450	-96.545	-0.169	0.044
-207.436	30.715	-0.122	0.104
-206.421	57.629	0.203	-0.198
-205.406	52.937	0.101	0.096
-204.392	-137.354	0.182	-0.021
-203.377	-103.765	0.157	0.036
-202.363	1.130	-0.023	0.017
-201.348	-72.123	0.204	0.075
-200.333	800.000	0.061	0.171
-199.319	50.591	-0.093	-0.088
-198.304	27.527	0.102	-0.086
-197.290	476.988	0.052	-0.116
-196.275	579.536	0.054	0.131
-195.260	-200.000	-0.014	0.278
-194.246	-137.305	-0.351	0.040
-193.231	800.000	-0.102	0.310
-192.217	72.703	-0.126	0.131
-191.202	-113.207	-0.316	0.062
-190.187	309.070	0.027	-0.050
-189.173	-200.000	0.062	-0.292
-188.158	223.147	-0.098	0.157
-187.144	78.884	0.326	0.347
-186.129	-63.563	-0.387	0.158
-185.114	-128.776	-0.226	-0.032
-184.100	318.957	-0.091	0.171
-183.085	-200.000	0.000	-0.151
-182.071	800.000	-0.074	-0.284
-181.056	15.090	0.035	-0.027
-180.042	-51.186	0.176	-0.082
-179.027	-63.819	-0.159	-0.065
-178.012	-24.119	0.226	-0.134
-176.998	77.348	0.126	0.133
-175.983	348.186	-0.137	0.269
-174.969	-147.538	0.295	0.025
-173.954	-58.806	-0.050	0.022
-172.939	27.774	0.318	0.266
-171.925	-127.905	0.329	0.047
-170.910	-200.000	-0.013	0.131
-169.896	-89.396	-0.449	0.131
-168.881	48.538	-0.132	0.122
-167.866	-24.433	-0.110	-0.065
-166.852	-134.328	0.125	0.015
-165.837	-54.291	0.383	0.173
-164.823	-137.890	-0.176	0.020
-163.808	-170.126	0.111	-0.004
-162.793	39.558	-0.184	-0.164
-161.779	300.376	-0.064	0.118
-160.764	166.657	-0.132	0.186
-159.750	-200.000	-0.019	0.158
-158.735	-200.000	-0.006	0.262
-157.720	-127.872	-0.104	-0.015
-156.706	-125.640	0.157	-0.024
-155.691	800.000	-0.131	0.423
-154.677	-89.417	0.236	0.069
-153.662	-124.883	0.139	-0.021
-152.647	686.826	0.125	0.324
-151.633	488.362	-0.092	0.209
-150.618	417.749	-0.229	0.486
-149.604	-84.961	0.340	-0.106
-148.589	-200.000	0.031	-0.236
-147.574	-141.515	-0.211	0.021
-146.560	165.607	-0.145	-0.203
-145.545	-73.990	0.143	0.051
-144.531	-97.666	-0.194	-0.050
-143.516	800.000	0.030	-0.089
-142.502	-98.385	0.190	0.048
-141.487	-200.000	-0.061	-0.314
-140.472	331.394	-0.167	0.320
-139.458	-37.416	0.284	-0.150
-138.443	-200.000	-0.009	-0.192
-137.429	800.000	0.047	0.140
-136.414	756.051	0.016	-0.043
-135.399	-200.000	-0.003	-0.025
-134.385	-135.755	0.205	-0.024
-133.370	-200.000	0.025	0.183
-132.356	537.961	0.119	-0.280
-131.341	-200.000	-0.015	0.153
-130.326	23.835	0.246	0.201
-129.312	128.634	-0.218	-0.276
-128.297	-65.338	-0.229	-0.091
-127.283	800.000	-0.041	-0.132
-126.268	-149.264	-0.247	0.020
-125.253	-10.211	-0.016	0.010
-124.239	54.455	0.116	0.111
-123.224	-135.191	-0.139	0.017
-122.210	-200.000	-0.006	-0.217
-121.195	-68.026	0.110	-0.043
