DTS Sentinel unit serial number:	SN413079Multiplexer serial number:	ORYXHardware model number:	OX4-SRSoftware version number:	ORYX F/W v4.00 Oryx Data Collector v3.7.2.0data status	okinstallation	princeton_trtdifferential loss correction	single-endedforward channel	channel 1reverse channel	N/Adate	2019/09/11time	22:44:11forward acquisition time	60.00reverse acquisition time	0.00gamma	496.2192k internal	0.2315k external	0.2315temperature offset calibration	1.0061default loss term (dB/km)	0.3790temperature slope calibration	1.0000multiplexer offset coefficient	1.0000multiplexer slope coefficient	1.0000fibre end	0.00T internal ref (°C)	34.81T ext. ref 1 (°C)	1.83T ext. ref 2 (°C)	28.90length (m)	temperature (°C)	Stokes	anti-Stokes-747.200	-164.334	0.183	0.008
-746.185	241.770	0.027	0.046
-745.171	245.393	-0.097	-0.166
-744.156	-85.526	-0.370	-0.117
-743.142	-3.073	-0.210	-0.149
-742.127	-51.916	-0.075	-0.036
-741.112	248.754	-0.114	-0.195
-740.098	39.588	0.176	-0.159
-739.083	243.884	-0.117	-0.199
-738.069	-200.000	0.044	-0.483
-737.054	25.683	-0.079	0.067
-736.039	-78.026	-0.216	0.075
-735.025	540.355	-0.084	-0.202
-734.010	27.805	0.085	-0.072
-732.996	16.637	-0.387	-0.309
-731.981	-97.995	-0.025	0.007
-730.966	-200.000	0.018	0.321
-729.952	800.000	0.083	-0.255
-728.937	-200.000	-0.008	0.168
-727.923	-132.414	-0.237	-0.031
-726.908	800.000	-0.088	-0.352
-725.894	-7.574	0.202	-0.139
-724.879	800.000	-0.138	-0.489
-723.864	-54.074	-0.085	-0.039
-722.850	-102.223	-0.086	-0.021
-721.835	800.000	-0.071	-0.286
-720.821	-200.000	0.050	-0.319
-719.806	84.047	-0.196	-0.217
-718.791	-10.888	-0.202	-0.135
-717.777	-58.317	-0.178	-0.078
-716.762	-150.330	0.336	-0.026
-715.748	-87.018	0.339	0.104
-714.733	-110.242	-0.085	0.018
-713.718	-139.546	-0.201	-0.022
-712.704	285.886	0.083	0.152
-711.689	599.695	0.062	0.155
-710.675	-118.529	0.203	-0.036
-709.660	-130.961	-0.194	-0.026
-708.645	-90.051	0.304	-0.090
-707.631	12.644	0.319	-0.249
-706.616	-62.564	0.316	0.133
-705.602	-133.797	0.218	0.027
-704.587	-127.476	0.351	-0.052
-703.572	-99.645	0.488	0.124
-702.558	-20.676	-0.256	-0.159
-701.543	-135.173	-0.294	0.036
-700.529	-44.594	-0.202	-0.102
-699.514	120.532	-0.106	0.134
-698.499	155.115	-0.137	-0.190
-697.485	800.000	-0.100	-0.342
-696.470	371.059	0.021	-0.044
-695.456	-200.000	-0.019	0.138
-694.441	-128.728	-0.318	-0.045
-693.426	-69.750	0.062	0.024
-692.412	148.269	0.097	0.132
-691.397	-186.879	-0.081	0.001
-690.383	40.676	-0.085	0.077
-689.368	800.000	0.065	0.248
-688.354	27.266	0.104	-0.088
-687.339	-123.290	-0.130	-0.021
-686.324	17.633	0.106	-0.085
-685.310	-79.070	0.161	-0.055
-684.295	291.823	0.095	0.175
-683.281	194.558	0.186	-0.286
-682.266	800.000	-0.118	-0.450
-681.251	149.664	0.081	0.110
-680.237	-9.279	-0.182	-0.123
-679.222	-158.706	-0.101	-0.006
-678.208	800.000	0.093	-0.338
-677.193	66.401	0.053	0.055
-676.178	352.390	-0.067	-0.135
-675.164	-200.000	0.035	-0.345
-674.149	800.000	-0.084	0.254
-673.135	326.857	-0.224	0.434
-672.120	103.171	-0.191	-0.226
-671.105	49.656	-0.182	0.173
-670.091	-33.327	-0.134	-0.075
-669.076	-120.720	-0.232	0.040
-668.062	14.020	-0.187	0.147
-667.047	-200.000	0.024	-0.135
-666.032	-29.265	-0.376	-0.217
-665.018	-153.975	-0.247	0.017
-664.003	213.564	0.172	-0.275
-662.989	176.108	0.128	0.187
-661.974	-96.155	-0.421	-0.113
-660.959	-10.283	0.102	0.069
-659.945	562.651	-0.073	-0.178
-658.930	-120.664	-0.076	0.013
-657.916	-128.049	-0.140	0.020
-656.901	-137.102	0.145	0.017
-655.886	-12.353	-0.110	-0.073
-654.872	95.555	-0.045	0.051
-653.857	26.037	0.117	-0.099
-652.843	-12.214	-0.144	-0.095
-651.828	-54.140	-0.206	-0.095
-650.814	-105.519	-0.133	0.030
-649.799	-104.425	0.299	-0.070
-648.784	17.324	-0.086	-0.069
-647.770	32.572	-0.306	-0.267
-646.755	783.254	-0.056	0.156
-645.741	506.850	-0.200	-0.468
-644.726	-29.392	-0.156	-0.090
-643.711	75.911	0.006	-0.006
-642.697	-200.000	0.026	-0.335
-641.682	-56.322	-0.198	0.089
-640.668	5.104	-0.371	-0.276
-639.653	-115.723	-0.187	0.035
-638.638	-120.621	-0.200	0.034
-637.624	-200.000	-0.001	-0.165
-636.609	-51.062	-0.106	-0.050
-635.595	-200.000	-0.019	-0.374
-634.580	-27.420	-0.243	-0.142
-633.565	285.268	0.114	-0.207
-632.551	800.000	-0.093	0.281
-631.536	-83.792	0.201	0.065
-630.522	-200.000	0.002	0.224
-629.507	36.644	0.151	0.134
-628.492	-200.000	0.326	-0.001
-627.478	-200.000	0.017	-0.278
-626.463	-62.688	-0.174	-0.073
-625.449	91.675	0.315	-0.358
-624.434	42.508	-0.134	-0.123
-623.419	-149.990	-0.153	0.012
-622.405	260.473	0.138	0.240
-621.390	-101.943	-0.063	0.015
-620.376	5.256	-0.224	-0.167
-619.361	-76.985	0.273	-0.096
-618.346	38.701	-0.094	-0.085
-617.332	19.751	0.253	-0.206
-616.317	800.000	0.079	-0.226
-615.303	-89.718	-0.112	0.033
-614.288	-138.863	-0.152	-0.017
-613.273	656.167	0.014	-0.037
-612.259	800.000	-0.050	-0.217
-611.244	130.554	-0.071	-0.092
-610.230	-106.071	-0.300	-0.068
-609.215	-200.000	0.008	0.156
-608.201	-83.557	0.262	0.084
-607.186	581.232	0.102	-0.251
-606.171	55.256	0.229	0.223
-605.157	723.331	0.075	-0.201
-604.142	118.235	-0.083	-0.103
-603.128	319.154	-0.109	-0.208
-602.113	-13.890	0.090	0.058
-601.098	-80.241	0.265	-0.089
-600.084	-83.638	-0.091	-0.029
-599.069	19.748	0.355	0.288
-598.055	-41.704	-0.072	-0.037
-597.040	-200.000	0.022	0.198
-596.025	-38.088	0.283	-0.151
-595.011	-28.080	-0.103	-0.060
-593.996	46.140	-0.207	-0.193
-592.982	-49.473	-0.153	-0.073
-591.967	71.285	0.048	-0.050
-590.952	-200.000	-0.014	-0.409
-589.938	225.379	0.120	0.196
-588.923	-122.114	-0.224	-0.037
-587.909	124.732	0.112	-0.142
-586.894	25.858	-0.063	-0.053
-585.879	-98.981	-0.316	-0.081
-584.865	-158.065	0.223	-0.013
-583.850	36.624	-0.145	-0.129
-582.836	-200.000	-0.062	-0.383
-581.821	-83.426	-0.318	-0.103
-580.806	101.255	0.107	0.125
-579.792	70.623	0.149	0.155
-578.777	-180.374	0.299	0.006
-577.763	-122.206	-0.104	0.017
-576.748	-85.930	-0.453	0.141
-575.733	800.000	0.073	0.302
-574.719	168.920	0.209	0.300
-573.704	-131.562	0.244	0.032
-572.690	800.000	-0.020	-0.063
-571.675	-200.000	-0.049	-0.299
-570.661	47.315	0.048	0.045
-569.646	-200.000	-0.017	-0.175
-568.631	-32.684	0.092	0.051
-567.617	33.228	0.118	0.103
-566.602	-85.365	0.040	0.012
-565.588	-168.262	-0.391	-0.015
-564.573	46.698	0.207	-0.193
-563.558	-121.826	-0.230	0.038
-562.544	-200.000	-0.017	0.106
-561.529	199.618	0.050	0.078
-560.515	800.000	0.050	-0.170
-559.500	443.455	0.067	-0.147
-558.485	-60.453	-0.346	0.148
-557.471	-33.297	-0.038	0.021
-556.456	255.864	0.015	-0.027
-555.442	267.320	-0.088	0.156
-554.427	-51.739	-0.333	-0.156
-553.412	334.399	-0.027	-0.053
-552.398	37.172	0.131	-0.116
-551.383	-53.659	-0.122	0.056
-550.369	-75.887	0.179	-0.064
-549.354	144.951	-0.189	0.255
-548.339	-127.449	-0.303	0.044
-547.325	-107.080	-0.081	0.018
-546.310	-98.413	0.407	0.105
-545.296	86.387	-0.132	-0.147
-544.281	-64.104	-0.268	0.110
-543.266	241.057	-0.073	0.123
-542.252	66.636	-0.148	0.151
-541.237	800.000	-0.147	0.410
-540.223	-41.680	-0.090	0.046
-539.208	-66.992	0.038	-0.015
-538.193	-94.565	-0.408	0.112
-537.179	-200.000	-0.012	0.085
-536.164	-96.104	-0.143	-0.038
-535.150	12.825	0.253	0.197
-534.135	-200.000	-0.041	0.241
-533.121	-128.378	0.131	-0.019
-532.106	-34.006	0.113	-0.062
-531.091	-79.570	0.592	-0.201
-530.077	-186.583	0.418	0.006
-529.062	138.169	-0.065	-0.086
-528.048	-2.653	-0.148	-0.104
-527.033	275.451	-0.170	-0.302
-526.018	41.187	-0.163	-0.148
-525.004	-200.000	-0.008	0.050
-523.989	-9.069	-0.231	0.155
-522.975	293.662	0.042	0.078
-521.960	-149.909	0.246	0.019
-520.945	128.372	0.146	0.187
-519.931	35.235	-0.028	0.025
-518.916	116.214	0.084	-0.103
-517.902	-200.000	0.014	0.082
-516.887	-24.259	0.148	0.088
-515.872	-112.959	-0.261	-0.052
-514.858	-200.000	-0.015	0.153
-513.843	-200.000	0.006	-0.068
-512.829	320.934	-0.067	-0.129
-511.814	-34.896	-0.140	-0.077
-510.799	-94.784	-0.071	0.019
-509.785	-200.000	0.025	0.110
-508.770	161.720	-0.055	-0.077
-507.756	180.462	-0.082	-0.120
-506.741	-78.405	0.073	0.025
-505.726	57.078	-0.139	-0.136
-504.712	720.180	0.071	0.188
-503.697	246.060	-0.078	0.133
-502.683	-128.747	-0.183	-0.026
-501.668	-200.000	0.059	0.258
-500.653	459.622	-0.139	-0.309
-499.639	-173.465	-0.270	0.008
-498.624	-48.473	-0.410	0.198
-497.610	56.766	0.268	-0.262
-496.595	269.269	-0.087	-0.154
-495.581	-71.004	0.034	0.013
-494.566	56.667	0.179	0.175
-493.551	-18.196	-0.052	-0.033
-492.537	659.720	0.076	0.196
-491.522	-31.061	-0.119	-0.067
-490.508	-20.902	0.330	-0.203
-489.493	127.486	0.150	-0.191
-488.478	-21.788	0.091	-0.055
-487.464	-200.000	-0.013	0.086
-486.449	63.200	-0.328	-0.329
-485.435	50.375	0.135	-0.128
-484.420	-75.525	0.127	-0.045
-483.405	50.766	-0.205	0.195
-482.391	414.976	-0.065	0.139
-481.376	494.339	0.145	-0.333
-480.362	0.586	0.482	-0.346
-479.347	-159.891	0.202	-0.011
-478.332	-104.643	0.160	0.037
-477.318	183.059	0.111	-0.164
-476.303	472.363	0.162	-0.366
-475.289	157.472	-0.131	0.182
-474.274	-3.434	0.313	-0.219
-473.259	-1.572	-0.396	-0.280
-472.245	800.000	0.070	0.198
-471.230	-200.000	0.016	-0.278
-470.216	-9.982	0.269	0.179
-469.201	-200.000	-0.012	0.000
-468.186	-132.390	0.159	-0.021
-467.172	800.000	0.041	0.145
-466.157	726.962	0.029	-0.076
-465.143	11.453	-0.177	-0.136
-464.128	-200.000	0.007	-0.084
-463.113	-109.789	0.179	0.038
-462.099	672.574	0.050	-0.131
-461.084	-57.551	0.467	0.205
-460.070	-200.000	-0.012	0.107
-459.055	-103.657	0.272	-0.064
-458.040	319.572	0.095	0.180
-457.026	63.498	0.212	-0.213
-456.011	-200.000	-0.007	0.149
-454.997	800.000	0.158	0.495
-453.982	-200.000	0.048	0.241
-452.968	-200.000	0.020	0.124
-451.953	729.491	-0.039	-0.105
-450.938	654.045	0.085	0.219
-449.924	-41.336	-0.189	-0.097
-448.909	-143.495	0.174	0.017
-447.895	10.070	0.120	-0.091
-446.880	-200.000	-0.018	0.124
-445.865	-15.455	-0.312	0.200
-444.851	110.452	0.250	0.301
-443.836	60.742	-0.188	0.187
-442.822	576.925	0.156	0.382
-441.807	212.410	0.044	-0.069
-440.792	-43.838	0.360	0.181
-439.778	17.759	-0.272	-0.216
-438.763	350.467	-0.089	0.177
-437.749	-144.900	-0.325	-0.030
-436.734	16.445	0.041	0.033
-435.719	-128.833	0.165	0.023
-434.705	-200.000	-0.009	0.145
-433.690	-200.000	-0.013	0.236
-432.676	124.441	-0.079	0.099
-431.661	-35.358	-0.317	-0.173
-430.646	-200.000	-0.010	0.056
-429.632	-28.162	0.070	0.041
-428.617	-93.858	-0.140	-0.038
-427.603	-200.000	-0.061	-0.419
-426.588	-80.989	0.154	-0.051
-425.573	-200.000	0.292	0.000
-424.559	800.000	-0.026	-0.079
-423.544	-16.975	-0.189	0.120
-422.530	-200.000	-0.007	0.368
-421.515	90.303	0.102	0.114
-420.500	-200.000	0.027	-0.253
-419.486	41.256	-0.197	-0.178
-418.471	289.709	-0.085	-0.154
-417.457	-79.890	-0.239	-0.080
-416.442	-86.313	0.295	-0.091
-415.428	-139.698	0.301	0.032
-414.413	-64.611	-0.237	0.096
-413.398	346.764	0.118	0.233
-412.384	-200.000	0.001	0.045
-411.369	800.000	0.061	-0.222
-410.355	-200.000	-0.084	-0.479
-409.340	35.148	0.134	-0.117
-408.325	161.230	-0.104	-0.146
-407.311	389.745	-0.038	0.079
-406.296	3.552	-0.130	0.095
-405.282	-200.000	0.037	-0.340
-404.267	564.310	-0.092	0.223
-403.252	144.718	0.166	0.222
-402.238	462.994	0.082	-0.183
-401.223	5.922	-0.252	0.187
-400.209	-89.647	-0.168	0.049
-399.194	65.067	-0.050	-0.051
-398.179	189.311	0.313	0.469
-397.165	-44.502	-0.285	-0.143
-396.150	-58.064	-0.251	-0.109
-395.136	800.000	-0.106	0.331
-394.121	115.239	0.137	0.168
-393.106	-136.506	0.260	-0.030
-392.092	-132.947	0.072	-0.009
-391.077	-185.321	-0.575	0.009
-390.063	43.294	-0.059	-0.054
-389.048	82.553	0.301	0.327
-388.033	11.466	0.088	-0.068
-387.019	142.047	0.077	0.103
-386.004	-200.000	0.017	-0.229
-384.990	-81.908	-0.091	-0.030
-383.975	-200.000	0.033	0.310
-382.960	-12.232	-0.068	0.044
-381.946	-7.053	0.043	-0.029
-380.931	167.958	0.142	0.201
-379.917	800.000	0.137	0.453
-378.902	280.906	0.090	0.160
-377.888	-200.000	0.007	-0.063
-376.873	-146.496	-0.097	0.008
-375.858	111.787	-0.056	-0.067
-374.844	39.949	0.137	0.123
-373.829	-190.079	-0.171	-0.002
-372.815	3.600	-0.104	-0.075
-371.800	-36.401	-0.191	0.103
-370.785	483.421	0.044	-0.100
-369.771	-6.184	-0.289	-0.197
-368.756	-150.696	0.147	-0.011
-367.742	-71.631	0.079	-0.030
-366.727	160.934	0.158	0.221
-365.712	381.158	-0.122	-0.251
-364.698	-19.069	0.252	0.156
-363.683	-200.000	0.030	-0.283
-362.669	239.303	-0.151	0.251
-361.654	29.772	0.125	0.106
-360.639	-168.409	0.421	0.016
-359.625	39.383	-0.145	-0.130
-358.610	5.115	0.049	-0.036
-357.596	48.581	-0.128	-0.120
-356.581	-173.332	0.198	-0.006
-355.566	800.000	0.069	0.241
-354.552	-200.000	0.014	0.284
-353.537	-68.920	0.261	0.100
-352.523	-66.575	0.286	0.113
-351.508	163.356	-0.041	0.058
-350.493	-108.666	0.078	-0.017
-349.479	-144.869	-0.226	-0.021
-348.464	324.280	-0.149	0.284
-347.450	71.728	-0.030	0.031
-346.435	-200.000	0.010	-0.068
-345.420	-75.951	0.303	-0.107
-344.406	178.849	-0.260	-0.379
-343.391	286.156	-0.090	0.162
-342.377	800.000	-0.041	0.157
-341.362	112.052	-0.044	-0.053
-340.348	109.874	-0.144	-0.172
-339.333	159.501	-0.099	0.137
-338.318	-200.000	-0.032	0.211
-337.304	484.870	0.107	-0.243
-336.289	256.322	-0.140	0.240
-335.275	-200.000	0.069	0.374
-334.260	-200.000	0.016	-0.094
-333.245	-161.336	-0.206	-0.011
-332.231	662.467	-0.106	0.272
-331.216	-41.344	-0.069	0.035
-330.202	-74.352	-0.140	-0.050
-329.187	-200.000	0.001	-0.142
-328.172	198.683	-0.105	-0.161
-327.158	-115.357	-0.457	-0.086
-326.143	456.840	0.090	-0.199
-325.129	-200.000	-0.035	0.194
-324.114	-149.320	0.261	-0.021
-323.099	-117.063	0.114	-0.021
-322.085	-24.169	-0.351	0.209
-321.070	-200.000	0.013	0.213
-320.056	23.129	0.208	-0.170
-319.041	-110.257	0.046	0.010
-318.026	405.729	0.121	-0.255
-317.012	-3.899	-0.096	0.067
-315.997	-200.000	-0.042	-0.325
-314.983	125.562	-0.160	-0.201
-313.968	800.000	0.101	-0.306
-312.953	-105.717	-0.405	0.091
-311.939	-84.198	0.249	0.079
-310.924	206.173	0.235	0.364
-309.910	55.166	0.149	0.144
-308.895	753.982	0.051	0.138
-307.880	-200.000	-0.001	0.092
-306.866	-97.612	-0.195	0.050
-305.851	-81.800	-0.077	-0.025
-304.837	-92.449	-0.233	0.065
-303.822	-165.583	0.386	0.017
-302.807	-104.000	0.123	-0.028
-301.793	28.124	-0.290	0.243
-300.778	800.000	0.169	-0.490
-299.764	-140.769	0.223	-0.023
-298.749	-150.616	0.217	0.017
-297.735	-73.005	0.333	0.122
-296.720	69.104	-0.146	-0.150
-295.705	445.086	0.083	-0.182
-294.691	-54.036	0.202	-0.091
-293.676	-200.000	0.016	-0.287
-292.662	87.178	0.081	-0.089
-291.647	-37.927	-0.172	0.091
-290.632	-152.883	-0.140	0.010
-289.618	-72.915	-0.222	-0.081
-288.603	4.066	-0.213	0.155
-287.589	800.000	0.085	0.340
-286.574	103.499	-0.077	-0.090
-285.559	-5.390	0.254	0.173
-284.545	-65.920	-0.175	-0.070
-283.530	305.987	0.124	0.229
-282.516	-86.859	-0.162	-0.049
-281.501	-103.104	-0.122	0.029
-280.486	-18.698	0.245	0.152
-279.472	-97.858	0.160	-0.041
-278.457	-200.000	-0.023	-0.323
-277.443	70.629	-0.084	0.087
-276.428	78.615	-0.113	0.120
-275.413	-200.000	0.020	0.148
-274.399	-200.000	-0.230	-0.001
-273.384	7.902	0.176	-0.131
-272.370	470.240	-0.125	0.278
-271.355	17.538	0.053	0.042
-270.340	426.363	-0.130	0.278
-269.326	-51.210	-0.044	-0.021
-268.311	800.000	-0.066	0.256
-267.297	314.047	0.212	0.397
-266.282	108.635	-0.222	0.264
-265.267	7.618	0.348	0.259
-264.253	459.993	0.178	0.394
-263.238	-30.512	-0.115	-0.065
-262.224	-4.192	-0.182	0.125
-261.209	-112.457	-0.155	-0.031
-260.195	-200.000	0.187	0.000
-259.180	-77.748	0.343	0.118
-258.165	157.855	0.130	0.179
-257.151	-200.000	-0.067	-0.380
-256.136	-149.797	0.156	-0.012
-255.122	-90.167	-0.171	0.049
-254.107	110.891	0.141	0.169
-253.092	-139.860	0.056	-0.006
-252.078	33.794	0.130	-0.112
-251.063	-61.250	-0.046	0.019
-250.049	800.000	-0.025	0.089
-249.034	-155.788	0.139	-0.009
-248.019	-200.000	-0.016	0.205
-247.005	-179.293	-0.225	-0.005
-245.990	-200.000	0.004	0.090
-244.976	-96.776	-0.015	0.004
-243.961	-200.000	0.051	-0.379
-242.946	52.611	0.153	-0.145
-241.932	230.033	-0.018	-0.029
-240.917	-200.000	-0.010	-0.272
-239.903	-123.072	0.115	0.018
-238.888	-89.810	-0.241	0.070
-237.873	-102.361	0.140	0.033
-236.859	67.604	-0.157	-0.159
-235.844	-76.767	0.189	-0.066
-234.830	96.627	-0.291	-0.331
-233.815	148.512	0.174	-0.234
-232.800	-200.000	0.009	0.124
-231.786	125.808	-0.109	0.136
-230.771	89.560	0.060	0.067
-229.757	-115.165	0.204	0.038
-228.742	-57.729	-0.116	-0.051
-227.727	119.391	0.183	0.225
-226.713	91.749	-0.027	-0.030
-225.698	-200.000	0.004	-0.338
-224.684	210.053	0.215	0.335
-223.669	43.058	0.091	0.083
-222.655	303.073	0.071	0.131
-221.640	1.759	0.079	0.057
-220.625	-22.415	0.143	0.086
-219.611	138.400	-0.177	-0.231
-218.596	595.231	0.113	-0.279
-217.582	-200.000	0.014	-0.097
-216.567	101.505	0.321	-0.371
-215.552	-200.000	0.004	-0.259
-214.538	-98.081	0.085	0.022
-213.523	-92.326	0.188	0.052
-212.509	-145.262	-0.204	-0.018
-211.494	-170.826	-0.060	-0.002
-210.479	-8.418	-0.118	-0.078
-209.465	81.372	0.150	0.160
-208.450	-42.360	-0.085	0.043
-207.436	-200.000	0.002	-0.048
-206.421	-108.972	0.123	0.026
-205.406	-20.660	0.145	0.088
-204.392	2.871	0.177	0.127
-203.377	33.944	-0.271	-0.234
-202.363	-200.000	0.001	0.012
-201.348	395.786	-0.235	0.487
-200.333	444.014	0.103	-0.223
-199.319	52.469	-0.412	-0.390
-198.304	-200.000	-0.005	-0.272
-197.290	169.675	0.097	-0.137
-196.275	633.187	-0.088	-0.221
-195.260	16.614	0.201	0.158
-194.246	-131.307	-0.034	-0.005
-193.231	-47.690	-0.083	0.040
-192.217	-92.783	-0.080	-0.022
-191.202	-200.000	-0.018	0.169
-190.187	423.980	0.176	-0.375
-189.173	-98.581	0.194	0.049
-188.158	800.000	0.023	0.079
-187.144	-117.783	-0.546	0.097
-186.129	-144.058	-0.395	-0.037
-185.114	-58.310	0.369	0.159
-184.100	-200.000	-0.011	0.066
-183.085	-119.336	0.191	0.033
-182.071	-200.000	0.097	0.532
-181.056	51.897	0.185	-0.175
-180.042	-200.000	0.048	0.326
-179.027	191.552	-0.138	-0.206
-178.012	263.818	0.133	0.229
-176.998	-109.288	-0.197	0.041
-175.983	696.162	0.051	-0.134
-174.969	-200.000	-0.039	-0.229
-173.954	-47.689	-0.078	-0.037
-172.939	-200.000	0.000	-0.217
-171.925	-95.211	-0.139	-0.037
-170.910	53.262	-0.162	0.154
-169.896	38.933	-0.121	0.107
-168.881	551.505	-0.099	0.235
-167.866	-200.000	0.014	0.078
-166.852	515.763	0.051	0.119
-165.837	573.248	-0.084	-0.203
-164.823	-200.000	-0.036	0.223
-163.808	-127.738	0.304	-0.044
-162.793	561.910	0.159	-0.382
-161.779	148.045	-0.114	0.153
-160.764	51.135	0.094	-0.088
-159.750	117.047	0.039	-0.048
-158.735	-108.080	0.222	-0.048
-157.720	539.873	0.041	-0.096
-156.706	800.000	-0.068	0.219
-155.691	24.064	-0.200	-0.163
-154.677	-39.568	-0.289	-0.150
-153.662	-36.321	-0.188	0.100
-152.647	74.592	0.137	0.142
-151.633	-117.006	-0.304	-0.055
-150.618	-31.727	0.179	-0.099
-149.604	-105.675	0.316	0.071
-148.589	-29.700	-0.315	0.178
-147.574	-200.000	-0.014	-0.321
-146.560	-88.922	0.127	0.037
-145.545	-70.514	-0.430	0.161
-144.531	-200.000	0.017	-0.164
-143.516	-180.436	0.299	-0.006
-142.502	3.428	0.148	-0.106
-141.487	-4.717	-0.139	-0.095
-140.472	-93.440	0.082	0.023
-139.458	313.055	-0.169	-0.314
-138.443	-64.267	0.102	0.041
-137.429	-200.000	-0.045	0.229
-136.414	800.000	0.019	0.069
-135.399	148.480	-0.195	-0.260
-134.385	800.000	0.019	-0.061
-133.370	-65.457	0.104	0.041
-132.356	-16.617	-0.220	0.138
-131.341	-200.000	0.053	-0.250
-130.326	93.037	-0.037	0.041
-129.312	105.479	0.133	0.155
-128.297	-200.000	0.293	-0.000
-127.283	-200.000	0.008	-0.044
-126.268	29.340	-0.171	0.143
-125.253	-166.421	-0.399	-0.017
-124.239	-200.000	0.011	-0.136
-123.224	-158.237	0.264	0.015
-122.210	87.843	0.216	-0.237
-121.195	800.000	-0.029	-0.085
