DTS Sentinel unit serial number:	SN413079Multiplexer serial number:	ORYXHardware model number:	OX4-SRSoftware version number:	ORYX F/W v4.00 Oryx Data Collector v3.7.2.0data status	okinstallation	princeton_trtdifferential loss correction	single-endedforward channel	channel 1reverse channel	N/Adate	2019/09/10time	22:52:11forward acquisition time	60.00reverse acquisition time	0.00gamma	496.2192k internal	0.2332k external	0.2332temperature offset calibration	0.9931default loss term (dB/km)	0.3790temperature slope calibration	1.0000multiplexer offset coefficient	1.0000multiplexer slope coefficient	1.0000fibre end	0.00T internal ref (°C)	30.12T ext. ref 1 (°C)	-0.30T ext. ref 2 (°C)	23.43length (m)	temperature (°C)	Stokes	anti-Stokes-747.200	81.197	0.091	-0.098
-746.185	-62.130	0.228	-0.096
-745.171	-85.556	-0.481	-0.151
-744.156	43.117	-0.325	0.299
-743.142	-88.143	0.156	0.047
-742.127	-179.504	0.336	-0.007
-741.112	-167.211	0.357	-0.015
-740.098	26.948	-0.354	0.299
-739.083	-150.085	-0.332	-0.026
-738.069	-200.000	-0.034	0.419
-737.054	-131.299	-0.229	0.031
-736.039	-65.495	-0.305	0.123
-735.025	800.000	0.100	0.278
-734.010	-175.415	-0.352	0.010
-732.996	-200.000	-0.013	0.139
-731.981	-105.495	0.161	0.037
-730.966	-182.107	-0.165	0.003
-729.952	-107.112	-0.382	-0.085
-728.937	-16.544	0.224	-0.143
-727.923	-16.413	-0.189	0.121
-726.908	357.789	-0.119	-0.238
-725.894	-13.182	-0.083	0.054
-724.879	28.210	-0.094	0.080
-723.864	154.252	-0.158	-0.219
-722.850	390.506	0.038	0.079
-721.835	361.364	0.141	-0.283
-720.821	-120.256	0.234	-0.040
-719.806	-123.128	0.296	-0.048
-718.791	502.384	-0.099	0.231
-717.777	-91.438	-0.066	0.019
-716.762	800.000	-0.063	-0.196
-715.748	229.420	0.148	-0.243
-714.733	-76.428	0.514	0.182
-713.718	24.609	-0.244	-0.203
-712.704	-113.300	-0.248	-0.049
-711.689	-163.702	-0.307	-0.015
-710.675	133.873	0.073	-0.096
-709.660	153.892	0.093	-0.129
-708.645	243.502	0.234	-0.394
-707.631	137.404	0.238	-0.313
-706.616	-200.000	0.026	-0.399
-705.602	-174.458	-0.171	0.005
-704.587	-34.432	-0.296	0.163
-703.572	-200.000	0.032	0.231
-702.558	800.000	-0.082	0.307
-701.543	598.893	0.079	0.198
-700.529	515.039	-0.045	-0.105
-699.514	440.922	-0.061	-0.134
-698.499	-6.850	-0.084	-0.057
-697.485	128.770	0.156	-0.200
-696.470	-116.250	-0.223	-0.042
-695.456	760.178	0.080	-0.218
-694.441	-24.748	-0.035	-0.021
-693.426	-127.047	-0.033	-0.005
-692.412	426.821	0.048	-0.105
-691.397	644.243	0.063	0.160
-690.383	-200.000	0.013	-0.146
-689.368	-119.832	-0.089	0.015
-688.354	27.673	-0.193	0.163
-687.339	800.000	-0.057	-0.204
-686.324	-200.000	-0.022	-0.228
-685.310	-81.503	0.252	-0.083
-684.295	800.000	0.062	-0.221
-683.281	520.295	0.118	0.278
-682.266	76.823	-0.068	-0.073
-681.251	-132.364	-0.190	0.025
-680.237	-39.424	-0.048	0.025
-679.222	353.315	0.147	0.294
-678.208	697.541	0.088	-0.232
-677.193	149.399	0.102	-0.138
-676.178	-62.286	0.389	-0.163
-675.164	-33.414	-0.414	0.230
-674.149	-54.106	0.076	-0.035
-673.135	-200.000	0.059	0.333
-672.120	-166.167	0.412	-0.018
-671.105	-200.000	0.000	-0.024
-670.091	46.109	0.318	0.295
-669.076	-3.292	0.195	0.136
-668.062	20.952	-0.135	-0.110
-667.047	-200.000	0.027	0.448
-666.032	-32.260	0.349	-0.195
-665.018	-0.131	-0.139	0.099
-664.003	-27.069	0.238	0.139
-662.989	-200.000	0.001	-0.088
-661.974	639.192	-0.177	-0.452
-660.959	83.668	-0.135	-0.148
-659.945	800.000	0.117	-0.364
-658.930	-58.569	0.565	0.246
-657.916	43.443	0.258	-0.236
-656.901	-107.473	-0.278	0.061
-655.886	-33.485	0.148	-0.082
-654.872	-82.168	0.120	0.039
-653.857	393.659	0.095	0.199
-652.843	162.436	0.118	-0.166
-651.828	12.900	-0.467	-0.362
-650.814	800.000	-0.035	-0.125
-649.799	800.000	-0.049	-0.159
-648.784	25.869	0.185	-0.154
-647.770	-50.054	-0.062	0.030
-646.755	27.483	-0.200	-0.169
-645.741	221.356	0.118	0.190
-644.726	-200.000	0.034	0.236
-643.711	-66.520	-0.198	0.079
-642.697	79.329	0.082	0.088
-641.682	800.000	0.068	-0.220
-640.668	-17.533	0.100	0.063
-639.653	-104.347	-0.379	0.088
-638.638	-200.000	-0.010	0.404
-637.624	-72.634	0.049	0.018
-636.609	-26.015	-0.062	0.037
-635.595	-200.000	-0.065	0.320
-634.580	-88.635	0.268	0.080
-633.565	365.869	0.131	0.265
-632.551	677.006	0.030	0.078
-631.536	49.724	0.135	-0.127
-630.522	800.000	0.042	-0.138
-629.507	-94.074	0.054	-0.015
-628.492	-102.123	-0.470	-0.113
-627.478	-28.055	0.184	0.107
-626.463	310.835	0.043	-0.081
-625.449	-108.353	0.490	0.106
-624.434	-19.489	0.146	0.090
-623.419	800.000	-0.051	-0.186
-622.405	124.411	-0.179	-0.225
-621.390	347.978	-0.022	-0.043
-620.376	-200.000	0.051	-0.290
-619.361	-13.840	-0.119	-0.077
-618.346	74.030	-0.066	0.069
-617.332	-200.000	-0.013	-0.208
-616.317	54.800	-0.200	-0.193
-615.303	762.109	-0.041	-0.110
-614.288	97.665	0.123	0.142
-613.273	-77.754	-0.319	0.110
-612.259	800.000	-0.073	0.209
-611.244	-66.631	-0.264	0.105
-610.230	-37.574	-0.220	0.118
-609.215	-110.629	0.254	0.053
-608.201	800.000	-0.071	-0.298
-607.186	-89.848	0.327	-0.096
-606.171	454.332	-0.169	-0.374
-605.157	601.498	-0.127	-0.315
-604.142	491.821	-0.153	-0.350
-603.128	-200.000	-0.015	-0.272
-602.113	444.384	-0.106	-0.233
-601.098	48.365	-0.047	0.044
-600.084	286.996	0.028	-0.050
-599.069	1.410	0.045	0.032
-598.055	-13.220	-0.247	-0.161
-597.040	-164.017	0.185	0.009
-596.025	800.000	0.048	-0.177
-595.011	-88.912	0.157	-0.047
-593.996	170.577	0.173	0.248
-592.982	-119.525	0.244	0.042
-591.967	495.322	0.033	-0.076
-590.952	-19.057	-0.390	-0.242
-589.938	-23.960	0.132	0.079
-588.923	800.000	-0.056	-0.182
-587.909	800.000	-0.088	-0.342
-586.894	-174.337	-0.293	-0.008
-585.879	-200.000	0.013	-0.097
-584.865	210.816	-0.198	0.311
-583.850	-200.000	0.004	-0.120
-582.836	310.401	0.100	-0.186
-581.821	-20.862	-0.109	-0.067
-580.806	740.989	0.078	-0.210
-579.792	-34.310	-0.058	0.032
-578.777	-200.000	0.027	0.125
-577.763	340.117	-0.131	0.256
-576.748	102.075	-0.141	0.165
-575.733	45.751	-0.139	0.129
-574.719	800.000	0.094	-0.304
-573.704	800.000	0.011	-0.043
-572.690	-84.631	-0.231	-0.073
-571.675	-111.685	-0.344	0.070
-570.661	174.614	-0.142	0.205
-569.646	-167.490	0.290	0.012
-568.631	-128.606	-0.244	0.034
-567.617	66.309	0.204	-0.207
-566.602	91.897	-0.078	0.087
-565.588	-55.247	-0.169	-0.076
-564.573	-200.000	0.087	-0.511
-563.558	676.290	-0.038	0.099
-562.544	-200.000	-0.004	-0.061
-561.529	-24.532	-0.051	-0.030
-560.515	-77.305	0.038	0.013
-559.500	23.257	0.146	0.120
-558.485	124.543	-0.272	0.342
-557.471	93.364	0.136	-0.154
-556.456	-5.058	-0.114	0.079
-555.442	-38.928	-0.103	-0.054
-554.427	-71.755	0.194	0.072
-553.412	472.394	0.149	0.335
-552.398	-156.087	-0.219	-0.014
-551.383	800.000	0.065	0.182
-550.369	-18.152	0.257	0.160
-549.354	599.165	0.110	-0.271
-548.339	-143.225	-0.218	-0.021
-547.325	169.444	-0.036	-0.052
-546.310	-200.000	0.007	-0.136
-545.296	-13.366	-0.125	-0.081
-544.281	-122.427	0.290	-0.047
-543.266	81.306	-0.254	0.274
-542.252	86.358	0.151	0.166
-541.237	202.425	-0.120	0.184
-540.223	800.000	-0.008	0.028
-539.208	-66.309	0.468	-0.186
-538.193	-200.000	0.007	-0.038
-537.179	255.346	0.139	-0.238
-536.164	-101.332	0.080	0.020
-535.150	61.507	-0.157	-0.156
-534.135	-14.489	0.092	-0.059
-533.121	800.000	-0.112	-0.325
-532.106	25.205	0.343	-0.284
-531.091	-27.816	-0.131	-0.076
-530.077	-34.505	-0.045	-0.024
-529.062	-41.633	0.271	0.139
-528.048	-114.092	-0.102	-0.020
-527.033	324.033	-0.177	-0.338
-526.018	-68.261	0.256	0.099
-525.004	-74.130	-0.037	-0.013
-523.989	800.000	-0.062	0.223
-522.975	800.000	0.078	0.230
-521.960	202.403	0.119	-0.183
-520.945	169.403	0.127	0.180
-519.931	-170.591	-0.631	-0.022
-518.916	-200.000	0.039	-0.205
-517.902	8.177	0.069	-0.051
-516.887	238.233	0.196	-0.325
-515.872	188.224	-0.130	-0.194
-514.858	-139.130	0.025	-0.003
-513.843	800.000	0.048	0.195
-512.829	-0.424	0.192	-0.136
-511.814	270.855	-0.164	-0.289
-510.799	-200.000	-0.016	0.191
-509.785	-83.671	0.291	0.093
-508.770	-51.033	-0.268	0.125
-507.756	105.395	-0.126	0.149
-506.741	-61.303	-0.082	-0.035
-505.726	-144.565	-0.259	0.024
-504.712	28.351	-0.168	-0.142
-503.697	800.000	0.072	-0.303
-502.683	-189.074	-0.313	0.004
-501.668	165.254	-0.098	0.138
-500.653	198.742	-0.044	0.068
-499.639	-148.082	0.174	0.014
-498.624	-200.000	-0.007	-0.149
-497.610	-200.000	-0.029	-0.195
-496.595	-66.753	-0.151	0.059
-495.581	-200.000	-0.018	-0.262
-494.566	-200.000	-0.004	-0.066
-493.551	-44.146	0.232	-0.116
-492.537	618.391	0.141	0.353
-491.522	-34.239	0.115	-0.063
-490.508	-28.093	0.037	-0.021
-489.493	-138.997	0.133	-0.014
-488.478	151.516	-0.089	-0.120
-487.464	-69.131	0.339	-0.130
-486.449	-32.643	-0.113	0.063
-485.435	-67.921	0.339	0.132
-484.420	-73.587	-0.181	-0.066
-483.405	-52.203	0.058	0.027
-482.391	-36.772	0.281	-0.150
-481.376	8.551	-0.154	0.115
-480.362	-3.749	0.137	0.095
-479.347	-123.685	0.191	-0.030
-478.332	800.000	-0.017	0.065
-477.318	-80.676	-0.092	0.031
-476.303	64.757	0.159	0.160
-475.289	-200.000	0.031	0.183
-474.274	59.540	0.154	0.151
-473.259	800.000	0.004	0.016
-472.245	235.454	0.106	-0.174
-471.230	59.516	0.040	0.040
-470.216	254.358	0.234	-0.399
-469.201	22.901	-0.071	0.058
-468.186	91.336	-0.218	0.243
-467.172	-131.331	0.225	0.030
-466.157	194.508	-0.125	0.188
-465.143	-12.971	-0.276	-0.179
-464.128	207.649	0.132	0.206
-463.113	-139.010	0.450	0.049
-462.099	6.901	0.103	0.076
-461.084	-88.134	-0.352	0.105
-460.070	-7.103	-0.152	0.103
-459.055	800.000	-0.080	-0.252
-458.040	89.676	-0.155	-0.172
-457.026	-200.000	0.045	0.243
-456.011	415.866	-0.060	0.127
-454.997	-17.164	-0.176	0.110
-453.982	29.367	0.038	-0.032
-452.968	97.206	-0.054	0.061
-451.953	291.490	0.202	0.365
-450.938	96.490	-0.064	0.073
-449.924	-96.013	0.491	-0.130
-448.909	800.000	-0.095	-0.288
-447.895	-175.090	0.214	-0.006
-446.880	70.046	0.090	-0.092
-445.865	243.035	0.115	-0.191
-444.851	-200.000	-0.022	-0.254
-443.836	-93.163	0.231	0.064
-442.822	-200.000	0.043	0.206
-441.807	50.577	0.175	0.165
-440.792	569.453	-0.054	0.130
-439.778	800.000	0.053	-0.176
-438.763	-95.435	0.052	0.014
-437.749	34.032	0.125	0.109
-436.734	-6.436	-0.171	-0.116
-435.719	72.283	-0.193	-0.200
-434.705	98.697	0.036	-0.042
-433.690	-200.000	-0.004	0.130
-432.676	-200.000	0.007	0.232
-431.661	26.809	-0.137	0.114
-430.646	800.000	0.083	0.267
-429.632	-129.739	-0.156	0.021
-428.617	-1.061	0.221	-0.156
-427.603	-200.000	0.027	-0.300
-426.588	-30.688	-0.251	-0.141
-425.573	-112.640	0.058	-0.011
-424.559	75.769	0.193	-0.202
-423.544	-135.791	-0.151	0.018
-422.530	230.241	-0.202	-0.329
-421.515	-69.626	0.226	-0.086
-420.500	-138.268	-0.153	0.017
-419.486	-200.000	-0.010	0.059
-418.471	19.822	-0.034	0.027
-417.457	258.912	-0.099	-0.169
-416.442	7.559	-0.179	-0.133
-415.428	145.362	0.147	0.196
-414.413	-162.615	-0.185	0.009
-413.398	310.950	-0.116	-0.215
-412.384	437.967	-0.052	-0.113
-411.369	-153.928	-0.328	-0.022
-410.355	-200.000	-0.006	0.294
-409.340	-13.820	0.099	0.063
-408.325	11.155	-0.168	-0.128
-407.311	199.429	-0.042	-0.064
-406.296	431.647	0.194	0.417
-405.282	38.961	0.234	-0.207
-404.267	-200.000	-0.022	-0.397
-403.252	727.439	0.060	0.158
-402.238	300.478	-0.180	-0.330
-401.223	-178.495	-0.225	-0.005
-400.209	-200.000	-0.009	0.086
-399.194	21.468	0.273	0.221
-398.179	-70.651	0.270	0.101
-397.165	261.015	-0.122	0.209
-396.150	-200.000	0.044	-0.269
-395.136	-134.117	0.143	-0.017
-394.121	171.039	-0.139	0.198
-393.106	-119.296	-0.126	0.022
-392.092	-200.000	-0.055	-0.248
-391.077	800.000	-0.105	-0.347
-390.063	-78.282	-0.310	-0.106
-389.048	621.234	0.204	0.508
-388.033	-12.990	0.283	0.182
-387.019	-131.007	-0.343	-0.045
-386.004	-109.881	0.125	-0.026
-384.990	-119.558	-0.308	-0.053
-383.975	-110.018	-0.126	0.026
-382.960	-61.934	0.151	-0.063
-381.946	-102.871	0.293	0.069
-380.931	72.004	0.096	0.099
-379.917	-148.149	0.492	0.040
-378.902	-131.893	-0.342	0.044
-377.888	-1.358	0.266	0.186
-376.873	524.463	0.134	-0.312
-375.858	-80.598	-0.062	-0.020
-374.844	800.000	-0.043	0.138
-373.829	371.435	-0.099	0.200
-372.815	-154.042	-0.381	0.026
-371.800	-10.423	0.230	0.151
-370.785	-46.114	-0.096	-0.047
-369.771	43.857	-0.110	0.100
-368.756	274.634	0.050	-0.088
-367.742	-59.531	0.328	0.140
-366.727	-200.000	-0.005	-0.111
-365.712	329.052	0.171	-0.326
-364.698	19.726	0.078	-0.062
-363.683	-46.917	-0.381	0.185
-362.669	42.835	0.083	0.075
-361.654	-143.597	-0.170	-0.016
-360.639	360.113	0.062	-0.123
-359.625	-161.065	0.123	-0.006
-358.610	61.240	-0.056	-0.055
-357.596	678.087	0.087	0.225
-356.581	800.000	-0.056	0.209
-355.566	98.885	-0.088	-0.100
-354.552	-63.422	-0.348	-0.142
-353.537	-81.607	-0.132	-0.043
-352.523	62.439	-0.069	-0.068
-351.508	-136.270	0.210	-0.024
-350.493	-27.820	-0.081	-0.046
-349.479	800.000	0.030	-0.099
-348.464	-200.000	-0.038	0.323
-347.450	-60.660	-0.197	-0.083
-346.435	-114.901	0.150	0.028
-345.420	-84.833	-0.090	0.028
-344.406	-117.498	-0.259	0.046
-343.391	92.780	0.139	0.156
-342.377	-62.935	0.250	0.102
-341.362	-135.491	-0.282	0.033
-340.348	20.845	0.304	0.244
-339.333	-200.000	0.031	0.308
-338.318	79.676	0.170	-0.181
-337.304	171.776	0.127	-0.181
-336.289	240.651	0.168	0.278
-335.275	-200.000	0.004	0.091
-334.260	750.803	-0.102	-0.272
-333.245	-19.609	0.148	0.091
-332.231	61.464	0.069	0.068
-331.216	203.062	-0.131	0.201
-330.202	-177.561	0.198	0.005
-329.187	5.571	0.140	-0.103
-328.172	800.000	-0.047	-0.142
-327.158	-123.084	-0.233	0.037
-326.143	-188.255	-0.156	0.002
-325.129	369.594	-0.159	-0.319
-324.114	665.384	-0.083	-0.212
-323.099	144.601	-0.284	0.376
-322.085	-101.248	-0.095	0.023
-321.070	-200.000	0.006	-0.471
-320.056	-14.674	0.148	0.094
-319.041	-77.459	0.344	-0.118
-318.026	395.806	0.244	0.504
-317.012	6.663	-0.229	0.169
-315.997	672.583	-0.097	-0.249
-314.983	800.000	-0.119	0.334
-313.968	-95.586	0.091	-0.024
-312.953	-85.674	0.320	0.098
-311.939	498.259	0.050	0.114
-310.924	150.505	-0.157	0.211
-309.910	107.629	-0.249	-0.293
-308.895	550.444	0.030	-0.071
-307.880	159.889	-0.170	0.234
-306.866	800.000	0.023	0.068
-305.851	75.499	-0.157	0.164
-304.837	-93.300	0.068	-0.019
-303.822	-200.000	-0.025	0.312
-302.807	330.087	-0.115	-0.219
-301.793	-99.554	-0.321	0.080
-300.778	-118.285	-0.390	0.069
-299.764	-69.188	-0.177	-0.067
-298.749	122.050	-0.145	-0.179
-297.735	96.581	-0.173	0.196
-296.720	-200.000	-0.076	0.384
-295.705	37.507	0.276	0.242
-294.691	444.856	0.073	-0.159
-293.676	6.157	0.288	-0.211
-292.662	-200.000	-0.019	-0.175
-291.647	110.735	0.117	-0.139
-290.632	-84.003	-0.370	0.116
-289.618	688.170	-0.124	0.320
-288.603	123.176	-0.125	0.154
-287.589	62.870	-0.114	0.113
-286.574	-102.301	-0.247	0.058
-285.559	62.316	0.089	0.088
-284.545	-126.509	-0.351	0.052
-283.530	800.000	-0.047	-0.132
-282.516	-138.403	0.467	0.051
-281.501	257.209	0.107	-0.181
-280.486	-95.722	-0.074	0.019
-279.472	-76.313	0.210	0.073
-278.457	-29.338	0.138	0.078
-277.443	-200.000	0.063	0.412
-276.428	707.198	-0.083	0.217
-275.413	-11.047	-0.122	0.080
-274.399	107.743	-0.270	-0.317
-273.384	6.867	-0.103	-0.076
-272.370	-150.869	0.216	0.016
-271.355	607.177	0.085	0.208
-270.340	455.806	-0.206	0.452
-269.326	-92.890	0.056	-0.015
-268.311	-200.000	-0.009	0.065
-267.297	-25.363	-0.062	0.036
-266.282	-170.253	0.145	-0.005
-265.267	299.197	-0.141	0.257
-264.253	308.203	0.062	0.115
-263.238	-140.619	-0.256	0.026
-262.224	16.165	0.205	-0.160
-261.209	179.664	-0.034	0.049
-260.195	-4.620	0.172	0.117
-259.180	-200.000	-0.077	0.335
-258.165	-126.656	0.236	-0.034
-257.151	-91.508	-0.136	-0.038
-256.136	-60.442	-0.482	0.202
-255.122	800.000	0.096	-0.380
-254.107	-124.391	-0.242	-0.037
-253.092	-120.336	0.160	-0.027
-252.078	66.607	-0.121	0.121
-251.063	-146.666	0.186	0.016
-250.049	-100.045	-0.212	-0.052
-249.034	-89.042	0.213	0.062
-248.019	-80.339	0.262	0.086
-247.005	335.650	0.087	-0.167
-245.990	231.325	0.151	-0.244
-244.976	-81.886	0.179	0.058
-243.961	49.667	-0.246	-0.228
-242.946	127.358	-0.049	-0.061
-241.932	-200.000	-0.089	0.399
-240.917	425.332	0.071	-0.150
-239.903	655.943	-0.122	-0.309
-238.888	-200.000	-0.044	-0.249
-237.873	-46.594	0.235	-0.114
-236.859	-37.188	-0.198	0.104
-235.844	-54.544	-0.129	0.058
-234.830	-80.315	0.360	0.119
-233.815	-200.000	-0.003	-0.276
-232.800	-13.130	0.294	-0.188
-231.786	-29.696	0.181	0.102
-230.771	99.387	0.310	0.353
-229.757	-141.221	-0.038	-0.004
-228.742	337.456	0.049	0.094
-227.727	166.276	0.108	-0.151
-226.713	-84.046	-0.286	-0.090
-225.698	-152.729	0.267	-0.019
-224.684	21.599	0.088	0.071
-223.669	-145.605	0.190	0.017
-222.655	170.497	0.194	0.274
-221.640	-100.395	-0.136	-0.033
-220.625	-200.000	0.026	0.140
-219.611	89.867	-0.156	0.172
-218.596	-35.336	-0.144	0.077
-217.582	108.393	0.097	0.114
-216.567	100.955	0.138	0.158
-215.552	-88.906	-0.201	0.059
-214.538	-200.000	-0.033	0.147
-213.523	34.467	-0.277	-0.239
-212.509	-167.616	0.147	-0.006
-211.494	-60.998	0.073	-0.030
-210.479	-16.799	-0.259	-0.161
-209.465	147.514	0.104	-0.138
-208.450	67.406	0.176	-0.177
-207.436	-123.997	0.377	0.058
-206.421	363.282	0.092	-0.183
-205.406	85.053	-0.106	-0.114
-204.392	44.074	0.171	-0.154
-203.377	800.000	0.021	0.069
-202.363	450.401	0.096	0.209
-201.348	-200.000	0.056	-0.263
-200.333	-13.431	0.333	-0.212
-199.319	209.874	-0.138	0.213
-198.304	165.184	0.144	-0.200
-197.290	357.481	0.230	-0.453
-196.275	-200.000	-0.018	-0.345
-195.260	5.314	0.167	0.121
-194.246	543.558	0.063	-0.148
-193.231	12.836	-0.115	0.088
-192.217	210.490	-0.057	0.088
-191.202	-118.840	0.142	-0.025
-190.187	424.568	0.095	0.201
-189.173	67.801	-0.117	0.118
-188.158	12.983	0.208	-0.158
-187.144	-78.168	-0.230	0.078
-186.129	-200.000	-0.001	0.150
-185.114	2.956	0.186	0.133
-184.100	-84.180	0.093	0.029
-183.085	-140.807	-0.190	0.019
-182.071	-107.956	-0.191	0.041
-181.056	-200.000	0.009	-0.278
-180.042	-11.698	0.224	-0.145
-179.027	-161.658	0.153	0.008
-178.012	-135.418	-0.082	-0.010
-176.998	-170.874	0.185	0.006
-175.983	-91.076	-0.086	0.024
-174.969	20.995	-0.211	0.168
-173.954	-122.329	-0.295	0.047
-172.939	-77.281	0.272	0.093
-171.925	-200.000	0.025	0.163
-170.910	800.000	-0.010	0.028
-169.896	-200.000	0.029	0.180
-168.881	-14.712	0.183	-0.116
-167.866	-200.000	-0.026	0.216
-166.852	-200.000	-0.048	0.385
-165.837	-4.756	0.256	0.174
-164.823	-134.087	0.355	0.043
-163.808	-14.863	-0.321	-0.202
-162.793	230.533	0.098	0.158
-161.779	99.062	-0.245	-0.278
-160.764	-162.282	0.142	0.007
-159.750	315.079	-0.074	-0.138
-158.735	-70.579	0.164	-0.061
-157.720	-126.155	-0.155	0.023
-156.706	-93.095	-0.256	0.070
-155.691	-61.212	-0.337	0.140
-154.677	-80.951	0.205	-0.067
-153.662	245.927	0.122	-0.202
-152.647	-40.378	-0.048	-0.024
-151.633	-122.222	-0.316	-0.051
-150.618	-76.253	0.105	0.036
-149.604	-54.620	0.166	-0.074
-148.589	-200.000	0.072	0.407
-147.574	-67.069	0.212	-0.082
-146.560	800.000	-0.109	-0.370
-145.545	-96.711	0.030	-0.008
-144.531	-200.000	0.011	-0.155
-143.516	-200.000	0.076	0.443
-142.502	-200.000	0.008	-0.331
-141.487	631.833	0.110	0.273
-140.472	-168.182	0.199	0.008
-139.458	-10.620	0.094	-0.061
-138.443	17.456	0.087	-0.068
-137.429	-44.394	-0.294	-0.145
-136.414	-26.593	-0.237	0.136
-135.399	-120.274	0.128	0.021
-134.385	-55.194	-0.224	0.099
-133.370	-200.000	-0.017	0.247
-132.356	-200.000	-0.019	-0.207
-131.341	-200.000	0.046	0.355
-130.326	-33.415	-0.232	0.126
-129.312	336.346	0.090	0.171
-128.297	-102.511	-0.199	0.047
-127.283	-146.002	-0.200	-0.017
-126.268	497.394	-0.099	0.223
-125.253	-81.682	-0.287	0.092
-124.239	-200.000	-0.016	-0.088
-123.224	800.000	0.076	-0.241
-122.210	-166.364	0.489	-0.020
-121.195	-200.000	0.034	0.208
