DTS Sentinel unit serial number:	SN413079Multiplexer serial number:	ORYXHardware model number:	OX4-SRSoftware version number:	ORYX F/W v4.00 Oryx Data Collector v3.7.2.0data status	okinstallation	princeton_trtdifferential loss correction	single-endedforward channel	channel 1reverse channel	N/Adate	2019/09/12time	07:40:11forward acquisition time	60.00reverse acquisition time	0.00gamma	496.2192k internal	0.2315k external	0.2315temperature offset calibration	1.0045default loss term (dB/km)	0.3790temperature slope calibration	1.0000multiplexer offset coefficient	1.0000multiplexer slope coefficient	1.0000fibre end	0.00T internal ref (°C)	32.69T ext. ref 1 (°C)	1.64T ext. ref 2 (°C)	29.13length (m)	temperature (°C)	Stokes	anti-Stokes-747.200	327.889	-0.061	0.119
-746.185	-200.000	0.025	-0.190
-745.171	-109.097	0.342	-0.074
-744.156	800.000	-0.078	0.256
-743.142	90.207	0.184	0.209
-742.127	459.711	0.095	-0.215
-741.112	9.902	0.234	0.180
-740.098	800.000	-0.124	0.443
-739.083	450.620	0.116	0.259
-738.069	800.000	0.125	0.396
-737.054	95.585	-0.051	-0.059
-736.039	-112.138	-0.232	-0.047
-735.025	-31.387	0.163	0.093
-734.010	157.382	0.092	-0.130
-732.996	3.296	0.269	-0.198
-731.981	800.000	0.049	0.186
-730.966	271.136	0.033	0.060
-729.952	-200.000	-0.018	0.187
-728.937	-200.000	0.000	-0.085
-727.923	-16.006	0.172	-0.111
-726.908	-162.352	-0.265	-0.013
-725.894	242.715	-0.060	0.101
-724.879	-92.688	-0.325	-0.092
-723.864	82.960	0.295	-0.325
-722.850	488.189	0.040	0.092
-721.835	526.199	-0.048	-0.114
-720.821	-200.000	0.025	-0.134
-719.806	800.000	-0.078	-0.293
-718.791	-95.899	-0.307	-0.083
-717.777	-110.568	-0.149	0.031
-716.762	-18.345	-0.192	-0.122
-715.748	-130.577	-0.342	0.047
-714.733	-200.000	0.002	-0.324
-713.718	-200.000	-0.009	-0.141
-712.704	170.863	-0.165	-0.239
-711.689	125.372	-0.122	-0.156
-710.675	6.511	0.091	0.068
-709.660	152.229	0.170	-0.235
-708.645	800.000	-0.067	-0.194
-707.631	26.201	-0.169	-0.143
-706.616	800.000	0.149	0.449
-705.602	-44.003	0.203	0.103
-704.587	522.659	-0.169	-0.402
-703.572	-71.572	-0.234	-0.088
-702.558	263.673	0.258	-0.453
-701.543	-94.784	-0.081	0.022
-700.529	-9.738	0.179	-0.121
-699.514	7.228	0.245	-0.185
-698.499	-11.091	0.058	0.039
-697.485	-104.141	-0.256	-0.060
-696.470	-104.362	-0.434	-0.102
-695.456	37.670	-0.038	-0.034
-694.441	-133.462	-0.266	0.034
-693.426	-44.134	0.232	-0.118
-692.412	-79.644	0.274	0.093
-691.397	183.794	-0.057	0.085
-690.383	-177.909	-0.404	-0.010
-689.368	188.695	0.210	-0.318
-688.354	-96.838	0.281	-0.074
-687.339	-68.865	0.124	0.048
-686.324	-112.233	-0.453	-0.092
-685.310	-141.780	0.160	-0.016
-684.295	-95.978	0.356	-0.096
-683.281	515.253	-0.096	-0.226
-682.266	-23.705	0.418	-0.254
-681.251	563.912	-0.045	-0.110
-680.237	800.000	0.044	-0.187
-679.222	-200.000	-0.020	-0.281
-678.208	800.000	-0.072	0.239
-677.193	106.474	-0.034	0.040
-676.178	59.979	0.161	0.161
-675.164	419.716	0.027	-0.059
-674.149	438.795	-0.010	0.021
-673.135	-163.629	0.204	-0.010
-672.120	-153.572	-0.358	0.025
-671.105	-200.000	-0.011	-0.232
-670.091	800.000	0.076	0.276
-669.076	32.261	-0.183	0.160
-668.062	5.350	0.112	-0.083
-667.047	170.040	0.241	-0.348
-666.032	29.289	-0.098	-0.084
-665.018	-146.395	-0.134	0.012
-664.003	177.639	0.051	-0.075
-662.989	-200.000	0.016	-0.083
-661.974	-52.576	-0.417	0.194
-660.959	-81.687	-0.402	-0.133
-659.945	720.616	-0.220	0.590
-658.930	-133.019	0.057	-0.007
-657.916	-36.187	-0.106	0.058
-656.901	-72.790	-0.067	0.025
-655.886	-83.500	0.301	-0.097
-654.872	2.343	-0.218	0.159
-653.857	-152.008	0.399	-0.029
-652.843	-38.751	-0.266	-0.142
-651.828	50.554	0.148	0.141
-650.814	-200.000	0.001	0.263
-649.799	-95.241	-0.150	0.041
-648.784	430.810	-0.144	0.314
-647.770	800.000	0.058	0.216
-646.755	-200.000	0.004	-0.095
-645.741	47.342	0.037	0.035
-644.726	277.446	-0.152	-0.273
-643.711	800.000	0.056	-0.230
-642.697	129.575	-0.301	-0.388
-641.682	-71.609	0.041	0.016
-640.668	-200.000	-0.018	-0.144
-639.653	465.229	0.091	-0.206
-638.638	483.536	-0.127	0.292
-637.624	-156.715	0.174	0.011
-636.609	104.304	-0.183	0.217
-635.595	-200.000	-0.076	-0.372
-634.580	265.184	0.045	-0.080
-633.565	469.411	-0.108	-0.244
-632.551	351.738	0.065	-0.129
-631.536	176.628	0.081	0.119
-630.522	-17.410	-0.270	0.171
-629.507	-161.681	-0.268	0.014
-628.492	-200.000	-0.000	0.072
-627.478	-200.000	-0.052	0.346
-626.463	-140.560	-0.202	-0.021
-625.449	-1.387	0.085	-0.061
-624.434	-26.196	-0.321	0.190
-623.419	-158.000	0.199	-0.012
-622.405	33.653	0.380	0.333
-621.390	28.537	-0.176	0.151
-620.376	-165.539	-0.268	-0.012
-619.361	-64.290	0.148	0.061
-618.346	-200.000	-0.034	0.198
-617.332	-200.000	0.002	0.092
-616.317	250.950	-0.230	-0.395
-615.303	-112.285	-0.559	0.113
-614.288	17.374	0.326	-0.261
-613.273	9.322	-0.264	-0.201
-612.259	-13.499	0.317	0.207
-611.244	41.647	-0.258	-0.236
-610.230	800.000	-0.007	-0.023
-609.215	-200.000	0.265	0.001
-608.201	-200.000	0.013	-0.304
-607.186	-56.019	-0.319	-0.144
-606.171	-77.040	0.245	0.086
-605.157	-200.000	0.002	-0.185
-604.142	-200.000	0.095	-0.510
-603.128	-106.249	0.260	-0.059
-602.113	194.819	-0.109	0.167
-601.098	86.741	0.142	-0.157
-600.084	-200.000	-0.029	-0.165
-599.069	86.424	-0.141	-0.156
-598.055	-126.071	-0.207	-0.031
-597.040	-58.135	-0.181	-0.079
-596.025	-200.000	0.031	-0.227
-595.011	148.215	-0.052	-0.071
-593.996	7.700	0.107	0.081
-592.982	151.128	0.218	0.299
-591.967	-117.301	-0.366	-0.067
-590.952	26.334	0.130	-0.110
-589.938	-153.906	-0.221	0.015
-588.923	-111.091	-0.343	-0.071
-587.909	-131.773	0.114	0.015
-586.894	-200.000	-0.003	-0.149
-585.879	596.660	-0.160	0.400
-584.865	117.452	-0.032	-0.039
-583.850	-200.000	-0.092	0.607
-582.836	-200.000	0.014	-0.086
-581.821	-200.000	-0.010	-0.097
-580.806	56.310	0.135	0.132
-579.792	-48.771	0.416	-0.201
-578.777	-200.000	0.006	0.083
-577.763	737.225	0.037	-0.099
-576.748	209.843	-0.160	0.252
-575.733	-200.000	0.002	-0.097
-574.719	146.017	-0.179	-0.242
-573.704	28.004	-0.161	0.137
-572.690	-100.230	-0.199	0.050
-571.675	-116.998	0.185	-0.034
-570.661	-48.162	-0.204	0.099
-569.646	-166.632	0.297	0.012
-568.631	-86.890	0.402	-0.123
-567.617	-200.000	-0.036	0.339
-566.602	-82.560	0.235	-0.077
-565.588	800.000	-0.067	0.200
-564.573	652.268	0.023	-0.060
-563.558	-200.000	-0.035	0.275
-562.544	94.835	0.171	0.195
-561.529	800.000	0.072	-0.287
-560.515	800.000	0.110	-0.480
-559.500	-149.565	-0.363	-0.029
-558.485	68.731	-0.120	0.124
-557.471	5.566	0.247	-0.184
-556.456	670.458	0.015	-0.038
-555.442	-107.579	0.090	-0.020
-554.427	-200.000	0.004	0.230
-553.412	-109.258	-0.475	-0.101
-552.398	-30.203	-0.238	0.136
-551.383	800.000	-0.011	-0.041
-550.369	-54.527	-0.212	-0.096
-549.354	800.000	0.002	0.008
-548.339	475.859	-0.044	-0.099
-547.325	285.456	0.096	-0.175
-546.310	-200.000	-0.003	-0.164
-545.296	-103.684	-0.172	-0.040
-544.281	117.760	0.178	-0.221
-543.266	-111.388	0.244	-0.050
-542.252	357.465	-0.117	0.234
-541.237	-106.392	-0.260	0.058
-540.223	-121.346	-0.106	-0.018
-539.208	800.000	0.082	0.269
-538.193	253.791	-0.079	-0.136
-537.179	148.346	0.171	-0.233
-536.164	-46.630	-0.262	-0.129
-535.150	-139.932	0.254	0.027
-534.135	456.886	0.068	0.152
-533.121	38.115	-0.439	0.393
-532.106	400.838	-0.169	-0.357
-531.091	-148.050	0.322	0.027
-530.077	-84.422	-0.441	-0.140
-529.062	108.449	-0.233	-0.280
-528.048	-200.000	-0.068	0.512
-527.033	-96.575	-0.218	-0.058
-526.018	156.411	-0.023	0.031
-525.004	41.693	0.095	-0.087
-523.989	51.894	0.111	0.107
-522.975	42.671	0.130	-0.119
-521.960	-92.255	0.094	0.027
-520.945	100.377	0.152	-0.178
-519.931	249.886	0.068	0.116
-518.916	-67.988	-0.126	-0.049
-517.902	125.697	-0.140	0.178
-516.887	138.321	-0.142	0.187
-515.872	-6.348	-0.216	-0.148
-514.858	-18.518	0.054	0.034
-513.843	14.982	-0.084	0.066
-512.829	-200.000	0.041	0.263
-511.814	128.032	-0.124	-0.158
-510.799	82.075	0.027	-0.030
-509.785	-42.540	-0.294	-0.150
-508.770	-200.000	0.060	-0.270
-507.756	-126.608	0.226	-0.034
-506.741	-200.000	-0.027	0.134
-505.726	-195.165	0.082	0.001
-504.712	80.212	0.196	0.211
-503.697	64.465	0.353	0.357
-502.683	-145.341	-0.134	0.012
-501.668	-200.000	0.022	-0.144
-500.653	313.849	-0.056	0.106
-499.639	-200.000	-0.034	0.193
-498.624	-38.518	-0.198	0.105
-497.610	800.000	0.096	0.320
-496.595	-102.576	0.277	0.066
-495.581	207.816	-0.118	0.185
-494.566	-122.459	-0.114	-0.019
-493.551	17.243	0.105	-0.084
-492.537	-124.605	-0.057	0.009
-491.522	713.765	0.078	-0.207
-490.508	67.935	-0.145	-0.149
-489.493	-74.594	0.193	0.070
-488.478	-49.167	0.274	-0.131
-487.464	-137.437	-0.306	0.035
-486.449	-78.753	-0.160	0.055
-485.435	-200.000	-0.002	-0.105
-484.420	-36.143	-0.456	0.247
-483.405	-200.000	-0.058	0.340
-482.391	158.165	0.228	-0.317
-481.376	269.460	0.135	-0.238
-480.362	188.801	0.231	0.347
-479.347	66.610	-0.397	0.405
-478.332	28.271	-0.023	0.019
-477.318	534.495	0.094	0.224
-476.303	-9.396	-0.239	-0.160
-475.289	206.318	0.122	-0.190
-474.274	-200.000	0.025	0.518
-473.259	-138.281	-0.182	-0.020
-472.245	-43.243	0.151	0.077
-471.230	800.000	-0.115	0.326
-470.216	-200.000	-0.078	0.412
-469.201	73.275	-0.071	0.074
-468.186	45.065	0.215	-0.198
-467.172	38.959	0.186	0.167
-466.157	145.415	0.135	-0.181
-465.143	70.087	-0.207	0.214
-464.128	-145.561	0.113	-0.010
-463.113	-91.236	0.209	-0.060
-462.099	-73.089	0.134	0.049
-461.084	-89.555	-0.053	0.015
-460.070	-105.007	0.235	0.054
-459.055	800.000	-0.184	0.538
-458.040	-17.850	0.266	0.167
-457.026	90.718	-0.200	-0.224
-456.011	-33.394	-0.122	-0.068
-454.997	-87.292	0.242	0.074
-453.982	45.613	0.059	0.054
-452.968	-30.262	0.183	0.104
-451.953	687.949	-0.019	0.049
-450.938	457.515	-0.083	-0.184
-449.924	201.047	-0.187	-0.289
-448.909	94.373	0.125	0.143
-447.895	134.879	-0.217	-0.282
-446.880	-55.872	0.229	-0.103
-445.865	141.394	0.041	-0.055
-444.851	-200.000	-0.007	0.065
-443.836	-24.862	0.231	0.137
-442.822	800.000	0.061	-0.170
-441.807	-154.788	0.239	0.016
-440.792	-89.226	-0.328	-0.097
-439.778	-46.580	-0.262	-0.129
-438.763	204.639	0.250	0.387
-437.749	-200.000	0.004	0.153
-436.734	-96.398	0.137	0.036
-435.719	35.663	0.114	0.100
-434.705	271.300	0.045	0.079
-433.690	-84.539	0.345	-0.109
-432.676	41.057	0.077	0.070
-431.661	-200.000	0.006	-0.202
-430.646	212.792	0.061	0.096
-429.632	-95.345	0.183	0.049
-428.617	155.553	0.045	0.062
-427.603	98.378	-0.176	-0.203
-426.588	800.000	-0.087	-0.360
-425.573	9.216	-0.040	0.031
-424.559	188.240	-0.160	-0.240
-423.544	179.988	0.152	0.222
-422.530	222.074	0.094	-0.151
-421.515	-200.000	0.028	0.236
-420.500	152.511	-0.038	0.052
-419.486	-45.765	0.217	-0.107
-418.471	-70.351	-0.176	0.067
-417.457	-200.000	-0.003	-0.386
-416.442	-95.095	0.221	-0.060
-415.428	-97.386	0.151	-0.039
-414.413	-67.634	0.072	-0.028
-413.398	800.000	-0.041	0.145
-412.384	57.245	-0.353	-0.345
-411.369	-88.261	-0.181	-0.054
-410.355	-91.672	0.332	-0.095
-409.340	800.000	-0.045	0.164
-408.325	-122.694	0.172	0.028
-407.311	-89.031	0.067	0.020
-406.296	-5.980	-0.246	-0.168
-405.282	-109.542	-0.108	0.023
-404.267	2.413	0.155	0.112
-403.252	-56.105	-0.236	-0.105
-402.238	-163.435	0.325	0.015
-401.223	-101.258	-0.356	0.087
-400.209	759.043	-0.098	0.265
-399.194	-127.664	-0.385	-0.056
-398.179	216.627	0.263	-0.418
-397.165	-102.061	0.667	-0.161
-396.150	-51.832	0.065	0.030
-395.136	262.447	0.105	-0.183
-394.121	208.228	0.183	0.286
-393.106	-6.214	-0.132	0.090
-392.092	446.430	-0.117	-0.258
-391.077	-26.432	0.178	-0.105
-390.063	-57.864	-0.300	-0.131
-389.048	800.000	0.049	0.160
-388.033	744.888	0.094	-0.253
-387.019	-84.742	-0.198	-0.062
-386.004	-200.000	0.075	-0.488
-384.990	-58.197	0.041	0.018
-383.975	758.854	0.104	0.282
-382.960	-95.371	-0.252	-0.068
-381.946	617.826	0.117	0.293
-380.931	399.607	0.116	-0.243
-379.917	-100.474	-0.300	0.074
-378.902	-146.933	0.094	0.008
-377.888	-136.109	-0.304	0.036
-376.873	176.351	0.288	0.418
-375.858	-169.289	0.114	0.004
-374.844	-129.135	-0.134	-0.019
-373.829	-135.940	-0.397	-0.047
-372.815	800.000	-0.072	-0.310
-371.800	-90.745	0.215	0.062
-370.785	-189.079	0.343	0.004
-369.771	212.674	0.146	0.230
-368.756	-85.817	0.179	0.055
-367.742	-88.361	0.329	-0.098
-366.727	-200.000	0.001	0.170
-365.712	-66.764	0.080	0.031
-364.698	800.000	0.065	0.197
-363.683	-52.467	0.189	0.087
-362.669	59.342	-0.082	0.081
-361.654	-33.378	0.151	0.084
-360.639	648.229	-0.071	0.181
-359.625	-116.677	-0.336	0.062
-358.610	-96.890	0.145	-0.038
-357.596	478.760	0.110	-0.249
-356.581	-200.000	-0.042	-0.340
-355.566	-200.000	0.022	0.338
-354.552	-4.480	-0.184	-0.127
-353.537	-134.924	0.156	-0.019
-352.523	-162.694	0.317	-0.015
-351.508	-2.333	0.450	0.315
-350.493	255.460	-0.154	0.263
-349.479	-134.556	-0.289	0.035
-348.464	-48.622	0.264	0.127
-347.450	-172.271	0.447	0.014
-346.435	-13.976	0.158	0.102
-345.420	135.664	0.222	-0.288
-344.406	800.000	0.052	-0.173
-343.391	-200.000	-0.038	0.184
-342.377	-134.840	0.190	-0.023
-341.362	60.266	-0.091	-0.089
-340.348	-32.206	-0.273	-0.152
-339.333	543.539	-0.041	0.097
-338.318	164.461	-0.089	-0.125
-337.304	-200.000	0.020	-0.339
-336.289	151.715	0.243	-0.331
-335.275	175.206	-0.045	0.065
-334.260	-200.000	-0.009	-0.136
-333.245	800.000	0.154	0.474
-332.231	-200.000	0.002	0.179
-331.216	240.568	0.118	0.197
-330.202	440.111	0.042	-0.093
-329.187	222.416	0.107	-0.171
-328.172	-141.001	-0.384	0.039
-327.158	-130.498	-0.121	-0.016
-326.143	-145.923	-0.254	-0.022
-325.129	-96.953	0.229	0.060
-324.114	-12.816	0.088	-0.057
-323.099	-126.382	0.079	0.012
-322.085	-31.318	-0.078	0.044
-321.070	-200.000	-0.024	0.166
-320.056	99.959	-0.177	0.204
-319.041	-96.016	-0.075	0.020
-318.026	-200.000	-0.070	0.317
-317.012	-118.544	-0.172	-0.030
-315.997	-101.802	0.154	-0.037
-314.983	-85.890	0.210	0.065
-313.968	-200.000	0.003	-0.055
-312.953	-74.722	-0.041	-0.015
-311.939	-114.419	-0.042	0.008
-310.924	48.878	-0.141	0.132
-309.910	-104.876	-0.119	-0.027
-308.895	4.042	0.084	-0.061
-307.880	246.251	0.126	0.212
-306.866	-200.000	0.017	-0.167
-305.851	800.000	-0.097	-0.291
-304.837	-115.930	0.147	0.027
-303.822	800.000	-0.075	0.237
-302.807	261.941	0.113	0.194
-301.793	-200.000	0.010	0.119
-300.778	12.133	-0.114	-0.088
-299.764	60.414	0.140	0.138
-298.749	-133.531	-0.160	0.020
-297.735	408.401	0.015	-0.033
-296.720	-17.916	0.114	-0.071
-295.705	168.276	-0.180	0.255
-294.691	800.000	0.039	-0.163
-293.676	4.500	-0.237	-0.173
-292.662	-106.147	-0.203	0.045
-291.647	-200.000	0.051	0.373
-290.632	-200.000	0.037	0.187
-289.618	-63.228	0.072	0.029
-288.603	-38.054	0.206	-0.109
-287.589	-200.000	-0.026	-0.206
-286.574	255.701	0.048	-0.082
-285.559	26.108	-0.174	-0.144
-284.545	-200.000	-0.018	-0.264
-283.530	128.017	0.177	-0.224
-282.516	122.770	-0.122	0.152
-281.501	800.000	0.068	0.278
-280.486	174.405	0.230	-0.331
-279.472	6.980	-0.092	-0.068
-278.457	-11.882	0.082	0.053
-277.443	-83.634	-0.124	-0.039
-276.428	10.328	0.061	0.046
-275.413	-144.490	-0.183	-0.017
-274.399	-200.000	0.037	-0.403
-273.384	-81.280	0.154	-0.051
-272.370	800.000	0.070	-0.245
-271.355	80.797	-0.087	-0.093
-270.340	-42.102	-0.309	-0.157
-269.326	-93.598	-0.137	0.038
-268.311	452.214	-0.132	-0.290
-267.297	108.574	0.067	0.079
-266.282	-141.015	0.242	-0.025
-265.267	-200.000	-0.007	-0.238
-264.253	-200.000	0.017	-0.153
-263.238	155.521	-0.083	-0.113
-262.224	151.654	0.279	-0.378
-261.209	99.025	0.109	-0.125
-260.195	-200.000	0.017	-0.163
-259.180	-200.000	0.026	-0.340
-258.165	-200.000	-0.012	-0.176
-257.151	47.608	0.028	0.026
-256.136	800.000	-0.168	0.519
-255.122	-84.657	0.095	-0.030
-254.107	-148.970	-0.176	-0.014
-253.092	-200.000	-0.027	0.141
-252.078	745.546	0.009	0.024
-251.063	-48.239	-0.292	0.140
-250.049	34.376	0.074	0.064
-249.034	57.072	0.151	0.146
-248.019	162.241	-0.029	-0.041
-247.005	481.255	-0.074	0.166
-245.990	-200.000	0.037	-0.283
-244.976	104.179	0.063	-0.073
-243.961	62.755	0.122	-0.122
-242.946	112.813	0.126	0.152
-241.932	-11.687	-0.236	0.154
-240.917	-141.580	0.305	0.031
-239.903	-135.888	0.050	-0.006
-238.888	-181.230	0.342	-0.007
-237.873	-62.394	-0.206	0.085
-236.859	259.982	-0.111	-0.191
-235.844	-41.896	-0.296	0.151
-234.830	14.517	-0.115	0.089
-233.815	277.172	0.186	0.329
-232.800	-200.000	-0.004	0.210
-231.786	-200.000	0.030	-0.263
-230.771	-80.626	-0.048	-0.016
-229.757	-166.229	-0.061	0.003
-228.742	93.888	0.197	-0.222
-227.727	183.404	0.197	0.289
-226.713	222.996	0.088	-0.141
-225.698	47.809	0.185	-0.172
-224.684	491.647	0.083	0.189
-223.669	-99.389	-0.136	0.034
-222.655	-10.026	-0.098	-0.065
-221.640	254.381	0.203	0.345
-220.625	800.000	0.025	0.098
-219.611	156.339	0.115	-0.157
-218.596	-85.811	0.197	0.061
-217.582	-200.000	-0.109	0.479
-216.567	466.876	0.185	0.411
-215.552	-200.000	0.012	-0.139
-214.538	196.140	-0.100	-0.152
-213.523	800.000	-0.049	0.171
-212.509	144.414	0.064	0.084
-211.494	43.725	-0.160	0.145
-210.479	36.218	-0.160	-0.140
-209.465	800.000	0.020	-0.070
-208.450	-167.746	-0.207	0.008
-207.436	-7.185	-0.235	0.158
-206.421	125.991	-0.285	-0.357
-205.406	303.176	-0.062	-0.115
-204.392	98.694	-0.117	-0.134
-203.377	88.930	0.033	0.037
-202.363	97.735	0.145	-0.165
-201.348	-200.000	0.013	-0.204
-200.333	-167.236	-0.142	-0.006
-199.319	800.000	0.038	-0.148
-198.304	89.256	-0.083	-0.091
-197.290	800.000	0.051	-0.202
-196.275	-38.806	-0.238	0.124
-195.260	-82.241	-0.079	-0.026
-194.246	-79.356	0.181	0.061
-193.231	336.069	0.178	0.342
-192.217	800.000	-0.051	-0.166
-191.202	-68.467	-0.211	-0.081
-190.187	140.355	0.247	-0.324
-189.173	-132.494	0.147	0.019
-188.158	-94.427	-0.046	0.013
-187.144	-43.589	-0.158	0.079
-186.129	-162.833	-0.097	0.005
-185.114	48.464	-0.158	-0.147
-184.100	63.421	0.223	0.222
-183.085	446.061	0.176	0.383
-182.071	149.706	-0.122	0.164
-181.056	50.174	0.220	-0.206
-180.042	-133.145	-0.164	0.021
-179.027	229.665	-0.110	0.178
-178.012	19.601	0.167	-0.134
-176.998	24.469	-0.159	0.130
-175.983	800.000	-0.037	-0.159
-174.969	5.208	-0.277	-0.203
-173.954	-200.000	0.018	-0.345
-172.939	-162.271	-0.100	0.005
-171.925	-129.760	-0.335	0.046
-170.910	-175.558	-0.393	0.011
-169.896	-37.221	0.241	0.128
-168.881	800.000	0.067	-0.217
-167.866	-9.805	0.125	-0.082
-166.852	193.211	0.107	-0.160
-165.837	214.959	0.208	0.326
-164.823	167.825	0.210	0.296
-163.808	800.000	-0.051	-0.199
-162.793	-183.236	0.266	0.005
-161.779	-200.000	0.098	0.520
-160.764	224.618	0.028	-0.045
-159.750	736.398	-0.078	-0.208
-158.735	-169.395	-0.160	0.006
-157.720	-200.000	-0.012	-0.113
-156.706	800.000	0.031	0.095
-155.691	295.085	0.088	0.160
-154.677	78.733	0.188	-0.199
-153.662	210.826	0.047	-0.073
-152.647	800.000	-0.041	0.121
-151.633	-200.000	-0.006	-0.051
-150.618	800.000	-0.023	0.081
-149.604	62.336	0.184	0.182
-148.589	241.652	-0.154	-0.254
-147.574	-200.000	0.012	-0.164
-146.560	-96.313	-0.387	0.102
-145.545	349.300	-0.107	0.209
-144.531	-124.968	0.351	-0.053
-143.516	-188.925	0.203	-0.002
-142.502	-30.725	0.328	-0.183
-141.487	266.374	0.032	0.055
-140.472	-156.334	0.094	0.006
-139.458	-200.000	-0.042	-0.298
-138.443	47.635	-0.058	0.053
-137.429	-200.000	-0.018	0.391
-136.414	-156.980	-0.201	-0.012
-135.399	352.619	0.115	0.225
-134.385	-138.568	-0.243	-0.026
-133.370	-200.000	-0.013	0.324
-132.356	-117.203	0.365	-0.066
-131.341	-200.000	-0.033	-0.154
-130.326	339.999	-0.181	-0.350
-129.312	355.258	-0.134	0.263
-128.297	-101.420	0.274	-0.066
-127.283	534.169	0.032	0.075
-126.268	70.058	0.428	-0.437
-125.253	121.524	-0.082	-0.101
-124.239	82.375	0.017	0.018
-123.224	489.695	0.140	-0.317
-122.210	-157.436	0.094	-0.006
-121.195	-200.000	0.044	0.318
