DTS Sentinel unit serial number:	SN413079Multiplexer serial number:	ORYXHardware model number:	OX4-SRSoftware version number:	ORYX F/W v4.00 Oryx Data Collector v3.7.2.0data status	okinstallation	princeton_trtdifferential loss correction	single-endedforward channel	channel 1reverse channel	N/Adate	2019/09/16time	09:54:35forward acquisition time	60.00reverse acquisition time	0.00gamma	496.2192k internal	0.2317k external	0.2317temperature offset calibration	0.9968default loss term (dB/km)	0.3790temperature slope calibration	1.0000multiplexer offset coefficient	1.0000multiplexer slope coefficient	1.0000fibre end	0.00T internal ref (°C)	33.09T ext. ref 1 (°C)	12.35T ext. ref 2 (°C)	31.31length (m)	temperature (°C)	Stokes	anti-Stokes-747.200	-132.587	0.349	0.045
-746.185	-200.000	-0.087	0.390
-745.171	563.135	0.082	-0.201
-744.156	-200.000	0.043	0.350
-743.142	-31.269	0.243	-0.139
-742.127	124.857	-0.172	0.219
-741.112	201.227	0.097	0.151
-740.098	800.000	0.062	-0.191
-739.083	800.000	0.022	0.066
-738.069	612.054	0.064	0.163
-737.054	-200.000	-0.037	0.342
-736.039	-200.000	-0.001	-0.185
-735.025	-24.058	0.121	0.073
-734.010	96.607	-0.055	0.064
-732.996	327.362	-0.087	-0.170
-731.981	44.531	0.161	-0.149
-730.966	230.474	0.163	0.270
-729.952	-28.525	0.042	0.025
-728.937	11.851	0.229	-0.178
-727.923	485.416	0.055	0.126
-726.908	-136.723	0.350	0.041
-725.894	228.706	-0.094	-0.155
-724.879	-200.000	0.020	-0.105
-723.864	20.006	-0.112	0.091
-722.850	-55.481	-0.116	0.053
-721.835	79.561	-0.058	-0.062
-720.821	9.777	0.120	0.092
-719.806	800.000	0.064	-0.274
-718.791	-119.010	-0.176	-0.031
-717.777	-148.935	0.049	0.004
-716.762	279.780	0.079	-0.144
-715.748	3.768	0.264	-0.195
-714.733	248.330	0.137	0.234
-713.718	-200.000	0.022	0.114
-712.704	-200.000	-0.059	0.421
-711.689	-40.207	0.232	0.122
-710.675	-77.919	-0.181	0.063
-709.660	-142.790	0.248	-0.024
-708.645	-200.000	0.042	-0.254
-707.631	300.716	0.213	-0.398
-706.616	-200.000	0.047	-0.341
-705.602	-64.057	0.252	-0.104
-704.587	800.000	0.054	0.177
-703.572	227.455	0.216	0.355
-702.558	800.000	-0.032	-0.117
-701.543	800.000	0.093	-0.259
-700.529	-62.388	-0.208	-0.087
-699.514	588.555	0.015	-0.038
-698.499	149.050	-0.071	-0.098
-697.485	-30.089	-0.212	-0.122
-696.470	152.520	-0.078	-0.107
-695.456	-94.754	0.138	-0.038
-694.441	-62.480	-0.071	-0.030
-693.426	-43.164	-0.090	-0.046
-692.412	-81.041	-0.204	0.068
-691.397	85.748	-0.083	-0.092
-690.383	129.208	-0.021	-0.027
-689.368	-200.000	-0.024	-0.389
-688.354	-200.000	0.091	-0.506
-687.339	446.518	0.021	-0.047
-686.324	-200.000	0.029	-0.207
-685.310	-60.497	-0.345	0.148
-684.295	37.980	-0.049	-0.044
-683.281	-150.225	-0.170	-0.013
-682.266	-14.503	-0.063	0.041
-681.251	327.024	-0.032	-0.063
-680.237	-149.159	-0.170	0.014
-679.222	117.354	0.099	-0.123
-678.208	-200.000	-0.019	0.146
-677.193	-200.000	-0.049	-0.424
-676.178	373.642	0.048	-0.098
-675.164	57.149	0.249	0.245
-674.149	-151.820	0.366	-0.027
-673.135	-68.579	0.115	0.045
-672.120	-42.913	0.325	0.166
-671.105	586.762	-0.047	-0.117
-670.091	364.799	0.126	-0.257
-669.076	-118.052	0.122	0.022
-668.062	-76.404	0.138	0.049
-667.047	-200.000	0.017	-0.204
-666.032	-100.938	0.475	0.118
-665.018	-184.042	-0.328	-0.006
-664.003	-200.000	-0.048	-0.261
-662.989	18.754	-0.243	0.196
-661.974	-54.060	0.226	-0.104
-660.959	-11.349	0.148	0.099
-659.945	-200.000	0.025	0.183
-658.930	-145.799	0.252	-0.023
-657.916	-3.875	-0.144	0.101
-656.901	120.760	-0.061	-0.077
-655.886	800.000	0.060	0.246
-654.872	416.371	-0.048	-0.103
-653.857	-84.339	0.073	-0.023
-652.843	-66.882	0.195	0.078
-651.828	189.271	-0.086	-0.130
-650.814	73.154	-0.204	-0.215
-649.799	233.628	0.083	-0.138
-648.784	-25.866	-0.033	0.020
-647.770	644.630	-0.059	0.152
-646.755	137.629	0.078	-0.102
-645.741	-44.993	-0.075	0.038
-644.726	-5.120	0.076	-0.053
-643.711	-4.714	0.075	-0.052
-642.697	-6.355	-0.208	-0.143
-641.682	-200.000	0.003	-0.158
-640.668	-153.034	-0.302	-0.021
-639.653	150.140	-0.252	-0.345
-638.638	-81.512	-0.295	0.098
-637.624	164.515	-0.152	-0.215
-636.609	-43.299	-0.165	0.084
-635.595	-200.000	-0.016	0.113
-634.580	-21.151	-0.088	-0.054
-633.565	-99.346	0.022	-0.006
-632.551	476.301	-0.089	0.204
-631.536	-200.000	0.029	0.427
-630.522	800.000	0.139	0.503
-629.507	0.914	-0.040	-0.029
-628.492	-192.107	-0.226	0.002
-627.478	-63.252	0.237	0.099
-626.463	4.790	0.277	-0.205
-625.449	12.103	0.099	0.077
-624.434	-129.204	0.433	0.061
-623.419	73.471	-0.166	0.175
-622.405	-200.000	0.025	0.177
-621.390	38.821	-0.240	-0.216
-620.376	-99.755	-0.261	0.066
-619.361	-119.783	0.126	0.022
-618.346	-60.571	0.025	-0.011
-617.332	-108.306	0.142	0.031
-616.317	-138.019	-0.084	0.009
-615.303	-23.317	0.318	0.193
-614.288	800.000	-0.045	0.150
-613.273	175.529	-0.085	0.124
-612.259	-200.000	-0.014	0.145
-611.244	-38.987	-0.112	-0.059
-610.230	800.000	-0.047	0.157
-609.215	-95.239	-0.355	0.096
-608.201	93.845	0.098	-0.112
-607.186	-38.242	0.267	0.143
-606.171	-114.193	0.177	-0.035
-605.157	91.127	0.274	0.309
-604.142	800.000	0.040	-0.173
-603.128	800.000	0.049	-0.171
-602.113	86.162	0.226	-0.250
-601.098	193.907	0.289	0.440
-600.084	150.066	-0.234	-0.319
-599.069	-200.000	-0.037	-0.292
-598.055	-103.934	0.343	-0.081
-597.040	-42.443	0.132	-0.068
-596.025	-90.301	-0.524	-0.153
-595.011	-49.214	0.110	-0.053
-593.996	87.385	0.285	0.317
-592.982	369.224	-0.061	-0.124
-591.967	63.786	0.189	-0.191
-590.952	14.265	0.287	-0.225
-589.938	-64.981	-0.110	0.045
-588.923	109.247	-0.035	-0.042
-587.909	382.700	0.063	-0.131
-586.894	-200.000	0.067	-0.336
-585.879	238.912	0.130	0.217
-584.865	-7.068	-0.451	-0.308
-583.850	-200.000	0.047	0.232
-582.836	-11.501	-0.130	-0.086
-581.821	800.000	-0.096	-0.337
-580.806	516.006	-0.241	-0.567
-579.792	174.116	0.087	0.126
-578.777	-200.000	0.026	0.283
-577.763	23.270	0.083	-0.068
-576.748	329.809	0.123	-0.239
-575.733	641.200	0.072	-0.185
-574.719	462.872	-0.073	-0.163
-573.704	-78.267	0.130	-0.045
-572.690	134.470	0.264	-0.345
-571.675	55.347	0.190	-0.185
-570.661	-44.225	-0.106	0.053
-569.646	-200.000	0.003	0.186
-568.631	-1.981	-0.266	-0.188
-567.617	293.303	0.072	0.132
-566.602	38.117	0.091	0.081
-565.588	122.730	0.133	-0.168
-564.573	800.000	-0.090	0.373
-563.558	77.963	-0.107	0.114
-562.544	-77.226	-0.502	0.176
-561.529	-33.779	-0.165	0.091
-560.515	-95.958	0.254	0.068
-559.500	-200.000	0.008	-0.195
-558.485	178.862	-0.073	0.107
-557.471	800.000	0.052	0.160
-556.456	-19.772	0.156	0.097
-555.442	-117.358	0.203	-0.037
-554.427	-106.182	0.095	0.021
-553.412	55.012	-0.210	0.204
-552.398	739.135	-0.032	-0.086
-551.383	800.000	-0.083	-0.321
-550.369	-82.687	-0.198	0.065
-549.354	-17.290	0.368	0.233
-548.339	-22.720	0.286	0.173
-547.325	-174.754	-0.312	0.009
-546.310	-85.044	0.195	-0.061
-545.296	-200.000	0.017	-0.120
-544.281	-58.879	0.260	0.113
-543.266	-123.762	0.135	-0.021
-542.252	24.615	0.103	-0.085
-541.237	190.454	-0.074	-0.111
-540.223	-158.503	0.075	-0.004
-539.208	133.634	0.081	-0.105
-538.193	-13.988	-0.245	-0.159
-537.179	-88.878	0.199	-0.059
-536.164	168.416	-0.134	-0.192
-535.150	-93.974	0.488	0.135
-534.135	124.577	0.176	0.222
-533.121	-41.414	0.155	-0.080
-532.106	-1.329	-0.284	0.201
-531.091	-200.000	-0.005	0.063
-530.077	-91.331	-0.337	0.097
-529.062	580.463	0.052	-0.128
-528.048	595.634	0.047	0.116
-527.033	203.139	0.167	-0.259
-526.018	216.493	0.087	-0.139
-525.004	-140.987	0.128	0.013
-523.989	-80.723	-0.103	0.034
-522.975	-183.986	0.421	0.007
-521.960	-135.202	-0.208	-0.025
-520.945	-200.000	-0.003	0.164
-519.931	651.616	-0.043	-0.110
-518.916	-31.997	0.337	-0.189
-517.902	-25.923	0.078	-0.046
-516.887	152.291	0.150	-0.205
-515.872	-115.893	-0.210	0.039
-514.858	-139.489	-0.340	0.037
-513.843	-157.433	-0.109	-0.007
-512.829	453.206	-0.074	0.164
-511.814	791.100	0.092	0.254
-510.799	-165.954	-0.241	0.010
-509.785	-200.000	-0.017	-0.298
-508.770	800.000	-0.030	-0.099
-507.756	-81.590	-0.177	0.058
-506.741	246.249	0.166	-0.281
-505.726	-151.987	0.397	-0.029
-504.712	247.456	0.121	-0.206
-503.697	-74.713	-0.171	-0.062
-502.683	-145.019	0.380	0.035
-501.668	-200.000	0.002	0.211
-500.653	623.978	0.056	-0.143
-499.639	93.332	0.272	0.309
-498.624	-125.503	-0.421	0.064
-497.610	39.639	-0.129	0.116
-496.595	-200.000	-0.073	0.373
-495.581	87.338	-0.088	0.097
-494.566	176.351	-0.013	-0.019
-493.551	-55.660	0.256	-0.115
-492.537	-114.178	0.287	-0.056
-491.522	800.000	0.049	0.148
-490.508	-172.402	0.190	0.006
-489.493	-164.888	0.044	-0.002
-488.478	54.865	-0.316	-0.306
-487.464	-200.000	0.048	0.280
-486.449	577.841	0.032	0.079
-485.435	106.981	0.111	0.132
-484.420	12.774	-0.247	-0.191
-483.405	800.000	0.023	-0.090
-482.391	-119.653	-0.122	-0.021
-481.376	-1.765	0.090	-0.063
-480.362	121.190	0.132	0.165
-479.347	68.389	-0.102	0.105
-478.332	-200.000	-0.019	0.146
-477.318	440.630	-0.196	0.429
-476.303	-105.501	-0.309	0.070
-475.289	134.953	-0.128	0.166
-474.274	-173.055	-0.264	0.008
-473.259	-200.000	0.038	-0.304
-472.245	246.555	0.071	0.120
-471.230	-41.161	-0.075	0.039
-470.216	-108.605	-0.092	0.020
-469.201	12.490	0.113	0.087
-468.186	-200.000	-0.015	-0.150
-467.172	98.648	-0.231	-0.267
-466.157	-164.912	-0.460	0.021
-465.143	-200.000	0.000	0.194
-464.128	-11.570	-0.213	0.140
-463.113	-132.516	0.245	-0.032
-462.099	227.527	-0.114	-0.186
-461.084	-16.902	0.123	0.078
-460.070	-38.033	0.184	0.098
-459.055	-108.825	-0.130	0.028
-458.040	800.000	-0.021	-0.069
-457.026	170.748	0.097	0.139
-456.011	241.762	-0.157	0.263
-454.997	-18.060	0.261	-0.164
-453.982	-51.428	0.413	0.193
-452.968	800.000	0.048	0.143
-451.953	-200.000	0.001	0.080
-450.938	-88.681	0.289	-0.086
-449.924	209.960	-0.081	-0.126
-448.909	-116.972	-0.264	0.048
-447.895	-200.000	0.002	0.174
-446.880	-79.028	0.320	0.109
-445.865	800.000	0.090	-0.255
-444.851	400.294	0.066	0.138
-443.836	57.990	0.160	-0.156
-442.822	-89.509	0.043	-0.013
-441.807	-88.013	0.135	0.041
-440.792	-123.518	-0.037	0.006
-439.778	109.854	0.105	0.125
-438.763	0.956	-0.240	-0.172
-437.749	-200.000	0.034	0.228
-436.734	216.492	0.122	0.194
-435.719	-56.537	0.062	-0.028
-434.705	179.016	-0.103	-0.150
-433.690	2.995	-0.178	-0.129
-432.676	-151.375	0.150	-0.011
-431.661	25.021	0.347	0.288
-430.646	-115.197	0.065	-0.012
-429.632	96.364	0.324	-0.371
-428.617	-200.000	-0.019	-0.122
-427.603	-114.352	0.330	-0.064
-426.588	-122.694	-0.174	0.028
-425.573	-200.000	-0.042	0.222
-424.559	-13.868	-0.251	-0.162
-423.544	165.748	-0.127	0.180
-422.530	-136.540	-0.112	0.013
-421.515	1.025	0.082	0.059
-420.500	102.629	0.133	0.155
-419.486	-92.782	-0.319	0.089
-418.471	-36.609	-0.140	-0.075
-417.457	76.319	0.101	0.106
-416.442	-200.000	-0.051	0.236
-415.428	15.935	-0.331	-0.260
-414.413	-200.000	-0.001	-0.278
-413.398	-14.785	0.096	0.062
-412.384	60.754	0.123	-0.122
-411.369	-15.506	-0.044	-0.028
-410.355	-120.823	-0.217	-0.037
-409.340	-50.983	-0.035	-0.017
-408.325	-20.108	0.054	0.033
-407.311	658.064	-0.108	-0.279
-406.296	800.000	0.065	-0.257
-405.282	-170.451	0.024	0.001
-404.267	-109.584	-0.393	0.083
-403.252	-135.897	0.077	-0.009
-402.238	0.454	-0.044	0.031
-401.223	192.644	-0.054	0.081
-400.209	766.159	0.060	0.163
-399.194	-75.630	0.340	0.121
-398.179	-200.000	0.023	0.270
-397.165	-200.000	0.011	-0.214
-396.150	26.454	0.284	-0.237
-395.136	-41.066	-0.245	-0.126
-394.121	190.093	0.175	0.263
-393.106	-172.386	0.275	0.009
-392.092	-200.000	0.005	-0.031
-391.077	513.151	0.131	0.305
-390.063	-121.948	0.103	-0.017
-389.048	1.264	-0.105	0.075
-388.033	214.838	-0.106	-0.167
-387.019	111.660	0.264	-0.318
-386.004	-81.982	0.395	-0.129
-384.990	-103.415	-0.182	0.043
-383.975	-53.300	0.199	-0.091
-382.960	-200.000	0.034	-0.205
-381.946	800.000	-0.072	-0.294
-380.931	-113.777	0.255	0.050
-379.917	-200.000	0.025	0.279
-378.902	-64.654	-0.291	-0.118
-377.888	155.488	-0.018	-0.025
-376.873	-200.000	0.022	0.105
-375.858	-65.448	-0.275	0.110
-374.844	-200.000	0.001	-0.088
-373.829	-200.000	-0.040	-0.239
-372.815	313.183	-0.208	0.389
-371.800	523.531	-0.096	0.224
-370.785	-200.000	-0.001	0.141
-369.771	239.511	-0.095	-0.158
-368.756	-200.000	-0.025	0.417
-367.742	-20.389	-0.109	-0.067
-366.727	371.270	0.154	0.311
-365.712	70.776	-0.056	-0.058
-364.698	143.180	-0.203	-0.270
-363.683	10.806	-0.292	0.223
-362.669	27.444	0.209	0.176
-361.654	60.691	-0.175	0.173
-360.639	-62.052	0.467	0.194
-359.625	-200.000	-0.022	-0.166
-358.610	110.232	0.295	0.353
-357.596	800.000	0.100	-0.349
-356.581	61.100	-0.347	-0.343
-355.566	178.131	0.090	-0.130
-354.552	522.508	-0.183	-0.429
-353.537	-82.542	0.029	-0.009
-352.523	162.143	-0.136	0.190
-351.508	-29.169	0.195	0.112
-350.493	-200.000	0.020	-0.280
-349.479	-106.915	-0.200	0.044
-348.464	-99.602	-0.297	0.074
-347.450	413.982	0.062	-0.131
-346.435	-200.000	0.004	0.061
-345.420	-200.000	0.022	0.293
-344.406	14.403	0.141	0.110
-343.391	-14.801	0.225	0.144
-342.377	800.000	-0.066	-0.267
-341.362	-200.000	0.019	-0.114
-340.348	3.473	0.571	-0.415
-339.333	-200.000	0.022	0.244
-338.318	606.125	-0.022	-0.056
-337.304	99.260	0.127	-0.147
-336.289	-183.051	0.296	-0.005
-335.275	-166.996	-0.247	0.010
-334.260	24.290	0.136	-0.112
-333.245	116.412	0.035	0.043
-332.231	-120.248	-0.331	0.056
-331.216	-200.000	-0.056	0.326
-330.202	350.385	0.179	-0.353
-329.187	13.203	0.035	-0.027
-328.172	-18.909	-0.053	0.033
-327.158	-43.502	0.169	-0.085
-326.143	92.763	-0.133	0.150
-325.129	39.491	-0.193	-0.172
-324.114	-105.217	0.421	0.096
-323.099	158.660	-0.096	-0.132
-322.085	129.002	-0.120	0.153
-321.070	63.897	0.093	0.094
-320.056	375.534	-0.143	0.291
-319.041	800.000	-0.056	0.191
-318.026	-200.000	0.020	-0.207
-317.012	-51.766	0.088	0.041
-315.997	-16.025	0.223	-0.141
-314.983	-69.884	-0.255	-0.097
-313.968	-200.000	-0.011	0.228
-312.953	56.817	0.153	0.149
-311.939	316.145	0.083	0.155
-310.924	800.000	0.029	0.106
-309.910	-125.710	0.179	-0.027
-308.895	233.453	-0.099	0.162
-307.880	-94.785	-0.170	0.046
-306.866	-11.730	0.199	-0.130
-305.851	196.913	0.063	0.095
-304.837	-86.619	0.260	-0.079
-303.822	-33.180	-0.130	-0.072
-302.807	247.402	-0.148	-0.249
-301.793	-86.035	-0.118	-0.036
-300.778	342.658	0.135	0.262
-299.764	-86.563	-0.309	0.094
-298.749	28.006	0.184	0.155
-297.735	800.000	-0.019	0.069
-296.720	-126.515	-0.198	-0.029
-295.705	104.108	0.141	0.165
-294.691	552.828	-0.047	-0.113
-293.676	-66.750	0.168	0.066
-292.662	-111.118	-0.244	-0.050
-291.647	800.000	-0.045	-0.173
-290.632	-35.256	0.169	-0.091
-289.618	382.785	0.088	0.180
-288.603	307.528	-0.110	0.203
-287.589	800.000	-0.039	-0.134
-286.574	-200.000	-0.022	-0.203
-285.559	9.546	-0.270	-0.204
-284.545	-77.358	-0.023	0.008
-283.530	10.746	-0.028	-0.021
-282.516	-200.000	0.007	0.281
-281.501	-200.000	-0.032	0.456
-280.486	355.753	-0.190	0.376
-279.472	406.986	-0.057	0.120
-278.457	116.247	0.151	-0.184
-277.443	800.000	0.069	-0.191
-276.428	-198.986	-0.237	0.001
-275.413	211.870	0.053	0.083
-274.399	438.404	0.179	-0.389
-273.384	-200.000	-0.009	-0.145
-272.370	-139.970	-0.356	0.037
-271.355	-57.654	0.233	-0.101
-270.340	19.997	-0.227	0.182
-269.326	800.000	-0.051	-0.223
-268.311	-119.562	-0.230	0.040
-267.297	-177.867	-0.164	-0.004
-266.282	1.608	0.196	-0.140
-265.267	-200.000	0.025	-0.114
-264.253	800.000	-0.062	0.228
-263.238	-200.000	0.025	0.127
-262.224	-200.000	0.010	-0.206
-261.209	-58.107	0.101	-0.044
-260.195	800.000	0.050	0.184
-259.180	-200.000	0.001	0.224
-258.165	59.209	0.146	-0.143
-257.151	-42.999	0.142	0.071
-256.136	-62.828	0.161	-0.066
-255.122	672.726	-0.141	-0.364
-254.107	-200.000	-0.025	-0.129
-253.092	-140.967	-0.079	-0.008
-252.078	-14.098	0.063	0.041
-251.063	179.170	-0.124	0.180
-250.049	-20.190	-0.213	-0.130
-249.034	88.075	0.040	-0.044
-248.019	101.437	0.063	0.073
-247.005	800.000	-0.080	0.264
-245.990	-142.546	-0.272	0.027
-244.976	250.186	0.085	0.143
-243.961	126.732	-0.171	-0.215
-242.946	3.272	-0.166	-0.120
-241.932	-32.709	0.073	0.040
-240.917	153.612	0.136	-0.185
-239.903	-85.141	0.122	0.038
-238.888	-126.554	-0.311	0.046
-237.873	-49.900	0.051	0.024
-236.859	89.051	0.252	-0.278
-235.844	16.305	0.159	-0.125
-234.830	-83.212	-0.326	-0.104
-233.815	-55.686	-0.250	0.111
-232.800	800.000	-0.089	0.345
-231.786	1.661	0.179	-0.128
-230.771	-112.728	-0.234	-0.046
-229.757	96.929	0.194	-0.220
-228.742	427.018	0.056	0.120
-227.727	137.575	-0.127	-0.165
-226.713	-200.000	-0.004	0.099
-225.698	88.094	-0.072	0.079
-224.684	350.573	0.065	-0.127
-223.669	800.000	-0.026	-0.084
-222.655	-200.000	-0.001	0.148
-221.640	289.347	0.109	0.196
-220.625	174.556	-0.050	-0.072
-219.611	-108.013	-0.201	-0.043
-218.596	-55.910	0.112	0.050
-217.582	-200.000	-0.025	0.346
-216.567	292.519	-0.155	0.280
-215.552	-200.000	-0.015	0.186
-214.538	-200.000	0.015	0.201
-213.523	-135.587	0.389	-0.046
-212.509	2.910	-0.276	-0.199
-211.494	-18.988	-0.284	0.175
-210.479	-107.204	0.191	-0.042
-209.465	-52.640	0.243	-0.111
-208.450	58.010	-0.191	0.185
-207.436	271.364	-0.157	0.275
-206.421	91.649	-0.200	0.223
-205.406	800.000	0.040	-0.120
-204.392	-81.020	-0.174	0.057
-203.377	-11.166	-0.026	-0.017
-202.363	728.448	0.057	0.150
-201.348	-93.598	0.349	-0.096
-200.333	373.391	0.189	-0.382
-199.319	766.941	0.009	0.025
-198.304	92.769	-0.021	-0.024
-197.290	-143.626	0.384	0.036
-196.275	-156.907	-0.092	0.006
-195.260	-38.599	-0.206	0.108
-194.246	179.104	0.097	-0.141
-193.231	85.076	-0.242	-0.263
-192.217	344.662	-0.269	-0.522
-191.202	58.390	0.210	-0.204
-190.187	-103.898	-0.246	0.057
-189.173	-106.587	-0.243	0.054
-188.158	-200.000	-0.002	-0.067
-187.144	-77.309	0.173	0.060
-186.129	149.027	-0.066	0.088
-185.114	14.994	0.114	0.088
-184.100	-94.375	-0.388	-0.105
-183.085	635.677	0.100	-0.251
-182.071	-200.000	-0.038	-0.348
-181.056	579.063	0.104	-0.252
-180.042	-28.649	0.034	-0.020
-179.027	-4.635	-0.078	0.053
-178.012	-173.247	-0.163	-0.005
-176.998	-200.000	0.022	-0.276
-175.983	-34.974	-0.065	0.035
-174.969	2.955	-0.237	-0.171
-173.954	798.955	0.093	0.254
-172.939	800.000	0.054	-0.160
-171.925	800.000	0.080	-0.246
-170.910	-71.287	-0.026	-0.010
-169.896	61.592	0.127	-0.125
-168.881	-200.000	-0.018	0.128
-167.866	-76.497	0.085	-0.029
-166.852	-132.912	-0.158	-0.020
-165.837	-98.483	-0.244	-0.062
-164.823	69.589	0.066	0.067
-163.808	-69.924	-0.161	-0.061
-162.793	-58.857	-0.282	-0.121
-161.779	-200.000	-0.039	0.349
-160.764	-147.042	0.126	0.011
-159.750	-77.751	0.142	0.049
-158.735	-149.101	0.235	-0.019
-157.720	800.000	0.029	-0.117
-156.706	-200.000	0.042	0.210
-155.691	-200.000	-0.008	0.083
-154.677	102.365	-0.047	-0.054
-153.662	-200.000	0.012	0.245
-152.647	2.351	0.113	-0.081
-151.633	-159.003	-0.528	-0.030
-150.618	-57.850	-0.152	-0.066
-149.604	36.144	0.154	0.134
-148.589	800.000	0.057	-0.188
-147.574	244.790	0.253	-0.421
-146.560	34.170	0.147	0.127
-145.545	-200.000	0.006	0.042
-144.531	-200.000	0.015	-0.217
-143.516	-43.940	0.151	-0.075
-142.502	-37.949	-0.065	0.034
-141.487	263.782	-0.018	-0.031
-140.472	-200.000	-0.008	0.119
-139.458	-19.330	0.151	0.093
-138.443	331.420	0.068	-0.129
-137.429	334.573	0.087	0.167
-136.414	573.082	-0.105	0.254
-135.399	53.489	-0.165	0.156
-134.385	3.424	-0.047	-0.034
-133.370	316.730	0.092	0.172
-132.356	800.000	-0.101	0.278
-131.341	800.000	-0.079	0.266
-130.326	-97.903	0.353	-0.090
-129.312	596.175	-0.143	0.349
-128.297	270.421	0.070	-0.122
-127.283	-80.725	0.246	0.081
-126.268	81.596	-0.227	0.242
-125.253	204.999	-0.136	-0.208
-124.239	103.816	0.071	-0.083
-123.224	-50.734	0.084	0.039
-122.210	-84.080	-0.393	-0.123
-121.195	246.238	0.121	-0.201
-120.180	37.266	0.345	-0.302
