DTS Sentinel unit serial number:	SN413079Multiplexer serial number:	ORYXHardware model number:	OX4-SRSoftware version number:	ORYX F/W v4.00 Oryx Data Collector v3.7.2.0data status	okinstallation	princeton_trtdifferential loss correction	single-endedforward channel	channel 1reverse channel	N/Adate	2019/09/16time	05:46:35forward acquisition time	60.00reverse acquisition time	0.00gamma	496.2192k internal	0.2331k external	0.2331temperature offset calibration	0.9982default loss term (dB/km)	0.3790temperature slope calibration	1.0000multiplexer offset coefficient	1.0000multiplexer slope coefficient	1.0000fibre end	0.00T internal ref (°C)	27.37T ext. ref 1 (°C)	11.19T ext. ref 2 (°C)	22.21length (m)	temperature (°C)	Stokes	anti-Stokes-747.200	-200.000	0.009	0.063
-746.185	122.945	-0.101	0.128
-745.171	554.979	0.079	-0.192
-744.156	-117.203	-0.157	-0.029
-743.142	276.801	-0.072	-0.129
-742.127	-200.000	-0.032	0.410
-741.112	800.000	-0.045	0.166
-740.098	655.419	0.201	0.518
-739.083	636.042	-0.079	0.201
-738.069	-200.000	-0.056	0.345
-737.054	800.000	0.121	-0.408
-736.039	1.349	0.242	-0.175
-735.025	511.343	0.111	-0.260
-734.010	43.158	0.186	-0.171
-732.996	800.000	-0.080	-0.274
-731.981	-96.873	-0.072	-0.019
-730.966	-124.724	-0.071	-0.011
-729.952	-43.152	0.156	0.080
-728.937	15.527	-0.121	-0.096
-727.923	800.000	-0.042	-0.155
-726.908	-200.000	-0.020	0.381
-725.894	294.244	0.113	0.208
-724.879	307.938	-0.145	-0.272
-723.864	23.372	0.127	0.105
-722.850	-63.649	-0.556	-0.230
-721.835	79.546	0.115	-0.125
-720.821	166.889	0.101	0.145
-719.806	-57.512	-0.223	0.098
-718.791	287.742	-0.077	-0.140
-717.777	-105.249	0.080	0.018
-716.762	-56.156	-0.326	-0.146
-715.748	-178.744	0.380	-0.009
-714.733	4.688	0.152	0.112
-713.718	-65.946	-0.116	-0.047
-712.704	397.025	-0.084	0.176
-711.689	-26.530	0.215	-0.127
-710.675	-20.392	-0.366	0.226
-709.660	-50.082	-0.153	-0.073
-708.645	-104.324	0.453	-0.106
-707.631	76.279	-0.065	-0.069
-706.616	5.249	-0.283	0.210
-705.602	775.430	0.091	-0.250
-704.587	-200.000	-0.001	0.097
-703.572	493.652	0.040	-0.093
-702.558	173.653	0.090	-0.130
-701.543	-72.683	0.255	-0.094
-700.529	32.482	-0.275	0.239
-699.514	-188.938	0.150	0.002
-698.499	20.464	0.270	-0.220
-697.485	-150.262	-0.267	0.021
-696.470	27.748	-0.043	-0.037
-695.456	-57.247	0.139	-0.062
-694.441	-126.580	-0.070	0.010
-693.426	-200.000	0.027	0.256
-692.412	-200.000	0.042	0.503
-691.397	773.156	0.073	0.199
-690.383	4.969	0.273	0.202
-689.368	800.000	0.050	-0.186
-688.354	-103.429	0.256	-0.061
-687.339	47.857	-0.121	0.113
-686.324	166.085	0.061	-0.087
-685.310	238.841	0.127	-0.212
-684.295	475.515	-0.093	-0.210
-683.281	-171.542	0.233	0.008
-682.266	459.151	0.040	0.089
-681.251	-27.403	-0.162	0.094
-680.237	-200.000	-0.038	-0.601
-679.222	8.245	-0.237	0.179
-678.208	169.999	-0.138	-0.198
-677.193	231.936	-0.050	-0.082
-676.178	-17.706	0.178	0.113
-675.164	800.000	0.095	0.350
-674.149	571.335	-0.078	-0.192
-673.135	-200.000	0.004	0.064
-672.120	561.419	-0.027	0.067
-671.105	-58.739	0.150	0.065
-670.091	-200.000	-0.043	-0.260
-669.076	-161.386	-0.447	0.023
-668.062	180.026	0.080	-0.118
-667.047	-158.867	-0.192	-0.011
-666.032	53.857	-0.161	-0.156
-665.018	133.904	0.083	-0.107
-664.003	86.027	0.084	0.093
-662.989	-162.574	-0.109	0.005
-661.974	-86.729	0.148	-0.046
-660.959	-200.000	0.034	-0.362
-659.945	-36.782	-0.217	-0.117
-658.930	321.031	-0.126	0.240
-657.916	-119.632	0.071	0.012
-656.901	-129.543	-0.250	0.035
-655.886	-200.000	0.018	0.254
-654.872	-91.534	-0.268	0.077
-653.857	-52.150	-0.095	0.044
-652.843	-2.384	-0.154	0.108
-651.828	92.152	-0.100	-0.113
-650.814	-73.805	0.074	-0.027
-649.799	-55.572	0.246	0.111
-648.784	43.801	0.360	-0.331
-647.770	-61.117	0.103	0.044
-646.755	-80.358	0.349	0.117
-645.741	-200.000	-0.007	-0.117
-644.726	-85.263	-0.174	0.055
-643.711	205.741	-0.089	0.139
-642.697	800.000	0.011	-0.033
-641.682	-44.556	-0.187	0.094
-640.668	-200.000	-0.018	0.245
-639.653	88.686	0.099	0.110
-638.638	-200.000	0.067	-0.363
-637.624	-200.000	-0.012	-0.417
-636.609	-142.015	0.134	-0.013
-635.595	-200.000	-0.005	-0.250
-634.580	310.867	-0.178	0.335
-633.565	-59.643	-0.089	0.038
-632.551	60.240	-0.326	0.323
-631.536	-112.638	0.391	0.078
-630.522	63.915	0.080	0.080
-629.507	68.654	0.342	-0.351
-628.492	-128.865	0.342	0.048
-627.478	224.164	-0.107	-0.173
-626.463	9.005	0.275	-0.208
-625.449	-133.810	0.158	-0.020
-624.434	800.000	0.053	-0.168
-623.419	81.900	-0.149	-0.161
-622.405	346.985	0.052	-0.103
-621.390	-200.000	0.003	0.099
-620.376	341.708	-0.032	0.063
-619.361	16.244	-0.135	0.107
-618.346	-105.672	-0.349	0.079
-617.332	54.414	0.036	-0.035
-616.317	-25.555	0.066	-0.039
-615.303	-82.855	0.461	-0.149
-614.288	-98.941	0.288	0.073
-613.273	-200.000	-0.001	-0.162
-612.259	174.298	-0.025	0.036
-611.244	123.558	-0.076	-0.095
-610.230	-200.000	-0.095	-0.430
-609.215	238.413	-0.062	-0.103
-608.201	37.804	-0.057	0.051
-607.186	-81.773	-0.208	0.068
-606.171	-38.998	-0.248	0.131
-605.157	300.650	-0.104	-0.192
-604.142	-23.679	-0.044	0.027
-603.128	-6.410	0.014	-0.010
-602.113	44.496	-0.228	0.210
-601.098	238.859	0.108	-0.179
-600.084	-102.383	0.401	-0.096
-599.069	88.476	0.073	0.081
-598.055	-117.120	-0.231	0.042
-597.040	-124.316	-0.360	-0.056
-596.025	-75.056	-0.135	-0.048
-595.011	218.778	0.122	0.196
-593.996	496.412	0.138	-0.317
-592.982	-27.832	0.042	-0.024
-591.967	319.522	-0.089	0.169
-590.952	-137.136	0.478	0.055
-589.938	-14.558	0.260	-0.167
-588.923	53.216	-0.232	-0.222
-587.909	124.326	0.031	-0.039
-586.894	800.000	0.053	0.170
-585.879	-171.675	-0.314	-0.010
-584.865	-87.675	0.232	-0.070
-583.850	-44.735	0.157	-0.078
-582.836	800.000	-0.112	0.355
-581.821	-200.000	0.000	0.034
-580.806	-164.669	0.274	0.012
-579.792	82.406	-0.217	0.236
-578.777	115.003	0.206	-0.251
-577.763	148.573	-0.208	-0.282
-576.748	84.384	-0.155	0.169
-575.733	135.323	0.046	-0.060
-574.719	-200.000	0.018	0.264
-573.704	-200.000	0.018	0.189
-572.690	-134.460	0.168	0.021
-571.675	-133.418	-0.125	-0.016
-570.661	378.759	-0.143	-0.292
-569.646	-85.437	0.156	-0.049
-568.631	-200.000	0.012	0.087
-567.617	-200.000	0.008	-0.074
-566.602	-3.730	0.085	-0.059
-565.588	123.803	-0.271	0.339
-564.573	162.944	0.209	-0.293
-563.558	227.812	0.117	-0.190
-562.544	-21.543	-0.058	0.036
-561.529	-50.192	-0.165	0.078
-560.515	-200.000	-0.019	-0.084
-559.500	39.140	0.248	-0.222
-558.485	396.765	-0.068	0.141
-557.471	482.396	-0.113	0.256
-556.456	26.384	-0.179	-0.150
-555.442	537.557	-0.182	-0.431
-554.427	20.512	-0.085	0.068
-553.412	182.471	-0.180	0.266
-552.398	10.688	-0.221	0.168
-551.383	-200.000	0.002	0.053
-550.369	800.000	0.044	-0.158
-549.354	-58.931	-0.073	0.032
-548.339	800.000	-0.062	0.221
-547.325	-69.820	-0.103	0.039
-546.310	-134.651	-0.201	0.024
-545.296	-200.000	-0.008	-0.140
-544.281	-158.500	0.123	-0.007
-543.266	578.896	-0.066	-0.161
-542.252	-118.240	-0.186	-0.033
-541.237	-142.020	-0.142	0.014
-540.223	481.328	-0.120	-0.272
-539.208	-200.000	0.011	0.243
-538.193	-61.888	0.255	-0.107
-537.179	-20.838	0.082	0.050
-536.164	-200.000	0.005	-0.207
-535.150	-200.000	-0.009	0.075
-534.135	-21.593	-0.203	0.123
-533.121	54.421	0.195	-0.188
-532.106	176.165	-0.049	0.072
-531.091	-200.000	0.061	0.294
-530.077	131.545	-0.139	0.179
-529.062	441.619	-0.142	-0.309
-528.048	156.607	-0.019	0.026
-527.033	-168.919	-0.120	0.004
-526.018	800.000	-0.074	0.259
-525.004	800.000	-0.116	0.367
-523.989	800.000	-0.087	0.249
-522.975	-142.224	-0.127	0.013
-521.960	-188.532	0.248	-0.003
-520.945	192.398	-0.072	-0.108
-519.931	800.000	-0.039	-0.159
-518.916	-200.000	0.055	-0.335
-517.902	-200.000	0.040	0.235
-516.887	624.137	-0.074	0.185
-515.872	-38.059	0.237	-0.126
-514.858	-200.000	0.018	0.195
-513.843	-129.350	0.151	0.021
-512.829	84.058	-0.199	0.216
-511.814	-200.000	-0.024	-0.162
-510.799	-94.220	0.161	0.044
-509.785	-123.662	-0.253	0.040
-508.770	-78.737	0.162	-0.055
-507.756	-68.526	-0.117	0.045
-506.741	-171.134	0.235	0.008
-505.726	-135.441	-0.219	-0.026
-504.712	-200.000	0.040	0.251
-503.697	23.695	-0.122	-0.100
-502.683	-177.788	0.364	-0.009
-501.668	84.042	0.119	0.129
-500.653	-38.922	-0.124	0.065
-499.639	15.961	0.221	0.174
-498.624	-200.000	-0.016	0.107
-497.610	-159.910	-0.105	-0.006
-496.595	-54.033	-0.058	-0.026
-495.581	307.619	0.125	-0.232
-494.566	-88.530	0.186	-0.055
-493.551	-49.438	0.359	-0.171
-492.537	365.690	-0.079	-0.160
-491.522	800.000	0.055	0.171
-490.508	349.555	-0.066	0.129
-489.493	800.000	-0.020	-0.073
-488.478	-166.463	0.026	0.001
-487.464	522.292	-0.155	-0.364
-486.449	97.459	-0.070	-0.080
-485.435	-39.761	0.316	0.164
-484.420	-116.634	-0.314	0.058
-483.405	-94.208	0.050	-0.014
-482.391	536.021	0.058	-0.137
-481.376	47.520	-0.201	0.187
-480.362	284.582	-0.151	0.270
-479.347	36.789	-0.127	0.112
-478.332	90.395	-0.011	-0.012
-477.318	162.599	0.120	0.168
-476.303	-87.522	-0.074	0.022
-475.289	-200.000	-0.050	-0.271
-474.274	352.118	-0.081	-0.160
-473.259	263.617	-0.084	-0.145
-472.245	155.252	-0.166	-0.228
-471.230	-17.156	-0.129	-0.081
-470.216	-115.486	-0.352	0.066
-469.201	-117.119	0.284	0.051
-468.186	-153.015	-0.486	0.034
-467.172	-144.847	0.061	-0.006
-466.157	-70.538	-0.285	-0.107
-465.143	800.000	0.080	-0.228
-464.128	-95.293	-0.235	0.063
-463.113	86.885	-0.105	-0.115
-462.099	-200.000	0.022	-0.191
-461.084	800.000	-0.134	-0.388
-460.070	-13.115	0.234	-0.152
-459.055	0.510	0.237	-0.168
-458.040	-22.043	0.260	-0.157
-457.026	499.349	-0.085	-0.194
-456.011	800.000	0.046	-0.190
-454.997	-200.000	0.120	-0.000
-453.982	101.082	-0.163	-0.189
-452.968	-200.000	0.004	0.216
-451.953	-48.694	0.289	0.138
-450.938	-85.157	0.283	-0.088
-449.924	116.539	0.142	0.173
-448.909	104.312	0.137	0.161
-447.895	114.963	-0.097	-0.117
-446.880	-129.428	0.229	0.032
-445.865	-145.461	-0.142	0.013
-444.851	800.000	-0.041	-0.165
-443.836	33.235	-0.097	-0.084
-442.822	-83.466	-0.394	-0.126
-441.807	-111.233	0.235	0.048
-440.792	800.000	-0.028	-0.117
-439.778	322.096	0.080	0.151
-438.763	-62.454	-0.362	0.150
-437.749	508.237	-0.133	0.306
-436.734	-200.000	0.048	-0.358
-435.719	-27.439	-0.238	-0.138
-434.705	-72.127	-0.336	-0.124
-433.690	60.344	-0.106	0.104
-432.676	-117.919	0.092	-0.016
-431.661	-102.462	-0.247	0.059
-430.646	313.850	0.094	-0.176
-429.632	-139.505	-0.284	0.030
-428.617	-56.806	-0.116	-0.051
-427.603	800.000	0.143	-0.505
-426.588	43.951	0.204	-0.186
-425.573	196.307	0.091	0.137
-424.559	5.685	0.068	-0.050
-423.544	730.245	-0.095	0.253
-422.530	349.045	0.108	-0.211
-421.515	-143.896	0.220	-0.021
-420.500	406.188	0.044	-0.093
-419.486	708.321	0.069	0.180
-418.471	-0.491	0.097	0.069
-417.457	92.298	0.260	0.291
-416.442	-84.885	0.254	-0.079
-415.428	-200.000	-0.025	-0.214
-414.413	-200.000	0.033	0.168
-413.398	-200.000	0.073	-0.370
-412.384	-68.864	-0.245	-0.094
-411.369	237.879	-0.109	-0.179
-410.355	731.805	0.093	-0.247
-409.340	346.889	0.086	-0.168
-408.325	-70.840	-0.028	-0.011
-407.311	296.848	0.135	-0.247
-406.296	481.433	0.101	0.227
-405.282	-139.486	-0.070	0.007
-404.267	-20.176	0.212	0.130
-403.252	-200.000	0.020	0.187
-402.238	686.255	-0.037	0.096
-401.223	196.188	0.119	-0.179
-400.209	2.989	0.107	0.077
-399.194	682.559	0.061	0.158
-398.179	288.468	0.111	0.200
-397.165	55.205	0.126	0.121
-396.150	16.847	-0.246	-0.194
-395.136	69.048	-0.103	-0.105
-394.121	129.935	-0.241	0.306
-393.106	800.000	-0.043	0.159
-392.092	29.011	0.106	0.089
-391.077	323.669	-0.088	0.167
-390.063	-103.078	0.187	0.044
-389.048	494.445	-0.142	0.323
-388.033	-72.096	-0.198	0.073
-387.019	-0.416	0.202	-0.143
-386.004	273.477	-0.117	-0.205
-384.990	-130.444	-0.287	0.039
-383.975	9.611	0.009	0.007
-382.960	173.503	0.065	-0.092
-381.946	800.000	0.054	0.234
-380.931	-155.277	-0.062	-0.004
-379.917	113.983	-0.130	0.157
-378.902	800.000	-0.098	-0.346
-377.888	-200.000	-0.004	-0.160
-376.873	68.465	0.187	-0.190
-375.858	-110.449	-0.095	0.020
-374.844	-31.133	-0.223	-0.124
-373.829	-108.202	0.098	-0.021
-372.815	-200.000	0.015	0.096
-371.800	-9.995	-0.065	-0.043
-370.785	525.249	-0.140	0.328
-369.771	764.098	0.061	0.164
-368.756	800.000	-0.032	0.110
-367.742	800.000	0.026	0.092
-366.727	-80.432	0.348	0.115
-365.712	556.825	-0.097	-0.232
-364.698	-200.000	-0.026	0.129
-363.683	485.849	-0.073	-0.166
-362.669	-114.120	-0.328	0.063
-361.654	-92.385	0.114	-0.032
-360.639	-148.959	-0.119	0.010
-359.625	-200.000	0.009	-0.151
-358.610	-25.618	0.265	-0.155
-357.596	411.162	-0.035	-0.073
-356.581	31.144	0.188	0.160
-355.566	74.363	-0.271	-0.283
-354.552	-200.000	-0.064	0.354
-353.537	24.810	-0.122	0.100
-352.523	-143.427	0.265	0.025
-351.508	13.043	-0.067	-0.051
-350.493	-200.000	-0.015	-0.256
-349.479	-88.407	0.241	-0.071
-348.464	800.000	-0.012	0.036
-347.450	-79.057	-0.259	0.087
-346.435	-67.678	0.115	0.045
-345.420	663.524	-0.165	-0.421
-344.406	296.304	-0.104	0.188
-343.391	643.637	0.020	-0.050
-342.377	-66.771	-0.194	-0.076
-341.362	-99.261	0.105	-0.026
-340.348	61.298	0.140	-0.137
-339.333	418.182	-0.108	-0.228
-338.318	19.258	0.257	-0.204
-337.304	-13.364	0.184	-0.119
-336.289	-65.399	0.186	-0.074
-335.275	-72.416	-0.081	0.030
-334.260	-48.100	0.110	-0.053
-333.245	800.000	-0.042	-0.168
-332.231	-200.000	-0.039	-0.320
-331.216	250.231	-0.139	0.233
-330.202	-200.000	0.016	-0.101
-329.187	70.258	-0.090	-0.093
-328.172	-59.545	-0.618	-0.263
-327.158	58.306	0.250	0.243
-326.143	53.686	-0.094	0.090
-325.129	84.011	-0.122	-0.132
-324.114	80.165	-0.227	-0.241
-323.099	93.111	-0.194	-0.218
-322.085	123.993	-0.207	0.257
-321.070	163.392	-0.075	0.105
-320.056	-11.738	0.202	-0.131
-319.041	-82.174	0.470	-0.152
-318.026	-79.069	-0.239	-0.080
-317.012	800.000	0.029	0.119
-315.997	235.823	0.151	0.247
-314.983	-175.005	0.147	0.004
-313.968	151.038	-0.099	-0.134
-312.953	70.953	-0.135	-0.138
-311.939	-200.000	-0.021	-0.513
-310.924	-200.000	0.076	0.349
-309.910	164.563	0.263	0.366
-308.895	-36.831	0.281	0.149
-307.880	800.000	0.014	0.042
-306.866	-13.009	-0.325	0.209
-305.851	-200.000	-0.003	0.131
-304.837	-122.402	-0.325	-0.052
-303.822	-177.617	0.338	-0.008
-302.807	-200.000	-0.089	0.444
-301.793	652.360	-0.165	0.419
-300.778	112.468	0.114	-0.137
-299.764	-24.309	0.098	-0.058
-298.749	-200.000	-0.044	0.218
-297.735	-31.834	-0.119	-0.066
-296.720	-119.209	-0.128	-0.022
-295.705	40.937	0.203	-0.181
-294.691	-17.469	0.158	-0.098
-293.676	247.616	-0.092	-0.154
-292.662	12.891	-0.327	-0.250
-291.647	193.610	0.155	0.232
-290.632	-123.705	-0.435	-0.068
-289.618	-95.576	0.089	-0.024
-288.603	-60.616	-0.174	-0.073
-287.589	673.913	0.074	-0.190
-286.574	-200.000	-0.008	0.196
-285.559	-200.000	0.015	0.184
-284.545	-169.246	-0.176	0.006
-283.530	-200.000	-0.046	0.244
-282.516	-160.005	-0.078	0.004
-281.501	-200.000	0.008	-0.064
-280.486	-8.013	-0.121	0.081
-279.472	-101.677	0.078	0.019
-278.457	800.000	0.056	0.206
-277.443	12.031	-0.134	-0.102
-276.428	-43.997	-0.185	-0.092
-275.413	197.930	0.084	0.128
-274.399	450.221	0.093	0.203
-273.384	800.000	0.078	-0.289
-272.370	-100.486	-0.149	-0.036
-271.355	175.219	0.136	-0.194
-270.340	800.000	0.118	0.371
-269.326	73.024	0.022	0.023
-268.311	-84.020	0.213	-0.067
-267.297	131.052	0.101	0.128
-266.282	752.151	0.053	-0.142
-265.267	-200.000	0.008	0.068
-264.253	-200.000	0.040	0.391
-263.238	-200.000	-0.032	-0.163
-262.224	339.521	0.075	-0.145
-261.209	284.558	-0.123	-0.219
-260.195	581.886	0.152	0.368
-259.180	59.076	-0.149	0.145
-258.165	-42.815	0.248	-0.125
-257.151	36.152	-0.095	-0.082
-256.136	67.204	0.153	0.154
-255.122	553.809	-0.048	0.115
-254.107	15.427	-0.054	-0.042
-253.092	-92.550	0.290	-0.080
-252.078	-139.184	0.095	0.010
-251.063	-143.905	0.147	0.014
-250.049	-200.000	-0.019	0.094
-249.034	224.487	0.221	0.352
-248.019	-45.771	0.089	0.043
-247.005	98.382	-0.031	-0.036
-245.990	-64.816	-0.061	0.025
-244.976	73.469	0.138	0.143
-243.961	-165.150	0.193	-0.008
-242.946	-200.000	-0.012	0.144
-241.932	-200.000	-0.024	0.321
-240.917	-64.314	-0.094	-0.038
-239.903	-69.662	-0.179	0.068
-238.888	-125.397	0.099	0.015
-237.873	-105.774	0.177	0.040
-236.859	-16.580	-0.245	-0.153
-235.844	-200.000	-0.028	-0.210
-234.830	585.476	-0.128	0.312
-233.815	-28.402	0.282	0.160
-232.800	-154.421	0.335	0.022
-231.786	72.454	-0.233	0.240
-230.771	168.436	0.269	-0.378
-229.757	8.652	-0.158	0.117
-228.742	-37.056	-0.197	-0.104
-227.727	-200.000	-0.042	-0.194
-226.713	-200.000	-0.059	0.402
-225.698	-200.000	0.025	0.138
-224.684	87.004	0.172	-0.187
-223.669	-111.540	-0.346	0.069
-222.655	424.162	0.102	-0.217
-221.640	19.999	0.270	0.214
-220.625	-48.589	0.146	-0.069
-219.611	744.128	-0.046	0.122
-218.596	84.866	-0.145	0.157
-217.582	26.369	-0.200	-0.165
-216.567	168.257	-0.198	-0.279
-215.552	-200.000	-0.022	0.310
-214.538	448.037	0.121	0.262
-213.523	-200.000	-0.017	0.379
-212.509	50.128	-0.378	0.352
-211.494	-173.206	0.115	0.003
-210.479	-52.943	0.093	-0.042
-209.465	-80.204	-0.246	0.081
-208.450	249.352	0.133	-0.221
-207.436	-200.000	0.008	0.243
-206.421	-78.857	0.166	0.056
-205.406	-163.499	-0.183	-0.009
-204.392	-141.886	0.496	-0.049
-203.377	281.757	0.087	0.154
-202.363	-200.000	0.019	0.298
-201.348	-139.314	-0.252	0.027
-200.333	800.000	-0.035	-0.147
-199.319	-136.656	0.411	-0.047
-198.304	134.572	0.372	0.475
-197.290	505.732	0.229	0.523
-196.275	225.332	0.206	0.328
-195.260	585.597	0.102	0.248
-194.246	-171.161	0.282	0.009
-193.231	-200.000	0.051	-0.320
-192.217	800.000	-0.018	-0.070
-191.202	-116.730	0.225	0.041
-190.187	25.160	0.159	0.130
-189.173	800.000	0.043	0.156
-188.158	59.659	-0.052	-0.050
-187.144	-7.470	-0.159	-0.106
-186.129	-115.308	0.459	-0.085
-185.114	-147.321	-0.130	0.011
-184.100	122.241	-0.198	-0.244
-183.085	-113.550	0.219	0.042
-182.071	-36.919	0.091	-0.048
-181.056	-200.000	0.006	-0.277
-180.042	-200.000	-0.009	-0.065
-179.027	-52.510	-0.217	-0.099
-178.012	-90.344	-0.227	-0.065
-176.998	67.925	0.249	-0.250
-175.983	-0.649	-0.282	0.197
-174.969	-189.041	0.218	0.003
-173.954	800.000	-0.055	0.231
-172.939	-3.105	-0.225	-0.155
-171.925	183.960	-0.043	0.063
-170.910	-72.862	0.288	0.104
-169.896	-21.524	0.042	0.025
-168.881	-200.000	-0.007	-0.033
-167.866	-11.242	0.062	0.040
-166.852	84.796	-0.212	-0.228
-165.837	-200.000	-0.001	-0.120
-164.823	-97.855	-0.168	-0.043
-163.808	-200.000	0.019	-0.374
-162.793	293.610	-0.167	0.300
-161.779	-66.243	-0.224	-0.088
-160.764	-16.090	0.051	0.032
-159.750	-46.240	-0.310	-0.150
-158.735	212.117	0.111	0.172
-157.720	800.000	-0.054	0.155
-156.706	-200.000	-0.011	0.082
-155.691	-58.987	0.306	-0.130
-154.677	204.616	-0.118	-0.180
-153.662	-126.299	0.245	-0.036
-152.647	-12.395	-0.166	0.106
-151.633	-106.074	-0.430	0.095
-150.618	263.751	0.221	0.378
-149.604	800.000	-0.029	0.102
-148.589	-133.444	-0.281	0.035
-147.574	175.662	0.165	0.236
-146.560	38.308	0.100	-0.087
-145.545	-200.000	-0.034	-0.188
-144.531	59.739	0.129	0.126
-143.516	628.990	-0.024	-0.060
-142.502	-162.264	0.104	0.005
-141.487	137.090	0.119	0.153
-140.472	-51.996	0.103	0.047
-139.458	800.000	0.021	-0.065
-138.443	-200.000	-0.008	0.033
-137.429	-121.916	0.086	-0.014
-136.414	-200.000	-0.150	-0.672
-135.399	-132.900	0.161	0.020
-134.385	449.654	-0.130	-0.281
-133.370	105.219	-0.133	0.155
-132.356	-200.000	-0.008	-0.199
-131.341	-200.000	0.046	0.255
-130.326	-41.088	-0.318	-0.161
-129.312	-200.000	-0.051	-0.368
-128.297	-78.522	0.196	0.066
-127.283	-96.915	-0.165	0.043
-126.268	-114.807	-0.427	0.080
-125.253	-185.702	0.384	0.006
-124.239	57.235	-0.316	-0.303
-123.224	201.036	0.197	0.297
-122.210	-200.000	-0.003	0.025
-121.195	7.726	-0.218	0.160
