DTS Sentinel unit serial number:	SN413079Multiplexer serial number:	ORYXHardware model number:	OX4-SRSoftware version number:	ORYX F/W v4.00 Oryx Data Collector v3.7.2.0data status	okinstallation	princeton_trtdifferential loss correction	single-endedforward channel	channel 1reverse channel	N/Adate	2019/09/12time	09:36:11forward acquisition time	60.00reverse acquisition time	0.00gamma	496.2192k internal	0.2300k external	0.2300temperature offset calibration	1.0043default loss term (dB/km)	0.3790temperature slope calibration	1.0000multiplexer offset coefficient	1.0000multiplexer slope coefficient	1.0000fibre end	0.00T internal ref (°C)	35.67T ext. ref 1 (°C)	1.81T ext. ref 2 (°C)	32.67length (m)	temperature (°C)	Stokes	anti-Stokes-747.200	-113.172	-0.287	0.058
-746.185	-146.802	0.177	-0.016
-745.171	800.000	-0.047	0.171
-744.156	-34.587	-0.394	0.220
-743.142	-200.000	-0.029	0.251
-742.127	416.425	0.113	0.246
-741.112	-12.242	-0.257	0.171
-740.098	800.000	-0.003	0.012
-739.083	124.596	-0.193	0.247
-738.069	209.914	0.129	0.206
-737.054	46.837	-0.090	-0.085
-736.039	-110.770	-0.196	0.041
-735.025	177.288	0.067	0.099
-734.010	347.337	0.034	-0.069
-732.996	-86.226	-0.175	0.055
-731.981	60.373	-0.307	-0.310
-730.966	236.231	-0.103	0.173
-729.952	189.320	-0.113	-0.172
-728.937	-106.614	0.060	-0.014
-727.923	800.000	-0.018	0.063
-726.908	-119.754	0.333	0.058
-725.894	-200.000	-0.017	-0.144
-724.879	-86.315	-0.227	-0.071
-723.864	-90.904	-0.023	-0.007
-722.850	-200.000	0.055	-0.248
-721.835	-59.209	0.087	0.038
-720.821	313.433	0.082	-0.156
-719.806	-126.915	-0.393	0.059
-718.791	-63.969	0.140	-0.058
-717.777	-170.830	0.310	0.011
-716.762	0.658	0.140	-0.102
-715.748	219.199	0.042	-0.068
-714.733	-200.000	0.073	0.389
-713.718	800.000	-0.144	-0.418
-712.704	0.215	0.105	0.077
-711.689	13.000	-0.291	0.229
-710.675	-182.124	0.507	-0.010
-709.660	-74.497	0.195	0.072
-708.645	-130.542	0.130	-0.018
-707.631	27.269	0.244	-0.208
-706.616	56.029	0.164	0.162
-705.602	-99.494	-0.302	0.077
-704.587	318.406	-0.084	0.163
-703.572	-175.932	-0.099	-0.003
-702.558	157.342	-0.068	-0.095
-701.543	-18.681	0.191	0.121
-700.529	-5.763	0.259	0.181
-699.514	40.797	0.122	0.112
-698.499	-62.158	0.124	-0.053
-697.485	800.000	-0.096	0.277
-696.470	800.000	-0.064	0.192
-695.456	-200.000	0.025	-0.127
-694.441	498.176	0.084	0.197
-693.426	66.320	0.162	-0.167
-692.412	110.336	0.175	0.214
-691.397	-87.273	0.077	0.024
-690.383	443.011	0.061	-0.136
-689.368	-37.847	0.092	0.050
-688.354	6.075	0.132	0.100
-687.339	-171.187	-0.545	-0.019
-686.324	-104.545	0.238	-0.056
-685.310	800.000	0.025	-0.109
-684.295	-138.068	-0.139	-0.016
-683.281	95.919	-0.243	-0.282
-682.266	31.625	0.086	-0.075
-681.251	-47.870	-0.059	0.029
-680.237	286.220	0.122	0.224
-679.222	47.709	0.097	-0.092
-678.208	-67.532	-0.143	-0.057
-677.193	11.303	-0.015	0.011
-676.178	800.000	-0.043	0.173
-675.164	800.000	-0.060	0.180
-674.149	-136.314	0.197	0.023
-673.135	-200.000	-0.018	0.110
-672.120	541.820	0.139	0.336
-671.105	-153.404	0.422	0.030
-670.091	800.000	-0.057	-0.220
-669.076	152.163	-0.066	-0.091
-668.062	-120.424	-0.300	-0.052
-667.047	12.253	0.219	0.172
-666.032	800.000	-0.077	0.312
-665.018	-67.133	-0.525	0.210
-664.003	-178.886	0.243	0.006
-662.989	-200.000	0.014	-0.305
-661.974	-68.654	-0.232	-0.091
-660.959	-200.000	0.039	0.225
-659.945	-90.068	0.167	-0.049
-658.930	-121.605	-0.443	-0.075
-657.916	180.338	0.164	0.244
-656.901	-136.318	0.348	-0.041
-655.886	-119.535	-0.278	0.049
-654.872	38.844	0.386	0.350
-653.857	8.524	-0.185	-0.141
-652.843	306.024	0.123	-0.233
-651.828	-114.270	0.186	0.036
-650.814	-100.124	0.112	-0.028
-649.799	-158.381	0.259	0.015
-648.784	-51.610	-0.342	-0.162
-647.770	26.265	0.025	0.021
-646.755	12.043	0.130	-0.101
-645.741	-94.557	-0.168	-0.046
-644.726	-18.943	0.102	0.064
-643.711	-81.588	-0.301	-0.101
-642.697	-200.000	-0.049	0.247
-641.682	-157.395	-0.158	-0.010
-640.668	-23.614	-0.201	-0.123
-639.653	-200.000	0.313	-0.000
-638.638	102.134	-0.288	-0.342
-637.624	-123.664	0.165	-0.026
-636.609	161.149	-0.263	-0.374
-635.595	-200.000	-0.040	0.265
-634.580	-90.242	-0.082	-0.024
-633.565	-45.836	0.341	0.171
-632.551	152.417	-0.187	-0.259
-631.536	-87.138	-0.331	0.102
-630.522	800.000	0.054	0.165
-629.507	4.351	-0.115	-0.086
-628.492	41.455	-0.239	-0.220
-627.478	-155.329	0.017	0.001
-626.463	-95.816	-0.059	0.016
-625.449	-106.892	-0.305	0.069
-624.434	554.820	0.067	-0.163
-623.419	99.191	0.096	0.113
-622.405	800.000	-0.039	0.152
-621.390	168.540	0.122	0.177
-620.376	47.358	0.093	-0.088
-619.361	-200.000	0.027	0.368
-618.346	386.397	0.060	-0.126
-617.332	-200.000	-0.309	-0.001
-616.317	-56.737	0.458	0.206
-615.303	-137.873	0.510	-0.058
-614.288	190.824	-0.311	-0.474
-613.273	245.220	-0.118	-0.202
-612.259	-200.000	-0.027	0.166
-611.244	23.589	0.254	0.212
-610.230	6.904	-0.308	0.232
-609.215	-51.423	0.340	0.161
-608.201	77.693	0.046	0.050
-607.186	-134.205	0.122	0.015
-606.171	81.057	0.092	-0.101
-605.157	-200.000	-0.024	-0.357
-604.142	-5.436	0.051	-0.036
-603.128	-200.000	-0.017	0.178
-602.113	-131.347	0.420	-0.056
-601.098	-19.814	0.327	0.205
-600.084	414.950	0.080	-0.174
-599.069	-164.083	0.239	0.011
-598.055	-200.000	0.016	-0.158
-597.040	58.150	-0.195	0.193
-596.025	20.226	0.164	-0.134
-595.011	-131.492	-0.213	0.028
-593.996	-81.231	0.171	0.057
-592.982	322.361	0.125	-0.241
-591.967	102.383	-0.034	-0.040
-590.952	77.696	0.247	-0.267
-589.938	800.000	0.072	-0.228
-588.923	-199.769	-0.124	-0.001
-587.909	-116.356	-0.266	-0.050
-586.894	-101.225	0.459	0.114
-585.879	-57.860	-0.280	0.124
-584.865	800.000	0.049	0.150
-583.850	-67.713	0.083	0.033
-582.836	-200.000	0.013	0.229
-581.821	92.552	-0.385	-0.440
-580.806	-200.000	0.073	0.405
-579.792	3.246	-0.060	0.045
-578.777	3.399	0.190	-0.140
-577.763	153.890	-0.214	-0.298
-576.748	-200.000	-0.287	-0.000
-575.733	53.846	0.062	0.060
-574.719	4.152	0.094	0.070
-573.704	-151.448	-0.272	0.020
-572.690	-200.000	0.005	0.164
-571.675	800.000	0.020	0.086
-570.661	-145.769	-0.212	0.019
-569.646	37.211	-0.200	0.180
-568.631	34.230	0.086	-0.076
-567.617	128.812	0.114	0.147
-566.602	-48.445	-0.089	0.043
-565.588	-118.186	0.175	0.032
-564.573	308.186	0.132	-0.250
-563.558	69.202	-0.173	0.180
-562.544	-124.609	-0.050	-0.008
-561.529	-200.000	-0.006	-0.146
-560.515	-97.869	0.204	-0.053
-559.500	-121.110	0.445	0.075
-558.485	127.462	0.010	0.013
-557.471	204.214	-0.119	0.187
-556.456	-165.967	0.327	-0.014
-555.442	-0.074	-0.138	-0.099
-554.427	-85.210	-0.313	0.099
-553.412	800.000	-0.091	0.292
-552.398	-20.034	0.243	-0.152
-551.383	-127.714	-0.264	-0.039
-550.369	40.076	0.164	0.150
-549.354	-200.000	-0.037	0.179
-548.339	-168.925	-0.169	-0.006
-547.325	800.000	0.119	-0.349
-546.310	-200.000	0.006	-0.125
-545.296	800.000	0.089	0.325
-544.281	2.340	0.240	0.176
-543.266	-200.000	-0.005	-0.464
-542.252	-66.783	-0.091	-0.037
-541.237	278.577	0.076	0.137
-540.223	18.964	-0.139	0.112
-539.208	-200.000	0.024	-0.253
-538.193	-17.104	-0.412	0.263
-537.179	30.021	-0.124	0.107
-536.164	800.000	-0.107	-0.384
-535.150	-26.521	0.276	0.164
-534.135	153.189	-0.124	0.171
-533.121	800.000	-0.034	-0.144
-532.106	800.000	-0.054	0.156
-531.091	-159.870	-0.107	0.006
-530.077	-136.650	0.163	-0.019
-529.062	-200.000	-0.002	-0.411
-528.048	800.000	0.041	0.147
-527.033	-200.000	0.045	-0.295
-526.018	800.000	0.132	-0.453
-525.004	-200.000	-0.077	-0.387
-523.989	225.538	0.161	-0.264
-522.975	-200.000	-0.014	-0.094
-521.960	-200.000	0.021	-0.188
-520.945	800.000	-0.030	-0.102
-519.931	725.458	0.012	-0.032
-518.916	-103.001	-0.199	0.048
-517.902	13.993	-0.154	-0.122
-516.887	800.000	-0.121	0.435
-515.872	-189.230	-0.301	-0.004
-514.858	800.000	-0.063	0.184
-513.843	-140.041	-0.323	0.034
-512.829	461.618	0.095	0.213
-511.814	-200.000	-0.012	-0.154
-510.799	-200.000	0.036	0.183
-509.785	800.000	0.060	0.258
-508.770	71.079	0.022	-0.023
-507.756	317.435	-0.059	-0.112
-506.741	-135.924	0.268	0.032
-505.726	-200.000	-0.020	-0.155
-504.712	-200.000	-0.039	0.386
-503.697	359.868	-0.125	-0.252
-502.683	686.778	0.066	0.175
-501.668	38.486	-0.168	0.151
-500.653	404.715	0.122	0.260
-499.639	-200.000	0.014	-0.204
-498.624	428.125	0.115	0.252
-497.610	-42.423	0.390	0.201
-496.595	-131.665	-0.162	0.022
-495.581	800.000	0.036	-0.152
-494.566	-101.371	0.297	-0.073
-493.551	-200.000	-0.041	0.401
-492.537	-114.369	-0.073	0.014
-491.522	-144.344	0.334	-0.031
-490.508	6.680	0.220	-0.165
-489.493	-137.469	0.119	-0.014
-488.478	-140.854	0.019	-0.002
-487.464	-37.626	-0.286	0.154
-486.449	-41.615	0.296	-0.153
-485.435	-200.000	0.043	0.217
-484.420	-200.000	0.005	0.197
-483.405	-200.000	-0.049	-0.314
-482.391	738.991	-0.126	-0.341
-481.376	-13.197	-0.055	0.036
-480.362	-200.000	0.015	-0.120
-479.347	-57.557	0.352	-0.156
-478.332	152.878	-0.199	0.275
-477.318	-77.993	0.199	-0.069
-476.303	-135.027	0.238	-0.029
-475.289	392.129	-0.025	0.052
-474.274	-33.058	0.244	-0.136
-473.259	-200.000	0.003	-0.076
-472.245	61.694	-0.104	0.105
-471.230	800.000	-0.030	-0.120
-470.216	-124.432	0.410	-0.064
-469.201	211.205	0.090	-0.143
-468.186	-54.068	-0.396	-0.182
-467.172	-200.000	-0.032	-0.189
-466.157	95.366	-0.174	0.200
-465.143	-108.945	-0.399	0.086
-464.128	800.000	0.023	0.095
-463.113	173.632	0.194	0.282
-462.099	19.492	-0.155	0.125
-461.084	124.975	-0.124	-0.158
-460.070	-51.311	-0.111	0.052
-459.055	22.506	-0.353	-0.291
-458.040	-172.895	0.270	0.008
-457.026	-200.000	0.021	0.189
-456.011	800.000	-0.110	0.321
-454.997	-200.000	0.038	-0.189
-453.982	192.888	0.113	0.172
-452.968	-200.000	0.031	0.147
-451.953	187.164	-0.102	0.154
-450.938	-102.791	-0.390	0.094
-449.924	250.738	0.196	0.336
-448.909	107.906	-0.192	-0.231
-447.895	-99.144	-0.067	0.017
-446.880	-200.000	-0.006	0.414
-445.865	-157.002	0.128	0.008
-444.851	-106.809	0.115	0.026
-443.836	205.778	-0.161	0.252
-442.822	-200.000	0.032	-0.247
-441.807	-200.000	-0.010	0.057
-440.792	800.000	0.045	-0.160
-439.778	333.252	0.026	-0.052
-438.763	-31.184	-0.220	0.125
-437.749	-65.729	0.187	0.075
-436.734	-61.621	-0.106	0.045
-435.719	-88.233	0.042	-0.013
-434.705	800.000	0.028	0.096
-433.690	-136.787	0.333	0.039
-432.676	-53.851	0.256	-0.118
-431.661	-200.000	-0.014	0.243
-430.646	-59.659	0.284	0.123
-429.632	800.000	0.075	0.243
-428.617	-184.470	0.468	0.008
-427.603	278.292	0.051	0.091
-426.588	-30.627	-0.135	-0.077
-425.573	-167.024	0.549	0.023
-424.559	16.767	0.214	0.171
-423.544	299.150	-0.122	0.226
-422.530	-97.638	-0.407	0.106
-421.515	429.387	0.042	0.093
-420.500	237.110	-0.113	0.189
-419.486	-122.899	-0.254	-0.041
-418.471	226.928	0.143	0.234
-417.457	-200.000	0.016	0.232
-416.442	189.409	-0.132	-0.199
-415.428	-41.352	-0.088	0.046
-414.413	248.269	-0.102	0.174
-413.398	-71.655	0.145	0.055
-412.384	77.858	-0.102	-0.110
-411.369	356.140	-0.201	0.402
-410.355	-110.235	0.320	-0.067
-409.340	800.000	0.099	0.358
-408.325	-200.000	0.019	-0.139
-407.311	-1.670	-0.148	-0.105
-406.296	800.000	-0.086	-0.272
-405.282	369.587	0.070	-0.143
-404.267	11.146	0.052	0.040
-403.252	-101.919	0.421	0.102
-402.238	99.788	0.112	-0.130
-401.223	-192.873	-0.163	-0.001
-400.209	394.216	-0.039	0.082
-399.194	-64.848	0.103	0.042
-398.179	-200.000	-0.025	-0.176
-397.165	-89.991	-0.300	-0.088
-396.150	193.874	0.154	-0.234
-395.136	800.000	-0.088	0.300
-394.121	730.014	0.072	-0.194
-393.106	-200.000	0.022	-0.191
-392.092	-71.017	-0.338	-0.128
-391.077	-130.689	0.212	-0.029
-390.063	201.502	-0.071	-0.110
-389.048	40.721	0.131	-0.119
-388.033	-130.015	0.204	0.028
-387.019	-22.114	0.050	-0.031
-386.004	507.272	0.062	0.145
-384.990	-200.000	-0.008	0.180
-383.975	-200.000	0.000	-0.096
-382.960	-79.728	0.164	0.056
-381.946	96.592	-0.032	-0.036
-380.931	189.407	0.082	-0.124
-379.917	110.351	0.181	0.218
-378.902	59.005	-0.198	-0.196
-377.888	-109.833	0.144	-0.030
-376.873	-125.985	-0.344	0.052
-375.858	-200.000	-0.001	-0.052
-374.844	-200.000	0.014	-0.142
-373.829	-200.000	0.027	0.222
-372.815	165.444	-0.098	-0.139
-371.800	800.000	0.094	-0.317
-370.785	-25.701	-0.303	-0.179
-369.771	307.084	-0.190	0.357
-368.756	22.855	-0.182	0.150
-367.742	-21.356	0.254	0.156
-366.727	-24.513	0.007	-0.004
-365.712	-108.774	0.062	-0.013
-364.698	-200.000	-0.037	-0.336
-363.683	47.251	-0.060	-0.056
-362.669	800.000	-0.082	-0.322
-361.654	709.847	-0.133	0.354
-360.639	-154.217	-0.151	-0.010
-359.625	-150.399	-0.195	0.015
-358.610	-109.085	0.242	0.052
-357.596	-200.000	0.015	0.099
-356.581	-200.000	-0.004	-0.173
-355.566	-28.148	-0.186	-0.108
-354.552	98.895	0.014	0.016
-353.537	800.000	-0.045	-0.180
-352.523	-110.831	0.205	-0.042
-351.508	-185.548	0.110	-0.002
-350.493	-174.116	-0.091	-0.003
-349.479	-200.000	-0.039	0.264
-348.464	-138.553	-0.259	-0.029
-347.450	800.000	0.054	-0.192
-346.435	-110.485	0.115	0.024
-345.420	800.000	0.081	0.262
-344.406	285.697	0.032	-0.057
-343.391	-175.020	0.129	-0.004
-342.377	88.542	0.073	-0.082
-341.362	253.021	0.095	-0.163
-340.348	462.756	0.034	-0.076
-339.333	63.544	0.171	-0.172
-338.318	125.375	0.230	-0.292
-337.304	-35.255	-0.218	-0.119
-336.289	-200.000	-0.041	0.243
-335.275	-200.000	-0.036	0.294
-334.260	131.226	-0.170	-0.219
-333.245	-86.233	0.373	-0.115
-332.231	800.000	-0.115	0.382
-331.216	-147.611	0.145	-0.012
-330.202	-107.036	0.391	-0.087
-329.187	-200.000	0.000	0.371
-328.172	800.000	0.067	0.237
-327.158	-157.924	-0.437	-0.026
-326.143	-57.962	0.093	0.041
-325.129	-120.817	-0.188	0.032
-324.114	-16.119	-0.201	0.128
-323.099	16.689	0.159	0.126
-322.085	-141.022	-0.134	-0.014
-321.070	610.443	0.031	-0.078
-320.056	-107.014	-0.085	-0.019
-319.041	-13.539	0.108	-0.070
-318.026	483.451	0.119	-0.272
-317.012	114.543	-0.052	0.063
-315.997	-116.756	0.266	-0.049
-314.983	-76.947	-0.055	0.019
-313.968	236.476	0.059	-0.099
-312.953	32.497	-0.104	-0.090
-311.939	-200.000	-0.024	0.172
-310.924	149.129	-0.083	0.113
-309.910	-150.646	0.132	-0.010
-308.895	-95.925	0.235	-0.063
-307.880	-200.000	-0.036	-0.293
-306.866	318.875	0.055	-0.105
-305.851	-23.525	0.079	0.048
-304.837	-91.278	0.133	-0.038
-303.822	-164.898	-0.099	-0.004
-302.807	-24.599	-0.170	-0.102
-301.793	-200.000	-0.040	-0.183
-300.778	-200.000	0.017	-0.241
-299.764	150.869	-0.011	-0.015
-298.749	-106.568	-0.433	-0.097
-297.735	213.166	-0.031	-0.049
-296.720	377.301	-0.078	-0.159
-295.705	504.048	-0.014	-0.032
-294.691	799.805	-0.128	-0.353
-293.676	800.000	-0.071	-0.270
-292.662	77.290	0.032	0.034
-291.647	-76.345	0.109	-0.039
-290.632	363.784	0.081	-0.164
-289.618	310.203	-0.077	0.144
-288.603	-37.924	0.137	0.073
-287.589	-109.593	-0.172	-0.036
-286.574	800.000	0.083	-0.247
-285.559	74.543	0.030	-0.032
-284.545	6.579	-0.113	-0.084
-283.530	-55.632	-0.174	-0.078
-282.516	800.000	0.068	-0.266
-281.501	535.051	-0.050	-0.119
-280.486	-29.463	-0.189	-0.108
-279.472	800.000	-0.035	0.104
-278.457	50.909	0.186	0.177
-277.443	-21.541	-0.176	-0.108
-276.428	-1.428	0.068	0.048
-275.413	-200.000	-0.020	0.164
-274.399	43.180	-0.344	0.315
-273.384	-200.000	0.002	-0.086
-272.370	-64.125	0.193	0.079
-271.355	-7.807	0.030	0.020
-270.340	78.827	-0.047	0.050
-269.326	-200.000	0.014	0.167
-268.311	-200.000	-0.001	0.165
-267.297	-121.293	0.354	0.059
-266.282	-200.000	-0.019	-0.098
-265.267	-88.398	-0.131	-0.039
-264.253	127.189	-0.120	0.153
-263.238	157.221	0.202	0.280
-262.224	283.264	-0.189	0.340
-261.209	-12.802	-0.066	-0.043
-260.195	-97.940	-0.136	-0.035
-259.180	-46.723	-0.102	0.050
-258.165	-15.055	-0.072	0.046
-257.151	-200.000	-0.048	0.275
-256.136	-84.210	-0.208	0.066
-255.122	800.000	-0.035	-0.125
-254.107	2.454	-0.055	-0.040
-253.092	654.019	0.104	-0.267
-252.078	131.245	0.245	0.315
-251.063	800.000	0.077	-0.233
-250.049	27.686	0.162	-0.137
-249.034	800.000	-0.039	-0.145
-248.019	-200.000	-0.044	-0.207
-247.005	9.393	-0.255	-0.193
-245.990	800.000	-0.040	0.139
-244.976	-188.339	-0.247	0.003
-243.961	800.000	0.137	-0.420
-242.946	-100.206	-0.185	0.046
-241.932	139.970	-0.136	0.179
-240.917	206.982	0.150	-0.234
-239.903	303.563	0.163	-0.302
-238.888	-146.177	-0.118	-0.010
-237.873	800.000	-0.013	-0.043
-236.859	415.370	-0.117	0.250
-235.844	-200.000	-0.004	0.131
-234.830	786.994	0.029	-0.078
-233.815	-82.388	-0.290	-0.094
-232.800	104.976	0.232	0.274
-231.786	407.714	-0.079	-0.166
-230.771	-25.053	-0.108	0.064
-229.757	800.000	-0.135	0.496
-228.742	-95.245	0.348	0.094
-227.727	-40.863	-0.057	0.030
-226.713	-115.968	0.244	0.045
-225.698	42.711	0.198	0.180
-224.684	159.147	0.033	-0.046
-223.669	-200.000	-0.030	-0.175
-222.655	163.891	0.197	0.277
-221.640	-14.017	-0.217	0.140
-220.625	-78.909	-0.316	0.108
-219.611	130.424	0.298	-0.381
-218.596	-200.000	-0.058	0.298
-217.582	-200.000	0.019	0.141
-216.567	-200.000	-0.035	0.332
-215.552	-182.159	0.124	0.002
-214.538	-122.047	0.198	-0.033
-213.523	723.396	-0.145	0.387
-212.509	-194.000	0.161	-0.001
-211.494	-27.714	0.242	0.140
-210.479	109.157	-0.133	-0.158
-209.465	-72.510	0.027	0.010
-208.450	800.000	-0.087	0.249
-207.436	-101.666	0.195	-0.047
-206.421	800.000	-0.069	-0.210
-205.406	-200.000	0.011	-0.164
-204.392	172.733	-0.141	-0.203
-203.377	-61.074	-0.134	0.057
-202.363	-200.000	0.079	-0.424
-201.348	104.995	-0.092	0.108
-200.333	24.837	0.107	0.088
-199.319	-200.000	-0.003	0.024
-198.304	63.687	0.112	-0.112
-197.290	195.655	-0.177	-0.268
-196.275	-175.113	-0.193	0.005
-195.260	174.500	0.148	0.214
-194.246	-90.107	-0.193	-0.056
-193.231	513.994	-0.072	-0.168
-192.217	117.342	0.167	0.205
-191.202	-200.000	0.008	0.148
-190.187	-59.826	-0.249	-0.106
-189.173	800.000	0.089	-0.315
-188.158	189.506	-0.083	-0.124
-187.144	-174.386	-0.499	0.014
-186.129	370.226	0.190	0.385
-185.114	130.996	-0.075	0.096
-184.100	6.132	0.140	-0.104
-183.085	-116.492	0.289	0.053
-182.071	-200.000	-0.019	-0.191
-181.056	-172.161	0.068	0.002
-180.042	-100.588	0.116	0.029
-179.027	265.208	0.128	0.222
-178.012	347.162	-0.093	-0.183
-176.998	-89.711	-0.064	-0.019
-175.983	102.089	0.226	-0.264
-174.969	112.418	-0.123	0.149
-173.954	-200.000	0.037	0.308
-172.939	-42.572	-0.030	0.015
-171.925	42.380	-0.063	-0.057
-170.910	800.000	-0.008	-0.036
-169.896	-111.385	0.419	0.085
-168.881	800.000	-0.085	-0.280
-167.866	6.220	0.154	0.114
-166.852	-200.000	-0.050	-0.231
-165.837	572.233	0.061	-0.149
-164.823	-123.231	0.182	0.029
-163.808	-76.446	-0.170	0.060
-162.793	-87.751	-0.207	-0.062
-161.779	-138.145	-0.178	0.020
-160.764	-28.044	-0.235	-0.136
-159.750	268.386	-0.228	0.397
-158.735	-114.556	-0.358	-0.068
-157.720	239.545	-0.124	-0.206
-156.706	9.575	0.116	0.087
-155.691	31.443	0.120	-0.103
-154.677	97.840	0.096	-0.110
-153.662	11.700	0.352	-0.270
-152.647	-9.703	-0.080	-0.053
-151.633	14.964	-0.103	0.080
-150.618	137.453	0.132	0.173
-149.604	-30.927	-0.298	-0.168
-148.589	-15.956	0.198	-0.126
-147.574	497.626	0.066	-0.152
-146.560	-154.495	0.122	0.008
-145.545	-30.159	0.120	0.068
-144.531	-44.100	-0.095	0.047
-143.516	362.925	-0.080	0.160
-142.502	800.000	0.053	0.210
-141.487	115.542	-0.117	-0.142
-140.472	-132.813	0.153	-0.020
-139.458	608.312	0.044	0.109
-138.443	-101.156	0.283	0.069
-137.429	108.459	0.074	0.088
-136.414	120.807	0.197	-0.244
-135.399	66.412	0.110	0.112
-134.385	-68.501	0.182	0.070
-133.370	-200.000	-0.041	0.242
-132.356	544.237	-0.166	-0.394
-131.341	375.964	-0.135	-0.274
-130.326	-57.869	-0.222	0.097
-129.312	-200.000	-0.015	0.150
-128.297	-200.000	0.054	0.443
-127.283	92.934	-0.037	0.042
-126.268	-82.983	-0.236	0.076
-125.253	-200.000	0.018	-0.136
-124.239	-200.000	-0.018	0.208
-123.224	411.691	0.013	-0.027
-122.210	800.000	0.072	0.267
