DTS Sentinel unit serial number:	SN413079Multiplexer serial number:	ORYXHardware model number:	OX4-SRSoftware version number:	ORYX F/W v4.00 Oryx Data Collector v3.7.2.0data status	okinstallation	princeton_trtdifferential loss correction	single-endedforward channel	channel 1reverse channel	N/Adate	2019/09/19time	14:54:35forward acquisition time	60.00reverse acquisition time	0.00gamma	496.2192k internal	0.2316k external	0.2316temperature offset calibration	1.0023default loss term (dB/km)	0.3790temperature slope calibration	1.0000multiplexer offset coefficient	1.0000multiplexer slope coefficient	1.0000fibre end	0.00T internal ref (°C)	32.94T ext. ref 1 (°C)	1.10T ext. ref 2 (°C)	29.88length (m)	temperature (°C)	Stokes	anti-Stokes-747.200	-135.692	-0.460	0.055
-746.185	-79.286	-0.105	0.036
-745.171	96.126	-0.250	-0.290
-744.156	469.817	-0.137	-0.312
-743.142	-200.000	-0.017	-0.101
-742.127	61.156	-0.189	-0.190
-741.112	129.013	0.140	-0.181
-740.098	-200.000	0.001	0.263
-739.083	-104.755	0.265	-0.062
-738.069	-31.429	-0.252	0.144
-737.054	-200.000	-0.032	-0.357
-736.039	73.566	-0.310	-0.329
-735.025	169.256	-0.054	0.078
-734.010	-88.751	-0.240	-0.072
-732.996	-115.260	-0.358	0.069
-731.981	-43.467	-0.221	-0.113
-730.966	-140.662	-0.122	-0.013
-729.952	-109.997	-0.191	0.040
-728.937	-11.420	0.092	0.061
-727.923	433.964	-0.062	-0.137
-726.908	-48.531	-0.019	-0.009
-725.894	-142.887	-0.239	-0.023
-724.879	-23.868	-0.084	-0.051
-723.864	99.900	-0.070	-0.082
-722.850	-88.367	0.036	-0.011
-721.835	-4.122	0.087	0.061
-720.821	217.357	0.166	-0.268
-719.806	-45.866	-0.222	-0.111
-718.791	800.000	-0.148	-0.517
-717.777	-61.242	-0.205	-0.087
-716.762	116.847	-0.193	-0.240
-715.748	-115.355	-0.175	-0.033
-714.733	26.148	0.123	0.104
-713.718	411.873	-0.073	0.157
-712.704	457.226	0.101	-0.226
-711.689	800.000	-0.042	-0.124
-710.675	-117.964	0.149	-0.027
-709.660	-103.876	-0.037	-0.009
-708.645	77.811	-0.103	-0.111
-707.631	101.174	0.163	0.192
-706.616	210.662	0.069	0.109
-705.602	177.160	0.212	0.312
-704.587	40.273	-0.133	-0.121
-703.572	60.254	-0.209	-0.209
-702.558	69.509	-0.191	-0.199
-701.543	-123.866	-0.225	-0.036
-700.529	171.590	-0.091	0.132
-699.514	13.148	0.038	-0.030
-698.499	-86.785	0.045	0.014
-697.485	123.851	0.171	-0.218
-696.470	800.000	0.088	-0.376
-695.456	117.303	0.276	-0.343
-694.441	-173.105	0.170	0.005
-693.426	163.729	-0.148	0.210
-692.412	800.000	-0.037	0.106
-691.397	-106.479	-0.231	0.052
-690.383	-200.000	-0.003	-0.064
-689.368	-123.042	-0.150	-0.024
-688.354	104.551	0.113	0.134
-687.339	-79.590	0.318	-0.108
-686.324	248.762	-0.108	-0.185
-685.310	189.953	-0.059	-0.089
-684.295	-148.855	-0.275	-0.022
-683.281	55.277	0.279	-0.273
-682.266	-23.643	0.121	0.074
-681.251	-30.271	0.111	0.063
-680.237	-200.000	0.030	-0.179
-679.222	-200.000	-0.016	-0.170
-678.208	-10.758	0.302	-0.202
-677.193	-101.888	-0.163	-0.040
-676.178	-200.000	-0.025	0.275
-675.164	-200.000	-0.024	-0.359
-674.149	800.000	-0.024	0.102
-673.135	-26.081	-0.252	0.150
-672.120	800.000	0.038	0.161
-671.105	-12.888	0.100	-0.065
-670.091	-44.756	-0.266	0.134
-669.076	-3.914	0.168	0.118
-668.062	-200.000	-0.014	0.144
-667.047	-36.375	-0.135	0.074
-666.032	-6.818	-0.151	-0.104
-665.018	101.365	-0.016	0.019
-664.003	610.025	-0.092	0.231
-662.989	-84.057	-0.117	0.038
-661.974	-183.755	0.195	0.003
-660.959	117.965	0.144	-0.179
-659.945	-200.000	0.002	0.037
-658.930	-133.801	-0.133	-0.017
-657.916	329.691	-0.153	0.296
-656.901	-200.000	0.024	-0.192
-655.886	6.204	-0.296	-0.221
-654.872	-58.128	-0.224	-0.099
-653.857	221.892	0.150	0.243
-652.843	-38.442	-0.152	0.081
-651.828	-134.648	0.332	-0.041
-650.814	-89.226	-0.202	0.060
-649.799	174.093	-0.193	-0.282
-648.784	117.183	-0.238	-0.295
-647.770	-99.786	0.107	0.027
-646.755	-200.000	0.028	-0.263
-645.741	-200.000	-0.001	0.045
-644.726	96.689	-0.200	-0.231
-643.711	-200.000	0.012	0.291
-642.697	-134.623	0.114	-0.014
-641.682	-112.580	-0.298	-0.060
-640.668	800.000	-0.035	-0.113
-639.653	72.346	-0.085	-0.089
-638.638	117.041	-0.123	-0.152
-637.624	41.466	0.095	-0.086
-636.609	432.737	0.165	0.361
-635.595	800.000	-0.086	-0.359
-634.580	392.734	-0.210	0.440
-633.565	135.694	-0.173	0.227
-632.551	800.000	-0.066	-0.195
-631.536	-116.992	-0.107	0.020
-630.522	-119.606	-0.396	0.069
-629.507	800.000	-0.036	-0.118
-628.492	78.121	-0.388	-0.418
-627.478	-113.070	-0.379	0.075
-626.463	257.679	-0.070	-0.121
-625.449	132.884	0.125	-0.163
-624.434	10.211	-0.211	0.162
-623.419	-93.629	-0.217	-0.060
-622.405	139.359	0.180	0.238
-621.390	510.995	0.081	0.189
-620.376	-98.875	-0.261	-0.067
-619.361	-200.000	0.035	-0.306
-618.346	-65.099	0.193	-0.078
-617.332	153.748	0.195	-0.269
-616.317	800.000	-0.016	-0.048
-615.303	-100.111	0.100	0.025
-614.288	800.000	0.047	0.207
-613.273	-93.813	0.146	0.041
-612.259	27.666	-0.028	0.023
-611.244	-80.628	-0.114	0.038
-610.230	800.000	0.025	-0.106
-609.215	-111.391	-0.339	0.070
-608.201	603.049	-0.039	0.098
-607.186	94.044	0.071	0.082
-606.171	-26.326	-0.238	0.141
-605.157	-200.000	-0.038	0.221
-604.142	-50.585	0.087	-0.041
-603.128	-144.737	-0.270	0.025
-602.113	318.413	0.169	-0.322
-601.098	-43.250	-0.194	-0.099
-600.084	-200.000	-0.023	0.235
-599.069	2.867	0.262	0.191
-598.055	-200.000	0.000	0.039
-597.040	-25.999	0.232	-0.138
-596.025	800.000	-0.071	0.254
-595.011	139.644	0.060	-0.079
-593.996	-200.000	0.069	-0.308
-592.982	92.582	0.028	0.032
-591.967	9.895	-0.231	-0.176
-590.952	-139.788	0.426	-0.045
-589.938	155.274	-0.247	0.343
-588.923	-85.135	-0.276	-0.087
-587.909	-95.050	-0.269	-0.073
-586.894	-200.000	0.005	0.247
-585.879	-150.304	-0.100	-0.008
-584.865	-104.484	0.177	-0.041
-583.850	373.477	0.128	-0.263
-582.836	-200.000	-0.026	-0.281
-581.821	549.324	-0.039	0.094
-580.806	-141.125	0.376	-0.039
-579.792	-200.000	0.018	0.376
-578.777	115.464	-0.230	0.283
-577.763	130.374	-0.209	-0.270
-576.748	-95.059	0.385	-0.105
-575.733	193.827	-0.069	0.104
-574.719	660.998	0.057	-0.147
-573.704	-39.972	0.188	0.099
-572.690	223.283	0.144	-0.234
-571.675	110.077	0.150	-0.181
-570.661	800.000	-0.096	-0.404
-569.646	-30.812	-0.114	-0.065
-568.631	11.629	0.233	0.180
-567.617	-102.099	-0.286	-0.069
-566.602	23.436	0.103	0.085
-565.588	41.990	0.178	-0.163
-564.573	11.395	0.144	-0.111
-563.558	100.794	-0.052	-0.061
-562.544	604.449	-0.130	-0.325
-561.529	-23.215	0.091	0.055
-560.515	-200.000	0.092	0.477
-559.500	-200.000	0.019	-0.087
-558.485	71.928	-0.288	-0.301
-557.471	-51.889	-0.236	0.110
-556.456	-94.711	0.155	0.042
-555.442	-107.206	-0.105	-0.023
-554.427	-32.000	0.091	0.051
-553.412	-200.000	-0.004	-0.264
-552.398	-68.391	0.068	-0.026
-551.383	155.088	0.129	-0.178
-550.369	-159.878	-0.047	-0.003
-549.354	-5.793	0.070	0.048
-548.339	-7.723	-0.305	-0.207
-547.325	-200.000	0.003	-0.020
-546.310	-48.985	0.431	-0.207
-545.296	800.000	-0.019	-0.081
-544.281	26.611	0.076	0.064
-543.266	800.000	-0.070	0.243
-542.252	115.857	0.166	0.205
-541.237	-200.000	0.011	0.100
-540.223	-106.664	-0.218	-0.049
-539.208	88.990	0.117	-0.130
-538.193	56.825	-0.260	0.255
-537.179	-55.276	0.110	0.050
-536.164	6.443	-0.177	-0.132
-535.150	-37.765	0.105	0.056
-534.135	616.328	0.074	0.185
-533.121	-164.608	-0.188	0.009
-532.106	-200.000	0.004	-0.274
-531.091	-17.492	0.136	0.086
-530.077	-86.524	-0.087	0.027
-529.062	-100.266	0.199	-0.050
-528.048	800.000	-0.030	-0.111
-527.033	-200.000	0.034	0.353
-526.018	84.620	0.283	-0.311
-525.004	-72.899	0.391	0.144
-523.989	-178.014	0.066	0.002
-522.975	-89.509	-0.217	0.064
-521.960	711.670	-0.148	0.392
-520.945	800.000	0.085	-0.296
-519.931	-146.410	0.117	-0.010
-518.916	254.049	-0.186	0.319
-517.902	182.554	-0.184	0.273
-516.887	-27.691	-0.311	-0.181
-515.872	800.000	-0.063	0.229
-514.858	23.118	0.381	0.314
-513.843	800.000	-0.104	-0.413
-512.829	-5.325	-0.138	0.095
-511.814	800.000	-0.097	0.301
-510.799	6.820	-0.141	-0.106
-509.785	800.000	0.046	-0.193
-508.770	-200.000	0.019	0.338
-507.756	-107.127	0.208	-0.046
-506.741	54.409	0.309	0.299
-505.726	-88.497	-0.198	-0.059
-504.712	96.082	0.167	-0.191
-503.697	18.702	-0.143	-0.115
-502.683	-200.000	0.007	-0.569
-501.668	326.800	0.096	0.185
-500.653	-151.200	0.376	0.028
-499.639	31.943	0.123	-0.106
-498.624	-200.000	0.008	0.358
-497.610	-132.291	-0.082	-0.011
-496.595	84.224	-0.062	-0.068
-495.581	-200.000	-0.051	-0.320
-494.566	632.770	-0.066	0.169
-493.551	800.000	0.089	-0.349
-492.537	280.960	-0.160	-0.287
-491.522	-42.105	-0.072	-0.037
-490.508	-19.175	-0.125	-0.078
-489.493	800.000	-0.120	0.353
-488.478	-74.771	0.090	-0.032
-487.464	258.134	-0.110	-0.190
-486.449	-55.503	-0.167	0.075
-485.435	118.010	-0.219	0.270
-484.420	99.193	0.215	-0.249
-483.405	-116.772	0.122	-0.022
-482.391	351.894	-0.085	0.169
-481.376	-99.853	-0.125	0.031
-480.362	91.760	0.221	-0.249
-479.347	-21.164	-0.104	0.064
-478.332	-141.452	0.166	0.017
-477.318	-132.073	0.253	0.033
-476.303	184.452	-0.088	-0.131
-475.289	-125.859	0.011	0.002
-474.274	-200.000	-0.033	-0.261
-473.259	-38.953	0.315	-0.166
-472.245	800.000	0.033	-0.108
-471.230	225.331	0.092	-0.149
-470.216	800.000	-0.051	0.197
-469.201	109.136	-0.137	-0.164
-468.186	800.000	0.038	-0.135
-467.172	-107.722	-0.211	0.046
-466.157	-34.258	-0.090	-0.050
-465.143	217.164	-0.238	0.380
-464.128	594.350	-0.136	0.336
-463.113	-200.000	-0.002	0.030
-462.099	37.754	-0.063	-0.056
-461.084	300.142	-0.115	-0.213
-460.070	429.466	-0.167	0.362
-459.055	-200.000	-0.020	-0.131
-458.040	-33.349	-0.186	-0.103
-457.026	86.306	0.044	-0.048
-456.011	21.156	-0.368	0.299
-454.997	-200.000	-0.032	0.260
-453.982	-200.000	-0.025	0.134
-452.968	99.476	0.166	-0.192
-451.953	-200.000	-0.015	-0.079
-450.938	160.909	0.129	0.180
-449.924	266.773	0.062	-0.109
-448.909	-128.027	0.102	-0.015
-447.895	-200.000	0.039	-0.223
-446.880	-25.962	0.135	0.079
-445.865	-200.000	-0.028	-0.396
-444.851	8.541	-0.087	-0.066
-443.836	-200.000	0.016	-0.109
-442.822	-35.816	-0.323	0.175
-441.807	800.000	-0.035	0.117
-440.792	-3.660	0.125	-0.087
-439.778	-35.663	-0.267	-0.145
-438.763	-112.788	-0.073	-0.014
-437.749	-120.709	-0.269	-0.045
-436.734	14.387	-0.138	-0.108
-435.719	-5.089	-0.209	0.144
-434.705	63.583	0.186	0.187
-433.690	204.410	-0.275	0.426
-432.676	-61.876	-0.317	-0.133
-431.661	354.138	-0.077	-0.153
-430.646	357.930	-0.092	-0.184
-429.632	-23.480	-0.158	-0.095
-428.617	75.462	-0.155	0.164
-427.603	800.000	-0.015	-0.055
-426.588	-200.000	0.026	-0.257
-425.573	223.675	-0.132	0.213
-424.559	-200.000	0.039	0.238
-423.544	-9.349	0.093	-0.062
-422.530	-112.235	0.054	0.011
-421.515	-51.769	-0.124	-0.058
-420.500	71.143	-0.037	-0.039
-419.486	330.819	-0.140	0.270
-418.471	-200.000	0.040	0.628
-417.457	111.181	0.338	0.407
-416.442	-200.000	0.006	0.094
-415.428	-200.000	-0.000	-0.094
-414.413	291.640	0.075	-0.137
-413.398	699.007	0.075	-0.198
-412.384	253.922	-0.162	0.277
-411.369	-15.257	0.143	-0.092
-410.355	290.999	-0.087	-0.158
-409.340	181.068	-0.151	-0.222
-408.325	257.609	0.059	0.101
-407.311	800.000	-0.098	-0.304
-406.296	297.759	-0.123	0.226
-405.282	-96.273	-0.230	-0.061
-404.267	-27.726	0.064	0.037
-403.252	-53.175	-0.203	0.093
-402.238	181.507	0.274	0.403
-401.223	-40.936	-0.055	0.028
-400.209	-87.846	-0.210	-0.063
-399.194	-175.408	-0.063	0.002
-398.179	70.901	0.027	-0.028
-397.165	-136.478	0.238	-0.028
-396.150	-33.716	0.168	-0.093
-395.136	-200.000	0.046	0.238
-394.121	-100.678	-0.332	-0.082
-393.106	-200.000	-0.031	0.247
-392.092	-98.942	0.303	-0.077
-391.077	83.389	0.174	0.189
-390.063	-58.445	0.289	-0.125
-389.048	182.623	-0.171	0.252
-388.033	-59.930	0.057	-0.024
-387.019	3.935	-0.226	0.165
-386.004	-187.902	-0.107	-0.001
-384.990	800.000	0.139	-0.461
-383.975	-200.000	0.012	0.000
-382.960	521.300	-0.120	0.282
-381.946	50.918	-0.090	0.085
-380.931	154.782	0.240	-0.330
-379.917	737.039	0.081	0.218
-378.902	-108.553	-0.347	0.075
-377.888	-200.000	-0.021	0.135
-376.873	-62.298	-0.354	-0.147
-375.858	-200.000	-0.017	-0.238
-374.844	800.000	-0.046	0.176
-373.829	-66.030	0.233	0.093
-372.815	-200.000	0.061	-0.437
-371.800	-200.000	0.018	0.166
-370.785	-83.273	-0.073	0.023
-369.771	203.032	-0.159	-0.245
-368.756	-35.300	-0.141	0.076
-367.742	-67.204	0.156	0.061
-366.727	-76.067	0.135	0.048
-365.712	30.672	-0.054	-0.046
-364.698	357.392	0.063	-0.125
-363.683	-138.577	0.145	0.016
-362.669	800.000	0.012	-0.042
-361.654	800.000	0.068	-0.218
-360.639	-200.000	0.008	0.214
-359.625	-193.795	0.135	0.001
-358.610	-65.994	-0.274	0.109
-357.596	-119.784	0.158	0.027
-356.581	800.000	0.029	-0.098
-355.566	33.656	0.093	-0.081
-354.552	-63.959	0.351	0.143
-353.537	45.194	0.263	0.242
-352.523	305.829	-0.123	0.228
-351.508	800.000	-0.032	0.125
-350.493	89.358	0.101	-0.112
-349.479	56.607	0.108	-0.105
-348.464	181.297	-0.259	-0.379
-347.450	-110.056	-0.206	0.043
-346.435	-200.000	0.012	0.155
-345.420	-34.852	-0.216	-0.117
-344.406	-59.165	0.412	-0.177
-343.391	-5.494	-0.165	0.113
-342.377	157.890	0.203	0.280
-341.362	-200.000	0.035	-0.176
-340.348	-82.713	-0.319	0.103
-339.333	-118.239	0.320	-0.057
-338.318	-83.459	0.368	0.117
-337.304	-45.365	0.132	0.065
-336.289	800.000	0.014	-0.049
-335.275	-5.106	-0.200	-0.137
-334.260	369.361	0.213	0.431
-333.245	118.137	0.046	-0.056
-332.231	-116.838	0.533	-0.097
-331.216	-200.000	0.022	-0.101
-330.202	77.510	-0.175	-0.185
-329.187	800.000	0.046	-0.183
-328.172	800.000	0.011	0.046
-327.158	118.699	-0.283	0.348
-326.143	-133.860	0.422	0.052
-325.129	-19.147	-0.216	0.134
-324.114	-90.372	0.247	0.071
-323.099	228.835	0.156	-0.253
-322.085	-27.662	0.270	0.156
-321.070	-31.755	-0.151	-0.084
-320.056	-85.483	0.050	0.015
-319.041	800.000	0.072	0.246
-318.026	-7.876	-0.125	0.084
-317.012	73.623	-0.101	0.105
-315.997	364.854	-0.056	0.112
-314.983	-200.000	-0.011	0.209
-313.968	63.461	0.168	-0.168
-312.953	34.911	-0.202	-0.176
-311.939	725.596	0.061	0.163
-310.924	-200.000	0.042	0.308
-309.910	-200.000	-0.011	-0.147
-308.895	-121.793	-0.265	-0.044
-307.880	167.643	0.131	0.185
-306.866	-38.508	-0.341	-0.180
-305.851	-34.120	0.119	-0.065
-304.837	-200.000	-0.020	0.417
-303.822	-128.866	0.243	-0.034
-302.807	-30.042	0.145	-0.082
-301.793	654.834	-0.080	-0.203
-300.778	420.001	-0.007	0.016
-299.764	-138.260	-0.137	0.015
-298.749	0.018	0.215	0.153
-297.735	-8.542	-0.157	-0.105
-296.720	-34.536	0.377	-0.205
-295.705	-42.594	0.233	-0.118
-294.691	290.198	-0.078	-0.140
-293.676	800.000	-0.115	0.386
-292.662	107.973	-0.211	0.250
-291.647	19.431	0.165	0.132
-290.632	144.127	-0.149	0.198
-289.618	800.000	0.048	-0.132
-288.603	-200.000	0.033	-0.259
-287.589	-43.151	0.204	0.103
-286.574	-200.000	-0.009	0.042
-285.559	123.606	0.285	-0.355
-284.545	-95.918	-0.133	-0.035
-283.530	800.000	0.069	-0.225
-282.516	261.052	0.241	0.415
-281.501	13.163	-0.245	0.189
-280.486	-123.797	0.085	-0.013
-279.472	-23.525	-0.290	-0.173
-278.457	-200.000	-0.026	-0.148
-277.443	-200.000	0.051	0.320
-276.428	-71.272	-0.212	-0.079
-275.413	-12.021	-0.081	0.053
-274.399	77.973	0.127	0.135
-273.384	-200.000	-0.013	-0.301
-272.370	-58.962	-0.234	0.100
-271.355	14.874	0.168	-0.131
-270.340	800.000	0.023	-0.093
-269.326	69.973	0.173	-0.178
-268.311	409.028	-0.158	0.332
-267.297	60.002	-0.205	-0.202
-266.282	-110.795	-0.328	0.067
-265.267	216.200	0.154	0.243
-264.253	-94.706	-0.220	0.059
-263.238	-150.574	-0.419	0.032
-262.224	-200.000	0.050	0.484
-261.209	800.000	0.066	0.247
-260.195	-37.016	0.149	0.079
-259.180	-200.000	0.019	-0.084
-258.165	211.583	-0.056	-0.087
-257.151	-94.662	-0.102	-0.028
-256.136	-86.442	0.224	0.068
-255.122	-44.157	-0.231	-0.115
-254.107	26.897	0.184	-0.154
-253.092	-200.000	0.004	-0.072
-252.078	-104.072	0.186	0.043
-251.063	-65.771	0.295	0.117
-250.049	-95.929	0.495	0.131
-249.034	-200.000	-0.040	0.448
-248.019	800.000	-0.020	0.071
-247.005	-28.102	-0.239	0.137
-245.990	292.991	-0.087	0.158
-244.976	487.112	-0.046	0.105
-243.961	340.099	-0.058	0.113
-242.946	-69.875	0.063	-0.024
-241.932	-200.000	-0.015	-0.135
-240.917	30.735	0.174	0.148
-239.903	-200.000	0.032	0.161
-238.888	134.115	0.021	-0.027
-237.873	524.715	0.042	0.098
-236.859	34.278	-0.315	-0.273
-235.844	-47.412	-0.424	-0.205
-234.830	661.762	0.116	-0.296
-233.815	-200.000	0.042	0.256
-232.800	800.000	-0.039	-0.125
-231.786	-134.285	0.297	-0.036
-230.771	-118.986	0.279	0.048
-229.757	-200.000	-0.047	-0.415
-228.742	-162.858	0.330	0.016
-227.727	-42.367	-0.183	0.093
-226.713	800.000	-0.056	-0.193
-225.698	-77.891	-0.231	-0.079
-224.684	12.060	-0.047	0.036
-223.669	-78.298	-0.342	-0.117
-222.655	325.334	0.074	-0.141
-221.640	-200.000	0.030	-0.496
-220.625	-83.649	-0.090	-0.029
-219.611	382.567	0.087	-0.178
-218.596	317.820	-0.201	-0.377
-217.582	94.965	0.431	-0.486
-216.567	450.463	0.042	0.093
-215.552	-111.909	0.186	-0.037
-214.538	-134.335	-0.282	-0.034
-213.523	-100.077	0.137	0.034
-212.509	800.000	0.031	-0.126
-211.494	-200.000	0.021	-0.274
-210.479	-142.061	-0.351	-0.035
-209.465	-106.460	-0.210	-0.046
-208.450	800.000	-0.070	-0.230
-207.436	507.458	0.105	0.242
-206.421	-65.267	0.298	0.119
-205.406	800.000	-0.014	-0.054
-204.392	800.000	-0.023	0.064
-203.377	99.410	-0.323	-0.371
-202.363	149.777	0.079	-0.107
-201.348	301.673	-0.153	0.280
-200.333	-200.000	0.037	-0.169
-199.319	800.000	0.025	0.090
-198.304	-16.018	0.128	0.081
-197.290	-200.000	-0.014	-0.255
-196.275	92.078	0.247	-0.276
-195.260	-31.334	-0.111	-0.062
-194.246	-98.358	0.303	-0.077
-193.231	-200.000	0.055	0.296
-192.217	179.350	0.163	0.236
-191.202	-200.000	0.035	0.170
-190.187	-200.000	-0.029	-0.152
-189.173	519.018	0.113	-0.262
-188.158	721.440	0.032	-0.084
-187.144	-58.239	0.257	0.111
-186.129	-164.534	0.258	-0.012
-185.114	31.366	0.277	0.236
-184.100	-200.000	-0.080	0.351
-183.085	165.171	0.139	-0.195
-182.071	-36.609	0.066	0.035
-181.056	-24.410	0.250	0.148
-180.042	800.000	0.077	-0.290
-179.027	366.830	0.045	0.090
-178.012	-54.254	-0.078	0.035
-176.998	-200.000	-0.005	-0.043
-175.983	-147.551	0.132	-0.011
-174.969	-182.622	0.227	0.004
-173.954	24.712	-0.163	0.134
-172.939	800.000	-0.121	0.396
-171.925	157.003	-0.104	0.142
-170.910	800.000	-0.027	0.097
-169.896	-154.095	0.374	-0.025
-168.881	58.460	-0.151	-0.147
-167.866	270.379	0.152	-0.265
-166.852	800.000	-0.027	-0.081
-165.837	-200.000	0.001	0.234
-164.823	-87.991	0.296	-0.088
-163.808	116.851	0.188	0.228
-162.793	-200.000	-0.029	0.138
-161.779	-200.000	0.051	0.385
-160.764	-94.584	-0.180	-0.049
-159.750	178.782	0.115	0.166
-158.735	-103.363	-0.128	0.030
-157.720	-200.000	0.340	-0.000
-156.706	800.000	0.103	-0.295
-155.691	141.551	0.111	-0.146
-154.677	-36.845	-0.200	0.106
-153.662	-34.503	0.081	0.044
-152.647	55.505	0.133	-0.128
-151.633	-200.000	0.027	0.242
-150.618	75.565	-0.160	0.167
-149.604	-147.686	-0.183	0.015
-148.589	800.000	-0.016	0.069
-147.574	-77.764	-0.261	0.089
-146.560	-66.749	0.265	-0.104
-145.545	-22.055	-0.264	0.159
-144.531	-200.000	0.010	0.062
-143.516	83.850	-0.078	0.084
-142.502	-200.000	0.020	-0.328
-141.487	69.074	-0.113	0.115
-140.472	-69.471	0.370	-0.140
-139.458	-151.301	0.196	-0.014
-138.443	539.563	0.098	0.231
-137.429	-94.162	0.218	-0.059
-136.414	-165.470	-0.156	-0.007
-135.399	422.300	0.113	-0.240
-134.385	209.243	0.047	0.074
-133.370	158.878	-0.053	-0.073
-132.356	800.000	-0.038	0.147
-131.341	323.210	0.072	0.136
-130.326	-200.000	-0.031	0.194
-129.312	-94.513	0.132	-0.036
-128.297	144.945	-0.063	-0.084
-127.283	-139.036	0.199	-0.021
-126.268	66.043	0.315	0.316
-125.253	-200.000	0.002	-0.103
-124.239	16.825	-0.066	0.052
-123.224	315.126	-0.109	0.203
-122.210	-156.914	0.118	-0.007
