DTS Sentinel unit serial number:	SN413079Multiplexer serial number:	ORYXHardware model number:	OX4-SRSoftware version number:	ORYX F/W v4.00 Oryx Data Collector v3.7.2.0data status	okinstallation	princeton_trtdifferential loss correction	single-endedforward channel	channel 1reverse channel	N/Adate	2019/09/13time	09:38:35forward acquisition time	60.00reverse acquisition time	0.00gamma	496.2192k internal	0.2325k external	0.2325temperature offset calibration	1.0160default loss term (dB/km)	0.3790temperature slope calibration	1.0000multiplexer offset coefficient	1.0000multiplexer slope coefficient	1.0000fibre end	0.00T internal ref (°C)	29.66T ext. ref 1 (°C)	4.42T ext. ref 2 (°C)	26.10length (m)	temperature (°C)	Stokes	anti-Stokes-747.200	-90.740	0.247	-0.072
-746.185	-6.928	-0.403	0.276
-745.171	800.000	0.059	0.254
-744.156	800.000	-0.086	0.269
-743.142	33.084	0.091	0.080
-742.127	-91.979	-0.298	-0.085
-741.112	152.324	-0.017	0.024
-740.098	89.999	-0.100	0.112
-739.083	-200.000	-0.239	-0.001
-738.069	15.463	-0.217	-0.172
-737.054	-200.000	-0.002	-0.163
-736.039	-65.806	-0.264	0.107
-735.025	-85.097	0.247	0.078
-734.010	-87.310	-0.184	0.056
-732.996	-65.490	-0.132	-0.053
-731.981	345.627	-0.080	0.158
-730.966	-9.930	0.248	0.166
-729.952	28.522	-0.104	-0.089
-728.937	217.039	-0.111	-0.178
-727.923	25.940	0.210	-0.176
-726.908	-191.362	-0.322	-0.003
-725.894	-200.000	0.021	-0.248
-724.879	86.501	0.181	-0.201
-723.864	-200.000	0.026	-0.137
-722.850	-139.552	0.230	-0.025
-721.835	-200.000	-0.024	0.236
-720.821	-200.000	-0.002	0.163
-719.806	-27.425	0.197	-0.115
-718.791	-132.043	-0.194	0.025
-717.777	-79.273	0.037	0.013
-716.762	-63.303	0.235	0.098
-715.748	-44.400	-0.059	0.030
-714.733	-57.977	-0.090	0.040
-713.718	744.920	-0.081	-0.220
-712.704	243.317	0.032	-0.054
-711.689	-157.365	0.352	-0.021
-710.675	-23.466	0.188	-0.114
-709.660	24.323	0.198	0.165
-708.645	-142.004	-0.124	-0.012
-707.631	-26.062	0.041	0.024
-706.616	14.172	-0.227	-0.179
-705.602	500.654	0.092	0.214
-704.587	-88.225	0.056	0.017
-703.572	-80.214	0.268	-0.090
-702.558	-200.000	0.008	-0.134
-701.543	256.093	0.141	0.243
-700.529	25.790	-0.339	-0.285
-699.514	1.287	0.162	-0.117
-698.499	-22.020	-0.153	0.094
-697.485	574.717	-0.122	-0.300
-696.470	-140.921	-0.361	0.037
-695.456	18.801	-0.067	-0.054
-694.441	274.051	-0.130	0.232
-693.426	-200.000	-0.033	-0.171
-692.412	-200.000	-0.109	-0.496
-691.397	38.112	0.140	0.125
-690.383	800.000	-0.100	0.393
-689.368	80.937	0.071	0.077
-688.354	37.919	0.189	-0.169
-687.339	-118.500	-0.290	-0.052
-686.324	146.061	-0.115	0.156
-685.310	-77.024	0.088	-0.031
-684.295	-200.000	0.050	0.271
-683.281	136.267	-0.056	0.073
-682.266	-200.000	0.023	-0.277
-681.251	-200.000	0.008	-0.198
-680.237	80.378	-0.142	0.154
-679.222	29.655	-0.226	-0.194
-678.208	327.488	0.180	0.348
-677.193	-96.242	0.388	0.103
-676.178	-37.254	-0.331	0.178
-675.164	-52.682	0.108	0.050
-674.149	-200.000	0.001	0.383
-673.135	-124.013	-0.048	0.008
-672.120	-4.799	0.247	-0.172
-671.105	445.689	0.130	0.287
-670.091	-92.580	0.202	0.057
-669.076	381.050	-0.147	-0.304
-668.062	227.476	0.086	-0.141
-667.047	-51.603	-0.047	0.022
-666.032	-71.765	0.124	0.047
-665.018	4.331	0.213	0.157
-664.003	52.940	-0.240	0.231
-662.989	800.000	-0.010	0.033
-661.974	55.138	0.200	-0.194
-660.959	254.574	0.181	0.311
-659.945	41.332	-0.146	0.133
-658.930	-128.513	0.445	-0.064
-657.916	-157.666	0.272	0.016
-656.901	88.596	-0.117	-0.130
-655.886	-87.630	-0.273	0.083
-654.872	13.197	0.097	-0.076
-653.857	-83.791	0.238	-0.076
-652.843	13.064	-0.067	-0.052
-651.828	-200.000	0.026	-0.201
-650.814	-100.922	0.222	-0.055
-649.799	-162.131	0.126	0.006
-648.784	632.810	-0.069	-0.177
-647.770	67.555	-0.240	0.247
-646.755	-11.363	-0.376	0.249
-645.741	-200.000	-0.011	-0.163
-644.726	-87.559	0.317	-0.096
-643.711	-10.507	-0.274	-0.183
-642.697	800.000	-0.023	0.087
-641.682	44.206	0.037	-0.034
-640.668	-83.992	-0.199	0.064
-639.653	49.243	0.146	-0.138
-638.638	-200.000	0.002	-0.279
-637.624	-134.665	-0.197	-0.024
-636.609	-200.000	0.018	0.091
-635.595	112.446	0.108	0.131
-634.580	277.032	-0.160	-0.287
-633.565	-11.179	0.112	0.074
-632.551	19.161	0.237	0.191
-631.536	93.932	-0.120	0.136
-630.522	-145.606	0.236	0.021
-629.507	-72.579	-0.188	0.070
-628.492	-103.445	0.202	0.048
-627.478	267.641	0.068	0.119
-626.463	-86.608	0.132	-0.041
-625.449	424.916	-0.072	-0.155
-624.434	548.825	-0.141	-0.339
-623.419	-23.099	0.045	0.027
-622.405	-200.000	-0.013	-0.098
-621.390	-96.266	-0.189	-0.050
-620.376	340.964	0.106	0.208
-619.361	-138.733	-0.155	0.017
-618.346	-49.312	-0.196	0.094
-617.332	-61.002	0.330	0.140
-616.317	-14.912	0.110	0.071
-615.303	-200.000	0.050	0.290
-614.288	800.000	-0.061	-0.221
-613.273	170.059	0.165	-0.237
-612.259	13.154	0.204	-0.159
-611.244	-99.034	-0.213	0.054
-610.230	-200.000	0.085	0.444
-609.215	-18.877	0.179	-0.112
-608.201	-109.353	-0.173	-0.037
-607.186	-200.000	0.019	0.107
-606.171	-151.367	-0.161	-0.012
-605.157	119.051	0.209	0.259
-604.142	-200.000	-0.089	0.423
-603.128	-200.000	0.049	-0.248
-602.113	-13.399	-0.203	-0.132
-601.098	800.000	-0.108	-0.304
-600.084	-48.977	-0.208	-0.100
-599.069	-100.928	-0.114	-0.028
-598.055	-103.216	0.420	-0.100
-597.040	-90.779	-0.359	0.104
-596.025	-128.940	-0.182	-0.026
-595.011	241.088	0.267	-0.447
-593.996	-54.480	-0.134	0.061
-592.982	-159.771	-0.158	0.009
-591.967	-200.000	-0.007	-0.118
-590.952	-200.000	0.072	-0.440
-589.938	27.937	-0.035	-0.030
-588.923	-120.560	-0.222	-0.038
-587.909	-200.000	0.008	0.058
-586.894	-127.110	0.206	0.030
-585.879	526.319	0.117	0.276
-584.865	-200.000	-0.037	0.272
-583.850	-200.000	-0.003	0.069
-582.836	0.040	-0.231	-0.165
-581.821	8.190	0.105	0.079
-580.806	-88.534	0.170	0.051
-579.792	-82.253	0.136	-0.045
-578.777	208.768	-0.102	0.161
-577.763	-108.800	0.186	-0.040
-576.748	800.000	-0.081	0.317
-575.733	531.178	-0.051	-0.120
-574.719	15.948	-0.064	-0.051
-573.704	142.193	0.149	-0.199
-572.690	193.315	-0.157	-0.238
-571.675	-200.000	0.049	0.416
-570.661	60.904	0.221	-0.219
-569.646	711.496	-0.071	0.190
-568.631	357.534	-0.050	0.099
-567.617	-75.114	0.166	-0.060
-566.602	-16.169	0.443	-0.282
-565.588	75.776	-0.120	-0.127
-564.573	-73.296	-0.349	-0.128
-563.558	800.000	-0.042	-0.176
-562.544	118.423	0.068	-0.084
-561.529	-121.959	0.217	-0.036
-560.515	-200.000	0.020	0.131
-559.500	75.321	-0.497	-0.525
-558.485	261.262	0.053	-0.092
-557.471	800.000	-0.058	-0.205
-556.456	170.531	-0.172	-0.247
-555.442	-73.360	-0.404	-0.148
-554.427	-137.884	-0.183	0.020
-553.412	-159.674	-0.094	0.005
-552.398	-125.784	-0.112	-0.017
-551.383	-146.724	0.110	0.009
-550.369	800.000	0.118	0.370
-549.354	485.168	0.025	0.056
-548.339	79.607	0.137	0.147
-547.325	800.000	0.011	-0.039
-546.310	-200.000	-0.060	0.291
-545.296	-134.182	-0.578	-0.071
-544.281	-108.082	-0.249	-0.054
-543.266	-200.000	-0.013	-0.233
-542.252	444.652	-0.053	0.117
-541.237	-200.000	-0.042	0.246
-540.223	-128.751	-0.077	-0.011
-539.208	-93.905	0.077	-0.021
-538.193	-55.245	-0.231	-0.104
-537.179	-132.397	0.168	0.022
-536.164	-200.000	0.017	-0.297
-535.150	-36.801	-0.071	0.038
-534.135	429.623	-0.081	0.175
-533.121	0.734	-0.055	0.039
-532.106	800.000	0.068	0.228
-531.091	-15.037	0.399	-0.256
-530.077	-200.000	0.035	-0.438
-529.062	86.056	-0.168	0.185
-528.048	-79.727	-0.104	0.035
-527.033	230.635	0.103	0.168
-526.018	-26.551	-0.136	-0.080
-525.004	128.884	0.117	-0.150
-523.989	-200.000	-0.011	0.140
-522.975	110.368	0.218	-0.262
-521.960	-21.565	0.241	-0.147
-520.945	-41.488	-0.371	-0.191
-519.931	-24.034	-0.250	-0.150
-518.916	-200.000	-0.009	0.275
-517.902	113.662	0.158	-0.192
-516.887	-200.000	-0.012	0.157
-515.872	-163.670	0.268	-0.013
-514.858	257.967	0.038	0.066
-513.843	584.027	0.150	0.368
-512.829	800.000	-0.112	-0.330
-511.814	-135.747	-0.118	0.014
-510.799	126.157	-0.156	0.198
-509.785	318.402	0.046	-0.087
-508.770	-4.691	0.209	0.144
-507.756	-11.474	0.097	-0.064
-506.741	84.719	0.168	0.184
-505.726	607.408	0.035	0.088
-504.712	-91.500	0.146	0.042
-503.697	-17.227	-0.297	-0.187
-502.683	191.729	-0.129	0.194
-501.668	426.242	0.213	-0.459
-500.653	-200.000	-0.035	-0.155
-499.639	-200.000	-0.000	0.035
-498.624	-45.747	0.109	-0.054
-497.610	291.353	-0.140	-0.255
-496.595	783.290	-0.016	-0.043
-495.581	311.296	-0.123	-0.230
-494.566	-200.000	0.006	0.086
-493.551	-167.204	-0.349	-0.014
-492.537	27.748	-0.319	-0.268
-491.522	247.036	0.027	-0.045
-490.508	-82.286	-0.222	0.072
-489.493	-200.000	0.009	0.097
-488.478	185.514	0.144	0.214
-487.464	211.752	0.096	0.151
-486.449	-130.746	-0.057	-0.008
-485.435	-65.690	-0.173	0.069
-484.420	-31.287	-0.166	0.093
-483.405	-200.000	0.029	0.193
-482.391	-15.603	-0.170	0.108
-481.376	-64.186	-0.115	0.047
-480.362	112.699	-0.116	-0.140
-479.347	-200.000	0.005	-0.031
-478.332	187.785	0.070	-0.104
-477.318	255.178	-0.026	-0.045
-476.303	-200.000	0.029	0.140
-475.289	-98.624	-0.159	0.041
-474.274	-200.000	0.015	0.293
-473.259	-86.017	0.204	-0.063
-472.245	95.581	0.189	0.215
-471.230	272.819	0.168	-0.296
-470.216	-143.979	0.038	0.004
-469.201	-200.000	0.002	0.475
-468.186	-200.000	0.005	0.064
-467.172	-200.000	-0.259	0.001
-466.157	-200.000	0.022	0.109
-465.143	-61.933	0.206	-0.086
-464.128	669.385	-0.059	-0.153
-463.113	37.830	0.143	-0.127
-462.099	123.901	-0.118	0.148
-461.084	-141.554	0.132	0.013
-460.070	-98.863	0.144	0.037
-459.055	238.643	0.116	0.192
-458.040	7.655	0.260	-0.194
-457.026	308.528	-0.032	-0.060
-456.011	131.338	-0.110	0.141
-454.997	-200.000	0.035	-0.429
-453.982	493.397	0.072	0.164
-452.968	800.000	-0.118	-0.398
-451.953	-34.804	-0.190	-0.104
-450.938	276.798	-0.095	-0.168
-449.924	-98.244	-0.197	-0.050
-448.909	612.325	-0.090	-0.226
-447.895	-90.746	0.409	0.118
-446.880	106.963	0.158	-0.187
-445.865	184.996	-0.069	-0.102
-444.851	800.000	-0.041	-0.146
-443.836	-141.219	-0.223	-0.023
-442.822	-200.000	0.008	-0.236
-441.807	-164.510	-0.039	-0.002
-440.792	600.538	0.025	0.062
-439.778	-95.324	-0.202	-0.054
-438.763	-80.895	0.057	-0.019
-437.749	344.294	0.140	0.274
-436.734	800.000	0.080	0.317
-435.719	202.359	0.092	-0.141
-434.705	-109.511	-0.229	0.048
-433.690	-185.454	-0.214	0.003
-432.676	-200.000	0.032	0.297
-431.661	-200.000	0.029	0.207
-430.646	-149.436	-0.321	-0.025
-429.632	800.000	-0.026	0.086
-428.617	-59.173	-0.161	0.069
-427.603	134.491	0.075	-0.096
-426.588	-200.000	-0.038	0.197
-425.573	-200.000	0.012	0.418
-424.559	-68.426	0.061	0.024
-423.544	357.829	0.181	0.361
-422.530	-200.000	0.056	0.296
-421.515	424.230	-0.091	-0.196
-420.500	-76.447	0.342	0.120
-419.486	-200.000	-0.007	0.341
-418.471	-200.000	0.028	-0.187
-417.457	-200.000	0.002	0.283
-416.442	-116.248	-0.162	-0.030
-415.428	-200.000	0.060	-0.267
-414.413	-200.000	-0.025	-0.380
-413.398	7.845	0.175	-0.131
-412.384	-181.690	0.107	0.002
-411.369	-7.506	-0.050	0.034
-410.355	-200.000	0.040	-0.180
-409.340	73.458	-0.284	-0.296
-408.325	-200.000	0.100	0.475
-407.311	402.507	-0.118	0.247
-406.296	76.196	-0.138	-0.146
-405.282	-4.871	-0.086	-0.059
-404.267	-99.002	0.199	0.050
-403.252	-200.000	-0.027	0.143
-402.238	31.025	-0.306	0.261
-401.223	156.543	0.130	0.179
-400.209	65.705	0.039	0.039
-399.194	145.100	0.109	-0.145
-398.179	-3.594	-0.160	-0.111
-397.165	-55.934	0.135	0.060
-396.150	34.358	-0.095	0.082
-395.136	-200.000	0.034	-0.149
-394.121	506.432	0.161	0.371
-393.106	-200.000	0.013	-0.277
-392.092	-7.976	0.227	-0.153
-391.077	191.034	-0.055	-0.082
-390.063	-200.000	-0.014	-0.270
-389.048	-52.389	0.056	0.026
-388.033	-59.223	0.218	-0.093
-387.019	-200.000	-0.045	-0.200
-386.004	-200.000	0.011	-0.056
-384.990	569.868	0.086	-0.209
-383.975	61.847	0.108	-0.107
-382.960	231.912	0.175	0.286
-381.946	800.000	-0.015	0.060
-380.931	-86.568	0.131	0.040
-379.917	12.982	-0.235	-0.181
-378.902	231.683	-0.136	-0.222
-377.888	-94.650	0.151	-0.041
-376.873	-200.000	-0.025	0.179
-375.858	27.346	-0.110	-0.092
-374.844	-138.895	-0.250	-0.027
-373.829	-200.000	-0.013	0.270
-372.815	-112.543	0.179	-0.035
-371.800	-200.000	-0.009	0.198
-370.785	-200.000	0.001	0.088
-369.771	-3.516	-0.168	0.116
-368.756	-89.511	-0.190	0.056
-367.742	374.962	-0.176	-0.357
-366.727	458.318	-0.118	0.262
-365.712	800.000	-0.038	0.155
-364.698	800.000	0.051	-0.161
-363.683	-0.350	-0.179	0.126
-362.669	106.702	-0.164	-0.194
-361.654	111.843	0.172	0.206
-360.639	-43.420	0.228	0.115
-359.625	-131.741	-0.153	-0.020
-358.610	-12.555	-0.198	0.128
-357.596	-71.193	-0.324	0.121
-356.581	-95.790	0.258	-0.068
-355.566	454.239	0.165	0.364
-354.552	-44.233	0.128	-0.064
-353.537	-200.000	0.019	0.417
-352.523	134.124	-0.088	-0.113
-351.508	-200.000	0.004	-0.355
-350.493	-200.000	-0.015	0.272
-349.479	-1.427	0.199	0.139
-348.464	558.633	-0.073	-0.175
-347.450	237.929	0.165	-0.273
-346.435	-58.776	0.066	-0.028
-345.420	-200.000	0.016	-0.198
-344.406	-111.541	-0.174	-0.035
-343.391	-144.688	0.283	-0.026
-342.377	323.611	0.071	-0.135
-341.362	411.019	0.091	-0.192
-340.348	-200.000	-0.034	0.311
-339.333	299.589	0.097	-0.177
-338.318	-104.283	-0.569	0.131
-337.304	-88.615	0.287	-0.085
-336.289	-145.167	0.117	-0.011
-335.275	-96.453	0.190	0.050
-334.260	137.819	-0.170	0.221
-333.245	800.000	0.065	0.230
-332.231	-200.000	0.030	0.156
-331.216	106.298	0.065	-0.077
-330.202	-4.580	-0.087	-0.059
-329.187	529.269	-0.200	0.469
-328.172	279.293	0.164	0.290
-327.158	-110.515	0.182	0.037
-326.143	20.542	0.273	-0.220
-325.129	230.312	0.030	0.049
-324.114	-155.686	-0.077	-0.005
-323.099	-166.535	-0.318	0.013
-322.085	-107.020	-0.073	0.016
-321.070	23.868	0.110	-0.090
-320.056	43.130	-0.086	0.077
-319.041	-137.848	-0.092	0.010
-318.026	87.074	-0.187	-0.205
-317.012	-200.000	0.048	-0.257
-315.997	-200.000	-0.035	-0.184
-314.983	376.949	-0.016	0.032
-313.968	118.426	0.044	0.054
-312.953	-167.461	0.109	-0.004
-311.939	-89.569	0.180	0.052
-310.924	349.590	0.041	0.081
-309.910	-200.000	-0.007	0.192
-308.895	-148.148	0.195	0.016
-307.880	77.277	-0.115	-0.122
-306.866	-200.000	0.028	-0.204
-305.851	-144.860	0.201	-0.018
-304.837	519.366	0.064	-0.149
-303.822	252.990	0.136	-0.231
-302.807	262.712	-0.177	0.305
-301.793	-67.684	-0.272	-0.106
-300.778	28.293	0.061	0.051
-299.764	-118.470	0.165	0.029
-298.749	-102.840	-0.275	-0.065
-297.735	-200.000	0.008	-0.120
-296.720	-120.436	-0.393	-0.066
-295.705	-85.061	-0.077	-0.024
-294.691	-14.391	-0.318	-0.203
-293.676	336.693	0.031	0.059
-292.662	-140.232	0.044	0.005
-291.647	800.000	0.040	-0.136
-290.632	-108.672	-0.278	-0.059
-289.618	-200.000	-0.025	0.220
-288.603	211.162	0.143	0.223
-287.589	70.203	0.133	-0.136
-286.574	-128.561	0.042	0.006
-285.559	168.542	-0.140	0.198
-284.545	17.665	0.232	-0.183
-283.530	296.167	-0.056	0.102
-282.516	-77.928	0.278	-0.095
-281.501	-200.000	-0.002	-0.206
-280.486	642.052	0.056	0.142
-279.472	-51.919	-0.118	0.054
-278.457	550.197	0.095	-0.225
-277.443	-88.652	0.328	-0.097
-276.428	-97.138	-0.257	-0.067
-275.413	36.504	-0.088	0.077
-274.399	-1.873	-0.130	0.090
-273.384	449.278	-0.034	0.075
-272.370	121.466	-0.168	0.207
-271.355	288.619	0.025	-0.045
-270.340	-157.219	0.449	0.027
-269.326	250.537	0.075	-0.126
-268.311	-23.967	0.228	0.135
-267.297	2.319	-0.084	0.060
-266.282	-29.553	-0.353	0.200
-265.267	800.000	-0.037	-0.152
-264.253	-72.757	0.508	0.185
-263.238	57.351	0.017	-0.016
-262.224	-200.000	-0.074	-0.388
-261.209	-200.000	-0.027	-0.177
-260.195	443.590	0.108	-0.233
-259.180	267.629	0.189	0.327
-258.165	51.043	-0.045	0.043
-257.151	14.481	0.185	0.143
-256.136	-200.000	0.047	-0.253
-255.122	800.000	0.003	0.013
-254.107	-116.589	-0.115	-0.021
-253.092	800.000	-0.040	-0.121
-252.078	-200.000	-0.070	-0.314
-251.063	-141.338	0.201	-0.020
-250.049	-143.110	0.160	-0.015
-249.034	-57.782	0.122	0.053
-248.019	-70.804	-0.079	-0.030
-247.005	-46.897	0.265	-0.128
-245.990	-133.942	-0.199	0.024
-244.976	-200.000	0.015	-0.091
-243.961	161.799	-0.034	0.047
-242.946	-40.953	-0.468	-0.240
-241.932	664.640	0.070	0.178
-240.917	-65.380	0.254	0.101
-239.903	800.000	-0.032	0.095
-238.888	-102.170	0.346	0.082
-237.873	115.188	0.180	-0.218
-236.859	-144.035	0.337	-0.031
-235.844	800.000	0.084	0.290
-234.830	800.000	0.013	-0.036
-233.815	-79.779	0.347	0.115
-232.800	74.210	-0.259	0.269
-231.786	-53.649	0.293	0.133
-230.771	210.775	-0.160	0.248
-229.757	-200.000	0.010	-0.183
-228.742	-103.063	-0.157	-0.037
-227.727	-107.103	0.131	-0.029
-226.713	-200.000	0.005	0.234
-225.698	184.718	0.085	0.125
-224.684	785.168	-0.065	-0.177
-223.669	136.791	0.083	-0.108
-222.655	-81.084	-0.297	0.097
-221.640	23.749	0.084	0.068
-220.625	-121.635	0.085	-0.014
-219.611	-200.000	-0.009	-0.080
-218.596	-73.564	-0.049	-0.018
-217.582	162.255	-0.118	-0.164
-216.567	-125.055	0.135	0.020
-215.552	-138.066	-0.185	-0.020
-214.538	269.205	-0.162	-0.281
-213.523	-103.306	-0.303	0.071
-212.509	-200.000	0.030	-0.187
-211.494	158.449	-0.094	0.128
-210.479	482.438	-0.064	-0.144
-209.465	-146.291	-0.346	-0.030
-208.450	104.324	0.041	0.048
-207.436	-200.000	-0.001	-0.160
-206.421	-53.178	-0.219	0.099
-205.406	132.644	0.232	0.296
-204.392	800.000	0.056	-0.189
-203.377	800.000	0.093	0.323
-202.363	-14.349	0.125	0.079
-201.348	-9.335	0.078	0.052
-200.333	18.212	0.207	-0.163
-199.319	59.395	-0.099	0.096
-198.304	-37.231	0.255	-0.135
-197.290	113.817	0.128	0.154
-196.275	-113.706	0.192	0.037
-195.260	-112.459	0.195	-0.038
-194.246	250.731	-0.174	0.293
-193.231	-105.892	0.053	-0.012
-192.217	-62.252	0.179	0.074
-191.202	-122.375	-0.396	-0.064
-190.187	-66.359	0.376	0.148
-189.173	-200.000	-0.128	0.000
-188.158	-200.000	-0.001	0.065
-187.144	7.950	0.118	0.088
-186.129	112.850	0.130	0.156
-185.114	-175.783	-0.169	-0.004
-184.100	345.091	0.020	0.040
-183.085	-97.725	-0.236	0.060
-182.071	176.164	-0.051	0.073
-181.056	-44.200	0.184	0.091
-180.042	-0.174	-0.193	-0.136
-179.027	319.726	0.058	-0.109
-178.012	78.229	-0.198	0.209
-176.998	1.237	0.082	0.058
-175.983	277.512	0.181	-0.317
-174.969	800.000	0.158	0.435
-173.954	77.231	-0.108	-0.113
-172.939	-200.000	-0.040	0.329
-171.925	453.299	-0.071	-0.154
-170.910	-44.652	0.249	0.123
-169.896	169.486	0.089	-0.126
-168.881	81.645	-0.104	0.111
-167.866	-200.000	-0.034	-0.240
-166.852	409.421	-0.077	-0.160
-165.837	187.872	-0.078	-0.115
-164.823	515.030	0.017	-0.038
-163.808	181.044	-0.192	-0.278
-162.793	800.000	0.005	0.019
-161.779	304.534	0.061	0.112
-160.764	453.004	0.028	0.062
-159.750	-200.000	-0.021	-0.286
-158.735	261.922	-0.051	0.087
-157.720	-83.174	0.421	0.134
-156.706	291.550	0.112	0.202
-155.691	-18.909	0.041	-0.025
-154.677	-53.091	0.179	0.081
-153.662	-141.400	-0.187	-0.019
-152.647	-32.491	0.057	0.031
-151.633	-32.995	0.236	-0.129
-150.618	800.000	0.099	-0.369
-149.604	218.376	0.090	-0.141
-148.589	114.962	-0.165	0.198
-147.574	800.000	-0.046	-0.133
-146.560	8.309	-0.305	0.226
-145.545	-190.813	0.085	-0.001
-144.531	72.349	-0.100	0.103
-143.516	-147.594	0.200	0.017
-142.502	190.470	-0.164	0.242
-141.487	11.789	0.133	0.101
-140.472	338.147	0.165	0.316
-139.458	800.000	-0.036	-0.134
-138.443	182.742	0.125	-0.182
-137.429	-200.000	-0.033	-0.223
-136.414	515.733	0.236	0.544
-135.399	547.001	0.032	-0.076
-134.385	37.825	-0.259	0.227
-133.370	227.207	0.080	-0.129
-132.356	37.485	-0.167	-0.146
-131.341	-117.947	0.387	0.068
-130.326	630.217	-0.109	-0.271
-129.312	108.077	-0.191	0.224
-128.297	41.868	0.097	-0.086
-127.283	-200.000	-0.025	-0.266
-126.268	-58.508	0.208	0.089
-125.253	-133.912	-0.289	-0.035
-124.239	-200.000	-0.081	-0.000
-123.224	210.364	-0.038	-0.060
-122.210	-89.963	0.233	0.067
-121.195	-101.878	0.274	0.065
