DTS Sentinel unit serial number:	SN413079Multiplexer serial number:	ORYXHardware model number:	OX4-SRSoftware version number:	ORYX F/W v4.00 Oryx Data Collector v3.7.2.0data status	okinstallation	princeton_trtdifferential loss correction	single-endedforward channel	channel 1reverse channel	N/Adate	2019/09/17time	16:54:35forward acquisition time	60.00reverse acquisition time	0.00gamma	496.2192k internal	0.2292k external	0.2292temperature offset calibration	0.9952default loss term (dB/km)	0.3790temperature slope calibration	1.0000multiplexer offset coefficient	1.0000multiplexer slope coefficient	1.0000fibre end	0.00T internal ref (°C)	42.37T ext. ref 1 (°C)	0.36T ext. ref 2 (°C)	38.71length (m)	temperature (°C)	Stokes	anti-Stokes-747.200	561.511	0.135	0.334
-746.185	125.086	-0.083	0.107
-745.171	332.827	-0.095	-0.188
-744.156	-200.000	0.043	0.296
-743.142	140.365	-0.057	-0.077
-742.127	242.168	-0.079	0.135
-741.112	100.194	-0.080	0.095
-740.098	-131.843	-0.032	0.004
-739.083	-200.000	0.036	0.306
-738.069	-171.525	-0.514	0.017
-737.054	-59.998	0.182	0.079
-736.039	113.919	0.026	-0.033
-735.025	-9.937	-0.234	0.160
-734.010	-58.542	-0.034	0.015
-732.996	-53.223	-0.181	-0.085
-731.981	-105.077	-0.092	0.021
-730.966	74.212	-0.241	0.259
-729.952	65.849	-0.190	-0.197
-728.937	174.829	-0.157	0.233
-727.923	-70.889	-0.220	0.085
-726.908	578.032	-0.036	0.091
-725.894	-20.791	0.123	0.077
-724.879	-200.000	-0.050	-0.452
-723.864	-39.849	-0.131	0.070
-722.850	-85.098	-0.076	-0.024
-721.835	-65.577	0.045	0.019
-720.821	-200.000	-0.035	-0.214
-719.806	-22.865	-0.428	-0.264
-718.791	-200.000	-0.044	-0.210
-717.777	671.404	-0.216	-0.572
-716.762	112.094	0.069	0.085
-715.748	190.231	-0.260	0.399
-714.733	-50.882	-0.194	0.093
-713.718	50.900	-0.068	0.066
-712.704	-63.223	-0.328	-0.138
-711.689	-73.962	-0.208	-0.077
-710.675	-200.000	0.030	0.170
-709.660	800.000	-0.047	0.182
-708.645	-143.938	-0.138	0.013
-707.631	-200.000	-0.065	0.329
-706.616	220.779	0.064	0.105
-705.602	456.287	-0.140	-0.319
-704.587	-4.987	-0.272	-0.192
-703.572	353.098	-0.139	-0.281
-702.558	800.000	0.045	-0.140
-701.543	-113.776	-0.207	-0.041
-700.529	-83.529	0.045	0.015
-699.514	362.268	-0.156	0.319
-698.499	-72.037	0.323	0.123
-697.485	-200.000	-0.003	-0.071
-696.470	-200.000	0.018	0.236
-695.456	113.562	0.260	-0.323
-694.441	-54.385	-0.162	0.075
-693.426	190.097	0.162	-0.249
-692.412	16.254	0.085	-0.069
-691.397	-128.750	0.135	-0.020
-690.383	495.669	-0.083	0.195
-689.368	-70.863	0.401	0.154
-688.354	-106.649	0.295	-0.067
-687.339	-190.126	-0.306	-0.003
-686.324	-84.888	-0.116	0.037
-685.310	64.334	-0.414	-0.426
-684.295	-45.219	-0.041	0.021
-683.281	6.940	-0.180	-0.137
-682.266	-200.000	-0.017	0.222
-681.251	35.697	-0.137	-0.123
-680.237	88.264	-0.056	-0.063
-679.222	310.905	-0.093	-0.177
-678.208	800.000	0.037	-0.107
-677.193	800.000	-0.056	-0.218
-676.178	-138.270	0.164	-0.019
-675.164	-200.000	-0.034	0.392
-674.149	96.704	-0.144	-0.169
-673.135	800.000	0.123	-0.483
-672.120	-36.047	-0.296	-0.163
-671.105	216.897	0.091	-0.148
-670.091	800.000	-0.067	-0.256
-669.076	101.739	-0.221	-0.262
-668.062	44.527	0.085	-0.080
-667.047	647.615	0.026	0.067
-666.032	-200.000	0.019	0.302
-665.018	26.760	-0.212	-0.181
-664.003	-9.983	0.186	-0.126
-662.989	-143.803	0.263	0.025
-661.974	275.027	-0.092	-0.166
-660.959	-72.110	0.042	0.016
-659.945	-200.000	-0.039	-0.188
-658.930	219.749	-0.118	0.193
-657.916	116.105	0.236	0.295
-656.901	79.967	-0.181	0.199
-655.886	-132.006	-0.110	0.015
-654.872	53.154	0.101	-0.099
-653.857	-196.886	-0.239	-0.002
-652.843	-159.380	-0.262	0.015
-651.828	261.777	0.142	0.251
-650.814	-125.413	0.202	-0.031
-649.799	-7.645	0.288	-0.198
-648.784	-26.484	0.157	0.094
-647.770	5.220	-0.060	0.045
-646.755	-122.023	-0.138	0.023
-645.741	-200.000	-0.026	0.142
-644.726	134.151	0.223	0.295
-643.711	465.204	0.037	-0.085
-642.697	138.136	-0.210	-0.280
-641.682	-200.000	-0.027	-0.221
-640.668	-118.111	0.410	0.075
-639.653	-89.064	-0.294	0.089
-638.638	-65.212	0.348	0.143
-637.624	-36.500	-0.249	-0.136
-636.609	-47.941	0.103	-0.051
-635.595	16.238	-0.243	0.195
-634.580	-200.000	0.028	0.320
-633.565	616.650	0.039	0.100
-632.551	-200.000	0.045	0.258
-631.536	-198.171	-0.305	0.002
-630.522	139.881	0.161	0.216
-629.507	13.746	0.162	-0.128
-628.492	800.000	0.092	-0.317
-627.478	800.000	-0.106	-0.334
-626.463	41.145	-0.078	-0.071
-625.449	14.951	-0.182	-0.145
-624.434	-78.572	-0.321	-0.112
-623.419	-200.000	0.029	0.276
-622.405	50.786	-0.022	0.021
-621.390	62.690	0.226	-0.230
-620.376	-70.659	-0.275	0.106
-619.361	800.000	-0.062	-0.194
-618.346	-26.617	-0.224	-0.134
-617.332	145.290	-0.190	0.258
-616.317	160.787	0.110	0.156
-615.303	609.912	0.150	0.381
-614.288	-23.464	0.337	-0.206
-613.273	653.874	-0.137	-0.358
-612.259	207.081	-0.014	0.022
-611.244	53.494	-0.116	0.114
-610.230	93.156	-0.127	0.147
-609.215	-200.000	-0.029	-0.172
-608.201	156.064	0.262	0.368
-607.186	-146.347	0.175	-0.016
-606.171	118.657	0.072	-0.090
-605.157	-200.000	0.032	-0.182
-604.142	252.618	-0.072	-0.125
-603.128	193.062	0.125	0.193
-602.113	-200.000	0.034	0.211
-601.098	-200.000	0.033	-0.243
-600.084	800.000	-0.038	-0.151
-599.069	-200.000	0.094	-0.433
-598.055	-29.441	0.065	0.038
-597.040	-21.061	0.299	0.186
-596.025	-200.000	0.049	0.293
-595.011	48.740	0.286	-0.273
-593.996	39.526	-0.248	0.227
-592.982	250.332	-0.154	0.266
-591.967	-34.263	-0.145	0.081
-590.952	800.000	-0.126	0.408
-589.938	57.974	-0.134	-0.134
-588.923	-200.000	-0.067	0.333
-587.909	472.492	-0.037	-0.084
-586.894	86.500	0.196	-0.219
-585.879	-140.164	0.076	-0.008
-584.865	83.590	0.083	-0.092
-583.850	-38.062	0.038	-0.021
-582.836	-20.695	-0.117	0.073
-581.821	232.406	-0.051	0.086
-580.806	800.000	-0.028	0.097
-579.792	308.312	0.169	0.320
-578.777	-13.363	0.207	-0.137
-577.763	239.460	-0.114	0.193
-576.748	-73.025	0.213	0.080
-575.733	-200.000	0.054	0.253
-574.719	115.068	-0.130	-0.162
-573.704	-128.915	0.312	0.045
-572.690	-79.108	0.308	-0.106
-571.675	-62.090	-0.091	-0.039
-570.661	800.000	-0.033	-0.120
-569.646	-200.000	-0.002	-0.081
-568.631	-43.776	0.112	-0.057
-567.617	800.000	-0.086	-0.248
-566.602	-184.715	-0.326	-0.005
-565.588	800.000	-0.039	-0.112
-564.573	-177.277	0.158	-0.004
-563.558	800.000	0.028	-0.081
-562.544	-123.395	-0.252	-0.041
-561.529	449.891	-0.088	-0.198
-560.515	-200.000	-0.002	-0.106
-559.500	800.000	-0.096	-0.284
-558.485	-128.900	0.070	-0.010
-557.471	-200.000	0.028	-0.421
-556.456	-200.000	0.025	0.182
-555.442	-75.483	-0.341	0.123
-554.427	800.000	-0.018	0.056
-553.412	-16.880	0.130	0.083
-552.398	-24.759	0.325	0.197
-551.383	8.397	-0.045	-0.034
-550.369	-151.921	0.169	0.013
-549.354	-161.329	0.063	-0.003
-548.339	150.254	-0.373	0.515
-547.325	44.584	0.172	-0.160
-546.310	-200.000	-0.006	0.110
-545.296	41.299	0.296	0.272
-544.281	194.872	0.140	-0.216
-543.266	-17.896	0.055	-0.035
-542.252	-200.000	-0.019	0.115
-541.237	529.330	-0.056	-0.133
-540.223	-200.000	0.044	-0.512
-539.208	-74.502	0.313	-0.114
-538.193	435.980	0.067	-0.148
-537.179	73.369	-0.144	-0.153
-536.164	-100.262	-0.212	0.054
-535.150	-113.925	0.248	0.049
-534.135	32.441	-0.080	0.070
-533.121	-99.148	-0.150	-0.039
-532.106	-116.763	-0.140	-0.026
-531.091	-200.000	-0.042	-0.349
-530.077	-200.000	-0.044	-0.447
-529.062	58.902	-0.107	-0.107
-528.048	7.729	-0.227	0.173
-527.033	-137.141	0.133	0.015
-526.018	681.064	-0.110	-0.290
-525.004	-116.803	-0.353	0.066
-523.989	-200.000	0.003	-0.066
-522.975	417.140	0.136	-0.295
-521.960	-152.442	-0.204	0.015
-520.945	253.956	0.053	-0.092
-519.931	-200.000	0.042	-0.341
-518.916	23.210	0.209	0.174
-517.902	284.297	-0.135	-0.247
-516.887	-139.025	-0.204	-0.022
-515.872	-51.385	0.191	-0.091
-514.858	-39.751	-0.288	0.152
-513.843	-200.000	0.008	0.292
-512.829	-200.000	0.017	-0.082
-511.814	-130.468	0.446	-0.061
-510.799	67.665	0.316	-0.328
-509.785	289.073	-0.081	0.148
-508.770	-14.534	0.197	-0.129
-507.756	-30.697	-0.384	-0.221
-506.741	17.759	0.068	-0.055
-505.726	255.520	-0.108	-0.188
-504.712	-200.000	-0.071	-0.322
-503.697	578.506	-0.102	0.253
-502.683	87.394	-0.029	-0.032
-501.668	79.929	-0.195	0.213
-500.653	137.223	0.174	-0.230
-499.639	-58.552	0.334	-0.147
-498.624	-72.125	0.191	0.072
-497.610	800.000	0.061	0.217
-496.595	82.153	0.128	0.141
-495.581	-153.396	-0.032	0.002
-494.566	-59.551	0.143	-0.062
-493.551	-166.073	-0.510	0.022
-492.537	-85.245	0.108	0.034
-491.522	450.767	-0.029	-0.064
-490.508	-147.468	0.183	0.016
-489.493	528.097	-0.041	-0.099
-488.478	-200.000	-0.004	0.036
-487.464	307.809	0.135	0.254
-486.449	-17.802	-0.064	-0.041
-485.435	-96.839	0.181	0.048
-484.420	104.437	0.116	0.138
-483.405	-48.573	-0.116	-0.057
-482.391	424.017	-0.157	0.342
-481.376	-35.985	-0.087	-0.048
-480.362	800.000	-0.034	0.121
-479.347	500.065	-0.027	-0.064
-478.332	391.683	-0.178	0.374
-477.318	-122.008	0.134	0.022
-476.303	363.083	0.005	-0.010
-475.289	10.692	-0.252	0.195
-474.274	-63.957	-0.181	-0.075
-473.259	330.766	-0.097	0.189
-472.245	800.000	-0.043	-0.124
-471.230	-72.184	-0.013	-0.005
-470.216	-111.599	-0.310	-0.064
-469.201	-200.000	0.004	-0.155
-468.186	457.458	-0.033	-0.073
-467.172	-150.815	0.197	-0.015
-466.157	-200.000	0.029	-0.155
-465.143	10.733	0.050	0.039
-464.128	-74.595	0.076	-0.028
-463.113	-76.868	0.321	0.114
-462.099	-200.000	-0.026	0.350
-461.084	67.102	-0.251	0.259
-460.070	-141.149	0.087	-0.009
-459.055	251.890	0.100	-0.172
-458.040	-200.000	-0.017	-0.231
-457.026	369.417	0.072	-0.148
-456.011	-200.000	-0.004	0.077
-454.997	27.571	-0.110	-0.094
-453.982	-34.075	-0.322	0.179
-452.968	-200.000	0.013	0.138
-451.953	800.000	0.042	0.146
-450.938	-135.083	-0.276	-0.034
-449.924	-19.272	-0.068	0.042
-448.909	-112.947	-0.276	-0.055
-447.895	386.973	0.089	0.186
-446.880	-81.383	-0.340	0.114
-445.865	800.000	0.109	-0.315
-444.851	37.554	0.067	0.060
-443.836	-19.304	0.250	-0.157
-442.822	-93.090	0.168	-0.047
-441.807	31.388	-0.251	0.218
-440.792	-200.000	0.038	0.325
-439.778	363.540	0.190	-0.387
-438.763	89.443	0.129	-0.146
-437.749	-184.989	0.192	0.003
-436.734	544.998	0.012	-0.030
-435.719	800.000	-0.027	-0.087
-434.705	-46.788	0.115	0.057
-433.690	-109.647	-0.274	-0.058
-432.676	231.791	0.025	-0.042
-431.661	-174.570	0.115	-0.003
-430.646	91.725	-0.077	-0.088
-429.632	648.590	-0.045	-0.117
-428.617	197.225	0.073	0.113
-427.603	-103.294	-0.330	-0.079
-426.588	-12.947	0.044	-0.029
-425.573	80.185	-0.241	0.262
-424.559	21.889	0.137	-0.113
-423.544	-200.000	-0.007	-0.092
-422.530	-76.186	0.226	0.081
-421.515	394.230	-0.084	-0.177
-420.500	570.605	0.072	0.176
-419.486	185.808	-0.112	-0.168
-418.471	-200.000	-0.013	0.100
-417.457	10.910	-0.117	-0.090
-416.442	-200.000	0.003	0.176
-415.428	381.907	0.202	0.420
-414.413	-200.000	0.039	-0.175
-413.398	44.588	0.156	-0.145
-412.384	299.020	-0.060	-0.111
-411.369	30.393	-0.250	0.216
-410.355	-137.203	-0.117	0.013
-409.340	800.000	0.053	-0.235
-408.325	47.118	0.253	0.238
-407.311	-50.837	-0.404	-0.192
-406.296	-114.322	-0.233	0.045
-405.282	68.685	0.160	-0.166
-404.267	325.823	0.107	-0.206
-403.252	31.356	0.108	0.094
-402.238	-76.968	-0.251	0.088
-401.223	-62.634	-0.211	-0.088
-400.209	-200.000	-0.018	-0.121
-399.194	-141.165	0.100	-0.010
-398.179	34.818	0.305	0.269
-397.165	193.599	-0.047	0.071
-396.150	-112.679	-0.042	-0.008
-395.136	-96.445	0.283	-0.076
-394.121	-95.893	-0.094	0.025
-393.106	-165.185	-0.208	0.009
-392.092	800.000	-0.025	0.085
-391.077	-102.576	-0.183	0.044
-390.063	117.963	-0.296	-0.368
-389.048	-95.710	-0.104	0.028
-388.033	800.000	0.024	0.071
-387.019	-81.948	0.140	0.046
-386.004	-52.085	0.047	0.022
-384.990	90.658	0.229	-0.259
-383.975	467.116	-0.078	0.176
-382.960	169.635	0.079	-0.114
-381.946	-200.000	-0.025	-0.212
-380.931	14.646	0.316	-0.249
-379.917	-122.889	0.124	0.020
-378.902	-154.328	-0.206	-0.014
-377.888	-13.901	-0.221	0.144
-376.873	148.318	-0.132	0.179
-375.858	153.619	-0.166	0.230
-374.844	-51.401	-0.245	0.116
-373.829	109.022	-0.119	-0.144
-372.815	86.701	-0.179	0.200
-371.800	53.102	0.207	-0.200
-370.785	800.000	0.091	0.254
-369.771	130.645	-0.062	0.080
-368.756	91.981	0.340	0.387
-367.742	-132.139	0.170	0.022
-366.727	160.021	0.144	-0.203
-365.712	7.214	0.220	-0.165
-364.698	463.127	0.136	0.307
-363.683	-23.842	0.132	0.079
-362.669	-9.385	-0.282	0.190
-361.654	-200.000	0.014	-0.094
-360.639	-87.296	-0.340	-0.104
-359.625	-122.061	0.261	0.043
-358.610	-200.000	0.006	-0.025
-357.596	190.668	-0.210	-0.319
-356.581	-200.000	0.020	-0.264
-355.566	-81.091	0.234	-0.078
-354.552	569.386	-0.073	0.179
-353.537	459.902	-0.177	-0.396
-352.523	754.416	0.119	0.325
-351.508	9.648	0.156	0.119
-350.493	800.000	0.009	-0.025
-349.479	800.000	0.053	-0.201
-348.464	800.000	-0.016	0.064
-347.450	48.567	-0.050	-0.047
-346.435	-168.167	-0.150	-0.006
-345.420	-110.172	-0.207	-0.043
-344.406	-200.000	-0.076	-0.410
-343.391	800.000	-0.045	0.146
-342.377	184.807	-0.079	0.118
-341.362	-200.000	-0.038	-0.197
-340.348	282.516	-0.080	-0.144
-339.333	315.983	-0.113	0.214
-338.318	-66.832	0.214	-0.085
-337.304	-87.129	0.198	0.061
-336.289	-200.000	0.016	-0.093
-335.275	8.235	-0.262	0.198
-334.260	-108.628	-0.405	0.088
-333.245	-142.218	0.059	-0.006
-332.231	641.874	-0.236	-0.605
-331.216	284.220	0.044	-0.079
-330.202	-130.394	-0.231	-0.032
-329.187	54.248	-0.096	-0.093
-328.172	800.000	-0.065	0.213
-327.158	158.474	-0.103	0.144
-326.143	-29.268	0.284	0.164
-325.129	16.861	0.160	-0.128
-324.114	-132.977	-0.125	-0.016
-323.099	119.258	0.195	0.243
-322.085	-200.000	0.041	0.207
-321.070	161.562	0.054	0.076
-320.056	800.000	-0.026	0.100
-319.041	-200.000	0.051	0.430
-318.026	101.477	-0.086	0.100
-317.012	-161.252	0.381	0.020
-315.997	-52.285	0.093	0.043
-314.983	130.447	-0.028	0.036
-313.968	-200.000	-0.024	-0.228
-312.953	-115.706	-0.358	-0.068
-311.939	43.690	-0.034	0.032
-310.924	5.376	0.135	0.100
-309.910	420.443	-0.084	0.180
-308.895	-155.705	0.124	-0.008
-307.880	-200.000	-0.091	-0.449
-306.866	-148.303	0.182	0.015
-305.851	60.352	0.017	0.017
-304.837	85.817	-0.212	-0.235
-303.822	-147.711	0.510	0.043
-302.807	-128.705	0.117	0.017
-301.793	-69.491	0.202	0.078
-300.778	-200.000	-0.004	0.127
-299.764	10.395	0.073	0.056
-298.749	-145.026	-0.066	-0.006
-297.735	-172.244	-0.178	0.006
-296.720	800.000	0.053	0.198
-295.705	-18.993	-0.175	-0.110
-294.691	-1.746	0.347	-0.246
-293.676	699.509	-0.111	-0.293
-292.662	800.000	0.128	0.533
-291.647	-77.831	0.364	0.126
-290.632	-200.000	0.030	-0.334
-289.618	10.110	0.039	0.030
-288.603	-200.000	-0.003	-0.013
-287.589	-200.000	-0.016	0.227
-286.574	11.111	-0.180	-0.138
-285.559	322.511	-0.126	0.241
-284.545	129.574	-0.295	0.379
-283.530	640.842	-0.027	-0.068
-282.516	143.053	0.098	-0.131
-281.501	132.512	0.106	0.137
-280.486	800.000	0.074	-0.273
-279.472	-134.531	0.111	0.014
-278.457	600.945	0.060	0.150
-277.443	-172.009	-0.181	0.006
-276.428	520.376	0.170	-0.399
-275.413	-22.801	-0.356	-0.216
-274.399	30.665	0.237	0.204
-273.384	-7.214	0.107	-0.073
-272.370	-200.000	0.012	0.541
-271.355	800.000	0.038	0.154
-270.340	-60.477	0.308	-0.132
-269.326	800.000	-0.117	-0.329
-268.311	800.000	0.061	0.214
-267.297	-154.244	-0.144	0.010
-266.282	-68.232	-0.059	-0.023
-265.267	206.658	0.038	-0.060
-264.253	402.254	-0.114	0.240
-263.238	-200.000	0.043	0.199
-262.224	800.000	-0.043	-0.121
-261.209	-200.000	-0.003	-0.036
-260.195	119.275	0.018	-0.022
-259.180	-50.834	-0.242	0.114
-258.165	533.512	-0.175	-0.417
-257.151	-200.000	-0.002	-0.098
-256.136	800.000	0.095	-0.404
-255.122	-87.592	-0.152	-0.046
-254.107	10.102	0.072	-0.055
-253.092	95.679	-0.131	0.150
-252.078	86.839	-0.115	0.127
-251.063	709.717	-0.088	0.233
-250.049	38.778	-0.266	-0.239
-249.034	202.210	0.047	0.073
-248.019	-82.909	0.258	0.084
-247.005	-47.071	0.249	0.122
-245.990	119.022	0.019	-0.023
-244.976	32.052	-0.152	-0.131
-243.961	635.357	0.095	0.241
-242.946	-15.275	0.292	-0.187
-241.932	-105.702	-0.366	0.083
-240.917	-200.000	-0.050	-0.348
-239.903	-200.000	0.012	0.130
-238.888	-150.554	-0.446	-0.034
-237.873	-17.048	0.094	0.060
-236.859	-23.048	0.274	-0.166
-235.844	-200.000	-0.003	-0.129
-234.830	33.062	-0.111	0.096
-233.815	-10.974	0.240	-0.159
-232.800	-97.656	0.429	0.112
-231.786	111.589	0.071	-0.086
-230.771	-200.000	-0.029	0.180
-229.757	-116.433	0.422	-0.078
-228.742	800.000	-0.074	0.276
-227.727	6.684	0.241	0.180
-226.713	-35.758	-0.327	0.178
-225.698	-137.042	0.398	0.046
-224.684	800.000	-0.055	-0.190
-223.669	153.151	-0.023	-0.032
-222.655	-77.842	0.102	0.035
-221.640	-158.625	0.154	-0.009
-220.625	704.068	-0.096	0.254
-219.611	-43.819	-0.293	0.148
-218.596	-61.699	0.202	-0.085
-217.582	-95.706	0.440	-0.118
-216.567	231.434	0.088	-0.144
-215.552	800.000	0.071	0.279
-214.538	-200.000	0.036	-0.200
-213.523	72.829	-0.212	0.222
-212.509	214.452	-0.106	0.168
-211.494	137.071	-0.222	0.291
-210.479	103.201	-0.109	-0.128
-209.465	-16.806	-0.083	-0.052
-208.450	27.369	-0.196	0.165
-207.436	-48.574	0.029	-0.014
-206.421	125.314	0.065	-0.083
-205.406	1.263	-0.286	-0.206
-204.392	70.863	-0.174	-0.181
-203.377	0.015	0.041	0.029
-202.363	45.034	-0.111	-0.103
-201.348	800.000	0.073	0.272
-200.333	-76.692	0.304	0.107
-199.319	546.039	0.057	-0.136
-198.304	-200.000	0.002	0.046
-197.290	94.371	-0.116	0.132
-196.275	75.959	0.265	0.281
-195.260	34.366	-0.040	-0.035
-194.246	-200.000	0.009	0.080
-193.231	213.543	-0.133	-0.211
-192.217	63.071	0.068	0.068
-191.202	-46.339	0.202	0.099
-190.187	-200.000	0.034	-0.199
-189.173	182.810	-0.169	0.250
-188.158	-152.803	-0.463	0.033
-187.144	458.422	0.048	-0.106
-186.129	-71.895	0.172	-0.064
-185.114	-200.000	0.030	-0.135
-184.100	800.000	0.098	0.326
-183.085	-54.183	-0.343	0.156
-182.071	275.308	0.030	0.054
-181.056	53.610	0.212	-0.203
-180.042	1.095	0.186	-0.133
-179.027	-70.340	-0.195	0.074
-178.012	-134.282	0.217	0.027
-176.998	800.000	0.063	0.221
-175.983	-181.897	0.198	-0.004
-174.969	-200.000	0.055	0.394
-173.954	108.111	0.210	-0.251
-172.939	3.613	-0.186	-0.136
-171.925	-78.821	0.206	-0.070
-170.910	-33.856	-0.233	0.128
-169.896	61.297	-0.096	-0.095
-168.881	37.843	0.166	-0.148
-167.866	751.667	-0.140	0.378
-166.852	-45.059	-0.387	0.193
-165.837	800.000	0.042	0.155
-164.823	-88.065	-0.100	0.030
-163.808	-105.693	0.204	0.046
-162.793	-200.000	-0.026	-0.239
-161.779	800.000	0.067	-0.241
-160.764	-34.675	-0.085	-0.046
-159.750	313.949	-0.185	0.348
-158.735	379.023	-0.081	0.166
-157.720	168.866	-0.121	0.173
-156.706	181.983	0.075	0.110
-155.691	-200.000	0.073	-0.377
-154.677	188.823	0.232	-0.348
-153.662	-98.170	0.184	-0.047
-152.647	152.826	-0.244	-0.333
-151.633	-200.000	-0.009	-0.069
-150.618	79.851	0.116	-0.125
-149.604	-86.534	-0.272	0.084
-148.589	800.000	-0.049	-0.163
-147.574	1.027	0.234	0.168
-146.560	-200.000	-0.077	-0.453
-145.545	-2.793	0.365	0.255
-144.531	800.000	0.156	-0.502
-143.516	-200.000	0.048	0.704
-142.502	45.088	0.075	-0.069
-141.487	-50.832	-0.074	0.035
-140.472	-86.986	0.151	-0.046
-139.458	-147.819	-0.143	-0.012
-138.443	182.396	0.011	0.017
-137.429	-68.008	-0.184	0.072
-136.414	-200.000	0.032	0.360
-135.399	-200.000	0.012	0.245
-134.385	132.276	-0.196	0.252
-133.370	-164.728	-0.163	-0.007
-132.356	-97.252	-0.196	0.051
-131.341	-200.000	0.096	0.458
-130.326	-200.000	-0.027	0.211
-129.312	-200.000	0.037	0.343
-128.297	-200.000	0.028	0.241
-127.283	311.372	0.094	0.177
-126.268	-119.736	0.017	0.003
-125.253	-113.630	-0.096	0.019
-124.239	14.431	-0.117	0.092
-123.224	-200.000	0.007	-0.154
-122.210	800.000	-0.067	-0.243
-121.195	321.865	0.103	-0.197
