DTS Sentinel unit serial number:	SN413079Multiplexer serial number:	ORYXHardware model number:	OX4-SRSoftware version number:	ORYX F/W v4.00 Oryx Data Collector v3.7.2.0data status	okinstallation	princeton_trtdifferential loss correction	single-endedforward channel	channel 1reverse channel	N/Adate	2019/09/10time	15:44:11forward acquisition time	60.00reverse acquisition time	0.00gamma	496.2192k internal	0.2299k external	0.2299temperature offset calibration	0.9921default loss term (dB/km)	0.3790temperature slope calibration	1.0000multiplexer offset coefficient	1.0000multiplexer slope coefficient	1.0000fibre end	0.00T internal ref (°C)	38.05T ext. ref 1 (°C)	-0.30T ext. ref 2 (°C)	31.48length (m)	temperature (°C)	Stokes	anti-Stokes-747.200	800.000	-0.075	0.246
-746.185	385.500	0.092	0.194
-745.171	800.000	-0.032	-0.130
-744.156	-200.000	-0.007	0.144
-743.142	-84.359	0.210	0.068
-742.127	133.957	-0.246	0.325
-741.112	-200.000	0.007	0.138
-740.098	747.706	0.141	0.387
-739.083	99.916	0.245	-0.290
-738.069	-37.534	0.170	0.093
-737.054	-133.022	0.287	0.037
-736.039	-79.707	-0.184	0.063
-735.025	800.000	-0.064	-0.218
-734.010	109.921	-0.123	-0.151
-732.996	-50.572	-0.271	0.130
-731.981	147.534	0.133	0.182
-730.966	40.065	0.131	0.120
-729.952	105.808	-0.080	-0.097
-728.937	800.000	0.076	-0.294
-727.923	-101.117	-0.376	-0.094
-726.908	-21.670	0.052	-0.032
-725.894	-14.566	-0.064	-0.042
-724.879	364.693	-0.264	-0.542
-723.864	800.000	-0.047	-0.159
-722.850	800.000	0.057	-0.224
-721.835	312.315	0.063	0.121
-720.821	-136.048	-0.376	-0.045
-719.806	278.813	0.209	-0.380
-718.791	-67.407	-0.114	0.046
-717.777	21.442	-0.210	0.174
-716.762	-49.037	-0.271	0.132
-715.748	41.093	0.071	-0.065
-714.733	57.226	-0.148	-0.147
-713.718	2.408	0.223	0.165
-712.704	404.445	-0.182	0.391
-711.689	35.329	0.072	-0.065
-710.675	-200.000	0.012	-0.069
-709.660	-41.749	0.172	-0.090
-708.645	28.656	-0.319	-0.275
-707.631	-112.170	0.491	-0.100
-706.616	-136.114	0.273	0.033
-705.602	-200.000	-0.013	-0.169
-704.587	19.844	-0.111	-0.091
-703.572	-108.071	0.169	-0.037
-702.558	-200.000	-0.036	0.166
-701.543	423.511	0.119	-0.260
-700.529	-135.800	-0.207	0.025
-699.514	-175.755	0.407	0.011
-698.499	47.569	-0.105	-0.100
-697.485	800.000	-0.123	0.373
-696.470	156.738	-0.154	-0.216
-695.456	800.000	-0.023	0.096
-694.441	-96.880	-0.278	0.074
-693.426	31.428	0.237	-0.207
-692.412	-62.045	0.066	0.028
-691.397	97.816	0.135	0.158
-690.383	-156.054	-0.131	0.008
-689.368	-126.284	-0.240	0.037
-688.354	87.332	-0.035	-0.039
-687.339	246.209	0.034	0.058
-686.324	800.000	0.025	0.073
-685.310	34.897	0.124	0.110
-684.295	-29.515	-0.225	0.131
-683.281	-200.000	0.047	0.264
-682.266	-33.683	0.107	-0.060
-681.251	253.242	-0.202	-0.351
-680.237	-200.000	0.068	0.341
-679.222	155.595	-0.170	0.238
-678.208	-200.000	-0.024	0.303
-677.193	209.898	0.130	0.207
-676.178	-16.715	0.116	-0.074
-675.164	57.209	0.183	-0.182
-674.149	-62.590	-0.201	0.085
-673.135	255.483	0.157	-0.275
-672.120	71.363	-0.133	0.140
-671.105	-10.351	0.107	-0.072
-670.091	9.772	0.082	-0.063
-669.076	-132.568	0.179	0.023
-668.062	-8.633	0.260	0.178
-667.047	-117.987	0.516	0.094
-666.032	800.000	0.080	0.319
-665.018	-138.184	0.200	-0.023
-664.003	-200.000	0.002	-0.115
-662.989	110.034	0.051	0.062
-661.974	-200.000	-0.026	-0.136
-660.959	418.876	0.045	-0.098
-659.945	-87.291	0.170	0.053
-658.930	-200.000	0.019	-0.149
-657.916	0.776	-0.056	-0.041
-656.901	-47.727	-0.099	0.049
-655.886	183.445	-0.117	0.177
-654.872	-5.495	0.150	0.104
-653.857	-46.228	0.026	-0.013
-652.843	800.000	0.010	0.031
-651.828	-200.000	-0.020	0.287
-650.814	-200.000	0.039	0.277
-649.799	519.490	-0.017	0.040
-648.784	800.000	0.071	-0.242
-647.770	-200.000	-0.051	0.260
-646.755	-200.000	0.031	0.204
-645.741	-112.781	-0.186	-0.038
-644.726	-123.055	-0.269	-0.044
-643.711	-90.049	-0.241	-0.071
-642.697	-30.565	0.220	-0.127
-641.682	800.000	-0.012	-0.040
-640.668	800.000	-0.030	0.112
-639.653	800.000	0.031	-0.133
-638.638	363.328	-0.137	-0.281
-637.624	-60.350	0.258	-0.111
-636.609	183.018	-0.171	0.257
-635.595	182.757	-0.137	0.206
-634.580	-200.000	-0.043	-0.194
-633.565	-85.364	-0.160	-0.051
-632.551	-137.227	0.313	-0.036
-631.536	-200.000	0.008	-0.383
-630.522	-66.106	-0.161	-0.065
-629.507	800.000	-0.025	0.103
-628.492	540.379	0.112	0.271
-627.478	800.000	-0.079	0.317
-626.463	-129.698	-0.092	0.013
-625.449	648.913	0.016	-0.041
-624.434	-64.482	-0.112	-0.046
-623.419	-130.969	-0.380	0.052
-622.405	-124.865	-0.150	0.023
-621.390	12.106	-0.051	-0.040
-620.376	257.956	0.074	0.129
-619.361	-131.918	-0.322	-0.043
-618.346	-76.394	0.332	-0.118
-617.332	664.395	0.123	-0.323
-616.317	-200.000	-0.061	-0.318
-615.303	206.076	-0.228	-0.360
-614.288	-14.241	0.281	0.184
-613.273	-102.543	-0.035	-0.008
-612.259	-53.755	-0.221	-0.102
-611.244	-57.143	0.334	0.149
-610.230	-200.000	-0.003	-0.014
-609.215	-92.553	-0.137	0.039
-608.201	-76.157	0.206	-0.074
-607.186	40.755	0.026	-0.024
-606.171	-172.567	-0.111	0.004
-605.157	105.627	-0.132	0.159
-604.142	525.625	-0.079	0.188
-603.128	296.131	0.143	-0.266
-602.113	-53.498	-0.321	-0.149
-601.098	-31.970	-0.328	-0.186
-600.084	-200.000	-0.012	0.259
-599.069	-127.924	0.316	-0.046
-598.055	-91.479	0.095	0.027
-597.040	-130.769	-0.331	-0.045
-596.025	800.000	0.062	-0.253
-595.011	-166.302	0.362	-0.015
-593.996	-99.825	-0.407	0.103
-592.982	800.000	-0.026	-0.094
-591.967	-200.000	-0.008	0.043
-590.952	-117.071	-0.041	0.008
-589.938	-200.000	-0.027	0.170
-588.923	-68.406	-0.120	0.047
-587.909	48.605	-0.229	0.217
-586.894	31.818	0.285	0.249
-585.879	12.399	0.054	0.042
-584.865	-200.000	0.046	-0.372
-583.850	-163.398	-0.240	-0.012
-582.836	-37.158	-0.364	0.197
-581.821	-86.027	0.236	-0.074
-580.806	-77.894	-0.119	-0.042
-579.792	-53.235	-0.393	-0.183
-578.777	-71.093	0.324	-0.124
-577.763	39.452	0.074	0.067
-576.748	663.719	-0.027	-0.071
-575.733	800.000	-0.099	-0.427
-574.719	186.795	-0.173	-0.261
-573.704	343.071	-0.053	0.106
-572.690	-98.296	0.146	-0.038
-571.675	-29.607	0.140	0.081
-570.661	-92.625	-0.101	-0.029
-569.646	-92.979	0.154	0.044
-568.631	-101.972	-0.216	0.053
-567.617	27.582	-0.261	-0.223
-566.602	-194.801	-0.166	0.001
-565.588	134.915	-0.115	-0.152
-564.573	-178.286	-0.370	-0.009
-563.558	103.329	0.118	-0.141
-562.544	8.987	0.260	-0.199
-561.529	-82.343	0.035	-0.012
-560.515	-90.934	0.461	0.134
-559.500	145.536	0.236	0.321
-558.485	-166.398	-0.188	0.008
-557.471	-120.975	-0.101	0.017
-556.456	347.848	-0.022	0.044
-555.442	-112.326	0.083	0.017
-554.427	-200.000	-0.020	-0.177
-553.412	-37.289	-0.129	-0.070
-552.398	800.000	-0.069	0.260
-551.383	-52.373	0.430	0.202
-550.369	-123.924	-0.257	0.041
-549.354	-11.123	0.097	0.065
-548.339	-189.469	-0.103	-0.001
-547.325	-128.023	0.265	0.038
-546.310	-110.541	0.257	0.054
-545.296	65.338	-0.337	0.345
-544.281	-101.273	-0.387	0.096
-543.266	3.600	0.239	0.176
-542.252	-129.909	-0.295	0.041
-541.237	-200.000	-0.023	-0.129
-540.223	259.821	0.080	0.140
-539.208	1.589	0.291	-0.212
-538.193	342.421	-0.020	0.039
-537.179	800.000	0.035	-0.133
-536.164	100.263	-0.083	-0.098
-535.150	171.040	-0.143	-0.208
-534.135	-200.000	-0.018	-0.086
-533.121	-140.758	-0.230	0.024
-532.106	-113.099	0.303	-0.060
-531.091	-200.000	-0.018	-0.386
-530.077	232.289	0.026	-0.043
-529.062	-22.297	-0.139	0.085
-528.048	89.675	0.301	-0.340
-527.033	-111.468	0.166	-0.034
-526.018	800.000	0.018	-0.079
-525.004	-200.000	-0.001	0.299
-523.989	-175.446	-0.087	-0.002
-522.975	42.009	-0.082	0.075
-521.960	223.293	-0.108	0.176
-520.945	-200.000	-0.003	0.050
-519.931	800.000	0.046	-0.130
-518.916	-52.614	0.139	-0.065
-517.902	-136.425	-0.303	-0.036
-516.887	-200.000	0.048	0.286
-515.872	-200.000	-0.045	-0.240
-514.858	-106.657	-0.122	0.027
-513.843	-53.346	-0.218	-0.101
-512.829	-200.000	0.002	0.115
-511.814	800.000	0.099	0.328
-510.799	-40.643	-0.265	0.139
-509.785	-200.000	-0.036	0.213
-508.770	800.000	-0.019	-0.082
-507.756	-70.086	0.288	-0.111
-506.741	-64.418	0.216	-0.089
-505.726	33.310	0.019	0.016
-504.712	-171.884	0.265	0.009
-503.697	-200.000	-0.053	0.296
-502.683	-3.458	-0.136	-0.095
-501.668	57.896	0.084	-0.083
-500.653	-86.907	-0.217	0.067
-499.639	800.000	0.076	0.299
-498.624	324.955	-0.159	0.307
-497.610	-45.440	-0.224	0.112
-496.595	-20.578	-0.209	-0.130
-495.581	-148.772	-0.143	0.012
-494.566	-41.799	-0.084	-0.044
-493.551	173.225	0.182	-0.266
-492.537	-71.941	0.263	-0.099
-491.522	212.005	0.067	-0.107
-490.508	-163.602	-0.236	0.011
-489.493	63.051	0.145	0.147
-488.478	-119.681	0.338	-0.059
-487.464	-94.995	-0.197	-0.054
-486.449	-195.615	-0.283	-0.002
-485.435	800.000	-0.126	0.370
-484.420	-200.000	-0.063	-0.311
-483.405	800.000	-0.033	0.145
-482.391	672.317	-0.095	0.250
-481.376	800.000	-0.074	0.290
-480.362	345.562	-0.078	-0.155
-479.347	-124.619	0.129	-0.020
-478.332	-70.878	-0.145	-0.055
-477.318	418.271	-0.050	0.108
-476.303	28.026	-0.342	0.291
-475.289	-200.000	-0.071	-0.453
-474.274	-11.733	-0.137	0.091
-473.259	59.214	0.176	-0.175
-472.245	-200.000	0.033	0.228
-471.230	25.421	0.123	0.104
-470.216	222.239	-0.139	-0.226
-469.201	45.284	-0.055	-0.051
-468.186	-148.199	-0.132	0.011
-467.172	-75.332	-0.132	-0.047
-466.157	171.265	-0.125	0.181
-465.143	-200.000	-0.013	0.062
-464.128	4.009	-0.496	0.366
-463.113	94.326	0.124	0.142
-462.099	102.440	0.244	0.287
-461.084	12.022	0.361	0.280
-460.070	182.052	-0.287	0.427
-459.055	800.000	0.034	-0.097
-458.040	-101.900	0.133	0.032
-457.026	-78.912	0.454	0.156
-456.011	-108.696	-0.183	0.040
-454.997	-53.379	0.072	0.033
-453.982	-92.076	0.366	0.104
-452.968	-180.257	0.258	0.005
-451.953	-200.000	0.020	-0.106
-450.938	-74.720	0.261	-0.095
-449.924	193.168	0.105	0.160
-448.909	800.000	-0.048	-0.194
-447.895	800.000	0.078	0.290
-446.880	-200.000	-0.035	0.168
-445.865	-200.000	-0.019	0.105
-444.851	-134.538	-0.165	-0.020
-443.836	35.511	0.150	-0.133
-442.822	800.000	0.088	0.280
-441.807	-17.925	-0.081	-0.051
-440.792	-99.811	0.316	0.080
-439.778	-200.000	-0.012	0.291
-438.763	-72.714	-0.154	-0.057
-437.749	293.431	-0.088	0.163
-436.734	468.228	0.043	-0.098
-435.719	-200.000	0.027	-0.217
-434.705	-36.874	0.031	-0.017
-433.690	-112.039	-0.283	0.057
-432.676	320.105	-0.059	-0.112
-431.661	-89.570	-0.091	-0.027
-430.646	45.914	-0.171	0.160
-429.632	-18.873	-0.256	0.161
-428.617	307.871	0.155	0.292
-427.603	-101.682	0.232	-0.057
-426.588	-80.361	-0.222	-0.075
-425.573	800.000	-0.040	-0.119
-424.559	-189.836	-0.049	0.001
-423.544	-37.556	0.221	0.119
-422.530	-200.000	0.008	0.284
-421.515	798.257	0.142	-0.393
-420.500	635.896	-0.039	-0.099
-419.486	67.902	-0.023	0.024
-418.471	-200.000	-0.081	0.368
-417.457	-200.000	0.019	0.107
-416.442	139.044	-0.128	-0.169
-415.428	23.330	0.175	-0.145
-414.413	-21.618	-0.165	-0.102
-413.398	-114.017	0.199	0.039
-412.384	14.080	0.131	-0.103
-411.369	124.957	0.271	-0.344
-410.355	313.126	-0.077	-0.145
-409.340	215.620	-0.076	-0.121
-408.325	-200.000	-0.022	-0.174
-407.311	-87.163	-0.241	0.074
-406.296	313.379	-0.197	0.373
-405.282	-76.502	-0.539	0.191
-404.267	-165.189	-0.186	0.008
-403.252	-107.222	-0.122	0.027
-402.238	91.018	0.210	-0.237
-401.223	-200.000	0.068	0.429
-400.209	-200.000	0.023	0.272
-399.194	-34.584	-0.191	0.106
-398.179	800.000	0.012	-0.050
-397.165	86.630	0.282	0.313
-396.150	23.643	0.273	0.226
-395.136	57.856	-0.070	-0.069
-394.121	-67.879	0.246	0.097
-393.106	98.571	-0.163	-0.189
-392.092	2.514	0.200	-0.146
-391.077	309.298	0.069	-0.131
-390.063	-120.435	-0.224	0.038
-389.048	79.484	-0.028	0.030
-388.033	153.139	0.036	0.049
-387.019	800.000	-0.103	0.303
-386.004	238.317	-0.093	-0.156
-384.990	93.746	-0.011	0.013
-383.975	-200.000	0.009	-0.136
-382.960	800.000	0.048	-0.198
-381.946	-200.000	0.025	0.174
-380.931	241.039	-0.096	-0.161
-379.917	-136.569	-0.350	0.041
-378.902	800.000	-0.014	-0.054
-377.888	-200.000	0.098	-0.568
-376.873	-144.682	0.235	0.022
-375.858	223.285	-0.070	-0.113
-374.844	800.000	-0.065	0.270
-373.829	-47.226	-0.075	0.037
-372.815	90.053	0.162	-0.182
-371.800	16.369	0.121	-0.096
-370.785	-200.000	-0.033	-0.192
-369.771	-200.000	-0.009	-0.399
-368.756	209.277	0.156	-0.245
-367.742	-184.001	-0.107	-0.002
-366.727	-82.149	-0.174	0.057
-365.712	50.859	0.175	-0.167
-364.698	-200.000	-0.089	-0.513
-363.683	-66.383	0.052	-0.021
-362.669	-17.950	-0.156	-0.098
-361.654	-73.888	-0.276	-0.101
-360.639	492.825	-0.111	-0.255
-359.625	457.397	-0.092	-0.206
-358.610	21.262	-0.137	-0.112
-357.596	-200.000	0.021	0.179
-356.581	800.000	0.193	0.584
-355.566	800.000	0.010	0.032
-354.552	505.680	-0.053	0.124
-353.537	135.496	-0.117	0.153
-352.523	-200.000	-0.019	-0.231
-351.508	185.891	-0.088	0.131
-350.493	40.130	-0.074	0.067
-349.479	-121.873	-0.423	0.070
-348.464	-88.338	0.229	0.069
-347.450	-12.044	-0.075	0.049
-346.435	-68.035	-0.130	-0.051
-345.420	231.856	0.180	-0.297
-344.406	-200.000	-0.028	0.228
-343.391	-11.922	0.233	-0.153
-342.377	79.430	0.020	-0.021
-341.362	89.208	-0.101	0.113
-340.348	-138.728	-0.380	-0.042
-339.333	800.000	-0.034	0.112
-338.318	166.170	-0.127	-0.181
-337.304	190.895	-0.040	0.060
-336.289	-88.833	0.144	-0.043
-335.275	-200.000	-0.001	-0.009
-334.260	-200.000	-0.025	0.318
-333.245	185.263	-0.168	-0.250
-332.231	-69.289	0.475	-0.183
-331.216	-80.106	-0.243	0.082
-330.202	-2.309	-0.097	-0.069
-329.187	-200.000	-0.045	0.351
-328.172	-51.892	0.249	-0.116
-327.158	-105.992	-0.190	-0.043
-326.143	-157.699	-0.253	0.015
-325.129	-106.275	0.291	-0.065
-324.114	800.000	0.039	-0.160
-323.099	56.175	0.144	0.140
-322.085	51.431	-0.249	0.237
-321.070	-76.655	0.288	0.101
-320.056	92.126	0.215	0.243
-319.041	148.934	0.143	-0.193
-318.026	16.317	0.133	-0.105
-317.012	-141.880	-0.190	-0.019
-315.997	183.362	0.191	-0.283
-314.983	-27.135	0.108	-0.063
-313.968	-93.958	0.222	0.061
-312.953	800.000	-0.071	-0.208
-311.939	437.733	-0.071	-0.156
-310.924	-200.000	0.045	-0.223
-309.910	-92.001	0.176	0.050
-308.895	54.057	0.153	0.148
-307.880	227.001	0.066	0.108
-306.866	-100.936	-0.132	-0.033
-305.851	-168.217	0.172	-0.007
-304.837	42.404	0.042	-0.039
-303.822	-89.470	-0.223	0.066
-302.807	344.071	-0.168	0.330
-301.793	41.401	0.152	0.138
-300.778	46.818	-0.130	0.122
-299.764	399.317	-0.061	-0.129
-298.749	6.542	-0.120	-0.090
-297.735	141.717	0.036	0.047
-296.720	-154.389	0.297	0.020
-295.705	-105.573	0.284	0.065
-294.691	-177.095	0.301	0.008
-293.676	-63.933	-0.021	-0.008
-292.662	-109.476	-0.491	-0.104
-291.647	24.293	-0.287	-0.238
-290.632	-200.000	0.038	0.321
-289.618	800.000	0.059	-0.200
-288.603	800.000	-0.099	-0.358
-287.589	-72.457	-0.340	0.126
-286.574	230.269	0.107	-0.175
-285.559	176.024	0.249	0.363
-284.545	-200.000	0.013	0.239
-283.530	-128.932	0.241	-0.034
-282.516	219.467	0.147	-0.235
-281.501	-144.214	0.354	0.033
-280.486	-54.992	0.070	0.032
-279.472	-93.801	0.165	-0.045
-278.457	-104.990	-0.418	-0.096
-277.443	-26.022	-0.119	-0.070
-276.428	-62.665	0.339	-0.141
-275.413	157.819	-0.165	-0.229
-274.399	351.372	0.048	-0.094
-273.384	-40.574	-0.240	-0.125
-272.370	800.000	-0.020	0.089
-271.355	115.074	0.220	-0.269
-270.340	800.000	0.107	0.349
-269.326	143.175	0.017	-0.023
-268.311	800.000	0.071	-0.228
-267.297	662.340	-0.044	-0.113
-266.282	25.902	-0.207	0.173
-265.267	89.084	-0.332	0.371
-264.253	24.632	0.140	0.116
-263.238	-126.107	0.225	0.034
-262.224	-79.079	-0.495	-0.168
-261.209	-59.376	-0.071	-0.030
-260.195	-88.107	0.200	-0.060
-259.180	-164.939	-0.292	-0.013
-258.165	-22.742	0.229	0.139
-257.151	157.472	-0.039	-0.054
-256.136	-27.717	0.152	-0.088
-255.122	767.151	-0.027	-0.075
-254.107	800.000	-0.034	-0.097
-253.092	800.000	0.030	-0.102
-252.078	-96.905	0.149	-0.039
-251.063	-1.869	0.144	0.102
-250.049	-97.413	0.290	-0.075
-249.034	-87.991	0.200	0.060
-248.019	-200.000	0.048	-0.285
-247.005	800.000	0.053	-0.173
-245.990	105.789	-0.126	-0.149
-244.976	-102.363	-0.243	-0.058
-243.961	-161.238	0.504	0.026
-242.946	202.697	-0.131	-0.202
-241.932	-32.837	0.411	0.229
-240.917	391.932	0.076	0.158
-239.903	63.322	0.186	-0.187
-238.888	294.730	0.064	-0.117
-237.873	-47.365	0.217	0.106
-236.859	800.000	-0.103	0.285
-235.844	442.234	-0.193	0.422
-234.830	800.000	-0.067	-0.214
-233.815	800.000	-0.058	-0.188
-232.800	-200.000	0.024	-0.189
-231.786	-145.628	-0.008	0.001
-230.771	72.688	-0.064	-0.067
-229.757	-200.000	-0.048	0.355
-228.742	-147.737	-0.166	0.014
-227.727	-3.212	-0.277	0.193
-226.713	-99.184	0.188	-0.047
-225.698	30.226	-0.046	-0.039
-224.684	-200.000	-0.006	0.065
-223.669	-156.708	0.258	-0.016
-222.655	142.583	0.230	-0.305
-221.640	83.593	0.146	0.159
-220.625	-200.000	-0.026	0.124
-219.611	-82.394	0.169	0.055
-218.596	602.246	0.059	-0.147
-217.582	236.260	0.147	0.243
-216.567	-200.000	0.015	-0.107
-215.552	-74.781	0.230	-0.083
-214.538	-74.284	0.198	-0.071
-213.523	547.106	0.051	-0.121
-212.509	-200.000	0.053	-0.253
-211.494	-66.200	0.356	-0.142
-210.479	79.440	-0.084	0.090
-209.465	-16.354	-0.173	0.109
-208.450	-139.581	0.270	-0.029
-207.436	134.327	-0.103	-0.134
-206.421	800.000	-0.092	-0.339
-205.406	-9.681	-0.311	0.207
-204.392	45.611	0.234	-0.216
-203.377	219.059	0.156	0.249
-202.363	-200.000	0.017	0.118
-201.348	-146.711	0.306	-0.026
-200.333	-200.000	0.019	-0.099
-199.319	321.849	0.128	0.244
-198.304	168.058	-0.072	0.103
-197.290	-56.186	0.040	0.018
-196.275	-99.654	0.253	0.064
-195.260	-110.114	0.155	0.032
-194.246	189.515	0.120	0.179
-193.231	-128.136	0.112	-0.016
-192.217	-40.653	0.110	-0.057
-191.202	217.036	-0.046	-0.073
-190.187	278.328	0.035	-0.062
-189.173	-66.445	-0.189	-0.075
-188.158	-34.070	0.265	-0.146
-187.144	73.037	-0.180	-0.188
-186.129	-36.030	0.377	-0.203
-185.114	-120.549	0.258	0.044
-184.100	-135.593	-0.442	0.052
-183.085	-200.000	-0.011	0.274
-182.071	-167.757	0.128	-0.005
-181.056	-2.191	-0.217	0.152
-180.042	-200.000	-0.068	-0.317
-179.027	-96.174	-0.364	-0.096
-178.012	800.000	0.031	-0.113
-176.998	-200.000	-0.014	-0.382
-175.983	34.135	0.219	0.190
-174.969	-200.000	0.022	-0.195
-173.954	-200.000	0.056	0.410
-172.939	-200.000	0.014	-0.144
-171.925	469.765	0.062	0.139
-170.910	-200.000	0.056	0.450
-169.896	800.000	0.074	0.250
-168.881	27.817	0.282	-0.237
-167.866	-200.000	-0.011	-0.133
-166.852	116.769	0.156	0.192
-165.837	-200.000	-0.026	0.170
-164.823	-22.082	-0.005	-0.003
-163.808	68.648	0.160	0.163
-162.793	223.012	-0.147	0.236
-161.779	800.000	0.062	0.265
-160.764	800.000	0.014	-0.041
-159.750	22.700	-0.035	-0.028
-158.735	800.000	0.015	0.048
-157.720	-84.506	0.189	0.060
-156.706	-125.408	-0.267	0.041
-155.691	-64.260	0.101	0.041
-154.677	103.551	0.080	0.093
-153.662	-63.034	-0.223	-0.092
-152.647	-19.130	-0.268	-0.166
-151.633	170.625	0.107	-0.152
-150.618	674.125	-0.055	-0.143
-149.604	800.000	-0.018	0.060
-148.589	800.000	0.048	0.208
-147.574	-101.454	0.054	-0.013
-146.560	-24.373	0.326	-0.194
-145.545	-152.546	0.402	-0.029
-144.531	-79.642	-0.153	0.051
-143.516	-200.000	0.081	0.391
-142.502	-27.166	0.119	-0.069
-141.487	25.886	0.092	0.076
-140.472	525.795	-0.086	-0.202
-139.458	-39.284	-0.147	0.077
-138.443	42.981	-0.166	0.150
-137.429	-200.000	0.053	0.243
-136.414	-200.000	-0.012	-0.156
-135.399	24.813	0.132	-0.109
-134.385	-26.412	-0.072	-0.042
-133.370	-58.406	0.397	-0.172
-132.356	138.338	0.178	-0.232
-131.341	-200.000	-0.005	0.089
-130.326	210.075	0.152	0.238
-129.312	-15.652	-0.239	0.152
-128.297	-157.670	0.365	-0.022
-127.283	-37.151	0.268	-0.143
-126.268	-200.000	0.026	0.190
-125.253	-46.076	-0.337	0.166
-124.239	-200.000	-0.061	-0.404
-123.224	-166.603	0.147	-0.006
-122.210	-200.000	0.002	-0.048
