DTS Sentinel unit serial number:	SN413079Multiplexer serial number:	ORYXHardware model number:	OX4-SRSoftware version number:	ORYX F/W v4.00 Oryx Data Collector v3.7.2.0data status	okinstallation	princeton_trtdifferential loss correction	single-endedforward channel	channel 1reverse channel	N/Adate	2019/09/18time	06:22:35forward acquisition time	60.00reverse acquisition time	0.00gamma	496.2192k internal	0.2340k external	0.2340temperature offset calibration	0.9978default loss term (dB/km)	0.3790temperature slope calibration	1.0000multiplexer offset coefficient	1.0000multiplexer slope coefficient	1.0000fibre end	0.00T internal ref (°C)	23.27T ext. ref 1 (°C)	0.19T ext. ref 2 (°C)	17.74length (m)	temperature (°C)	Stokes	anti-Stokes-747.200	-200.000	0.007	0.447
-746.185	706.535	0.062	0.165
-745.171	-80.423	-0.220	0.074
-744.156	800.000	0.031	0.101
-743.142	38.741	-0.277	0.248
-742.127	108.662	-0.145	0.174
-741.112	78.694	0.019	0.020
-740.098	-45.252	0.029	-0.015
-739.083	188.650	0.231	0.346
-738.069	-101.919	0.221	0.053
-737.054	54.686	0.062	0.060
-736.039	12.552	0.118	0.091
-735.025	800.000	-0.052	0.178
-734.010	800.000	-0.075	-0.282
-732.996	-96.598	-0.371	-0.098
-731.981	-133.712	-0.106	0.013
-730.966	800.000	-0.010	0.035
-729.952	-161.806	-0.159	0.008
-728.937	800.000	-0.033	-0.134
-727.923	101.436	-0.265	0.309
-726.908	-71.859	-0.251	0.094
-725.894	-147.327	-0.184	-0.016
-724.879	-85.117	-0.384	0.120
-723.864	120.552	-0.199	-0.248
-722.850	-62.746	-0.108	0.045
-721.835	141.396	0.227	0.301
-720.821	-200.000	-0.001	0.146
-719.806	-200.000	-0.034	-0.203
-718.791	-200.000	0.021	-0.145
-717.777	36.266	0.141	-0.125
-716.762	800.000	-0.071	-0.246
-715.748	-20.750	0.217	-0.134
-714.733	-39.958	-0.136	0.071
-713.718	-74.434	-0.168	-0.061
-712.704	25.129	0.176	-0.146
-711.689	60.363	0.087	-0.087
-710.675	34.958	-0.158	0.139
-709.660	-200.000	0.004	-0.200
-708.645	-138.693	-0.206	0.023
-707.631	184.668	0.081	-0.120
-706.616	96.173	-0.144	-0.164
-705.602	-37.839	0.058	0.031
-704.587	-200.000	-0.055	0.339
-703.572	-184.012	-0.172	-0.003
-702.558	800.000	-0.021	-0.064
-701.543	110.066	-0.080	-0.097
-700.529	800.000	0.030	0.113
-699.514	-9.090	0.252	-0.169
-698.499	-200.000	-0.031	-0.310
-697.485	-110.716	0.370	0.076
-696.470	7.579	-0.225	-0.169
-695.456	-116.949	-0.298	-0.055
-694.441	-200.000	-0.016	-0.180
-693.426	-200.000	-0.276	0.001
-692.412	69.288	-0.063	0.064
-691.397	304.612	-0.353	0.657
-690.383	-200.000	-0.048	-0.325
-689.368	-80.326	-0.137	-0.046
-688.354	17.371	0.046	-0.036
-687.339	-18.717	-0.116	-0.073
-686.324	35.878	-0.055	-0.048
-685.310	-200.000	0.111	-0.594
-684.295	-49.919	0.224	-0.106
-683.281	57.309	-0.232	0.226
-682.266	105.429	-0.214	-0.253
-681.251	68.111	0.135	-0.138
-680.237	432.690	-0.014	0.030
-679.222	-159.632	0.229	-0.013
-678.208	70.282	-0.138	-0.142
-677.193	185.854	0.084	-0.125
-676.178	-178.889	-0.025	0.001
-675.164	-200.000	-0.037	-0.361
-674.149	-200.000	0.007	0.172
-673.135	-9.745	0.192	0.128
-672.120	133.104	0.120	0.155
-671.105	-101.008	-0.268	0.066
-670.091	-41.800	-0.260	0.133
-669.076	203.253	-0.063	-0.097
-668.062	66.446	-0.146	-0.148
-667.047	79.995	0.141	-0.151
-666.032	21.370	-0.137	-0.111
-665.018	-200.000	-0.038	0.198
-664.003	-69.105	0.161	-0.062
-662.989	800.000	-0.009	0.028
-661.974	389.791	0.027	-0.056
-660.959	-200.000	0.027	-0.204
-659.945	698.376	0.068	-0.178
-658.930	134.758	-0.095	-0.123
-657.916	-55.251	-0.059	0.027
-656.901	161.405	-0.122	0.170
-655.886	-9.943	-0.197	-0.131
-654.872	-36.199	-0.213	-0.115
-653.857	800.000	-0.039	-0.145
-652.843	-100.264	0.231	0.057
-651.828	-0.690	0.160	0.114
-650.814	-81.509	0.268	-0.088
-649.799	91.359	0.149	-0.167
-648.784	76.449	0.192	-0.203
-647.770	-43.389	-0.241	-0.122
-646.755	800.000	0.160	0.474
-645.741	-139.712	0.377	0.040
-644.726	41.412	-0.193	-0.174
-643.711	71.123	-0.359	-0.372
-642.697	317.060	0.100	0.189
-641.682	44.046	-0.111	-0.102
-640.668	-23.500	-0.331	-0.198
-639.653	270.548	0.124	0.217
-638.638	216.307	-0.047	-0.074
-637.624	-136.526	-0.215	0.025
-636.609	325.092	-0.155	-0.296
-635.595	680.966	-0.071	0.185
-634.580	-170.097	-0.136	-0.005
-633.565	-200.000	-0.004	-0.280
-632.551	800.000	-0.154	0.450
-631.536	-144.195	-0.175	0.016
-630.522	-105.757	0.373	0.084
-629.507	-200.000	-0.001	-0.004
-628.492	-200.000	-0.027	0.143
-627.478	-49.068	-0.279	-0.133
-626.463	54.975	0.158	-0.152
-625.449	-200.000	-0.011	-0.164
-624.434	-170.352	0.138	-0.005
-623.419	-93.597	-0.208	-0.057
-622.405	800.000	-0.028	0.094
-621.390	163.656	0.057	-0.080
-620.376	77.442	0.213	-0.227
-619.361	202.022	-0.066	0.102
-618.346	-139.632	0.138	-0.015
-617.332	91.238	-0.234	0.262
-616.317	46.263	-0.161	0.149
-615.303	-94.093	0.210	-0.057
-614.288	-53.118	-0.202	0.092
-613.273	-200.000	-0.014	0.091
-612.259	162.889	0.141	-0.197
-611.244	-200.000	-0.056	-0.372
-610.230	-182.921	-0.204	0.004
-609.215	-23.278	0.187	0.112
-608.201	-102.458	-0.267	-0.064
-607.186	288.106	-0.059	-0.107
-606.171	800.000	0.027	0.118
-605.157	62.618	-0.264	0.263
-604.142	800.000	0.082	-0.290
-603.128	800.000	0.101	-0.376
-602.113	800.000	-0.044	0.177
-601.098	-200.000	-0.017	-0.113
-600.084	-132.392	0.307	0.039
-599.069	800.000	0.063	-0.185
-598.055	69.281	0.103	-0.105
-597.040	31.589	0.076	-0.066
-596.025	232.449	-0.144	0.235
-595.011	129.371	-0.181	0.231
-593.996	159.052	-0.164	0.228
-592.982	219.270	0.133	-0.213
-591.967	191.927	0.050	-0.076
-590.952	32.343	0.184	-0.158
-589.938	-16.721	0.358	0.226
-588.923	800.000	-0.036	0.114
-587.909	-80.877	-0.056	-0.018
-586.894	-200.000	0.007	0.318
-585.879	199.089	-0.183	0.280
-584.865	100.134	0.090	0.104
-583.850	-200.000	0.021	-0.178
-582.836	-67.849	-0.210	-0.082
-581.821	18.630	-0.322	-0.257
-580.806	242.080	-0.094	0.157
-579.792	-17.761	-0.153	-0.096
-578.777	228.252	-0.128	0.207
-577.763	-200.000	0.006	0.374
-576.748	201.453	-0.081	-0.124
-575.733	-17.404	-0.117	0.074
-574.719	464.324	0.043	-0.096
-573.704	-123.356	-0.365	-0.058
-572.690	-95.646	-0.365	0.097
-571.675	-36.452	0.242	-0.130
-570.661	-131.026	0.267	-0.036
-569.646	-109.272	0.109	0.023
-568.631	-134.176	-0.150	0.018
-567.617	20.856	0.237	0.191
-566.602	-200.000	0.046	-0.244
-565.588	497.340	-0.105	-0.240
-564.573	47.829	0.148	0.137
-563.558	373.373	-0.147	-0.298
-562.544	-98.299	-0.284	-0.073
-561.529	-148.539	-0.119	-0.010
-560.515	-59.206	0.218	0.094
-559.500	107.586	-0.176	-0.209
-558.485	36.218	0.193	0.169
-557.471	-71.499	0.236	-0.088
-556.456	-1.276	0.101	-0.071
-555.442	-78.827	-0.318	0.108
-554.427	800.000	0.103	0.429
-553.412	153.908	0.070	0.096
-552.398	15.889	-0.185	-0.145
-551.383	800.000	-0.082	-0.289
-550.369	-38.663	0.105	0.055
-549.354	254.444	-0.053	0.090
-548.339	-98.697	0.155	-0.039
-547.325	519.099	-0.035	-0.083
-546.310	-129.754	-0.292	-0.040
-545.296	35.424	0.194	0.170
-544.281	22.898	-0.187	0.153
-543.266	800.000	-0.078	0.248
-542.252	412.608	0.152	0.321
-541.237	-39.830	-0.177	0.092
-540.223	125.641	-0.155	-0.195
-539.208	800.000	-0.122	-0.341
-538.193	-62.768	-0.119	0.049
-537.179	137.165	0.083	-0.109
-536.164	-200.000	0.006	0.116
-535.150	-43.630	-0.072	-0.036
-534.135	800.000	0.035	0.127
-533.121	545.990	-0.039	0.092
-532.106	-14.797	-0.272	-0.173
-531.091	599.461	-0.135	0.334
-530.077	25.815	0.361	-0.299
-529.062	-200.000	-0.009	0.064
-528.048	91.385	0.108	0.121
-527.033	-55.506	-0.134	-0.060
-526.018	-79.722	0.121	-0.040
-525.004	233.552	0.074	0.121
-523.989	-127.686	-0.093	-0.013
-522.975	31.729	0.091	-0.078
-521.960	-136.565	0.143	-0.017
-520.945	-200.000	0.008	0.121
-519.931	-18.333	-0.267	0.166
-518.916	800.000	0.054	-0.167
-517.902	-200.000	-0.017	0.121
-516.887	-200.000	0.020	-0.116
-515.872	-177.222	0.270	0.007
-514.858	-200.000	0.030	0.368
-513.843	147.247	0.108	0.144
-512.829	-95.225	-0.277	0.074
-511.814	-200.000	0.065	0.319
-510.799	-200.000	-0.026	-0.131
-509.785	-141.802	0.130	-0.013
-508.770	800.000	0.113	0.336
-507.756	152.546	-0.165	0.224
-506.741	-86.900	-0.220	-0.067
-505.726	-200.000	0.001	0.060
-504.712	800.000	-0.036	-0.110
-503.697	-43.351	-0.065	-0.032
-502.683	-200.000	-0.021	-0.222
-501.668	-34.242	0.068	-0.037
-500.653	-88.308	-0.136	0.040
-499.639	67.400	0.280	-0.284
-498.624	283.257	0.141	-0.251
-497.610	-15.203	-0.168	0.107
-496.595	-137.512	0.199	0.022
-495.581	-136.275	-0.206	0.024
-494.566	443.857	0.059	-0.129
-493.551	-200.000	0.014	0.236
-492.537	-200.000	-0.055	0.271
-491.522	-200.000	-0.069	-0.339
-490.508	88.587	0.110	-0.122
-489.493	-200.000	-0.048	-0.390
-488.478	21.743	-0.226	0.182
-487.464	-78.237	0.147	-0.050
-486.449	-200.000	0.027	-0.180
-485.435	-11.998	-0.434	-0.283
-484.420	800.000	-0.105	0.356
-483.405	-58.499	0.152	0.065
-482.391	-142.601	-0.219	0.021
-481.376	87.813	-0.200	0.220
-480.362	800.000	0.062	-0.178
-479.347	140.262	-0.126	-0.165
-478.332	75.214	0.208	0.218
-477.318	800.000	-0.147	-0.439
-476.303	-109.063	0.104	-0.022
-475.289	-120.765	0.338	-0.057
-474.274	-123.961	-0.149	-0.023
-473.259	141.641	-0.171	-0.225
-472.245	-130.679	-0.203	0.027
-471.230	-36.792	0.187	0.100
-470.216	-114.821	0.635	-0.120
-469.201	490.533	-0.096	0.218
-468.186	-89.960	0.313	-0.091
-467.172	-8.835	-0.150	-0.100
-466.157	-126.990	0.046	0.007
-465.143	192.120	-0.118	0.177
-464.128	36.918	0.202	-0.177
-463.113	800.000	-0.072	-0.202
-462.099	67.568	-0.049	0.050
-461.084	-75.534	-0.326	0.115
-460.070	800.000	0.039	0.141
-459.055	-200.000	-0.001	0.008
-458.040	13.543	-0.071	0.054
-457.026	17.716	-0.176	0.139
-456.011	-115.987	-0.144	0.027
-454.997	-200.000	-0.003	-0.051
-453.982	-89.737	-0.038	-0.011
-452.968	-200.000	-0.030	-0.327
-451.953	-101.941	0.035	-0.008
-450.938	7.073	0.104	-0.077
-449.924	-118.715	-0.255	-0.045
-448.909	-187.809	0.105	-0.001
-447.895	-200.000	0.005	-0.106
-446.880	-142.054	0.274	-0.027
-445.865	475.379	0.001	-0.003
-444.851	-76.189	-0.210	-0.074
-443.836	-101.409	0.122	-0.029
-442.822	255.632	-0.113	-0.192
-441.807	-200.000	0.003	-0.281
-440.792	-200.000	0.015	-0.072
-439.778	9.958	-0.136	-0.102
-438.763	-200.000	0.011	-0.296
-437.749	-98.628	-0.031	-0.008
-436.734	-200.000	-0.002	0.115
-435.719	770.148	0.039	0.104
-434.705	-200.000	0.053	-0.316
-433.690	-200.000	-0.009	0.109
-432.676	-28.478	-0.276	0.158
-431.661	-63.735	0.128	0.052
-430.646	-200.000	-0.031	0.161
-429.632	-76.967	0.307	0.106
-428.617	800.000	-0.034	-0.109
-427.603	-22.352	-0.252	-0.151
-426.588	-123.794	-0.167	0.026
-425.573	-151.439	0.179	-0.013
-424.559	106.086	-0.089	0.104
-423.544	800.000	-0.054	0.200
-422.530	-200.000	-0.045	0.453
-421.515	132.838	0.083	-0.106
-420.500	-79.707	-0.190	-0.063
-419.486	-200.000	0.011	-0.125
-418.471	41.488	-0.125	-0.112
-417.457	-55.047	0.206	0.092
-416.442	291.978	-0.116	-0.208
-415.428	-7.773	0.177	-0.118
-414.413	800.000	-0.061	0.180
-413.398	-200.000	0.005	0.339
-412.384	-176.516	-0.435	0.011
-411.369	-80.666	0.170	0.056
-410.355	28.269	0.301	0.252
-409.340	191.148	0.119	-0.178
-408.325	-200.000	-0.048	0.289
-407.311	-200.000	-0.072	-0.361
-406.296	-81.558	0.192	0.062
-405.282	221.582	0.194	0.308
-404.267	-200.000	0.003	-0.162
-403.252	800.000	-0.102	-0.296
-402.238	5.261	0.212	0.154
-401.223	28.728	-0.101	-0.084
-400.209	267.908	0.030	0.051
-399.194	-92.509	-0.201	-0.056
-398.179	254.434	0.167	0.283
-397.165	-106.661	0.171	-0.038
-396.150	62.491	0.219	-0.216
-395.136	-71.131	-0.319	-0.119
-394.121	-25.021	0.113	-0.066
-393.106	-106.008	-0.367	-0.082
-392.092	-148.488	0.396	0.032
-391.077	-114.474	0.206	-0.039
-390.063	-125.412	0.286	-0.043
-389.048	30.309	-0.057	0.048
-388.033	75.162	0.261	-0.272
-387.019	147.284	-0.106	-0.141
-386.004	17.379	-0.015	-0.012
-384.990	-41.021	0.117	-0.060
-383.975	-69.222	0.220	0.084
-382.960	-149.109	0.153	-0.012
-381.946	-27.967	0.222	0.127
-380.931	-200.000	0.008	0.039
-379.917	-200.000	0.009	0.047
-378.902	-105.563	-0.392	0.088
-377.888	-89.397	-0.272	0.079
-376.873	29.230	0.122	-0.103
-375.858	-95.784	-0.162	0.043
-374.844	-200.000	-0.019	-0.248
-373.829	-59.335	0.185	0.079
-372.815	-70.509	-0.115	0.043
-371.800	-105.372	-0.470	-0.106
-370.785	-54.288	-0.084	0.038
-369.771	-20.932	0.222	-0.134
-368.756	-41.954	-0.150	-0.076
-367.742	-200.000	0.004	0.234
-366.727	77.300	-0.086	0.090
-365.712	251.350	-0.089	0.150
-364.698	254.540	-0.080	0.135
-363.683	-200.000	-0.049	0.322
-362.669	301.099	0.127	0.231
-361.654	-107.173	0.175	-0.038
-360.639	149.805	-0.214	0.286
-359.625	132.578	0.157	0.201
-358.610	-200.000	0.006	-0.109
-357.596	800.000	0.045	-0.125
-356.581	-160.592	0.230	-0.012
-355.566	-108.681	0.414	0.088
-354.552	68.750	-0.208	-0.211
-353.537	-200.000	-0.004	-0.212
-352.523	-200.000	-0.023	0.116
-351.508	-176.115	-0.372	-0.010
-350.493	-34.336	0.309	0.167
-349.479	52.372	-0.301	-0.283
-348.464	800.000	-0.083	-0.244
-347.450	-200.000	-0.124	-0.621
-346.435	-86.068	0.139	0.042
-345.420	175.408	-0.159	-0.227
-344.406	58.777	-0.157	0.152
-343.391	-151.951	0.284	0.020
-342.377	800.000	-0.067	0.189
-341.362	100.460	0.141	-0.162
-340.348	332.989	0.179	-0.342
-339.333	274.459	0.145	0.253
-338.318	3.455	-0.177	0.127
-337.304	-52.991	-0.169	0.077
-336.289	-189.951	-0.193	-0.002
-335.275	-46.963	0.203	0.098
-334.260	55.681	-0.040	0.038
-333.245	-200.000	0.022	0.306
-332.231	-16.272	0.093	0.058
-331.216	-200.000	0.016	-0.281
-330.202	800.000	0.038	0.132
-329.187	223.276	-0.208	-0.330
-328.172	-31.427	-0.197	-0.109
-327.158	120.838	-0.334	-0.410
-326.143	-99.190	0.247	-0.062
-325.129	-154.624	0.135	0.009
-324.114	-200.000	-0.002	-0.033
-323.099	-70.880	0.229	-0.085
-322.085	-56.885	0.086	-0.038
-321.070	-107.962	-0.168	0.036
-320.056	151.072	0.114	0.153
-319.041	284.802	0.057	0.100
-318.026	-200.000	-0.002	0.267
-317.012	-40.941	0.223	-0.114
-315.997	142.763	-0.251	0.329
-314.983	-10.417	0.400	0.261
-313.968	325.320	-0.117	0.220
-312.953	800.000	-0.055	-0.191
-311.939	53.194	0.299	-0.283
-310.924	288.925	-0.039	0.070
-309.910	-200.000	0.002	-0.125
-308.895	-49.988	0.506	0.237
-307.880	50.810	-0.129	0.121
-306.866	-140.942	0.027	-0.003
-305.851	-200.000	0.000	-0.028
-304.837	800.000	0.108	-0.423
-303.822	-162.013	0.100	-0.005
-302.807	-200.000	0.063	0.366
-301.793	-89.964	-0.320	-0.092
-300.778	193.159	-0.115	-0.172
-299.764	5.662	0.373	-0.271
-298.749	-34.086	0.112	-0.060
-297.735	-200.000	0.016	0.142
-296.720	-199.148	0.146	-0.001
-295.705	-76.762	0.138	-0.048
-294.691	454.336	0.112	-0.243
-293.676	-16.885	0.210	-0.131
-292.662	-96.500	-0.084	0.022
-291.647	-148.997	-0.432	0.034
-290.632	175.808	0.136	-0.194
-289.618	-105.886	0.171	-0.038
-288.603	89.930	-0.105	-0.115
-287.589	-200.000	-0.011	-0.095
-286.574	-44.697	-0.186	0.092
-285.559	169.860	-0.217	0.305
-284.545	-121.472	-0.430	0.070
-283.530	115.170	-0.114	0.137
-282.516	-142.149	0.231	-0.023
-281.501	-200.000	-0.002	0.128
-280.486	-200.000	0.030	0.369
-279.472	-96.384	0.500	-0.130
-278.457	30.487	0.121	0.102
-277.443	-51.886	-0.096	-0.044
-276.428	86.813	0.192	-0.209
-275.413	-150.403	-0.083	-0.006
-274.399	-128.043	-0.232	0.033
-273.384	-92.468	-0.217	-0.060
-272.370	-179.221	0.338	0.007
-271.355	18.440	0.370	0.291
-270.340	36.794	-0.117	0.102
-269.326	-105.492	0.105	-0.024
-268.311	156.203	0.169	0.229
-267.297	-117.894	-0.190	0.034
-266.282	-45.992	0.168	-0.081
-265.267	-134.485	0.198	-0.024
-264.253	124.549	-0.126	-0.157
-263.238	-112.863	-0.303	0.059
-262.224	-200.000	-0.032	0.148
-261.209	800.000	-0.089	-0.259
-260.195	800.000	-0.046	0.138
-259.180	-64.044	0.227	0.091
-258.165	-31.362	-0.103	0.057
-257.151	107.042	-0.315	0.369
-256.136	-82.429	0.076	0.024
-255.122	702.394	0.162	-0.420
-254.107	-200.000	-0.017	0.091
-253.092	-95.067	-0.148	-0.039
-252.078	800.000	-0.056	0.186
-251.063	-197.275	-0.300	0.002
-250.049	-48.952	0.235	-0.111
-249.034	800.000	0.069	-0.264
-248.019	671.069	0.048	0.121
-247.005	722.051	0.009	-0.024
-245.990	-15.758	0.176	0.110
-244.976	-200.000	0.003	-0.040
-243.961	800.000	0.092	-0.346
-242.946	392.502	0.014	-0.028
-241.932	-46.837	-0.113	-0.054
-240.917	800.000	0.054	-0.178
-239.903	121.904	0.162	-0.198
-238.888	-135.402	-0.070	0.008
-237.873	800.000	0.120	0.413
-236.859	-200.000	0.031	-0.192
-235.844	-17.813	0.170	0.105
-234.830	-140.319	0.287	0.029
-233.815	464.253	0.006	0.014
-232.800	635.748	-0.025	-0.062
-231.786	-106.283	0.238	-0.052
-230.771	317.005	0.067	-0.124
-229.757	800.000	-0.022	-0.078
-228.742	80.140	0.166	-0.176
-227.727	-33.305	-0.222	0.121
-226.713	800.000	0.072	0.253
-225.698	186.822	0.070	0.103
-224.684	-200.000	0.016	-0.104
-223.669	800.000	0.042	-0.140
-222.655	-200.000	0.006	0.178
-221.640	310.100	0.040	0.073
-220.625	-28.985	-0.190	0.107
-219.611	-162.654	-0.119	0.006
-218.596	63.816	0.231	0.228
-217.582	-142.640	0.092	0.009
-216.567	-120.220	-0.255	-0.043
-215.552	-131.358	0.137	0.018
-214.538	11.788	0.222	0.168
-213.523	-23.423	-0.081	-0.048
-212.509	299.658	-0.141	-0.256
-211.494	217.174	0.070	-0.110
-210.479	-112.774	-0.137	-0.027
-209.465	800.000	0.051	-0.218
-208.450	796.479	-0.053	-0.144
-207.436	133.259	0.105	0.133
-206.421	-38.140	0.329	-0.171
-205.406	224.964	0.122	0.194
-204.392	800.000	-0.057	0.170
-203.377	249.605	0.127	0.211
-202.363	8.637	0.109	-0.081
-201.348	-200.000	-0.034	-0.277
-200.333	-26.745	-0.133	-0.076
-199.319	-35.089	-0.117	0.063
-198.304	-170.645	-0.142	-0.005
-197.290	186.303	0.102	0.149
-196.275	217.185	-0.122	-0.191
-195.260	-200.000	-0.068	0.403
-194.246	13.360	0.045	0.035
-193.231	-80.934	-0.147	-0.048
-192.217	125.198	-0.084	-0.104
-191.202	73.764	0.246	0.253
-190.187	-48.418	0.134	0.063
-189.173	146.329	-0.218	-0.287
-188.158	-26.055	0.477	0.275
-187.144	6.428	-0.182	-0.133
-186.129	709.135	-0.035	0.091
-185.114	-200.000	0.038	-0.194
-184.100	800.000	0.052	0.208
-183.085	-200.000	-0.021	-0.169
-182.071	156.393	-0.157	-0.213
-181.056	426.958	-0.210	-0.444
-180.042	-200.000	0.015	0.095
-179.027	-200.000	-0.032	0.188
-178.012	26.304	-0.029	-0.024
-176.998	-200.000	-0.033	0.226
-175.983	800.000	-0.043	-0.150
-174.969	-160.612	-0.082	0.004
-173.954	-34.521	0.273	0.147
-172.939	-64.087	0.118	0.047
-171.925	-78.009	0.269	-0.091
-170.910	-80.282	-0.362	0.119
-169.896	-33.002	-0.122	-0.066
-168.881	-53.713	0.138	0.062
-167.866	249.153	0.173	-0.288
-166.852	669.492	-0.015	0.039
-165.837	20.737	0.228	0.181
-164.823	84.279	0.233	0.249
-163.808	-200.000	-0.003	0.087
-162.793	-38.467	0.150	0.078
-161.779	275.638	0.102	-0.178
-160.764	-127.516	-0.098	0.014
-159.750	18.085	-0.169	0.132
-158.735	-6.290	0.097	0.065
-157.720	208.913	-0.103	0.158
-156.706	-59.019	-0.496	0.210
-155.691	61.298	0.374	0.365
-154.677	58.337	-0.052	0.050
-153.662	313.185	-0.129	-0.237
-152.647	-42.103	-0.257	0.129
-151.633	-200.000	0.009	0.155
-150.618	800.000	-0.041	0.149
-149.604	39.146	0.110	-0.096
-148.589	-52.538	0.247	0.112
-147.574	-120.611	0.139	0.023
-146.560	-200.000	0.002	0.038
-145.545	56.836	-0.028	0.027
-144.531	-141.493	0.195	-0.019
-143.516	-200.000	-0.018	0.129
-142.502	166.672	0.040	-0.056
-141.487	-19.742	0.129	-0.078
-140.472	135.260	0.132	-0.169
-139.458	236.354	-0.200	0.325
-138.443	-200.000	-0.019	0.282
-137.429	25.994	-0.147	-0.120
-136.414	800.000	0.058	-0.215
-135.399	-113.240	0.279	0.054
-134.385	110.961	0.108	0.128
-133.370	116.373	0.074	-0.089
-132.356	-133.044	-0.363	0.045
-131.341	581.808	0.040	-0.096
-130.326	134.543	-0.017	0.022
-129.312	-137.255	0.173	-0.019
-128.297	71.057	-0.055	0.056
-127.283	800.000	0.031	-0.113
-126.268	133.431	0.082	0.104
-125.253	326.786	0.107	-0.201
-124.239	-75.906	0.398	-0.138
-123.224	72.626	0.176	0.180
-122.210	-140.695	-0.286	-0.029
