DTS Sentinel unit serial number:	SN413079Multiplexer serial number:	ORYXHardware model number:	OX4-SRSoftware version number:	ORYX F/W v4.00 Oryx Data Collector v3.7.2.0data status	okinstallation	princeton_trtdifferential loss correction	single-endedforward channel	channel 1reverse channel	N/Adate	2019/09/16time	02:34:35forward acquisition time	60.00reverse acquisition time	0.00gamma	496.2192k internal	0.2331k external	0.2331temperature offset calibration	0.9980default loss term (dB/km)	0.3790temperature slope calibration	1.0000multiplexer offset coefficient	1.0000multiplexer slope coefficient	1.0000fibre end	0.00T internal ref (°C)	27.69T ext. ref 1 (°C)	10.29T ext. ref 2 (°C)	22.56length (m)	temperature (°C)	Stokes	anti-Stokes-747.200	501.194	-0.094	-0.218
-746.185	-21.284	-0.200	-0.123
-745.171	-200.000	-0.005	0.093
-744.156	-137.094	-0.196	0.023
-743.142	800.000	-0.071	0.306
-742.127	-200.000	-0.017	0.387
-741.112	111.658	-0.188	0.229
-740.098	38.654	-0.082	-0.074
-739.083	-106.263	-0.164	-0.037
-738.069	-140.588	-0.330	0.034
-737.054	-159.737	0.167	0.009
-736.039	-36.900	-0.415	0.224
-735.025	57.342	0.272	0.267
-734.010	-16.298	-0.196	0.125
-732.996	35.234	-0.162	-0.142
-731.981	800.000	0.041	-0.153
-730.966	-103.369	-0.420	0.100
-729.952	-90.075	-0.184	0.054
-728.937	-51.770	0.159	-0.074
-727.923	11.540	-0.065	0.050
-726.908	593.401	-0.159	-0.395
-725.894	56.464	0.023	0.023
-724.879	100.486	-0.232	-0.271
-723.864	-105.778	-0.318	-0.072
-722.850	-200.000	-0.001	0.197
-721.835	-118.740	-0.170	0.030
-720.821	-72.400	-0.293	0.109
-719.806	25.671	-0.230	0.192
-718.791	-200.000	0.043	-0.282
-717.777	800.000	-0.012	0.049
-716.762	800.000	0.019	-0.059
-715.748	-200.000	-0.034	-0.213
-714.733	-5.251	-0.300	-0.207
-713.718	-53.928	0.274	-0.125
-712.704	-92.053	-0.071	-0.020
-711.689	-63.672	-0.541	-0.223
-710.675	53.481	-0.155	-0.149
-709.660	374.693	-0.046	-0.094
-708.645	-137.154	0.177	-0.020
-707.631	-35.099	0.146	-0.080
-706.616	370.000	-0.037	0.076
-705.602	70.295	0.089	-0.092
-704.587	-26.716	0.056	-0.033
-703.572	430.432	0.051	0.111
-702.558	54.670	0.188	-0.182
-701.543	61.289	0.207	-0.207
-700.529	800.000	0.101	-0.358
-699.514	305.187	-0.212	-0.395
-698.499	-192.522	-0.163	0.002
-697.485	-200.000	0.006	-0.139
-696.470	-39.525	0.129	-0.068
-695.456	-200.000	-0.005	0.118
-694.441	-72.335	0.102	-0.038
-693.426	1.791	0.085	-0.061
-692.412	-37.371	0.050	-0.027
-691.397	-176.396	-0.109	-0.003
-690.383	-12.730	-0.113	0.074
-689.368	-158.501	0.013	-0.001
-688.354	-112.909	-0.206	0.041
-687.339	800.000	-0.085	-0.302
-686.324	641.579	-0.097	-0.248
-685.310	560.013	-0.058	0.140
-684.295	275.293	-0.176	0.314
-683.281	44.448	0.054	0.050
-682.266	-23.865	-0.085	0.051
-681.251	800.000	-0.053	0.169
-680.237	111.252	0.080	-0.097
-679.222	130.907	-0.120	0.155
-678.208	119.857	-0.027	-0.034
-677.193	237.856	-0.153	0.256
-676.178	-62.664	0.216	-0.090
-675.164	-116.054	-0.088	-0.016
-674.149	-125.287	-0.062	0.010
-673.135	-189.816	0.185	-0.002
-672.120	55.983	0.210	-0.205
-671.105	-66.524	0.295	-0.117
-670.091	-136.607	-0.248	-0.029
-669.076	-38.646	0.281	-0.149
-668.062	-56.005	0.108	0.048
-667.047	-200.000	-0.012	0.116
-666.032	800.000	-0.124	0.389
-665.018	800.000	-0.033	0.093
-664.003	-96.419	-0.058	0.015
-662.989	10.911	-0.116	0.089
-661.974	-37.755	-0.368	0.196
-660.959	-124.118	-0.277	0.044
-659.945	-173.070	-0.234	-0.007
-658.930	-200.000	-0.008	-0.132
-657.916	184.470	-0.257	0.381
-656.901	38.954	-0.059	-0.053
-655.886	-200.000	-0.062	0.395
-654.872	72.192	0.065	0.068
-653.857	-52.327	0.139	-0.065
-652.843	201.381	-0.040	-0.063
-651.828	162.145	-0.166	-0.234
-650.814	24.354	-0.081	0.068
-649.799	-152.752	0.066	-0.005
-648.784	-200.000	0.023	-0.118
-647.770	63.167	-0.036	0.036
-646.755	800.000	0.060	-0.227
-645.741	-91.709	-0.412	-0.117
-644.726	-26.805	0.153	0.090
-643.711	800.000	-0.035	-0.138
-642.697	-200.000	0.007	0.114
-641.682	-200.000	0.049	-0.246
-640.668	259.027	-0.146	-0.252
-639.653	800.000	0.022	-0.087
-638.638	-125.953	0.093	-0.014
-637.624	-162.527	-0.089	-0.004
-636.609	344.642	-0.055	-0.108
-635.595	337.534	0.110	-0.213
-634.580	144.282	-0.136	-0.181
-633.565	-106.012	-0.267	0.060
-632.551	-7.721	0.271	-0.183
-631.536	-80.520	-0.264	0.088
-630.522	800.000	-0.017	-0.063
-629.507	68.997	-0.262	0.270
-628.492	303.622	-0.221	-0.410
-627.478	800.000	-0.028	0.098
-626.463	-63.150	-0.111	-0.046
-625.449	35.683	-0.138	-0.122
-624.434	-112.747	0.313	-0.062
-623.419	-135.556	-0.348	-0.042
-622.405	148.840	-0.070	0.095
-621.390	-33.201	0.099	-0.055
-620.376	-101.700	0.472	-0.115
-619.361	225.635	0.105	0.171
-618.346	-138.022	0.088	-0.010
-617.332	280.995	-0.080	-0.144
-616.317	131.517	-0.150	0.194
-615.303	-200.000	-0.052	-0.285
-614.288	-200.000	0.015	-0.456
-613.273	-200.000	0.015	-0.150
-612.259	131.827	-0.126	0.163
-611.244	59.043	0.134	0.132
-610.230	-16.397	-0.178	-0.113
-609.215	-200.000	-0.002	-0.076
-608.201	-17.332	-0.397	0.251
-607.186	-80.326	0.171	-0.057
-606.171	12.216	0.126	0.097
-605.157	601.452	-0.117	-0.291
-604.142	-144.715	-0.189	-0.017
-603.128	214.143	0.128	-0.202
-602.113	800.000	-0.010	0.043
-601.098	800.000	-0.091	0.290
-600.084	-127.996	0.185	-0.027
-599.069	360.011	0.166	-0.333
-598.055	-107.208	0.187	0.041
-597.040	63.534	0.168	-0.169
-596.025	-200.000	-0.020	-0.223
-595.011	-200.000	0.027	-0.218
-593.996	346.137	0.061	-0.120
-592.982	-59.102	0.145	0.062
-591.967	696.001	0.039	0.102
-590.952	-200.000	0.049	-0.256
-589.938	-18.052	-0.043	-0.027
-588.923	-200.000	0.032	-0.175
-587.909	-38.301	-0.261	0.138
-586.894	388.774	0.140	-0.290
-585.879	712.967	-0.071	-0.189
-584.865	-200.000	-0.019	-0.310
-583.850	-129.766	-0.254	-0.035
-582.836	-87.992	0.079	-0.024
-581.821	17.516	-0.332	-0.264
-580.806	-15.082	0.030	0.019
-579.792	34.022	-0.256	-0.223
-578.777	800.000	-0.025	-0.074
-577.763	-131.124	-0.009	0.001
-576.748	215.469	-0.070	0.111
-575.733	800.000	-0.058	0.214
-574.719	-17.826	0.088	0.055
-573.704	-179.999	0.134	-0.003
-572.690	-86.711	0.249	-0.076
-571.675	-98.673	-0.068	-0.017
-570.661	-200.000	-0.006	-0.530
-569.646	-79.236	0.064	-0.022
-568.631	800.000	-0.080	0.292
-567.617	-137.700	-0.380	0.043
-566.602	-10.206	0.137	0.091
-565.588	-200.000	-0.061	-0.297
-564.573	70.595	0.226	0.233
-563.558	599.144	-0.033	-0.082
-562.544	-153.973	0.053	0.004
-561.529	800.000	0.048	0.157
-560.515	-50.266	-0.191	-0.090
-559.500	-200.000	0.016	0.254
-558.485	-169.127	0.011	-0.000
-557.471	111.712	-0.114	0.137
-556.456	-105.750	0.120	-0.027
-555.442	-49.445	0.187	0.089
-554.427	149.258	0.190	0.257
-553.412	-30.737	0.221	-0.125
-552.398	310.981	-0.040	-0.075
-551.383	-117.024	0.199	-0.036
-550.369	-65.322	0.161	0.065
-549.354	70.358	-0.177	-0.183
-548.339	422.670	-0.244	0.523
-547.325	-125.618	-0.251	0.038
-546.310	-134.771	0.216	0.026
-545.296	-127.551	0.259	0.038
-544.281	800.000	-0.049	0.193
-543.266	-200.000	0.021	-0.368
-542.252	672.629	0.099	-0.257
-541.237	310.965	0.076	-0.143
-540.223	-21.971	0.273	-0.166
-539.208	-160.297	0.367	-0.020
-538.193	-200.000	-0.001	-0.135
-537.179	165.556	0.082	0.116
-536.164	126.718	-0.230	-0.291
-535.150	-146.066	0.502	0.044
-534.135	87.052	-0.211	0.232
-533.121	-200.000	-0.033	-0.253
-532.106	-102.546	-0.326	-0.078
-531.091	49.897	0.117	-0.110
-530.077	57.625	-0.030	0.029
-529.062	372.633	-0.200	-0.405
-528.048	223.598	0.091	-0.146
-527.033	11.036	0.101	-0.077
-526.018	-200.000	-0.023	-0.306
-525.004	-45.996	-0.365	0.179
-523.989	800.000	0.079	0.256
-522.975	54.191	0.190	-0.183
-521.960	68.870	0.041	-0.042
-520.945	-200.000	-0.060	-0.339
-519.931	-39.062	-0.016	0.009
-518.916	0.332	0.367	0.261
-517.902	-115.313	0.233	0.044
-516.887	71.239	0.188	-0.194
-515.872	568.926	-0.091	0.220
-514.858	3.392	-0.033	0.024
-513.843	-50.433	-0.428	-0.201
-512.829	79.336	0.237	0.253
-511.814	648.846	0.083	0.212
-510.799	-58.417	-0.168	-0.073
-509.785	-83.731	0.081	-0.026
-508.770	-36.699	0.124	-0.067
-507.756	-72.918	0.301	-0.110
-506.741	612.011	-0.055	-0.138
-505.726	-12.850	-0.259	0.168
-504.712	-200.000	-0.006	-0.064
-503.697	7.223	-0.106	0.079
-502.683	-134.857	-0.094	-0.011
-501.668	553.191	0.123	0.294
-500.653	5.124	-0.309	0.227
-499.639	365.128	0.198	-0.398
-498.624	-15.597	-0.219	0.139
-497.610	-11.969	0.021	-0.013
-496.595	800.000	-0.080	0.264
-495.581	42.859	0.086	-0.078
-494.566	-117.662	0.111	-0.020
-493.551	732.426	-0.043	0.115
-492.537	-1.716	0.097	-0.068
-491.522	239.760	0.204	0.338
-490.508	-182.809	-0.023	0.000
-489.493	-143.182	0.452	0.043
-488.478	11.641	0.168	-0.129
-487.464	-28.809	-0.131	-0.075
-486.449	-105.633	0.221	-0.050
-485.435	182.312	0.115	0.170
-484.420	668.291	0.080	-0.206
-483.405	-101.389	-0.249	0.060
-482.391	-91.864	0.147	-0.042
-481.376	-26.454	-0.134	-0.078
-480.362	-109.475	-0.704	0.148
-479.347	12.247	0.335	-0.257
-478.332	96.463	-0.231	0.264
-477.318	59.964	0.208	0.205
-476.303	-55.523	-0.180	0.080
-475.289	-111.259	0.239	0.049
-474.274	-123.898	-0.158	-0.025
-473.259	-92.297	0.210	-0.059
-472.245	602.059	0.051	-0.126
-471.230	82.402	-0.208	0.225
-470.216	-140.481	0.336	0.035
-469.201	-78.239	-0.272	-0.093
-468.186	-200.000	-0.009	-0.200
-467.172	169.050	0.129	0.184
-466.157	-165.979	-0.482	-0.021
-465.143	121.860	-0.140	-0.174
-464.128	-200.000	-0.038	0.264
-463.113	-66.145	-0.139	0.055
-462.099	-4.627	0.202	0.139
-461.084	142.294	-0.083	-0.109
-460.070	-104.483	0.159	0.036
-459.055	-133.961	-0.021	0.003
-458.040	-200.000	-0.026	0.173
-457.026	800.000	-0.026	-0.112
-456.011	-200.000	-0.002	0.252
-454.997	-136.165	-0.362	-0.042
-453.982	288.918	-0.143	0.258
-452.968	-200.000	0.004	-0.167
-451.953	252.304	-0.083	0.141
-450.938	13.787	0.092	-0.072
-449.924	52.974	-0.277	-0.264
-448.909	-200.000	0.066	0.355
-447.895	-82.934	0.375	0.121
-446.880	-167.670	-0.176	-0.007
-445.865	14.873	-0.049	-0.038
-444.851	-200.000	-0.014	-0.069
-443.836	-162.114	0.124	0.006
-442.822	-132.843	0.305	-0.039
-441.807	-3.227	0.106	0.073
-440.792	-121.032	0.255	0.043
-439.778	-21.548	-0.079	0.048
-438.763	-66.144	0.211	-0.084
-437.749	-200.000	0.029	-0.141
-436.734	413.770	0.040	-0.084
-435.719	3.010	-0.172	-0.124
-434.705	92.111	0.282	0.315
-433.690	77.201	0.094	-0.099
-432.676	-105.933	-0.182	0.041
-431.661	-139.947	0.290	0.030
-430.646	-97.076	-0.171	-0.044
-429.632	-200.000	0.027	0.211
-428.617	-106.126	-0.290	0.065
-427.603	-88.987	0.169	-0.050
-426.588	-200.000	0.018	0.182
-425.573	800.000	-0.050	-0.212
-424.559	195.112	0.144	0.217
-423.544	713.547	-0.026	0.069
-422.530	524.797	-0.177	-0.414
-421.515	-163.769	-0.321	0.015
-420.500	101.776	0.129	0.150
-419.486	-200.000	0.019	0.328
-418.471	6.512	-0.191	0.141
-417.457	-53.984	0.120	-0.054
-416.442	-22.773	0.144	-0.087
-415.428	-200.000	0.026	0.153
-414.413	43.786	-0.071	-0.065
-413.398	-170.690	0.172	0.006
-412.384	800.000	0.034	0.144
-411.369	358.564	0.080	-0.159
-410.355	52.059	0.160	0.151
-409.340	-200.000	-0.074	-0.424
-408.325	382.871	-0.216	-0.441
-407.311	105.439	0.221	-0.259
-406.296	-42.384	0.148	-0.075
-405.282	646.293	-0.112	-0.285
-404.267	-6.142	0.290	-0.197
-403.252	553.032	-0.038	-0.090
-402.238	154.210	0.074	-0.101
-401.223	118.763	0.126	0.155
-400.209	1.870	-0.185	0.132
-399.194	386.845	0.102	0.209
-398.179	-109.272	-0.048	-0.010
-397.165	-200.000	-0.012	0.390
-396.150	-30.414	-0.262	-0.148
-395.136	-170.839	0.249	-0.008
-394.121	677.147	-0.136	-0.351
-393.106	42.410	-0.310	0.280
-392.092	-149.769	0.067	0.005
-391.077	-8.809	0.226	-0.151
-390.063	-143.014	-0.341	-0.033
-389.048	594.681	-0.114	0.281
-388.033	-91.928	0.236	-0.066
-387.019	-19.702	-0.062	0.038
-386.004	-200.000	-0.015	0.164
-384.990	351.488	-0.191	-0.376
-383.975	-51.100	-0.312	0.145
-382.960	-103.572	0.435	-0.101
-381.946	381.590	0.138	-0.281
-380.931	-41.171	0.113	0.058
-379.917	-200.000	-0.048	0.270
-378.902	318.718	-0.113	-0.212
-377.888	-52.313	0.123	0.057
-376.873	-132.540	0.268	0.034
-375.858	800.000	-0.020	0.086
-374.844	-58.579	0.058	0.025
-373.829	310.263	0.045	0.083
-372.815	-200.000	-0.040	0.190
-371.800	-142.666	-0.312	-0.030
-370.785	-20.501	-0.180	-0.110
-369.771	-153.508	0.239	-0.016
-368.756	-121.249	0.186	-0.031
-367.742	131.644	-0.154	-0.197
-366.727	210.760	0.082	0.128
-365.712	-81.341	-0.196	0.064
-364.698	392.195	0.108	-0.223
-363.683	-34.100	0.312	-0.170
-362.669	-200.000	-0.037	0.318
-361.654	-200.000	0.004	0.102
-360.639	-76.988	-0.099	0.034
-359.625	-127.003	0.054	-0.008
-358.610	263.811	-0.188	-0.324
-357.596	-84.386	-0.188	0.059
-356.581	-149.510	-0.063	-0.005
-355.566	-133.876	-0.049	0.006
-354.552	171.843	-0.113	-0.161
-353.537	-200.000	-0.033	-0.188
-352.523	-80.673	-0.208	-0.069
-351.508	-20.798	-0.280	-0.170
-350.493	35.580	0.220	-0.192
-349.479	-65.037	0.167	0.067
-348.464	82.709	-0.213	0.229
-347.450	800.000	-0.011	0.049
-346.435	-12.987	-0.106	-0.068
-345.420	-122.218	0.412	-0.067
-344.406	-200.000	0.033	0.263
-343.391	115.277	0.119	0.144
-342.377	106.405	0.162	-0.191
-341.362	-104.035	0.071	0.016
-340.348	209.360	0.090	-0.140
-339.333	70.264	-0.054	-0.055
-338.318	800.000	-0.150	0.524
-337.304	680.057	-0.050	0.130
-336.289	159.278	-0.080	0.110
-335.275	-43.565	0.106	0.053
-334.260	-101.745	0.061	-0.015
-333.245	719.327	0.026	0.067
-332.231	174.465	0.032	-0.046
-331.216	0.399	-0.103	0.073
-330.202	-200.000	0.043	0.320
-329.187	107.916	-0.112	-0.132
-328.172	-200.000	0.018	-0.178
-327.158	-138.713	-0.045	-0.005
-326.143	177.597	0.021	-0.031
-325.129	-176.249	-0.033	-0.001
-324.114	-200.000	0.004	0.143
-323.099	-165.453	-0.107	0.005
-322.085	-70.047	0.360	-0.136
-321.070	331.076	0.102	-0.194
-320.056	604.244	-0.090	0.223
-319.041	-89.535	0.316	-0.092
-318.026	-86.366	0.237	0.072
-317.012	168.627	-0.077	-0.109
-315.997	-200.000	-0.043	-0.207
-314.983	329.078	-0.158	-0.300
-313.968	800.000	-0.016	-0.055
-312.953	-200.000	-0.033	-0.163
-311.939	682.135	-0.062	-0.161
-310.924	800.000	0.094	0.308
-309.910	7.410	0.172	0.127
-308.895	-200.000	0.028	0.274
-307.880	0.417	0.233	0.165
-306.866	800.000	-0.071	-0.219
-305.851	-200.000	-0.018	0.156
-304.837	800.000	-0.109	0.338
-303.822	134.219	0.119	0.152
-302.807	800.000	-0.120	0.463
-301.793	-46.404	0.360	0.175
-300.778	-160.617	-0.227	-0.012
-299.764	-71.733	-0.158	-0.058
-298.749	-200.000	-0.063	0.276
-297.735	-200.000	0.062	-0.303
-296.720	214.185	0.103	-0.161
-295.705	-200.000	0.046	0.305
-294.691	260.604	0.016	-0.027
-293.676	521.056	-0.061	0.140
-292.662	-152.427	0.058	-0.004
-291.647	390.013	-0.199	0.409
-290.632	293.577	0.131	-0.236
-289.618	-65.789	0.109	0.043
-288.603	-129.178	0.440	-0.061
-287.589	37.724	0.054	0.047
-286.574	60.038	-0.067	-0.066
-285.559	46.976	-0.043	-0.040
-284.545	421.204	-0.030	0.063
-283.530	-72.324	0.123	-0.045
-282.516	-200.000	0.012	-0.172
-281.501	-51.481	0.448	-0.207
-280.486	184.340	-0.058	-0.085
-279.472	430.519	0.049	-0.104
-278.457	663.367	0.046	0.117
-277.443	-128.698	0.203	-0.028
-276.428	22.330	0.040	-0.032
-275.413	442.196	-0.134	0.291
-274.399	800.000	-0.072	0.307
-273.384	121.138	0.174	0.214
-272.370	-70.381	0.305	-0.114
-271.355	-101.031	-0.164	-0.040
-270.340	-200.000	-0.005	-0.046
-269.326	-96.434	0.050	0.013
-268.311	-142.686	-0.145	0.014
-267.297	-9.964	0.224	0.147
-266.282	-79.609	-0.109	-0.036
-265.267	-90.580	-0.219	-0.063
-264.253	-84.817	0.246	-0.076
-263.238	30.176	-0.102	-0.086
-262.224	-200.000	0.001	0.173
-261.209	800.000	-0.042	-0.141
-260.195	-200.000	-0.013	-0.070
-259.180	-94.839	-0.180	0.048
-258.165	-115.312	0.330	-0.062
-257.151	-200.000	-0.011	0.424
-256.136	-160.368	-0.223	-0.012
-255.122	-96.503	-0.144	0.038
-254.107	360.939	0.091	0.179
-253.092	-95.456	-0.186	0.049
-252.078	-200.000	0.013	0.287
-251.063	-200.000	0.001	0.318
-250.049	42.448	-0.438	-0.393
-249.034	609.853	-0.101	-0.248
-248.019	207.008	0.098	0.150
-247.005	-200.000	-0.004	0.036
-245.990	240.317	-0.009	0.015
-244.976	-200.000	-0.015	0.199
-243.961	78.669	0.060	0.064
-242.946	59.546	0.089	-0.087
-241.932	249.983	0.138	0.232
-240.917	-120.200	-0.040	0.007
-239.903	60.204	-0.268	-0.261
-238.888	-200.000	-0.011	0.084
-237.873	-132.723	0.263	0.033
-236.859	798.497	-0.044	0.121
-235.844	800.000	0.041	-0.133
-234.830	-106.695	-0.188	-0.041
-233.815	-63.133	-0.195	-0.079
-232.800	-63.240	-0.152	-0.062
-231.786	800.000	-0.044	0.128
-230.771	-200.000	0.012	0.072
-229.757	-153.171	0.137	-0.009
-228.742	-0.272	-0.198	0.139
-227.727	800.000	0.079	-0.224
-226.713	-36.683	-0.388	0.206
-225.698	342.477	-0.099	-0.191
-224.684	103.288	0.201	-0.233
-223.669	276.898	0.108	-0.189
-222.655	-200.000	-0.076	-0.386
-221.640	53.241	0.404	0.382
-220.625	410.869	-0.150	0.313
-219.611	-135.189	-0.454	0.054
-218.596	401.362	0.067	-0.138
-217.582	-44.995	-0.274	-0.134
-216.567	-11.382	-0.078	0.051
-215.552	-7.071	-0.094	-0.063
-214.538	35.059	0.078	0.067
-213.523	-200.000	0.020	0.200
-212.509	-23.372	-0.075	0.044
-211.494	-200.000	0.035	0.183
-210.479	58.256	-0.183	-0.177
-209.465	100.062	0.069	0.079
-208.450	15.104	0.208	0.161
-207.436	1.008	-0.272	0.192
-206.421	191.703	0.105	0.155
-205.406	-87.831	0.135	-0.040
-204.392	-14.473	-0.264	-0.168
-203.377	-31.394	0.386	0.214
-202.363	-200.000	-0.017	-0.079
-201.348	-200.000	-0.009	0.119
-200.333	-4.656	-0.310	0.211
-199.319	-72.308	-0.070	0.026
-198.304	-200.000	-0.029	0.192
-197.290	-45.121	0.163	0.080
-196.275	-200.000	-0.017	-0.359
-195.260	149.853	-0.230	0.307
-194.246	-111.196	0.278	0.056
-193.231	-77.072	-0.207	0.071
-192.217	-21.451	-0.028	0.017
-191.202	-200.000	-0.004	0.188
-190.187	-90.503	-0.029	0.008
-189.173	-200.000	-0.038	-0.388
-188.158	-55.539	-0.161	-0.071
-187.144	800.000	0.040	0.170
-186.129	-1.565	0.093	0.065
-185.114	-106.497	-0.115	0.025
-184.100	800.000	-0.097	0.378
-183.085	485.064	0.068	0.153
-182.071	64.554	0.129	0.128
-181.056	181.663	0.076	-0.110
-180.042	176.336	0.150	0.215
-179.027	-36.058	-0.247	-0.131
-178.012	-17.159	0.178	-0.111
-176.998	204.368	-0.150	0.228
-175.983	150.193	-0.155	-0.207
-174.969	24.902	-0.088	-0.072
-173.954	-69.904	0.402	-0.151
-172.939	-200.000	-0.012	0.235
-171.925	16.458	-0.095	0.074
-170.910	35.227	-0.232	0.200
-169.896	307.536	-0.148	-0.271
-168.881	74.360	0.039	-0.040
-167.866	-140.429	0.244	0.025
-166.852	-200.000	-0.018	0.211
-165.837	-200.000	0.012	0.123
-164.823	299.532	-0.118	0.214
-163.808	-32.505	-0.176	-0.097
-162.793	59.154	0.170	-0.164
-161.779	210.165	0.180	-0.277
-160.764	-48.763	-0.266	0.125
-159.750	-200.000	-0.017	0.257
-158.735	21.027	0.317	0.253
-157.720	-200.000	0.013	-0.136
-156.706	-200.000	0.086	-0.501
-155.691	-8.745	-0.286	-0.189
-154.677	-104.011	-0.177	0.041
-153.662	-153.951	-0.226	-0.015
-152.647	800.000	0.159	0.458
-151.633	386.552	-0.117	0.237
-150.618	56.110	0.128	-0.122
-149.604	248.262	-0.206	-0.343
-148.589	208.405	-0.075	0.116
-147.574	-200.000	-0.029	-0.165
-146.560	-174.129	0.283	-0.008
-145.545	800.000	0.116	-0.493
-144.531	186.502	0.098	-0.143
-143.516	-104.463	0.319	-0.072
-142.502	518.642	0.095	0.219
-141.487	-124.086	0.249	-0.038
-140.472	67.145	0.249	0.249
-139.458	-40.768	-0.152	-0.078
-138.443	-170.594	0.476	0.016
-137.429	-40.855	0.215	-0.110
-136.414	17.914	0.153	-0.119
-135.399	-200.000	0.038	0.245
-134.385	-85.513	0.231	0.071
-133.370	265.429	-0.118	-0.202
-132.356	-200.000	-0.033	-0.379
-131.341	-104.716	0.291	0.066
-130.326	784.359	-0.138	0.373
-129.312	800.000	0.169	0.534
-128.297	78.288	-0.049	0.051
-127.283	460.984	0.064	0.141
-126.268	31.985	-0.248	0.210
-125.253	800.000	-0.028	0.119
-124.239	-114.489	-0.148	0.028
-123.224	210.932	0.042	0.064
