DTS Sentinel unit serial number:	SN413079Multiplexer serial number:	ORYXHardware model number:	OX4-SRSoftware version number:	ORYX F/W v4.00 Oryx Data Collector v3.7.2.0data status	okinstallation	princeton_trtdifferential loss correction	single-endedforward channel	channel 1reverse channel	N/Adate	2019/09/13time	01:50:35forward acquisition time	60.00reverse acquisition time	0.00gamma	496.2192k internal	0.2331k external	0.2331temperature offset calibration	1.0148default loss term (dB/km)	0.3790temperature slope calibration	1.0000multiplexer offset coefficient	1.0000multiplexer slope coefficient	1.0000fibre end	0.00T internal ref (°C)	27.67T ext. ref 1 (°C)	3.81T ext. ref 2 (°C)	22.31length (m)	temperature (°C)	Stokes	anti-Stokes-747.200	800.000	0.087	0.243
-746.185	-46.706	-0.053	0.026
-745.171	-200.000	-0.025	-0.155
-744.156	29.787	0.167	-0.144
-743.142	312.601	0.112	-0.211
-742.127	-99.969	-0.583	-0.146
-741.112	-20.784	0.192	0.118
-740.098	-146.713	-0.049	-0.004
-739.083	34.082	0.207	-0.181
-738.069	-200.000	-0.068	0.326
-737.054	-40.975	0.339	-0.176
-736.039	-121.393	-0.133	-0.022
-735.025	-84.255	0.152	0.048
-734.010	142.718	0.242	-0.324
-732.996	-22.628	-0.119	-0.072
-731.981	-200.000	-0.022	0.160
-730.966	-155.958	-0.297	0.019
-729.952	-85.035	-0.443	-0.140
-728.937	124.662	0.223	-0.283
-727.923	-155.235	0.186	0.012
-726.908	-200.000	0.006	-0.222
-725.894	11.040	-0.136	0.104
-724.879	213.456	0.127	-0.202
-723.864	800.000	0.052	0.160
-722.850	543.255	0.048	0.115
-721.835	-42.209	-0.165	0.085
-720.821	-130.744	-0.422	0.057
-719.806	18.743	0.292	0.235
-718.791	764.436	-0.133	0.364
-717.777	-200.000	-0.019	-0.145
-716.762	194.701	-0.054	-0.082
-715.748	800.000	-0.045	-0.130
-714.733	-142.163	-0.215	-0.021
-713.718	21.228	0.202	-0.165
-712.704	-101.236	0.101	-0.025
-711.689	-127.667	-0.298	0.043
-710.675	178.926	0.196	0.288
-709.660	-200.000	0.011	0.100
-708.645	92.706	0.137	-0.155
-707.631	525.555	-0.133	-0.314
-706.616	-100.075	-0.155	0.039
-705.602	-95.520	0.050	-0.013
-704.587	111.618	0.163	-0.197
-703.572	-200.000	0.012	-0.306
-702.558	-2.325	0.208	-0.147
-701.543	68.701	-0.095	-0.098
-700.529	-61.525	0.215	-0.091
-699.514	115.153	-0.024	-0.030
-698.499	-116.133	0.151	-0.028
-697.485	3.913	-0.305	-0.224
-696.470	-200.000	0.056	0.278
-695.456	576.027	-0.091	0.222
-694.441	478.247	0.061	-0.139
-693.426	800.000	0.069	-0.294
-692.412	-169.812	-0.186	-0.007
-691.397	52.105	-0.364	-0.349
-690.383	570.401	-0.038	-0.094
-689.368	-34.086	-0.231	-0.127
-688.354	529.974	-0.067	-0.159
-687.339	-101.788	-0.163	-0.040
-686.324	800.000	-0.021	-0.083
-685.310	615.313	0.040	-0.101
-684.295	800.000	-0.046	0.166
-683.281	10.986	0.264	0.203
-682.266	73.672	0.393	-0.414
-681.251	302.976	-0.196	-0.365
-680.237	240.422	-0.042	0.071
-679.222	-200.000	0.007	0.126
-678.208	800.000	0.077	-0.269
-677.193	-200.000	-0.033	-0.159
-676.178	-41.087	0.151	0.078
-675.164	-7.259	-0.219	0.149
-674.149	148.944	-0.053	-0.072
-673.135	-200.000	-0.022	-0.133
-672.120	-200.000	0.034	-0.368
-671.105	279.569	-0.039	0.069
-670.091	95.494	-0.112	0.129
-669.076	-77.164	0.207	0.072
-668.062	-2.097	-0.140	0.099
-667.047	800.000	-0.021	0.074
-666.032	-100.512	0.141	-0.035
-665.018	210.899	-0.118	-0.186
-664.003	108.758	-0.038	-0.045
-662.989	46.028	0.167	0.155
-661.974	33.327	0.098	0.086
-660.959	-168.758	-0.306	-0.012
-659.945	-200.000	0.004	0.166
-658.930	-144.080	-0.362	-0.034
-657.916	-200.000	0.044	-0.297
-656.901	5.283	0.331	-0.245
-655.886	-200.000	0.013	0.063
-654.872	-104.202	-0.158	-0.037
-653.857	171.310	0.197	-0.283
-652.843	-118.854	0.222	-0.039
-651.828	-200.000	-0.015	0.279
-650.814	249.641	0.108	0.183
-649.799	188.025	-0.052	0.078
-648.784	232.303	-0.126	0.208
-647.770	800.000	-0.058	0.210
-646.755	121.641	0.149	-0.186
-645.741	701.661	0.162	-0.429
-644.726	-61.780	0.133	-0.056
-643.711	-122.701	0.173	-0.028
-642.697	57.019	-0.314	-0.307
-641.682	-14.246	0.109	0.070
-640.668	800.000	0.040	-0.169
-639.653	-49.295	-0.354	0.170
-638.638	-143.943	0.094	-0.009
-637.624	800.000	-0.113	-0.325
-636.609	800.000	0.046	0.178
-635.595	-27.209	-0.277	0.162
-634.580	-103.029	0.093	-0.022
-633.565	-69.765	0.297	-0.114
-632.551	-88.917	0.341	-0.101
-631.536	-109.172	0.145	-0.031
-630.522	-52.091	-0.111	-0.052
-629.507	-135.040	0.178	-0.022
-628.492	613.966	-0.053	-0.134
-627.478	30.485	0.100	-0.085
-626.463	-200.000	-0.000	-0.163
-625.449	257.347	-0.270	-0.464
-624.434	-119.846	0.265	-0.046
-623.419	-13.417	0.094	0.061
-622.405	800.000	-0.053	0.190
-621.390	24.724	0.174	-0.144
-620.376	574.303	-0.126	-0.308
-619.361	800.000	0.110	0.457
-618.346	256.658	0.184	0.316
-617.332	519.868	-0.145	-0.341
-616.317	-17.523	0.234	0.147
-615.303	12.790	-0.090	0.070
-614.288	800.000	-0.092	-0.256
-613.273	98.223	0.257	-0.296
-612.259	800.000	-0.058	-0.168
-611.244	293.870	-0.097	0.177
-610.230	167.472	0.205	-0.292
-609.215	-12.204	-0.333	0.218
-608.201	-95.417	0.102	-0.027
-607.186	211.579	0.133	0.209
-606.171	46.180	-0.076	-0.070
-605.157	-200.000	0.009	0.166
-604.142	34.636	-0.204	-0.179
-603.128	800.000	-0.120	-0.375
-602.113	-200.000	-0.062	-0.328
-601.098	748.557	-0.116	-0.312
-600.084	-120.535	0.246	-0.042
-599.069	-200.000	-0.013	-0.078
-598.055	12.645	0.074	-0.058
-597.040	-24.434	-0.298	0.178
-596.025	338.326	-0.088	-0.172
-595.011	-200.000	-0.001	0.141
-593.996	341.154	-0.076	0.148
-592.982	-90.066	0.213	0.062
-591.967	-120.253	-0.271	0.046
-590.952	800.000	-0.093	0.354
-589.938	-35.238	-0.223	-0.122
-588.923	-32.829	-0.231	0.128
-587.909	28.879	-0.243	-0.206
-586.894	-200.000	0.029	-0.141
-585.879	-23.419	0.133	0.080
-584.865	-181.202	0.068	-0.001
-583.850	-25.984	-0.194	0.114
-582.836	800.000	-0.113	0.371
-581.821	83.803	-0.161	0.176
-580.806	-158.244	-0.082	-0.005
-579.792	-15.242	0.401	-0.256
-578.777	-81.927	0.276	0.090
-577.763	180.162	0.053	-0.077
-576.748	800.000	-0.034	0.126
-575.733	156.090	-0.116	-0.160
-574.719	-128.021	0.098	-0.014
-573.704	253.678	-0.142	0.243
-572.690	170.273	0.198	0.283
-571.675	115.233	0.076	0.093
-570.661	800.000	-0.115	0.346
-569.646	-93.577	-0.384	-0.106
-568.631	-200.000	0.004	-0.052
-567.617	-200.000	0.030	0.184
-566.602	-110.180	0.229	-0.048
-565.588	224.372	-0.075	0.121
-564.573	-99.211	-0.284	-0.072
-563.558	481.625	-0.127	-0.288
-562.544	800.000	-0.106	-0.461
-561.529	224.537	0.052	-0.084
-560.515	-163.894	-0.319	-0.015
-559.500	203.352	-0.093	0.144
-558.485	800.000	-0.047	-0.196
-557.471	-200.000	-0.027	-0.139
-556.456	-144.657	-0.139	-0.013
-555.442	481.001	-0.161	0.364
-554.427	-93.195	0.133	-0.037
-553.412	-62.601	-0.320	-0.133
-552.398	10.574	0.177	0.134
-551.383	167.657	-0.103	0.147
-550.369	45.824	0.067	-0.062
-549.354	89.569	0.095	0.106
-548.339	349.023	-0.167	-0.329
-547.325	-200.000	0.029	0.216
-546.310	-28.925	0.099	0.057
-545.296	800.000	0.142	0.413
-544.281	12.058	0.314	0.241
-543.266	-200.000	-0.081	0.509
-542.252	194.037	-0.131	-0.197
-541.237	62.890	-0.231	0.231
-540.223	215.299	0.046	0.072
-539.208	721.216	-0.073	0.193
-538.193	186.069	0.178	0.264
-537.179	47.892	-0.240	0.224
-536.164	-126.303	-0.189	0.028
-535.150	-143.941	-0.163	-0.015
-534.135	469.372	0.078	0.175
-533.121	4.203	0.264	0.193
-532.106	-177.853	0.278	0.007
-531.091	-37.830	-0.026	-0.014
-530.077	442.564	-0.085	0.186
-529.062	-200.000	-0.010	-0.122
-528.048	175.034	-0.061	0.089
-527.033	91.065	-0.133	-0.149
-526.018	282.722	-0.151	-0.270
-525.004	153.717	0.079	0.108
-523.989	-47.689	0.305	0.148
-522.975	800.000	-0.021	-0.073
-521.960	-159.548	0.108	-0.006
-520.945	800.000	0.081	-0.247
-519.931	-8.580	-0.192	-0.129
-518.916	-200.000	0.058	0.283
-517.902	-91.739	-0.222	0.063
-516.887	-86.040	-0.063	-0.019
-515.872	800.000	0.050	0.192
-514.858	-99.431	-0.153	-0.038
-513.843	-200.000	-0.061	0.353
-512.829	-84.142	0.062	-0.019
-511.814	800.000	0.112	-0.380
-510.799	31.101	0.045	-0.039
-509.785	-86.569	-0.254	-0.078
-508.770	800.000	0.082	-0.276
-507.756	-200.000	-0.047	-0.240
-506.741	415.010	0.043	-0.092
-505.726	-200.000	0.037	0.169
-504.712	81.855	-0.128	-0.139
-503.697	180.307	0.030	0.044
-502.683	800.000	0.013	0.054
-501.668	-200.000	-0.022	0.229
-500.653	148.043	0.203	-0.274
-499.639	72.118	-0.135	-0.140
-498.624	-18.653	-0.241	0.150
-497.610	30.450	0.157	-0.134
-496.595	-200.000	0.002	-0.072
-495.581	-200.000	-0.022	-0.224
-494.566	80.647	0.022	-0.024
-493.551	-67.650	-0.027	-0.010
-492.537	-90.532	0.525	-0.152
-491.522	155.666	-0.120	-0.165
-490.508	-200.000	0.008	-0.139
-489.493	329.986	0.067	0.128
-488.478	800.000	0.061	0.190
-487.464	-96.983	-0.180	-0.047
-486.449	-117.246	-0.193	-0.035
-485.435	-4.998	0.117	-0.080
-484.420	438.992	-0.064	-0.140
-483.405	148.850	0.005	0.006
-482.391	255.916	0.120	-0.206
-481.376	-71.794	0.111	0.041
-480.362	399.174	0.065	0.136
-479.347	-21.473	-0.180	-0.110
-478.332	-145.388	-0.323	-0.029
-477.318	47.436	0.237	0.220
-476.303	-80.233	-0.044	-0.015
-475.289	-200.000	-0.045	0.284
-474.274	68.092	0.276	-0.282
-473.259	-200.000	0.001	-0.079
-472.245	800.000	0.041	-0.148
-471.230	800.000	-0.124	-0.466
-470.216	37.936	-0.205	-0.181
-469.201	-160.865	0.181	0.009
-468.186	-1.946	-0.320	-0.224
-467.172	42.843	-0.092	-0.084
-466.157	52.347	-0.154	0.147
-465.143	14.049	0.126	0.098
-464.128	-57.889	0.229	0.100
-463.113	800.000	-0.072	-0.242
-462.099	206.525	0.090	-0.140
-461.084	79.993	0.123	-0.131
-460.070	-28.268	0.063	-0.036
-459.055	-200.000	0.003	-0.396
-458.040	800.000	0.049	0.161
-457.026	664.553	0.060	0.155
-456.011	-105.906	-0.228	0.051
-454.997	-26.581	-0.549	-0.320
-453.982	800.000	0.055	-0.168
-452.968	-66.352	0.404	-0.160
-451.953	-99.312	-0.239	0.060
-450.938	-36.847	-0.391	-0.209
-449.924	-200.000	0.006	0.086
-448.909	-90.405	0.116	-0.033
-447.895	56.519	-0.101	0.098
-446.880	-62.387	0.135	-0.056
-445.865	162.139	-0.078	0.109
-444.851	-68.670	0.135	0.052
-443.836	-200.000	0.052	-0.367
-442.822	63.345	-0.089	-0.089
-441.807	62.137	-0.228	0.226
-440.792	760.829	0.077	0.207
-439.778	800.000	0.118	0.403
-438.763	-114.444	0.153	-0.029
-437.749	370.916	0.063	0.127
-436.734	-124.905	-0.196	-0.030
-435.719	-104.705	0.180	0.041
-434.705	-127.915	0.231	-0.033
-433.690	-127.358	0.126	0.018
-432.676	800.000	-0.071	-0.208
-431.661	-200.000	-0.007	-0.111
-430.646	79.757	0.278	-0.297
-429.632	48.210	-0.338	-0.314
-428.617	256.343	0.060	0.102
-427.603	800.000	0.164	-0.477
-426.588	-7.354	0.175	-0.118
-425.573	800.000	0.077	0.250
-424.559	159.120	0.191	0.264
-423.544	-200.000	-0.012	0.106
-422.530	15.686	0.061	0.048
-421.515	-70.943	0.074	-0.028
-420.500	700.737	-0.029	-0.077
-419.486	-200.000	-0.024	0.256
-418.471	753.120	0.024	0.065
-417.457	227.987	-0.117	-0.190
-416.442	176.365	0.057	0.082
-415.428	173.365	0.075	-0.108
-414.413	800.000	-0.077	0.275
-413.398	-25.128	0.108	-0.064
-412.384	-200.000	0.001	0.263
-411.369	-200.000	0.005	0.251
-410.355	-200.000	-0.123	0.555
-409.340	37.045	-0.144	0.126
-408.325	-77.013	-0.391	0.136
-407.311	-19.502	-0.116	0.071
-406.296	800.000	0.071	-0.254
-405.282	-65.344	-0.167	0.067
-404.267	-70.622	0.070	0.026
-403.252	119.595	-0.070	0.086
-402.238	470.017	0.054	-0.121
-401.223	-32.490	0.129	-0.071
-400.209	-9.600	-0.323	-0.214
-399.194	-95.725	0.152	-0.040
-398.179	216.968	-0.108	-0.170
-397.165	800.000	0.066	0.188
-396.150	-107.341	-0.084	0.018
-395.136	-200.000	-0.026	0.185
-394.121	-81.781	-0.344	-0.112
-393.106	16.046	-0.254	-0.199
-392.092	37.443	0.125	0.110
-391.077	61.201	0.330	-0.326
-390.063	-200.000	0.002	0.053
-389.048	-200.000	-0.016	-0.113
-388.033	105.258	-0.190	0.223
-387.019	-50.023	-0.222	0.104
-386.004	-200.000	-0.015	0.074
-384.990	190.011	-0.251	-0.373
-383.975	-200.000	-0.005	-0.234
-382.960	-69.298	0.438	-0.167
-381.946	-200.000	-0.027	0.179
-380.931	-158.037	-0.076	-0.004
-379.917	-200.000	0.011	-0.171
-378.902	-59.312	-0.263	-0.112
-377.888	-200.000	0.003	-0.047
-376.873	800.000	0.062	0.197
-375.858	-200.000	0.014	0.097
-374.844	-200.000	0.000	0.129
-373.829	-91.399	-0.208	-0.059
-372.815	-22.107	0.167	0.101
-371.800	-68.005	0.045	-0.018
-370.785	274.537	-0.234	0.412
-369.771	-26.882	-0.094	0.054
-368.756	-72.215	0.433	-0.159
-367.742	-8.129	-0.263	-0.176
-366.727	-97.334	0.106	-0.027
-365.712	7.496	-0.147	-0.109
-364.698	283.093	0.062	-0.111
-363.683	-137.934	-0.123	0.014
-362.669	46.633	-0.118	0.109
-361.654	-193.261	0.292	-0.003
-360.639	-200.000	0.055	0.477
-359.625	-192.834	-0.217	-0.002
-358.610	-108.753	0.135	-0.029
-357.596	-200.000	0.026	-0.227
-356.581	-30.187	-0.174	-0.098
-355.566	32.678	0.303	0.260
-354.552	-200.000	0.003	0.065
-353.537	-200.000	0.041	-0.459
-352.523	-200.000	0.001	-0.185
-351.508	-96.743	-0.229	-0.060
-350.493	363.614	0.245	-0.489
-349.479	-71.523	-0.232	-0.086
-348.464	-75.630	-0.055	-0.019
-347.450	153.087	0.190	0.257
-346.435	345.328	-0.081	-0.157
-345.420	-200.000	0.015	-0.197
-344.406	5.163	-0.223	-0.163
-343.391	5.048	0.110	0.080
-342.377	-117.512	-0.162	0.029
-341.362	138.161	-0.058	-0.076
-340.348	87.205	-0.195	0.213
-339.333	14.267	-0.188	-0.145
-338.318	102.107	-0.233	0.270
-337.304	-142.622	-0.073	0.007
-336.289	-70.402	0.378	0.142
-335.275	781.847	-0.063	-0.170
-334.260	800.000	0.035	0.115
-333.245	65.641	0.025	0.025
-332.231	-200.000	0.005	-0.228
-331.216	28.131	0.306	0.255
-330.202	307.343	-0.041	0.075
-329.187	-200.000	-0.011	-0.156
-328.172	-36.283	0.423	0.226
-327.158	16.487	0.259	0.202
-326.143	72.601	0.095	-0.098
-325.129	-9.754	0.131	-0.087
-324.114	-3.821	-0.359	-0.247
-323.099	-200.000	-0.004	-0.341
-322.085	800.000	0.066	-0.238
-321.070	-16.081	-0.187	-0.118
-320.056	-18.257	-0.213	-0.132
-319.041	174.246	0.087	-0.124
-318.026	273.645	0.064	-0.111
-317.012	113.631	-0.080	0.096
-315.997	-86.185	0.297	-0.091
-314.983	-200.000	-0.051	-0.239
-313.968	238.147	0.149	-0.244
-312.953	103.772	-0.092	0.107
-311.939	-7.670	0.092	-0.061
-310.924	-99.948	-0.322	0.080
-309.910	-200.000	-0.009	-0.196
-308.895	88.545	-0.225	0.248
-307.880	-49.164	0.118	0.056
-306.866	800.000	-0.115	0.319
-305.851	800.000	0.091	0.350
-304.837	800.000	0.057	-0.179
-303.822	-0.139	0.228	0.160
-302.807	-200.000	-0.010	-0.214
-301.793	275.011	-0.165	-0.289
-300.778	-200.000	0.092	0.441
-299.764	658.720	0.029	-0.073
-298.749	200.944	0.059	-0.090
-297.735	-133.868	0.347	-0.043
-296.720	192.632	0.053	-0.080
-295.705	800.000	-0.151	-0.416
-294.691	466.538	-0.115	0.254
-293.676	281.493	-0.177	0.313
-292.662	-200.000	0.031	0.186
-291.647	-200.000	0.056	0.255
-290.632	32.422	0.132	0.113
-289.618	-200.000	-0.018	0.196
-288.603	-155.807	0.110	0.007
-287.589	-168.962	-0.205	0.008
-286.574	622.160	-0.093	-0.231
-285.559	-158.467	0.343	0.020
-284.545	-31.626	0.145	0.080
-283.530	-200.000	-0.026	0.140
-282.516	800.000	0.049	-0.164
-281.501	-133.766	-0.212	-0.026
-280.486	-200.000	-0.003	0.171
-279.472	-86.053	-0.216	-0.066
-278.457	-90.710	-0.171	0.049
-277.443	-101.624	0.214	-0.051
-276.428	-49.115	0.280	-0.133
-275.413	288.811	-0.116	0.207
-274.399	218.228	0.096	0.151
-273.384	-200.000	-0.020	-0.131
-272.370	293.629	0.081	-0.147
-271.355	-6.373	-0.115	-0.078
-270.340	-137.272	0.296	0.033
-269.326	-200.000	0.025	0.305
-268.311	-11.113	0.174	-0.114
-267.297	277.660	0.064	0.112
-266.282	121.788	0.105	0.129
-265.267	-200.000	0.032	0.152
-264.253	-93.209	-0.041	-0.011
-263.238	-200.000	0.040	-0.240
-262.224	-200.000	0.009	0.193
-261.209	-86.333	-0.234	-0.071
-260.195	-64.190	-0.067	0.027
-259.180	-129.296	-0.043	-0.006
-258.165	208.277	-0.076	0.117
-257.151	800.000	-0.150	0.425
-256.136	79.269	0.032	0.034
-255.122	-34.168	-0.024	0.013
-254.107	166.478	0.333	0.466
-253.092	-77.374	-0.153	-0.052
-252.078	-92.277	0.164	0.046
-251.063	-109.597	-0.211	0.044
-250.049	238.041	0.138	0.226
-249.034	-22.908	-0.381	-0.227
-248.019	800.000	-0.094	-0.278
-247.005	136.757	-0.086	-0.111
-245.990	17.463	-0.123	0.097
-244.976	-94.894	-0.075	-0.020
-243.961	361.913	-0.040	0.080
-242.946	-36.537	0.309	0.164
-241.932	-74.835	-0.185	0.066
-240.917	-48.619	0.226	0.107
-239.903	-98.967	0.279	0.070
-238.888	-68.560	0.221	0.085
-237.873	30.902	0.087	0.074
-236.859	-107.289	0.413	0.090
-235.844	13.565	0.123	-0.094
-234.830	18.940	-0.157	0.124
-233.815	69.049	0.101	0.103
-232.800	22.096	-0.243	0.196
-231.786	-31.607	0.197	0.109
-230.771	-54.686	0.289	0.129
-229.757	-72.799	-0.058	-0.021
-228.742	-144.590	-0.073	0.007
-227.727	-74.137	-0.160	-0.057
-226.713	-200.000	0.010	0.226
-225.698	-6.870	-0.187	-0.126
-224.684	-45.129	0.331	0.162
-223.669	28.279	0.242	-0.202
-222.655	593.641	-0.110	0.268
-221.640	-200.000	0.057	-0.397
-220.625	3.314	0.284	-0.204
-219.611	-40.610	0.175	-0.089
-218.596	-200.000	-0.056	0.467
-217.582	691.723	0.105	0.270
-216.567	536.416	0.010	-0.023
-215.552	601.863	-0.029	0.072
-214.538	800.000	0.073	0.211
-213.523	-200.000	-0.034	-0.334
-212.509	536.557	-0.104	0.243
-211.494	-200.000	0.018	0.224
-210.479	-36.924	0.161	-0.085
-209.465	352.510	-0.163	0.319
-208.450	-200.000	-0.038	0.298
-207.436	-194.765	-0.210	0.002
-206.421	204.915	0.076	0.116
-205.406	139.097	-0.153	0.199
-204.392	62.793	0.272	-0.268
-203.377	-52.940	0.167	0.076
-202.363	-116.544	0.124	-0.023
-201.348	34.950	0.032	-0.027
-200.333	-200.000	0.016	-0.145
-199.319	61.898	-0.037	-0.036
-198.304	191.564	-0.154	0.229
-197.290	-91.451	0.194	0.055
-196.275	513.927	-0.082	-0.188
-195.260	699.384	0.115	0.297
-194.246	-66.972	-0.129	-0.050
-193.231	205.451	0.102	0.156
-192.217	-167.716	0.179	0.007
-191.202	337.500	-0.182	-0.348
-190.187	-79.733	0.221	-0.073
-189.173	-73.319	-0.160	0.058
-188.158	-73.323	-0.186	0.067
-187.144	-176.071	0.022	0.001
-186.129	196.161	0.197	0.296
-185.114	-6.460	-0.100	0.067
-184.100	-200.000	0.020	0.168
-183.085	32.782	0.051	0.043
-182.071	-31.928	0.201	0.111
-181.056	314.743	-0.157	-0.291
-180.042	-200.000	-0.004	-0.159
-179.027	90.494	-0.197	-0.217
-178.012	-189.963	0.067	-0.001
-176.998	48.947	0.085	0.079
-175.983	800.000	-0.090	-0.340
-174.969	-200.000	0.040	-0.228
-173.954	-109.406	-0.046	0.010
-172.939	198.367	-0.103	0.155
-171.925	-115.806	-0.217	-0.040
-170.910	-200.000	0.200	0.001
-169.896	800.000	-0.102	-0.423
-168.881	800.000	0.002	0.005
-167.866	-200.000	-0.006	-0.415
-166.852	-101.595	-0.133	0.032
-165.837	467.973	0.109	0.241
-164.823	494.368	-0.067	0.151
-163.808	78.632	-0.189	-0.199
-162.793	-150.724	0.147	-0.011
-161.779	613.487	-0.083	0.205
-160.764	46.879	-0.048	-0.044
-159.750	518.645	-0.106	0.245
-158.735	701.638	0.061	0.159
-157.720	-200.000	0.013	0.120
-156.706	-122.995	-0.137	-0.022
-155.691	-145.973	0.512	0.045
-154.677	800.000	0.058	0.194
-153.662	-113.077	0.507	-0.099
-152.647	55.008	0.179	-0.170
-151.633	-2.847	-0.245	-0.168
-150.618	-200.000	0.038	-0.229
-149.604	-200.000	0.006	-0.093
-148.589	46.713	0.127	-0.116
-147.574	-172.276	-0.085	-0.003
-146.560	800.000	0.066	-0.279
-145.545	-11.916	0.243	0.157
-144.531	-85.619	0.231	0.071
-143.516	-6.275	0.183	0.123
-142.502	368.117	0.134	0.266
-141.487	800.000	0.006	-0.017
-140.472	-136.124	0.433	0.050
-139.458	-200.000	0.081	0.411
-138.443	121.463	0.069	-0.085
-137.429	633.371	0.117	-0.291
-136.414	-200.000	-0.012	0.371
-135.399	17.822	0.057	0.045
-134.385	405.800	0.071	0.148
-133.370	43.903	-0.091	-0.082
-132.356	12.621	-0.173	0.131
-131.341	46.362	0.165	0.151
-130.326	51.303	-0.345	0.322
-129.312	-9.323	-0.184	0.121
-128.297	426.647	0.083	0.176
-127.283	596.506	-0.135	-0.328
-126.268	-39.864	-0.049	-0.025
-125.253	-156.004	0.119	-0.007
-124.239	-76.814	-0.402	0.138
-123.224	-174.157	-0.052	0.001
-122.210	-143.003	0.192	-0.018
-121.195	162.163	0.030	-0.041
