DTS Sentinel unit serial number:	SN413079Multiplexer serial number:	ORYXHardware model number:	OX4-SRSoftware version number:	ORYX F/W v4.00 Oryx Data Collector v3.7.2.0data status	okinstallation	princeton_trtdifferential loss correction	single-endedforward channel	channel 1reverse channel	N/Adate	2019/09/13time	17:30:35forward acquisition time	60.00reverse acquisition time	0.00gamma	496.2192k internal	0.2298k external	0.2298temperature offset calibration	1.0133default loss term (dB/km)	0.3790temperature slope calibration	1.0000multiplexer offset coefficient	1.0000multiplexer slope coefficient	1.0000fibre end	0.00T internal ref (°C)	36.12T ext. ref 1 (°C)	5.28T ext. ref 2 (°C)	29.78length (m)	temperature (°C)	Stokes	anti-Stokes-747.200	147.415	-0.099	-0.136
-746.185	-200.000	-0.017	-0.255
-745.171	34.892	-0.301	0.268
-744.156	-67.082	-0.051	0.020
-743.142	-125.176	0.184	0.029
-742.127	61.590	0.229	0.232
-741.112	780.135	-0.015	0.041
-740.098	800.000	0.091	0.348
-739.083	800.000	-0.060	-0.199
-738.069	-44.932	0.251	0.128
-737.054	-135.220	-0.046	-0.006
-736.039	-13.857	0.229	0.151
-735.025	-63.151	0.370	0.156
-734.010	-111.496	-0.239	-0.050
-732.996	-167.262	-0.128	-0.005
-731.981	-93.156	-0.333	-0.094
-730.966	-60.729	-0.060	0.026
-729.952	289.881	-0.232	0.430
-728.937	655.127	-0.115	0.302
-727.923	-66.883	-0.205	0.083
-726.908	-200.000	-0.005	0.060
-725.894	443.871	-0.095	0.212
-724.879	-192.074	-0.157	0.002
-723.864	-200.000	-0.017	-0.215
-722.850	470.459	0.120	0.275
-721.835	367.727	-0.124	-0.256
-720.821	74.721	-0.158	0.170
-719.806	-185.085	0.030	0.000
-718.791	-30.214	-0.103	-0.059
-717.777	-200.000	-0.032	-0.271
-716.762	125.912	-0.277	-0.357
-715.748	430.141	0.033	0.073
-714.733	-200.000	-0.001	-0.291
-713.718	-122.192	-0.345	0.058
-712.704	-159.939	0.204	-0.011
-711.689	125.419	-0.158	-0.203
-710.675	800.000	-0.070	0.241
-709.660	-200.000	0.045	0.349
-708.645	666.424	-0.047	0.124
-707.631	217.198	0.142	0.230
-706.616	-175.037	-0.108	-0.003
-705.602	-132.422	-0.252	-0.033
-704.587	45.943	-0.237	-0.223
-703.572	1.447	0.140	-0.103
-702.558	-84.753	0.404	0.130
-701.543	8.141	-0.185	-0.142
-700.529	-200.000	-0.019	0.165
-699.514	-119.202	-0.074	0.013
-698.499	-79.573	0.181	-0.062
-697.485	-110.494	-0.122	0.026
-696.470	-110.809	-0.115	-0.024
-695.456	-163.362	-0.138	0.007
-694.441	600.806	0.153	-0.386
-693.426	-118.274	0.289	-0.052
-692.412	-200.000	-0.010	0.079
-691.397	37.381	0.104	0.094
-690.383	14.357	0.032	-0.025
-689.368	800.000	-0.038	-0.130
-688.354	800.000	-0.031	-0.091
-687.339	471.643	0.078	0.178
-686.324	-200.000	0.035	0.234
-685.310	-107.485	-0.023	0.005
-684.295	62.983	-0.151	0.154
-683.281	173.945	0.197	0.290
-682.266	-200.000	-0.003	-0.076
-681.251	39.255	-0.207	-0.188
-680.237	800.000	-0.063	-0.201
-679.222	-200.000	-0.003	-0.178
-678.208	128.407	0.129	0.168
-677.193	-77.039	-0.309	-0.110
-676.178	217.113	-0.126	-0.205
-675.164	-28.318	-0.131	0.077
-674.149	-200.000	-0.001	-0.468
-673.135	-40.986	-0.100	-0.053
-672.120	-78.984	-0.162	-0.056
-671.105	56.067	-0.158	0.156
-670.091	-73.796	0.146	0.054
-669.076	-115.985	-0.235	-0.045
-668.062	258.054	0.080	0.141
-667.047	6.988	-0.370	0.281
-666.032	800.000	-0.058	-0.227
-665.018	150.849	-0.095	0.132
-664.003	800.000	0.093	-0.279
-662.989	-139.932	0.113	-0.012
-661.974	52.460	-0.029	-0.028
-660.959	-91.598	0.245	0.071
-659.945	-200.000	-0.005	-0.053
-658.930	800.000	-0.043	0.189
-657.916	70.350	-0.111	-0.116
-656.901	-94.489	0.098	-0.027
-655.886	-94.828	-0.343	-0.094
-654.872	366.952	0.043	0.087
-653.857	-200.000	0.038	-0.238
-652.843	26.343	0.155	-0.132
-651.828	800.000	-0.030	-0.085
-650.814	197.190	-0.220	-0.341
-649.799	-200.000	0.006	-0.048
-648.784	79.501	-0.234	-0.255
-647.770	-200.000	-0.032	-0.245
-646.755	262.272	0.134	0.236
-645.741	38.943	-0.284	-0.258
-644.726	773.133	0.019	-0.053
-643.711	800.000	-0.130	-0.495
-642.697	-200.000	-0.000	-0.064
-641.682	-200.000	0.001	-0.043
-640.668	-200.000	-0.002	-0.024
-639.653	-68.365	-0.095	-0.038
-638.638	370.712	-0.191	-0.393
-637.624	-200.000	0.013	0.066
-636.609	-200.000	-0.005	0.357
-635.595	-200.000	0.004	0.088
-634.580	-60.927	-0.183	0.079
-633.565	-27.414	-0.216	-0.127
-632.551	17.389	-0.283	-0.228
-631.536	340.199	0.131	-0.259
-630.522	43.577	0.055	-0.051
-629.507	800.000	-0.063	-0.193
-628.492	-195.401	-0.251	-0.002
-627.478	-73.017	0.090	-0.033
-626.463	590.826	-0.097	-0.244
-625.449	195.876	0.217	0.335
-624.434	800.000	0.076	-0.316
-623.419	8.419	0.058	0.044
-622.405	450.334	0.077	-0.173
-621.390	-45.541	-0.198	0.100
-620.376	-149.061	0.118	-0.010
-619.361	-200.000	-0.020	0.292
-618.346	281.748	0.242	0.440
-617.332	72.770	-0.340	-0.360
-616.317	800.000	-0.045	0.151
-615.303	800.000	0.047	0.206
-614.288	-200.000	-0.034	0.219
-613.273	117.522	-0.070	-0.088
-612.259	-200.000	0.019	0.259
-611.244	-9.778	0.240	0.163
-610.230	69.924	-0.146	-0.153
-609.215	-68.177	-0.328	0.130
-608.201	-131.597	-0.244	0.033
-607.186	800.000	-0.023	0.082
-606.171	157.363	0.148	0.208
-605.157	67.503	-0.272	0.282
-604.142	130.470	0.124	-0.161
-603.128	-155.518	-0.175	0.011
-602.113	114.787	-0.154	-0.190
-601.098	104.950	0.176	0.210
-600.084	-200.000	0.014	0.181
-599.069	21.035	0.363	-0.299
-598.055	-186.469	0.146	0.002
-597.040	-200.000	-0.013	0.091
-596.025	-137.038	-0.210	0.024
-595.011	-26.202	0.145	0.086
-593.996	167.757	0.079	-0.114
-592.982	33.538	0.101	-0.089
-591.967	-200.000	-0.007	0.224
-590.952	-127.671	-0.250	0.037
-589.938	501.380	0.109	-0.255
-588.923	-16.271	0.315	-0.203
-587.909	-66.601	0.361	-0.145
-586.894	136.488	-0.143	-0.189
-585.879	227.527	-0.206	0.341
-584.865	800.000	-0.035	-0.105
-583.850	23.887	0.137	0.114
-582.836	224.094	-0.038	-0.062
-581.821	-133.401	0.124	0.016
-580.806	146.848	-0.020	0.027
-579.792	-200.000	0.377	-0.001
-578.777	-37.873	0.074	0.040
-577.763	534.457	-0.077	-0.185
-576.748	568.002	0.127	-0.314
-575.733	-27.007	-0.180	-0.107
-574.719	-200.000	0.009	0.206
-573.704	-74.991	0.135	0.049
-572.690	323.926	0.023	0.045
-571.675	132.768	0.223	-0.292
-570.661	2.257	0.032	-0.024
-569.646	-83.455	0.120	-0.039
-568.631	83.139	0.178	-0.196
-567.617	199.162	-0.132	-0.205
-566.602	129.448	-0.263	-0.341
-565.588	-48.583	0.062	0.030
-564.573	-200.000	-0.037	0.247
-563.558	-200.000	-0.085	-0.417
-562.544	-53.549	-0.171	-0.079
-561.529	-147.052	-0.171	-0.015
-560.515	-19.333	0.176	0.111
-559.500	50.069	-0.182	-0.174
-558.485	-79.844	0.028	0.010
-557.471	-53.666	-0.105	-0.049
-556.456	679.563	0.063	0.166
-555.442	16.193	-0.247	-0.197
-554.427	146.478	0.101	0.137
-553.412	639.392	0.157	-0.405
-552.398	-73.180	-0.237	0.088
-551.383	-66.667	0.169	0.068
-550.369	-200.000	-0.041	-0.210
-549.354	-1.396	0.239	0.171
-548.339	-30.223	-0.157	-0.090
-547.325	800.000	0.041	0.119
-546.310	-1.632	-0.356	0.254
-545.296	167.336	0.110	0.158
-544.281	-200.000	0.017	-0.086
-543.266	-98.206	0.174	-0.045
-542.252	505.148	-0.040	-0.094
-541.237	763.306	-0.078	-0.214
-540.223	292.631	0.031	0.057
-539.208	-23.580	0.215	0.131
-538.193	-90.703	0.172	0.050
-537.179	-200.000	0.018	0.110
-536.164	47.667	0.191	-0.181
-535.150	-127.337	-0.303	0.045
-534.135	-91.184	-0.301	0.087
-533.121	-200.000	-0.044	-0.215
-532.106	-100.227	-0.231	0.058
-531.091	23.014	0.030	0.025
-530.077	-200.000	0.024	0.124
-529.062	-118.963	-0.145	0.026
-528.048	-53.143	-0.343	-0.159
-527.033	352.439	-0.084	-0.169
-526.018	119.964	0.120	-0.150
-525.004	-16.766	0.118	0.076
-523.989	800.000	-0.112	-0.430
-522.975	-200.000	0.002	-0.090
-521.960	-73.020	-0.150	0.056
-520.945	-49.157	0.384	0.186
-519.931	-146.042	-0.182	-0.016
-518.916	-169.512	-0.395	0.015
-517.902	8.658	0.089	-0.068
-516.887	56.914	-0.182	-0.180
-515.872	-131.824	-0.147	0.019
-514.858	800.000	0.063	-0.183
-513.843	-79.859	-0.191	-0.065
-512.829	-200.000	0.013	-0.186
-511.814	174.776	-0.133	-0.195
-510.799	49.373	-0.183	0.174
-509.785	-58.884	-0.127	-0.055
-508.770	-83.152	-0.334	-0.109
-507.756	18.758	-0.112	0.091
-506.741	118.038	-0.221	0.276
-505.726	-200.000	0.008	0.371
-504.712	-173.944	-0.215	0.006
-503.697	-75.386	0.029	-0.011
-502.683	-200.000	0.010	0.382
-501.668	405.357	-0.078	0.167
-500.653	126.622	-0.204	0.261
-499.639	54.003	-0.271	0.264
-498.624	60.326	-0.083	0.083
-497.610	209.941	0.099	0.156
-496.595	47.506	0.213	-0.201
-495.581	-200.000	0.006	-0.039
-494.566	285.139	0.083	-0.152
-493.551	-102.519	0.194	-0.047
-492.537	-80.085	0.328	-0.111
-491.522	-132.103	-0.265	0.035
-490.508	-60.594	0.356	0.153
-489.493	-3.183	0.051	0.036
-488.478	83.290	0.036	0.039
-487.464	626.234	-0.086	0.218
-486.449	36.991	0.131	0.117
-485.435	-126.272	0.077	-0.012
-484.420	-200.000	-0.006	-0.277
-483.405	-122.017	0.323	-0.054
-482.391	149.196	-0.165	-0.226
-481.376	10.466	0.199	-0.153
-480.362	23.979	0.151	-0.126
-479.347	-87.828	0.282	-0.086
-478.332	54.777	-0.043	-0.042
-477.318	207.217	0.122	0.192
-476.303	4.094	-0.123	0.091
-475.289	169.033	-0.135	-0.195
-474.274	-169.056	0.147	0.006
-473.259	-75.225	-0.247	0.089
-472.245	-143.221	-0.061	-0.006
-471.230	-92.507	0.208	0.059
-470.216	6.193	0.118	-0.088
-469.201	457.716	0.171	-0.385
-468.186	178.308	0.129	-0.189
-467.172	66.966	-0.109	0.112
-466.157	-48.063	-0.215	-0.105
-465.143	23.200	0.209	0.173
-464.128	-200.000	0.030	0.175
-463.113	-88.636	0.087	-0.026
-462.099	-200.000	-0.035	-0.307
-461.084	-200.000	-0.012	-0.251
-460.070	104.989	0.224	-0.266
-459.055	55.241	0.090	0.087
-458.040	202.956	0.072	0.113
-457.026	-156.544	-0.297	-0.019
-456.011	46.466	0.184	0.172
-454.997	90.899	0.291	-0.329
-453.982	-12.444	0.126	-0.083
-452.968	78.903	0.272	-0.293
-451.953	-82.665	0.358	0.117
-450.938	-34.693	0.059	-0.033
-449.924	-47.053	-0.084	0.042
-448.909	-200.000	0.027	-0.208
-447.895	30.174	-0.192	0.166
-446.880	-83.648	-0.200	-0.064
-445.865	-65.820	0.139	-0.056
-444.851	592.428	0.089	-0.221
-443.836	-34.523	0.255	0.141
-442.822	213.823	-0.008	0.014
-441.807	-81.241	0.218	0.073
-440.792	800.000	-0.048	-0.177
-439.778	800.000	0.104	0.456
-438.763	65.598	-0.221	0.226
-437.749	13.493	-0.213	-0.167
-436.734	257.868	0.106	0.184
-435.719	50.018	-0.112	-0.106
-434.705	-34.570	0.318	-0.175
-433.690	-168.303	-0.182	-0.007
-432.676	179.556	-0.451	-0.665
-431.661	-12.867	-0.184	0.121
-430.646	-92.541	-0.201	0.057
-429.632	402.296	0.066	0.140
-428.617	-64.045	0.061	0.025
-427.603	800.000	0.092	-0.281
-426.588	-200.000	0.201	-0.000
-425.573	159.070	0.160	0.224
-424.559	376.107	0.145	0.298
-423.544	55.744	0.128	0.125
-422.530	800.000	0.070	-0.220
-421.515	-5.372	-0.217	0.150
-420.500	37.311	0.062	0.055
-419.486	-14.321	-0.135	0.088
-418.471	493.671	-0.209	0.483
-417.457	604.528	-0.158	0.397
-416.442	800.000	0.026	-0.087
-415.428	-115.832	-0.181	0.034
-414.413	150.166	0.219	0.299
-413.398	-78.831	0.190	-0.065
-412.384	-200.000	-0.035	0.264
-411.369	-200.000	0.086	0.496
-410.355	-111.501	0.285	0.058
-409.340	699.292	-0.057	-0.152
-408.325	-100.729	-0.417	-0.104
-407.311	-113.568	-0.155	0.030
-406.296	-12.064	-0.165	-0.109
-405.282	800.000	0.115	-0.346
-404.267	-102.935	0.214	-0.051
-403.252	232.257	-0.071	-0.118
-402.238	65.871	0.229	-0.234
-401.223	361.716	0.065	-0.131
-400.209	21.007	-0.096	0.079
-399.194	782.496	-0.104	-0.288
-398.179	3.114	-0.040	0.030
-397.165	800.000	-0.070	-0.300
-396.150	27.577	0.150	0.127
-395.136	-200.000	-0.012	-0.103
-394.121	-6.112	0.061	-0.042
-393.106	-134.484	0.236	-0.029
-392.092	359.057	-0.045	0.091
-391.077	-153.866	-0.199	0.014
-390.063	126.931	0.142	0.181
-389.048	145.338	-0.218	0.294
-388.033	-122.886	0.097	-0.016
-387.019	-200.000	0.034	0.407
-386.004	92.520	-0.019	0.021
-384.990	149.045	0.090	0.123
-383.975	-9.261	-0.094	0.063
-382.960	119.112	0.036	-0.045
-381.946	99.910	0.063	0.074
-380.931	-144.772	0.196	0.018
-379.917	-3.287	-0.420	0.295
-378.902	23.353	-0.026	0.021
-377.888	-117.039	0.108	-0.020
-376.873	432.561	-0.085	-0.186
-375.858	77.720	0.043	0.046
-374.844	-68.769	-0.206	-0.080
-373.829	-114.069	-0.109	-0.021
-372.815	714.796	0.108	0.289
-371.800	-52.271	-0.369	-0.172
-370.785	-60.906	-0.181	0.077
-369.771	16.499	-0.147	-0.116
-368.756	67.165	-0.236	-0.242
-367.742	33.281	0.167	-0.146
-366.727	-54.523	0.198	0.090
-365.712	114.547	0.161	-0.197
-364.698	-18.108	-0.023	-0.014
-363.683	-39.164	0.284	-0.150
-362.669	-200.000	0.009	-0.141
-361.654	-200.000	0.019	-0.167
-360.639	-200.000	0.000	-0.248
-359.625	114.158	0.186	-0.228
-358.610	12.412	0.061	0.047
-357.596	-200.000	0.014	0.108
-356.581	507.751	0.084	0.195
-355.566	264.954	-0.087	0.153
-354.552	92.771	0.113	0.129
-353.537	-114.944	-0.199	-0.038
-352.523	64.845	-0.083	0.084
-351.508	-141.930	-0.055	0.006
-350.493	-90.931	-0.282	0.082
-349.479	238.646	-0.154	0.257
-348.464	206.755	-0.089	0.140
-347.450	323.025	-0.044	-0.084
-346.435	-34.019	0.260	0.144
-345.420	58.893	0.080	0.079
-344.406	800.000	-0.070	0.210
-343.391	-200.000	-0.053	0.268
-342.377	800.000	0.039	0.145
-341.362	800.000	-0.030	0.124
-340.348	64.349	-0.285	0.289
-339.333	41.943	0.116	-0.106
-338.318	-161.890	-0.250	-0.013
-337.304	230.555	-0.135	-0.223
-336.289	64.189	0.149	0.151
-335.275	-153.443	-0.088	0.006
-334.260	67.118	-0.208	-0.213
-333.245	49.350	0.230	0.217
-332.231	-200.000	0.027	0.186
-331.216	34.424	-0.119	0.105
-330.202	-145.588	-0.219	-0.020
-329.187	377.959	0.077	-0.159
-328.172	800.000	-0.113	0.397
-327.158	-200.000	-0.036	-0.185
-326.143	800.000	0.023	0.091
-325.129	-10.589	-0.147	0.098
-324.114	66.081	0.177	-0.180
-323.099	-15.061	0.250	-0.161
-322.085	-56.962	0.114	0.051
-321.070	398.552	0.025	0.052
-320.056	-136.963	-0.185	0.021
-319.041	-76.888	0.065	0.023
-318.026	-200.000	0.037	-0.264
-317.012	259.126	0.012	0.020
-315.997	-101.612	-0.402	-0.098
-314.983	-200.000	-0.004	-0.028
-313.968	-178.485	-0.161	0.004
-312.953	371.229	-0.123	-0.250
-311.939	-200.000	-0.032	0.210
-310.924	717.132	0.050	-0.134
-309.910	-23.067	0.163	-0.099
-308.895	-51.225	-0.136	-0.064
-307.880	-60.782	0.073	0.031
-306.866	-11.235	0.224	0.148
-305.851	800.000	0.020	-0.076
-304.837	14.084	0.404	0.316
-303.822	4.109	-0.217	0.159
-302.807	-142.623	-0.246	-0.024
-301.793	-7.751	-0.257	0.174
-300.778	-29.470	0.289	-0.166
-299.764	-1.955	0.298	0.210
-298.749	-27.071	-0.105	-0.062
-297.735	-86.891	-0.119	0.036
-296.720	31.242	0.147	0.126
-295.705	-151.488	-0.107	-0.008
-294.691	-109.249	-0.256	-0.054
-293.676	-128.958	0.269	-0.038
-292.662	619.902	0.118	0.298
-291.647	343.827	-0.208	-0.409
-290.632	-61.863	0.081	-0.034
-289.618	143.865	0.107	0.143
-288.603	596.828	0.030	-0.075
-287.589	688.846	0.121	-0.316
-286.574	27.456	-0.187	0.158
-285.559	800.000	0.039	0.164
-284.545	66.007	0.187	0.190
-283.530	-200.000	0.037	0.249
-282.516	69.807	-0.216	0.223
-281.501	-200.000	0.004	0.217
-280.486	180.003	0.125	0.184
-279.472	-53.115	0.199	-0.092
-278.457	592.334	0.154	-0.382
-277.443	-176.955	0.145	-0.004
-276.428	-124.558	0.044	0.007
-275.413	207.284	-0.088	0.138
-274.399	462.564	0.132	0.295
-273.384	-200.000	0.051	-0.387
-272.370	-200.000	-0.029	0.597
-271.355	-20.092	-0.269	0.167
-270.340	-75.919	-0.311	-0.110
-269.326	14.824	0.253	-0.199
-268.311	-31.950	0.044	-0.025
-267.297	-82.772	0.348	-0.113
-266.282	-200.000	-0.015	-0.219
-265.267	-27.702	0.319	0.185
-264.253	7.381	-0.358	0.268
-263.238	-48.181	0.152	0.073
-262.224	-33.936	-0.236	0.130
-261.209	653.441	-0.084	-0.215
-260.195	-135.679	0.402	-0.048
-259.180	-139.578	-0.276	-0.029
-258.165	-31.738	-0.131	-0.073
-257.151	408.124	-0.039	0.083
-256.136	-200.000	0.007	-0.478
-255.122	401.815	0.111	-0.234
-254.107	343.964	0.048	-0.095
-253.092	-200.000	0.016	0.073
-252.078	-200.000	-0.056	0.388
-251.063	-129.034	-0.179	0.025
-250.049	-60.701	-0.027	-0.012
-249.034	81.698	0.067	-0.073
-248.019	121.956	-0.068	0.085
-247.005	-132.156	0.308	-0.040
-245.990	-200.000	-0.036	0.225
-244.976	-73.603	-0.182	-0.066
-243.961	133.154	-0.051	0.065
-242.946	-10.043	0.080	0.053
-241.932	-82.626	0.301	-0.098
-240.917	-200.000	0.049	0.331
-239.903	7.626	0.030	0.023
-238.888	91.646	0.346	0.389
-237.873	-74.905	-0.290	-0.104
-236.859	11.052	0.140	-0.107
-235.844	21.929	0.112	-0.092
-234.830	-200.000	-0.028	-0.146
-233.815	-0.534	0.156	-0.111
-232.800	-200.000	-0.019	-0.188
-231.786	-94.234	-0.194	-0.053
-230.771	-114.627	-0.100	-0.019
-229.757	-56.131	0.346	0.154
-228.742	800.000	-0.037	0.130
-227.727	-16.067	0.153	0.097
-226.713	-188.431	0.323	0.004
-225.698	526.587	0.019	0.044
-224.684	-128.335	-0.212	0.030
-223.669	-139.691	0.409	0.044
-222.655	13.033	0.249	-0.193
-221.640	-80.426	0.133	0.044
-220.625	-135.212	0.320	-0.038
-219.611	-14.712	-0.214	-0.137
-218.596	234.254	-0.173	0.285
-217.582	-60.605	0.367	0.156
-216.567	131.486	-0.083	-0.106
-215.552	101.576	-0.090	-0.105
-214.538	18.104	0.039	-0.031
-213.523	258.942	-0.044	-0.075
-212.509	-200.000	0.014	-0.116
-211.494	177.619	0.255	0.372
-210.479	800.000	0.043	-0.174
-209.465	59.325	0.138	-0.136
-208.450	-110.765	-0.236	-0.049
-207.436	800.000	0.090	-0.329
-206.421	-28.954	-0.105	-0.060
-205.406	-200.000	0.007	-0.176
-204.392	-139.391	-0.291	0.031
-203.377	408.430	-0.211	-0.446
-202.363	800.000	0.033	-0.137
-201.348	-66.819	0.185	-0.073
-200.333	-200.000	0.034	-0.165
-199.319	-200.000	0.017	0.125
-198.304	-129.663	0.221	0.030
-197.290	-200.000	-0.042	0.204
-196.275	16.094	-0.328	-0.259
-195.260	44.249	0.117	0.107
-194.246	76.881	0.155	0.164
-193.231	-103.810	0.108	0.025
-192.217	-146.160	-0.155	-0.014
-191.202	49.366	-0.058	-0.055
-190.187	283.101	0.027	0.049
-189.173	-187.256	0.190	0.003
-188.158	14.269	-0.096	0.075
-187.144	-200.000	0.003	0.108
-186.129	800.000	0.014	-0.055
-185.114	184.225	-0.056	0.083
-184.100	310.538	-0.023	0.042
-183.085	121.964	-0.173	-0.216
-182.071	100.184	-0.147	-0.170
-181.056	-200.000	-0.046	0.275
-180.042	-149.176	0.195	0.016
-179.027	800.000	0.025	0.082
-178.012	800.000	-0.051	0.208
-176.998	-143.242	0.140	0.013
-175.983	-164.056	-0.296	0.014
-174.969	61.816	0.251	0.250
-173.954	-9.626	-0.077	-0.051
-172.939	-200.000	-0.012	-0.052
-171.925	334.686	-0.102	0.197
-170.910	168.580	0.041	0.058
-169.896	-200.000	-0.014	-0.175
-168.881	-200.000	-0.005	0.057
-167.866	-46.652	0.072	-0.035
-166.852	-93.150	-0.082	-0.023
-165.837	36.580	0.317	-0.280
-164.823	-200.000	0.030	0.262
-163.808	-15.521	-0.213	0.136
-162.793	696.141	-0.010	-0.026
-161.779	-192.069	0.313	0.003
-160.764	22.464	-0.176	-0.144
-159.750	57.431	0.124	-0.121
-158.735	-88.297	-0.210	0.063
-157.720	800.000	0.045	0.166
-156.706	3.020	0.260	0.189
-155.691	-20.911	-0.228	-0.139
-154.677	-144.586	-0.053	-0.005
-153.662	-91.572	0.164	0.046
-152.647	-108.169	-0.336	0.073
-151.633	-200.000	-0.038	0.236
-150.618	69.748	-0.053	0.055
-149.604	-30.085	0.159	0.090
-148.589	800.000	0.048	0.151
-147.574	-30.663	0.159	0.090
-146.560	-200.000	-0.026	0.188
-145.545	-148.159	-0.310	0.026
-144.531	-106.560	0.503	-0.112
-143.516	117.138	0.158	-0.193
-142.502	800.000	-0.071	-0.227
-141.487	-13.864	0.232	-0.149
-140.472	-158.644	0.079	0.005
-139.458	165.920	-0.060	0.085
-138.443	-200.000	0.013	-0.155
-137.429	-52.642	-0.343	-0.158
-136.414	-127.847	0.278	-0.040
-135.399	-82.918	-0.056	0.018
-134.385	397.465	0.018	-0.037
-133.370	-43.419	0.250	-0.126
-132.356	14.192	0.110	-0.086
-131.341	800.000	0.042	-0.174
-130.326	-156.791	0.323	-0.020
-129.312	346.462	-0.153	0.300
-128.297	134.078	-0.044	0.057
-127.283	22.490	-0.312	0.254
-126.268	-82.372	0.379	0.123
-125.253	266.487	-0.130	-0.226
-124.239	15.943	0.354	0.278
-123.224	342.556	-0.109	0.213
-122.210	800.000	0.102	-0.423
-121.195	166.614	-0.139	0.196
-120.180	405.819	0.070	0.147
