DTS Sentinel unit serial number:	SN413079Multiplexer serial number:	ORYXHardware model number:	OX4-SRSoftware version number:	ORYX F/W v4.00 Oryx Data Collector v3.7.2.0data status	okinstallation	princeton_trtdifferential loss correction	single-endedforward channel	channel 1reverse channel	N/Adate	2019/09/18time	23:46:35forward acquisition time	60.00reverse acquisition time	0.00gamma	496.2192k internal	0.2342k external	0.2342temperature offset calibration	1.0019default loss term (dB/km)	0.3790temperature slope calibration	1.0000multiplexer offset coefficient	1.0000multiplexer slope coefficient	1.0000fibre end	0.00T internal ref (°C)	23.37T ext. ref 1 (°C)	0.75T ext. ref 2 (°C)	16.24length (m)	temperature (°C)	Stokes	anti-Stokes-747.200	-97.491	-0.154	0.040
-746.185	77.161	-0.136	0.145
-745.171	250.711	0.105	0.178
-744.156	-48.581	0.035	-0.017
-743.142	363.178	-0.101	-0.203
-742.127	-200.000	-0.063	0.284
-741.112	-162.536	-0.384	-0.019
-740.098	-200.000	0.096	0.587
-739.083	-200.000	-0.067	0.345
-738.069	76.926	-0.111	-0.118
-737.054	43.831	0.208	-0.191
-736.039	91.657	-0.138	-0.156
-735.025	163.773	0.048	0.068
-734.010	43.397	-0.101	-0.092
-732.996	-200.000	0.011	-0.177
-731.981	800.000	-0.049	-0.207
-730.966	800.000	0.107	-0.363
-729.952	110.410	-0.305	0.367
-728.937	96.179	-0.161	-0.184
-727.923	-132.750	0.198	-0.025
-726.908	96.269	-0.177	0.203
-725.894	719.612	-0.255	-0.677
-724.879	800.000	-0.122	-0.383
-723.864	800.000	-0.093	0.274
-722.850	194.137	-0.205	0.311
-721.835	-200.000	-0.032	0.152
-720.821	-145.408	-0.118	-0.011
-719.806	800.000	-0.025	-0.100
-718.791	-160.035	0.218	0.012
-717.777	-62.323	-0.229	0.095
-716.762	343.865	0.066	0.130
-715.748	66.960	0.116	-0.118
-714.733	29.644	-0.217	0.185
-713.718	-104.000	-0.478	-0.111
-712.704	-0.399	0.135	-0.096
-711.689	-124.331	0.091	-0.014
-710.675	45.352	-0.169	0.156
-709.660	-200.000	0.318	0.001
-708.645	-75.412	-0.113	0.040
-707.631	-200.000	0.042	-0.348
-706.616	-78.554	-0.256	-0.088
-705.602	-200.000	-0.008	0.300
-704.587	47.806	-0.270	0.252
-703.572	-117.972	0.424	0.076
-702.558	-200.000	0.049	0.331
-701.543	800.000	0.126	0.426
-700.529	605.921	0.064	0.159
-699.514	800.000	0.076	-0.305
-698.499	42.564	-0.032	0.029
-697.485	284.646	-0.105	0.188
-696.470	-200.000	-0.018	0.120
-695.456	-200.000	-0.011	-0.252
-694.441	-41.019	0.167	0.086
-693.426	800.000	-0.045	-0.144
-692.412	17.419	-0.270	0.214
-691.397	16.604	-0.232	-0.183
-690.383	-5.952	0.146	-0.100
-689.368	27.144	0.140	-0.118
-688.354	-64.205	0.192	0.078
-687.339	-200.000	0.014	-0.235
-686.324	163.622	-0.042	-0.060
-685.310	-17.183	-0.204	-0.129
-684.295	19.644	0.181	-0.145
-683.281	178.518	-0.127	-0.186
-682.266	-46.175	-0.110	-0.054
-681.251	800.000	0.026	-0.095
-680.237	308.345	0.085	-0.159
-679.222	32.875	-0.112	0.097
-678.208	-22.542	-0.390	-0.236
-677.193	112.692	-0.219	-0.265
-676.178	-83.820	-0.206	0.066
-675.164	-200.000	-0.001	-0.153
-674.149	-200.000	0.016	0.236
-673.135	403.134	0.030	0.062
-672.120	29.932	0.155	-0.132
-671.105	-71.223	-0.171	-0.064
-670.091	-15.722	0.356	0.227
-669.076	-66.739	-0.134	-0.053
-668.062	300.665	0.112	0.206
-667.047	-200.000	-0.009	-0.203
-666.032	42.756	-0.154	0.140
-665.018	407.811	0.040	-0.085
-664.003	-138.304	-0.075	-0.008
-662.989	644.868	0.015	-0.038
-661.974	-76.792	0.108	-0.038
-660.959	103.861	-0.122	-0.143
-659.945	45.726	0.196	0.181
-658.930	-145.623	0.117	-0.010
-657.916	-127.460	-0.184	0.027
-656.901	-200.000	0.023	-0.235
-655.886	308.827	0.073	-0.136
-654.872	-79.697	0.273	0.092
-653.857	-33.196	-0.204	0.113
-652.843	144.581	0.028	-0.037
-651.828	59.364	0.353	0.347
-650.814	-160.663	-0.175	-0.009
-649.799	-76.624	0.297	-0.104
-648.784	-74.130	0.373	0.135
-647.770	-200.000	0.021	0.198
-646.755	-84.550	-0.109	0.034
-645.741	800.000	-0.038	-0.142
-644.726	468.923	0.164	-0.368
-643.711	-200.000	0.023	-0.335
-642.697	-70.776	0.145	-0.054
-641.682	-200.000	0.035	-0.179
-640.668	-200.000	0.057	0.288
-639.653	241.320	-0.039	0.066
-638.638	800.000	-0.202	-0.597
-637.624	493.500	0.064	-0.146
-636.609	-118.718	-0.131	0.023
-635.595	-200.000	0.004	0.021
-634.580	-39.202	-0.210	-0.110
-633.565	274.259	-0.167	-0.294
-632.551	-40.203	-0.247	-0.128
-631.536	-62.359	-0.459	-0.190
-630.522	-132.271	0.203	0.026
-629.507	210.872	-0.052	-0.082
-628.492	97.852	0.094	-0.108
-627.478	-74.878	-0.256	-0.092
-626.463	98.888	0.159	0.183
-625.449	57.809	-0.118	0.115
-624.434	127.908	-0.188	-0.239
-623.419	22.278	-0.089	-0.072
-622.405	-3.196	-0.210	-0.146
-621.390	153.181	0.154	0.210
-620.376	800.000	-0.090	0.380
-619.361	31.172	0.115	0.098
-618.346	17.995	-0.031	0.025
-617.332	-200.000	0.023	0.220
-616.317	-36.413	-0.140	0.075
-615.303	-200.000	-0.021	0.213
-614.288	-39.132	-0.279	-0.146
-613.273	-29.401	0.265	0.151
-612.259	-100.277	-0.219	-0.054
-611.244	-200.000	-0.036	-0.164
-610.230	75.566	-0.178	-0.187
-609.215	143.216	-0.128	-0.170
-608.201	-106.428	-0.237	0.053
-607.186	-159.484	0.224	-0.012
-606.171	-10.429	-0.107	-0.071
-605.157	-13.880	0.056	-0.036
-604.142	800.000	-0.080	-0.293
-603.128	-41.328	-0.196	-0.100
-602.113	522.930	0.181	-0.422
-601.098	-130.404	-0.141	0.019
-600.084	87.277	0.275	0.303
-599.069	348.411	-0.088	0.174
-598.055	-112.633	0.213	0.042
-597.040	-29.497	-0.254	-0.144
-596.025	-128.002	-0.188	-0.027
-595.011	65.626	0.071	0.071
-593.996	800.000	-0.047	-0.165
-592.982	-81.312	-0.083	0.027
-591.967	-130.814	-0.330	-0.044
-590.952	-163.600	0.369	-0.017
-589.938	22.682	-0.246	0.200
-588.923	259.273	0.189	0.325
-587.909	-38.085	0.405	0.214
-586.894	-53.093	0.118	-0.054
-585.879	135.339	-0.104	0.135
-584.865	-200.000	-0.019	0.300
-583.850	-47.910	0.405	-0.195
-582.836	85.175	-0.121	-0.132
-581.821	-141.677	0.311	0.031
-580.806	-155.831	-0.171	0.011
-579.792	58.586	0.343	-0.335
-578.777	156.522	-0.175	0.240
-577.763	-200.000	0.024	0.114
-576.748	-165.236	-0.307	-0.013
-575.733	-200.000	-0.025	-0.313
-574.719	33.596	0.209	-0.181
-573.704	166.608	-0.183	-0.258
-572.690	800.000	-0.036	0.109
-571.675	-200.000	-0.017	0.226
-570.661	-200.000	-0.007	-0.061
-569.646	-36.281	0.068	0.036
-568.631	-104.754	-0.067	0.015
-567.617	37.178	0.117	-0.103
-566.602	215.202	0.222	-0.350
-565.588	-128.273	-0.176	-0.025
-564.573	-200.000	0.007	0.097
-563.558	54.897	-0.282	0.271
-562.544	377.680	0.147	-0.299
-561.529	-200.000	-0.043	0.381
-560.515	-200.000	-0.041	-0.320
-559.500	64.502	-0.288	0.288
-558.485	-200.000	-0.038	-0.263
-557.471	361.760	-0.151	0.302
-556.456	-93.283	-0.400	0.111
-555.442	-200.000	-0.045	0.255
-554.427	-74.692	-0.388	0.139
-553.412	-103.220	0.086	0.020
-552.398	130.071	-0.086	0.109
-551.383	800.000	0.023	-0.094
-550.369	-130.096	0.056	0.008
-549.354	-49.472	0.160	-0.076
-548.339	-200.000	0.055	-0.443
-547.325	497.242	0.188	-0.429
-546.310	-34.484	0.169	0.092
-545.296	-94.725	-0.398	0.107
-544.281	23.053	-0.223	0.182
-543.266	110.196	0.285	0.340
-542.252	-134.822	-0.413	0.050
-541.237	-16.500	-0.125	0.079
-540.223	-112.491	0.237	-0.047
-539.208	250.479	-0.189	0.319
-538.193	-25.023	-0.288	0.170
-537.179	-160.079	0.455	0.025
-536.164	-200.000	0.047	-0.316
-535.150	23.295	0.165	-0.135
-534.135	-200.000	-0.004	-0.289
-533.121	-51.178	-0.211	0.098
-532.106	-42.038	0.169	0.086
-531.091	-47.720	0.420	0.202
-530.077	-118.602	0.227	0.040
-529.062	32.241	-0.106	0.091
-528.048	-78.627	-0.086	-0.029
-527.033	800.000	-0.068	-0.246
-526.018	-200.000	0.414	0.001
-525.004	800.000	-0.029	-0.103
-523.989	-29.720	0.110	-0.062
-522.975	461.646	-0.045	0.099
-521.960	22.066	-0.105	0.085
-520.945	384.935	-0.124	0.253
-519.931	-140.552	0.418	-0.043
-518.916	-36.405	0.306	-0.164
-517.902	-160.844	0.175	-0.009
-516.887	-37.080	0.015	0.008
-515.872	800.000	0.037	-0.104
-514.858	-3.316	0.016	0.011
-513.843	84.053	-0.325	-0.352
-512.829	-158.167	-0.122	-0.007
-511.814	66.946	0.063	-0.064
-510.799	-107.676	-0.178	-0.039
-509.785	82.873	-0.170	0.183
-508.770	-200.000	-0.024	0.172
-507.756	211.104	-0.209	-0.326
-506.741	-200.000	0.029	0.212
-505.726	800.000	-0.058	0.245
-504.712	-175.614	0.290	0.008
-503.697	-106.883	-0.140	-0.031
-502.683	-67.207	0.035	0.014
-501.668	-200.000	-0.056	-0.346
-500.653	-24.946	0.194	0.114
-499.639	140.733	0.144	0.189
-498.624	136.767	-0.197	-0.255
-497.610	78.771	-0.158	-0.168
-496.595	-77.946	-0.421	-0.144
-495.581	-123.245	0.307	-0.049
-494.566	-98.895	0.210	0.053
-493.551	-9.132	-0.172	-0.114
-492.537	-200.000	0.013	0.086
-491.522	-121.129	0.326	-0.054
-490.508	-34.717	0.266	0.144
-489.493	800.000	0.049	0.213
-488.478	-146.943	-0.154	0.013
-487.464	143.446	-0.135	-0.179
-486.449	2.170	-0.114	0.082
-485.435	112.964	0.233	0.280
-484.420	800.000	-0.060	0.214
-483.405	122.906	0.121	-0.150
-482.391	-103.984	0.226	-0.052
-481.376	-200.000	0.015	-0.096
-480.362	-89.307	-0.216	0.063
-479.347	-93.441	0.285	0.078
-478.332	-47.174	-0.200	-0.097
-477.318	79.940	0.130	0.138
-476.303	-105.099	0.095	-0.021
-475.289	800.000	-0.077	0.266
-474.274	-200.000	-0.073	0.327
-473.259	-1.200	-0.054	0.038
-472.245	-4.811	0.054	-0.037
-471.230	236.596	-0.224	-0.368
-470.216	800.000	-0.122	-0.354
-469.201	25.101	-0.188	0.154
-468.186	-85.809	-0.160	0.049
-467.172	-200.000	-0.029	0.128
-466.157	322.042	-0.126	0.238
-465.143	688.318	-0.109	0.282
-464.128	800.000	0.012	-0.033
-463.113	800.000	0.057	-0.173
-462.099	128.048	0.040	-0.050
-461.084	-200.000	0.006	0.172
-460.070	11.385	-0.129	-0.098
-459.055	14.459	-0.210	0.163
-458.040	-79.323	-0.337	-0.113
-457.026	40.141	0.091	-0.081
-456.011	10.654	-0.137	-0.103
-454.997	132.831	-0.234	-0.299
-453.982	-200.000	-0.009	-0.176
-452.968	-63.861	0.153	-0.062
-451.953	214.472	-0.158	0.248
-450.938	-11.773	-0.195	-0.127
-449.924	8.243	0.157	0.117
-448.909	-166.507	-0.179	-0.007
-447.895	494.074	0.083	0.188
-446.880	51.824	-0.098	-0.092
-445.865	-116.209	0.063	0.012
-444.851	92.393	0.012	-0.014
-443.836	-200.000	-0.039	-0.187
-442.822	-51.232	-0.438	-0.203
-441.807	158.565	0.173	-0.237
-440.792	-200.000	0.019	-0.161
-439.778	752.954	0.127	-0.340
-438.763	629.910	0.066	-0.166
-437.749	-107.907	-0.151	-0.032
-436.734	91.750	0.138	0.154
-435.719	36.019	0.080	0.069
-434.705	-39.825	0.264	0.137
-433.690	800.000	0.003	0.014
-432.676	79.799	0.264	-0.281
-431.661	-68.025	0.278	-0.107
-430.646	-133.627	-0.205	-0.025
-429.632	76.424	-0.327	-0.342
-428.617	106.535	0.136	-0.160
-427.603	-88.161	-0.204	-0.060
-426.588	235.906	0.093	-0.153
-425.573	591.047	0.082	-0.200
-424.559	74.829	-0.151	-0.157
-423.544	-157.891	0.306	-0.018
-422.530	-200.000	-0.011	-0.281
-421.515	-15.778	0.292	0.184
-420.500	24.584	-0.276	0.226
-419.486	300.146	0.212	0.386
-418.471	-145.868	-0.253	-0.022
-417.457	110.168	-0.064	0.076
-416.442	47.846	0.101	-0.094
-415.428	-121.441	-0.225	0.037
-414.413	704.419	-0.024	0.062
-413.398	800.000	0.062	-0.216
-412.384	-76.176	0.385	0.134
-411.369	-108.199	-0.536	-0.115
-410.355	-80.029	-0.041	-0.014
-409.340	9.950	-0.389	0.292
-408.325	-200.000	-0.001	-0.087
-407.311	-200.000	-0.010	-0.074
-406.296	-200.000	-0.017	-0.180
-405.282	649.009	-0.061	0.154
-404.267	245.086	0.182	0.303
-403.252	-40.070	0.218	-0.112
-402.238	-200.000	0.005	0.277
-401.223	-96.182	0.226	-0.059
-400.209	180.730	0.180	0.262
-399.194	419.251	0.152	0.321
-398.179	3.056	-0.239	0.171
-397.165	800.000	0.070	-0.302
-396.150	800.000	-0.037	-0.152
-395.136	-38.062	-0.200	0.105
-394.121	800.000	0.014	0.049
-393.106	800.000	0.036	0.154
-392.092	77.924	0.206	-0.217
-391.077	487.192	0.082	-0.185
-390.063	5.080	0.138	-0.100
-389.048	-129.287	-0.234	0.032
-388.033	-93.136	0.219	0.060
-387.019	196.653	-0.002	-0.003
-386.004	-200.000	0.055	-0.261
-384.990	-161.941	-0.230	0.012
-383.975	45.718	0.094	0.085
-382.960	-42.464	-0.209	-0.105
-381.946	26.361	0.046	-0.038
-380.931	117.430	0.048	0.058
-379.917	396.905	-0.052	-0.108
-378.902	-200.000	0.014	-0.112
-377.888	-200.000	-0.002	-0.247
-376.873	-126.246	0.154	0.023
-375.858	283.378	-0.098	0.174
-374.844	122.077	-0.069	-0.084
-373.829	304.238	-0.190	0.348
-372.815	-63.269	-0.164	0.067
-371.800	383.005	-0.168	-0.341
-370.785	93.135	-0.273	-0.305
-369.771	-67.094	-0.103	-0.040
-368.756	-32.203	0.148	-0.081
-367.742	-143.749	0.047	-0.004
-366.727	800.000	0.020	-0.055
-365.712	709.438	-0.101	0.262
-364.698	-110.974	0.278	-0.056
-363.683	-46.940	0.157	0.076
-362.669	-200.000	-0.012	-0.274
-361.654	19.662	0.067	-0.053
-360.639	-89.429	-0.045	0.013
-359.625	-92.915	-0.258	0.071
-358.610	-200.000	0.308	-0.000
-357.596	399.800	0.036	-0.075
-356.581	-53.927	0.221	-0.099
-355.566	161.463	0.195	-0.270
-354.552	191.391	0.110	-0.164
-353.537	17.204	0.089	-0.070
-352.523	-98.412	0.021	-0.005
-351.508	176.514	-0.305	0.437
-350.493	800.000	0.047	-0.161
-349.479	-41.662	-0.178	-0.090
-348.464	-45.331	-0.485	0.237
-347.450	227.113	0.127	0.204
-346.435	135.710	-0.280	0.360
-345.420	-14.135	-0.138	0.088
-344.406	-200.000	0.070	0.356
-343.391	211.029	0.087	-0.135
-342.377	-17.933	0.430	-0.266
-341.362	-147.052	0.194	0.016
-340.348	47.804	-0.125	0.115
-339.333	-85.173	0.037	-0.011
-338.318	85.830	-0.067	-0.073
-337.304	32.429	0.029	0.025
-336.289	-200.000	0.005	-0.089
-335.275	-200.000	0.042	-0.315
-334.260	9.618	-0.153	0.114
-333.245	3.016	0.109	0.078
-332.231	800.000	-0.041	-0.168
-331.216	-54.455	-0.149	-0.067
-330.202	800.000	-0.048	-0.156
-329.187	116.638	0.158	-0.191
-328.172	800.000	-0.041	-0.158
-327.158	-200.000	0.038	-0.382
-326.143	-96.769	0.038	0.010
-325.129	-126.811	0.364	-0.053
-324.114	9.566	0.129	-0.096
-323.099	-43.577	-0.165	0.082
-322.085	5.046	0.189	0.137
-321.070	-2.375	0.114	-0.079
-320.056	-200.000	0.029	0.488
-319.041	800.000	-0.025	-0.094
-318.026	-57.807	-0.045	-0.020
-317.012	271.292	0.147	0.255
-315.997	-30.495	-0.320	0.179
-314.983	-105.109	-0.183	0.041
-313.968	-200.000	0.042	-0.199
-312.953	-78.737	0.167	0.056
-311.939	285.846	-0.094	-0.167
-310.924	95.514	-0.056	-0.062
-309.910	218.779	-0.109	-0.172
-308.895	-175.742	-0.038	-0.001
-307.880	260.715	-0.015	-0.026
-306.866	-200.000	-0.023	-0.316
-305.851	99.506	0.208	-0.237
-304.837	679.886	0.024	0.062
-303.822	-200.000	0.035	0.223
-302.807	-164.105	0.267	-0.012
-301.793	-177.041	0.310	-0.008
-300.778	-81.303	0.152	0.049
-299.764	-97.478	0.558	0.143
-298.749	50.189	-0.159	0.148
-297.735	800.000	-0.067	-0.191
-296.720	-200.000	-0.026	0.217
-295.705	119.767	0.130	-0.158
-294.691	62.582	0.120	-0.118
-293.676	664.828	-0.063	0.160
-292.662	-200.000	0.041	0.177
-291.647	-74.373	0.272	-0.096
-290.632	800.000	0.051	-0.191
-289.618	-200.000	0.008	-0.369
-288.603	800.000	0.078	0.223
-287.589	-92.336	-0.221	0.061
-286.574	163.266	-0.151	-0.208
-285.559	-90.404	0.314	-0.090
-284.545	-57.235	-0.177	-0.077
-283.530	-79.743	0.105	0.035
-282.516	6.915	0.151	0.110
-281.501	-62.706	-0.301	0.123
-280.486	-112.644	0.375	0.073
-279.472	50.021	0.271	0.251
-278.457	-200.000	0.041	0.198
-277.443	-105.387	0.168	0.038
-276.428	-172.883	-0.127	0.004
-275.413	-200.000	-0.045	0.225
-274.399	95.227	-0.152	-0.170
-273.384	152.760	-0.096	0.128
-272.370	188.792	-0.039	0.058
-271.355	690.520	-0.080	0.207
-270.340	800.000	0.071	0.256
-269.326	-200.000	-0.063	0.369
-268.311	212.194	0.107	-0.165
-267.297	-139.993	-0.157	-0.016
-266.282	-128.525	0.142	-0.020
-265.267	467.882	-0.027	-0.059
-264.253	800.000	-0.036	-0.132
-263.238	48.100	-0.172	0.158
-262.224	-71.044	0.293	0.108
-261.209	-106.161	0.136	-0.030
-260.195	-116.203	-0.322	-0.059
-259.180	-111.027	0.017	-0.003
-258.165	-200.000	-0.046	0.249
-257.151	-200.000	0.020	0.367
-256.136	-144.839	-0.310	0.028
-255.122	161.489	-0.126	0.173
-254.107	148.338	0.073	0.097
-253.092	554.219	-0.092	-0.217
-252.078	220.559	0.083	0.131
-251.063	-111.583	-0.275	0.055
-250.049	189.697	-0.112	0.165
-249.034	-200.000	-0.027	0.157
-248.019	28.362	-0.063	-0.052
-247.005	198.871	0.071	-0.107
-245.990	800.000	-0.068	0.276
-244.976	-94.651	-0.348	0.093
-243.961	-200.000	-0.015	-0.195
-242.946	-158.052	-0.132	0.008
-241.932	800.000	-0.052	-0.172
-240.917	-141.204	0.124	0.012
-239.903	56.525	0.090	-0.086
-238.888	-131.270	0.278	-0.036
-237.873	800.000	0.072	0.216
-236.859	800.000	-0.126	-0.442
-235.844	-200.000	0.027	0.390
-234.830	-59.805	0.138	0.058
-233.815	-200.000	0.016	0.185
-232.800	-126.421	0.118	0.017
-231.786	-200.000	-0.030	0.502
-230.771	800.000	0.038	-0.114
-229.757	138.438	0.110	0.141
-228.742	357.730	-0.065	0.128
-227.727	-115.082	-0.134	0.025
-226.713	-12.262	-0.160	0.103
-225.698	-200.000	0.004	0.067
-224.684	-72.546	0.383	-0.139
-223.669	98.815	-0.121	0.137
-222.655	-76.145	0.204	0.071
-221.640	-200.000	0.040	-0.300
-220.625	-200.000	0.021	-0.244
-219.611	47.138	0.137	0.125
-218.596	281.490	-0.209	0.367
-217.582	-192.490	0.111	-0.001
-216.567	-200.000	0.028	0.131
-215.552	-120.448	0.288	0.048
-214.538	283.988	0.144	-0.254
-213.523	-85.973	-0.025	-0.008
-212.509	287.191	-0.122	-0.216
-211.494	-154.660	-0.278	0.018
-210.479	50.832	0.172	-0.160
-209.465	-6.218	0.165	-0.111
-208.450	-200.000	0.004	0.050
-207.436	-155.175	0.262	0.017
-206.421	-177.924	-0.288	-0.007
-205.406	-61.084	-0.182	0.075
-204.392	-39.258	0.255	0.131
-203.377	-154.219	-0.303	0.020
-202.363	-18.941	0.182	-0.111
-201.348	556.847	-0.028	0.066
-200.333	-200.000	0.020	0.167
-199.319	800.000	-0.032	-0.098
-198.304	800.000	-0.060	-0.223
-197.290	347.701	0.114	-0.220
-196.275	-23.657	0.041	0.024
-195.260	266.540	0.270	0.462
-194.246	-200.000	-0.027	-0.236
-193.231	-200.000	-0.012	0.269
-192.217	-132.457	0.330	0.042
-191.202	43.020	-0.151	0.135
-190.187	-59.824	0.191	-0.080
-189.173	-42.093	0.063	0.032
-188.158	175.344	0.017	0.024
-187.144	800.000	0.220	0.623
-186.129	222.488	-0.157	-0.248
-185.114	-200.000	0.025	-0.242
-184.100	800.000	-0.012	0.039
-183.085	72.922	-0.307	0.314
-182.071	-98.359	0.289	-0.073
-181.056	-200.000	-0.009	0.054
-180.042	185.204	0.113	0.164
-179.027	6.492	-0.254	-0.185
-178.012	439.505	-0.199	0.426
-176.998	-167.017	0.233	-0.009
-175.983	8.822	0.146	-0.107
-174.969	608.070	-0.087	-0.212
-173.954	-98.699	-0.212	-0.053
-172.939	-137.299	-0.223	0.025
-171.925	-8.743	0.131	-0.086
-170.910	-200.000	-0.039	0.394
-169.896	800.000	0.069	0.187
-168.881	162.408	0.294	0.403
-167.866	-31.577	0.248	0.136
-166.852	341.199	-0.161	0.309
-165.837	123.198	0.060	-0.073
-164.823	-200.000	-0.023	-0.315
-163.808	-60.558	-0.038	-0.016
-162.793	24.960	0.073	0.059
-161.779	800.000	-0.098	-0.339
-160.764	-200.000	0.028	-0.123
-159.750	-99.100	0.032	0.008
-158.735	159.523	0.377	-0.514
-157.720	-100.039	-0.057	-0.014
-156.706	-200.000	-0.011	0.107
-155.691	800.000	0.134	0.366
-154.677	134.124	0.010	0.013
-153.662	-200.000	0.003	0.182
-152.647	-88.365	-0.279	-0.082
-151.633	-84.483	-0.248	-0.077
-150.618	800.000	0.059	-0.165
-149.604	175.415	0.104	-0.147
-148.589	30.593	0.221	-0.185
-147.574	-158.544	-0.191	0.011
-146.560	-29.234	-0.103	-0.058
-145.545	122.225	0.125	-0.153
-144.531	-10.311	0.173	0.112
-143.516	711.562	-0.062	-0.160
-142.502	-73.340	0.161	-0.058
-141.487	800.000	-0.040	0.116
-140.472	-2.760	0.089	0.061
-139.458	469.961	0.102	-0.224
-138.443	800.000	0.070	-0.270
-137.429	-151.319	0.198	0.014
-136.414	2.682	0.104	0.074
-135.399	2.608	-0.096	0.068
-134.385	-78.333	-0.083	0.028
-133.370	-6.685	0.077	-0.051
-132.356	-27.157	0.072	-0.041
-131.341	404.759	-0.166	-0.343
-130.326	58.617	-0.112	-0.107
-129.312	-200.000	0.019	0.083
-128.297	208.475	0.136	0.207
-127.283	800.000	-0.052	-0.172
-126.268	-72.117	0.395	0.143
-125.253	221.298	-0.087	0.136
-124.239	6.669	-0.155	-0.112
-123.224	-200.000	0.010	-0.184
-122.210	64.899	0.218	-0.215
-121.195	-137.509	0.104	0.012
