DTS Sentinel unit serial number:	SN413079Multiplexer serial number:	ORYXHardware model number:	OX4-SRSoftware version number:	ORYX F/W v4.00 Oryx Data Collector v3.7.2.0data status	okinstallation	princeton_trtdifferential loss correction	single-endedforward channel	channel 1reverse channel	N/Adate	2019/09/18time	02:22:35forward acquisition time	60.00reverse acquisition time	0.00gamma	496.2192k internal	0.2341k external	0.2341temperature offset calibration	0.9981default loss term (dB/km)	0.3790temperature slope calibration	1.0000multiplexer offset coefficient	1.0000multiplexer slope coefficient	1.0000fibre end	0.00T internal ref (°C)	22.81T ext. ref 1 (°C)	0.17T ext. ref 2 (°C)	16.88length (m)	temperature (°C)	Stokes	anti-Stokes-747.200	192.497	0.170	-0.257
-746.185	-10.874	-0.107	0.071
-745.171	13.658	-0.082	0.064
-744.156	108.713	-0.269	0.322
-743.142	243.061	0.044	0.073
-742.127	91.262	0.074	-0.083
-741.112	-58.962	0.232	-0.101
-740.098	-200.000	0.018	0.470
-739.083	-153.385	0.180	-0.013
-738.069	-120.408	-0.126	-0.021
-737.054	-78.742	-0.427	-0.146
-736.039	-18.021	0.042	0.027
-735.025	1.154	-0.166	0.119
-734.010	-92.713	-0.141	0.040
-732.996	-200.000	0.007	-0.359
-731.981	-121.112	-0.236	0.040
-730.966	-147.778	-0.295	0.025
-729.952	192.707	0.193	-0.292
-728.937	17.676	-0.346	-0.276
-727.923	800.000	0.070	-0.230
-726.908	-70.945	-0.376	-0.142
-725.894	-163.846	0.278	-0.013
-724.879	800.000	-0.097	-0.338
-723.864	-41.758	0.182	-0.093
-722.850	55.080	-0.133	-0.129
-721.835	57.873	-0.139	-0.136
-720.821	178.866	-0.231	-0.338
-719.806	67.712	-0.059	-0.060
-718.791	307.682	0.133	-0.248
-717.777	372.081	0.171	0.348
-716.762	82.294	-0.114	-0.123
-715.748	-169.740	0.346	0.012
-714.733	129.664	-0.173	-0.222
-713.718	152.058	0.200	-0.273
-712.704	-200.000	-0.000	-0.305
-711.689	-200.000	0.049	0.299
-710.675	18.981	0.380	0.305
-709.660	537.615	0.061	-0.146
-708.645	454.715	0.035	0.078
-707.631	-200.000	-0.030	-0.198
-706.616	800.000	-0.040	0.157
-705.602	-200.000	-0.010	-0.194
-704.587	-36.228	0.104	0.056
-703.572	-200.000	-0.038	-0.256
-702.558	156.110	-0.066	-0.091
-701.543	82.332	0.237	0.257
-700.529	-82.962	-0.267	-0.086
-699.514	800.000	0.190	0.607
-698.499	32.511	0.126	0.109
-697.485	89.835	0.060	0.068
-696.470	-7.171	-0.241	0.164
-695.456	-200.000	-0.012	-0.288
-694.441	299.233	0.072	-0.133
-693.426	-119.888	-0.260	0.045
-692.412	-200.000	0.000	0.077
-691.397	-169.805	0.298	0.011
-690.383	-180.828	-0.134	-0.003
-689.368	-42.863	0.175	0.089
-688.354	539.954	-0.111	-0.265
-687.339	143.059	-0.135	-0.180
-686.324	384.985	0.063	-0.131
-685.310	-131.021	-0.158	-0.021
-684.295	324.366	-0.219	0.418
-683.281	-200.000	-0.045	-0.237
-682.266	39.970	0.232	0.208
-681.251	19.176	0.105	0.084
-680.237	-53.944	0.369	0.168
-679.222	-53.722	-0.416	0.190
-678.208	-98.796	-0.313	-0.080
-677.193	279.107	-0.132	0.235
-676.178	800.000	0.087	-0.241
-675.164	143.334	0.108	0.144
-674.149	-81.937	-0.280	0.092
-673.135	-138.406	0.154	0.017
-672.120	-200.000	0.001	0.061
-671.105	117.276	-0.093	-0.114
-670.091	-73.256	0.220	-0.081
-669.076	800.000	-0.072	-0.203
-668.062	266.543	-0.253	-0.442
-667.047	-100.728	0.152	-0.037
-666.032	167.277	-0.078	0.111
-665.018	73.689	0.097	0.102
-664.003	-125.775	0.174	-0.026
-662.989	156.775	-0.139	0.192
-661.974	-200.000	0.003	-0.090
-660.959	-200.000	0.067	-0.307
-659.945	-37.608	-0.268	-0.143
-658.930	65.890	0.293	-0.297
-657.916	-98.270	-0.221	-0.057
-656.901	170.082	0.085	-0.121
-655.886	-200.000	0.031	-0.220
-654.872	439.927	0.200	-0.436
-653.857	-9.198	-0.227	-0.151
-652.843	-200.000	0.003	-0.263
-651.828	-85.539	0.100	-0.031
-650.814	29.340	-0.066	0.056
-649.799	-200.000	-0.009	-0.201
-648.784	-49.493	-0.440	0.209
-647.770	-200.000	0.022	0.096
-646.755	-200.000	0.018	0.119
-645.741	-49.750	-0.201	-0.095
-644.726	4.551	0.342	0.250
-643.711	-118.684	0.111	0.020
-642.697	-68.302	0.144	0.056
-641.682	-130.934	0.275	-0.037
-640.668	-79.883	-0.283	-0.095
-639.653	-130.764	-0.181	-0.024
-638.638	-157.184	-0.198	-0.012
-637.624	800.000	-0.106	-0.401
-636.609	161.145	0.030	0.042
-635.595	94.846	0.094	-0.107
-634.580	76.656	-0.242	-0.256
-633.565	-200.000	-0.021	-0.312
-632.551	-139.025	-0.321	0.035
-631.536	-200.000	0.017	0.282
-630.522	-200.000	-0.054	-0.314
-629.507	484.335	-0.088	-0.200
-628.492	315.626	-0.078	0.147
-627.478	-23.083	0.096	-0.058
-626.463	-200.000	0.038	0.241
-625.449	79.035	0.315	0.337
-624.434	800.000	0.065	0.181
-623.419	-104.395	0.117	-0.027
-622.405	-31.599	-0.328	-0.184
-621.390	100.802	-0.056	0.065
-620.376	395.571	-0.110	0.229
-619.361	286.825	-0.057	0.103
-618.346	-120.776	-0.141	0.024
-617.332	-4.364	0.114	-0.078
-616.317	605.425	0.078	0.195
-615.303	800.000	0.029	0.110
-614.288	-131.719	-0.236	-0.031
-613.273	31.876	0.169	0.145
-612.259	-34.088	-0.240	0.132
-611.244	-76.330	-0.141	-0.049
-610.230	-99.431	-0.005	0.001
-609.215	360.867	0.078	0.156
-608.201	-200.000	-0.009	-0.049
-607.186	485.224	-0.078	-0.177
-606.171	-200.000	0.033	0.195
-605.157	800.000	-0.042	0.120
-604.142	-192.703	0.240	-0.002
-603.128	231.108	-0.079	-0.128
-602.113	-117.859	0.176	0.031
-601.098	152.538	0.081	0.110
-600.084	78.926	0.103	-0.110
-599.069	-76.597	-0.179	0.063
-598.055	657.387	-0.050	-0.128
-597.040	0.991	-0.194	0.139
-596.025	-179.281	-0.100	-0.002
-595.011	4.241	-0.104	0.076
-593.996	-182.899	0.284	0.005
-592.982	4.035	-0.031	0.023
-591.967	-200.000	0.053	0.358
-590.952	-135.172	0.409	0.049
-589.938	191.007	-0.135	0.202
-588.923	119.824	0.167	-0.206
-587.909	-55.062	0.347	-0.156
-586.894	800.000	-0.050	0.182
-585.879	78.826	0.203	0.216
-584.865	-37.258	0.059	0.031
-583.850	-98.990	-0.263	-0.066
-582.836	-27.279	-0.216	-0.125
-581.821	-99.320	-0.152	0.038
-580.806	-200.000	0.010	-0.261
-579.792	-106.441	0.046	-0.010
-578.777	20.520	-0.089	-0.071
-577.763	-93.949	0.241	-0.066
-576.748	-200.000	0.003	-0.231
-575.733	-131.947	-0.311	0.040
-574.719	-200.000	0.003	0.109
-573.704	800.000	-0.055	0.238
-572.690	-160.090	-0.264	-0.014
-571.675	60.546	-0.274	-0.270
-570.661	-181.722	0.098	0.002
-569.646	-139.269	-0.126	-0.013
-568.631	800.000	-0.068	0.208
-567.617	-129.254	0.315	0.044
-566.602	15.743	-0.323	-0.253
-565.588	-132.410	-0.444	-0.057
-564.573	118.114	-0.069	-0.084
-563.558	-179.607	-0.650	-0.014
-562.544	66.816	0.126	0.128
-561.529	9.327	-0.229	-0.172
-560.515	-200.000	0.040	0.229
-559.500	-166.189	-0.050	0.002
-558.485	-200.000	-0.003	-0.016
-557.471	201.248	0.250	0.383
-556.456	218.721	-0.119	0.189
-555.442	318.307	0.046	-0.087
-554.427	-200.000	0.027	-0.212
-553.412	-189.343	0.193	0.002
-552.398	408.370	-0.082	-0.172
-551.383	377.863	0.050	0.101
-550.369	-200.000	-0.152	-0.000
-549.354	-200.000	-0.005	0.300
-548.339	337.316	0.123	0.238
-547.325	-47.395	0.210	-0.102
-546.310	206.410	-0.037	-0.058
-545.296	-167.905	0.286	0.011
-544.281	-200.000	-0.039	0.381
-543.266	-200.000	-0.044	0.231
-542.252	68.843	0.135	0.137
-541.237	641.718	-0.013	-0.033
-540.223	800.000	-0.168	-0.528
-539.208	142.399	0.034	0.045
-538.193	-27.498	0.158	-0.092
-537.179	-61.340	0.251	-0.105
-536.164	800.000	-0.112	-0.323
-535.150	23.315	-0.221	-0.181
-534.135	74.360	0.019	-0.020
-533.121	-69.830	-0.352	0.134
-532.106	-16.443	0.046	-0.029
-531.091	659.846	0.056	0.143
-530.077	49.972	-0.083	0.078
-529.062	53.772	-0.198	-0.189
-528.048	-106.376	-0.160	0.036
-527.033	-200.000	0.020	-0.110
-526.018	-200.000	-0.010	-0.062
-525.004	4.367	-0.260	-0.189
-523.989	19.380	-0.289	-0.231
-522.975	-200.000	0.005	-0.176
-521.960	800.000	-0.055	-0.181
-520.945	40.204	-0.104	0.093
-519.931	-14.117	0.114	-0.073
-518.916	-200.000	-0.069	-0.303
-517.902	297.183	-0.139	-0.254
-516.887	12.420	-0.067	-0.051
-515.872	330.835	0.032	0.061
-514.858	657.806	-0.088	0.226
-513.843	4.956	0.037	0.027
-512.829	82.144	0.183	0.197
-511.814	53.067	-0.275	-0.261
-510.799	-144.404	-0.202	0.019
-509.785	513.740	0.023	0.053
-508.770	-47.074	0.390	-0.189
-507.756	-27.238	0.276	0.160
-506.741	-43.214	-0.136	-0.069
-505.726	800.000	0.089	-0.380
-504.712	-39.376	-0.246	-0.128
-503.697	-200.000	-0.001	0.218
-502.683	-85.114	-0.138	-0.043
-501.668	-24.338	-0.326	0.193
-500.653	-57.306	0.110	-0.048
-499.639	-88.386	-0.287	-0.085
-498.624	-95.527	0.133	-0.035
-497.610	80.005	0.234	-0.250
-496.595	-200.000	0.066	0.453
-495.581	226.411	0.048	-0.078
-494.566	-28.655	-0.063	0.036
-493.551	800.000	0.078	0.237
-492.537	800.000	0.031	0.085
-491.522	18.390	-0.117	0.093
-490.508	-200.000	0.018	-0.243
-489.493	-200.000	-0.015	0.078
-488.478	-200.000	-0.030	0.200
-487.464	-167.218	-0.372	0.015
-486.449	191.485	0.073	-0.110
-485.435	9.307	0.187	-0.140
-484.420	75.653	0.246	0.258
-483.405	136.118	-0.165	-0.213
-482.391	-176.129	0.067	-0.002
-481.376	-91.817	-0.211	-0.059
-480.362	-72.621	-0.079	0.029
-479.347	32.711	0.180	0.154
-478.332	-200.000	0.002	0.044
-477.318	800.000	0.098	-0.315
-476.303	-87.636	-0.047	-0.014
-475.289	216.915	-0.152	-0.240
-474.274	800.000	0.053	-0.217
-473.259	94.536	0.047	-0.052
-472.245	-119.248	-0.209	-0.036
-471.230	-200.000	0.024	0.402
-470.216	22.696	0.430	0.349
-469.201	-89.949	0.154	0.045
-468.186	-200.000	-0.013	-0.194
-467.172	-48.106	-0.147	-0.071
-466.157	68.391	0.059	-0.060
-465.143	-200.000	-0.013	0.176
-464.128	800.000	-0.035	-0.112
-463.113	800.000	-0.081	-0.255
-462.099	450.059	0.075	-0.163
-461.084	150.924	-0.181	0.244
-460.070	-200.000	-0.014	0.114
-459.055	-99.027	-0.210	0.053
-458.040	277.853	-0.245	0.433
-457.026	-200.000	0.026	-0.305
-456.011	271.089	-0.103	0.180
-454.997	175.927	0.090	-0.130
-453.982	-109.546	0.183	0.038
-452.968	52.415	0.041	-0.039
-451.953	185.467	0.088	-0.129
-450.938	800.000	-0.054	-0.154
-449.924	-126.186	-0.134	0.020
-448.909	-200.000	0.077	0.397
-447.895	-131.215	0.324	-0.043
-446.880	-7.392	0.081	-0.055
-445.865	-150.770	-0.050	0.004
-444.851	-200.000	0.044	0.232
-443.836	98.111	0.131	0.149
-442.822	-0.773	0.021	-0.015
-441.807	-7.523	-0.047	-0.031
-440.792	-75.766	0.351	0.123
-439.778	107.556	0.058	0.068
-438.763	-34.647	-0.171	-0.093
-437.749	202.159	0.253	0.386
-436.734	337.396	-0.055	-0.105
-435.719	59.169	-0.191	0.186
-434.705	-200.000	-0.016	-0.106
-433.690	190.565	-0.052	0.077
-432.676	41.902	0.188	0.169
-431.661	-200.000	-0.038	-0.229
-430.646	-4.071	-0.140	0.096
-429.632	-115.326	0.311	-0.058
-428.617	7.851	-0.247	0.183
-427.603	-200.000	0.022	0.132
-426.588	-42.883	0.183	0.092
-425.573	-71.799	-0.056	0.021
-424.559	-200.000	-0.004	-0.249
-423.544	14.311	-0.263	-0.203
-422.530	42.465	-0.223	-0.201
-421.515	-200.000	0.085	-0.411
-420.500	269.917	0.028	-0.049
-419.486	-200.000	-0.004	0.119
-418.471	84.571	-0.170	-0.184
-417.457	80.605	0.087	0.093
-416.442	123.077	-0.166	-0.205
-415.428	800.000	0.073	-0.312
-414.413	-85.867	0.150	-0.046
-413.398	48.521	0.163	0.151
-412.384	-61.084	-0.058	0.024
-411.369	800.000	-0.011	-0.035
-410.355	-173.147	0.168	-0.005
-409.340	58.343	0.185	0.180
-408.325	-56.013	-0.417	0.184
-407.311	-107.769	-0.271	0.059
-406.296	-179.489	0.208	-0.005
-405.282	-73.113	-0.133	0.048
-404.267	386.393	0.152	-0.311
-403.252	27.479	0.221	-0.184
-402.238	65.815	-0.302	-0.303
-401.223	-64.144	0.124	0.050
-400.209	101.724	-0.063	0.073
-399.194	16.822	-0.235	0.184
-398.179	59.016	0.336	0.327
-397.165	800.000	0.120	0.381
-396.150	-78.881	0.362	-0.122
-395.136	-75.623	-0.275	-0.097
-394.121	-200.000	-0.020	0.113
-393.106	-200.000	-0.010	-0.043
-392.092	-40.571	-0.378	0.194
-391.077	800.000	-0.031	0.109
-390.063	-200.000	-0.027	0.174
-389.048	-25.236	0.172	0.100
-388.033	800.000	-0.055	-0.171
-387.019	-12.146	-0.140	-0.091
-386.004	490.887	-0.060	0.137
-384.990	291.755	-0.160	0.287
-383.975	-200.000	-0.021	-0.103
-382.960	498.489	-0.069	0.157
-381.946	-20.505	0.097	-0.059
-380.931	136.781	-0.059	0.076
-379.917	-22.604	0.289	-0.173
-378.902	15.262	0.127	-0.098
-377.888	0.476	0.154	0.109
-376.873	69.683	-0.035	-0.035
-375.858	-39.360	-0.226	0.117
-374.844	-200.000	-0.052	-0.260
-373.829	641.618	0.069	-0.172
-372.815	477.988	0.125	0.279
-371.800	231.651	0.245	-0.397
-370.785	800.000	0.062	-0.197
-369.771	202.518	-0.072	0.109
-368.756	62.044	-0.218	0.215
-367.742	800.000	-0.088	0.288
-366.727	-200.000	0.017	0.192
-365.712	16.082	-0.150	-0.117
-364.698	-43.587	-0.289	-0.144
-363.683	110.651	0.112	0.134
-362.669	637.848	0.119	0.299
-361.654	9.820	-0.283	0.212
-360.639	226.338	0.157	0.251
-359.625	-141.479	-0.327	0.033
-358.610	-10.178	0.290	0.190
-357.596	-48.915	-0.149	-0.070
-356.581	-200.000	-0.041	-0.204
-355.566	-124.728	0.391	0.060
-354.552	236.686	0.080	0.131
-353.537	-180.015	0.109	-0.002
-352.523	-129.045	-0.104	-0.014
-351.508	-150.803	-0.148	0.011
-350.493	-200.000	-0.020	-0.117
-349.479	-200.000	0.008	-0.204
-348.464	-200.000	0.005	-0.443
-347.450	-74.793	-0.237	-0.084
-346.435	190.576	0.047	-0.069
-345.420	-200.000	-0.046	0.210
-344.406	-59.901	-0.349	-0.147
-343.391	3.459	0.292	0.210
-342.377	-43.030	-0.200	-0.100
-341.362	-99.897	0.452	0.111
-340.348	800.000	-0.128	0.402
-339.333	-78.630	0.378	0.127
-338.318	82.691	-0.115	0.123
-337.304	389.366	-0.074	0.151
-336.289	-200.000	0.058	0.318
-335.275	-135.182	-0.198	-0.024
-334.260	36.112	0.202	-0.175
-333.245	-70.851	0.286	0.106
-332.231	341.349	-0.164	-0.316
-331.216	-34.061	0.320	-0.173
-330.202	-179.969	-0.192	0.004
-329.187	-107.035	-0.363	0.079
-328.172	99.333	-0.140	0.160
-327.158	-200.000	0.096	-0.543
-326.143	-128.557	0.198	-0.028
-325.129	242.064	0.097	-0.160
-324.114	17.323	0.011	-0.009
-323.099	307.663	0.073	0.134
-322.085	113.296	0.176	0.211
-321.070	-50.414	0.137	-0.064
-320.056	56.313	0.170	0.163
-319.041	800.000	-0.040	-0.144
-318.026	-106.463	-0.036	-0.008
-317.012	128.632	-0.229	-0.288
-315.997	-98.163	-0.089	0.023
-314.983	-163.306	0.149	-0.007
-313.968	-125.283	-0.090	-0.014
-312.953	-200.000	0.029	-0.163
-311.939	-200.000	-0.020	0.185
-310.924	-25.175	-0.175	0.102
-309.910	17.315	0.266	-0.208
-308.895	405.298	-0.043	0.090
-307.880	-2.756	-0.285	0.196
-306.866	98.069	-0.098	0.111
-305.851	142.075	0.190	-0.248
-304.837	440.104	0.066	-0.143
-303.822	-46.916	0.300	-0.144
-302.807	-94.084	0.340	0.092
-301.793	800.000	-0.024	0.085
-300.778	-74.850	0.318	0.112
-299.764	138.362	0.047	-0.061
-298.749	103.948	-0.135	-0.156
-297.735	65.160	0.152	-0.151
-296.720	117.520	-0.155	-0.188
-295.705	800.000	0.077	-0.248
-294.691	-36.240	-0.258	0.137
-293.676	-200.000	0.006	0.070
-292.662	-131.942	-0.127	0.016
-291.647	-122.549	0.237	0.038
-290.632	78.977	0.214	0.226
-289.618	-60.559	0.098	-0.041
-288.603	-68.356	-0.164	0.063
-287.589	162.092	0.175	-0.242
-286.574	-35.078	-0.249	0.134
-285.559	-167.741	0.184	0.007
-284.545	563.672	-0.061	0.146
-283.530	63.376	-0.191	0.188
-282.516	8.137	0.375	0.277
-281.501	505.323	0.060	-0.137
-280.486	143.535	-0.178	0.234
-279.472	-200.000	0.027	0.223
-278.457	-54.882	0.159	0.071
-277.443	159.512	-0.055	0.075
-276.428	244.553	-0.189	0.313
-275.413	14.003	0.157	0.121
-274.399	149.712	0.199	-0.266
-273.384	85.550	0.152	0.164
-272.370	68.639	0.127	0.128
-271.355	65.278	0.096	0.095
-270.340	-48.358	0.417	0.198
-269.326	-39.729	-0.231	0.119
-268.311	-50.813	0.253	0.117
-267.297	-179.462	-0.219	-0.005
-266.282	800.000	-0.115	-0.345
-265.267	52.232	0.348	-0.327
-264.253	800.000	-0.081	0.220
-263.238	-145.407	-0.173	0.015
-262.224	-18.321	0.041	0.025
-261.209	-106.214	0.034	-0.008
-260.195	800.000	-0.008	-0.031
-259.180	-21.525	-0.377	0.226
-258.165	398.525	-0.016	-0.034
-257.151	-53.982	0.206	-0.092
-256.136	-48.824	-0.160	0.076
-255.122	-200.000	0.028	-0.160
-254.107	-144.558	0.506	0.046
-253.092	54.919	-0.274	-0.261
-252.078	125.382	0.153	0.190
-251.063	124.225	-0.060	0.074
-250.049	136.341	0.093	-0.119
-249.034	-200.000	0.006	-0.252
-248.019	23.239	-0.282	0.228
-247.005	800.000	0.069	-0.242
-245.990	-150.911	0.600	0.045
-244.976	-200.000	-0.032	0.339
-243.961	-200.000	0.008	-0.057
-242.946	-12.067	-0.079	-0.051
-241.932	291.103	-0.092	0.165
-240.917	-167.052	0.090	0.004
-239.903	137.580	-0.139	-0.179
-238.888	261.074	0.076	-0.129
-237.873	-111.305	0.208	0.042
-236.859	-7.387	0.094	0.062
-235.844	-161.635	0.093	-0.005
-234.830	-8.003	0.375	-0.248
-233.815	39.276	-0.020	-0.017
-232.800	800.000	0.038	-0.120
-231.786	136.379	-0.151	0.194
-230.771	120.865	-0.243	-0.297
-229.757	484.375	-0.020	-0.044
-228.742	800.000	0.094	0.258
-227.727	-8.547	0.101	-0.067
-226.713	-160.676	0.241	-0.013
-225.698	171.648	-0.121	0.171
-224.684	-50.162	0.343	0.159
-223.669	800.000	-0.045	0.132
-222.655	-46.711	-0.268	-0.129
-221.640	25.591	0.028	0.023
-220.625	800.000	-0.117	-0.332
-219.611	-122.008	-0.189	-0.030
-218.596	174.833	-0.078	0.112
-217.582	-200.000	0.043	0.220
-216.567	800.000	0.033	-0.110
-215.552	43.427	-0.117	0.105
-214.538	-200.000	0.045	-0.242
-213.523	-92.836	-0.210	-0.058
-212.509	-200.000	-0.024	0.228
-211.494	-184.054	-0.202	-0.003
-210.479	-17.526	-0.315	-0.194
-209.465	-200.000	0.021	0.218
-208.450	106.026	-0.297	-0.345
-207.436	-166.791	-0.215	0.009
-206.421	-7.713	0.020	-0.013
-205.406	-161.411	0.127	-0.006
-204.392	800.000	0.036	-0.137
-203.377	-200.000	-0.001	-0.019
-202.363	-200.000	-0.062	-0.466
-201.348	-69.838	0.196	0.074
-200.333	-200.000	0.022	0.193
-199.319	139.228	0.143	0.184
-198.304	130.342	-0.085	-0.106
-197.290	464.009	-0.132	-0.290
-196.275	117.395	-0.063	-0.076
-195.260	1.481	0.404	-0.285
-194.246	9.996	0.258	0.192
-193.231	-200.000	0.000	0.041
-192.217	-200.000	0.019	0.207
-191.202	-145.182	0.191	-0.017
-190.187	-101.918	-0.209	-0.049
-189.173	-151.463	-0.119	-0.009
-188.158	-200.000	0.001	-0.090
-187.144	53.304	-0.083	0.078
-186.129	73.707	0.153	-0.157
-185.114	7.786	-0.115	-0.085
-184.100	-200.000	-0.063	-0.438
-183.085	31.297	0.120	-0.101
-182.071	-90.735	-0.293	-0.083
-181.056	124.253	0.208	-0.256
-180.042	132.981	-0.036	-0.045
-179.027	-11.494	-0.199	0.128
-178.012	-42.407	0.179	-0.089
-176.998	-28.422	0.112	-0.064
-175.983	-86.536	-0.258	-0.078
-174.969	103.635	-0.184	-0.212
-173.954	800.000	0.078	-0.248
-172.939	-131.862	0.312	0.040
-171.925	5.305	0.259	0.187
-170.910	800.000	-0.052	0.205
-169.896	800.000	0.060	-0.251
-168.881	-8.161	0.120	-0.079
-167.866	-51.257	0.279	-0.128
-166.852	-200.000	0.012	-0.232
-165.837	-2.333	0.222	0.152
-164.823	-32.034	-0.116	-0.063
-163.808	-34.708	0.233	-0.125
-162.793	411.393	-0.187	0.388
-161.779	239.685	0.141	-0.229
-160.764	-108.294	0.148	0.031
-159.750	-200.000	-0.058	0.264
-158.735	-142.162	0.334	0.032
-157.720	558.323	0.172	-0.407
-156.706	-200.000	0.079	0.381
-155.691	-49.055	0.175	-0.082
-154.677	-107.005	-0.263	-0.057
-153.662	-86.062	0.314	0.095
-152.647	-103.132	-0.335	0.078
-151.633	-200.000	-0.016	0.113
-150.618	-153.278	0.081	-0.006
-149.604	-111.200	0.373	-0.075
-148.589	100.784	-0.063	-0.072
-147.574	198.500	-0.139	0.208
-146.560	-200.000	-0.009	0.046
-145.545	-151.566	-0.021	0.002
-144.531	800.000	0.158	-0.444
-143.516	32.965	-0.145	0.123
-142.502	-140.622	0.183	-0.019
-141.487	-1.862	0.170	-0.117
-140.472	-50.011	0.244	0.113
-139.458	800.000	0.037	-0.106
-138.443	104.542	0.081	-0.094
-137.429	130.957	0.171	-0.214
-136.414	800.000	0.128	0.454
-135.399	-169.306	0.469	-0.017
-134.385	-138.356	-0.247	-0.027
-133.370	-155.293	0.208	0.013
-132.356	-26.600	0.248	-0.142
-131.341	-26.451	-0.241	-0.138
-130.326	-26.705	-0.138	0.079
-129.312	190.270	0.102	0.150
-128.297	-112.664	-0.169	0.033
-127.283	701.115	-0.057	-0.148
-126.268	-200.000	0.070	0.400
-125.253	1.349	0.158	-0.111
-124.239	-200.000	-0.047	0.246
-123.224	-75.435	0.092	-0.032
-122.210	-200.000	-0.057	0.289
-121.195	542.733	-0.186	0.435
