DTS Sentinel unit serial number:	SN413079Multiplexer serial number:	ORYXHardware model number:	OX4-SRSoftware version number:	ORYX F/W v4.00 Oryx Data Collector v3.7.2.0data status	okinstallation	princeton_trtdifferential loss correction	single-endedforward channel	channel 1reverse channel	N/Adate	2019/09/14time	02:54:35forward acquisition time	60.00reverse acquisition time	0.00gamma	496.2192k internal	0.2336k external	0.2336temperature offset calibration	1.0076default loss term (dB/km)	0.3790temperature slope calibration	1.0000multiplexer offset coefficient	1.0000multiplexer slope coefficient	1.0000fibre end	0.00T internal ref (°C)	26.56T ext. ref 1 (°C)	3.25T ext. ref 2 (°C)	21.62length (m)	temperature (°C)	Stokes	anti-Stokes-747.200	-200.000	0.022	-0.418
-746.185	511.115	0.061	0.143
-745.171	14.862	-0.118	-0.093
-744.156	-158.010	0.214	-0.013
-743.142	152.804	0.208	-0.285
-742.127	-200.000	-0.102	-0.522
-741.112	-59.121	0.352	-0.152
-740.098	-200.000	0.008	0.087
-739.083	124.684	-0.180	-0.227
-738.069	-24.508	-0.258	0.154
-737.054	249.793	0.256	-0.437
-736.039	26.216	-0.391	0.328
-735.025	-110.581	0.293	-0.061
-734.010	-200.000	-0.003	-0.343
-732.996	-108.246	-0.033	0.007
-731.981	-200.000	-0.004	0.086
-730.966	-143.594	-0.355	0.034
-729.952	800.000	-0.116	-0.403
-728.937	230.163	-0.104	-0.171
-727.923	157.711	-0.124	-0.172
-726.908	11.825	0.233	-0.179
-725.894	129.491	0.147	-0.188
-724.879	-97.911	0.141	0.037
-723.864	73.507	-0.222	-0.233
-722.850	315.908	0.019	-0.036
-721.835	-16.662	0.062	0.039
-720.821	-82.766	-0.100	0.032
-719.806	24.713	-0.021	-0.018
-718.791	-77.063	0.321	0.112
-717.777	323.494	-0.037	0.071
-716.762	-8.813	0.146	-0.099
-715.748	107.667	-0.254	-0.303
-714.733	156.795	0.314	-0.435
-713.718	-50.126	0.302	0.143
-712.704	-200.000	-0.044	0.208
-711.689	55.327	-0.260	0.253
-710.675	81.967	-0.242	-0.263
-709.660	-19.386	0.202	0.126
-708.645	-131.348	-0.187	0.025
-707.631	-51.575	0.516	-0.242
-706.616	-105.421	-0.082	-0.019
-705.602	-200.000	-0.011	0.245
-704.587	-126.389	-0.114	-0.017
-703.572	-114.891	-0.149	-0.028
-702.558	-128.957	-0.163	-0.023
-701.543	-85.380	0.252	-0.079
-700.529	177.280	-0.108	-0.157
-699.514	-117.525	0.173	0.031
-698.499	-80.121	-0.193	-0.065
-697.485	19.106	0.201	-0.162
-696.470	105.958	0.127	-0.151
-695.456	-82.099	0.281	-0.092
-694.441	-75.482	0.169	0.060
-693.426	-16.813	-0.266	-0.169
-692.412	-86.348	-0.308	0.095
-691.397	800.000	0.027	0.090
-690.383	20.338	0.218	0.176
-689.368	-25.063	0.125	-0.074
-688.354	-140.424	-0.129	0.013
-687.339	-9.671	-0.203	0.135
-686.324	-200.000	-0.034	0.207
-685.310	42.604	0.145	0.132
-684.295	-144.234	0.110	-0.010
-683.281	-127.721	-0.296	-0.043
-682.266	26.242	0.067	-0.056
-681.251	-84.985	0.077	0.024
-680.237	129.862	0.165	0.212
-679.222	454.978	-0.084	-0.186
-678.208	-92.689	0.240	-0.067
-677.193	-4.483	-0.347	-0.240
-676.178	295.854	-0.057	-0.104
-675.164	-200.000	0.004	-0.060
-674.149	-168.767	0.489	0.018
-673.135	-55.996	-0.161	-0.072
-672.120	126.451	-0.089	-0.113
-671.105	-200.000	0.012	0.172
-670.091	42.160	0.159	-0.145
-669.076	46.679	0.219	-0.204
-668.062	529.750	-0.069	-0.162
-667.047	-6.818	-0.122	-0.083
-666.032	132.192	-0.136	0.176
-665.018	122.737	-0.216	0.271
-664.003	-75.112	0.134	0.048
-662.989	800.000	0.046	-0.150
-661.974	800.000	-0.036	0.114
-660.959	-58.366	0.222	-0.097
-659.945	800.000	-0.119	-0.394
-658.930	-200.000	0.024	0.124
-657.916	-79.780	0.317	-0.107
-656.901	-168.470	-0.171	-0.007
-655.886	-14.492	-0.222	-0.143
-654.872	303.946	0.069	0.129
-653.857	75.690	-0.130	-0.137
-652.843	3.129	0.387	-0.282
-651.828	-34.518	0.387	0.212
-650.814	75.795	-0.144	0.152
-649.799	800.000	-0.117	-0.344
-648.784	489.759	0.038	-0.086
-647.770	-172.576	0.242	-0.008
-646.755	442.833	-0.035	0.077
-645.741	212.889	0.143	-0.226
-644.726	-146.720	0.310	0.027
-643.711	-19.575	-0.131	0.081
-642.697	173.362	-0.070	0.101
-641.682	423.970	0.076	-0.164
-640.668	-73.709	-0.050	-0.018
-639.653	648.083	-0.158	-0.405
-638.638	65.213	0.084	0.085
-637.624	143.149	-0.055	-0.073
-636.609	384.910	-0.079	-0.162
-635.595	-33.601	-0.329	-0.182
-634.580	-200.000	-0.014	-0.199
-633.565	104.508	0.033	-0.038
-632.551	-16.217	-0.209	-0.133
-631.536	19.143	0.320	0.257
-630.522	117.711	0.102	0.125
-629.507	800.000	-0.096	0.289
-628.492	282.285	0.055	0.099
-627.478	-111.526	-0.117	0.024
-626.463	-200.000	-0.015	0.301
-625.449	-110.734	0.112	0.023
-624.434	-200.000	0.049	-0.219
-623.419	-6.279	0.439	0.299
-622.405	-60.598	-0.054	0.023
-621.390	43.503	0.093	0.085
-620.376	200.826	0.064	0.098
-619.361	17.609	-0.262	0.208
-618.346	-55.690	0.211	-0.094
-617.332	225.571	-0.068	-0.110
-616.317	-54.146	0.199	-0.090
-615.303	800.000	-0.042	0.169
-614.288	2.192	-0.207	0.150
-613.273	-187.579	-0.353	-0.005
-612.259	-126.706	-0.113	-0.017
-611.244	90.701	-0.087	0.098
-610.230	21.366	0.113	0.091
-609.215	91.627	-0.149	-0.167
-608.201	200.136	0.044	-0.067
-607.186	800.000	0.092	-0.260
-606.171	-73.528	0.227	0.083
-605.157	-147.942	-0.233	-0.019
-604.142	133.544	-0.073	-0.094
-603.128	14.766	0.165	-0.129
-602.113	-53.229	0.151	0.069
-601.098	-87.914	-0.149	0.045
-600.084	121.187	-0.115	-0.143
-599.069	-178.081	-0.179	0.004
-598.055	244.574	-0.155	-0.260
-597.040	-138.165	0.292	-0.032
-596.025	84.878	0.229	0.251
-595.011	379.123	0.146	-0.298
-593.996	51.949	0.056	-0.053
-592.982	-102.322	0.207	-0.050
-591.967	800.000	0.047	0.182
-590.952	-30.349	-0.256	-0.145
-589.938	-200.000	-0.030	-0.273
-588.923	168.556	0.095	-0.135
-587.909	-23.828	0.220	0.131
-586.894	-72.138	-0.054	-0.020
-585.879	-200.000	-0.036	0.189
-584.865	-200.000	-0.021	-0.419
-583.850	317.869	0.021	0.039
-582.836	675.677	0.236	-0.613
-581.821	-64.363	0.565	0.230
-580.806	-200.000	-0.007	-0.065
-579.792	439.889	-0.151	-0.328
-578.777	800.000	0.070	0.289
-577.763	304.268	-0.189	-0.350
-576.748	10.862	0.266	0.202
-575.733	-35.160	-0.234	0.127
-574.719	800.000	-0.066	0.248
-573.704	-127.577	-0.149	0.022
-572.690	-200.000	0.070	-0.334
-571.675	81.554	-0.287	0.310
-570.661	32.365	0.036	0.031
-569.646	-165.736	0.083	0.004
-568.631	334.645	-0.018	-0.035
-567.617	-30.161	0.221	0.125
-566.602	-200.000	-0.022	0.231
-565.588	-46.471	0.083	0.041
-564.573	165.767	0.024	0.034
-563.558	28.181	0.137	-0.115
-562.544	800.000	0.076	-0.276
-561.529	9.386	-0.500	-0.377
-560.515	800.000	-0.085	-0.265
-559.500	800.000	-0.055	0.233
-558.485	-200.000	-0.013	-0.123
-557.471	-6.013	0.049	-0.033
-556.456	46.593	0.189	0.175
-555.442	-77.753	-0.252	0.087
-554.427	800.000	-0.043	0.168
-553.412	4.741	-0.295	0.216
-552.398	308.183	0.138	0.258
-551.383	23.294	0.182	-0.149
-550.369	485.087	-0.119	-0.271
-549.354	-200.000	-0.027	-0.227
-548.339	800.000	0.054	0.167
-547.325	-86.137	-0.153	-0.047
-546.310	-14.035	-0.117	0.076
-545.296	-36.460	0.107	-0.057
-544.281	-77.749	-0.253	0.087
-543.266	167.044	-0.161	-0.227
-542.252	-46.098	0.375	-0.184
-541.237	-122.748	0.411	0.066
-540.223	50.421	-0.199	0.187
-539.208	-115.635	0.220	-0.041
-538.193	-149.845	-0.165	0.013
-537.179	-91.491	-0.310	-0.088
-536.164	800.000	-0.017	-0.065
-535.150	-200.000	0.048	0.346
-534.135	475.204	-0.058	0.130
-533.121	-91.643	0.153	-0.044
-532.106	-193.371	-0.436	0.004
-531.091	800.000	0.074	0.245
-530.077	104.056	0.171	0.200
-529.062	145.137	0.124	-0.166
-528.048	-7.136	0.136	0.092
-527.033	510.659	0.037	-0.087
-526.018	-110.626	0.230	-0.047
-525.004	212.659	-0.068	-0.107
-523.989	170.767	0.182	0.260
-522.975	-200.000	-0.038	0.182
-521.960	-12.208	0.267	0.174
-520.945	409.227	0.160	0.338
-519.931	33.378	0.137	-0.118
-518.916	22.416	-0.233	-0.190
-517.902	-13.486	0.252	-0.163
-516.887	486.178	-0.141	0.319
-515.872	-84.814	0.447	-0.140
-514.858	173.991	0.134	-0.193
-513.843	-200.000	-0.021	-0.277
-512.829	415.011	-0.098	-0.208
-511.814	-200.000	0.021	-0.213
-510.799	-85.832	-0.137	-0.042
-509.785	63.254	0.061	0.061
-508.770	800.000	0.036	-0.107
-507.756	-55.531	0.265	0.118
-506.741	-141.487	-0.106	-0.011
-505.726	-107.357	-0.138	0.030
-504.712	-200.000	-0.020	0.120
-503.697	-96.643	0.186	0.049
-502.683	-200.000	0.015	0.107
-501.668	-74.273	-0.176	0.063
-500.653	143.984	0.194	0.258
-499.639	-89.389	0.235	0.069
-498.624	239.199	-0.034	-0.056
-497.610	-200.000	0.039	0.462
-496.595	105.404	0.117	0.138
-495.581	49.538	0.198	0.186
-494.566	-74.975	0.092	-0.033
-493.551	-46.079	-0.269	-0.132
-492.537	10.461	-0.137	-0.104
-491.522	-177.875	-0.383	0.009
-490.508	-161.112	0.040	-0.002
-489.493	-153.427	-0.143	-0.010
-488.478	-200.000	-0.022	-0.222
-487.464	247.106	-0.133	-0.223
-486.449	453.061	-0.125	-0.274
-485.435	800.000	0.036	0.103
-484.420	-200.000	0.016	0.082
-483.405	164.751	0.199	-0.279
-482.391	199.629	-0.087	0.133
-481.376	15.880	0.090	-0.070
-480.362	88.215	-0.203	-0.224
-479.347	-138.375	-0.192	0.021
-478.332	150.735	0.089	0.120
-477.318	-61.955	0.159	-0.066
-476.303	800.000	-0.044	-0.165
-475.289	-200.000	-0.077	-0.351
-474.274	-84.759	-0.072	-0.022
-473.259	76.765	-0.205	-0.216
-472.245	74.740	-0.061	-0.064
-471.230	-69.959	-0.151	0.057
-470.216	-154.486	-0.176	0.012
-469.201	230.778	-0.126	-0.206
-468.186	46.985	0.138	-0.127
-467.172	-26.899	0.155	-0.090
-466.157	-172.407	-0.225	0.007
-465.143	-65.692	-0.217	-0.086
-464.128	27.476	0.311	-0.260
-463.113	608.892	-0.149	-0.370
-462.099	208.835	0.129	0.201
-461.084	-200.000	0.099	0.534
-460.070	-24.578	-0.301	0.178
-459.055	-76.294	-0.123	0.043
-458.040	430.430	-0.105	-0.225
-457.026	-117.259	-0.304	0.055
-456.011	-200.000	-0.049	-0.267
-454.997	-72.052	-0.312	0.115
-453.982	-200.000	0.004	-0.167
-452.968	-96.063	0.099	0.026
-451.953	-120.553	0.331	-0.056
-450.938	505.083	0.044	-0.101
-449.924	-81.989	-0.156	-0.051
-448.909	-108.517	-0.154	-0.033
-447.895	-200.000	-0.009	0.248
-446.880	179.929	-0.055	-0.079
-445.865	-200.000	0.010	-0.067
-444.851	-71.976	-0.338	0.125
-443.836	-69.922	0.160	0.061
-442.822	329.461	-0.051	-0.097
-441.807	800.000	-0.114	-0.326
-440.792	293.775	-0.127	-0.230
-439.778	327.434	0.063	-0.121
-438.763	-21.097	0.208	0.126
-437.749	222.175	-0.163	-0.261
-436.734	-86.429	0.155	-0.047
-435.719	283.616	0.026	-0.047
-434.705	-152.082	0.287	0.021
-433.690	-156.741	0.318	0.019
-432.676	800.000	-0.033	0.119
-431.661	-100.263	0.495	0.122
-430.646	-10.266	-0.242	-0.159
-429.632	-17.889	-0.289	0.180
-428.617	-107.086	-0.327	0.072
-427.603	-98.508	0.499	0.127
-426.588	16.600	-0.142	0.111
-425.573	260.379	-0.125	0.214
-424.559	-1.112	0.135	0.095
-423.544	-200.000	-0.003	-0.127
-422.530	800.000	0.044	0.159
-421.515	-200.000	0.003	0.063
-420.500	-200.000	0.019	-0.109
-419.486	41.340	-0.177	0.159
-418.471	3.972	-0.147	-0.106
-417.457	-55.064	-0.019	0.008
-416.442	-200.000	-0.018	-0.124
-415.428	298.579	-0.066	-0.121
-414.413	57.952	-0.050	-0.048
-413.398	-48.004	0.193	-0.092
-412.384	368.406	-0.059	-0.118
-411.369	-23.000	-0.364	0.217
-410.355	-200.000	0.235	0.001
-409.340	-53.978	0.189	-0.085
-408.325	795.576	0.123	0.335
-407.311	196.085	-0.225	0.340
-406.296	-38.612	0.115	0.060
-405.282	-154.103	0.241	-0.016
-404.267	46.888	-0.184	-0.170
-403.252	97.506	0.126	0.143
-402.238	800.000	-0.066	0.214
-401.223	800.000	0.073	-0.265
-400.209	-123.476	0.203	0.032
-399.194	800.000	0.090	0.369
-398.179	-68.784	0.083	0.032
-397.165	131.087	0.236	0.300
-396.150	-136.740	-0.223	0.025
-395.136	-90.324	-0.212	-0.061
-394.121	-145.464	0.198	-0.018
-393.106	595.009	0.043	0.105
-392.092	384.926	-0.127	0.258
-391.077	209.655	0.196	-0.304
-390.063	-200.000	-0.004	-0.129
-389.048	55.192	-0.112	-0.108
-388.033	444.127	0.059	-0.128
-387.019	-200.000	-0.027	-0.378
-386.004	73.462	-0.118	0.122
-384.990	-73.211	-0.201	-0.073
-383.975	-25.416	0.268	-0.157
-382.960	-116.185	0.063	-0.012
-381.946	800.000	-0.047	-0.162
-380.931	-61.983	-0.233	-0.096
-379.917	-21.882	0.221	-0.133
-378.902	-52.825	0.242	-0.110
-377.888	-33.605	-0.167	-0.091
-376.873	638.318	-0.110	0.277
-375.858	18.205	-0.109	-0.086
-374.844	632.619	0.045	-0.113
-373.829	-5.557	0.224	-0.152
-372.815	-97.649	0.198	0.051
-371.800	210.772	-0.223	0.346
-370.785	800.000	-0.087	0.301
-369.771	130.488	0.324	0.411
-368.756	-200.000	-0.028	-0.163
-367.742	150.078	0.139	-0.186
-366.727	12.206	0.174	-0.132
-365.712	-102.102	0.256	0.061
-364.698	415.149	0.124	-0.262
-363.683	-100.861	-0.053	0.013
-362.669	-200.000	0.046	0.502
-361.654	200.538	0.153	0.232
-360.639	-200.000	0.030	0.223
-359.625	230.828	-0.220	0.356
-358.610	-110.955	0.071	0.014
-357.596	-15.762	0.268	0.169
-356.581	188.494	-0.096	-0.142
-355.566	106.296	-0.205	0.240
-354.552	-21.717	0.220	-0.132
-353.537	-172.304	-0.129	-0.004
-352.523	182.183	0.130	-0.189
-351.508	186.910	-0.018	0.026
-350.493	800.000	-0.030	-0.086
-349.479	-132.548	0.210	0.027
-348.464	-3.587	0.320	-0.220
-347.450	-200.000	-0.024	0.124
-346.435	100.016	-0.115	0.131
-345.420	-81.607	0.047	0.015
-344.406	517.367	-0.140	0.324
-343.391	800.000	-0.075	0.303
-342.377	-50.049	-0.175	0.082
-341.362	67.207	-0.169	-0.171
-340.348	35.279	0.317	-0.275
-339.333	-104.453	-0.122	0.028
-338.318	168.763	0.246	-0.347
-337.304	-103.994	-0.295	-0.068
-336.289	33.924	-0.094	-0.081
-335.275	-8.917	-0.025	-0.017
-334.260	-200.000	0.022	-0.096
-333.245	219.877	-0.039	-0.062
-332.231	93.644	-0.078	0.087
-331.216	-200.000	-0.058	-0.263
-330.202	-200.000	0.014	0.071
-329.187	-14.158	0.163	-0.104
-328.172	-200.000	0.014	-0.323
-327.158	-54.803	0.229	-0.102
-326.143	375.651	0.037	-0.075
-325.129	-137.794	-0.199	-0.022
-324.114	800.000	-0.007	-0.028
-323.099	-200.000	-0.007	0.094
-322.085	-78.955	0.404	0.136
-321.070	435.817	0.056	0.120
-320.056	-79.460	-0.130	0.043
-319.041	131.533	-0.148	0.188
-318.026	-200.000	0.050	-0.222
-317.012	5.386	0.241	0.175
-315.997	800.000	-0.021	0.062
-314.983	-166.182	-0.073	-0.003
-313.968	-71.031	-0.044	-0.016
-312.953	18.624	-0.211	0.167
-311.939	-172.027	-0.255	0.008
-310.924	87.017	-0.155	0.170
-309.910	234.024	-0.041	0.067
-308.895	101.606	-0.263	0.303
-307.880	-16.555	0.212	0.133
-306.866	800.000	-0.093	0.289
-305.851	-200.000	-0.007	0.406
-304.837	317.126	-0.174	0.325
-303.822	368.558	0.091	0.181
-302.807	32.565	-0.157	0.134
-301.793	-200.000	0.075	-0.356
-300.778	15.557	0.243	-0.188
-299.764	-41.069	-0.121	-0.062
-298.749	83.908	-0.229	-0.246
-297.735	800.000	0.065	-0.204
-296.720	-200.000	0.004	-0.293
-295.705	142.448	-0.063	0.082
-294.691	25.176	0.427	0.349
-293.676	800.000	-0.052	0.191
-292.662	643.661	0.038	-0.096
-291.647	-200.000	0.032	0.145
-290.632	301.384	-0.182	-0.331
-289.618	800.000	0.018	-0.067
-288.603	800.000	0.042	-0.171
-287.589	800.000	0.062	-0.229
-286.574	-200.000	0.028	-0.379
-285.559	-29.849	-0.232	0.131
-284.545	39.330	0.221	0.195
-283.530	-200.000	0.041	-0.263
-282.516	-142.954	-0.190	0.018
-281.501	-110.534	-0.212	-0.043
-280.486	258.986	-0.155	0.263
-279.472	-200.000	-0.001	0.266
-278.457	143.834	-0.087	-0.114
-277.443	148.502	-0.223	-0.297
-276.428	-200.000	-0.013	0.136
-275.413	-200.000	-0.026	0.301
-274.399	-200.000	0.007	0.056
-273.384	161.620	-0.238	0.328
-272.370	-131.350	-0.443	-0.058
-271.355	-26.860	-0.173	0.100
-270.340	-200.000	-0.032	-0.161
-269.326	800.000	0.037	0.111
-268.311	-29.940	-0.187	-0.105
-267.297	48.311	0.124	0.114
-266.282	167.871	-0.136	0.190
-265.267	-200.000	0.017	-0.112
-264.253	204.258	0.184	0.280
-263.238	351.507	0.053	0.104
-262.224	23.289	-0.276	0.224
-261.209	-112.586	-0.324	0.064
-260.195	-200.000	-0.017	0.128
-259.180	-166.948	-0.151	-0.006
-258.165	-150.844	-0.321	0.024
-257.151	-200.000	-0.003	-0.025
-256.136	-200.000	0.049	-0.234
-255.122	800.000	0.063	-0.214
-254.107	-83.551	0.229	0.072
-253.092	-28.523	-0.068	-0.038
-252.078	-147.034	-0.062	0.005
-251.063	800.000	-0.064	0.266
-250.049	2.790	0.363	-0.259
-249.034	3.973	0.153	0.110
-248.019	-71.244	0.152	-0.056
-247.005	78.678	-0.183	0.193
-245.990	-187.090	0.423	-0.006
-244.976	57.499	-0.186	0.178
-243.961	-200.000	0.054	-0.318
-242.946	34.039	0.190	-0.163
-241.932	-200.000	-0.052	-0.227
-240.917	2.477	0.170	0.121
-239.903	90.054	-0.073	0.080
-238.888	-150.375	-0.172	0.013
-237.873	506.069	0.141	0.321
-236.859	-200.000	0.023	0.230
-235.844	-106.022	0.243	0.054
-234.830	-200.000	-0.013	-0.179
-233.815	-175.485	0.080	-0.002
-232.800	-26.571	0.434	-0.250
-231.786	274.563	0.079	0.138
-230.771	-78.674	-0.171	-0.057
-229.757	197.051	0.093	0.139
-228.742	-132.483	-0.102	0.013
-227.727	-200.000	-0.102	0.508
-226.713	29.729	0.177	0.149
-225.698	-66.040	0.080	-0.031
-224.684	-52.371	-0.276	-0.126
-223.669	-40.570	0.356	-0.182
-222.655	800.000	-0.082	-0.307
-221.640	-200.000	0.003	0.123
-220.625	350.008	-0.209	0.407
-219.611	-93.232	0.161	0.044
-218.596	384.692	0.063	-0.128
-217.582	-200.000	0.037	-0.271
-216.567	800.000	-0.075	-0.308
-215.552	-28.058	0.264	0.150
-214.538	-57.817	0.241	0.104
-213.523	-200.000	-0.040	-0.293
-212.509	800.000	-0.021	-0.059
-211.494	800.000	0.039	-0.123
-210.479	-122.297	-0.061	-0.010
-209.465	-200.000	-0.017	-0.207
-208.450	-154.860	-0.174	0.011
-207.436	800.000	0.080	0.326
-206.421	-116.751	-0.099	-0.018
-205.406	-156.196	-0.164	0.010
-204.392	82.446	-0.150	-0.160
-203.377	-200.000	0.014	-0.346
-202.363	-200.000	-0.010	0.050
-201.348	-123.893	-0.232	-0.036
-200.333	389.986	0.099	0.202
-199.319	140.349	-0.070	0.091
-198.304	-110.979	-0.165	-0.033
-197.290	27.334	0.110	-0.091
-196.275	-10.520	-0.121	-0.079
-195.260	800.000	0.028	0.092
-194.246	-200.000	-0.089	-0.390
-193.231	-0.225	0.403	-0.282
-192.217	-200.000	-0.003	0.178
-191.202	-105.231	-0.064	-0.014
-190.187	126.371	-0.132	-0.164
-189.173	186.233	-0.127	0.186
-188.158	-200.000	0.103	0.578
-187.144	800.000	0.074	-0.272
-186.129	-200.000	0.006	0.099
-185.114	44.502	0.194	0.175
-184.100	800.000	0.088	0.284
-183.085	-25.470	-0.372	-0.216
-182.071	68.643	0.215	-0.217
-181.056	-94.218	0.285	-0.077
-180.042	800.000	-0.048	-0.203
-179.027	-182.645	-0.320	-0.006
-178.012	-200.000	0.034	-0.426
-176.998	395.574	0.068	-0.139
-175.983	-174.745	-0.529	-0.015
-174.969	-26.119	0.167	0.096
-173.954	-102.488	0.239	0.056
-172.939	-88.226	0.144	0.042
-171.925	-83.037	0.153	-0.048
-170.910	61.382	0.150	0.146
-169.896	-171.048	0.173	0.006
-168.881	-45.380	0.180	-0.088
-167.866	-200.000	0.043	-0.191
-166.852	186.925	-0.149	0.218
-165.837	224.090	-0.137	0.217
-164.823	800.000	0.089	0.267
-163.808	-200.000	-0.004	0.340
-162.793	57.224	-0.197	-0.189
-161.779	-70.794	-0.224	0.083
-160.764	17.201	-0.044	0.034
-159.750	156.109	-0.292	0.395
-158.735	222.440	-0.070	0.111
-157.720	25.295	0.122	-0.099
-156.706	-85.674	-0.364	-0.111
-155.691	-200.000	-0.030	-0.226
-154.677	-5.514	-0.175	0.118
-153.662	800.000	0.103	0.398
-152.647	-89.531	0.097	-0.028
-151.633	-166.979	0.196	0.008
-150.618	-111.775	0.192	0.038
-149.604	424.260	0.041	0.087
-148.589	-114.142	0.259	0.049
-147.574	-200.000	-0.017	0.109
-146.560	555.249	0.098	-0.232
-145.545	-200.000	0.048	-0.229
-144.531	-200.000	-0.011	0.358
-143.516	396.472	-0.145	0.297
-142.502	-11.429	-0.171	0.110
-141.487	-86.096	0.351	-0.106
-140.472	55.902	-0.155	0.148
-139.458	800.000	-0.052	0.155
-138.443	144.014	-0.152	0.199
-137.429	-168.195	0.125	-0.005
-136.414	-153.247	-0.194	-0.013
-135.399	7.710	-0.285	0.209
-134.385	-80.604	0.390	-0.127
-133.370	-200.000	0.000	0.147
-132.356	432.874	-0.043	0.091
-131.341	90.336	0.045	0.049
-130.326	-124.248	0.081	-0.012
-129.312	-80.327	0.204	-0.067
-128.297	-120.091	0.337	-0.057
-127.283	-110.630	-0.519	-0.105
-126.268	108.833	0.076	-0.089
-125.253	-24.292	-0.137	-0.080
-124.239	30.944	-0.029	0.024
-123.224	363.461	0.193	0.380
-122.210	-200.000	-0.017	0.307
