DTS Sentinel unit serial number:	SN413079Multiplexer serial number:	ORYXHardware model number:	OX4-SRSoftware version number:	ORYX F/W v4.00 Oryx Data Collector v3.7.2.0data status	okinstallation	princeton_trtdifferential loss correction	single-endedforward channel	channel 1reverse channel	N/Adate	2019/09/11time	08:40:11forward acquisition time	60.00reverse acquisition time	0.00gamma	496.2192k internal	0.2313k external	0.2313temperature offset calibration	0.9952default loss term (dB/km)	0.3790temperature slope calibration	1.0000multiplexer offset coefficient	1.0000multiplexer slope coefficient	1.0000fibre end	0.00T internal ref (°C)	33.47T ext. ref 1 (°C)	0.10T ext. ref 2 (°C)	30.76length (m)	temperature (°C)	Stokes	anti-Stokes-747.200	-116.305	0.264	0.050
-746.185	-200.000	-0.021	0.634
-745.171	23.119	0.300	-0.249
-744.156	198.168	0.185	0.287
-743.142	-200.000	0.013	-0.194
-742.127	25.563	-0.058	0.049
-741.112	24.512	0.086	0.073
-740.098	-3.768	-0.350	0.246
-739.083	800.000	-0.041	0.143
-738.069	-143.006	-0.147	-0.014
-737.054	-200.000	0.038	0.298
-736.039	-17.223	0.105	0.067
-735.025	300.441	-0.111	0.207
-734.010	243.021	0.090	0.152
-732.996	-112.218	-0.384	-0.078
-731.981	-200.000	-0.017	-0.307
-730.966	-101.550	-0.417	0.103
-729.952	7.271	-0.149	0.112
-728.937	800.000	0.033	-0.106
-727.923	94.495	-0.198	-0.228
-726.908	-94.742	0.198	0.054
-725.894	480.852	-0.040	-0.092
-724.879	-200.000	0.041	-0.317
-723.864	305.272	0.104	-0.195
-722.850	-22.569	0.085	-0.052
-721.835	-88.638	0.359	-0.108
-720.821	-200.000	-0.005	-0.118
-719.806	-107.633	0.172	0.038
-718.791	4.850	-0.150	-0.112
-717.777	-144.101	0.241	-0.023
-716.762	312.993	-0.108	0.205
-715.748	298.007	-0.183	-0.342
-714.733	323.813	-0.084	0.163
-713.718	257.200	0.071	0.123
-712.704	305.747	0.079	-0.149
-711.689	44.241	0.248	-0.230
-710.675	-99.139	0.163	-0.042
-709.660	-200.000	-0.014	0.198
-708.645	-41.946	0.066	-0.034
-707.631	778.237	-0.084	0.232
-706.616	309.064	-0.142	-0.269
-705.602	-78.750	-0.184	0.064
-704.587	54.967	-0.053	0.052
-703.572	-13.068	0.202	-0.133
-702.558	-37.065	0.213	-0.115
-701.543	343.854	-0.173	-0.344
-700.529	161.093	-0.147	0.208
-699.514	44.397	-0.152	0.142
-698.499	-87.605	0.086	0.026
-697.485	144.447	-0.148	-0.200
-696.470	-97.119	-0.377	-0.100
-695.456	-168.860	0.442	-0.017
-694.441	30.422	-0.289	-0.250
-693.426	70.670	-0.123	-0.129
-692.412	-200.000	-0.005	0.047
-691.397	93.592	0.017	0.020
-690.383	-138.710	-0.141	-0.016
-689.368	-107.724	0.164	-0.036
-688.354	-91.655	-0.280	-0.081
-687.339	-26.387	0.236	-0.140
-686.324	604.638	-0.169	0.425
-685.310	-200.000	0.022	0.312
-684.295	93.882	0.150	-0.172
-683.281	800.000	0.050	0.217
-682.266	83.214	0.193	-0.213
-681.251	-10.659	-0.061	0.041
-680.237	154.829	-0.200	0.277
-679.222	-200.000	0.018	0.132
-678.208	-200.000	-0.025	-0.223
-677.193	12.308	0.206	-0.161
-676.178	147.153	-0.202	0.275
-675.164	-88.126	-0.218	0.066
-674.149	214.125	0.117	-0.187
-673.135	-99.786	-0.127	-0.032
-672.120	-200.000	0.000	0.111
-671.105	-70.542	-0.262	0.100
-670.091	-1.733	0.333	0.237
-669.076	-153.627	-0.179	-0.013
-668.062	-137.637	-0.128	-0.015
-667.047	76.660	0.087	-0.093
-666.032	141.234	0.127	-0.170
-665.018	-3.075	-0.254	0.179
-664.003	-61.239	-0.370	0.158
-662.989	-83.819	-0.059	-0.019
-661.974	800.000	-0.081	-0.229
-660.959	83.938	-0.131	-0.144
-659.945	404.293	0.071	-0.152
-658.930	-49.788	-0.088	0.042
-657.916	-159.848	-0.297	-0.016
-656.901	244.547	-0.155	0.263
-655.886	-200.000	-0.021	0.364
-654.872	-142.220	0.082	-0.008
-653.857	246.518	-0.187	-0.319
-652.843	-68.181	-0.268	0.105
-651.828	-50.101	0.176	0.084
-650.814	800.000	0.093	-0.309
-649.799	800.000	-0.045	0.147
-648.784	-133.377	-0.225	-0.029
-647.770	-154.665	-0.232	-0.016
-646.755	264.362	0.301	-0.528
-645.741	-113.969	0.299	-0.059
-644.726	-120.157	0.312	0.054
-643.711	103.795	-0.079	0.094
-642.697	101.008	0.094	-0.111
-641.682	302.624	0.075	0.140
-640.668	124.567	-0.034	0.043
-639.653	207.352	-0.084	0.132
-638.638	-200.000	0.009	0.106
-637.624	52.938	-0.167	-0.162
-636.609	47.077	0.272	-0.256
-635.595	-53.133	-0.089	-0.041
-634.580	-46.868	-0.018	-0.009
-633.565	22.205	0.339	-0.280
-632.551	-200.000	-0.001	-0.024
-631.536	-145.926	-0.179	-0.016
-630.522	-172.029	0.269	-0.009
-629.507	-36.731	0.132	0.072
-628.492	-139.686	0.330	-0.035
-627.478	-129.088	0.087	-0.012
-626.463	161.709	-0.099	-0.139
-625.449	140.748	0.183	-0.243
-624.434	-107.850	-0.308	-0.068
-623.419	-200.000	0.076	0.434
-622.405	183.150	-0.044	-0.066
-621.390	40.110	-0.085	0.077
-620.376	579.273	0.021	0.052
-619.361	-200.000	-0.013	0.121
-618.346	12.452	-0.242	0.189
-617.332	429.777	-0.070	0.153
-616.317	122.479	0.224	-0.282
-615.303	-62.574	0.243	-0.102
-614.288	-137.626	-0.213	-0.024
-613.273	800.000	-0.066	-0.214
-612.259	-149.258	0.136	0.011
-611.244	187.961	-0.167	-0.252
-610.230	-6.844	-0.258	-0.177
-609.215	-200.000	-0.029	0.148
-608.201	-116.951	0.287	0.053
-607.186	800.000	-0.029	-0.115
-606.171	-86.301	0.170	0.053
-605.157	308.128	-0.057	0.107
-604.142	-200.000	-0.011	0.115
-603.128	-133.070	-0.204	-0.026
-602.113	2.489	-0.190	0.138
-601.098	-66.487	-0.092	-0.037
-600.084	-111.496	0.097	0.020
-599.069	-105.324	0.026	-0.006
-598.055	30.823	-0.158	0.136
-597.040	-155.994	-0.453	0.029
-596.025	-200.000	-0.038	-0.326
-595.011	715.272	0.082	0.219
-593.996	21.556	-0.187	0.153
-592.982	154.479	-0.070	-0.096
-591.967	108.789	0.128	-0.154
-590.952	-109.846	-0.212	0.045
-589.938	227.471	0.107	0.176
-588.923	-73.176	0.271	-0.100
-587.909	9.859	-0.297	-0.227
-586.894	-48.291	-0.203	-0.099
-585.879	663.720	0.024	0.063
-584.865	-49.975	0.317	-0.152
-583.850	293.688	-0.057	-0.106
-582.836	72.144	0.100	-0.104
-581.821	-200.000	-0.011	-0.081
-580.806	323.621	-0.027	0.051
-579.792	-145.863	-0.563	-0.050
-578.777	-136.363	-0.092	-0.011
-577.763	-5.889	-0.053	-0.037
-576.748	-125.949	-0.268	0.041
-575.733	-122.207	0.200	-0.033
-574.719	93.491	-0.039	0.045
-573.704	-200.000	0.009	0.159
-572.690	-83.677	-0.024	0.008
-571.675	-107.797	-0.152	-0.033
-570.661	-133.736	0.129	0.016
-569.646	-200.000	-0.103	0.000
-568.631	218.575	-0.044	-0.071
-567.617	-54.206	0.162	0.074
-566.602	800.000	0.051	-0.220
-565.588	-167.385	0.162	-0.007
-564.573	-35.132	0.078	-0.043
-563.558	-200.000	-0.018	0.310
-562.544	-200.000	0.009	0.298
-561.529	-200.000	-0.038	-0.201
-560.515	-109.944	-0.376	-0.079
-559.500	-29.403	-0.252	0.145
-558.485	188.477	0.192	0.289
-557.471	592.321	0.109	0.272
-556.456	165.183	-0.091	-0.129
-555.442	-38.521	-0.242	-0.129
-554.427	-57.532	-0.115	0.051
-553.412	329.828	-0.245	0.474
-552.398	-140.034	-0.192	0.020
-551.383	-7.258	-0.128	0.087
-550.369	62.880	-0.079	-0.080
-549.354	-94.318	-0.199	0.055
-548.339	251.505	0.211	-0.361
-547.325	800.000	-0.068	-0.301
-546.310	-58.492	-0.244	0.106
-545.296	137.281	-0.048	0.063
-544.281	2.710	0.219	-0.160
-543.266	-63.751	-0.231	0.095
-542.252	698.768	0.109	0.288
-541.237	67.866	-0.164	0.169
-540.223	546.905	0.079	-0.190
-539.208	-111.973	-0.176	0.036
-538.193	-134.541	0.130	-0.016
-537.179	-58.059	0.242	-0.106
-536.164	-78.146	0.460	0.159
-535.150	-119.803	0.256	0.044
-534.135	15.883	-0.089	-0.070
-533.121	102.211	-0.275	-0.324
-532.106	104.611	-0.286	-0.339
-531.091	-109.353	-0.185	0.039
-530.077	800.000	-0.049	-0.167
-529.062	18.201	0.116	-0.093
-528.048	-120.034	-0.229	-0.039
-527.033	-17.227	-0.140	0.089
-526.018	475.105	-0.006	0.012
-525.004	-124.106	0.044	-0.007
-523.989	-129.240	0.192	-0.027
-522.975	-180.829	-0.071	0.001
-521.960	-88.018	0.242	-0.073
-520.945	107.613	-0.154	-0.185
-519.931	-50.627	-0.143	0.068
-518.916	-200.000	0.033	-0.389
-517.902	53.208	0.144	-0.139
-516.887	-76.239	0.246	0.087
-515.872	537.326	0.075	-0.179
-514.858	563.668	0.138	-0.337
-513.843	-33.810	-0.136	0.075
-512.829	-115.371	-0.094	-0.018
-511.814	800.000	0.038	-0.119
-510.799	152.890	-0.109	-0.149
-509.785	555.376	-0.070	-0.170
-508.770	800.000	-0.075	0.226
-507.756	201.015	0.186	-0.287
-506.741	74.250	-0.027	-0.029
-505.726	-96.704	-0.455	0.120
-504.712	-200.000	-0.089	0.402
-503.697	110.340	-0.088	0.106
-502.683	-200.000	-0.005	0.057
-501.668	35.358	-0.174	-0.153
-500.653	-50.662	-0.153	0.072
-499.639	0.988	0.127	0.092
-498.624	-14.931	-0.275	-0.177
-497.610	601.882	-0.147	0.367
-496.595	-65.492	0.266	-0.107
-495.581	33.068	0.337	-0.293
-494.566	48.914	-0.201	-0.190
-493.551	-172.749	0.455	0.014
-492.537	202.476	0.080	0.123
-491.522	-115.578	-0.131	-0.025
-490.508	178.216	0.106	0.155
-489.493	-25.613	0.109	0.065
-488.478	-112.693	0.098	0.020
-487.464	-161.571	0.199	-0.010
-486.449	800.000	-0.022	-0.065
-485.435	-57.359	-0.316	0.139
-484.420	105.415	0.157	0.187
-483.405	-200.000	-0.012	-0.131
-482.391	-38.542	0.018	0.010
-481.376	49.344	0.191	-0.181
-480.362	-11.765	0.285	-0.188
-479.347	-76.374	-0.280	-0.099
-478.332	-48.530	-0.050	-0.024
-477.318	-110.619	0.185	-0.038
-476.303	233.939	-0.177	-0.293
-475.289	-27.550	0.230	-0.134
-474.274	-38.706	-0.067	0.035
-473.259	-89.816	-0.160	0.047
-472.245	-200.000	0.056	0.423
-471.230	29.579	-0.078	0.067
-470.216	99.028	0.275	0.318
-469.201	-92.849	-0.272	-0.076
-468.186	-86.353	-0.333	0.103
-467.172	697.551	-0.056	0.147
-466.157	-200.000	-0.013	0.180
-465.143	142.616	-0.150	0.200
-464.128	-74.148	0.036	0.013
-463.113	11.285	0.401	-0.308
-462.099	84.649	-0.178	-0.195
-461.084	-138.287	-0.019	-0.002
-460.070	76.290	-0.127	-0.135
-459.055	-200.000	-0.012	0.169
-458.040	316.788	0.018	-0.034
-457.026	76.722	-0.133	0.141
-456.011	800.000	0.168	0.518
-454.997	500.716	-0.036	0.082
-453.982	-62.840	-0.239	0.099
-452.968	-56.253	0.061	-0.027
-451.953	800.000	-0.094	0.322
-450.938	81.093	0.347	0.375
-449.924	-22.336	0.173	-0.105
-448.909	69.985	0.057	0.059
-447.895	-200.000	-0.024	0.214
-446.880	-119.433	0.235	-0.041
-445.865	-60.114	0.206	-0.088
-444.851	60.431	-0.245	0.243
-443.836	800.000	0.056	0.193
-442.822	800.000	-0.028	0.095
-441.807	-174.615	-0.139	0.004
-440.792	-70.426	-0.164	0.062
-439.778	10.770	0.154	-0.118
-438.763	70.168	-0.063	-0.066
-437.749	800.000	-0.088	-0.318
-436.734	-200.000	0.030	-0.348
-435.719	-13.844	0.257	-0.166
-434.705	74.317	0.148	0.155
-433.690	26.231	-0.169	-0.141
-432.676	27.990	0.093	0.078
-431.661	7.230	0.151	-0.113
-430.646	650.779	-0.052	0.134
-429.632	-149.588	0.584	-0.046
-428.617	-79.482	-0.299	0.101
-427.603	-200.000	0.012	-0.341
-426.588	-31.751	-0.139	-0.078
-425.573	-135.061	0.374	0.045
-424.559	-163.094	-0.148	0.007
-423.544	48.831	-0.130	-0.122
-422.530	698.498	0.066	0.174
-421.515	16.164	0.347	0.274
-420.500	120.291	-0.089	0.110
-419.486	-69.138	-0.296	-0.114
-418.471	-27.278	-0.148	0.086
-417.457	-3.259	0.155	0.108
-416.442	-166.728	-0.175	-0.007
-415.428	-200.000	-0.000	-0.130
-414.413	152.132	-0.158	0.215
-413.398	800.000	0.076	-0.315
-412.384	-146.806	-0.145	0.012
-411.369	-32.445	-0.332	0.185
-410.355	800.000	-0.055	-0.159
-409.340	162.462	0.112	-0.158
-408.325	-2.301	-0.189	-0.132
-407.311	66.253	-0.280	0.285
-406.296	-122.089	-0.249	-0.041
-405.282	125.998	0.228	-0.288
-404.267	-79.251	0.230	0.078
-403.252	800.000	-0.171	0.496
-402.238	40.143	-0.159	-0.143
-401.223	-200.000	-0.047	0.311
-400.209	-129.407	0.095	-0.013
-399.194	575.398	0.091	-0.223
-398.179	7.501	-0.227	-0.169
-397.165	-200.000	0.001	0.085
-396.150	458.010	-0.111	0.247
-395.136	-115.558	-0.341	0.064
-394.121	-38.021	-0.102	-0.054
-393.106	-1.692	-0.297	-0.209
-392.092	141.266	0.021	-0.027
-391.077	-25.675	0.156	0.092
-390.063	-57.913	0.076	0.033
-389.048	380.200	-0.156	0.319
-388.033	-128.622	-0.226	0.032
-387.019	-33.802	0.421	0.232
-386.004	-115.013	0.129	0.025
-384.990	-114.427	0.183	-0.035
-383.975	260.511	-0.130	0.224
-382.960	800.000	0.096	0.296
-381.946	-200.000	0.012	-0.124
-380.931	-200.000	0.029	-0.214
-379.917	-72.977	0.188	-0.069
-378.902	-56.629	-0.298	-0.132
-377.888	-23.222	0.463	0.278
-376.873	-87.613	-0.116	-0.035
-375.858	-200.000	0.023	0.193
-374.844	68.320	-0.073	0.074
-373.829	800.000	-0.065	0.209
-372.815	94.084	0.390	-0.442
-371.800	-200.000	0.131	0.000
-370.785	800.000	-0.026	0.105
-369.771	159.834	0.103	0.143
-368.756	-116.998	-0.395	-0.072
-367.742	-200.000	-0.014	-0.227
-366.727	109.207	0.219	-0.262
-365.712	-110.080	0.019	0.004
-364.698	-200.000	0.023	0.453
-363.683	-125.517	-0.115	-0.018
-362.669	-125.800	0.237	-0.036
-361.654	800.000	-0.012	-0.034
-360.639	64.314	-0.080	-0.080
-359.625	-109.646	0.200	-0.042
-358.610	-200.000	0.012	-0.073
-357.596	-200.000	-0.023	0.208
-356.581	-77.197	0.187	-0.065
-355.566	800.000	-0.042	-0.161
-354.552	38.424	0.072	0.064
-353.537	466.177	-0.058	-0.130
-352.523	668.652	-0.035	0.091
-351.508	-200.000	0.015	0.076
-350.493	176.764	0.190	0.276
-349.479	-1.595	-0.087	0.061
-348.464	-200.000	0.054	-0.419
-347.450	-100.673	-0.247	0.061
-346.435	-200.000	0.062	-0.425
-345.420	124.831	-0.113	-0.142
-344.406	-200.000	0.015	0.307
-343.391	614.682	-0.024	-0.061
-342.377	70.318	-0.112	0.116
-341.362	-84.787	-0.212	-0.067
-340.348	42.429	-0.322	0.293
-339.333	269.432	0.275	-0.482
-338.318	-200.000	0.026	-0.196
-337.304	-58.008	0.239	-0.104
-336.289	800.000	-0.184	-0.518
-335.275	-99.990	0.092	-0.023
-334.260	-65.834	-0.035	-0.014
-333.245	-51.206	-0.209	0.098
-332.231	83.592	-0.245	-0.267
-331.216	102.117	-0.021	-0.025
-330.202	-51.989	0.175	0.081
-329.187	-200.000	0.004	0.213
-328.172	-116.983	-0.077	0.014
-327.158	800.000	-0.076	-0.256
-326.143	151.745	0.081	-0.110
-325.129	196.003	0.083	-0.126
-324.114	490.193	-0.077	0.177
-323.099	63.166	0.018	-0.018
-322.085	-165.834	-0.406	-0.017
-321.070	-57.462	0.201	-0.088
-320.056	-46.248	-0.241	-0.118
-319.041	-200.000	0.011	0.389
-318.026	-200.000	0.030	0.137
-317.012	800.000	0.070	-0.246
-315.997	130.462	0.044	-0.056
-314.983	73.082	0.077	-0.080
-313.968	10.238	0.096	-0.073
-312.953	-29.101	-0.201	0.115
-311.939	-129.055	0.262	0.037
-310.924	-200.000	-0.026	0.351
-309.910	477.359	-0.151	0.340
-308.895	-139.320	0.255	-0.027
-307.880	-111.946	0.050	0.010
-306.866	-29.874	0.087	-0.049
-305.851	-123.118	-0.211	-0.034
-304.837	-69.147	0.308	0.118
-303.822	-200.000	-0.034	-0.334
-302.807	-200.000	0.064	-0.374
-301.793	469.350	0.128	0.286
-300.778	800.000	0.058	0.178
-299.764	272.130	0.156	-0.273
-298.749	149.322	0.163	-0.220
-297.735	-20.033	0.312	0.192
-296.720	560.442	-0.137	0.331
-295.705	468.403	0.111	0.247
-294.691	800.000	-0.069	0.260
-293.676	-136.274	0.254	-0.030
-292.662	0.960	0.188	-0.134
-291.647	-200.000	0.004	-0.123
-290.632	456.972	-0.094	0.209
-289.618	-200.000	-0.013	-0.212
-288.603	723.416	0.028	-0.075
-287.589	781.750	-0.058	0.158
-286.574	-20.157	-0.419	-0.257
-285.559	-33.874	-0.221	-0.121
-284.545	800.000	0.105	0.340
-283.530	290.989	-0.118	-0.214
-282.516	-111.282	0.338	-0.069
-281.501	81.659	-0.131	-0.141
-280.486	37.267	0.189	0.167
-279.472	-200.000	0.017	0.197
-278.457	-129.317	-0.260	0.036
-277.443	150.811	0.055	0.074
-276.428	472.385	-0.145	-0.325
-275.413	-72.103	-0.390	0.144
-274.399	466.706	0.063	0.141
-273.384	-200.000	-0.003	0.187
-272.370	-122.427	-0.515	0.084
-271.355	-142.149	0.340	0.034
-270.340	-37.127	-0.322	0.171
-269.326	-132.413	0.138	-0.018
-268.311	-40.492	-0.125	0.064
-267.297	-117.351	0.025	0.004
-266.282	162.823	-0.163	-0.228
-265.267	644.590	0.075	0.189
-264.253	-92.223	0.143	0.040
-263.238	-124.848	0.453	0.070
-262.224	132.116	-0.111	-0.142
-261.209	800.000	-0.112	-0.433
-260.195	-200.000	0.009	0.276
-259.180	-94.376	0.043	0.012
-258.165	102.307	0.077	-0.089
-257.151	0.368	-0.048	0.034
-256.136	800.000	0.093	-0.308
-255.122	87.687	-0.078	-0.085
-254.107	-84.332	0.356	-0.112
-253.092	160.182	-0.100	-0.138
-252.078	-143.882	0.203	0.019
-251.063	122.985	-0.138	-0.172
-250.049	15.187	-0.227	0.177
-249.034	18.660	-0.085	0.068
-248.019	-113.213	0.420	0.082
-247.005	299.856	0.103	-0.189
-245.990	-63.772	-0.340	-0.139
-244.976	349.745	-0.135	0.265
-243.961	-200.000	-0.056	-0.430
-242.946	48.217	-0.051	-0.047
-241.932	800.000	-0.053	-0.211
-240.917	345.074	0.129	0.251
-239.903	55.803	0.181	-0.175
-238.888	-16.548	0.128	-0.081
-237.873	800.000	-0.075	-0.210
-236.859	6.911	0.269	-0.199
-235.844	-154.130	-0.141	0.010
-234.830	3.992	0.109	0.079
-233.815	-13.812	0.171	0.110
-232.800	18.422	-0.060	-0.048
-231.786	800.000	-0.043	0.142
-230.771	-136.467	-0.279	0.032
-229.757	-3.999	0.063	0.043
-228.742	-200.000	0.029	0.173
-227.727	-66.485	-0.140	0.055
-226.713	2.270	0.203	-0.146
-225.698	-89.206	0.384	-0.113
-224.684	-100.290	0.260	-0.064
-223.669	100.974	-0.241	-0.279
-222.655	-141.384	0.257	-0.026
-221.640	-7.488	-0.125	-0.084
-220.625	-146.068	0.149	-0.013
-219.611	-95.979	0.145	0.038
-218.596	800.000	-0.146	-0.413
-217.582	-128.479	0.248	0.035
-216.567	-155.783	-0.082	-0.005
-215.552	198.033	0.128	0.194
-214.538	-200.000	-0.009	-0.169
-213.523	-129.304	-0.187	-0.026
-212.509	-89.402	-0.285	-0.083
-211.494	129.428	0.022	-0.027
-210.479	-91.907	0.463	-0.130
-209.465	-106.852	0.064	-0.014
-208.450	-200.000	-0.009	0.373
-207.436	326.142	0.127	0.242
-206.421	20.369	0.229	0.183
-205.406	-200.000	0.015	0.104
-204.392	-137.444	-0.298	-0.033
-203.377	-200.000	0.014	0.308
-202.363	-54.634	0.155	-0.070
-201.348	-159.618	-0.054	0.003
-200.333	32.748	-0.112	-0.097
-199.319	-171.331	0.068	0.002
-198.304	457.289	-0.115	-0.253
-197.290	-200.000	0.010	0.133
-196.275	-76.383	0.422	-0.147
-195.260	27.943	0.331	-0.277
-194.246	431.913	0.097	0.209
-193.231	393.783	0.036	0.075
-192.217	-93.486	-0.272	-0.075
-191.202	-68.899	-0.324	0.124
-190.187	-79.093	-0.214	0.072
-189.173	-129.739	0.184	-0.025
-188.158	2.548	0.069	0.049
-187.144	42.091	0.094	0.085
-186.129	-200.000	0.049	-0.307
-185.114	-155.309	-0.149	-0.010
-184.100	800.000	-0.038	-0.136
-183.085	-166.050	0.468	0.020
-182.071	336.873	0.089	-0.171
-181.056	112.346	-0.097	0.116
-180.042	800.000	-0.125	0.351
-179.027	-200.000	-0.026	0.326
-178.012	493.023	-0.140	0.319
-176.998	32.290	0.388	0.332
-175.983	-107.100	-0.282	-0.062
-174.969	251.759	-0.064	-0.109
-173.954	800.000	0.043	0.124
-172.939	85.468	-0.062	0.067
-171.925	-200.000	0.012	0.273
-170.910	-45.819	-0.227	-0.111
-169.896	621.270	0.019	0.047
-168.881	-200.000	0.019	-0.133
-167.866	239.492	0.134	0.221
-166.852	375.741	0.144	0.290
-165.837	10.858	0.257	0.194
-164.823	-30.784	0.206	0.116
-163.808	-200.000	-0.011	0.228
-162.793	226.660	-0.026	0.042
-161.779	-4.976	0.138	-0.095
-160.764	227.708	-0.130	-0.209
-159.750	31.350	-0.167	0.142
-158.735	144.736	0.152	-0.201
-157.720	800.000	-0.021	-0.077
-156.706	-59.137	0.130	-0.056
-155.691	-58.203	0.170	0.073
-154.677	-113.128	0.088	-0.017
-153.662	-128.719	-0.094	-0.013
-152.647	295.323	-0.113	-0.204
-151.633	-200.000	0.018	0.461
-150.618	-200.000	0.066	0.475
-149.604	420.686	-0.079	-0.167
-148.589	158.214	0.042	0.058
-147.574	330.411	0.146	-0.279
-146.560	586.622	-0.052	-0.126
-145.545	200.707	0.124	-0.188
-144.531	71.623	0.199	-0.205
-143.516	147.124	0.046	0.061
-142.502	-106.422	-0.404	-0.089
-141.487	-200.000	0.001	0.176
-140.472	-200.000	-0.036	0.262
-139.458	800.000	-0.025	0.089
-138.443	-101.661	0.135	0.033
-137.429	340.902	-0.155	-0.299
-136.414	-89.668	-0.300	0.087
-135.399	-65.344	0.076	0.030
-134.385	244.864	0.099	-0.164
-133.370	-200.000	0.028	-0.159
-132.356	-121.631	0.476	0.078
-131.341	12.400	-0.062	-0.047
-130.326	-143.239	0.167	0.016
-129.312	800.000	0.072	-0.231
-128.297	103.067	-0.110	-0.128
-127.283	-11.197	0.140	-0.091
-126.268	419.766	-0.143	0.304
-125.253	129.657	-0.061	0.077
-124.239	800.000	-0.032	-0.115
-123.224	-200.000	-0.004	0.171
-122.210	-120.165	0.361	-0.061
