DTS Sentinel unit serial number:	SN413079Multiplexer serial number:	ORYXHardware model number:	OX4-SRSoftware version number:	ORYX F/W v4.00 Oryx Data Collector v3.7.2.0data status	okinstallation	princeton_trtdifferential loss correction	single-endedforward channel	channel 1reverse channel	N/Adate	2019/09/13time	06:02:35forward acquisition time	60.00reverse acquisition time	0.00gamma	496.2192k internal	0.2335k external	0.2335temperature offset calibration	1.0164default loss term (dB/km)	0.3790temperature slope calibration	1.0000multiplexer offset coefficient	1.0000multiplexer slope coefficient	1.0000fibre end	0.00T internal ref (°C)	26.12T ext. ref 1 (°C)	4.08T ext. ref 2 (°C)	20.91length (m)	temperature (°C)	Stokes	anti-Stokes-747.200	-112.268	0.276	-0.056
-746.185	-11.706	-0.030	0.020
-745.171	-42.581	-0.068	-0.035
-744.156	35.889	0.497	0.439
-743.142	-101.257	0.171	0.042
-742.127	-64.416	-0.216	-0.088
-741.112	223.347	0.157	0.254
-740.098	-200.000	-0.020	0.298
-739.083	491.242	0.136	-0.313
-738.069	-200.000	-0.054	0.358
-737.054	127.092	0.179	-0.228
-736.039	-16.304	-0.404	0.257
-735.025	78.482	0.209	-0.224
-734.010	-62.585	-0.148	0.062
-732.996	-29.150	0.146	-0.084
-731.981	-98.099	0.041	0.011
-730.966	323.403	-0.118	0.225
-729.952	800.000	-0.049	-0.157
-728.937	-79.486	0.406	-0.138
-727.923	87.315	0.114	0.126
-726.908	-33.765	0.156	0.086
-725.894	81.280	-0.074	-0.080
-724.879	-127.624	0.321	-0.047
-723.864	34.280	0.035	0.031
-722.850	-200.000	-0.009	0.238
-721.835	53.716	-0.207	-0.200
-720.821	-107.882	0.157	0.034
-719.806	800.000	-0.131	-0.389
-718.791	-168.916	-0.355	-0.013
-717.777	182.885	-0.027	-0.040
-716.762	-21.993	-0.241	-0.147
-715.748	800.000	0.033	0.133
-714.733	-38.262	-0.105	-0.056
-713.718	500.221	-0.156	-0.360
-712.704	-151.099	-0.226	0.017
-711.689	274.053	0.128	0.227
-710.675	-154.229	0.250	-0.017
-709.660	-63.890	0.397	0.163
-708.645	-16.050	0.208	0.132
-707.631	586.941	-0.094	-0.233
-706.616	-12.853	-0.117	-0.076
-705.602	325.819	0.115	-0.221
-704.587	319.668	-0.092	-0.175
-703.572	-200.000	-0.073	0.390
-702.558	800.000	-0.053	-0.186
-701.543	-58.265	-0.226	-0.098
-700.529	-33.799	0.195	-0.108
-699.514	52.820	-0.123	0.118
-698.499	107.854	-0.043	0.051
-697.485	167.966	0.149	0.212
-696.470	82.960	-0.120	0.131
-695.456	-151.783	-0.134	-0.010
-694.441	-200.000	0.004	-0.112
-693.426	-200.000	0.059	0.518
-692.412	-34.617	-0.224	-0.123
-691.397	113.295	-0.078	-0.094
-690.383	-88.811	0.058	-0.017
-689.368	800.000	0.027	0.104
-688.354	-99.668	-0.257	-0.065
-687.339	800.000	0.034	0.098
-686.324	139.281	-0.037	-0.049
-685.310	-2.286	-0.040	-0.028
-684.295	82.263	0.372	0.404
-683.281	-200.000	0.014	0.181
-682.266	-102.234	0.189	-0.045
-681.251	-91.807	-0.376	0.107
-680.237	15.688	-0.092	-0.072
-679.222	-106.362	-0.157	-0.035
-678.208	-87.074	-0.109	-0.033
-677.193	-200.000	0.019	-0.306
-676.178	571.725	-0.078	-0.190
-675.164	-86.320	-0.079	0.024
-674.149	-56.869	-0.035	-0.016
-673.135	-200.000	-0.041	-0.405
-672.120	-62.358	0.156	-0.065
-671.105	800.000	-0.057	-0.205
-670.091	-200.000	-0.046	-0.295
-669.076	81.343	-0.234	-0.253
-668.062	-90.091	0.033	-0.010
-667.047	800.000	0.060	-0.264
-666.032	389.560	0.038	-0.079
-665.018	181.199	0.118	0.174
-664.003	-101.803	0.128	0.031
-662.989	346.557	0.191	-0.376
-661.974	-26.379	0.191	0.112
-660.959	551.943	0.099	-0.238
-659.945	249.516	-0.164	-0.278
-658.930	-200.000	0.025	-0.176
-657.916	409.777	-0.021	0.046
-656.901	-200.000	0.020	-0.109
-655.886	-59.952	-0.203	-0.087
-654.872	-68.162	-0.139	0.054
-653.857	207.207	0.084	0.131
-652.843	238.777	-0.143	-0.239
-651.828	178.824	0.128	-0.187
-650.814	13.005	0.169	-0.131
-649.799	-200.000	0.025	-0.159
-648.784	223.909	0.046	0.074
-647.770	-200.000	0.006	-0.170
-646.755	-111.243	-0.285	-0.058
-645.741	-18.351	0.067	-0.042
-644.726	768.576	-0.065	-0.178
-643.711	97.818	-0.205	-0.236
-642.697	-200.000	0.006	-0.031
-641.682	-48.665	0.154	-0.074
-640.668	-66.327	-0.287	-0.114
-639.653	-110.417	-0.097	-0.020
-638.638	208.094	0.111	-0.174
-637.624	800.000	0.031	-0.088
-636.609	-62.470	-0.139	0.058
-635.595	-18.312	-0.115	0.072
-634.580	-116.268	-0.133	-0.025
-633.565	-96.722	-0.080	0.021
-632.551	53.461	-0.103	0.099
-631.536	-130.026	0.145	0.020
-630.522	-200.000	0.031	-0.243
-629.507	-98.717	-0.282	0.072
-628.492	-131.557	-0.120	-0.016
-627.478	94.527	-0.035	-0.040
-626.463	-105.727	-0.158	-0.036
-625.449	79.743	0.300	0.322
-624.434	-200.000	0.012	-0.170
-623.419	-42.339	0.214	-0.109
-622.405	516.333	-0.146	-0.342
-621.390	333.517	0.347	-0.670
-620.376	-200.000	-0.009	-0.343
-619.361	-108.597	-0.061	0.013
-618.346	-110.574	0.218	-0.045
-617.332	800.000	-0.034	0.120
-616.317	164.400	0.154	0.217
-615.303	-6.150	0.207	0.141
-614.288	-200.000	0.005	0.125
-613.273	800.000	0.079	-0.242
-612.259	-7.499	0.343	-0.232
-611.244	-129.500	-0.267	0.037
-610.230	800.000	-0.071	-0.257
-609.215	85.623	0.180	0.198
-608.201	-200.000	-0.008	-0.155
-607.186	723.481	-0.078	0.209
-606.171	-183.982	0.051	-0.001
-605.157	-184.707	-0.224	-0.004
-604.142	-67.755	0.020	-0.008
-603.128	175.563	0.076	0.110
-602.113	145.438	-0.181	-0.243
-601.098	62.566	0.108	-0.107
-600.084	-121.319	-0.055	0.009
-599.069	-120.413	0.164	0.028
-598.055	-84.245	-0.288	-0.091
-597.040	91.158	-0.047	0.052
-596.025	-19.783	-0.137	-0.085
-595.011	-112.259	-0.353	0.071
-593.996	-150.802	0.322	-0.024
-592.982	498.000	-0.111	0.255
-591.967	800.000	-0.062	0.189
-590.952	-154.086	-0.032	0.002
-589.938	49.492	0.141	0.133
-588.923	-114.587	0.311	0.059
-587.909	44.570	-0.116	0.106
-586.894	326.142	0.113	-0.216
-585.879	-12.517	-0.387	-0.253
-584.865	-106.793	0.511	0.113
-583.850	366.763	-0.055	0.110
-582.836	-200.000	0.011	0.082
-581.821	47.429	0.050	0.046
-580.806	-197.940	0.029	-0.000
-579.792	142.603	-0.083	-0.111
-578.777	43.935	0.177	-0.162
-577.763	-161.708	0.493	0.025
-576.748	-147.611	-0.165	-0.014
-575.733	3.998	-0.203	0.148
-574.719	-178.268	-0.208	0.005
-573.704	-40.901	0.183	0.094
-572.690	141.451	-0.130	0.172
-571.675	-200.000	0.002	0.381
-570.661	-200.000	0.030	0.271
-569.646	-47.855	0.437	-0.211
-568.631	329.490	-0.083	0.160
-567.617	-127.183	-0.124	0.018
-566.602	-93.590	0.117	-0.032
-565.588	168.858	-0.183	-0.260
-564.573	263.140	0.073	-0.127
-563.558	800.000	-0.069	0.212
-562.544	5.234	-0.046	-0.034
-561.529	228.075	0.165	-0.268
-560.515	46.198	0.209	-0.193
-559.500	800.000	-0.028	0.092
-558.485	-120.898	-0.408	0.068
-557.471	86.559	-0.101	-0.112
-556.456	-200.000	0.017	-0.200
-555.442	-154.300	-0.097	-0.006
-554.427	0.559	-0.329	0.235
-553.412	-200.000	0.021	-0.285
-552.398	54.674	-0.129	-0.124
-551.383	-51.492	-0.156	-0.072
-550.369	-200.000	0.030	-0.283
-549.354	-200.000	0.052	-0.267
-548.339	-172.021	0.366	0.012
-547.325	458.710	-0.055	0.122
-546.310	-6.558	-0.204	-0.139
-545.296	800.000	0.012	0.051
-544.281	-110.582	-0.099	-0.020
-543.266	-200.000	-0.048	0.335
-542.252	-117.344	0.284	-0.051
-541.237	-92.863	0.067	-0.019
-540.223	-200.000	0.006	0.246
-539.208	-99.034	-0.106	0.027
-538.193	-126.799	-0.155	0.023
-537.179	800.000	0.171	0.513
-536.164	-200.000	-0.005	0.165
-535.150	447.942	-0.064	0.140
-534.135	137.915	0.196	0.256
-533.121	-147.748	0.299	0.025
-532.106	253.512	-0.161	-0.273
-531.091	-200.000	0.005	-0.025
-530.077	327.114	-0.145	-0.277
-529.062	-127.694	0.106	-0.015
-528.048	65.307	-0.281	0.283
-527.033	-200.000	-0.100	-0.459
-526.018	291.132	-0.182	-0.329
-525.004	-175.984	0.156	-0.004
-523.989	800.000	-0.128	0.353
-522.975	232.677	0.124	-0.203
-521.960	-148.549	-0.390	0.032
-520.945	81.514	0.321	0.346
-519.931	-2.199	0.358	0.250
-518.916	-143.293	0.220	-0.021
-517.902	187.490	-0.212	-0.315
-516.887	-46.129	-0.438	0.215
-515.872	302.713	-0.119	0.220
-514.858	100.345	-0.108	0.124
-513.843	-119.051	-0.222	-0.039
-512.829	-161.804	0.202	-0.010
-511.814	800.000	0.050	-0.147
-510.799	-66.799	0.177	0.070
-509.785	-8.625	0.175	-0.117
-508.770	800.000	-0.057	0.219
-507.756	-167.598	-0.160	0.006
-506.741	286.887	0.062	-0.111
-505.726	331.699	0.092	-0.176
-504.712	-106.098	-0.175	-0.039
-503.697	-200.000	-0.015	0.105
-502.683	-54.721	-0.150	-0.068
-501.668	800.000	0.040	-0.118
-500.653	-200.000	-0.022	0.282
-499.639	800.000	0.047	0.153
-498.624	-200.000	0.031	-0.176
-497.610	233.262	0.053	-0.087
-496.595	-76.671	0.079	-0.028
-495.581	800.000	0.034	0.133
-494.566	-75.763	0.378	0.133
-493.551	121.235	-0.142	-0.176
-492.537	-130.167	0.254	-0.034
-491.522	210.633	0.195	-0.305
-490.508	513.873	-0.096	0.222
-489.493	11.883	0.155	-0.118
-488.478	295.903	0.076	-0.139
-487.464	-200.000	0.108	-0.488
-486.449	187.385	-0.203	0.302
-485.435	142.040	-0.127	0.167
-484.420	-31.071	0.177	-0.099
-483.405	-37.552	0.130	-0.069
-482.391	379.771	-0.173	-0.352
-481.376	91.307	-0.206	0.230
-480.362	480.640	-0.143	0.324
-479.347	800.000	-0.023	0.094
-478.332	-92.223	0.067	0.019
-477.318	-105.276	0.274	-0.062
-476.303	-31.926	0.085	0.047
-475.289	-29.190	-0.145	-0.083
-474.274	107.859	-0.102	-0.120
-473.259	-146.932	0.114	0.010
-472.245	800.000	0.047	-0.190
-471.230	485.173	-0.034	0.077
-470.216	70.777	-0.240	0.247
-469.201	-172.820	-0.243	0.008
-468.186	-66.876	-0.149	-0.059
-467.172	32.330	-0.151	0.130
-466.157	3.538	-0.315	-0.228
-465.143	-200.000	0.055	-0.312
-464.128	115.218	-0.071	-0.086
-463.113	-30.622	0.325	0.183
-462.099	-101.730	-0.397	0.096
-461.084	-118.627	-0.223	-0.039
-460.070	-155.358	-0.193	-0.012
-459.055	3.240	-0.161	0.116
-458.040	129.442	0.096	0.122
-457.026	-130.103	-0.261	-0.035
-456.011	564.753	0.157	-0.378
-454.997	-83.230	-0.367	0.117
-453.982	2.508	0.175	-0.126
-452.968	76.885	0.176	0.185
-451.953	7.127	-0.178	0.132
-450.938	800.000	0.018	-0.075
-449.924	800.000	-0.138	-0.530
-448.909	198.818	-0.228	-0.347
-447.895	-76.206	0.450	-0.157
-446.880	800.000	-0.069	0.241
-445.865	75.363	-0.146	0.153
-444.851	9.044	-0.138	-0.104
-443.836	-91.407	-0.268	0.076
-442.822	800.000	0.096	-0.356
-441.807	-80.612	-0.137	0.045
-440.792	-19.901	-0.132	0.081
-439.778	66.253	-0.206	-0.208
-438.763	-135.721	0.212	-0.025
-437.749	106.792	0.198	-0.234
-436.734	277.785	-0.129	-0.227
-435.719	-166.168	-0.050	0.002
-434.705	-171.846	0.325	-0.011
-433.690	116.706	-0.124	0.151
-432.676	800.000	-0.041	0.177
-431.661	-200.000	-0.009	-0.060
-430.646	-66.369	0.087	-0.034
-429.632	-125.817	-0.051	-0.008
-428.617	-171.916	0.171	-0.006
-427.603	-26.024	-0.475	0.277
-426.588	800.000	0.010	0.034
-425.573	36.315	0.276	-0.241
-424.559	-200.000	-0.167	0.000
-423.544	206.358	0.220	-0.340
-422.530	104.445	-0.068	-0.079
-421.515	192.881	-0.176	0.264
-420.500	66.949	-0.250	-0.253
-419.486	-49.007	-0.154	0.073
-418.471	800.000	-0.098	0.282
-417.457	-200.000	0.020	-0.187
-416.442	-35.079	0.128	-0.069
-415.428	-42.894	-0.143	0.072
-414.413	-179.446	0.149	0.003
-413.398	38.794	0.131	0.116
-412.384	267.447	-0.120	-0.208
-411.369	-13.698	0.140	0.090
-410.355	15.871	0.149	-0.117
-409.340	-112.041	0.339	-0.068
-408.325	274.784	0.188	0.330
-407.311	112.438	0.203	0.243
-406.296	-105.346	0.119	0.027
-405.282	74.495	0.078	-0.081
-404.267	-26.648	0.134	-0.078
-403.252	61.280	-0.205	-0.202
-402.238	-125.338	0.258	-0.039
-401.223	-105.261	0.332	0.075
-400.209	-141.609	0.153	0.015
-399.194	-53.254	-0.098	0.045
-398.179	-81.847	-0.141	-0.046
-397.165	1.023	-0.151	-0.107
-396.150	-127.969	-0.097	-0.014
-395.136	-138.662	-0.201	0.022
-394.121	-84.740	0.213	-0.066
-393.106	618.792	0.105	-0.260
-392.092	-3.456	0.209	0.144
-391.077	38.369	-0.059	-0.052
-390.063	-200.000	-0.017	0.318
-389.048	-36.169	0.119	0.064
-388.033	153.125	0.032	-0.043
-387.019	-171.198	0.117	0.004
-386.004	-200.000	0.106	-0.466
-384.990	-46.207	0.343	-0.167
-383.975	583.899	0.031	-0.076
-382.960	800.000	-0.073	0.286
-381.946	-200.000	-0.032	0.383
-380.931	5.780	-0.152	0.111
-379.917	800.000	0.053	-0.220
-378.902	-147.712	0.432	-0.036
-377.888	-140.617	0.114	-0.012
-376.873	-123.473	-0.054	-0.009
-375.858	-128.860	0.128	0.018
-374.844	286.977	0.130	-0.233
-373.829	248.653	-0.043	-0.072
-372.815	-83.462	-0.144	-0.046
-371.800	27.445	-0.181	-0.151
-370.785	175.302	0.212	-0.305
-369.771	-40.453	-0.068	0.035
-368.756	-33.612	0.159	0.087
-367.742	-200.000	-0.046	0.238
-366.727	-200.000	0.032	0.248
-365.712	377.064	0.216	0.438
-364.698	-200.000	-0.004	-0.116
-363.683	-146.092	0.136	-0.012
-362.669	-39.807	-0.095	-0.049
-361.654	-151.196	-0.407	-0.030
-360.639	-28.508	0.347	-0.198
-359.625	-1.912	-0.065	-0.045
-358.610	800.000	-0.018	-0.056
-357.596	165.388	-0.085	0.119
-356.581	-200.000	-0.006	-0.163
-355.566	-200.000	0.025	-0.302
-354.552	241.066	-0.042	0.069
-353.537	-29.022	0.189	0.108
-352.523	-200.000	-0.008	0.116
-351.508	-20.790	-0.409	0.248
-350.493	213.567	-0.165	0.258
-349.479	-66.478	0.185	0.073
-348.464	-154.176	0.313	0.021
-347.450	800.000	-0.068	0.244
-346.435	-101.652	0.404	0.097
-345.420	279.822	-0.163	-0.289
-344.406	-3.757	0.208	-0.143
-343.391	21.940	-0.408	0.329
-342.377	-200.000	-0.012	0.266
-341.362	-131.934	-0.339	0.044
-340.348	11.251	0.304	-0.230
-339.333	572.543	0.020	-0.048
-338.318	618.388	0.072	0.178
-337.304	-43.987	-0.227	-0.113
-336.289	-61.797	0.274	-0.113
-335.275	170.779	-0.169	0.240
-334.260	800.000	0.057	0.216
-333.245	7.052	-0.169	0.125
-332.231	9.116	-0.265	-0.198
-331.216	-121.631	0.106	-0.017
-330.202	307.389	-0.188	-0.347
-329.187	16.137	-0.105	0.082
-328.172	666.142	0.094	-0.240
-327.158	147.311	-0.034	-0.046
-326.143	-88.032	-0.131	-0.039
-325.129	363.728	-0.027	0.054
-324.114	800.000	-0.077	0.227
-323.099	83.889	0.098	-0.105
-322.085	-62.149	-0.112	0.046
-321.070	-82.445	0.335	0.107
-320.056	-200.000	0.033	0.184
-319.041	-92.698	-0.477	0.132
-318.026	500.580	-0.066	0.150
-317.012	107.519	0.115	-0.135
-315.997	800.000	0.069	0.292
-314.983	57.934	0.235	-0.227
-313.968	800.000	0.041	-0.169
-312.953	160.294	-0.168	-0.231
-311.939	-164.053	-0.263	0.012
-310.924	800.000	0.014	0.054
-309.910	36.834	0.180	-0.157
-308.895	32.373	0.218	-0.186
-307.880	366.670	-0.113	0.226
-306.866	-200.000	-0.031	-0.167
-305.851	-127.528	0.236	0.034
-304.837	478.877	-0.018	0.040
-303.822	-200.000	0.036	0.246
-302.807	800.000	0.099	0.341
-301.793	-65.212	0.165	0.066
-300.778	272.759	-0.075	-0.130
-299.764	7.784	0.202	0.149
-298.749	-200.000	0.001	-0.046
-297.735	-149.236	0.237	-0.019
-296.720	-95.442	-0.153	-0.041
-295.705	-181.425	-0.201	0.004
-294.691	800.000	0.018	-0.063
-293.676	172.486	-0.148	-0.210
-292.662	39.226	0.132	-0.117
-291.647	152.412	0.184	-0.249
-290.632	800.000	0.128	0.523
-289.618	-200.000	0.003	0.171
-288.603	-200.000	0.034	0.164
-287.589	-1.340	0.100	0.070
-286.574	800.000	0.080	0.227
-285.559	-200.000	0.020	0.314
-284.545	800.000	-0.139	0.422
-283.530	-114.701	-0.302	0.057
-282.516	-181.211	0.206	-0.004
-281.501	-63.605	-0.408	0.165
-280.486	-146.755	0.201	0.017
-279.472	-92.588	-0.207	-0.057
-278.457	-82.158	-0.106	-0.034
-277.443	132.075	-0.093	0.118
-276.428	-137.567	0.270	0.030
-275.413	454.749	0.154	0.337
-274.399	-61.796	-0.213	-0.088
-273.384	215.980	-0.122	-0.191
-272.370	-200.000	-0.075	-0.393
-271.355	73.047	0.161	-0.166
-270.340	108.423	0.094	-0.110
-269.326	-82.350	0.160	0.051
-268.311	179.105	0.162	0.234
-267.297	-132.199	-0.135	-0.017
-266.282	-90.461	0.407	-0.116
-265.267	69.266	-0.211	-0.214
-264.253	9.425	-0.079	-0.059
-263.238	124.034	-0.275	0.340
-262.224	163.708	0.052	0.073
-261.209	-200.000	0.002	0.137
-260.195	210.806	0.169	0.263
-259.180	111.611	-0.306	-0.364
-258.165	-41.034	0.384	-0.196
-257.151	-44.636	0.214	-0.105
-256.136	-158.328	0.161	-0.009
-255.122	-2.543	-0.086	0.059
-254.107	119.544	0.101	0.124
-253.092	799.993	0.072	0.195
-252.078	-95.985	0.109	-0.029
-251.063	-200.000	-0.036	0.534
-250.049	45.447	0.067	0.060
-249.034	-133.835	-0.027	0.003
-248.019	175.767	0.090	-0.129
-247.005	135.392	0.140	0.179
-245.990	594.691	0.044	0.107
-244.976	242.415	0.131	-0.216
-243.961	-56.325	0.340	-0.149
-242.946	-97.623	-0.071	0.018
-241.932	34.165	0.180	0.155
-240.917	800.000	-0.083	0.296
-239.903	-139.321	0.113	0.012
-238.888	800.000	0.046	-0.160
-237.873	-200.000	0.353	-0.000
-236.859	88.215	-0.068	0.074
-235.844	-158.711	-0.113	-0.006
-234.830	-147.964	-0.376	-0.031
-233.815	-112.867	-0.436	-0.085
-232.800	-17.729	0.250	0.155
-231.786	-14.729	0.231	-0.146
-230.771	-119.177	0.108	0.019
-229.757	131.784	-0.184	0.233
-228.742	-200.000	-0.002	-0.141
-227.727	800.000	0.083	0.340
-226.713	-46.489	-0.400	0.193
-225.698	-3.541	0.027	0.018
-224.684	245.876	-0.061	0.101
-223.669	401.138	-0.147	0.303
-222.655	-19.154	0.282	-0.172
-221.640	-100.702	0.161	-0.039
-220.625	800.000	0.053	-0.209
-219.611	170.372	0.069	-0.097
-218.596	147.845	-0.050	-0.066
-217.582	206.830	-0.010	-0.015
-216.567	27.652	-0.130	0.108
-215.552	255.806	-0.081	0.137
-214.538	185.594	-0.017	0.025
-213.523	-200.000	-0.018	-0.084
-212.509	656.387	-0.011	0.028
-211.494	-82.801	0.371	0.118
-210.479	-68.914	0.204	0.077
-209.465	-200.000	-0.025	0.202
-208.450	-157.096	-0.369	0.022
-207.436	800.000	-0.035	-0.134
-206.421	323.499	0.163	0.306
-205.406	-89.363	-0.118	-0.034
-204.392	-165.486	0.334	-0.014
-203.377	-3.918	-0.322	-0.220
-202.363	686.256	0.172	-0.442
-201.348	-54.404	-0.455	-0.203
-200.333	-200.000	0.085	-0.464
-199.319	109.980	0.128	0.151
-198.304	800.000	-0.026	0.102
-197.290	102.500	0.241	-0.277
-196.275	-152.382	-0.164	0.012
-195.260	371.637	0.032	0.063
-194.246	800.000	0.088	-0.356
-193.231	-28.857	-0.076	0.043
-192.217	-34.266	-0.195	-0.105
-191.202	-54.540	0.277	0.123
-190.187	800.000	-0.067	-0.223
-189.173	52.816	-0.364	-0.342
-188.158	-25.648	-0.304	0.176
-187.144	759.663	-0.064	0.172
-186.129	128.668	0.186	-0.233
-185.114	526.950	0.169	-0.390
-184.100	87.525	-0.069	0.075
-183.085	-55.003	0.130	-0.057
-182.071	-200.000	0.020	-0.114
-181.056	-200.000	-0.010	-0.235
-180.042	-199.453	0.196	-0.001
-179.027	-95.650	-0.209	-0.055
-178.012	-35.419	-0.260	-0.139
-176.998	-75.000	-0.231	-0.081
-175.983	95.220	0.128	0.143
-174.969	-101.691	-0.273	0.065
-173.954	-31.169	0.236	-0.130
-172.939	352.703	-0.106	-0.206
-171.925	-200.000	0.057	0.342
-170.910	759.894	0.125	0.333
-169.896	800.000	0.059	0.242
-168.881	257.820	-0.032	0.054
-167.866	800.000	0.067	0.267
-166.852	180.081	0.089	-0.128
-165.837	133.288	0.148	0.188
-164.823	99.381	-0.022	0.025
-163.808	5.116	-0.184	0.133
-162.793	-114.993	-0.292	-0.054
-161.779	-158.097	0.187	-0.011
-160.764	800.000	-0.033	0.132
-159.750	-200.000	0.016	0.267
-158.735	-107.584	-0.011	0.002
-157.720	800.000	0.091	0.250
-156.706	-41.094	-0.255	0.129
-155.691	-72.956	-0.273	0.099
-154.677	158.208	0.216	0.294
-153.662	-41.574	-0.191	0.096
-152.647	-200.000	-0.004	-0.044
-151.633	209.231	-0.087	0.134
-150.618	549.684	0.162	0.381
-149.604	212.165	0.241	0.373
-148.589	-75.439	0.168	-0.059
-147.574	147.571	-0.093	0.123
-146.560	-200.000	-0.016	0.241
-145.545	800.000	0.142	0.397
-144.531	800.000	-0.036	0.132
-143.516	165.972	0.134	-0.186
-142.502	-64.712	-0.360	-0.143
-141.487	145.468	0.162	0.213
-140.472	153.538	-0.061	0.082
-139.458	-80.834	-0.211	0.069
-138.443	-200.000	-0.029	-0.136
-137.429	15.298	-0.265	0.204
-136.414	469.844	0.138	-0.303
-135.399	630.552	0.134	0.332
-134.385	-144.681	0.261	-0.024
-133.370	-200.000	0.031	0.142
-132.356	-62.396	-0.088	0.036
-131.341	-54.604	0.048	0.021
-130.326	800.000	-0.171	0.492
-129.312	-41.039	-0.045	-0.023
-128.297	-200.000	-0.094	-0.510
-127.283	587.049	0.022	0.052
-126.268	-87.768	0.097	0.029
-125.253	59.170	-0.152	-0.147
-124.239	252.117	-0.267	-0.446
-123.224	-85.760	0.125	0.038
-122.210	15.027	0.035	-0.027
