DTS Sentinel unit serial number:	SN413079Multiplexer serial number:	ORYXHardware model number:	OX4-SRSoftware version number:	ORYX F/W v4.00 Oryx Data Collector v3.7.2.0data status	okinstallation	princeton_trtdifferential loss correction	single-endedforward channel	channel 1reverse channel	N/Adate	2019/09/12time	18:34:34forward acquisition time	15.00reverse acquisition time	0.00gamma	496.2192k internal	0.2318k external	0.2318temperature offset calibration	1.0105default loss term (dB/km)	0.3790temperature slope calibration	1.0000multiplexer offset coefficient	1.0000multiplexer slope coefficient	1.0000fibre end	0.00T internal ref (°C)	33.19T ext. ref 1 (°C)	2.96T ext. ref 2 (°C)	27.69length (m)	temperature (°C)	Stokes	anti-Stokes-747.200	-45.889	-0.293	0.146
-746.185	254.543	0.497	-0.861
-745.171	-200.000	0.010	-0.067
-744.156	-64.480	-0.371	0.153
-743.142	800.000	0.170	0.567
-742.127	-33.456	-0.702	0.393
-741.112	-93.366	0.426	0.119
-740.098	-96.126	0.393	0.106
-739.083	-200.000	0.028	-0.663
-738.069	274.769	0.583	1.045
-737.054	-94.124	-0.798	0.221
-736.039	-51.420	-0.333	0.158
-735.025	-200.000	0.015	-0.172
-734.010	-81.603	0.441	-0.147
-732.996	-78.610	0.342	-0.118
-731.981	800.000	0.187	0.524
-730.966	-44.894	0.475	0.239
-729.952	-111.421	-0.575	-0.118
-728.937	-200.000	-0.119	0.827
-727.923	-28.950	0.181	0.105
-726.908	-83.311	0.432	-0.140
-725.894	-200.000	0.066	0.436
-724.879	406.071	0.148	0.316
-723.864	-139.349	-0.391	0.042
-722.850	123.483	0.202	0.256
-721.835	800.000	0.218	0.633
-720.821	-108.777	-0.365	-0.079
-719.806	800.000	-0.085	0.370
-718.791	165.304	-0.180	0.258
-717.777	-200.000	-0.042	-0.936
-716.762	519.763	-0.052	-0.124
-715.748	-200.000	-0.088	0.431
-714.733	-53.338	-0.487	-0.226
-713.718	-135.236	-0.600	-0.073
-712.704	-4.325	-0.631	-0.441
-711.689	-170.349	-0.494	-0.018
-710.675	-200.000	-0.323	0.000
-709.660	118.634	0.338	0.421
-708.645	-64.433	-0.310	-0.128
-707.631	-109.758	-0.054	0.011
-706.616	127.059	0.447	-0.573
-705.602	243.463	-0.456	0.773
-704.587	-39.591	0.693	0.367
-703.572	-126.640	0.314	-0.047
-702.558	-200.000	-0.020	-0.268
-701.543	-200.000	-0.161	-1.034
-700.529	102.615	-0.504	-0.596
-699.514	-36.223	-0.712	-0.388
-698.499	-86.649	0.591	0.183
-697.485	-180.597	0.485	0.010
-696.470	-200.000	-0.256	1.265
-695.456	-88.933	1.003	0.300
-694.441	-200.000	0.220	0.000
-693.426	-91.926	0.691	-0.198
-692.412	112.330	0.287	-0.351
-691.397	800.000	0.243	1.040
-690.383	-58.446	-0.629	0.276
-689.368	53.337	0.222	0.215
-688.354	-44.324	-0.114	0.058
-687.339	60.181	-0.606	0.605
-686.324	-90.939	-0.694	0.202
-685.310	-131.107	0.837	0.113
-684.295	88.153	-0.537	-0.602
-683.281	-200.000	-0.027	-0.370
-682.266	800.000	0.170	-0.583
-681.251	-54.759	0.476	-0.217
-680.237	800.000	0.108	0.308
-679.222	191.825	-0.387	-0.588
-678.208	107.306	-0.483	-0.580
-677.193	800.000	-0.135	-0.556
-676.178	180.782	0.177	-0.262
-675.164	316.195	0.207	0.394
-674.149	293.475	-0.114	0.210
-673.135	0.883	0.546	-0.395
-672.120	-161.524	-0.537	-0.028
-671.105	-46.236	-0.416	-0.206
-670.091	-74.366	-0.187	-0.068
-669.076	-200.000	0.054	-0.667
-668.062	-83.046	0.374	0.121
-667.047	128.233	-0.220	0.283
-666.032	17.959	0.324	0.261
-665.018	-126.945	-1.037	0.154
-664.003	-89.541	-0.306	-0.091
-662.989	800.000	0.125	-0.488
-661.974	125.854	-0.165	0.211
-660.959	70.151	0.481	-0.501
-659.945	117.552	0.328	-0.407
-658.930	-115.914	0.531	0.100
-657.916	446.842	0.212	-0.470
-656.901	-136.010	0.344	0.041
-655.886	332.614	0.230	-0.448
-654.872	-13.943	-0.495	0.323
-653.857	63.343	-0.386	0.391
-652.843	-200.000	-0.036	-0.269
-651.828	-128.022	0.542	-0.078
-650.814	-89.845	0.411	-0.121
-649.799	-200.000	-0.002	-0.405
-648.784	-8.183	-0.486	0.330
-647.770	-145.650	-0.429	0.039
-646.755	-42.086	0.384	0.198
-645.741	-123.325	-0.909	0.146
-644.726	-128.606	-0.531	0.076
-643.711	78.706	0.170	0.184
-642.697	-146.514	0.545	0.048
-641.682	-4.083	-0.224	-0.157
-640.668	-143.095	0.512	-0.050
-639.653	-16.214	0.286	0.183
-638.638	-58.878	0.675	0.294
-637.624	59.006	0.556	0.551
-636.609	-123.255	-0.715	0.115
-635.595	228.063	-0.551	0.904
-634.580	-36.995	-0.692	0.374
-633.565	18.330	-0.048	0.039
-632.551	387.588	-0.393	-0.820
-631.536	-200.000	-0.149	0.875
-630.522	-30.963	-0.623	-0.354
-629.507	87.100	-0.187	-0.209
-628.492	83.724	0.088	-0.096
-627.478	800.000	-0.255	-0.841
-626.463	-200.000	-0.038	-0.364
-625.449	695.332	-0.086	-0.229
-624.434	745.567	0.296	-0.803
-623.419	-40.370	0.425	-0.222
-622.405	-188.111	-0.083	0.001
-621.390	-110.856	0.881	-0.183
-620.376	-200.000	0.052	0.380
-619.361	531.018	-0.121	-0.288
-618.346	-40.261	0.540	0.283
-617.332	-125.619	-0.876	-0.134
-616.317	362.869	0.507	1.026
-615.303	574.548	0.012	-0.030
-614.288	800.000	-0.165	-0.726
-613.273	-49.609	0.188	0.090
-612.259	-200.000	-0.030	-0.379
-611.244	82.071	-0.264	-0.288
-610.230	-11.936	-0.142	-0.094
-609.215	-167.313	-0.657	-0.027
-608.201	97.113	-0.205	0.237
-607.186	-129.156	-0.704	0.099
-606.171	169.836	-0.041	0.059
-605.157	535.544	0.263	0.629
-604.142	-91.079	0.751	-0.217
-603.128	404.788	-0.199	-0.423
-602.113	139.074	0.301	-0.399
-601.098	124.097	-0.344	0.435
-600.084	-134.985	-0.189	0.023
-599.069	125.453	-0.509	-0.646
-598.055	-200.000	-0.075	0.382
-597.040	-200.000	-0.086	0.655
-596.025	-65.438	0.771	-0.312
-595.011	385.832	0.111	0.232
-593.996	167.009	0.541	-0.772
-592.982	7.860	0.708	-0.534
-591.967	-75.274	-1.117	-0.401
-590.952	-13.147	1.283	0.839
-589.938	-151.944	-0.293	-0.022
-588.923	-200.000	0.091	0.668
-587.909	470.376	0.093	-0.211
-586.894	-79.781	-0.794	0.269
-585.879	211.372	0.099	-0.157
-584.865	-42.679	0.736	-0.377
-583.850	-200.000	0.058	-0.499
-582.836	324.586	-0.300	0.576
-581.821	-15.149	-0.319	-0.206
-580.806	800.000	0.063	-0.224
-579.792	-148.460	-0.202	0.017
-578.777	-200.000	0.074	-0.354
-577.763	-56.432	0.691	0.308
-576.748	-132.380	0.521	-0.068
-575.733	139.127	0.248	0.328
-574.719	-45.533	-0.264	-0.131
-573.704	45.834	-0.375	-0.349
-572.690	800.000	0.109	-0.430
-571.675	-118.322	-0.411	0.073
-570.661	389.266	-0.336	-0.699
-569.646	724.651	0.106	0.284
-568.631	112.952	-0.360	-0.438
-567.617	-87.606	0.430	0.131
-566.602	-131.390	0.563	-0.075
-565.588	25.234	-0.578	-0.482
-564.573	4.701	-0.464	0.342
-563.558	-200.000	-0.020	0.359
-562.544	325.180	0.282	0.541
-561.529	333.916	0.336	-0.653
-560.515	741.926	-0.206	0.555
-559.500	800.000	-0.152	-0.562
-558.485	32.552	0.081	-0.070
-557.471	3.131	-0.296	-0.216
-556.456	-66.791	0.115	0.046
-555.442	541.282	0.014	0.034
-554.427	-170.648	0.367	0.013
-553.412	-43.116	0.474	0.242
-552.398	-50.798	-0.322	0.152
-551.383	-62.797	0.541	0.225
-550.369	351.951	-0.318	0.633
-549.354	130.981	-0.177	-0.229
-548.339	347.971	-0.236	-0.467
-547.325	-200.000	-0.062	0.717
-546.310	53.751	0.545	-0.526
-545.296	-104.698	0.757	0.175
-544.281	800.000	0.199	0.809
-543.266	-54.482	-0.344	0.157
-542.252	-95.582	-1.131	-0.304
-541.237	-105.230	0.348	-0.080
-540.223	-77.489	0.630	-0.219
-539.208	29.910	0.506	0.433
-538.193	-160.380	-0.787	0.043
-537.179	24.783	0.362	0.301
-536.164	-67.901	0.332	0.130
-535.150	333.225	-0.400	-0.777
-534.135	-163.709	0.303	-0.014
-533.121	226.612	-0.099	0.162
-532.106	800.000	-0.076	-0.262
-531.091	-200.000	-0.089	-0.418
-530.077	-27.729	-0.151	-0.088
-529.062	531.627	0.242	-0.575
-528.048	211.993	0.327	-0.517
-527.033	-200.000	0.095	-0.494
-526.018	-106.570	-0.611	-0.137
-525.004	-200.000	-0.013	0.978
-523.989	0.475	-0.225	0.161
-522.975	800.000	0.053	-0.165
-521.960	-179.276	0.982	-0.022
-520.945	-200.000	0.019	0.403
-519.931	-72.509	-0.196	-0.073
-518.916	-128.439	-0.458	0.065
-517.902	-85.988	-0.626	0.194
-516.887	-21.899	0.693	0.423
-515.872	-83.861	-0.425	0.136
-514.858	58.882	-0.519	-0.512
-513.843	122.101	0.647	-0.811
-512.829	800.000	-0.149	0.613
-511.814	800.000	0.127	-0.380
-510.799	170.636	-0.143	-0.205
-509.785	800.000	-0.180	-0.580
-508.770	122.669	-0.506	-0.635
-507.756	-64.585	0.677	0.275
-506.741	-33.220	-0.724	-0.402
-505.726	-27.498	0.107	-0.063
-504.712	309.828	-0.338	-0.634
-503.697	55.204	0.689	0.668
-502.683	-88.658	-0.325	0.097
-501.668	-88.595	-0.683	-0.204
-500.653	707.474	0.222	-0.589
-499.639	148.562	0.784	-1.061
-498.624	-83.905	-0.553	-0.176
-497.610	103.919	-0.479	0.564
-496.595	85.236	0.708	0.778
-495.581	-129.665	-0.613	0.085
-494.566	-74.036	-0.154	-0.056
-493.551	282.452	0.441	-0.794
-492.537	336.077	-0.378	-0.735
-491.522	-5.156	-0.667	0.460
-490.508	140.485	0.377	0.499
-489.493	-61.789	0.437	-0.184
-488.478	-200.000	-0.002	0.482
-487.464	-200.000	0.018	-0.263
-486.449	149.946	0.301	-0.409
-485.435	132.690	0.219	0.284
-484.420	-39.933	-0.862	-0.451
-483.405	198.340	0.269	0.413
-482.391	-117.985	-0.133	0.024
-481.376	337.756	-0.081	0.157
-480.362	-23.121	0.442	0.267
-479.347	-13.295	0.521	-0.339
-478.332	52.098	-0.464	-0.443
-477.318	205.856	-0.388	-0.604
-476.303	-22.925	-0.385	-0.233
-475.289	800.000	-0.042	-0.166
-474.274	-0.175	0.753	-0.537
-473.259	-53.467	-0.248	0.114
-472.245	227.482	-0.661	-1.077
-471.230	168.915	0.569	0.812
-470.216	-200.000	0.060	-0.641
-469.201	-166.105	0.567	0.024
-468.186	49.485	0.149	0.140
-467.172	299.229	0.036	0.066
-466.157	-61.957	-0.158	0.066
-465.143	21.143	-0.922	-0.749
-464.128	27.095	0.590	-0.496
-463.113	-125.098	0.443	0.068
-462.099	342.823	0.293	0.574
-461.084	51.383	0.362	0.345
-460.070	398.338	-0.351	0.736
-459.055	21.575	0.283	-0.231
-458.040	158.664	-0.346	-0.480
-457.026	-117.686	0.942	0.170
-456.011	800.000	-0.092	-0.284
-454.997	-62.731	0.469	0.195
-453.982	-116.150	0.844	0.157
-452.968	3.990	-0.132	-0.097
-451.953	-200.000	0.196	0.870
-450.938	-200.000	-0.014	-0.857
-449.924	210.817	0.404	-0.635
-448.909	67.790	0.587	-0.600
-447.895	-80.429	0.370	-0.123
-446.880	795.867	0.142	-0.391
-445.865	-200.000	-0.039	-0.894
-444.851	236.636	-0.275	-0.455
-443.836	234.828	0.657	-1.085
-442.822	800.000	0.128	-0.445
-441.807	308.667	-0.224	0.419
-440.792	-144.589	-1.109	-0.102
-439.778	91.465	-0.454	-0.510
-438.763	237.778	-0.202	0.336
-437.749	177.889	0.410	-0.597
-436.734	-3.758	0.459	0.319
-435.719	-126.952	-1.167	0.172
-434.705	-109.201	-0.539	0.114
-433.690	-129.711	-0.172	-0.024
-432.676	-9.938	0.467	-0.310
-431.661	-200.000	-0.134	0.671
-430.646	-134.467	0.393	-0.048
-429.632	758.493	0.141	0.381
-428.617	-107.984	0.972	0.211
-427.603	-122.196	-0.800	-0.131
-426.588	228.445	-0.244	-0.398
-425.573	-131.717	0.783	-0.103
-424.559	-146.844	0.418	0.036
-423.544	59.453	-0.220	-0.217
-422.530	800.000	0.248	-0.824
-421.515	-200.000	0.022	0.155
-420.500	103.398	0.038	-0.045
-419.486	233.640	0.361	0.594
-418.471	-200.000	-0.098	1.343
-417.457	191.596	0.307	-0.462
-416.442	332.252	-0.234	-0.451
-415.428	-63.774	0.604	-0.247
-414.413	-200.000	-0.303	-0.000
-413.398	-21.698	-0.472	0.287
-412.384	-24.806	0.609	-0.361
-411.369	-174.193	1.477	-0.043
-410.355	156.551	0.315	0.434
-409.340	50.262	0.111	-0.105
-408.325	-200.000	-0.019	0.184
-407.311	-29.579	0.672	0.384
-406.296	-44.286	-0.282	0.141
-405.282	718.219	-0.276	0.732
-404.267	118.208	0.072	-0.089
-403.252	-96.088	0.560	0.149
-402.238	-200.000	-0.019	-0.824
-401.223	-56.258	0.150	0.066
-400.209	19.976	-0.058	0.047
-399.194	-56.050	-0.334	-0.149
-398.179	-117.970	-0.994	0.178
-397.165	112.799	-0.417	0.504
-396.150	528.311	0.226	0.533
-395.136	79.216	0.229	-0.245
-394.121	409.922	0.373	-0.788
-393.106	537.668	-0.135	-0.320
-392.092	23.602	0.839	-0.689
-391.077	23.133	-1.118	0.916
-390.063	28.458	-0.373	-0.315
-389.048	-6.480	0.480	0.326
-388.033	55.786	0.240	-0.232
-387.019	800.000	0.081	-0.320
-386.004	-200.000	-0.011	-0.252
-384.990	30.584	-0.432	-0.369
-383.975	-64.081	0.273	-0.111
-382.960	384.754	-0.366	0.754
-381.946	-86.011	-0.548	-0.169
-380.931	-200.000	-0.085	-0.383
-379.917	-41.146	-0.102	-0.053
-378.902	-200.000	-0.072	0.347
-377.888	69.314	-0.392	0.402
-376.873	-117.615	0.723	-0.130
-375.858	111.292	0.121	-0.145
-374.844	-66.618	0.217	-0.086
-373.829	528.739	-0.079	0.187
-372.815	-200.000	-0.058	1.014
-371.800	59.370	0.145	0.143
-370.785	35.698	-0.146	-0.128
-369.771	-40.269	-0.423	0.220
-368.756	800.000	0.079	0.307
-367.742	-200.000	-0.004	-0.121
-366.727	78.298	0.411	0.437
-365.712	-200.000	-0.164	-0.000
-364.698	-47.035	-0.134	0.065
-363.683	120.861	0.413	0.513
-362.669	122.848	-0.448	-0.559
-361.654	800.000	-0.262	0.946
-360.639	-52.620	0.279	0.128
-359.625	759.540	0.166	0.448
-358.610	-114.947	-0.445	0.084
-357.596	-200.000	-0.064	-0.544
-356.581	-66.349	0.334	-0.132
-355.566	49.996	-0.703	-0.661
-354.552	-92.444	-0.441	-0.124
-353.537	201.033	-0.241	-0.369
-352.523	-91.583	0.559	-0.159
-351.508	119.160	0.044	0.055
-350.493	-87.668	0.856	0.257
-349.479	-38.317	0.393	0.207
-348.464	-200.000	-0.125	0.718
-347.450	568.667	0.267	0.646
-346.435	488.494	0.354	0.807
-345.420	586.449	-0.199	0.489
-344.406	504.953	0.190	0.438
-343.391	173.282	0.462	-0.664
-342.377	-200.000	0.036	0.317
-341.362	-137.046	0.740	0.084
-340.348	46.524	-0.439	-0.405
-339.333	-200.000	0.067	-0.655
-338.318	76.198	0.249	-0.262
-337.304	-79.977	0.699	-0.234
-336.289	298.817	-0.356	-0.653
-335.275	496.585	-0.159	-0.364
-334.260	-106.377	0.468	0.104
-333.245	-200.000	-0.030	0.159
-332.231	-200.000	0.023	0.500
-331.216	-117.793	-0.366	0.065
-330.202	10.833	-0.458	0.348
-329.187	1.044	0.523	0.373
-328.172	-111.093	-0.548	0.112
-327.158	38.148	-0.458	-0.406
-326.143	-107.296	0.660	-0.145
-325.129	-103.821	-1.073	0.250
-324.114	-200.000	-0.051	0.428
-323.099	800.000	-0.090	-0.300
-322.085	584.826	0.366	-0.895
-321.070	-137.545	-1.185	0.133
-320.056	42.783	0.092	-0.083
-319.041	-77.164	0.499	0.173
-318.026	486.506	0.149	-0.338
-317.012	-200.000	-0.163	1.016
-315.997	-134.605	0.523	-0.063
-314.983	26.493	-0.578	-0.482
-313.968	-200.000	0.026	0.401
-312.953	-60.441	0.717	-0.303
-311.939	-31.607	-0.509	-0.285
-310.924	-50.389	0.205	-0.096
-309.910	-2.701	-0.471	-0.328
-308.895	64.177	-0.270	0.270
-307.880	385.986	-0.226	-0.464
-306.866	85.420	-0.782	0.855
-305.851	609.000	0.033	0.082
-304.837	158.838	0.396	0.547
-303.822	29.025	-0.158	-0.133
-302.807	-146.256	-0.718	0.063
-301.793	-30.090	-0.164	0.093
-300.778	258.852	0.448	0.769
-299.764	124.139	-0.617	0.772
-298.749	194.771	0.414	0.624
-297.735	-71.637	-0.531	-0.197
-296.720	-200.000	0.075	0.527
-295.705	-45.541	0.316	0.156
-294.691	509.865	0.396	0.916
-293.676	-91.842	-0.614	0.173
-292.662	-200.000	0.204	1.087
-291.647	582.478	-0.193	-0.471
-290.632	112.893	0.219	-0.264
-289.618	38.725	-0.206	0.183
-288.603	156.540	0.333	-0.457
-287.589	-12.135	0.704	0.458
-286.574	333.957	-0.147	-0.283
-285.559	-163.282	-0.200	-0.010
-284.545	100.030	0.702	-0.809
-283.530	-168.307	0.554	0.021
-282.516	-112.853	-0.378	-0.074
-281.501	77.530	0.372	-0.394
-280.486	32.566	0.706	-0.607
-279.472	-200.000	0.010	0.349
-278.457	-31.016	-0.399	-0.224
-277.443	310.035	-0.044	0.081
-276.428	9.356	-0.621	-0.467
-275.413	-200.000	0.115	-0.631
-274.399	800.000	0.037	-0.121
-273.384	-200.000	0.035	0.178
-272.370	68.645	-0.198	0.202
-271.355	140.999	-0.198	-0.261
-270.340	8.736	0.243	-0.182
-269.326	9.565	0.312	0.235
-268.311	-74.718	0.434	0.155
-267.297	171.107	0.537	0.766
-266.282	52.675	-0.458	-0.435
-265.267	-44.905	0.216	-0.107
-264.253	14.756	-0.357	-0.278
-263.238	-64.229	-1.102	-0.446
-262.224	-51.140	-0.507	-0.236
-261.209	-84.767	-0.863	-0.270
-260.195	-5.880	0.476	0.323
-259.180	-200.000	0.040	-0.188
-258.165	-51.126	-0.545	0.254
-257.151	-200.000	-0.012	-0.339
-256.136	148.013	0.115	-0.154
-255.122	176.254	-0.194	-0.280
-254.107	187.698	-0.198	0.294
-253.092	13.578	-0.364	-0.281
-252.078	-42.507	-0.492	0.249
-251.063	-200.000	-0.008	0.581
-250.049	-24.552	-0.508	0.300
-249.034	184.857	0.469	0.690
-248.019	-48.911	-0.301	0.143
-247.005	-89.749	0.667	0.194
-245.990	98.713	0.324	0.371
-244.976	-183.698	-0.338	-0.006
-243.961	-154.658	0.239	0.016
-242.946	563.834	-0.254	0.611
-241.932	-78.853	0.363	0.123
-240.917	-119.228	0.365	0.063
-239.903	-17.989	0.125	-0.078
-238.888	-50.183	-0.471	0.221
-237.873	64.089	0.519	-0.518
-236.859	-200.000	0.097	0.794
-235.844	-65.272	0.173	-0.069
-234.830	242.275	0.324	0.538
-233.815	111.672	-0.751	0.900
-232.800	-200.000	0.090	0.406
-231.786	-200.000	-0.099	-0.463
-230.771	-7.851	0.583	-0.391
-229.757	-200.000	0.061	-0.436
-228.742	-200.000	0.073	0.513
-227.727	265.847	-0.076	-0.132
-226.713	800.000	0.070	-0.286
-225.698	800.000	-0.269	-0.915
-224.684	800.000	-0.139	0.501
-223.669	404.520	-0.181	0.378
-222.655	300.361	0.522	0.955
-221.640	26.645	-0.447	0.371
-220.625	-4.726	0.195	0.134
-219.611	71.218	0.163	0.168
-218.596	100.860	-0.447	0.516
-217.582	-48.664	0.607	-0.289
-216.567	129.259	-0.380	-0.481
-215.552	311.207	0.330	-0.614
-214.538	-40.674	-0.336	-0.173
-213.523	120.470	0.891	-1.097
-212.509	107.544	-0.375	-0.443
-211.494	-161.410	-0.412	-0.021
-210.479	102.020	-0.359	-0.415
-209.465	69.907	-0.187	0.191
-208.450	304.733	0.032	-0.059
-207.436	1.857	0.567	0.406
-206.421	-91.849	-0.259	0.073
-205.406	-165.745	-0.339	-0.015
-204.392	51.705	0.382	-0.360
-203.377	800.000	-0.363	1.052
-202.363	-200.000	0.017	0.154
-201.348	-9.961	-0.517	-0.340
-200.333	371.755	0.047	-0.094
-199.319	581.050	-0.123	0.299
-198.304	148.751	-0.158	0.212
-197.290	800.000	0.190	-0.610
-196.275	116.721	0.292	-0.355
-195.260	600.067	0.222	-0.545
-194.246	800.000	-0.103	0.357
-193.231	364.458	-0.220	0.438
-192.217	-200.000	-0.476	0.001
-191.202	-108.527	-0.345	-0.073
-190.187	232.337	0.241	0.392
-189.173	-71.717	-0.141	-0.052
-188.158	-36.781	0.392	0.209
-187.144	501.699	-0.248	0.566
-186.129	-200.000	0.019	0.572
-185.114	-190.328	0.972	0.011
-184.100	-78.721	-0.099	-0.033
-183.085	-36.500	-0.411	-0.219
-182.071	-34.943	0.183	0.099
-181.056	-136.977	0.309	0.035
-180.042	384.605	-0.031	-0.062
-179.027	89.809	-0.456	0.504
-178.012	-167.567	0.258	0.010
-176.998	790.101	-0.119	0.323
-175.983	-85.937	-0.314	0.096
-174.969	-53.753	1.105	0.499
-173.954	-200.000	0.141	-0.658
-172.939	252.128	-0.440	-0.742
-171.925	800.000	0.081	-0.292
-170.910	283.912	-0.082	-0.146
-169.896	63.487	0.173	0.172
-168.881	184.882	-0.087	0.128
-167.866	-200.000	0.009	-0.620
-166.852	-179.827	-0.098	0.002
-165.837	133.993	-0.995	1.276
-164.823	-30.411	-0.282	0.159
-163.808	-71.898	0.368	-0.136
-162.793	-200.000	0.044	0.339
-161.779	-200.000	-0.010	-0.104
-160.764	-145.353	-0.317	-0.028
-159.750	189.673	-0.205	0.304
-158.735	-200.000	0.088	1.105
-157.720	-200.000	0.062	-0.434
-156.706	14.652	-0.901	0.697
-155.691	-134.950	-0.723	-0.086
-154.677	-151.650	0.999	-0.073
-153.662	28.427	-0.296	0.248
-152.647	-77.313	0.147	-0.051
-151.633	-1.791	0.191	-0.133
-150.618	-113.803	0.669	0.129
-149.604	92.285	-0.208	0.232
-148.589	-200.000	0.039	0.584
-147.574	-200.000	-0.078	0.457
-146.560	-20.293	0.680	-0.414
-145.545	292.424	-0.249	-0.449
-144.531	800.000	-0.086	0.298
-143.516	132.984	-0.067	-0.086
-142.502	-200.000	-0.146	-0.790
-141.487	25.693	-0.728	-0.599
-140.472	-104.620	0.854	-0.195
-139.458	-200.000	-0.013	-0.353
-138.443	324.899	0.304	0.574
-137.429	82.956	0.294	0.316
-136.414	-150.256	-0.653	0.050
-135.399	438.525	0.117	0.252
-134.385	-107.427	1.032	0.224
-133.370	-200.000	-0.055	0.308
-132.356	-200.000	0.172	-0.845
-131.341	-128.483	-0.531	-0.074
-130.326	-56.362	0.485	-0.213
-129.312	-200.000	0.048	0.207
-128.297	-142.442	-0.888	-0.086
-127.283	146.325	-0.110	-0.146
-126.268	-133.570	0.474	-0.059
-125.253	660.343	0.206	-0.524
-124.239	58.246	-0.253	-0.245
-123.224	800.000	-0.299	-0.895
-122.210	-32.911	-0.400	0.219
-121.195	-184.414	0.203	-0.003
