DTS Sentinel unit serial number:	SN413079Multiplexer serial number:	ORYXHardware model number:	OX4-SRSoftware version number:	ORYX F/W v4.00 Oryx Data Collector v3.7.2.0data status	okinstallation	princeton_trtdifferential loss correction	single-endedforward channel	channel 1reverse channel	N/Adate	2019/09/17time	12:02:35forward acquisition time	60.00reverse acquisition time	0.00gamma	496.2192k internal	0.2322k external	0.2322temperature offset calibration	0.9979default loss term (dB/km)	0.3790temperature slope calibration	1.0000multiplexer offset coefficient	1.0000multiplexer slope coefficient	1.0000fibre end	0.00T internal ref (°C)	31.16T ext. ref 1 (°C)	0.43T ext. ref 2 (°C)	27.25length (m)	temperature (°C)	Stokes	anti-Stokes-747.200	-200.000	-0.016	0.132
-746.185	800.000	-0.142	0.418
-745.171	576.184	-0.034	0.084
-744.156	-200.000	-0.006	0.210
-743.142	93.703	-0.051	0.058
-742.127	-200.000	0.057	0.369
-741.112	-77.951	0.106	0.037
-740.098	-175.079	-0.125	0.004
-739.083	62.318	-0.112	0.113
-738.069	37.762	-0.184	-0.165
-737.054	625.800	-0.067	0.170
-736.039	10.150	0.100	0.077
-735.025	526.980	0.084	0.199
-734.010	-52.193	-0.183	-0.086
-732.996	194.021	0.147	0.224
-731.981	-200.000	-0.025	-0.435
-730.966	192.449	0.043	0.065
-729.952	800.000	-0.078	-0.319
-728.937	-69.989	0.178	0.069
-727.923	-86.655	-0.199	0.061
-726.908	131.755	-0.248	-0.322
-725.894	-200.000	-0.028	-0.183
-724.879	-26.625	-0.295	-0.175
-723.864	-200.000	0.016	-0.117
-722.850	-125.345	-0.154	-0.024
-721.835	65.357	-0.076	-0.078
-720.821	800.000	-0.145	-0.450
-719.806	-1.608	0.281	0.200
-718.791	-200.000	0.047	-0.250
-717.777	526.085	0.044	0.104
-716.762	-59.583	0.107	0.046
-715.748	490.038	-0.033	0.076
-714.733	312.435	0.179	0.339
-713.718	-26.469	-0.273	-0.161
-712.704	800.000	-0.071	0.270
-711.689	239.239	0.101	-0.170
-710.675	242.467	0.089	-0.151
-709.660	800.000	0.054	0.164
-708.645	22.074	0.202	-0.166
-707.631	-200.000	0.010	-0.193
-706.616	-0.368	-0.309	-0.222
-705.602	342.608	-0.096	0.190
-704.587	26.794	0.080	0.068
-703.572	175.781	-0.065	-0.095
-702.558	-99.019	0.281	0.072
-701.543	127.237	-0.235	-0.301
-700.529	96.719	-0.069	-0.080
-699.514	-50.745	-0.316	-0.150
-698.499	-30.498	0.174	0.099
-697.485	178.578	-0.199	-0.293
-696.470	12.766	0.153	-0.119
-695.456	15.780	-0.384	0.305
-694.441	800.000	-0.030	-0.116
-693.426	-13.906	0.079	0.052
-692.412	-54.084	0.175	0.080
-691.397	-188.545	-0.194	-0.002
-690.383	32.244	0.258	0.224
-689.368	551.688	0.065	-0.158
-688.354	522.420	0.067	0.159
-687.339	87.913	-0.122	-0.137
-686.324	164.801	-0.145	-0.206
-685.310	409.967	-0.055	-0.117
-684.295	60.975	0.222	0.222
-683.281	329.046	-0.158	0.305
-682.266	2.062	-0.342	0.249
-681.251	633.516	-0.129	-0.329
-680.237	427.135	-0.094	0.204
-679.222	82.984	-0.196	-0.215
-678.208	-85.536	0.235	0.074
-677.193	800.000	-0.062	-0.179
-676.178	177.195	0.047	0.070
-675.164	-200.000	0.007	-0.116
-674.149	482.085	0.117	0.268
-673.135	800.000	-0.029	0.089
-672.120	-71.527	0.118	-0.045
-671.105	348.384	-0.072	0.144
-670.091	74.234	-0.091	-0.096
-669.076	-200.000	0.020	-0.263
-668.062	-156.328	-0.060	-0.004
-667.047	-34.509	0.266	-0.147
-666.032	-36.782	0.224	-0.121
-665.018	-51.879	0.230	0.108
-664.003	34.470	0.102	0.089
-662.989	364.956	0.072	-0.146
-661.974	-200.000	0.010	-0.082
-660.959	-145.947	-0.111	0.010
-659.945	-106.096	0.079	0.018
-658.930	141.665	-0.155	-0.206
-657.916	-121.106	-0.345	0.058
-656.901	114.347	-0.217	0.266
-655.886	-200.000	-0.000	0.227
-654.872	34.413	-0.291	-0.255
-653.857	-26.292	-0.073	-0.043
-652.843	20.423	-0.151	-0.123
-651.828	-144.081	0.424	-0.040
-650.814	800.000	-0.112	-0.325
-649.799	-200.000	0.009	-0.231
-648.784	-142.574	0.040	-0.004
-647.770	-59.601	0.050	0.022
-646.755	331.022	0.196	-0.381
-645.741	202.464	-0.045	0.070
-644.726	-200.000	-0.028	-0.268
-643.711	1.088	0.152	0.110
-642.697	-91.356	0.226	0.065
-641.682	-8.552	-0.394	0.267
-640.668	-103.373	-0.318	-0.075
-639.653	-90.607	-0.169	0.049
-638.638	7.406	0.303	0.228
-637.624	-200.000	-0.007	0.055
-636.609	-102.795	0.183	-0.044
-635.595	42.116	0.286	0.261
-634.580	-200.000	-0.026	-0.115
-633.565	-141.829	0.470	-0.047
-632.551	10.492	0.240	0.184
-631.536	332.304	0.171	0.331
-630.522	-1.699	-0.166	-0.118
-629.507	-135.403	0.297	-0.036
-628.492	365.097	0.162	0.328
-627.478	-129.732	-0.174	-0.024
-626.463	362.361	-0.109	0.220
-625.449	-107.334	-0.244	0.054
-624.434	-200.000	-0.000	0.007
-623.419	-157.673	-0.479	0.029
-622.405	313.462	0.122	-0.231
-621.390	693.277	0.137	0.362
-620.376	800.000	-0.050	-0.157
-619.361	5.844	0.181	0.135
-618.346	-200.000	0.027	-0.267
-617.332	-200.000	-0.001	-0.056
-616.317	-160.817	-0.088	-0.005
-615.303	-114.622	0.542	0.104
-614.288	-174.913	-0.193	0.005
-613.273	-132.155	-0.112	-0.015
-612.259	295.036	-0.154	-0.283
-611.244	-149.942	0.134	-0.010
-610.230	18.187	0.233	0.187
-609.215	-167.000	0.020	-0.001
-608.201	490.170	0.130	-0.300
-607.186	-200.000	-0.011	-0.141
-606.171	-51.742	-0.138	0.065
-605.157	-156.368	0.154	0.010
-604.142	-46.969	0.091	0.045
-603.128	-160.326	-0.410	-0.022
-602.113	-105.878	0.304	-0.069
-601.098	-61.543	-0.160	-0.067
-600.084	-53.129	-0.137	-0.063
-599.069	-161.257	0.272	-0.014
-598.055	-141.878	0.087	0.009
-597.040	-76.377	0.088	-0.031
-596.025	164.055	0.096	-0.135
-595.011	-200.000	0.001	0.154
-593.996	-153.054	-0.289	-0.020
-592.982	404.303	0.042	-0.089
-591.967	-200.000	-0.019	0.336
-590.952	-115.799	-0.158	0.030
-589.938	-76.634	-0.048	0.017
-588.923	-120.771	0.150	0.025
-587.909	-200.000	-0.035	-0.192
-586.894	-200.000	-0.071	-0.338
-585.879	642.000	-0.009	-0.023
-584.865	-68.925	0.103	-0.040
-583.850	124.249	0.156	-0.197
-582.836	-134.152	-0.656	-0.081
-581.821	-200.000	0.007	0.051
-580.806	238.615	-0.118	-0.197
-579.792	-200.000	0.059	-0.258
-578.777	-65.129	0.171	-0.069
-577.763	-100.318	-0.086	0.021
-576.748	-21.114	-0.240	0.147
-575.733	-88.663	-0.145	0.043
-574.719	319.533	-0.163	-0.310
-573.704	-200.000	0.031	-0.238
-572.690	-125.881	-0.172	0.026
-571.675	76.555	-0.199	-0.212
-570.661	-89.843	-0.124	-0.036
-569.646	800.000	-0.143	0.431
-568.631	800.000	-0.058	-0.178
-567.617	193.505	0.077	0.117
-566.602	-200.000	-0.197	-0.001
-565.588	-91.879	0.100	-0.028
-564.573	201.070	0.116	0.180
-563.558	800.000	-0.002	0.007
-562.544	-31.739	-0.179	-0.101
-561.529	80.698	0.215	-0.233
-560.515	65.335	0.159	-0.161
-559.500	288.721	-0.107	0.194
-558.485	800.000	0.098	-0.306
-557.471	405.509	0.119	-0.251
-556.456	776.885	0.090	-0.246
-555.442	-52.430	0.042	0.019
-554.427	-117.522	-0.261	0.047
-553.412	-127.564	0.200	-0.029
-552.398	54.016	-0.156	0.151
-551.383	800.000	-0.090	0.339
-550.369	96.445	-0.185	0.212
-549.354	-58.926	0.079	0.034
-548.339	-166.054	-0.130	0.006
-547.325	-200.000	0.024	0.325
-546.310	360.142	0.122	0.246
-545.296	-83.408	-0.089	0.029
-544.281	145.264	0.196	0.263
-543.266	-45.794	-0.146	0.072
-542.252	-200.000	0.019	-0.183
-541.237	-99.129	0.181	0.046
-540.223	391.566	-0.275	-0.572
-539.208	186.773	0.135	-0.202
-538.193	800.000	0.036	-0.142
-537.179	271.621	-0.062	-0.109
-536.164	-112.301	-0.332	-0.067
-535.150	187.779	0.115	-0.171
-534.135	355.993	0.041	-0.081
-533.121	-18.595	0.110	0.069
-532.106	-32.956	0.125	0.070
-531.091	-66.563	-0.156	-0.062
-530.077	-158.731	-0.232	-0.013
-529.062	191.581	-0.086	0.130
-528.048	252.968	-0.047	0.081
-527.033	800.000	0.059	0.168
-526.018	-147.599	0.082	-0.007
-525.004	-200.000	-0.052	-0.412
-523.989	-106.046	0.185	0.042
-522.975	-150.788	0.112	-0.009
-521.960	15.856	0.136	0.108
-520.945	-200.000	0.018	-0.080
-519.931	800.000	0.068	-0.265
-518.916	-58.773	0.123	0.053
-517.902	41.434	0.213	0.193
-516.887	87.469	-0.163	0.181
-515.872	-200.000	0.011	-0.210
-514.858	-84.108	0.039	-0.013
-513.843	21.183	-0.008	0.007
-512.829	-86.912	0.399	-0.122
-511.814	303.914	0.081	-0.150
-510.799	-14.236	-0.080	0.051
-509.785	68.447	-0.218	-0.224
-508.770	-200.000	-0.015	-0.204
-507.756	800.000	-0.084	-0.294
-506.741	-63.588	0.270	0.111
-505.726	-9.375	0.166	-0.111
-504.712	-137.246	0.307	0.035
-503.697	383.558	0.172	0.354
-502.683	475.208	-0.111	-0.250
-501.668	-0.068	0.052	0.037
-500.653	42.195	0.219	-0.199
-499.639	-85.434	-0.129	-0.040
-498.624	-150.201	-0.156	-0.012
-497.610	-200.000	-0.015	0.301
-496.595	138.642	0.007	-0.009
-495.581	-80.552	0.135	0.045
-494.566	-200.000	-0.016	0.308
-493.551	24.617	-0.135	0.111
-492.537	279.431	0.095	-0.170
-491.522	207.396	0.022	0.034
-490.508	-43.265	-0.175	0.088
-489.493	-68.521	-0.266	-0.103
-488.478	-35.797	0.291	0.158
-487.464	-153.855	-0.552	0.038
-486.449	-200.000	-0.040	-0.309
-485.435	346.488	0.020	-0.039
-484.420	126.503	-0.216	0.273
-483.405	-200.000	0.039	-0.195
-482.391	-99.679	0.316	0.079
-481.376	-70.102	0.164	-0.062
-480.362	70.226	-0.126	-0.130
-479.347	122.521	-0.060	-0.075
-478.332	403.176	-0.111	-0.233
-477.318	77.780	0.104	-0.111
-476.303	266.101	0.140	-0.245
-475.289	800.000	0.027	0.082
-474.274	754.716	0.150	0.407
-473.259	-139.071	0.104	-0.011
-472.245	606.520	0.060	-0.150
-471.230	43.766	-0.032	-0.029
-470.216	189.883	0.102	0.153
-469.201	93.257	0.192	-0.217
-468.186	-133.714	0.275	-0.034
-467.172	800.000	0.085	-0.334
-466.157	29.795	-0.164	0.139
-465.143	-69.161	-0.177	0.068
-464.128	335.954	-0.037	0.073
-463.113	73.426	0.047	-0.050
-462.099	-200.000	-0.013	0.071
-461.084	97.103	0.251	-0.288
-460.070	-21.208	-0.456	-0.279
-459.055	800.000	-0.081	0.238
-458.040	-98.947	-0.236	0.060
-457.026	-110.569	0.165	-0.034
-456.011	34.129	-0.133	-0.116
-454.997	177.431	0.139	0.203
-453.982	-59.505	0.105	-0.045
-452.968	174.458	0.097	-0.140
-451.953	-200.000	-0.009	0.042
-450.938	-51.241	0.139	0.065
-449.924	103.470	-0.112	0.132
-448.909	-200.000	0.007	0.042
-447.895	-200.000	0.024	0.439
-446.880	-33.199	0.163	0.090
-445.865	-200.000	-0.039	-0.342
-444.851	-55.049	0.133	0.060
-443.836	-67.699	0.284	0.111
-442.822	-184.768	0.080	-0.001
-441.807	-132.748	0.248	-0.032
-440.792	137.224	-0.104	-0.136
-439.778	-148.070	-0.158	-0.013
-438.763	800.000	0.075	-0.209
-437.749	-93.476	0.131	0.036
-436.734	-119.147	-0.150	-0.026
-435.719	421.348	0.150	-0.321
-434.705	-65.283	-0.090	0.036
-433.690	800.000	-0.052	0.158
-432.676	-200.000	0.012	0.127
-431.661	174.172	-0.138	0.199
-430.646	-200.000	0.039	0.177
-429.632	102.289	0.263	-0.306
-428.617	271.220	-0.150	0.264
-427.603	800.000	-0.051	0.201
-426.588	800.000	0.087	0.283
-425.573	-23.143	0.095	-0.057
-424.559	-117.871	0.223	0.040
-423.544	587.483	0.046	0.113
-422.530	461.087	0.075	0.166
-421.515	800.000	0.041	0.131
-420.500	511.167	-0.093	-0.217
-419.486	740.782	0.059	-0.158
-418.471	145.195	-0.147	-0.197
-417.457	425.271	0.091	-0.195
-416.442	800.000	-0.043	-0.118
-415.428	-34.324	-0.189	-0.103
-414.413	-200.000	0.011	0.117
-413.398	99.769	-0.186	0.215
-412.384	20.639	0.130	-0.105
-411.369	205.070	-0.154	-0.239
-410.355	304.831	0.147	-0.271
-409.340	800.000	-0.034	-0.109
-408.325	-168.296	0.207	-0.008
-407.311	800.000	0.113	0.320
-406.296	-109.144	-0.030	-0.006
-405.282	-128.130	-0.362	0.052
-404.267	-200.000	0.036	-0.342
-403.252	-84.460	-0.287	0.090
-402.238	-60.934	-0.279	-0.118
-401.223	0.894	0.115	-0.082
-400.209	-76.611	-0.027	0.010
-399.194	-54.102	0.086	0.039
-398.179	695.828	0.110	0.287
-397.165	-118.362	-0.379	0.067
-396.150	-200.000	-0.023	-0.120
-395.136	-56.735	0.125	0.055
-394.121	-157.244	0.030	0.002
-393.106	37.374	0.331	0.292
-392.092	11.266	0.401	0.306
-391.077	-200.000	0.003	0.020
-390.063	-61.794	-0.174	0.073
-389.048	54.853	0.155	0.149
-388.033	67.015	0.102	0.104
-387.019	9.147	-0.322	0.242
-386.004	2.304	-0.163	0.118
-384.990	-136.372	-0.209	0.024
-383.975	-74.208	-0.133	-0.048
-382.960	496.345	-0.103	0.235
-381.946	-143.104	-0.145	-0.014
-380.931	71.517	0.117	0.121
-379.917	190.924	-0.036	-0.054
-378.902	-93.210	0.066	0.018
-377.888	-195.184	-0.151	-0.001
-376.873	-134.557	0.271	0.033
-375.858	3.921	-0.186	-0.135
-374.844	-61.454	0.362	0.151
-373.829	706.030	-0.045	-0.118
-372.815	284.219	0.014	0.026
-371.800	177.727	-0.102	-0.149
-370.785	800.000	0.058	0.237
-369.771	-157.813	-0.208	-0.012
-368.756	-102.247	0.069	-0.016
-367.742	-58.453	0.291	-0.126
-366.727	29.605	0.168	-0.142
-365.712	21.937	-0.041	-0.033
-364.698	-200.000	0.035	-0.247
-363.683	217.922	-0.114	0.181
-362.669	352.851	0.019	0.038
-361.654	-200.000	0.046	-0.346
-360.639	-65.019	-0.166	-0.067
-359.625	26.554	0.067	0.056
-358.610	-200.000	-0.425	0.000
-357.596	-140.426	-0.414	0.043
-356.581	205.097	0.081	-0.126
-355.566	800.000	0.043	0.183
-354.552	90.933	0.069	-0.077
-353.537	222.225	-0.067	-0.107
-352.523	-200.000	0.028	-0.162
-351.508	-58.558	-0.238	-0.103
-350.493	-74.988	-0.225	-0.080
-349.479	800.000	0.027	-0.073
-348.464	-200.000	0.029	0.154
-347.450	800.000	0.044	0.142
-346.435	-57.987	0.178	0.077
-345.420	-97.045	0.349	0.091
-344.406	-0.865	0.211	-0.149
-343.391	800.000	0.070	0.198
-342.377	-200.000	0.023	0.380
-341.362	240.644	0.025	-0.041
-340.348	-30.201	-0.280	0.158
-339.333	169.993	0.114	0.163
-338.318	111.181	-0.048	0.058
-337.304	-47.644	0.303	0.146
-336.289	20.964	0.181	0.146
-335.275	-30.101	0.091	0.052
-334.260	109.048	0.067	-0.079
-333.245	313.521	0.249	-0.466
-332.231	160.476	0.117	0.162
-331.216	287.546	0.147	0.265
-330.202	-112.069	-0.141	-0.028
-329.187	293.480	-0.036	-0.066
-328.172	21.129	-0.096	-0.078
-327.158	-119.394	0.391	0.068
-326.143	82.398	-0.102	-0.110
-325.129	327.968	0.047	-0.090
-324.114	800.000	0.070	0.276
-323.099	30.444	0.135	-0.115
-322.085	800.000	-0.122	-0.464
-321.070	-31.745	-0.314	-0.175
-320.056	52.607	0.102	0.097
-319.041	504.355	0.073	0.169
-318.026	79.533	-0.074	-0.079
-317.012	279.157	-0.101	-0.179
-315.997	-22.284	0.112	0.068
-314.983	-25.146	0.266	-0.157
-313.968	170.114	-0.133	-0.188
-312.953	-120.926	-0.037	-0.006
-311.939	142.628	0.071	-0.094
-310.924	104.556	0.203	0.237
-309.910	206.134	-0.033	-0.051
-308.895	-39.688	0.193	0.100
-307.880	-10.055	-0.227	0.150
-306.866	488.907	-0.171	0.388
-305.851	-97.600	0.527	0.136
-304.837	261.064	-0.105	-0.180
-303.822	-72.588	-0.348	-0.128
-302.807	249.305	0.066	-0.111
-301.793	800.000	-0.034	-0.103
-300.778	-200.000	0.019	-0.249
-299.764	-200.000	-0.002	-0.150
-298.749	-86.721	-0.432	0.131
-297.735	-41.686	-0.298	0.152
-296.720	161.709	0.084	0.116
-295.705	-200.000	0.039	-0.217
-294.691	800.000	0.091	0.292
-293.676	-129.054	-0.184	-0.026
-292.662	-129.728	-0.299	0.041
-291.647	-200.000	0.024	0.324
-290.632	2.574	0.107	-0.077
-289.618	-42.320	0.173	0.088
-288.603	-2.803	0.369	0.256
-287.589	186.751	0.050	-0.074
-286.574	26.036	-0.209	0.173
-285.559	146.293	-0.171	0.228
-284.545	800.000	-0.099	0.395
-283.530	308.152	-0.111	0.205
-282.516	-92.315	-0.061	0.017
-281.501	-86.478	-0.263	-0.080
-280.486	49.085	0.055	-0.052
-279.472	-76.442	-0.355	-0.124
-278.457	-95.815	0.061	-0.016
-277.443	-174.202	-0.044	0.001
-276.428	-200.000	-0.014	-0.082
-275.413	-100.710	-0.287	-0.070
-274.399	-175.707	0.059	-0.002
-273.384	-200.000	0.003	0.175
-272.370	722.795	-0.067	0.178
-271.355	209.341	-0.121	0.187
-270.340	204.796	-0.110	0.170
-269.326	-200.000	0.037	0.260
-268.311	-2.360	0.220	0.153
-267.297	202.680	-0.235	0.360
-266.282	-80.695	-0.278	0.092
-265.267	-31.622	0.156	0.087
-264.253	528.430	0.020	0.047
-263.238	-194.486	-0.045	-0.000
-262.224	210.764	0.067	-0.104
-261.209	225.249	-0.057	0.091
-260.195	-200.000	0.002	0.055
-259.180	-88.893	-0.065	0.019
-258.165	-132.395	0.097	-0.012
-257.151	-123.417	-0.177	-0.028
-256.136	-43.834	-0.127	-0.063
-255.122	-60.761	0.284	0.119
-254.107	800.000	-0.054	0.164
-253.092	64.770	-0.169	0.169
-252.078	-200.000	-0.007	0.238
-251.063	-108.236	-0.142	-0.030
-250.049	-51.747	0.216	0.100
-249.034	-89.795	-0.175	0.051
-248.019	800.000	0.028	0.118
-247.005	-200.000	-0.010	0.109
-245.990	-200.000	-0.015	-0.264
-244.976	-32.429	0.027	-0.015
-243.961	-13.791	0.203	-0.130
-242.946	-200.000	0.004	-0.190
-241.932	-61.716	0.100	-0.041
-240.917	75.406	-0.261	-0.273
-239.903	-121.350	-0.258	0.043
-238.888	33.916	-0.162	0.139
-237.873	166.226	0.063	0.088
-236.859	-93.588	-0.291	-0.080
-235.844	153.000	0.019	0.026
-234.830	-200.000	0.088	-0.386
-233.815	-37.438	-0.256	0.135
-232.800	166.480	0.146	-0.205
-231.786	-46.281	-0.375	-0.183
-230.771	99.994	0.081	-0.093
-229.757	-29.570	-0.058	0.033
-228.742	-158.730	0.386	-0.022
-227.727	179.825	-0.181	-0.262
-226.713	-73.743	0.301	-0.108
-225.698	-84.524	0.244	0.076
-224.684	60.771	-0.082	-0.080
-223.669	673.499	-0.042	-0.109
-222.655	482.384	0.129	0.290
-221.640	-50.660	0.281	-0.131
-220.625	578.547	-0.010	-0.025
-219.611	611.968	-0.009	-0.023
-218.596	-38.817	0.152	0.079
-217.582	-128.426	-0.121	-0.017
-216.567	-68.812	0.233	-0.089
-215.552	-56.413	0.066	0.029
-214.538	-84.028	-0.096	-0.030
-213.523	25.722	0.106	-0.087
-212.509	-123.901	-0.200	-0.031
-211.494	-123.854	0.162	0.025
-210.479	-104.408	0.526	-0.120
-209.465	361.134	0.132	-0.261
-208.450	629.315	0.063	-0.157
-207.436	57.056	-0.216	-0.208
-206.421	510.521	-0.055	0.128
-205.406	-200.000	0.012	0.076
-204.392	-110.494	0.061	0.013
-203.377	-200.000	0.029	-0.129
-202.363	7.528	-0.197	0.146
-201.348	153.926	0.287	-0.389
-200.333	149.073	0.065	-0.087
-199.319	-165.638	-0.040	-0.002
-198.304	-23.484	0.215	-0.127
-197.290	-58.380	-0.252	-0.108
-196.275	8.536	0.241	0.180
-195.260	-200.000	-0.031	0.187
-194.246	-102.835	0.130	-0.031
-193.231	-200.000	0.011	-0.084
-192.217	-70.267	0.158	-0.059
-191.202	-116.736	0.222	0.040
-190.187	514.562	-0.142	-0.328
-189.173	-110.987	0.106	-0.022
-188.158	-147.863	-0.197	-0.016
-187.144	-57.452	-0.349	-0.151
-186.129	800.000	-0.067	-0.274
-185.114	86.244	0.116	0.126
-184.100	-135.960	-0.293	0.034
-183.085	-200.000	-0.035	0.441
-182.071	-101.913	-0.312	-0.074
-181.056	-148.202	-0.184	0.015
-180.042	40.691	-0.374	0.334
-179.027	110.232	0.103	-0.122
-178.012	800.000	0.079	-0.337
-176.998	-72.613	0.069	-0.025
-175.983	-9.202	-0.264	-0.174
-174.969	800.000	0.092	0.279
-173.954	-160.282	0.009	-0.001
-172.939	800.000	0.063	0.182
-171.925	-104.068	0.136	0.031
-170.910	-54.700	-0.264	-0.118
-169.896	-65.569	0.268	-0.106
-168.881	800.000	-0.038	0.109
-167.866	344.865	0.045	-0.088
-166.852	800.000	0.061	-0.226
-165.837	406.943	-0.138	0.289
-164.823	-81.199	0.211	-0.069
-163.808	-57.957	-0.178	-0.077
-162.793	55.678	-0.144	0.137
-161.779	-200.000	-0.020	0.216
-160.764	15.889	-0.230	0.179
-159.750	195.456	0.079	0.119
-158.735	-200.000	0.000	0.135
-157.720	-175.905	-0.071	0.002
-156.706	766.246	-0.116	0.310
-155.691	-52.651	-0.169	-0.077
-154.677	-200.000	0.020	-0.138
-153.662	112.934	0.125	0.149
-152.647	-102.112	-0.105	0.025
-151.633	610.195	0.040	0.099
-150.618	-19.559	-0.219	-0.134
-149.604	-88.616	0.188	0.055
-148.589	-58.720	-0.182	-0.078
-147.574	800.000	-0.033	0.092
-146.560	-41.204	0.088	0.045
-145.545	58.072	0.166	-0.160
-144.531	-82.634	0.152	0.049
-143.516	-84.288	0.319	-0.100
-142.502	242.196	0.232	-0.383
-141.487	-94.783	0.103	-0.028
-140.472	473.901	0.104	0.231
-139.458	155.243	0.047	-0.064
-138.443	-200.000	-0.007	-0.191
-137.429	149.561	0.019	-0.025
-136.414	-200.000	-0.029	0.189
-135.399	-7.746	-0.316	0.211
-134.385	-200.000	0.001	0.169
-133.370	800.000	-0.077	-0.281
-132.356	56.703	0.181	-0.173
-131.341	800.000	-0.106	0.309
-130.326	-80.308	-0.264	-0.087
-129.312	-113.637	0.247	-0.048
-128.297	-95.412	-0.230	-0.061
-127.283	800.000	0.068	-0.188
-126.268	32.024	0.165	0.140
-125.253	-15.666	0.166	0.104
-124.239	-51.840	0.162	0.074
-123.224	-200.000	0.005	0.158
-122.210	191.105	0.153	-0.228
-121.195	-157.104	0.150	0.009
