DTS Sentinel unit serial number:	SN413079Multiplexer serial number:	ORYXHardware model number:	OX4-SRSoftware version number:	ORYX F/W v4.00 Oryx Data Collector v3.7.2.0data status	okinstallation	princeton_trtdifferential loss correction	single-endedforward channel	channel 1reverse channel	N/Adate	2019/09/16time	11:18:35forward acquisition time	60.00reverse acquisition time	0.00gamma	496.2192k internal	0.2299k external	0.2299temperature offset calibration	0.9970default loss term (dB/km)	0.3790temperature slope calibration	1.0000multiplexer offset coefficient	1.0000multiplexer slope coefficient	1.0000fibre end	0.00T internal ref (°C)	37.25T ext. ref 1 (°C)	12.88T ext. ref 2 (°C)	33.58length (m)	temperature (°C)	Stokes	anti-Stokes-747.200	800.000	-0.095	-0.277
-746.185	179.483	-0.236	-0.352
-745.171	-200.000	0.012	0.436
-744.156	-163.904	0.056	-0.003
-743.142	-200.000	0.018	0.345
-742.127	452.245	0.090	0.204
-741.112	200.669	-0.181	-0.284
-740.098	-163.721	0.139	-0.007
-739.083	15.936	0.370	-0.297
-738.069	800.000	-0.024	-0.075
-737.054	800.000	-0.032	0.134
-736.039	17.048	-0.448	0.362
-735.025	-179.828	0.123	0.003
-734.010	-7.192	-0.052	-0.036
-732.996	-132.892	0.053	0.007
-731.981	223.093	0.104	-0.171
-730.966	-26.978	0.392	-0.234
-729.952	-106.534	0.212	-0.048
-728.937	-120.644	-0.471	-0.081
-727.923	-5.430	-0.046	0.032
-726.908	129.311	-0.129	-0.168
-725.894	-49.027	-0.317	-0.155
-724.879	-62.666	-0.269	0.114
-723.864	231.719	-0.131	0.219
-722.850	310.817	0.053	0.101
-721.835	172.750	-0.073	0.108
-720.821	-200.000	-0.154	0.000
-719.806	-200.000	-0.016	-0.421
-718.791	-28.241	0.073	-0.043
-717.777	800.000	0.055	0.163
-716.762	-89.856	-0.362	-0.108
-715.748	41.918	-0.074	-0.068
-714.733	-17.362	0.155	-0.100
-713.718	-120.016	0.150	-0.026
-712.704	800.000	0.038	-0.116
-711.689	-200.000	-0.024	-0.175
-710.675	329.904	-0.040	0.079
-709.660	327.100	-0.104	-0.203
-708.645	125.607	-0.149	-0.192
-707.631	-79.925	-0.210	-0.072
-706.616	-91.965	-0.186	0.054
-705.602	295.933	-0.084	-0.157
-704.587	-106.476	-0.205	0.047
-703.572	28.888	-0.281	-0.243
-702.558	219.771	0.152	-0.249
-701.543	-129.590	0.283	-0.040
-700.529	184.475	0.029	-0.044
-699.514	431.336	-0.087	0.191
-698.499	-1.795	-0.173	0.124
-697.485	24.283	0.190	-0.160
-696.470	-65.842	-0.172	0.070
-695.456	-61.862	0.192	-0.082
-694.441	-126.581	-0.258	0.039
-693.426	197.410	-0.183	-0.284
-692.412	-200.000	-0.065	-0.491
-691.397	-94.796	0.226	-0.062
-690.383	681.445	0.009	0.025
-689.368	-185.146	-0.149	-0.002
-688.354	72.934	0.076	0.081
-687.339	-168.620	0.149	-0.006
-686.324	24.547	-0.198	-0.166
-685.310	-12.685	-0.299	0.199
-684.295	2.755	-0.181	0.134
-683.281	-200.000	0.073	0.498
-682.266	800.000	-0.113	0.484
-681.251	18.121	-0.139	0.113
-680.237	260.940	0.077	-0.135
-679.222	-22.715	-0.175	-0.107
-678.208	102.626	0.102	0.122
-677.193	57.410	0.145	-0.144
-676.178	157.951	0.133	-0.188
-675.164	167.749	-0.039	-0.057
-674.149	-102.643	-0.178	-0.043
-673.135	800.000	-0.038	-0.137
-672.120	800.000	-0.072	0.254
-671.105	-200.000	-0.079	-0.540
-670.091	-140.369	-0.314	-0.033
-669.076	-138.032	-0.217	-0.025
-668.062	-200.000	0.002	-0.193
-667.047	186.301	0.110	-0.166
-666.032	-97.965	-0.194	-0.051
-665.018	-200.000	-0.022	-0.271
-664.003	-105.060	0.113	-0.026
-662.989	118.170	-0.111	-0.140
-661.974	150.113	-0.132	0.182
-660.959	800.000	0.060	0.248
-659.945	14.647	-0.210	-0.167
-658.930	21.159	-0.159	-0.131
-657.916	350.390	-0.062	0.125
-656.901	-133.295	-0.263	-0.034
-655.886	-112.470	-0.082	-0.017
-654.872	604.815	-0.143	-0.362
-653.857	65.178	-0.093	-0.095
-652.843	-80.641	0.165	-0.056
-651.828	120.695	-0.119	-0.150
-650.814	-46.135	-0.062	-0.031
-649.799	-98.843	0.246	-0.064
-648.784	-43.734	0.170	-0.087
-647.770	-87.999	0.163	0.050
-646.755	-200.000	-0.065	-0.311
-645.741	800.000	0.078	-0.285
-644.726	22.997	0.241	-0.201
-643.711	635.996	-0.092	0.237
-642.697	443.192	0.043	-0.095
-641.682	-200.000	-0.010	0.178
-640.668	-200.000	-0.006	0.083
-639.653	-42.199	0.163	0.085
-638.638	-200.000	0.025	-0.114
-637.624	31.518	-0.144	-0.126
-636.609	-100.053	-0.331	-0.084
-635.595	-46.934	0.216	-0.107
-634.580	175.622	-0.081	-0.120
-633.565	166.019	-0.096	-0.138
-632.551	-141.744	-0.283	0.029
-631.536	-196.097	0.142	-0.001
-630.522	-20.728	0.356	-0.222
-629.507	11.891	-0.096	-0.075
-628.492	-0.953	-0.215	-0.154
-627.478	-56.792	-0.247	0.111
-626.463	-73.436	0.168	-0.062
-625.449	-200.000	0.023	-0.168
-624.434	-126.774	-0.194	0.029
-623.419	139.664	0.270	-0.362
-622.405	102.270	-0.109	0.129
-621.390	668.607	0.083	-0.218
-620.376	-127.261	-0.173	0.026
-619.361	143.452	-0.085	0.115
-618.346	-8.174	-0.103	0.070
-617.332	-167.679	-0.136	-0.005
-616.317	800.000	0.115	-0.325
-615.303	-132.707	0.120	0.016
-614.288	285.510	-0.091	0.167
-613.273	399.724	-0.144	-0.307
-612.259	-48.980	-0.148	-0.072
-611.244	108.212	0.025	-0.030
-610.230	42.173	0.165	-0.152
-609.215	230.283	-0.142	-0.235
-608.201	-39.250	0.205	0.109
-607.186	-13.817	0.147	0.096
-606.171	189.060	0.176	-0.267
-605.157	800.000	-0.071	-0.246
-604.142	-88.836	0.309	0.093
-603.128	320.878	-0.133	-0.257
-602.113	800.000	0.040	0.155
-601.098	800.000	0.091	0.328
-600.084	-167.873	0.186	0.007
-599.069	-7.238	-0.209	0.144
-598.055	-122.233	0.049	-0.008
-597.040	-200.000	-0.052	0.530
-596.025	25.892	-0.102	0.086
-595.011	-200.000	0.019	-0.259
-593.996	800.000	-0.036	0.137
-592.982	798.437	-0.140	0.391
-591.967	290.643	0.108	-0.199
-590.952	-200.000	0.024	-0.200
-589.938	-200.000	-0.014	0.208
-588.923	534.502	-0.146	0.351
-587.909	532.517	0.068	0.164
-586.894	112.738	0.067	0.083
-585.879	-200.000	0.013	0.068
-584.865	-200.000	0.039	-0.243
-583.850	213.027	0.055	0.088
-582.836	-158.884	0.434	-0.025
-581.821	39.097	0.076	-0.069
-580.806	800.000	-0.069	0.297
-579.792	159.038	-0.191	-0.269
-578.777	-200.000	-0.006	-0.034
-577.763	292.612	0.116	-0.214
-576.748	57.051	-0.110	-0.109
-575.733	269.148	-0.084	-0.150
-574.719	-96.057	0.122	0.033
-573.704	800.000	0.071	0.276
-572.690	492.128	0.017	0.041
-571.675	117.632	0.198	-0.247
-570.661	-165.733	0.245	0.011
-569.646	115.946	-0.368	-0.456
-568.631	566.590	0.053	0.130
-567.617	276.308	0.093	-0.168
-566.602	-27.167	0.120	0.071
-565.588	-36.661	0.079	0.043
-564.573	-200.000	0.022	0.124
-563.558	-200.000	-0.048	-0.247
-562.544	227.565	-0.176	-0.291
-561.529	-107.828	-0.274	-0.061
-560.515	136.129	-0.065	0.086
-559.500	12.169	0.182	0.142
-558.485	-89.722	-0.082	0.024
-557.471	340.403	-0.132	0.261
-556.456	-51.056	-0.188	-0.090
-555.442	25.556	-0.203	-0.171
-554.427	317.714	-0.087	-0.167
-553.412	48.810	0.110	-0.105
-552.398	74.998	-0.216	-0.230
-551.383	-70.067	-0.219	-0.084
-550.369	-200.000	0.003	-0.178
-549.354	205.517	0.205	-0.323
-548.339	-200.000	0.011	-0.074
-547.325	56.864	0.251	-0.248
-546.310	163.057	0.170	-0.242
-545.296	-200.000	-0.004	-0.040
-544.281	800.000	-0.086	0.319
-543.266	-93.317	-0.043	0.012
-542.252	800.000	0.054	0.184
-541.237	-126.430	0.286	0.043
-540.223	-200.000	0.008	-0.041
-539.208	164.741	-0.225	-0.321
-538.193	800.000	0.040	-0.175
-537.179	46.837	-0.013	0.012
-536.164	119.190	0.070	-0.088
-535.150	-200.000	0.045	0.345
-534.135	-3.815	-0.159	-0.112
-533.121	-130.015	0.170	-0.024
-532.106	-200.000	0.011	-0.121
-531.091	-200.000	-0.030	0.173
-530.077	-200.000	0.022	0.127
-529.062	-8.217	-0.260	0.177
-528.048	-96.699	-0.204	-0.054
-527.033	105.489	0.151	0.180
-526.018	177.926	0.032	0.047
-525.004	-200.000	-0.018	-0.244
-523.989	-52.124	-0.424	-0.199
-522.975	-147.230	0.088	-0.008
-521.960	8.273	-0.117	-0.089
-520.945	-150.511	-0.295	-0.023
-519.931	-46.219	0.100	-0.050
-518.916	-118.044	-0.328	-0.059
-517.902	-200.000	-0.002	0.236
-516.887	471.447	0.039	-0.090
-515.872	800.000	-0.032	-0.122
-514.858	188.777	0.141	0.214
-513.843	764.870	0.131	0.360
-512.829	-200.000	-0.038	0.242
-511.814	-200.000	0.049	0.255
-510.799	-139.838	-0.462	0.049
-509.785	-18.110	-0.071	0.045
-508.770	475.442	-0.108	-0.246
-507.756	-15.546	-0.275	0.178
-506.741	471.846	0.064	0.145
-505.726	-200.000	0.024	0.683
-504.712	-133.455	0.076	0.010
-503.697	52.108	0.441	-0.425
-502.683	-88.146	-0.414	-0.125
-501.668	136.354	-0.050	-0.066
-500.653	228.536	0.129	0.212
-499.639	-200.000	-0.041	0.264
-498.624	-200.000	0.035	0.230
-497.610	223.647	0.072	0.117
-496.595	313.573	-0.071	-0.135
-495.581	800.000	-0.080	-0.292
-494.566	-41.545	0.117	-0.061
-493.551	-61.961	-0.212	0.090
-492.537	55.344	0.145	-0.141
-491.522	800.000	0.025	0.077
-490.508	-141.492	-0.054	0.006
-489.493	1.099	0.104	0.075
-488.478	126.816	-0.117	0.150
-487.464	-20.134	-0.076	0.047
-486.449	63.644	-0.172	-0.175
-485.435	146.574	0.043	-0.059
-484.420	800.000	-0.015	-0.050
-483.405	800.000	-0.033	-0.133
-482.391	24.848	0.080	-0.067
-481.376	-200.000	-0.017	-0.080
-480.362	-44.110	0.247	0.125
-479.347	22.531	-0.105	-0.087
-478.332	364.214	-0.167	-0.340
-477.318	800.000	0.050	0.159
-476.303	-152.103	0.462	0.034
-475.289	-43.789	-0.220	-0.112
-474.274	-116.777	-0.132	-0.024
-473.259	316.036	-0.135	0.257
-472.245	-6.904	0.114	0.078
-471.230	1.372	-0.170	-0.123
-470.216	24.124	-0.111	-0.092
-469.201	-1.763	0.217	-0.154
-468.186	30.256	-0.117	0.101
-467.172	-122.228	0.352	-0.058
-466.157	-200.000	-0.011	-0.291
-465.143	-47.715	0.213	-0.104
-464.128	-200.000	0.037	0.247
-463.113	-140.741	0.297	-0.031
-462.099	800.000	-0.037	0.142
-461.084	-110.473	0.211	0.044
-460.070	-116.264	0.056	0.010
-459.055	800.000	-0.006	0.018
-458.040	57.768	-0.231	0.228
-457.026	26.396	-0.198	-0.167
-456.011	-200.000	-0.002	0.043
-454.997	-200.000	0.062	0.290
-453.982	-120.357	0.483	-0.083
-452.968	-104.096	-0.050	0.012
-451.953	-200.000	0.010	-0.166
-450.938	-49.618	0.120	-0.058
-449.924	800.000	-0.101	-0.288
-448.909	705.082	-0.062	-0.165
-447.895	-107.392	-0.356	0.079
-446.880	-132.251	0.092	-0.012
-445.865	79.148	0.083	-0.090
-444.851	8.302	0.307	-0.233
-443.836	256.731	-0.112	0.193
-442.822	-156.997	-0.131	0.008
-441.807	-105.007	-0.142	-0.033
-440.792	110.804	-0.049	0.059
-439.778	100.377	0.119	-0.140
-438.763	320.713	0.054	-0.103
-437.749	-200.000	-0.103	0.486
-436.734	-111.418	0.138	0.028
-435.719	-51.563	-0.045	0.021
-434.705	-134.781	0.198	0.024
-433.690	19.392	-0.200	0.162
-432.676	-200.000	-0.010	0.153
-431.661	-200.000	-0.037	0.219
-430.646	35.783	0.278	-0.246
-429.632	116.663	-0.197	0.244
-428.617	-29.305	0.299	-0.173
-427.603	-39.366	0.425	0.225
-426.588	29.395	-0.124	-0.106
-425.573	83.401	0.094	0.104
-424.559	262.294	0.194	0.340
-423.544	-90.210	-0.184	-0.054
-422.530	506.232	0.053	-0.123
-421.515	-25.704	-0.111	-0.066
-420.500	-155.757	0.133	-0.009
-419.486	106.118	0.084	-0.100
-418.471	-84.077	-0.092	0.029
-417.457	60.982	-0.093	0.093
-416.442	-101.707	-0.262	0.064
-415.428	-43.554	-0.146	-0.074
-414.413	33.677	0.083	0.073
-413.398	448.952	-0.123	0.272
-412.384	17.062	-0.287	0.229
-411.369	-10.509	-0.266	0.178
-410.355	432.530	-0.134	-0.292
-409.340	-156.080	0.245	0.016
-408.325	65.382	-0.171	0.175
-407.311	800.000	0.148	-0.448
-406.296	-9.510	-0.283	-0.190
-405.282	108.935	0.267	0.322
-404.267	-23.124	-0.219	0.133
-403.252	-23.655	0.127	0.077
-402.238	-200.000	0.003	0.332
-401.223	800.000	-0.065	-0.240
-400.209	279.356	0.167	-0.300
-399.194	83.673	0.111	0.122
-398.179	-200.000	0.022	-0.118
-397.165	576.752	0.104	0.256
-396.150	-144.538	0.210	-0.020
-395.136	348.050	-0.081	-0.160
-394.121	5.693	0.188	-0.140
-393.106	603.004	0.156	-0.389
-392.092	37.764	-0.153	0.137
-391.077	-200.000	-0.078	-0.375
-390.063	800.000	0.036	-0.156
-389.048	800.000	0.137	0.411
-388.033	178.856	-0.078	0.115
-387.019	800.000	-0.040	-0.128
-386.004	31.701	-0.201	-0.174
-384.990	676.782	-0.090	-0.236
-383.975	800.000	-0.037	0.108
-382.960	-125.922	0.354	0.054
-381.946	-144.331	-0.315	-0.030
-380.931	44.108	-0.161	0.149
-379.917	800.000	-0.030	0.086
-378.902	-200.000	-0.059	0.272
-377.888	37.868	0.101	-0.090
-376.873	-128.431	-0.200	0.029
-375.858	-80.376	0.146	-0.049
-374.844	800.000	0.098	0.331
-373.829	-141.420	0.215	0.022
-372.815	-45.587	-0.315	0.157
-371.800	-200.000	-0.027	-0.238
-370.785	800.000	-0.057	0.165
-369.771	800.000	-0.031	0.124
-368.756	-200.000	-0.081	-0.423
-367.742	-200.000	0.045	-0.218
-366.727	800.000	-0.023	0.072
-365.712	-200.000	-0.054	-0.537
-364.698	134.704	0.193	-0.252
-363.683	292.780	0.038	-0.069
-362.669	-106.203	-0.322	0.073
-361.654	-200.000	-0.019	-0.449
-360.639	-180.619	0.251	-0.005
-359.625	-69.990	-0.257	-0.099
-358.610	64.140	-0.024	0.025
-357.596	800.000	-0.134	0.454
-356.581	-200.000	0.024	-0.155
-355.566	-200.000	0.014	0.068
-354.552	-75.027	-0.176	0.063
-353.537	71.777	0.287	0.300
-352.523	-95.976	0.321	-0.086
-351.508	-134.204	0.374	0.046
-350.493	-126.152	-0.125	0.019
-349.479	76.066	-0.185	0.197
-348.464	60.388	0.207	0.206
-347.450	317.848	0.153	-0.290
-346.435	524.435	0.039	-0.091
-345.420	137.211	-0.121	-0.159
-344.406	-200.000	0.046	-0.274
-343.391	555.314	0.137	0.331
-342.377	-103.186	-0.273	0.065
-341.362	800.000	0.074	-0.252
-340.348	-64.348	-0.119	0.049
-339.333	800.000	-0.097	0.393
-338.318	212.192	-0.154	-0.243
-337.304	126.760	0.173	-0.221
-336.289	-200.000	-0.056	0.465
-335.275	28.635	0.042	-0.036
-334.260	170.712	-0.054	0.077
-333.245	-35.826	-0.085	0.046
-332.231	41.642	0.144	0.131
-331.216	-90.367	-0.127	-0.037
-330.202	-200.000	-0.021	-0.191
-329.187	186.846	0.099	0.149
-328.172	4.382	0.081	-0.060
-327.158	-200.000	-0.015	-0.184
-326.143	54.053	-0.147	-0.142
-325.129	-167.596	-0.285	-0.011
-324.114	-6.699	-0.405	0.277
-323.099	-63.918	-0.159	-0.065
-322.085	-200.000	-0.003	-0.232
-321.070	-147.191	-0.078	-0.007
-320.056	-56.220	-0.228	-0.102
-319.041	800.000	0.034	-0.119
-318.026	-106.480	-0.184	0.041
-317.012	800.000	0.083	0.254
-315.997	420.546	0.098	-0.211
-314.983	-115.706	0.181	-0.034
-313.968	122.933	0.034	-0.043
-312.953	279.020	0.017	-0.031
-311.939	-36.775	0.076	0.041
-310.924	-94.075	-0.089	0.025
-309.910	787.100	0.122	0.336
-308.895	-200.000	0.057	-0.280
-307.880	-57.978	0.126	-0.055
-306.866	-128.752	-0.192	0.027
-305.851	-46.296	-0.295	0.145
-304.837	800.000	-0.110	0.405
-303.822	-17.855	-0.136	-0.086
-302.807	64.262	-0.173	-0.175
-301.793	-168.145	0.149	0.006
-300.778	-57.741	0.062	-0.027
-299.764	58.788	-0.065	-0.064
-298.749	-98.404	0.213	0.055
-297.735	-200.000	0.041	0.185
-296.720	-100.003	-0.193	-0.048
-295.705	-78.806	-0.375	0.128
-294.691	-109.144	0.127	0.027
-293.676	439.825	-0.034	-0.074
-292.662	-200.000	0.002	0.339
-291.647	102.482	-0.202	0.237
-290.632	91.665	-0.043	-0.048
-289.618	800.000	0.084	0.296
-288.603	23.246	-0.021	0.017
-287.589	-76.282	-0.098	-0.035
-286.574	237.589	0.167	0.277
-285.559	17.064	-0.093	-0.074
-284.545	800.000	0.127	0.435
-283.530	0.629	0.286	-0.205
-282.516	147.099	-0.092	-0.124
-281.501	-144.389	0.285	-0.027
-280.486	34.508	-0.195	-0.170
-279.472	-150.656	0.210	-0.016
-278.457	82.886	-0.116	0.126
-277.443	-13.091	0.365	-0.238
-276.428	189.752	-0.110	0.166
-275.413	-146.495	0.133	0.012
-274.399	15.526	0.457	0.360
-273.384	96.079	-0.169	-0.193
-272.370	229.726	0.063	-0.104
-271.355	72.274	0.049	0.051
-270.340	607.448	0.038	0.094
-269.326	800.000	0.060	0.238
-268.311	-200.000	-0.043	0.242
-267.297	-135.933	-0.338	-0.040
-266.282	304.050	-0.128	0.237
-265.267	-200.000	-0.028	-0.218
-264.253	253.578	0.157	-0.268
-263.238	-181.589	-0.199	0.004
-262.224	-144.155	-0.114	-0.011
-261.209	225.625	0.115	-0.187
-260.195	-117.945	-0.390	0.070
-259.180	-37.194	-0.167	0.089
-258.165	-77.305	0.143	0.050
-257.151	73.300	-0.274	-0.287
-256.136	-100.927	0.263	0.065
-255.122	212.861	0.177	0.279
-254.107	-190.488	-0.120	-0.001
-253.092	-200.000	0.046	-0.346
-252.078	-200.000	0.007	0.223
-251.063	-44.871	-0.301	-0.150
-250.049	97.967	-0.092	-0.106
-249.034	800.000	-0.096	0.299
-248.019	-27.786	0.016	0.010
-247.005	170.670	0.050	0.072
-245.990	133.958	-0.122	0.158
-244.976	-200.000	-0.021	0.150
-243.961	212.475	-0.061	0.096
-242.946	-35.632	0.128	0.069
-241.932	800.000	-0.060	0.184
-240.917	27.194	0.082	0.069
-239.903	206.679	0.091	0.141
-238.888	2.733	0.223	-0.162
-237.873	-63.093	0.476	-0.197
-236.859	-200.000	0.043	0.377
-235.844	-200.000	-0.047	0.218
-234.830	-200.000	-0.056	0.445
-233.815	-200.000	0.002	0.046
-232.800	-71.806	0.252	0.094
-231.786	-200.000	0.005	0.246
-230.771	59.444	0.174	0.171
-229.757	-24.320	0.187	0.111
-228.742	238.840	-0.117	0.194
-227.727	-200.000	0.062	0.353
-226.713	434.445	0.096	-0.209
-225.698	-200.000	-0.017	-0.287
-224.684	97.175	0.124	-0.142
-223.669	19.612	-0.399	-0.321
-222.655	-26.794	0.178	-0.104
-221.640	-50.163	-0.175	0.083
-220.625	-96.070	-0.163	0.043
-219.611	-70.112	-0.100	0.038
-218.596	-62.211	-0.206	0.086
-217.582	74.988	0.069	0.072
-216.567	23.480	0.143	0.117
-215.552	-200.000	-0.035	-0.279
-214.538	-9.124	-0.105	-0.070
-213.523	-27.885	-0.058	0.034
-212.509	800.000	-0.104	0.288
-211.494	-98.258	0.246	-0.063
-210.479	-200.000	-0.021	-0.275
-209.465	227.395	-0.041	-0.066
-208.450	-46.186	0.200	-0.098
-207.436	213.432	-0.166	0.263
-206.421	253.342	-0.127	-0.216
-205.406	800.000	0.057	0.165
-204.392	21.055	-0.053	0.043
-203.377	175.455	0.080	-0.115
-202.363	-130.156	0.142	-0.019
-201.348	63.061	-0.118	-0.118
-200.333	625.984	0.030	0.075
-199.319	-29.085	0.220	0.126
-198.304	224.741	-0.043	0.070
-197.290	9.257	0.109	-0.082
-196.275	-50.892	0.297	0.139
-195.260	60.826	-0.274	-0.271
-194.246	61.472	-0.029	-0.029
-193.231	-144.561	0.117	-0.011
-192.217	561.099	-0.059	-0.142
-191.202	-104.879	-0.200	0.046
-190.187	234.975	-0.099	0.163
-189.173	110.515	-0.067	-0.080
-188.158	375.707	0.058	-0.119
-187.144	-200.000	-0.003	-0.266
-186.129	-72.470	-0.179	-0.066
-185.114	-47.004	0.245	0.120
-184.100	-1.681	0.216	0.152
-183.085	-105.191	0.186	0.042
-182.071	180.955	-0.095	-0.140
-181.056	800.000	-0.063	-0.173
-180.042	-99.460	0.256	0.064
-179.027	-93.018	0.347	0.097
-178.012	-200.000	0.002	0.017
-176.998	-200.000	-0.020	0.246
-175.983	119.160	0.291	-0.360
-174.969	-23.245	-0.161	0.096
-173.954	40.222	0.102	0.092
-172.939	84.573	0.314	-0.343
-171.925	203.597	0.032	0.049
-170.910	-34.812	-0.198	0.108
-169.896	-200.000	-0.012	0.112
-168.881	800.000	0.012	-0.050
-167.866	-69.726	0.187	0.071
-166.852	-107.197	-0.271	-0.060
-165.837	-12.249	0.171	-0.112
-164.823	-200.000	-0.001	0.138
-163.808	-86.873	0.275	-0.084
-162.793	88.686	-0.218	-0.242
-161.779	-200.000	0.012	0.088
-160.764	604.872	-0.029	0.071
-159.750	-200.000	0.006	0.381
-158.735	-77.986	-0.047	-0.016
-157.720	-200.000	-0.068	0.339
-156.706	-200.000	-0.020	-0.344
-155.691	-16.861	0.084	-0.053
-154.677	499.765	0.045	-0.104
-153.662	-72.627	0.147	0.054
-152.647	-66.406	-0.094	-0.037
-151.633	622.360	-0.034	-0.085
-150.618	14.517	-0.225	-0.175
-149.604	-46.189	0.116	0.057
-148.589	-32.199	0.224	-0.125
-147.574	375.345	0.066	-0.134
-146.560	37.966	0.111	-0.098
-145.545	373.748	-0.030	0.060
-144.531	187.788	0.098	-0.146
-143.516	113.805	0.168	0.204
-142.502	-35.941	-0.220	0.119
-141.487	223.981	0.088	0.142
-140.472	27.880	0.013	-0.011
-139.458	38.604	-0.031	0.027
-138.443	-10.366	0.176	-0.117
-137.429	800.000	-0.018	-0.063
-136.414	800.000	0.086	0.279
-135.399	-144.884	0.306	0.028
-134.385	350.794	0.200	0.394
-133.370	-200.000	-0.025	-0.399
-132.356	-35.644	-0.280	0.151
-131.341	800.000	-0.029	0.104
-130.326	501.855	0.227	0.523
-129.312	-99.705	0.339	0.085
-128.297	258.991	0.133	-0.229
-127.283	32.229	0.116	0.100
-126.268	364.392	-0.075	-0.151
-125.253	488.488	0.082	0.187
-124.239	-84.149	-0.076	0.024
-123.224	-73.514	0.196	-0.071
-122.210	-47.865	0.055	-0.026
