DTS Sentinel unit serial number:	SN413079Multiplexer serial number:	ORYXHardware model number:	OX4-SRSoftware version number:	ORYX F/W v4.00 Oryx Data Collector v3.7.2.0data status	okinstallation	princeton_trtdifferential loss correction	single-endedforward channel	channel 1reverse channel	N/Adate	2019/09/15time	12:34:35forward acquisition time	60.00reverse acquisition time	0.00gamma	496.2192k internal	0.2299k external	0.2299temperature offset calibration	0.9985default loss term (dB/km)	0.3790temperature slope calibration	1.0000multiplexer offset coefficient	1.0000multiplexer slope coefficient	1.0000fibre end	0.00T internal ref (°C)	35.31T ext. ref 1 (°C)	5.05T ext. ref 2 (°C)	32.90length (m)	temperature (°C)	Stokes	anti-Stokes-747.200	33.405	-0.115	-0.102
-746.185	-85.846	0.195	0.062
-745.171	-97.687	-0.092	-0.024
-744.156	800.000	-0.026	0.086
-743.142	-200.000	-0.020	0.104
-742.127	124.585	-0.147	0.188
-741.112	-200.000	-0.016	0.143
-740.098	-124.762	-0.096	0.015
-739.083	111.229	-0.178	-0.219
-738.069	-200.000	0.037	0.293
-737.054	-149.502	0.072	-0.006
-736.039	-154.134	-0.235	-0.016
-735.025	184.808	-0.306	0.464
-734.010	-73.398	-0.264	0.098
-732.996	13.604	-0.204	0.162
-731.981	-200.000	-0.056	-0.382
-730.966	-200.000	-0.050	0.286
-729.952	-167.527	-0.462	0.019
-728.937	155.899	-0.115	-0.162
-727.923	14.392	-0.057	-0.045
-726.908	796.883	-0.076	0.214
-725.894	-144.848	-0.373	0.035
-724.879	800.000	0.027	0.116
-723.864	-126.670	-0.111	0.017
-722.850	-118.592	-0.213	0.038
-721.835	-200.000	0.014	0.163
-720.821	254.834	0.176	-0.306
-719.806	137.542	-0.087	0.116
-718.791	-200.000	0.018	0.174
-717.777	19.715	0.106	-0.087
-716.762	106.435	-0.144	-0.175
-715.748	-153.731	-0.260	0.018
-714.733	-200.000	-0.050	0.251
-713.718	-200.000	-0.005	0.159
-712.704	212.211	0.059	-0.095
-711.689	511.133	0.222	-0.526
-710.675	501.935	0.065	-0.152
-709.660	-200.000	0.062	-0.332
-708.645	-67.544	-0.075	0.030
-707.631	-200.000	0.055	0.251
-706.616	-200.000	-0.019	-0.198
-705.602	-58.411	-0.227	0.100
-704.587	-74.359	0.222	0.082
-703.572	72.023	-0.219	-0.233
-702.558	20.981	-0.057	-0.047
-701.543	-179.692	0.096	-0.002
-700.529	80.400	0.229	0.251
-699.514	-22.916	-0.242	-0.149
-698.499	-138.309	0.231	-0.026
-697.485	322.146	-0.177	0.344
-696.470	262.920	-0.048	0.084
-695.456	394.049	-0.042	-0.088
-694.441	-121.559	0.227	-0.038
-693.426	-145.740	0.226	-0.021
-692.412	-135.680	-0.160	-0.019
-691.397	-83.804	-0.203	0.066
-690.383	-83.402	0.273	-0.089
-689.368	731.330	0.019	-0.052
-688.354	-176.559	-0.079	-0.002
-687.339	-166.560	-0.186	-0.008
-686.324	281.579	-0.156	-0.285
-685.310	64.338	-0.030	-0.031
-684.295	-99.921	-0.023	-0.006
-683.281	-200.000	0.016	-0.232
-682.266	119.031	-0.090	0.113
-681.251	-200.000	0.068	-0.323
-680.237	-26.925	0.092	-0.055
-679.222	-200.000	-0.032	-0.288
-678.208	8.990	-0.227	-0.174
-677.193	-113.574	0.233	0.046
-676.178	-200.000	-0.009	0.160
-675.164	-200.000	-0.038	0.172
-674.149	4.132	-0.315	0.235
-673.135	32.886	0.156	0.138
-672.120	-96.411	0.239	-0.064
-671.105	800.000	-0.014	-0.056
-670.091	145.491	-0.178	-0.242
-669.076	-98.227	0.053	0.014
-668.062	53.717	-0.212	0.207
-667.047	-85.177	-0.149	-0.047
-666.032	230.903	-0.214	-0.357
-665.018	-200.000	-0.019	0.088
-664.003	-200.000	-0.003	-0.079
-662.989	411.892	0.173	-0.373
-661.974	99.534	0.321	-0.378
-660.959	198.040	-0.139	0.215
-659.945	44.114	-0.166	0.154
-658.930	-145.416	0.055	0.005
-657.916	485.649	-0.091	-0.211
-656.901	-200.000	0.010	-0.403
-655.886	-131.301	-0.391	-0.053
-654.872	-103.656	-0.214	-0.051
-653.857	-65.215	0.313	-0.128
-652.843	-154.136	0.179	-0.012
-651.828	-82.502	-0.225	-0.074
-650.814	-200.000	-0.042	-0.398
-649.799	-0.732	-0.202	0.145
-648.784	-200.000	0.013	0.187
-647.770	800.000	0.045	0.176
-646.755	187.406	0.062	0.094
-645.741	-103.473	0.136	0.033
-644.726	-200.000	-0.008	0.140
-643.711	800.000	-0.090	0.324
-642.697	-31.214	-0.049	0.028
-641.682	-200.000	-0.026	0.161
-640.668	-81.770	-0.194	0.065
-639.653	-33.324	-0.123	0.069
-638.638	-154.813	-0.101	0.007
-637.624	29.764	-0.328	0.283
-636.609	621.123	0.130	-0.332
-635.595	-200.000	0.010	0.315
-634.580	218.612	-0.117	-0.190
-633.565	-118.716	0.216	0.039
-632.551	-103.943	-0.106	0.025
-631.536	44.931	0.173	-0.161
-630.522	-200.000	-0.003	-0.072
-629.507	-147.505	0.180	-0.015
-628.492	-200.000	-0.042	0.248
-627.478	-74.916	-0.104	0.038
-626.463	0.163	0.116	-0.084
-625.449	94.115	-0.096	0.111
-624.434	380.439	-0.119	0.248
-623.419	657.645	0.077	-0.200
-622.405	79.479	-0.068	-0.074
-621.390	-200.000	-0.058	-0.309
-620.376	-99.862	0.333	0.084
-619.361	800.000	0.083	-0.343
-618.346	88.339	0.080	0.090
-617.332	-14.868	0.245	-0.160
-616.317	-82.768	0.329	-0.108
-615.303	221.626	-0.096	0.156
-614.288	-147.616	-0.169	-0.014
-613.273	-161.697	0.126	0.007
-612.259	489.794	-0.178	-0.414
-611.244	-105.412	0.169	0.039
-610.230	20.623	-0.261	0.214
-609.215	-200.000	0.040	0.216
-608.201	529.055	-0.040	0.096
-607.186	49.861	-0.132	-0.126
-606.171	48.217	-0.194	-0.184
-605.157	-141.728	-0.227	0.023
-604.142	80.609	0.154	-0.169
-603.128	472.669	-0.131	-0.299
-602.113	800.000	0.076	0.214
-601.098	133.966	0.129	-0.170
-600.084	-161.392	-0.254	0.013
-599.069	-149.802	-0.022	-0.002
-598.055	20.751	-0.228	-0.187
-597.040	452.001	-0.125	-0.281
-596.025	-200.000	0.017	0.095
-595.011	253.062	-0.124	-0.215
-593.996	-161.370	-0.056	0.003
-592.982	411.196	0.094	0.201
-591.967	-200.000	0.011	0.304
-590.952	-200.000	-0.071	-0.483
-589.938	27.214	0.199	-0.170
-588.923	157.501	0.059	-0.083
-587.909	6.032	0.214	-0.161
-586.894	-134.221	-0.120	0.015
-585.879	-36.019	-0.068	0.038
-584.865	507.449	0.092	-0.218
-583.850	-156.012	0.177	0.011
-582.836	-89.282	-0.315	0.094
-581.821	-162.998	-0.129	0.006
-580.806	152.105	-0.049	-0.068
-579.792	-30.574	-0.162	0.093
-578.777	-30.526	0.338	0.194
-577.763	800.000	0.012	0.042
-576.748	112.615	-0.177	0.217
-575.733	-200.000	-0.002	-0.139
-574.719	64.302	0.272	0.278
-573.704	-20.985	0.040	0.025
-572.690	145.053	0.193	-0.262
-571.675	87.449	-0.183	-0.205
-570.661	-138.300	-0.449	-0.050
-569.646	-106.905	-0.145	0.033
-568.631	-176.102	0.528	-0.014
-567.617	-200.000	-0.003	-0.243
-566.602	108.521	-0.228	0.275
-565.588	550.852	-0.020	-0.048
-564.573	-163.402	-0.104	-0.005
-563.558	-200.000	0.027	-0.246
-562.544	478.549	-0.106	-0.244
-561.529	-113.378	-0.133	0.026
-560.515	371.261	-0.096	0.198
-559.500	-200.000	-0.057	-0.318
-558.485	-111.542	-0.136	0.028
-557.471	-56.531	0.252	-0.113
-556.456	-49.060	-0.211	-0.102
-555.442	-46.229	-0.122	-0.061
-554.427	-66.924	0.263	0.105
-553.412	40.864	0.188	0.172
-552.398	-200.000	-0.009	-0.062
-551.383	-145.786	-0.250	0.023
-550.369	-53.389	0.225	-0.104
-549.354	225.743	0.097	-0.159
-548.339	205.813	0.133	-0.210
-547.325	315.305	-0.062	-0.119
-546.310	800.000	0.024	0.070
-545.296	367.246	-0.127	-0.260
-544.281	-177.105	0.082	-0.002
-543.266	20.645	-0.083	0.068
-542.252	-200.000	0.011	0.269
-541.237	-14.379	-0.096	-0.063
-540.223	-200.000	-0.042	-0.206
-539.208	800.000	-0.073	-0.217
-538.193	800.000	-0.024	-0.085
-537.179	-83.836	0.423	-0.136
-536.164	-166.549	-0.204	-0.009
-535.150	113.116	0.186	0.228
-534.135	-28.697	-0.236	0.137
-533.121	383.516	0.137	-0.285
-532.106	-200.000	-0.008	-0.109
-531.091	-200.000	-0.033	-0.167
-530.077	-113.826	-0.298	-0.059
-529.062	192.662	-0.162	0.247
-528.048	-116.617	-0.286	0.053
-527.033	-200.000	0.060	-0.289
-526.018	251.643	-0.058	-0.101
-525.004	-90.317	0.288	0.085
-523.989	43.870	-0.273	0.253
-522.975	415.178	0.100	0.216
-521.960	-48.984	0.259	-0.126
-520.945	191.669	0.015	-0.022
-519.931	341.394	-0.174	-0.344
-518.916	75.567	-0.270	0.288
-517.902	136.458	-0.200	0.264
-516.887	-2.122	-0.086	-0.061
-515.872	32.976	-0.282	0.247
-514.858	800.000	0.104	0.334
-513.843	-57.363	-0.172	0.077
-512.829	341.666	0.174	0.344
-511.814	-200.000	0.014	0.094
-510.799	-37.369	0.419	-0.226
-509.785	495.045	0.189	-0.439
-508.770	-6.487	-0.105	-0.072
-507.756	-101.712	0.451	-0.110
-506.741	800.000	0.077	0.256
-505.726	60.568	0.114	0.114
-504.712	-90.599	0.253	-0.074
-503.697	-110.825	0.092	-0.019
-502.683	374.759	-0.046	0.096
-501.668	-200.000	0.022	-0.210
-500.653	156.247	0.056	0.079
-499.639	466.820	0.075	-0.170
-498.624	-176.483	-0.101	0.003
-497.610	-52.448	0.110	-0.051
-496.595	-92.124	-0.356	-0.102
-495.581	800.000	-0.051	-0.147
-494.566	270.111	-0.099	-0.176
-493.551	-150.764	0.238	-0.018
-492.537	-200.000	-0.007	-0.220
-491.522	7.446	-0.231	0.174
-490.508	34.275	0.147	0.129
-489.493	-196.881	-0.358	-0.002
-488.478	-200.000	-0.019	0.179
-487.464	-124.327	-0.393	-0.062
-486.449	21.453	-0.091	0.075
-485.435	187.620	-0.075	0.114
-484.420	387.673	-0.109	-0.227
-483.405	-12.865	-0.207	-0.136
-482.391	2.691	0.257	-0.188
-481.376	212.132	0.105	-0.167
-480.362	121.862	-0.098	0.124
-479.347	174.390	0.054	0.078
-478.332	-16.927	0.148	0.094
-477.318	219.306	-0.170	0.275
-476.303	36.550	0.139	-0.124
-475.289	-200.000	0.005	0.157
-474.274	512.247	0.089	0.210
-473.259	-26.973	-0.308	-0.181
-472.245	-113.044	0.211	0.042
-471.230	-94.712	0.217	0.059
-470.216	-131.724	0.392	-0.052
-469.201	-92.177	0.110	-0.031
-468.186	-170.631	-0.135	0.005
-467.172	16.517	-0.275	-0.219
-466.157	96.182	0.095	0.110
-465.143	121.906	0.156	-0.197
-464.128	-164.634	0.279	0.013
-463.113	26.516	-0.275	-0.232
-462.099	-200.000	0.002	-0.185
-461.084	10.619	0.058	0.045
-460.070	-142.405	-0.242	-0.024
-459.055	-104.795	-0.327	-0.076
-458.040	-121.251	-0.271	-0.046
-457.026	242.608	-0.067	-0.112
-456.011	342.277	0.086	0.170
-454.997	30.932	-0.286	0.248
-453.982	155.801	-0.221	0.307
-452.968	-121.941	-0.058	-0.010
-451.953	-157.572	-0.344	0.021
-450.938	7.341	0.338	-0.254
-449.924	-153.637	0.242	-0.017
-448.909	181.709	0.043	-0.065
-447.895	279.414	-0.108	0.194
-446.880	75.070	-0.174	0.185
-445.865	54.449	-0.207	0.201
-444.851	55.170	0.213	0.207
-443.836	-167.139	0.133	0.005
-442.822	473.089	0.103	-0.235
-441.807	-44.990	0.273	0.137
-440.792	43.499	-0.082	0.075
-439.778	-37.509	0.087	0.047
-438.763	-200.000	0.005	0.081
-437.749	-62.680	-0.236	-0.098
-436.734	-38.973	0.193	0.102
-435.719	-5.406	-0.128	0.088
-434.705	549.291	0.067	0.162
-433.690	144.197	-0.224	0.301
-432.676	54.311	-0.152	0.147
-431.661	-149.892	0.026	0.002
-430.646	466.629	-0.111	-0.250
-429.632	-54.907	0.213	0.097
-428.617	3.574	-0.113	-0.083
-427.603	523.416	0.113	0.268
-426.588	117.910	0.170	0.211
-425.573	-27.910	0.255	0.149
-424.559	171.079	-0.170	0.246
-423.544	436.682	0.109	0.239
-422.530	-200.000	-0.040	0.193
-421.515	98.322	0.061	-0.071
-420.500	-154.002	-0.128	0.009
-419.486	19.294	-0.207	-0.167
-418.471	769.127	0.021	0.057
-417.457	515.832	0.061	0.143
-416.442	800.000	-0.121	-0.359
-415.428	-200.000	-0.005	0.329
-414.413	129.802	-0.114	-0.147
-413.398	317.460	-0.114	-0.218
-412.384	-52.689	0.245	-0.114
-411.369	-120.150	-0.058	-0.010
-410.355	-61.189	0.525	0.223
-409.340	229.890	0.057	0.094
-408.325	-120.292	0.057	-0.010
-407.311	-200.000	-0.010	0.162
-406.296	160.464	0.030	-0.042
-405.282	-160.483	-0.434	0.023
-404.267	-118.340	-0.488	0.087
-403.252	230.775	-0.129	0.212
-402.238	-29.721	-0.311	0.178
-401.223	128.738	0.072	-0.093
-400.209	371.664	-0.119	-0.242
-399.194	-200.000	0.009	-0.201
-398.179	439.391	-0.057	-0.126
-397.165	-119.235	0.218	-0.038
-396.150	408.426	-0.124	-0.265
-395.136	800.000	-0.056	0.164
-394.121	13.859	-0.165	0.129
-393.106	17.254	-0.241	-0.193
-392.092	-2.216	-0.323	0.228
-391.077	-200.000	0.037	0.323
-390.063	460.653	-0.024	-0.053
-389.048	111.676	0.159	-0.193
-388.033	10.815	-0.167	0.128
-387.019	511.614	0.181	-0.424
-386.004	-200.000	-0.047	0.207
-384.990	250.449	0.026	0.044
-383.975	-58.441	0.297	-0.130
-382.960	-137.251	-0.094	0.011
-381.946	74.568	0.036	0.038
-380.931	209.114	0.097	0.153
-379.917	-50.529	0.113	0.054
-378.902	800.000	0.099	0.396
-377.888	-80.993	0.312	0.104
-376.873	-1.266	-0.309	0.220
-375.858	76.665	-0.220	0.234
-374.844	0.010	-0.150	-0.108
-373.829	13.461	0.118	0.092
-372.815	-86.364	0.285	-0.088
-371.800	687.047	0.015	-0.040
-370.785	-121.441	-0.171	0.029
-369.771	167.948	-0.174	0.250
-368.756	112.352	0.150	0.183
-367.742	-200.000	0.034	0.343
-366.727	96.348	-0.108	-0.124
-365.712	-0.524	0.206	0.147
-364.698	-60.972	-0.186	-0.079
-363.683	-129.897	-0.187	0.026
-362.669	-200.000	-0.039	0.363
-361.654	-200.000	0.036	0.397
-360.639	-150.104	0.236	-0.018
-359.625	-45.907	0.192	-0.095
-358.610	243.784	-0.095	-0.160
-357.596	11.238	-0.113	-0.087
-356.581	-200.000	0.007	0.152
-355.566	-34.821	0.323	0.177
-354.552	-200.000	-0.003	0.214
-353.537	130.735	0.190	0.245
-352.523	44.877	-0.302	0.279
-351.508	800.000	-0.064	0.186
-350.493	156.090	-0.062	0.086
-349.479	0.225	0.197	-0.141
-348.464	-1.626	-0.166	-0.117
-347.450	-175.467	-0.179	0.005
-346.435	-72.522	0.255	-0.095
-345.420	-110.796	0.153	-0.032
-344.406	-89.768	-0.041	0.012
-343.391	147.370	-0.159	0.215
-342.377	-200.000	0.035	0.158
-341.362	-23.095	0.091	0.055
-340.348	224.042	-0.186	-0.302
-339.333	800.000	0.044	0.153
-338.318	-141.482	0.452	-0.046
-337.304	800.000	0.057	-0.185
-336.289	-200.000	0.004	-0.202
-335.275	533.498	0.218	-0.520
-334.260	-127.287	-0.060	0.009
-333.245	-17.546	-0.314	-0.198
-332.231	60.903	0.143	-0.142
-331.216	29.970	-0.126	-0.108
-330.202	-55.761	0.122	0.055
-329.187	137.813	-0.094	-0.124
-328.172	-200.000	-0.036	-0.377
-327.158	-200.000	0.013	0.074
-326.143	207.462	-0.073	-0.114
-325.129	565.911	0.075	-0.183
-324.114	-66.232	-0.280	-0.112
-323.099	-2.615	-0.446	-0.313
-322.085	194.458	0.175	0.267
-321.070	-106.379	0.080	-0.018
-320.056	22.302	-0.020	0.016
-319.041	173.490	0.171	-0.247
-318.026	358.460	0.079	-0.159
-317.012	-141.334	-0.204	0.021
-315.997	-11.682	0.095	0.062
-314.983	800.000	0.145	-0.615
-313.968	-100.176	0.381	-0.095
-312.953	-116.037	-0.253	-0.047
-311.939	-94.232	0.304	0.084
-310.924	-175.640	-0.269	0.007
-309.910	-78.896	-0.196	0.067
-308.895	-200.000	-0.022	-0.159
-307.880	-200.000	-0.001	0.080
-306.866	419.738	0.148	-0.317
-305.851	123.018	-0.124	-0.155
-304.837	-169.834	-0.292	-0.011
-303.822	800.000	0.065	0.217
-302.807	-200.000	0.022	-0.230
-301.793	-14.936	0.224	-0.144
-300.778	-81.639	-0.308	0.101
-299.764	46.177	-0.157	-0.146
-298.749	32.766	0.196	0.170
-297.735	264.840	-0.158	-0.277
-296.720	-58.271	-0.243	0.106
-295.705	-100.255	0.044	-0.011
-294.691	147.752	0.211	0.286
-293.676	-146.919	0.136	0.012
-292.662	107.100	-0.235	-0.280
-291.647	516.294	0.148	0.348
-290.632	118.025	0.290	0.358
-289.618	288.444	-0.192	-0.349
-288.603	-126.676	0.017	0.003
-287.589	76.292	-0.080	-0.085
-286.574	-200.000	-0.041	0.337
-285.559	-24.280	0.313	0.187
-284.545	-87.984	-0.157	-0.047
-283.530	-200.000	-0.025	0.441
-282.516	55.589	0.085	0.083
-281.501	-127.963	0.165	0.024
-280.486	-77.051	-0.186	0.065
-279.472	-154.843	0.303	-0.020
-278.457	-38.931	0.225	-0.118
-277.443	484.149	-0.125	-0.284
-276.428	-45.798	0.265	0.131
-275.413	-200.000	-0.045	0.232
-274.399	31.923	0.128	-0.110
-273.384	197.127	-0.076	-0.117
-272.370	530.367	0.046	0.109
-271.355	-23.592	0.221	-0.133
-270.340	-200.000	0.009	-0.207
-269.326	596.790	-0.134	0.332
-268.311	-150.470	-0.060	0.005
-267.297	800.000	0.076	0.276
-266.282	-200.000	0.029	-0.247
-265.267	17.141	-0.166	-0.132
-264.253	127.455	-0.026	0.033
-263.238	800.000	0.067	-0.195
-262.224	-6.456	0.146	0.100
-261.209	433.878	-0.051	-0.111
-260.195	49.799	-0.223	-0.210
-259.180	-0.126	-0.156	0.111
-258.165	-112.372	-0.139	-0.028
-257.151	-52.363	0.141	0.065
-256.136	31.127	0.186	0.160
-255.122	-200.000	-0.006	0.225
-254.107	-67.004	0.080	-0.032
-253.092	800.000	-0.148	-0.448
-252.078	62.911	-0.148	-0.149
-251.063	13.290	0.084	-0.065
-250.049	115.081	0.058	-0.070
-249.034	617.250	0.049	-0.124
-248.019	203.165	0.055	0.086
-247.005	800.000	-0.141	-0.428
-245.990	-183.035	0.493	0.009
-244.976	-200.000	0.048	0.343
-243.961	-200.000	-0.034	0.568
-242.946	73.158	-0.050	0.053
-241.932	-154.698	0.279	-0.019
-240.917	-90.034	-0.236	-0.069
-239.903	36.786	-0.127	0.112
-238.888	-20.218	-0.379	0.233
-237.873	-200.000	0.034	0.151
-236.859	-200.000	0.005	0.193
-235.844	50.041	-0.112	0.105
-234.830	109.158	-0.045	-0.054
-233.815	-200.000	-0.010	-0.314
-232.800	-126.303	0.508	-0.076
-231.786	582.504	0.077	0.189
-230.771	-200.000	-0.021	-0.132
-229.757	157.829	0.170	-0.236
-228.742	-69.618	-0.055	0.021
-227.727	320.295	0.084	-0.159
-226.713	-118.771	-0.154	0.027
-225.698	99.515	0.176	0.204
-224.684	355.530	0.030	0.059
-223.669	-107.212	0.394	-0.087
-222.655	392.283	-0.123	-0.256
-221.640	800.000	0.017	0.064
-220.625	-59.270	0.354	0.152
-219.611	-56.628	0.288	0.128
-218.596	-93.105	0.153	-0.043
-217.582	35.181	-0.117	0.103
-216.567	-200.000	-0.080	-0.380
-215.552	-200.000	0.026	-0.174
-214.538	-57.207	0.107	-0.047
-213.523	-76.935	0.278	0.097
-212.509	-130.660	-0.340	-0.046
-211.494	-9.637	0.366	0.244
-210.479	4.655	0.126	-0.093
-209.465	29.666	0.260	-0.221
-208.450	730.807	0.027	-0.073
-207.436	577.712	-0.107	0.262
-206.421	-200.000	0.009	0.119
-205.406	96.118	-0.083	0.094
-204.392	186.793	0.034	-0.050
-203.377	612.100	0.089	-0.223
-202.363	-15.450	0.246	-0.157
-201.348	-200.000	0.025	-0.199
-200.333	-73.670	-0.308	-0.112
-199.319	-200.000	0.002	0.077
-198.304	-94.560	-0.147	0.040
-197.290	14.353	0.253	-0.197
-196.275	-133.735	-0.199	0.025
-195.260	-175.348	0.021	-0.001
-194.246	-54.448	-0.159	0.072
-193.231	-59.737	0.216	0.092
-192.217	239.726	-0.132	-0.219
-191.202	126.925	-0.065	0.083
-190.187	-184.807	-0.347	-0.006
-189.173	-7.403	-0.120	0.081
-188.158	29.386	-0.170	-0.145
-187.144	-9.654	0.165	-0.110
-186.129	59.798	0.207	0.204
-185.114	800.000	-0.021	-0.069
-184.100	97.218	0.175	0.201
-183.085	25.392	0.127	0.106
-182.071	133.340	0.105	0.136
-181.056	174.229	-0.153	0.221
-180.042	36.776	0.100	-0.089
-179.027	-80.169	0.046	-0.015
-178.012	442.870	-0.076	0.166
-176.998	57.851	-0.184	0.180
-175.983	-78.998	-0.349	0.118
-174.969	265.734	0.135	-0.236
-173.954	-200.000	-0.015	-0.173
-172.939	341.724	0.130	0.253
-171.925	611.878	-0.053	0.132
-170.910	-200.000	0.042	0.304
-169.896	392.020	-0.097	-0.201
-168.881	800.000	-0.079	-0.297
-167.866	108.904	0.080	-0.096
-166.852	-200.000	-0.006	-0.196
-165.837	-17.440	0.175	0.110
-164.823	23.961	0.328	0.270
-163.808	-32.991	0.099	0.055
-162.793	800.000	0.044	0.124
-161.779	681.953	0.055	-0.143
-160.764	-200.000	0.041	-0.265
-159.750	87.755	0.123	0.136
-158.735	-129.224	0.137	0.019
-157.720	-94.205	-0.098	-0.027
-156.706	-33.574	0.117	-0.064
-155.691	-200.000	-0.021	-0.302
-154.677	-79.642	0.131	-0.044
-153.662	-200.000	-0.034	-0.267
-152.647	-3.820	-0.099	0.068
-151.633	-114.276	0.184	0.035
-150.618	210.820	0.101	0.158
-149.604	24.129	-0.124	0.102
-148.589	-70.946	-0.012	0.004
-147.574	110.837	0.156	0.187
-146.560	-59.430	0.370	0.159
-145.545	-117.039	-0.087	0.016
-144.531	-44.323	0.241	0.120
-143.516	-200.000	0.044	0.222
-142.502	800.000	0.105	0.405
-141.487	17.345	0.180	-0.142
-140.472	45.307	0.252	0.232
-139.458	452.707	-0.157	0.345
-138.443	352.364	-0.193	-0.382
-137.429	-173.284	0.187	-0.006
-136.414	-52.075	-0.149	0.069
-135.399	4.822	-0.222	-0.163
-134.385	-200.000	0.043	0.449
-133.370	683.884	-0.022	0.058
-132.356	-5.818	0.130	-0.089
-131.341	-127.142	-0.212	-0.031
-130.326	-200.000	-0.011	0.256
-129.312	-200.000	0.008	-0.066
-128.297	-200.000	0.011	0.051
-127.283	123.230	-0.275	0.343
-126.268	20.480	-0.099	0.080
-125.253	328.759	0.022	0.043
-124.239	-82.060	0.418	0.136
-123.224	-200.000	-0.012	0.078
-122.210	-200.000	-0.004	-0.230
-121.195	-200.000	-0.035	0.155
