DTS Sentinel unit serial number:	SN413079Multiplexer serial number:	ORYXHardware model number:	OX4-SRSoftware version number:	ORYX F/W v4.00 Oryx Data Collector v3.7.2.0data status	okinstallation	princeton_trtdifferential loss correction	single-endedforward channel	channel 1reverse channel	N/Adate	2019/09/16time	08:46:35forward acquisition time	60.00reverse acquisition time	0.00gamma	496.2192k internal	0.2324k external	0.2324temperature offset calibration	0.9978default loss term (dB/km)	0.3790temperature slope calibration	1.0000multiplexer offset coefficient	1.0000multiplexer slope coefficient	1.0000fibre end	0.00T internal ref (°C)	29.86T ext. ref 1 (°C)	12.00T ext. ref 2 (°C)	26.88length (m)	temperature (°C)	Stokes	anti-Stokes-747.200	448.159	-0.040	0.088
-746.185	-200.000	-0.019	0.143
-745.171	90.810	0.187	0.212
-744.156	343.517	0.025	-0.049
-743.142	-94.226	0.020	0.005
-742.127	800.000	-0.008	0.027
-741.112	-200.000	-0.022	0.114
-740.098	-200.000	-0.118	0.632
-739.083	4.055	0.189	-0.140
-738.069	-151.288	0.213	-0.016
-737.054	-177.725	0.311	-0.008
-736.039	-174.849	-0.387	-0.011
-735.025	-200.000	0.003	-0.111
-734.010	-131.761	-0.137	-0.018
-732.996	-23.107	-0.195	-0.118
-731.981	521.898	0.047	-0.111
-730.966	800.000	-0.028	0.108
-729.952	-40.104	0.046	0.024
-728.937	703.207	-0.107	0.284
-727.923	-128.331	0.121	-0.017
-726.908	345.818	0.126	0.250
-725.894	181.520	-0.075	-0.111
-724.879	18.444	-0.268	0.216
-723.864	-96.084	0.238	0.064
-722.850	147.257	-0.166	-0.226
-721.835	-92.462	-0.154	-0.044
-720.821	-200.000	-0.099	-0.517
-719.806	-200.000	0.027	-0.253
-718.791	-103.044	0.431	0.103
-717.777	417.985	-0.069	0.148
-716.762	800.000	-0.110	0.314
-715.748	774.650	-0.172	0.473
-714.733	-83.203	-0.262	0.085
-713.718	792.876	-0.068	-0.189
-712.704	-59.247	-0.380	-0.165
-711.689	200.237	-0.044	-0.068
-710.675	46.025	-0.146	0.136
-709.660	50.376	0.128	-0.122
-708.645	-200.000	-0.035	-0.368
-707.631	47.702	-0.213	0.200
-706.616	-4.461	-0.389	0.271
-705.602	53.376	0.092	0.089
-704.587	-167.489	0.096	-0.004
-703.572	74.023	0.166	0.175
-702.558	-161.769	-0.102	-0.005
-701.543	-123.780	0.277	-0.044
-700.529	-22.736	0.052	0.032
-699.514	-30.268	-0.046	-0.026
-698.499	-200.000	0.067	-0.312
-697.485	225.106	-0.108	0.176
-696.470	-111.854	0.194	-0.040
-695.456	-200.000	0.015	-0.141
-694.441	317.774	0.076	0.144
-693.426	800.000	-0.060	0.184
-692.412	59.098	0.211	0.210
-691.397	-200.000	0.023	-0.136
-690.383	543.122	-0.021	0.051
-689.368	39.734	0.188	0.170
-688.354	-106.452	-0.089	-0.020
-687.339	59.305	-0.114	0.113
-686.324	135.533	-0.076	0.099
-685.310	95.482	0.033	0.038
-684.295	45.820	0.111	0.103
-683.281	9.028	-0.196	-0.149
-682.266	-200.000	-0.034	0.153
-681.251	-21.475	-0.100	-0.061
-680.237	545.570	0.092	-0.222
-679.222	65.236	-0.124	-0.126
-678.208	-200.000	-0.004	-0.353
-677.193	394.556	-0.050	0.104
-676.178	294.120	0.048	0.088
-675.164	-166.733	-0.285	-0.012
-674.149	-200.000	0.004	-0.073
-673.135	82.628	0.315	0.345
-672.120	95.411	-0.275	0.316
-671.105	56.406	-0.172	-0.168
-670.091	-10.168	-0.190	0.127
-669.076	-121.447	-0.300	-0.050
-668.062	-200.000	0.052	-0.281
-667.047	12.204	-0.163	-0.127
-666.032	-200.000	0.073	-0.366
-665.018	638.391	-0.117	0.298
-664.003	-200.000	0.003	-0.153
-662.989	-130.434	0.171	-0.023
-661.974	-142.084	-0.177	-0.018
-660.959	2.663	-0.196	-0.143
-659.945	-38.716	-0.132	0.070
-658.930	-109.254	0.213	0.046
-657.916	7.924	0.162	0.122
-656.901	46.912	-0.069	0.065
-655.886	308.461	-0.271	0.510
-654.872	-37.806	-0.211	0.113
-653.857	-42.710	-0.126	-0.064
-652.843	-164.545	0.241	-0.011
-651.828	-26.131	-0.354	0.209
-650.814	-13.981	-0.262	-0.170
-649.799	470.096	0.051	-0.114
-648.784	39.029	-0.204	0.184
-647.770	-8.378	-0.187	0.126
-646.755	-200.000	0.001	-0.216
-645.741	9.054	0.130	0.099
-644.726	-200.000	-0.022	-0.123
-643.711	-108.246	-0.141	0.031
-642.697	31.616	0.179	-0.154
-641.682	423.755	0.079	-0.170
-640.668	40.732	0.082	-0.075
-639.653	800.000	-0.058	0.197
-638.638	-145.577	0.122	0.011
-637.624	-128.609	0.327	-0.046
-636.609	18.814	0.227	0.182
-635.595	-200.000	-0.012	-0.137
-634.580	39.678	-0.270	-0.243
-633.565	-121.214	0.157	-0.026
-632.551	-36.871	0.179	-0.096
-631.536	69.523	0.104	0.108
-630.522	52.664	0.030	0.028
-629.507	-95.677	0.302	0.081
-628.492	-30.719	0.274	-0.156
-627.478	-117.426	-0.114	-0.021
-626.463	-160.014	-0.255	-0.014
-625.449	-113.415	-0.424	0.084
-624.434	-11.967	-0.272	-0.179
-623.419	-200.000	-0.003	-0.336
-622.405	-98.641	-0.255	-0.065
-621.390	-200.000	-0.017	-0.366
-620.376	420.083	-0.113	0.242
-619.361	138.593	0.148	-0.196
-618.346	-58.540	-0.239	0.104
-617.332	57.195	-0.176	0.172
-616.317	-200.000	-0.052	-0.000
-615.303	-200.000	0.049	-0.233
-614.288	653.599	0.059	-0.153
-613.273	-114.152	-0.216	-0.042
-612.259	79.410	-0.197	0.212
-611.244	800.000	0.045	0.177
-610.230	355.707	-0.117	-0.234
-609.215	-5.545	-0.157	-0.108
-608.201	-200.000	0.001	-0.076
-607.186	-107.536	0.098	0.022
-606.171	84.552	-0.240	0.264
-605.157	-114.165	-0.152	-0.030
-604.142	313.806	0.138	-0.261
-603.128	-45.161	0.393	0.196
-602.113	-199.577	0.170	0.001
-601.098	-127.845	0.177	0.026
-600.084	800.000	0.119	0.509
-599.069	239.257	0.095	0.159
-598.055	-120.890	0.284	-0.048
-597.040	181.827	-0.037	0.055
-596.025	800.000	-0.056	-0.158
-595.011	-151.263	-0.184	0.014
-593.996	-200.000	0.031	-0.221
-592.982	-132.178	-0.107	-0.014
-591.967	-15.484	-0.155	-0.099
-590.952	-56.168	-0.249	-0.111
-589.938	-11.457	0.289	0.191
-588.923	-9.045	-0.063	0.042
-587.909	800.000	-0.068	-0.238
-586.894	800.000	-0.108	-0.376
-585.879	-200.000	0.011	0.077
-584.865	191.007	0.080	0.121
-583.850	117.655	-0.256	-0.316
-582.836	16.131	-0.135	0.106
-581.821	-127.169	-0.257	0.038
-580.806	-158.481	0.241	-0.014
-579.792	145.730	0.123	-0.166
-578.777	-172.052	0.101	-0.003
-577.763	-200.000	-0.063	0.419
-576.748	-6.684	-0.138	0.094
-575.733	414.698	0.043	-0.092
-574.719	141.444	-0.118	-0.156
-573.704	-61.389	0.032	-0.014
-572.690	-109.449	-0.080	0.017
-571.675	-120.380	0.359	0.061
-570.661	63.943	-0.153	0.154
-569.646	-200.000	-0.069	0.393
-568.631	-200.000	-0.014	0.080
-567.617	800.000	0.066	0.190
-566.602	-200.000	-0.012	0.139
-565.588	-200.000	0.002	0.108
-564.573	-200.000	0.092	-0.469
-563.558	-185.005	-0.103	0.002
-562.544	-139.910	0.279	0.030
-561.529	-111.951	-0.477	0.096
-560.515	-9.646	0.155	-0.104
-559.500	65.604	0.262	0.266
-558.485	-98.508	-0.364	0.093
-557.471	-12.193	-0.267	0.175
-556.456	261.052	-0.070	-0.121
-555.442	390.515	0.127	0.264
-554.427	-14.664	0.100	0.064
-553.412	-22.592	-0.097	-0.059
-552.398	-21.989	0.360	0.219
-551.383	-164.833	-0.284	-0.013
-550.369	8.094	0.127	0.096
-549.354	-97.033	0.089	-0.023
-548.339	-40.235	-0.253	-0.132
-547.325	800.000	-0.027	-0.109
-546.310	-29.780	0.116	-0.066
-545.296	-84.546	-0.502	-0.159
-544.281	-110.170	-0.051	-0.011
-543.266	800.000	0.061	-0.207
-542.252	-154.485	0.322	-0.022
-541.237	-86.278	-0.168	-0.052
-540.223	-200.000	-0.074	-0.371
-539.208	422.583	-0.141	-0.304
-538.193	474.346	0.164	-0.370
-537.179	-93.646	-0.281	-0.078
-536.164	5.584	-0.024	0.018
-535.150	257.118	0.068	-0.118
-534.135	612.182	-0.074	0.186
-533.121	-200.000	0.042	-0.245
-532.106	-81.179	0.244	-0.081
-531.091	-79.947	0.256	0.086
-530.077	272.485	0.112	-0.198
-529.062	800.000	-0.057	-0.171
-528.048	-69.468	-0.194	-0.074
-527.033	-200.000	0.033	-0.164
-526.018	-146.899	0.133	-0.011
-525.004	-200.000	0.207	0.001
-523.989	-3.149	-0.156	0.109
-522.975	-4.069	0.122	0.085
-521.960	-200.000	0.005	-0.180
-520.945	-122.752	-0.207	-0.034
-519.931	-200.000	-0.012	-0.210
-518.916	-200.000	0.031	-0.148
-517.902	557.163	-0.041	-0.099
-516.887	-24.793	-0.237	0.141
-515.872	-118.015	-0.179	-0.032
-514.858	115.389	-0.170	-0.207
-513.843	-200.000	-0.012	-0.215
-512.829	800.000	0.080	0.279
-511.814	-92.988	0.251	0.070
-510.799	96.471	-0.103	0.118
-509.785	381.710	0.110	0.227
-508.770	-200.000	0.330	0.001
-507.756	-72.281	-0.274	0.102
-506.741	27.282	0.066	-0.055
-505.726	800.000	0.052	0.224
-504.712	-48.934	0.138	-0.066
-503.697	-189.679	-0.326	-0.004
-502.683	-134.774	0.593	0.072
-501.668	106.644	-0.280	-0.333
-500.653	-141.997	-0.067	0.007
-499.639	-200.000	-0.008	0.114
-498.624	-61.577	-0.510	-0.214
-497.610	-117.778	-0.033	0.006
-496.595	64.716	0.231	0.233
-495.581	800.000	-0.092	0.256
-494.566	309.328	-0.065	0.121
-493.551	-86.480	0.063	0.019
-492.537	-200.000	0.016	-0.140
-491.522	-103.228	-0.078	0.019
-490.508	-126.834	0.058	-0.009
-489.493	-54.569	-0.212	-0.096
-488.478	6.991	0.390	-0.291
-487.464	616.222	0.105	-0.264
-486.449	217.370	-0.245	-0.390
-485.435	494.270	0.064	-0.147
-484.420	-57.416	0.068	0.030
-483.405	514.327	-0.120	0.279
-482.391	800.000	0.112	-0.313
-481.376	610.407	-0.060	-0.151
-480.362	-200.000	-0.018	0.085
-479.347	158.265	-0.208	-0.288
-478.332	-134.744	0.017	0.002
-477.318	-81.647	-0.314	0.103
-476.303	-124.697	-0.320	-0.049
-475.289	-200.000	-0.052	-0.446
-474.274	49.755	-0.015	-0.014
-473.259	62.372	-0.236	-0.235
-472.245	-200.000	0.022	-0.305
-471.230	-200.000	-0.011	0.120
-470.216	134.990	-0.089	-0.116
-469.201	371.243	-0.120	-0.244
-468.186	800.000	0.005	0.022
-467.172	800.000	0.153	-0.430
-466.157	489.023	-0.277	-0.632
-465.143	-200.000	0.044	0.195
-464.128	-113.794	-0.348	0.068
-463.113	117.198	-0.134	-0.165
-462.099	-19.710	-0.110	0.068
-461.084	-64.496	-0.260	-0.106
-460.070	61.257	0.107	0.106
-459.055	75.163	-0.074	0.078
-458.040	312.047	0.073	0.138
-457.026	461.874	0.138	0.307
-456.011	-174.637	0.068	-0.002
-454.997	321.498	-0.122	0.231
-453.982	-95.613	0.381	0.102
-452.968	-185.528	-0.315	-0.005
-451.953	-200.000	0.061	0.496
-450.938	-126.400	-0.273	-0.041
-449.924	102.373	0.151	0.176
-448.909	800.000	0.032	-0.134
-447.895	-200.000	-0.022	0.287
-446.880	-58.163	0.142	-0.062
-445.865	490.340	-0.033	-0.074
-444.851	108.221	0.044	-0.053
-443.836	55.118	0.098	-0.095
-442.822	-176.637	0.425	-0.011
-441.807	50.196	-0.202	-0.191
-440.792	181.555	0.254	0.373
-439.778	-82.362	-0.361	-0.117
-438.763	-200.000	0.039	0.378
-437.749	165.564	-0.176	0.248
-436.734	-143.086	-0.217	0.021
-435.719	-200.000	-0.002	-0.108
-434.705	-193.550	0.211	-0.002
-433.690	0.402	-0.214	-0.152
-432.676	-200.000	0.014	-0.122
-431.661	-20.181	-0.149	0.092
-430.646	519.227	-0.113	-0.263
-429.632	12.449	0.314	0.241
-428.617	-70.228	0.318	-0.120
-427.603	-94.846	0.309	0.083
-426.588	27.664	-0.230	-0.193
-425.573	-32.828	-0.098	-0.054
-424.559	51.393	-0.169	0.160
-423.544	7.955	-0.236	-0.176
-422.530	800.000	0.015	0.061
-421.515	94.474	-0.092	-0.104
-420.500	-200.000	0.023	-0.503
-419.486	51.222	-0.107	-0.101
-418.471	800.000	-0.023	0.073
-417.457	-200.000	0.011	0.201
-416.442	-175.166	0.230	0.006
-415.428	-200.000	0.057	-0.301
-414.413	495.486	0.050	0.115
-413.398	-121.347	0.114	-0.019
-412.384	64.846	0.180	-0.181
-411.369	-91.599	0.246	-0.070
-410.355	129.989	-0.130	0.166
-409.340	-200.000	-0.030	-0.271
-408.325	-70.754	0.066	0.025
-407.311	97.352	-0.232	0.266
-406.296	129.485	0.182	0.231
-405.282	-200.000	0.008	-0.286
-404.267	-22.318	0.463	-0.279
-403.252	-152.219	0.086	0.006
-402.238	205.841	0.167	0.259
-401.223	-200.000	0.031	-0.176
-400.209	-200.000	0.001	-0.021
-399.194	-165.890	0.087	0.004
-398.179	445.812	-0.118	-0.257
-397.165	-106.960	-0.274	-0.060
-396.150	165.801	-0.090	-0.127
-395.136	-72.835	0.228	-0.084
-394.121	-101.134	-0.343	-0.084
-393.106	-65.325	0.302	-0.121
-392.092	-155.336	-0.167	0.011
-391.077	800.000	-0.003	0.010
-390.063	-56.249	0.055	0.024
-389.048	-109.070	-0.179	-0.038
-388.033	122.520	0.142	0.176
-387.019	-59.267	0.185	0.079
-386.004	800.000	-0.027	0.103
-384.990	-194.284	0.312	0.003
-383.975	-147.924	0.308	0.026
-382.960	800.000	-0.087	-0.244
-381.946	-200.000	0.026	0.427
-380.931	-103.369	0.096	0.023
-379.917	-89.709	0.239	-0.070
-378.902	542.077	0.064	-0.152
-377.888	221.512	0.092	-0.147
-376.873	-110.391	-0.191	-0.039
-375.858	21.294	0.075	0.061
-374.844	-55.497	0.288	0.129
-373.829	-200.000	0.021	0.296
-372.815	54.509	-0.040	0.038
-371.800	-99.719	0.088	-0.022
-370.785	148.220	-0.064	-0.086
-369.771	800.000	-0.005	0.017
-368.756	-111.169	-0.010	-0.002
-367.742	10.920	-0.101	0.076
-366.727	-3.905	0.204	-0.141
-365.712	522.319	-0.128	-0.299
-364.698	-24.010	0.294	-0.175
-363.683	120.799	-0.253	-0.313
-362.669	-35.733	-0.210	0.113
-361.654	-9.333	0.104	0.069
-360.639	-138.990	-0.307	0.033
-359.625	45.593	-0.047	0.043
-358.610	48.533	-0.297	0.277
-357.596	-200.000	0.024	-0.254
-356.581	-200.000	0.027	0.201
-355.566	-93.476	0.345	0.095
-354.552	-200.000	0.000	0.092
-353.537	-66.625	-0.247	-0.097
-352.523	-102.117	0.211	-0.050
-351.508	-152.743	0.163	0.012
-350.493	-171.949	0.248	0.008
-349.479	684.984	-0.042	-0.108
-348.464	100.079	0.085	0.098
-347.450	-14.519	-0.281	0.180
-346.435	29.318	0.163	0.137
-345.420	68.475	0.273	0.278
-344.406	-121.240	0.130	0.022
-343.391	-200.000	-0.029	-0.157
-342.377	-48.932	-0.113	0.054
-341.362	261.394	-0.084	0.144
-340.348	696.904	0.067	-0.175
-339.333	706.065	-0.027	-0.070
-338.318	-31.680	0.140	-0.078
-337.304	-61.260	0.320	-0.134
-336.289	-142.836	0.307	-0.030
-335.275	180.474	0.186	0.272
-334.260	-37.594	-0.425	0.225
-333.245	800.000	0.082	0.323
-332.231	544.756	0.116	0.275
-331.216	39.593	-0.134	0.119
-330.202	-200.000	0.060	0.445
-329.187	-200.000	0.024	0.198
-328.172	-38.474	0.086	-0.045
-327.158	-116.209	0.184	-0.034
-326.143	401.309	-0.147	0.306
-325.129	-102.606	-0.026	-0.006
-324.114	46.781	-0.119	-0.110
-323.099	404.090	0.059	0.124
-322.085	-32.330	0.185	-0.103
-321.070	308.556	-0.074	-0.137
-320.056	-18.370	0.325	-0.202
-319.041	-43.301	0.239	-0.120
-318.026	800.000	-0.111	-0.343
-317.012	800.000	0.017	-0.061
-315.997	-143.565	0.243	0.023
-314.983	-91.740	-0.296	-0.083
-313.968	75.620	-0.218	0.228
-312.953	800.000	0.034	0.148
-311.939	706.354	0.064	0.168
-310.924	800.000	-0.034	-0.139
-309.910	282.107	-0.198	-0.351
-308.895	-149.931	0.177	-0.014
-307.880	2.750	-0.449	0.323
-306.866	800.000	0.074	0.248
-305.851	-143.636	-0.139	0.013
-304.837	87.198	-0.172	0.188
-303.822	67.000	0.030	-0.030
-302.807	-200.000	0.259	-0.000
-301.793	53.144	0.095	0.090
-300.778	800.000	-0.083	0.236
-299.764	576.648	-0.117	0.283
-298.749	469.517	0.082	-0.182
-297.735	178.226	0.115	-0.167
-296.720	482.723	-0.107	-0.242
-295.705	-75.590	0.493	-0.174
-294.691	257.044	0.210	-0.357
-293.676	131.954	-0.073	0.093
-292.662	-200.000	-0.049	0.334
-291.647	24.626	-0.133	0.109
-290.632	-104.713	0.224	0.051
-289.618	-200.000	-0.011	-0.103
-288.603	255.054	-0.074	0.126
-287.589	265.313	-0.094	0.162
-286.574	800.000	0.126	0.364
-285.559	-200.000	-0.034	-0.257
-284.545	-37.656	0.266	-0.141
-283.530	-200.000	0.043	-0.000
-282.516	250.512	-0.032	0.054
-281.501	-200.000	-0.002	-0.017
-280.486	133.219	-0.216	0.276
-279.472	215.452	0.167	0.263
-278.457	-97.941	0.272	0.070
-277.443	37.327	0.268	0.236
-276.428	15.456	0.190	-0.148
-275.413	-200.000	0.063	-0.274
-274.399	-52.296	-0.165	0.076
-273.384	-28.413	0.323	0.185
-272.370	-4.785	0.216	0.148
-271.355	20.174	0.026	-0.021
-270.340	-200.000	0.025	-0.231
-269.326	126.444	0.240	-0.301
-268.311	-200.000	-0.006	0.029
-267.297	-200.000	-0.020	0.188
-266.282	800.000	0.127	0.380
-265.267	800.000	-0.037	0.145
-264.253	-126.901	-0.145	-0.021
-263.238	250.627	-0.141	0.237
-262.224	501.792	0.130	-0.297
-261.209	14.056	0.064	0.049
-260.195	385.185	-0.144	-0.293
-259.180	-82.202	0.224	0.072
-258.165	3.647	0.271	0.196
-257.151	182.246	-0.026	0.039
-256.136	800.000	-0.026	-0.074
-255.122	28.915	-0.137	0.115
-254.107	-62.039	-0.231	-0.096
-253.092	-200.000	-0.018	-0.093
-252.078	244.942	-0.099	-0.164
-251.063	44.421	0.201	0.183
-250.049	474.678	0.172	0.384
-249.034	800.000	-0.055	0.161
-248.019	-114.468	0.185	0.035
-247.005	-76.864	0.286	-0.099
-245.990	-147.697	0.236	-0.020
-244.976	337.971	-0.022	-0.043
-243.961	-146.045	0.153	-0.013
-242.946	-70.897	0.145	-0.054
-241.932	-200.000	-0.009	0.097
-240.917	-174.730	-0.186	-0.005
-239.903	67.403	-0.336	-0.340
-238.888	-105.291	0.222	0.050
-237.873	158.137	0.155	0.212
-236.859	-47.699	0.228	-0.110
-235.844	800.000	0.083	-0.256
-234.830	1.313	-0.096	-0.068
-233.815	-200.000	-0.090	0.479
-232.800	551.590	0.144	0.342
-231.786	-144.846	-0.329	0.030
-230.771	-132.346	0.131	-0.017
-229.757	42.396	-0.218	-0.196
-228.742	-200.000	0.001	-0.422
-227.727	-122.285	0.217	0.035
-226.713	-200.000	0.029	0.129
-225.698	259.049	0.074	-0.127
-224.684	-35.365	0.187	-0.101
-223.669	97.751	0.116	-0.132
-222.655	-82.947	-0.381	0.121
-221.640	-109.672	0.169	0.035
-220.625	-200.000	0.057	0.254
-219.611	638.469	0.101	0.253
-218.596	-111.435	0.246	0.050
-217.582	-91.902	-0.210	-0.059
-216.567	-2.738	-0.044	-0.030
-215.552	-57.088	0.192	-0.084
-214.538	184.974	-0.063	0.092
-213.523	-123.382	0.124	-0.020
-212.509	10.064	-0.128	-0.096
-211.494	-102.771	-0.252	0.059
-210.479	800.000	-0.020	-0.072
-209.465	-116.771	0.129	0.023
-208.450	207.302	0.164	0.253
-207.436	79.331	-0.118	-0.125
-206.421	-1.335	-0.305	0.213
-205.406	89.535	-0.072	-0.079
-204.392	99.762	0.123	-0.141
-203.377	194.668	-0.108	0.162
-202.363	81.074	0.140	-0.150
-201.348	-200.000	0.038	0.377
-200.333	-200.000	-0.026	0.136
-199.319	235.157	-0.077	0.126
-198.304	-76.974	0.135	0.047
-197.290	-200.000	0.003	-0.238
-196.275	99.799	0.142	-0.163
-195.260	-34.665	-0.197	0.106
-194.246	111.108	-0.047	0.056
-193.231	251.030	0.188	-0.316
-192.217	170.084	0.309	-0.436
-191.202	-200.000	-0.001	-0.033
-190.187	244.625	0.061	0.102
-189.173	-187.159	-0.167	-0.002
-188.158	-165.988	-0.077	0.003
-187.144	-77.591	-0.066	0.023
-186.129	-42.889	-0.186	0.094
-185.114	-59.590	-0.328	0.139
-184.100	266.567	-0.033	0.057
-183.085	-114.655	-0.167	-0.031
-182.071	471.161	-0.140	-0.311
-181.056	-43.565	0.071	0.035
-180.042	-200.000	-0.041	-0.239
-179.027	800.000	0.057	-0.162
-178.012	-31.178	-0.401	-0.223
-176.998	-92.430	-0.223	0.062
-175.983	-200.000	0.055	0.390
-174.969	541.236	0.119	0.280
-173.954	-109.360	-0.503	-0.105
-172.939	-119.305	-0.307	-0.053
-171.925	456.496	-0.088	0.194
-170.910	-134.852	0.345	0.041
-169.896	-195.042	0.159	-0.001
-168.881	368.170	-0.125	0.249
-167.866	19.415	-0.052	-0.041
-166.852	-37.746	0.144	-0.076
-165.837	-200.000	-0.019	0.495
-164.823	800.000	-0.091	0.362
-163.808	140.471	-0.099	0.129
-162.793	-200.000	0.016	0.226
-161.779	-79.710	-0.456	0.152
-160.764	800.000	-0.066	0.225
-159.750	-35.308	-0.124	-0.066
-158.735	38.357	-0.129	-0.114
-157.720	-200.000	0.002	0.244
-156.706	-40.564	-0.287	-0.147
-155.691	-200.000	0.035	-0.398
-154.677	51.178	-0.208	0.194
-153.662	800.000	0.108	0.327
-152.647	146.773	-0.136	0.180
-151.633	800.000	-0.030	0.092
-150.618	-152.797	-0.089	-0.006
-149.604	-200.000	-0.091	0.419
-148.589	-126.057	0.175	-0.026
-147.574	667.290	-0.120	0.306
-146.560	67.476	-0.124	-0.125
-145.545	-200.000	0.006	0.218
-144.531	45.676	0.108	0.098
-143.516	-200.000	0.056	-0.389
-142.502	467.023	0.033	0.072
-141.487	137.743	-0.096	-0.124
-140.472	27.435	0.157	0.130
-139.458	-200.000	-0.007	-0.077
-138.443	-96.296	0.158	-0.041
-137.429	-53.056	-0.255	-0.115
-136.414	284.544	0.029	-0.051
-135.399	800.000	0.065	0.220
-134.385	142.740	0.152	0.199
-133.370	-96.066	-0.099	-0.026
-132.356	-126.956	-0.073	0.011
-131.341	212.489	0.191	0.296
-130.326	77.737	-0.114	0.120
-129.312	-200.000	0.003	-0.022
-128.297	314.553	-0.097	-0.180
-127.283	317.390	0.045	-0.084
-126.268	-159.139	0.227	-0.013
-125.253	103.345	-0.166	0.192
-124.239	6.327	0.215	0.157
-123.224	-92.967	-0.257	-0.071
-122.210	-30.581	0.058	0.032
