DTS Sentinel unit serial number:	SN413079Multiplexer serial number:	ORYXHardware model number:	OX4-SRSoftware version number:	ORYX F/W v4.00 Oryx Data Collector v3.7.2.0data status	okinstallation	princeton_trtdifferential loss correction	single-endedforward channel	channel 1reverse channel	N/Adate	2019/09/19time	00:38:35forward acquisition time	60.00reverse acquisition time	0.00gamma	496.2192k internal	0.2343k external	0.2343temperature offset calibration	1.0022default loss term (dB/km)	0.3790temperature slope calibration	1.0000multiplexer offset coefficient	1.0000multiplexer slope coefficient	1.0000fibre end	0.00T internal ref (°C)	22.31T ext. ref 1 (°C)	0.74T ext. ref 2 (°C)	15.39length (m)	temperature (°C)	Stokes	anti-Stokes-747.200	-200.000	0.014	0.134
-746.185	-200.000	0.040	0.301
-745.171	-200.000	0.063	0.650
-744.156	-96.953	-0.372	-0.098
-743.142	-62.046	-0.076	-0.032
-742.127	-19.925	-0.161	0.100
-741.112	-200.000	-0.026	0.277
-740.098	-154.781	-0.283	0.019
-739.083	85.842	-0.096	-0.106
-738.069	49.748	-0.063	0.059
-737.054	-149.901	-0.158	-0.012
-736.039	30.505	-0.097	0.083
-735.025	19.954	0.430	0.347
-734.010	-116.101	-0.476	-0.089
-732.996	436.367	-0.112	0.244
-731.981	-62.262	-0.184	-0.077
-730.966	-83.494	0.252	0.081
-729.952	776.665	0.085	-0.231
-728.937	-200.000	0.022	0.156
-727.923	-200.000	0.046	0.306
-726.908	-200.000	0.009	-0.126
-725.894	-59.185	-0.144	0.062
-724.879	591.317	0.047	0.116
-723.864	216.700	-0.150	0.238
-722.850	151.811	-0.266	0.363
-721.835	-200.000	0.002	0.071
-720.821	-200.000	-0.034	-0.208
-719.806	642.128	-0.152	0.388
-718.791	-125.672	0.280	0.042
-717.777	70.759	-0.097	0.100
-716.762	26.642	0.044	-0.037
-715.748	-200.000	0.015	0.140
-714.733	-73.500	0.101	-0.037
-713.718	-138.677	0.228	0.025
-712.704	39.420	0.103	-0.092
-711.689	23.434	-0.063	0.052
-710.675	-159.234	-0.150	0.008
-709.660	-93.432	-0.252	-0.070
-708.645	-98.648	-0.279	-0.071
-707.631	-200.000	0.021	0.163
-706.616	-200.000	-0.022	0.148
-705.602	496.148	0.054	0.124
-704.587	-200.000	-0.012	-0.142
-703.572	-91.891	-0.294	-0.083
-702.558	746.651	-0.073	-0.196
-701.543	-39.285	0.196	0.103
-700.529	115.434	0.034	-0.042
-699.514	174.225	0.166	0.239
-698.499	-93.188	-0.402	-0.112
-697.485	50.923	-0.212	-0.200
-696.470	440.274	0.075	-0.163
-695.456	-105.101	0.090	0.021
-694.441	-71.375	-0.296	0.111
-693.426	-44.763	-0.144	0.072
-692.412	160.192	-0.112	0.156
-691.397	-131.610	-0.229	-0.030
-690.383	54.876	0.076	-0.073
-689.368	73.513	-0.051	-0.053
-688.354	800.000	0.016	-0.047
-687.339	-117.827	0.304	-0.055
-686.324	-200.000	-0.017	-0.203
-685.310	2.030	-0.055	0.040
-684.295	87.527	0.237	0.262
-683.281	-53.954	0.129	-0.059
-682.266	-116.462	0.306	-0.056
-681.251	-120.907	0.053	0.009
-680.237	-50.076	0.318	-0.151
-679.222	172.374	-0.148	-0.212
-678.208	120.471	-0.128	0.159
-677.193	-100.371	-0.162	0.040
-676.178	-191.437	-0.106	-0.001
-675.164	-43.616	-0.416	-0.209
-674.149	130.713	0.182	0.234
-673.135	300.779	0.063	-0.117
-672.120	26.149	0.185	0.154
-671.105	-92.998	0.168	0.047
-670.091	-200.000	0.052	-0.287
-669.076	380.918	0.052	-0.106
-668.062	333.791	0.090	0.174
-667.047	-98.157	-0.163	-0.042
-666.032	-106.371	-0.080	0.018
-665.018	655.751	-0.205	0.526
-664.003	-103.339	-0.522	0.123
-662.989	-200.000	-0.001	0.096
-661.974	48.192	-0.105	0.098
-660.959	691.345	-0.111	-0.289
-659.945	-73.026	-0.108	-0.039
-658.930	7.576	-0.141	-0.105
-657.916	-119.793	-0.034	-0.006
-656.901	112.722	0.152	-0.184
-655.886	-86.863	0.046	0.014
-654.872	-11.604	0.120	-0.078
-653.857	690.988	-0.169	-0.442
-652.843	-200.000	0.004	0.082
-651.828	134.447	-0.085	-0.110
-650.814	-23.102	-0.198	0.119
-649.799	40.151	0.333	-0.299
-648.784	-63.533	-0.354	-0.145
-647.770	-57.808	-0.154	0.067
-646.755	-35.296	-0.381	-0.207
-645.741	-102.939	-0.336	-0.080
-644.726	45.132	-0.140	-0.129
-643.711	102.752	-0.342	-0.399
-642.697	-200.000	-0.013	-0.362
-641.682	37.727	0.096	-0.085
-640.668	50.314	-0.142	-0.134
-639.653	-200.000	-0.038	0.227
-638.638	800.000	0.122	0.356
-637.624	30.558	-0.232	0.198
-636.609	800.000	-0.085	0.238
-635.595	627.414	-0.162	-0.408
-634.580	31.547	-0.251	-0.215
-633.565	-53.494	0.328	-0.150
-632.551	-25.475	0.245	-0.144
-631.536	-77.911	0.319	-0.110
-630.522	134.219	0.143	-0.185
-629.507	-120.442	0.026	-0.004
-628.492	-200.000	-0.055	-0.360
-627.478	483.153	-0.016	0.037
-626.463	591.801	-0.111	-0.273
-625.449	-63.774	-0.250	-0.102
-624.434	34.145	0.151	-0.131
-623.419	-34.645	-0.183	-0.100
-622.405	-135.127	0.324	-0.039
-621.390	332.111	-0.045	-0.087
-620.376	-200.000	0.097	-0.461
-619.361	-144.139	0.403	0.038
-618.346	593.579	-0.097	-0.239
-617.332	-81.786	-0.111	0.036
-616.317	183.324	-0.138	0.203
-615.303	-147.331	-0.191	0.016
-614.288	-114.411	0.283	0.054
-613.273	104.236	0.128	-0.150
-612.259	16.870	0.262	0.207
-611.244	-200.000	-0.013	-0.245
-610.230	28.325	-0.155	-0.130
-609.215	-71.354	-0.177	0.066
-608.201	183.649	0.266	0.391
-607.186	-103.235	-0.498	0.117
-606.171	-57.966	0.168	-0.073
-605.157	180.693	0.051	0.075
-604.142	289.155	0.200	0.361
-603.128	140.158	0.192	-0.252
-602.113	-200.000	-0.028	-0.235
-601.098	800.000	0.048	-0.137
-600.084	-76.213	-0.379	-0.133
-599.069	276.966	-0.186	0.329
-598.055	-65.468	-0.455	-0.182
-597.040	-100.440	0.452	0.112
-596.025	0.883	-0.076	-0.054
-595.011	142.953	0.048	0.063
-593.996	800.000	-0.028	-0.102
-592.982	800.000	0.055	-0.187
-591.967	-146.485	0.302	0.026
-590.952	800.000	0.044	-0.157
-589.938	-108.024	-0.204	-0.044
-588.923	-200.000	0.055	0.322
-587.909	-55.400	0.202	-0.090
-586.894	-200.000	0.010	-0.228
-585.879	786.701	-0.062	-0.170
-584.865	-97.898	-0.190	0.049
-583.850	297.779	0.204	-0.373
-582.836	-161.780	-0.397	-0.020
-581.821	-200.000	0.186	0.000
-580.806	800.000	-0.024	-0.096
-579.792	178.299	0.179	-0.260
-578.777	-117.197	-0.195	-0.035
-577.763	684.671	-0.082	-0.213
-576.748	-4.029	-0.147	-0.101
-575.733	503.486	-0.070	0.160
-574.719	79.760	0.193	0.206
-573.704	-200.000	-0.001	-0.092
-572.690	235.198	-0.177	-0.291
-571.675	-55.361	0.073	0.033
-570.661	-200.000	-0.024	0.111
-569.646	-87.069	-0.244	0.074
-568.631	394.316	0.173	-0.359
-567.617	187.255	-0.305	0.452
-566.602	-200.000	-0.005	0.348
-565.588	-125.192	-0.346	-0.053
-564.573	-172.259	0.374	-0.012
-563.558	-113.344	-0.150	-0.029
-562.544	800.000	0.060	0.259
-561.529	5.528	-0.187	-0.138
-560.515	463.920	-0.107	0.237
-559.500	800.000	-0.059	-0.177
-558.485	118.290	-0.175	0.214
-557.471	9.959	0.177	0.134
-556.456	363.221	-0.087	0.175
-555.442	12.730	0.286	0.219
-554.427	9.901	0.014	0.011
-553.412	-114.251	-0.192	0.037
-552.398	-83.245	0.330	0.105
-551.383	-77.113	-0.384	0.133
-550.369	-39.448	0.076	0.040
-549.354	15.380	-0.074	0.058
-548.339	-200.000	-0.033	-0.296
-547.325	-50.415	0.230	-0.108
-546.310	-10.440	-0.157	-0.104
-545.296	-4.335	-0.176	0.121
-544.281	215.595	0.028	0.044
-543.266	172.657	0.051	0.072
-542.252	-200.000	0.020	0.097
-541.237	-74.782	-0.320	-0.114
-540.223	-200.000	-0.002	-0.079
-539.208	617.735	-0.100	-0.250
-538.193	209.319	-0.163	-0.253
-537.179	-7.825	-0.496	-0.333
-536.164	-200.000	-0.015	0.128
-535.150	-200.000	-0.008	0.048
-534.135	-200.000	-0.024	0.104
-533.121	339.159	0.149	-0.287
-532.106	0.874	0.142	-0.101
-531.091	800.000	-0.011	-0.039
-530.077	-71.869	-0.183	0.068
-529.062	-68.150	-0.310	0.120
-528.048	-145.942	0.260	0.023
-527.033	-37.571	-0.064	0.034
-526.018	800.000	-0.091	-0.310
-525.004	324.072	-0.102	0.193
-523.989	800.000	-0.101	0.351
-522.975	164.122	-0.170	0.238
-521.960	-200.000	0.023	0.293
-520.945	-60.155	-0.214	-0.091
-519.931	-89.430	-0.480	0.140
-518.916	-200.000	-0.045	-0.468
-517.902	44.778	0.172	0.157
-516.887	-153.758	-0.031	0.002
-515.872	-111.077	0.217	0.044
-514.858	33.897	-0.135	0.117
-513.843	-134.202	-0.383	0.047
-512.829	491.164	-0.062	-0.140
-511.814	145.651	0.274	-0.364
-510.799	7.856	-0.020	0.015
-509.785	-62.943	-0.225	0.092
-508.770	-25.215	-0.186	0.109
-507.756	231.062	0.081	-0.131
-506.741	-200.000	-0.018	0.316
-505.726	19.587	-0.118	0.094
-504.712	-44.188	0.176	0.087
-503.697	800.000	0.080	-0.264
-502.683	88.754	-0.083	-0.092
-501.668	-200.000	0.028	-0.322
-500.653	-200.000	-0.010	-0.194
-499.639	-200.000	0.083	-0.386
-498.624	25.180	0.037	-0.031
-497.610	-200.000	-0.029	0.272
-496.595	19.558	0.313	0.250
-495.581	800.000	0.048	-0.149
-494.566	14.530	-0.120	-0.093
-493.551	800.000	-0.053	-0.184
-492.537	-98.766	0.312	-0.079
-491.522	-116.181	0.165	-0.030
-490.508	88.499	0.057	-0.063
-489.493	75.944	-0.210	-0.220
-488.478	64.244	-0.140	0.140
-487.464	290.657	0.132	0.238
-486.449	-79.184	-0.237	-0.080
-485.435	212.671	-0.071	0.111
-484.420	-37.604	0.270	-0.142
-483.405	65.270	0.196	-0.196
-482.391	800.000	-0.117	-0.381
-481.376	-56.666	0.127	0.056
-480.362	-99.884	-0.136	0.034
-479.347	634.999	0.082	0.205
-478.332	238.842	-0.148	-0.244
-477.318	30.979	-0.179	0.152
-476.303	-200.000	-0.039	-0.202
-475.289	383.085	-0.037	-0.076
-474.274	-92.068	0.101	-0.028
-473.259	-148.608	0.079	0.006
-472.245	800.000	-0.133	-0.372
-471.230	-79.546	-0.277	-0.093
-470.216	293.894	-0.187	0.338
-469.201	-147.050	-0.235	-0.020
-468.186	-200.000	-0.048	-0.424
-467.172	-200.000	-0.001	-0.179
-466.157	103.586	0.090	-0.105
-465.143	-174.864	0.415	0.012
-464.128	-62.175	0.350	-0.144
-463.113	-200.000	0.007	-0.381
-462.099	-200.000	0.036	0.222
-461.084	38.423	0.101	-0.089
-460.070	-168.213	0.321	-0.012
-459.055	236.686	-0.093	-0.153
-458.040	15.280	-0.109	-0.085
-457.026	109.459	0.134	-0.159
-456.011	200.155	-0.149	0.227
-454.997	-200.000	0.022	0.262
-453.982	234.691	0.123	-0.201
-452.968	800.000	0.064	0.188
-451.953	-132.916	-0.315	-0.040
-450.938	800.000	0.035	0.136
-449.924	114.790	0.146	0.176
-448.909	-200.000	-0.020	0.253
-447.895	800.000	0.029	0.126
-446.880	-106.976	0.400	0.088
-445.865	46.867	0.084	-0.077
-444.851	156.177	-0.064	-0.088
-443.836	196.847	0.119	-0.180
-442.822	800.000	0.065	-0.185
-441.807	187.931	0.132	-0.196
-440.792	-92.510	-0.045	-0.013
-439.778	168.982	0.082	0.116
-438.763	-140.321	0.411	-0.043
-437.749	-115.041	0.226	-0.042
-436.734	176.079	-0.035	0.050
-435.719	401.334	-0.108	0.224
-434.705	135.091	-0.261	-0.336
-433.690	-131.065	0.063	0.008
-432.676	-200.000	0.059	-0.359
-431.661	-99.285	0.076	-0.019
-430.646	517.338	0.035	-0.080
-429.632	189.344	-0.219	-0.325
-428.617	-127.156	0.259	0.038
-427.603	113.474	0.054	0.065
-426.588	109.801	-0.139	-0.165
-425.573	-155.020	-0.197	0.013
-424.559	161.522	-0.145	0.201
-423.544	800.000	-0.045	-0.133
-422.530	33.812	0.099	-0.085
-421.515	47.883	0.188	0.174
-420.500	-110.188	-0.327	-0.067
-419.486	239.259	0.091	0.150
-418.471	77.657	-0.211	0.222
-417.457	587.017	-0.055	0.134
-416.442	26.801	0.128	0.106
-415.428	7.781	-0.053	0.039
-414.413	32.978	-0.079	0.067
-413.398	96.092	-0.203	0.229
-412.384	-172.087	-0.297	0.009
-411.369	0.718	0.335	-0.237
-410.355	96.353	0.241	-0.273
-409.340	23.793	-0.089	0.072
-408.325	-53.342	0.388	-0.176
-407.311	106.166	-0.188	-0.220
-406.296	386.760	-0.055	0.112
-405.282	18.054	0.218	-0.172
-404.267	406.872	0.071	-0.149
-403.252	402.630	-0.188	0.391
-402.238	-200.000	-0.006	-0.063
-401.223	267.193	-0.121	0.210
-400.209	800.000	0.093	-0.371
-399.194	187.895	0.100	-0.148
-398.179	-2.315	0.167	-0.116
-397.165	218.679	0.128	-0.202
-396.150	0.628	0.152	0.107
-395.136	-41.154	0.194	0.099
-394.121	109.829	0.131	0.155
-393.106	660.439	0.106	0.269
-392.092	-107.525	-0.363	0.079
-391.077	228.746	0.239	0.384
-390.063	177.946	-0.227	0.328
-389.048	55.764	-0.060	-0.057
-388.033	34.170	0.228	0.196
-387.019	-200.000	0.028	0.136
-386.004	-126.919	-0.038	-0.006
-384.990	800.000	-0.012	-0.047
-383.975	-10.889	0.102	-0.067
-382.960	32.075	-0.143	0.121
-381.946	-75.781	0.202	0.071
-380.931	-200.000	-0.003	0.255
-379.917	800.000	0.076	0.227
-378.902	-200.000	-0.053	-0.247
-377.888	-188.742	-0.145	0.002
-376.873	39.928	-0.278	-0.246
-375.858	458.921	0.154	-0.338
-374.844	33.174	-0.044	-0.037
-373.829	-45.421	0.386	0.189
-372.815	-47.220	0.189	0.091
-371.800	-97.551	0.021	-0.005
-370.785	-146.687	-0.454	0.039
-369.771	-149.334	0.368	0.029
-368.756	-180.838	0.325	-0.007
-367.742	557.411	0.108	-0.257
-366.727	22.026	-0.092	-0.074
-365.712	104.608	0.175	-0.203
-364.698	-99.446	0.198	-0.049
-363.683	81.164	0.108	0.115
-362.669	345.850	-0.168	0.326
-361.654	67.761	0.378	-0.382
-360.639	32.106	-0.163	-0.139
-359.625	14.385	-0.119	-0.092
-358.610	448.189	-0.045	-0.099
-357.596	-200.000	-0.019	-0.094
-356.581	-139.865	0.363	0.038
-355.566	-200.000	0.030	0.145
-354.552	238.025	0.065	-0.107
-353.537	20.400	0.116	-0.093
-352.523	227.512	-0.159	-0.256
-351.508	440.427	0.074	0.160
-350.493	800.000	0.021	0.062
-349.479	64.347	-0.098	-0.098
-348.464	-40.176	0.252	0.129
-347.450	-200.000	-0.008	0.153
-346.435	-200.000	-0.005	-0.318
-345.420	69.878	-0.092	-0.094
-344.406	247.052	0.168	0.279
-343.391	-108.072	0.203	0.043
-342.377	-200.000	0.040	-0.345
-341.362	-35.457	0.057	-0.030
-340.348	-23.656	0.329	0.195
-339.333	-200.000	-0.037	0.212
-338.318	-142.540	-0.178	-0.017
-337.304	517.093	-0.045	0.104
-336.289	800.000	0.019	-0.065
-335.275	-200.000	-0.007	0.305
-334.260	146.280	0.112	-0.149
-333.245	127.448	0.010	0.013
-332.231	-200.000	0.012	0.142
-331.216	800.000	0.030	0.129
-330.202	45.246	0.262	-0.238
-329.187	791.789	-0.128	0.346
-328.172	-200.000	-0.006	-0.203
-327.158	22.204	-0.195	0.157
-326.143	-83.962	-0.264	0.083
-325.129	-101.690	-0.254	-0.061
-324.114	-200.000	0.181	0.001
-323.099	800.000	0.046	-0.147
-322.085	160.092	-0.009	-0.012
-321.070	800.000	0.048	-0.133
-320.056	-164.582	-0.553	0.025
-319.041	762.179	0.009	-0.024
-318.026	-96.714	-0.214	0.055
-317.012	223.330	0.106	0.169
-315.997	101.669	0.241	-0.276
-314.983	-200.000	-0.044	0.191
-313.968	-200.000	0.011	-0.366
-312.953	-91.179	0.302	0.085
-311.939	-153.698	0.474	0.032
-310.924	-194.224	0.059	-0.000
-309.910	560.144	-0.175	0.417
-308.895	-200.000	0.050	-0.220
-307.880	800.000	0.006	0.026
-306.866	-200.000	0.004	0.324
-305.851	-55.881	-0.062	-0.027
-304.837	29.201	0.301	-0.251
-303.822	-55.510	0.440	0.194
-302.807	138.723	-0.057	0.074
-301.793	400.759	0.140	0.290
-300.778	51.155	0.095	0.089
-299.764	-27.412	0.233	0.134
-298.749	-6.484	-0.185	0.124
-297.735	366.615	0.140	-0.277
-296.720	15.007	0.083	0.064
-295.705	-66.312	0.153	0.060
-294.691	220.865	0.027	0.043
-293.676	-75.473	0.122	0.043
-292.662	88.253	-0.126	0.138
-291.647	800.000	0.107	0.362
-290.632	767.367	0.118	0.317
-289.618	13.560	0.031	-0.024
-288.603	76.173	-0.130	0.135
-287.589	153.352	0.257	0.347
-286.574	-127.969	-0.315	-0.044
-285.559	-63.108	0.313	0.127
-284.545	-200.000	-0.188	-0.000
-283.530	-126.180	0.166	0.024
-282.516	18.050	-0.106	0.083
-281.501	-91.037	-0.192	-0.054
-280.486	-85.760	-0.224	-0.068
-279.472	-200.000	-0.061	0.573
-278.457	143.419	0.225	-0.295
-277.443	-141.540	0.228	0.023
-276.428	39.909	0.150	-0.132
-275.413	-106.309	-0.250	0.055
-274.399	-200.000	-0.010	0.044
-273.384	548.712	-0.142	0.334
-272.370	-120.764	-0.199	-0.033
-271.355	800.000	-0.043	0.174
-270.340	-200.000	-0.008	-0.202
-269.326	-200.000	-0.024	0.160
-268.311	-200.000	0.011	0.260
-267.297	800.000	-0.069	-0.271
-266.282	27.057	0.235	0.194
-265.267	-200.000	0.024	0.144
-264.253	116.908	0.117	0.141
-263.238	124.411	0.113	0.140
-262.224	-147.953	-0.109	-0.009
-261.209	560.937	-0.073	0.173
-260.195	-200.000	0.009	0.202
-259.180	800.000	0.024	-0.091
-258.165	-9.822	0.089	0.059
-257.151	129.905	-0.140	0.175
-256.136	-45.879	0.096	0.047
-255.122	781.530	-0.105	0.282
-254.107	235.331	-0.043	0.069
-253.092	175.946	-0.182	0.259
-252.078	800.000	-0.028	-0.088
-251.063	-92.012	-0.124	0.034
-250.049	-177.152	0.169	0.004
-249.034	-89.066	0.165	-0.048
-248.019	-118.968	0.151	0.026
-247.005	-122.777	-0.106	0.017
-245.990	-200.000	0.030	0.199
-244.976	-200.000	0.043	0.206
-243.961	3.968	0.254	0.182
-242.946	104.693	0.073	0.085
-241.932	99.573	0.215	0.245
-240.917	13.122	0.353	0.269
-239.903	-96.399	-0.362	-0.094
-238.888	-125.984	0.185	-0.027
-237.873	-197.305	0.364	-0.002
-236.859	-18.812	-0.165	-0.101
-235.844	51.828	-0.106	0.099
-234.830	45.764	0.213	0.193
-233.815	178.086	-0.029	0.042
-232.800	755.671	0.063	0.168
-231.786	-145.666	-0.062	0.005
-230.771	111.462	0.216	0.255
-229.757	800.000	-0.034	-0.137
-228.742	-91.522	-0.114	-0.032
-227.727	-29.147	0.214	-0.120
-226.713	87.101	-0.068	-0.074
-225.698	-150.915	-0.398	0.030
-224.684	-70.125	-0.047	-0.017
-223.669	175.085	0.195	0.278
-222.655	-35.272	0.160	-0.085
-221.640	167.882	-0.094	-0.132
-220.625	-114.513	0.309	-0.058
-219.611	-53.962	-0.157	0.070
-218.596	-74.574	0.213	0.075
-217.582	338.973	-0.109	0.209
-216.567	-14.873	0.091	-0.057
-215.552	44.453	0.177	-0.159
-214.538	-192.007	-0.206	0.002
-213.523	81.147	0.251	0.265
-212.509	-101.571	0.220	0.052
-211.494	30.502	0.054	-0.045
-210.479	114.645	-0.223	0.267
-209.465	-70.689	-0.097	-0.036
-208.450	50.546	0.123	0.114
-207.436	-105.535	0.165	0.037
-206.421	105.134	0.212	-0.245
-205.406	220.808	0.032	0.050
-204.392	-130.862	-0.173	0.023
-203.377	166.895	-0.112	0.156
-202.363	-88.640	-0.057	0.017
-201.348	309.312	-0.139	0.254
-200.333	-4.825	-0.463	-0.313
-199.319	-64.065	-0.227	-0.091
-198.304	301.337	-0.221	0.400
-197.290	-15.282	-0.102	-0.064
-196.275	-200.000	-0.018	-0.148
-195.260	-185.484	-0.475	0.007
-194.246	-200.000	-0.021	0.258
-193.231	-20.836	-0.472	0.284
-192.217	-200.000	0.001	-0.018
-191.202	167.393	-0.139	0.193
-190.187	83.174	0.185	-0.197
-189.173	55.298	0.369	-0.350
-188.158	343.365	0.066	0.127
-187.144	-93.895	0.077	-0.021
-186.129	86.444	-0.037	-0.040
-185.114	800.000	-0.063	0.246
-184.100	-131.693	0.157	0.020
-183.085	-200.000	-0.000	0.134
-182.071	-66.813	0.336	0.130
-181.056	-15.640	-0.150	0.094
-180.042	-176.200	0.329	-0.008
-179.027	200.230	-0.101	-0.152
-178.012	-77.922	-0.103	-0.035
-176.998	800.000	-0.053	-0.198
-175.983	75.108	0.209	0.216
-174.969	95.536	-0.176	-0.196
-173.954	252.990	0.033	-0.056
-172.939	-200.000	0.035	0.303
-171.925	431.503	0.034	-0.072
-170.910	3.278	0.061	-0.043
-169.896	-88.522	-0.412	-0.120
-168.881	104.705	0.052	-0.060
-167.866	-31.227	-0.112	-0.062
-166.852	-200.000	-0.032	-0.302
-165.837	-64.281	-0.428	0.171
-164.823	-43.164	-0.204	-0.101
-163.808	18.544	-0.079	-0.062
-162.793	159.826	0.128	-0.175
-161.779	-13.667	-0.098	-0.062
-160.764	169.197	-0.203	0.284
-159.750	-131.562	0.379	0.049
-158.735	-200.000	0.052	-0.282
-157.720	181.987	-0.049	-0.070
-156.706	-88.135	-0.035	-0.010
-155.691	256.715	-0.220	0.369
-154.677	-94.953	-0.219	-0.058
-153.662	203.836	-0.228	-0.345
-152.647	-10.869	-0.364	-0.235
-151.633	27.044	0.094	0.077
-150.618	-178.784	-0.165	0.004
-149.604	13.326	0.201	0.152
-148.589	190.078	-0.197	0.290
-147.574	800.000	0.114	0.376
-146.560	36.389	0.158	-0.136
-145.545	177.574	0.263	-0.374
-144.531	-100.163	0.251	0.061
-143.516	-38.409	-0.379	-0.196
-142.502	-140.118	0.236	-0.024
-141.487	800.000	-0.090	-0.243
-140.472	-113.677	-0.109	0.021
-139.458	-72.016	0.144	-0.052
-138.443	-152.081	0.317	0.023
-137.429	800.000	-0.047	0.132
-136.414	800.000	0.046	-0.170
-135.399	-142.952	0.053	-0.005
-134.385	800.000	-0.032	-0.089
-133.370	97.647	-0.068	-0.077
-132.356	359.567	0.041	-0.079
-131.341	396.474	0.108	0.221
-130.326	-174.290	-0.288	0.008
-129.312	-114.478	0.240	-0.045
-128.297	767.831	-0.077	-0.204
-127.283	-155.189	0.250	0.016
-126.268	-200.000	0.054	0.329
-125.253	-200.000	-0.012	-0.060
-124.239	384.549	-0.078	0.157
-123.224	38.483	-0.157	0.137
-122.210	544.268	0.067	-0.156
-121.195	-100.645	-0.172	-0.041
