DTS Sentinel unit serial number:	SN413079Multiplexer serial number:	ORYXHardware model number:	OX4-SRSoftware version number:	ORYX F/W v4.00 Oryx Data Collector v3.7.2.0data status	okinstallation	princeton_trtdifferential loss correction	single-endedforward channel	channel 1reverse channel	N/Adate	2019/09/14time	13:22:35forward acquisition time	60.00reverse acquisition time	0.00gamma	496.2192k internal	0.2294k external	0.2294temperature offset calibration	1.0087default loss term (dB/km)	0.3790temperature slope calibration	1.0000multiplexer offset coefficient	1.0000multiplexer slope coefficient	1.0000fibre end	0.00T internal ref (°C)	37.95T ext. ref 1 (°C)	4.90T ext. ref 2 (°C)	33.62length (m)	temperature (°C)	Stokes	anti-Stokes-747.200	152.826	-0.102	0.142
-746.185	316.550	-0.123	0.237
-745.171	-11.042	0.287	-0.194
-744.156	-183.894	0.159	0.003
-743.142	218.815	-0.103	0.168
-742.127	-72.032	-0.169	-0.064
-741.112	-38.618	0.183	0.099
-740.098	32.692	-0.112	0.099
-739.083	102.773	-0.331	0.396
-738.069	109.681	-0.222	0.273
-737.054	301.536	0.212	-0.401
-736.039	411.596	0.194	-0.421
-735.025	800.000	0.071	-0.238
-734.010	-119.751	-0.138	0.024
-732.996	-101.200	-0.110	-0.028
-731.981	-200.000	-0.039	0.191
-730.966	237.762	-0.173	-0.293
-729.952	800.000	-0.042	-0.127
-728.937	-200.000	-0.017	-0.223
-727.923	-200.000	0.037	-0.388
-726.908	-35.355	-0.166	-0.092
-725.894	-181.778	0.140	-0.003
-724.879	572.870	-0.050	0.124
-723.864	7.065	-0.102	-0.078
-722.850	-200.000	0.067	-0.477
-721.835	251.188	0.099	0.172
-720.821	800.000	-0.109	-0.336
-719.806	25.552	0.224	-0.190
-718.791	6.386	-0.223	-0.169
-717.777	-128.664	0.232	0.033
-716.762	243.335	-0.059	0.101
-715.748	800.000	0.068	-0.208
-714.733	117.632	0.102	0.128
-713.718	89.561	-0.108	0.123
-712.704	14.491	-0.276	0.220
-711.689	-25.377	0.137	-0.083
-710.675	-125.769	-0.258	-0.040
-709.660	-159.409	0.363	0.021
-708.645	-200.000	0.007	-0.127
-707.631	-87.397	-0.287	0.089
-706.616	800.000	0.066	-0.278
-705.602	800.000	-0.118	-0.364
-704.587	-140.001	0.361	0.039
-703.572	-81.595	-0.239	-0.080
-702.558	402.169	0.045	0.097
-701.543	-144.207	-0.237	-0.023
-700.529	-200.000	0.018	-0.089
-699.514	331.222	0.055	-0.109
-698.499	-127.370	0.210	-0.031
-697.485	-115.880	-0.106	0.020
-696.470	-200.000	-0.028	-0.229
-695.456	345.649	-0.068	0.136
-694.441	181.294	0.018	-0.027
-693.426	-42.333	0.249	-0.130
-692.412	518.979	-0.141	-0.338
-691.397	-163.518	0.170	0.008
-690.383	-200.000	0.035	-0.324
-689.368	-102.241	-0.146	0.036
-688.354	91.553	-0.130	-0.149
-687.339	-200.000	-0.007	-0.313
-686.324	-200.000	-0.003	0.174
-685.310	161.059	0.059	-0.084
-684.295	-200.000	-0.036	0.280
-683.281	-200.000	0.023	-0.274
-682.266	-96.133	0.077	-0.021
-681.251	-114.295	0.141	-0.028
-680.237	37.371	-0.250	-0.226
-679.222	800.000	-0.029	-0.105
-678.208	259.153	-0.147	-0.258
-677.193	149.333	-0.123	-0.170
-676.178	-153.771	-0.316	0.022
-675.164	74.455	0.079	0.084
-674.149	-21.462	-0.094	0.058
-673.135	-6.800	0.180	-0.125
-672.120	-93.808	-0.280	0.079
-671.105	-100.716	0.232	0.058
-670.091	-94.498	-0.122	-0.034
-669.076	-83.278	-0.332	-0.109
-668.062	-89.675	0.165	0.049
-667.047	162.098	0.143	0.205
-666.032	-112.660	-0.175	0.035
-665.018	-113.746	0.242	-0.048
-664.003	-114.507	0.105	-0.021
-662.989	745.750	0.080	-0.220
-661.974	58.047	0.176	0.176
-660.959	-94.370	0.221	0.061
-659.945	800.000	0.040	0.127
-658.930	107.357	-0.154	-0.187
-657.916	-200.000	0.228	0.001
-656.901	63.531	0.060	-0.062
-655.886	13.710	0.125	0.099
-654.872	497.630	0.092	0.215
-653.857	-67.913	-0.255	-0.102
-652.843	645.290	-0.039	-0.102
-651.828	389.243	-0.068	0.144
-650.814	15.855	-0.324	-0.260
-649.799	104.746	-0.122	-0.146
-648.784	-53.501	-0.094	0.044
-647.770	800.000	-0.029	0.113
-646.755	454.780	0.100	-0.225
-645.741	8.809	0.121	-0.093
-644.726	-99.346	0.283	0.073
-643.711	148.729	-0.032	0.044
-642.697	146.454	0.123	-0.169
-641.682	-30.026	0.115	0.067
-640.668	308.288	0.118	-0.225
-639.653	-88.792	0.238	-0.072
-638.638	-200.000	-0.002	-0.180
-637.624	63.833	0.135	-0.138
-636.609	215.605	0.103	0.166
-635.595	-57.435	-0.102	-0.045
-634.580	-75.344	-0.306	0.111
-633.565	685.396	0.088	0.235
-632.551	-42.616	-0.189	0.098
-631.536	-96.046	-0.335	-0.091
-630.522	776.140	-0.054	0.151
-629.507	-5.005	-0.200	-0.140
-628.492	32.880	-0.285	-0.251
-627.478	133.997	-0.033	0.043
-626.463	-200.000	0.002	-0.139
-625.449	-174.793	-0.130	-0.004
-624.434	263.580	0.077	-0.137
-623.419	-34.892	-0.110	0.061
-622.405	-13.350	0.246	0.163
-621.390	138.569	-0.225	-0.300
-620.376	-137.632	-0.241	0.028
-619.361	226.082	-0.099	0.163
-618.346	-136.505	-0.129	-0.015
-617.332	-200.000	-0.005	-0.136
-616.317	-57.301	-0.191	0.085
-615.303	-103.709	-0.064	-0.015
-614.288	264.683	0.066	-0.118
-613.273	125.266	-0.022	-0.028
-612.259	398.415	-0.074	0.158
-611.244	800.000	-0.088	0.307
-610.230	-166.455	-0.138	0.006
-609.215	-200.000	-0.046	0.224
-608.201	-34.221	0.398	-0.222
-607.186	565.660	0.068	-0.167
-606.171	368.023	0.101	-0.209
-605.157	-65.193	0.060	0.025
-604.142	43.819	0.233	-0.217
-603.128	-28.654	-0.268	-0.157
-602.113	-160.904	0.342	-0.018
-601.098	800.000	0.104	-0.441
-600.084	-8.731	-0.199	0.136
-599.069	-5.309	-0.146	0.102
-598.055	251.894	-0.088	-0.153
-597.040	800.000	-0.136	-0.385
-596.025	195.184	-0.072	-0.112
-595.011	-170.538	0.126	-0.004
-593.996	-60.354	-0.207	0.090
-592.982	-200.000	0.035	-0.380
-591.967	800.000	-0.039	0.127
-590.952	171.668	-0.087	-0.127
-589.938	-10.102	0.149	0.101
-588.923	131.702	0.171	0.224
-587.909	-200.000	-0.043	0.284
-586.894	-200.000	-0.027	0.296
-585.879	-108.316	0.182	0.040
-584.865	192.100	0.063	0.096
-583.850	60.759	-0.129	0.130
-582.836	-63.527	0.236	0.099
-581.821	-35.023	-0.107	0.059
-580.806	-200.000	0.036	-0.222
-579.792	800.000	-0.029	-0.110
-578.777	8.000	0.123	0.094
-577.763	66.476	0.038	-0.039
-576.748	-81.067	0.113	-0.038
-575.733	-45.887	0.043	0.022
-574.719	-61.574	-0.195	-0.083
-573.704	186.724	-0.113	-0.172
-572.690	163.677	0.117	-0.167
-571.675	-200.000	0.000	0.050
-570.661	-200.000	-0.005	0.110
-569.646	-153.962	0.164	0.011
-568.631	-71.219	0.128	0.049
-567.617	-200.000	0.046	0.226
-566.602	-79.603	-0.254	0.087
-565.588	285.827	0.026	-0.048
-564.573	-14.245	-0.025	0.016
-563.558	-171.930	0.209	0.007
-562.544	36.292	-0.308	-0.275
-561.529	-200.000	0.076	-0.457
-560.515	-101.153	0.201	0.050
-559.500	-200.000	0.031	-0.397
-558.485	-200.000	-0.025	-0.140
-557.471	-100.457	0.206	-0.052
-556.456	144.214	0.061	-0.083
-555.442	195.006	0.035	0.054
-554.427	42.568	-0.171	0.158
-553.412	7.030	-0.175	0.132
-552.398	-32.498	-0.280	0.158
-551.383	800.000	-0.039	0.165
-550.369	310.707	-0.166	0.317
-549.354	-116.047	-0.114	-0.022
-548.339	800.000	0.056	0.169
-547.325	-200.000	0.004	-0.118
-546.310	-25.968	-0.107	0.064
-545.296	-68.071	0.031	0.012
-544.281	-143.401	-0.251	-0.024
-543.266	-200.000	-0.047	-0.284
-542.252	-66.744	-0.254	-0.102
-541.237	-200.000	-0.010	0.098
-540.223	-200.000	-0.053	-0.334
-539.208	-40.535	0.161	-0.085
-538.193	-31.713	-0.368	-0.209
-537.179	-62.566	0.441	-0.186
-536.164	-105.118	-0.211	0.049
-535.150	-28.700	0.126	0.074
-534.135	-188.654	-0.295	0.004
-533.121	-95.405	0.321	0.087
-532.106	106.704	0.135	0.162
-531.091	-44.030	0.145	-0.074
-530.077	-146.215	0.165	0.015
-529.062	-200.000	0.084	-0.401
-528.048	251.640	0.230	-0.398
-527.033	-37.525	0.061	-0.033
-526.018	-33.147	0.030	0.017
-525.004	49.482	-0.135	-0.129
-523.989	530.941	-0.049	-0.119
-522.975	-91.874	-0.306	0.088
-521.960	-165.360	0.266	0.012
-520.945	272.039	0.078	0.140
-519.931	-48.940	0.206	-0.100
-518.916	-200.000	-0.014	0.213
-517.902	800.000	0.064	0.219
-516.887	364.435	0.128	-0.260
-515.872	-27.056	-0.425	-0.251
-514.858	800.000	-0.074	-0.233
-513.843	386.970	-0.049	-0.103
-512.829	202.061	-0.062	0.096
-511.814	-33.063	-0.110	0.062
-510.799	13.826	0.117	-0.092
-509.785	30.194	-0.128	-0.111
-508.770	-12.912	-0.051	0.033
-507.756	-52.891	-0.266	0.124
-506.741	154.349	-0.145	0.202
-505.726	14.932	-0.330	0.262
-504.712	-24.107	-0.198	0.120
-503.697	-128.945	0.327	-0.046
-502.683	-161.896	-0.100	-0.005
-501.668	-200.000	-0.016	0.295
-500.653	-65.892	-0.391	-0.159
-499.639	-200.000	0.065	0.340
-498.624	-200.000	-0.082	0.386
-497.610	424.182	0.051	0.111
-496.595	535.877	-0.076	0.184
-495.581	83.039	0.050	-0.055
-494.566	-18.780	-0.101	-0.064
-493.551	800.000	0.038	0.119
-492.537	-200.000	0.034	0.249
-491.522	184.943	0.251	-0.377
-490.508	512.521	0.108	-0.255
-489.493	-64.378	0.387	-0.159
-488.478	274.364	-0.054	-0.096
-487.464	-97.830	0.113	-0.030
-486.449	75.023	-0.214	0.229
-485.435	98.722	-0.125	0.146
-484.420	-200.000	-0.019	-0.229
-483.405	-77.230	-0.144	0.051
-482.391	800.000	0.172	0.523
-481.376	-200.000	-0.017	0.281
-480.362	-76.127	-0.511	-0.183
-479.347	800.000	0.060	-0.210
-478.332	211.880	-0.094	-0.149
-477.318	-73.326	0.221	-0.082
-476.303	-26.437	0.240	-0.143
-475.289	49.252	-0.209	-0.199
-474.274	-70.553	-0.237	0.091
-473.259	800.000	0.035	-0.118
-472.245	-27.827	0.139	0.082
-471.230	-109.011	-0.214	0.046
-470.216	-81.654	-0.106	-0.035
-469.201	537.912	0.030	-0.071
-468.186	-129.764	0.232	0.032
-467.172	-66.139	0.099	0.040
-466.157	225.562	-0.161	0.264
-465.143	-200.000	0.015	0.112
-464.128	-200.000	-0.090	-0.445
-463.113	147.757	-0.170	-0.232
-462.099	26.625	0.080	0.068
-461.084	5.721	0.238	0.178
-460.070	37.873	0.042	0.038
-459.055	637.725	-0.058	-0.150
-458.040	13.896	-0.147	0.116
-457.026	-75.388	0.354	0.128
-456.011	-43.933	-0.347	0.176
-454.997	167.137	-0.127	0.183
-453.982	76.779	0.060	-0.064
-452.968	92.511	0.251	-0.286
-451.953	223.131	0.058	0.095
-450.938	-129.236	0.146	0.021
-449.924	764.372	0.053	0.146
-448.909	-200.000	-0.004	-0.158
-447.895	-84.699	-0.455	0.145
-446.880	247.839	0.138	0.236
-445.865	-164.716	-0.080	-0.004
-444.851	32.331	-0.068	0.059
-443.836	-72.992	-0.295	-0.110
-442.822	-49.737	-0.208	0.100
-441.807	6.472	-0.053	-0.040
-440.792	-183.563	0.459	0.008
-439.778	-200.000	-0.044	-0.200
-438.763	-0.774	-0.042	-0.030
-437.749	466.081	0.022	0.050
-436.734	161.270	0.112	0.158
-435.719	36.049	-0.252	0.224
-434.705	-9.526	0.243	0.164
-433.690	-75.789	-0.166	0.059
-432.676	-200.000	-0.047	0.274
-431.661	-130.966	0.162	-0.022
-430.646	-23.851	0.210	-0.127
-429.632	771.482	-0.095	0.261
-428.617	-200.000	-0.037	-0.307
-427.603	188.923	0.087	0.132
-426.588	82.992	-0.088	0.097
-425.573	90.691	-0.344	-0.390
-424.559	-173.508	-0.170	0.005
-423.544	-56.266	0.057	0.026
-422.530	269.601	-0.061	0.108
-421.515	16.842	0.116	0.093
-420.500	-95.207	0.221	0.060
-419.486	86.951	0.124	-0.138
-418.471	-72.763	0.204	0.076
-417.457	800.000	-0.099	-0.298
-416.442	-80.993	-0.169	-0.057
-415.428	-58.051	0.277	0.122
-414.413	-105.230	-0.442	-0.102
-413.398	800.000	-0.114	0.470
-412.384	79.612	-0.157	0.170
-411.369	-200.000	-0.006	0.261
-410.355	-15.266	0.348	0.224
-409.340	-200.000	0.012	-0.286
-408.325	24.137	0.390	-0.325
-407.311	-134.885	-0.120	-0.015
-406.296	90.791	-0.092	0.104
-405.282	-122.583	-0.207	0.034
-404.267	135.698	-0.073	0.096
-403.252	251.844	-0.090	-0.154
-402.238	179.633	-0.175	-0.259
-401.223	-54.313	-0.378	-0.173
-400.209	800.000	0.105	-0.392
-399.194	-27.200	0.192	0.113
-398.179	-107.833	0.129	0.028
-397.165	-200.000	0.014	-0.071
-396.150	-200.000	0.026	0.304
-395.136	58.780	0.202	-0.200
-394.121	364.265	0.160	-0.324
-393.106	-125.783	0.167	0.025
-392.092	800.000	-0.070	0.209
-391.077	-176.892	0.468	0.012
-390.063	-43.378	0.109	-0.055
-389.048	-152.864	-0.151	-0.011
-388.033	86.414	-0.151	0.167
-387.019	-62.525	-0.215	-0.090
-386.004	-25.056	-0.203	-0.122
-384.990	-41.233	0.154	0.080
-383.975	-82.764	-0.286	0.093
-382.960	340.106	0.176	0.347
-381.946	330.492	0.075	-0.145
-380.931	22.245	0.096	0.079
-379.917	-200.000	0.048	-0.287
-378.902	-59.942	-0.071	0.030
-377.888	-104.730	-0.253	-0.059
-376.873	47.076	0.231	-0.217
-375.858	115.801	0.042	-0.052
-374.844	-122.219	0.391	-0.064
-373.829	299.190	-0.136	0.252
-372.815	-130.584	-0.310	-0.042
-371.800	504.850	-0.184	-0.429
-370.785	116.552	-0.085	-0.105
-369.771	-126.694	0.302	0.045
-368.756	-200.000	-0.059	-0.370
-367.742	-68.688	-0.131	-0.051
-366.727	-200.000	-0.002	-0.099
-365.712	236.868	0.052	0.086
-364.698	258.540	-0.052	-0.091
-363.683	-97.774	-0.284	-0.074
-362.669	800.000	0.105	0.332
-361.654	117.181	0.066	-0.082
-360.639	-200.000	0.061	0.367
-359.625	212.510	-0.017	0.027
-358.610	-22.666	-0.407	-0.248
-357.596	-116.210	0.239	0.045
-356.581	-200.000	-0.311	0.001
-355.566	281.653	0.080	-0.144
-354.552	604.362	-0.017	0.043
-353.537	800.000	0.019	0.070
-352.523	800.000	-0.027	-0.102
-351.508	-117.610	-0.136	-0.025
-350.493	46.403	0.247	-0.230
-349.479	-16.814	-0.189	0.120
-348.464	-90.969	-0.205	-0.059
-347.450	800.000	-0.084	-0.319
-346.435	78.111	0.069	0.074
-345.420	-16.035	0.225	-0.144
-344.406	248.664	0.083	-0.141
-343.391	0.489	0.113	0.081
-342.377	-48.077	0.050	0.024
-341.362	-33.603	-0.114	-0.063
-340.348	-112.645	-0.405	-0.081
-339.333	-43.266	0.064	0.033
-338.318	-17.563	-0.357	0.226
-337.304	800.000	0.005	-0.014
-336.289	58.623	-0.146	-0.145
-335.275	800.000	0.094	-0.353
-334.260	-121.501	-0.208	-0.035
-333.245	-127.323	0.108	-0.016
-332.231	-83.963	-0.181	-0.058
-331.216	90.249	-0.132	-0.149
-330.202	-33.465	-0.260	0.145
-329.187	-134.331	0.412	0.051
-328.172	-130.562	0.023	-0.003
-327.158	-50.046	0.066	-0.031
-326.143	-200.000	0.048	0.277
-325.129	89.869	0.129	0.144
-324.114	-98.191	0.211	-0.055
-323.099	-182.316	-0.350	-0.007
-322.085	-200.000	-0.003	0.055
-321.070	-109.411	0.094	-0.020
-320.056	-200.000	0.011	-0.208
-319.041	161.448	0.070	-0.099
-318.026	738.574	0.134	0.362
-317.012	-200.000	-0.032	0.225
-315.997	62.581	0.066	-0.067
-314.983	800.000	-0.027	0.104
-313.968	-9.995	0.203	-0.136
-312.953	-200.000	0.020	0.126
-311.939	-123.287	-0.095	0.015
-310.924	180.184	0.152	-0.224
-309.910	-111.416	0.184	0.038
-308.895	-110.622	-0.097	0.020
-307.880	91.476	-0.094	0.107
-306.866	437.765	-0.149	0.327
-305.851	-200.000	0.014	0.129
-304.837	188.802	-0.080	-0.120
-303.822	800.000	0.116	0.410
-302.807	150.488	-0.203	0.277
-301.793	800.000	-0.014	0.057
-300.778	70.964	0.123	-0.128
-299.764	112.901	-0.137	0.167
-298.749	427.143	-0.057	-0.123
-297.735	-200.000	-0.044	-0.350
-296.720	-93.685	-0.219	0.061
-295.705	-41.812	0.424	-0.219
-294.691	-200.000	-0.040	-0.182
-293.676	-75.710	-0.107	-0.038
-292.662	-36.219	0.214	0.116
-291.647	-200.000	-0.025	0.168
-290.632	-101.100	-0.144	-0.035
-289.618	800.000	0.099	0.292
-288.603	59.193	0.297	0.294
-287.589	-104.445	-0.177	-0.041
-286.574	-200.000	0.005	-0.100
-285.559	-8.494	0.171	-0.115
-284.545	-97.679	-0.274	-0.071
-283.530	306.001	0.214	-0.400
-282.516	-187.108	0.214	0.003
-281.501	-60.728	-0.388	-0.165
-280.486	-200.000	0.013	0.206
-279.472	800.000	-0.092	-0.323
-278.457	-79.541	-0.168	-0.057
-277.443	107.657	-0.161	-0.193
-276.428	87.379	0.182	0.202
-275.413	-200.000	0.023	-0.107
-274.399	-5.751	0.055	0.038
-273.384	204.544	0.201	-0.313
-272.370	-126.677	-0.304	0.045
-271.355	-52.742	0.085	-0.039
-270.340	333.216	-0.127	-0.246
-269.326	-200.000	-0.006	0.049
-268.311	719.776	-0.126	-0.337
-267.297	-37.882	-0.282	0.150
-266.282	-143.502	0.531	0.051
-265.267	-153.402	0.139	0.010
-264.253	-110.505	0.190	-0.039
-263.238	276.326	0.153	0.273
-262.224	5.071	-0.157	0.116
-261.209	107.271	-0.220	-0.262
-260.195	265.297	0.195	-0.342
-259.180	-78.463	0.414	-0.142
-258.165	-9.057	0.217	-0.146
-257.151	374.609	0.112	0.229
-256.136	64.458	-0.353	0.357
-255.122	-31.954	-0.031	-0.018
-254.107	18.363	-0.087	0.070
-253.092	-57.926	-0.274	0.120
-252.078	-65.206	0.125	0.051
-251.063	128.348	0.209	0.267
-250.049	88.957	0.133	-0.148
-249.034	295.224	0.108	0.199
-248.019	-8.388	-0.103	-0.070
-247.005	-140.125	-0.195	0.021
-245.990	-200.000	0.072	0.423
-244.976	800.000	-0.089	-0.271
-243.961	-55.255	-0.246	0.111
-242.946	-139.874	0.224	0.024
-241.932	128.648	-0.033	0.042
-240.917	6.979	0.051	-0.038
-239.903	-43.730	0.228	0.115
-238.888	800.000	-0.025	-0.101
-237.873	-194.175	0.143	0.001
-236.859	709.285	0.080	-0.211
-235.844	86.944	-0.102	0.112
-234.830	-200.000	-0.036	-0.279
-233.815	800.000	-0.097	0.279
-232.800	-200.000	0.029	0.321
-231.786	-200.000	0.099	0.438
-230.771	-72.468	0.165	-0.061
-229.757	-61.705	0.241	0.101
-228.742	54.876	0.127	0.122
-227.727	-34.020	0.025	-0.014
-226.713	104.781	-0.077	-0.090
-225.698	33.437	-0.279	0.243
-224.684	-47.115	-0.093	-0.045
-223.669	800.000	-0.059	0.196
-222.655	73.657	-0.284	0.298
-221.640	-129.382	-0.040	0.006
-220.625	-200.000	-0.023	-0.112
-219.611	19.145	-0.180	-0.144
-218.596	-200.000	0.054	0.298
-217.582	32.342	0.306	-0.265
-216.567	-200.000	-0.076	0.446
-215.552	-160.925	-0.062	0.003
-214.538	-51.642	0.220	0.103
-213.523	-140.592	-0.090	0.009
-212.509	36.651	0.128	-0.113
-211.494	399.921	0.151	0.317
-210.479	-200.000	-0.005	-0.147
-209.465	-34.646	-0.465	-0.255
-208.450	-164.378	0.374	-0.017
-207.436	-104.716	0.115	-0.027
-206.421	800.000	-0.076	-0.228
-205.406	159.954	0.162	0.226
-204.392	-99.375	0.180	-0.045
-203.377	330.416	-0.016	-0.030
-202.363	-36.893	-0.104	0.056
-201.348	414.735	-0.141	-0.301
-200.333	168.596	0.024	-0.034
-199.319	151.588	-0.156	0.212
-198.304	277.235	0.063	0.112
-197.290	99.190	0.129	-0.149
-196.275	-19.832	0.106	0.065
-195.260	-121.169	0.134	0.023
-194.246	-200.000	-0.066	0.340
-193.231	68.258	-0.009	0.009
-192.217	-154.561	0.288	-0.019
-191.202	239.866	0.157	0.263
-190.187	-16.695	0.082	-0.052
-189.173	800.000	0.145	0.478
-188.158	800.000	-0.039	-0.154
-187.144	101.289	-0.178	-0.208
-186.129	-200.000	-0.038	-0.177
-185.114	1.718	0.227	-0.163
-184.100	299.542	-0.058	0.107
-183.085	-45.088	-0.275	0.137
-182.071	-200.000	-0.055	-0.267
-181.056	491.086	0.065	0.149
-180.042	147.511	0.035	0.047
-179.027	-70.667	0.341	-0.129
-178.012	-99.604	0.273	0.069
-176.998	-197.206	0.212	-0.001
-175.983	-200.000	-0.003	0.204
-174.969	-194.360	-0.182	0.001
-173.954	-71.680	0.280	0.105
-172.939	206.427	0.229	0.357
-171.925	800.000	0.048	-0.158
-170.910	269.418	-0.070	0.123
-169.896	800.000	0.061	-0.204
-168.881	-32.953	0.166	-0.092
-167.866	23.441	-0.153	0.126
-166.852	532.458	-0.072	0.170
-165.837	87.458	-0.102	0.113
-164.823	-200.000	-0.052	-0.230
-163.808	190.050	-0.041	0.062
-162.793	-200.000	0.020	0.185
-161.779	-125.630	0.386	-0.059
-160.764	-39.046	0.100	0.053
-159.750	800.000	0.104	0.360
-158.735	800.000	0.054	-0.230
-157.720	-175.904	0.181	0.005
-156.706	-200.000	0.004	-0.108
-155.691	427.579	0.057	0.123
-154.677	-200.000	-0.010	-0.135
-153.662	-200.000	0.042	0.384
-152.647	11.498	0.254	-0.195
-151.633	-200.000	-0.020	0.157
-150.618	-50.836	-0.188	0.089
-149.604	2.985	0.227	0.165
-148.589	-1.693	0.233	-0.164
-147.574	-147.198	0.236	0.020
-146.560	-200.000	0.099	0.476
-145.545	-112.632	-0.285	0.057
-144.531	432.884	0.023	0.049
-143.516	8.602	0.141	-0.106
-142.502	800.000	-0.020	0.056
-141.487	4.494	0.074	0.054
-140.472	-126.843	0.124	-0.018
-139.458	-200.000	0.023	-0.131
-138.443	800.000	-0.024	-0.103
-137.429	-177.954	-0.445	0.011
-136.414	-200.000	-0.028	0.137
-135.399	-166.563	0.191	0.008
-134.385	-127.374	0.299	0.043
-133.370	79.257	0.028	0.030
-132.356	-200.000	0.011	-0.146
-131.341	61.481	0.295	0.293
-130.326	-200.000	-0.014	0.227
-129.312	-150.085	0.265	0.021
-128.297	-137.770	-0.436	0.049
-127.283	-200.000	0.048	-0.255
-126.268	800.000	-0.038	-0.110
-125.253	-89.578	0.113	-0.033
-124.239	59.428	0.089	0.088
-123.224	110.968	0.044	0.053
-122.210	-71.056	-0.434	-0.163
-121.195	-11.543	0.175	0.115
