DTS Sentinel unit serial number:	SN413079Multiplexer serial number:	ORYXHardware model number:	OX4-SRSoftware version number:	ORYX F/W v4.00 Oryx Data Collector v3.7.2.0data status	okinstallation	princeton_trtdifferential loss correction	single-endedforward channel	channel 1reverse channel	N/Adate	2019/09/12time	19:46:34forward acquisition time	15.00reverse acquisition time	0.00gamma	496.2192k internal	0.2323k external	0.2323temperature offset calibration	1.0139default loss term (dB/km)	0.3790temperature slope calibration	1.0000multiplexer offset coefficient	1.0000multiplexer slope coefficient	1.0000fibre end	0.00T internal ref (°C)	32.00T ext. ref 1 (°C)	3.37T ext. ref 2 (°C)	26.58length (m)	temperature (°C)	Stokes	anti-Stokes-747.200	269.512	-0.379	0.671
-746.185	-200.000	-0.010	-0.266
-745.171	-119.028	-0.609	0.108
-744.156	25.597	-0.195	0.164
-743.142	-68.168	-0.774	0.304
-742.127	10.140	-0.799	0.613
-741.112	-28.897	0.140	-0.081
-740.098	369.205	-0.060	-0.122
-739.083	65.020	-0.337	0.344
-738.069	-200.000	-0.108	-0.739
-737.054	-200.000	0.034	0.600
-736.039	0.469	-0.285	0.206
-735.025	16.935	-0.328	-0.262
-734.010	-200.000	-0.091	-0.611
-732.996	-20.011	0.542	0.338
-731.981	800.000	-0.116	-0.500
-730.966	-127.749	-0.192	0.028
-729.952	160.442	0.092	-0.129
-728.937	-200.000	0.054	1.274
-727.923	-139.882	-0.944	-0.101
-726.908	232.793	-0.168	-0.279
-725.894	-70.826	0.457	-0.174
-724.879	57.313	-0.121	-0.119
-723.864	24.057	0.959	0.799
-722.850	-41.721	-0.277	-0.144
-721.835	-102.639	-0.635	-0.153
-720.821	-28.976	-0.279	-0.162
-719.806	-88.544	0.246	-0.074
-718.791	-200.000	0.064	0.743
-717.777	-42.346	0.789	-0.406
-716.762	-103.804	-0.637	-0.150
-715.748	113.076	-0.236	-0.289
-714.733	800.000	-0.149	-0.507
-713.718	290.259	-0.370	0.679
-712.704	205.354	0.403	-0.631
-711.689	2.668	-0.229	0.168
-710.675	272.538	-0.206	-0.366
-709.660	800.000	0.042	0.148
-708.645	225.948	-0.145	0.237
-707.631	-10.252	-0.362	-0.242
-706.616	45.760	0.273	0.255
-705.602	-200.000	0.015	-0.535
-704.587	-139.055	0.965	0.105
-703.572	-100.947	-0.459	0.114
-702.558	-153.429	0.630	0.044
-701.543	-89.459	-0.339	0.101
-700.529	800.000	-0.028	-0.119
-699.514	139.054	0.742	0.983
-698.499	-47.056	-0.872	0.429
-697.485	22.618	-0.696	-0.574
-696.470	-200.000	-0.059	-0.337
-695.456	-146.172	0.543	-0.048
-694.441	-133.408	-0.655	0.083
-693.426	800.000	-0.182	-0.695
-692.412	-200.000	0.018	-0.526
-691.397	-159.252	-0.586	-0.033
-690.383	-200.000	-0.096	-0.657
-689.368	-23.189	0.180	-0.109
-688.354	16.607	-0.754	0.601
-687.339	-66.598	1.161	0.464
-686.324	621.564	-0.221	0.559
-685.310	-200.000	0.115	-0.748
-684.295	-48.151	-0.399	-0.194
-683.281	85.988	0.666	0.739
-682.266	75.558	-0.245	0.261
-681.251	205.002	0.076	0.119
-680.237	43.522	0.388	0.357
-679.222	588.913	-0.330	-0.819
-678.208	-200.000	-0.043	0.523
-677.193	363.094	-0.073	-0.148
-676.178	55.207	0.342	-0.333
-675.164	-134.264	-1.017	0.126
-674.149	-149.505	0.620	-0.049
-673.135	-94.994	0.191	0.052
-672.120	-77.783	0.340	0.118
-671.105	191.054	0.241	-0.366
-670.091	148.767	0.215	0.292
-669.076	372.773	0.028	0.057
-668.062	-200.000	0.143	1.426
-667.047	-26.963	-0.162	0.096
-666.032	352.879	0.051	-0.101
-665.018	458.684	0.205	-0.460
-664.003	-60.400	0.681	-0.292
-662.989	80.835	0.469	-0.510
-661.974	800.000	0.144	0.507
-660.959	-75.035	-0.474	-0.171
-659.945	-200.000	0.080	0.408
-658.930	31.732	0.619	-0.536
-657.916	-73.243	0.449	-0.165
-656.901	-70.112	-0.058	-0.022
-655.886	-82.681	-0.438	0.143
-654.872	144.549	-0.245	-0.329
-653.857	-200.000	0.036	0.458
-652.843	452.158	-0.192	-0.427
-651.828	-200.000	0.074	-0.412
-650.814	-89.985	0.870	0.256
-649.799	-160.976	-0.126	-0.007
-648.784	-104.638	0.147	-0.034
-647.770	490.713	-0.193	-0.445
-646.755	80.927	0.325	-0.353
-645.741	-92.443	-0.284	0.080
-644.726	-200.000	0.102	-0.475
-643.711	-200.000	-0.079	-0.553
-642.697	-200.000	0.032	0.497
-641.682	800.000	-0.246	-0.822
-640.668	-29.421	0.564	-0.325
-639.653	408.709	0.028	0.059
-638.638	-5.228	0.567	0.392
-637.624	21.676	-0.274	0.224
-636.609	-92.114	-0.365	-0.104
-635.595	3.137	-0.144	0.106
-634.580	93.862	-0.345	0.394
-633.565	-200.000	-0.203	1.049
-632.551	-200.000	-0.035	-0.704
-631.536	42.133	0.422	0.386
-630.522	-200.000	-0.053	-0.282
-629.507	4.032	-0.471	0.346
-628.492	-200.000	-0.170	-0.774
-627.478	-200.000	0.031	-0.377
-626.463	-43.587	0.616	-0.312
-625.449	299.872	-0.035	0.064
-624.434	-81.290	-0.643	-0.213
-623.419	69.224	-0.667	-0.689
-622.405	-200.000	-0.048	0.956
-621.390	-146.586	-0.216	0.019
-620.376	-45.187	-0.077	-0.038
-619.361	233.198	-0.086	-0.142
-618.346	339.878	-0.075	-0.146
-617.332	13.361	0.398	0.310
-616.317	229.055	-0.170	-0.279
-615.303	-200.000	-0.033	-0.952
-614.288	-127.789	-0.699	-0.101
-613.273	800.000	-0.201	0.627
-612.259	-200.000	-0.084	0.448
-611.244	-146.022	0.232	0.021
-610.230	-98.914	0.515	-0.131
-609.215	-70.261	0.871	-0.332
-608.201	35.400	-0.222	0.196
-607.186	-200.000	0.085	-0.441
-606.171	519.398	0.472	-1.110
-605.157	35.117	-0.171	0.150
-604.142	-100.052	-0.537	0.134
-603.128	-76.604	-0.570	-0.201
-602.113	94.540	-0.432	0.493
-601.098	474.774	0.213	-0.483
-600.084	184.157	0.310	-0.461
-599.069	-42.650	-0.956	0.489
-598.055	-70.318	0.320	0.122
-597.040	-122.556	0.749	-0.122
-596.025	-184.506	0.963	0.016
-595.011	-169.122	0.470	0.018
-593.996	30.282	0.693	-0.594
-592.982	-42.427	-0.554	-0.284
-591.967	-200.000	0.022	-0.414
-590.952	-37.742	-1.239	-0.662
-589.938	109.658	-0.568	-0.684
-588.923	-200.000	0.067	-0.874
-587.909	40.574	0.529	-0.478
-586.894	79.519	0.604	0.650
-585.879	31.503	0.506	0.436
-584.865	-143.001	-0.296	0.029
-583.850	-188.809	-0.434	0.005
-582.836	21.581	-0.310	0.253
-581.821	-200.000	0.033	-0.584
-580.806	-35.866	0.277	0.151
-579.792	800.000	0.122	0.399
-578.777	563.033	0.177	-0.430
-577.763	-200.000	0.020	-0.969
-576.748	-167.940	0.594	0.023
-575.733	-200.000	0.055	0.487
-574.719	-200.000	0.073	-0.903
-573.704	-66.604	0.313	0.124
-572.690	800.000	-0.116	0.354
-571.675	95.671	0.478	0.548
-570.661	319.169	0.180	-0.342
-569.646	-78.856	-0.244	-0.083
-568.631	69.543	-0.494	-0.510
-567.617	243.485	0.541	0.910
-566.602	800.000	-0.015	0.059
-565.588	-85.679	-0.291	-0.091
-564.573	-106.190	0.135	-0.030
-563.558	-200.000	0.084	0.526
-562.544	-165.712	0.303	-0.013
-561.529	-44.475	-1.041	-0.522
-560.515	288.484	-0.227	0.412
-559.500	16.694	0.600	-0.476
-558.485	-56.942	0.193	0.086
-557.471	-200.000	0.105	-0.544
-556.456	107.592	0.378	0.452
-555.442	-151.218	0.331	-0.025
-554.427	1.383	0.201	-0.145
-553.412	800.000	-0.193	0.649
-552.398	800.000	-0.112	0.345
-551.383	21.938	0.777	-0.635
-550.369	-47.030	-0.200	-0.098
-549.354	-52.041	0.277	-0.129
-548.339	800.000	0.284	-0.812
-547.325	628.572	-0.227	-0.574
-546.310	-46.053	-0.659	-0.326
-545.296	111.090	-0.390	-0.471
-544.281	-167.421	-0.391	-0.016
-543.266	-28.658	0.067	-0.039
-542.252	-200.000	0.077	0.492
-541.237	-65.764	-0.546	-0.219
-540.223	-200.000	0.059	0.505
-539.208	-200.000	0.069	0.351
-538.193	152.383	-0.362	-0.495
-537.179	-63.324	0.399	-0.164
-536.164	-69.108	-0.553	0.213
-535.150	-11.153	-0.803	0.530
-534.135	329.713	0.446	-0.859
-533.121	-187.757	-0.897	0.012
-532.106	699.124	-0.092	-0.243
-531.091	-36.715	0.286	-0.154
-530.077	-139.505	0.111	-0.012
-529.062	-80.109	0.691	0.232
-528.048	-130.715	-0.416	0.056
-527.033	-200.000	0.016	-0.434
-526.018	-33.082	-0.395	-0.219
-525.004	341.809	0.218	-0.428
-523.989	-0.667	0.423	0.300
-522.975	-137.531	-0.854	0.097
-521.960	-154.474	0.884	-0.059
-520.945	-200.000	-0.117	-0.611
-519.931	800.000	-0.152	-0.517
-518.916	80.635	0.340	-0.366
-517.902	238.446	-0.255	-0.423
-516.887	-59.743	-0.153	-0.066
-515.872	-93.119	-0.468	0.130
-514.858	58.612	-0.144	-0.141
-513.843	-200.000	-0.207	-0.960
-512.829	800.000	0.098	-0.305
-511.814	92.186	0.378	0.427
-510.799	121.811	0.417	0.520
-509.785	-200.000	-0.007	0.231
-508.770	446.213	0.273	-0.600
-507.756	101.101	0.277	0.322
-506.741	800.000	0.193	0.648
-505.726	-95.985	0.126	0.034
-504.712	-19.658	0.764	-0.473
-503.697	-131.349	-0.473	0.063
-502.683	-116.295	-0.667	-0.124
-501.668	-200.000	-0.001	0.426
-500.653	124.691	-0.546	0.687
-499.639	573.833	-0.266	0.649
-498.624	-140.768	-0.519	0.054
-497.610	-64.561	-0.108	0.044
-496.595	235.831	0.304	-0.503
-495.581	167.038	-0.253	-0.358
-494.566	-1.590	-0.424	0.299
-493.551	-44.409	-0.895	0.448
-492.537	-125.446	-1.026	0.156
-491.522	-36.517	0.448	0.241
-490.508	800.000	0.123	0.393
-489.493	-9.079	-0.238	0.159
-488.478	-125.346	0.563	0.086
-487.464	419.891	0.118	-0.254
-486.449	800.000	0.096	-0.269
-485.435	-200.000	0.268	1.289
-484.420	-62.028	0.619	0.259
-483.405	797.933	-0.059	-0.164
-482.391	800.000	-0.117	0.415
-481.376	-200.000	0.010	-0.692
-480.362	4.156	0.601	0.440
-479.347	97.053	-0.116	-0.133
-478.332	661.283	-0.083	-0.213
-477.318	-15.137	0.211	0.135
-476.303	-173.070	0.317	-0.010
-475.289	39.799	-0.313	0.280
-474.274	85.379	-0.356	0.391
-473.259	-113.920	0.875	-0.170
-472.245	-5.386	-0.589	-0.404
-471.230	746.946	-0.123	-0.331
-470.216	56.003	-0.370	0.358
-469.201	-90.050	-1.167	0.340
-468.186	-113.966	-0.527	0.102
-467.172	-200.000	0.125	0.606
-466.157	-31.074	0.165	-0.093
-465.143	-78.046	0.967	0.333
-464.128	-38.303	-0.586	-0.310
-463.113	-40.765	-0.268	0.139
-462.099	-165.095	-0.172	-0.008
-461.084	-177.008	-0.575	0.014
-460.070	-200.000	-0.051	0.853
-459.055	-200.000	0.108	-0.498
-458.040	66.910	-0.280	-0.285
-457.026	-30.251	0.793	0.450
-456.011	-200.000	0.183	1.129
-454.997	-184.879	0.918	0.015
-453.982	800.000	-0.179	-0.551
-452.968	-117.416	0.580	-0.105
-451.953	328.689	0.099	-0.190
-450.938	-95.358	0.215	0.058
-449.924	-200.000	0.014	-0.124
-448.909	-1.080	0.324	-0.229
-447.895	-50.068	0.366	0.173
-446.880	-37.834	-0.381	0.202
-445.865	800.000	0.214	0.759
-444.851	-119.714	0.411	-0.071
-443.836	-69.600	-0.215	0.082
-442.822	-200.000	-0.191	-1.072
-441.807	-138.447	-0.172	0.019
-440.792	222.685	-0.229	0.368
-439.778	-41.145	-0.746	0.384
-438.763	-83.527	-0.626	0.200
-437.749	31.897	-0.477	-0.410
-436.734	-22.607	-0.363	-0.219
-435.719	148.025	0.571	0.768
-434.705	148.412	-0.098	0.133
-433.690	-63.896	-0.762	-0.311
-432.676	800.000	-0.219	0.632
-431.661	441.908	0.375	0.820
-430.646	-38.802	0.657	-0.346
-429.632	24.149	-0.199	-0.164
-428.617	5.148	-0.707	-0.520
-427.603	-92.464	0.411	0.115
-426.588	251.646	0.295	-0.501
-425.573	-123.787	0.357	-0.056
-424.559	800.000	-0.161	-0.567
-423.544	63.791	0.539	-0.540
-422.530	-65.682	0.978	-0.391
-421.515	387.547	-0.390	0.805
-420.500	800.000	0.213	0.707
-419.486	-200.000	-0.003	0.776
-418.471	315.134	-0.325	-0.610
-417.457	800.000	0.340	1.471
-416.442	58.068	0.529	0.517
-415.428	-200.000	-0.035	0.460
-414.413	-106.800	-0.496	-0.110
-413.398	-96.485	0.590	-0.155
-412.384	185.467	0.399	0.591
-411.369	333.330	-0.130	-0.251
-410.355	-9.941	-0.749	0.496
-409.340	-200.000	-0.090	0.433
-408.325	800.000	-0.192	0.635
-407.311	-200.000	-0.028	-0.185
-406.296	-49.094	-0.179	-0.085
-405.282	88.866	-0.499	0.554
-404.267	159.396	0.674	0.935
-403.252	-95.808	0.860	0.229
-402.238	-155.215	-0.474	-0.031
-401.223	-200.000	-0.274	-1.274
-400.209	-40.035	0.255	-0.133
-399.194	-200.000	0.032	-0.582
-398.179	800.000	0.170	0.619
-397.165	32.151	-0.696	-0.598
-396.150	-200.000	0.042	-0.211
-395.136	-93.534	-0.847	0.233
-394.121	35.557	-0.838	0.733
-393.106	157.100	-0.259	0.356
-392.092	131.135	0.448	-0.573
-391.077	800.000	-0.105	-0.297
-390.063	-150.043	0.522	0.040
-389.048	-80.185	-0.297	0.099
-388.033	778.417	0.170	0.462
-387.019	394.218	-0.211	-0.438
-386.004	100.507	0.128	-0.148
-384.990	11.271	0.528	0.403
-383.975	76.648	-0.008	-0.008
-382.960	-31.870	-0.647	-0.361
-381.946	38.523	-0.355	-0.316
-380.931	-164.496	0.957	-0.043
-379.917	-200.000	0.070	-0.649
-378.902	-50.093	0.475	-0.224
-377.888	800.000	0.267	-0.814
-376.873	-86.444	0.373	0.114
-375.858	-31.001	-0.320	-0.180
-374.844	117.610	-0.444	0.545
-373.829	3.320	0.472	0.342
-372.815	560.276	0.206	0.495
-371.800	-108.810	-0.647	0.138
-370.785	800.000	-0.124	0.350
-369.771	105.369	0.387	-0.454
-368.756	-92.381	-0.690	0.193
-367.742	-74.450	-0.180	-0.065
-366.727	-126.600	0.345	0.051
-365.712	166.247	0.242	-0.341
-364.698	-159.398	-0.313	0.017
-363.683	-21.485	0.462	-0.280
-362.669	-132.943	0.838	0.106
-361.654	239.648	-0.379	0.627
-360.639	-189.631	-0.871	-0.010
-359.625	-143.138	0.741	0.071
-358.610	-5.887	-0.528	-0.360
-357.596	-200.000	-0.018	-0.307
-356.581	-3.508	-0.534	-0.370
-355.566	-24.198	-0.424	-0.252
-354.552	63.710	0.206	0.206
-353.537	514.845	0.331	-0.768
-352.523	800.000	0.120	-0.399
-351.508	-200.000	-0.042	-0.629
-350.493	155.616	0.256	0.350
-349.479	-29.796	-0.466	-0.264
-348.464	-200.000	-0.004	-0.475
-347.450	-143.148	-0.350	0.034
-346.435	-64.419	0.394	0.159
-345.420	-111.690	0.424	-0.085
-344.406	66.391	-0.424	0.428
-343.391	-118.921	-0.467	-0.081
-342.377	95.732	0.420	-0.477
-341.362	212.515	0.444	-0.696
-340.348	-200.000	-0.934	-0.003
-339.333	-96.194	-0.666	-0.176
-338.318	800.000	0.300	0.914
-337.304	-48.483	-0.257	0.123
-336.289	80.011	-0.359	0.383
-335.275	-195.376	-1.101	-0.008
-334.260	-111.721	0.990	-0.199
-333.245	800.000	0.256	0.750
-332.231	70.725	0.051	0.053
-331.216	71.271	0.514	0.530
-330.202	-62.540	-0.356	-0.147
-329.187	800.000	0.075	0.301
-328.172	102.069	-0.232	0.269
-327.158	-85.211	0.559	-0.174
-326.143	-8.256	-0.278	0.186
-325.129	-70.266	0.558	-0.211
-324.114	-200.000	0.001	0.625
-323.099	-32.590	-1.052	0.582
-322.085	-70.123	-0.573	0.217
-321.070	88.196	-0.381	-0.420
-320.056	-85.547	-0.752	-0.232
-319.041	-200.000	-0.033	0.213
-318.026	-200.000	-0.003	-0.363
-317.012	42.524	-0.329	0.297
-315.997	-92.424	0.571	-0.159
-314.983	588.418	-0.140	-0.343
-313.968	-200.000	-0.145	-1.029
-312.953	150.005	0.250	-0.337
-311.939	-200.000	0.020	-0.181
-310.924	-200.000	0.026	0.784
-309.910	96.797	-0.448	0.509
-308.895	138.579	0.461	-0.601
-307.880	-88.132	-0.482	0.143
-306.866	333.017	-0.298	0.573
-305.851	-200.000	-0.123	0.562
-304.837	800.000	0.102	0.348
-303.822	-89.775	-0.215	0.062
-302.807	-61.010	0.445	0.187
-301.793	-96.703	0.524	-0.137
-300.778	110.048	-1.079	1.285
-299.764	-200.000	0.072	0.461
-298.749	-200.000	-0.045	-0.368
-297.735	-200.000	0.006	0.031
-296.720	116.106	-0.117	-0.142
-295.705	-130.408	-0.165	-0.022
-294.691	198.827	0.170	0.258
-293.676	-130.892	0.294	0.039
-292.662	-200.000	0.145	0.812
-291.647	-200.000	-0.036	0.569
-290.632	-200.000	-0.006	0.262
-289.618	218.603	0.186	-0.295
-288.603	-170.664	0.832	-0.029
-287.589	382.214	0.042	0.087
-286.574	-79.166	0.615	-0.207
-285.559	28.262	0.817	0.685
-284.545	668.156	-0.089	-0.229
-283.530	-85.036	0.364	-0.113
-282.516	-79.548	0.829	0.278
-281.501	-83.973	0.653	-0.206
-280.486	160.329	0.250	0.346
-279.472	-30.117	-0.247	-0.139
-278.457	-39.188	-0.214	-0.111
-277.443	-200.000	0.170	-0.764
-276.428	127.510	-0.306	0.385
-275.413	800.000	0.246	0.868
-274.399	90.877	-0.584	-0.649
-273.384	47.560	0.493	0.456
-272.370	23.644	-0.500	0.408
-271.355	-84.765	-0.473	-0.148
-270.340	269.538	-0.149	0.259
-269.326	-49.009	-0.798	0.379
-268.311	-88.457	1.150	-0.340
-267.297	137.399	0.676	-0.877
-266.282	411.752	0.329	0.692
-265.267	262.447	-0.116	0.200
-264.253	500.184	0.252	-0.576
-263.238	147.083	-0.326	-0.434
-262.224	-109.596	0.164	0.034
-261.209	40.443	0.188	0.168
-260.195	-200.000	-0.016	-0.753
-259.180	-200.000	0.007	0.156
-258.165	561.011	-0.219	-0.525
-257.151	-200.000	-0.221	-1.158
-256.136	-116.844	0.940	-0.171
-255.122	-21.748	-0.217	0.131
-254.107	71.182	-0.611	-0.627
-253.092	-3.619	1.017	-0.700
-252.078	749.927	-0.091	0.242
-251.063	108.434	0.333	-0.394
-250.049	-155.880	-0.421	-0.027
-249.034	122.303	0.849	-1.050
-248.019	-102.162	0.469	0.112
-247.005	46.325	0.404	0.371
-245.990	110.373	0.485	0.577
-244.976	-140.942	-0.874	0.089
-243.961	-11.608	0.532	0.346
-242.946	84.338	0.384	-0.416
-241.932	-79.776	0.186	-0.062
-240.917	-200.000	0.058	-0.556
-239.903	-200.000	0.011	0.199
-238.888	221.743	0.454	-0.722
-237.873	-185.210	-0.263	0.004
-236.859	245.258	-0.315	0.525
-235.844	800.000	0.094	-0.327
-234.830	667.867	0.200	-0.512
-233.815	-150.122	-0.728	0.056
-232.800	-0.909	0.795	0.557
-231.786	-25.106	-0.269	0.158
-230.771	57.658	0.553	0.535
-229.757	800.000	0.293	0.809
-228.742	72.748	0.426	0.440
-227.727	800.000	-0.184	0.561
-226.713	561.517	0.322	-0.770
-225.698	69.501	0.271	0.276
-224.684	236.996	-0.145	-0.238
-223.669	-200.000	-0.049	0.625
-222.655	-2.251	0.356	-0.247
-221.640	-104.846	0.706	-0.160
-220.625	-200.000	-0.051	0.402
-219.611	-200.000	0.001	0.063
-218.596	-135.263	0.108	-0.013
-217.582	-200.000	0.006	0.224
-216.567	319.307	-0.144	0.271
-215.552	-128.604	0.269	-0.038
-214.538	800.000	-0.160	0.587
-213.523	26.509	0.674	-0.558
-212.509	-92.034	0.356	0.100
-211.494	-86.744	0.218	-0.066
-210.479	86.313	-0.480	0.523
-209.465	204.612	-0.439	-0.673
-208.450	-65.379	0.424	0.169
-207.436	88.573	-0.177	-0.194
-206.421	246.455	0.077	0.128
-205.406	-200.000	0.054	0.853
-204.392	-178.634	-0.646	0.015
-203.377	102.774	-0.094	-0.108
-202.363	31.815	0.585	0.498
-201.348	181.168	-0.118	0.171
-200.333	-152.189	-0.314	-0.022
-199.319	7.262	-0.136	-0.100
-198.304	53.867	-0.730	0.693
-197.290	-60.426	-0.593	-0.249
-196.275	21.019	-0.576	-0.461
-195.260	-7.190	-0.357	-0.239
-194.246	-6.918	-0.404	0.271
-193.231	-200.000	0.078	0.345
-192.217	462.194	0.236	-0.520
-191.202	-91.654	-0.243	0.068
-190.187	310.348	0.084	-0.155
-189.173	189.369	0.161	0.239
-188.158	-200.000	-0.010	0.140
-187.144	800.000	0.056	-0.158
-186.129	-200.000	-0.176	0.841
-185.114	-7.222	-0.232	-0.156
-184.100	800.000	-0.185	-0.537
-183.085	800.000	0.210	0.835
-182.071	-35.905	0.729	-0.389
-181.056	2.467	0.674	0.482
-180.042	-200.000	0.022	-0.310
-179.027	-200.000	0.032	0.166
-178.012	-200.000	-0.091	0.407
-176.998	-200.000	0.020	-0.310
-175.983	107.144	0.283	0.332
-174.969	-58.138	-0.438	-0.189
-173.954	-91.883	0.142	0.040
-172.939	609.128	0.443	1.092
-171.925	-13.595	-0.519	-0.332
-170.910	-200.000	-0.018	-0.541
-169.896	-56.316	-0.198	0.087
-168.881	203.183	-0.050	0.076
-167.866	102.464	0.273	0.315
-166.852	37.227	0.122	0.107
-165.837	195.676	-0.524	-0.786
-164.823	648.516	0.266	-0.671
-163.808	31.605	-0.637	-0.541
-162.793	-200.000	0.018	0.417
-161.779	-200.000	-0.064	0.385
-160.764	-34.157	-0.478	0.259
-159.750	-200.000	-0.044	0.883
-158.735	-200.000	-0.202	-0.958
-157.720	800.000	0.239	-0.809
-156.706	33.796	0.040	0.035
-155.691	364.557	0.075	0.148
-154.677	6.698	0.197	-0.144
-153.662	-200.000	-0.036	-0.159
-152.647	-200.000	0.035	-0.307
-151.633	-46.894	-0.370	-0.178
-150.618	26.728	-0.339	-0.280
-149.604	160.491	-0.252	0.346
-148.589	-76.176	0.381	-0.132
-147.574	517.256	-0.157	0.362
-146.560	-200.000	0.002	0.447
-145.545	90.698	0.702	-0.776
-144.531	362.549	-0.049	0.097
-143.516	-200.000	0.058	0.565
-142.502	-122.951	0.607	0.096
-141.487	-165.489	0.276	0.012
-140.472	389.919	-0.349	0.715
-139.458	-18.840	0.166	-0.102
-138.443	-200.000	-0.089	0.713
-137.429	373.907	0.369	-0.742
-136.414	800.000	0.183	-0.782
-135.399	122.685	0.222	-0.274
-134.385	26.205	0.292	0.241
-133.370	738.577	-0.084	0.223
-132.356	800.000	-0.220	0.679
-131.341	-35.743	-0.908	0.485
-130.326	-99.787	0.187	0.046
-129.312	-62.998	0.695	-0.283
-128.297	256.745	-0.301	-0.510
-127.283	-82.162	-0.515	0.165
-126.268	-200.000	-0.028	-0.909
-125.253	41.679	-0.275	0.245
-124.239	-77.619	0.787	-0.269
-123.224	98.056	0.423	0.480
-122.210	-16.982	-0.364	0.227
-121.195	-115.243	0.276	-0.052
