DTS Sentinel unit serial number:	SN413079Multiplexer serial number:	ORYXHardware model number:	OX4-SRSoftware version number:	ORYX F/W v4.00 Oryx Data Collector v3.7.2.0data status	okinstallation	princeton_trtdifferential loss correction	single-endedforward channel	channel 1reverse channel	N/Adate	2019/09/12time	05:40:11forward acquisition time	60.00reverse acquisition time	0.00gamma	496.2192k internal	0.2321k external	0.2321temperature offset calibration	1.0046default loss term (dB/km)	0.3790temperature slope calibration	1.0000multiplexer offset coefficient	1.0000multiplexer slope coefficient	1.0000fibre end	0.00T internal ref (°C)	32.00T ext. ref 1 (°C)	1.61T ext. ref 2 (°C)	27.55length (m)	temperature (°C)	Stokes	anti-Stokes-747.200	-200.000	0.029	0.249
-746.185	-48.165	0.081	0.039
-745.171	436.153	-0.093	-0.205
-744.156	-66.882	-0.315	0.126
-743.142	479.375	-0.070	-0.161
-742.127	-200.000	-0.014	0.337
-741.112	-187.655	0.521	0.007
-740.098	-200.000	-0.039	0.383
-739.083	-200.000	0.030	-0.259
-738.069	2.132	-0.246	0.180
-737.054	24.758	-0.126	0.106
-736.039	-100.760	-0.174	0.043
-735.025	90.487	0.149	-0.169
-734.010	-145.151	-0.359	0.033
-732.996	800.000	-0.100	-0.421
-731.981	-90.319	-0.133	-0.039
-730.966	-112.906	0.148	-0.030
-729.952	-157.998	-0.440	-0.026
-728.937	800.000	0.050	-0.179
-727.923	-114.398	-0.205	0.040
-726.908	-81.632	-0.175	-0.058
-725.894	-200.000	-0.008	0.089
-724.879	-200.000	-0.039	-0.250
-723.864	-54.262	0.448	-0.205
-722.850	-99.050	-0.188	0.048
-721.835	-75.053	-0.349	0.126
-720.821	-200.000	0.040	0.363
-719.806	-90.561	0.060	-0.018
-718.791	354.208	-0.059	-0.119
-717.777	-118.975	-0.135	0.024
-716.762	-200.000	0.006	0.187
-715.748	-89.939	-0.245	0.072
-714.733	800.000	-0.082	-0.239
-713.718	23.877	0.207	-0.173
-712.704	-105.470	-0.061	0.014
-711.689	-153.206	-0.192	-0.014
-710.675	-146.551	0.219	-0.019
-709.660	24.006	-0.137	0.114
-708.645	18.493	-0.156	-0.126
-707.631	-200.000	-0.011	-0.187
-706.616	24.862	0.233	0.195
-705.602	-127.490	0.187	-0.027
-704.587	222.445	-0.125	0.204
-703.572	43.682	-0.291	-0.269
-702.558	-189.037	-0.341	0.004
-701.543	800.000	0.028	0.097
-700.529	657.955	0.036	-0.095
-699.514	106.696	-0.105	-0.125
-698.499	-13.617	-0.057	-0.037
-697.485	-200.000	-0.007	-0.200
-696.470	109.938	0.142	-0.172
-695.456	131.843	-0.114	0.148
-694.441	47.698	0.096	0.090
-693.426	169.050	-0.094	0.136
-692.412	-186.847	0.378	0.005
-691.397	97.794	-0.135	-0.156
-690.383	322.402	-0.161	-0.309
-689.368	-111.514	-0.102	-0.021
-688.354	219.541	-0.044	-0.071
-687.339	319.562	0.045	-0.085
-686.324	15.700	0.205	-0.163
-685.310	-200.000	-0.010	-0.096
-684.295	-61.833	-0.292	-0.123
-683.281	13.161	-0.120	0.093
-682.266	800.000	0.075	-0.222
-681.251	40.779	-0.274	0.250
-680.237	40.631	-0.191	-0.173
-679.222	-28.772	0.096	-0.055
-678.208	-60.468	-0.199	0.085
-677.193	-43.359	-0.117	0.060
-676.178	-200.000	0.026	0.124
-675.164	-6.205	0.121	0.084
-674.149	-35.814	0.092	0.050
-673.135	-82.821	-0.090	0.029
-672.120	-124.444	0.239	0.038
-671.105	237.416	-0.131	-0.218
-670.091	26.732	-0.206	-0.174
-669.076	-33.535	0.098	-0.055
-668.062	800.000	0.129	-0.499
-667.047	22.224	-0.197	0.162
-666.032	71.464	-0.340	0.355
-665.018	-74.457	0.188	-0.068
-664.003	60.466	0.084	-0.084
-662.989	-86.559	-0.276	0.085
-661.974	207.166	-0.015	-0.023
-660.959	-10.010	-0.213	-0.142
-659.945	17.225	0.047	0.038
-658.930	767.546	-0.046	0.127
-657.916	800.000	-0.072	-0.231
-656.901	-138.022	0.222	0.025
-655.886	-200.000	0.079	0.411
-654.872	25.660	-0.242	0.203
-653.857	21.215	0.194	-0.158
-652.843	-28.364	-0.307	-0.178
-651.828	90.451	0.105	-0.118
-650.814	800.000	-0.062	0.233
-649.799	-200.000	0.008	0.250
-648.784	-39.022	-0.326	-0.173
-647.770	725.765	0.035	0.095
-646.755	-41.242	-0.194	-0.101
-645.741	310.190	-0.062	-0.118
-644.726	-199.523	-0.279	0.001
-643.711	-103.510	-0.246	0.058
-642.697	75.674	0.050	-0.054
-641.682	281.925	-0.073	-0.132
-640.668	154.121	0.131	-0.180
-639.653	-154.426	-0.278	-0.019
-638.638	468.705	0.104	-0.235
-637.624	-124.837	-0.339	-0.053
-636.609	37.887	-0.232	0.207
-635.595	150.162	0.211	0.288
-634.580	160.826	0.095	0.134
-633.565	1.872	0.227	-0.164
-632.551	-49.271	0.139	-0.067
-631.536	169.497	0.077	0.110
-630.522	-118.032	-0.394	0.071
-629.507	395.463	-0.145	-0.304
-628.492	-34.270	0.102	-0.056
-627.478	-200.000	0.016	-0.203
-626.463	-42.165	-0.166	-0.085
-625.449	800.000	0.049	-0.196
-624.434	-147.074	0.405	0.035
-623.419	-40.876	0.075	-0.039
-622.405	-90.612	-0.187	-0.054
-621.390	-118.644	-0.222	-0.039
-620.376	-200.000	-0.011	0.179
-619.361	-138.346	-0.239	0.027
-618.346	313.820	-0.116	0.219
-617.332	73.683	0.101	-0.107
-616.317	-101.759	0.208	-0.051
-615.303	-131.172	0.183	0.024
-614.288	159.204	-0.288	0.403
-613.273	-34.777	-0.105	0.058
-612.259	54.398	-0.189	-0.183
-611.244	-37.821	0.183	-0.098
-610.230	-118.320	-0.321	-0.057
-609.215	42.699	-0.114	0.104
-608.201	800.000	0.122	0.354
-607.186	-111.039	0.115	0.024
-606.171	-112.516	0.366	0.073
-605.157	-61.815	-0.170	0.071
-604.142	800.000	-0.036	0.116
-603.128	-50.874	-0.057	-0.027
-602.113	-200.000	0.049	-0.259
-601.098	204.962	0.128	0.199
-600.084	-125.380	-0.078	-0.012
-599.069	-68.651	-0.476	-0.185
-598.055	-6.446	0.122	-0.084
-597.040	107.867	0.236	-0.282
-596.025	-137.801	0.050	0.006
-595.011	-38.434	-0.082	-0.044
-593.996	-63.399	0.352	0.146
-592.982	-149.978	-0.160	-0.013
-591.967	-200.000	-0.033	-0.266
-590.952	61.311	-0.210	-0.210
-589.938	-90.942	0.027	-0.008
-588.923	-6.340	0.117	0.080
-587.909	-200.000	-0.027	-0.121
-586.894	-52.783	0.111	-0.051
-585.879	196.975	-0.238	0.365
-584.865	97.891	0.080	0.092
-583.850	410.695	-0.109	-0.232
-582.836	226.268	0.030	-0.048
-581.821	221.984	0.109	-0.175
-580.806	673.423	-0.092	-0.240
-579.792	42.732	-0.091	0.084
-578.777	385.268	0.155	-0.322
-577.763	-21.036	0.249	0.153
-576.748	-200.000	-0.024	-0.222
-575.733	-200.000	0.026	-0.200
-574.719	0.934	0.525	0.378
-573.704	115.376	0.038	0.047
-572.690	596.973	-0.173	0.431
-571.675	734.370	0.072	0.195
-570.661	300.002	0.079	-0.145
-569.646	-25.022	0.235	-0.140
-568.631	-85.550	0.386	0.120
-567.617	-44.753	0.349	0.175
-566.602	-73.087	-0.293	-0.108
-565.588	379.120	0.047	0.097
-564.573	352.850	0.036	0.073
-563.558	-200.000	0.023	0.125
-562.544	-200.000	0.004	-0.106
-561.529	800.000	0.039	-0.129
-560.515	-9.669	-0.212	0.142
-559.500	182.741	0.058	0.087
-558.485	77.245	0.343	0.366
-557.471	-63.205	-0.439	0.182
-556.456	-200.000	-0.073	-0.542
-555.442	-128.610	-0.318	-0.045
-554.427	-57.226	0.170	0.075
-553.412	21.214	-0.292	-0.238
-552.398	-83.987	0.321	-0.102
-551.383	369.946	-0.082	-0.166
-550.369	-6.927	-0.156	0.106
-549.354	-200.000	-0.044	-0.218
-548.339	-93.415	0.264	-0.073
-547.325	-98.149	-0.251	-0.065
-546.310	43.331	0.050	-0.046
-545.296	446.037	-0.103	0.228
-544.281	479.679	0.020	-0.046
-543.266	231.528	-0.063	0.104
-542.252	-130.043	-0.249	-0.034
-541.237	-80.665	0.382	-0.127
-540.223	39.081	0.097	-0.087
-539.208	17.764	-0.107	-0.086
-538.193	-150.239	-0.387	0.030
-537.179	-65.595	-0.112	0.045
-536.164	39.736	0.076	0.069
-535.150	750.804	0.028	0.077
-534.135	50.098	0.145	-0.137
-533.121	81.310	-0.262	-0.284
-532.106	717.549	0.069	0.183
-531.091	406.286	-0.085	0.180
-530.077	475.713	-0.081	-0.183
-529.062	800.000	0.095	-0.330
-528.048	800.000	-0.144	0.492
-527.033	-98.206	-0.241	-0.062
-526.018	-73.686	0.460	0.168
-525.004	-105.830	0.238	0.054
-523.989	-117.633	-0.405	0.073
-522.975	-134.026	-0.170	0.021
-521.960	-200.000	0.002	0.047
-520.945	-108.675	0.320	-0.069
-519.931	-1.523	-0.165	0.117
-518.916	800.000	-0.039	-0.130
-517.902	-21.775	0.200	0.122
-516.887	-200.000	-0.008	-0.093
-515.872	-200.000	-0.015	0.065
-514.858	232.514	-0.376	-0.618
-513.843	-141.915	-0.239	0.024
-512.829	58.679	0.145	0.142
-511.814	-200.000	-0.062	-0.350
-510.799	800.000	0.071	-0.256
-509.785	100.420	0.197	0.229
-508.770	-200.000	-0.004	-0.187
-507.756	112.705	-0.251	0.305
-506.741	-120.645	0.151	0.026
-505.726	-106.845	-0.112	0.025
-504.712	65.150	-0.105	0.106
-503.697	800.000	0.087	0.340
-502.683	-200.000	-0.021	0.177
-501.668	558.976	0.073	0.176
-500.653	422.299	-0.105	0.225
-499.639	-32.109	-0.102	0.057
-498.624	459.806	0.104	0.232
-497.610	253.163	-0.034	0.057
-496.595	-68.356	-0.350	0.136
-495.581	550.857	-0.056	-0.134
-494.566	59.407	-0.153	-0.151
-493.551	-200.000	-0.317	0.000
-492.537	-68.711	0.312	-0.121
-491.522	186.228	0.160	0.238
-490.508	-200.000	0.028	-0.224
-489.493	-71.487	-0.281	-0.105
-488.478	-91.911	0.323	-0.092
-487.464	82.406	-0.226	0.245
-486.449	-87.919	-0.424	0.128
-485.435	-200.000	0.021	-0.172
-484.420	800.000	0.032	-0.131
-483.405	59.660	-0.059	-0.059
-482.391	-148.139	-0.354	-0.029
-481.376	7.060	0.196	0.146
-480.362	-131.751	0.055	-0.007
-479.347	-200.000	-0.047	-0.333
-478.332	720.616	0.160	-0.425
-477.318	16.813	-0.042	-0.033
-476.303	11.551	-0.095	0.073
-475.289	-131.909	0.090	0.012
-474.274	-92.671	0.035	-0.010
-473.259	-200.000	0.009	-0.060
-472.245	-79.358	0.121	0.041
-471.230	-78.081	-0.128	-0.044
-470.216	126.666	0.110	0.140
-469.201	-61.642	0.284	0.119
-468.186	117.453	0.085	0.104
-467.172	-200.000	0.018	0.147
-466.157	389.612	-0.068	0.142
-465.143	-85.994	-0.400	-0.123
-464.128	-115.994	0.257	0.048
-463.113	114.020	0.082	-0.099
-462.099	106.839	-0.080	-0.095
-461.084	800.000	0.044	-0.190
-460.070	-200.000	0.007	0.103
-459.055	-187.533	-0.281	-0.004
-458.040	-4.076	-0.223	-0.155
-457.026	96.499	-0.273	-0.313
-456.011	777.033	-0.096	-0.263
-454.997	-200.000	-0.059	-0.288
-453.982	-39.591	0.115	-0.060
-452.968	68.723	0.178	-0.183
-451.953	85.269	0.168	0.184
-450.938	800.000	-0.068	0.230
-449.924	-173.417	0.215	0.007
-448.909	800.000	-0.047	0.134
-447.895	-126.715	-0.473	0.070
-446.880	37.734	-0.063	-0.056
-445.865	678.131	0.066	-0.172
-444.851	800.000	0.016	-0.066
-443.836	-43.146	0.390	-0.198
-442.822	-200.000	-0.004	0.223
-441.807	800.000	-0.028	-0.088
-440.792	183.919	0.117	0.173
-439.778	621.136	-0.034	-0.085
-438.763	105.049	-0.135	0.158
-437.749	423.617	0.072	0.156
-436.734	445.384	-0.056	-0.124
-435.719	-200.000	-0.051	-0.275
-434.705	45.251	0.138	-0.127
-433.690	6.749	-0.370	0.275
-432.676	800.000	0.087	-0.288
-431.661	-53.973	-0.059	-0.027
-430.646	61.588	-0.171	0.170
-429.632	11.844	-0.304	0.233
-428.617	-162.883	-0.247	0.012
-427.603	24.901	0.299	-0.247
-426.588	800.000	-0.075	0.218
-425.573	-126.590	-0.058	0.009
-424.559	-175.083	0.352	0.010
-423.544	-11.220	0.330	-0.217
-422.530	800.000	0.013	0.043
-421.515	221.523	-0.050	0.080
-420.500	15.907	0.090	-0.070
-419.486	129.777	0.105	-0.134
-418.471	-200.000	0.031	0.206
-417.457	-41.742	-0.227	0.116
-416.442	-134.417	0.272	-0.033
-415.428	56.426	0.103	0.100
-414.413	67.284	-0.006	-0.007
-413.398	134.717	0.105	-0.135
-412.384	453.601	0.097	-0.214
-411.369	406.501	-0.039	0.083
-410.355	524.023	-0.140	0.329
-409.340	800.000	-0.080	0.305
-408.325	-200.000	-0.009	0.109
-407.311	185.077	0.204	0.302
-406.296	-200.000	0.015	-0.262
-405.282	-59.224	-0.166	-0.071
-404.267	-130.424	0.192	-0.026
-403.252	-96.788	-0.119	0.031
-402.238	-97.156	0.095	-0.025
-401.223	-200.000	0.020	0.125
-400.209	138.689	0.137	0.180
-399.194	-200.000	0.029	-0.151
-398.179	207.439	0.078	0.122
-397.165	-72.754	0.210	0.077
-396.150	321.661	0.020	-0.038
-395.136	-131.825	-0.106	0.014
-394.121	12.778	0.221	-0.170
-393.106	-34.142	-0.044	0.024
-392.092	-144.171	0.050	-0.005
-391.077	800.000	0.031	-0.087
-390.063	800.000	-0.085	-0.251
-389.048	-173.594	0.086	-0.003
-388.033	-91.734	-0.183	-0.052
-387.019	-18.803	0.234	0.145
-386.004	115.916	0.159	0.194
-384.990	58.137	0.100	0.098
-383.975	-13.784	0.053	-0.034
-382.960	100.107	0.135	-0.156
-381.946	-167.277	0.204	-0.008
-380.931	-132.298	-0.251	0.032
-379.917	122.429	-0.248	-0.309
-378.902	800.000	-0.095	0.317
-377.888	501.126	0.057	-0.131
-376.873	-46.552	-0.195	-0.095
-375.858	-111.564	0.188	0.038
-374.844	41.266	0.229	-0.207
-373.829	141.954	0.184	0.242
-372.815	-21.263	-0.415	-0.253
-371.800	-200.000	-0.007	0.105
-370.785	-200.000	0.034	-0.151
-369.771	-118.709	-0.162	0.028
-368.756	520.928	-0.072	0.167
-367.742	-38.805	0.468	0.246
-366.727	330.671	-0.054	-0.103
-365.712	-184.769	-0.251	0.004
-364.698	-119.580	-0.313	0.054
-363.683	326.055	-0.056	-0.107
-362.669	800.000	0.130	0.497
-361.654	36.752	0.213	-0.187
-360.639	-200.000	0.495	0.002
-359.625	-72.784	0.265	-0.097
-358.610	-114.584	-0.312	-0.059
-357.596	554.819	-0.086	0.205
-356.581	-200.000	0.002	0.018
-355.566	800.000	0.157	-0.482
-354.552	800.000	0.032	0.129
-353.537	-23.372	0.323	-0.193
-352.523	800.000	0.042	0.171
-351.508	-200.000	0.025	-0.507
-350.493	-46.108	0.116	-0.057
-349.479	-200.000	0.000	-0.378
-348.464	161.768	0.182	-0.253
-347.450	-200.000	0.042	-0.335
-346.435	38.819	0.074	-0.066
-345.420	-49.043	-0.141	-0.067
-344.406	75.473	-0.128	0.135
-343.391	800.000	-0.082	0.234
-342.377	-122.409	0.284	-0.046
-341.362	-76.340	-0.117	0.041
-340.348	79.289	-0.140	0.149
-339.333	52.154	0.188	-0.178
-338.318	23.060	0.059	-0.048
-337.304	-200.000	0.017	0.156
-336.289	-141.124	-0.133	0.013
-335.275	166.306	0.013	0.019
-334.260	188.556	0.185	-0.275
-333.245	-200.000	-0.004	0.023
-332.231	-200.000	-0.065	0.402
-331.216	-3.950	0.155	0.107
-330.202	9.797	0.153	-0.115
-329.187	-200.000	-0.004	-0.357
-328.172	232.250	0.146	0.239
-327.158	-200.000	-0.078	0.000
-326.143	240.212	-0.163	0.270
-325.129	-80.547	0.198	0.066
-324.114	115.971	-0.106	0.130
-323.099	800.000	0.055	-0.179
-322.085	146.297	-0.191	-0.255
-321.070	310.829	0.086	-0.161
-320.056	-134.375	0.182	-0.022
-319.041	-200.000	-0.026	-0.347
-318.026	-23.708	-0.175	-0.104
-317.012	67.389	0.106	0.108
-315.997	-175.608	-0.209	0.006
-314.983	-111.911	0.110	-0.022
-313.968	-152.142	0.300	0.022
-312.953	-200.000	-0.003	-0.279
-311.939	-36.796	0.395	0.211
-310.924	-173.068	-0.383	0.012
-309.910	8.169	0.078	-0.058
-308.895	-200.000	0.023	-0.124
-307.880	-30.731	0.467	0.263
-306.866	-96.298	-0.146	0.038
-305.851	313.936	-0.088	0.164
-304.837	152.408	0.189	0.257
-303.822	-141.023	0.251	0.026
-302.807	111.198	-0.156	0.186
-301.793	-125.131	-0.341	-0.052
-300.778	412.469	0.043	-0.091
-299.764	-75.243	0.060	0.021
-298.749	102.137	-0.058	-0.068
-297.735	-200.000	-0.004	-0.022
-296.720	-26.592	-0.210	0.122
-295.705	51.954	-0.188	0.177
-294.691	36.239	0.076	0.066
-293.676	800.000	0.031	-0.127
-292.662	-200.000	0.008	0.193
-291.647	-39.558	-0.127	-0.066
-290.632	224.087	-0.100	-0.160
-289.618	58.941	0.166	-0.162
-288.603	-67.652	0.243	0.095
-287.589	84.098	0.171	-0.186
-286.574	-26.072	0.324	-0.189
-285.559	800.000	-0.035	0.108
-284.545	298.497	0.061	0.111
-283.530	-128.103	0.121	-0.017
-282.516	614.806	0.042	0.105
-281.501	-200.000	-0.059	-0.260
-280.486	2.146	-0.119	0.086
-279.472	-39.995	0.205	-0.106
-278.457	-45.749	-0.327	0.160
-277.443	17.597	-0.156	-0.123
-276.428	48.831	-0.135	0.126
-275.413	800.000	0.050	0.170
-274.399	-200.000	-0.002	0.075
-273.384	800.000	-0.063	0.191
-272.370	117.111	0.192	-0.234
-271.355	213.631	0.071	0.112
-270.340	293.793	0.055	0.101
-269.326	-100.777	0.219	0.053
-268.311	-173.247	0.087	0.003
-267.297	-50.460	-0.240	-0.112
-266.282	-87.580	-0.145	0.043
-265.267	-149.042	-0.310	-0.025
-264.253	-147.065	-0.331	-0.028
-263.238	-200.000	0.010	-0.071
-262.224	-87.896	0.051	0.015
-261.209	-200.000	-0.060	-0.406
-260.195	-175.319	0.306	-0.008
-259.180	800.000	0.133	0.400
-258.165	-200.000	-0.053	0.273
-257.151	-69.841	0.240	0.091
-256.136	-126.731	-0.200	0.029
-255.122	-89.514	-0.139	0.041
-254.107	-130.370	-0.149	-0.020
-253.092	800.000	-0.025	0.081
-252.078	232.081	-0.083	0.135
-251.063	40.691	-0.185	-0.165
-250.049	-200.000	0.001	0.149
-249.034	10.979	0.121	0.091
-248.019	414.660	0.134	-0.282
-247.005	185.749	-0.051	0.075
-245.990	-7.204	-0.069	0.046
-244.976	34.513	0.021	-0.019
-243.961	-66.100	0.108	0.043
-242.946	800.000	0.071	0.228
-241.932	-63.489	0.233	-0.095
-240.917	-130.912	0.251	-0.033
-239.903	85.949	-0.229	0.250
-238.888	-200.000	0.017	0.082
-237.873	-68.607	0.260	-0.100
-236.859	37.336	-0.073	-0.064
-235.844	-29.476	0.182	-0.103
-234.830	800.000	-0.035	-0.119
-233.815	-200.000	-0.053	0.351
-232.800	37.123	-0.233	0.204
-231.786	-25.286	-0.054	0.032
-230.771	408.888	0.105	0.220
-229.757	-74.955	-0.133	-0.047
-228.742	-19.566	-0.190	-0.117
-227.727	-108.630	-0.131	0.028
-226.713	-10.954	-0.094	-0.061
-225.698	800.000	-0.010	0.037
-224.684	-135.143	0.177	0.021
-223.669	60.549	-0.167	0.164
-222.655	-118.970	0.217	0.038
-221.640	800.000	-0.059	0.209
-220.625	-140.813	-0.379	-0.039
-219.611	-46.827	-0.406	0.197
-218.596	-41.969	0.268	-0.136
-217.582	800.000	-0.008	-0.028
-216.567	-103.574	-0.160	0.037
-215.552	-126.939	-0.434	0.063
-214.538	-200.000	-0.019	0.217
-213.523	194.880	-0.097	-0.146
-212.509	800.000	-0.081	0.229
-211.494	-15.105	0.140	-0.089
-210.479	47.370	-0.019	-0.018
-209.465	172.163	-0.219	-0.312
-208.450	-200.000	0.015	0.186
-207.436	-200.000	-0.019	0.325
-206.421	205.557	0.160	0.246
-205.406	-57.703	-0.225	0.097
-204.392	-23.761	0.278	0.165
-203.377	-168.034	0.195	0.008
-202.363	-5.915	0.016	-0.011
-201.348	-56.009	-0.169	-0.075
-200.333	-200.000	0.012	0.114
-199.319	-200.000	0.054	0.339
-198.304	-124.203	-0.240	0.037
-197.290	-163.983	0.138	0.006
-196.275	-200.000	-0.022	0.229
-195.260	303.014	0.075	0.138
-194.246	-22.536	0.168	0.100
-193.231	235.117	-0.168	0.275
-192.217	282.160	-0.088	-0.156
-191.202	800.000	-0.022	-0.065
-190.187	-200.000	-0.072	-0.408
-189.173	-200.000	0.023	-0.127
-188.158	-200.000	0.322	0.001
-187.144	465.880	-0.016	0.035
-186.129	800.000	0.035	-0.110
-185.114	-49.011	0.389	0.184
-184.100	0.066	-0.012	-0.008
-183.085	-200.000	-0.011	-0.213
-182.071	-46.759	-0.175	-0.085
-181.056	216.260	0.265	0.417
-180.042	-196.766	0.141	-0.001
-179.027	-134.208	-0.057	0.007
-178.012	72.816	-0.048	0.050
-176.998	-46.141	0.095	0.046
-175.983	-67.593	0.306	-0.118
-174.969	800.000	0.119	-0.358
-173.954	-168.767	0.439	-0.016
-172.939	-49.263	-0.173	-0.082
-171.925	-67.986	-0.183	0.071
-170.910	152.490	-0.194	0.262
-169.896	-200.000	-0.037	-0.292
-168.881	-65.966	0.306	-0.121
-167.866	191.629	0.128	-0.190
-166.852	-28.656	0.116	-0.066
-165.837	800.000	-0.064	0.217
-164.823	214.253	-0.128	-0.200
-163.808	-200.000	0.001	-0.079
-162.793	-109.823	0.233	-0.048
-161.779	800.000	-0.059	-0.196
-160.764	35.041	-0.078	0.067
-159.750	526.768	0.019	0.044
-158.735	283.713	-0.114	0.203
-157.720	800.000	-0.046	0.189
-156.706	-184.100	-0.155	-0.003
-155.691	312.557	-0.094	-0.174
-154.677	-200.000	-0.029	0.130
-153.662	13.217	-0.086	-0.066
-152.647	28.304	0.318	-0.265
-151.633	123.570	-0.062	-0.077
-150.618	800.000	-0.020	-0.071
-149.604	-200.000	0.031	0.153
-148.589	-200.000	-0.040	0.198
-147.574	-200.000	0.045	-0.253
-146.560	-12.132	0.043	0.028
-145.545	199.390	0.129	0.195
-144.531	92.899	-0.247	0.275
-143.516	-200.000	-0.009	0.282
-142.502	155.093	0.167	0.227
-141.487	309.432	0.045	-0.084
-140.472	-35.684	0.071	-0.038
-139.458	-119.448	0.165	0.028
-138.443	-41.140	0.297	-0.151
-137.429	-200.000	0.055	-0.445
-136.414	-48.984	-0.033	-0.015
-135.399	-148.905	-0.509	0.041
-134.385	-200.000	0.019	0.187
-133.370	-163.742	-0.172	0.008
-132.356	-19.681	0.266	-0.162
-131.341	-193.077	-0.341	-0.003
-130.326	-200.000	0.013	0.224
-129.312	-36.455	-0.062	0.033
-128.297	-58.294	0.102	-0.044
-127.283	-71.779	-0.042	-0.015
-126.268	-45.354	0.183	0.089
-125.253	-200.000	-0.048	0.227
-124.239	-200.000	0.067	0.000
-123.224	474.188	-0.029	-0.064
-122.210	-176.383	0.094	-0.002
