DTS Sentinel unit serial number:	SN413079Multiplexer serial number:	ORYXHardware model number:	OX4-SRSoftware version number:	ORYX F/W v4.00 Oryx Data Collector v3.7.2.0data status	okinstallation	princeton_trtdifferential loss correction	single-endedforward channel	channel 1reverse channel	N/Adate	2019/09/11time	02:12:11forward acquisition time	60.00reverse acquisition time	0.00gamma	496.2192k internal	0.2332k external	0.2332temperature offset calibration	0.9925default loss term (dB/km)	0.3790temperature slope calibration	1.0000multiplexer offset coefficient	1.0000multiplexer slope coefficient	1.0000fibre end	0.00T internal ref (°C)	29.19T ext. ref 1 (°C)	-0.29T ext. ref 2 (°C)	23.21length (m)	temperature (°C)	Stokes	anti-Stokes-747.200	-148.438	-0.145	0.012
-746.185	416.290	0.200	0.430
-745.171	-116.413	-0.185	-0.034
-744.156	-132.932	-0.149	-0.019
-743.142	-112.864	0.266	-0.053
-742.127	333.269	-0.071	0.139
-741.112	-72.548	-0.136	0.051
-740.098	-60.838	0.222	0.095
-739.083	22.336	0.178	0.147
-738.069	-36.747	-0.262	0.141
-737.054	-178.884	0.179	0.004
-736.039	800.000	-0.081	0.302
-735.025	-46.396	0.267	-0.132
-734.010	-44.648	-0.311	-0.156
-732.996	-41.423	-0.419	-0.217
-731.981	367.765	0.133	-0.271
-730.966	-200.000	-0.037	0.242
-729.952	372.468	-0.047	0.095
-728.937	-45.091	-0.100	-0.050
-727.923	-200.000	-0.009	0.267
-726.908	-200.000	-0.009	0.079
-725.894	-200.000	0.008	0.121
-724.879	-26.735	0.084	-0.049
-723.864	-34.578	-0.247	-0.136
-722.850	74.493	0.108	0.114
-721.835	-109.607	0.103	0.022
-720.821	-176.880	-0.189	-0.005
-719.806	55.463	-0.139	-0.135
-718.791	-111.262	-0.145	-0.030
-717.777	-28.207	-0.135	0.078
-716.762	-37.928	0.250	0.133
-715.748	-145.415	0.211	0.019
-714.733	615.233	0.122	-0.308
-713.718	98.588	0.017	0.020
-712.704	-137.719	-0.173	-0.020
-711.689	-200.000	-0.030	0.273
-710.675	779.595	-0.055	-0.150
-709.660	-200.000	0.056	-0.459
-708.645	800.000	-0.060	-0.227
-707.631	24.714	0.196	0.163
-706.616	-72.654	-0.330	0.122
-705.602	-200.000	0.048	-0.258
-704.587	-28.880	-0.019	-0.011
-703.572	-200.000	0.002	0.293
-702.558	-200.000	0.014	0.081
-701.543	-182.333	0.329	-0.006
-700.529	-90.060	-0.026	0.008
-699.514	-56.319	-0.242	-0.108
-698.499	95.753	-0.121	-0.139
-697.485	-200.000	-0.034	0.322
-696.470	-143.897	-0.198	-0.019
-695.456	20.052	0.281	-0.228
-694.441	-170.989	-0.249	-0.009
-693.426	-60.868	-0.155	-0.066
-692.412	199.335	0.080	0.123
-691.397	-54.596	0.073	-0.033
-690.383	-171.960	-0.071	0.002
-689.368	-96.521	-0.525	0.139
-688.354	-174.460	0.105	-0.003
-687.339	341.806	0.012	0.024
-686.324	390.932	0.152	-0.318
-685.310	-66.820	0.126	-0.050
-684.295	348.423	-0.108	0.214
-683.281	-123.841	-0.290	-0.046
-682.266	45.060	0.325	0.301
-681.251	8.115	-0.121	-0.091
-680.237	81.105	-0.166	-0.180
-679.222	-148.119	-0.194	0.016
-678.208	-67.872	0.149	0.059
-677.193	411.323	-0.128	-0.273
-676.178	-180.869	0.231	0.005
-675.164	81.802	-0.101	-0.109
-674.149	-25.582	0.172	-0.102
-673.135	-23.354	-0.028	0.017
-672.120	102.326	0.266	-0.312
-671.105	800.000	0.045	0.189
-670.091	-91.396	-0.373	0.107
-669.076	5.246	-0.130	-0.096
-668.062	-45.601	-0.141	0.070
-667.047	60.453	-0.094	-0.093
-666.032	207.598	0.035	-0.055
-665.018	800.000	-0.068	-0.246
-664.003	-175.243	-0.126	0.003
-662.989	-133.405	0.126	-0.016
-661.974	-200.000	-0.021	0.189
-660.959	134.953	-0.093	-0.121
-659.945	-200.000	-0.055	-0.303
-658.930	374.249	0.135	0.276
-657.916	53.530	0.085	-0.082
-656.901	-56.299	-0.104	-0.046
-655.886	62.419	-0.187	-0.188
-654.872	754.244	0.054	-0.146
-653.857	-18.468	-0.073	-0.046
-652.843	-50.784	0.125	-0.059
-651.828	800.000	0.026	-0.081
-650.814	-153.652	0.314	-0.022
-649.799	72.697	-0.035	0.037
-648.784	-148.281	0.087	-0.007
-647.770	-120.939	0.081	-0.014
-646.755	135.628	-0.204	-0.266
-645.741	-200.000	0.022	0.145
-644.726	55.255	-0.322	0.312
-643.711	-200.000	0.004	-0.112
-642.697	-39.233	-0.250	0.132
-641.682	-200.000	-0.058	0.372
-640.668	233.541	0.089	0.147
-639.653	-168.755	0.484	-0.018
-638.638	682.276	-0.053	-0.139
-637.624	-79.099	0.387	-0.132
-636.609	161.025	-0.175	-0.246
-635.595	-144.078	0.208	-0.020
-634.580	205.082	-0.083	-0.129
-633.565	318.570	0.055	0.105
-632.551	-26.396	0.217	-0.128
-631.536	-153.785	-0.198	0.014
-630.522	-22.793	-0.522	0.316
-629.507	-170.651	0.109	0.004
-628.492	-70.488	0.349	-0.132
-627.478	142.537	-0.115	-0.153
-626.463	20.291	0.190	0.154
-625.449	38.717	0.018	-0.016
-624.434	143.968	0.051	-0.068
-623.419	-11.246	-0.157	0.103
-622.405	345.373	0.009	0.018
-621.390	-200.000	0.034	-0.300
-620.376	-86.481	0.137	-0.042
-619.361	51.627	-0.096	0.092
-618.346	334.866	0.213	-0.413
-617.332	-200.000	-0.039	-0.193
-616.317	-130.413	-0.168	0.023
-615.303	1.485	0.424	-0.306
-614.288	-153.657	0.279	0.019
-613.273	-116.752	-0.069	0.013
-612.259	-135.669	0.321	-0.038
-611.244	-52.554	-0.194	-0.090
-610.230	-135.733	-0.185	0.022
-609.215	800.000	-0.057	-0.214
-608.201	98.779	-0.086	0.100
-607.186	20.143	0.011	-0.009
-606.171	-94.321	-0.262	-0.072
-605.157	-73.332	-0.240	0.088
-604.142	182.175	0.159	0.235
-603.128	-102.416	0.062	0.015
-602.113	93.073	0.191	-0.217
-601.098	800.000	0.049	-0.210
-600.084	-144.400	0.341	-0.032
-599.069	201.337	0.167	0.257
-598.055	-167.306	0.073	0.003
-597.040	76.477	-0.150	-0.159
-596.025	218.478	-0.037	0.059
-595.011	-200.000	-0.024	-0.288
-593.996	-36.685	-0.558	0.300
-592.982	206.488	0.230	0.358
-591.967	688.065	0.202	0.529
-590.952	-175.975	0.014	0.000
-589.938	-200.000	-0.027	-0.351
-588.923	2.876	-0.175	-0.127
-587.909	79.564	0.058	0.062
-586.894	-59.431	0.207	-0.089
-585.879	82.851	-0.119	-0.129
-584.865	-33.046	0.146	0.081
-583.850	-5.442	-0.202	-0.139
-582.836	-173.741	-0.262	0.008
-581.821	-130.757	0.177	0.024
-580.806	800.000	-0.088	0.293
-579.792	800.000	0.099	0.279
-578.777	247.776	0.045	-0.075
-577.763	-200.000	0.003	0.199
-576.748	25.289	-0.211	-0.175
-575.733	-200.000	-0.025	-0.257
-574.719	-200.000	-0.023	0.324
-573.704	-6.706	-0.272	0.185
-572.690	315.428	0.121	-0.229
-571.675	330.667	-0.034	-0.065
-570.661	-200.000	-0.054	-0.297
-569.646	69.817	-0.206	0.212
-568.631	18.374	0.040	0.032
-567.617	800.000	-0.091	0.335
-566.602	-200.000	-0.012	-0.064
-565.588	308.571	0.049	-0.092
-564.573	107.307	-0.088	0.104
-563.558	800.000	0.063	-0.264
-562.544	398.600	-0.083	0.174
-561.529	237.305	0.178	0.294
-560.515	25.167	0.365	0.302
-559.500	224.204	0.142	0.230
-558.485	-73.732	0.217	-0.079
-557.471	44.119	-0.141	0.129
-556.456	62.628	-0.106	0.106
-555.442	1.084	-0.141	0.101
-554.427	-67.538	-0.135	0.053
-553.412	-130.727	0.518	0.070
-552.398	98.118	0.146	0.168
-551.383	800.000	-0.061	-0.190
-550.369	-4.155	-0.116	0.080
-549.354	-154.546	-0.181	-0.012
-548.339	293.838	-0.092	-0.169
-547.325	-124.986	0.212	0.033
-546.310	-200.000	0.038	0.350
-545.296	-200.000	0.005	-0.022
-544.281	-200.000	0.000	-0.079
-543.266	-200.000	0.056	0.286
-542.252	-200.000	0.024	0.140
-541.237	-48.723	0.201	0.096
-540.223	124.265	0.282	0.354
-539.208	189.200	-0.146	-0.219
-538.193	800.000	-0.122	0.356
-537.179	338.738	-0.138	0.268
-536.164	-200.000	-0.032	-0.270
-535.150	800.000	0.048	-0.197
-534.135	449.965	0.191	-0.420
-533.121	7.232	-0.101	0.075
-532.106	1.742	-0.118	0.085
-531.091	800.000	-0.092	0.300
-530.077	14.088	-0.243	-0.189
-529.062	-88.862	-0.016	-0.005
-528.048	-187.606	0.185	-0.002
-527.033	-55.557	0.369	0.165
-526.018	-80.793	-0.347	0.115
-525.004	-200.000	0.316	-0.001
-523.989	295.835	-0.042	0.077
-522.975	-110.082	-0.122	-0.025
-521.960	-102.797	-0.160	0.038
-520.945	-200.000	-0.041	0.375
-519.931	-149.660	0.130	0.010
-518.916	-88.938	0.022	0.007
-517.902	-127.587	0.146	0.021
-516.887	-106.244	-0.175	0.039
-515.872	-83.994	0.060	0.019
-514.858	-89.389	0.222	-0.065
-513.843	-200.000	-0.081	-0.402
-512.829	-78.345	-0.142	-0.049
-511.814	-200.000	0.045	-0.423
-510.799	53.919	-0.200	-0.192
-509.785	192.673	0.173	-0.260
-508.770	147.977	-0.134	-0.180
-507.756	90.459	-0.091	0.101
-506.741	68.113	0.257	0.262
-505.726	800.000	-0.020	0.084
-504.712	155.826	-0.050	0.069
-503.697	-96.730	-0.034	-0.009
-502.683	41.667	0.074	0.067
-501.668	-200.000	-0.041	-0.390
-500.653	-43.624	-0.222	-0.112
-499.639	446.972	-0.099	0.217
-498.624	-0.989	-0.190	-0.134
-497.610	-64.727	-0.352	-0.142
-496.595	33.077	0.187	0.162
-495.581	-77.473	0.383	-0.132
-494.566	-134.650	0.089	0.011
-493.551	-83.257	-0.176	-0.056
-492.537	-24.996	0.303	0.179
-491.522	129.980	-0.102	0.129
-490.508	-200.000	-0.197	-0.001
-489.493	206.579	-0.072	0.112
-488.478	-200.000	0.004	-0.143
-487.464	-200.000	0.004	-0.130
-486.449	-5.430	0.137	0.093
-485.435	800.000	0.054	-0.230
-484.420	-91.493	0.151	-0.043
-483.405	117.680	0.051	-0.062
-482.391	20.783	0.284	-0.229
-481.376	-9.698	-0.199	0.132
-480.362	-115.315	-0.210	0.039
-479.347	-73.296	0.109	-0.040
-478.332	-76.849	0.209	-0.073
-477.318	-103.416	-0.262	0.061
-476.303	1.602	0.209	-0.150
-475.289	-72.591	0.097	-0.036
-474.274	-46.100	-0.319	-0.156
-473.259	800.000	0.082	-0.240
-472.245	-115.981	-0.279	-0.052
-471.230	751.171	0.062	-0.168
-470.216	631.875	-0.123	-0.311
-469.201	-8.043	0.212	-0.142
-468.186	-68.752	0.135	0.052
-467.172	-75.703	-0.418	-0.148
-466.157	-134.107	-0.418	-0.051
-465.143	42.481	0.189	0.171
-464.128	543.319	-0.083	-0.198
-463.113	125.963	-0.117	-0.148
-462.099	-111.011	-0.083	0.017
-461.084	142.105	-0.265	0.350
-460.070	-135.386	0.549	-0.065
-459.055	563.253	-0.101	-0.242
-458.040	-200.000	0.045	-0.236
-457.026	-200.000	-0.043	0.188
-456.011	-200.000	-0.009	0.163
-454.997	-33.398	0.252	-0.139
-453.982	668.577	-0.146	-0.375
-452.968	-52.257	0.063	0.029
-451.953	798.680	-0.166	0.456
-450.938	22.657	-0.112	0.091
-449.924	187.395	-0.125	0.186
-448.909	11.793	0.036	0.027
-447.895	30.720	-0.027	0.023
-446.880	800.000	0.143	0.559
-445.865	-123.682	0.168	-0.026
-444.851	220.316	-0.061	-0.098
-443.836	253.053	-0.013	0.023
-442.822	-121.015	-0.078	-0.013
-441.807	-200.000	0.022	-0.224
-440.792	280.736	-0.062	0.110
-439.778	800.000	-0.083	-0.279
-438.763	559.330	-0.077	0.185
-437.749	-163.184	0.367	-0.018
-436.734	-141.610	0.179	-0.018
-435.719	119.534	0.184	0.227
-434.705	-184.521	-0.097	0.002
-433.690	-200.000	0.001	-0.007
-432.676	356.956	0.187	-0.370
-431.661	18.390	-0.151	0.120
-430.646	-45.140	-0.162	-0.080
-429.632	-98.204	-0.655	0.167
-428.617	17.764	-0.291	-0.231
-427.603	563.267	0.133	-0.320
-426.588	473.948	-0.118	-0.265
-425.573	800.000	-0.083	-0.268
-424.559	586.472	0.023	0.057
-423.544	-200.000	0.004	0.078
-422.530	7.369	-0.288	-0.214
-421.515	-8.023	-0.055	-0.037
-420.500	-55.106	0.102	-0.046
-419.486	-200.000	0.071	-0.352
-418.471	-200.000	-0.001	-0.194
-417.457	-83.932	0.141	0.045
-416.442	-150.247	-0.245	-0.019
-415.428	800.000	0.011	-0.034
-414.413	62.148	-0.212	0.210
-413.398	213.150	-0.038	-0.059
-412.384	-200.000	-0.011	0.220
-411.369	-104.661	0.094	0.021
-410.355	-200.000	-0.006	0.035
-409.340	-14.650	-0.363	0.232
-408.325	152.964	0.075	-0.101
-407.311	-124.566	-0.245	0.038
-406.296	-18.105	0.194	0.121
-405.282	619.130	-0.107	0.267
-404.267	-200.000	0.056	-0.359
-403.252	-200.000	0.016	-0.291
-402.238	-122.404	0.096	0.016
-401.223	-100.312	0.097	0.024
-400.209	-161.060	0.047	-0.002
-399.194	-200.000	0.020	-0.153
-398.179	536.056	0.063	0.148
-397.165	584.604	-0.025	0.061
-396.150	738.687	-0.060	-0.160
-395.136	447.247	-0.067	-0.146
-394.121	416.865	0.020	-0.042
-393.106	800.000	-0.036	0.149
-392.092	-200.000	-0.026	0.197
-391.077	-200.000	-0.023	0.205
-390.063	249.185	-0.137	0.230
-389.048	800.000	-0.022	0.087
-388.033	-200.000	-0.001	0.190
-387.019	-17.791	0.347	0.216
-386.004	165.733	0.229	0.321
-384.990	10.698	-0.241	-0.183
-383.975	-47.821	-0.087	-0.042
-382.960	800.000	0.135	-0.387
-381.946	-67.065	-0.141	0.055
-380.931	-200.000	0.042	0.190
-379.917	126.439	-0.118	-0.148
-378.902	-50.289	0.246	0.115
-377.888	296.509	-0.093	-0.170
-376.873	100.717	-0.124	0.143
-375.858	158.586	-0.158	0.217
-374.844	-200.000	0.013	0.243
-373.829	94.683	-0.111	-0.126
-372.815	-44.635	0.239	-0.118
-371.800	-28.993	-0.108	0.061
-370.785	800.000	-0.169	-0.490
-369.771	171.017	0.187	-0.266
-368.756	212.621	-0.010	0.016
-367.742	-95.760	-0.445	0.118
-366.727	206.445	-0.045	0.070
-365.712	-15.424	-0.132	0.084
-364.698	306.209	-0.159	-0.292
-363.683	-31.619	-0.201	0.112
-362.669	500.489	-0.068	-0.155
-361.654	427.805	0.040	0.086
-360.639	-35.984	-0.268	-0.144
-359.625	254.334	0.195	-0.331
-358.610	-110.075	-0.061	-0.013
-357.596	1.153	-0.244	0.174
-356.581	-200.000	0.054	-0.256
-355.566	-36.491	0.430	-0.229
-354.552	-74.230	0.250	-0.090
-353.537	-179.029	0.197	0.004
-352.523	17.885	-0.193	-0.152
-351.508	-95.527	0.228	-0.061
-350.493	150.760	0.077	0.103
-349.479	124.935	-0.032	-0.040
-348.464	-11.650	0.175	-0.114
-347.450	58.172	0.299	-0.291
-346.435	53.056	-0.203	0.193
-345.420	50.082	0.283	0.264
-344.406	-77.694	-0.383	0.131
-343.391	495.383	-0.052	0.119
-342.377	800.000	0.071	0.234
-341.362	324.595	-0.080	-0.151
-340.348	34.633	0.087	-0.076
-339.333	552.133	0.109	-0.258
-338.318	141.945	-0.157	-0.206
-337.304	-200.000	-0.019	-0.157
-336.289	102.847	0.106	-0.123
-335.275	17.428	-0.055	0.043
-334.260	-200.000	0.002	-0.102
-333.245	-10.399	-0.147	0.097
-332.231	41.199	-0.314	-0.281
-331.216	19.751	-0.114	0.091
-330.202	-156.270	0.142	-0.009
-329.187	20.065	-0.039	0.031
-328.172	-37.420	-0.333	-0.176
-327.158	-143.247	-0.213	0.020
-326.143	-110.533	0.182	0.037
-325.129	189.677	0.247	0.367
-324.114	-198.840	-0.483	0.003
-323.099	367.954	0.127	0.254
-322.085	286.975	0.113	-0.202
-321.070	421.257	0.124	0.263
-320.056	-137.148	0.248	0.028
-319.041	331.022	0.032	0.061
-318.026	-133.044	-0.046	-0.006
-317.012	-84.649	0.327	0.102
-315.997	784.712	0.058	-0.158
-314.983	353.119	-0.128	-0.251
-313.968	24.437	-0.190	-0.155
-312.953	-200.000	0.027	-0.180
-311.939	251.568	-0.110	-0.185
-310.924	253.081	-0.154	-0.260
-309.910	-200.000	0.065	0.284
-308.895	16.968	-0.077	-0.060
-307.880	-140.274	0.350	-0.036
-306.866	158.147	-0.124	0.170
-305.851	30.000	0.036	-0.030
-304.837	-200.000	-0.008	0.190
-303.822	104.404	-0.159	-0.185
-302.807	-30.571	-0.562	0.315
-301.793	385.866	-0.024	0.049
-300.778	-41.661	0.119	0.061
-299.764	-13.932	0.220	0.140
-298.749	133.630	-0.218	0.279
-297.735	151.202	0.192	-0.258
-296.720	-106.696	-0.139	-0.031
-295.705	-200.000	-0.045	0.386
-294.691	-200.000	0.011	0.236
-293.676	-77.614	-0.353	0.121
-292.662	135.874	-0.162	-0.208
-291.647	-76.761	0.431	0.149
-290.632	65.312	-0.072	0.072
-289.618	-72.751	-0.250	-0.091
-288.603	-200.000	-0.005	0.120
-287.589	-87.146	-0.094	0.028
-286.574	-76.713	0.172	-0.059
-285.559	-35.456	0.073	0.039
-284.545	-200.000	0.002	-0.072
-283.530	-200.000	-0.010	-0.146
-282.516	-74.004	0.289	0.104
-281.501	235.055	0.044	-0.073
-280.486	-105.296	-0.070	-0.016
-279.472	287.684	-0.176	-0.314
-278.457	-28.119	0.089	0.051
-277.443	-71.128	-0.142	0.053
-276.428	-24.664	0.009	-0.005
-275.413	4.183	0.068	-0.049
-274.399	-15.571	0.081	-0.051
-273.384	-200.000	-0.020	0.302
-272.370	124.689	0.114	0.142
-271.355	197.865	-0.272	0.411
-270.340	-200.000	-0.040	-0.182
-269.326	41.051	-0.189	-0.168
-268.311	580.086	0.064	0.154
-267.297	186.959	-0.048	-0.071
-266.282	633.533	-0.061	0.154
-265.267	-200.000	0.001	0.069
-264.253	-200.000	-0.002	-0.021
-263.238	-37.703	0.049	-0.026
-262.224	-30.372	-0.126	0.071
-261.209	-200.000	-0.027	0.211
-260.195	14.161	0.201	-0.155
-259.180	-200.000	-0.050	-0.232
-258.165	144.479	-0.212	0.279
-257.151	-200.000	-0.045	0.293
-256.136	384.510	0.197	0.400
-255.122	-7.979	-0.210	0.140
-254.107	9.654	0.150	0.112
-253.092	-108.150	0.459	0.098
-252.078	800.000	-0.050	0.207
-251.063	113.331	0.127	-0.152
-250.049	-200.000	0.036	0.274
-249.034	142.900	-0.129	-0.169
-248.019	218.256	0.064	0.101
-247.005	-65.738	0.190	-0.075
-245.990	507.260	0.130	-0.298
-244.976	-41.876	0.268	0.136
-243.961	-200.000	-0.054	-0.266
-242.946	251.650	-0.057	-0.096
-241.932	800.000	0.082	-0.258
-240.917	76.332	0.252	0.263
-239.903	-50.611	0.265	-0.123
-238.888	713.344	-0.137	-0.357
-237.873	190.204	0.161	0.239
-236.859	-77.369	0.089	0.030
-235.844	755.840	-0.095	0.254
-234.830	-200.000	-0.011	0.170
-233.815	68.431	0.164	-0.166
-232.800	-200.000	0.009	-0.162
-231.786	-134.872	0.229	0.027
-230.771	45.418	-0.106	0.096
-229.757	65.438	-0.088	-0.088
-228.742	-200.000	0.038	0.249
-227.727	414.940	-0.077	-0.161
-226.713	149.745	-0.104	-0.139
-225.698	-200.000	-0.006	0.102
-224.684	78.453	0.055	-0.058
-223.669	-96.185	0.343	-0.090
-222.655	800.000	-0.011	0.044
-221.640	-111.065	-0.100	-0.020
-220.625	-36.831	0.123	-0.065
-219.611	-49.182	-0.105	-0.050
-218.596	115.372	0.049	-0.059
-217.582	-13.069	0.090	0.058
-216.567	208.928	0.131	0.201
-215.552	-79.458	-0.135	-0.045
-214.538	-200.000	-0.004	0.128
-213.523	-173.620	-0.058	-0.002
-212.509	57.926	0.162	0.156
-211.494	-60.124	-0.349	0.147
-210.479	800.000	0.084	0.321
-209.465	800.000	-0.113	0.339
-208.450	24.011	-0.183	-0.149
-207.436	-200.000	0.018	0.092
-206.421	40.459	-0.276	0.245
-205.406	378.073	-0.101	-0.204
-204.392	-110.045	-0.162	-0.033
-203.377	-7.511	0.170	-0.113
-202.363	-63.586	0.263	-0.106
-201.348	101.562	0.186	-0.213
-200.333	-163.118	-0.099	0.005
-199.319	5.014	0.202	-0.146
-198.304	-71.263	-0.141	0.052
-197.290	800.000	-0.034	-0.145
-196.275	-15.958	-0.225	-0.141
-195.260	-40.735	0.135	-0.069
-194.246	-200.000	0.016	-0.136
-193.231	149.498	-0.082	-0.109
-192.217	-45.561	0.095	0.046
-191.202	-129.141	-0.038	-0.005
-190.187	-29.049	0.321	0.181
-189.173	136.841	-0.067	-0.087
-188.158	-53.034	-0.196	0.089
-187.144	53.549	-0.206	0.195
-186.129	103.412	-0.220	0.254
-185.114	-167.046	-0.168	-0.007
-184.100	-200.000	0.011	0.052
-183.085	-13.554	0.238	-0.152
-182.071	385.014	0.132	0.268
-181.056	-18.780	-0.019	-0.011
-180.042	-70.871	-0.045	-0.017
-179.027	-200.000	0.003	0.109
-178.012	308.174	0.168	0.309
-176.998	515.756	-0.102	0.234
-175.983	41.013	-0.128	-0.114
-174.969	-121.457	-0.017	-0.003
-173.954	-67.964	0.049	-0.019
-172.939	-136.934	0.082	0.009
-171.925	64.021	0.109	0.107
-170.910	-200.000	-0.027	-0.168
-169.896	-48.871	0.509	-0.240
-168.881	800.000	-0.056	0.173
-167.866	-107.571	0.251	-0.054
-166.852	668.973	-0.069	-0.177
-165.837	-90.573	0.090	-0.026
-164.823	505.066	0.093	-0.212
-163.808	-200.000	-0.008	-0.392
-162.793	122.929	0.017	-0.021
-161.779	-200.000	0.015	0.247
-160.764	20.274	-0.056	0.045
-159.750	-200.000	-0.002	-0.021
-158.735	-200.000	-0.051	0.333
-157.720	800.000	0.049	0.174
-156.706	18.000	-0.101	-0.079
-155.691	199.469	0.060	-0.091
-154.677	-30.145	0.237	-0.133
-153.662	800.000	0.045	-0.188
-152.647	-153.639	0.404	0.027
-151.633	25.261	0.291	-0.238
-150.618	23.685	-0.077	-0.062
-149.604	-50.694	0.106	0.049
-148.589	-179.418	0.340	0.007
-147.574	184.112	-0.192	-0.280
-146.560	69.298	0.359	-0.363
-145.545	-200.000	-0.061	-0.274
-144.531	-141.565	0.282	-0.028
-143.516	69.921	-0.147	-0.149
-142.502	286.720	0.052	-0.092
-141.487	-102.410	0.236	0.055
-140.472	-200.000	0.006	-0.219
-139.458	-200.000	-0.010	0.099
-138.443	65.043	0.098	-0.098
-137.429	800.000	0.067	-0.271
-136.414	-83.748	0.248	0.078
-135.399	-84.590	-0.459	0.142
-134.385	-200.000	0.115	-0.531
-133.370	800.000	-0.117	0.404
-132.356	-138.548	0.316	0.034
-131.341	408.211	-0.189	-0.393
-130.326	-85.181	0.111	0.034
-129.312	-152.530	0.047	-0.003
-128.297	-17.534	0.163	0.100
-127.283	15.107	-0.027	0.021
-126.268	655.031	0.116	-0.292
-125.253	147.847	-0.113	0.149
-124.239	353.212	0.133	-0.260
-123.224	124.684	0.126	-0.155
-122.210	-33.404	-0.193	-0.105
