DTS Sentinel unit serial number:	SN413079Multiplexer serial number:	ORYXHardware model number:	OX4-SRSoftware version number:	ORYX F/W v4.00 Oryx Data Collector v3.7.2.0data status	okinstallation	princeton_trtdifferential loss correction	single-endedforward channel	channel 1reverse channel	N/Adate	2019/09/18time	21:42:35forward acquisition time	60.00reverse acquisition time	0.00gamma	496.2192k internal	0.2341k external	0.2341temperature offset calibration	1.0022default loss term (dB/km)	0.3790temperature slope calibration	1.0000multiplexer offset coefficient	1.0000multiplexer slope coefficient	1.0000fibre end	0.00T internal ref (°C)	24.94T ext. ref 1 (°C)	0.81T ext. ref 2 (°C)	18.26length (m)	temperature (°C)	Stokes	anti-Stokes-747.200	141.999	-0.186	0.248
-746.185	-116.520	-0.259	-0.048
-745.171	-200.000	-0.023	0.156
-744.156	214.462	0.067	0.107
-743.142	-23.471	0.201	-0.121
-742.127	-120.853	0.226	0.038
-741.112	-134.625	0.173	-0.021
-740.098	28.217	-0.216	0.182
-739.083	49.583	0.064	0.061
-738.069	-175.760	0.106	0.003
-737.054	-200.000	-0.002	0.154
-736.039	-38.476	-0.200	-0.106
-735.025	-85.100	-0.252	0.079
-734.010	-200.000	-0.014	0.086
-732.996	-120.398	0.099	-0.017
-731.981	800.000	-0.142	-0.438
-730.966	800.000	0.073	-0.232
-729.952	-147.431	0.023	0.002
-728.937	80.577	-0.330	0.356
-727.923	18.950	-0.113	0.090
-726.908	-168.708	-0.143	-0.005
-725.894	87.250	-0.121	-0.133
-724.879	-37.220	0.188	-0.101
-723.864	800.000	0.122	-0.341
-722.850	-200.000	-0.025	-0.241
-721.835	476.411	-0.092	0.208
-720.821	-50.963	0.263	-0.124
-719.806	123.109	-0.187	-0.235
-718.791	284.370	0.130	0.234
-717.777	653.508	0.055	-0.141
-716.762	-200.000	0.008	-0.145
-715.748	-200.000	0.040	-0.227
-714.733	251.742	0.133	-0.227
-713.718	-108.536	-0.019	0.004
-712.704	-49.616	-0.338	-0.161
-711.689	-3.403	0.272	-0.190
-710.675	-200.000	-0.018	-0.112
-709.660	-200.000	0.056	0.315
-708.645	-141.291	0.331	-0.034
-707.631	65.406	-0.084	-0.086
-706.616	-44.384	-0.080	0.040
-705.602	-71.369	0.146	0.055
-704.587	-19.497	-0.424	-0.262
-703.572	-88.458	-0.342	-0.102
-702.558	-200.000	0.092	-0.426
-701.543	-24.788	-0.321	0.191
-700.529	-195.823	-0.280	-0.002
-699.514	-121.837	0.213	0.035
-698.499	-17.163	-0.130	0.082
-697.485	-200.000	0.057	-0.442
-696.470	279.476	-0.050	-0.089
-695.456	-200.000	0.019	-0.084
-694.441	124.175	-0.073	0.092
-693.426	-88.505	0.215	0.064
-692.412	-200.000	0.010	-0.166
-691.397	-200.000	0.001	0.533
-690.383	-22.085	0.191	-0.116
-689.368	162.458	0.197	0.276
-688.354	-0.454	-0.145	-0.103
-687.339	6.288	-0.287	0.213
-686.324	-117.335	-0.382	-0.069
-685.310	759.781	0.140	0.380
-684.295	164.718	-0.176	-0.248
-683.281	714.008	-0.072	-0.190
-682.266	-43.636	-0.129	0.065
-681.251	-200.000	-0.018	-0.162
-680.237	6.912	0.290	-0.216
-679.222	197.834	-0.053	-0.081
-678.208	-200.000	0.017	-0.206
-677.193	21.128	0.204	0.166
-676.178	69.847	0.236	0.243
-675.164	-112.577	-0.146	0.029
-674.149	800.000	0.049	0.136
-673.135	-105.756	-0.490	0.111
-672.120	-61.575	-0.059	0.025
-671.105	152.179	-0.068	-0.093
-670.091	-200.000	0.025	-0.420
-669.076	-6.820	-0.297	0.202
-668.062	-79.774	-0.307	-0.103
-667.047	10.730	0.131	-0.100
-666.032	-133.549	-0.240	0.030
-665.018	-91.361	0.057	-0.016
-664.003	68.769	-0.074	0.076
-662.989	-20.211	0.137	-0.084
-661.974	-31.023	0.200	0.113
-660.959	-161.444	-0.292	0.015
-659.945	-19.740	-0.264	-0.163
-658.930	628.852	0.060	-0.153
-657.916	78.729	-0.121	-0.130
-656.901	-200.000	-0.039	-0.182
-655.886	800.000	-0.038	-0.124
-654.872	89.901	-0.097	-0.108
-653.857	-77.154	-0.295	-0.103
-652.843	-30.065	0.068	0.038
-651.828	-8.988	0.457	0.306
-650.814	-128.077	-0.277	0.040
-649.799	43.868	-0.150	0.137
-648.784	56.056	-0.194	0.188
-647.770	-56.569	-0.090	-0.040
-646.755	-186.435	-0.320	-0.005
-645.741	-133.631	-0.259	-0.032
-644.726	800.000	-0.062	0.201
-643.711	446.367	0.064	0.141
-642.697	59.924	-0.184	0.181
-641.682	252.640	0.081	0.137
-640.668	-200.000	-0.007	-0.219
-639.653	419.250	-0.154	-0.329
-638.638	-200.000	0.013	0.061
-637.624	800.000	0.070	0.219
-636.609	16.078	-0.076	-0.060
-635.595	-80.607	-0.106	0.035
-634.580	-200.000	0.011	-0.196
-633.565	-200.000	-0.009	-0.074
-632.551	51.997	-0.097	0.093
-631.536	-137.229	-0.354	-0.040
-630.522	448.850	-0.100	-0.219
-629.507	-200.000	0.014	-0.076
-628.492	126.412	0.212	0.268
-627.478	246.323	-0.208	-0.351
-626.463	-200.000	-0.024	-0.225
-625.449	-59.846	0.113	-0.048
-624.434	-61.790	0.124	-0.052
-623.419	-200.000	0.018	0.137
-622.405	-200.000	0.025	0.187
-621.390	25.051	0.094	0.078
-620.376	-103.504	0.075	0.018
-619.361	91.186	0.063	0.070
-618.346	56.308	0.159	-0.154
-617.332	-12.016	-0.300	-0.196
-616.317	506.702	-0.065	-0.151
-615.303	-32.245	0.204	-0.113
-614.288	70.934	0.162	-0.167
-613.273	-200.000	-0.009	0.321
-612.259	-116.692	0.063	0.011
-611.244	125.640	-0.164	-0.207
-610.230	-100.025	0.201	-0.050
-609.215	282.087	0.084	0.150
-608.201	-92.460	0.412	-0.115
-607.186	-21.557	0.169	0.103
-606.171	-38.545	0.085	-0.045
-605.157	104.404	-0.248	-0.290
-604.142	-79.817	0.285	-0.096
-603.128	-92.659	-0.204	0.057
-602.113	-96.914	0.285	-0.074
-601.098	12.184	0.135	-0.103
-600.084	176.168	-0.165	-0.238
-599.069	-200.000	0.019	0.165
-598.055	177.471	0.095	0.138
-597.040	-200.000	-0.025	-0.192
-596.025	-126.458	0.268	-0.040
-595.011	-22.194	0.300	0.182
-593.996	-21.988	-0.044	-0.027
-592.982	-102.098	0.218	0.052
-591.967	-99.455	-0.142	0.036
-590.952	148.776	-0.065	-0.087
-589.938	-58.330	0.263	0.114
-588.923	433.749	-0.055	-0.120
-587.909	-150.719	0.194	-0.015
-586.894	-42.738	0.149	-0.076
-585.879	-200.000	0.002	0.089
-584.865	-74.021	-0.183	0.066
-583.850	547.152	0.111	0.263
-582.836	800.000	-0.094	-0.319
-581.821	371.451	0.108	0.218
-580.806	217.471	-0.071	-0.112
-579.792	53.994	-0.061	0.059
-578.777	800.000	-0.089	-0.311
-577.763	356.787	-0.063	-0.126
-576.748	185.857	0.114	0.169
-575.733	-167.257	0.277	0.011
-574.719	403.278	-0.135	0.283
-573.704	93.394	0.314	0.353
-572.690	89.002	-0.138	-0.153
-571.675	38.917	-0.207	0.184
-570.661	-4.502	-0.127	-0.087
-569.646	14.820	-0.228	-0.177
-568.631	175.635	-0.043	-0.062
-567.617	-93.600	-0.273	-0.075
-566.602	-137.734	0.126	-0.014
-565.588	5.344	0.268	-0.197
-564.573	-68.496	-0.295	-0.114
-563.558	3.800	0.143	-0.104
-562.544	-46.815	0.151	-0.074
-561.529	-12.101	0.337	0.220
-560.515	-102.696	-0.295	0.070
-559.500	-200.000	0.000	0.026
-558.485	-175.982	0.284	0.007
-557.471	41.744	-0.263	0.237
-556.456	414.616	0.037	-0.078
-555.442	-55.363	-0.149	0.067
-554.427	-62.570	0.104	-0.043
-553.412	3.283	-0.108	-0.078
-552.398	135.443	-0.097	-0.126
-551.383	55.362	-0.008	-0.007
-550.369	20.113	-0.087	0.070
-549.354	-31.825	-0.241	0.134
-548.339	421.653	-0.185	0.394
-547.325	1.423	-0.188	0.135
-546.310	-84.963	-0.232	0.072
-545.296	-62.411	-0.163	0.067
-544.281	15.798	-0.216	0.169
-543.266	-40.893	0.153	-0.079
-542.252	-200.000	-0.083	-0.507
-541.237	-200.000	-0.013	0.264
-540.223	344.034	-0.121	0.236
-539.208	180.854	-0.069	0.101
-538.193	290.639	-0.180	0.324
-537.179	-200.000	-0.014	0.143
-536.164	800.000	-0.108	-0.326
-535.150	40.655	-0.122	-0.110
-534.135	17.472	-0.249	0.196
-533.121	129.997	-0.232	-0.296
-532.106	78.421	0.201	0.214
-531.091	-49.178	-0.143	-0.068
-530.077	43.349	0.035	0.032
-529.062	-109.112	-0.134	-0.028
-528.048	108.300	0.122	-0.145
-527.033	-28.356	-0.050	-0.029
-526.018	-200.000	0.010	0.348
-525.004	-95.596	-0.216	-0.057
-523.989	689.716	-0.050	-0.130
-522.975	-28.950	0.265	0.151
-521.960	-200.000	-0.023	-0.272
-520.945	-200.000	0.021	-0.301
-519.931	-200.000	0.010	-0.403
-518.916	678.358	0.003	0.008
-517.902	35.847	-0.064	0.056
-516.887	-200.000	0.033	-0.180
-515.872	-99.899	0.447	0.111
-514.858	-66.616	-0.165	0.065
-513.843	122.984	0.135	0.168
-512.829	258.791	0.061	-0.105
-511.814	-200.000	0.029	0.246
-510.799	186.616	0.235	0.348
-509.785	-23.044	0.398	0.238
-508.770	-99.383	-0.280	-0.070
-507.756	-59.460	-0.109	0.047
-506.741	15.284	-0.277	0.216
-505.726	800.000	0.096	0.336
-504.712	-143.408	0.371	0.035
-503.697	487.840	0.054	0.123
-502.683	-200.000	0.068	0.373
-501.668	63.601	0.230	0.229
-500.653	-200.000	-0.048	-0.241
-499.639	60.606	0.253	0.249
-498.624	164.623	-0.176	-0.247
-497.610	-24.436	0.222	-0.131
-496.595	800.000	0.100	0.316
-495.581	185.996	-0.226	-0.333
-494.566	125.195	0.173	0.216
-493.551	-97.648	0.108	-0.028
-492.537	800.000	-0.077	0.291
-491.522	-66.339	-0.255	-0.101
-490.508	-122.578	0.102	0.017
-489.493	-94.303	-0.035	-0.010
-488.478	800.000	-0.021	0.070
-487.464	-31.200	-0.156	0.087
-486.449	-21.440	-0.128	-0.078
-485.435	242.902	0.105	0.175
-484.420	278.474	0.177	0.312
-483.405	-200.000	-0.015	0.110
-482.391	-38.583	-0.201	-0.105
-481.376	330.596	-0.192	-0.368
-480.362	275.962	-0.131	0.231
-479.347	-58.669	-0.031	0.013
-478.332	-200.000	-0.019	-0.335
-477.318	-176.259	0.249	-0.006
-476.303	-200.000	0.001	0.041
-475.289	800.000	-0.110	0.412
-474.274	-200.000	-0.023	-0.101
-473.259	88.924	-0.076	0.083
-472.245	-94.826	0.313	0.084
-471.230	-63.959	0.064	0.026
-470.216	-200.000	-0.015	0.113
-469.201	26.759	0.510	0.423
-468.186	-200.000	-0.017	0.090
-467.172	-200.000	0.028	-0.352
-466.157	-200.000	-0.043	-0.222
-465.143	-29.422	-0.309	-0.175
-464.128	60.249	0.076	0.074
-463.113	46.567	-0.156	-0.144
-462.099	-82.732	0.399	0.128
-461.084	-26.747	-0.122	0.071
-460.070	-200.000	-0.009	-0.286
-459.055	-106.914	0.340	0.075
-458.040	4.745	-0.218	0.158
-457.026	201.520	-0.140	0.213
-456.011	139.296	-0.175	0.229
-454.997	357.186	-0.148	0.292
-453.982	-135.186	-0.362	-0.043
-452.968	-200.000	-0.033	-0.328
-451.953	800.000	-0.109	-0.303
-450.938	-68.726	-0.278	-0.107
-449.924	-165.963	0.154	-0.007
-448.909	-106.855	-0.493	0.108
-447.895	66.117	-0.172	-0.173
-446.880	-36.093	-0.142	0.076
-445.865	33.804	-0.234	0.201
-444.851	800.000	-0.062	-0.188
-443.836	-200.000	0.017	-0.377
-442.822	-200.000	-0.019	0.141
-441.807	-91.474	0.220	-0.062
-440.792	51.329	-0.110	0.104
-439.778	-32.586	-0.078	-0.043
-438.763	141.402	-0.083	0.109
-437.749	-160.941	-0.271	0.014
-436.734	0.479	-0.187	0.132
-435.719	2.722	0.076	0.055
-434.705	338.268	0.074	-0.143
-433.690	266.977	-0.186	-0.321
-432.676	-67.303	0.407	-0.159
-431.661	-200.000	0.047	-0.327
-430.646	-117.409	-0.284	-0.051
-429.632	-10.774	0.260	-0.170
-428.617	-134.210	-0.083	-0.010
-427.603	800.000	-0.058	0.162
-426.588	-16.568	0.153	-0.096
-425.573	-40.717	0.306	-0.157
-424.559	-200.000	0.029	-0.292
-423.544	-200.000	0.004	0.031
-422.530	800.000	-0.053	0.150
-421.515	-100.701	-0.138	-0.034
-420.500	-55.024	-0.106	-0.047
-419.486	-14.057	0.106	0.067
-418.471	-127.336	0.054	-0.008
-417.457	-129.945	0.221	-0.030
-416.442	-200.000	-0.037	-0.291
-415.428	158.473	0.184	-0.252
-414.413	649.441	-0.049	-0.124
-413.398	-61.907	0.247	-0.102
-412.384	749.387	0.044	0.118
-411.369	-184.080	-0.314	-0.005
-410.355	161.565	0.182	0.252
-409.340	800.000	-0.029	-0.100
-408.325	800.000	-0.033	0.097
-407.311	-109.116	0.183	-0.039
-406.296	-200.000	-0.051	0.403
-405.282	-131.916	0.148	-0.019
-404.267	165.526	0.154	-0.215
-403.252	67.588	-0.096	0.097
-402.238	107.534	0.195	0.229
-401.223	-168.805	-0.262	-0.010
-400.209	66.308	0.121	0.122
-399.194	608.966	0.038	-0.093
-398.179	362.948	-0.195	-0.388
-397.165	38.050	0.175	0.154
-396.150	97.965	-0.076	0.087
-395.136	131.183	0.184	0.233
-394.121	-16.520	-0.187	0.117
-393.106	-70.377	-0.123	-0.046
-392.092	-27.812	0.170	-0.097
-391.077	-110.703	-0.425	0.087
-390.063	318.120	0.044	-0.083
-389.048	-85.525	0.176	-0.054
-388.033	-200.000	-0.028	-0.124
-387.019	-157.896	-0.272	-0.016
-386.004	227.738	0.129	-0.207
-384.990	-29.697	-0.102	-0.058
-383.975	-148.001	0.061	-0.005
-382.960	237.685	-0.070	0.115
-381.946	-36.967	0.319	0.169
-380.931	-136.555	0.164	0.019
-379.917	317.367	-0.062	-0.116
-378.902	37.585	0.227	-0.199
-377.888	-149.194	0.193	0.015
-376.873	800.000	0.036	0.099
-375.858	-151.973	-0.489	0.035
-374.844	387.317	-0.062	-0.126
-373.829	407.493	-0.054	-0.112
-372.815	174.072	-0.144	0.205
-371.800	-38.809	-0.212	0.111
-370.785	104.893	0.015	0.018
-369.771	594.926	0.094	0.230
-368.756	51.620	0.372	-0.349
-367.742	-200.000	-0.042	0.329
-366.727	-59.020	0.261	-0.111
-365.712	-200.000	-0.027	-0.132
-364.698	-200.000	-0.037	-0.274
-363.683	800.000	0.062	-0.212
-362.669	-200.000	0.090	-0.422
-361.654	-98.997	-0.112	0.028
-360.639	-200.000	0.019	0.280
-359.625	56.310	-0.252	0.242
-358.610	35.546	-0.351	0.305
-357.596	-59.041	-0.125	-0.053
-356.581	511.948	0.044	0.100
-355.566	101.622	-0.048	0.055
-354.552	800.000	0.056	0.237
-353.537	-42.163	-0.182	-0.092
-352.523	-158.657	-0.359	0.020
-351.508	-200.000	-0.026	-0.147
-350.493	-99.447	-0.377	0.094
-349.479	-165.225	-0.217	0.009
-348.464	-191.099	-0.056	-0.001
-347.450	26.658	0.262	-0.217
-346.435	31.141	0.399	0.338
-345.420	331.699	0.027	-0.051
-344.406	-86.589	-0.224	-0.068
-343.391	-131.432	-0.475	-0.062
-342.377	-138.489	-0.245	-0.027
-341.362	18.100	0.088	0.069
-340.348	2.578	0.215	-0.154
-339.333	800.000	-0.098	0.374
-338.318	-200.000	0.007	0.246
-337.304	-200.000	-0.023	0.169
-336.289	147.040	-0.063	0.084
-335.275	738.072	-0.082	0.217
-334.260	-112.541	-0.313	0.062
-333.245	111.214	0.107	-0.127
-332.231	-139.542	0.059	0.006
-331.216	800.000	0.068	-0.255
-330.202	-34.169	0.158	-0.086
-329.187	455.726	-0.110	0.241
-328.172	-200.000	-0.029	-0.127
-327.158	-82.770	0.280	0.089
-326.143	-50.965	-0.258	-0.120
-325.129	-117.667	0.145	0.026
-324.114	-17.611	0.155	-0.096
-323.099	317.875	0.104	-0.194
-322.085	-75.342	0.255	0.090
-321.070	133.813	0.139	0.178
-320.056	-109.198	0.353	-0.074
-319.041	21.358	-0.252	-0.202
-318.026	-137.515	0.349	-0.039
-317.012	-200.000	-0.137	-0.598
-315.997	-56.555	-0.309	0.135
-314.983	-200.000	-0.035	0.363
-313.968	-161.801	0.299	-0.015
-312.953	225.436	-0.162	-0.259
-311.939	800.000	-0.061	-0.188
-310.924	188.916	0.169	0.249
-309.910	-5.749	0.377	-0.254
-308.895	379.863	-0.069	0.138
-307.880	-200.000	-0.106	-0.530
-306.866	507.953	-0.132	0.302
-305.851	351.886	0.135	-0.263
-304.837	-129.180	0.065	0.009
-303.822	51.563	0.288	0.270
-302.807	-176.215	0.083	-0.002
-301.793	331.324	-0.247	0.469
-300.778	-200.000	0.001	-0.074
-299.764	293.069	0.065	-0.117
-298.749	-76.278	0.070	0.024
-297.735	-200.000	-0.016	-0.135
-296.720	-88.196	-0.131	-0.039
-295.705	-87.876	0.316	-0.094
-294.691	44.034	-0.023	-0.021
-293.676	-58.269	0.161	-0.069
-292.662	121.641	0.066	0.081
-291.647	800.000	0.006	-0.019
-290.632	-43.003	-0.107	0.054
-289.618	467.677	0.049	-0.108
-288.603	789.241	-0.103	-0.278
-287.589	747.601	0.072	0.192
-286.574	-67.136	-0.099	0.038
-285.559	16.126	0.065	0.050
-284.545	90.879	-0.158	0.174
-283.530	-47.655	-0.122	-0.058
-282.516	169.039	0.070	0.098
-281.501	-83.301	-0.525	0.166
-280.486	-69.729	0.286	-0.107
-279.472	119.747	0.093	0.114
-278.457	-108.154	0.140	0.030
-277.443	-83.169	0.154	0.049
-276.428	-63.605	0.185	-0.075
-275.413	-90.904	0.452	0.128
-274.399	-88.562	0.147	0.043
-273.384	-97.012	-0.174	0.045
-272.370	-200.000	0.207	-0.001
-271.355	-200.000	-0.002	0.222
-270.340	228.319	0.178	-0.285
-269.326	176.046	0.054	-0.078
-268.311	-48.746	0.229	0.108
-267.297	-138.233	-0.474	-0.052
-266.282	-46.464	0.086	-0.042
-265.267	-200.000	0.418	0.001
-264.253	-106.060	0.317	-0.070
-263.238	800.000	0.102	0.325
-262.224	16.197	0.098	0.076
-261.209	-120.286	-0.268	0.045
-260.195	134.232	-0.195	-0.248
-259.180	-200.000	-0.016	0.188
-258.165	-50.756	-0.330	0.152
-257.151	-85.294	0.161	-0.049
-256.136	-200.000	-0.027	-0.308
-255.122	-1.438	0.080	-0.055
-254.107	308.219	0.145	-0.266
-253.092	-200.000	-0.058	0.384
-252.078	-77.940	0.354	0.120
-251.063	73.643	0.280	0.288
-250.049	-132.586	-0.349	0.044
-249.034	-119.530	-0.335	-0.057
-248.019	-124.660	-0.183	0.028
-247.005	-200.000	0.022	0.159
-245.990	124.007	-0.162	0.200
-244.976	-86.688	-0.265	0.080
-243.961	275.616	0.136	0.236
-242.946	-200.000	-0.005	-0.219
-241.932	-200.000	0.039	0.197
-240.917	-74.522	-0.241	0.085
-239.903	-61.771	0.163	0.067
-238.888	-15.773	0.112	0.070
-237.873	3.636	0.099	0.071
-236.859	277.421	-0.081	0.141
-235.844	-200.000	0.014	-0.127
-234.830	166.452	0.089	-0.123
-233.815	27.606	0.053	-0.044
-232.800	-200.000	0.033	0.147
-231.786	-200.000	-0.003	-0.140
-230.771	-200.000	0.017	-0.325
-229.757	-200.000	-0.002	-0.239
-228.742	-68.417	0.298	-0.114
-227.727	800.000	-0.033	-0.090
-226.713	221.293	-0.105	-0.166
-225.698	-16.119	0.253	-0.158
-224.684	-130.771	-0.362	0.048
-223.669	-126.494	0.353	0.051
-222.655	-200.000	0.089	-0.407
-221.640	-20.832	0.176	0.106
-220.625	-96.448	-0.216	0.056
-219.611	-129.158	-0.100	-0.014
-218.596	-96.389	-0.118	-0.031
-217.582	-62.405	0.352	0.144
-216.567	-10.699	-0.290	0.188
-215.552	-200.000	0.067	-0.346
-214.538	-200.000	0.004	0.099
-213.523	107.652	-0.144	0.169
-212.509	68.277	0.104	-0.104
-211.494	33.034	-0.238	-0.202
-210.479	-31.344	-0.115	-0.063
-209.465	-60.203	0.229	-0.096
-208.450	28.812	0.117	0.097
-207.436	-200.000	-0.034	0.175
-206.421	-200.000	-0.043	-0.250
-205.406	800.000	-0.046	-0.184
-204.392	-118.593	-0.237	-0.041
-203.377	-12.081	0.102	0.065
-202.363	-43.329	-0.079	-0.039
-201.348	519.637	-0.040	0.091
-200.333	800.000	0.066	0.279
-199.319	-54.216	-0.323	0.144
-198.304	271.886	0.103	0.177
-197.290	606.564	0.132	0.324
-196.275	88.832	-0.092	0.100
-195.260	69.348	0.088	-0.089
-194.246	-86.930	0.176	-0.053
-193.231	83.005	-0.208	-0.222
-192.217	15.568	0.293	-0.226
-191.202	-175.950	0.083	0.002
-190.187	-200.000	-0.064	-0.317
-189.173	115.610	-0.117	-0.140
-188.158	800.000	0.080	0.258
-187.144	447.722	0.029	-0.063
-186.129	70.323	-0.276	-0.279
-185.114	37.707	-0.030	0.026
-184.100	-200.000	-0.017	-0.194
-183.085	-133.641	-0.216	-0.027
-182.071	-134.348	-0.107	-0.013
-181.056	-200.000	0.005	-0.091
-180.042	261.096	0.028	-0.047
-179.027	-33.648	0.247	-0.134
-178.012	701.460	0.044	0.115
-176.998	197.999	0.010	0.014
-175.983	-80.694	-0.221	-0.072
-174.969	32.049	0.282	-0.238
-173.954	170.907	-0.131	-0.184
-172.939	800.000	-0.037	0.100
-171.925	243.122	0.047	0.077
-170.910	423.375	0.151	0.318
-169.896	206.280	-0.119	0.181
-168.881	800.000	0.025	-0.090
-167.866	47.227	0.107	0.097
-166.852	71.432	0.118	-0.120
-165.837	-200.000	-0.057	-0.294
-164.823	-110.865	-0.149	0.030
-163.808	-11.178	-0.418	0.270
-162.793	158.930	0.133	0.181
-161.779	-20.387	-0.368	-0.222
-160.764	-61.324	0.390	-0.161
-159.750	57.281	0.098	0.093
-158.735	800.000	-0.063	-0.252
-157.720	-200.000	-0.008	-0.116
-156.706	41.067	0.223	-0.197
-155.691	-200.000	0.021	0.210
-154.677	105.811	0.241	0.279
-153.662	103.830	0.018	-0.021
-152.647	-187.053	0.259	-0.003
-151.633	-82.597	0.407	-0.129
-150.618	152.764	-0.204	-0.273
-149.604	-111.125	0.277	0.056
-148.589	677.422	-0.026	0.065
-147.574	-69.396	-0.240	-0.090
-146.560	62.814	0.047	-0.046
-145.545	-142.420	-0.156	0.015
-144.531	-38.110	0.311	-0.162
-143.516	-57.485	-0.247	0.106
-142.502	91.045	0.174	0.191
-141.487	-45.437	0.199	0.097
-140.472	-52.946	-0.150	0.067
-139.458	354.639	0.112	0.217
-138.443	31.478	0.197	0.165
-137.429	-200.000	-0.046	-0.228
-136.414	-120.601	0.219	-0.036
-135.399	-72.783	-0.034	0.012
-134.385	-67.631	-0.130	-0.050
-133.370	346.382	-0.111	-0.214
-132.356	-200.000	-0.019	-0.261
-131.341	-35.041	-0.120	-0.064
-130.326	-36.167	0.296	-0.156
-129.312	-62.740	0.263	0.107
-128.297	-136.680	0.139	-0.016
-127.283	-128.849	-0.470	-0.065
-126.268	-17.215	-0.129	0.079
-125.253	800.000	0.083	0.265
-124.239	41.280	-0.292	0.258
-123.224	156.295	-0.217	0.293
-122.210	-149.875	-0.127	0.010
