DTS Sentinel unit serial number:	SN413079Multiplexer serial number:	ORYXHardware model number:	OX4-SRSoftware version number:	ORYX F/W v4.00 Oryx Data Collector v3.7.2.0data status	okinstallation	princeton_trtdifferential loss correction	single-endedforward channel	channel 1reverse channel	N/Adate	2019/09/15time	17:10:35forward acquisition time	60.00reverse acquisition time	0.00gamma	496.2192k internal	0.2291k external	0.2291temperature offset calibration	0.9935default loss term (dB/km)	0.3790temperature slope calibration	1.0000multiplexer offset coefficient	1.0000multiplexer slope coefficient	1.0000fibre end	0.00T internal ref (°C)	44.64T ext. ref 1 (°C)	5.96T ext. ref 2 (°C)	40.52length (m)	temperature (°C)	Stokes	anti-Stokes-747.200	-14.197	0.115	0.076
-746.185	195.265	0.061	0.095
-745.171	49.551	0.221	0.213
-744.156	372.278	-0.088	0.184
-743.142	800.000	0.107	-0.354
-742.127	-60.351	0.243	0.106
-741.112	-166.143	0.122	-0.005
-740.098	-200.000	0.005	0.042
-739.083	228.423	0.081	-0.135
-738.069	-68.336	-0.135	-0.054
-737.054	1.894	-0.186	-0.137
-736.039	89.245	-0.155	-0.177
-735.025	800.000	0.095	0.303
-734.010	27.291	0.199	-0.171
-732.996	-200.000	0.035	0.316
-731.981	800.000	-0.047	-0.163
-730.966	95.860	-0.072	-0.084
-729.952	33.024	-0.076	0.067
-728.937	148.233	-0.247	-0.341
-727.923	-112.998	0.198	0.040
-726.908	-31.631	0.027	-0.015
-725.894	-200.000	-0.023	-0.119
-724.879	800.000	0.071	0.279
-723.864	800.000	-0.127	-0.442
-722.850	-200.000	0.002	-0.199
-721.835	81.290	0.187	-0.207
-720.821	-61.488	0.088	0.038
-719.806	800.000	-0.114	-0.366
-718.791	6.615	0.126	-0.096
-717.777	-194.950	-0.177	-0.001
-716.762	800.000	-0.102	0.347
-715.748	483.658	0.159	0.370
-714.733	-124.378	-0.264	0.042
-713.718	426.607	0.076	0.167
-712.704	-40.430	-0.273	-0.145
-711.689	-200.000	-0.020	-0.250
-710.675	54.798	0.287	0.283
-709.660	91.033	0.221	-0.253
-708.645	-200.000	-0.042	-0.273
-707.631	397.378	-0.080	-0.171
-706.616	475.364	-0.063	-0.146
-705.602	334.711	-0.179	-0.355
-704.587	-86.341	-0.395	-0.124
-703.572	-200.000	-0.076	-0.423
-702.558	-49.910	-0.125	0.061
-701.543	345.250	-0.026	-0.053
-700.529	800.000	0.023	0.067
-699.514	-100.723	0.113	-0.029
-698.499	51.087	-0.423	0.410
-697.485	-56.287	-0.017	-0.008
-696.470	126.349	-0.117	0.152
-695.456	-200.000	-0.060	-0.429
-694.441	-103.309	0.374	-0.090
-693.426	-147.322	0.280	0.024
-692.412	800.000	-0.047	0.187
-691.397	-200.000	-0.040	-0.348
-690.383	354.378	-0.068	-0.138
-689.368	800.000	-0.023	-0.069
-688.354	-7.785	0.362	0.250
-687.339	228.723	-0.113	-0.189
-686.324	478.142	0.023	0.054
-685.310	179.289	-0.070	-0.104
-684.295	31.658	-0.181	-0.159
-683.281	-125.402	-0.239	0.037
-682.266	86.433	-0.237	0.267
-681.251	106.279	0.109	-0.131
-680.237	800.000	-0.061	0.257
-679.222	-200.000	-0.090	0.443
-678.208	-200.000	-0.029	0.163
-677.193	800.000	-0.048	0.217
-676.178	-69.196	0.227	0.089
-675.164	800.000	-0.047	-0.153
-674.149	-200.000	-0.080	-0.392
-673.135	-52.302	-0.079	-0.037
-672.120	-7.116	0.130	-0.090
-671.105	-147.175	-0.086	-0.007
-670.091	800.000	0.094	0.301
-669.076	-115.292	0.125	-0.024
-668.062	-138.540	0.233	0.026
-667.047	800.000	0.064	0.221
-666.032	-151.044	0.081	-0.006
-665.018	34.496	0.270	-0.240
-664.003	423.673	0.079	0.172
-662.989	-85.719	-0.142	-0.045
-661.974	-14.805	-0.121	0.080
-660.959	800.000	0.029	-0.100
-659.945	-161.934	0.129	-0.007
-658.930	-200.000	0.056	-0.268
-657.916	-106.460	0.073	-0.017
-656.901	-99.261	0.139	0.036
-655.886	-200.000	0.009	-0.050
-654.872	-200.000	-0.082	-0.388
-653.857	-200.000	-0.017	0.077
-652.843	-200.000	0.057	-0.265
-651.828	-22.937	-0.370	0.228
-650.814	-30.679	0.254	0.147
-649.799	-200.000	0.001	0.089
-648.784	163.591	-0.124	0.178
-647.770	800.000	0.030	-0.127
-646.755	-12.364	0.216	-0.144
-645.741	-10.117	-0.018	0.012
-644.726	68.051	0.057	-0.060
-643.711	-160.210	-0.210	0.012
-642.697	7.884	-0.202	-0.154
-641.682	-200.000	-0.031	-0.274
-640.668	9.889	-0.143	0.111
-639.653	-101.135	-0.355	-0.089
-638.638	59.078	-0.254	-0.255
-637.624	-102.233	0.268	0.066
-636.609	-143.106	0.126	-0.012
-635.595	-154.755	0.156	0.011
-634.580	-49.520	0.249	-0.121
-633.565	-200.000	0.031	0.199
-632.551	800.000	0.079	0.329
-631.536	-16.487	0.173	0.112
-630.522	171.299	-0.068	0.100
-629.507	-115.971	0.193	0.037
-628.492	-35.951	0.182	0.100
-627.478	-41.369	-0.053	0.028
-626.463	-147.864	0.027	0.002
-625.449	-48.874	0.087	0.042
-624.434	45.629	0.196	-0.185
-623.419	20.789	0.104	0.086
-622.405	13.892	0.248	0.196
-621.390	124.073	-0.206	0.264
-620.376	-200.000	-0.084	-0.426
-619.361	-27.217	0.215	0.128
-618.346	377.530	0.146	-0.304
-617.332	160.334	0.079	0.113
-616.317	141.574	-0.160	-0.217
-615.303	-29.291	0.316	-0.185
-614.288	-62.253	-0.153	0.065
-613.273	544.840	-0.057	-0.140
-612.259	235.571	0.076	0.129
-611.244	-200.000	-0.045	-0.237
-610.230	71.998	0.148	-0.157
-609.215	-200.000	-0.023	-0.235
-608.201	205.544	0.083	-0.132
-607.186	393.913	0.172	-0.365
-606.171	42.106	0.219	0.202
-605.157	-60.363	-0.331	-0.144
-604.142	-46.479	-0.339	-0.170
-603.128	218.990	-0.151	0.247
-602.113	-200.000	-0.085	0.414
-601.098	121.334	0.129	0.164
-600.084	51.358	0.166	0.160
-599.069	-161.478	-0.425	0.022
-598.055	-200.000	-0.039	-0.236
-597.040	-50.736	0.215	0.103
-596.025	254.055	0.051	-0.088
-595.011	-200.000	0.051	-0.512
-593.996	77.680	0.095	-0.103
-592.982	-141.100	-0.355	0.037
-591.967	-31.425	-0.087	-0.050
-590.952	800.000	0.086	-0.307
-589.938	330.105	0.166	-0.326
-588.923	800.000	-0.050	-0.209
-587.909	800.000	-0.045	-0.138
-586.894	49.947	-0.049	0.047
-585.879	-200.000	0.016	-0.193
-584.865	29.210	-0.128	0.110
-583.850	392.139	-0.095	-0.200
-582.836	-86.954	-0.120	-0.037
-581.821	-28.389	0.176	0.103
-580.806	32.869	0.056	-0.049
-579.792	-200.000	-0.062	-0.343
-578.777	-34.942	-0.186	0.103
-577.763	-132.525	-0.301	0.039
-576.748	101.082	-0.083	-0.098
-575.733	-200.000	0.013	0.078
-574.719	-200.000	-0.012	-0.197
-573.704	43.063	-0.121	0.113
-572.690	164.741	-0.112	0.160
-571.675	-200.000	0.010	-0.161
-570.661	-200.000	0.047	0.254
-569.646	-200.000	-0.041	0.226
-568.631	61.996	-0.149	0.151
-567.617	-25.423	-0.233	-0.140
-566.602	-153.895	0.280	0.019
-565.588	-28.041	0.327	0.192
-564.573	-147.303	-0.304	-0.026
-563.558	20.016	-0.052	-0.043
-562.544	20.864	0.173	0.143
-561.529	-112.781	-0.281	0.057
-560.515	123.978	0.140	-0.179
-559.500	-96.811	0.091	0.024
-558.485	-174.405	-0.032	0.001
-557.471	-49.284	-0.088	0.043
-556.456	800.000	-0.088	-0.273
-555.442	-66.264	-0.287	0.116
-554.427	-101.393	-0.235	-0.058
-553.412	800.000	-0.068	-0.238
-552.398	-155.339	-0.344	-0.023
-551.383	196.786	0.123	-0.190
-550.369	654.984	-0.143	0.372
-549.354	516.362	0.074	-0.176
-548.339	-120.962	-0.284	0.049
-547.325	800.000	0.058	0.217
-546.310	51.262	-0.228	-0.220
-545.296	125.298	0.090	-0.115
-544.281	274.576	0.069	-0.124
-543.266	-200.000	-0.011	-0.072
-542.252	237.852	-0.142	0.239
-541.237	46.492	0.188	0.177
-540.223	-102.374	-0.330	0.080
-539.208	-107.943	-0.403	-0.089
-538.193	-21.923	-0.117	0.072
-537.179	-58.209	-0.285	0.126
-536.164	161.480	0.155	-0.220
-535.150	-4.807	0.160	0.112
-534.135	-81.541	-0.160	-0.053
-533.121	144.671	-0.060	0.082
-532.106	157.383	0.032	0.045
-531.091	-77.517	0.358	0.126
-530.077	417.982	0.068	-0.147
-529.062	579.560	0.122	0.302
-528.048	178.325	0.292	0.432
-527.033	800.000	0.108	0.404
-526.018	-68.876	0.204	0.080
-525.004	81.210	-0.215	0.236
-523.989	30.495	0.068	-0.059
-522.975	127.499	0.124	-0.160
-521.960	488.680	-0.056	-0.131
-520.945	466.254	0.134	0.304
-519.931	-14.096	0.445	-0.292
-518.916	-88.808	0.303	0.091
-517.902	721.094	-0.048	0.131
-516.887	-124.332	-0.335	0.053
-515.872	219.908	0.234	0.380
-514.858	-170.266	-0.189	0.007
-513.843	368.124	-0.110	-0.227
-512.829	280.585	0.129	-0.234
-511.814	316.509	0.110	0.211
-510.799	800.000	0.083	-0.251
-509.785	197.723	0.054	0.084
-508.770	65.291	0.079	-0.081
-507.756	125.285	0.041	-0.053
-506.741	-200.000	-0.008	-0.146
-505.726	-73.827	0.138	-0.051
-504.712	-38.976	-0.374	0.200
-503.697	59.258	-0.024	0.024
-502.683	800.000	-0.055	-0.172
-501.668	-200.000	-0.014	0.095
-500.653	-161.659	0.216	-0.011
-499.639	-195.617	0.024	0.000
-498.624	39.350	0.296	0.268
-497.610	253.830	0.310	0.538
-496.595	-6.955	0.160	-0.110
-495.581	0.222	0.242	0.175
-494.566	46.156	-0.098	-0.092
-493.551	-78.532	-0.163	0.057
-492.537	-100.032	0.117	0.030
-491.522	-200.000	0.013	0.070
-490.508	-145.651	-0.384	-0.035
-489.493	-56.801	0.323	-0.145
-488.478	-200.000	-0.013	-0.254
-487.464	-101.127	0.072	-0.018
-486.449	-143.230	0.290	-0.028
-485.435	9.663	-0.097	-0.075
-484.420	-200.000	-0.020	0.241
-483.405	506.248	-0.180	-0.423
-482.391	-142.739	-0.342	0.034
-481.376	-83.000	0.263	-0.086
-480.362	-48.588	-0.267	-0.130
-479.347	-153.400	-0.198	-0.014
-478.332	159.291	0.107	0.151
-477.318	-62.099	0.293	-0.124
-476.303	237.513	-0.106	0.179
-475.289	-20.351	0.330	-0.205
-474.274	-200.000	0.012	-0.135
-473.259	800.000	0.060	-0.221
-472.245	-8.257	0.309	0.211
-471.230	172.742	0.103	-0.151
-470.216	104.822	-0.105	0.125
-469.201	-159.257	-0.336	-0.019
-468.186	-46.852	0.141	-0.070
-467.172	216.581	-0.216	-0.348
-466.157	25.456	-0.172	0.145
-465.143	-142.677	-0.578	0.057
-464.128	318.203	-0.106	-0.202
-463.113	-137.055	0.332	0.038
-462.099	-200.000	-0.002	0.171
-461.084	476.719	0.047	-0.109
-460.070	800.000	-0.039	-0.148
-459.055	409.295	-0.023	0.049
-458.040	289.838	-0.167	0.307
-457.026	150.024	-0.251	-0.345
-456.011	232.436	-0.078	-0.130
-454.997	-200.000	-0.057	0.342
-453.982	81.554	0.033	-0.036
-452.968	800.000	-0.060	-0.196
-451.953	-3.215	-0.285	0.201
-450.938	-44.616	0.049	0.025
-449.924	-200.000	-0.004	-0.138
-448.909	-200.000	-0.009	0.129
-447.895	-133.626	0.136	-0.017
-446.880	-200.000	0.028	0.272
-445.865	-63.580	0.241	-0.100
-444.851	-71.719	-0.394	0.149
-443.836	59.487	-0.182	0.182
-442.822	150.871	-0.133	0.182
-441.807	288.164	0.130	0.238
-440.792	-18.792	-0.071	-0.045
-439.778	-65.535	0.262	0.106
-438.763	190.163	0.184	-0.280
-437.749	25.328	0.088	-0.074
-436.734	-200.000	-0.027	0.246
-435.719	269.832	0.046	-0.081
-434.705	48.291	0.072	-0.068
-433.690	29.495	0.126	0.109
-432.676	-200.000	0.012	0.319
-431.661	19.615	-0.386	-0.314
-430.646	-100.114	-0.088	0.022
-429.632	542.200	-0.031	0.075
-428.617	-109.935	0.180	0.038
-427.603	-149.853	0.012	0.001
-426.588	77.574	-0.219	-0.236
-425.573	332.313	-0.077	-0.150
-424.559	-91.984	-0.145	-0.042
-423.544	-200.000	0.002	0.104
-422.530	-100.128	0.197	0.050
-421.515	47.312	-0.122	0.115
-420.500	162.781	0.133	0.189
-419.486	-132.490	-0.230	0.030
-418.471	-119.174	-0.181	-0.032
-417.457	800.000	0.052	-0.218
-416.442	23.939	0.045	-0.038
-415.428	-6.801	0.160	-0.110
-414.413	122.118	0.224	0.283
-413.398	-33.225	0.216	-0.121
-412.384	440.580	0.075	-0.166
-411.369	-131.692	0.204	-0.027
-410.355	399.278	-0.245	-0.519
-409.340	-200.000	0.016	0.354
-408.325	-200.000	0.005	0.365
-407.311	-200.000	-0.025	0.250
-406.296	80.627	-0.102	-0.111
-405.282	112.280	-0.269	-0.328
-404.267	-200.000	0.027	-0.178
-403.252	800.000	0.028	0.085
-402.238	7.120	0.161	-0.122
-401.223	130.470	-0.208	0.269
-400.209	73.105	0.148	-0.157
-399.194	800.000	-0.067	0.223
-398.179	22.720	-0.055	-0.045
-397.165	-47.028	0.210	0.104
-396.150	800.000	-0.079	0.337
-395.136	42.830	-0.452	-0.416
-394.121	-99.469	0.190	-0.048
-393.106	-38.442	-0.233	0.124
-392.092	-159.890	-0.225	-0.012
-391.077	800.000	0.026	-0.088
-390.063	410.653	-0.065	-0.139
-389.048	63.067	-0.309	-0.313
-388.033	19.014	-0.208	-0.168
-387.019	444.370	-0.083	-0.185
-386.004	-154.518	-0.225	0.015
-384.990	800.000	-0.060	-0.252
-383.975	130.131	0.269	0.348
-382.960	-11.510	-0.052	-0.034
-381.946	800.000	-0.021	0.068
-380.931	-200.000	0.028	0.125
-379.917	39.627	0.026	-0.024
-378.902	-108.746	0.169	0.037
-377.888	-114.024	0.071	0.014
-376.873	125.868	-0.129	0.164
-375.858	-89.223	-0.092	-0.027
-374.844	5.614	-0.315	-0.235
-373.829	-200.000	0.054	0.365
-372.815	-157.083	0.361	0.022
-371.800	-62.996	0.052	0.022
-370.785	53.748	0.230	0.223
-369.771	800.000	-0.124	0.377
-368.756	-159.904	-0.167	-0.009
-367.742	-98.456	-0.287	0.074
-366.727	-86.310	0.148	-0.046
-365.712	-200.000	-0.090	-0.399
-364.698	-200.000	-0.116	-0.593
-363.683	-197.053	-0.051	0.000
-362.669	800.000	0.093	0.298
-361.654	-9.271	-0.116	-0.078
-360.639	-114.934	-0.225	-0.043
-359.625	-52.191	-0.085	-0.040
-358.610	265.156	0.240	0.422
-357.596	439.412	-0.055	0.120
-356.581	-200.000	-0.002	0.303
-355.566	114.685	-0.126	0.155
-354.552	-200.000	0.026	0.270
-353.537	-200.000	0.030	0.221
-352.523	75.840	0.164	0.175
-351.508	412.978	-0.038	-0.082
-350.493	-46.721	0.388	-0.192
-349.479	-197.830	-0.214	-0.001
-348.464	-62.405	-0.217	-0.091
-347.450	-83.419	-0.202	0.065
-346.435	-85.759	0.231	-0.072
-345.420	183.572	0.105	0.156
-344.406	13.320	0.131	-0.102
-343.391	126.286	-0.130	0.166
-342.377	-112.257	-0.214	0.043
-341.362	800.000	0.131	0.402
-340.348	-107.733	0.212	0.047
-339.333	800.000	0.064	-0.213
-338.318	-200.000	0.006	0.228
-337.304	-90.703	-0.140	-0.041
-336.289	-138.379	-0.308	0.034
-335.275	-110.753	0.181	0.038
-334.260	-200.000	0.085	-0.479
-333.245	-200.000	-0.026	-0.139
-332.231	162.774	0.163	0.231
-331.216	-21.814	0.226	0.138
-330.202	103.154	-0.194	0.230
-329.187	276.437	0.111	0.198
-328.172	138.979	0.190	-0.252
-327.158	800.000	-0.105	-0.416
-326.143	-79.793	-0.178	-0.060
-325.129	800.000	0.055	0.163
-324.114	-200.000	-0.016	-0.310
-323.099	-122.715	0.420	-0.069
-322.085	-200.000	0.020	-0.257
-321.070	-64.794	-0.111	-0.045
-320.056	-93.063	0.262	-0.074
-319.041	-63.952	0.210	0.087
-318.026	-19.369	0.135	0.084
-317.012	-70.986	0.180	-0.068
-315.997	63.948	-0.156	0.158
-314.983	7.072	0.315	0.236
-313.968	11.987	0.101	0.078
-312.953	-200.000	0.001	0.152
-311.939	-40.467	0.257	-0.134
-310.924	127.896	0.143	0.183
-309.910	-48.830	-0.142	-0.069
-308.895	77.005	0.140	0.150
-307.880	134.561	0.131	0.171
-306.866	58.395	-0.168	0.165
-305.851	-69.176	-0.286	0.111
-304.837	-21.951	0.255	0.156
-303.822	57.667	0.055	0.054
-302.807	264.748	-0.101	-0.177
-301.793	800.000	0.147	0.414
-300.778	800.000	0.053	0.152
-299.764	-122.617	-0.224	-0.037
-298.749	-195.530	-0.125	0.001
-297.735	-84.148	0.107	-0.034
-296.720	416.421	0.099	0.212
-295.705	69.380	0.255	0.264
-294.691	154.718	-0.084	0.116
-293.676	178.696	0.133	-0.196
-292.662	-80.874	-0.358	0.119
-291.647	-147.974	0.286	-0.024
-290.632	-18.699	-0.139	-0.087
-289.618	-101.466	0.211	0.052
-288.603	62.133	-0.170	0.170
-287.589	-200.000	0.017	0.099
-286.574	800.000	-0.146	0.489
-285.559	-200.000	-0.033	0.437
-284.545	142.015	0.159	0.211
-283.530	26.260	-0.197	0.165
-282.516	-43.075	-0.249	0.127
-281.501	-178.302	-0.519	-0.012
-280.486	-22.240	-0.069	-0.042
-279.472	-160.522	-0.225	0.012
-278.457	83.142	-0.339	-0.371
-277.443	28.981	-0.038	-0.033
-276.428	-159.437	0.051	0.003
-275.413	-8.107	0.123	0.083
-274.399	-200.000	0.031	0.224
-273.384	-18.340	0.168	0.106
-272.370	33.441	-0.168	0.147
-271.355	178.484	-0.038	0.055
-270.340	49.865	0.067	0.063
-269.326	236.985	0.178	0.296
-268.311	84.126	0.106	-0.116
-267.297	-148.765	-0.197	-0.016
-266.282	49.209	0.216	0.204
-265.267	800.000	0.042	-0.169
-264.253	-52.994	-0.254	-0.117
-263.238	33.823	0.058	0.051
-262.224	744.250	0.104	-0.280
-261.209	-28.082	-0.101	-0.059
-260.195	-200.000	0.060	-0.340
-259.180	169.341	-0.176	-0.253
-258.165	-80.314	0.212	-0.071
-257.151	274.847	-0.087	-0.154
-256.136	-200.000	-0.010	0.129
-255.122	-200.000	0.017	0.089
-254.107	-46.838	-0.282	0.139
-253.092	43.222	0.188	-0.173
-252.078	-190.206	0.171	-0.002
-251.063	89.128	0.140	0.157
-250.049	31.643	0.120	0.104
-249.034	644.815	-0.100	-0.257
-248.019	708.529	-0.048	-0.127
-247.005	43.708	-0.081	0.074
-245.990	764.439	-0.222	-0.607
-244.976	24.902	0.126	0.105
-243.961	515.758	0.073	0.171
-242.946	42.865	0.081	-0.074
-241.932	217.234	-0.097	0.154
-240.917	-200.000	0.013	0.084
-239.903	-200.000	0.025	-0.265
-238.888	800.000	-0.132	-0.530
-237.873	-155.719	0.150	-0.010
-236.859	-200.000	0.025	0.157
-235.844	-147.726	0.074	0.006
-234.830	-54.773	-0.293	0.133
-233.815	-38.496	-0.379	-0.201
-232.800	56.161	-0.241	-0.235
-231.786	133.311	0.089	-0.116
-230.771	-71.764	-0.221	-0.083
-229.757	-75.941	0.183	-0.065
-228.742	800.000	0.036	0.141
-227.727	-200.000	0.004	-0.236
-226.713	-89.331	0.108	-0.032
-225.698	17.499	-0.154	0.123
-224.684	305.083	0.063	-0.117
-223.669	300.315	-0.176	0.326
-222.655	46.253	0.150	0.139
-221.640	-117.508	0.187	0.034
-220.625	-200.000	0.051	-0.275
-219.611	-200.000	-0.063	-0.296
-218.596	-137.880	0.171	-0.019
-217.582	800.000	0.052	-0.221
-216.567	580.039	0.028	0.069
-215.552	459.175	0.111	0.247
-214.538	284.997	-0.030	-0.053
-213.523	-156.794	0.257	-0.016
-212.509	67.229	-0.235	0.241
-211.494	-98.310	0.198	-0.051
-210.479	520.788	-0.099	0.233
-209.465	-56.661	-0.058	-0.026
-208.450	-200.000	0.006	0.299
-207.436	87.632	0.155	-0.172
-206.421	-122.707	-0.200	-0.032
-205.406	-52.434	0.105	-0.049
-204.392	416.264	0.023	0.049
-203.377	43.908	0.191	-0.175
-202.363	-200.000	0.015	0.193
-201.348	-59.869	-0.182	-0.078
-200.333	-200.000	-0.005	-0.189
-199.319	656.783	0.094	0.242
-198.304	31.210	-0.170	-0.146
-197.290	-65.304	0.331	-0.134
-196.275	129.904	-0.079	0.102
-195.260	800.000	0.095	0.266
-194.246	195.815	0.040	-0.062
-193.231	800.000	-0.056	-0.201
-192.217	21.204	-0.182	-0.148
-191.202	-58.399	0.090	0.039
-190.187	538.033	0.029	-0.070
-189.173	-165.969	0.219	0.009
-188.158	10.072	-0.013	0.010
-187.144	-200.000	-0.044	-0.239
-186.129	-67.771	0.103	-0.040
-185.114	-200.000	0.017	-0.106
-184.100	-200.000	-0.016	0.245
-183.085	-200.000	-0.040	-0.222
-182.071	-68.892	0.514	-0.199
-181.056	205.873	-0.117	0.183
-180.042	76.705	-0.208	-0.221
-179.027	-200.000	-0.005	-0.139
-178.012	120.626	0.154	0.191
-176.998	60.538	0.218	-0.216
-175.983	-200.000	0.109	-0.510
-174.969	-200.000	-0.023	0.292
-173.954	605.327	0.023	-0.057
-172.939	-99.217	-0.345	0.087
-171.925	202.951	0.105	-0.163
-170.910	-200.000	-0.003	0.084
-169.896	35.859	0.292	0.257
-168.881	-128.213	0.318	-0.046
-167.866	-178.514	0.201	-0.005
-166.852	96.979	0.247	-0.284
-165.837	-144.484	-0.158	0.015
-164.823	-12.080	0.361	-0.237
-163.808	51.833	-0.261	-0.248
-162.793	-42.210	-0.290	-0.148
-161.779	316.444	-0.059	0.111
-160.764	235.148	0.108	0.178
-159.750	115.567	-0.126	0.154
-158.735	-135.545	-0.160	-0.019
-157.720	401.443	0.105	0.220
-156.706	12.773	-0.105	0.081
-155.691	121.642	0.048	0.060
-154.677	-67.168	0.312	0.123
-153.662	93.463	0.266	-0.301
-152.647	550.414	-0.126	-0.304
-151.633	400.432	0.020	-0.042
-150.618	309.845	-0.122	-0.229
-149.604	16.465	0.097	0.077
-148.589	-59.012	0.279	0.121
-147.574	163.301	0.103	0.145
-146.560	-200.000	0.002	0.381
-145.545	34.540	0.256	-0.224
-144.531	-132.382	0.099	-0.013
-143.516	-157.138	-0.204	0.012
-142.502	126.207	-0.180	0.228
-141.487	800.000	-0.049	0.208
-140.472	800.000	-0.022	0.094
-139.458	-13.294	-0.146	-0.095
-138.443	85.758	0.063	-0.069
-137.429	-79.760	-0.213	-0.072
-136.414	340.568	-0.110	0.214
-135.399	439.477	0.107	-0.233
-134.385	-8.455	0.138	-0.093
-133.370	147.472	0.074	0.100
-132.356	-200.000	0.005	-0.064
-131.341	790.525	-0.145	-0.397
-130.326	-32.446	0.164	0.091
-129.312	800.000	-0.068	0.242
-128.297	-200.000	-0.043	0.310
-127.283	-200.000	0.058	-0.320
-126.268	-200.000	-0.038	0.288
-125.253	-67.140	0.241	0.095
-124.239	-34.429	-0.210	-0.115
-123.224	39.820	0.215	-0.193
-122.210	-80.351	-0.173	-0.058
-121.195	-76.004	0.130	-0.046
