DTS Sentinel unit serial number:	SN413079Multiplexer serial number:	ORYXHardware model number:	OX4-SRSoftware version number:	ORYX F/W v4.00 Oryx Data Collector v3.7.2.0data status	okinstallation	princeton_trtdifferential loss correction	single-endedforward channel	channel 1reverse channel	N/Adate	2019/09/14time	23:34:35forward acquisition time	60.00reverse acquisition time	0.00gamma	496.2192k internal	0.2319k external	0.2319temperature offset calibration	0.9994default loss term (dB/km)	0.3790temperature slope calibration	1.0000multiplexer offset coefficient	1.0000multiplexer slope coefficient	1.0000fibre end	0.00T internal ref (°C)	32.31T ext. ref 1 (°C)	4.65T ext. ref 2 (°C)	27.34length (m)	temperature (°C)	Stokes	anti-Stokes-747.200	-200.000	0.027	-0.246
-746.185	272.033	-0.061	-0.109
-745.171	1.662	0.077	0.056
-744.156	-200.000	-0.008	0.255
-743.142	-149.010	-0.350	0.028
-742.127	152.052	0.091	0.126
-741.112	144.454	0.057	-0.077
-740.098	78.378	-0.314	0.339
-739.083	-200.000	-0.027	0.275
-738.069	-43.644	-0.236	-0.121
-737.054	99.420	-0.129	-0.151
-736.039	-200.000	0.029	0.254
-735.025	-200.000	-0.010	0.518
-734.010	-103.284	-0.430	0.103
-732.996	-77.478	-0.118	-0.041
-731.981	-57.244	0.193	-0.086
-730.966	-134.934	-0.234	0.029
-729.952	457.363	-0.037	0.083
-728.937	-111.480	-0.694	0.143
-727.923	66.270	-0.115	0.118
-726.908	-200.000	-0.114	0.526
-725.894	-5.299	-0.172	0.120
-724.879	1.428	0.277	-0.201
-723.864	-37.961	0.221	-0.119
-722.850	-134.136	-0.351	0.044
-721.835	800.000	0.024	0.075
-720.821	75.202	0.222	-0.237
-719.806	-200.000	0.004	-0.283
-718.791	-65.829	-0.246	0.100
-717.777	-200.000	0.016	-0.337
-716.762	-200.000	-0.035	-0.225
-715.748	-105.061	-0.388	0.090
-714.733	58.925	0.266	-0.265
-713.718	-200.000	-0.006	0.185
-712.704	319.761	-0.061	0.118
-711.689	-102.532	0.196	0.047
-710.675	30.531	0.197	0.171
-709.660	94.358	0.120	0.138
-708.645	-87.001	0.199	0.061
-707.631	-16.982	-0.096	-0.061
-706.616	-200.000	0.024	0.189
-705.602	800.000	-0.066	0.275
-704.587	9.119	-0.448	0.342
-703.572	-38.832	0.198	-0.105
-702.558	173.218	-0.166	-0.242
-701.543	226.219	0.224	0.367
-700.529	455.393	-0.080	0.180
-699.514	175.706	-0.162	-0.237
-698.499	-23.138	-0.156	-0.095
-697.485	378.392	0.087	0.180
-696.470	-200.000	-0.031	-0.240
-695.456	-89.274	-0.246	0.073
-694.441	-116.529	-0.343	0.064
-693.426	23.777	0.204	0.170
-692.412	800.000	-0.075	-0.213
-691.397	800.000	0.002	0.010
-690.383	-154.645	-0.150	0.010
-689.368	-74.756	0.168	0.061
-688.354	497.655	0.063	-0.145
-687.339	-24.011	0.198	-0.119
-686.324	-200.000	-0.006	0.063
-685.310	127.745	-0.174	0.223
-684.295	800.000	-0.158	-0.449
-683.281	56.725	0.200	-0.196
-682.266	-90.253	0.291	-0.085
-681.251	-138.774	-0.057	0.006
-680.237	3.762	-0.219	-0.161
-679.222	-90.719	-0.279	-0.081
-678.208	-129.324	0.263	-0.037
-677.193	324.898	0.094	0.180
-676.178	-25.780	-0.242	0.144
-675.164	-200.000	-0.013	0.342
-674.149	800.000	-0.061	-0.212
-673.135	-49.090	0.301	-0.145
-672.120	-200.000	-0.012	-0.057
-671.105	-29.258	-0.106	-0.061
-670.091	-33.655	0.277	-0.154
-669.076	-25.928	-0.096	0.057
-668.062	-179.865	0.056	-0.001
-667.047	-93.312	0.223	-0.062
-666.032	88.304	-0.109	0.122
-665.018	-35.018	0.212	0.116
-664.003	-200.000	0.027	0.155
-662.989	-87.288	0.276	-0.085
-661.974	-200.000	0.022	-0.196
-660.959	-25.269	-0.185	-0.110
-659.945	800.000	0.034	0.112
-658.930	714.517	0.118	-0.315
-657.916	-170.354	-0.255	0.009
-656.901	800.000	-0.055	0.189
-655.886	800.000	0.035	-0.147
-654.872	650.539	0.062	0.160
-653.857	-200.000	0.061	0.425
-652.843	769.153	0.145	-0.397
-651.828	-200.000	-0.028	0.229
-650.814	-91.087	-0.121	-0.035
-649.799	-124.808	-0.210	0.033
-648.784	-146.422	-0.155	0.014
-647.770	266.941	0.067	-0.118
-646.755	800.000	0.025	0.106
-645.741	-200.000	0.010	0.118
-644.726	-123.265	-0.300	0.048
-643.711	-24.634	-0.230	0.138
-642.697	-7.974	0.056	0.038
-641.682	-20.831	0.155	-0.096
-640.668	-123.757	-0.433	-0.069
-639.653	-74.283	-0.098	-0.036
-638.638	550.913	-0.110	0.266
-637.624	-64.746	0.313	0.128
-636.609	3.735	-0.351	-0.258
-635.595	-59.314	0.145	0.063
-634.580	-200.000	-0.002	-0.137
-633.565	76.909	0.131	-0.140
-632.551	-87.100	-0.154	-0.047
-631.536	-200.000	-0.003	-0.410
-630.522	800.000	-0.089	-0.251
-629.507	315.755	0.117	0.223
-628.492	-27.061	0.035	-0.021
-627.478	357.804	-0.095	-0.191
-626.463	-200.000	-0.022	0.149
-625.449	136.699	-0.053	0.069
-624.434	-200.000	-0.035	-0.158
-623.419	-23.687	0.213	-0.129
-622.405	800.000	0.018	-0.066
-621.390	-200.000	0.030	-0.156
-620.376	-150.973	-0.170	-0.013
-619.361	-36.151	0.241	-0.131
-618.346	312.443	-0.014	0.027
-617.332	-16.599	-0.194	-0.124
-616.317	800.000	-0.049	0.149
-615.303	-83.498	0.407	0.131
-614.288	99.245	0.228	-0.266
-613.273	137.997	0.100	-0.132
-612.259	-35.820	-0.178	-0.097
-611.244	88.951	0.128	-0.143
-610.230	-200.000	0.034	0.267
-609.215	774.453	0.109	-0.299
-608.201	-200.000	0.041	-0.265
-607.186	-152.377	0.170	0.012
-606.171	-200.000	0.020	0.214
-605.157	-56.932	0.289	0.128
-604.142	800.000	0.101	0.339
-603.128	800.000	-0.096	0.302
-602.113	46.179	-0.053	0.049
-601.098	-127.432	-0.267	-0.039
-600.084	-200.000	-0.007	-0.104
-599.069	118.880	0.128	0.159
-598.055	5.784	0.159	0.118
-597.040	340.340	0.054	-0.106
-596.025	-76.389	0.172	-0.061
-595.011	800.000	-0.119	-0.348
-593.996	421.146	-0.062	-0.134
-592.982	52.934	-0.269	-0.259
-591.967	-41.392	0.135	0.070
-590.952	-200.000	-0.012	-0.073
-589.938	21.337	0.134	0.109
-588.923	-125.601	-0.064	-0.010
-587.909	-63.436	-0.056	0.023
-586.894	259.341	-0.081	0.141
-585.879	183.851	0.104	0.155
-584.865	-38.468	-0.329	0.175
-583.850	-200.000	0.068	0.315
-582.836	182.272	0.101	0.149
-581.821	18.059	-0.168	-0.134
-580.806	35.411	0.320	-0.282
-579.792	800.000	0.027	0.091
-578.777	504.424	-0.079	0.183
-577.763	-49.632	0.132	0.063
-576.748	761.598	0.168	0.458
-575.733	-11.564	-0.249	0.165
-574.719	800.000	0.007	-0.025
-573.704	163.666	0.157	-0.221
-572.690	-15.698	-0.222	-0.142
-571.675	-18.160	0.270	-0.170
-570.661	-104.091	0.124	0.029
-569.646	609.964	0.104	0.262
-568.631	50.900	-0.092	-0.088
-567.617	-49.552	-0.173	-0.083
-566.602	-113.707	0.431	-0.084
-565.588	323.612	0.031	-0.059
-564.573	339.445	-0.056	-0.110
-563.558	-149.029	0.274	-0.022
-562.544	-143.372	-0.050	-0.005
-561.529	800.000	0.075	0.328
-560.515	-37.742	0.102	0.055
-559.500	190.928	0.113	0.171
-558.485	-36.666	-0.356	0.192
-557.471	-200.000	0.022	0.257
-556.456	-200.000	-0.030	0.161
-555.442	800.000	-0.114	-0.358
-554.427	-28.585	0.112	-0.065
-553.412	-23.888	-0.263	-0.158
-552.398	-118.502	-0.122	0.022
-551.383	23.985	0.227	-0.188
-550.369	-47.185	0.114	0.056
-549.354	2.832	0.061	0.044
-548.339	-78.118	-0.169	0.058
-547.325	-200.000	0.004	-0.224
-546.310	30.620	0.209	-0.179
-545.296	172.874	-0.061	-0.089
-544.281	723.333	0.116	-0.310
-543.266	166.361	-0.257	-0.365
-542.252	-83.791	-0.257	-0.082
-541.237	800.000	-0.082	-0.288
-540.223	65.858	-0.258	-0.263
-539.208	-200.000	-0.037	-0.174
-538.193	527.277	0.119	0.282
-537.179	-87.328	-0.178	-0.054
-536.164	-24.575	-0.269	0.161
-535.150	151.478	-0.214	0.292
-534.135	7.219	-0.298	0.223
-533.121	-104.935	0.098	-0.023
-532.106	74.497	0.222	0.234
-531.091	20.621	0.340	0.276
-530.077	500.331	0.039	0.090
-529.062	194.981	-0.091	0.139
-528.048	-200.000	0.028	-0.193
-527.033	8.672	0.081	0.061
-526.018	-21.405	-0.134	-0.082
-525.004	80.259	0.199	-0.215
-523.989	575.070	0.119	-0.291
-522.975	-200.000	-0.034	-0.366
-521.960	123.368	0.150	0.189
-520.945	-27.975	-0.255	-0.148
-519.931	24.539	0.106	0.088
-518.916	27.605	-0.076	-0.064
-517.902	-155.839	-0.287	0.018
-516.887	-160.650	0.136	-0.007
-515.872	55.195	0.090	-0.087
-514.858	-166.034	-0.215	0.009
-513.843	-163.694	0.202	-0.010
-512.829	10.478	0.107	-0.081
-511.814	25.097	0.142	0.118
-510.799	-20.417	-0.153	-0.094
-509.785	175.588	-0.272	0.395
-508.770	-84.292	-0.286	0.091
-507.756	-166.479	0.173	0.007
-506.741	-140.486	-0.211	0.022
-505.726	531.943	-0.107	0.253
-504.712	-85.351	-0.333	-0.104
-503.697	-42.196	-0.234	0.120
-502.683	-200.000	-0.039	0.243
-501.668	43.343	-0.051	0.047
-500.653	186.721	-0.088	0.131
-499.639	348.527	0.141	-0.278
-498.624	245.603	-0.194	-0.327
-497.610	-200.000	-0.002	0.066
-496.595	140.592	-0.107	0.141
-495.581	-71.328	-0.114	0.043
-494.566	96.929	0.206	-0.236
-493.551	270.623	-0.014	0.025
-492.537	187.745	-0.163	0.244
-491.522	87.885	-0.129	0.143
-490.508	50.075	0.091	0.086
-489.493	16.947	-0.230	-0.183
-488.478	-200.000	-0.015	-0.303
-487.464	12.973	0.142	-0.110
-486.449	147.780	0.070	0.095
-485.435	-200.000	0.026	0.185
-484.420	18.112	0.196	-0.157
-483.405	19.060	0.183	0.147
-482.391	0.490	-0.209	0.149
-481.376	-100.783	0.159	0.039
-480.362	-45.904	0.147	0.072
-479.347	800.000	0.060	0.183
-478.332	-38.748	0.101	0.053
-477.318	-200.000	-0.026	-0.356
-476.303	-92.747	-0.392	0.110
-475.289	662.629	0.108	-0.279
-474.274	-200.000	-0.000	-0.220
-473.259	800.000	-0.018	-0.069
-472.245	70.806	-0.150	-0.156
-471.230	800.000	0.065	-0.197
-470.216	-200.000	-0.036	-0.340
-469.201	-8.085	0.088	-0.060
-468.186	268.666	0.115	0.202
-467.172	-174.061	-0.242	0.007
-466.157	-44.767	0.154	-0.077
-465.143	-141.485	-0.297	0.030
-464.128	-40.438	0.290	0.151
-463.113	-12.179	0.126	0.083
-462.099	800.000	-0.033	0.129
-461.084	-200.000	0.001	-0.183
-460.070	-101.917	-0.122	0.030
-459.055	-200.000	-0.019	-0.108
-458.040	63.008	0.127	0.127
-457.026	-51.362	0.241	-0.113
-456.011	30.145	0.270	0.231
-454.997	-40.953	0.362	0.187
-453.982	24.340	0.191	0.158
-452.968	-200.000	0.024	0.372
-451.953	-200.000	-0.049	-0.227
-450.938	-200.000	-0.005	-0.299
-449.924	272.006	-0.282	-0.497
-448.909	-200.000	0.065	-0.413
-447.895	-118.620	-0.116	0.020
-446.880	189.886	-0.073	-0.109
-445.865	48.334	0.122	-0.114
-444.851	-200.000	0.005	-0.160
-443.836	-10.683	0.106	0.070
-442.822	18.849	-0.077	-0.061
-441.807	402.091	0.038	-0.080
-440.792	-42.247	-0.253	-0.129
-439.778	-41.658	0.068	0.035
-438.763	494.944	-0.012	-0.027
-437.749	-114.105	0.241	0.047
-436.734	800.000	-0.088	0.265
-435.719	-178.635	-0.220	-0.005
-434.705	223.227	0.035	0.057
-433.690	-200.000	-0.013	-0.111
-432.676	-86.927	-0.392	-0.119
-431.661	608.851	-0.009	-0.023
-430.646	800.000	-0.068	0.244
-429.632	-179.261	-0.227	0.005
-428.617	-14.761	0.292	-0.187
-427.603	-200.000	-0.022	0.265
-426.588	-200.000	-0.013	-0.281
-425.573	44.694	0.076	0.070
-424.559	800.000	-0.041	0.120
-423.544	454.083	0.118	0.261
-422.530	42.955	0.261	0.238
-421.515	-200.000	0.002	0.081
-420.500	5.865	0.047	0.035
-419.486	348.317	0.065	-0.127
-418.471	673.585	0.052	-0.135
-417.457	123.730	-0.202	0.253
-416.442	22.751	0.195	0.160
-415.428	-50.263	-0.241	-0.114
-414.413	-200.000	-0.019	-0.207
-413.398	-131.783	-0.188	-0.025
-412.384	305.723	-0.086	0.160
-411.369	420.659	-0.055	-0.117
-410.355	128.002	-0.048	0.061
-409.340	94.071	-0.185	-0.210
-408.325	387.500	0.037	0.076
-407.311	-40.676	-0.143	0.074
-406.296	-200.000	0.011	-0.048
-405.282	741.580	-0.064	0.173
-404.267	389.281	0.055	-0.115
-403.252	322.450	0.103	0.195
-402.238	-70.810	-0.144	-0.054
-401.223	374.039	0.069	0.141
-400.209	263.195	0.008	-0.014
-399.194	-200.000	-0.020	-0.585
-398.179	548.369	0.064	0.152
-397.165	405.602	0.104	0.220
-396.150	21.701	-0.228	-0.185
-395.136	60.262	0.042	-0.041
-394.121	800.000	-0.035	0.146
-393.106	269.152	0.100	-0.175
-392.092	-200.000	-0.005	-0.134
-391.077	13.992	0.055	-0.043
-390.063	110.758	0.078	-0.094
-389.048	155.758	0.116	0.159
-388.033	-38.066	0.052	-0.027
-387.019	601.984	0.097	-0.240
-386.004	-38.400	-0.297	-0.157
-384.990	55.152	-0.101	0.097
-383.975	46.361	-0.105	0.097
-382.960	-200.000	0.195	0.001
-381.946	-200.000	-0.031	0.150
-380.931	-154.465	0.098	0.007
-379.917	-131.795	-0.307	0.040
-378.902	-30.421	0.128	0.072
-377.888	50.024	0.215	-0.203
-376.873	-196.485	0.264	0.002
-375.858	-99.646	-0.150	-0.037
-374.844	551.876	-0.011	0.026
-373.829	179.618	-0.117	-0.170
-372.815	571.498	0.129	0.314
-371.800	-38.710	-0.033	0.017
-370.785	800.000	-0.049	0.152
-369.771	-200.000	-0.050	0.259
-368.756	121.153	-0.103	-0.128
-367.742	141.829	0.275	0.363
-366.727	111.889	0.226	0.272
-365.712	325.768	-0.160	0.306
-364.698	326.751	0.168	0.321
-363.683	64.714	-0.131	0.132
-362.669	450.681	0.063	-0.138
-361.654	1.626	0.177	0.127
-360.639	654.611	0.209	0.534
-359.625	-118.948	0.170	0.030
-358.610	-119.671	0.160	-0.027
-357.596	-57.341	0.249	0.109
-356.581	800.000	-0.026	-0.103
-355.566	-200.000	-0.007	-0.288
-354.552	-34.958	0.043	0.023
-353.537	203.328	0.014	0.022
-352.523	-21.691	-0.080	0.048
-351.508	220.572	0.103	0.165
-350.493	170.544	0.081	-0.115
-349.479	800.000	-0.035	0.149
-348.464	-200.000	-0.035	-0.191
-347.450	-133.105	0.144	0.018
-346.435	230.164	0.056	0.091
-345.420	284.374	-0.167	0.299
-344.406	-110.902	-0.276	-0.057
-343.391	-200.000	-0.037	-0.366
-342.377	98.491	0.104	-0.119
-341.362	-200.000	0.007	-0.153
-340.348	-52.820	0.075	-0.034
-339.333	-57.520	-0.029	0.013
-338.318	-54.297	0.420	-0.190
-337.304	187.646	-0.158	-0.235
-336.289	162.670	0.207	0.289
-335.275	119.385	0.174	-0.215
-334.260	800.000	0.179	0.525
-333.245	-147.080	0.100	-0.008
-332.231	23.447	-0.081	-0.066
-331.216	-32.931	0.084	0.046
-330.202	-200.000	-0.100	0.565
-329.187	-101.301	-0.064	-0.016
-328.172	8.075	0.308	0.230
-327.158	113.635	0.163	0.197
-326.143	155.171	0.113	-0.155
-325.129	211.889	0.158	-0.248
-324.114	800.000	0.048	-0.193
-323.099	-180.807	0.329	0.007
-322.085	-200.000	-0.008	0.076
-321.070	-172.684	0.260	0.008
-320.056	-39.639	-0.240	0.125
-319.041	8.840	-0.180	0.135
-318.026	205.518	0.181	-0.281
-317.012	15.082	0.273	-0.213
-315.997	98.745	0.136	0.156
-314.983	-200.000	0.019	0.106
-313.968	1.032	0.144	-0.103
-312.953	64.956	-0.193	0.194
-311.939	55.452	-0.073	-0.070
-310.924	22.432	0.235	0.191
-309.910	150.737	0.033	0.045
-308.895	-121.947	0.241	0.039
-307.880	296.675	-0.178	-0.326
-306.866	-200.000	0.351	-0.001
-305.851	800.000	-0.073	-0.312
-304.837	-200.000	0.100	0.513
-303.822	-150.358	-0.138	-0.011
-302.807	-3.642	-0.157	0.108
-301.793	-6.349	0.269	-0.182
-300.778	-200.000	0.036	-0.203
-299.764	-9.112	0.071	-0.047
-298.749	203.695	0.086	0.133
-297.735	-200.000	-0.031	0.287
-296.720	732.975	-0.044	0.118
-295.705	327.551	-0.022	-0.041
-294.691	-200.000	0.005	-0.179
-293.676	65.630	0.211	0.212
-292.662	166.871	-0.155	-0.218
-291.647	258.497	-0.056	0.095
-290.632	-112.996	-0.387	-0.076
-289.618	-21.311	0.174	0.106
-288.603	1.975	-0.294	0.211
-287.589	-200.000	0.019	0.200
-286.574	-68.583	-0.140	0.054
-285.559	-47.040	-0.095	-0.046
-284.545	-200.000	-0.000	0.057
-283.530	-200.000	-0.008	-0.261
-282.516	-200.000	-0.017	-0.438
-281.501	-3.577	0.219	-0.151
-280.486	149.854	-0.248	0.334
-279.472	358.001	-0.083	-0.165
-278.457	-116.613	-0.237	0.043
-277.443	-119.909	-0.342	0.058
-276.428	35.361	0.110	0.096
-275.413	11.202	-0.108	-0.082
-274.399	-200.000	0.036	-0.268
-273.384	694.181	0.152	-0.397
-272.370	55.297	-0.172	-0.165
-271.355	344.877	0.121	0.236
-270.340	-12.471	-0.252	0.163
-269.326	95.445	0.144	-0.163
-268.311	534.553	0.142	-0.335
-267.297	-160.133	-0.286	-0.015
-266.282	-31.386	-0.127	-0.071
-265.267	800.000	-0.074	-0.261
-264.253	211.846	-0.133	-0.208
-263.238	-200.000	0.020	0.214
-262.224	-197.607	-0.116	0.001
-261.209	-200.000	0.002	0.143
-260.195	-142.588	0.325	-0.032
-259.180	537.423	-0.028	-0.065
-258.165	-138.809	0.260	-0.028
-257.151	-129.215	0.131	-0.018
-256.136	-200.000	0.004	-0.047
-255.122	-200.000	-0.008	-0.081
-254.107	202.558	-0.112	-0.171
-253.092	52.180	0.065	0.061
-252.078	-121.742	-0.229	0.038
-251.063	350.583	-0.113	0.221
-250.049	800.000	-0.059	-0.225
-249.034	-28.140	-0.228	-0.131
-248.019	-6.979	-0.336	-0.226
-247.005	-95.802	0.191	0.050
-245.990	-200.000	-0.038	0.271
-244.976	-48.683	-0.178	-0.085
-243.961	-134.016	-0.138	-0.017
-242.946	64.122	0.272	-0.272
-241.932	-74.125	0.266	-0.095
-240.917	800.000	0.111	0.404
-239.903	800.000	-0.077	0.249
-238.888	-200.000	0.062	0.374
-237.873	-60.290	-0.100	-0.042
-236.859	800.000	-0.057	-0.210
-235.844	-140.899	-0.069	-0.007
-234.830	254.580	-0.076	0.129
-233.815	-93.813	-0.212	0.058
-232.800	140.310	-0.264	0.345
-231.786	800.000	-0.084	0.324
-230.771	22.106	0.158	0.127
-229.757	-200.000	-0.011	0.420
-228.742	558.087	-0.048	0.114
-227.727	-200.000	0.031	-0.236
-226.713	-33.554	0.147	-0.081
-225.698	-200.000	0.012	-0.079
-224.684	-170.408	-0.056	0.002
-223.669	62.146	-0.142	-0.140
-222.655	800.000	0.085	0.312
-221.640	74.529	0.130	0.135
-220.625	-54.406	0.117	0.052
-219.611	-59.840	0.268	-0.114
-218.596	183.713	-0.183	0.268
-217.582	763.073	-0.137	0.369
-216.567	33.841	-0.192	0.166
-215.552	-41.210	0.050	-0.026
-214.538	-107.444	0.169	-0.037
-213.523	-169.621	0.228	-0.008
-212.509	-200.000	-0.002	-0.032
-211.494	-181.313	-0.214	-0.004
-210.479	-200.000	-0.047	-0.264
-209.465	191.417	0.224	-0.333
-208.450	-200.000	0.011	-0.161
-207.436	186.842	0.077	0.114
-206.421	-71.925	0.228	0.084
-205.406	-101.247	-0.154	-0.037
-204.392	6.906	-0.171	0.126
-203.377	800.000	-0.014	-0.059
-202.363	-129.732	-0.066	-0.009
-201.348	224.365	-0.092	0.147
-200.333	800.000	-0.107	0.296
-199.319	34.972	-0.090	0.078
-198.304	-200.000	0.074	-0.364
-197.290	744.927	0.051	0.137
-196.275	720.346	-0.058	-0.152
-195.260	-101.429	-0.295	-0.071
-194.246	243.599	-0.110	-0.182
-193.231	259.618	-0.103	-0.176
-192.217	9.902	0.291	-0.219
-191.202	800.000	-0.069	0.231
-190.187	521.784	-0.096	0.223
-189.173	53.858	-0.251	-0.239
-188.158	-200.000	0.011	-0.458
-187.144	50.720	0.294	-0.275
-186.129	194.320	0.031	-0.046
-185.114	-115.194	0.328	0.061
-184.100	-173.772	-0.106	-0.003
-183.085	158.285	-0.033	-0.045
-182.071	-101.459	0.047	-0.011
-181.056	-188.420	-0.326	-0.004
-180.042	778.322	0.012	-0.031
-179.027	-109.450	0.291	-0.061
-178.012	-29.287	0.156	-0.089
-176.998	-156.761	0.239	-0.015
-175.983	800.000	0.059	-0.185
-174.969	-82.448	-0.171	0.055
-173.954	639.779	-0.080	-0.202
-172.939	41.237	0.232	0.207
-171.925	-82.247	0.201	-0.065
-170.910	104.042	0.047	-0.054
-169.896	396.233	-0.099	0.204
-168.881	800.000	0.079	-0.296
-167.866	30.962	-0.264	-0.224
-166.852	-92.535	-0.278	0.077
-165.837	-23.135	-0.214	-0.127
-164.823	-102.700	0.292	-0.069
-163.808	-20.405	0.212	-0.129
-162.793	41.750	-0.080	0.072
-161.779	248.495	0.079	-0.133
-160.764	237.425	-0.083	0.136
-159.750	575.148	-0.059	0.142
-158.735	-200.000	0.073	0.510
-157.720	-22.737	0.093	0.055
-156.706	46.100	-0.158	0.145
-155.691	102.612	-0.326	0.377
-154.677	-200.000	0.017	-0.128
-153.662	-200.000	-0.008	-0.076
-152.647	-200.000	-0.033	0.288
-151.633	-112.802	-0.248	-0.049
-150.618	-104.294	0.168	0.038
-149.604	-147.022	-0.233	-0.020
-148.589	-31.379	0.418	-0.232
-147.574	-200.000	0.051	0.260
-146.560	-82.299	-0.184	0.059
-145.545	-94.851	0.118	0.031
-144.531	235.153	-0.219	0.358
-143.516	-70.748	-0.102	0.038
-142.502	310.962	-0.116	-0.214
-141.487	133.959	0.050	-0.064
-140.472	58.431	0.110	-0.106
-139.458	-123.818	0.062	-0.010
-138.443	-111.843	-0.109	0.022
-137.429	-116.971	0.113	-0.020
-136.414	800.000	-0.072	0.262
-135.399	-52.008	-0.200	0.092
-134.385	-29.915	0.471	-0.265
-133.370	290.977	0.095	-0.170
-132.356	192.733	0.072	0.108
-131.341	-200.000	0.014	0.127
-130.326	-129.734	0.085	0.012
-129.312	-108.924	0.251	-0.053
-128.297	255.784	-0.054	0.091
-127.283	-128.116	-0.131	0.019
-126.268	473.899	-0.050	-0.112
-125.253	292.723	-0.052	-0.094
-124.239	-149.423	-0.217	0.017
-123.224	-157.223	-0.050	-0.003
-122.210	-64.331	0.086	-0.034
-121.195	233.566	0.110	0.178
