DTS Sentinel unit serial number:	SN413079Multiplexer serial number:	ORYXHardware model number:	OX4-SRSoftware version number:	ORYX F/W v4.00 Oryx Data Collector v3.7.2.0data status	okinstallation	princeton_trtdifferential loss correction	single-endedforward channel	channel 1reverse channel	N/Adate	2019/09/16time	00:10:35forward acquisition time	60.00reverse acquisition time	0.00gamma	496.2192k internal	0.2333k external	0.2333temperature offset calibration	0.9971default loss term (dB/km)	0.3790temperature slope calibration	1.0000multiplexer offset coefficient	1.0000multiplexer slope coefficient	1.0000fibre end	0.00T internal ref (°C)	27.75T ext. ref 1 (°C)	9.44T ext. ref 2 (°C)	21.64length (m)	temperature (°C)	Stokes	anti-Stokes-747.200	61.353	0.349	0.349
-746.185	153.405	-0.352	0.484
-745.171	-33.005	0.204	-0.114
-744.156	-200.000	-0.015	0.105
-743.142	179.851	0.153	0.225
-742.127	-137.293	-0.265	0.030
-741.112	-99.197	-0.065	0.016
-740.098	183.594	-0.169	0.252
-739.083	-200.000	-0.036	0.247
-738.069	-99.986	-0.100	0.025
-737.054	-119.008	-0.175	0.031
-736.039	-200.000	0.009	0.370
-735.025	103.553	-0.215	0.253
-734.010	434.355	0.048	0.105
-732.996	11.914	-0.173	0.134
-731.981	-200.000	-0.066	0.299
-730.966	-129.118	-0.183	-0.026
-729.952	-112.816	-0.183	-0.036
-728.937	-15.361	0.066	0.042
-727.923	-78.629	-0.222	0.076
-726.908	-200.000	0.024	-0.239
-725.894	159.361	-0.132	-0.185
-724.879	138.223	-0.125	0.165
-723.864	800.000	-0.043	-0.186
-722.850	800.000	0.029	-0.087
-721.835	-164.774	-0.302	0.014
-720.821	-9.913	-0.302	-0.202
-719.806	-200.000	-0.029	0.237
-718.791	-112.334	0.235	-0.047
-717.777	-96.881	-0.333	-0.088
-716.762	654.155	-0.068	0.175
-715.748	208.699	-0.100	-0.157
-714.733	-18.674	0.184	0.115
-713.718	105.717	0.110	0.131
-712.704	71.487	-0.196	-0.204
-711.689	-53.084	0.325	-0.150
-710.675	-175.973	-0.464	-0.012
-709.660	52.985	0.214	-0.206
-708.645	-45.833	0.274	0.136
-707.631	324.273	0.020	0.039
-706.616	49.443	0.035	0.033
-705.602	16.435	-0.198	0.157
-704.587	83.586	-0.160	0.175
-703.572	-40.781	-0.175	-0.091
-702.558	800.000	0.100	0.429
-701.543	-200.000	-0.034	-0.252
-700.529	-200.000	-0.026	0.141
-699.514	-47.779	0.261	0.127
-698.499	-5.515	0.182	-0.125
-697.485	101.218	-0.137	-0.160
-696.470	158.060	-0.089	0.124
-695.456	-200.000	0.003	0.165
-694.441	664.071	0.049	-0.128
-693.426	-131.115	0.081	0.011
-692.412	-132.475	0.247	0.032
-691.397	19.265	-0.224	0.180
-690.383	-102.241	0.022	-0.005
-689.368	-132.345	0.110	-0.014
-688.354	800.000	0.029	0.102
-687.339	-50.802	0.163	0.077
-686.324	-129.397	0.090	0.013
-685.310	-133.705	-0.143	-0.018
-684.295	436.879	0.063	-0.137
-683.281	127.835	-0.080	0.102
-682.266	177.987	0.134	-0.195
-681.251	272.677	0.091	-0.161
-680.237	-200.000	0.057	-0.259
-679.222	-79.073	0.147	0.050
-678.208	-200.000	0.002	0.061
-677.193	420.182	0.067	0.144
-676.178	-66.974	0.312	-0.123
-675.164	392.520	-0.132	0.274
-674.149	-151.743	-0.336	0.025
-673.135	178.625	0.052	-0.076
-672.120	-200.000	-0.020	-0.166
-671.105	800.000	0.023	-0.073
-670.091	800.000	0.009	0.027
-669.076	17.040	-0.274	0.218
-668.062	190.690	-0.049	0.073
-667.047	129.715	-0.086	-0.111
-666.032	59.360	0.085	0.084
-665.018	-200.000	0.094	0.480
-664.003	-200.000	0.110	0.000
-662.989	-128.422	0.192	-0.027
-661.974	-33.323	-0.356	0.197
-660.959	-150.078	0.095	0.007
-659.945	164.800	-0.065	-0.091
-658.930	-150.778	-0.186	-0.014
-657.916	-200.000	-0.077	0.409
-656.901	-142.706	0.093	-0.009
-655.886	100.204	0.292	0.339
-654.872	7.498	-0.218	-0.163
-653.857	53.246	-0.155	-0.149
-652.843	-52.642	-0.058	-0.027
-651.828	-128.443	0.196	0.028
-650.814	-41.744	-0.313	-0.161
-649.799	-30.757	-0.234	-0.133
-648.784	242.140	-0.088	0.148
-647.770	-18.179	0.038	-0.024
-646.755	-52.776	-0.168	0.078
-645.741	15.522	-0.354	0.278
-644.726	233.643	0.119	-0.196
-643.711	144.968	0.088	0.118
-642.697	-129.564	-0.105	-0.015
-641.682	-200.000	-0.010	0.133
-640.668	151.561	-0.189	0.258
-639.653	-120.383	0.416	-0.071
-638.638	4.943	-0.141	-0.104
-637.624	201.132	-0.198	-0.305
-636.609	15.308	0.093	0.073
-635.595	-36.755	0.378	-0.203
-634.580	177.406	-0.199	-0.290
-633.565	-37.513	-0.184	-0.098
-632.551	-200.000	-0.427	-0.000
-631.536	391.858	-0.136	0.282
-630.522	347.816	0.249	-0.491
-629.507	517.722	0.087	-0.203
-628.492	-23.324	0.132	0.079
-627.478	-130.581	0.247	0.033
-626.463	795.869	-0.051	0.142
-625.449	112.172	-0.247	-0.298
-624.434	-157.878	0.241	0.014
-623.419	-87.994	0.190	-0.057
-622.405	800.000	0.018	-0.061
-621.390	-200.000	0.009	0.065
-620.376	-3.022	-0.255	-0.178
-619.361	-200.000	-0.003	0.117
-618.346	-60.022	-0.073	-0.031
-617.332	-41.904	-0.271	0.139
-616.317	-41.866	0.352	0.181
-615.303	800.000	0.026	-0.091
-614.288	3.298	-0.195	-0.142
-613.273	-81.724	0.060	-0.020
-612.259	-200.000	0.029	0.130
-611.244	800.000	-0.032	0.107
-610.230	592.689	-0.107	0.264
-609.215	2.988	-0.272	0.198
-608.201	-148.262	0.088	-0.007
-607.186	800.000	0.204	-0.637
-606.171	-47.890	-0.199	0.096
-605.157	73.324	-0.097	-0.101
-604.142	16.563	0.079	-0.062
-603.128	-172.074	0.169	0.005
-602.113	-200.000	-0.025	0.291
-601.098	-86.494	-0.170	-0.052
-600.084	-89.581	-0.089	0.026
-599.069	-108.393	-0.090	-0.019
-598.055	66.893	0.176	0.179
-597.040	71.608	-0.049	0.051
-596.025	-83.043	0.465	-0.150
-595.011	-95.210	0.216	-0.058
-593.996	137.453	0.269	-0.352
-592.982	-200.000	0.004	-0.227
-591.967	152.655	0.034	0.047
-590.952	-146.226	0.264	-0.023
-589.938	317.207	-0.144	0.271
-588.923	-85.216	-0.136	-0.042
-587.909	-200.000	-0.025	0.192
-586.894	354.689	-0.064	-0.128
-585.879	319.455	-0.133	-0.252
-584.865	7.812	-0.183	0.137
-583.850	-4.245	0.172	0.119
-582.836	-200.000	0.028	-0.546
-581.821	-31.329	0.202	-0.114
-580.806	-131.122	0.124	-0.017
-579.792	-50.744	0.140	-0.066
-578.777	-77.364	-0.293	0.102
-577.763	-145.444	0.297	0.027
-576.748	792.814	0.088	0.241
-575.733	-43.752	-0.066	-0.033
-574.719	755.765	-0.055	-0.149
-573.704	29.199	-0.255	-0.216
-572.690	800.000	-0.035	-0.140
-571.675	126.278	-0.104	-0.132
-570.661	-29.819	-0.256	-0.146
-569.646	-200.000	0.003	-0.136
-568.631	800.000	0.068	-0.205
-567.617	209.209	-0.116	0.181
-566.602	374.062	-0.049	0.100
-565.588	394.476	0.057	-0.119
-564.573	56.388	0.237	0.230
-563.558	696.015	0.068	0.179
-562.544	291.419	0.196	0.356
-561.529	-20.643	-0.283	0.174
-560.515	-147.695	0.236	-0.020
-559.500	17.665	-0.292	0.232
-558.485	125.628	-0.110	0.139
-557.471	192.260	0.094	-0.141
-556.456	194.621	-0.269	-0.407
-555.442	97.591	-0.131	-0.151
-554.427	107.379	-0.046	0.054
-553.412	18.931	0.469	0.375
-552.398	-139.944	-0.124	0.013
-551.383	181.578	-0.089	-0.130
-550.369	-107.054	-0.022	-0.005
-549.354	-88.703	0.152	-0.045
-548.339	-200.000	0.002	-0.041
-547.325	-37.458	0.291	0.155
-546.310	-77.326	-0.339	-0.118
-545.296	-113.874	-0.404	-0.078
-544.281	-146.701	0.320	-0.028
-543.266	140.265	-0.147	-0.194
-542.252	-37.449	-0.118	0.063
-541.237	-35.369	0.220	0.119
-540.223	-200.000	0.069	0.308
-539.208	-200.000	0.016	-0.320
-538.193	-31.917	0.175	-0.098
-537.179	214.626	0.099	-0.156
-536.164	28.147	0.282	0.237
-535.150	23.160	-0.184	0.151
-534.135	800.000	-0.066	0.199
-533.121	143.873	-0.090	-0.119
-532.106	-36.363	0.095	0.051
-531.091	-200.000	0.006	-0.322
-530.077	130.109	0.112	0.143
-529.062	139.411	-0.162	-0.212
-528.048	794.062	0.067	-0.184
-527.033	58.014	-0.258	-0.252
-526.018	84.915	-0.294	-0.321
-525.004	-37.942	-0.176	0.093
-523.989	-105.170	-0.099	-0.022
-522.975	-82.790	0.260	-0.084
-521.960	-131.753	0.104	-0.014
-520.945	-163.373	0.144	-0.007
-519.931	-200.000	0.011	-0.171
-518.916	-166.928	-0.221	0.009
-517.902	11.189	0.068	-0.052
-516.887	309.030	-0.190	-0.354
-515.872	800.000	0.125	-0.388
-514.858	-15.503	0.069	0.044
-513.843	134.692	0.042	0.055
-512.829	428.643	0.113	0.242
-511.814	800.000	0.058	0.231
-510.799	-200.000	0.010	-0.196
-509.785	128.013	0.130	-0.165
-508.770	42.500	0.134	-0.121
-507.756	800.000	0.052	-0.160
-506.741	-24.528	-0.116	-0.069
-505.726	-200.000	-0.002	-0.176
-504.712	-200.000	0.025	0.230
-503.697	-151.420	-0.006	-0.000
-502.683	211.749	-0.034	0.054
-501.668	144.118	0.057	0.076
-500.653	10.390	-0.281	-0.213
-499.639	-200.000	0.008	0.096
-498.624	47.916	-0.086	0.080
-497.610	-92.127	0.332	-0.093
-496.595	-56.865	0.375	-0.165
-495.581	800.000	-0.022	-0.077
-494.566	739.882	-0.055	-0.148
-493.551	-28.303	-0.569	-0.327
-492.537	-77.973	-0.320	-0.110
-491.522	150.612	-0.055	-0.075
-490.508	-34.556	-0.187	0.102
-489.493	-60.030	0.299	0.127
-488.478	-200.000	0.010	0.080
-487.464	773.138	0.118	-0.321
-486.449	-95.341	-0.118	0.032
-485.435	81.498	0.163	0.176
-484.420	-200.000	0.018	0.148
-483.405	-92.363	-0.243	-0.068
-482.391	202.258	-0.186	0.285
-481.376	232.764	-0.138	-0.225
-480.362	85.973	-0.060	0.066
-479.347	50.131	0.122	-0.115
-478.332	251.962	0.048	-0.082
-477.318	52.048	0.119	-0.113
-476.303	-200.000	0.029	0.289
-475.289	-49.526	-0.190	-0.090
-474.274	52.766	0.229	0.218
-473.259	21.030	0.155	-0.125
-472.245	-48.897	0.194	-0.092
-471.230	-124.434	-0.229	0.035
-470.216	-200.000	0.008	-0.107
-469.201	800.000	-0.074	0.224
-468.186	-200.000	0.186	0.000
-467.172	-200.000	-0.021	0.346
-466.157	-2.899	0.182	0.127
-465.143	800.000	-0.033	-0.123
-464.128	800.000	0.041	-0.165
-463.113	800.000	-0.066	-0.238
-462.099	107.007	-0.102	-0.121
-461.084	-129.946	0.270	0.037
-460.070	147.649	-0.075	-0.101
-459.055	800.000	-0.077	-0.228
-458.040	146.803	0.083	0.111
-457.026	-66.695	-0.115	0.045
-456.011	-99.223	-0.252	0.063
-454.997	22.798	0.328	-0.267
-453.982	-200.000	0.005	0.268
-452.968	113.720	0.131	0.158
-451.953	441.688	0.103	-0.225
-450.938	229.249	0.168	0.272
-449.924	-54.188	-0.360	-0.162
-448.909	800.000	-0.062	0.226
-447.895	346.468	0.064	0.125
-446.880	800.000	-0.068	0.192
-445.865	316.872	0.051	0.097
-444.851	261.632	-0.120	0.207
-443.836	800.000	-0.139	-0.407
-442.822	174.677	0.145	-0.208
-441.807	-0.027	0.426	-0.301
-440.792	-130.028	-0.254	-0.034
-439.778	800.000	-0.108	-0.342
-438.763	800.000	-0.048	-0.180
-437.749	-132.542	-0.044	-0.006
-436.734	-152.376	0.301	0.022
-435.719	800.000	0.042	0.151
-434.705	465.622	0.239	-0.531
-433.690	-53.995	-0.181	0.082
-432.676	-55.312	-0.168	-0.075
-431.661	-200.000	-0.062	-0.354
-430.646	-23.985	-0.192	-0.114
-429.632	-118.739	-0.268	0.047
-428.617	164.799	0.161	0.225
-427.603	800.000	-0.038	-0.135
-426.588	346.910	0.051	-0.100
-425.573	-71.574	0.019	-0.007
-424.559	196.015	-0.125	-0.189
-423.544	515.170	0.035	0.081
-422.530	-95.890	-0.067	-0.018
-421.515	-109.965	0.199	0.041
-420.500	-63.797	-0.072	-0.029
-419.486	-200.000	0.027	0.154
-418.471	-28.421	0.229	0.131
-417.457	-47.106	0.115	-0.056
-416.442	-68.261	0.079	-0.030
-415.428	480.696	0.085	0.191
-414.413	126.347	-0.127	0.160
-413.398	-40.324	0.173	-0.089
-412.384	-41.853	0.212	-0.108
-411.369	-81.233	0.235	0.077
-410.355	164.016	-0.205	0.287
-409.340	800.000	-0.066	0.257
-408.325	-143.446	-0.254	0.024
-407.311	-10.435	-0.126	0.083
-406.296	333.386	0.153	0.294
-405.282	-117.314	0.183	0.033
-404.267	258.634	0.193	-0.331
-403.252	505.639	-0.121	0.279
-402.238	187.083	0.054	0.079
-401.223	-101.326	0.568	-0.137
-400.209	-200.000	-0.052	0.261
-399.194	230.451	-0.123	-0.200
-398.179	-200.000	0.029	-0.172
-397.165	-200.000	0.028	-0.172
-396.150	44.643	-0.143	-0.130
-395.136	-122.073	-0.229	0.037
-394.121	-117.210	0.036	0.007
-393.106	317.445	-0.117	0.219
-392.092	355.947	0.076	0.150
-391.077	-64.933	0.218	-0.088
-390.063	-74.195	-0.069	-0.025
-389.048	-67.066	0.149	0.058
-388.033	800.000	-0.057	-0.163
-387.019	160.949	-0.154	-0.213
-386.004	-16.922	0.063	0.040
-384.990	26.523	-0.097	0.081
-383.975	65.994	0.075	0.076
-382.960	-39.754	0.164	0.085
-381.946	672.596	-0.085	0.219
-380.931	-91.893	-0.203	-0.057
-379.917	192.649	0.102	-0.153
-378.902	49.306	-0.222	0.207
-377.888	16.466	-0.178	-0.140
-376.873	10.808	0.186	-0.141
-375.858	-200.000	0.009	0.297
-374.844	-124.399	-0.285	-0.044
-373.829	-200.000	0.043	-0.235
-372.815	-45.799	0.046	-0.022
-371.800	688.130	0.148	0.382
-370.785	-128.097	-0.286	0.041
-369.771	175.223	-0.131	0.187
-368.756	592.917	-0.061	-0.149
-367.742	163.314	-0.065	0.091
-366.727	-200.000	-0.032	0.141
-365.712	-92.607	0.159	-0.044
-364.698	321.702	0.018	-0.034
-363.683	800.000	0.045	-0.148
-362.669	-200.000	0.086	-0.424
-361.654	43.477	0.132	-0.119
-360.639	8.612	0.144	0.107
-359.625	65.802	-0.381	0.382
-358.610	800.000	0.061	-0.170
-357.596	-30.680	0.176	0.099
-356.581	90.902	-0.137	0.152
-355.566	-77.776	-0.175	-0.060
-354.552	122.154	0.180	0.223
-353.537	31.876	-0.309	0.264
-352.523	-164.507	-0.194	0.009
-351.508	-200.000	-0.007	-0.098
-350.493	-12.743	-0.288	-0.186
-349.479	459.237	0.100	-0.220
-348.464	-19.757	0.127	0.078
-347.450	131.680	-0.011	0.014
-346.435	203.666	0.110	-0.168
-345.420	-62.326	-0.127	-0.052
-344.406	800.000	-0.064	0.193
-343.391	-172.263	0.299	0.009
-342.377	-119.141	-0.143	0.025
-341.362	-29.761	0.110	-0.062
-340.348	60.812	-0.026	-0.026
-339.333	204.838	-0.256	-0.393
-338.318	78.872	0.220	-0.233
-337.304	-200.000	-0.036	0.167
-336.289	-200.000	0.021	-0.531
-335.275	-200.000	-0.018	-0.242
-334.260	-147.188	0.127	-0.011
-333.245	58.155	-0.162	0.157
-332.231	-164.799	0.024	-0.001
-331.216	64.211	-0.172	-0.171
-330.202	83.904	0.069	0.075
-329.187	-114.004	-0.141	0.027
-328.172	-138.800	0.384	-0.041
-327.158	-90.644	-0.546	0.156
-326.143	560.324	0.028	-0.067
-325.129	800.000	0.103	-0.298
-324.114	-200.000	0.016	-0.272
-323.099	-165.507	-0.070	-0.003
-322.085	-92.581	0.191	-0.053
-321.070	106.100	-0.079	-0.093
-320.056	-149.330	0.138	0.011
-319.041	-74.255	-0.196	0.070
-318.026	-26.660	0.398	-0.230
-317.012	197.058	-0.070	0.105
-315.997	-151.263	-0.169	0.012
-314.983	-35.167	0.312	-0.168
-313.968	251.268	0.064	-0.107
-312.953	5.354	0.112	0.082
-311.939	-95.783	0.164	-0.043
-310.924	-200.000	-0.022	-0.145
-309.910	-131.944	-0.394	0.051
-308.895	-162.427	0.200	0.010
-307.880	-103.851	-0.051	-0.012
-306.866	97.498	-0.200	0.227
-305.851	-5.499	0.103	-0.070
-304.837	-112.070	-0.220	-0.044
-303.822	-200.000	0.034	0.250
-302.807	-152.301	-0.340	-0.024
-301.793	410.350	0.026	0.055
-300.778	78.576	0.158	0.167
-299.764	-171.298	0.295	0.010
-298.749	740.052	-0.089	-0.236
-297.735	-50.138	0.281	0.131
-296.720	9.539	-0.082	0.061
-295.705	326.482	0.106	-0.201
-294.691	800.000	0.087	0.272
-293.676	-94.508	-0.076	-0.020
-292.662	86.026	-0.119	0.129
-291.647	122.582	-0.186	0.230
-290.632	-25.267	0.164	-0.096
-289.618	800.000	0.060	0.236
-288.603	206.776	0.168	0.258
-287.589	-200.000	-0.012	0.160
-286.574	-200.000	0.001	0.379
-285.559	-200.000	0.006	0.173
-284.545	65.429	0.156	-0.155
-283.530	800.000	-0.026	-0.108
-282.516	-23.041	0.124	-0.074
-281.501	-56.744	0.158	0.069
-280.486	-200.000	0.011	-0.093
-279.472	100.936	-0.105	0.120
-278.457	-59.257	0.156	0.066
-277.443	42.100	0.231	-0.207
-276.428	800.000	-0.118	-0.386
-275.413	179.260	0.151	0.218
-274.399	-84.923	0.209	-0.065
-273.384	264.733	-0.123	0.212
-272.370	-34.348	-0.048	0.026
-271.355	-149.234	-0.147	-0.012
-270.340	-117.194	-0.147	-0.026
-269.326	-115.474	-0.189	-0.035
-268.311	-50.090	0.259	0.121
-267.297	104.312	0.161	-0.187
-266.282	-107.377	-0.155	0.034
-265.267	-156.783	0.279	-0.017
-264.253	-200.000	0.051	0.329
-263.238	384.733	0.048	-0.098
-262.224	372.669	0.146	0.294
-261.209	-7.688	0.035	-0.023
-260.195	-200.000	0.004	-0.076
-259.180	458.190	-0.147	0.322
-258.165	26.473	0.068	-0.056
-257.151	64.515	-0.265	-0.264
-256.136	130.794	-0.401	0.507
-255.122	-137.748	0.290	0.032
-254.107	50.134	0.104	0.097
-253.092	-200.000	-0.045	-0.425
-252.078	114.509	0.186	-0.223
-251.063	-89.514	0.363	-0.105
-250.049	-47.144	0.232	-0.111
-249.034	-200.000	0.026	-0.206
-248.019	502.739	-0.205	0.468
-247.005	1.987	0.310	-0.221
-245.990	8.553	0.319	-0.237
-244.976	564.964	-0.056	0.134
-243.961	593.911	0.245	-0.598
-242.946	-82.271	-0.225	-0.072
-241.932	-115.479	-0.269	-0.050
-240.917	60.503	0.242	0.236
-239.903	-40.566	-0.217	0.111
-238.888	-200.000	-0.019	0.148
-237.873	100.015	-0.069	-0.079
-236.859	-63.569	-0.138	0.056
-235.844	32.852	-0.047	0.040
-234.830	-109.219	-0.305	-0.064
-233.815	25.095	-0.144	-0.117
-232.800	-104.189	0.117	0.027
-231.786	800.000	0.036	0.137
-230.771	-200.000	0.036	0.240
-229.757	-121.597	0.198	0.032
-228.742	-200.000	-0.190	-0.000
-227.727	-200.000	0.021	0.428
-226.713	-100.285	-0.340	-0.083
-225.698	-97.688	-0.253	-0.065
-224.684	20.926	-0.151	-0.121
-223.669	111.834	-0.173	0.206
-222.655	15.790	0.329	0.255
-221.640	-5.321	0.246	0.167
-220.625	367.051	-0.112	0.223
-219.611	-28.795	-0.080	-0.045
-218.596	20.936	-0.079	0.063
-217.582	-11.050	-0.011	0.007
-216.567	161.162	-0.135	0.186
-215.552	-200.000	0.035	0.211
-214.538	56.728	0.203	-0.195
-213.523	80.558	0.092	0.098
-212.509	-30.066	-0.109	0.061
-211.494	800.000	-0.047	0.192
-210.479	169.122	0.207	-0.290
-209.465	-200.000	0.009	0.230
-208.450	11.588	-0.140	0.106
-207.436	-200.000	0.003	-0.399
-206.421	-200.000	-0.066	0.351
-205.406	-200.000	-0.030	-0.307
-204.392	-18.867	-0.059	0.036
-203.377	-200.000	0.007	-0.159
-202.363	-33.677	-0.099	0.054
-201.348	800.000	-0.085	0.288
-200.333	-137.103	0.198	-0.022
-199.319	-59.321	0.119	0.050
-198.304	-60.772	-0.123	0.051
-197.290	800.000	-0.086	0.306
-196.275	58.891	-0.161	-0.156
-195.260	-142.506	0.229	-0.022
-194.246	-92.505	0.206	-0.057
-193.231	23.289	-0.049	0.040
-192.217	439.203	0.111	0.238
-191.202	-182.560	0.224	-0.004
-190.187	508.960	-0.070	0.159
-189.173	-200.000	-0.004	-0.106
-188.158	307.843	0.089	0.164
-187.144	93.956	-0.157	0.175
-186.129	246.008	-0.149	0.247
-185.114	48.409	-0.109	-0.100
-184.100	-132.772	-0.373	0.047
-183.085	800.000	0.058	0.188
-182.071	412.088	0.170	-0.355
-181.056	250.401	-0.099	0.165
-180.042	-155.359	-0.187	-0.012
-179.027	-200.000	-0.017	-0.149
-178.012	-107.587	0.110	0.024
-176.998	-63.790	0.144	0.058
-175.983	197.635	-0.162	0.244
-174.969	-200.000	0.023	0.160
-173.954	-154.272	0.374	0.025
-172.939	-200.000	-0.000	0.232
-171.925	-200.000	0.045	0.338
-170.910	163.710	0.164	0.227
-169.896	-44.359	-0.210	0.104
-168.881	-48.329	-0.410	0.194
-167.866	437.475	-0.033	0.072
-166.852	-200.000	-0.008	0.177
-165.837	112.687	-0.224	0.266
-164.823	92.732	-0.080	-0.089
-163.808	59.619	-0.206	0.200
-162.793	-127.813	0.366	0.052
-161.779	0.273	-0.184	-0.129
-160.764	800.000	-0.020	-0.059
-159.750	-200.000	0.031	0.146
-158.735	745.314	-0.052	0.139
-157.720	-200.000	0.016	0.125
-156.706	-52.183	0.194	-0.088
-155.691	-55.118	0.118	0.052
-154.677	-17.729	0.028	0.018
-153.662	28.951	-0.137	-0.114
-152.647	94.866	0.147	-0.164
-151.633	-57.591	0.165	0.071
-150.618	-200.000	-0.043	0.198
-149.604	-75.459	0.383	0.134
-148.589	-200.000	-0.001	0.222
-147.574	-15.968	-0.196	0.123
-146.560	-58.733	0.209	-0.089
-145.545	116.813	0.203	0.244
-144.531	-200.000	0.012	0.174
-143.516	-18.955	-0.172	0.105
-142.502	-118.458	0.201	0.035
-141.487	425.233	0.033	0.071
-140.472	-17.028	-0.249	0.155
-139.458	62.197	0.099	-0.097
-138.443	35.883	-0.070	0.060
-137.429	-137.313	0.148	-0.017
-136.414	-15.142	-0.130	-0.081
-135.399	192.974	0.066	-0.098
-134.385	-200.000	0.009	0.238
-133.370	249.578	0.045	-0.075
-132.356	-49.286	-0.199	-0.093
-131.341	800.000	-0.097	-0.318
-130.326	324.749	0.186	-0.349
-129.312	-72.549	0.095	-0.034
-128.297	-62.946	0.370	-0.150
-127.283	-200.000	0.001	0.288
-126.268	-109.559	-0.172	-0.036
-125.253	-59.168	-0.232	0.098
-124.239	622.151	-0.159	0.392
-123.224	-65.857	0.212	-0.083
-122.210	391.004	0.076	0.156
-121.195	22.172	-0.304	-0.244
