DTS Sentinel unit serial number:	SN413079Multiplexer serial number:	ORYXHardware model number:	OX4-SRSoftware version number:	ORYX F/W v4.00 Oryx Data Collector v3.7.2.0data status	okinstallation	princeton_trtdifferential loss correction	single-endedforward channel	channel 1reverse channel	N/Adate	2019/09/12time	14:32:11forward acquisition time	60.00reverse acquisition time	0.00gamma	496.2192k internal	0.2294k external	0.2294temperature offset calibration	1.0055default loss term (dB/km)	0.3790temperature slope calibration	1.0000multiplexer offset coefficient	1.0000multiplexer slope coefficient	1.0000fibre end	0.00T internal ref (°C)	40.06T ext. ref 1 (°C)	2.27T ext. ref 2 (°C)	35.62length (m)	temperature (°C)	Stokes	anti-Stokes-747.200	-200.000	-0.032	0.293
-746.185	-53.863	0.198	-0.093
-745.171	334.971	-0.133	-0.264
-744.156	56.518	0.168	0.167
-743.142	-42.703	0.172	0.089
-742.127	-101.094	-0.373	0.094
-741.112	75.685	0.131	0.142
-740.098	128.299	-0.230	-0.300
-739.083	3.193	0.423	-0.315
-738.069	-200.000	0.054	0.317
-737.054	800.000	-0.042	-0.178
-736.039	-22.076	-0.197	-0.123
-735.025	-125.067	0.055	-0.009
-734.010	89.737	-0.203	-0.232
-732.996	-174.616	0.474	-0.014
-731.981	-200.000	-0.062	0.317
-730.966	-130.402	0.253	0.035
-729.952	-131.449	-0.204	0.028
-728.937	181.274	0.097	-0.146
-727.923	800.000	-0.020	0.077
-726.908	-84.041	-0.190	0.062
-725.894	-15.512	-0.239	-0.156
-724.879	173.435	-0.130	-0.192
-723.864	-80.874	-0.363	0.123
-722.850	106.758	-0.173	-0.209
-721.835	-117.957	-0.082	0.015
-720.821	-200.000	0.026	-0.273
-719.806	-7.573	-0.184	-0.127
-718.791	627.283	-0.037	0.095
-717.777	-200.000	0.026	-0.198
-716.762	-133.590	-0.209	-0.027
-715.748	662.311	-0.068	-0.178
-714.733	283.994	-0.069	0.127
-713.718	-96.579	-0.236	0.064
-712.704	-78.701	-0.300	0.105
-711.689	91.842	-0.271	-0.311
-710.675	125.678	-0.159	-0.205
-709.660	103.649	-0.171	-0.205
-708.645	-200.000	0.018	-0.290
-707.631	550.723	-0.104	0.256
-706.616	18.842	-0.275	0.225
-705.602	-200.000	0.007	-0.109
-704.587	-200.000	0.048	-0.280
-703.572	-192.924	0.107	-0.001
-702.558	-105.710	-0.169	-0.039
-701.543	-94.031	0.081	-0.023
-700.529	-15.007	0.252	-0.165
-699.514	800.000	-0.037	0.155
-698.499	-136.765	-0.266	0.031
-697.485	44.308	-0.386	0.362
-696.470	59.751	0.349	-0.352
-695.456	-66.562	-0.202	0.082
-694.441	662.944	0.113	-0.299
-693.426	68.895	0.139	-0.146
-692.412	-91.214	-0.086	0.025
-691.397	-64.874	-0.130	-0.054
-690.383	145.538	0.105	-0.144
-689.368	-38.295	0.152	0.082
-688.354	-94.271	-0.309	-0.086
-687.339	-156.566	-0.113	0.007
-686.324	-49.951	0.139	0.068
-685.310	327.317	-0.107	-0.209
-684.295	-126.867	-0.094	0.014
-683.281	-121.020	0.074	0.013
-682.266	-200.000	-0.010	0.080
-681.251	-157.518	-0.074	-0.005
-680.237	236.811	-0.026	0.044
-679.222	-84.547	-0.207	-0.067
-678.208	82.737	-0.040	0.044
-677.193	75.397	0.092	-0.099
-676.178	131.612	0.134	-0.175
-675.164	28.404	0.221	0.190
-674.149	-171.561	0.215	-0.007
-673.135	-20.730	-0.290	-0.181
-672.120	-184.403	-0.268	0.004
-671.105	-78.520	-0.436	-0.152
-670.091	-31.181	-0.081	0.047
-669.076	800.000	0.097	0.372
-668.062	113.469	0.156	-0.194
-667.047	-72.732	-0.271	-0.102
-666.032	-200.000	-0.024	0.183
-665.018	156.914	0.160	0.226
-664.003	-169.602	-0.124	0.005
-662.989	141.263	-0.093	-0.125
-661.974	-200.000	0.002	0.308
-660.959	-179.311	0.294	-0.007
-659.945	800.000	0.061	0.214
-658.930	-106.229	0.359	-0.082
-657.916	-200.000	-0.038	0.174
-656.901	-49.993	-0.014	0.007
-655.886	211.771	-0.106	0.171
-654.872	-60.988	-0.139	-0.060
-653.857	725.944	-0.051	0.139
-652.843	396.494	-0.247	-0.525
-651.828	636.691	-0.058	-0.151
-650.814	800.000	0.029	0.107
-649.799	14.017	0.284	0.225
-648.784	-46.094	-0.091	-0.045
-647.770	-200.000	-0.030	0.372
-646.755	-200.000	-0.026	-0.179
-645.741	50.163	-0.145	-0.140
-644.726	-97.118	0.014	0.004
-643.711	800.000	-0.058	-0.229
-642.697	-43.987	-0.196	0.100
-641.682	-191.781	0.504	0.005
-640.668	-32.160	-0.084	0.048
-639.653	251.216	0.201	-0.348
-638.638	-138.569	0.090	-0.010
-637.624	800.000	-0.041	0.125
-636.609	-40.650	-0.159	-0.084
-635.595	-200.000	0.010	-0.151
-634.580	-114.859	0.195	0.038
-633.565	-22.272	0.045	0.028
-632.551	202.065	0.065	-0.102
-631.536	800.000	0.057	-0.251
-630.522	-40.033	-0.086	0.046
-629.507	-159.180	0.215	0.012
-628.492	-5.115	0.246	-0.172
-627.478	-108.073	-0.146	0.032
-626.463	0.878	-0.134	0.098
-625.449	-97.833	0.363	-0.096
-624.434	-200.000	-0.015	0.148
-623.419	-158.946	0.236	0.014
-622.405	77.579	-0.197	0.214
-621.390	-138.676	-0.089	-0.010
-620.376	122.117	0.128	-0.163
-619.361	-200.000	0.015	0.179
-618.346	-138.197	0.115	0.013
-617.332	55.699	-0.108	0.106
-616.317	123.091	-0.064	-0.081
-615.303	193.118	-0.054	0.083
-614.288	-200.000	0.004	0.300
-613.273	-94.998	0.125	-0.034
-612.259	-200.000	-0.026	0.143
-611.244	-200.000	-0.085	0.508
-610.230	201.197	0.150	0.235
-609.215	-90.462	-0.162	-0.048
-608.201	-125.912	-0.229	-0.035
-607.186	547.597	0.152	0.371
-606.171	130.846	-0.152	-0.198
-605.157	-17.867	0.163	-0.104
-604.142	-200.000	-0.032	-0.265
-603.128	-65.717	-0.367	0.150
-602.113	104.083	0.109	0.130
-601.098	238.844	0.111	0.187
-600.084	-65.798	-0.243	0.099
-599.069	-133.777	-0.225	-0.028
-598.055	329.592	0.135	-0.264
-597.040	-200.000	-0.011	-0.132
-596.025	-86.747	0.173	0.054
-595.011	349.724	-0.082	-0.164
-593.996	-2.023	0.173	0.124
-592.982	-118.521	0.536	0.096
-591.967	-63.911	-0.112	-0.046
-590.952	-200.000	-0.003	0.029
-589.938	9.612	0.057	-0.044
-588.923	-176.484	0.259	-0.007
-587.909	-5.448	0.359	-0.250
-586.894	-54.781	-0.154	-0.071
-585.879	-40.264	-0.456	0.241
-584.865	-200.000	0.005	0.073
-583.850	-109.215	-0.354	0.076
-582.836	-178.543	-0.215	0.005
-581.821	187.139	0.129	-0.196
-580.806	116.126	0.089	0.111
-579.792	47.663	-0.173	0.164
-578.777	-21.409	0.100	0.062
-577.763	115.198	0.083	0.103
-576.748	-169.479	-0.383	-0.014
-575.733	800.000	0.050	-0.166
-574.719	-137.540	0.202	-0.023
-573.704	165.147	-0.030	-0.043
-572.690	-78.035	-0.222	-0.078
-571.675	376.598	0.210	-0.436
-570.661	-49.678	0.464	0.224
-569.646	122.810	0.238	0.303
-568.631	-39.902	-0.166	0.088
-567.617	-131.373	-0.129	-0.017
-566.602	800.000	0.020	-0.081
-565.588	9.274	0.183	-0.141
-564.573	-123.516	-0.174	-0.028
-563.558	-7.954	0.310	0.212
-562.544	-200.000	-0.047	0.264
-561.529	83.228	0.141	-0.156
-560.515	-102.732	-0.052	-0.013
-559.500	248.517	0.125	0.214
-558.485	-86.802	0.103	0.032
-557.471	112.961	0.022	0.027
-556.456	-200.000	0.010	-0.289
-555.442	-90.228	-0.254	-0.075
-554.427	-200.000	-0.023	-0.282
-553.412	-200.000	-0.025	0.334
-552.398	-4.207	0.166	-0.117
-551.383	185.235	-0.144	0.218
-550.369	-88.141	-0.266	0.081
-549.354	710.722	0.007	-0.018
-548.339	800.000	0.019	0.065
-547.325	39.807	0.188	-0.171
-546.310	-92.766	-0.290	0.082
-545.296	130.617	-0.167	0.217
-544.281	44.140	-0.176	0.164
-543.266	-98.783	-0.111	-0.029
-542.252	533.641	-0.044	0.106
-541.237	800.000	0.060	0.190
-540.223	-28.883	0.168	0.098
-539.208	150.955	-0.262	-0.362
-538.193	-200.000	0.004	0.146
-537.179	-27.954	-0.117	-0.069
-536.164	47.341	-0.173	-0.164
-535.150	46.114	0.168	-0.158
-534.135	-89.113	-0.173	-0.052
-533.121	-88.091	0.072	0.022
-532.106	-132.275	0.162	0.021
-531.091	181.593	-0.108	0.161
-530.077	-28.637	-0.219	-0.128
-529.062	-115.481	0.181	-0.035
-528.048	-95.341	0.158	-0.043
-527.033	53.400	-0.146	-0.142
-526.018	-97.798	-0.253	-0.066
-525.004	-125.244	0.260	0.040
-523.989	-123.473	-0.144	0.023
-522.975	-200.000	-0.009	0.193
-521.960	232.047	-0.053	0.088
-520.945	-110.143	0.387	-0.082
-519.931	-33.438	0.215	-0.121
-518.916	280.613	-0.060	-0.108
-517.902	-12.507	-0.280	0.185
-516.887	322.948	0.100	-0.194
-515.872	-64.746	-0.221	-0.091
-514.858	-90.736	0.290	0.085
-513.843	20.814	0.137	-0.112
-512.829	-165.034	-0.314	0.014
-511.814	4.303	-0.262	0.195
-510.799	175.531	-0.015	-0.022
-509.785	97.117	-0.159	-0.184
-508.770	-200.000	0.025	0.166
-507.756	-200.000	0.007	-0.044
-506.741	-118.918	0.224	-0.040
-505.726	-51.412	-0.305	-0.145
-504.712	114.208	-0.066	0.081
-503.697	200.688	0.147	-0.229
-502.683	-64.065	0.118	0.049
-501.668	669.403	0.057	0.148
-500.653	-200.000	-0.011	-0.365
-499.639	38.057	0.228	-0.206
-498.624	-44.982	0.170	-0.086
-497.610	-91.291	-0.361	-0.105
-496.595	652.996	-0.025	0.064
-495.581	121.484	0.091	-0.114
-494.566	-200.000	-0.024	0.254
-493.551	-39.224	-0.055	-0.029
-492.537	-183.860	-0.471	0.008
-491.522	-47.306	0.106	0.052
-490.508	-37.956	-0.238	-0.128
-489.493	800.000	0.042	-0.120
-488.478	-61.993	-0.366	0.155
-487.464	-200.000	0.016	-0.284
-486.449	-80.593	-0.307	-0.104
-485.435	800.000	0.019	-0.073
-484.420	38.584	-0.096	0.086
-483.405	-32.202	0.271	0.153
-482.391	-200.000	0.026	0.139
-481.376	-76.161	-0.470	-0.168
-480.362	-23.048	-0.077	-0.047
-479.347	800.000	-0.083	0.248
-478.332	718.102	-0.062	0.165
-477.318	800.000	-0.067	0.251
-476.303	91.907	-0.235	-0.268
-475.289	-145.611	0.241	0.022
-474.274	80.501	0.214	0.233
-473.259	116.094	-0.085	-0.106
-472.245	610.837	-0.050	-0.128
-471.230	-184.994	0.428	-0.007
-470.216	-114.370	-0.271	-0.053
-469.201	-200.000	0.046	-0.268
-468.186	-200.000	0.009	-0.112
-467.172	-200.000	0.046	0.273
-466.157	77.693	0.272	0.293
-465.143	435.240	0.047	0.104
-464.128	-200.000	0.037	0.282
-463.113	113.294	0.115	0.141
-462.099	157.720	0.073	-0.102
-461.084	-36.229	0.217	0.119
-460.070	109.568	-0.147	-0.179
-459.055	161.628	-0.137	-0.195
-458.040	87.209	-0.292	0.326
-457.026	800.000	-0.044	-0.155
-456.011	100.089	-0.107	-0.126
-454.997	53.574	0.095	-0.093
-453.982	-50.923	-0.128	0.061
-452.968	145.351	0.084	-0.114
-451.953	271.569	0.199	0.355
-450.938	-17.538	0.098	-0.062
-449.924	-184.535	-0.205	-0.003
-448.909	-88.318	0.435	0.132
-447.895	-171.241	0.160	-0.005
-446.880	-200.000	0.011	0.126
-445.865	-200.000	-0.004	-0.069
-444.851	-101.845	-0.294	-0.072
-443.836	228.422	-0.111	-0.183
-442.822	-200.000	-0.020	0.098
-441.807	-77.944	0.220	0.077
-440.792	-133.505	-0.275	-0.035
-439.778	-58.808	-0.180	0.079
-438.763	-103.998	0.054	0.013
-437.749	-123.353	0.221	0.036
-436.734	-200.000	0.005	-0.072
-435.719	800.000	0.021	-0.064
-434.705	-111.198	-0.339	-0.070
-433.690	-200.000	-0.008	0.305
-432.676	-27.321	0.188	0.110
-431.661	70.026	0.143	0.149
-430.646	389.724	0.113	-0.237
-429.632	63.148	0.111	0.112
-428.617	-69.192	0.352	-0.137
-427.603	369.691	-0.094	-0.192
-426.588	177.022	-0.184	-0.271
-425.573	95.059	-0.037	0.043
-424.559	800.000	0.059	0.164
-423.544	800.000	0.023	0.087
-422.530	763.719	0.099	-0.272
-421.515	-75.488	-0.125	-0.045
-420.500	-1.171	0.204	-0.146
-419.486	-91.410	-0.347	0.100
-418.471	-109.705	0.070	-0.015
-417.457	-185.239	0.110	-0.002
-416.442	684.377	0.085	-0.224
-415.428	4.081	-0.139	0.103
-414.413	63.071	-0.326	-0.329
-413.398	33.913	-0.203	-0.178
-412.384	-87.098	0.097	-0.030
-411.369	-122.699	0.249	-0.041
-410.355	800.000	0.011	-0.038
-409.340	-200.000	-0.005	-0.311
-408.325	-141.997	-0.087	0.009
-407.311	-4.946	-0.185	-0.128
-406.296	800.000	0.029	0.116
-405.282	230.794	0.041	-0.067
-404.267	2.039	0.208	-0.151
-403.252	-200.000	-0.027	-0.141
-402.238	231.303	-0.070	-0.116
-401.223	800.000	-0.114	-0.423
-400.209	-181.433	0.308	0.006
-399.194	-137.964	0.187	-0.021
-398.179	118.590	-0.147	-0.183
-397.165	68.751	0.138	0.143
-396.150	2.273	-0.505	-0.368
-395.136	-192.060	-0.219	0.002
-394.121	-91.451	-0.285	0.082
-393.106	283.412	-0.042	-0.076
-392.092	3.295	0.068	0.050
-391.077	81.492	0.042	-0.045
-390.063	-122.343	0.399	-0.066
-389.048	800.000	-0.040	0.168
-388.033	-90.031	-0.298	0.088
-387.019	508.116	-0.047	-0.111
-386.004	-123.413	0.258	0.041
-384.990	-137.205	-0.227	0.026
-383.975	-130.231	-0.175	-0.024
-382.960	119.009	-0.226	-0.282
-381.946	-200.000	-0.008	-0.109
-380.931	146.442	-0.068	0.092
-379.917	-200.000	-0.029	0.203
-378.902	36.695	-0.147	-0.131
-377.888	-40.845	-0.044	0.023
-376.873	-200.000	-0.021	0.294
-375.858	8.642	0.043	-0.033
-374.844	800.000	0.022	0.064
-373.829	132.989	0.122	0.159
-372.815	4.465	-0.042	-0.031
-371.800	521.364	-0.068	0.160
-370.785	505.159	-0.113	-0.263
-369.771	-79.162	0.147	0.050
-368.756	-200.000	0.037	0.340
-367.742	152.615	-0.030	-0.042
-366.727	140.219	0.219	0.291
-365.712	-22.363	0.244	-0.149
-364.698	-200.000	0.024	-0.263
-363.683	-200.000	0.005	-0.038
-362.669	-31.760	-0.211	-0.119
-361.654	156.041	-0.201	-0.280
-360.639	340.350	-0.093	-0.183
-359.625	-89.458	-0.067	-0.020
-358.610	117.158	0.249	0.308
-357.596	-127.078	-0.409	-0.060
-356.581	800.000	0.059	0.190
-355.566	-99.925	-0.140	0.035
-354.552	211.705	0.152	0.242
-353.537	-129.908	0.222	-0.031
-352.523	694.087	0.085	-0.224
-351.508	-200.000	0.012	-0.407
-350.493	62.721	-0.072	0.072
-349.479	-16.106	-0.240	0.153
-348.464	-79.061	-0.453	-0.155
-347.450	-49.658	0.103	-0.050
-346.435	-80.847	0.158	0.053
-345.420	-24.249	-0.096	0.057
-344.406	-75.121	-0.200	0.072
-343.391	-93.040	-0.331	-0.093
-342.377	-79.524	0.173	-0.059
-341.362	-175.421	-0.092	0.003
-340.348	281.642	0.022	-0.039
-339.333	67.044	0.149	0.153
-338.318	92.093	0.199	0.225
-337.304	-200.000	0.027	0.129
-336.289	166.935	-0.087	-0.125
-335.275	117.742	-0.071	-0.088
-334.260	-136.362	-0.367	0.043
-333.245	-90.048	0.268	0.078
-332.231	601.851	0.024	-0.060
-331.216	25.405	0.104	0.087
-330.202	-155.586	-0.102	0.007
-329.187	29.851	0.156	-0.134
-328.172	197.084	-0.142	-0.217
-327.158	-15.328	-0.081	0.052
-326.143	366.150	0.053	-0.107
-325.129	-25.274	0.162	-0.097
-324.114	-200.000	-0.066	-0.303
-323.099	-200.000	-0.044	0.307
-322.085	800.000	0.069	0.303
-321.070	567.490	-0.127	-0.309
-320.056	-43.455	0.195	0.099
-319.041	-125.974	0.204	-0.031
-318.026	122.307	0.275	0.346
-317.012	800.000	0.069	0.251
-315.997	-158.383	-0.120	0.007
-314.983	-200.000	-0.056	0.494
-313.968	150.115	0.200	0.273
-312.953	222.955	0.166	0.269
-311.939	-200.000	-0.009	0.073
-310.924	-25.725	-0.190	-0.113
-309.910	-59.247	0.084	-0.036
-308.895	-119.786	-0.306	-0.053
-307.880	-83.698	0.109	-0.035
-306.866	800.000	-0.026	-0.094
-305.851	96.584	-0.147	-0.169
-304.837	-113.882	-0.369	-0.072
-303.822	-111.512	0.244	-0.050
-302.807	-200.000	-0.043	0.202
-301.793	-200.000	-0.337	-0.001
-300.778	-200.000	0.058	0.478
-299.764	-83.175	0.212	-0.068
-298.749	337.954	0.210	-0.410
-297.735	-22.681	0.185	0.113
-296.720	-194.793	-0.226	-0.002
-295.705	72.265	-0.290	-0.304
-294.691	800.000	0.015	0.042
-293.676	36.377	0.326	-0.289
-292.662	33.907	0.049	0.042
-291.647	-200.000	-0.005	0.210
-290.632	-200.000	-0.018	-0.293
-289.618	800.000	0.045	-0.181
-288.603	-73.769	-0.141	-0.052
-287.589	-6.946	0.216	-0.148
-286.574	580.164	0.062	0.154
-285.559	-75.631	0.161	0.057
-284.545	231.875	0.103	-0.169
-283.530	32.851	0.121	0.105
-282.516	-200.000	-0.022	0.292
-281.501	-23.177	0.219	0.133
-280.486	130.177	-0.062	0.079
-279.472	443.550	0.184	-0.406
-278.457	-118.541	-0.155	0.028
-277.443	108.496	-0.059	-0.070
-276.428	800.000	-0.049	-0.193
-275.413	782.561	-0.077	-0.212
-274.399	-156.020	-0.240	-0.015
-273.384	-31.596	0.213	0.120
-272.370	-200.000	0.020	0.114
-271.355	-85.791	0.056	0.018
-270.340	103.588	0.055	0.065
-269.326	-100.346	-0.049	-0.012
-268.311	-200.000	-0.027	0.319
-267.297	800.000	0.067	-0.266
-266.282	-200.000	-0.049	-0.217
-265.267	-30.400	0.106	0.060
-264.253	-200.000	-0.028	-0.225
-263.238	800.000	0.062	0.178
-262.224	-200.000	-0.028	-0.307
-261.209	-143.304	0.103	-0.010
-260.195	-130.164	0.100	0.014
-259.180	5.749	-0.105	0.078
-258.165	311.742	0.083	-0.157
-257.151	800.000	-0.093	-0.378
-256.136	-53.090	0.143	-0.066
-255.122	154.446	0.231	0.318
-254.107	-11.353	0.146	0.096
-253.092	79.059	0.208	-0.223
-252.078	-151.190	0.322	0.024
-251.063	410.133	0.118	-0.250
-250.049	67.419	0.062	0.064
-249.034	210.893	0.371	0.585
-248.019	-200.000	0.000	0.117
-247.005	219.713	-0.110	-0.177
-245.990	-200.000	-0.041	-0.272
-244.976	95.603	0.085	0.098
-243.961	-143.107	0.307	-0.030
-242.946	-200.000	0.046	-0.295
-241.932	-13.461	0.144	0.093
-240.917	-84.784	-0.024	0.008
-239.903	83.029	0.181	0.197
-238.888	777.653	-0.045	0.122
-237.873	292.337	0.008	-0.014
-236.859	251.872	-0.036	0.062
-235.844	-143.870	-0.119	0.011
-234.830	-200.000	0.006	-0.058
-233.815	-85.779	0.203	-0.063
-232.800	305.858	-0.056	0.105
-231.786	377.074	0.112	0.229
-230.771	-15.448	-0.381	-0.244
-229.757	-50.294	0.207	0.098
-228.742	-108.679	0.250	-0.054
-227.727	-122.072	-0.124	0.020
-226.713	107.296	-0.092	0.109
-225.698	36.041	-0.131	-0.116
-224.684	-200.000	-0.089	0.417
-223.669	-155.953	-0.170	-0.011
-222.655	42.558	0.219	0.200
-221.640	55.755	-0.181	0.176
-220.625	-80.069	-0.255	-0.086
-219.611	60.868	-0.125	-0.124
-218.596	123.263	0.141	-0.177
-217.582	183.164	-0.189	0.279
-216.567	-155.505	-0.238	-0.015
-215.552	800.000	-0.031	0.126
-214.538	534.353	-0.085	0.203
-213.523	-79.345	0.209	-0.071
-212.509	800.000	-0.048	0.200
-211.494	-53.642	0.146	0.067
-210.479	-200.000	0.006	0.179
-209.465	3.212	0.133	-0.097
-208.450	-200.000	-0.026	-0.247
-207.436	800.000	-0.064	-0.190
-206.421	26.639	-0.062	-0.052
-205.406	800.000	0.029	0.119
-204.392	-114.140	0.049	0.009
-203.377	-200.000	0.022	-0.161
-202.363	60.076	0.211	-0.209
-201.348	115.477	-0.137	-0.167
-200.333	378.316	0.095	0.195
-199.319	-185.031	0.264	-0.004
-198.304	120.299	0.180	-0.224
-197.290	627.039	0.069	-0.175
-196.275	107.761	0.281	-0.335
-195.260	-5.705	-0.147	-0.101
-194.246	-86.814	0.153	0.047
-193.231	-200.000	-0.022	0.326
-192.217	-82.897	-0.232	-0.075
-191.202	-90.001	-0.216	0.063
-190.187	-21.890	-0.046	0.028
-189.173	-200.000	0.031	0.399
-188.158	-143.817	0.408	0.039
-187.144	-200.000	0.006	0.099
-186.129	-154.350	-0.504	-0.034
-185.114	153.734	-0.125	0.172
-184.100	196.835	-0.084	-0.128
-183.085	-200.000	-0.022	-0.241
-182.071	27.989	-0.213	0.180
-181.056	-2.292	0.221	0.155
-180.042	-3.248	-0.233	-0.162
-179.027	-200.000	0.067	0.308
-178.012	137.659	-0.037	-0.048
-176.998	-104.657	-0.080	0.018
-175.983	-119.799	-0.157	0.027
-174.969	141.252	-0.169	-0.224
-173.954	-64.618	-0.293	-0.119
-172.939	67.467	-0.232	0.237
-171.925	-23.660	-0.250	-0.150
-170.910	72.733	-0.145	-0.151
-169.896	-112.614	0.406	-0.081
-168.881	638.110	0.074	0.189
-167.866	0.718	-0.104	0.075
-166.852	11.518	-0.188	-0.144
-165.837	-82.928	0.251	-0.081
-164.823	-39.983	-0.298	-0.155
-163.808	158.433	-0.022	0.030
-162.793	121.347	0.134	0.166
-161.779	-64.920	-0.141	0.057
-160.764	35.975	0.144	0.127
-159.750	-77.579	0.313	0.109
-158.735	38.088	0.308	0.274
-157.720	379.458	0.063	-0.129
-156.706	-124.399	0.252	-0.039
-155.691	635.753	0.149	0.378
-154.677	163.843	0.042	-0.059
-153.662	800.000	-0.056	0.180
-152.647	-22.066	-0.259	0.157
-151.633	-95.015	0.260	0.070
-150.618	150.767	-0.115	0.156
-149.604	544.865	-0.012	0.029
-148.589	-200.000	-0.011	0.363
-147.574	384.699	0.048	0.098
-146.560	800.000	0.025	0.098
-145.545	-125.068	0.379	-0.058
-144.531	479.540	0.089	0.201
-143.516	60.776	-0.118	0.117
-142.502	236.019	-0.152	-0.251
-141.487	114.035	0.224	-0.272
-140.472	800.000	-0.074	0.206
-139.458	-3.157	-0.248	-0.173
-138.443	-200.000	0.008	-0.176
-137.429	-125.057	-0.236	-0.036
-136.414	771.242	0.152	0.414
-135.399	51.563	0.028	-0.027
-134.385	53.823	0.182	0.175
-133.370	2.831	-0.053	0.038
-132.356	-81.850	0.193	0.063
-131.341	-53.584	0.041	-0.019
-130.326	-186.423	0.155	-0.002
-129.312	95.774	0.114	-0.130
-128.297	596.553	-0.077	0.190
-127.283	273.440	0.050	0.089
-126.268	800.000	-0.100	-0.333
-125.253	800.000	0.140	-0.395
-124.239	33.769	0.152	0.132
-123.224	-200.000	-0.000	-0.141
-122.210	7.434	0.156	-0.116
