DTS Sentinel unit serial number:	SN413079Multiplexer serial number:	ORYXHardware model number:	OX4-SRSoftware version number:	ORYX F/W v4.00 Oryx Data Collector v3.7.2.0data status	okinstallation	princeton_trtdifferential loss correction	single-endedforward channel	channel 1reverse channel	N/Adate	2019/09/18time	15:42:35forward acquisition time	60.00reverse acquisition time	0.00gamma	496.2192k internal	0.2299k external	0.2299temperature offset calibration	1.0000default loss term (dB/km)	0.3790temperature slope calibration	1.0000multiplexer offset coefficient	1.0000multiplexer slope coefficient	1.0000fibre end	0.00T internal ref (°C)	36.39T ext. ref 1 (°C)	0.79T ext. ref 2 (°C)	32.11length (m)	temperature (°C)	Stokes	anti-Stokes-747.200	-200.000	0.010	-0.047
-746.185	90.245	-0.065	0.074
-745.171	374.445	0.015	-0.031
-744.156	94.684	0.352	0.408
-743.142	800.000	0.028	0.122
-742.127	-139.068	0.164	-0.018
-741.112	-200.000	0.030	0.138
-740.098	64.332	-0.045	-0.047
-739.083	-127.193	0.153	-0.023
-738.069	-200.000	0.012	0.314
-737.054	229.015	-0.092	-0.153
-736.039	-50.604	-0.217	0.104
-735.025	-54.755	-0.133	-0.061
-734.010	528.556	0.065	-0.157
-732.996	-48.534	-0.249	0.122
-731.981	-37.162	-0.129	-0.070
-730.966	511.032	0.128	-0.305
-729.952	800.000	-0.079	-0.255
-728.937	-200.000	0.001	-0.109
-727.923	-70.950	-0.148	-0.057
-726.908	-46.288	0.321	-0.161
-725.894	800.000	0.068	-0.205
-724.879	118.755	0.138	-0.174
-723.864	566.570	-0.083	-0.204
-722.850	-108.256	-0.350	-0.077
-721.835	547.022	-0.140	-0.340
-720.821	-133.977	-0.269	0.034
-719.806	-200.000	-0.002	0.008
-718.791	-7.503	-0.219	-0.151
-717.777	-200.000	0.051	-0.292
-716.762	-71.864	-0.307	-0.116
-715.748	-106.736	0.231	-0.052
-714.733	-75.449	0.282	-0.102
-713.718	800.000	0.093	-0.374
-712.704	-200.000	-0.003	-0.234
-711.689	-83.439	-0.206	-0.067
-710.675	-91.399	0.320	0.093
-709.660	72.904	0.122	-0.130
-708.645	352.495	0.078	0.158
-707.631	112.682	0.153	-0.189
-706.616	43.841	-0.257	0.240
-705.602	-121.442	0.301	-0.051
-704.587	-39.924	0.260	-0.138
-703.572	800.000	-0.127	-0.415
-702.558	551.906	0.091	-0.222
-701.543	-120.643	-0.207	0.036
-700.529	-4.673	-0.177	-0.125
-699.514	-200.000	0.017	-0.168
-698.499	-16.389	0.090	0.058
-697.485	-128.033	0.243	-0.036
-696.470	800.000	0.040	-0.124
-695.456	-200.000	0.034	-0.262
-694.441	-169.413	0.062	0.002
-693.426	800.000	0.061	-0.182
-692.412	800.000	0.008	-0.030
-691.397	84.651	0.145	-0.161
-690.383	-200.000	-0.013	0.089
-689.368	15.256	-0.124	-0.099
-688.354	-41.333	0.193	0.101
-687.339	750.617	-0.030	-0.083
-686.324	-39.293	-0.315	-0.168
-685.310	800.000	-0.050	0.172
-684.295	-186.003	-0.133	0.002
-683.281	-135.315	-0.233	0.028
-682.266	-110.499	0.225	-0.047
-681.251	800.000	0.111	-0.330
-680.237	-188.771	-0.185	-0.002
-679.222	-99.769	0.099	0.025
-678.208	-200.000	-0.044	-0.329
-677.193	800.000	-0.049	-0.173
-676.178	-145.413	-0.088	0.008
-675.164	385.125	-0.094	0.197
-674.149	162.547	0.092	0.132
-673.135	112.822	0.142	0.175
-672.120	-77.327	0.222	-0.079
-671.105	800.000	-0.015	0.057
-670.091	222.586	-0.118	0.194
-669.076	-200.000	0.060	0.406
-668.062	127.651	0.227	-0.294
-667.047	-128.357	-0.514	0.074
-666.032	353.593	0.142	-0.287
-665.018	619.194	0.034	0.086
-664.003	80.273	-0.154	-0.169
-662.989	-62.815	0.303	-0.128
-661.974	800.000	0.146	-0.462
-660.959	83.050	-0.257	-0.284
-659.945	-110.552	0.254	0.054
-658.930	335.299	-0.166	0.327
-657.916	-59.152	0.250	0.110
-656.901	-183.948	0.349	-0.006
-655.886	-89.412	-0.215	0.064
-654.872	800.000	0.039	0.155
-653.857	437.764	0.029	-0.065
-652.843	280.713	0.091	-0.166
-651.828	505.913	-0.083	0.196
-650.814	-13.093	0.207	-0.137
-649.799	800.000	-0.034	-0.147
-648.784	197.728	-0.249	0.386
-647.770	-115.474	0.402	0.077
-646.755	255.754	-0.055	0.096
-645.741	-200.000	0.005	0.084
-644.726	8.584	-0.222	-0.170
-643.711	-102.574	-0.204	0.050
-642.697	-200.000	0.010	0.060
-641.682	53.347	-0.090	0.088
-640.668	71.905	0.134	0.142
-639.653	800.000	-0.038	0.142
-638.638	-7.482	-0.375	-0.258
-637.624	-91.635	0.091	0.026
-636.609	-200.000	-0.078	-0.424
-635.595	-133.334	0.280	-0.036
-634.580	66.728	-0.228	0.235
-633.565	446.604	0.025	0.055
-632.551	28.642	-0.123	0.106
-631.536	120.170	0.032	0.041
-630.522	-64.409	0.275	-0.113
-629.507	190.318	-0.186	-0.284
-628.492	14.352	-0.109	-0.087
-627.478	-72.470	-0.092	0.035
-626.463	-162.989	-0.289	0.014
-625.449	-114.518	-0.281	0.055
-624.434	-162.800	0.236	0.012
-623.419	28.264	-0.140	0.120
-622.405	-200.000	-0.056	0.542
-621.390	40.875	0.024	0.022
-620.376	7.308	0.064	0.049
-619.361	-171.662	0.144	-0.005
-618.346	-71.928	0.149	0.056
-617.332	-101.268	-0.167	-0.042
-616.317	-118.428	-0.318	0.057
-615.303	29.443	-0.208	-0.179
-614.288	640.797	0.064	0.166
-613.273	169.837	-0.063	0.091
-612.259	146.510	-0.137	-0.186
-611.244	20.218	-0.146	-0.120
-610.230	800.000	0.039	0.118
-609.215	-200.000	-0.273	0.001
-608.201	-40.869	0.069	0.036
-607.186	800.000	-0.022	-0.064
-606.171	-200.000	0.001	-0.040
-605.157	206.649	-0.038	0.060
-604.142	-57.632	0.295	0.131
-603.128	-158.892	-0.246	-0.014
-602.113	-200.000	-0.022	-0.415
-601.098	345.365	0.252	-0.503
-600.084	58.485	-0.034	0.033
-599.069	22.517	0.130	-0.108
-598.055	-21.026	0.143	0.089
-597.040	19.347	0.248	-0.202
-596.025	38.440	-0.240	-0.217
-595.011	116.887	0.226	0.282
-593.996	66.112	-0.221	0.228
-592.982	42.710	0.155	-0.143
-591.967	248.547	0.063	0.109
-590.952	742.376	-0.081	-0.220
-589.938	297.591	-0.158	-0.294
-588.923	49.296	0.082	0.078
-587.909	-200.000	-0.007	-0.213
-586.894	5.048	-0.283	0.211
-585.879	-149.920	-0.148	0.012
-584.865	17.050	0.112	-0.090
-583.850	131.046	-0.174	0.226
-582.836	60.735	0.418	-0.421
-581.821	156.026	-0.072	-0.101
-580.806	-43.324	0.226	0.116
-579.792	21.825	-0.127	0.105
-578.777	-146.432	0.207	-0.018
-577.763	-138.089	0.187	0.021
-576.748	5.637	-0.111	0.083
-575.733	-22.454	-0.253	0.156
-574.719	-200.000	-0.022	-0.168
-573.704	49.907	0.291	-0.278
-572.690	76.832	-0.201	-0.216
-571.675	-35.355	0.140	-0.077
-570.661	-200.000	0.005	-0.381
-569.646	275.730	-0.103	-0.186
-568.631	-149.441	-0.130	-0.010
-567.617	129.959	-0.194	-0.252
-566.602	-200.000	-0.002	-0.197
-565.588	202.212	-0.041	0.065
-564.573	518.492	-0.078	-0.184
-563.558	-200.000	0.001	0.151
-562.544	195.271	0.126	0.193
-561.529	-146.771	-0.051	0.004
-560.515	800.000	0.122	-0.342
-559.500	-80.087	0.150	0.051
-558.485	-200.000	0.030	0.264
-557.471	93.202	0.058	-0.067
-556.456	55.799	0.259	-0.254
-555.442	157.433	0.216	-0.303
-554.427	-61.042	-0.107	0.046
-553.412	800.000	0.077	0.222
-552.398	45.529	0.054	-0.050
-551.383	390.756	-0.125	0.262
-550.369	22.627	-0.192	0.159
-549.354	111.641	0.141	-0.173
-548.339	-72.297	0.106	-0.040
-547.325	85.753	0.162	0.180
-546.310	304.742	0.233	0.439
-545.296	-200.000	0.001	0.092
-544.281	117.975	-0.095	-0.119
-543.266	800.000	0.106	0.395
-542.252	-200.000	-0.026	-0.210
-541.237	-109.777	0.391	0.083
-540.223	-80.271	-0.411	-0.139
-539.208	-155.766	-0.113	-0.007
-538.193	-151.803	-0.197	0.015
-537.179	-101.234	-0.399	-0.099
-536.164	380.390	0.094	-0.195
-535.150	19.156	-0.085	-0.069
-534.135	107.785	-0.023	-0.027
-533.121	138.087	-0.187	-0.248
-532.106	-144.006	-0.123	0.012
-531.091	-41.540	0.052	0.027
-530.077	-200.000	-0.032	-0.307
-529.062	-2.344	-0.149	0.106
-528.048	-159.846	-0.269	0.015
-527.033	-104.757	-0.112	-0.026
-526.018	26.816	-0.227	-0.193
-525.004	-200.000	-0.028	-0.167
-523.989	-72.932	0.213	-0.079
-522.975	5.657	-0.252	-0.189
-521.960	-138.365	0.254	-0.028
-520.945	-161.094	-0.348	0.018
-519.931	-200.000	0.014	0.227
-518.916	-107.559	-0.305	0.067
-517.902	-200.000	0.080	0.000
-516.887	800.000	0.007	0.024
-515.872	-200.000	0.002	-0.263
-514.858	117.696	0.070	-0.087
-513.843	99.709	0.103	-0.121
-512.829	-121.931	0.166	-0.028
-511.814	-95.533	0.234	-0.064
-510.799	-200.000	-0.062	0.347
-509.785	32.617	-0.131	0.114
-508.770	-200.000	0.004	0.055
-507.756	448.426	0.062	-0.138
-506.741	-125.212	0.233	-0.036
-505.726	47.685	-0.096	0.091
-504.712	-161.153	0.312	0.016
-503.697	-33.915	0.308	0.172
-502.683	214.761	0.124	-0.198
-501.668	-186.657	-0.088	0.001
-500.653	-43.815	-0.426	0.217
-499.639	-175.719	0.270	0.007
-498.624	25.943	-0.078	0.066
-497.610	-37.206	0.243	0.132
-496.595	-136.505	0.208	0.024
-495.581	45.065	-0.167	-0.156
-494.566	-200.000	-0.024	-0.205
-493.551	12.574	-0.191	0.149
-492.537	66.554	-0.222	0.228
-491.522	28.250	-0.060	-0.051
-490.508	-13.607	-0.398	-0.260
-489.493	-58.874	0.271	-0.118
-488.478	-200.000	0.031	-0.483
-487.464	451.559	-0.186	-0.415
-486.449	-200.000	-0.002	-0.035
-485.435	-87.651	0.083	-0.025
-484.420	353.626	0.176	0.354
-483.405	128.015	-0.237	-0.305
-482.391	-86.665	-0.332	0.103
-481.376	207.493	0.115	-0.182
-480.362	214.892	0.215	-0.344
-479.347	-164.696	0.155	0.007
-478.332	800.000	0.095	-0.369
-477.318	800.000	0.071	0.225
-476.303	161.244	0.084	0.119
-475.289	116.238	-0.151	-0.187
-474.274	223.777	0.080	-0.131
-473.259	-200.000	-0.079	0.448
-472.245	-82.074	-0.083	-0.027
-471.230	-34.175	-0.133	0.074
-470.216	-137.532	-0.127	-0.014
-469.201	424.440	0.109	0.236
-468.186	-4.475	0.085	0.059
-467.172	77.818	0.246	0.265
-466.157	-124.608	-0.266	0.042
-465.143	18.207	0.186	-0.150
-464.128	380.654	0.064	0.133
-463.113	800.000	-0.022	-0.080
-462.099	-134.837	-0.398	0.049
-461.084	377.581	0.025	-0.052
-460.070	-17.872	0.240	0.152
-459.055	800.000	-0.112	0.430
-458.040	160.507	-0.168	0.236
-457.026	72.200	-0.106	0.112
-456.011	-200.000	-0.002	-0.039
-454.997	-200.000	0.007	-0.243
-453.982	172.270	0.014	-0.021
-452.968	186.793	0.030	0.045
-451.953	-196.495	0.156	-0.001
-450.938	-79.051	-0.074	0.025
-449.924	256.833	0.161	0.278
-448.909	-130.568	-0.363	0.049
-447.895	69.505	-0.204	0.212
-446.880	-70.214	0.094	-0.036
-445.865	67.989	0.110	0.113
-444.851	199.368	-0.128	-0.198
-443.836	-200.000	-0.006	-0.063
-442.822	-75.323	-0.298	-0.107
-441.807	113.665	-0.068	0.083
-440.792	-13.303	-0.069	0.045
-439.778	-132.966	0.162	-0.021
-438.763	-200.000	0.051	-0.345
-437.749	-65.886	-0.191	-0.077
-436.734	-119.570	-0.040	0.007
-435.719	-2.211	-0.215	-0.152
-434.705	-200.000	-0.063	-0.300
-433.690	-174.697	0.391	-0.011
-432.676	-39.280	-0.152	-0.081
-431.661	234.481	-0.200	-0.333
-430.646	800.000	-0.089	-0.392
-429.632	-41.921	0.225	-0.116
-428.617	800.000	0.045	-0.187
-427.603	22.058	-0.218	0.179
-426.588	629.530	-0.121	0.309
-425.573	-200.000	0.006	-0.286
-424.559	-200.000	-0.059	-0.298
-423.544	-7.903	0.186	-0.126
-422.530	427.347	0.122	0.266
-421.515	-200.000	0.017	-0.148
-420.500	-200.000	-0.006	-0.040
-419.486	176.645	-0.036	-0.053
-418.471	470.481	-0.130	0.294
-417.457	800.000	0.038	0.143
-416.442	16.970	-0.095	0.076
-415.428	800.000	-0.060	0.185
-414.413	-185.782	0.084	-0.001
-413.398	585.672	0.104	0.257
-412.384	20.381	-0.219	0.178
-411.369	-41.651	0.181	0.093
-410.355	-121.284	-0.576	0.097
-409.340	-112.669	0.125	-0.025
-408.325	88.495	0.052	-0.058
-407.311	325.514	-0.079	-0.153
-406.296	259.403	-0.066	-0.115
-405.282	178.613	0.072	0.106
-404.267	-200.000	-0.037	0.203
-403.252	69.096	-0.085	0.088
-402.238	800.000	0.073	-0.225
-401.223	88.034	-0.275	-0.308
-400.209	24.153	0.157	-0.131
-399.194	-124.833	-0.216	0.034
-398.179	-200.000	0.013	-0.157
-397.165	219.095	-0.060	-0.097
-396.150	-143.746	-0.217	0.021
-395.136	-30.524	0.410	0.234
-394.121	609.468	0.040	0.100
-393.106	-200.000	-0.004	-0.055
-392.092	100.449	0.108	-0.126
-391.077	-152.234	0.326	0.024
-390.063	800.000	-0.070	0.208
-389.048	-62.001	0.235	-0.099
-388.033	800.000	0.069	-0.251
-387.019	-126.782	0.272	0.040
-386.004	-200.000	-0.028	0.139
-384.990	-113.256	-0.388	-0.077
-383.975	-200.000	0.026	-0.207
-382.960	223.720	-0.081	0.131
-381.946	31.032	-0.129	-0.112
-380.931	-200.000	-0.001	0.164
-379.917	-200.000	0.019	0.396
-378.902	-135.518	-0.197	-0.024
-377.888	800.000	-0.043	0.174
-376.873	53.849	0.137	-0.133
-375.858	2.821	-0.006	0.005
-374.844	-160.373	0.156	0.008
-373.829	3.968	0.265	-0.195
-372.815	41.917	-0.233	-0.213
-371.800	-200.000	0.019	0.197
-370.785	-39.425	0.313	-0.165
-369.771	134.183	-0.126	-0.164
-368.756	134.235	-0.074	-0.096
-367.742	800.000	-0.012	-0.044
-366.727	29.555	-0.196	-0.167
-365.712	8.704	-0.209	0.159
-364.698	-104.849	-0.185	-0.043
-363.683	-55.591	0.210	0.095
-362.669	-33.093	-0.169	-0.094
-361.654	249.915	-0.071	-0.121
-360.639	-200.000	0.017	-0.108
-359.625	-200.000	0.049	-0.381
-358.610	800.000	0.069	0.273
-357.596	387.755	0.188	0.391
-356.581	800.000	-0.060	0.202
-355.566	-200.000	0.024	-0.334
-354.552	-61.512	-0.310	0.131
-353.537	381.983	0.061	0.126
-352.523	-75.215	0.322	-0.115
-351.508	-173.677	-0.141	-0.004
-350.493	-121.711	0.123	-0.020
-349.479	-104.457	-0.118	-0.027
-348.464	511.006	0.050	-0.117
-347.450	-147.576	0.254	-0.021
-346.435	12.822	-0.205	0.159
-345.420	5.217	0.070	0.051
-344.406	-106.240	-0.090	-0.020
-343.391	-95.457	-0.319	-0.086
-342.377	800.000	-0.109	-0.362
-341.362	-200.000	0.052	-0.440
-340.348	147.595	0.193	-0.261
-339.333	188.421	0.082	0.123
-338.318	-62.507	-0.081	-0.034
-337.304	158.854	0.131	-0.183
-336.289	10.505	-0.145	-0.111
-335.275	80.932	0.339	0.367
-334.260	800.000	0.069	-0.192
-333.245	272.617	-0.211	0.375
-332.231	-200.000	0.014	0.439
-331.216	381.317	-0.090	0.186
-330.202	-108.774	0.046	0.010
-329.187	14.190	0.268	0.210
-328.172	-122.174	0.487	-0.080
-327.158	-12.571	-0.243	-0.159
-326.143	-53.074	-0.143	-0.066
-325.129	36.256	0.167	0.148
-324.114	800.000	-0.034	0.098
-323.099	-118.622	-0.197	0.035
-322.085	111.822	0.082	0.099
-321.070	104.038	0.090	-0.107
-320.056	354.520	-0.096	-0.191
-319.041	-155.235	0.537	-0.035
-318.026	-66.430	0.085	-0.034
-317.012	-18.260	-0.013	-0.008
-315.997	93.351	0.156	-0.177
-314.983	-71.746	0.177	-0.066
-313.968	-87.712	0.103	0.031
-312.953	800.000	-0.066	0.274
-311.939	7.393	0.151	-0.113
-310.924	-127.395	-0.157	-0.023
-309.910	800.000	0.059	0.209
-308.895	-200.000	0.397	0.001
-307.880	200.599	-0.116	-0.179
-306.866	410.627	0.031	-0.066
-305.851	-66.128	0.211	0.084
-304.837	-25.141	0.168	-0.100
-303.822	-97.122	0.164	0.043
-302.807	648.963	-0.112	0.288
-301.793	-200.000	0.017	-0.131
-300.778	-21.437	0.166	-0.102
-299.764	-200.000	-0.009	0.124
-298.749	-60.132	0.231	-0.099
-297.735	-55.755	-0.058	-0.026
-296.720	461.560	0.087	0.195
-295.705	-120.294	-0.219	0.037
-294.691	-6.739	0.331	0.226
-293.676	-200.000	-0.014	-0.113
-292.662	-200.000	0.031	-0.270
-291.647	-56.578	0.263	-0.117
-290.632	800.000	0.048	-0.186
-289.618	-59.252	0.186	-0.080
-288.603	-200.000	-0.008	0.045
-287.589	-87.429	0.161	-0.049
-286.574	417.627	-0.116	0.248
-285.559	-92.488	0.421	0.119
-284.545	-108.023	0.173	-0.038
-283.530	-152.891	-0.163	0.012
-282.516	311.023	-0.081	-0.152
-281.501	800.000	0.034	0.146
-280.486	-89.382	-0.166	0.049
-279.472	800.000	-0.109	-0.350
-278.457	-200.000	-0.015	-0.273
-277.443	236.253	0.073	-0.122
-276.428	-35.053	0.289	0.158
-275.413	27.028	0.258	-0.217
-274.399	-31.810	0.114	0.064
-273.384	-49.560	-0.322	-0.154
-272.370	-136.602	-0.167	-0.019
-271.355	800.000	0.040	-0.132
-270.340	-200.000	-0.014	0.101
-269.326	-200.000	-0.036	0.213
-268.311	34.637	0.126	0.110
-267.297	-200.000	-0.031	0.289
-266.282	-200.000	0.036	0.162
-265.267	162.094	-0.113	0.158
-264.253	-200.000	-0.028	0.231
-263.238	304.274	-0.066	0.122
-262.224	-76.307	-0.096	-0.034
-261.209	-162.764	0.446	0.022
-260.195	-5.628	0.311	0.213
-259.180	-108.993	-0.256	-0.055
-258.165	-200.000	0.010	0.116
-257.151	103.726	0.128	0.151
-256.136	-50.838	-0.330	0.156
-255.122	254.083	-0.157	0.270
-254.107	-200.000	0.015	0.102
-253.092	170.333	0.070	0.100
-252.078	432.875	-0.225	0.489
-251.063	-0.726	0.015	0.011
-250.049	-72.758	0.176	0.065
-249.034	85.279	0.202	0.222
-248.019	-142.483	0.156	-0.015
-247.005	-181.812	-0.402	0.008
-245.990	6.332	0.212	0.157
-244.976	55.040	-0.304	0.293
-243.961	-4.408	0.196	0.135
-242.946	-62.008	-0.167	0.070
-241.932	-200.000	0.034	-0.445
-240.917	3.642	0.276	-0.202
-239.903	171.444	-0.051	-0.074
-238.888	-42.640	0.124	0.063
-237.873	800.000	-0.039	-0.117
-236.859	-200.000	-0.032	0.349
-235.844	52.189	0.139	0.133
-234.830	-86.649	-0.138	-0.042
-233.815	-200.000	0.002	-0.011
-232.800	513.024	-0.132	0.308
-231.786	-33.593	0.248	-0.137
-230.771	6.281	0.177	0.131
-229.757	-200.000	0.090	0.431
-228.742	17.252	-0.057	-0.045
-227.727	-14.105	-0.136	-0.087
-226.713	-200.000	-0.005	-0.223
-225.698	-34.134	-0.161	-0.088
-224.684	-200.000	0.019	-0.129
-223.669	224.999	-0.052	0.084
-222.655	-20.016	0.148	0.092
-221.640	666.589	-0.063	-0.162
-220.625	-142.147	0.332	0.033
-219.611	331.861	-0.192	-0.370
-218.596	232.183	-0.230	-0.378
-217.582	-200.000	0.047	0.218
-216.567	3.276	0.409	0.298
-215.552	-64.443	0.150	-0.061
-214.538	471.083	-0.085	0.191
-213.523	-200.000	-0.003	0.071
-212.509	-200.000	-0.011	0.136
-211.494	-193.691	-0.095	0.001
-210.479	800.000	-0.056	-0.178
-209.465	-200.000	0.073	0.323
-208.450	2.936	0.213	0.155
-207.436	-200.000	-0.029	0.180
-206.421	461.414	-0.116	0.259
-205.406	148.572	-0.204	0.276
-204.392	-200.000	0.067	-0.361
-203.377	-200.000	-0.004	0.128
-202.363	-200.000	-0.009	0.308
-201.348	-35.593	-0.189	0.102
-200.333	177.087	-0.147	-0.213
-199.319	-114.064	-0.185	0.036
-198.304	-200.000	0.076	-0.391
-197.290	-200.000	-0.035	-0.211
-196.275	-200.000	0.033	0.183
-195.260	-200.000	0.020	0.310
-194.246	118.218	0.174	-0.214
-193.231	99.754	-0.294	0.340
-192.217	-200.000	0.002	-0.190
-191.202	169.912	0.105	-0.151
-190.187	73.123	-0.034	0.035
-189.173	-200.000	0.065	-0.378
-188.158	118.225	-0.098	0.121
-187.144	26.803	-0.143	-0.120
-186.129	99.375	-0.112	0.130
-185.114	-200.000	-0.026	0.154
-184.100	177.959	0.089	-0.129
-183.085	-200.000	0.023	0.340
-182.071	143.773	0.075	0.100
-181.056	-184.508	0.041	0.001
-180.042	-200.000	-0.029	-0.209
-179.027	-106.154	-0.234	0.052
-178.012	-88.731	0.075	-0.022
-176.998	88.267	-0.156	0.173
-175.983	4.545	-0.092	-0.067
-174.969	30.158	0.063	0.053
-173.954	-109.881	0.315	-0.066
-172.939	-63.165	0.049	-0.020
-171.925	-200.000	0.017	0.201
-170.910	31.712	0.034	-0.029
-169.896	-200.000	0.003	0.057
-168.881	9.016	-0.204	0.154
-167.866	-130.501	-0.233	-0.031
-166.852	185.724	0.160	0.238
-165.837	800.000	-0.070	0.225
-164.823	800.000	0.043	0.162
-163.808	-200.000	0.009	0.216
-162.793	-93.420	-0.454	-0.125
-161.779	-85.092	0.362	-0.113
-160.764	-107.783	0.289	-0.063
-159.750	448.021	0.018	0.041
-158.735	394.766	0.037	0.077
-157.720	82.424	0.041	0.044
-156.706	22.687	0.304	0.248
-155.691	-200.000	0.001	0.004
-154.677	569.192	-0.093	-0.224
-153.662	-101.602	0.374	-0.091
-152.647	-13.418	-0.375	-0.242
-151.633	800.000	0.070	-0.240
-150.618	198.441	0.197	0.300
-149.604	-15.502	0.307	0.195
-148.589	5.822	0.227	0.168
-147.574	-108.757	-0.414	-0.088
-146.560	800.000	0.099	-0.286
-145.545	46.307	0.045	-0.042
-144.531	20.680	-0.226	-0.182
-143.516	222.550	-0.110	-0.177
-142.502	-22.017	0.172	0.104
-141.487	-190.429	0.231	0.003
-140.472	133.781	0.112	-0.145
-139.458	-200.000	-0.019	-0.125
-138.443	-92.098	-0.119	-0.034
-137.429	800.000	-0.039	0.166
-136.414	-170.051	-0.342	-0.012
-135.399	37.402	0.166	-0.146
-134.385	-45.018	0.234	-0.116
-133.370	-113.221	-0.161	-0.032
-132.356	800.000	0.093	0.260
-131.341	-200.000	0.021	0.097
-130.326	12.428	-0.038	0.029
-129.312	124.011	0.265	-0.332
-128.297	39.987	-0.004	0.003
-127.283	43.962	0.116	-0.106
-126.268	-200.000	0.020	-0.233
-125.253	-5.868	0.328	-0.224
-124.239	800.000	-0.026	0.086
-123.224	-92.022	-0.191	-0.054
-122.210	393.538	0.040	-0.083
-121.195	-51.849	0.093	-0.043
