DTS Sentinel unit serial number:	SN413079Multiplexer serial number:	ORYXHardware model number:	OX4-SRSoftware version number:	ORYX F/W v4.00 Oryx Data Collector v3.7.2.0data status	okinstallation	princeton_trtdifferential loss correction	single-endedforward channel	channel 1reverse channel	N/Adate	2019/09/11time	07:24:12forward acquisition time	60.00reverse acquisition time	0.00gamma	496.2192k internal	0.2327k external	0.2327temperature offset calibration	0.9913default loss term (dB/km)	0.3790temperature slope calibration	1.0000multiplexer offset coefficient	1.0000multiplexer slope coefficient	1.0000fibre end	0.00T internal ref (°C)	30.86T ext. ref 1 (°C)	-0.10T ext. ref 2 (°C)	27.47length (m)	temperature (°C)	Stokes	anti-Stokes-747.200	188.677	-0.056	0.084
-746.185	-200.000	0.066	-0.347
-745.171	285.241	-0.270	-0.491
-744.156	39.051	-0.058	0.052
-743.142	-103.656	0.105	0.025
-742.127	-118.789	-0.348	-0.062
-741.112	-200.000	-0.024	0.172
-740.098	-127.379	0.263	-0.039
-739.083	-84.487	-0.358	0.114
-738.069	-82.179	-0.347	0.114
-737.054	-44.177	0.165	-0.083
-736.039	-200.000	0.001	0.059
-735.025	304.800	0.174	0.326
-734.010	-173.329	-0.390	0.012
-732.996	-37.873	0.258	-0.138
-731.981	78.704	-0.219	0.236
-730.966	-83.187	-0.153	0.049
-729.952	800.000	0.024	0.093
-728.937	-26.125	-0.167	-0.099
-727.923	-200.000	0.053	-0.237
-726.908	-141.556	-0.377	0.038
-725.894	800.000	0.027	0.091
-724.879	-1.660	-0.517	-0.367
-723.864	627.414	-0.154	0.393
-722.850	482.498	0.133	-0.304
-721.835	425.130	-0.087	0.188
-720.821	92.078	-0.141	-0.160
-719.806	-200.000	0.051	-0.245
-718.791	101.806	0.175	-0.205
-717.777	-139.956	-0.498	-0.053
-716.762	-117.665	0.175	-0.032
-715.748	7.628	0.269	-0.203
-714.733	-112.364	0.233	0.047
-713.718	800.000	0.088	-0.293
-712.704	-16.422	0.154	-0.098
-711.689	-200.000	-0.031	-0.172
-710.675	-118.608	0.133	0.024
-709.660	-103.074	0.121	0.029
-708.645	56.497	0.131	0.128
-707.631	8.211	-0.126	0.095
-706.616	-154.535	0.107	0.007
-705.602	30.095	-0.157	-0.135
-704.587	6.787	0.340	0.255
-703.572	5.986	0.222	0.165
-702.558	-136.705	0.095	-0.011
-701.543	581.122	0.081	0.200
-700.529	-8.614	-0.313	0.212
-699.514	-75.277	-0.054	0.019
-698.499	-13.955	0.153	0.100
-697.485	800.000	0.083	0.272
-696.470	-122.729	-0.256	0.042
-695.456	-47.963	0.393	0.191
-694.441	-99.835	0.284	-0.071
-693.426	63.030	-0.168	0.169
-692.412	-6.333	-0.198	0.136
-691.397	800.000	-0.066	0.289
-690.383	61.730	-0.216	0.216
-689.368	-12.455	-0.142	0.093
-688.354	-200.000	0.064	0.361
-687.339	800.000	-0.121	0.353
-686.324	486.895	0.014	-0.032
-685.310	-19.299	0.035	-0.022
-684.295	56.165	0.311	-0.304
-683.281	-76.155	-0.393	0.139
-682.266	-28.575	0.142	0.082
-681.251	-19.834	-0.079	-0.049
-680.237	85.810	0.141	-0.156
-679.222	351.214	0.158	0.315
-678.208	57.357	-0.249	0.244
-677.193	-52.457	0.132	0.062
-676.178	800.000	-0.095	0.355
-675.164	116.983	-0.156	0.192
-674.149	800.000	0.012	-0.038
-673.135	-24.912	-0.254	0.151
-672.120	-151.405	-0.211	0.016
-671.105	-50.405	0.172	-0.082
-670.091	187.969	0.142	-0.213
-669.076	508.366	-0.105	-0.246
-668.062	-36.188	-0.137	-0.074
-667.047	-25.073	-0.015	0.009
-666.032	112.346	-0.235	-0.286
-665.018	-34.791	-0.436	-0.239
-664.003	25.152	0.280	-0.233
-662.989	-200.000	-0.005	-0.066
-661.974	-200.000	-0.070	-0.403
-660.959	-30.056	0.105	-0.060
-659.945	303.222	-0.154	0.286
-658.930	800.000	0.050	0.167
-657.916	-120.718	-0.127	-0.021
-656.901	-80.114	-0.103	-0.035
-655.886	-165.775	0.215	-0.009
-654.872	-107.376	-0.079	0.017
-653.857	-18.870	-0.153	0.096
-652.843	147.066	0.122	0.165
-651.828	70.479	-0.180	-0.187
-650.814	386.715	-0.067	-0.139
-649.799	-200.000	0.024	0.190
-648.784	-200.000	-0.073	0.436
-647.770	-120.261	0.227	0.039
-646.755	508.232	0.146	0.340
-645.741	113.716	-0.161	0.197
-644.726	-139.608	-0.146	0.016
-643.711	-13.382	-0.233	0.152
-642.697	-200.000	-0.011	-0.388
-641.682	733.787	-0.100	-0.269
-640.668	-153.079	-0.171	0.012
-639.653	-122.145	0.125	-0.021
-638.638	88.791	-0.004	0.005
-637.624	-200.000	0.028	0.265
-636.609	-66.699	0.157	-0.062
-635.595	25.339	0.329	0.275
-634.580	-48.387	-0.107	-0.052
-633.565	-194.897	0.179	0.001
-632.551	-200.000	0.007	-0.307
-631.536	92.217	-0.049	-0.056
-630.522	-86.066	0.078	-0.024
-629.507	-57.411	-0.545	0.240
-628.492	-28.617	-0.143	-0.083
-627.478	800.000	0.052	-0.159
-626.463	536.470	0.120	-0.286
-625.449	88.106	-0.089	-0.099
-624.434	-72.561	-0.151	0.056
-623.419	658.431	-0.075	0.193
-622.405	-57.424	0.182	-0.080
-621.390	14.193	0.109	-0.085
-620.376	75.125	0.081	0.086
-619.361	-87.869	-0.323	-0.097
-618.346	-73.385	-0.010	-0.004
-617.332	-52.563	-0.125	0.058
-616.317	233.439	-0.212	0.351
-615.303	178.940	0.159	-0.234
-614.288	40.316	-0.109	0.098
-613.273	-19.910	0.077	0.048
-612.259	438.296	0.150	-0.328
-611.244	350.616	0.010	-0.019
-610.230	-141.833	0.392	0.039
-609.215	800.000	-0.077	0.217
-608.201	800.000	0.018	0.077
-607.186	22.244	-0.165	0.135
-606.171	149.656	-0.246	0.334
-605.157	-200.000	0.001	-0.017
-604.142	1.801	0.234	-0.169
-603.128	-200.000	-0.003	-0.339
-602.113	206.504	0.296	-0.462
-601.098	-15.044	0.133	0.086
-600.084	800.000	-0.030	0.128
-599.069	270.178	0.197	-0.346
-598.055	68.615	-0.215	-0.221
-597.040	-98.092	-0.253	0.065
-596.025	-87.537	0.021	-0.006
-595.011	638.321	0.084	-0.214
-593.996	0.082	0.198	0.141
-592.982	711.289	0.100	-0.266
-591.967	-200.000	0.019	-0.092
-590.952	-142.229	0.205	-0.020
-589.938	800.000	0.007	0.019
-588.923	62.570	0.053	0.053
-587.909	-115.240	0.178	-0.034
-586.894	-4.129	-0.112	-0.078
-585.879	-23.196	-0.122	0.073
-584.865	374.081	-0.035	0.071
-583.850	239.945	-0.029	0.049
-582.836	117.181	-0.041	-0.050
-581.821	40.124	-0.214	0.193
-580.806	55.205	-0.180	-0.174
-579.792	182.871	-0.236	0.349
-578.777	-10.401	0.157	-0.104
-577.763	70.821	0.075	-0.078
-576.748	-14.512	-0.115	0.074
-575.733	-111.490	0.269	-0.055
-574.719	-102.776	0.258	0.062
-573.704	800.000	-0.081	0.344
-572.690	-75.722	0.086	0.030
-571.675	-93.486	0.177	0.049
-570.661	564.196	-0.072	0.174
-569.646	-200.000	-0.002	-0.323
-568.631	116.543	0.162	0.199
-567.617	-20.704	-0.128	0.078
-566.602	-68.248	-0.130	0.051
-565.588	800.000	-0.044	0.168
-564.573	-200.000	-0.002	-0.386
-563.558	26.227	-0.451	-0.377
-562.544	167.645	0.088	-0.125
-561.529	800.000	0.088	-0.251
-560.515	800.000	-0.016	-0.072
-559.500	-200.000	-0.062	-0.301
-558.485	632.827	-0.112	-0.284
-557.471	-57.310	-0.190	0.083
-556.456	-45.543	0.276	-0.137
-555.442	800.000	0.105	0.314
-554.427	344.711	-0.049	0.096
-553.412	735.106	0.014	0.038
-552.398	33.492	-0.072	0.063
-551.383	-200.000	0.019	-0.180
-550.369	110.907	-0.307	0.370
-549.354	-200.000	0.026	0.370
-548.339	-121.438	-0.132	-0.022
-547.325	134.912	-0.068	-0.088
-546.310	-30.001	-0.297	0.169
-545.296	-200.000	0.014	0.107
-544.281	-156.520	-0.317	-0.020
-543.266	242.443	-0.036	0.060
-542.252	800.000	-0.092	-0.295
-541.237	-45.115	0.310	0.154
-540.223	61.219	-0.168	-0.167
-539.208	-37.816	0.249	-0.133
-538.193	42.249	-0.102	0.093
-537.179	623.737	-0.032	-0.081
-536.164	800.000	-0.041	0.123
-535.150	-6.248	0.050	0.034
-534.135	-83.936	-0.228	-0.073
-533.121	-200.000	0.025	0.289
-532.106	44.413	0.108	0.099
-531.091	127.100	0.032	0.040
-530.077	404.732	-0.050	0.106
-529.062	-139.535	0.414	-0.044
-528.048	-99.596	0.198	0.050
-527.033	-126.202	0.197	0.029
-526.018	800.000	0.080	0.264
-525.004	-158.602	0.096	0.006
-523.989	800.000	-0.113	-0.318
-522.975	-7.887	-0.115	-0.078
-521.960	-67.474	0.086	-0.034
-520.945	-200.000	0.002	0.040
-519.931	675.928	0.015	-0.038
-518.916	800.000	-0.046	-0.165
-517.902	-62.093	-0.243	0.101
-516.887	-200.000	-0.024	-0.137
-515.872	-72.263	-0.190	-0.070
-514.858	341.068	0.137	0.267
-513.843	800.000	-0.044	-0.140
-512.829	606.891	-0.072	0.179
-511.814	639.270	-0.082	0.209
-510.799	-200.000	-0.037	0.235
-509.785	-145.604	-0.168	0.015
-508.770	-200.000	-0.080	0.353
-507.756	-200.000	-0.031	0.297
-506.741	27.366	-0.152	-0.127
-505.726	-12.955	0.199	-0.130
-504.712	-200.000	0.016	0.191
-503.697	15.656	-0.040	-0.031
-502.683	72.892	-0.109	0.113
-501.668	21.468	0.287	0.233
-500.653	142.899	0.125	-0.167
-499.639	-133.927	-0.174	0.022
-498.624	0.362	0.219	-0.156
-497.610	42.577	0.028	0.026
-496.595	373.458	-0.081	-0.165
-495.581	-200.000	-0.044	-0.224
-494.566	-28.821	-0.246	-0.141
-493.551	-200.000	0.028	0.463
-492.537	108.370	0.297	0.354
-491.522	-200.000	0.025	-0.263
-490.508	50.213	0.255	-0.240
-489.493	-200.000	0.050	-0.256
-488.478	50.313	0.050	-0.048
-487.464	800.000	-0.088	-0.283
-486.449	-200.000	-0.016	-0.384
-485.435	113.979	-0.180	-0.218
-484.420	194.983	0.043	0.066
-483.405	-200.000	0.018	0.130
-482.391	39.562	0.144	-0.129
-481.376	-134.567	-0.414	-0.050
-480.362	-70.832	0.032	-0.012
-479.347	-89.901	-0.179	-0.052
-478.332	71.319	-0.095	0.098
-477.318	-32.432	-0.231	0.129
-476.303	16.310	-0.304	-0.239
-475.289	-70.558	0.318	0.120
-474.274	-200.000	-0.027	-0.389
-473.259	182.984	-0.232	-0.341
-472.245	-200.000	-0.029	-0.162
-471.230	-200.000	0.012	-0.155
-470.216	178.310	-0.181	-0.263
-469.201	317.808	0.043	-0.082
-468.186	-161.052	0.209	-0.011
-467.172	382.830	-0.060	-0.123
-466.157	92.511	0.113	-0.127
-465.143	156.680	0.153	0.211
-464.128	-27.374	0.262	-0.152
-463.113	121.686	0.047	-0.059
-462.099	-16.281	-0.117	0.074
-461.084	-127.695	0.114	-0.016
-460.070	-56.712	0.090	0.040
-459.055	-23.023	-0.055	0.033
-458.040	800.000	-0.089	-0.270
-457.026	-161.645	-0.217	-0.011
-456.011	-4.482	-0.186	-0.128
-454.997	285.281	0.045	0.082
-453.982	189.272	-0.062	-0.092
-452.968	-81.139	0.343	0.113
-451.953	-200.000	0.065	-0.341
-450.938	234.777	-0.219	-0.361
-449.924	800.000	0.067	-0.194
-448.909	92.525	-0.293	0.329
-447.895	-163.044	0.212	-0.010
-446.880	800.000	0.117	-0.387
-445.865	-81.698	-0.223	-0.073
-444.851	33.880	0.121	-0.105
-443.836	-81.152	-0.426	0.140
-442.822	423.306	0.153	-0.327
-441.807	296.651	-0.192	0.351
-440.792	-200.000	0.006	0.202
-439.778	178.535	0.061	0.089
-438.763	-135.186	0.348	-0.042
-437.749	329.926	0.052	-0.100
-436.734	101.762	0.153	0.178
-435.719	192.925	-0.074	0.111
-434.705	800.000	-0.096	-0.281
-433.690	-46.705	0.316	0.154
-432.676	-53.609	-0.211	0.096
-431.661	164.661	-0.224	0.315
-430.646	800.000	0.115	0.476
-429.632	32.089	-0.105	-0.090
-428.617	-200.000	-0.046	-0.233
-427.603	-200.000	0.068	-0.310
-426.588	-200.000	0.009	-0.053
-425.573	-200.000	-0.054	0.348
-424.559	-59.488	-0.435	-0.186
-423.544	-59.700	0.308	-0.131
-422.530	23.815	0.080	-0.066
-421.515	-111.255	-0.213	0.043
-420.500	347.234	-0.158	-0.309
-419.486	-113.560	-0.322	0.063
-418.471	-82.234	0.291	0.094
-417.457	598.089	0.143	0.354
-416.442	-200.000	-0.000	-0.068
-415.428	42.819	0.339	0.307
-414.413	31.902	-0.079	-0.068
-413.398	-168.122	0.171	-0.007
-412.384	-82.685	-0.239	-0.077
-411.369	-15.155	0.337	-0.215
-410.355	-121.860	-0.153	-0.025
-409.340	471.435	0.146	-0.327
-408.325	-200.000	-0.013	0.169
-407.311	-200.000	0.022	-0.262
-406.296	23.099	0.033	0.027
-405.282	-136.265	0.285	-0.033
-404.267	800.000	0.064	0.267
-403.252	-200.000	0.002	0.139
-402.238	-142.715	0.336	-0.033
-401.223	400.891	-0.137	-0.287
-400.209	-68.752	-0.143	0.055
-399.194	47.822	-0.202	-0.188
-398.179	48.234	0.103	-0.096
-397.165	-59.173	0.244	-0.105
-396.150	-167.344	-0.061	0.002
-395.136	107.882	-0.058	0.069
-394.121	86.847	-0.114	0.125
-393.106	-200.000	0.009	-0.100
-392.092	364.396	-0.052	0.103
-391.077	121.608	0.103	-0.127
-390.063	-200.000	-0.021	-0.136
-389.048	47.987	0.229	0.213
-388.033	-200.000	-0.014	0.209
-387.019	42.968	-0.174	0.158
-386.004	145.274	0.160	0.213
-384.990	-6.838	0.136	0.092
-383.975	557.795	0.102	0.244
-382.960	-200.000	-0.058	0.293
-381.946	-200.000	0.064	0.582
-380.931	367.426	-0.052	0.105
-379.917	6.225	-0.353	-0.260
-378.902	-200.000	-0.029	-0.209
-377.888	143.297	0.222	-0.293
-376.873	-49.771	-0.215	-0.102
-375.858	800.000	0.064	-0.205
-374.844	320.350	-0.215	-0.406
-373.829	100.304	0.148	-0.171
-372.815	-19.625	-0.257	-0.158
-371.800	66.223	0.030	-0.031
-370.785	-109.311	-0.117	0.025
-369.771	39.865	0.028	-0.025
-368.756	563.500	0.138	-0.331
-367.742	-75.571	0.230	-0.081
-366.727	26.792	0.214	-0.178
-365.712	535.662	-0.067	-0.159
-364.698	-36.827	-0.257	-0.137
-363.683	731.941	0.130	0.345
-362.669	-136.577	0.102	0.012
-361.654	-61.491	-0.028	-0.012
-360.639	78.500	0.157	-0.167
-359.625	71.821	0.058	-0.060
-358.610	-112.844	-0.098	0.019
-357.596	173.639	0.097	0.139
-356.581	-200.000	0.001	0.337
-355.566	-200.000	0.012	0.075
-354.552	-105.174	0.163	-0.037
-353.537	-89.827	0.314	0.091
-352.523	-132.588	0.273	0.035
-351.508	-20.108	-0.070	0.043
-350.493	105.082	-0.288	-0.337
-349.479	800.000	-0.039	-0.143
-348.464	236.962	-0.273	0.449
-347.450	251.674	0.171	0.289
-346.435	-42.695	-0.162	0.082
-345.420	-200.000	-0.007	0.292
-344.406	-100.959	0.056	0.014
-343.391	-115.664	0.104	-0.019
-342.377	-81.112	0.163	-0.054
-341.362	800.000	-0.047	0.150
-340.348	0.783	-0.152	0.108
-339.333	800.000	-0.011	-0.046
-338.318	-31.165	0.118	-0.066
-337.304	-200.000	0.017	0.233
-336.289	71.098	0.097	-0.100
-335.275	-79.693	0.153	-0.051
-334.260	39.136	-0.198	0.176
-333.245	-94.846	-0.300	0.081
-332.231	564.383	-0.167	0.400
-331.216	-144.167	0.197	0.018
-330.202	591.932	-0.047	-0.116
-329.187	295.218	-0.271	-0.492
-328.172	435.010	-0.138	-0.298
-327.158	-200.000	-0.065	-0.288
-326.143	-80.690	0.224	0.074
-325.129	-6.509	-0.075	-0.051
-324.114	800.000	-0.032	-0.112
-323.099	-38.052	0.236	0.124
-322.085	-0.207	-0.364	-0.257
-321.070	-120.392	0.207	0.035
-320.056	-126.333	-0.308	-0.046
-319.041	-25.710	0.124	0.073
-318.026	56.376	-0.124	-0.119
-317.012	6.540	-0.227	0.167
-315.997	-125.911	0.080	-0.012
-314.983	-200.000	-0.014	0.192
-313.968	-16.171	0.038	0.024
-312.953	-200.000	-0.067	0.353
-311.939	223.922	-0.088	0.141
-310.924	-200.000	0.039	0.310
-309.910	-91.683	-0.176	-0.050
-308.895	384.669	-0.141	0.288
-307.880	638.934	0.041	-0.104
-306.866	-95.600	-0.223	-0.059
-305.851	-173.009	0.395	0.012
-304.837	-200.000	-0.012	0.057
-303.822	-50.364	-0.266	0.124
-302.807	209.129	-0.121	-0.188
-301.793	-160.918	-0.140	0.007
-300.778	3.544	0.167	-0.121
-299.764	-200.000	-0.037	-0.234
-298.749	-200.000	-0.000	-0.298
-297.735	-140.342	0.613	0.063
-296.720	-176.735	-0.490	0.012
-295.705	-8.664	-0.363	0.242
-294.691	-200.000	-0.011	-0.353
-293.676	-121.845	-0.208	0.034
-292.662	-137.054	-0.179	0.020
-291.647	96.724	-0.126	0.143
-290.632	-200.000	0.067	-0.485
-289.618	800.000	-0.051	0.154
-288.603	85.456	0.113	0.123
-287.589	800.000	0.058	-0.167
-286.574	-39.352	0.421	-0.219
-285.559	216.904	-0.059	0.094
-284.545	-191.659	0.221	-0.002
-283.530	74.379	0.218	0.227
-282.516	312.790	-0.039	0.073
-281.501	-200.000	-0.024	0.165
-280.486	19.502	0.167	-0.133
-279.472	41.029	0.288	0.257
-278.457	-119.485	0.286	-0.049
-277.443	120.801	0.101	-0.124
-276.428	-97.760	-0.276	-0.071
-275.413	9.161	-0.226	0.169
-274.399	-46.362	-0.118	-0.057
-273.384	151.170	-0.146	-0.197
-272.370	63.435	0.052	0.051
-271.355	-92.578	0.354	-0.098
-270.340	-118.999	-0.364	-0.063
-269.326	-27.397	0.084	-0.048
-268.311	414.889	0.095	-0.200
-267.297	-180.719	-0.585	-0.012
-266.282	-36.535	0.121	0.064
-265.267	-125.533	0.282	-0.042
-264.253	768.447	-0.034	-0.090
-263.238	-200.000	0.043	-0.290
-262.224	35.005	-0.312	-0.270
-261.209	-200.000	0.072	0.500
-260.195	-160.617	-0.249	0.013
-259.180	800.000	0.057	-0.181
-258.165	153.738	0.076	-0.102
-257.151	-28.118	-0.029	-0.017
-256.136	280.143	0.107	0.190
-255.122	138.486	0.101	0.131
-254.107	107.458	0.172	0.202
-253.092	-13.200	-0.260	0.167
-252.078	1.222	0.126	0.089
-251.063	-156.235	0.257	-0.016
-250.049	404.899	0.062	-0.129
-249.034	-114.777	0.264	-0.050
-248.019	285.442	-0.033	0.059
-247.005	-200.000	0.032	0.181
-245.990	-200.000	-0.009	0.147
-244.976	115.184	-0.086	0.103
-243.961	-148.685	-0.302	-0.024
-242.946	61.809	0.121	0.119
-241.932	-28.947	-0.186	0.106
-240.917	-136.517	-0.060	-0.007
-239.903	109.738	0.049	0.058
-238.888	104.395	0.114	-0.133
-237.873	641.255	-0.155	-0.390
-236.859	389.111	-0.055	0.113
-235.844	566.230	-0.078	-0.186
-234.830	-92.419	-0.243	0.068
-233.815	-59.954	0.193	0.082
-232.800	-86.535	-0.275	0.083
-231.786	-47.463	-0.124	-0.059
-230.771	800.000	0.069	0.235
-229.757	-95.426	-0.158	0.042
-228.742	800.000	-0.031	0.119
-227.727	186.168	0.114	0.168
-226.713	-200.000	0.029	-0.267
-225.698	-27.245	0.102	0.059
-224.684	-200.000	0.080	0.442
-223.669	-200.000	0.018	0.081
-222.655	554.062	0.074	0.176
-221.640	258.044	0.167	0.284
-220.625	-200.000	-0.026	0.138
-219.611	800.000	0.050	-0.166
-218.596	-200.000	0.064	0.344
-217.582	800.000	-0.062	0.179
-216.567	800.000	-0.097	0.292
-215.552	204.643	-0.219	0.335
-214.538	49.041	0.106	0.098
-213.523	-79.168	-0.282	0.095
-212.509	313.284	-0.211	-0.391
-211.494	286.248	0.120	-0.214
-210.479	360.746	-0.056	0.111
-209.465	-200.000	0.003	0.028
-208.450	-60.677	0.170	-0.071
-207.436	169.276	0.225	0.317
-206.421	386.615	-0.022	-0.045
-205.406	-123.736	0.356	0.056
-204.392	686.416	-0.071	-0.182
-203.377	-91.027	0.197	-0.056
-202.363	-200.000	-0.001	0.069
-201.348	109.322	0.168	-0.199
-200.333	-200.000	0.036	-0.214
-199.319	20.824	0.093	0.074
-198.304	-52.637	-0.201	0.092
-197.290	8.627	0.133	-0.099
-196.275	338.065	0.210	0.403
-195.260	512.546	0.162	-0.372
-194.246	-34.445	0.201	-0.109
-193.231	113.164	0.105	0.126
-192.217	-200.000	-0.039	-0.179
-191.202	-104.807	0.321	-0.073
-190.187	267.686	0.132	-0.227
-189.173	83.415	-0.132	-0.142
-188.158	800.000	-0.109	-0.333
-187.144	-200.000	-0.012	0.130
-186.129	720.924	-0.099	0.259
-185.114	287.888	-0.103	0.184
-184.100	-13.584	-0.271	0.173
-183.085	75.133	0.146	-0.152
-182.071	325.198	-0.100	-0.189
-181.056	-80.782	-0.334	0.109
-180.042	800.000	0.099	0.274
-179.027	-169.770	0.214	0.008
-178.012	202.350	-0.195	-0.297
-176.998	29.268	0.268	-0.225
-175.983	-30.735	0.201	0.112
-174.969	159.524	-0.078	0.106
-173.954	-200.000	0.042	-0.307
-172.939	800.000	-0.026	0.101
-171.925	-111.084	0.330	0.067
-170.910	490.003	0.051	-0.116
-169.896	-200.000	-0.051	-0.276
-168.881	340.884	0.152	-0.293
-167.866	231.214	0.063	0.101
-166.852	221.614	0.211	0.334
-165.837	-200.000	-0.127	0.610
-164.823	-200.000	0.025	0.220
-163.808	523.795	0.150	-0.348
-162.793	800.000	-0.065	0.180
-161.779	-65.165	-0.211	-0.084
-160.764	-200.000	0.037	0.264
-159.750	800.000	-0.132	0.468
-158.735	-18.248	0.162	0.100
-157.720	800.000	-0.034	0.136
-156.706	-27.430	0.069	0.040
-155.691	174.925	-0.163	-0.233
-154.677	-117.865	0.249	0.044
-153.662	-148.377	-0.146	0.012
-152.647	-200.000	-0.007	-0.154
-151.633	151.931	0.112	-0.151
-150.618	-200.000	0.033	-0.282
-149.604	-65.421	-0.146	0.058
-148.589	666.652	-0.097	-0.247
-147.574	167.376	0.278	-0.389
-146.560	-134.465	-0.107	-0.013
-145.545	-69.253	0.225	0.085
-144.531	259.877	-0.200	0.341
-143.516	-200.000	-0.069	-0.344
-142.502	88.359	-0.024	0.026
-141.487	-10.447	0.125	0.082
-140.472	737.535	0.069	0.182
-139.458	-95.466	0.202	0.053
-138.443	800.000	-0.086	0.249
-137.429	432.323	-0.162	-0.345
-136.414	800.000	-0.038	0.124
-135.399	43.362	-0.164	0.148
-134.385	261.406	0.071	-0.122
-133.370	286.070	-0.121	-0.215
-132.356	237.933	0.063	-0.103
-131.341	75.654	-0.182	0.189
-130.326	731.364	0.091	-0.238
-129.312	-25.974	-0.120	0.069
-128.297	252.304	-0.113	0.190
-127.283	-82.226	0.325	-0.104
-126.268	16.112	0.066	0.052
-125.253	-125.711	0.348	0.052
-124.239	-200.000	0.040	0.274
-123.224	-200.000	0.060	0.273
-122.210	180.280	0.095	-0.138
-121.195	52.119	-0.094	0.088
