DTS Sentinel unit serial number:	SN413079Multiplexer serial number:	ORYXHardware model number:	OX4-SRSoftware version number:	ORYX F/W v4.00 Oryx Data Collector v3.7.2.0data status	okinstallation	princeton_trtdifferential loss correction	single-endedforward channel	channel 1reverse channel	N/Adate	2019/09/13time	05:18:35forward acquisition time	60.00reverse acquisition time	0.00gamma	496.2192k internal	0.2335k external	0.2335temperature offset calibration	1.0159default loss term (dB/km)	0.3790temperature slope calibration	1.0000multiplexer offset coefficient	1.0000multiplexer slope coefficient	1.0000fibre end	0.00T internal ref (°C)	26.37T ext. ref 1 (°C)	4.03T ext. ref 2 (°C)	20.82length (m)	temperature (°C)	Stokes	anti-Stokes-747.200	-70.390	-0.167	0.064
-746.185	-115.065	0.068	-0.013
-745.171	106.599	-0.007	-0.009
-744.156	347.636	-0.119	0.236
-743.142	15.843	-0.078	0.062
-742.127	800.000	0.048	-0.151
-741.112	-174.988	0.048	-0.001
-740.098	-21.981	-0.101	-0.062
-739.083	158.630	-0.041	-0.057
-738.069	-200.000	-0.013	0.393
-737.054	-200.000	-0.058	-0.273
-736.039	58.296	-0.197	0.194
-735.025	87.055	0.238	-0.264
-734.010	-39.871	0.244	-0.128
-732.996	-163.036	-0.511	-0.025
-731.981	-66.217	-0.214	-0.086
-730.966	-142.292	-0.067	-0.007
-729.952	800.000	-0.074	0.225
-728.937	-200.000	-0.028	-0.129
-727.923	-39.808	-0.099	0.052
-726.908	-6.070	0.036	-0.025
-725.894	192.960	0.058	-0.087
-724.879	1.341	-0.278	-0.200
-723.864	-64.841	-0.190	-0.077
-722.850	25.325	-0.195	-0.163
-721.835	-163.553	-0.085	0.004
-720.821	-75.691	0.370	-0.132
-719.806	-200.000	-0.041	0.486
-718.791	800.000	0.065	0.272
-717.777	-200.000	0.017	-0.107
-716.762	-112.491	-0.446	0.089
-715.748	-200.000	-0.018	0.383
-714.733	-24.283	-0.059	0.035
-713.718	312.505	0.193	-0.363
-712.704	492.434	-0.140	0.322
-711.689	-114.874	0.267	-0.051
-710.675	-200.000	0.032	0.000
-709.660	290.763	-0.103	-0.188
-708.645	-44.138	0.415	-0.209
-707.631	17.346	-0.094	-0.075
-706.616	-23.975	0.082	0.049
-705.602	800.000	-0.066	-0.214
-704.587	38.176	0.096	0.086
-703.572	-193.175	0.136	0.001
-702.558	800.000	0.110	-0.359
-701.543	-200.000	0.039	-0.236
-700.529	-200.000	0.007	-0.117
-699.514	431.668	0.190	0.413
-698.499	-21.066	0.322	-0.198
-697.485	113.767	-0.153	0.187
-696.470	-118.447	-0.145	-0.026
-695.456	-88.987	0.223	0.066
-694.441	346.306	0.054	0.107
-693.426	727.419	0.056	0.151
-692.412	-126.349	-0.089	-0.013
-691.397	-156.406	0.161	0.010
-690.383	152.825	-0.105	-0.144
-689.368	70.141	0.193	0.200
-688.354	-135.242	-0.229	-0.027
-687.339	10.970	-0.194	0.149
-686.324	-52.822	0.114	0.053
-685.310	-126.068	-0.143	0.022
-684.295	-200.000	-0.005	0.219
-683.281	-200.000	-0.001	0.021
-682.266	800.000	0.055	0.204
-681.251	390.137	0.057	0.119
-680.237	-84.631	0.056	0.018
-679.222	6.151	-0.292	0.217
-678.208	348.463	-0.074	0.146
-677.193	505.021	0.105	0.243
-676.178	-200.000	0.031	0.289
-675.164	-169.481	-0.462	-0.017
-674.149	-200.000	0.028	-0.146
-673.135	-200.000	0.021	0.222
-672.120	195.646	-0.190	-0.289
-671.105	-108.426	0.199	0.043
-670.091	-46.292	-0.224	0.110
-669.076	-173.504	0.242	0.007
-668.062	-89.665	-0.119	0.035
-667.047	800.000	-0.062	-0.182
-666.032	44.245	0.162	-0.149
-665.018	-200.000	0.000	0.073
-664.003	96.871	0.151	-0.174
-662.989	781.676	0.061	-0.168
-661.974	-132.637	-0.127	-0.016
-660.959	131.908	-0.078	-0.100
-659.945	158.312	0.053	0.073
-658.930	43.789	0.207	0.190
-657.916	145.364	-0.116	-0.156
-656.901	-105.234	0.146	-0.033
-655.886	-47.303	-0.104	0.051
-654.872	-84.008	0.295	0.094
-653.857	204.534	-0.042	0.065
-652.843	-36.796	0.120	-0.064
-651.828	140.022	0.076	-0.101
-650.814	112.057	0.063	-0.077
-649.799	-200.000	-0.072	0.321
-648.784	-128.799	0.126	-0.018
-647.770	94.378	0.042	0.047
-646.755	65.675	-0.145	-0.147
-645.741	198.227	0.157	0.240
-644.726	414.273	-0.146	-0.311
-643.711	800.000	0.093	0.288
-642.697	-152.125	-0.200	-0.015
-641.682	246.128	0.080	-0.135
-640.668	40.367	-0.150	0.135
-639.653	167.818	0.089	0.127
-638.638	-135.119	-0.359	-0.043
-637.624	-23.325	0.179	-0.108
-636.609	-11.277	0.099	-0.065
-635.595	168.597	-0.110	-0.158
-634.580	-93.015	-0.186	0.052
-633.565	707.654	-0.055	0.144
-632.551	155.062	-0.298	0.409
-631.536	33.693	0.231	0.201
-630.522	-200.000	0.017	-0.179
-629.507	800.000	0.043	-0.150
-628.492	19.591	-0.152	0.122
-627.478	-200.000	0.045	-0.204
-626.463	-59.772	-0.182	-0.078
-625.449	134.494	0.057	0.073
-624.434	740.745	0.056	-0.149
-623.419	-122.577	-0.374	0.061
-622.405	-200.000	0.006	-0.235
-621.390	339.331	0.038	-0.073
-620.376	-161.106	0.134	0.007
-619.361	51.184	0.230	0.218
-618.346	434.297	0.173	0.377
-617.332	-109.848	-0.194	-0.041
-616.317	800.000	-0.026	0.080
-615.303	-200.000	0.021	0.153
-614.288	-12.525	0.200	-0.130
-613.273	-41.787	0.177	-0.091
-612.259	-36.796	0.167	-0.090
-611.244	-51.126	0.102	-0.048
-610.230	208.074	-0.064	0.100
-609.215	-68.934	-0.111	0.043
-608.201	-44.802	0.081	-0.040
-607.186	-0.985	0.214	0.151
-606.171	800.000	-0.047	0.191
-605.157	446.572	-0.131	-0.288
-604.142	-97.289	-0.180	0.047
-603.128	69.831	-0.072	-0.074
-602.113	552.042	0.141	-0.339
-601.098	-21.427	-0.253	-0.154
-600.084	-79.745	-0.158	0.053
-599.069	211.635	0.219	-0.345
-598.055	358.753	0.104	0.207
-597.040	-111.559	0.336	-0.068
-596.025	96.411	-0.269	0.307
-595.011	800.000	-0.086	-0.307
-593.996	102.683	-0.105	-0.123
-592.982	-159.301	-0.302	0.017
-591.967	-128.957	-0.036	0.005
-590.952	-38.439	0.316	0.167
-589.938	154.645	-0.272	0.373
-588.923	9.234	0.167	-0.126
-587.909	-70.569	-0.196	-0.074
-586.894	-141.839	0.220	-0.022
-585.879	-115.804	0.292	0.054
-584.865	-2.222	0.185	-0.130
-583.850	-132.863	-0.102	0.013
-582.836	-169.044	-0.247	0.009
-581.821	-173.534	-0.322	0.010
-580.806	-200.000	-0.002	0.292
-579.792	-200.000	0.013	0.381
-578.777	-188.332	0.414	-0.005
-577.763	31.973	0.125	-0.107
-576.748	167.951	-0.036	0.050
-575.733	72.170	-0.143	0.148
-574.719	182.083	-0.160	0.235
-573.704	-184.264	-0.136	0.002
-572.690	-6.631	-0.233	0.158
-571.675	740.014	-0.138	0.371
-570.661	351.847	-0.125	0.247
-569.646	-6.499	-0.115	-0.078
-568.631	-114.783	-0.184	-0.035
-567.617	-200.000	-0.003	0.024
-566.602	59.193	0.361	-0.355
-565.588	132.723	0.064	-0.082
-564.573	62.530	-0.295	0.294
-563.558	330.224	0.120	-0.230
-562.544	331.706	0.161	-0.309
-561.529	-200.000	-0.007	0.127
-560.515	101.362	0.224	0.261
-559.500	-200.000	0.002	-0.175
-558.485	-200.000	-0.007	-0.315
-557.471	53.280	0.295	0.282
-556.456	-10.196	-0.273	-0.181
-555.442	110.445	0.111	-0.133
-554.427	258.648	-0.122	-0.210
-553.412	-200.000	-0.003	-0.037
-552.398	323.326	0.196	0.373
-551.383	156.485	0.037	0.051
-550.369	14.772	0.364	0.284
-549.354	-9.334	0.166	-0.110
-548.339	-7.454	-0.160	-0.108
-547.325	-200.000	-0.011	0.138
-546.310	109.585	0.255	-0.305
-545.296	7.882	-0.233	0.174
-544.281	-200.000	-0.030	0.260
-543.266	568.886	-0.116	0.281
-542.252	-200.000	0.034	-0.191
-541.237	74.556	-0.138	0.145
-540.223	12.299	-0.106	0.081
-539.208	-16.561	0.206	0.130
-538.193	-57.810	-0.184	0.080
-537.179	-200.000	0.055	-0.251
-536.164	-95.909	0.147	-0.039
-535.150	-79.575	0.144	0.049
-534.135	-200.000	0.004	-0.281
-533.121	-200.000	0.013	-0.141
-532.106	-62.350	0.049	-0.020
-531.091	37.043	0.195	0.172
-530.077	278.043	-0.116	-0.205
-529.062	434.302	-0.113	0.245
-528.048	6.950	-0.209	0.155
-527.033	-17.030	-0.169	0.106
-526.018	800.000	0.080	-0.289
-525.004	305.824	0.023	0.043
-523.989	-138.405	-0.262	0.029
-522.975	123.746	0.118	-0.147
-521.960	-21.617	0.363	0.221
-520.945	-92.810	0.104	0.029
-519.931	70.674	-0.100	0.103
-518.916	24.783	-0.162	0.134
-517.902	14.162	0.174	0.135
-516.887	-35.831	0.241	-0.130
-515.872	-200.000	-0.062	0.345
-514.858	115.730	0.236	0.288
-513.843	-200.000	-0.014	0.243
-512.829	-200.000	0.007	0.364
-511.814	800.000	-0.059	0.231
-510.799	-103.544	-0.136	-0.032
-509.785	-93.194	-0.086	-0.024
-508.770	-200.000	0.030	-0.188
-507.756	626.103	-0.126	0.316
-506.741	-4.280	-0.268	-0.185
-505.726	-200.000	-0.084	-0.373
-504.712	120.783	-0.113	-0.140
-503.697	352.354	-0.097	0.190
-502.683	-120.240	0.044	-0.008
-501.668	590.076	-0.044	0.108
-500.653	800.000	0.066	0.244
-499.639	22.500	0.241	0.196
-498.624	54.381	-0.311	-0.298
-497.610	99.431	-0.295	-0.339
-496.595	396.774	0.112	0.232
-495.581	-89.466	0.210	0.061
-494.566	-58.384	-0.194	0.084
-493.551	-14.514	-0.129	-0.082
-492.537	800.000	-0.094	0.312
-491.522	148.610	-0.120	-0.161
-490.508	-142.775	0.285	0.028
-489.493	289.703	-0.123	-0.222
-488.478	-16.193	0.137	-0.087
-487.464	-186.476	0.377	-0.005
-486.449	-160.203	0.202	0.011
-485.435	-5.354	-0.113	-0.077
-484.420	-136.523	0.123	-0.014
-483.405	-50.860	0.166	0.077
-482.391	-200.000	-0.016	0.229
-481.376	729.721	-0.043	-0.115
-480.362	-174.236	0.705	0.020
-479.347	-157.975	-0.210	-0.012
-478.332	800.000	-0.031	0.095
-477.318	135.189	0.233	-0.302
-476.303	-31.696	0.165	0.092
-475.289	337.884	-0.080	-0.155
-474.274	-87.831	0.432	0.129
-473.259	800.000	-0.070	0.283
-472.245	668.949	0.105	-0.271
-471.230	213.646	-0.020	-0.031
-470.216	47.539	-0.106	0.098
-469.201	-78.247	0.118	0.040
-468.186	155.807	0.114	0.156
-467.172	-147.114	0.026	-0.002
-466.157	-182.335	-0.241	-0.004
-465.143	-161.060	0.300	-0.016
-464.128	447.210	-0.070	-0.153
-463.113	190.649	-0.107	0.160
-462.099	-41.608	0.487	0.249
-461.084	-200.000	0.041	0.455
-460.070	-108.929	-0.172	0.037
-459.055	327.828	0.021	-0.039
-458.040	-200.000	0.013	-0.184
-457.026	-69.032	0.143	-0.055
-456.011	-15.763	-0.087	-0.055
-454.997	-56.303	0.396	-0.175
-453.982	800.000	0.129	-0.367
-452.968	800.000	-0.045	-0.123
-451.953	-200.000	-0.007	-0.040
-450.938	-165.107	0.118	0.005
-449.924	106.026	-0.084	0.099
-448.909	-10.332	-0.366	-0.241
-447.895	21.441	-0.250	-0.202
-446.880	464.790	0.101	-0.224
-445.865	800.000	0.030	0.109
-444.851	-200.000	-0.031	0.183
-443.836	-125.424	-0.323	-0.049
-442.822	-42.470	0.128	-0.065
-441.807	800.000	0.141	-0.511
-440.792	800.000	0.035	-0.117
-439.778	281.718	-0.063	-0.112
-438.763	86.671	-0.174	-0.191
-437.749	-166.064	-0.334	0.014
-436.734	40.628	-0.278	0.249
-435.719	153.338	-0.142	0.193
-434.705	99.814	0.185	0.213
-433.690	-200.000	0.039	0.218
-432.676	-198.123	-0.155	-0.001
-431.661	-200.000	0.086	-0.454
-430.646	800.000	0.095	0.312
-429.632	-200.000	-0.036	0.221
-428.617	-96.617	0.054	-0.014
-427.603	48.517	0.046	-0.042
-426.588	-124.026	0.148	0.023
-425.573	-26.983	-0.149	0.086
-424.559	439.845	0.168	0.365
-423.544	138.629	-0.154	0.200
-422.530	89.615	0.128	-0.142
-421.515	58.322	-0.083	0.081
-420.500	171.835	-0.046	-0.065
-419.486	-11.815	0.221	0.144
-418.471	117.630	-0.135	0.165
-417.457	-170.989	-0.193	-0.007
-416.442	351.265	-0.196	0.385
-415.428	-38.384	0.163	0.086
-414.413	-15.823	-0.070	-0.044
-413.398	800.000	-0.066	-0.265
-412.384	-48.515	-0.206	0.098
-411.369	-20.496	-0.178	0.109
-410.355	25.247	0.037	0.030
-409.340	197.370	-0.066	0.101
-408.325	-200.000	0.032	-0.253
-407.311	-98.847	-0.056	-0.014
-406.296	-61.306	-0.158	-0.066
-405.282	-38.162	-0.211	-0.111
-404.267	288.368	0.086	0.155
-403.252	41.958	0.108	0.097
-402.238	-123.753	0.263	0.041
-401.223	-61.402	-0.266	-0.111
-400.209	22.104	-0.063	0.051
-399.194	-196.173	0.347	0.002
-398.179	243.470	-0.143	-0.238
-397.165	199.756	-0.093	0.142
-396.150	205.052	-0.129	0.198
-395.136	-147.225	0.374	-0.032
-394.121	-81.183	0.311	-0.102
-393.106	800.000	-0.026	0.073
-392.092	-200.000	0.059	-0.357
-391.077	-77.514	0.018	0.006
-390.063	157.427	0.057	-0.079
-389.048	4.692	0.380	0.276
-388.033	382.943	-0.087	0.178
-387.019	18.111	-0.099	-0.079
-386.004	-132.760	-0.080	0.010
-384.990	-200.000	-0.021	-0.128
-383.975	-200.000	0.007	-0.115
-382.960	800.000	-0.129	-0.440
-381.946	275.614	-0.061	-0.107
-380.931	800.000	0.049	0.192
-379.917	800.000	0.063	0.270
-378.902	8.581	0.235	-0.175
-377.888	164.428	-0.070	0.098
-376.873	-137.191	0.209	0.024
-375.858	-200.000	0.017	-0.075
-374.844	-59.166	0.131	0.056
-373.829	-93.715	-0.135	-0.037
-372.815	-200.000	-0.018	0.470
-371.800	-200.000	-0.012	-0.228
-370.785	390.080	-0.073	-0.150
-369.771	191.100	-0.086	-0.128
-368.756	-200.000	-0.058	-0.271
-367.742	-62.865	-0.203	0.083
-366.727	129.372	-0.128	0.162
-365.712	-96.676	-0.070	-0.018
-364.698	-6.416	-0.057	0.038
-363.683	-112.656	-0.157	-0.031
-362.669	-170.178	0.050	-0.002
-361.654	-200.000	0.020	-0.204
-360.639	-98.861	0.287	-0.072
-359.625	-200.000	0.019	0.150
-358.610	141.281	0.102	-0.134
-357.596	-200.000	0.013	-0.104
-356.581	-89.436	-0.306	-0.089
-355.566	66.499	-0.272	-0.273
-354.552	156.038	-0.098	-0.133
-353.537	58.581	0.221	0.214
-352.523	237.508	-0.129	-0.212
-351.508	-43.110	-0.207	-0.104
-350.493	103.072	-0.080	0.093
-349.479	63.792	0.085	-0.084
-348.464	-200.000	-0.021	0.144
-347.450	252.035	0.054	0.091
-346.435	-145.481	-0.199	-0.018
-345.420	275.277	0.114	0.200
-344.406	-45.173	0.357	-0.175
-343.391	16.180	0.179	-0.140
-342.377	-128.761	0.229	-0.032
-341.362	-200.000	-0.024	0.303
-340.348	-193.508	0.294	-0.003
-339.333	-169.445	-0.102	0.004
-338.318	-139.805	-0.151	-0.016
-337.304	-80.262	-0.136	-0.045
-336.289	82.551	-0.098	-0.105
-335.275	-51.134	-0.045	-0.021
-334.260	40.702	-0.224	0.200
-333.245	571.407	-0.092	0.221
-332.231	800.000	-0.016	0.056
-331.216	103.434	-0.136	0.158
-330.202	126.894	-0.029	0.037
-329.187	800.000	0.047	0.149
-328.172	26.967	0.251	-0.208
-327.158	-200.000	0.012	0.257
-326.143	67.566	0.105	0.106
-325.129	-74.483	-0.286	0.102
-324.114	800.000	0.037	-0.157
-323.099	425.424	0.060	-0.128
-322.085	316.764	-0.098	-0.183
-321.070	765.545	-0.102	-0.274
-320.056	-21.107	0.204	-0.123
-319.041	800.000	-0.013	-0.042
-318.026	174.498	0.073	-0.104
-317.012	-154.759	-0.218	-0.014
-315.997	-94.968	0.344	0.092
-314.983	448.236	-0.052	0.114
-313.968	-59.179	-0.061	-0.026
-312.953	26.957	0.135	-0.112
-311.939	800.000	0.063	0.260
-310.924	-54.367	0.112	0.050
-309.910	-56.081	-0.185	0.081
-308.895	800.000	-0.068	-0.291
-307.880	44.272	-0.275	0.249
-306.866	-198.291	-0.288	-0.002
-305.851	-126.982	-0.313	-0.045
-304.837	-160.445	-0.300	0.016
-303.822	319.746	-0.162	0.303
-302.807	800.000	-0.040	-0.140
-301.793	159.660	-0.138	-0.189
-300.778	20.749	0.238	-0.190
-299.764	-107.016	-0.197	-0.043
-298.749	-72.828	-0.148	-0.054
-297.735	-3.091	-0.246	-0.170
-296.720	-166.356	0.468	0.019
-295.705	39.564	-0.071	0.063
-294.691	-200.000	-0.023	0.195
-293.676	-115.084	0.354	0.066
-292.662	-76.724	0.479	-0.166
-291.647	98.058	0.045	0.052
-290.632	-61.606	-0.194	0.080
-289.618	32.004	-0.227	0.193
-288.603	-33.005	0.519	0.284
-287.589	-169.413	-0.348	-0.013
-286.574	-200.000	0.018	-0.167
-285.559	-74.519	0.219	-0.078
-284.545	11.681	-0.152	0.115
-283.530	-13.005	0.183	0.117
-282.516	800.000	0.067	0.282
-281.501	800.000	-0.015	0.049
-280.486	-116.005	0.264	0.049
-279.472	-11.680	0.204	-0.132
-278.457	-200.000	-0.030	-0.323
-277.443	-200.000	0.010	-0.117
-276.428	64.194	-0.438	-0.434
-275.413	-57.080	0.231	-0.100
-274.399	10.863	0.143	0.108
-273.384	-77.555	0.255	0.087
-272.370	-200.000	-0.024	0.177
-271.355	-200.000	0.015	-0.428
-270.340	-78.072	-0.251	0.085
-269.326	-59.948	-0.166	0.070
-268.311	800.000	-0.038	0.105
-267.297	-67.055	0.028	0.011
-266.282	359.527	0.059	0.117
-265.267	604.049	0.070	0.171
-264.253	479.792	-0.089	-0.200
-263.238	-10.672	-0.172	-0.112
-262.224	-19.762	0.307	-0.187
-261.209	-200.000	-0.054	-0.292
-260.195	332.288	-0.082	-0.157
-259.180	800.000	0.094	-0.367
-258.165	509.040	-0.023	0.053
-257.151	-144.005	0.252	0.023
-256.136	-84.148	-0.234	0.073
-255.122	94.811	0.141	-0.159
-254.107	-47.035	-0.077	0.037
-253.092	-57.883	0.381	0.164
-252.078	224.536	0.211	0.337
-251.063	800.000	-0.091	0.358
-250.049	-200.000	0.012	-0.434
-249.034	800.000	-0.089	-0.263
-248.019	357.351	0.141	-0.277
-247.005	-94.608	0.350	0.094
-245.990	73.245	-0.144	0.148
-244.976	-82.113	-0.233	0.075
-243.961	-200.000	0.025	0.391
-242.946	198.607	-0.165	0.248
-241.932	308.202	-0.132	-0.242
-240.917	-200.000	0.039	-0.343
-239.903	-55.066	-0.316	0.140
-238.888	52.662	-0.172	0.162
-237.873	-54.043	0.159	0.071
-236.859	-18.878	-0.005	-0.003
-235.844	-90.711	0.200	-0.057
-234.830	-165.242	-0.297	-0.013
-233.815	-111.592	0.206	0.041
-232.800	-200.000	0.012	-0.115
-231.786	800.000	-0.075	-0.217
-230.771	-135.026	-0.008	0.001
-229.757	-126.945	-0.139	0.020
-228.742	-88.839	0.070	-0.020
-227.727	800.000	-0.036	0.100
-226.713	752.359	-0.112	-0.299
-225.698	184.843	0.150	-0.219
-224.684	-28.314	0.034	-0.019
-223.669	800.000	0.019	-0.072
-222.655	800.000	-0.059	0.192
-221.640	-63.272	0.242	0.098
-220.625	-51.201	-0.146	-0.067
-219.611	-40.339	0.092	-0.047
-218.596	-200.000	-0.028	-0.147
-217.582	-126.375	-0.282	0.041
-216.567	-139.051	-0.313	-0.033
-215.552	-152.569	0.198	0.014
-214.538	-91.260	-0.115	-0.032
-213.523	-133.454	-0.249	0.031
-212.509	51.677	0.329	0.308
-211.494	88.047	0.314	0.343
-210.479	-139.035	-0.078	0.008
-209.465	-65.783	-0.462	0.182
-208.450	800.000	-0.102	-0.345
-207.436	800.000	0.037	0.103
-206.421	49.633	-0.077	0.072
-205.406	587.265	0.057	-0.138
-204.392	410.132	-0.154	-0.321
-203.377	609.696	0.222	-0.545
-202.363	-148.664	0.327	0.026
-201.348	177.389	0.186	-0.267
-200.333	-48.930	0.301	-0.142
-199.319	366.378	-0.044	0.087
-198.304	800.000	-0.036	0.126
-197.290	-117.901	0.108	-0.019
-196.275	221.091	-0.032	0.050
-195.260	-92.126	0.183	0.051
-194.246	-200.000	-0.002	0.109
-193.231	-25.884	-0.247	0.143
-192.217	-37.197	0.218	-0.115
-191.202	12.130	0.266	-0.201
-190.187	-66.494	-0.270	0.105
-189.173	16.910	-0.120	-0.094
-188.158	152.469	-0.081	0.108
-187.144	-55.447	-0.304	-0.134
-186.129	800.000	0.066	-0.278
-185.114	201.910	-0.066	0.100
-184.100	800.000	0.140	-0.456
-183.085	-200.000	0.036	0.207
-182.071	-93.101	0.311	0.085
-181.056	-200.000	-0.023	-0.231
-180.042	-25.768	0.392	-0.227
-179.027	800.000	-0.062	0.195
-178.012	-69.203	0.367	-0.139
-176.998	-104.825	-0.312	0.070
-175.983	800.000	0.035	-0.124
-174.969	198.188	-0.121	0.181
-173.954	87.292	0.184	-0.200
-172.939	-148.176	-0.170	-0.014
-171.925	-92.428	-0.138	0.038
-170.910	-200.000	-0.023	-0.284
-169.896	-69.224	-0.062	-0.023
-168.881	-23.412	-0.236	-0.139
-167.866	54.925	-0.157	-0.149
-166.852	-71.885	-0.257	-0.094
-165.837	57.047	-0.184	-0.176
-164.823	-59.747	-0.096	0.040
-163.808	159.376	0.124	-0.170
-162.793	-154.382	-0.419	-0.028
-161.779	656.099	0.035	0.087
-160.764	368.304	0.158	-0.314
-159.750	-31.222	-0.193	0.107
-158.735	-103.314	0.353	0.082
-157.720	20.004	0.223	0.176
-156.706	203.542	0.118	0.179
-155.691	-200.000	-0.043	0.475
-154.677	370.048	0.147	0.292
-153.662	99.246	-0.113	-0.128
-152.647	102.830	0.258	-0.297
-151.633	6.825	-0.112	0.082
-150.618	-130.186	-0.173	-0.023
-149.604	-112.714	-0.261	-0.051
-148.589	-200.000	-0.015	0.113
-147.574	-96.309	0.374	-0.097
-146.560	144.306	0.366	0.480
-145.545	7.609	0.137	-0.101
-144.531	33.272	0.384	-0.327
-143.516	-35.099	-0.063	-0.034
-142.502	-158.862	-0.087	0.005
-141.487	14.017	0.105	-0.080
-140.472	100.172	0.061	0.069
-139.458	-45.018	-0.141	0.069
-138.443	-152.848	0.118	-0.008
-137.429	144.520	-0.294	0.385
-136.414	24.304	-0.163	0.132
-135.399	-92.209	0.221	0.061
-134.385	-200.000	-0.010	-0.253
-133.370	92.296	-0.118	0.130
-132.356	-120.351	-0.201	0.034
-131.341	-200.000	0.003	0.159
-130.326	57.281	-0.175	0.168
-129.312	-5.193	-0.158	-0.107
-128.297	-200.000	0.015	0.067
-127.283	80.924	-0.129	-0.137
-126.268	-106.144	0.314	-0.069
-125.253	-153.388	-0.450	-0.031
-124.239	226.176	-0.132	-0.210
-123.224	379.092	-0.098	-0.198
-122.210	274.314	0.060	0.103
