DTS Sentinel unit serial number:	SN413079Multiplexer serial number:	ORYXHardware model number:	OX4-SRSoftware version number:	ORYX F/W v4.00 Oryx Data Collector v3.7.2.0data status	okinstallation	princeton_trtdifferential loss correction	single-endedforward channel	channel 1reverse channel	N/Adate	2019/09/18time	00:42:35forward acquisition time	60.00reverse acquisition time	0.00gamma	496.2192k internal	0.2340k external	0.2340temperature offset calibration	0.9980default loss term (dB/km)	0.3790temperature slope calibration	1.0000multiplexer offset coefficient	1.0000multiplexer slope coefficient	1.0000fibre end	0.00T internal ref (°C)	23.44T ext. ref 1 (°C)	0.17T ext. ref 2 (°C)	17.04length (m)	temperature (°C)	Stokes	anti-Stokes-747.200	-94.115	-0.384	0.106
-746.185	-152.538	-0.315	-0.023
-745.171	-56.298	-0.215	0.096
-744.156	134.826	-0.054	0.070
-743.142	68.599	-0.070	-0.072
-742.127	13.619	-0.293	0.228
-741.112	428.373	0.146	-0.317
-740.098	425.172	-0.023	0.049
-739.083	-143.270	-0.101	0.010
-738.069	-200.000	-0.031	0.185
-737.054	-151.732	-0.209	-0.015
-736.039	89.697	-0.305	0.341
-735.025	-63.955	0.317	0.130
-734.010	-200.000	-0.046	-0.468
-732.996	69.868	0.185	-0.192
-731.981	-141.770	-0.334	-0.034
-730.966	-27.983	0.150	0.087
-729.952	-200.000	-0.026	-0.207
-728.937	-150.678	-0.473	0.036
-727.923	-120.589	-0.172	0.029
-726.908	-79.108	0.122	-0.041
-725.894	-200.000	-0.002	0.062
-724.879	34.704	-0.082	0.072
-723.864	117.572	-0.264	-0.326
-722.850	-6.936	0.286	-0.195
-721.835	-200.000	0.020	-0.306
-720.821	-14.005	0.188	-0.122
-719.806	360.821	0.070	-0.140
-718.791	-200.000	0.017	-0.180
-717.777	-4.351	0.283	0.196
-716.762	-9.401	0.263	0.176
-715.748	10.880	0.170	0.130
-714.733	128.545	0.139	0.178
-713.718	500.427	-0.053	0.123
-712.704	-200.000	-0.050	-0.223
-711.689	-39.717	-0.159	0.083
-710.675	280.628	-0.217	-0.388
-709.660	-53.177	0.211	0.097
-708.645	50.847	-0.120	0.114
-707.631	-200.000	0.011	0.122
-706.616	-200.000	0.048	0.261
-705.602	212.170	-0.072	0.114
-704.587	-200.000	0.017	0.174
-703.572	-100.335	0.247	0.061
-702.558	5.591	-0.204	0.151
-701.543	800.000	0.057	-0.197
-700.529	97.661	-0.211	0.243
-699.514	800.000	-0.068	-0.266
-698.499	81.311	0.050	0.054
-697.485	177.800	-0.067	0.098
-696.470	-163.979	-0.133	-0.006
-695.456	63.920	0.227	-0.229
-694.441	-96.397	0.341	-0.090
-693.426	68.670	-0.055	0.057
-692.412	-119.797	-0.093	-0.016
-691.397	8.451	0.392	-0.295
-690.383	-200.000	-0.032	-0.246
-689.368	-200.000	-0.013	-0.167
-688.354	-162.126	-0.194	-0.010
-687.339	-71.630	0.293	0.109
-686.324	364.818	-0.166	-0.334
-685.310	97.412	-0.094	-0.108
-684.295	14.943	-0.187	0.147
-683.281	-200.000	-0.067	0.401
-682.266	-200.000	-0.076	0.368
-681.251	-32.059	0.299	-0.167
-680.237	-165.982	-0.336	-0.014
-679.222	74.052	-0.058	-0.061
-678.208	-200.000	-0.049	-0.433
-677.193	-26.536	-0.204	-0.119
-676.178	-115.458	0.344	0.065
-675.164	-152.737	-0.399	-0.028
-674.149	-200.000	-0.085	0.384
-673.135	-91.449	-0.332	0.095
-672.120	-200.000	-0.025	-0.294
-671.105	204.424	0.114	0.176
-670.091	12.454	-0.439	0.338
-669.076	800.000	0.075	-0.207
-668.062	-89.868	-0.116	0.034
-667.047	-200.000	0.012	-0.213
-666.032	305.212	-0.053	-0.098
-665.018	-29.487	0.446	-0.255
-664.003	-151.260	-0.361	-0.027
-662.989	173.757	-0.056	-0.080
-661.974	-200.000	0.015	0.169
-660.959	-15.959	0.104	-0.066
-659.945	-109.963	-0.229	0.048
-658.930	-111.467	0.312	-0.064
-657.916	137.996	-0.131	-0.172
-656.901	-24.612	-0.146	0.087
-655.886	9.030	0.200	0.151
-654.872	-80.903	-0.324	-0.107
-653.857	148.474	-0.243	-0.328
-652.843	-54.371	-0.143	-0.065
-651.828	-179.798	0.065	0.001
-650.814	-200.000	-0.046	-0.427
-649.799	-200.000	0.014	-0.196
-648.784	-200.000	-0.023	0.106
-647.770	73.990	-0.283	-0.297
-646.755	23.063	0.126	-0.103
-645.741	-149.525	-0.106	0.008
-644.726	-122.555	-0.102	-0.017
-643.711	-176.625	0.147	0.004
-642.697	421.436	-0.081	-0.174
-641.682	-200.000	0.038	-0.177
-640.668	-200.000	0.008	-0.164
-639.653	1.381	0.283	-0.203
-638.638	3.861	-0.328	-0.239
-637.624	-200.000	0.013	0.180
-636.609	-200.000	-0.049	-0.271
-635.595	168.724	-0.188	0.267
-634.580	-200.000	-0.011	-0.216
-633.565	-30.970	-0.097	-0.055
-632.551	-172.886	0.152	0.005
-631.536	-133.525	0.028	0.003
-630.522	-200.000	0.007	-0.255
-629.507	0.645	-0.199	-0.142
-628.492	-130.945	0.338	0.045
-627.478	-153.344	-0.189	-0.013
-626.463	-26.326	-0.320	0.188
-625.449	282.771	-0.228	-0.409
-624.434	591.055	0.109	0.268
-623.419	-45.564	-0.068	0.034
-622.405	-200.000	0.000	-0.234
-621.390	-53.980	-0.199	0.090
-620.376	250.570	-0.218	0.370
-619.361	23.756	0.279	0.230
-618.346	-116.801	0.472	-0.086
-617.332	447.733	-0.062	-0.137
-616.317	-167.459	0.268	-0.011
-615.303	124.462	-0.120	-0.151
-614.288	-200.000	-0.060	0.276
-613.273	-41.174	0.263	0.135
-612.259	260.817	-0.137	-0.236
-611.244	115.194	0.078	-0.094
-610.230	186.802	-0.136	0.202
-609.215	573.502	-0.059	-0.142
-608.201	-25.595	-0.117	-0.069
-607.186	41.305	0.169	-0.153
-606.171	-200.000	-0.003	-0.253
-605.157	-200.000	0.026	-0.118
-604.142	-79.900	-0.300	-0.101
-603.128	-150.176	0.082	-0.006
-602.113	29.001	-0.125	-0.105
-601.098	38.483	0.086	-0.076
-600.084	-115.281	-0.275	0.052
-599.069	40.160	0.214	0.192
-598.055	77.928	-0.192	-0.205
-597.040	-97.172	0.195	-0.051
-596.025	800.000	0.063	-0.242
-595.011	-69.384	-0.160	-0.061
-593.996	-169.993	0.122	-0.004
-592.982	-153.372	-0.061	0.004
-591.967	-40.608	-0.148	0.076
-590.952	323.996	-0.093	0.176
-589.938	-20.529	0.070	0.043
-588.923	0.248	-0.217	-0.154
-587.909	800.000	0.092	-0.309
-586.894	74.574	0.113	0.119
-585.879	-65.923	0.084	-0.033
-584.865	-57.766	-0.108	-0.047
-583.850	-21.584	0.141	0.085
-582.836	188.356	-0.088	-0.131
-581.821	-96.999	-0.292	0.076
-580.806	-61.591	-0.272	0.114
-579.792	-200.000	-0.049	-0.260
-578.777	252.096	0.207	0.351
-577.763	-200.000	-0.024	0.131
-576.748	-60.737	-0.091	0.038
-575.733	-200.000	-0.063	0.399
-574.719	-43.080	-0.275	-0.139
-573.704	-93.158	0.251	-0.069
-572.690	1.294	0.169	-0.121
-571.675	-200.000	0.017	-0.123
-570.661	-127.441	-0.372	-0.054
-569.646	237.694	0.110	0.182
-568.631	64.045	-0.310	0.311
-567.617	73.824	0.183	-0.191
-566.602	-109.298	0.092	-0.019
-565.588	-197.056	-0.191	-0.001
-564.573	-147.507	0.380	0.032
-563.558	-181.426	-0.470	0.009
-562.544	480.184	0.149	0.336
-561.529	800.000	-0.047	0.165
-560.515	-84.178	0.598	0.189
-559.500	-23.529	-0.166	-0.099
-558.485	145.711	0.076	-0.101
-557.471	-54.952	-0.248	0.111
-556.456	-200.000	0.040	-0.341
-555.442	800.000	0.081	-0.291
-554.427	-116.426	0.387	-0.071
-553.412	-89.755	0.141	-0.041
-552.398	800.000	0.011	0.032
-551.383	106.259	0.098	0.116
-550.369	-185.244	0.119	0.002
-549.354	-115.963	0.295	-0.055
-548.339	-200.000	0.079	-0.404
-547.325	-78.050	-0.053	-0.018
-546.310	-200.000	-0.002	-0.018
-545.296	304.181	-0.139	0.257
-544.281	212.953	0.130	0.204
-543.266	-200.000	-0.022	0.280
-542.252	-150.046	-0.281	0.022
-541.237	126.218	0.173	0.218
-540.223	16.227	-0.164	-0.128
-539.208	83.970	0.077	0.084
-538.193	28.609	-0.050	-0.042
-537.179	127.607	0.133	-0.167
-536.164	18.918	-0.137	-0.109
-535.150	-200.000	0.042	0.318
-534.135	-97.873	0.497	-0.128
-533.121	42.998	-0.152	-0.138
-532.106	-155.857	-0.095	0.006
-531.091	-172.527	-0.048	-0.002
-530.077	243.780	-0.098	-0.164
-529.062	-88.017	0.568	0.169
-528.048	-1.888	-0.092	0.064
-527.033	-141.173	0.295	0.030
-526.018	-200.000	-0.026	-0.155
-525.004	387.758	-0.032	0.066
-523.989	-200.000	-0.019	-0.133
-522.975	-200.000	-0.013	-0.096
-521.960	253.852	-0.098	-0.166
-520.945	-108.042	0.236	-0.051
-519.931	280.342	-0.014	0.025
-518.916	-75.405	-0.363	0.129
-517.902	-38.517	-0.268	0.141
-516.887	-68.776	-0.111	-0.043
-515.872	-85.134	-0.130	0.041
-514.858	-200.000	-0.061	0.292
-513.843	155.708	0.124	-0.170
-512.829	-17.089	0.238	0.149
-511.814	-0.135	-0.051	0.036
-510.799	-200.000	0.022	-0.280
-509.785	44.800	-0.179	-0.164
-508.770	-146.766	0.368	0.032
-507.756	57.872	0.327	0.317
-506.741	-43.456	0.228	0.115
-505.726	289.708	-0.169	0.304
-504.712	-81.824	0.200	-0.065
-503.697	-97.273	-0.248	0.064
-502.683	-128.654	-0.115	0.016
-501.668	63.987	-0.091	0.091
-500.653	9.417	-0.131	-0.098
-499.639	60.957	0.426	-0.420
-498.624	117.181	0.330	-0.402
-497.610	-1.109	0.034	-0.024
-496.595	-200.000	0.003	-0.022
-495.581	-135.877	0.197	-0.023
-494.566	800.000	0.085	-0.251
-493.551	-179.988	-0.117	-0.002
-492.537	800.000	0.042	0.146
-491.522	36.061	-0.155	-0.135
-490.508	-6.801	-0.106	-0.072
-489.493	52.998	-0.204	0.194
-488.478	206.009	0.157	0.242
-487.464	-188.630	0.225	-0.003
-486.449	-200.000	0.033	0.169
-485.435	-64.825	0.151	-0.061
-484.420	504.409	0.064	0.146
-483.405	26.706	-0.317	-0.263
-482.391	800.000	-0.079	-0.320
-481.376	-34.981	0.210	0.114
-480.362	-26.809	-0.093	0.054
-479.347	-88.518	0.166	0.049
-478.332	10.145	-0.290	-0.219
-477.318	-19.838	-0.156	-0.096
-476.303	-200.000	-0.002	-0.174
-475.289	284.886	0.077	0.138
-474.274	32.959	0.308	0.265
-473.259	97.470	0.165	-0.188
-472.245	222.638	-0.100	0.159
-471.230	-200.000	0.010	-0.166
-470.216	145.797	0.068	0.091
-469.201	214.118	0.085	0.133
-468.186	-122.207	0.230	0.037
-467.172	-15.765	0.174	0.110
-466.157	-41.285	-0.084	0.043
-465.143	55.071	-0.116	0.112
-464.128	299.825	-0.086	0.157
-463.113	800.000	0.061	0.177
-462.099	-200.000	0.012	-0.181
-461.084	-68.961	-0.139	-0.053
-460.070	5.584	-0.221	0.162
-459.055	800.000	0.042	-0.134
-458.040	45.632	-0.245	-0.224
-457.026	-200.000	-0.026	0.175
-456.011	800.000	-0.083	-0.283
-454.997	395.610	-0.122	-0.253
-453.982	800.000	0.006	-0.018
-452.968	-200.000	0.014	0.099
-451.953	2.087	0.050	0.036
-450.938	800.000	0.036	-0.127
-449.924	800.000	0.054	-0.157
-448.909	-125.940	0.319	-0.048
-447.895	-69.220	0.279	0.106
-446.880	87.656	0.161	0.176
-445.865	48.025	0.433	0.401
-444.851	-200.000	-0.006	0.216
-443.836	270.426	-0.195	-0.340
-442.822	-200.000	-0.001	0.022
-441.807	-1.733	-0.282	0.197
-440.792	11.496	0.401	0.305
-439.778	71.522	-0.023	-0.023
-438.763	610.858	-0.032	0.079
-437.749	8.996	-0.303	-0.226
-436.734	42.168	-0.239	-0.215
-435.719	-200.000	0.025	0.121
-434.705	800.000	-0.072	0.219
-433.690	-65.583	0.229	-0.091
-432.676	364.260	-0.040	0.079
-431.661	363.395	-0.045	0.089
-430.646	23.044	0.201	-0.164
-429.632	-118.189	-0.173	0.031
-428.617	-107.230	-0.075	0.016
-427.603	-200.000	-0.007	-0.222
-426.588	-200.000	-0.049	0.297
-425.573	-200.000	-0.039	0.219
-424.559	621.529	-0.024	-0.060
-423.544	-56.173	-0.263	0.116
-422.530	800.000	0.064	-0.233
-421.515	-37.893	-0.335	-0.176
-420.500	96.543	-0.099	0.113
-419.486	370.320	-0.125	0.251
-418.471	800.000	-0.061	-0.212
-417.457	253.136	0.260	-0.439
-416.442	291.552	0.070	0.127
-415.428	103.128	-0.219	0.254
-414.413	351.484	0.230	-0.452
-413.398	-200.000	0.039	-0.235
-412.384	-157.869	-0.445	-0.026
-411.369	-200.000	-0.011	0.066
-410.355	767.003	0.075	-0.201
-409.340	-200.000	-0.063	-0.322
-408.325	-23.158	-0.120	-0.071
-407.311	-126.914	-0.086	0.013
-406.296	19.598	0.140	0.111
-405.282	54.043	0.294	0.280
-404.267	-200.000	-0.046	-0.269
-403.252	56.651	-0.164	0.158
-402.238	-17.688	-0.332	0.207
-401.223	-0.693	0.113	-0.079
-400.209	800.000	-0.118	-0.334
-399.194	58.622	-0.070	-0.068
-398.179	-200.000	0.031	0.139
-397.165	-200.000	-0.039	0.215
-396.150	172.774	0.074	-0.106
-395.136	-154.442	0.277	0.018
-394.121	-122.798	-0.086	0.014
-393.106	-92.449	-0.438	0.122
-392.092	-88.713	0.100	0.029
-391.077	-145.665	-0.054	-0.005
-390.063	-57.069	0.050	0.022
-389.048	-140.183	-0.196	-0.020
-388.033	-200.000	0.061	-0.348
-387.019	239.767	-0.053	-0.087
-386.004	-62.704	-0.092	0.038
-384.990	-200.000	0.322	0.001
-383.975	455.542	0.171	0.375
-382.960	-138.298	-0.225	0.025
-381.946	750.669	-0.146	0.388
-380.931	-111.156	-0.127	-0.026
-379.917	-141.767	-0.060	0.006
-378.902	800.000	-0.072	0.279
-377.888	50.592	-0.217	0.203
-376.873	210.684	-0.055	0.085
-375.858	-161.359	0.135	-0.007
-374.844	-58.463	-0.205	-0.088
-373.829	-149.732	-0.209	-0.016
-372.815	54.016	-0.094	-0.089
-371.800	476.114	-0.043	0.097
-370.785	62.719	0.166	0.164
-369.771	-142.710	0.167	0.016
-368.756	-200.000	0.005	-0.185
-367.742	-200.000	-0.026	-0.200
-366.727	187.686	0.085	0.125
-365.712	800.000	-0.024	0.070
-364.698	58.040	0.184	0.178
-363.683	-45.685	0.391	-0.191
-362.669	226.558	0.193	-0.309
-361.654	165.429	0.114	-0.158
-360.639	800.000	0.055	-0.166
-359.625	122.862	0.073	-0.090
-358.610	264.449	0.089	0.153
-357.596	-200.000	-0.008	0.235
-356.581	128.117	-0.139	-0.174
-355.566	-172.742	-0.146	0.005
-354.552	-6.927	-0.148	0.099
-353.537	421.447	0.054	0.114
-352.523	800.000	-0.082	0.263
-351.508	61.832	0.127	-0.125
-350.493	-200.000	0.001	-0.206
-349.479	-189.194	-0.157	0.002
-348.464	248.363	-0.169	-0.282
-347.450	-192.257	0.259	0.002
-346.435	-113.857	0.189	0.036
-345.420	-128.558	0.128	-0.018
-344.406	-131.407	0.290	-0.038
-343.391	7.885	-0.262	0.194
-342.377	-200.000	-0.060	-0.362
-341.362	-200.000	0.282	0.001
-340.348	25.249	0.199	0.163
-339.333	276.279	-0.124	0.216
-338.318	-200.000	0.019	0.191
-337.304	-200.000	0.018	-0.194
-336.289	56.388	0.312	-0.299
-335.275	-200.000	0.016	-0.108
-334.260	19.709	-0.057	-0.046
-333.245	-21.851	-0.207	-0.124
-332.231	-154.356	-0.358	0.024
-331.216	-63.720	0.284	0.115
-330.202	-200.000	-0.083	0.404
-329.187	-42.103	-0.161	-0.081
-328.172	102.174	0.120	0.138
-327.158	800.000	-0.099	-0.276
-326.143	-200.000	0.081	-0.369
-325.129	-9.057	-0.162	-0.107
-324.114	67.195	-0.063	-0.064
-323.099	-154.155	-0.417	-0.028
-322.085	-50.581	-0.130	0.060
-321.070	-86.463	-0.195	0.059
-320.056	800.000	-0.046	0.129
-319.041	-21.058	0.169	-0.102
-318.026	44.927	0.079	-0.071
-317.012	68.753	-0.101	0.102
-315.997	-108.077	-0.337	-0.072
-314.983	-49.179	0.106	0.050
-313.968	539.542	-0.165	0.388
-312.953	800.000	-0.067	0.217
-311.939	143.341	0.187	0.246
-310.924	-31.055	0.071	-0.039
-309.910	-100.390	-0.188	-0.046
-308.895	9.709	0.107	0.080
-307.880	-71.894	0.252	0.093
-306.866	-112.545	0.135	-0.027
-305.851	-121.403	0.190	0.031
-304.837	213.445	-0.131	-0.205
-303.822	-200.000	-0.015	0.075
-302.807	-200.000	0.018	0.193
-301.793	57.060	0.204	-0.196
-300.778	800.000	-0.095	-0.323
-299.764	-33.350	0.351	-0.191
-298.749	143.905	-0.198	-0.260
-297.735	167.148	0.037	-0.052
-296.720	-30.610	-0.209	-0.116
-295.705	-200.000	0.038	0.193
-294.691	-164.600	0.042	-0.002
-293.676	29.912	0.109	0.091
-292.662	474.566	0.129	-0.288
-291.647	-200.000	0.013	0.087
-290.632	391.086	-0.170	0.347
-289.618	800.000	-0.083	-0.261
-288.603	800.000	0.080	0.226
-287.589	-124.660	0.109	0.017
-286.574	-200.000	-0.030	0.207
-285.559	-66.615	0.063	0.025
-284.545	288.248	0.195	0.348
-283.530	291.743	-0.165	-0.297
-282.516	-96.019	0.052	0.014
-281.501	-8.809	-0.121	-0.080
-280.486	-42.751	-0.182	0.091
-279.472	337.128	-0.099	0.189
-278.457	70.103	-0.122	-0.124
-277.443	70.418	-0.181	-0.184
-276.428	-67.168	-0.294	-0.114
-275.413	16.653	0.272	0.212
-274.399	800.000	0.032	0.119
-273.384	800.000	-0.093	0.283
-272.370	-109.788	0.281	-0.058
-271.355	-109.700	-0.237	0.049
-270.340	-38.579	0.163	0.085
-269.326	1.624	-0.223	0.158
-268.311	-200.000	0.041	0.265
-267.297	-176.889	-0.443	-0.011
-266.282	101.426	0.198	-0.227
-265.267	27.501	-0.206	-0.171
-264.253	800.000	0.020	-0.061
-263.238	-33.448	0.227	-0.124
-262.224	-30.426	0.172	0.096
-261.209	206.632	0.213	-0.327
-260.195	800.000	-0.060	0.189
-259.180	20.289	0.293	-0.233
-258.165	208.744	0.050	0.077
-257.151	-59.992	0.190	0.080
-256.136	-2.895	-0.314	0.215
-255.122	183.220	0.118	0.171
-254.107	165.779	0.140	0.194
-253.092	104.656	-0.077	-0.089
-252.078	151.246	-0.107	-0.143
-251.063	169.923	0.160	-0.225
-250.049	39.701	-0.145	-0.128
-249.034	-29.113	0.201	-0.113
-248.019	800.000	0.080	0.244
-247.005	-16.321	-0.082	0.051
-245.990	800.000	0.056	-0.204
-244.976	1.771	-0.164	0.116
-243.961	-72.376	-0.308	-0.112
-242.946	-88.612	-0.132	0.039
-241.932	-196.071	-0.293	-0.002
-240.917	-200.000	-0.040	0.183
-239.903	-200.000	0.010	0.186
-238.888	-61.367	-0.151	0.062
-237.873	139.213	-0.089	0.115
-236.859	790.312	-0.141	0.382
-235.844	185.969	0.043	0.063
-234.830	-200.000	-0.020	0.188
-233.815	-58.412	0.241	-0.103
-232.800	-74.261	0.317	0.112
-231.786	240.940	0.111	0.182
-230.771	800.000	-0.029	-0.098
-229.757	-129.043	0.121	0.017
-228.742	-200.000	0.001	0.050
-227.727	-78.676	0.198	-0.066
-226.713	-54.704	0.110	0.049
-225.698	800.000	-0.043	-0.165
-224.684	-145.382	-0.244	0.022
-223.669	50.557	0.171	0.159
-222.655	-200.000	-0.005	-0.045
-221.640	-159.536	-0.211	-0.012
-220.625	157.235	0.162	-0.220
-219.611	31.205	-0.046	-0.039
-218.596	506.449	0.075	-0.171
-217.582	-167.898	0.179	-0.007
-216.567	22.827	0.073	-0.059
-215.552	-77.686	-0.204	-0.069
-214.538	800.000	0.079	0.229
-213.523	-143.654	-0.085	-0.008
-212.509	-22.969	0.254	0.151
-211.494	-147.593	-0.216	0.018
-210.479	191.097	0.082	-0.120
-209.465	-31.624	-0.143	0.079
-208.450	-200.000	-0.011	0.062
-207.436	-200.000	-0.013	-0.056
-206.421	42.899	-0.256	-0.229
-205.406	-96.478	-0.429	-0.111
-204.392	-17.199	0.259	-0.160
-203.377	-76.942	0.327	0.112
-202.363	18.043	0.133	0.104
-201.348	200.753	0.075	0.113
-200.333	37.775	0.103	-0.090
-199.319	-67.297	0.220	0.085
-198.304	64.536	-0.119	-0.117
-197.290	800.000	0.020	0.060
-196.275	-200.000	-0.022	0.106
-195.260	421.851	-0.075	0.157
-194.246	342.041	0.172	-0.331
-193.231	-2.268	-0.211	0.146
-192.217	-49.922	-0.128	-0.060
-191.202	-63.255	-0.242	0.098
-190.187	653.037	-0.015	0.038
-189.173	619.731	-0.094	0.232
-188.158	425.011	0.010	0.021
-187.144	-88.876	-0.114	0.033
-186.129	75.614	-0.136	0.141
-185.114	-200.000	-0.032	0.285
-184.100	67.211	-0.371	-0.371
-183.085	-98.300	-0.193	0.049
-182.071	-41.035	-0.085	0.043
-181.056	-200.000	-0.012	0.086
-180.042	390.554	0.037	0.074
-179.027	-10.886	0.298	-0.193
-178.012	-9.408	0.278	-0.182
-176.998	-200.000	-0.003	0.120
-175.983	-200.000	-0.048	0.372
-174.969	-65.307	-0.258	0.102
-173.954	59.896	0.072	0.070
-172.939	36.243	0.186	0.161
-171.925	800.000	-0.040	0.160
-170.910	-63.559	0.254	-0.102
-169.896	-58.405	-0.200	-0.085
-168.881	-122.259	0.292	-0.047
-167.866	-200.000	0.070	0.382
-166.852	800.000	0.095	-0.374
-165.837	800.000	-0.083	0.264
-164.823	-141.482	0.212	-0.021
-163.808	-137.846	0.299	-0.033
-162.793	-200.000	0.027	0.215
-161.779	-124.301	-0.172	0.026
-160.764	407.116	0.011	-0.022
-159.750	25.815	0.177	-0.145
-158.735	-96.254	0.224	0.058
-157.720	-5.606	-0.024	0.016
-156.706	-109.782	0.182	0.037
-155.691	6.884	0.061	0.045
-154.677	-62.535	-0.119	-0.048
-153.662	-133.424	-0.256	0.032
-152.647	280.081	0.153	-0.268
-151.633	316.601	0.064	0.118
-150.618	193.010	-0.100	-0.147
-149.604	-88.910	-0.191	-0.056
-148.589	-26.249	-0.169	0.097
-147.574	-200.000	0.020	-0.091
-146.560	-190.183	-0.214	-0.002
-145.545	-134.399	-0.431	0.052
-144.531	-155.698	-0.027	0.002
-143.516	-200.000	-0.029	-0.191
-142.502	5.040	-0.033	-0.024
-141.487	-6.676	0.130	-0.087
-140.472	-151.167	-0.147	-0.011
-139.458	239.572	-0.155	0.252
-138.443	-73.548	0.146	0.052
-137.429	-200.000	-0.012	-0.076
-136.414	-84.197	-0.127	0.040
-135.399	-113.776	0.194	0.037
-134.385	-93.647	0.299	0.081
-133.370	61.308	-0.276	-0.269
-132.356	-103.986	0.147	0.034
-131.341	-200.000	-0.043	0.231
-130.326	-135.283	-0.202	-0.024
-129.312	363.605	-0.072	0.142
-128.297	148.261	0.065	-0.086
-127.283	243.868	-0.117	-0.192
-126.268	0.073	-0.226	-0.158
-125.253	-31.791	0.436	0.239
-124.239	-200.000	-0.032	-0.263
-123.224	272.007	-0.059	0.102
-122.210	-163.433	-0.114	-0.005
