DTS Sentinel unit serial number:	SN413079Multiplexer serial number:	ORYXHardware model number:	OX4-SRSoftware version number:	ORYX F/W v4.00 Oryx Data Collector v3.7.2.0data status	okinstallation	princeton_trtdifferential loss correction	single-endedforward channel	channel 1reverse channel	N/Adate	2019/09/18time	12:42:35forward acquisition time	60.00reverse acquisition time	0.00gamma	496.2192k internal	0.2317k external	0.2317temperature offset calibration	0.9978default loss term (dB/km)	0.3790temperature slope calibration	1.0000multiplexer offset coefficient	1.0000multiplexer slope coefficient	1.0000fibre end	0.00T internal ref (°C)	32.78T ext. ref 1 (°C)	0.53T ext. ref 2 (°C)	30.95length (m)	temperature (°C)	Stokes	anti-Stokes-747.200	-200.000	-0.035	0.246
-746.185	185.342	-0.129	0.194
-745.171	-115.630	0.157	-0.030
-744.156	-98.214	-0.310	0.081
-743.142	-121.087	-0.072	-0.012
-742.127	-135.636	-0.370	0.044
-741.112	-27.913	0.082	0.048
-740.098	-200.000	-0.024	0.125
-739.083	-113.957	-0.121	-0.024
-738.069	550.072	0.126	0.307
-737.054	591.734	-0.039	0.098
-736.039	64.040	-0.242	0.246
-735.025	-127.390	-0.120	-0.018
-734.010	-98.830	0.381	0.098
-732.996	-39.210	-0.200	0.106
-731.981	-58.700	-0.187	0.082
-730.966	-90.259	0.208	-0.061
-729.952	149.451	0.315	0.432
-728.937	-93.273	-0.369	0.104
-727.923	800.000	-0.009	-0.031
-726.908	-118.610	-0.248	0.044
-725.894	42.758	-0.030	-0.028
-724.879	-200.000	-0.110	-0.572
-723.864	-48.246	0.293	-0.143
-722.850	315.549	-0.093	-0.177
-721.835	-183.731	-0.178	0.003
-720.821	-116.467	-0.238	0.044
-719.806	-200.000	-0.078	-0.589
-718.791	37.988	-0.273	-0.246
-717.777	-173.938	-0.322	0.010
-716.762	139.011	0.121	-0.161
-715.748	-109.199	-0.396	0.085
-714.733	47.698	-0.188	0.177
-713.718	-200.000	-0.034	-0.217
-712.704	299.101	0.081	0.151
-711.689	129.224	0.112	-0.145
-710.675	-200.000	0.056	-0.397
-709.660	-51.479	-0.155	0.073
-708.645	800.000	0.126	-0.354
-707.631	-49.614	0.200	0.096
-706.616	-163.997	-0.121	0.006
-705.602	197.456	-0.245	-0.379
-704.587	-200.000	0.018	0.090
-703.572	-67.992	0.208	0.082
-702.558	457.817	-0.043	-0.097
-701.543	-41.956	0.236	0.122
-700.529	-200.000	0.003	-0.224
-699.514	-148.763	-0.403	-0.033
-698.499	-172.907	0.201	0.006
-697.485	-56.078	-0.028	0.013
-696.470	-112.192	-0.087	0.018
-695.456	-200.000	0.026	-0.127
-694.441	-87.627	0.167	-0.051
-693.426	102.913	0.094	-0.112
-692.412	-0.723	0.027	-0.019
-691.397	263.288	0.021	0.036
-690.383	-88.340	0.083	-0.025
-689.368	-113.315	-0.481	0.096
-688.354	156.997	-0.154	-0.215
-687.339	19.007	0.078	0.063
-686.324	259.406	-0.123	-0.215
-685.310	22.453	-0.126	0.104
-684.295	228.598	-0.141	0.233
-683.281	-200.000	-0.032	0.323
-682.266	58.798	-0.141	0.140
-681.251	-141.653	-0.128	0.013
-680.237	-109.131	0.115	-0.025
-679.222	-24.547	0.138	0.083
-678.208	285.338	-0.176	0.320
-677.193	-200.000	-0.015	0.092
-676.178	18.248	0.214	0.173
-675.164	-14.202	-0.385	0.251
-674.149	119.814	0.218	-0.273
-673.135	800.000	-0.033	0.127
-672.120	-39.455	0.174	-0.092
-671.105	-135.391	-0.319	-0.039
-670.091	-35.739	-0.012	-0.007
-669.076	-161.582	0.088	0.005
-668.062	277.698	-0.127	-0.229
-667.047	-200.000	-0.066	-0.373
-666.032	735.254	0.032	0.087
-665.018	-59.901	-0.374	0.162
-664.003	323.468	0.257	0.495
-662.989	-200.000	-0.001	0.154
-661.974	-54.364	0.303	-0.139
-660.959	-118.812	0.128	-0.023
-659.945	279.518	0.080	-0.144
-658.930	22.682	-0.112	0.093
-657.916	-77.356	0.269	-0.094
-656.901	-87.130	-0.218	0.067
-655.886	160.565	-0.067	-0.095
-654.872	261.719	-0.061	0.107
-653.857	328.829	-0.081	-0.157
-652.843	800.000	-0.049	-0.157
-651.828	163.734	0.155	-0.220
-650.814	-5.308	0.178	-0.124
-649.799	327.554	-0.168	-0.324
-648.784	-46.100	-0.036	-0.018
-647.770	800.000	0.106	-0.323
-646.755	-200.000	-0.005	-0.305
-645.741	46.230	0.125	0.117
-644.726	-38.896	0.157	0.084
-643.711	-138.915	-0.368	-0.040
-642.697	117.991	-0.148	0.184
-641.682	292.354	0.091	0.167
-640.668	-165.701	-0.192	-0.008
-639.653	217.653	-0.027	-0.044
-638.638	-200.000	-0.002	-0.108
-637.624	264.584	-0.021	0.037
-636.609	34.313	-0.413	-0.363
-635.595	238.672	0.103	-0.172
-634.580	269.405	0.165	-0.293
-633.565	-90.043	0.313	0.092
-632.551	200.182	0.124	-0.191
-631.536	-39.177	-0.324	-0.172
-630.522	121.484	0.071	0.089
-629.507	-48.405	-0.234	0.113
-628.492	-63.375	-0.173	0.072
-627.478	248.017	-0.182	-0.310
-626.463	-121.053	0.204	0.035
-625.449	800.000	-0.067	0.281
-624.434	-195.242	-0.268	0.002
-623.419	-110.301	-0.347	-0.073
-622.405	104.176	0.081	-0.096
-621.390	-164.033	0.459	-0.021
-620.376	-135.829	0.080	-0.010
-619.361	-163.009	0.141	0.007
-618.346	-155.069	0.130	0.009
-617.332	8.918	0.229	0.174
-616.317	-93.447	0.130	-0.036
-615.303	-200.000	-0.004	-0.366
-614.288	-30.920	0.068	0.039
-613.273	480.145	0.070	0.159
-612.259	495.484	-0.120	-0.279
-611.244	280.586	0.190	-0.342
-610.230	-200.000	-0.003	-0.187
-609.215	-200.000	0.007	-0.171
-608.201	-102.455	0.114	-0.028
-607.186	151.721	0.142	-0.194
-606.171	415.924	-0.120	-0.257
-605.157	12.761	-0.120	-0.093
-604.142	26.990	0.053	0.044
-603.128	227.249	-0.107	-0.175
-602.113	-126.257	-0.456	-0.069
-601.098	-200.000	-0.009	0.135
-600.084	-200.000	-0.040	0.190
-599.069	189.998	-0.153	-0.232
-598.055	-36.371	0.294	0.160
-597.040	-200.000	0.032	-0.459
-596.025	-200.000	-0.034	-0.213
-595.011	735.745	0.033	0.089
-593.996	751.349	0.098	-0.265
-592.982	97.687	-0.135	-0.157
-591.967	-127.308	-0.168	0.025
-590.952	96.295	0.124	-0.143
-589.938	800.000	-0.112	0.421
-588.923	215.615	-0.123	0.196
-587.909	-200.000	0.005	-0.157
-586.894	-60.972	-0.196	-0.083
-585.879	237.134	-0.145	0.242
-584.865	727.280	0.028	0.075
-583.850	-200.000	0.002	-0.198
-582.836	800.000	0.062	-0.251
-581.821	-184.916	0.041	-0.001
-580.806	-63.371	0.085	-0.035
-579.792	-85.141	0.319	-0.100
-578.777	668.255	0.114	0.296
-577.763	800.000	-0.030	-0.094
-576.748	-24.745	-0.305	-0.182
-575.733	-200.000	-0.013	-0.304
-574.719	-21.401	-0.073	-0.045
-573.704	-95.111	-0.250	0.068
-572.690	-200.000	-0.034	0.253
-571.675	-44.062	0.051	0.026
-570.661	-200.000	0.087	-0.428
-569.646	140.521	0.080	-0.106
-568.631	-91.522	-0.224	-0.064
-567.617	-200.000	-0.056	0.304
-566.602	664.631	0.042	0.110
-565.588	800.000	-0.075	0.291
-564.573	-200.000	0.037	-0.234
-563.558	-34.033	-0.025	-0.014
-562.544	39.414	0.179	0.161
-561.529	154.803	0.110	0.152
-560.515	800.000	0.105	-0.348
-559.500	64.306	-0.063	-0.063
-558.485	-29.327	-0.137	-0.079
-557.471	-72.461	-0.348	0.129
-556.456	163.555	-0.077	-0.109
-555.442	3.013	-0.192	-0.140
-554.427	-163.533	-0.413	0.020
-553.412	-4.161	0.198	0.138
-552.398	-70.333	0.027	-0.010
-551.383	-69.697	-0.086	-0.033
-550.369	215.344	-0.036	0.057
-549.354	117.460	0.231	-0.286
-548.339	-180.565	0.205	-0.004
-547.325	658.809	0.049	0.127
-546.310	121.298	-0.153	-0.192
-545.296	65.135	0.270	0.274
-544.281	-200.000	-0.007	0.074
-543.266	800.000	-0.057	-0.189
-542.252	93.101	0.067	0.076
-541.237	134.377	-0.208	0.271
-540.223	107.973	0.133	-0.159
-539.208	-200.000	0.038	0.250
-538.193	42.641	0.293	0.268
-537.179	-13.032	0.314	0.205
-536.164	474.732	0.022	-0.050
-535.150	-35.006	0.573	-0.314
-534.135	367.240	-0.073	0.148
-533.121	800.000	-0.068	0.209
-532.106	-58.932	-0.010	0.004
-531.091	800.000	-0.021	0.092
-530.077	41.093	0.158	-0.143
-529.062	112.884	0.103	-0.125
-528.048	-110.566	0.351	-0.073
-527.033	-44.774	-0.310	-0.155
-526.018	86.443	-0.275	0.305
-525.004	2.488	0.112	0.081
-523.989	87.920	0.168	0.187
-522.975	-200.000	-0.033	-0.228
-521.960	-135.108	-0.412	0.050
-520.945	800.000	0.054	-0.181
-519.931	-200.000	0.004	0.432
-518.916	800.000	0.063	-0.243
-517.902	35.896	0.307	0.271
-516.887	-200.000	0.046	-0.400
-515.872	317.595	0.096	0.182
-514.858	374.846	-0.197	-0.403
-513.843	60.736	-0.030	0.030
-512.829	218.934	-0.230	0.369
-511.814	-58.516	-0.178	0.078
-510.799	-80.183	-0.052	0.017
-509.785	491.529	0.066	-0.151
-508.770	250.443	-0.092	-0.156
-507.756	-200.000	0.027	0.280
-506.741	-183.163	0.173	0.003
-505.726	-56.509	0.312	0.139
-504.712	-136.390	-0.212	-0.025
-503.697	-140.717	-0.236	-0.024
-502.683	-170.310	-0.086	-0.003
-501.668	-64.652	-0.098	0.040
-500.653	71.977	-0.144	-0.150
-499.639	-84.192	-0.176	-0.056
-498.624	-131.732	-0.211	0.028
-497.610	20.282	0.280	0.227
-496.595	-79.266	-0.165	0.056
-495.581	168.390	-0.254	-0.363
-494.566	-200.000	-0.004	-0.309
-493.551	-200.000	-0.019	0.218
-492.537	82.889	0.192	-0.209
-491.522	-200.000	0.036	-0.262
-490.508	83.870	0.093	0.102
-489.493	553.867	0.073	-0.175
-488.478	800.000	-0.086	-0.309
-487.464	-149.776	0.356	0.028
-486.449	-16.917	0.168	0.107
-485.435	800.000	-0.039	-0.168
-484.420	333.129	0.043	-0.083
-483.405	4.741	-0.161	-0.119
-482.391	-200.000	-0.064	0.513
-481.376	686.919	-0.172	0.451
-480.362	-200.000	0.021	0.292
-479.347	-200.000	-0.004	0.248
-478.332	491.907	0.080	0.184
-477.318	800.000	-0.040	0.113
-476.303	-76.314	-0.174	-0.062
-475.289	14.318	-0.196	0.153
-474.274	48.981	-0.147	-0.139
-473.259	218.738	-0.215	-0.344
-472.245	-15.370	-0.100	-0.064
-471.230	800.000	-0.058	0.205
-470.216	-200.000	-0.034	-0.238
-469.201	584.519	-0.054	-0.132
-468.186	228.310	0.053	-0.087
-467.172	170.480	-0.110	0.157
-466.157	30.997	0.228	-0.196
-465.143	39.731	-0.104	-0.093
-464.128	-1.731	0.277	0.195
-463.113	-19.896	-0.062	-0.038
-462.099	-200.000	0.077	-0.479
-461.084	147.355	-0.188	0.254
-460.070	-4.140	-0.220	0.152
-459.055	23.458	0.225	0.185
-458.040	-85.388	0.151	-0.047
-457.026	704.316	-0.083	-0.220
-456.011	39.007	-0.013	-0.011
-454.997	-28.198	-0.290	-0.168
-453.982	-51.172	-0.085	-0.040
-452.968	-128.516	0.311	0.044
-451.953	800.000	-0.068	-0.239
-450.938	-174.061	-0.418	-0.012
-449.924	134.565	-0.176	-0.229
-448.909	309.425	-0.065	-0.122
-447.895	-0.381	-0.203	0.145
-446.880	800.000	-0.080	0.287
-445.865	800.000	0.089	0.332
-444.851	223.602	0.249	0.402
-443.836	199.172	-0.069	-0.106
-442.822	-44.703	0.367	-0.183
-441.807	45.532	-0.222	-0.205
-440.792	5.704	-0.305	0.226
-439.778	-97.933	-0.223	-0.058
-438.763	795.392	0.048	-0.132
-437.749	-200.000	0.017	-0.159
-436.734	-113.052	-0.191	-0.038
-435.719	-22.490	0.407	0.246
-434.705	800.000	0.151	-0.499
-433.690	490.472	0.109	-0.248
-432.676	-127.296	-0.258	-0.038
-431.661	42.064	-0.263	-0.238
-430.646	-200.000	-0.015	-0.075
-429.632	-20.640	-0.194	-0.119
-428.617	-200.000	-0.033	0.291
-427.603	-200.000	-0.009	0.080
-426.588	-200.000	-0.004	-0.153
-425.573	668.606	0.143	0.370
-424.559	-43.104	0.238	-0.120
-423.544	-200.000	-0.004	-0.081
-422.530	-168.867	-0.152	-0.006
-421.515	133.569	-0.176	-0.228
-420.500	-200.000	0.082	-0.414
-419.486	-200.000	0.012	-0.239
-418.471	111.413	-0.050	-0.060
-417.457	-126.018	-0.426	-0.064
-416.442	-200.000	-0.006	-0.066
-415.428	59.137	0.221	0.217
-414.413	-200.000	-0.011	0.131
-413.398	-82.248	-0.196	-0.064
-412.384	109.981	0.271	0.325
-411.369	61.419	0.285	0.283
-410.355	-74.314	-0.182	0.066
-409.340	800.000	0.037	0.145
-408.325	448.178	0.065	0.142
-407.311	800.000	-0.080	-0.253
-406.296	118.435	-0.124	0.152
-405.282	-172.911	0.136	-0.004
-404.267	52.564	-0.068	0.065
-403.252	-105.309	0.095	0.022
-402.238	-114.935	-0.150	-0.028
-401.223	-200.000	0.014	0.320
-400.209	86.910	-0.055	0.060
-399.194	-23.128	-0.144	-0.086
-398.179	-58.035	0.100	0.044
-397.165	-200.000	0.001	0.531
-396.150	-69.445	0.232	0.089
-395.136	417.369	0.022	0.048
-394.121	218.510	-0.036	-0.057
-393.106	179.800	0.070	-0.102
-392.092	800.000	-0.109	0.421
-391.077	-62.524	0.024	-0.010
-390.063	-83.104	0.248	-0.080
-389.048	525.252	-0.070	-0.164
-388.033	117.214	0.127	0.156
-387.019	-106.743	-0.081	-0.018
-386.004	-200.000	-0.003	-0.347
-384.990	5.594	0.199	0.147
-383.975	114.547	0.064	0.078
-382.960	-11.904	0.093	0.061
-381.946	800.000	-0.060	-0.233
-380.931	185.737	-0.099	0.147
-379.917	58.251	-0.227	-0.222
-378.902	-89.652	0.225	0.066
-377.888	-95.754	-0.570	0.152
-376.873	-25.786	-0.183	0.108
-375.858	194.221	-0.343	0.519
-374.844	310.146	-0.018	0.033
-373.829	-3.405	0.179	-0.125
-372.815	32.361	0.084	0.072
-371.800	-151.692	-0.161	-0.012
-370.785	-52.674	0.254	-0.117
-369.771	-200.000	-0.027	-0.205
-368.756	128.256	0.087	-0.110
-367.742	-119.454	-0.084	-0.014
-366.727	-59.339	0.133	0.057
-365.712	-186.544	-0.078	0.001
-364.698	257.190	0.039	-0.067
-363.683	455.500	0.163	0.361
-362.669	-64.402	0.239	0.097
-361.654	-55.475	-0.167	0.075
-360.639	-200.000	-0.008	0.128
-359.625	136.916	0.145	0.189
-358.610	-18.853	0.108	0.067
-357.596	245.709	0.030	0.051
-356.581	-125.703	0.274	0.041
-355.566	-88.736	0.173	0.051
-354.552	287.431	0.119	-0.215
-353.537	63.965	-0.062	-0.062
-352.523	51.215	0.269	-0.254
-351.508	28.133	-0.278	0.234
-350.493	-139.814	-0.451	-0.048
-349.479	-147.210	-0.065	0.006
-348.464	117.989	0.303	0.372
-347.450	-200.000	-0.409	0.001
-346.435	-200.000	0.031	-0.207
-345.420	-96.946	-0.118	0.031
-344.406	317.968	0.071	-0.134
-343.391	-82.271	0.253	0.082
-342.377	-68.278	-0.085	-0.033
-341.362	-68.960	0.346	-0.133
-340.348	106.695	0.294	-0.348
-339.333	-114.164	0.363	0.070
-338.318	-9.309	-0.251	0.167
-337.304	-20.035	0.229	0.141
-336.289	730.539	-0.134	0.358
-335.275	-130.169	-0.155	0.021
-334.260	-200.000	-0.032	-0.289
-333.245	-161.985	0.211	-0.011
-332.231	-33.578	0.202	0.111
-331.216	-145.251	0.198	0.018
-330.202	-73.102	-0.088	0.032
-329.187	-4.184	0.143	-0.098
-328.172	62.846	-0.264	-0.263
-327.158	800.000	0.027	-0.112
-326.143	-200.000	-0.040	-0.276
-325.129	-96.336	0.230	-0.061
-324.114	-10.468	-0.399	0.263
-323.099	-127.997	0.093	0.013
-322.085	-173.759	0.217	-0.006
-321.070	67.944	-0.087	0.089
-320.056	-200.000	0.044	0.240
-319.041	800.000	-0.046	-0.139
-318.026	-200.000	0.083	0.483
-317.012	-8.992	0.191	0.127
-315.997	-200.000	-0.019	0.135
-314.983	98.385	0.076	-0.087
-313.968	-200.000	0.026	-0.227
-312.953	212.569	-0.179	0.280
-311.939	-52.326	0.370	-0.171
-310.924	569.771	0.108	-0.263
-309.910	-16.581	0.138	-0.087
-308.895	-200.000	-0.002	0.028
-307.880	68.191	-0.094	-0.096
-306.866	-200.000	-0.093	-0.000
-305.851	-43.490	0.129	0.065
-304.837	800.000	-0.037	-0.151
-303.822	-200.000	0.005	-0.197
-302.807	261.799	0.109	0.188
-301.793	-11.223	0.179	-0.117
-300.778	-143.985	0.322	-0.030
-299.764	64.157	0.207	0.208
-298.749	268.525	-0.117	-0.204
-297.735	-200.000	0.020	-0.163
-296.720	122.889	-0.096	-0.119
-295.705	39.521	0.091	-0.081
-294.691	-200.000	0.019	0.179
-293.676	-17.423	-0.180	-0.113
-292.662	66.360	-0.097	0.098
-291.647	63.660	0.147	0.146
-290.632	187.524	-0.134	-0.198
-289.618	-200.000	0.008	-0.055
-288.603	39.226	-0.196	-0.174
-287.589	147.607	-0.188	0.252
-286.574	800.000	-0.037	0.117
-285.559	-200.000	0.004	0.017
-284.545	-139.030	0.050	-0.005
-283.530	335.167	0.161	0.310
-282.516	-153.804	0.219	0.015
-281.501	793.072	-0.089	0.244
-280.486	-145.495	0.290	-0.026
-279.472	5.611	0.178	-0.131
-278.457	-80.338	-0.275	0.091
-277.443	-147.266	-0.096	0.008
-276.428	-101.507	0.356	-0.086
-275.413	800.000	-0.066	0.257
-274.399	-82.527	0.054	-0.017
-273.384	-200.000	-0.015	-0.398
-272.370	15.972	0.092	-0.072
-271.355	11.931	0.193	0.147
-270.340	800.000	-0.116	0.377
-269.326	-73.132	0.428	0.156
-268.311	-47.747	0.201	-0.097
-267.297	488.283	-0.109	-0.246
-266.282	177.325	0.151	-0.218
-265.267	-59.731	-0.312	-0.133
-264.253	55.198	0.192	0.185
-263.238	-143.286	-0.117	-0.011
-262.224	800.000	0.057	-0.214
-261.209	-146.964	-0.304	0.026
-260.195	80.334	-0.233	0.249
-259.180	800.000	0.068	0.226
-258.165	800.000	0.029	0.126
-257.151	-33.582	0.203	-0.112
-256.136	-53.290	-0.253	-0.115
-255.122	608.781	-0.070	-0.173
-254.107	31.683	0.065	-0.056
-253.092	-195.100	0.263	-0.002
-252.078	-43.202	0.222	-0.112
-251.063	-32.818	0.031	-0.017
-250.049	-86.651	0.370	0.113
-249.034	-200.000	-0.020	0.263
-248.019	6.524	0.146	-0.107
-247.005	-130.704	0.434	0.058
-245.990	-200.000	0.056	0.328
-244.976	197.377	-0.321	0.486
-243.961	-200.000	0.068	0.318
-242.946	74.057	-0.114	-0.119
-241.932	521.129	0.044	-0.101
-240.917	800.000	0.105	-0.358
-239.903	2.246	0.153	0.109
-238.888	177.101	0.092	-0.133
-237.873	240.442	0.125	0.207
-236.859	755.153	0.128	-0.345
-235.844	-41.991	-0.146	0.074
-234.830	800.000	0.080	0.338
-233.815	-124.204	0.310	-0.048
-232.800	-200.000	-0.002	0.206
-231.786	187.180	-0.032	0.047
-230.771	-147.293	0.110	0.009
-229.757	448.724	-0.144	0.314
-228.742	-58.691	0.144	0.062
-227.727	362.103	0.041	0.083
-226.713	-200.000	-0.004	0.086
-225.698	-8.417	-0.159	0.106
-224.684	-119.536	-0.197	0.034
-223.669	-200.000	0.028	0.359
-222.655	96.572	-0.218	0.248
-221.640	14.066	0.035	-0.027
-220.625	-200.000	0.012	0.114
-219.611	219.068	0.082	0.131
-218.596	146.136	-0.096	0.128
-217.582	-138.176	0.079	-0.009
-216.567	227.880	-0.064	0.104
-215.552	65.166	0.179	0.179
-214.538	-100.797	-0.340	0.083
-213.523	239.809	-0.104	-0.171
-212.509	-32.210	0.112	0.062
-211.494	-134.439	-0.199	0.024
-210.479	-96.333	-0.265	0.070
-209.465	-93.757	-0.234	-0.064
-208.450	286.227	0.049	0.088
-207.436	-91.447	-0.175	-0.050
-206.421	-200.000	0.012	-0.070
-205.406	35.521	0.124	-0.108
-204.392	-11.812	-0.127	0.082
-203.377	136.884	0.154	0.200
-202.363	800.000	0.066	0.198
-201.348	-49.503	-0.171	0.081
-200.333	691.554	-0.073	0.190
-199.319	-130.036	-0.044	-0.006
-198.304	50.326	0.143	0.134
-197.290	9.981	0.073	0.055
-196.275	-31.349	-0.102	0.057
-195.260	250.477	0.102	-0.172
-194.246	123.422	0.090	-0.112
-193.231	-60.405	0.182	-0.077
-192.217	-75.319	0.326	-0.115
-191.202	-34.909	-0.381	-0.206
-190.187	-200.000	0.067	-0.299
-189.173	208.097	-0.083	-0.128
-188.158	-82.395	-0.376	0.121
-187.144	-92.491	-0.264	0.074
-186.129	-138.387	0.415	0.045
-185.114	-200.000	0.054	-0.312
-184.100	210.998	0.163	0.254
-183.085	20.127	-0.196	-0.157
-182.071	-91.056	0.101	-0.029
-181.056	61.559	-0.192	-0.189
-180.042	-57.906	-0.233	-0.101
-179.027	800.000	-0.064	0.199
-178.012	800.000	0.092	0.255
-176.998	-51.594	-0.079	-0.036
-175.983	-10.104	0.015	0.010
-174.969	350.364	0.159	-0.311
-173.954	42.320	-0.111	0.100
-172.939	800.000	0.064	0.195
-171.925	-116.462	0.202	-0.037
-170.910	-43.238	-0.110	-0.055
-169.896	-6.856	-0.170	-0.115
-168.881	64.464	0.116	-0.116
-167.866	119.505	-0.007	0.008
-166.852	608.723	-0.115	-0.285
-165.837	-38.645	-0.479	0.250
-164.823	112.862	0.111	0.133
-163.808	-144.039	-0.202	0.019
-162.793	97.046	0.033	0.037
-161.779	53.636	0.113	0.107
-160.764	64.160	-0.069	-0.069
-159.750	212.543	-0.143	0.224
-158.735	-9.097	0.171	0.113
-157.720	514.626	0.013	-0.031
-156.706	-2.779	0.131	-0.091
-155.691	-200.000	-0.009	-0.257
-154.677	681.031	0.109	-0.281
-153.662	23.618	-0.112	0.092
-152.647	-16.782	0.109	-0.068
-151.633	5.480	-0.281	0.205
-150.618	-200.000	0.024	0.126
-149.604	11.940	-0.323	0.246
-148.589	-40.203	-0.185	0.095
-147.574	-144.319	-0.125	-0.011
-146.560	30.437	0.147	-0.124
-145.545	-67.080	0.133	-0.052
-144.531	-200.000	-0.052	-0.392
-143.516	-20.513	0.117	0.071
-142.502	52.833	-0.322	-0.304
-141.487	800.000	-0.061	-0.176
-140.472	800.000	-0.107	-0.366
-139.458	155.862	0.136	0.185
-138.443	-200.000	-0.022	0.116
-137.429	-73.657	-0.438	-0.158
-136.414	-200.000	-0.016	-0.148
-135.399	-64.622	-0.177	-0.071
-134.385	144.042	-0.115	-0.151
-133.370	-200.000	-0.033	0.171
-132.356	-200.000	0.011	0.282
-131.341	132.978	0.174	0.222
-130.326	90.689	0.229	0.254
-129.312	-22.180	-0.397	-0.238
-128.297	10.628	-0.184	-0.138
-127.283	634.692	-0.134	-0.335
-126.268	48.415	0.118	0.109
-125.253	-200.000	-0.063	0.364
-124.239	-74.662	0.108	-0.038
-123.224	766.615	-0.026	-0.069
-122.210	221.701	-0.146	0.231
-121.195	-55.744	0.174	0.077
