DTS Sentinel unit serial number:	SN413079Multiplexer serial number:	ORYXHardware model number:	OX4-SRSoftware version number:	ORYX F/W v4.00 Oryx Data Collector v3.7.2.0data status	okinstallation	princeton_trtdifferential loss correction	single-endedforward channel	channel 1reverse channel	N/Adate	2019/09/14time	10:42:35forward acquisition time	60.00reverse acquisition time	0.00gamma	496.2192k internal	0.2302k external	0.2302temperature offset calibration	1.0079default loss term (dB/km)	0.3790temperature slope calibration	1.0000multiplexer offset coefficient	1.0000multiplexer slope coefficient	1.0000fibre end	0.00T internal ref (°C)	35.33T ext. ref 1 (°C)	4.26T ext. ref 2 (°C)	32.85length (m)	temperature (°C)	Stokes	anti-Stokes-747.200	147.874	-0.036	-0.049
-746.185	800.000	0.085	0.281
-745.171	-200.000	0.004	0.110
-744.156	35.381	0.138	0.123
-743.142	-99.164	0.166	0.043
-742.127	117.423	-0.239	0.300
-741.112	30.623	-0.158	-0.137
-740.098	234.330	0.130	0.219
-739.083	-124.933	0.259	0.041
-738.069	-200.000	0.036	0.321
-737.054	95.726	-0.256	0.298
-736.039	-162.020	-0.208	-0.011
-735.025	347.769	0.176	0.354
-734.010	123.249	-0.034	-0.044
-732.996	-82.434	0.126	0.042
-731.981	87.803	-0.030	-0.034
-730.966	-200.000	0.007	-0.037
-729.952	14.262	0.145	-0.115
-728.937	-200.000	-0.031	-0.168
-727.923	-113.998	-0.045	0.009
-726.908	-50.272	-0.369	0.178
-725.894	-40.768	-0.146	0.077
-724.879	-10.299	0.269	0.182
-723.864	574.313	0.087	0.217
-722.850	15.777	-0.028	0.022
-721.835	-83.152	-0.067	0.022
-720.821	222.445	0.137	-0.224
-719.806	117.916	-0.024	0.030
-718.791	-28.875	0.066	-0.039
-717.777	471.669	-0.077	-0.176
-716.762	103.819	-0.051	-0.061
-715.748	334.967	0.024	0.047
-714.733	503.695	0.183	0.430
-713.718	-200.000	-0.078	0.363
-712.704	103.478	0.168	-0.201
-711.689	-200.000	0.022	0.168
-710.675	85.647	0.028	0.031
-709.660	22.990	-0.044	-0.037
-708.645	-85.722	-0.134	0.042
-707.631	-42.227	-0.207	0.108
-706.616	572.860	-0.096	0.237
-705.602	-127.859	-0.109	-0.016
-704.587	48.088	-0.004	0.004
-703.572	101.046	0.037	0.044
-702.558	-110.364	-0.233	0.049
-701.543	-36.635	-0.434	0.237
-700.529	42.377	0.228	0.211
-699.514	107.324	0.220	-0.267
-698.499	165.209	-0.148	-0.213
-697.485	-40.966	0.062	0.033
-696.470	76.242	0.285	-0.307
-695.456	-200.000	-0.003	-0.023
-694.441	-123.458	0.017	0.003
-693.426	-200.000	0.007	-0.106
-692.412	800.000	-0.068	0.259
-691.397	117.971	0.114	-0.143
-690.383	188.515	-0.095	0.145
-689.368	-5.002	-0.090	0.063
-688.354	800.000	0.027	0.091
-687.339	-200.000	-0.093	0.478
-686.324	-62.486	0.272	-0.115
-685.310	-117.410	0.212	0.039
-684.295	545.385	0.065	-0.158
-683.281	800.000	0.125	0.374
-682.266	800.000	-0.044	0.182
-681.251	45.009	-0.177	-0.166
-680.237	428.735	-0.068	0.148
-679.222	-200.000	0.002	-0.180
-678.208	-137.863	0.129	0.015
-677.193	-20.573	-0.089	0.056
-676.178	-171.382	-0.205	0.007
-675.164	81.462	-0.136	0.150
-674.149	800.000	-0.056	-0.191
-673.135	-52.395	-0.115	-0.054
-672.120	-200.000	0.003	-0.158
-671.105	-200.000	-0.023	0.116
-670.091	248.385	-0.088	-0.151
-669.076	-8.913	0.266	-0.181
-668.062	464.865	-0.113	-0.258
-667.047	-136.225	-0.202	-0.024
-666.032	-186.845	-0.315	-0.004
-665.018	-47.179	-0.189	-0.094
-664.003	-92.594	-0.239	-0.068
-662.989	-23.699	-0.274	0.167
-661.974	-3.839	-0.108	0.076
-660.959	-200.000	-0.000	0.096
-659.945	209.724	0.087	-0.138
-658.930	0.261	-0.237	0.172
-657.916	-142.439	-0.237	0.024
-656.901	-134.721	-0.308	-0.038
-655.886	-79.253	-0.261	-0.090
-654.872	244.067	-0.294	0.502
-653.857	-200.000	0.023	-0.134
-652.843	57.749	0.093	0.093
-651.828	-18.523	0.301	-0.191
-650.814	-78.999	-0.283	-0.098
-649.799	-200.000	0.030	-0.309
-648.784	258.066	0.050	0.087
-647.770	374.330	-0.078	0.162
-646.755	203.711	-0.072	-0.113
-645.741	800.000	-0.055	0.165
-644.726	800.000	0.067	0.215
-643.711	190.586	0.161	0.246
-642.697	-57.250	-0.358	-0.160
-641.682	-16.353	0.076	-0.049
-640.668	710.925	0.144	0.386
-639.653	-200.000	-0.007	0.252
-638.638	-30.215	0.271	-0.156
-637.624	-32.541	0.526	-0.297
-636.609	264.260	0.083	-0.146
-635.595	237.313	-0.213	-0.358
-634.580	236.772	0.275	0.462
-633.565	431.993	0.071	0.157
-632.551	-200.000	0.017	0.112
-631.536	-200.000	0.059	-0.283
-630.522	800.000	-0.040	-0.133
-629.507	-142.973	0.127	0.012
-628.492	-99.720	-0.406	0.103
-627.478	-58.519	0.120	0.053
-626.463	-22.426	0.158	-0.097
-625.449	-90.465	-0.127	-0.037
-624.434	573.133	0.066	-0.163
-623.419	-128.640	-0.390	-0.056
-622.405	-200.000	0.007	0.048
-621.390	-200.000	-0.149	0.000
-620.376	-116.624	-0.266	0.050
-619.361	87.353	-0.107	-0.120
-618.346	23.500	0.351	0.293
-617.332	-12.285	-0.137	0.091
-616.317	800.000	0.100	-0.302
-615.303	-88.972	-0.132	-0.040
-614.288	76.706	-0.135	-0.146
-613.273	6.425	0.237	0.178
-612.259	384.094	-0.175	0.366
-611.244	-200.000	-0.033	0.290
-610.230	-20.180	-0.137	-0.085
-609.215	72.845	-0.156	-0.166
-608.201	172.507	0.064	0.094
-607.186	24.207	0.214	0.179
-606.171	11.269	-0.095	-0.073
-605.157	800.000	0.032	0.134
-604.142	800.000	-0.078	-0.248
-603.128	-0.924	-0.144	0.103
-602.113	-15.693	0.247	0.160
-601.098	411.258	-0.040	-0.086
-600.084	-200.000	-0.002	0.175
-599.069	390.962	0.070	0.148
-598.055	-162.557	-0.309	0.015
-597.040	-200.000	-0.015	-0.194
-596.025	576.536	-0.085	-0.210
-595.011	-87.047	0.082	0.025
-593.996	-92.059	0.129	0.037
-592.982	232.956	-0.113	-0.188
-591.967	3.771	0.192	-0.142
-590.952	-2.325	0.084	-0.060
-589.938	-200.000	0.024	0.146
-588.923	-164.668	0.298	-0.014
-587.909	-49.860	-0.214	0.103
-586.894	-200.000	-0.037	0.187
-585.879	-59.323	-0.432	0.188
-584.865	130.965	0.062	0.080
-583.850	524.094	-0.112	-0.268
-582.836	-200.000	0.016	-0.297
-581.821	211.968	0.203	-0.324
-580.806	361.414	-0.028	0.056
-579.792	313.177	0.079	-0.151
-578.777	-94.368	0.180	0.050
-577.763	-200.000	-0.081	-0.401
-576.748	-200.000	-0.069	0.341
-575.733	76.932	0.077	-0.082
-574.719	12.511	0.019	-0.015
-573.704	-60.440	0.233	-0.100
-572.690	187.962	-0.122	0.185
-571.675	451.286	-0.099	-0.221
-570.661	-200.000	-0.004	-0.030
-569.646	-155.656	0.235	0.015
-568.631	9.966	0.146	-0.112
-567.617	-141.897	-0.092	0.009
-566.602	-10.397	0.153	-0.103
-565.588	219.179	-0.192	0.311
-564.573	216.175	0.108	-0.173
-563.558	-36.876	-0.059	0.032
-562.544	347.344	0.104	0.207
-561.529	-155.308	0.248	-0.016
-560.515	89.781	0.079	0.089
-559.500	2.415	-0.045	-0.033
-558.485	86.478	-0.036	0.040
-557.471	491.250	0.065	-0.152
-556.456	298.598	0.073	0.135
-555.442	-89.718	-0.217	-0.064
-554.427	13.088	-0.240	-0.188
-553.412	730.359	-0.101	0.273
-552.398	-74.436	0.168	0.061
-551.383	-200.000	0.003	-0.107
-550.369	-200.000	0.033	-0.148
-549.354	135.031	-0.138	-0.181
-548.339	-21.752	-0.162	-0.100
-547.325	-12.815	-0.175	0.115
-546.310	96.190	0.092	0.107
-545.296	743.684	0.072	-0.197
-544.281	800.000	-0.012	0.041
-543.266	-105.005	0.221	-0.051
-542.252	-136.431	0.285	0.034
-541.237	800.000	-0.014	0.054
-540.223	632.520	-0.065	-0.168
-539.208	-200.000	0.014	0.123
-538.193	218.155	0.090	-0.146
-537.179	146.656	-0.070	0.095
-536.164	280.202	-0.111	-0.200
-535.150	26.025	0.211	-0.178
-534.135	62.602	0.174	-0.175
-533.121	800.000	0.060	0.248
-532.106	-147.638	0.122	0.010
-531.091	-141.554	0.189	-0.019
-530.077	-200.000	-0.037	-0.384
-529.062	-64.092	0.065	-0.027
-528.048	-34.972	0.224	-0.124
-527.033	-46.491	0.206	-0.102
-526.018	-38.152	0.056	-0.030
-525.004	-75.305	-0.162	0.058
-523.989	800.000	0.082	0.338
-522.975	-200.000	0.007	-0.113
-521.960	68.369	-0.167	-0.173
-520.945	435.201	-0.047	0.103
-519.931	159.952	-0.073	-0.103
-518.916	-200.000	0.019	0.256
-517.902	-200.000	0.006	0.253
-516.887	421.338	0.039	0.084
-515.872	18.990	0.122	0.099
-514.858	-30.524	0.210	-0.120
-513.843	48.099	0.197	-0.186
-512.829	157.056	0.125	-0.174
-511.814	109.472	-0.196	-0.237
-510.799	127.289	-0.035	-0.045
-509.785	35.614	-0.112	0.099
-508.770	-200.000	0.002	0.089
-507.756	154.992	-0.064	-0.089
-506.741	269.034	0.139	-0.246
-505.726	-36.900	-0.307	-0.166
-504.712	-200.000	0.014	0.444
-503.697	15.064	-0.176	0.139
-502.683	448.888	0.114	0.255
-501.668	173.671	0.121	0.176
-500.653	-200.000	-0.027	0.197
-499.639	-42.125	0.041	0.021
-498.624	-200.000	0.005	-0.060
-497.610	195.242	0.070	-0.108
-496.595	90.841	0.293	-0.332
-495.581	295.194	0.277	0.511
-494.566	-200.000	0.039	-0.256
-493.551	275.008	-0.175	0.313
-492.537	-113.083	-0.184	-0.037
-491.522	41.163	0.033	-0.030
-490.508	-12.768	0.155	-0.102
-489.493	-146.922	0.181	0.016
-488.478	272.841	0.017	0.031
-487.464	-156.564	0.225	-0.014
-486.449	-26.284	-0.204	0.121
-485.435	34.065	-0.052	-0.045
-484.420	-27.916	-0.213	0.124
-483.405	413.812	-0.087	0.186
-482.391	-200.000	-0.001	0.083
-481.376	19.255	0.113	-0.092
-480.362	-61.192	-0.258	-0.110
-479.347	-173.951	-0.105	-0.003
-478.332	-200.000	-0.054	0.494
-477.318	-98.001	-0.095	0.025
-476.303	140.849	-0.216	0.288
-475.289	493.051	0.181	-0.419
-474.274	-114.874	-0.080	-0.015
-473.259	80.377	-0.337	0.366
-472.245	-87.307	0.333	0.102
-471.230	-105.594	0.259	0.059
-470.216	800.000	-0.184	-0.554
-469.201	332.818	0.183	0.356
-468.186	-33.592	-0.122	-0.068
-467.172	20.513	0.066	0.054
-466.157	379.623	-0.028	0.058
-465.143	-44.044	0.301	-0.152
-464.128	800.000	-0.041	0.156
-463.113	83.184	0.131	-0.144
-462.099	-200.000	0.008	0.379
-461.084	269.428	0.219	-0.388
-460.070	0.939	-0.010	0.007
-459.055	8.020	-0.193	0.146
-458.040	-49.273	-0.071	0.034
-457.026	800.000	0.063	-0.240
-456.011	-72.793	-0.228	-0.085
-454.997	75.520	0.047	-0.050
-453.982	86.428	-0.114	-0.127
-452.968	-200.000	0.002	-0.151
-451.953	-117.353	0.149	0.027
-450.938	800.000	-0.090	-0.269
-449.924	-200.000	0.018	-0.144
-448.909	-200.000	0.042	-0.421
-447.895	-12.385	0.115	0.076
-446.880	-97.017	0.174	0.046
-445.865	459.769	-0.119	0.268
-444.851	-125.948	-0.261	0.040
-443.836	-200.000	0.012	-0.147
-442.822	244.109	-0.084	-0.142
-441.807	81.041	0.139	0.151
-440.792	-200.000	0.050	0.277
-439.778	-141.597	0.085	-0.009
-438.763	496.515	-0.061	0.141
-437.749	256.511	0.086	-0.149
-436.734	-14.747	-0.144	-0.093
-435.719	-78.782	-0.239	0.082
-434.705	50.042	-0.213	0.202
-433.690	74.010	-0.155	-0.164
-432.676	-112.691	-0.171	0.034
-431.661	657.529	-0.078	0.201
-430.646	243.726	0.167	-0.282
-429.632	-200.000	-0.017	-0.341
-428.617	131.334	0.189	0.244
-427.603	-200.000	0.007	0.074
-426.588	-200.000	-0.010	0.059
-425.573	-48.010	0.320	0.156
-424.559	-69.526	-0.447	0.172
-423.544	-91.633	-0.132	0.038
-422.530	-200.000	-0.030	0.346
-421.515	-200.000	-0.008	0.122
-420.500	-200.000	-0.017	-0.082
-419.486	800.000	-0.090	0.275
-418.471	-93.698	0.229	0.064
-417.457	-26.529	0.238	-0.141
-416.442	800.000	-0.135	-0.407
-415.428	72.148	-0.047	-0.049
-414.413	89.344	-0.221	-0.248
-413.398	800.000	-0.051	-0.173
-412.384	800.000	0.177	0.625
-411.369	-127.526	0.173	-0.025
-410.355	800.000	0.108	-0.320
-409.340	255.224	0.074	-0.128
-408.325	273.709	0.058	-0.103
-407.311	780.968	0.015	0.042
-406.296	136.324	-0.045	-0.059
-405.282	-22.917	0.175	-0.106
-404.267	-48.715	-0.415	-0.200
-403.252	-30.636	-0.159	0.091
-402.238	-33.851	0.110	0.061
-401.223	-164.352	0.219	-0.010
-400.209	-180.957	0.227	0.005
-399.194	15.729	-0.166	-0.131
-398.179	130.176	0.190	-0.245
-397.165	-24.299	-0.305	-0.183
-396.150	542.728	0.093	0.223
-395.136	28.904	-0.120	-0.103
-394.121	263.172	-0.146	-0.255
-393.106	-200.000	0.017	-0.211
-392.092	310.055	-0.034	-0.064
-391.077	59.464	0.117	-0.116
-390.063	-200.000	0.023	-0.245
-389.048	-120.030	0.346	0.060
-388.033	-200.000	0.003	0.292
-387.019	-200.000	0.008	-0.165
-386.004	-133.557	0.237	0.030
-384.990	-200.000	-0.009	0.158
-383.975	-200.000	-0.039	-0.210
-382.960	-36.484	0.195	-0.106
-381.946	-200.000	-0.034	0.259
-380.931	-132.727	-0.330	0.042
-379.917	-200.000	0.041	0.206
-378.902	-128.677	-0.132	0.019
-377.888	17.926	-0.067	0.054
-376.873	800.000	0.076	-0.335
-375.858	-85.927	0.113	0.035
-374.844	-85.783	-0.265	0.083
-373.829	-50.307	0.289	0.137
-372.815	-137.699	-0.208	0.023
-371.800	45.506	0.131	0.121
-370.785	36.372	0.061	-0.054
-369.771	-200.000	-0.054	-0.291
-368.756	-200.000	0.221	0.000
-367.742	800.000	-0.049	0.195
-366.727	800.000	0.018	-0.067
-365.712	-143.470	0.243	0.023
-364.698	-48.497	0.090	-0.043
-363.683	-74.361	0.033	-0.012
-362.669	-200.000	-0.012	-0.191
-361.654	-200.000	-0.003	0.158
-360.639	-147.287	-0.160	-0.014
-359.625	-8.725	-0.203	0.137
-358.610	264.603	-0.063	0.111
-357.596	800.000	-0.080	-0.228
-356.581	-19.751	-0.153	-0.095
-355.566	238.567	-0.300	0.501
-354.552	-65.318	0.382	0.154
-353.537	234.385	0.018	0.030
-352.523	-20.986	-0.112	-0.069
-351.508	-200.000	-0.000	0.257
-350.493	-13.825	-0.122	-0.079
-349.479	567.096	-0.143	-0.349
-348.464	486.112	-0.054	0.123
-347.450	153.760	-0.177	0.244
-346.435	-108.661	0.122	0.026
-345.420	44.511	0.102	-0.094
-344.406	-80.824	-0.205	0.068
-343.391	-5.742	0.067	0.046
-342.377	-50.824	-0.424	0.200
-341.362	94.026	-0.122	-0.139
-340.348	221.929	-0.202	-0.326
-339.333	-159.736	-0.065	-0.004
-338.318	800.000	0.098	-0.334
-337.304	25.885	0.411	-0.344
-336.289	202.282	0.199	0.309
-335.275	-22.509	0.144	-0.087
-334.260	-24.645	-0.085	0.051
-333.245	-52.477	0.291	-0.135
-332.231	-200.000	0.005	0.225
-331.216	-3.589	0.302	0.210
-330.202	-200.000	0.002	0.269
-329.187	594.108	0.148	0.366
-328.172	56.312	0.082	0.080
-327.158	-110.231	-0.196	-0.041
-326.143	800.000	0.070	-0.198
-325.129	65.228	0.142	-0.144
-324.114	17.353	-0.140	-0.111
-323.099	-200.000	0.032	-0.151
-322.085	-97.119	0.336	-0.088
-321.070	-200.000	-0.015	-0.133
-320.056	-59.426	-0.447	-0.192
-319.041	-200.000	-0.019	-0.402
-318.026	32.123	-0.144	-0.125
-317.012	639.065	-0.072	0.184
-315.997	-10.389	0.261	0.173
-314.983	-55.424	0.122	-0.055
-313.968	37.746	0.142	0.126
-312.953	45.518	-0.195	-0.181
-311.939	-58.285	0.285	0.124
-310.924	800.000	-0.050	0.196
-309.910	-89.823	0.380	0.111
-308.895	17.141	-0.022	0.017
-307.880	183.214	0.148	-0.219
-306.866	447.627	0.033	0.074
-305.851	31.904	0.118	0.102
-304.837	80.483	-0.291	-0.314
-303.822	67.809	-0.105	0.108
-302.807	-61.298	0.146	-0.062
-301.793	295.515	0.084	-0.155
-300.778	-48.834	-0.127	0.061
-299.764	-0.116	-0.150	0.107
-298.749	-30.892	-0.113	0.064
-297.735	-120.140	-0.175	0.030
-296.720	800.000	-0.082	0.352
-295.705	-14.792	-0.250	-0.161
-294.691	26.084	0.282	0.236
-293.676	-30.569	0.214	0.122
-292.662	38.534	-0.262	0.234
-291.647	-127.437	0.090	-0.013
-290.632	-13.515	-0.031	-0.020
-289.618	-200.000	-0.017	-0.334
-288.603	604.039	0.049	0.123
-287.589	-41.672	-0.121	0.062
-286.574	-200.000	-0.018	0.184
-285.559	131.809	0.116	0.149
-284.545	111.681	-0.152	0.183
-283.530	-38.296	-0.116	-0.061
-282.516	345.565	0.093	0.183
-281.501	800.000	-0.048	0.191
-280.486	144.149	-0.154	-0.206
-279.472	87.430	-0.189	-0.210
-278.457	800.000	-0.093	0.391
-277.443	409.902	-0.067	0.142
-276.428	335.754	0.060	-0.116
-275.413	606.680	0.055	-0.137
-274.399	12.057	-0.255	-0.196
-273.384	-200.000	0.044	-0.221
-272.370	-171.663	-0.131	-0.004
-271.355	-200.000	0.064	0.441
-270.340	-200.000	0.012	-0.148
-269.326	314.093	0.237	-0.446
-268.311	-136.490	0.003	-0.000
-267.297	-41.438	-0.154	-0.080
-266.282	213.423	0.114	0.180
-265.267	347.062	0.069	0.137
-264.253	-11.764	0.147	0.097
-263.238	800.000	0.064	-0.210
-262.224	-134.988	0.260	0.031
-261.209	-94.082	0.209	0.057
-260.195	-200.000	0.031	0.343
-259.180	106.934	0.092	0.109
-258.165	800.000	0.042	-0.145
-257.151	111.835	-0.142	-0.172
-256.136	-89.165	0.339	0.100
-255.122	435.237	-0.114	0.248
-254.107	240.655	0.037	-0.062
-253.092	83.359	-0.093	0.102
-252.078	-55.950	-0.176	-0.079
-251.063	47.600	-0.229	-0.213
-250.049	-54.534	-0.040	0.018
-249.034	-10.899	0.144	-0.095
-248.019	237.746	-0.159	-0.263
-247.005	-94.512	-0.264	-0.072
-245.990	592.154	-0.077	-0.189
-244.976	140.519	0.119	-0.157
-243.961	514.997	-0.062	-0.145
-242.946	159.472	0.280	0.389
-241.932	-97.036	-0.392	-0.103
-240.917	-200.000	-0.006	0.113
-239.903	99.391	-0.068	-0.078
-238.888	-90.366	0.208	-0.060
-237.873	-174.612	-0.261	-0.007
-236.859	-13.208	-0.035	0.023
-235.844	-69.866	0.408	-0.156
-234.830	180.210	-0.194	-0.284
-233.815	284.814	-0.028	-0.051
-232.800	-99.474	0.204	-0.051
-231.786	358.089	-0.033	-0.065
-230.771	-39.680	-0.359	0.187
-229.757	800.000	0.067	0.270
-228.742	32.458	-0.091	0.078
-227.727	13.447	-0.206	0.160
-226.713	67.551	-0.038	-0.039
-225.698	-200.000	0.006	-0.287
-224.684	-132.251	0.318	-0.041
-223.669	80.466	-0.159	-0.171
-222.655	408.113	-0.179	0.378
-221.640	327.610	-0.060	-0.115
-220.625	800.000	0.019	0.057
-219.611	355.500	-0.096	0.191
-218.596	55.476	0.152	-0.147
-217.582	-137.623	-0.132	-0.015
-216.567	421.639	0.233	0.499
-215.552	-67.813	-0.264	-0.103
-214.538	148.640	-0.173	-0.233
-213.523	69.037	0.023	0.024
-212.509	784.252	-0.027	-0.073
-211.494	800.000	-0.003	0.011
-210.479	179.758	0.056	0.082
-209.465	-200.000	0.058	-0.318
-208.450	-200.000	0.031	0.161
-207.436	-31.344	-0.055	-0.031
-206.421	-200.000	-0.029	-0.153
-205.406	-36.463	-0.335	0.180
-204.392	-82.148	-0.200	-0.065
-203.377	622.107	0.077	0.195
-202.363	313.837	-0.048	0.090
-201.348	-88.472	-0.089	-0.026
-200.333	-200.000	-0.125	0.592
-199.319	-200.000	-0.066	0.378
-198.304	113.103	0.042	0.051
-197.290	289.852	0.068	-0.123
-196.275	135.456	0.055	0.072
-195.260	-31.834	0.210	-0.117
-194.246	800.000	0.071	-0.276
-193.231	-200.000	0.008	0.325
-192.217	-19.109	0.028	0.017
-191.202	403.086	0.040	0.083
-190.187	646.108	-0.097	-0.247
-189.173	-200.000	0.004	-0.076
-188.158	-53.477	-0.218	0.100
-187.144	-200.000	-0.038	-0.174
-186.129	-48.711	-0.119	0.057
-185.114	251.118	-0.077	-0.131
-184.100	-58.833	-0.275	0.118
-183.085	800.000	-0.030	0.094
-182.071	-200.000	-0.025	0.257
-181.056	356.847	-0.004	0.009
-180.042	-126.390	0.196	-0.029
-179.027	-80.208	-0.205	0.068
-178.012	215.896	0.120	0.190
-176.998	313.288	-0.065	0.122
-175.983	-21.593	-0.237	0.144
-174.969	-69.152	-0.219	-0.084
-173.954	680.012	0.123	-0.318
-172.939	-200.000	-0.037	0.252
-171.925	-200.000	-0.052	-0.237
-170.910	140.405	0.053	-0.070
-169.896	523.668	0.057	0.134
-168.881	-89.360	-0.477	0.140
-167.866	-93.255	0.256	0.071
-166.852	-115.726	-0.145	-0.027
-165.837	200.595	-0.099	0.152
-164.823	800.000	-0.017	-0.056
-163.808	-97.691	0.177	-0.046
-162.793	-200.000	0.024	-0.325
-161.779	84.332	-0.053	0.058
-160.764	800.000	-0.052	0.200
-159.750	-200.000	0.059	-0.389
-158.735	-85.793	0.517	-0.160
-157.720	19.408	0.210	0.168
-156.706	262.888	-0.278	-0.481
-155.691	-200.000	0.001	-0.043
-154.677	800.000	0.055	0.233
-153.662	-76.097	0.270	-0.095
-152.647	-1.907	0.240	0.168
-151.633	-200.000	0.027	-0.165
-150.618	-104.393	0.220	0.051
-149.604	22.289	-0.200	-0.163
-148.589	481.073	-0.098	-0.220
-147.574	218.078	0.097	-0.154
-146.560	800.000	0.076	-0.272
-145.545	248.100	0.066	0.112
-144.531	-1.014	0.170	-0.119
-143.516	113.228	0.096	-0.115
-142.502	-4.856	0.075	-0.051
-141.487	172.167	0.152	-0.218
-140.472	-148.646	-0.022	0.002
-139.458	-31.658	-0.034	-0.019
-138.443	800.000	0.037	-0.154
-137.429	800.000	0.034	-0.109
-136.414	46.403	-0.166	0.153
-135.399	-200.000	0.066	0.310
-134.385	800.000	0.044	0.157
-133.370	-120.032	0.179	0.031
-132.356	-200.000	0.020	-0.164
-131.341	269.913	0.057	0.100
-130.326	-56.584	0.089	-0.039
-129.312	-74.254	0.061	-0.022
-128.297	89.769	0.059	-0.066
-127.283	80.620	0.339	0.363
-126.268	-107.985	-0.167	0.036
-125.253	800.000	0.102	0.295
-124.239	800.000	0.074	0.240
-123.224	800.000	0.090	-0.362
-122.210	-48.474	0.414	0.198
-121.195	-200.000	-0.008	0.384
-120.180	-19.363	-0.139	-0.086
