DTS Sentinel unit serial number:	SN413079Multiplexer serial number:	ORYXHardware model number:	OX4-SRSoftware version number:	ORYX F/W v4.00 Oryx Data Collector v3.7.2.0data status	okinstallation	princeton_trtdifferential loss correction	single-endedforward channel	channel 1reverse channel	N/Adate	2019/09/17time	13:10:35forward acquisition time	60.00reverse acquisition time	0.00gamma	496.2192k internal	0.2313k external	0.2313temperature offset calibration	0.9966default loss term (dB/km)	0.3790temperature slope calibration	1.0000multiplexer offset coefficient	1.0000multiplexer slope coefficient	1.0000fibre end	0.00T internal ref (°C)	33.81T ext. ref 1 (°C)	0.44T ext. ref 2 (°C)	31.81length (m)	temperature (°C)	Stokes	anti-Stokes-747.200	-200.000	0.031	0.147
-746.185	-200.000	-0.414	0.001
-745.171	-1.950	0.211	0.150
-744.156	-64.330	-0.350	-0.145
-743.142	-200.000	-0.050	-0.232
-742.127	-99.641	-0.189	0.048
-741.112	-43.843	-0.430	-0.219
-740.098	188.136	0.099	0.150
-739.083	-92.358	0.092	-0.026
-738.069	18.077	-0.074	-0.060
-737.054	800.000	-0.026	0.098
-736.039	800.000	-0.118	-0.394
-735.025	-30.025	0.281	0.162
-734.010	-114.325	-0.084	0.016
-732.996	36.898	-0.416	-0.373
-731.981	-137.431	0.266	0.031
-730.966	74.696	-0.227	0.242
-729.952	472.014	-0.033	0.076
-728.937	800.000	-0.051	-0.169
-727.923	307.632	0.141	-0.267
-726.908	38.688	-0.241	-0.218
-725.894	-22.039	-0.182	0.112
-724.879	4.329	-0.269	-0.200
-723.864	29.163	-0.244	-0.210
-722.850	-103.954	-0.208	-0.049
-721.835	-200.000	0.002	-0.081
-720.821	-200.000	-0.069	0.372
-719.806	-200.000	0.011	0.119
-718.791	626.626	-0.077	-0.198
-717.777	-103.009	-0.283	-0.068
-716.762	-27.769	-0.146	-0.086
-715.748	-34.437	-0.212	0.118
-714.733	800.000	0.088	-0.290
-713.718	-47.127	-0.192	0.095
-712.704	53.605	0.057	0.056
-711.689	800.000	0.052	-0.206
-710.675	-125.679	-0.533	-0.082
-709.660	-83.109	0.558	0.182
-708.645	213.366	-0.142	0.227
-707.631	-77.898	-0.127	0.044
-706.616	259.445	0.074	-0.130
-705.602	34.579	-0.230	-0.203
-704.587	19.420	-0.246	-0.200
-703.572	158.226	-0.119	0.167
-702.558	-200.000	0.018	-0.217
-701.543	42.839	-0.297	-0.274
-700.529	-73.274	0.090	0.033
-699.514	800.000	-0.054	0.166
-698.499	-96.487	-0.448	0.120
-697.485	-37.830	-0.395	-0.213
-696.470	-53.539	0.119	0.055
-695.456	-66.371	0.111	0.045
-694.441	-200.000	0.029	0.133
-693.426	79.068	-0.376	0.407
-692.412	-41.407	0.224	0.117
-691.397	-106.034	-0.173	-0.039
-690.383	-200.000	-0.034	-0.166
-689.368	80.650	-0.317	-0.346
-688.354	202.225	-0.068	-0.107
-687.339	746.940	0.041	0.112
-686.324	189.428	-0.139	0.210
-685.310	-115.385	0.288	-0.055
-684.295	589.217	-0.056	-0.140
-683.281	-124.957	0.160	0.025
-682.266	-129.551	0.073	-0.010
-681.251	-155.007	-0.144	-0.010
-680.237	30.547	0.157	-0.136
-679.222	181.638	-0.068	-0.102
-678.208	77.959	-0.280	-0.302
-677.193	223.754	0.122	-0.200
-676.178	-58.932	0.389	-0.170
-675.164	398.303	0.063	-0.134
-674.149	201.144	0.099	0.154
-673.135	187.387	-0.073	-0.110
-672.120	-128.849	-0.156	0.022
-671.105	-200.000	-0.038	0.254
-670.091	800.000	0.065	-0.218
-669.076	-200.000	-0.015	-0.250
-668.062	491.054	-0.064	0.148
-667.047	154.769	0.085	0.118
-666.032	29.254	-0.116	-0.100
-665.018	-60.456	-0.109	0.047
-664.003	-56.604	0.220	0.099
-662.989	-200.000	-0.202	0.001
-661.974	-200.000	-0.000	0.230
-660.959	-116.762	0.201	0.037
-659.945	-200.000	0.015	0.081
-658.930	-97.534	-0.172	-0.045
-657.916	800.000	0.073	-0.304
-656.901	-83.829	0.226	0.073
-655.886	69.227	-0.156	-0.162
-654.872	753.563	-0.050	-0.137
-653.857	132.703	-0.183	-0.239
-652.843	-200.000	0.003	0.057
-651.828	299.635	-0.039	-0.072
-650.814	-200.000	-0.027	0.165
-649.799	-176.606	-0.150	-0.004
-648.784	-115.168	-0.424	-0.081
-647.770	208.562	0.128	-0.202
-646.755	-200.000	-0.025	0.181
-645.741	1.886	0.066	0.048
-644.726	24.965	-0.171	-0.143
-643.711	-54.295	-0.085	-0.039
-642.697	-200.000	-0.005	-0.039
-641.682	240.816	-0.174	0.293
-640.668	-23.940	-0.188	0.114
-639.653	211.676	0.028	-0.044
-638.638	-92.423	-0.073	0.021
-637.624	-37.359	0.247	-0.133
-636.609	328.851	0.149	-0.290
-635.595	-200.000	0.002	0.031
-634.580	75.176	-0.160	-0.171
-633.565	109.026	0.041	-0.050
-632.551	-200.000	0.019	-0.084
-631.536	116.510	0.070	-0.086
-630.522	89.107	-0.103	0.116
-629.507	-18.504	0.225	0.142
-628.492	-85.390	0.169	0.053
-627.478	-43.300	-0.349	0.178
-626.463	-105.654	-0.202	0.046
-625.449	-109.405	-0.255	-0.055
-624.434	14.731	0.167	-0.132
-623.419	-79.340	0.256	-0.087
-622.405	-136.271	-0.123	0.015
-621.390	375.704	-0.138	0.283
-620.376	-52.652	-0.230	0.107
-619.361	-200.000	0.033	0.160
-618.346	-70.388	-0.056	0.021
-617.332	77.796	0.147	-0.158
-616.317	-200.000	-0.001	-0.088
-615.303	-200.000	0.031	-0.444
-614.288	800.000	-0.022	0.088
-613.273	-66.897	-0.184	0.074
-612.259	-126.102	-0.314	0.047
-611.244	800.000	0.156	0.467
-610.230	-69.626	0.196	-0.076
-609.215	618.183	-0.126	-0.319
-608.201	800.000	-0.081	-0.310
-607.186	-48.959	0.170	0.082
-606.171	-200.000	-0.013	0.065
-605.157	-35.141	-0.233	-0.128
-604.142	-200.000	0.009	-0.217
-603.128	145.727	-0.267	0.361
-602.113	-177.310	-0.319	0.008
-601.098	20.351	0.038	0.031
-600.084	-57.269	-0.136	0.060
-599.069	-99.047	-0.220	-0.056
-598.055	-160.596	0.143	0.008
-597.040	43.883	-0.075	-0.069
-596.025	-70.715	0.242	-0.092
-595.011	-32.512	0.080	-0.045
-593.996	-68.633	-0.258	-0.101
-592.982	-14.836	-0.296	-0.192
-591.967	71.289	0.140	-0.147
-590.952	-23.287	-0.477	0.289
-589.938	-142.363	0.324	0.032
-588.923	-200.000	-0.089	-0.416
-587.909	207.793	0.093	-0.147
-586.894	338.613	0.049	0.096
-585.879	342.069	-0.127	0.250
-584.865	309.882	0.150	0.283
-583.850	-200.000	-0.017	0.159
-582.836	84.649	0.057	-0.063
-581.821	113.330	-0.008	-0.010
-580.806	-120.121	0.200	0.034
-579.792	-200.000	-0.003	0.112
-578.777	-34.391	0.306	-0.169
-577.763	-119.626	0.120	0.021
-576.748	-18.685	-0.182	-0.115
-575.733	-200.000	0.028	0.168
-574.719	440.063	0.066	0.145
-573.704	241.737	0.191	0.321
-572.690	103.667	0.226	-0.267
-571.675	-200.000	0.016	0.261
-570.661	348.657	-0.100	0.200
-569.646	-103.613	-0.101	0.024
-568.631	241.684	0.113	-0.191
-567.617	706.137	0.099	0.263
-566.602	180.132	0.107	-0.159
-565.588	-55.512	-0.120	-0.054
-564.573	68.370	0.162	0.168
-563.558	364.970	0.142	-0.288
-562.544	-133.886	-0.107	0.013
-561.529	195.105	0.126	0.193
-560.515	-30.104	0.081	0.046
-559.500	-200.000	0.031	-0.185
-558.485	21.751	-0.262	-0.215
-557.471	3.087	0.524	-0.384
-556.456	-35.938	0.256	0.139
-555.442	290.134	-0.126	-0.230
-554.427	-200.000	0.076	0.444
-553.412	-127.589	-0.106	-0.016
-552.398	182.108	-0.134	0.199
-551.383	-52.298	0.175	-0.082
-550.369	-176.571	-0.196	-0.005
-549.354	-130.744	-0.471	0.064
-548.339	638.429	-0.151	0.387
-547.325	134.295	-0.101	-0.132
-546.310	220.925	0.150	0.243
-545.296	-5.009	0.342	-0.237
-544.281	120.091	0.129	-0.162
-543.266	235.018	0.111	-0.185
-542.252	800.000	-0.051	-0.191
-541.237	-200.000	-0.006	-0.172
-540.223	156.452	-0.107	0.149
-539.208	2.756	-0.138	0.101
-538.193	-200.000	-0.014	-0.297
-537.179	373.376	-0.117	-0.240
-536.164	-200.000	-0.065	0.330
-535.150	66.117	-0.358	-0.365
-534.135	-116.240	0.183	-0.034
-533.121	253.756	0.127	-0.218
-532.106	712.150	-0.058	0.154
-531.091	-74.455	0.110	-0.040
-530.077	2.866	-0.331	-0.241
-529.062	607.566	-0.060	-0.151
-528.048	-200.000	0.007	0.151
-527.033	76.965	0.156	-0.167
-526.018	138.461	-0.095	-0.126
-525.004	-200.000	-0.001	0.159
-523.989	800.000	0.040	0.146
-522.975	-113.419	-0.218	-0.043
-521.960	64.393	-0.302	-0.306
-520.945	-135.110	0.416	0.050
-519.931	463.129	0.119	-0.268
-518.916	-148.581	0.300	0.025
-517.902	37.081	0.201	0.179
-516.887	-200.000	0.040	-0.316
-515.872	71.694	0.214	-0.224
-514.858	-77.528	-0.297	0.103
-513.843	-78.689	0.301	0.103
-512.829	-98.315	-0.234	-0.060
-511.814	-200.000	0.017	-0.090
-510.799	-37.794	0.049	-0.026
-509.785	-6.629	-0.269	0.184
-508.770	800.000	0.013	0.046
-507.756	-200.000	-0.009	-0.541
-506.741	23.943	0.201	-0.166
-505.726	800.000	-0.050	0.174
-504.712	289.055	0.211	0.384
-503.697	488.476	-0.057	-0.132
-502.683	76.753	0.150	0.160
-501.668	-200.000	0.013	0.061
-500.653	29.831	-0.200	-0.171
-499.639	-40.659	-0.231	0.120
-498.624	-86.268	0.304	-0.094
-497.610	-118.660	-0.172	0.031
-496.595	130.638	-0.131	0.168
-495.581	-200.000	-0.051	0.288
-494.566	-200.000	0.002	0.044
-493.551	-147.246	0.172	-0.015
-492.537	800.000	0.050	0.140
-491.522	-50.931	0.309	0.146
-490.508	52.608	0.099	0.095
-489.493	52.997	-0.101	-0.097
-488.478	-200.000	0.056	0.396
-487.464	212.789	0.172	-0.273
-486.449	-113.782	0.184	0.036
-485.435	-27.895	0.063	-0.036
-484.420	48.214	-0.195	0.184
-483.405	-200.000	-0.013	0.399
-482.391	-89.643	0.039	-0.011
-481.376	-200.000	-0.037	0.242
-480.362	260.763	-0.123	-0.213
-479.347	-117.250	-0.216	0.039
-478.332	-200.000	-0.088	0.391
-477.318	-30.479	0.197	-0.112
-476.303	-161.064	0.287	-0.015
-475.289	412.943	0.137	-0.292
-474.274	-105.857	0.130	-0.029
-473.259	-21.312	0.261	0.160
-472.245	1.845	-0.211	-0.153
-471.230	-88.294	-0.434	-0.130
-470.216	-87.349	-0.303	0.092
-469.201	-200.000	-0.045	-0.237
-468.186	-13.311	-0.292	-0.190
-467.172	800.000	-0.049	-0.161
-466.157	291.685	-0.293	-0.535
-465.143	10.765	0.352	-0.270
-464.128	-200.000	0.015	0.107
-463.113	800.000	-0.005	0.020
-462.099	-62.762	0.383	-0.159
-461.084	800.000	-0.058	-0.223
-460.070	-45.374	-0.143	-0.071
-459.055	-136.013	0.122	-0.014
-458.040	50.687	-0.144	-0.137
-457.026	-95.572	-0.217	0.058
-456.011	761.326	0.092	0.250
-454.997	408.235	0.107	0.227
-453.982	-41.694	-0.121	-0.062
-452.968	-78.671	0.145	-0.050
-451.953	-25.615	-0.193	-0.114
-450.938	-59.691	-0.147	0.063
-449.924	11.517	0.219	0.169
-448.909	102.685	-0.117	0.137
-447.895	-200.000	0.004	0.160
-446.880	-122.298	-0.161	0.026
-445.865	-73.291	0.129	0.047
-444.851	780.267	0.053	0.145
-443.836	-67.890	0.364	-0.143
-442.822	16.688	-0.181	0.144
-441.807	-200.000	-0.002	0.191
-440.792	330.478	0.042	-0.082
-439.778	734.157	-0.065	0.176
-438.763	-189.438	0.175	0.002
-437.749	-4.965	-0.262	-0.181
-436.734	265.395	0.127	-0.221
-435.719	-12.757	0.100	-0.066
-434.705	54.425	0.240	0.231
-433.690	0.574	0.035	-0.025
-432.676	800.000	0.112	-0.342
-431.661	50.662	-0.199	-0.189
-430.646	-86.581	0.361	0.111
-429.632	46.052	-0.164	0.152
-428.617	81.832	-0.167	-0.181
-427.603	800.000	0.024	-0.085
-426.588	553.667	-0.052	-0.124
-425.573	523.496	-0.061	-0.143
-424.559	-151.648	0.292	-0.022
-423.544	-52.693	0.182	0.084
-422.530	-101.882	-0.277	0.067
-421.515	-99.914	-0.314	0.079
-420.500	-114.587	-0.184	0.035
-419.486	-131.305	0.209	0.028
-418.471	627.501	0.061	0.153
-417.457	-69.925	-0.193	-0.074
-416.442	-200.000	-0.006	0.202
-415.428	800.000	0.102	-0.341
-414.413	-151.643	-0.130	0.010
-413.398	-151.212	0.040	-0.003
-412.384	120.883	-0.021	0.026
-411.369	410.094	-0.066	0.139
-410.355	-10.244	-0.063	0.042
-409.340	800.000	0.048	0.164
-408.325	18.101	0.092	-0.073
-407.311	-200.000	0.048	-0.339
-406.296	-92.754	-0.045	-0.013
-405.282	-200.000	-0.032	0.224
-404.267	-112.716	0.342	0.068
-403.252	29.515	-0.095	0.080
-402.238	63.409	-0.172	-0.173
-401.223	-103.252	-0.141	0.033
-400.209	-125.996	-0.089	0.013
-399.194	-101.114	0.161	0.039
-398.179	28.743	-0.165	-0.140
-397.165	338.280	-0.165	-0.322
-396.150	125.612	0.124	0.157
-395.136	800.000	0.045	0.149
-394.121	-188.757	0.075	-0.001
-393.106	800.000	-0.015	0.049
-392.092	-200.000	-0.008	-0.530
-391.077	-73.139	-0.133	-0.049
-390.063	800.000	0.028	-0.123
-389.048	-25.724	0.093	-0.055
-388.033	226.897	-0.175	0.285
-387.019	341.587	0.073	0.143
-386.004	-200.000	0.022	0.232
-384.990	231.695	0.082	0.135
-383.975	-52.835	-0.146	-0.067
-382.960	-105.982	0.215	-0.048
-381.946	-172.705	-0.304	-0.010
-380.931	25.396	-0.196	0.163
-379.917	307.596	0.113	0.211
-378.902	-200.000	-0.042	0.272
-377.888	-99.177	-0.213	0.054
-376.873	27.380	0.064	-0.054
-375.858	-107.396	-0.092	-0.020
-374.844	800.000	-0.043	0.121
-373.829	-83.767	-0.329	-0.105
-372.815	161.239	0.143	-0.200
-371.800	-59.246	0.084	0.036
-370.785	-200.000	-0.010	-0.322
-369.771	65.586	-0.129	-0.130
-368.756	28.502	-0.077	0.065
-367.742	-46.874	-0.212	-0.104
-366.727	-200.000	0.057	0.282
-365.712	800.000	-0.070	0.255
-364.698	-105.841	-0.137	0.031
-363.683	-127.804	0.254	-0.037
-362.669	800.000	0.026	-0.079
-361.654	-131.492	0.048	0.006
-360.639	172.054	0.131	0.188
-359.625	800.000	0.087	-0.323
-358.610	-118.457	0.506	0.090
-357.596	-123.849	-0.288	-0.045
-356.581	-110.100	0.331	-0.069
-355.566	2.462	-0.093	-0.067
-354.552	175.320	-0.136	0.197
-353.537	262.203	0.141	0.245
-352.523	-200.000	0.046	-0.333
-351.508	16.684	0.248	0.196
-350.493	-49.918	0.388	0.184
-349.479	-32.501	0.313	0.174
-348.464	-150.925	-0.178	0.013
-347.450	90.745	-0.129	-0.145
-346.435	-156.782	0.212	0.013
-345.420	-140.793	-0.097	-0.010
-344.406	-109.517	-0.264	0.056
-343.391	-200.000	0.005	-0.039
-342.377	55.477	0.121	0.117
-341.362	109.863	0.187	0.224
-340.348	528.868	0.150	-0.353
-339.333	800.000	-0.047	-0.159
-338.318	800.000	-0.030	-0.113
-337.304	-12.499	0.183	0.119
-336.289	136.233	0.239	0.311
-335.275	800.000	0.074	0.252
-334.260	187.724	0.054	0.081
-333.245	-62.214	-0.195	0.081
-332.231	-144.893	-0.219	-0.020
-331.216	800.000	-0.033	0.110
-330.202	800.000	0.035	-0.148
-329.187	278.421	0.125	0.222
-328.172	-192.696	-0.087	-0.001
-327.158	31.620	-0.123	0.105
-326.143	-200.000	-0.009	-0.139
-325.129	445.162	-0.066	0.146
-324.114	800.000	-0.082	0.295
-323.099	329.412	0.073	-0.140
-322.085	-64.005	0.064	-0.026
-321.070	-63.454	-0.257	-0.105
-320.056	-36.059	0.254	-0.137
-319.041	759.465	-0.019	-0.052
-318.026	29.085	0.151	0.128
-317.012	73.560	-0.180	0.188
-315.997	-108.975	-0.132	-0.028
-314.983	686.024	-0.116	0.302
-313.968	-200.000	0.019	0.145
-312.953	-170.056	-0.131	-0.005
-311.939	-131.762	0.303	0.040
-310.924	18.073	0.251	-0.199
-309.910	49.747	0.283	-0.266
-308.895	-200.000	0.014	-0.141
-307.880	368.086	-0.132	-0.267
-306.866	-74.726	0.047	0.017
-305.851	90.711	-0.085	-0.095
-304.837	-200.000	-0.006	-0.209
-303.822	492.618	0.133	0.303
-302.807	165.056	0.197	-0.277
-301.793	-200.000	-0.025	-0.281
-300.778	148.500	-0.079	0.106
-299.764	560.023	-0.135	-0.324
-298.749	-103.292	0.065	-0.015
-297.735	118.106	-0.059	0.073
-296.720	128.961	0.177	0.225
-295.705	-159.825	0.164	0.009
-294.691	-200.000	-0.011	-0.208
-293.676	-1.039	-0.185	0.130
-292.662	-200.000	-0.038	-0.187
-291.647	-41.166	-0.182	0.093
-290.632	-161.954	0.080	-0.004
-289.618	-75.496	-0.141	0.050
-288.603	282.286	0.095	-0.169
-287.589	664.889	-0.067	-0.172
-286.574	-138.141	-0.189	0.021
-285.559	-19.577	0.210	-0.130
-284.545	586.934	-0.025	0.061
-283.530	-200.000	0.002	-0.187
-282.516	-200.000	0.019	-0.151
-281.501	276.440	-0.171	0.302
-280.486	-200.000	-0.018	0.085
-279.472	60.636	0.280	-0.276
-278.457	373.133	0.078	-0.157
-277.443	36.910	-0.213	0.187
-276.428	-82.184	-0.091	-0.029
-275.413	-78.735	-0.109	0.037
-274.399	800.000	0.072	0.235
-273.384	800.000	0.066	0.232
-272.370	531.950	-0.096	-0.225
-271.355	-200.000	0.023	0.158
-270.340	75.749	0.311	-0.328
-269.326	-200.000	-0.003	0.025
-268.311	-75.975	-0.401	-0.141
-267.297	420.527	0.148	0.316
-266.282	64.797	0.179	-0.179
-265.267	-200.000	0.081	-0.422
-264.253	63.954	-0.245	-0.245
-263.238	6.167	0.207	0.153
-262.224	17.433	-0.052	0.041
-261.209	-200.000	0.034	0.229
-260.195	-200.000	0.019	0.275
-259.180	-51.744	0.163	0.076
-258.165	246.883	0.222	-0.374
-257.151	505.806	0.041	-0.094
-256.136	48.567	0.124	-0.116
-255.122	-200.000	-0.029	0.129
-254.107	-77.833	-0.233	0.080
-253.092	-57.788	-0.148	0.065
-252.078	-200.000	-0.336	0.000
-251.063	800.000	0.047	0.179
-250.049	-200.000	-0.076	0.406
-249.034	109.289	-0.132	0.158
-248.019	23.856	0.370	-0.304
-247.005	-135.199	0.288	-0.034
-245.990	800.000	-0.094	0.394
-244.976	-200.000	0.006	-0.105
-243.961	-200.000	0.013	0.216
-242.946	49.627	-0.242	0.227
-241.932	9.778	0.161	-0.122
-240.917	20.880	-0.200	0.161
-239.903	-81.475	-0.164	-0.054
-238.888	371.692	-0.111	0.225
-237.873	-93.804	0.313	0.086
-236.859	800.000	-0.041	0.120
-235.844	-77.249	0.347	-0.120
-234.830	116.207	-0.114	-0.139
-233.815	413.870	0.200	-0.423
-232.800	59.877	-0.081	-0.080
-231.786	78.929	0.179	0.190
-230.771	-151.914	-0.389	-0.028
-229.757	-73.067	-0.211	-0.077
-228.742	93.574	0.097	0.109
-227.727	800.000	-0.097	-0.293
-226.713	-113.694	-0.202	-0.039
-225.698	505.351	0.086	0.198
-224.684	-196.413	-0.271	-0.002
-223.669	-200.000	0.010	0.176
-222.655	-200.000	-0.215	0.000
-221.640	-200.000	-0.012	-0.161
-220.625	26.361	0.252	-0.210
-219.611	-144.418	0.050	-0.005
-218.596	-53.394	-0.263	0.120
-217.582	-152.507	-0.180	-0.013
-216.567	800.000	-0.078	0.223
-215.552	-162.305	-0.302	0.015
-214.538	800.000	-0.126	0.362
-213.523	-106.957	-0.301	0.066
-212.509	800.000	-0.031	-0.112
-211.494	699.629	0.032	-0.084
-210.479	-61.628	0.255	0.106
-209.465	-200.000	0.005	0.210
-208.450	-5.526	-0.154	0.105
-207.436	-200.000	-0.026	-0.263
-206.421	-142.950	0.232	-0.022
-205.406	-200.000	-0.001	-0.184
-204.392	40.554	-0.140	-0.125
-203.377	-139.463	0.240	0.026
-202.363	67.606	0.122	0.124
-201.348	15.535	0.218	0.170
-200.333	-90.560	0.170	0.049
-199.319	346.253	0.165	0.322
-198.304	549.125	-0.158	0.376
-197.290	-147.989	0.338	0.028
-196.275	169.094	-0.046	-0.066
-195.260	-200.000	-0.001	0.062
-194.246	-200.000	-0.066	-0.341
-193.231	-200.000	-0.037	0.336
-192.217	1.676	0.072	0.051
-191.202	-200.000	-0.038	-0.181
-190.187	800.000	-0.099	-0.307
-189.173	62.639	0.121	-0.120
-188.158	-200.000	0.050	-0.242
-187.144	361.463	0.046	0.092
-186.129	595.424	-0.054	-0.132
-185.114	-200.000	0.026	0.374
-184.100	-135.284	0.396	0.047
-183.085	97.619	0.167	-0.190
-182.071	-200.000	0.008	0.234
-181.056	-79.428	0.234	0.079
-180.042	-38.216	-0.013	-0.007
-179.027	-130.965	0.120	-0.016
-178.012	-99.605	0.055	0.014
-176.998	-130.243	-0.361	0.049
-175.983	-154.443	0.368	0.024
-174.969	800.000	0.016	-0.070
-173.954	140.335	-0.166	0.218
-172.939	-200.000	-0.005	0.061
-171.925	-29.776	0.270	0.153
-170.910	377.522	0.056	-0.113
-169.896	163.984	-0.182	0.254
-168.881	-200.000	-0.027	0.258
-167.866	-2.906	0.156	0.108
-166.852	-200.000	0.053	-0.320
-165.837	-200.000	-0.028	-0.252
-164.823	-146.624	-0.309	-0.027
-163.808	800.000	0.082	-0.325
-162.793	-200.000	0.006	0.060
-161.779	-84.670	-0.121	-0.038
-160.764	502.295	0.062	0.142
-159.750	-150.176	-0.517	-0.040
-158.735	800.000	0.103	0.302
-157.720	-200.000	-0.003	0.068
-156.706	82.758	0.102	0.110
-155.691	-108.169	0.084	0.018
-154.677	-23.990	0.142	-0.084
-153.662	223.508	-0.142	-0.227
-152.647	416.978	-0.212	-0.449
-151.633	-51.831	0.286	0.132
-150.618	-89.946	0.309	0.089
-149.604	-158.503	0.131	0.008
-148.589	-200.000	0.014	-0.155
-147.574	99.906	0.150	-0.172
-146.560	43.441	0.172	-0.156
-145.545	-128.786	0.022	0.003
-144.531	221.134	0.086	-0.136
-143.516	-116.038	-0.229	-0.042
-142.502	-200.000	0.017	0.169
-141.487	138.067	-0.190	0.247
-140.472	-7.350	-0.145	0.098
-139.458	38.685	-0.134	-0.119
-138.443	139.868	0.311	-0.406
-137.429	-75.409	-0.242	-0.085
-136.414	800.000	0.098	0.274
-135.399	-51.117	-0.068	-0.032
-134.385	-114.141	0.397	-0.076
-133.370	-114.791	0.217	0.041
-132.356	-200.000	-0.009	0.049
-131.341	-143.525	-0.391	-0.037
-130.326	-62.308	-0.181	0.075
-129.312	-134.885	0.159	-0.019
-128.297	137.726	0.057	-0.074
-127.283	800.000	0.092	-0.395
-126.268	800.000	-0.095	-0.290
-125.253	-155.563	-0.232	-0.015
-124.239	27.380	0.187	-0.156
-123.224	75.304	0.143	0.150
-122.210	-87.307	-0.243	-0.073
