DTS Sentinel unit serial number:	SN413079Multiplexer serial number:	ORYXHardware model number:	OX4-SRSoftware version number:	ORYX F/W v4.00 Oryx Data Collector v3.7.2.0data status	okinstallation	princeton_trtdifferential loss correction	single-endedforward channel	channel 1reverse channel	N/Adate	2019/09/12time	09:16:11forward acquisition time	60.00reverse acquisition time	0.00gamma	496.2192k internal	0.2304k external	0.2304temperature offset calibration	1.0045default loss term (dB/km)	0.3790temperature slope calibration	1.0000multiplexer offset coefficient	1.0000multiplexer slope coefficient	1.0000fibre end	0.00T internal ref (°C)	34.84T ext. ref 1 (°C)	1.78T ext. ref 2 (°C)	33.30length (m)	temperature (°C)	Stokes	anti-Stokes-747.200	-141.725	0.259	-0.026
-746.185	-85.781	-0.201	0.064
-745.171	-50.943	0.170	0.081
-744.156	-125.180	0.600	0.094
-743.142	800.000	0.069	0.245
-742.127	-186.198	0.342	0.005
-741.112	-92.213	0.065	-0.019
-740.098	-200.000	-0.032	0.149
-739.083	-128.516	0.069	-0.010
-738.069	21.643	0.210	0.174
-737.054	-200.000	0.018	-0.113
-736.039	-74.498	-0.217	-0.080
-735.025	-200.000	0.038	-0.221
-734.010	800.000	-0.071	-0.221
-732.996	-200.000	-0.032	-0.192
-731.981	242.389	-0.029	-0.049
-730.966	2.428	-0.233	-0.171
-729.952	-200.000	0.014	0.132
-728.937	140.622	-0.227	-0.305
-727.923	-200.000	0.001	0.081
-726.908	95.198	0.058	0.068
-725.894	179.333	-0.078	0.116
-724.879	123.054	0.066	0.084
-723.864	-134.648	-0.037	-0.005
-722.850	-200.000	-0.052	0.422
-721.835	10.166	0.260	-0.201
-720.821	-147.906	-0.396	0.034
-719.806	87.569	-0.132	-0.149
-718.791	-200.000	-0.017	-0.149
-717.777	35.560	-0.153	-0.137
-716.762	800.000	0.044	-0.155
-715.748	-60.212	0.017	0.007
-714.733	608.602	-0.172	0.436
-713.718	-200.000	-0.016	0.334
-712.704	-16.686	0.353	-0.227
-711.689	-100.349	0.128	-0.032
-710.675	800.000	0.076	-0.222
-709.660	-122.992	-0.214	0.035
-708.645	-78.804	-0.231	0.080
-707.631	-181.836	-0.273	-0.005
-706.616	800.000	-0.073	-0.230
-705.602	46.997	-0.097	-0.091
-704.587	69.722	0.248	0.259
-703.572	-52.545	0.201	-0.094
-702.558	-106.270	0.284	-0.065
-701.543	-39.364	-0.233	-0.124
-700.529	27.778	-0.165	-0.142
-699.514	134.199	-0.101	-0.133
-698.499	318.436	-0.144	-0.278
-697.485	-89.667	0.056	-0.017
-696.470	800.000	0.017	0.055
-695.456	535.048	-0.056	0.136
-694.441	800.000	0.038	-0.127
-693.426	128.886	-0.127	-0.164
-692.412	431.777	-0.036	0.080
-691.397	-53.755	-0.219	0.101
-690.383	141.221	-0.238	0.320
-689.368	-200.000	-0.047	-0.236
-688.354	406.580	-0.066	0.142
-687.339	-26.322	0.098	-0.058
-686.324	93.676	-0.229	-0.264
-685.310	-64.367	0.280	-0.116
-684.295	-153.822	-0.242	0.017
-683.281	407.868	0.125	0.268
-682.266	32.690	0.170	0.150
-681.251	24.848	-0.145	0.122
-680.237	144.399	0.248	-0.336
-679.222	800.000	-0.028	-0.086
-678.208	66.612	-0.175	-0.180
-677.193	-200.000	0.009	-0.144
-676.178	19.210	0.403	-0.328
-675.164	-200.000	0.028	0.312
-674.149	-200.000	0.036	-0.344
-673.135	-65.681	-0.100	0.041
-672.120	-8.408	-0.073	0.050
-671.105	-82.696	-0.257	0.084
-670.091	-10.017	0.303	-0.205
-669.076	-121.192	-0.046	0.008
-668.062	25.252	-0.297	0.250
-667.047	-119.099	0.142	-0.025
-666.032	-177.015	0.376	-0.010
-665.018	100.432	-0.059	0.069
-664.003	-107.052	-0.109	-0.024
-662.989	800.000	0.121	-0.438
-661.974	77.429	-0.005	-0.005
-660.959	16.168	-0.290	0.232
-659.945	-200.000	0.020	-0.196
-658.930	800.000	-0.067	-0.210
-657.916	800.000	-0.009	-0.025
-656.901	-100.696	0.249	0.062
-655.886	-97.257	0.463	-0.123
-654.872	800.000	-0.092	-0.346
-653.857	-100.014	-0.096	0.024
-652.843	-200.000	0.013	-0.162
-651.828	-200.000	0.069	0.404
-650.814	800.000	-0.083	0.328
-649.799	-3.128	-0.402	0.284
-648.784	-167.024	-0.114	-0.005
-647.770	60.517	-0.084	0.084
-646.755	-200.000	-0.037	-0.319
-645.741	-100.440	0.198	-0.050
-644.726	104.419	0.142	-0.169
-643.711	-167.268	-0.053	-0.002
-642.697	-200.000	0.072	0.377
-641.682	-168.019	0.144	0.006
-640.668	79.937	-0.203	0.221
-639.653	-114.223	-0.313	-0.061
-638.638	-200.000	0.028	-0.138
-637.624	-20.648	-0.082	0.051
-636.609	-42.730	0.052	-0.027
-635.595	-87.173	-0.268	-0.083
-634.580	-14.491	-0.275	-0.179
-633.565	187.128	0.119	0.180
-632.551	106.339	-0.013	0.016
-631.536	-108.507	0.308	0.067
-630.522	82.082	0.065	-0.071
-629.507	-132.452	0.320	0.042
-628.492	-200.000	0.085	-0.526
-627.478	-180.570	0.366	0.008
-626.463	-200.000	0.083	-0.428
-625.449	800.000	0.075	-0.293
-624.434	-14.303	-0.073	-0.048
-623.419	103.878	0.152	-0.181
-622.405	-112.448	0.273	0.055
-621.390	257.565	0.041	-0.071
-620.376	54.082	-0.094	0.091
-619.361	-91.542	0.183	-0.053
-618.346	170.364	0.208	-0.301
-617.332	555.249	-0.061	0.150
-616.317	471.367	-0.033	0.076
-615.303	-120.544	0.292	0.050
-614.288	-200.000	-0.066	-0.312
-613.273	-80.695	0.249	-0.084
-612.259	643.731	0.068	0.177
-611.244	-66.580	0.181	0.073
-610.230	93.073	0.094	-0.107
-609.215	-59.895	0.145	-0.063
-608.201	761.281	-0.046	-0.128
-607.186	-139.857	-0.140	-0.015
-606.171	58.533	0.043	-0.043
-605.157	282.301	-0.071	-0.129
-604.142	-60.367	-0.080	0.035
-603.128	-43.370	-0.257	0.131
-602.113	-200.000	-0.010	-0.140
-601.098	-200.000	0.016	-0.123
-600.084	69.237	0.118	0.122
-599.069	28.903	-0.111	0.095
-598.055	800.000	-0.055	-0.180
-597.040	126.028	0.052	-0.066
-596.025	208.871	-0.115	0.182
-595.011	174.427	0.120	0.175
-593.996	29.245	-0.150	-0.129
-592.982	-49.352	-0.283	0.137
-591.967	-84.760	-0.260	0.083
-590.952	59.330	-0.348	-0.347
-589.938	-67.608	-0.181	-0.072
-588.923	-1.408	0.226	0.161
-587.909	347.298	-0.092	0.183
-586.894	33.503	-0.148	-0.130
-585.879	-130.487	-0.084	0.011
-584.865	247.759	0.141	0.241
-583.850	180.580	0.189	0.280
-582.836	171.374	0.186	0.270
-581.821	24.487	-0.237	-0.198
-580.806	-200.000	0.026	0.135
-579.792	104.500	0.186	-0.221
-578.777	-23.872	0.162	-0.098
-577.763	-41.552	-0.178	-0.093
-576.748	-90.085	0.049	-0.014
-575.733	540.765	-0.128	0.308
-574.719	73.655	-0.158	0.168
-573.704	221.518	-0.187	-0.304
-572.690	-200.000	-0.016	-0.223
-571.675	-74.407	0.246	-0.090
-570.661	67.187	0.156	-0.161
-569.646	34.464	-0.212	-0.187
-568.631	800.000	0.077	-0.324
-567.617	45.354	-0.059	-0.055
-566.602	-93.880	0.190	0.053
-565.588	631.144	-0.169	0.433
-564.573	-200.000	-0.009	-0.118
-563.558	264.626	0.112	-0.197
-562.544	-17.188	0.358	-0.228
-561.529	-46.283	-0.124	0.062
-560.515	56.576	-0.422	0.415
-559.500	411.466	-0.071	-0.153
-558.485	-200.000	0.009	0.340
-557.471	362.004	-0.108	-0.219
-556.456	348.468	0.117	-0.234
-555.442	-122.537	0.338	-0.055
-554.427	73.127	0.120	0.126
-553.412	148.857	-0.217	0.297
-552.398	71.662	-0.189	0.198
-551.383	37.924	0.143	0.129
-550.369	-98.801	-0.398	0.102
-549.354	-57.852	0.092	-0.040
-548.339	-94.780	-0.071	0.019
-547.325	578.275	-0.030	0.075
-546.310	800.000	0.053	-0.219
-545.296	84.066	0.166	0.183
-544.281	111.774	-0.116	-0.141
-543.266	-114.082	-0.254	0.050
-542.252	555.751	0.088	-0.215
-541.237	-121.892	-0.174	-0.029
-540.223	-200.000	0.003	-0.067
-539.208	473.654	0.081	0.184
-538.193	-200.000	-0.062	-0.285
-537.179	11.786	0.142	0.110
-536.164	800.000	-0.004	0.013
-535.150	18.744	-0.227	-0.184
-534.135	-200.000	0.000	-0.075
-533.121	-152.996	-0.290	0.021
-532.106	-106.428	0.209	-0.047
-531.091	-200.000	-0.023	-0.365
-530.077	800.000	0.027	-0.115
-529.062	223.284	-0.204	0.331
-528.048	-7.844	-0.162	0.110
-527.033	-26.494	0.182	-0.108
-526.018	-28.552	0.341	-0.198
-525.004	-52.946	0.117	-0.054
-523.989	-124.867	-0.122	0.019
-522.975	-200.000	0.003	0.239
-521.960	800.000	-0.079	0.339
-520.945	176.174	0.104	0.152
-519.931	-37.522	-0.105	-0.056
-518.916	-200.000	0.008	0.206
-517.902	542.018	-0.049	-0.117
-516.887	-200.000	0.042	-0.431
-515.872	-86.782	-0.228	0.070
-514.858	55.184	-0.322	-0.314
-513.843	-200.000	-0.054	-0.277
-512.829	-15.585	0.251	-0.161
-511.814	-35.684	-0.248	0.136
-510.799	209.808	0.134	0.213
-509.785	-94.208	0.088	0.024
-508.770	-113.457	0.299	-0.059
-507.756	-106.938	0.240	0.054
-506.741	45.121	0.187	-0.174
-505.726	-81.946	0.061	-0.020
-504.712	-104.354	-0.140	0.033
-503.697	-129.843	0.150	0.021
-502.683	86.515	-0.324	-0.360
-501.668	63.236	-0.062	0.063
-500.653	-101.612	-0.248	-0.061
-499.639	-66.522	0.100	-0.040
-498.624	40.524	0.128	0.116
-497.610	-200.000	0.000	0.009
-496.595	-14.973	0.082	0.053
-495.581	774.032	-0.032	-0.089
-494.566	93.442	-0.138	-0.158
-493.551	19.792	-0.235	-0.190
-492.537	-200.000	0.009	-0.080
-491.522	-200.000	0.030	-0.236
-490.508	122.857	-0.067	0.084
-489.493	-39.228	0.114	-0.060
-488.478	-200.000	-0.019	-0.110
-487.464	-125.008	-0.248	0.038
-486.449	-186.226	0.174	0.003
-485.435	-200.000	0.005	0.041
-484.420	133.347	-0.068	-0.089
-483.405	-97.139	0.255	-0.067
-482.391	-117.124	0.277	-0.051
-481.376	-157.693	0.266	0.016
-480.362	-200.000	0.043	-0.296
-479.347	-200.000	0.024	0.479
-478.332	-200.000	-0.019	-0.144
-477.318	800.000	-0.016	0.058
-476.303	-134.833	-0.082	0.010
-475.289	-86.655	-0.390	0.120
-474.274	-40.642	0.146	0.076
-473.259	127.660	-0.095	0.121
-472.245	-200.000	0.022	0.363
-471.230	216.517	-0.036	0.057
-470.216	-200.000	-0.011	-0.302
-469.201	74.446	-0.338	0.358
-468.186	-145.003	-0.235	-0.022
-467.172	-122.363	0.166	0.027
-466.157	-155.834	-0.215	0.014
-465.143	278.884	0.063	0.113
-464.128	74.154	-0.057	0.060
-463.113	233.628	0.113	0.188
-462.099	27.105	0.255	0.215
-461.084	53.624	0.182	-0.176
-460.070	186.678	0.148	0.222
-459.055	800.000	0.123	0.443
-458.040	-113.413	0.167	0.033
-457.026	-118.647	0.318	0.056
-456.011	-70.039	-0.244	0.093
-454.997	-9.763	0.209	0.140
-453.982	-42.743	-0.157	0.080
-452.968	-104.754	-0.255	-0.059
-451.953	-175.178	0.334	-0.009
-450.938	-200.000	0.005	0.102
-449.924	72.324	0.103	0.108
-448.909	-106.130	-0.115	0.026
-447.895	121.180	-0.037	0.047
-446.880	202.923	0.157	-0.244
-445.865	-13.011	-0.119	0.078
-444.851	38.573	-0.043	-0.038
-443.836	-9.346	0.106	0.072
-442.822	-73.185	-0.098	-0.036
-441.807	-200.000	-0.020	-0.089
-440.792	61.485	0.142	-0.142
-439.778	-200.000	-0.045	-0.203
-438.763	27.562	0.102	0.086
-437.749	258.258	-0.074	0.128
-436.734	758.803	0.151	0.411
-435.719	367.874	0.081	-0.165
-434.705	-55.450	-0.170	-0.076
-433.690	-148.925	0.346	0.028
-432.676	332.106	0.009	-0.017
-431.661	-116.273	-0.194	0.036
-430.646	43.515	-0.310	0.285
-429.632	-140.943	0.157	0.016
-428.617	-19.225	0.398	-0.248
-427.603	181.634	-0.054	0.080
-426.588	-200.000	0.005	-0.118
-425.573	-200.000	0.005	0.263
-424.559	140.441	-0.052	0.069
-423.544	403.292	-0.123	0.260
-422.530	10.535	-0.187	-0.144
-421.515	-159.811	-0.155	-0.009
-420.500	-16.214	-0.185	-0.118
-419.486	-178.780	0.208	0.005
-418.471	2.513	-0.247	0.180
-417.457	-200.000	0.028	-0.352
-416.442	134.331	-0.110	-0.143
-415.428	-122.636	-0.153	0.025
-414.413	27.798	0.158	-0.134
-413.398	-17.988	0.253	-0.159
-412.384	265.880	-0.032	-0.056
-411.369	420.874	0.019	-0.041
-410.355	-200.000	-0.047	0.327
-409.340	800.000	0.091	0.271
-408.325	800.000	0.060	-0.215
-407.311	21.752	-0.362	-0.296
-406.296	169.986	0.068	-0.097
-405.282	-43.891	0.055	-0.028
-404.267	-48.343	-0.038	0.018
-403.252	-144.763	-0.369	-0.034
-402.238	-200.000	0.017	-0.403
-401.223	-51.398	-0.385	-0.181
-400.209	-200.000	-0.012	0.070
-399.194	-148.117	-0.153	-0.013
-398.179	-200.000	-0.027	-0.186
-397.165	-135.635	-0.204	0.024
-396.150	-125.299	0.136	-0.021
-395.136	-89.079	0.087	-0.026
-394.121	559.040	0.123	0.297
-393.106	736.090	0.106	-0.284
-392.092	56.886	-0.044	0.044
-391.077	-124.747	-0.296	-0.046
-390.063	397.393	0.118	-0.247
-389.048	679.819	-0.131	0.342
-388.033	387.092	0.021	-0.043
-387.019	1.386	-0.270	-0.195
-386.004	363.378	-0.143	-0.288
-384.990	-162.052	-0.228	-0.012
-383.975	-141.314	0.396	0.040
-382.960	800.000	0.056	0.217
-381.946	-87.293	-0.353	-0.108
-380.931	-200.000	0.014	-0.229
-379.917	-125.379	0.143	-0.022
-378.902	-173.237	-0.253	0.008
-377.888	-91.690	-0.446	-0.127
-376.873	88.432	0.140	-0.156
-375.858	206.015	-0.068	0.106
-374.844	206.346	-0.169	-0.264
-373.829	33.202	0.077	-0.067
-372.815	112.856	0.115	0.140
-371.800	29.532	-0.116	-0.099
-370.785	-200.000	-0.037	0.196
-369.771	85.277	0.095	-0.104
-368.756	54.543	0.136	0.131
-367.742	-75.626	0.097	0.035
-366.727	-127.096	-0.253	-0.037
-365.712	775.199	-0.100	0.275
-364.698	65.403	0.222	-0.225
-363.683	45.422	-0.115	-0.106
-362.669	-200.000	-0.030	0.235
-361.654	-70.546	-0.388	-0.147
-360.639	800.000	0.054	-0.186
-359.625	-54.321	0.244	0.111
-358.610	119.504	-0.055	0.068
-357.596	800.000	0.107	0.306
-356.581	-200.000	-0.075	-0.372
-355.566	-80.089	-0.340	0.114
-354.552	167.728	0.071	-0.101
-353.537	-200.000	-0.024	-0.111
-352.523	-89.386	0.365	-0.108
-351.508	-40.464	0.172	0.090
-350.493	-13.276	0.385	0.250
-349.479	-3.326	0.123	-0.086
-348.464	-200.000	0.071	0.314
-347.450	-200.000	0.019	0.130
-346.435	3.639	-0.198	0.145
-345.420	800.000	0.139	-0.433
-344.406	-200.000	0.009	-0.238
-343.391	65.796	-0.184	-0.187
-342.377	-151.228	0.197	-0.015
-341.362	347.045	0.101	-0.198
-340.348	-5.166	0.226	-0.156
-339.333	443.216	0.115	-0.252
-338.318	36.240	0.155	0.137
-337.304	-104.460	0.084	0.019
-336.289	-177.613	0.352	-0.009
-335.275	-114.214	0.132	-0.026
-334.260	621.979	-0.035	0.089
-333.245	550.080	-0.119	0.286
-332.231	353.012	0.172	0.342
-331.216	-200.000	-0.027	0.505
-330.202	-180.374	0.077	-0.002
-329.187	81.584	-0.113	0.122
-328.172	227.127	0.231	-0.376
-327.158	-38.544	-0.182	-0.096
-326.143	19.352	0.183	0.147
-325.129	-185.640	-0.132	0.002
-324.114	-76.483	-0.064	-0.022
-323.099	-200.000	-0.003	0.232
-322.085	313.705	-0.064	-0.120
-321.070	-87.936	-0.009	0.003
-320.056	539.042	0.165	0.393
-319.041	127.593	0.157	-0.200
-318.026	301.047	0.057	0.105
-317.012	144.864	-0.023	0.031
-315.997	-105.390	-0.261	0.060
-314.983	800.000	0.040	0.165
-313.968	-200.000	-0.006	0.284
-312.953	800.000	-0.090	-0.290
-311.939	-123.357	0.274	-0.044
-310.924	510.691	-0.058	0.136
-309.910	-69.387	0.278	-0.107
-308.895	313.103	0.068	-0.128
-307.880	27.971	-0.117	0.099
-306.866	-200.000	-0.008	-0.057
-305.851	650.932	-0.190	0.487
-304.837	485.462	0.082	0.188
-303.822	11.535	0.237	0.182
-302.807	5.459	-0.026	0.019
-301.793	-114.281	0.162	-0.031
-300.778	-200.000	0.049	-0.252
-299.764	-200.000	0.006	-0.078
-298.749	-113.112	-0.333	0.066
-297.735	-18.973	0.018	-0.011
-296.720	-157.531	-0.229	0.014
-295.705	106.012	0.285	-0.338
-294.691	-200.000	0.019	0.219
-293.676	-68.505	-0.168	0.065
-292.662	-7.333	0.210	-0.142
-291.647	16.948	-0.037	0.029
-290.632	-152.012	-0.258	-0.019
-289.618	207.575	-0.271	-0.422
-288.603	146.259	-0.065	-0.087
-287.589	-200.000	-0.041	0.222
-286.574	105.248	-0.198	-0.233
-285.559	-70.577	0.203	-0.077
-284.545	70.789	-0.272	-0.282
-283.530	-200.000	0.028	0.126
-282.516	121.257	-0.138	-0.172
-281.501	-123.608	0.025	0.004
-280.486	-200.000	-0.469	-0.002
-279.472	800.000	0.072	0.278
-278.457	800.000	-0.045	-0.153
-277.443	-92.712	-0.112	-0.031
-276.428	184.057	0.166	0.246
-275.413	-101.723	0.071	0.017
-274.399	-200.000	0.007	0.407
-273.384	400.019	0.062	-0.129
-272.370	673.109	0.140	0.363
-271.355	270.473	-0.092	-0.163
-270.340	-200.000	-0.014	-0.064
-269.326	-111.675	-0.174	-0.035
-268.311	-16.046	0.326	-0.207
-267.297	345.532	0.060	0.118
-266.282	800.000	-0.094	-0.283
-265.267	-138.613	0.037	0.004
-264.253	-5.049	-0.030	-0.020
-263.238	544.666	-0.035	-0.083
-262.224	-143.648	0.007	0.001
-261.209	257.691	-0.092	0.157
-260.195	-144.591	-0.440	-0.041
-259.180	-43.171	0.450	-0.228
-258.165	43.935	0.233	-0.214
-257.151	-16.257	-0.365	-0.231
-256.136	436.969	-0.081	0.175
-255.122	373.636	-0.072	0.145
-254.107	-133.338	0.271	0.034
-253.092	-187.929	0.078	-0.001
-252.078	-54.946	0.295	-0.133
-251.063	479.555	0.126	0.286
-250.049	55.599	-0.093	0.090
-249.034	-102.098	-0.216	-0.052
-248.019	-31.253	-0.211	0.119
-247.005	726.679	0.061	-0.162
-245.990	-6.568	0.234	0.159
-244.976	800.000	0.074	0.279
-243.961	31.157	-0.181	0.155
-242.946	-21.346	0.196	0.120
-241.932	-200.000	0.040	0.177
-240.917	-6.394	0.325	0.221
-239.903	-200.000	-0.001	-0.287
-238.888	-132.519	-0.251	0.032
-237.873	16.609	0.194	-0.153
-236.859	-67.642	0.319	-0.125
-235.844	26.824	-0.066	0.055
-234.830	-28.867	0.063	0.036
-233.815	-157.634	0.186	-0.011
-232.800	29.144	-0.117	0.099
-231.786	-62.329	0.103	-0.043
-230.771	196.059	-0.057	0.087
-229.757	67.598	0.136	-0.139
-228.742	-116.145	0.153	0.028
-227.727	20.591	0.295	0.238
-226.713	-119.065	-0.187	0.033
-225.698	-116.375	0.374	-0.069
-224.684	-71.983	0.052	-0.019
-223.669	-98.588	-0.405	-0.103
-222.655	800.000	0.035	-0.128
-221.640	-89.758	0.261	-0.076
-220.625	57.414	-0.030	0.029
-219.611	-74.019	-0.086	0.031
-218.596	301.913	-0.068	-0.126
-217.582	-200.000	-0.009	-0.272
-216.567	800.000	0.129	0.371
-215.552	-200.000	0.049	0.308
-214.538	317.279	0.027	0.051
-213.523	-88.664	0.211	-0.063
-212.509	173.788	-0.184	-0.265
-211.494	136.616	-0.204	0.265
-210.479	-200.000	-0.031	0.212
-209.465	-37.076	0.418	0.223
-208.450	45.969	-0.110	0.101
-207.436	-129.769	0.185	0.025
-206.421	97.606	0.239	0.274
-205.406	-137.615	0.286	-0.032
-204.392	-65.444	-0.160	-0.064
-203.377	147.710	0.053	-0.071
-202.363	14.838	-0.027	-0.021
-201.348	679.823	0.067	0.175
-200.333	-5.606	0.312	0.213
-199.319	373.219	0.076	-0.154
-198.304	-200.000	-0.009	-0.118
-197.290	630.703	-0.004	-0.010
-196.275	800.000	0.064	0.209
-195.260	79.412	0.137	0.147
-194.246	154.029	-0.064	0.088
-193.231	-200.000	-0.013	0.069
-192.217	486.098	-0.064	0.146
-191.202	-72.752	-0.134	0.049
-190.187	-13.170	0.053	-0.034
-189.173	485.468	-0.046	0.104
-188.158	-200.000	-0.008	-0.042
-187.144	38.140	0.194	-0.172
-186.129	-175.196	-0.497	0.014
-185.114	38.667	-0.211	-0.188
-184.100	-200.000	-0.002	-0.088
-183.085	-12.111	-0.202	0.132
-182.071	-200.000	-0.061	0.350
-181.056	188.245	0.090	-0.134
-180.042	-102.272	-0.131	-0.031
-179.027	118.381	-0.095	0.117
-178.012	-200.000	-0.043	0.246
-176.998	669.500	0.034	0.086
-175.983	-115.882	0.255	-0.047
-174.969	-92.908	-0.212	0.059
-173.954	-200.000	0.013	-0.174
-172.939	718.869	-0.031	0.082
-171.925	-47.316	0.212	-0.103
-170.910	800.000	0.042	-0.171
-169.896	-200.000	-0.032	0.165
-168.881	-52.329	-0.144	-0.067
-167.866	-120.201	-0.264	-0.045
-166.852	-200.000	-0.018	0.168
-165.837	113.300	-0.237	0.286
-164.823	61.861	0.130	-0.129
-163.808	20.966	0.115	0.093
-162.793	307.473	-0.052	-0.096
-161.779	187.732	0.192	-0.285
-160.764	623.773	0.081	-0.204
-159.750	220.196	-0.127	0.203
-158.735	-135.364	-0.105	0.013
-157.720	-159.244	-0.108	-0.006
-156.706	-106.540	-0.186	0.041
-155.691	-87.596	-0.098	0.029
-154.677	-42.305	-0.335	0.170
-153.662	129.958	0.157	-0.199
-152.647	-17.508	-0.349	0.219
-151.633	-120.389	0.285	-0.048
-150.618	158.278	-0.168	0.231
-149.604	800.000	0.048	-0.163
-148.589	-62.661	-0.350	-0.144
-147.574	-116.354	0.101	-0.019
-146.560	-136.348	0.072	-0.008
-145.545	-119.599	0.160	-0.028
-144.531	-64.781	-0.015	0.006
-143.516	95.746	0.251	0.285
-142.502	103.155	-0.133	-0.155
-141.487	84.913	0.188	0.205
-140.472	-22.107	0.166	-0.100
-139.458	-200.000	0.021	0.162
-138.443	379.834	0.097	0.198
-137.429	125.192	0.190	-0.238
-136.414	-37.350	0.182	-0.096
-135.399	-200.000	0.006	-0.481
-134.385	-153.731	-0.340	-0.023
-133.370	-200.000	-0.026	-0.295
-132.356	136.554	-0.050	-0.064
-131.341	-200.000	-0.016	-0.187
-130.326	-200.000	-0.006	0.284
-129.312	184.974	0.121	0.179
-128.297	738.327	-0.026	-0.068
-127.283	122.731	0.059	-0.073
-126.268	-92.101	-0.107	-0.030
-125.253	386.333	-0.014	-0.029
-124.239	-181.716	-0.120	-0.002
-123.224	-200.000	-0.042	-0.263
-122.210	-9.522	0.211	0.140
