DTS Sentinel unit serial number:	SN413079Multiplexer serial number:	ORYXHardware model number:	OX4-SRSoftware version number:	ORYX F/W v4.00 Oryx Data Collector v3.7.2.0data status	okinstallation	princeton_trtdifferential loss correction	single-endedforward channel	channel 1reverse channel	N/Adate	2019/09/18time	15:06:35forward acquisition time	60.00reverse acquisition time	0.00gamma	496.2192k internal	0.2306k external	0.2306temperature offset calibration	0.9991default loss term (dB/km)	0.3790temperature slope calibration	1.0000multiplexer offset coefficient	1.0000multiplexer slope coefficient	1.0000fibre end	0.00T internal ref (°C)	35.31T ext. ref 1 (°C)	0.73T ext. ref 2 (°C)	32.42length (m)	temperature (°C)	Stokes	anti-Stokes-747.200	-51.819	0.105	0.050
-746.185	-129.441	-0.380	0.054
-745.171	-200.000	0.015	0.116
-744.156	282.533	0.080	0.145
-743.142	-200.000	0.003	0.193
-742.127	306.293	-0.013	-0.025
-741.112	91.606	0.034	0.039
-740.098	96.231	0.140	0.163
-739.083	-112.074	0.382	-0.078
-738.069	435.188	-0.042	-0.092
-737.054	800.000	-0.082	-0.299
-736.039	-105.039	-0.373	-0.087
-735.025	25.583	-0.137	0.116
-734.010	91.261	-0.204	-0.233
-732.996	-133.449	0.205	-0.026
-731.981	-33.300	0.257	0.144
-730.966	-200.000	0.005	-0.030
-729.952	-34.061	-0.275	-0.154
-728.937	-130.818	-0.229	0.031
-727.923	800.000	0.085	-0.296
-726.908	57.444	-0.108	-0.108
-725.894	-200.000	-0.018	-0.169
-724.879	-54.094	-0.130	0.060
-723.864	-83.631	0.337	-0.110
-722.850	-44.063	-0.318	0.162
-721.835	-168.062	-0.131	-0.005
-720.821	-110.301	0.110	-0.023
-719.806	138.939	-0.089	0.119
-718.791	-16.219	-0.172	-0.111
-717.777	-18.484	0.328	0.208
-716.762	137.501	0.088	0.117
-715.748	800.000	0.036	-0.139
-714.733	38.170	0.164	-0.149
-713.718	-200.000	-0.007	0.037
-712.704	-200.000	0.026	-0.307
-711.689	-200.000	-0.015	-0.114
-710.675	-200.000	-0.020	0.224
-709.660	42.512	-0.205	-0.190
-708.645	27.466	0.118	-0.101
-707.631	-113.757	0.373	-0.074
-706.616	-153.940	0.439	-0.030
-705.602	800.000	0.032	0.108
-704.587	-60.752	0.201	0.086
-703.572	51.188	0.164	0.158
-702.558	124.004	0.121	0.154
-701.543	-200.000	0.004	-0.262
-700.529	9.052	-0.083	-0.064
-699.514	-200.000	-0.063	-0.464
-698.499	-200.000	0.300	0.000
-697.485	73.930	0.196	0.209
-696.470	18.300	0.080	-0.065
-695.456	-81.207	-0.221	0.074
-694.441	-174.636	-0.225	-0.007
-693.426	7.199	0.115	-0.088
-692.412	-108.813	0.468	-0.102
-691.397	-60.953	-0.161	-0.069
-690.383	125.140	0.096	0.123
-689.368	800.000	0.033	0.143
-688.354	131.558	0.242	0.316
-687.339	94.981	-0.182	0.211
-686.324	99.420	-0.215	0.253
-685.310	1.032	-0.214	-0.156
-684.295	-91.687	0.281	0.081
-683.281	9.482	-0.171	0.131
-682.266	-108.731	0.188	0.041
-681.251	101.920	0.137	-0.162
-680.237	115.697	0.085	-0.106
-679.222	-200.000	-0.020	0.280
-678.208	163.292	-0.071	0.101
-677.193	241.130	-0.081	-0.138
-676.178	800.000	0.085	-0.269
-675.164	-123.831	-0.274	0.044
-674.149	-200.000	-0.044	-0.290
-673.135	518.121	-0.070	0.166
-672.120	104.558	0.148	-0.177
-671.105	-13.931	0.255	-0.167
-670.091	-60.368	0.220	-0.095
-669.076	800.000	-0.031	0.103
-668.062	87.959	0.103	-0.116
-667.047	-20.411	0.111	0.069
-666.032	-57.767	0.265	0.118
-665.018	222.187	0.073	0.119
-664.003	-0.357	0.157	-0.113
-662.989	-57.201	-0.309	-0.138
-661.974	-45.582	0.294	-0.148
-660.959	167.750	0.073	0.106
-659.945	-32.735	0.239	-0.135
-658.930	142.306	-0.235	0.316
-657.916	108.293	-0.087	0.106
-656.901	4.516	0.182	-0.136
-655.886	325.001	-0.032	0.062
-654.872	-78.280	-0.115	0.040
-653.857	-94.355	0.127	-0.035
-652.843	-200.000	-0.052	-0.352
-651.828	-131.288	-0.405	0.054
-650.814	-18.841	-0.222	0.140
-649.799	-200.000	0.002	0.047
-648.784	174.048	-0.084	0.123
-647.770	95.098	-0.164	0.189
-646.755	516.663	0.065	0.154
-645.741	800.000	-0.024	0.095
-644.726	175.069	0.236	-0.347
-643.711	116.381	0.092	-0.114
-642.697	-50.059	-0.285	0.137
-641.682	-24.196	0.131	-0.079
-640.668	-33.091	0.465	-0.261
-639.653	75.114	-0.275	-0.294
-638.638	197.352	0.115	0.177
-637.624	-24.308	0.228	0.138
-636.609	229.315	0.141	0.233
-635.595	52.154	-0.207	0.200
-634.580	-102.600	0.128	-0.031
-633.565	-200.000	0.048	-0.358
-632.551	105.137	0.138	-0.165
-631.536	-200.000	-0.010	-0.083
-630.522	-163.709	0.222	0.011
-629.507	800.000	-0.095	-0.289
-628.492	110.239	-0.106	-0.129
-627.478	-200.000	-0.034	0.161
-626.463	-200.000	-0.023	0.135
-625.449	800.000	0.079	-0.265
-624.434	800.000	-0.115	0.433
-623.419	165.835	-0.102	-0.146
-622.405	-200.000	0.058	-0.276
-621.390	-12.124	-0.082	-0.054
-620.376	-35.004	0.116	-0.064
-619.361	139.727	0.226	-0.302
-618.346	-3.086	0.138	0.098
-617.332	-140.023	0.187	0.020
-616.317	800.000	0.055	-0.228
-615.303	800.000	-0.010	0.043
-614.288	145.890	-0.222	0.301
-613.273	800.000	0.103	0.395
-612.259	20.326	0.128	-0.105
-611.244	-72.496	-0.405	-0.151
-610.230	-96.500	0.205	-0.055
-609.215	-18.065	-0.150	0.095
-608.201	-35.314	-0.099	0.054
-607.186	800.000	0.021	-0.088
-606.171	-84.761	-0.178	-0.057
-605.157	214.603	0.055	0.088
-604.142	347.182	-0.022	0.045
-603.128	-68.145	-0.240	0.094
-602.113	93.348	-0.073	0.083
-601.098	-200.000	0.021	0.182
-600.084	13.587	-0.137	0.108
-599.069	6.841	-0.231	0.174
-598.055	63.389	-0.137	-0.140
-597.040	8.981	-0.242	0.185
-596.025	37.992	0.145	0.130
-595.011	27.919	0.062	-0.053
-593.996	800.000	0.022	0.077
-592.982	-200.000	-0.027	-0.190
-591.967	233.753	-0.146	0.243
-590.952	611.444	-0.089	-0.224
-589.938	0.041	-0.264	0.191
-588.923	800.000	0.092	0.364
-587.909	-72.639	0.182	-0.068
-586.894	-29.942	-0.172	0.099
-585.879	-55.822	0.315	0.142
-584.865	-143.566	-0.167	0.016
-583.850	-38.624	0.185	-0.099
-582.836	-61.193	-0.221	-0.094
-581.821	-200.000	-0.007	-0.168
-580.806	88.813	-0.163	-0.184
-579.792	602.325	-0.083	-0.208
-578.777	309.426	-0.046	-0.086
-577.763	800.000	0.012	0.048
-576.748	-17.920	0.128	0.081
-575.733	26.718	-0.150	0.127
-574.719	451.733	-0.075	-0.167
-573.704	161.086	-0.068	0.096
-572.690	583.935	0.074	0.185
-571.675	-173.563	-0.334	0.010
-570.661	464.453	-0.061	-0.139
-569.646	-151.503	0.215	0.016
-568.631	461.395	0.047	-0.106
-567.617	-76.590	-0.078	0.028
-566.602	-200.000	0.002	0.126
-565.588	149.218	0.146	-0.200
-564.573	-89.947	-0.109	0.032
-563.558	270.542	0.112	-0.199
-562.544	6.461	0.109	-0.082
-561.529	-200.000	-0.031	0.263
-560.515	-93.652	0.265	-0.074
-559.500	53.042	-0.145	-0.141
-558.485	12.381	0.165	-0.128
-557.471	-41.345	0.076	-0.039
-556.456	-94.634	-0.151	-0.042
-555.442	45.748	0.156	0.146
-554.427	-84.941	-0.215	-0.068
-553.412	-200.000	-0.005	-0.079
-552.398	75.887	-0.429	-0.458
-551.383	-75.542	-0.439	0.158
-550.369	-25.016	0.052	0.031
-549.354	457.104	0.069	-0.154
-548.339	203.262	-0.142	-0.222
-547.325	447.571	0.021	-0.046
-546.310	-158.390	0.334	-0.020
-545.296	387.013	0.084	0.174
-544.281	751.491	-0.118	0.321
-543.266	-55.266	-0.147	-0.067
-542.252	-88.453	0.193	-0.058
-541.237	49.759	-0.110	0.105
-540.223	416.466	-0.055	0.118
-539.208	-48.987	-0.093	0.045
-538.193	-162.615	0.326	-0.016
-537.179	-146.993	0.159	-0.014
-536.164	800.000	0.003	-0.012
-535.150	-200.000	-0.016	-0.177
-534.135	-68.708	0.137	-0.054
-533.121	-200.000	-0.018	-0.402
-532.106	13.992	0.093	-0.073
-531.091	21.448	-0.117	0.096
-530.077	181.762	-0.152	0.226
-529.062	12.726	0.095	0.074
-528.048	-52.659	-0.105	0.049
-527.033	-200.000	0.007	-0.067
-526.018	-52.399	0.174	-0.081
-525.004	134.987	0.128	0.168
-523.989	-93.754	-0.214	-0.059
-522.975	-86.198	0.262	-0.082
-521.960	-200.000	-0.045	-0.302
-520.945	800.000	0.031	0.128
-519.931	180.760	0.025	0.037
-518.916	-47.987	0.143	0.070
-517.902	800.000	-0.083	0.321
-516.887	63.850	0.153	-0.155
-515.872	-129.515	0.125	0.017
-514.858	162.448	0.219	0.310
-513.843	52.628	-0.397	-0.383
-512.829	-159.765	0.260	0.014
-511.814	800.000	0.025	0.098
-510.799	-28.339	0.221	-0.129
-509.785	-200.000	0.068	-0.670
-508.770	-24.454	0.105	-0.063
-507.756	4.685	-0.098	-0.073
-506.741	-98.456	-0.241	0.062
-505.726	-15.225	-0.131	0.084
-504.712	800.000	0.040	-0.130
-503.697	495.230	-0.114	0.264
-502.683	-95.161	0.206	0.056
-501.668	-200.000	-0.026	0.165
-500.653	656.111	0.200	-0.517
-499.639	302.057	-0.070	-0.130
-498.624	-72.182	0.064	0.024
-497.610	322.843	-0.192	-0.369
-496.595	-174.264	-0.128	0.004
-495.581	-113.815	0.305	-0.060
-494.566	800.000	0.107	-0.356
-493.551	6.606	-0.049	-0.037
-492.537	-69.095	0.150	0.058
-491.522	-101.270	0.119	0.029
-490.508	-55.846	-0.035	-0.016
-489.493	-95.733	0.245	-0.066
-488.478	-18.054	-0.076	0.048
-487.464	-71.879	-0.067	-0.025
-486.449	-29.797	-0.042	-0.024
-485.435	290.113	-0.241	-0.441
-484.420	58.578	0.094	-0.093
-483.405	-106.398	0.389	0.088
-482.391	664.345	-0.110	0.287
-481.376	800.000	-0.050	0.154
-480.362	560.467	0.223	0.542
-479.347	-200.000	-0.029	-0.335
-478.332	-113.498	0.512	-0.101
-477.318	175.038	0.195	0.284
-476.303	-45.067	0.276	0.138
-475.289	8.904	-0.074	-0.056
-474.274	-200.000	0.011	-0.125
-473.259	8.503	0.154	-0.117
-472.245	475.642	-0.148	0.337
-471.230	-117.808	-0.322	0.058
-470.216	68.135	-0.146	0.150
-469.201	-142.445	0.387	0.038
-468.186	800.000	-0.023	0.101
-467.172	5.821	-0.145	0.108
-466.157	-200.000	-0.006	-0.254
-465.143	-81.483	-0.238	0.079
-464.128	-174.320	-0.219	-0.006
-463.113	-65.411	-0.133	-0.054
-462.099	186.653	0.182	0.273
-461.084	-102.522	0.298	-0.072
-460.070	-117.223	-0.228	0.042
-459.055	800.000	0.045	-0.166
-458.040	-132.935	-0.228	0.029
-457.026	283.642	-0.146	0.264
-456.011	-200.000	-0.001	0.272
-454.997	350.026	-0.224	-0.446
-453.982	-49.676	-0.169	0.081
-452.968	-200.000	-0.048	-0.276
-451.953	-200.000	0.011	-0.162
-450.938	-109.945	0.370	0.078
-449.924	-200.000	-0.006	0.088
-448.909	229.568	-0.128	-0.210
-447.895	-61.619	-0.196	0.083
-446.880	794.600	-0.122	0.337
-445.865	800.000	0.005	0.014
-444.851	110.786	-0.072	-0.087
-443.836	-62.759	0.211	0.088
-442.822	-200.000	-0.031	0.141
-441.807	-34.168	-0.173	-0.096
-440.792	151.770	0.041	-0.056
-439.778	-32.576	0.246	-0.138
-438.763	239.098	-0.102	-0.171
-437.749	58.855	-0.208	-0.205
-436.734	800.000	0.025	0.098
-435.719	40.584	0.227	-0.206
-434.705	63.656	-0.195	0.196
-433.690	134.879	-0.052	-0.068
-432.676	-188.526	0.140	-0.002
-431.661	-22.557	-0.203	-0.123
-430.646	-0.238	0.151	0.108
-429.632	14.656	0.050	0.039
-428.617	64.675	-0.243	0.246
-427.603	-153.031	0.149	-0.011
-426.588	476.633	-0.023	0.053
-425.573	-200.000	-0.009	0.047
-424.559	-92.149	-0.114	-0.032
-423.544	224.006	0.073	0.119
-422.530	323.822	-0.105	0.202
-421.515	55.243	-0.059	-0.058
-420.500	519.144	0.163	0.383
-419.486	187.168	0.110	-0.164
-418.471	210.525	-0.125	0.197
-417.457	-200.000	-0.036	-0.479
-416.442	59.791	0.132	-0.130
-415.428	-112.506	-0.233	-0.047
-414.413	800.000	0.164	-0.587
-413.398	-67.455	0.362	0.143
-412.384	70.707	0.244	0.254
-411.369	-186.047	0.072	0.001
-410.355	28.613	-0.239	0.203
-409.340	464.961	-0.164	0.369
-408.325	173.015	-0.098	-0.141
-407.311	-185.404	0.124	-0.002
-406.296	52.095	-0.100	-0.096
-405.282	-200.000	-0.025	-0.354
-404.267	778.011	0.141	-0.387
-403.252	-99.178	-0.096	-0.024
-402.238	800.000	-0.037	-0.146
-401.223	-45.414	-0.190	-0.094
-400.209	-200.000	-0.015	0.555
-399.194	-105.682	-0.263	-0.060
-398.179	-55.647	0.392	0.176
-397.165	-152.407	0.160	-0.012
-396.150	800.000	0.102	-0.346
-395.136	237.549	-0.147	-0.244
-394.121	175.383	0.024	0.034
-393.106	170.665	0.129	-0.185
-392.092	-143.980	-0.360	-0.034
-391.077	-130.802	0.218	-0.029
-390.063	-0.970	0.105	0.074
-389.048	-120.391	0.352	0.060
-388.033	-69.329	-0.126	-0.049
-387.019	800.000	0.080	0.241
-386.004	613.340	0.150	0.378
-384.990	482.229	0.160	0.364
-383.975	-19.172	-0.170	-0.106
-382.960	640.043	0.076	-0.194
-381.946	303.982	0.202	0.375
-380.931	48.122	-0.266	0.250
-379.917	-59.670	-0.206	-0.089
-378.902	-139.423	-0.174	-0.019
-377.888	317.920	0.036	-0.068
-376.873	300.892	-0.204	-0.377
-375.858	-50.484	-0.274	0.129
-374.844	-200.000	-0.009	0.047
-373.829	-200.000	-0.021	0.131
-372.815	-200.000	-0.016	-0.497
-371.800	-39.162	0.276	-0.145
-370.785	14.419	-0.211	0.165
-369.771	-51.666	0.265	-0.124
-368.756	-14.763	-0.160	-0.103
-367.742	-110.928	0.094	0.019
-366.727	-200.000	-0.007	-0.129
-365.712	158.564	-0.064	0.089
-364.698	262.484	0.129	-0.225
-363.683	-76.538	-0.240	-0.084
-362.669	-49.391	-0.206	-0.099
-361.654	-200.000	-0.052	0.358
-360.639	597.596	-0.071	-0.177
-359.625	-65.548	0.195	0.079
-358.610	10.746	-0.196	0.150
-357.596	800.000	0.062	-0.224
-356.581	103.686	-0.024	0.029
-355.566	44.861	-0.177	0.164
-354.552	-105.284	0.049	-0.011
-353.537	-80.712	-0.106	-0.035
-352.523	334.246	-0.228	-0.443
-351.508	332.882	-0.122	0.236
-350.493	-97.987	0.329	0.085
-349.479	9.322	0.238	0.180
-348.464	-39.800	-0.071	-0.037
-347.450	-22.603	0.078	0.047
-346.435	176.436	-0.061	0.088
-345.420	-82.024	0.217	0.071
-344.406	-37.650	0.158	0.084
-343.391	35.877	-0.186	0.164
-342.377	800.000	-0.012	0.041
-341.362	163.200	0.147	-0.207
-340.348	65.579	0.230	-0.233
-339.333	-112.251	-0.282	-0.057
-338.318	-99.099	0.041	0.010
-337.304	-200.000	-0.057	0.272
-336.289	-200.000	-0.007	0.201
-335.275	-200.000	0.023	0.112
-334.260	38.401	-0.161	0.144
-333.245	-67.819	-0.092	-0.036
-332.231	-200.000	0.017	0.138
-331.216	-200.000	-0.015	0.224
-330.202	-23.319	-0.313	-0.188
-329.187	366.813	0.142	-0.287
-328.172	-59.282	0.333	-0.144
-327.158	274.241	-0.105	-0.187
-326.143	800.000	-0.045	-0.149
-325.129	800.000	-0.021	-0.088
-324.114	-131.957	-0.363	0.047
-323.099	-51.818	0.159	0.074
-322.085	800.000	-0.048	0.159
-321.070	-41.053	-0.190	0.098
-320.056	-147.777	0.070	0.006
-319.041	-176.462	-0.047	0.001
-318.026	301.385	-0.062	0.115
-317.012	28.747	0.088	0.074
-315.997	271.057	-0.085	0.150
-314.983	-72.453	0.151	-0.056
-313.968	-64.019	0.295	-0.121
-312.953	607.929	-0.122	-0.305
-311.939	227.808	-0.301	0.489
-310.924	-200.000	-0.039	0.269
-309.910	4.566	0.150	0.110
-308.895	-2.978	-0.254	-0.177
-307.880	256.047	-0.085	0.146
-306.866	26.313	0.175	-0.146
-305.851	-87.289	0.061	-0.018
-304.837	-77.555	-0.070	0.024
-303.822	-200.000	0.009	0.483
-302.807	450.980	-0.197	0.435
-301.793	-173.526	0.068	-0.002
-300.778	215.346	-0.099	0.158
-299.764	-63.526	-0.209	0.086
-298.749	-111.525	-0.169	0.034
-297.735	158.184	0.094	-0.130
-296.720	6.086	0.113	-0.084
-295.705	-117.351	-0.237	-0.043
-294.691	-28.300	-0.116	0.067
-293.676	-200.000	0.003	-0.287
-292.662	199.150	0.188	0.288
-291.647	77.504	-0.116	0.124
-290.632	62.182	0.133	-0.132
-289.618	271.658	0.137	0.241
-288.603	31.422	0.126	0.109
-287.589	637.316	0.063	-0.160
-286.574	-72.193	0.165	-0.061
-285.559	-200.000	-0.011	-0.302
-284.545	-70.517	0.206	-0.078
-283.530	-200.000	-0.024	0.283
-282.516	172.580	0.082	0.118
-281.501	11.518	0.202	-0.155
-280.486	-75.723	0.171	0.061
-279.472	40.225	0.109	-0.098
-278.457	9.468	0.296	0.224
-277.443	424.502	0.099	0.212
-276.428	-200.000	0.015	0.170
-275.413	-200.000	-0.029	0.152
-274.399	-200.000	0.133	-0.623
-273.384	-101.430	-0.186	0.045
-272.370	68.756	-0.123	-0.126
-271.355	91.893	0.107	0.120
-270.340	-200.000	0.009	0.063
-269.326	-200.000	0.044	0.221
-268.311	228.868	0.079	-0.129
-267.297	-30.060	0.249	-0.141
-266.282	-29.220	0.133	0.076
-265.267	800.000	0.006	0.025
-264.253	193.658	0.160	0.242
-263.238	407.944	0.007	-0.014
-262.224	-147.824	0.270	-0.023
-261.209	-72.772	-0.114	0.042
-260.195	-28.657	-0.107	0.061
-259.180	-200.000	0.008	-0.195
-258.165	463.184	0.207	0.461
-257.151	167.172	-0.084	-0.118
-256.136	211.507	-0.187	0.293
-255.122	-86.617	-0.160	0.049
-254.107	353.910	-0.079	0.157
-253.092	-28.671	0.122	-0.070
-252.078	204.376	-0.139	-0.215
-251.063	46.624	-0.190	0.176
-250.049	-181.322	-0.341	0.007
-249.034	-130.828	-0.129	0.017
-248.019	202.545	-0.145	-0.223
-247.005	-200.000	0.022	0.127
-245.990	3.355	0.317	0.230
-244.976	-200.000	0.037	0.168
-243.961	800.000	0.100	-0.286
-242.946	800.000	0.047	0.152
-241.932	-139.722	-0.314	0.033
-240.917	11.071	0.214	-0.163
-239.903	-155.984	0.184	0.012
-238.888	-175.756	-0.118	0.003
-237.873	269.547	0.055	-0.096
-236.859	-200.000	-0.001	0.044
-235.844	800.000	0.079	0.286
-234.830	35.277	0.119	0.104
-233.815	472.687	-0.092	-0.207
-232.800	34.505	-0.129	0.112
-231.786	-33.888	0.275	0.151
-230.771	-150.233	-0.187	-0.014
-229.757	92.125	0.241	0.271
-228.742	-114.713	-0.213	-0.041
-227.727	800.000	0.029	0.085
-226.713	-177.931	-0.467	-0.011
-225.698	800.000	-0.067	-0.248
-224.684	128.218	0.165	-0.209
-223.669	-154.290	0.272	-0.018
-222.655	-200.000	-0.023	0.170
-221.640	504.441	-0.056	0.129
-220.625	-98.911	-0.100	0.025
-219.611	24.584	0.081	0.067
-218.596	-200.000	-0.022	-0.101
-217.582	-125.395	-0.111	0.017
-216.567	-200.000	-0.013	-0.117
-215.552	-121.748	0.455	-0.075
-214.538	-200.000	0.046	-0.249
-213.523	-147.254	-0.281	0.024
-212.509	-200.000	0.005	-0.091
-211.494	48.763	0.171	0.160
-210.479	40.066	0.182	-0.163
-209.465	358.950	0.040	0.079
-208.450	-200.000	0.000	0.088
-207.436	-48.102	-0.092	-0.044
-206.421	569.192	0.101	0.245
-205.406	280.176	-0.081	-0.144
-204.392	-200.000	0.023	-0.484
-203.377	-127.033	-0.252	0.037
-202.363	-53.247	-0.258	0.118
-201.348	800.000	0.163	0.528
-200.333	558.569	-0.060	0.143
-199.319	130.065	-0.095	-0.121
-198.304	-200.000	-0.002	0.057
-197.290	-23.879	0.045	0.027
-196.275	-38.186	-0.401	-0.212
-195.260	800.000	-0.033	0.135
-194.246	768.376	-0.089	0.240
-193.231	-153.594	-0.136	-0.009
-192.217	-200.000	-0.006	-0.119
-191.202	74.824	-0.149	0.156
-190.187	-200.000	0.051	-0.297
-189.173	13.945	-0.144	-0.112
-188.158	62.962	0.184	-0.183
-187.144	-117.402	0.112	-0.020
-186.129	-152.409	0.228	-0.016
-185.114	-133.324	0.182	-0.023
-184.100	464.071	-0.147	-0.327
-183.085	800.000	0.082	-0.237
-182.071	-200.000	-0.024	-0.368
-181.056	-200.000	0.032	-0.450
-180.042	-57.985	0.138	0.060
-179.027	-200.000	0.008	-0.116
-178.012	-200.000	-0.023	0.323
-176.998	800.000	0.027	0.118
-175.983	-118.849	-0.239	-0.042
-174.969	87.502	-0.205	-0.226
-173.954	207.546	0.127	0.198
-172.939	-200.000	-0.024	0.267
-171.925	-136.690	0.173	-0.020
-170.910	323.343	0.111	-0.211
-169.896	-129.954	-0.216	0.029
-168.881	192.362	0.037	0.056
-167.866	120.723	-0.081	0.100
-166.852	-200.000	0.012	-0.203
-165.837	800.000	-0.045	0.146
-164.823	119.888	0.028	-0.035
-163.808	-57.395	0.365	-0.159
-162.793	800.000	-0.056	-0.184
-161.779	800.000	-0.040	0.128
-160.764	86.167	0.285	0.313
-159.750	-96.573	-0.222	0.058
-158.735	47.235	-0.106	0.098
-157.720	16.875	-0.223	-0.175
-156.706	-200.000	0.033	-0.287
-155.691	120.880	-0.140	0.173
-154.677	125.899	-0.037	-0.047
-153.662	-101.308	-0.211	0.051
-152.647	-121.118	0.416	-0.069
-151.633	45.722	0.141	0.129
-150.618	-42.174	0.246	-0.125
-149.604	-200.000	0.023	0.128
-148.589	489.422	-0.049	-0.111
-147.574	-21.582	0.082	0.050
-146.560	-50.620	-0.380	0.178
-145.545	318.682	0.074	0.140
-144.531	6.146	0.211	-0.155
-143.516	800.000	0.070	0.201
-142.502	52.818	0.192	-0.183
-141.487	-31.690	0.180	-0.100
-140.472	-145.676	-0.298	-0.026
-139.458	266.356	0.188	0.326
-138.443	-200.000	-0.001	-0.053
-137.429	-13.001	0.447	0.289
-136.414	-34.012	-0.267	-0.146
-135.399	-147.495	0.170	-0.014
-134.385	-200.000	-0.418	-0.001
-133.370	-85.434	-0.222	0.069
-132.356	-110.021	-0.316	-0.066
-131.341	-70.661	0.090	0.034
-130.326	-81.635	0.242	0.079
-129.312	-200.000	-0.028	0.193
-128.297	169.961	0.058	-0.082
-127.283	160.456	0.115	0.160
-126.268	800.000	0.084	0.335
-125.253	-65.551	-0.271	-0.108
-124.239	187.712	0.223	-0.331
-123.224	800.000	-0.044	-0.138
-122.210	-67.950	-0.283	0.110
-121.195	800.000	0.074	0.261
-120.180	-200.000	-0.045	0.368
