DTS Sentinel unit serial number:	SN413079Multiplexer serial number:	ORYXHardware model number:	OX4-SRSoftware version number:	ORYX F/W v4.00 Oryx Data Collector v3.7.2.0data status	okinstallation	princeton_trtdifferential loss correction	single-endedforward channel	channel 1reverse channel	N/Adate	2019/09/17time	08:34:35forward acquisition time	60.00reverse acquisition time	0.00gamma	496.2192k internal	0.2328k external	0.2328temperature offset calibration	0.9964default loss term (dB/km)	0.3790temperature slope calibration	1.0000multiplexer offset coefficient	1.0000multiplexer slope coefficient	1.0000fibre end	0.00T internal ref (°C)	27.62T ext. ref 1 (°C)	0.13T ext. ref 2 (°C)	23.17length (m)	temperature (°C)	Stokes	anti-Stokes-747.200	269.039	-0.113	0.201
-746.185	-37.390	-0.462	0.248
-745.171	-124.667	-0.153	-0.024
-744.156	-0.318	-0.094	0.067
-743.142	-24.941	0.248	-0.148
-742.127	398.028	0.080	0.169
-741.112	800.000	-0.070	0.274
-740.098	320.540	0.106	-0.203
-739.083	41.328	0.077	0.070
-738.069	-200.000	-0.001	0.456
-737.054	-200.000	-0.000	0.274
-736.039	-150.124	-0.135	0.011
-735.025	-186.778	0.238	-0.003
-734.010	165.770	0.071	0.100
-732.996	-78.320	-0.395	-0.136
-731.981	-200.000	-0.019	0.166
-730.966	18.273	0.266	0.214
-729.952	108.426	-0.097	0.117
-728.937	74.516	-0.247	-0.262
-727.923	-200.000	-0.089	-0.509
-726.908	800.000	0.019	0.070
-725.894	-160.421	-0.193	0.010
-724.879	46.110	0.121	0.113
-723.864	-70.302	0.214	0.082
-722.850	-163.213	-0.437	0.021
-721.835	-142.978	-0.280	-0.027
-720.821	-7.488	0.339	-0.231
-719.806	800.000	-0.039	0.159
-718.791	-16.691	0.179	-0.114
-717.777	-96.172	0.111	-0.030
-716.762	-128.845	-0.326	-0.046
-715.748	-200.000	0.025	0.124
-714.733	510.526	-0.082	0.193
-713.718	788.735	-0.026	0.071
-712.704	-200.000	-0.004	-0.044
-711.689	247.835	-0.132	0.224
-710.675	-32.696	0.129	-0.072
-709.660	543.172	0.073	0.175
-708.645	235.965	0.221	0.368
-707.631	255.909	-0.127	-0.220
-706.616	-200.000	0.012	-0.065
-705.602	-79.868	-0.277	-0.094
-704.587	-131.443	-0.218	-0.029
-703.572	-119.525	0.305	0.053
-702.558	231.075	-0.097	0.160
-701.543	800.000	0.043	-0.130
-700.529	-200.000	0.041	0.280
-699.514	680.816	0.181	0.475
-698.499	-102.032	0.273	0.066
-697.485	-90.835	-0.137	-0.040
-696.470	-36.284	-0.439	-0.238
-695.456	-200.000	-0.020	0.127
-694.441	-138.335	-0.190	0.021
-693.426	284.667	0.124	0.224
-692.412	-20.728	-0.254	0.157
-691.397	649.442	-0.034	-0.087
-690.383	-24.759	0.059	-0.035
-689.368	-56.082	-0.244	0.109
-688.354	800.000	-0.122	-0.344
-687.339	632.198	-0.077	0.197
-686.324	536.309	0.076	0.182
-685.310	10.659	-0.229	0.175
-684.295	-57.008	-0.068	-0.030
-683.281	-105.262	0.382	-0.088
-682.266	93.577	-0.154	-0.175
-681.251	755.662	-0.103	0.279
-680.237	313.738	0.162	0.307
-679.222	-51.303	-0.065	-0.031
-678.208	-200.000	-0.036	0.252
-677.193	-99.366	-0.161	0.041
-676.178	800.000	-0.100	-0.400
-675.164	-30.012	-0.279	0.160
-674.149	320.546	0.095	-0.180
-673.135	-18.843	0.433	-0.271
-672.120	10.408	-0.153	0.117
-671.105	800.000	0.039	0.168
-670.091	-162.535	-0.254	-0.013
-669.076	-125.091	-0.229	0.035
-668.062	97.304	0.081	0.094
-667.047	604.693	0.094	-0.236
-666.032	-200.000	-0.004	-0.140
-665.018	-8.396	0.076	0.051
-664.003	-200.000	-0.026	-0.180
-662.989	-75.828	0.149	0.053
-661.974	457.861	0.100	0.222
-660.959	-43.320	0.213	0.108
-659.945	-69.061	-0.307	0.119
-658.930	-170.918	-0.092	0.003
-657.916	-200.000	-0.016	-0.222
-656.901	-139.689	0.104	-0.011
-655.886	163.356	0.123	0.174
-654.872	28.671	0.255	0.217
-653.857	20.477	0.040	-0.032
-652.843	800.000	-0.099	-0.394
-651.828	-114.688	-0.166	-0.032
-650.814	-8.493	-0.114	-0.077
-649.799	-108.785	0.159	0.034
-648.784	-91.592	-0.334	-0.095
-647.770	-91.710	-0.432	0.123
-646.755	-200.000	0.062	-0.541
-645.741	56.777	-0.180	0.176
-644.726	-26.207	-0.136	-0.080
-643.711	182.435	-0.084	-0.124
-642.697	800.000	-0.012	0.045
-641.682	77.088	0.152	0.162
-640.668	-200.000	0.003	0.102
-639.653	-90.398	-0.072	0.021
-638.638	5.736	-0.164	0.122
-637.624	800.000	0.064	0.240
-636.609	800.000	-0.091	-0.327
-635.595	-155.413	-0.101	0.007
-634.580	800.000	-0.021	-0.090
-633.565	-200.000	-0.005	-0.211
-632.551	82.352	-0.195	-0.212
-631.536	-200.000	0.007	-0.034
-630.522	800.000	0.027	-0.114
-629.507	25.531	-0.280	-0.234
-628.492	800.000	0.099	-0.342
-627.478	456.962	0.071	-0.159
-626.463	-124.418	0.548	-0.086
-625.449	-200.000	-0.004	-0.241
-624.434	123.499	-0.052	0.066
-623.419	433.271	0.131	0.285
-622.405	-82.639	0.396	0.129
-621.390	314.981	-0.073	0.138
-620.376	585.169	-0.090	0.221
-619.361	-200.000	-0.055	-0.256
-618.346	-148.106	0.203	0.017
-617.332	111.066	0.060	-0.073
-616.317	-125.404	0.293	-0.045
-615.303	-200.000	-0.004	-0.018
-614.288	44.111	0.173	-0.159
-613.273	-95.583	0.440	0.118
-612.259	-200.000	-0.015	-0.168
-611.244	-109.889	0.147	0.031
-610.230	-145.941	-0.128	0.011
-609.215	-109.598	0.108	0.023
-608.201	271.652	0.120	0.212
-607.186	172.084	-0.095	-0.137
-606.171	-53.767	-0.303	0.139
-605.157	-54.937	0.285	0.129
-604.142	-200.000	-0.063	0.283
-603.128	-85.379	0.162	0.051
-602.113	-14.125	-0.043	-0.028
-601.098	-98.832	-0.076	-0.019
-600.084	-141.512	0.320	0.032
-599.069	27.221	-0.179	0.151
-598.055	-152.476	0.094	0.007
-597.040	6.998	0.155	-0.116
-596.025	-123.301	-0.172	0.028
-595.011	-200.000	-0.009	0.266
-593.996	445.705	0.131	-0.287
-592.982	-35.485	-0.608	-0.331
-591.967	597.496	0.019	-0.046
-590.952	69.809	-0.086	-0.089
-589.938	96.797	0.111	0.128
-588.923	-20.004	-0.467	-0.288
-587.909	800.000	0.082	0.336
-586.894	25.099	0.277	-0.230
-585.879	55.278	-0.262	-0.254
-584.865	689.066	0.043	0.112
-583.850	-200.000	0.009	-0.156
-582.836	-70.804	0.226	-0.085
-581.821	415.066	-0.051	-0.109
-580.806	-77.289	0.195	0.068
-579.792	-93.983	-0.323	0.089
-578.777	-156.824	0.267	-0.016
-577.763	79.615	-0.072	-0.078
-576.748	800.000	-0.096	-0.271
-575.733	166.509	0.080	-0.113
-574.719	-200.000	0.020	0.196
-573.704	55.710	-0.152	-0.147
-572.690	-200.000	-0.011	0.308
-571.675	800.000	0.061	0.194
-570.661	-67.374	-0.187	-0.073
-569.646	11.743	-0.158	-0.121
-568.631	800.000	-0.071	-0.294
-567.617	80.875	0.148	-0.160
-566.602	-62.694	-0.215	-0.089
-565.588	-33.939	0.333	-0.183
-564.573	113.190	-0.060	0.073
-563.558	59.962	0.075	-0.074
-562.544	-200.000	0.025	0.319
-561.529	54.122	-0.066	-0.063
-560.515	-118.492	-0.435	0.077
-559.500	143.018	-0.184	0.245
-558.485	47.164	-0.171	0.159
-557.471	326.890	0.080	-0.153
-556.456	116.032	-0.051	0.063
-555.442	169.331	-0.144	0.206
-554.427	109.731	-0.066	-0.080
-553.412	-21.743	0.074	-0.045
-552.398	-200.000	0.010	-0.229
-551.383	-200.000	-0.057	-0.272
-550.369	-4.841	0.088	-0.061
-549.354	-200.000	-0.021	0.327
-548.339	742.798	0.103	-0.277
-547.325	-66.308	-0.146	0.058
-546.310	181.793	-0.178	0.263
-545.296	48.285	-0.149	-0.140
-544.281	222.686	-0.072	0.117
-543.266	-200.000	-0.010	-0.207
-542.252	800.000	0.051	0.162
-541.237	29.130	-0.293	-0.248
-540.223	-200.000	0.044	-0.402
-539.208	145.280	-0.081	-0.109
-538.193	-75.571	0.394	-0.140
-537.179	55.600	-0.157	-0.152
-536.164	22.481	0.175	-0.143
-535.150	767.550	-0.076	0.207
-534.135	-63.930	0.317	0.129
-533.121	216.925	0.029	-0.046
-532.106	443.768	0.052	0.113
-531.091	41.912	0.285	-0.259
-530.077	36.084	-0.303	-0.267
-529.062	371.487	0.027	0.055
-528.048	17.545	-0.169	0.134
-527.033	-131.838	0.471	-0.062
-526.018	-200.000	-0.041	-0.457
-525.004	94.957	-0.191	-0.217
-523.989	-200.000	0.025	0.178
-522.975	67.996	-0.197	-0.202
-521.960	-59.322	-0.089	0.038
-520.945	696.366	0.054	-0.143
-519.931	182.356	0.134	-0.197
-518.916	185.365	-0.177	0.263
-517.902	800.000	-0.073	-0.212
-516.887	-200.000	0.002	0.010
-515.872	-69.954	0.349	0.133
-514.858	-102.448	0.166	-0.040
-513.843	25.711	0.111	0.092
-512.829	-200.000	0.012	0.084
-511.814	18.956	-0.159	-0.127
-510.799	360.408	0.073	-0.146
-509.785	-11.443	-0.062	0.041
-508.770	73.049	0.036	0.038
-507.756	131.203	-0.114	-0.146
-506.741	-141.323	-0.355	0.036
-505.726	-154.699	0.264	-0.017
-504.712	380.822	0.059	0.121
-503.697	800.000	-0.051	-0.209
-502.683	441.933	0.108	0.237
-501.668	162.430	-0.101	-0.142
-500.653	135.362	-0.134	-0.174
-499.639	687.636	-0.056	-0.147
-498.624	-54.246	0.140	-0.063
-497.610	-185.707	0.122	0.002
-496.595	2.665	-0.432	0.313
-495.581	331.505	0.148	-0.284
-494.566	-200.000	-0.070	-0.361
-493.551	118.993	-0.186	-0.230
-492.537	-122.944	0.194	0.031
-491.522	46.243	0.137	-0.127
-490.508	698.748	-0.120	-0.314
-489.493	-200.000	0.040	-0.192
-488.478	-200.000	-0.029	-0.177
-487.464	-200.000	0.028	0.191
-486.449	-80.517	0.238	0.079
-485.435	-200.000	0.028	0.232
-484.420	-58.960	0.136	0.058
-483.405	-200.000	0.004	-0.121
-482.391	6.817	-0.237	-0.176
-481.376	-37.253	-0.259	0.138
-480.362	-26.165	-0.165	-0.097
-479.347	557.678	0.122	-0.293
-478.332	107.420	-0.158	0.187
-477.318	61.937	-0.239	-0.238
-476.303	314.430	0.218	-0.409
-475.289	8.170	0.164	0.123
-474.274	-144.050	-0.519	-0.049
-473.259	800.000	-0.032	-0.136
-472.245	-103.876	-0.244	0.057
-471.230	131.723	-0.030	-0.038
-470.216	144.079	0.176	0.234
-469.201	800.000	-0.077	0.238
-468.186	88.961	-0.045	-0.050
-467.172	54.371	0.307	-0.295
-466.157	-53.732	-0.507	-0.231
-465.143	-107.250	-0.274	0.060
-464.128	-55.980	-0.251	0.112
-463.113	211.034	0.083	0.130
-462.099	800.000	-0.084	0.248
-461.084	800.000	-0.058	0.220
-460.070	800.000	0.024	0.078
-459.055	-67.780	0.192	-0.075
-458.040	-88.859	0.190	0.056
-457.026	-200.000	-0.020	-0.164
-456.011	-132.083	0.178	0.023
-454.997	-138.712	0.034	-0.004
-453.982	131.088	-0.038	0.049
-452.968	-144.210	0.309	0.029
-451.953	-103.988	-0.078	-0.018
-450.938	-200.000	0.000	-0.132
-449.924	-16.645	0.236	-0.149
-448.909	413.103	-0.085	-0.180
-447.895	42.935	0.201	0.182
-446.880	90.237	0.035	0.039
-445.865	-200.000	-0.031	-0.264
-444.851	-200.000	0.005	-0.141
-443.836	-69.273	0.323	-0.124
-442.822	215.746	-0.209	-0.331
-441.807	239.472	0.036	-0.059
-440.792	-126.676	-0.134	0.020
-439.778	606.348	-0.010	0.026
-438.763	275.133	-0.030	-0.052
-437.749	800.000	-0.104	-0.298
-436.734	800.000	0.115	0.352
-435.719	179.195	0.098	-0.142
-434.705	800.000	-0.065	0.258
-433.690	752.180	0.117	-0.315
-432.676	65.103	0.228	0.230
-431.661	176.388	-0.148	-0.213
-430.646	-200.000	-0.004	0.022
-429.632	-126.128	-0.183	-0.027
-428.617	60.294	-0.097	-0.096
-427.603	-100.743	0.340	0.083
-426.588	800.000	-0.050	-0.194
-425.573	128.621	-0.141	-0.179
-424.559	-200.000	-0.037	0.367
-423.544	-48.910	-0.183	0.087
-422.530	-189.066	0.191	0.002
-421.515	-77.879	0.094	0.032
-420.500	128.386	-0.244	0.309
-419.486	-200.000	0.005	0.137
-418.471	0.152	0.053	0.037
-417.457	770.169	0.090	0.243
-416.442	55.562	0.296	0.285
-415.428	800.000	-0.034	-0.125
-414.413	-9.049	-0.134	0.089
-413.398	157.644	-0.169	-0.233
-412.384	582.048	0.110	-0.268
-411.369	800.000	0.064	0.252
-410.355	-66.694	0.312	-0.123
-409.340	-24.274	-0.160	-0.095
-408.325	800.000	-0.064	-0.233
-407.311	-133.437	-0.137	0.017
-406.296	360.163	-0.088	-0.175
-405.282	302.079	0.071	-0.131
-404.267	-200.000	0.014	-0.076
-403.252	-2.138	-0.306	0.214
-402.238	-38.341	-0.239	0.126
-401.223	-26.124	0.282	-0.165
-400.209	318.021	0.124	-0.234
-399.194	75.563	0.138	-0.145
-398.179	-2.739	-0.383	0.266
-397.165	127.944	-0.029	-0.037
-396.150	-77.908	-0.084	0.029
-395.136	800.000	0.133	0.404
-394.121	194.365	-0.047	-0.070
-393.106	46.998	-0.255	-0.235
-392.092	-200.000	-0.043	0.224
-391.077	194.612	-0.182	-0.275
-390.063	-102.417	0.248	-0.059
-389.048	265.496	0.073	0.126
-388.033	0.062	0.121	-0.086
-387.019	-200.000	-0.011	0.442
-386.004	-200.000	-0.011	0.177
-384.990	343.497	-0.232	0.451
-383.975	-37.645	0.153	0.081
-382.960	441.907	0.144	0.314
-381.946	-200.000	-0.092	0.469
-380.931	669.752	-0.099	0.254
-379.917	-104.917	0.238	-0.054
-378.902	107.080	0.278	-0.328
-377.888	-54.262	-0.384	0.173
-376.873	12.514	-0.140	0.107
-375.858	579.163	0.039	-0.095
-374.844	74.063	-0.173	-0.180
-373.829	101.685	-0.341	0.395
-372.815	162.341	-0.044	-0.061
-371.800	800.000	-0.074	0.284
-370.785	-200.000	0.116	0.538
-369.771	769.397	0.143	-0.386
-368.756	277.307	-0.153	-0.270
-367.742	130.582	0.055	0.070
-366.727	-26.253	0.358	0.209
-365.712	200.028	0.085	0.129
-364.698	15.328	0.063	0.049
-363.683	498.953	0.051	-0.117
-362.669	-200.000	0.009	-0.195
-361.654	131.038	-0.090	-0.115
-360.639	45.929	-0.138	-0.127
-359.625	-200.000	0.000	0.044
-358.610	67.874	-0.152	-0.154
-357.596	-58.627	-0.330	0.142
-356.581	461.786	0.169	-0.373
-355.566	-101.476	0.210	-0.051
-354.552	-194.200	-0.087	-0.001
-353.537	172.952	-0.209	0.299
-352.523	800.000	0.061	-0.166
-351.508	-54.137	0.033	-0.015
-350.493	475.301	0.195	-0.437
-349.479	-45.187	0.156	0.077
-348.464	141.129	-0.324	-0.425
-347.450	589.947	-0.138	0.338
-346.435	-11.273	0.171	0.112
-345.420	-12.354	0.199	0.129
-344.406	-100.836	0.279	0.068
-343.391	-59.532	-0.179	-0.076
-342.377	-122.863	-0.324	-0.052
-341.362	109.219	-0.145	-0.172
-340.348	318.322	0.088	-0.166
-339.333	-128.574	0.366	0.051
-338.318	-200.000	0.039	-0.290
-337.304	114.683	-0.175	-0.211
-336.289	-200.000	0.051	0.385
-335.275	800.000	-0.039	0.115
-334.260	-200.000	0.004	-0.115
-333.245	327.718	-0.070	0.133
-332.231	238.942	-0.072	0.119
-331.216	-127.973	-0.287	0.041
-330.202	152.662	0.224	0.304
-329.187	-36.871	-0.296	0.157
-328.172	43.160	-0.245	-0.221
-327.158	-132.510	-0.358	-0.046
-326.143	-200.000	-0.003	0.481
-325.129	800.000	-0.072	-0.260
-324.114	-105.259	0.153	-0.035
-323.099	-6.413	0.061	-0.041
-322.085	-200.000	0.014	-0.144
-321.070	-53.944	0.090	-0.041
-320.056	-64.721	-0.120	0.048
-319.041	100.847	-0.206	0.237
-318.026	-200.000	0.019	0.106
-317.012	-96.893	0.138	-0.036
-315.997	-79.081	-0.153	0.052
-314.983	-23.819	0.180	0.107
-313.968	167.946	0.128	0.181
-312.953	517.899	0.054	-0.125
-311.939	215.775	0.214	-0.337
-310.924	-200.000	0.032	-0.199
-309.910	188.688	-0.075	-0.111
-308.895	-11.492	0.058	0.037
-307.880	-3.238	0.133	0.092
-306.866	33.629	-0.207	0.178
-305.851	450.408	0.107	0.234
-304.837	5.199	-0.060	-0.044
-303.822	105.716	0.207	0.242
-302.807	-200.000	-0.001	-0.072
-301.793	135.360	0.075	-0.097
-300.778	-1.326	0.183	-0.128
-299.764	-200.000	-0.025	-0.192
-298.749	-79.391	0.106	0.036
-297.735	-151.882	0.150	0.011
-296.720	-135.918	-0.327	-0.038
-295.705	223.270	0.075	0.120
-294.691	51.028	-0.132	0.124
-293.676	404.840	0.043	0.090
-292.662	-100.026	-0.193	0.048
-291.647	-19.437	-0.236	-0.145
-290.632	-200.000	-0.068	-0.322
-289.618	-200.000	0.025	0.216
-288.603	-55.984	-0.328	-0.145
-287.589	14.794	-0.290	0.224
-286.574	-22.373	0.079	0.047
-285.559	-67.390	0.536	0.208
-284.545	-60.009	0.100	0.042
-283.530	238.593	-0.230	0.378
-282.516	-94.571	0.445	0.120
-281.501	258.310	0.167	0.285
-280.486	-166.010	0.101	-0.004
-279.472	-111.055	-0.264	0.054
-278.457	-200.000	0.024	0.216
-277.443	86.150	-0.152	-0.165
-276.428	800.000	0.055	0.216
-275.413	-200.000	0.024	-0.182
-274.399	-174.737	0.156	0.004
-273.384	-45.281	-0.343	0.168
-272.370	-23.230	0.499	0.297
-271.355	-71.993	0.208	-0.076
-270.340	-60.238	-0.165	-0.069
-269.326	22.039	0.202	0.163
-268.311	-124.826	-0.470	0.072
-267.297	-86.109	0.254	0.077
-266.282	76.744	-0.183	0.192
-265.267	-163.516	0.440	-0.021
-264.253	-200.000	0.092	0.443
-263.238	-200.000	0.067	0.356
-262.224	-109.205	0.216	-0.045
-261.209	260.189	0.150	0.257
-260.195	-200.000	-0.025	-0.200
-259.180	-200.000	-0.004	-0.251
-258.165	-200.000	-0.006	-0.106
-257.151	352.199	0.096	-0.188
-256.136	-91.012	-0.155	0.044
-255.122	78.849	-0.050	-0.053
-254.107	471.291	-0.143	0.317
-253.092	-15.896	0.218	0.137
-252.078	-20.277	-0.181	0.110
-251.063	-200.000	0.008	0.104
-250.049	102.051	-0.044	0.051
-249.034	800.000	0.087	-0.366
-248.019	-36.657	-0.159	0.085
-247.005	522.617	0.113	-0.262
-245.990	-27.339	-0.159	-0.091
-244.976	56.289	0.154	0.148
-243.961	126.525	0.227	-0.284
-242.946	-193.968	0.122	-0.001
-241.932	42.603	0.157	-0.142
-240.917	-200.000	-0.001	0.375
-239.903	45.880	0.138	0.126
-238.888	-200.000	0.007	0.266
-237.873	577.646	-0.114	0.276
-236.859	800.000	0.068	0.217
-235.844	-200.000	-0.018	-0.389
-234.830	-200.000	0.067	-0.362
-233.815	-200.000	-0.033	0.273
-232.800	277.669	0.218	0.383
-231.786	-94.548	0.319	-0.086
-230.771	-51.094	0.373	0.173
-229.757	82.745	0.211	0.227
-228.742	-164.862	-0.192	0.009
-227.727	95.089	0.196	-0.221
-226.713	34.574	0.233	-0.201
-225.698	-90.871	0.314	-0.089
-224.684	-95.285	0.105	0.028
-223.669	64.993	0.089	-0.089
-222.655	800.000	-0.020	0.067
-221.640	190.730	0.140	-0.207
-220.625	-200.000	-0.017	0.164
-219.611	104.685	0.087	0.102
-218.596	10.745	-0.125	0.094
-217.582	108.789	0.233	-0.275
-216.567	-129.832	-0.230	0.031
-215.552	-123.141	0.257	0.041
-214.538	-33.887	-0.195	-0.106
-213.523	800.000	-0.072	-0.202
-212.509	502.272	-0.112	-0.255
-211.494	301.085	-0.200	0.364
-210.479	-200.000	0.191	0.001
-209.465	800.000	0.060	0.177
-208.450	42.943	0.120	-0.108
-207.436	-200.000	0.017	-0.137
-206.421	-200.000	0.077	0.436
-205.406	602.685	0.038	0.093
-204.392	90.186	0.028	0.031
-203.377	-14.573	0.225	0.143
-202.363	-36.230	-0.290	-0.154
-201.348	81.940	-0.186	-0.199
-200.333	-200.000	-0.010	-0.076
-199.319	-200.000	0.008	-0.091
-198.304	57.461	0.117	-0.113
-197.290	84.252	-0.112	0.120
-196.275	-200.000	-0.002	0.074
-195.260	-10.038	0.078	-0.051
-194.246	62.456	-0.081	0.080
-193.231	34.225	-0.132	-0.113
-192.217	2.137	-0.219	0.156
-191.202	-34.556	0.292	-0.158
-190.187	538.912	-0.094	-0.221
-189.173	-200.000	-0.017	-0.194
-188.158	800.000	-0.070	0.259
-187.144	-153.413	0.146	0.010
-186.129	-90.598	0.277	0.079
-185.114	-200.000	-0.017	0.103
-184.100	-200.000	-0.060	-0.319
-183.085	-15.021	-0.098	-0.062
-182.071	800.000	-0.159	0.615
-181.056	-4.172	-0.092	-0.063
-180.042	753.019	-0.059	0.158
-179.027	340.104	0.056	0.108
-178.012	-43.459	0.037	0.018
-176.998	205.699	-0.121	-0.186
-175.983	183.595	0.078	0.114
-174.969	363.573	0.141	0.279
-173.954	353.733	0.119	0.234
-172.939	-200.000	-0.027	0.166
-171.925	-44.969	-0.294	-0.144
-170.910	174.672	0.040	-0.056
-169.896	-145.738	0.105	0.009
-168.881	205.099	-0.017	0.026
-167.866	789.578	-0.032	0.086
-166.852	-182.356	-0.095	-0.002
-165.837	-105.263	-0.119	0.027
-164.823	-170.763	0.130	-0.004
-163.808	-200.000	-0.022	0.225
-162.793	-200.000	-0.017	-0.187
-161.779	800.000	0.072	0.238
-160.764	-61.355	-0.237	-0.098
-159.750	800.000	-0.081	0.273
-158.735	-27.088	0.154	-0.088
-157.720	-200.000	-0.016	-0.082
-156.706	27.715	-0.262	0.217
-155.691	30.015	-0.174	0.146
-154.677	320.878	0.131	0.245
-153.662	-83.175	-0.117	0.037
-152.647	-74.382	0.269	0.096
-151.633	-11.303	-0.135	-0.087
-150.618	131.927	-0.136	-0.173
-149.604	-159.326	-0.061	-0.003
-148.589	800.000	-0.034	-0.106
-147.574	-95.607	0.203	-0.053
-146.560	-170.301	-0.213	-0.007
-145.545	-85.636	0.477	0.146
-144.531	-19.860	-0.084	0.051
-143.516	359.432	0.042	0.082
-142.502	21.909	0.064	-0.051
-141.487	18.037	-0.135	0.106
-140.472	-200.000	-0.057	-0.387
-139.458	-3.477	0.233	-0.159
-138.443	79.767	-0.162	-0.171
-137.429	800.000	0.055	0.201
-136.414	-200.000	0.041	-0.284
-135.399	69.303	-0.191	0.194
-134.385	-10.349	0.114	-0.074
-133.370	94.890	-0.070	-0.078
-132.356	-200.000	-0.014	-0.177
-131.341	43.063	0.045	0.041
-130.326	258.710	-0.150	-0.254
-129.312	-41.929	-0.258	-0.130
-128.297	-200.000	-0.031	0.221
-127.283	800.000	0.073	0.225
-126.268	64.374	0.048	0.047
-125.253	-200.000	0.006	0.049
-124.239	23.176	0.209	-0.169
-123.224	-89.162	0.188	-0.054
-122.210	184.368	-0.111	-0.162
-121.195	312.479	0.088	-0.162
