DTS Sentinel unit serial number:	SN413079Multiplexer serial number:	ORYXHardware model number:	OX4-SRSoftware version number:	ORYX F/W v4.00 Oryx Data Collector v3.7.2.0data status	okinstallation	princeton_trtdifferential loss correction	single-endedforward channel	channel 1reverse channel	N/Adate	2019/09/13time	02:02:35forward acquisition time	60.00reverse acquisition time	0.00gamma	496.2192k internal	0.2331k external	0.2331temperature offset calibration	1.0151default loss term (dB/km)	0.3790temperature slope calibration	1.0000multiplexer offset coefficient	1.0000multiplexer slope coefficient	1.0000fibre end	0.00T internal ref (°C)	27.62T ext. ref 1 (°C)	3.85T ext. ref 2 (°C)	22.20length (m)	temperature (°C)	Stokes	anti-Stokes-747.200	-137.348	-0.262	0.030
-746.185	69.684	0.110	0.114
-745.171	-56.365	0.174	-0.078
-744.156	292.674	-0.094	0.173
-743.142	-132.371	-0.202	-0.026
-742.127	-200.000	0.055	0.283
-741.112	-200.000	-0.056	-0.385
-740.098	-108.322	-0.091	0.020
-739.083	124.497	-0.098	-0.124
-738.069	-125.835	0.111	0.017
-737.054	105.622	-0.219	-0.260
-736.039	-10.200	-0.073	0.049
-735.025	-81.889	0.143	0.047
-734.010	-46.057	-0.142	-0.070
-732.996	-0.157	0.280	-0.200
-731.981	-3.277	0.118	-0.083
-730.966	800.000	-0.040	0.130
-729.952	-200.000	0.074	-0.347
-728.937	-87.519	-0.191	0.058
-727.923	269.772	0.051	-0.090
-726.908	207.184	0.035	0.054
-725.894	7.401	0.095	0.072
-724.879	-114.732	0.084	-0.016
-723.864	-37.358	-0.265	-0.142
-722.850	40.580	-0.141	-0.127
-721.835	45.380	-0.121	-0.112
-720.821	-61.613	-0.440	-0.186
-719.806	-200.000	-0.013	0.135
-718.791	-200.000	-0.063	-0.302
-717.777	237.110	-0.081	-0.135
-716.762	-85.290	-0.450	0.141
-715.748	424.231	0.044	0.094
-714.733	-2.315	-0.288	0.203
-713.718	-47.545	-0.371	0.181
-712.704	289.762	-0.152	-0.278
-711.689	-31.984	0.196	0.111
-710.675	-200.000	0.084	0.484
-709.660	-61.871	-0.214	0.090
-708.645	-28.777	-0.250	-0.144
-707.631	800.000	0.085	-0.246
-706.616	-66.154	-0.251	-0.101
-705.602	-53.379	0.180	-0.083
-704.587	800.000	-0.095	-0.294
-703.572	800.000	0.078	0.308
-702.558	628.740	-0.051	-0.130
-701.543	-32.731	0.210	-0.117
-700.529	287.517	-0.048	-0.087
-699.514	-200.000	0.005	0.068
-698.499	-115.062	0.030	0.006
-697.485	-47.518	-0.146	0.071
-696.470	800.000	-0.195	0.635
-695.456	-200.000	-0.013	0.195
-694.441	-20.535	-0.072	-0.044
-693.426	152.565	-0.027	-0.037
-692.412	769.961	-0.016	-0.044
-691.397	44.391	-0.040	0.037
-690.383	-55.947	-0.502	-0.225
-689.368	-200.000	0.011	0.118
-688.354	44.052	0.305	0.281
-687.339	619.488	-0.071	0.180
-686.324	-80.336	-0.216	0.072
-685.310	634.687	0.102	-0.260
-684.295	-98.606	0.203	-0.052
-683.281	-84.957	0.088	0.028
-682.266	-200.000	-0.023	0.171
-681.251	-132.617	-0.358	0.046
-680.237	-75.528	-0.087	0.031
-679.222	323.330	0.054	-0.103
-678.208	731.702	-0.033	0.090
-677.193	-97.230	-0.195	-0.051
-676.178	28.782	0.097	-0.082
-675.164	-51.270	0.111	0.052
-674.149	-57.151	0.445	-0.197
-673.135	34.299	0.054	-0.047
-672.120	130.174	-0.060	-0.078
-671.105	513.584	-0.063	0.148
-670.091	800.000	-0.023	0.070
-669.076	-115.695	-0.288	0.054
-668.062	619.550	-0.048	0.120
-667.047	-200.000	-0.167	-0.001
-666.032	297.868	0.032	0.059
-665.018	-200.000	-0.000	0.091
-664.003	104.442	-0.097	-0.114
-662.989	500.296	0.076	-0.177
-661.974	-44.558	-0.210	-0.105
-660.959	-200.000	0.042	0.404
-659.945	800.000	0.025	0.087
-658.930	-200.000	0.020	-0.162
-657.916	-76.653	-0.150	-0.053
-656.901	800.000	-0.097	-0.321
-655.886	171.611	0.077	0.111
-654.872	-27.484	0.364	0.212
-653.857	63.318	0.235	0.237
-652.843	-42.292	0.317	0.163
-651.828	-58.567	-0.162	0.071
-650.814	800.000	-0.039	0.142
-649.799	29.086	0.053	0.045
-648.784	-124.925	-0.073	-0.011
-647.770	-81.218	-0.322	-0.107
-646.755	67.300	-0.295	-0.302
-645.741	-62.588	-0.365	-0.152
-644.726	-63.121	-0.218	-0.090
-643.711	73.065	-0.202	-0.212
-642.697	-200.000	0.021	-0.185
-641.682	-11.212	0.078	0.052
-640.668	-119.892	0.231	-0.040
-639.653	148.500	0.108	-0.146
-638.638	-113.834	0.229	0.045
-637.624	490.393	0.018	-0.040
-636.609	-6.179	-0.196	0.134
-635.595	61.805	0.121	-0.121
-634.580	-33.064	-0.148	0.082
-633.565	-200.000	-0.038	-0.368
-632.551	-200.000	0.003	0.193
-631.536	-60.440	-0.070	-0.030
-630.522	126.646	0.150	-0.190
-629.507	612.699	-0.011	0.029
-628.492	-153.846	-0.183	0.013
-627.478	-120.904	0.079	0.013
-626.463	-99.112	-0.077	0.020
-625.449	-61.117	0.315	0.133
-624.434	-82.061	-0.165	0.054
-623.419	-200.000	-0.014	0.128
-622.405	800.000	-0.051	0.199
-621.390	90.044	-0.181	0.202
-620.376	26.865	0.172	-0.145
-619.361	-200.000	0.000	0.251
-618.346	631.855	-0.063	0.161
-617.332	-200.000	-0.026	0.304
-616.317	-135.893	0.162	-0.019
-615.303	-200.000	0.061	0.407
-614.288	6.347	0.085	-0.063
-613.273	-70.066	-0.169	0.064
-612.259	-200.000	-0.013	0.072
-611.244	272.209	-0.088	-0.156
-610.230	97.033	0.368	0.423
-609.215	98.459	0.105	0.121
-608.201	-59.469	0.142	-0.061
-607.186	-200.000	-0.032	0.171
-606.171	-104.797	-0.398	-0.092
-605.157	-91.568	-0.061	-0.017
-604.142	200.715	0.117	-0.180
-603.128	800.000	-0.078	-0.236
-602.113	234.792	0.172	0.283
-601.098	800.000	-0.042	0.148
-600.084	-10.931	0.159	0.105
-599.069	267.139	0.098	-0.172
-598.055	-110.131	-0.082	-0.017
-597.040	51.371	0.160	-0.152
-596.025	-156.389	-0.184	-0.012
-595.011	-148.485	-0.224	0.018
-593.996	-200.000	-0.043	0.194
-592.982	-158.673	0.123	0.007
-591.967	-200.000	0.042	0.294
-590.952	-16.138	0.129	0.082
-589.938	-200.000	-0.048	-0.279
-588.923	-200.000	0.004	-0.115
-587.909	-200.000	0.046	0.255
-586.894	-50.035	0.297	0.141
-585.879	-42.768	-0.327	0.166
-584.865	-71.263	0.263	-0.099
-583.850	603.650	-0.109	-0.270
-582.836	-99.509	0.060	-0.015
-581.821	-200.000	0.003	-0.048
-580.806	-200.000	-0.012	-0.107
-579.792	49.448	-0.117	-0.111
-578.777	518.667	-0.099	-0.232
-577.763	-109.502	-0.082	0.017
-576.748	-200.000	0.006	0.084
-575.733	-42.009	-0.246	0.126
-574.719	-200.000	-0.045	-0.221
-573.704	-67.397	-0.178	0.070
-572.690	-200.000	-0.035	-0.202
-571.675	694.350	-0.134	-0.352
-570.661	194.058	-0.080	0.122
-569.646	-200.000	-0.010	0.232
-568.631	-200.000	-0.005	0.148
-567.617	-96.878	0.060	0.016
-566.602	312.586	-0.187	0.352
-565.588	-200.000	-0.044	-0.194
-564.573	-147.084	-0.107	-0.009
-563.558	800.000	0.052	-0.156
-562.544	-200.000	0.035	0.233
-561.529	800.000	0.033	-0.093
-560.515	-91.551	-0.242	0.069
-559.500	-200.000	0.024	-0.263
-558.485	-145.957	0.311	-0.028
-557.471	-25.114	-0.105	-0.062
-556.456	-16.596	-0.286	0.181
-555.442	800.000	0.053	0.164
-554.427	138.206	-0.135	-0.177
-553.412	37.147	-0.236	0.209
-552.398	110.824	-0.207	0.249
-551.383	-187.290	0.270	-0.004
-550.369	-99.973	0.220	0.055
-549.354	-200.000	-0.010	0.156
-548.339	-200.000	0.090	0.439
-547.325	-22.679	-0.270	-0.163
-546.310	800.000	0.041	0.163
-545.296	6.885	-0.080	-0.060
-544.281	362.137	0.071	-0.143
-543.266	-124.818	-0.063	0.010
-542.252	-60.111	-0.315	-0.134
-541.237	335.609	0.099	0.191
-540.223	13.079	0.328	-0.254
-539.208	-200.000	0.022	-0.354
-538.193	-116.581	-0.248	0.046
-537.179	669.353	0.059	0.152
-536.164	334.272	-0.029	-0.056
-535.150	701.076	0.123	-0.324
-534.135	38.445	0.113	0.101
-533.121	60.864	-0.266	0.264
-532.106	-65.564	-0.303	-0.121
-531.091	-144.935	-0.099	-0.009
-530.077	-116.685	0.033	0.006
-529.062	800.000	-0.036	-0.149
-528.048	-200.000	-0.009	-0.196
-527.033	800.000	0.030	-0.119
-526.018	-76.554	-0.400	0.140
-525.004	-41.138	0.238	-0.122
-523.989	128.163	-0.072	0.092
-522.975	-200.000	0.019	-0.201
-521.960	-21.904	-0.196	-0.119
-520.945	14.335	-0.194	-0.151
-519.931	-200.000	0.016	-0.136
-518.916	-47.162	0.047	-0.023
-517.902	-116.010	0.263	0.049
-516.887	800.000	-0.036	0.141
-515.872	191.256	0.065	-0.098
-514.858	-121.759	-0.320	0.053
-513.843	58.623	-0.113	0.110
-512.829	38.755	0.301	0.268
-511.814	-200.000	0.064	-0.362
-510.799	170.450	-0.324	0.462
-509.785	18.973	0.130	0.104
-508.770	164.424	-0.219	-0.308
-507.756	800.000	0.086	-0.249
-506.741	219.678	-0.045	-0.072
-505.726	-200.000	-0.002	-0.049
-504.712	-45.706	-0.192	-0.095
-503.697	330.637	0.013	-0.026
-502.683	108.515	0.337	-0.401
-501.668	-200.000	-0.030	-0.298
-500.653	226.946	0.066	-0.106
-499.639	64.533	-0.165	0.166
-498.624	33.909	-0.103	-0.089
-497.610	-12.411	0.220	-0.144
-496.595	-134.285	0.276	-0.034
-495.581	-200.000	-0.049	-0.439
-494.566	-62.259	0.154	-0.064
-493.551	-78.052	-0.339	0.116
-492.537	-74.982	-0.162	-0.058
-491.522	-200.000	0.011	-0.342
-490.508	93.647	-0.127	-0.144
-489.493	-38.538	-0.423	0.223
-488.478	302.546	0.102	-0.188
-487.464	-200.000	0.017	-0.121
-486.449	-43.616	-0.288	-0.145
-485.435	45.443	0.385	0.354
-484.420	-200.000	0.000	-0.372
-483.405	-34.112	0.062	-0.034
-482.391	-44.722	0.135	0.067
-481.376	-105.955	-0.178	0.040
-480.362	75.319	-0.249	-0.262
-479.347	168.749	0.186	-0.264
-478.332	103.104	-0.286	-0.334
-477.318	-123.706	0.237	0.037
-476.303	-107.440	-0.236	0.052
-475.289	10.159	0.170	-0.129
-474.274	-101.348	-0.207	0.050
-473.259	-48.248	0.226	0.108
-472.245	-200.000	0.165	-0.001
-471.230	-200.000	0.197	-0.001
-470.216	-50.134	-0.274	0.129
-469.201	5.741	0.238	0.175
-468.186	176.781	-0.143	0.206
-467.172	800.000	-0.077	-0.236
-466.157	-129.959	-0.206	-0.028
-465.143	184.478	0.027	0.039
-464.128	54.738	-0.127	0.122
-463.113	800.000	-0.019	-0.074
-462.099	-200.000	0.005	-0.193
-461.084	87.669	0.103	0.113
-460.070	501.113	-0.020	-0.046
-459.055	-99.570	0.232	-0.058
-458.040	-200.000	0.003	0.356
-457.026	439.040	-0.078	0.170
-456.011	800.000	0.058	0.165
-454.997	-158.410	0.287	0.017
-453.982	135.901	-0.033	-0.043
-452.968	-111.303	-0.259	0.053
-451.953	800.000	0.035	0.106
-450.938	-200.000	-0.090	-0.412
-449.924	222.135	0.078	-0.125
-448.909	-200.000	0.012	0.354
-447.895	33.955	-0.048	-0.042
-446.880	-100.716	-0.133	-0.033
-445.865	-47.459	-0.331	-0.160
-444.851	45.998	-0.170	0.156
-443.836	-200.000	0.033	0.163
-442.822	-36.831	-0.101	0.054
-441.807	227.861	-0.064	-0.104
-440.792	383.034	0.056	0.114
-439.778	49.939	0.279	-0.262
-438.763	16.503	-0.240	0.189
-437.749	122.281	0.233	0.289
-436.734	-200.000	0.073	-0.339
-435.719	257.939	-0.159	-0.272
-434.705	800.000	-0.036	0.148
-433.690	-49.506	-0.120	0.057
-432.676	-80.149	0.150	0.050
-431.661	800.000	0.022	-0.066
-430.646	-86.137	0.232	0.071
-429.632	-89.523	0.151	0.044
-428.617	163.750	-0.234	0.328
-427.603	-77.367	0.090	-0.031
-426.588	754.742	-0.112	0.302
-425.573	-51.447	0.213	-0.099
-424.559	800.000	0.106	0.307
-423.544	-44.894	0.206	0.102
-422.530	38.192	0.187	0.165
-421.515	146.454	0.034	0.045
-420.500	252.765	-0.031	0.053
-419.486	-200.000	-0.002	0.330
-418.471	-69.917	0.295	0.112
-417.457	-69.714	0.230	0.088
-416.442	-48.985	-0.042	-0.020
-415.428	285.796	0.142	-0.255
-414.413	-67.608	-0.249	-0.097
-413.398	-78.140	-0.300	0.102
-412.384	-200.000	0.002	0.275
-411.369	19.340	0.097	-0.077
-410.355	195.189	-0.067	-0.100
-409.340	800.000	0.034	-0.122
-408.325	800.000	0.033	0.106
-407.311	-188.382	0.279	0.003
-406.296	77.203	-0.186	-0.197
-405.282	-15.955	0.290	0.183
-404.267	134.682	-0.255	-0.329
-403.252	90.252	-0.051	0.057
-402.238	-59.512	-0.076	-0.033
-401.223	35.153	0.177	0.154
-400.209	-200.000	-0.028	0.384
-399.194	-200.000	-0.059	0.389
-398.179	-10.512	0.141	0.093
-397.165	348.712	-0.115	-0.225
-396.150	800.000	0.032	-0.125
-395.136	567.063	0.131	-0.317
-394.121	800.000	0.137	-0.498
-393.106	-200.000	0.005	-0.075
-392.092	-200.000	-0.031	-0.183
-391.077	-101.510	0.185	-0.045
-390.063	-136.570	-0.111	0.013
-389.048	236.275	0.139	0.228
-388.033	-116.026	0.230	0.043
-387.019	800.000	0.006	0.021
-386.004	206.803	-0.080	-0.123
-384.990	-153.373	-0.214	-0.015
-383.975	369.161	0.110	0.222
-382.960	-107.829	0.337	0.073
-381.946	-31.549	-0.216	-0.120
-380.931	800.000	-0.036	0.128
-379.917	-178.997	-0.328	-0.007
-378.902	47.164	-0.036	-0.033
-377.888	98.445	0.299	-0.342
-376.873	-1.269	-0.078	0.055
-375.858	-12.814	0.108	-0.070
-374.844	-200.000	-0.005	0.309
-373.829	64.812	-0.183	0.183
-372.815	-64.871	0.217	0.087
-371.800	-200.000	0.003	0.222
-370.785	121.688	0.110	-0.136
-369.771	-190.123	-0.023	0.000
-368.756	-200.000	-0.006	0.308
-367.742	-0.152	-0.186	0.131
-366.727	-15.460	0.210	-0.133
-365.712	48.906	0.236	0.220
-364.698	80.958	0.069	0.074
-363.683	533.780	0.201	-0.472
-362.669	225.371	0.038	0.061
-361.654	800.000	-0.028	-0.123
-360.639	95.586	-0.091	0.103
-359.625	184.850	0.171	-0.252
-358.610	127.291	0.060	-0.075
-357.596	-75.492	-0.430	-0.152
-356.581	-72.281	0.041	-0.015
-355.566	-200.000	0.005	-0.152
-354.552	800.000	0.109	-0.338
-353.537	-79.193	0.120	-0.040
-352.523	-200.000	0.021	0.235
-351.508	800.000	-0.056	0.180
-350.493	-29.955	0.387	-0.219
-349.479	-200.000	-0.020	0.263
-348.464	676.718	0.115	0.296
-347.450	-200.000	0.004	0.193
-346.435	-103.045	-0.190	0.045
-345.420	-148.344	0.375	0.031
-344.406	-31.391	-0.134	0.075
-343.391	-141.964	-0.345	-0.034
-342.377	-93.756	0.250	0.068
-341.362	-4.389	0.036	-0.025
-340.348	-101.437	0.112	0.027
-339.333	-53.047	-0.421	-0.192
-338.318	-73.540	0.442	0.160
-337.304	-200.000	-0.017	-0.112
-336.289	-200.000	0.020	0.266
-335.275	25.814	-0.185	-0.153
-334.260	-76.522	0.227	-0.079
-333.245	135.587	0.206	-0.266
-332.231	233.429	-0.071	0.116
-331.216	800.000	-0.073	-0.259
-330.202	74.913	-0.118	0.123
-329.187	24.041	0.289	0.236
-328.172	-109.398	-0.270	0.056
-327.158	-200.000	-0.023	0.207
-326.143	-106.996	0.063	-0.014
-325.129	146.408	-0.245	0.326
-324.114	-115.636	0.103	-0.019
-323.099	50.591	0.374	-0.351
-322.085	64.478	0.155	0.155
-321.070	800.000	0.062	0.242
-320.056	-200.000	-0.006	0.107
-319.041	-100.982	-0.098	0.024
-318.026	169.169	0.109	-0.154
-317.012	-49.803	-0.159	-0.075
-315.997	-12.915	0.153	0.099
-314.983	130.419	-0.118	0.149
-313.968	-200.000	-0.009	-0.194
-312.953	-5.055	-0.226	0.154
-311.939	800.000	0.069	-0.241
-310.924	-128.126	0.102	0.015
-309.910	-178.093	-0.181	-0.004
-308.895	-186.284	-0.370	0.005
-307.880	800.000	-0.061	-0.220
-306.866	-31.822	0.129	-0.071
-305.851	-147.611	0.256	0.021
-304.837	-53.194	0.235	-0.107
-303.822	-57.849	-0.270	-0.117
-302.807	170.147	0.024	0.033
-301.793	-200.000	-0.038	-0.325
-300.778	-51.843	0.135	-0.062
-299.764	-200.000	0.003	-0.063
-298.749	-200.000	0.045	0.352
-297.735	-4.419	-0.239	0.164
-296.720	-40.734	-0.246	0.126
-295.705	-200.000	0.012	0.231
-294.691	-200.000	-0.035	-0.345
-293.676	-116.621	-0.272	0.050
-292.662	-122.822	0.343	-0.055
-291.647	-200.000	-0.012	0.108
-290.632	-158.820	0.383	0.022
-289.618	-34.864	0.168	-0.091
-288.603	-93.848	-0.240	0.065
-287.589	551.580	0.083	0.197
-286.574	335.596	0.121	-0.231
-285.559	187.963	0.050	0.074
-284.545	-200.000	0.016	0.123
-283.530	-45.968	0.215	0.105
-282.516	-200.000	-0.078	0.390
-281.501	-136.859	0.274	-0.031
-280.486	258.804	0.035	-0.059
-279.472	-200.000	0.032	-0.181
-278.457	-143.293	-0.279	-0.026
-277.443	-116.754	-0.091	-0.017
-276.428	-172.251	-0.402	0.013
-275.413	-200.000	-0.023	0.126
-274.399	43.238	-0.239	0.216
-273.384	22.723	-0.219	0.178
-272.370	193.250	-0.165	-0.247
-271.355	800.000	0.061	-0.209
-270.340	-200.000	-0.020	-0.172
-269.326	-3.851	0.130	-0.089
-268.311	498.049	0.050	-0.114
-267.297	-9.576	0.018	-0.012
-266.282	800.000	0.085	0.325
-265.267	-1.657	-0.201	-0.140
-264.253	297.164	-0.143	-0.260
-263.238	-200.000	-0.318	0.001
-262.224	-17.995	0.188	-0.117
-261.209	411.806	0.038	0.079
-260.195	-119.209	0.006	0.001
-259.180	10.253	0.093	0.070
-258.165	-98.108	-0.229	0.058
-257.151	-0.982	0.110	0.077
-256.136	-28.787	0.289	0.164
-255.122	-1.094	0.227	0.158
-254.107	-200.000	0.011	0.264
-253.092	-1.821	0.390	0.271
-252.078	288.565	-0.198	0.354
-251.063	10.403	0.082	-0.061
-250.049	-87.627	-0.223	-0.066
-249.034	-157.151	0.095	-0.006
-248.019	-48.557	0.336	-0.160
-247.005	-200.000	-0.008	0.164
-245.990	-200.000	0.031	-0.162
-244.976	-200.000	0.005	-0.280
-243.961	146.159	-0.033	0.043
-242.946	-127.022	-0.131	0.019
-241.932	406.055	0.018	0.038
-240.917	-32.614	0.024	-0.013
-239.903	-200.000	0.012	-0.548
-238.888	-38.036	-0.239	-0.125
-237.873	284.788	0.167	-0.297
-236.859	310.640	-0.250	-0.462
-235.844	-200.000	-0.019	-0.164
-234.830	-44.382	-0.379	0.187
-233.815	-69.220	0.177	-0.067
-232.800	-200.000	0.008	0.173
-231.786	-108.010	0.075	0.016
-230.771	0.561	-0.540	-0.381
-229.757	171.121	0.110	-0.156
-228.742	104.777	0.040	-0.046
-227.727	-200.000	0.033	-0.200
-226.713	755.582	0.211	0.563
-225.698	75.500	-0.131	0.137
-224.684	-200.000	-0.034	0.186
-223.669	190.884	0.243	0.360
-222.655	-200.000	-0.002	-0.052
-221.640	-16.241	0.026	-0.017
-220.625	-38.492	-0.245	0.128
-219.611	-14.493	0.291	0.185
-218.596	-156.482	-0.168	0.010
-217.582	-83.539	0.155	-0.049
-216.567	413.632	0.032	0.066
-215.552	432.413	0.069	-0.147
-214.538	-200.000	0.052	-0.239
-213.523	800.000	-0.035	0.116
-212.509	96.928	-0.088	-0.100
-211.494	24.342	-0.205	0.167
-210.479	-200.000	-0.061	-0.401
-209.465	-29.180	-0.162	0.092
-208.450	133.700	-0.094	-0.120
-207.436	-200.000	0.008	0.072
-206.421	-200.000	0.062	0.427
-205.406	-18.591	0.139	0.085
-204.392	-116.053	-0.335	0.062
-203.377	-200.000	0.000	0.010
-202.363	512.322	-0.074	-0.170
-201.348	-29.180	-0.203	0.115
-200.333	-54.581	0.096	0.043
-199.319	388.085	-0.101	0.207
-198.304	-67.883	0.199	0.077
-197.290	-200.000	-0.014	0.091
-196.275	-144.810	0.275	0.025
-195.260	-172.365	0.143	-0.005
-194.246	-109.431	-0.380	0.079
-193.231	-9.821	-0.093	-0.061
-192.217	-14.049	0.164	-0.104
-191.202	57.049	-0.156	0.149
-190.187	69.719	0.243	-0.247
-189.173	-85.032	-0.217	0.067
-188.158	-2.465	-0.165	0.114
-187.144	-23.075	0.130	-0.077
-186.129	59.619	0.136	-0.132
-185.114	-200.000	-0.009	-0.156
-184.100	10.432	0.074	-0.055
-183.085	2.444	-0.120	0.085
-182.071	62.306	0.030	0.029
-181.056	601.146	0.055	-0.134
-180.042	-21.584	0.191	0.115
-179.027	30.435	0.216	-0.182
-178.012	-32.422	-0.129	-0.071
-176.998	-89.052	0.315	-0.092
-175.983	159.248	0.161	0.220
-174.969	357.306	-0.084	0.165
-173.954	-200.000	0.023	-0.106
-172.939	800.000	-0.088	0.282
-171.925	-114.902	0.071	-0.013
-170.910	-25.835	-0.153	0.088
-169.896	64.316	0.123	0.122
-168.881	-200.000	0.007	-0.403
-167.866	179.238	0.145	0.209
-166.852	261.153	-0.058	-0.098
-165.837	-40.650	0.112	-0.057
-164.823	-120.042	0.161	-0.027
-163.808	800.000	0.055	-0.212
-162.793	9.205	0.145	-0.108
-161.779	-35.530	0.174	0.093
-160.764	52.664	0.329	0.309
-159.750	-200.000	-0.000	-0.200
-158.735	272.835	0.223	-0.388
-157.720	10.134	-0.102	-0.076
-156.706	-148.775	-0.084	-0.007
-155.691	-50.519	0.168	-0.078
-154.677	-132.631	0.374	0.047
-153.662	184.358	-0.159	0.232
-152.647	21.661	0.117	0.094
-151.633	238.560	-0.081	0.133
-150.618	56.144	0.166	-0.158
-149.604	68.854	0.100	0.101
-148.589	800.000	-0.077	0.280
-147.574	800.000	-0.024	-0.096
-146.560	-180.121	0.217	-0.005
-145.545	-167.349	0.340	-0.013
-144.531	800.000	0.062	0.232
-143.516	-142.576	0.104	0.010
-142.502	206.709	-0.183	-0.281
-141.487	62.673	0.134	0.131
-140.472	-12.071	-0.192	-0.123
-139.458	-174.439	0.113	-0.003
-138.443	-112.951	-0.187	-0.036
-137.429	204.756	0.094	0.143
-136.414	-200.000	-0.105	-0.487
-135.399	220.216	-0.088	-0.138
-134.385	381.508	0.056	-0.114
-133.370	-200.000	-0.040	0.252
-132.356	45.678	0.029	0.027
-131.341	-200.000	0.024	-0.103
-130.326	171.518	-0.110	-0.155
-129.312	800.000	-0.079	0.265
-128.297	22.136	-0.172	-0.138
-127.283	-45.509	0.317	-0.154
-126.268	-107.128	0.266	-0.058
-125.253	800.000	0.071	0.196
-124.239	-108.081	0.139	0.030
-123.224	572.515	0.143	-0.341
-122.210	-126.696	0.145	0.021
-121.195	-200.000	0.010	0.121
