DTS Sentinel unit serial number:	SN413079Multiplexer serial number:	ORYXHardware model number:	OX4-SRSoftware version number:	ORYX F/W v4.00 Oryx Data Collector v3.7.2.0data status	okinstallation	princeton_trtdifferential loss correction	single-endedforward channel	channel 1reverse channel	N/Adate	2019/09/15time	22:02:35forward acquisition time	60.00reverse acquisition time	0.00gamma	496.2192k internal	0.2330k external	0.2330temperature offset calibration	0.9965default loss term (dB/km)	0.3790temperature slope calibration	1.0000multiplexer offset coefficient	1.0000multiplexer slope coefficient	1.0000fibre end	0.00T internal ref (°C)	29.81T ext. ref 1 (°C)	8.55T ext. ref 2 (°C)	22.90length (m)	temperature (°C)	Stokes	anti-Stokes-747.200	-76.766	-0.195	0.069
-746.185	152.974	-0.105	0.144
-745.171	113.014	-0.129	-0.157
-744.156	450.481	0.068	0.152
-743.142	-142.272	0.275	-0.027
-742.127	-40.212	-0.215	0.113
-741.112	800.000	0.099	0.382
-740.098	800.000	-0.066	0.187
-739.083	164.171	-0.178	0.252
-738.069	-200.000	-0.027	0.347
-737.054	800.000	0.121	-0.394
-736.039	-41.638	-0.108	0.056
-735.025	-25.194	0.258	0.154
-734.010	636.804	-0.106	-0.270
-732.996	64.295	-0.328	-0.333
-731.981	-65.038	-0.307	0.125
-730.966	-200.000	-0.023	0.188
-729.952	32.669	-0.185	0.161
-728.937	-200.000	0.009	-0.078
-727.923	-135.054	-0.344	-0.042
-726.908	321.972	0.098	0.187
-725.894	800.000	-0.078	-0.282
-724.879	-16.472	-0.138	-0.088
-723.864	800.000	-0.062	-0.229
-722.850	90.765	0.120	-0.135
-721.835	141.973	-0.146	0.195
-720.821	73.744	0.136	-0.144
-719.806	59.882	-0.177	-0.175
-718.791	-94.627	0.332	-0.091
-717.777	-37.340	-0.173	0.093
-716.762	-200.000	0.022	0.236
-715.748	-200.000	-0.030	-0.283
-714.733	-167.066	-0.341	-0.014
-713.718	160.129	-0.038	0.053
-712.704	-200.000	-0.007	-0.036
-711.689	-200.000	-0.022	0.281
-710.675	-96.734	-0.148	0.039
-709.660	-200.000	0.003	0.307
-708.645	12.576	-0.182	-0.142
-707.631	-146.192	-0.075	0.007
-706.616	47.536	-0.009	0.008
-705.602	185.251	-0.047	0.070
-704.587	10.854	-0.153	0.118
-703.572	-200.000	-0.001	0.067
-702.558	45.886	-0.113	-0.105
-701.543	191.752	-0.117	0.177
-700.529	232.567	0.042	-0.069
-699.514	-43.576	-0.113	0.057
-698.499	789.849	0.094	0.260
-697.485	46.643	-0.080	-0.074
-696.470	-200.000	0.015	-0.256
-695.456	-21.272	0.138	-0.085
-694.441	-174.327	0.321	0.009
-693.426	633.137	0.014	0.037
-692.412	272.961	-0.080	0.142
-691.397	16.631	-0.328	-0.261
-690.383	119.956	0.244	-0.304
-689.368	-42.101	-0.396	-0.203
-688.354	220.022	0.179	-0.288
-687.339	65.945	-0.111	-0.113
-686.324	-47.584	-0.251	-0.122
-685.310	5.326	0.156	0.115
-684.295	-157.833	-0.399	0.024
-683.281	800.000	0.062	0.269
-682.266	-49.579	-0.233	-0.111
-681.251	-68.290	-0.058	0.023
-680.237	800.000	0.124	-0.406
-679.222	-138.694	0.205	-0.022
-678.208	-70.576	0.063	0.024
-677.193	374.540	-0.160	-0.327
-676.178	800.000	0.109	-0.324
-675.164	-200.000	-0.043	-0.191
-674.149	-99.946	-0.401	0.100
-673.135	16.225	-0.305	-0.242
-672.120	-52.657	-0.349	0.162
-671.105	-120.735	-0.196	0.033
-670.091	227.799	-0.152	-0.248
-669.076	384.267	0.016	-0.032
-668.062	207.757	0.037	-0.057
-667.047	-200.000	-0.011	-0.295
-666.032	800.000	-0.116	-0.347
-665.018	137.850	0.063	-0.082
-664.003	-109.406	0.138	-0.029
-662.989	800.000	-0.012	0.034
-661.974	-84.982	-0.327	0.103
-660.959	-200.000	-0.015	0.253
-659.945	90.302	-0.092	0.104
-658.930	61.541	-0.327	0.326
-657.916	134.748	0.092	-0.119
-656.901	-200.000	-0.000	-0.055
-655.886	19.007	0.154	0.124
-654.872	-105.682	-0.238	0.054
-653.857	138.389	-0.176	-0.231
-652.843	-14.350	-0.175	-0.113
-651.828	29.726	-0.055	0.047
-650.814	-15.067	0.326	-0.209
-649.799	548.074	0.050	-0.119
-648.784	-200.000	-0.019	-0.134
-647.770	440.200	-0.066	0.145
-646.755	-200.000	-0.023	-0.265
-645.741	-26.956	0.385	-0.226
-644.726	19.304	-0.266	-0.214
-643.711	-102.320	-0.223	0.054
-642.697	-200.000	0.024	-0.108
-641.682	-12.664	0.067	-0.044
-640.668	-33.608	0.324	0.179
-639.653	-200.000	0.047	0.215
-638.638	99.996	-0.149	-0.173
-637.624	-178.001	0.219	-0.005
-636.609	476.073	0.067	0.153
-635.595	10.906	-0.145	0.111
-634.580	-166.655	0.273	-0.011
-633.565	-76.694	0.371	0.130
-632.551	-56.719	-0.099	0.044
-631.536	155.393	0.126	-0.174
-630.522	-200.000	0.015	-0.254
-629.507	54.502	0.050	0.049
-628.492	800.000	0.100	0.353
-627.478	52.199	-0.193	0.184
-626.463	-133.597	-0.219	-0.028
-625.449	206.504	0.073	0.114
-624.434	-200.000	0.019	-0.239
-623.419	-200.000	-0.004	-0.027
-622.405	-29.563	-0.278	0.159
-621.390	571.525	-0.168	-0.409
-620.376	16.023	0.251	-0.198
-619.361	-62.742	0.108	-0.045
-618.346	-164.873	-0.101	-0.005
-617.332	295.996	-0.215	-0.395
-616.317	91.212	0.125	-0.140
-615.303	800.000	-0.059	-0.243
-614.288	-70.734	0.173	0.066
-613.273	-97.252	0.288	0.075
-612.259	-128.346	-0.337	0.048
-611.244	800.000	0.133	-0.424
-610.230	800.000	0.015	0.044
-609.215	-149.843	-0.293	0.023
-608.201	800.000	-0.074	-0.223
-607.186	146.022	-0.165	-0.222
-606.171	623.583	-0.033	0.084
-605.157	4.938	0.096	-0.071
-604.142	335.167	0.024	0.047
-603.128	90.510	0.068	0.076
-602.113	-200.000	-0.029	-0.170
-601.098	-200.000	-0.059	-0.453
-600.084	143.861	0.165	0.220
-599.069	-146.968	0.088	-0.008
-598.055	-118.486	-0.216	-0.038
-597.040	-7.620	0.169	0.114
-596.025	-89.556	0.159	-0.047
-595.011	27.468	-0.282	-0.237
-593.996	205.462	0.161	-0.251
-592.982	354.563	-0.140	-0.279
-591.967	-20.597	-0.211	-0.130
-590.952	-200.000	-0.067	0.346
-589.938	-140.417	0.266	0.028
-588.923	-200.000	0.047	-0.329
-587.909	-165.622	-0.477	0.021
-586.894	220.935	-0.034	-0.055
-585.879	208.202	-0.124	-0.194
-584.865	-26.046	-0.180	0.106
-583.850	-24.759	0.166	-0.098
-582.836	-68.220	-0.126	-0.049
-581.821	-98.514	-0.233	0.059
-580.806	52.704	-0.158	0.151
-579.792	-121.315	0.099	0.017
-578.777	-85.415	0.236	-0.074
-577.763	-200.000	0.059	-0.328
-576.748	111.994	0.151	-0.182
-575.733	-96.022	-0.064	0.017
-574.719	354.819	-0.182	-0.363
-573.704	9.814	0.185	0.140
-572.690	-200.000	0.008	-0.261
-571.675	336.736	-0.085	0.166
-570.661	771.501	-0.060	0.163
-569.646	34.647	0.209	-0.182
-568.631	-0.511	0.120	0.085
-567.617	-35.133	0.263	-0.143
-566.602	309.896	-0.135	0.252
-565.588	117.277	0.134	-0.165
-564.573	422.483	0.077	-0.166
-563.558	-137.881	-0.418	0.047
-562.544	-86.521	0.324	0.099
-561.529	185.210	-0.092	-0.137
-560.515	112.474	0.052	-0.062
-559.500	-12.554	-0.168	-0.109
-558.485	-67.331	-0.247	-0.097
-557.471	-171.896	-0.422	0.014
-556.456	201.047	-0.168	0.258
-555.442	39.527	-0.040	0.035
-554.427	-156.560	0.103	-0.006
-553.412	-140.022	-0.169	0.018
-552.398	-3.380	0.169	-0.118
-551.383	15.142	-0.099	0.078
-550.369	28.466	-0.261	0.221
-549.354	800.000	0.091	0.359
-548.339	-191.606	0.102	0.001
-547.325	-47.316	-0.232	-0.113
-546.310	-200.000	0.037	-0.169
-545.296	800.000	0.032	0.124
-544.281	-83.002	0.060	-0.019
-543.266	-200.000	0.007	-0.045
-542.252	-77.350	0.097	-0.034
-541.237	800.000	0.109	0.370
-540.223	41.282	-0.265	0.239
-539.208	-147.613	-0.155	0.013
-538.193	298.721	-0.100	-0.183
-537.179	10.142	-0.070	0.053
-536.164	800.000	0.040	-0.116
-535.150	800.000	0.012	-0.042
-534.135	-200.000	-0.017	0.152
-533.121	-200.000	0.023	0.230
-532.106	-132.359	-0.174	-0.022
-531.091	51.821	0.179	0.170
-530.077	114.233	-0.224	0.272
-529.062	-200.000	0.018	0.304
-528.048	-34.569	0.300	-0.164
-527.033	-161.346	0.234	0.012
-526.018	-59.798	0.174	-0.074
-525.004	-200.000	-0.018	0.109
-523.989	-27.301	0.054	-0.031
-522.975	56.047	0.161	0.156
-521.960	-47.428	0.181	0.088
-520.945	-66.300	-0.144	0.057
-519.931	83.255	-0.128	-0.139
-518.916	-89.976	-0.349	-0.102
-517.902	112.813	0.043	0.052
-516.887	196.806	0.107	0.162
-515.872	73.651	-0.151	0.158
-514.858	-49.216	-0.077	0.037
-513.843	50.308	-0.144	-0.136
-512.829	-200.000	0.031	-0.141
-511.814	-104.769	-0.599	-0.137
-510.799	-200.000	0.041	-0.303
-509.785	-155.308	-0.163	-0.011
-508.770	-200.000	0.036	-0.329
-507.756	800.000	-0.032	-0.119
-506.741	-200.000	-0.011	-0.133
-505.726	-90.137	0.233	-0.068
-504.712	-122.390	0.291	0.047
-503.697	-200.000	0.101	0.482
-502.683	800.000	0.060	0.166
-501.668	27.130	0.079	0.066
-500.653	-74.966	0.316	0.113
-499.639	317.023	0.110	-0.208
-498.624	547.331	-0.151	0.360
-497.610	30.594	-0.038	-0.032
-496.595	86.009	0.169	-0.185
-495.581	-3.837	0.194	0.134
-494.566	115.422	0.022	-0.026
-493.551	800.000	0.053	-0.211
-492.537	36.533	-0.166	-0.146
-491.522	86.310	0.071	-0.078
-490.508	800.000	0.071	0.255
-489.493	-0.580	-0.257	0.182
-488.478	-94.648	0.553	0.150
-487.464	-200.000	0.063	0.353
-486.449	-106.997	0.212	-0.047
-485.435	-200.000	0.013	0.226
-484.420	-108.458	0.324	-0.070
-483.405	800.000	-0.062	-0.180
-482.391	168.182	-0.158	0.224
-481.376	59.926	0.203	0.200
-480.362	-200.000	-0.026	-0.296
-479.347	57.577	-0.095	0.093
-478.332	-83.517	0.186	-0.059
-477.318	-200.000	0.051	-0.231
-476.303	-12.296	-0.103	-0.067
-475.289	-128.895	-0.299	-0.042
-474.274	800.000	0.095	0.320
-473.259	-78.122	0.153	0.052
-472.245	11.321	0.187	0.143
-471.230	-200.000	-0.061	-0.316
-470.216	800.000	0.093	-0.313
-469.201	-13.140	0.113	-0.073
-468.186	-124.776	0.218	0.034
-467.172	-10.929	-0.358	-0.235
-466.157	-54.664	0.324	-0.146
-465.143	-154.846	0.410	0.027
-464.128	-20.309	-0.234	-0.143
-463.113	177.056	-0.081	0.117
-462.099	76.221	0.112	0.118
-461.084	-200.000	-0.032	0.262
-460.070	-166.533	-0.030	-0.001
-459.055	125.772	0.014	-0.017
-458.040	648.432	0.097	0.246
-457.026	-3.658	-0.216	0.150
-456.011	-200.000	-0.051	0.241
-454.997	167.023	0.092	0.129
-453.982	178.501	-0.103	0.149
-452.968	-200.000	0.003	0.083
-451.953	800.000	0.084	0.326
-450.938	-200.000	0.006	-0.151
-449.924	-200.000	-0.026	-0.141
-448.909	207.580	0.161	0.249
-447.895	197.403	-0.148	0.225
-446.880	-27.553	-0.200	-0.116
-445.865	-102.582	0.031	0.007
-444.851	-64.459	-0.347	0.140
-443.836	153.648	0.024	0.032
-442.822	-90.387	0.317	-0.092
-441.807	131.013	0.183	-0.233
-440.792	-200.000	-0.013	0.249
-439.778	-200.000	-0.007	0.240
-438.763	800.000	0.104	0.350
-437.749	763.333	-0.017	0.046
-436.734	-115.917	0.231	-0.043
-435.719	190.958	0.113	0.169
-434.705	351.114	0.061	0.120
-433.690	-200.000	-0.026	-0.214
-432.676	211.519	0.123	0.193
-431.661	15.135	-0.247	0.192
-430.646	-152.987	0.210	-0.015
-429.632	324.309	-0.115	-0.219
-428.617	-80.978	0.421	0.139
-427.603	728.240	-0.067	0.177
-426.588	-41.436	-0.382	0.196
-425.573	-127.318	0.211	0.031
-424.559	-108.524	-0.151	0.032
-423.544	305.224	0.077	0.143
-422.530	295.321	0.119	0.217
-421.515	-141.322	0.183	-0.018
-420.500	-200.000	0.021	0.122
-419.486	-88.527	-0.212	-0.063
-418.471	-200.000	0.007	0.139
-417.457	139.490	0.043	0.057
-416.442	-157.425	-0.119	0.007
-415.428	-17.211	0.182	0.114
-414.413	-65.984	-0.166	0.066
-413.398	-153.534	0.381	-0.026
-412.384	84.377	-0.156	0.169
-411.369	-50.784	-0.323	-0.151
-410.355	-13.370	-0.225	-0.145
-409.340	214.160	0.099	0.156
-408.325	143.764	0.159	0.210
-407.311	800.000	-0.014	-0.044
-406.296	10.879	-0.154	0.117
-405.282	-149.534	0.309	-0.024
-404.267	342.113	-0.006	0.012
-403.252	16.622	-0.221	-0.173
-402.238	496.023	0.076	-0.173
-401.223	106.014	-0.202	-0.237
-400.209	-200.000	-0.041	-0.256
-399.194	800.000	0.059	-0.175
-398.179	-200.000	0.010	-0.288
-397.165	-200.000	-0.062	0.419
-396.150	-89.357	-0.315	-0.092
-395.136	-200.000	-0.048	0.301
-394.121	-200.000	0.022	-0.198
-393.106	439.682	0.218	0.473
-392.092	130.262	-0.274	-0.348
-391.077	-77.763	0.103	-0.035
-390.063	-75.560	-0.498	0.176
-389.048	104.807	0.097	-0.114
-388.033	16.621	-0.139	0.109
-387.019	-107.818	-0.143	0.031
-386.004	-200.000	-0.042	0.207
-384.990	-177.613	-0.059	0.001
-383.975	169.088	0.088	-0.124
-382.960	53.698	-0.367	-0.349
-381.946	800.000	0.075	0.280
-380.931	800.000	-0.092	0.347
-379.917	-136.117	0.180	-0.021
-378.902	-169.472	0.277	0.010
-377.888	373.217	0.110	-0.221
-376.873	800.000	-0.136	0.407
-375.858	-13.635	-0.260	-0.167
-374.844	145.459	0.087	0.115
-373.829	576.664	-0.073	-0.177
-372.815	375.390	0.125	0.253
-371.800	23.964	0.061	0.050
-370.785	-200.000	0.042	0.229
-369.771	-123.207	0.406	0.065
-368.756	800.000	0.031	-0.109
-367.742	16.266	-0.108	0.085
-366.727	254.687	-0.120	-0.203
-365.712	86.802	-0.202	0.221
-364.698	200.399	0.153	-0.233
-363.683	800.000	-0.048	-0.196
-362.669	492.062	-0.115	-0.261
-361.654	97.313	0.194	-0.220
-360.639	-58.653	0.349	-0.150
-359.625	-200.000	-0.051	0.359
-358.610	589.695	0.109	0.267
-357.596	800.000	0.076	0.242
-356.581	94.604	0.123	-0.139
-355.566	-200.000	-0.056	-0.350
-354.552	29.982	-0.279	0.236
-353.537	278.823	-0.082	0.144
-352.523	-200.000	0.036	-0.182
-351.508	-200.000	0.005	0.048
-350.493	278.015	0.107	0.189
-349.479	287.238	0.116	-0.208
-348.464	176.725	-0.219	-0.316
-347.450	-175.813	-0.174	-0.005
-346.435	-200.000	0.037	0.254
-345.420	11.077	0.222	0.168
-344.406	-200.000	-0.045	0.301
-343.391	308.190	-0.047	-0.088
-342.377	20.423	0.177	-0.142
-341.362	110.619	-0.249	-0.297
-340.348	80.491	-0.156	-0.167
-339.333	33.639	0.204	-0.176
-338.318	117.888	-0.154	0.187
-337.304	-115.045	-0.077	-0.015
-336.289	-100.565	-0.238	-0.058
-335.275	368.016	-0.060	-0.120
-334.260	-150.556	0.205	0.016
-333.245	-200.000	0.078	0.358
-332.231	13.429	-0.176	-0.135
-331.216	527.251	-0.056	0.131
-330.202	282.710	0.066	-0.117
-329.187	55.152	0.130	-0.124
-328.172	-132.197	-0.146	-0.019
-327.158	-200.000	-0.001	0.066
-326.143	37.284	0.241	0.212
-325.129	-26.282	-0.128	0.074
-324.114	-200.000	0.031	-0.147
-323.099	-40.088	-0.359	0.185
-322.085	-88.301	0.417	0.123
-321.070	383.932	0.160	0.326
-320.056	-41.710	-0.254	0.129
-319.041	800.000	-0.065	0.189
-318.026	-20.769	0.129	-0.079
-317.012	-52.730	0.077	0.035
-315.997	-200.000	-0.044	0.198
-314.983	-30.305	0.181	0.102
-313.968	-33.426	-0.078	0.043
-312.953	-114.657	-0.042	-0.008
-311.939	-4.571	-0.099	0.068
-310.924	80.176	-0.255	-0.272
-309.910	800.000	-0.104	-0.327
-308.895	-148.146	-0.142	-0.012
-307.880	-200.000	-0.023	-0.267
-306.866	90.993	0.207	-0.230
-305.851	-139.918	0.274	-0.029
-304.837	-47.027	-0.189	0.091
-303.822	378.399	-0.041	0.083
-302.807	800.000	0.060	0.260
-301.793	-70.666	0.121	0.045
-300.778	65.637	-0.105	-0.105
-299.764	-23.341	-0.393	-0.234
-298.749	-65.929	0.116	-0.046
-297.735	174.696	-0.067	0.096
-296.720	800.000	-0.051	0.184
-295.705	-200.000	-0.006	0.081
-294.691	-200.000	0.046	-0.300
-293.676	-136.065	-0.176	-0.020
-292.662	-128.646	-0.264	0.037
-291.647	-103.925	0.350	0.081
-290.632	-200.000	-0.011	0.118
-289.618	-119.221	-0.381	-0.066
-288.603	-45.728	0.342	-0.167
-287.589	324.740	-0.150	-0.283
-286.574	-200.000	0.021	-0.138
-285.559	196.608	0.286	-0.430
-284.545	-78.238	-0.347	-0.118
-283.530	-200.000	-0.046	0.536
-282.516	-99.427	-0.301	-0.075
-281.501	190.801	-0.125	-0.185
-280.486	4.653	0.196	0.143
-279.472	-109.152	0.170	0.036
-278.457	-119.100	-0.021	0.004
-277.443	626.083	-0.098	-0.244
-276.428	365.130	0.175	0.348
-275.413	-152.634	-0.176	-0.012
-274.399	131.528	0.121	-0.154
-273.384	-182.060	0.458	0.009
-272.370	-56.868	-0.193	0.084
-271.355	270.755	-0.065	-0.113
-270.340	29.291	-0.150	0.126
-269.326	-200.000	0.006	-0.174
-268.311	-165.403	-0.162	-0.007
-267.297	800.000	-0.065	-0.243
-266.282	207.737	-0.160	-0.247
-265.267	-200.000	0.020	0.121
-264.253	-200.000	0.015	-0.144
-263.238	82.759	-0.324	0.348
-262.224	-163.111	0.075	-0.004
-261.209	-48.156	-0.172	0.082
-260.195	-88.790	-0.227	-0.067
-259.180	-168.175	-0.119	0.005
-258.165	162.561	-0.213	0.295
-257.151	7.924	-0.026	-0.019
-256.136	-26.067	0.028	-0.017
-255.122	-156.829	0.246	0.015
-254.107	-82.904	0.108	0.035
-253.092	-96.478	-0.045	-0.012
-252.078	-103.886	-0.100	-0.023
-251.063	275.106	-0.161	0.281
-250.049	-67.059	0.177	0.069
-249.034	-200.000	0.037	0.447
-248.019	120.570	-0.087	-0.107
-247.005	-28.488	-0.111	0.063
-245.990	-156.448	0.119	-0.007
-244.976	-200.000	0.017	-0.074
-243.961	334.160	-0.097	0.186
-242.946	149.094	-0.079	-0.106
-241.932	-200.000	0.070	-0.451
-240.917	-25.380	-0.114	-0.066
-239.903	125.656	0.288	-0.359
-238.888	-179.871	0.073	-0.002
-237.873	-200.000	-0.012	0.253
-236.859	-128.017	0.353	-0.050
-235.844	-70.756	0.142	-0.053
-234.830	239.730	-0.263	-0.433
-233.815	170.711	-0.085	-0.120
-232.800	-122.236	0.057	0.009
-231.786	-97.461	0.253	0.065
-230.771	135.480	0.062	-0.080
-229.757	-26.569	0.203	0.117
-228.742	10.667	-0.346	-0.260
-227.727	759.686	-0.064	0.172
-226.713	-49.202	0.093	-0.044
-225.698	800.000	-0.053	-0.155
-224.684	-200.000	0.002	-0.151
-223.669	218.153	0.275	-0.432
-222.655	72.813	-0.243	-0.250
-221.640	28.982	0.177	0.148
-220.625	-91.234	-0.502	0.142
-219.611	99.661	0.288	0.329
-218.596	-200.000	0.065	-0.280
-217.582	-119.720	-0.120	0.020
-216.567	342.786	-0.106	-0.204
-215.552	-174.272	0.259	0.007
-214.538	800.000	-0.039	0.168
-213.523	212.024	-0.226	-0.351
-212.509	3.962	-0.228	-0.164
-211.494	-10.214	0.144	0.094
-210.479	63.334	-0.076	0.075
-209.465	63.206	-0.234	0.232
-208.450	374.795	0.055	-0.110
-207.436	-200.000	-0.042	-0.242
-206.421	-200.000	0.004	0.123
-205.406	-12.813	0.182	-0.117
-204.392	-66.341	0.042	0.017
-203.377	-21.990	-0.101	0.061
-202.363	158.424	-0.083	-0.113
-201.348	-137.749	-0.100	-0.011
-200.333	-135.455	0.235	-0.028
-199.319	181.607	0.135	-0.196
-198.304	-79.974	0.161	0.053
-197.290	800.000	-0.027	0.089
-196.275	-200.000	-0.040	-0.344
-195.260	-108.002	0.214	0.046
-194.246	322.391	0.107	0.200
-193.231	800.000	0.077	0.299
-192.217	148.618	-0.078	-0.103
-191.202	-52.960	0.301	0.136
-190.187	-58.659	0.082	-0.035
-189.173	26.193	0.199	-0.164
-188.158	800.000	-0.111	-0.477
-187.144	153.565	-0.022	0.029
-186.129	330.224	-0.076	0.145
-185.114	161.415	-0.124	-0.170
-184.100	-68.964	-0.082	0.031
-183.085	-200.000	0.012	0.147
-182.071	-200.000	0.044	-0.210
-181.056	-168.544	-0.090	0.003
-180.042	14.024	-0.193	-0.148
-179.027	300.919	0.044	-0.079
-178.012	-132.943	-0.279	0.035
-176.998	14.803	0.157	0.121
-175.983	183.057	-0.036	-0.052
-174.969	12.879	0.476	0.362
-173.954	314.722	-0.082	0.152
-172.939	13.531	-0.222	0.170
-171.925	8.736	0.218	0.162
-170.910	-2.988	0.282	-0.194
-169.896	85.636	0.196	0.212
-168.881	153.549	-0.126	0.170
-167.866	-55.351	0.131	0.058
-166.852	380.485	0.088	0.177
-165.837	800.000	-0.061	0.175
-164.823	148.048	0.097	0.128
-163.808	800.000	0.158	-0.620
-162.793	-200.000	0.048	-0.296
-161.779	286.968	0.206	0.367
-160.764	-200.000	-0.020	0.110
-159.750	-177.659	0.134	0.003
-158.735	469.626	-0.088	0.194
-157.720	800.000	-0.097	0.319
-156.706	-140.406	0.122	-0.012
-155.691	201.244	0.133	0.202
-154.677	160.235	-0.127	-0.174
-153.662	0.584	-0.212	0.149
-152.647	234.077	0.036	-0.058
-151.633	800.000	0.053	-0.177
-150.618	87.187	-0.050	-0.055
-149.604	-13.028	-0.123	0.079
-148.589	249.078	0.109	-0.182
-147.574	163.446	-0.284	0.392
-146.560	85.993	-0.143	-0.155
-145.545	162.336	-0.180	0.249
-144.531	10.222	0.249	-0.186
-143.516	-84.491	0.171	0.053
-142.502	32.623	-0.188	-0.160
-141.487	-165.875	0.143	0.006
-140.472	203.471	0.047	0.072
-139.458	278.756	0.084	-0.146
-138.443	800.000	0.080	0.271
-137.429	-200.000	0.058	0.429
-136.414	204.483	0.005	0.007
-135.399	-11.526	0.290	0.187
-134.385	157.160	0.070	-0.095
-133.370	-3.968	-0.305	0.208
-132.356	-147.360	0.275	-0.023
-131.341	203.140	-0.003	-0.004
-130.326	77.793	0.166	-0.173
-129.312	-200.000	-0.001	0.056
-128.297	-2.325	0.034	-0.024
-127.283	181.503	0.076	0.110
-126.268	800.000	0.104	0.440
-125.253	116.552	0.103	0.125
-124.239	800.000	0.050	0.211
-123.224	-18.834	-0.117	0.072
-122.210	-96.284	-0.258	-0.067
-121.195	87.605	-0.167	0.182
