DTS Sentinel unit serial number:	SN413079Multiplexer serial number:	ORYXHardware model number:	OX4-SRSoftware version number:	ORYX F/W v4.00 Oryx Data Collector v3.7.2.0data status	okinstallation	princeton_trtdifferential loss correction	single-endedforward channel	channel 1reverse channel	N/Adate	2019/09/16time	13:30:35forward acquisition time	60.00reverse acquisition time	0.00gamma	496.2192k internal	0.2294k external	0.2294temperature offset calibration	0.9945default loss term (dB/km)	0.3790temperature slope calibration	1.0000multiplexer offset coefficient	1.0000multiplexer slope coefficient	1.0000fibre end	0.00T internal ref (°C)	41.77T ext. ref 1 (°C)	13.82T ext. ref 2 (°C)	39.75length (m)	temperature (°C)	Stokes	anti-Stokes-747.200	-185.512	0.229	0.004
-746.185	-109.792	-0.322	-0.069
-745.171	92.028	-0.311	-0.358
-744.156	159.603	-0.192	0.274
-743.142	20.384	-0.165	0.136
-742.127	31.097	-0.158	0.138
-741.112	302.504	-0.138	-0.261
-740.098	337.907	0.114	0.226
-739.083	-137.878	0.448	0.051
-738.069	800.000	-0.049	0.184
-737.054	381.258	-0.046	0.096
-736.039	-49.007	-0.086	0.042
-735.025	52.111	-0.154	0.150
-734.010	44.852	-0.190	-0.178
-732.996	-67.042	0.175	0.070
-731.981	-200.000	0.024	0.414
-730.966	286.839	-0.067	0.124
-729.952	225.606	-0.215	0.357
-728.937	-51.324	-0.064	-0.031
-727.923	146.759	0.102	0.141
-726.908	-200.000	-0.025	-0.225
-725.894	29.102	-0.173	0.150
-724.879	-122.282	-0.206	-0.034
-723.864	-200.000	-0.046	-0.236
-722.850	-49.434	0.231	0.112
-721.835	-144.656	-0.305	-0.029
-720.821	800.000	-0.057	-0.180
-719.806	254.857	0.136	-0.237
-718.791	-148.733	-0.334	-0.028
-717.777	-166.158	-0.207	0.009
-716.762	-200.000	0.007	-0.048
-715.748	-113.177	0.170	0.034
-714.733	74.013	0.016	-0.018
-713.718	10.487	-0.249	0.194
-712.704	800.000	0.061	-0.200
-711.689	-81.559	-0.238	0.080
-710.675	-38.055	-0.184	0.100
-709.660	215.256	-0.145	-0.235
-708.645	-71.516	-0.183	-0.070
-707.631	-39.232	0.279	0.150
-706.616	800.000	-0.129	-0.454
-705.602	-113.279	-0.292	0.059
-704.587	-116.295	-0.198	0.038
-703.572	-200.000	0.004	0.353
-702.558	800.000	0.039	0.150
-701.543	-34.509	0.210	0.117
-700.529	528.981	-0.127	-0.306
-699.514	125.690	0.241	-0.311
-698.499	7.221	0.221	-0.169
-697.485	-200.000	-0.003	-0.044
-696.470	-47.842	-0.284	-0.140
-695.456	29.856	-0.277	0.241
-694.441	388.623	0.093	-0.197
-693.426	-39.068	-0.358	-0.192
-692.412	-103.903	0.247	-0.059
-691.397	618.409	-0.062	-0.159
-690.383	800.000	-0.045	-0.185
-689.368	24.126	0.189	0.159
-688.354	-147.852	0.085	0.007
-687.339	-90.075	-0.455	-0.135
-686.324	-168.167	-0.315	0.012
-685.310	-76.303	-0.027	0.010
-684.295	800.000	-0.082	-0.248
-683.281	-185.767	-0.306	-0.005
-682.266	-200.000	-0.003	-0.055
-681.251	-200.000	0.043	-0.391
-680.237	-44.272	-0.126	-0.065
-679.222	800.000	-0.069	0.266
-678.208	354.446	-0.118	-0.240
-677.193	-200.000	0.069	-0.392
-676.178	20.501	-0.029	0.024
-675.164	-200.000	0.011	-0.167
-674.149	-200.000	0.014	-0.144
-673.135	675.016	0.144	-0.382
-672.120	-96.694	-0.238	0.064
-671.105	-29.671	-0.105	0.061
-670.091	-116.568	-0.163	-0.031
-669.076	733.090	-0.034	-0.092
-668.062	-200.000	0.011	0.236
-667.047	-31.396	0.223	0.128
-666.032	-74.466	-0.310	0.114
-665.018	-127.373	0.214	-0.032
-664.003	-109.589	-0.197	0.042
-662.989	23.707	-0.181	-0.152
-661.974	16.941	-0.141	-0.114
-660.959	172.989	0.183	-0.268
-659.945	-183.747	-0.239	-0.004
-658.930	245.307	-0.092	0.157
-657.916	13.901	-0.223	0.177
-656.901	-200.000	-0.004	-0.208
-655.886	-86.674	-0.145	-0.045
-654.872	-109.604	-0.092	-0.020
-653.857	-33.699	0.039	-0.022
-652.843	-66.043	-0.435	0.177
-651.828	-72.176	-0.084	0.032
-650.814	-31.274	-0.158	0.090
-649.799	74.876	-0.129	-0.138
-648.784	130.178	0.020	0.027
-647.770	-200.000	0.046	0.287
-646.755	-33.309	0.109	-0.061
-645.741	800.000	0.088	-0.375
-644.726	-159.341	0.033	0.002
-643.711	353.828	0.144	0.292
-642.697	149.157	0.031	0.043
-641.682	-58.080	-0.410	0.182
-640.668	160.110	0.223	0.316
-639.653	68.151	-0.224	0.233
-638.638	0.387	-0.302	0.220
-637.624	465.790	0.034	0.077
-636.609	614.660	-0.104	0.264
-635.595	115.675	0.132	0.165
-634.580	-200.000	0.039	-0.476
-633.565	-200.000	0.004	-0.091
-632.551	192.636	0.194	0.298
-631.536	800.000	-0.123	-0.457
-630.522	-200.000	-0.004	0.061
-629.507	204.626	-0.081	0.127
-628.492	-43.380	-0.187	-0.096
-627.478	-24.956	0.035	-0.021
-626.463	147.354	-0.142	0.195
-625.449	-120.044	-0.077	-0.013
-624.434	443.559	-0.165	-0.369
-623.419	800.000	-0.043	-0.135
-622.405	180.679	0.037	-0.056
-621.390	344.200	0.044	-0.087
-620.376	119.330	0.120	-0.150
-619.361	-141.061	0.268	0.028
-618.346	800.000	-0.009	0.036
-617.332	-80.600	0.281	-0.095
-616.317	162.035	-0.254	-0.362
-615.303	-200.000	-0.025	-0.441
-614.288	-200.000	0.048	-0.269
-613.273	-152.524	-0.393	-0.029
-612.259	52.865	0.262	-0.255
-611.244	-54.524	-0.039	0.018
-610.230	66.561	-0.109	-0.113
-609.215	-200.000	0.037	-0.194
-608.201	-123.725	-0.127	0.020
-607.186	93.369	-0.137	0.158
-606.171	-57.612	0.147	-0.066
-605.157	-200.000	-0.038	-0.304
-604.142	15.607	-0.351	-0.280
-603.128	317.702	-0.202	-0.388
-602.113	800.000	-0.097	0.329
-601.098	-109.432	0.274	-0.059
-600.084	81.229	-0.144	0.158
-599.069	167.868	0.112	-0.162
-598.055	-2.463	-0.196	-0.139
-597.040	-200.000	0.015	-0.088
-596.025	1.641	0.144	0.105
-595.011	759.471	-0.035	-0.098
-593.996	-129.276	-0.128	-0.018
-592.982	800.000	-0.027	0.112
-591.967	40.656	-0.138	-0.126
-590.952	-200.000	-0.089	-0.558
-589.938	0.794	0.167	-0.121
-588.923	54.666	-0.125	-0.123
-587.909	300.897	0.101	-0.190
-586.894	-73.751	-0.086	-0.032
-585.879	800.000	0.113	-0.402
-584.865	60.377	0.076	-0.076
-583.850	-66.702	0.197	-0.079
-582.836	-147.679	-0.163	0.014
-581.821	800.000	0.089	-0.300
-580.806	800.000	-0.055	0.180
-579.792	91.156	0.206	-0.235
-578.777	-26.371	0.039	0.023
-577.763	-200.000	0.055	0.326
-576.748	84.537	-0.184	-0.204
-575.733	-200.000	-0.087	-0.581
-574.719	-200.000	0.058	-0.381
-573.704	19.415	-0.033	-0.027
-572.690	129.190	-0.163	0.211
-571.675	378.156	0.029	-0.061
-570.661	82.990	0.057	-0.062
-569.646	-66.826	-0.177	-0.071
-568.631	328.998	0.081	0.157
-567.617	-125.014	0.182	0.028
-566.602	-43.682	-0.365	-0.187
-565.588	-200.000	-0.019	-0.318
-564.573	800.000	0.091	-0.316
-563.558	800.000	-0.073	-0.275
-562.544	-48.275	-0.299	-0.147
-561.529	24.178	0.043	-0.036
-560.515	45.081	0.333	0.311
-559.500	-74.978	0.233	0.085
-558.485	-88.534	-0.390	0.118
-557.471	247.077	0.051	0.088
-556.456	74.288	-0.157	-0.168
-555.442	-116.204	0.095	-0.018
-554.427	-200.000	0.042	-0.325
-553.412	153.732	-0.180	-0.251
-552.398	800.000	0.023	-0.067
-551.383	800.000	0.014	0.046
-550.369	-102.245	-0.065	0.016
-549.354	-200.000	-0.035	0.282
-548.339	-68.103	-0.106	-0.042
-547.325	-200.000	0.044	-0.218
-546.310	800.000	0.099	-0.299
-545.296	587.306	-0.045	0.112
-544.281	-40.860	0.142	0.075
-543.266	-200.000	-0.026	0.243
-542.252	-113.352	0.076	-0.015
-541.237	-125.853	0.099	-0.015
-540.223	-200.000	0.003	-0.228
-539.208	-200.000	0.054	-0.274
-538.193	-58.471	0.261	0.115
-537.179	83.685	0.053	0.059
-536.164	-200.000	-0.033	0.206
-535.150	694.670	-0.065	-0.174
-534.135	800.000	-0.081	-0.230
-533.121	-119.432	0.140	0.025
-532.106	800.000	0.034	0.111
-531.091	80.671	-0.173	0.189
-530.077	271.323	0.090	-0.161
-529.062	675.160	0.036	0.094
-528.048	61.841	0.162	0.164
-527.033	-15.872	-0.047	0.030
-526.018	-200.000	-0.044	-0.221
-525.004	-3.574	-0.046	-0.033
-523.989	504.871	0.100	0.235
-522.975	-88.835	0.124	-0.037
-521.960	652.851	0.015	-0.038
-520.945	14.065	0.241	0.190
-519.931	-82.225	0.111	-0.037
-518.916	-200.000	0.038	-0.185
-517.902	205.025	0.059	-0.094
-516.887	51.829	-0.187	0.180
-515.872	-58.875	-0.563	-0.247
-514.858	-200.000	0.025	-0.225
-513.843	-44.854	-0.335	-0.169
-512.829	-144.018	0.124	0.012
-511.814	-160.538	-0.241	0.013
-510.799	800.000	0.007	0.023
-509.785	69.286	0.084	0.087
-508.770	-125.410	0.316	-0.049
-507.756	72.795	-0.090	-0.096
-506.741	114.951	-0.164	0.203
-505.726	-71.574	0.191	-0.072
-504.712	-167.958	-0.155	-0.006
-503.697	-91.072	0.128	-0.037
-502.683	800.000	-0.045	0.149
-501.668	26.867	0.115	0.098
-500.653	-128.235	0.175	0.025
-499.639	147.944	-0.143	0.195
-498.624	-200.000	0.017	0.230
-497.610	24.020	-0.233	-0.195
-496.595	-1.940	0.285	-0.203
-495.581	-73.362	0.392	-0.145
-494.566	-23.705	0.210	0.127
-493.551	319.799	0.044	0.084
-492.537	-103.399	-0.165	0.039
-491.522	-103.528	0.123	-0.029
-490.508	255.435	-0.062	0.108
-489.493	91.389	-0.154	0.175
-488.478	-63.409	-0.272	-0.113
-487.464	-93.014	-0.313	0.088
-486.449	25.334	0.257	0.216
-485.435	-50.851	-0.208	-0.099
-484.420	-196.754	0.189	0.001
-483.405	-115.468	-0.189	-0.036
-482.391	-200.000	-0.001	0.193
-481.376	800.000	-0.008	0.028
-480.362	-47.237	-0.472	-0.233
-479.347	-75.138	0.134	-0.048
-478.332	-15.076	0.074	0.048
-477.318	-200.000	-0.001	-0.038
-476.303	-84.315	-0.257	-0.082
-475.289	-43.517	-0.090	-0.046
-474.274	-200.000	0.027	0.241
-473.259	-187.076	0.128	0.002
-472.245	-200.000	0.011	-0.113
-471.230	-49.684	0.071	-0.034
-470.216	800.000	-0.057	-0.184
-469.201	24.632	0.082	0.069
-468.186	4.700	0.121	0.090
-467.172	262.129	0.080	-0.141
-466.157	197.985	-0.189	-0.293
-465.143	-129.062	0.389	-0.055
-464.128	-200.000	0.052	0.394
-463.113	-160.623	0.245	-0.013
-462.099	-157.418	0.121	0.007
-461.084	-131.152	0.313	-0.042
-460.070	-200.000	-0.025	-0.181
-459.055	-143.892	0.156	-0.015
-458.040	74.286	-0.175	-0.186
-457.026	75.450	0.119	-0.127
-456.011	88.721	-0.226	-0.254
-454.997	-200.000	0.021	0.249
-453.982	-84.753	0.087	0.028
-452.968	33.459	0.089	0.078
-451.953	-76.150	-0.152	0.054
-450.938	-93.789	0.112	-0.031
-449.924	263.077	-0.112	-0.196
-448.909	12.315	-0.131	-0.102
-447.895	-200.000	0.010	-0.379
-446.880	-152.661	0.218	0.016
-445.865	-101.517	-0.135	0.033
-444.851	48.138	0.097	0.092
-443.836	-200.000	0.007	-0.103
-442.822	-81.957	-0.248	-0.082
-441.807	568.580	-0.126	-0.309
-440.792	-200.000	-0.005	0.037
-439.778	203.231	-0.178	-0.277
-438.763	661.469	0.031	0.081
-437.749	-161.310	0.084	0.004
-436.734	264.725	-0.112	0.197
-435.719	-200.000	0.007	0.159
-434.705	58.411	-0.178	-0.177
-433.690	-200.000	0.030	-0.259
-432.676	800.000	0.058	-0.199
-431.661	686.590	-0.100	-0.265
-430.646	-189.942	-0.065	-0.001
-429.632	800.000	-0.086	0.305
-428.617	-137.772	0.223	-0.025
-427.603	800.000	0.072	0.264
-426.588	-36.601	0.219	0.119
-425.573	-108.075	0.298	-0.065
-424.559	367.659	0.175	-0.357
-423.544	-127.613	0.198	-0.029
-422.530	-68.937	0.278	0.108
-421.515	800.000	-0.105	0.349
-420.500	-67.657	-0.238	0.094
-419.486	327.449	-0.073	-0.141
-418.471	-200.000	0.017	0.260
-417.457	-200.000	-0.014	-0.304
-416.442	-58.078	0.253	-0.112
-415.428	348.841	0.103	0.205
-414.413	-66.412	-0.299	-0.120
-413.398	-84.452	-0.249	-0.079
-412.384	-86.371	0.088	-0.027
-411.369	-123.250	-0.106	-0.017
-410.355	3.259	0.151	-0.111
-409.340	197.304	-0.137	-0.211
-408.325	-55.805	-0.104	0.047
-407.311	-200.000	0.062	0.330
-406.296	-91.844	0.155	0.044
-405.282	-123.768	0.293	0.047
-404.267	83.551	-0.208	0.229
-403.252	-83.290	-0.225	-0.073
-402.238	122.378	-0.192	0.243
-401.223	-45.492	-0.147	0.073
-400.209	8.548	-0.109	0.083
-399.194	54.392	-0.145	-0.141
-398.179	800.000	0.040	0.125
-397.165	-174.386	-0.095	0.003
-396.150	800.000	0.009	-0.025
-395.136	-54.610	0.286	-0.131
-394.121	101.932	0.024	0.028
-393.106	20.733	0.057	-0.046
-392.092	98.744	-0.198	0.230
-391.077	-200.000	-0.017	-0.085
-390.063	800.000	0.075	-0.240
-389.048	9.935	-0.355	0.272
-388.033	-124.715	0.314	0.049
-387.019	-5.659	-0.145	-0.100
-386.004	-1.402	-0.161	-0.115
-384.990	-200.000	0.001	0.165
-383.975	-47.120	0.127	0.062
-382.960	800.000	-0.048	-0.170
-381.946	-36.296	-0.267	-0.145
-380.931	-26.175	0.064	-0.038
-379.917	-200.000	-0.056	-0.263
-378.902	160.156	0.184	0.259
-377.888	-200.000	-0.016	-0.173
-376.873	517.231	0.052	0.123
-375.858	128.901	0.007	0.009
-374.844	-179.992	-0.107	0.002
-373.829	172.947	-0.161	0.234
-372.815	351.148	0.020	0.040
-371.800	800.000	0.038	0.145
-370.785	116.899	0.030	-0.037
-369.771	-63.042	0.244	-0.102
-368.756	800.000	0.088	-0.294
-367.742	5.564	0.244	0.182
-366.727	-79.465	-0.103	-0.035
-365.712	-43.117	-0.304	0.155
-364.698	39.881	-0.243	0.220
-363.683	800.000	0.054	0.225
-362.669	218.715	0.073	-0.118
-361.654	-117.649	-0.297	-0.054
-360.639	-101.659	0.065	-0.016
-359.625	247.929	-0.084	-0.143
-358.610	39.894	0.358	-0.324
-357.596	51.349	-0.125	-0.120
-356.581	33.060	0.267	-0.233
-355.566	403.553	-0.146	-0.309
-354.552	252.743	0.105	-0.181
-353.537	260.015	-0.040	0.069
-352.523	-200.000	0.025	0.299
-351.508	-30.262	0.147	-0.084
-350.493	43.740	0.121	0.112
-349.479	102.458	-0.111	0.130
-348.464	-200.000	0.013	0.485
-347.450	-200.000	-0.008	0.057
-346.435	-72.986	-0.099	-0.037
-345.420	-124.077	0.285	-0.045
-344.406	-16.016	0.088	-0.056
-343.391	-108.154	0.178	0.039
-342.377	-200.000	-0.022	0.329
-341.362	-113.690	-0.217	0.043
-340.348	478.876	0.087	-0.197
-339.333	282.660	-0.143	0.259
-338.318	-36.425	-0.068	0.037
-337.304	645.298	-0.094	-0.243
-336.289	-141.627	-0.175	0.018
-335.275	109.612	0.102	-0.123
-334.260	1.716	0.145	0.105
-333.245	800.000	-0.087	0.365
-332.231	-50.008	-0.120	0.057
-331.216	-9.484	0.019	0.012
-330.202	-62.806	-0.236	0.098
-329.187	-115.478	-0.305	-0.058
-328.172	-141.344	0.243	-0.025
-327.158	338.869	-0.072	-0.141
-326.143	-91.460	-0.030	0.009
-325.129	-200.000	-0.020	0.249
-324.114	414.703	0.060	0.128
-323.099	-200.000	0.029	0.301
-322.085	-47.888	-0.194	0.094
-321.070	-81.976	-0.031	-0.010
-320.056	17.262	-0.116	0.092
-319.041	102.823	-0.084	0.099
-318.026	-179.098	0.332	-0.007
-317.012	800.000	0.094	0.287
-315.997	220.681	-0.112	-0.180
-314.983	-184.915	-0.233	-0.004
-313.968	-114.566	-0.134	0.026
-312.953	-200.000	0.022	-0.195
-311.939	75.187	0.074	0.078
-310.924	-200.000	0.065	-0.349
-309.910	45.675	0.105	-0.097
-308.895	53.533	-0.195	0.188
-307.880	-118.362	-0.190	0.034
-306.866	-30.278	0.244	0.139
-305.851	-22.119	0.226	-0.138
-304.837	-146.318	0.212	0.019
-303.822	54.862	0.100	-0.097
-302.807	-200.000	0.043	0.282
-301.793	-116.737	0.103	0.019
-300.778	-64.611	-0.340	0.139
-299.764	800.000	0.045	-0.151
-298.749	-129.490	-0.271	-0.038
-297.735	236.350	0.067	-0.111
-296.720	-151.715	0.271	0.020
-295.705	-200.000	-0.013	0.202
-294.691	-90.538	0.336	-0.098
-293.676	-129.417	0.117	0.016
-292.662	-59.095	-0.179	0.078
-291.647	48.975	0.099	0.094
-290.632	-95.304	-0.097	-0.026
-289.618	-152.453	0.307	-0.022
-288.603	-27.211	0.149	-0.087
-287.589	-78.601	-0.148	0.051
-286.574	10.719	-0.262	0.201
-285.559	800.000	-0.165	0.604
-284.545	277.254	0.170	0.304
-283.530	185.265	0.024	-0.035
-282.516	209.026	-0.185	0.291
-281.501	-200.000	-0.009	0.060
-280.486	-65.248	-0.284	-0.115
-279.472	-32.906	0.154	0.086
-278.457	-1.577	-0.209	-0.148
-277.443	28.420	-0.142	-0.121
-276.428	-106.062	0.315	0.071
-275.413	66.535	0.042	-0.043
-274.399	-200.000	-0.071	0.562
-273.384	-21.760	0.294	0.179
-272.370	-131.714	0.454	-0.060
-271.355	209.331	-0.157	0.246
-270.340	-77.611	0.096	-0.034
-269.326	380.512	0.110	-0.226
-268.311	-20.744	0.325	0.200
-267.297	296.152	0.075	0.139
-266.282	-200.000	0.004	0.034
-265.267	-156.536	-0.149	-0.009
-264.253	-200.000	0.102	-0.467
-263.238	60.712	-0.078	-0.077
-262.224	-85.400	-0.361	0.113
-261.209	-190.087	0.193	0.002
-260.195	-80.998	-0.185	0.061
-259.180	6.449	-0.164	-0.122
-258.165	187.926	-0.121	-0.182
-257.151	25.087	-0.113	0.094
-256.136	162.196	0.036	-0.050
-255.122	800.000	0.030	0.086
-254.107	-16.547	0.419	-0.266
-253.092	800.000	-0.051	0.186
-252.078	349.518	-0.075	0.149
-251.063	-45.081	0.303	0.151
-250.049	13.098	-0.167	-0.130
-249.034	-200.000	-0.001	0.050
-248.019	6.997	0.123	0.092
-247.005	-155.346	0.092	0.006
-245.990	184.997	-0.069	-0.102
-244.976	302.213	0.155	0.287
-243.961	-19.509	0.328	-0.204
-242.946	-200.000	0.014	-0.076
-241.932	142.512	0.136	0.181
-240.917	800.000	-0.061	0.267
-239.903	800.000	-0.043	0.145
-238.888	-138.895	0.295	-0.032
-237.873	-153.018	-0.290	-0.020
-236.859	56.094	0.023	-0.022
-235.844	641.708	-0.092	-0.234
-234.830	-200.000	0.057	-0.423
-233.815	800.000	0.032	-0.099
-232.800	0.989	-0.353	-0.254
-231.786	-102.322	-0.229	0.055
-230.771	-7.945	0.319	0.215
-229.757	171.462	0.113	-0.163
-228.742	-141.848	-0.310	0.031
-227.727	-142.534	0.229	0.023
-226.713	471.566	0.033	0.074
-225.698	800.000	0.101	-0.292
-224.684	-8.029	-0.224	0.152
-223.669	-200.000	-0.185	-0.000
-222.655	-5.897	0.343	0.235
-221.640	758.687	-0.084	0.229
-220.625	45.295	-0.167	0.155
-219.611	-74.171	0.268	-0.097
-218.596	642.323	-0.030	-0.077
-217.582	-27.758	0.278	0.161
-216.567	-200.000	-0.111	0.490
-215.552	65.216	-0.250	0.253
-214.538	-89.035	-0.390	-0.116
-213.523	37.996	0.202	-0.180
-212.509	-179.430	-0.286	0.006
-211.494	-200.000	0.024	0.202
-210.479	-200.000	-0.019	-0.120
-209.465	8.675	-0.099	0.075
-208.450	712.676	0.067	-0.177
-207.436	-200.000	-0.004	-0.063
-206.421	800.000	-0.044	0.128
-205.406	61.740	-0.087	-0.087
-204.392	547.678	-0.098	-0.235
-203.377	-200.000	0.017	0.293
-202.363	343.477	0.053	0.104
-201.348	184.958	-0.163	0.242
-200.333	263.526	0.085	0.148
-199.319	-200.000	-0.018	0.234
-198.304	-104.412	0.088	0.020
-197.290	384.343	-0.102	0.209
-196.275	-200.000	0.020	0.120
-195.260	184.786	0.088	0.131
-194.246	-95.389	-0.192	0.052
-193.231	579.311	-0.055	0.135
-192.217	63.090	0.319	-0.319
-191.202	800.000	-0.073	-0.234
-190.187	-139.579	-0.105	0.011
-189.173	-200.000	0.013	0.149
-188.158	67.488	0.075	-0.077
-187.144	-110.264	0.434	-0.090
-186.129	391.060	0.119	0.246
-185.114	-111.061	0.403	-0.083
-184.100	-93.795	-0.394	0.109
-183.085	-200.000	-0.033	0.181
-182.071	-68.880	0.224	0.086
-181.056	-200.000	-0.004	-0.087
-180.042	-40.265	-0.148	0.077
-179.027	122.514	-0.205	0.256
-178.012	94.017	0.116	-0.131
-176.998	88.002	0.033	-0.036
-175.983	63.812	-0.128	-0.129
-174.969	-200.000	0.018	0.103
-173.954	-147.487	0.308	-0.026
-172.939	800.000	0.021	0.086
-171.925	-200.000	-0.002	0.047
-170.910	187.107	0.111	-0.166
-169.896	22.814	-0.212	0.174
-168.881	97.606	0.185	0.213
-167.866	-200.000	0.045	0.280
-166.852	-68.875	-0.084	0.032
-165.837	510.782	0.014	-0.032
-164.823	-90.104	0.280	-0.082
-163.808	-26.456	-0.077	-0.045
-162.793	-39.917	-0.079	0.041
-161.779	-78.574	-0.170	0.058
-160.764	-11.821	0.073	-0.048
-159.750	-25.996	-0.286	0.168
-158.735	-45.582	0.212	0.105
-157.720	-184.124	0.111	-0.002
-156.706	282.412	-0.145	0.259
-155.691	-124.208	0.232	-0.036
-154.677	-200.000	0.006	0.047
-153.662	146.807	0.163	0.219
-152.647	-200.000	0.037	0.451
-151.633	-200.000	-0.055	0.270
-150.618	800.000	0.084	0.317
-149.604	-200.000	-0.062	0.412
-148.589	-15.015	-0.282	0.180
-147.574	-62.832	0.338	-0.140
-146.560	800.000	0.152	-0.468
-145.545	16.600	0.104	0.082
-144.531	800.000	0.056	0.229
-143.516	-200.000	-0.071	0.393
-142.502	-41.978	0.180	0.092
-141.487	338.628	-0.200	0.390
-140.472	-63.000	0.063	0.026
-139.458	-174.316	-0.213	-0.006
-138.443	27.035	-0.140	0.117
-137.429	-48.461	-0.285	0.137
-136.414	-44.504	-0.103	-0.051
-135.399	800.000	-0.030	0.090
-134.385	27.911	0.013	-0.011
-133.370	249.101	0.059	0.099
-132.356	-85.480	0.218	-0.068
-131.341	128.309	0.157	-0.199
-130.326	-117.134	-0.291	0.053
-129.312	-100.527	0.560	-0.138
-128.297	38.131	0.252	-0.224
-127.283	52.763	0.239	-0.228
-126.268	-72.985	0.196	-0.072
-125.253	-200.000	-0.074	-0.389
-124.239	-200.000	-0.016	-0.373
-123.224	-200.000	0.024	-0.415
-122.210	-200.000	-0.011	0.112
-121.195	800.000	0.074	0.270
