DTS Sentinel unit serial number:	SN413079Multiplexer serial number:	ORYXHardware model number:	OX4-SRSoftware version number:	ORYX F/W v4.00 Oryx Data Collector v3.7.2.0data status	okinstallation	princeton_trtdifferential loss correction	single-endedforward channel	channel 1reverse channel	N/Adate	2019/09/10time	16:24:11forward acquisition time	60.00reverse acquisition time	0.00gamma	496.2192k internal	0.2299k external	0.2299temperature offset calibration	0.9922default loss term (dB/km)	0.3790temperature slope calibration	1.0000multiplexer offset coefficient	1.0000multiplexer slope coefficient	1.0000fibre end	0.00T internal ref (°C)	38.17T ext. ref 1 (°C)	-0.28T ext. ref 2 (°C)	30.74length (m)	temperature (°C)	Stokes	anti-Stokes-747.200	-32.997	-0.101	-0.057
-746.185	-116.052	0.242	0.046
-745.171	-131.779	0.288	0.039
-744.156	800.000	-0.056	0.228
-743.142	59.266	-0.145	-0.145
-742.127	800.000	0.179	0.525
-741.112	307.868	0.033	-0.063
-740.098	-64.854	0.172	0.071
-739.083	800.000	-0.007	-0.026
-738.069	26.547	0.167	0.142
-737.054	409.532	0.158	0.341
-736.039	197.234	0.122	0.190
-735.025	292.519	0.255	0.474
-734.010	40.724	-0.079	-0.072
-732.996	800.000	-0.158	-0.450
-731.981	216.103	-0.141	0.229
-730.966	275.706	-0.107	-0.193
-729.952	-88.838	-0.014	-0.004
-728.937	-122.694	0.181	-0.030
-727.923	-42.359	0.095	-0.049
-726.908	438.124	-0.089	-0.199
-725.894	-121.070	-0.171	-0.029
-724.879	-110.496	-0.248	-0.052
-723.864	77.844	-0.083	0.090
-722.850	90.917	0.192	0.219
-721.835	104.609	-0.237	-0.285
-720.821	472.102	-0.058	-0.133
-719.806	800.000	-0.053	0.230
-718.791	41.038	0.175	-0.161
-717.777	210.075	0.136	0.217
-716.762	-89.640	-0.261	-0.078
-715.748	371.498	-0.027	0.056
-714.733	207.554	-0.135	-0.215
-713.718	48.460	-0.087	0.083
-712.704	-200.000	0.058	0.405
-711.689	227.304	0.073	0.122
-710.675	-200.000	-0.023	0.233
-709.660	-44.208	-0.079	0.041
-708.645	-200.000	-0.065	-0.387
-707.631	-107.772	-0.054	-0.012
-706.616	430.327	0.030	0.067
-705.602	26.076	-0.143	-0.122
-704.587	50.693	0.115	-0.111
-703.572	-47.962	0.137	0.067
-702.558	-200.000	-0.028	0.159
-701.543	800.000	0.031	0.120
-700.529	291.984	0.186	0.346
-699.514	96.278	-0.048	0.056
-698.499	170.882	0.028	-0.041
-697.485	36.533	0.110	0.098
-696.470	268.727	-0.117	-0.210
-695.456	461.561	0.121	0.275
-694.441	15.322	-0.138	0.110
-693.426	70.002	-0.115	-0.121
-692.412	-26.218	0.230	-0.138
-691.397	-200.000	-0.024	-0.228
-690.383	-162.711	-0.237	-0.012
-689.368	56.231	-0.237	-0.235
-688.354	-10.487	0.211	-0.142
-687.339	-16.741	-0.344	0.222
-686.324	109.639	-0.342	-0.418
-685.310	-87.642	0.423	-0.130
-684.295	-136.827	0.230	-0.027
-683.281	-79.562	-0.509	-0.175
-682.266	-112.575	-0.458	0.093
-681.251	118.919	0.207	-0.261
-680.237	409.058	-0.124	0.267
-679.222	-143.892	0.101	-0.010
-678.208	800.000	0.055	0.162
-677.193	-47.905	0.080	-0.039
-676.178	-200.000	0.035	0.223
-675.164	-177.673	-0.250	-0.006
-674.149	618.563	0.094	-0.239
-673.135	-189.307	-0.315	0.004
-672.120	-67.874	0.157	-0.062
-671.105	-40.281	0.180	-0.095
-670.091	-22.255	-0.099	-0.061
-669.076	-86.259	0.046	0.014
-668.062	-30.217	-0.088	0.051
-667.047	-200.000	-0.071	-0.700
-666.032	-122.915	-0.088	0.014
-665.018	-92.468	-0.393	0.112
-664.003	-114.906	0.332	-0.064
-662.989	-200.000	0.014	0.252
-661.974	800.000	-0.118	-0.335
-660.959	57.441	0.237	-0.236
-659.945	-78.151	-0.174	-0.061
-658.930	-200.000	-0.002	0.082
-657.916	-92.374	-0.234	0.067
-656.901	291.904	0.052	-0.095
-655.886	15.929	-0.123	-0.099
-654.872	-25.810	-0.177	-0.106
-653.857	800.000	-0.040	-0.168
-652.843	-200.000	0.016	0.466
-651.828	-150.737	-0.401	-0.031
-650.814	277.717	0.167	0.302
-649.799	-200.000	0.033	0.200
-648.784	444.865	0.089	0.198
-647.770	54.298	-0.164	0.161
-646.755	727.770	0.043	-0.117
-645.741	800.000	0.047	0.195
-644.726	-111.972	0.169	0.035
-643.711	-200.000	-0.020	0.095
-642.697	76.153	-0.267	-0.287
-641.682	-31.583	-0.254	-0.145
-640.668	-64.311	-0.147	0.061
-639.653	19.882	0.018	-0.015
-638.638	536.632	0.043	-0.105
-637.624	42.083	0.154	-0.142
-636.609	-200.000	0.001	-0.079
-635.595	-22.740	0.553	-0.339
-634.580	-194.035	-0.255	0.002
-633.565	-64.714	-0.201	-0.083
-632.551	667.897	-0.094	-0.247
-631.536	475.409	-0.104	0.238
-630.522	547.043	0.067	0.162
-629.507	0.888	-0.254	-0.185
-628.492	-200.000	0.007	-0.382
-627.478	-200.000	-0.049	-0.365
-626.463	-6.132	-0.271	-0.188
-625.449	-33.659	-0.035	-0.020
-624.434	-200.000	-0.001	0.147
-623.419	-129.290	0.281	0.040
-622.405	800.000	0.024	0.091
-621.390	-25.610	0.312	0.187
-620.376	450.929	-0.072	-0.161
-619.361	800.000	-0.059	-0.198
-618.346	-200.000	0.015	-0.267
-617.332	166.882	0.108	0.156
-616.317	-200.000	-0.026	0.170
-615.303	82.521	-0.142	-0.156
-614.288	-113.429	-0.116	0.023
-613.273	-145.563	-0.278	-0.025
-612.259	-112.697	0.305	0.062
-611.244	103.867	-0.035	0.042
-610.230	666.883	-0.036	-0.095
-609.215	-121.707	-0.215	-0.036
-608.201	800.000	0.041	0.163
-607.186	-147.855	0.281	0.024
-606.171	-91.519	-0.146	-0.042
-605.157	-200.000	-0.103	-0.631
-604.142	527.532	-0.077	0.184
-603.128	-13.281	-0.187	0.123
-602.113	-97.198	0.361	0.096
-601.098	-173.699	0.218	0.007
-600.084	670.419	0.087	-0.229
-599.069	105.465	-0.066	0.079
-598.055	-200.000	-0.011	-0.106
-597.040	800.000	0.005	0.023
-596.025	-60.584	-0.168	0.072
-595.011	112.071	0.181	0.222
-593.996	800.000	0.039	0.134
-592.982	193.472	0.092	-0.141
-591.967	-49.699	-0.325	0.157
-590.952	-118.453	0.241	0.043
-589.938	800.000	-0.042	-0.124
-588.923	12.594	-0.172	-0.135
-587.909	775.295	-0.041	-0.113
-586.894	-133.222	0.295	0.038
-585.879	-200.000	0.012	-0.162
-584.865	-18.301	0.307	0.194
-583.850	-40.948	-0.241	-0.126
-582.836	15.803	0.157	0.125
-581.821	-26.444	-0.201	-0.120
-580.806	64.186	-0.199	0.203
-579.792	-21.888	-0.310	-0.191
-578.777	-88.878	-0.167	-0.050
-577.763	-127.036	-0.141	-0.021
-576.748	51.093	-0.182	-0.175
-575.733	3.666	0.082	-0.061
-574.719	-157.786	0.344	-0.021
-573.704	81.225	0.013	0.014
-572.690	-200.000	0.078	-0.377
-571.675	-200.000	-0.028	-0.285
-570.661	-144.102	-0.281	-0.027
-569.646	800.000	0.086	-0.241
-568.631	-66.845	0.080	-0.032
-567.617	800.000	-0.176	0.529
-566.602	-19.719	0.154	0.096
-565.588	800.000	0.073	0.234
-564.573	-65.532	-0.205	0.083
-563.558	-11.219	0.212	-0.141
-562.544	146.695	0.087	0.118
-561.529	-112.449	-0.429	0.087
-560.515	-188.060	-0.357	0.005
-559.500	208.901	-0.049	-0.077
-558.485	-81.234	-0.176	-0.059
-557.471	29.260	-0.141	-0.121
-556.456	-200.000	-0.031	0.278
-555.442	-44.080	-0.051	0.026
-554.427	32.132	0.125	-0.109
-553.412	-80.298	0.276	-0.094
-552.398	586.838	-0.073	0.182
-551.383	-48.132	0.213	0.104
-550.369	800.000	-0.136	-0.385
-549.354	5.086	-0.181	-0.135
-548.339	-200.000	0.020	-0.290
-547.325	-17.747	0.118	-0.075
-546.310	-32.927	0.225	-0.127
-545.296	-200.000	-0.022	0.263
-544.281	-105.146	-0.110	-0.025
-543.266	-113.631	-0.374	0.074
-542.252	6.281	-0.174	0.131
-541.237	-41.339	0.155	-0.081
-540.223	-200.000	-0.015	-0.165
-539.208	-141.796	-0.187	-0.019
-538.193	374.073	0.114	-0.235
-537.179	800.000	0.042	0.153
-536.164	409.193	0.087	0.187
-535.150	-52.580	-0.231	-0.108
-534.135	800.000	-0.117	-0.330
-533.121	-18.648	-0.372	0.235
-532.106	-126.072	-0.250	-0.038
-531.091	800.000	0.075	-0.241
-530.077	-25.658	0.206	-0.123
-529.062	800.000	0.084	-0.319
-528.048	111.703	0.252	0.308
-527.033	72.085	0.194	0.204
-526.018	17.174	0.116	-0.093
-525.004	672.828	-0.075	-0.197
-523.989	-14.875	-0.114	0.074
-522.975	800.000	0.057	0.213
-521.960	146.775	-0.070	0.096
-520.945	-66.233	0.306	0.123
-519.931	387.356	-0.120	0.251
-518.916	-200.000	0.006	0.344
-517.902	57.074	0.095	0.093
-516.887	-164.237	0.123	-0.006
-515.872	52.159	0.200	-0.193
-514.858	-181.671	-0.330	0.006
-513.843	-58.695	0.248	-0.109
-512.829	141.319	-0.104	0.139
-511.814	-57.514	0.052	0.023
-510.799	-5.140	0.162	-0.112
-509.785	-70.464	0.243	-0.093
-508.770	800.000	0.058	0.189
-507.756	-200.000	0.054	0.291
-506.741	27.619	-0.338	-0.288
-505.726	-49.218	0.192	-0.093
-504.712	-88.514	0.129	-0.039
-503.697	-120.536	-0.324	0.056
-502.683	-200.000	-0.110	-0.566
-501.668	261.336	-0.056	-0.098
-500.653	-19.063	0.155	-0.097
-499.639	-71.819	0.322	-0.121
-498.624	-7.974	0.044	0.030
-497.610	-155.336	0.203	-0.013
-496.595	-139.798	0.092	0.010
-495.581	-87.214	-0.088	-0.027
-494.566	0.172	0.157	0.113
-493.551	450.279	-0.143	-0.318
-492.537	38.147	-0.110	-0.099
-491.522	35.356	-0.199	0.177
-490.508	-200.000	0.016	0.255
-489.493	18.154	0.313	-0.252
-488.478	-13.254	0.136	-0.089
-487.464	384.888	-0.051	0.107
-486.449	-28.539	-0.121	0.070
-485.435	115.518	0.192	0.238
-484.420	800.000	0.063	-0.232
-483.405	119.455	0.206	-0.258
-482.391	-154.953	-0.048	-0.003
-481.376	-200.000	-0.087	0.475
-480.362	-139.744	0.488	-0.052
-479.347	-200.000	-0.061	-0.305
-478.332	800.000	-0.136	-0.517
-477.318	-44.726	0.242	-0.122
-476.303	800.000	-0.040	0.168
-475.289	-200.000	-0.082	0.000
-474.274	800.000	-0.109	0.350
-473.259	297.506	-0.241	-0.446
-472.245	800.000	-0.048	0.194
-471.230	110.755	0.086	-0.105
-470.216	-7.970	-0.442	0.301
-469.201	-82.235	0.099	0.033
-468.186	-114.302	-0.084	-0.016
-467.172	158.842	-0.076	-0.107
-466.157	66.684	-0.080	0.082
-465.143	-155.182	-0.261	-0.017
-464.128	110.968	0.147	0.179
-463.113	800.000	0.063	0.224
-462.099	-148.956	-0.360	-0.029
-461.084	800.000	0.109	0.455
-460.070	800.000	0.072	-0.234
-459.055	-200.000	0.007	-0.075
-458.040	16.248	-0.069	-0.055
-457.026	800.000	0.072	-0.284
-456.011	-38.979	0.060	-0.032
-454.997	-63.782	0.077	0.032
-453.982	-26.653	0.171	0.101
-452.968	-200.000	0.000	0.100
-451.953	-188.877	0.103	-0.001
-450.938	-83.742	-0.332	-0.107
-449.924	-200.000	0.004	-0.116
-448.909	-33.442	-0.213	-0.119
-447.895	-200.000	-0.198	-0.000
-446.880	-136.500	-0.168	0.020
-445.865	89.921	0.091	-0.102
-444.851	26.971	-0.228	-0.193
-443.836	63.313	-0.113	-0.115
-442.822	-200.000	0.059	0.403
-441.807	557.921	0.019	0.045
-440.792	-200.000	0.012	-0.255
-439.778	94.309	0.093	0.106
-438.763	-68.500	-0.109	0.043
-437.749	296.929	-0.224	-0.415
-436.734	-200.000	0.074	-0.400
-435.719	-200.000	-0.027	-0.244
-434.705	-38.542	-0.196	0.105
-433.690	-200.000	-0.021	0.138
-432.676	169.610	0.121	0.174
-431.661	279.473	-0.142	-0.255
-430.646	297.887	0.084	-0.156
-429.632	44.650	-0.192	-0.177
-428.617	-156.363	-0.144	0.009
-427.603	577.991	-0.056	0.137
-426.588	-8.292	-0.258	0.175
-425.573	800.000	0.168	-0.517
-424.559	663.275	0.089	0.231
-423.544	-151.111	-0.299	-0.023
-422.530	-102.724	-0.295	-0.071
-421.515	-2.132	0.075	0.053
-420.500	274.372	0.055	-0.097
-419.486	-110.918	-0.169	0.035
-418.471	-58.657	-0.263	-0.115
-417.457	-200.000	0.027	0.173
-416.442	-200.000	0.022	0.172
-415.428	30.744	0.227	0.196
-414.413	-27.097	-0.213	0.125
-413.398	-93.820	0.165	0.046
-412.384	12.531	0.113	-0.088
-411.369	800.000	0.045	-0.136
-410.355	-200.000	-0.031	0.384
-409.340	-64.533	0.387	0.158
-408.325	-62.311	0.113	0.047
-407.311	-200.000	0.037	0.218
-406.296	-70.705	-0.168	-0.064
-405.282	-94.866	0.257	0.070
-404.267	87.180	0.121	-0.135
-403.252	-108.827	-0.103	0.022
-402.238	-70.284	0.059	-0.022
-401.223	800.000	0.065	-0.180
-400.209	-92.732	-0.158	0.044
-399.194	-57.104	0.134	-0.060
-398.179	49.583	0.293	0.278
-397.165	-93.835	0.089	0.025
-396.150	-200.000	0.035	0.280
-395.136	800.000	-0.091	-0.375
-394.121	55.987	-0.268	-0.262
-393.106	-200.000	-0.058	-0.323
-392.092	-0.655	-0.134	0.095
-391.077	-88.919	-0.083	0.025
-390.063	177.135	-0.107	-0.156
-389.048	71.769	-0.066	-0.069
-388.033	800.000	0.022	-0.093
-387.019	-25.743	-0.381	-0.226
-386.004	-9.647	-0.177	0.119
-384.990	24.374	0.139	-0.116
-383.975	142.781	0.097	0.130
-382.960	-155.076	0.368	0.024
-381.946	-99.434	-0.096	-0.024
-380.931	-200.000	-0.464	0.001
-379.917	-162.803	0.162	-0.008
-378.902	7.771	-0.107	-0.081
-377.888	49.144	-0.068	-0.065
-376.873	-32.322	0.061	0.035
-375.858	-86.777	-0.201	-0.062
-374.844	69.321	0.053	0.055
-373.829	800.000	0.032	0.118
-372.815	-129.729	-0.444	0.062
-371.800	-89.049	0.065	0.019
-370.785	89.506	-0.101	0.113
-369.771	-101.533	0.093	0.023
-368.756	240.329	-0.069	0.115
-367.742	-133.192	0.432	0.055
-366.727	-51.317	0.106	0.050
-365.712	-9.697	-0.064	-0.043
-364.698	-88.491	0.073	-0.022
-363.683	13.694	-0.221	-0.173
-362.669	-189.019	-0.178	0.002
-361.654	-87.575	0.244	-0.074
-360.639	277.065	-0.034	-0.061
-359.625	-143.825	0.117	-0.011
-358.610	238.114	-0.059	0.099
-357.596	6.152	-0.273	0.203
-356.581	-84.548	-0.138	-0.044
-355.566	-64.851	0.377	0.153
-354.552	268.461	0.286	0.504
-353.537	-1.467	0.162	0.115
-352.523	-47.958	0.053	-0.026
-351.508	-144.307	0.329	-0.031
-350.493	-94.030	-0.376	0.104
-349.479	-95.098	-0.225	-0.061
-348.464	261.339	-0.094	-0.164
-347.450	-200.000	-0.057	0.255
-346.435	-140.351	0.342	-0.036
-345.420	-65.696	0.156	0.063
-344.406	73.351	0.146	0.154
-343.391	764.109	-0.092	0.251
-342.377	392.354	0.051	0.107
-341.362	53.042	-0.152	0.146
-340.348	-57.493	0.124	-0.055
-339.333	326.942	0.073	0.141
-338.318	283.677	0.122	0.221
-337.304	800.000	0.147	0.466
-336.289	-44.087	-0.295	-0.149
-335.275	-147.386	0.358	0.030
-334.260	251.132	-0.155	0.264
-333.245	-200.000	0.004	0.122
-332.231	-70.740	-0.153	0.058
-331.216	-112.451	-0.258	-0.052
-330.202	-182.345	0.235	-0.004
-329.187	4.167	0.350	-0.258
-328.172	148.428	-0.049	0.067
-327.158	389.698	0.109	-0.227
-326.143	-135.847	-0.350	0.041
-325.129	-36.153	0.257	-0.139
-324.114	-200.000	0.084	0.382
-323.099	230.871	-0.128	-0.210
-322.085	-61.655	0.385	-0.162
-321.070	337.570	0.063	-0.123
-320.056	28.729	-0.314	0.267
-319.041	144.425	-0.159	0.213
-318.026	-60.759	0.141	0.060
-317.012	-200.000	-0.022	0.220
-315.997	-200.000	-0.052	0.230
-314.983	53.128	-0.078	0.075
-313.968	618.838	-0.122	-0.308
-312.953	-200.000	-0.056	0.291
-311.939	242.494	0.057	-0.095
-310.924	226.792	0.118	-0.192
-309.910	-88.559	0.134	-0.040
-308.895	-195.990	-0.433	-0.003
-307.880	-106.273	0.158	-0.036
-306.866	-160.259	0.467	-0.025
-305.851	-33.321	0.128	-0.071
-304.837	17.939	0.026	0.021
-303.822	-200.000	0.056	0.259
-302.807	-72.454	0.129	-0.048
-301.793	241.657	-0.138	0.232
-300.778	-67.047	-0.231	0.091
-299.764	800.000	0.049	0.185
-298.749	372.886	0.063	-0.129
-297.735	-87.773	0.111	0.033
-296.720	452.293	0.086	0.191
-295.705	91.490	0.149	0.168
-294.691	-200.000	0.041	0.388
-293.676	-17.331	0.205	0.129
-292.662	-86.747	0.045	-0.014
-291.647	-200.000	-0.044	-0.248
-290.632	51.910	0.187	-0.179
-289.618	36.052	-0.146	-0.129
-288.603	800.000	-0.084	0.240
-287.589	271.802	-0.094	0.166
-286.574	-200.000	0.004	0.339
-285.559	-200.000	-0.005	-0.035
-284.545	-110.364	-0.154	-0.032
-283.530	167.622	-0.128	-0.182
-282.516	16.145	0.072	-0.057
-281.501	39.892	0.345	0.310
-280.486	-100.249	0.343	-0.085
-279.472	465.440	0.122	0.274
-278.457	-125.646	-0.490	-0.074
-277.443	-116.125	-0.049	0.009
-276.428	-200.000	-0.021	0.168
-275.413	210.056	0.322	0.506
-274.399	-157.902	0.538	-0.032
-273.384	354.326	0.246	0.490
-272.370	96.250	-0.074	0.085
-271.355	0.749	0.162	-0.116
-270.340	-54.925	-0.268	0.121
-269.326	-9.632	0.166	0.111
-268.311	-48.168	0.183	0.088
-267.297	-115.473	-0.014	-0.003
-266.282	-49.522	0.144	0.069
-265.267	-134.903	0.152	0.018
-264.253	-142.970	-0.146	0.014
-263.238	-109.436	0.236	-0.050
-262.224	-113.230	0.244	-0.048
-261.209	-200.000	0.004	-0.058
-260.195	-21.773	0.228	0.139
-259.180	36.564	0.236	-0.208
-258.165	239.379	0.149	-0.249
-257.151	-200.000	0.054	-0.471
-256.136	800.000	0.067	-0.204
-255.122	-200.000	-0.020	0.153
-254.107	61.617	-0.403	-0.401
-253.092	-129.528	-0.279	0.039
-252.078	-152.363	-0.178	-0.013
-251.063	148.396	-0.067	-0.090
-250.049	40.235	0.419	0.378
-249.034	-126.087	0.047	0.007
-248.019	-200.000	-0.008	-0.106
-247.005	327.734	0.079	0.152
-245.990	151.966	-0.073	0.100
-244.976	240.277	-0.049	0.082
-243.961	-106.669	0.044	0.010
-242.946	800.000	-0.058	0.247
-241.932	-200.000	-0.006	-0.158
-240.917	-143.249	0.294	-0.028
-239.903	19.020	-0.366	-0.294
-238.888	-78.137	0.496	-0.171
-237.873	63.807	0.347	0.348
-236.859	800.000	-0.039	0.130
-235.844	-148.370	0.190	0.016
-234.830	191.446	0.092	0.139
-233.815	4.859	-0.287	-0.211
-232.800	181.863	-0.204	0.301
-231.786	-144.525	0.333	-0.031
-230.771	241.007	0.082	-0.138
-229.757	-6.473	-0.142	-0.097
-228.742	800.000	-0.050	-0.187
-227.727	138.788	-0.075	-0.098
-226.713	800.000	0.076	0.218
-225.698	-131.556	-0.119	0.016
-224.684	252.813	-0.078	-0.134
-223.669	376.175	-0.029	-0.059
-222.655	588.009	0.016	-0.038
-221.640	-10.535	-0.226	0.149
-220.625	657.533	0.061	-0.158
-219.611	-64.144	0.017	0.007
-218.596	113.461	0.090	0.109
-217.582	-135.890	0.256	0.030
-216.567	-153.202	0.198	0.014
-215.552	-192.419	0.184	-0.002
-214.538	63.287	-0.107	0.107
-213.523	-200.000	-0.014	-0.269
-212.509	137.422	-0.078	-0.102
-211.494	-51.505	-0.193	-0.090
-210.479	219.743	0.102	0.162
-209.465	-100.352	-0.334	-0.083
-208.450	311.128	0.124	-0.233
-207.436	187.499	0.212	0.317
-206.421	330.442	0.156	0.300
-205.406	40.892	-0.245	-0.221
-204.392	-51.384	-0.305	-0.143
-203.377	189.256	0.194	-0.290
-202.363	-137.888	0.235	0.026
-201.348	800.000	0.066	0.197
-200.333	-2.908	0.174	-0.122
-199.319	-56.902	-0.160	-0.070
-198.304	-200.000	0.002	-0.145
-197.290	124.638	0.098	0.123
-196.275	515.130	-0.091	-0.211
-195.260	448.994	-0.149	-0.328
-194.246	127.514	-0.109	0.139
-193.231	-34.533	-0.373	0.204
-192.217	-15.245	0.137	0.087
-191.202	45.690	-0.158	-0.146
-190.187	72.768	-0.079	-0.082
-189.173	-200.000	-0.003	0.042
-188.158	-200.000	-0.021	-0.222
-187.144	-200.000	-0.039	0.231
-186.129	-25.990	-0.205	-0.121
-185.114	4.998	-0.180	-0.133
-184.100	561.036	-0.033	0.078
-183.085	692.169	0.054	0.141
-182.071	61.404	0.167	-0.166
-181.056	-167.401	0.143	-0.006
-180.042	-200.000	-0.060	-0.450
-179.027	25.967	0.218	-0.182
-178.012	-64.795	0.139	0.056
-176.998	79.636	-0.280	0.300
-175.983	-147.015	0.348	-0.030
-174.969	-122.558	-0.102	-0.017
-173.954	51.971	0.253	0.240
-172.939	37.673	-0.115	0.102
-171.925	193.416	0.141	0.213
-170.910	26.367	-0.097	0.081
-169.896	-200.000	-0.030	0.139
-168.881	800.000	0.075	-0.218
-167.866	74.401	-0.305	-0.319
-166.852	-134.570	-0.155	0.019
-165.837	128.040	0.161	-0.204
-164.823	-82.023	0.207	-0.067
-163.808	186.963	0.089	0.133
-162.793	382.907	0.049	0.101
-161.779	298.853	-0.014	-0.026
-160.764	408.450	-0.029	0.061
-159.750	800.000	-0.051	0.162
-158.735	105.655	0.044	-0.051
-157.720	-42.445	-0.105	-0.053
-156.706	-92.785	-0.156	-0.043
-155.691	-39.076	-0.206	0.108
-154.677	-2.301	-0.228	0.160
-153.662	56.768	0.243	0.236
-152.647	-26.737	-0.213	-0.124
-151.633	-156.913	-0.353	0.022
-150.618	-26.668	0.421	-0.245
-149.604	-63.851	-0.114	-0.046
-148.589	360.515	0.036	0.071
-147.574	-26.663	0.431	0.252
-146.560	-200.000	-0.001	0.168
-145.545	135.075	0.155	-0.201
-144.531	-200.000	-0.037	0.239
-143.516	245.804	-0.076	0.128
-142.502	76.056	0.167	-0.176
-141.487	-124.093	0.258	0.040
-140.472	252.039	-0.083	0.140
-139.458	-87.053	-0.599	-0.182
-138.443	-151.154	-0.160	0.012
-137.429	-91.645	-0.291	-0.083
-136.414	297.468	0.119	0.217
-135.399	13.105	0.152	-0.117
-134.385	10.328	0.281	0.213
-133.370	137.976	-0.120	0.156
-132.356	-129.079	-0.137	0.019
-131.341	-48.459	-0.135	-0.065
-130.326	60.828	-0.175	-0.173
-129.312	-55.772	-0.264	-0.118
-128.297	227.708	0.084	-0.135
-127.283	-121.528	-0.366	0.060
-126.268	98.297	0.098	0.112
-125.253	58.013	0.033	0.033
-124.239	194.457	-0.073	0.111
-123.224	-138.424	0.382	-0.042
-122.210	-200.000	0.020	-0.363
-121.195	-19.823	-0.224	0.138
