DTS Sentinel unit serial number:	SN413079Multiplexer serial number:	ORYXHardware model number:	OX4-SRSoftware version number:	ORYX F/W v4.00 Oryx Data Collector v3.7.2.0data status	okinstallation	princeton_trtdifferential loss correction	single-endedforward channel	channel 1reverse channel	N/Adate	2019/09/13time	03:38:35forward acquisition time	60.00reverse acquisition time	0.00gamma	496.2192k internal	0.2332k external	0.2332temperature offset calibration	1.0164default loss term (dB/km)	0.3790temperature slope calibration	1.0000multiplexer offset coefficient	1.0000multiplexer slope coefficient	1.0000fibre end	0.00T internal ref (°C)	27.25T ext. ref 1 (°C)	4.07T ext. ref 2 (°C)	21.62length (m)	temperature (°C)	Stokes	anti-Stokes-747.200	39.096	0.079	0.071
-746.185	-200.000	0.029	0.201
-745.171	279.482	0.109	-0.196
-744.156	800.000	-0.083	0.355
-743.142	276.700	-0.092	-0.164
-742.127	98.032	0.178	0.206
-741.112	-113.718	-0.205	-0.040
-740.098	147.745	0.302	0.410
-739.083	48.997	0.043	0.041
-738.069	-69.389	0.114	-0.044
-737.054	-150.453	0.389	-0.030
-736.039	54.943	-0.162	0.158
-735.025	-200.000	0.074	0.377
-734.010	-152.068	0.096	0.007
-732.996	-42.637	-0.333	0.170
-731.981	181.863	-0.273	-0.405
-730.966	800.000	-0.030	0.083
-729.952	-39.130	-0.232	-0.123
-728.937	-44.448	0.176	0.089
-727.923	-101.796	-0.217	0.053
-726.908	7.467	0.049	0.037
-725.894	-200.000	0.018	0.139
-724.879	-200.000	-0.018	-0.122
-723.864	-200.000	-0.001	-0.060
-722.850	-140.567	-0.114	-0.012
-721.835	151.576	-0.127	-0.174
-720.821	-28.866	0.225	0.130
-719.806	-200.000	-0.061	0.410
-718.791	-105.325	0.060	-0.014
-717.777	-115.683	-0.151	-0.028
-716.762	800.000	0.059	-0.206
-715.748	467.960	-0.027	-0.062
-714.733	-53.198	-0.063	-0.029
-713.718	5.303	-0.231	-0.171
-712.704	-60.447	-0.141	-0.060
-711.689	-200.000	-0.040	0.199
-710.675	-58.921	0.318	0.138
-709.660	-31.232	0.235	0.133
-708.645	25.788	-0.099	-0.083
-707.631	-122.504	-0.149	-0.024
-706.616	290.889	0.147	0.269
-705.602	-116.524	-0.291	-0.054
-704.587	-107.190	0.040	0.009
-703.572	-200.000	0.001	-0.117
-702.558	104.804	-0.160	0.190
-701.543	166.507	-0.119	0.170
-700.529	-200.000	0.003	-0.105
-699.514	-62.066	-0.226	0.095
-698.499	13.101	0.225	0.175
-697.485	-41.031	0.362	-0.188
-696.470	106.515	-0.109	0.130
-695.456	-49.739	0.295	-0.141
-694.441	106.695	0.059	0.070
-693.426	135.412	0.079	0.103
-692.412	57.629	-0.155	0.152
-691.397	-6.768	-0.074	0.051
-690.383	20.677	0.087	0.070
-689.368	43.046	0.260	-0.238
-688.354	499.499	-0.144	0.333
-687.339	101.381	0.025	-0.029
-686.324	44.273	0.091	0.084
-685.310	49.116	-0.183	-0.173
-684.295	219.030	-0.079	-0.127
-683.281	-80.469	-0.242	0.081
-682.266	-76.367	-0.213	-0.075
-681.251	-200.000	-0.045	0.455
-680.237	800.000	-0.116	-0.331
-679.222	-13.530	-0.238	-0.155
-678.208	202.932	0.136	-0.211
-677.193	-200.000	-0.002	-0.036
-676.178	-200.000	-0.010	-0.189
-675.164	-23.987	-0.122	0.073
-674.149	-200.000	0.008	0.139
-673.135	498.948	0.139	-0.322
-672.120	-13.966	0.083	-0.053
-671.105	-134.944	-0.189	0.023
-670.091	-66.866	-0.160	0.063
-669.076	-133.921	0.147	-0.018
-668.062	-68.455	-0.052	-0.020
-667.047	190.013	-0.218	0.328
-666.032	-200.000	0.086	0.426
-665.018	800.000	0.061	0.188
-664.003	-125.004	-0.059	-0.009
-662.989	198.262	0.149	-0.228
-661.974	156.755	-0.115	-0.160
-660.959	705.000	0.041	-0.110
-659.945	-85.131	0.243	0.076
-658.930	-11.401	-0.299	0.197
-657.916	310.565	0.124	0.233
-656.901	415.930	-0.138	0.295
-655.886	60.404	-0.173	-0.172
-654.872	-20.108	0.241	-0.149
-653.857	-23.429	-0.040	-0.024
-652.843	-89.422	-0.428	0.126
-651.828	-200.000	-0.000	-0.290
-650.814	-10.100	-0.469	-0.312
-649.799	304.492	-0.106	0.197
-648.784	-123.612	0.306	0.049
-647.770	-71.925	0.117	-0.044
-646.755	800.000	-0.057	-0.204
-645.741	54.248	0.081	0.078
-644.726	120.875	0.119	0.149
-643.711	-4.977	-0.111	-0.076
-642.697	-193.749	-0.204	-0.002
-641.682	800.000	-0.106	0.388
-640.668	329.783	-0.037	-0.071
-639.653	-93.294	-0.324	-0.090
-638.638	154.061	0.156	-0.215
-637.624	-15.320	0.057	-0.037
-636.609	-75.353	-0.274	-0.098
-635.595	500.504	-0.160	-0.370
-634.580	-200.000	-0.007	-0.167
-633.565	-135.514	0.208	-0.025
-632.551	-88.784	-0.351	-0.104
-631.536	-182.457	-0.167	0.003
-630.522	-200.000	0.027	-0.194
-629.507	217.327	-0.173	0.276
-628.492	-18.277	0.090	-0.056
-627.478	-75.179	0.143	-0.051
-626.463	-152.072	-0.090	0.007
-625.449	34.638	-0.048	0.042
-624.434	-200.000	0.089	-0.496
-623.419	-120.510	0.281	0.048
-622.405	-10.270	0.204	0.135
-621.390	269.860	-0.174	0.306
-620.376	11.006	0.151	-0.116
-619.361	-186.582	0.373	0.005
-618.346	800.000	0.055	0.208
-617.332	-21.222	-0.246	-0.151
-616.317	-81.223	0.094	-0.031
-615.303	-117.859	-0.196	0.035
-614.288	129.639	0.069	-0.088
-613.273	344.302	0.100	-0.197
-612.259	-36.032	0.136	-0.074
-611.244	-90.750	0.313	-0.090
-610.230	284.638	0.105	-0.190
-609.215	-22.165	0.065	0.040
-608.201	139.220	0.043	0.056
-607.186	466.261	-0.114	0.256
-606.171	-200.000	0.013	-0.058
-605.157	-89.097	0.026	0.008
-604.142	77.979	-0.203	-0.217
-603.128	-98.536	0.261	-0.067
-602.113	-200.000	-0.069	0.330
-601.098	75.367	0.106	0.112
-600.084	145.469	-0.159	0.213
-599.069	-200.000	0.014	-0.443
-598.055	549.832	0.059	-0.141
-597.040	-140.671	-0.149	0.015
-596.025	-110.142	-0.071	0.015
-595.011	-200.000	0.014	-0.099
-593.996	325.692	0.012	0.023
-592.982	169.730	0.309	-0.441
-591.967	39.532	-0.118	0.106
-590.952	-200.000	-0.006	-0.108
-589.938	-131.272	-0.086	-0.011
-588.923	689.801	-0.091	0.237
-587.909	63.569	0.098	-0.099
-586.894	-143.238	-0.139	-0.013
-585.879	-115.203	0.153	-0.029
-584.865	-11.592	-0.319	-0.209
-583.850	-102.157	0.270	-0.065
-582.836	-50.741	0.177	-0.083
-581.821	631.407	-0.060	-0.153
-580.806	800.000	0.092	-0.277
-579.792	-200.000	0.053	0.361
-578.777	-62.409	0.094	0.039
-577.763	-158.065	0.120	0.007
-576.748	800.000	-0.064	-0.195
-575.733	112.932	0.205	0.248
-574.719	-175.830	-0.154	0.004
-573.704	-200.000	0.015	-0.090
-572.690	-104.237	-0.064	-0.015
-571.675	-200.000	0.005	0.166
-570.661	-6.156	-0.103	0.070
-569.646	90.316	-0.181	-0.202
-568.631	-55.452	-0.097	0.043
-567.617	-200.000	-0.027	0.366
-566.602	-37.405	-0.103	0.055
-565.588	-17.260	-0.165	-0.104
-564.573	545.812	0.049	0.118
-563.558	-106.621	0.173	0.038
-562.544	591.290	-0.142	-0.349
-561.529	297.367	-0.138	-0.253
-560.515	59.886	0.161	-0.159
-559.500	-200.000	-0.043	-0.448
-558.485	-137.954	0.207	-0.023
-557.471	112.296	0.095	-0.115
-556.456	-31.750	-0.109	-0.061
-555.442	-70.485	0.056	-0.021
-554.427	-200.000	-0.044	-0.264
-553.412	-200.000	-0.003	0.356
-552.398	274.498	-0.275	0.486
-551.383	127.641	-0.154	0.196
-550.369	195.387	-0.109	-0.166
-549.354	317.334	-0.180	-0.340
-548.339	136.436	-0.066	0.086
-547.325	-52.980	0.065	-0.030
-546.310	-167.117	0.237	0.010
-545.296	14.454	0.094	-0.074
-544.281	-50.672	0.200	-0.094
-543.266	-114.967	0.097	-0.018
-542.252	581.353	0.128	-0.313
-541.237	117.046	-0.172	-0.211
-540.223	120.978	-0.155	0.192
-539.208	-156.686	-0.396	-0.024
-538.193	-100.979	-0.273	-0.067
-537.179	-200.000	-0.035	-0.234
-536.164	-44.276	0.189	-0.095
-535.150	-190.019	0.181	-0.002
-534.135	289.373	0.084	0.151
-533.121	362.532	0.063	-0.127
-532.106	376.784	-0.212	0.432
-531.091	192.149	-0.169	0.255
-530.077	-200.000	-0.041	-0.185
-529.062	561.154	0.064	-0.153
-528.048	95.488	-0.200	-0.227
-527.033	-200.000	-0.005	0.111
-526.018	-200.000	-0.041	0.267
-525.004	-200.000	0.020	-0.114
-523.989	-120.617	-0.147	-0.025
-522.975	-128.484	0.156	0.022
-521.960	-38.801	0.208	-0.109
-520.945	-186.637	-0.172	0.002
-519.931	-33.593	-0.194	0.107
-518.916	-120.704	-0.104	-0.018
-517.902	800.000	0.091	-0.340
-516.887	-81.270	0.060	0.020
-515.872	-175.975	-0.220	-0.006
-514.858	-200.000	0.037	-0.254
-513.843	549.333	0.024	0.058
-512.829	-8.908	0.094	-0.063
-511.814	236.876	0.150	-0.248
-510.799	330.061	0.071	0.137
-509.785	57.359	0.076	-0.074
-508.770	93.372	-0.196	-0.221
-507.756	-200.000	-0.012	-0.275
-506.741	-1.988	-0.107	0.075
-505.726	132.448	0.231	-0.297
-504.712	-126.726	0.058	-0.009
-503.697	0.069	0.058	-0.041
-502.683	226.518	0.079	-0.127
-501.668	-20.213	0.099	-0.061
-500.653	83.814	0.275	0.299
-499.639	-59.417	0.064	0.027
-498.624	39.958	-0.170	-0.152
-497.610	800.000	-0.028	0.120
-496.595	101.021	-0.189	0.219
-495.581	41.599	0.108	0.098
-494.566	-134.196	-0.193	0.024
-493.551	-60.750	0.085	-0.036
-492.537	-53.015	0.145	-0.067
-491.522	-200.000	0.218	0.001
-490.508	-51.366	0.135	-0.063
-489.493	187.594	-0.110	-0.164
-488.478	-24.005	-0.252	-0.150
-487.464	-77.899	0.145	0.050
-486.449	-46.521	-0.354	0.173
-485.435	283.884	0.183	0.328
-484.420	-200.000	0.002	-0.036
-483.405	-200.000	0.001	0.148
-482.391	569.765	-0.098	0.238
-481.376	800.000	0.031	0.098
-480.362	800.000	0.012	-0.035
-479.347	87.002	-0.175	0.192
-478.332	-123.866	0.228	-0.036
-477.318	139.576	-0.109	0.142
-476.303	552.966	0.100	-0.239
-475.289	687.125	-0.066	-0.171
-474.274	-30.477	-0.192	-0.108
-473.259	800.000	0.079	0.220
-472.245	-165.988	-0.121	-0.005
-471.230	99.187	-0.265	0.305
-470.216	57.841	-0.293	0.286
-469.201	212.339	-0.123	-0.194
-468.186	71.102	0.086	-0.089
-467.172	800.000	0.028	0.082
-466.157	9.333	-0.106	0.080
-465.143	-30.326	-0.187	-0.105
-464.128	-49.601	-0.077	0.036
-463.113	107.125	-0.162	0.192
-462.099	52.444	0.257	0.244
-461.084	-200.000	0.018	0.366
-460.070	492.789	0.172	-0.392
-459.055	-200.000	0.008	-0.293
-458.040	800.000	0.098	-0.359
-457.026	-75.679	-0.177	0.062
-456.011	-127.263	0.100	-0.014
-454.997	-200.000	-0.006	-0.030
-453.982	38.214	-0.156	0.138
-452.968	14.985	0.137	0.107
-451.953	-92.925	0.311	-0.086
-450.938	-200.000	0.004	-0.303
-449.924	3.618	-0.232	-0.168
-448.909	400.168	0.045	0.094
-447.895	800.000	-0.059	-0.209
-446.880	-200.000	-0.001	-0.012
-445.865	-111.036	-0.548	0.112
-444.851	800.000	-0.060	0.258
-443.836	800.000	0.153	0.431
-442.822	362.097	0.178	0.354
-441.807	-77.096	0.166	0.058
-440.792	304.148	0.127	0.234
-439.778	-123.729	0.017	-0.003
-438.763	277.099	0.188	0.332
-437.749	642.599	0.103	0.261
-436.734	-16.132	0.143	0.090
-435.719	586.713	-0.071	-0.173
-434.705	6.588	0.182	0.134
-433.690	-47.727	-0.241	-0.116
-432.676	-200.000	0.010	-0.128
-431.661	71.676	-0.054	-0.055
-430.646	111.599	-0.022	0.027
-429.632	800.000	0.089	-0.261
-428.617	-143.828	-0.270	0.025
-427.603	28.376	-0.216	-0.181
-426.588	-168.922	0.178	0.007
-425.573	66.723	-0.105	-0.106
-424.559	57.938	-0.099	0.097
-423.544	-200.000	-0.042	0.218
-422.530	-200.000	0.004	-0.269
-421.515	-200.000	-0.007	0.103
-420.500	49.656	-0.187	-0.175
-419.486	105.476	0.100	0.117
-418.471	118.863	0.050	-0.062
-417.457	14.067	0.081	-0.063
-416.442	-14.247	0.072	0.046
-415.428	4.711	0.299	-0.218
-414.413	-24.278	-0.134	0.080
-413.398	-200.000	-0.098	-0.433
-412.384	800.000	-0.078	0.246
-411.369	119.978	-0.241	0.296
-410.355	800.000	-0.026	0.105
-409.340	50.490	0.178	0.167
-408.325	70.607	0.163	0.167
-407.311	-49.331	-0.299	0.142
-406.296	12.633	0.186	-0.143
-405.282	-3.062	0.041	-0.028
-404.267	113.098	0.172	0.207
-403.252	-98.231	0.181	0.046
-402.238	57.908	-0.206	0.200
-401.223	527.635	0.072	-0.169
-400.209	365.307	0.152	-0.303
-399.194	30.729	0.044	0.038
-398.179	-131.558	-0.291	-0.038
-397.165	-200.000	-0.017	-0.190
-396.150	-36.490	0.408	0.218
-395.136	800.000	0.059	0.175
-394.121	-124.714	0.086	-0.013
-393.106	20.015	0.064	-0.051
-392.092	217.596	-0.112	-0.177
-391.077	-52.356	0.069	0.032
-390.063	166.627	0.134	-0.189
-389.048	-137.927	-0.211	-0.023
-388.033	-200.000	-0.040	0.275
-387.019	-200.000	0.009	-0.194
-386.004	-200.000	-0.039	-0.185
-384.990	474.432	-0.028	0.064
-383.975	-170.145	-0.096	0.003
-382.960	-135.626	0.103	-0.012
-381.946	-24.396	0.172	-0.102
-380.931	-147.558	0.187	0.016
-379.917	389.561	-0.110	-0.226
-378.902	800.000	-0.027	0.102
-377.888	800.000	0.096	-0.310
-376.873	-71.629	-0.158	-0.058
-375.858	-84.501	-0.436	-0.136
-374.844	-200.000	-0.007	0.300
-373.829	-37.177	-0.397	0.211
-372.815	-182.277	0.075	0.001
-371.800	-123.316	-0.049	0.008
-370.785	-61.488	0.278	-0.116
-369.771	0.480	-0.167	-0.119
-368.756	17.753	-0.176	-0.139
-367.742	800.000	0.111	0.407
-366.727	-200.000	-0.026	-0.119
-365.712	800.000	-0.039	-0.128
-364.698	756.707	-0.152	0.408
-363.683	534.483	-0.075	0.177
-362.669	-200.000	-0.015	-0.078
-361.654	-105.115	-0.417	-0.095
-360.639	-132.489	-0.276	0.035
-359.625	800.000	0.134	0.417
-358.610	-136.061	-0.164	-0.019
-357.596	-200.000	-0.013	-0.061
-356.581	-200.000	-0.034	-0.151
-355.566	30.476	0.375	0.317
-354.552	30.773	0.146	-0.124
-353.537	800.000	-0.026	0.078
-352.523	276.352	-0.079	0.138
-351.508	590.122	-0.071	0.172
-350.493	762.846	0.077	0.207
-349.479	327.142	-0.115	0.219
-348.464	-62.424	-0.091	-0.037
-347.450	-200.000	-0.022	0.275
-346.435	-65.694	0.351	-0.139
-345.420	-200.000	-0.004	-0.171
-344.406	441.792	-0.062	0.135
-343.391	-99.092	0.004	-0.001
-342.377	58.482	0.089	0.086
-341.362	-92.364	0.067	0.019
-340.348	209.775	0.242	0.376
-339.333	800.000	-0.004	-0.017
-338.318	-122.494	-0.193	-0.031
-337.304	361.055	0.062	-0.122
-336.289	-1.667	0.129	0.090
-335.275	24.485	-0.243	0.199
-334.260	55.128	-0.111	-0.106
-333.245	54.731	0.139	0.133
-332.231	-132.067	-0.337	-0.043
-331.216	-43.897	-0.282	-0.141
-330.202	-153.108	0.216	0.015
-329.187	3.266	-0.417	0.300
-328.172	-45.147	0.257	0.127
-327.158	800.000	-0.078	-0.217
-326.143	-162.292	0.306	-0.015
-325.129	108.413	-0.088	-0.104
-324.114	470.495	0.094	0.210
-323.099	-30.988	0.171	0.096
-322.085	36.376	-0.040	0.035
-321.070	-200.000	0.042	0.454
-320.056	-200.000	-0.030	0.159
-319.041	800.000	-0.146	-0.445
-318.026	4.573	-0.203	0.147
-317.012	51.381	0.111	0.104
-315.997	-200.000	-0.025	-0.199
-314.983	58.311	0.160	0.155
-313.968	11.396	0.221	-0.168
-312.953	-200.000	-0.019	-0.174
-311.939	800.000	0.125	0.351
-310.924	16.503	0.224	0.175
-309.910	329.877	0.087	-0.166
-308.895	577.329	-0.063	-0.151
-307.880	-58.793	0.215	0.092
-306.866	431.965	0.192	0.411
-305.851	-143.569	-0.186	-0.017
-304.837	-5.312	-0.075	-0.051
-303.822	115.924	0.167	-0.202
-302.807	-200.000	-0.001	0.304
-301.793	-31.371	0.258	0.144
-300.778	29.988	-0.184	-0.155
-299.764	-38.143	0.499	0.262
-298.749	553.965	-0.078	-0.186
-297.735	25.906	-0.153	0.126
-296.720	21.068	0.386	0.310
-295.705	800.000	-0.104	-0.290
-294.691	-182.097	0.301	0.006
-293.676	-109.623	-0.350	-0.073
-292.662	641.813	-0.119	-0.300
-291.647	-46.829	-0.081	0.039
-290.632	-109.061	-0.337	-0.071
-289.618	153.460	0.176	-0.238
-288.603	340.299	0.121	0.233
-287.589	53.858	-0.275	0.261
-286.574	-200.000	0.017	-0.163
-285.559	-23.709	-0.107	0.063
-284.545	800.000	-0.100	0.343
-283.530	-122.062	-0.077	-0.013
-282.516	-33.035	-0.270	0.148
-281.501	17.725	0.254	0.200
-280.486	102.478	0.126	0.146
-279.472	-200.000	-0.023	-0.330
-278.457	528.702	0.095	-0.221
-277.443	-82.705	-0.090	-0.029
-276.428	-200.000	0.001	0.163
-275.413	-70.263	-0.392	-0.147
-274.399	-167.641	0.135	0.005
-273.384	-200.000	-0.352	-0.001
-272.370	-68.672	-0.099	0.038
-271.355	-95.925	0.248	0.065
-270.340	9.229	0.170	-0.127
-269.326	-200.000	-0.005	0.148
-268.311	7.955	0.149	-0.110
-267.297	37.766	0.149	-0.131
-266.282	9.604	-0.167	0.125
-265.267	-200.000	0.009	0.180
-264.253	800.000	-0.088	-0.281
-263.238	-112.481	0.292	-0.058
-262.224	-200.000	-0.027	-0.133
-261.209	388.471	-0.065	-0.133
-260.195	-55.980	-0.125	0.055
-259.180	-152.682	0.070	0.005
-258.165	103.280	0.119	-0.138
-257.151	-134.922	0.133	0.016
-256.136	-132.576	0.117	-0.015
-255.122	800.000	-0.068	-0.270
-254.107	51.543	0.210	-0.197
-253.092	130.232	-0.154	-0.195
-252.078	78.118	-0.236	-0.248
-251.063	-101.125	0.221	0.053
-250.049	-153.307	-0.160	-0.011
-249.034	-139.210	-0.206	-0.022
-248.019	-74.644	0.188	0.067
-247.005	-200.000	-0.008	-0.082
-245.990	-200.000	-0.063	0.276
-244.976	-50.920	-0.206	0.095
-243.961	-42.762	-0.246	0.124
-242.946	-113.363	0.457	0.089
-241.932	-189.285	-0.284	-0.003
-240.917	120.608	0.255	-0.313
-239.903	3.004	0.076	0.054
-238.888	-64.577	-0.049	-0.020
-237.873	-152.627	0.295	0.021
-236.859	193.120	0.035	-0.052
-235.844	23.035	0.154	-0.124
-234.830	133.689	0.094	0.120
-233.815	350.611	-0.137	-0.268
-232.800	83.967	-0.096	0.103
-231.786	-200.000	0.007	-0.224
-230.771	-200.000	-0.034	0.208
-229.757	461.283	-0.067	-0.148
-228.742	-53.403	0.094	0.043
-227.727	82.772	-0.166	-0.178
-226.713	157.473	-0.056	0.077
-225.698	212.684	0.275	0.427
-224.684	-200.000	-0.018	0.093
-223.669	-200.000	-0.018	-0.279
-222.655	-200.000	0.040	0.363
-221.640	-94.155	0.239	0.065
-220.625	-109.800	-0.218	0.045
-219.611	358.880	0.179	-0.353
-218.596	800.000	-0.068	0.194
-217.582	-95.586	-0.325	-0.086
-216.567	-85.526	-0.252	-0.077
-215.552	-200.000	0.025	-0.192
-214.538	149.475	0.160	-0.213
-213.523	800.000	0.104	-0.322
-212.509	-100.648	0.250	0.061
-211.494	-36.770	-0.085	0.045
-210.479	-200.000	-0.028	0.158
-209.465	-39.119	0.183	-0.095
-208.450	278.722	0.135	0.237
-207.436	800.000	0.051	0.199
-206.421	225.770	0.103	0.165
-205.406	-53.791	0.074	-0.033
-204.392	-84.011	-0.232	0.073
-203.377	291.870	-0.210	-0.376
-202.363	800.000	0.038	0.149
-201.348	-129.123	0.172	-0.024
-200.333	800.000	0.039	-0.159
-199.319	168.211	-0.085	-0.119
-198.304	49.880	0.151	-0.140
-197.290	800.000	0.046	0.146
-196.275	-200.000	0.024	-0.126
-195.260	292.319	-0.050	0.090
-194.246	-200.000	-0.048	-0.373
-193.231	-200.000	0.004	0.115
-192.217	51.426	0.135	0.126
-191.202	-71.249	0.255	-0.094
-190.187	-116.080	-0.306	-0.056
-189.173	56.880	0.220	-0.211
-188.158	229.028	0.150	0.240
-187.144	-200.000	0.044	-0.289
-186.129	-79.961	-0.573	0.189
-185.114	31.588	0.247	0.209
-184.100	-96.640	-0.067	-0.017
-183.085	58.535	-0.102	0.099
-182.071	542.214	-0.087	0.205
-181.056	441.421	0.046	-0.099
-180.042	86.313	0.041	-0.045
-179.027	-72.226	0.073	0.027
-178.012	51.665	0.239	-0.224
-176.998	-92.428	-0.297	0.082
-175.983	48.359	-0.295	0.271
-174.969	-13.899	-0.046	-0.029
-173.954	302.789	0.031	-0.057
-172.939	304.744	0.084	-0.154
-171.925	298.491	0.240	0.434
-170.910	-38.956	0.262	0.136
-169.896	-75.927	0.166	0.058
-168.881	800.000	-0.106	0.412
-167.866	-200.000	0.015	-0.209
-166.852	-25.284	0.141	-0.082
-165.837	477.114	-0.020	0.045
-164.823	-44.863	-0.172	-0.084
-163.808	48.830	-0.099	0.091
-162.793	800.000	-0.059	0.252
-161.779	800.000	-0.076	0.293
-160.764	-4.747	0.135	-0.092
-159.750	-99.603	-0.172	-0.043
-158.735	-191.850	-0.073	0.001
-157.720	-11.393	0.232	0.150
-156.706	-200.000	0.025	-0.238
-155.691	-200.000	-0.018	0.131
-154.677	177.449	0.120	-0.171
-153.662	-91.371	-0.338	-0.095
-152.647	19.571	0.121	0.096
-151.633	-156.334	0.406	0.025
-150.618	-31.313	0.109	0.060
-149.604	65.073	-0.025	-0.025
-148.589	-80.970	0.434	-0.141
-147.574	-200.000	0.038	0.285
-146.560	604.254	0.148	-0.362
-145.545	-69.031	-0.325	0.123
-144.531	-70.294	0.411	-0.153
-143.516	145.668	0.224	0.294
-142.502	-200.000	0.020	0.313
-141.487	-119.513	0.246	-0.042
-140.472	-131.249	-0.342	0.045
-139.458	-200.000	0.012	0.220
-138.443	26.224	-0.142	0.116
-137.429	702.408	-0.129	-0.334
-136.414	198.941	0.058	-0.087
-135.399	84.802	0.094	-0.102
-134.385	-13.356	0.189	-0.121
-133.370	-51.326	-0.288	-0.132
-132.356	-200.000	0.000	0.014
-131.341	4.301	-0.010	-0.007
-130.326	-192.620	-0.184	-0.002
-129.312	-101.709	-0.310	-0.074
-128.297	121.097	0.069	0.085
-127.283	-151.747	-0.375	0.027
-126.268	220.571	-0.035	-0.055
-125.253	567.211	0.091	-0.218
-124.239	-200.000	-0.002	-0.100
-123.224	177.861	0.236	-0.337
-122.210	-200.000	-0.017	-0.135
-121.195	-27.601	0.056	-0.032
