DTS Sentinel unit serial number:	SN413079Multiplexer serial number:	ORYXHardware model number:	OX4-SRSoftware version number:	ORYX F/W v4.00 Oryx Data Collector v3.7.2.0data status	okinstallation	princeton_trtdifferential loss correction	single-endedforward channel	channel 1reverse channel	N/Adate	2019/09/13time	16:58:35forward acquisition time	60.00reverse acquisition time	0.00gamma	496.2192k internal	0.2304k external	0.2304temperature offset calibration	1.0149default loss term (dB/km)	0.3790temperature slope calibration	1.0000multiplexer offset coefficient	1.0000multiplexer slope coefficient	1.0000fibre end	0.00T internal ref (°C)	34.87T ext. ref 1 (°C)	4.84T ext. ref 2 (°C)	31.98length (m)	temperature (°C)	Stokes	anti-Stokes-747.200	-173.627	-0.315	-0.010
-746.185	17.002	-0.232	0.187
-745.171	-117.563	-0.280	0.051
-744.156	174.850	-0.162	0.238
-743.142	-200.000	-0.003	-0.352
-742.127	-200.000	-0.026	0.265
-741.112	320.469	0.160	0.310
-740.098	136.698	-0.205	-0.273
-739.083	-46.971	-0.201	0.100
-738.069	243.334	-0.152	0.260
-737.054	-26.802	0.158	0.094
-736.039	-200.000	0.012	-0.147
-735.025	98.362	0.113	-0.133
-734.010	800.000	0.024	0.096
-732.996	-200.000	0.002	-0.245
-731.981	-124.774	0.246	-0.039
-730.966	-13.837	0.176	0.116
-729.952	-69.793	-0.140	0.054
-728.937	-40.923	0.084	0.044
-727.923	175.334	-0.184	-0.271
-726.908	-64.401	-0.202	-0.084
-725.894	-200.000	-0.010	-0.276
-724.879	-60.544	-0.144	-0.062
-723.864	451.965	0.058	0.131
-722.850	307.002	0.070	0.133
-721.835	243.274	0.130	-0.221
-720.821	783.165	-0.108	-0.300
-719.806	258.109	0.029	0.050
-718.791	-165.824	-0.578	0.025
-717.777	304.817	-0.099	0.188
-716.762	561.167	-0.130	-0.319
-715.748	-109.644	0.296	0.063
-714.733	-200.000	-0.063	-0.324
-713.718	545.734	0.065	0.159
-712.704	50.256	-0.070	-0.067
-711.689	-189.438	-0.118	0.001
-710.675	-125.951	-0.269	-0.041
-709.660	246.961	0.024	0.041
-708.645	-16.248	-0.397	-0.256
-707.631	-68.322	-0.322	0.127
-706.616	-108.682	0.288	0.063
-705.602	-115.804	-0.248	0.047
-704.587	800.000	-0.018	-0.069
-703.572	312.400	-0.035	0.067
-702.558	-23.479	-0.445	-0.272
-701.543	385.682	-0.131	-0.274
-700.529	-200.000	-0.017	-0.244
-699.514	-200.000	-0.077	0.350
-698.499	800.000	0.020	-0.062
-697.485	-38.559	-0.284	0.153
-696.470	12.757	-0.173	-0.136
-695.456	-123.606	0.237	-0.038
-694.441	396.759	-0.080	-0.171
-693.426	-200.000	0.035	0.170
-692.412	51.286	-0.170	-0.164
-691.397	-200.000	-0.042	-0.193
-690.383	800.000	-0.095	-0.413
-689.368	-59.180	-0.107	-0.047
-688.354	37.701	-0.488	0.440
-687.339	256.848	0.165	-0.288
-686.324	497.265	-0.075	0.176
-685.310	-29.466	0.115	0.067
-684.295	27.959	-0.063	-0.054
-683.281	3.557	-0.006	-0.004
-682.266	800.000	0.048	-0.211
-681.251	67.063	-0.109	-0.112
-680.237	-173.747	0.229	-0.007
-679.222	-76.921	0.319	0.113
-678.208	707.269	-0.048	0.129
-677.193	-200.000	-0.013	-0.224
-676.178	216.785	0.208	-0.336
-675.164	-117.260	0.407	0.075
-674.149	-164.303	-0.257	-0.012
-673.135	587.054	0.173	0.432
-672.120	-96.481	-0.214	-0.057
-671.105	75.676	0.070	0.075
-670.091	-194.977	-0.108	-0.001
-669.076	-155.262	0.289	0.019
-668.062	-57.918	-0.365	-0.162
-667.047	115.083	-0.149	0.184
-666.032	-146.464	-0.167	0.015
-665.018	182.340	0.127	0.190
-664.003	88.019	0.130	0.147
-662.989	-87.688	0.306	-0.094
-661.974	377.121	-0.116	-0.241
-660.959	-200.000	-0.042	-0.196
-659.945	600.746	-0.027	0.068
-658.930	141.026	0.089	-0.120
-657.916	-89.404	0.161	0.048
-656.901	-98.849	-0.208	0.054
-655.886	-59.467	0.288	0.126
-654.872	-111.010	-0.188	-0.039
-653.857	-200.000	0.005	0.119
-652.843	-122.861	0.179	-0.029
-651.828	-61.937	0.315	0.134
-650.814	-16.444	0.184	0.118
-649.799	-200.000	0.037	-0.269
-648.784	-87.553	-0.187	0.057
-647.770	142.267	-0.096	-0.129
-646.755	-200.000	0.003	0.022
-645.741	-147.826	-0.155	-0.013
-644.726	174.730	0.116	0.170
-643.711	646.917	-0.144	0.373
-642.697	-200.000	-0.001	-0.246
-641.682	39.301	0.055	-0.050
-640.668	-200.000	-0.001	-0.175
-639.653	-200.000	-0.016	0.079
-638.638	357.762	0.134	0.271
-637.624	-1.412	-0.139	0.099
-636.609	800.000	-0.060	0.212
-635.595	-174.308	-0.510	-0.015
-634.580	-75.606	-0.304	-0.110
-633.565	-168.033	-0.089	-0.004
-632.551	-200.000	0.018	0.251
-631.536	-101.740	-0.271	0.067
-630.522	-200.000	0.030	-0.231
-629.507	-156.260	-0.145	0.009
-628.492	-200.000	-0.047	0.290
-627.478	62.828	0.292	-0.296
-626.463	-97.717	0.330	0.086
-625.449	-102.329	0.106	0.026
-624.434	43.786	-0.137	-0.127
-623.419	-200.000	0.008	-0.173
-622.405	800.000	0.082	-0.235
-621.390	164.137	0.113	-0.162
-620.376	350.226	-0.135	-0.271
-619.361	-108.807	-0.171	0.037
-618.346	-128.010	0.133	0.019
-617.332	11.799	0.378	-0.294
-616.317	-109.142	-0.094	-0.020
-615.303	-123.801	0.421	0.067
-614.288	58.484	0.140	-0.139
-613.273	212.390	0.048	-0.076
-612.259	-130.327	0.278	-0.038
-611.244	-200.000	0.012	-0.085
-610.230	2.674	0.175	-0.129
-609.215	-60.712	0.173	-0.074
-608.201	-200.000	-0.023	-0.187
-607.186	-149.041	-0.220	-0.018
-606.171	-111.122	-0.209	-0.043
-605.157	653.329	-0.070	-0.182
-604.142	-49.247	0.143	0.069
-603.128	800.000	0.083	-0.366
-602.113	95.313	0.127	0.146
-601.098	-120.747	-0.160	-0.027
-600.084	-52.546	0.363	-0.170
-599.069	43.025	0.059	0.055
-598.055	247.889	-0.087	-0.149
-597.040	-200.000	-0.055	0.381
-596.025	-114.486	-0.132	0.026
-595.011	-127.159	-0.293	-0.043
-593.996	-168.227	0.279	-0.011
-592.982	151.056	-0.342	-0.471
-591.967	-113.072	-0.306	0.061
-590.952	-200.000	0.033	0.348
-589.938	20.568	-0.127	0.104
-588.923	800.000	0.114	-0.421
-587.909	34.670	0.068	0.060
-586.894	19.851	0.065	-0.053
-585.879	-150.068	0.224	0.018
-584.865	-107.097	-0.161	-0.036
-583.850	-3.412	0.072	-0.050
-582.836	585.807	0.130	0.324
-581.821	-76.873	-0.139	0.049
-580.806	-111.591	0.224	-0.046
-579.792	471.990	-0.065	0.148
-578.777	91.580	-0.353	0.402
-577.763	301.225	-0.062	-0.117
-576.748	32.035	0.075	-0.065
-575.733	278.061	-0.084	-0.151
-574.719	77.286	0.170	0.183
-573.704	232.240	0.075	-0.124
-572.690	-10.341	-0.180	-0.121
-571.675	-111.527	-0.519	0.107
-570.661	-22.061	-0.061	-0.038
-569.646	-61.254	-0.338	-0.144
-568.631	132.323	-0.058	0.075
-567.617	611.890	-0.202	-0.511
-566.602	1.486	0.114	0.083
-565.588	131.170	0.042	-0.055
-564.573	-8.033	0.162	0.111
-563.558	-82.805	-0.065	0.021
-562.544	-82.394	-0.178	0.059
-561.529	-200.000	-0.047	0.224
-560.515	-43.458	-0.318	0.162
-559.500	63.514	-0.313	0.318
-558.485	-200.000	0.014	-0.223
-557.471	-156.880	0.111	0.007
-556.456	34.522	-0.169	-0.149
-555.442	35.388	0.096	-0.085
-554.427	-150.292	-0.149	0.012
-553.412	530.727	0.129	-0.308
-552.398	62.051	-0.070	-0.070
-551.383	-20.023	0.195	-0.122
-550.369	143.532	0.064	0.086
-549.354	244.026	0.184	0.312
-548.339	121.763	-0.210	0.265
-547.325	248.563	-0.123	-0.210
-546.310	407.790	-0.110	0.236
-545.296	438.751	-0.018	0.039
-544.281	72.269	0.140	0.147
-543.266	151.813	-0.111	-0.153
-542.252	436.478	-0.141	-0.310
-541.237	-44.571	-0.180	0.091
-540.223	-200.000	-0.008	0.102
-539.208	-200.000	0.014	0.191
-538.193	-31.182	0.131	-0.075
-537.179	-43.560	-0.430	-0.219
-536.164	-200.000	-0.028	-0.332
-535.150	-200.000	0.007	0.089
-534.135	-200.000	-0.048	0.431
-533.121	-117.771	0.039	-0.007
-532.106	800.000	0.055	-0.188
-531.091	127.868	-0.110	0.141
-530.077	5.565	0.170	-0.127
-529.062	54.862	-0.049	-0.048
-528.048	449.180	0.072	0.160
-527.033	20.849	-0.110	-0.090
-526.018	-200.000	-0.010	-0.072
-525.004	106.824	0.043	0.051
-523.989	148.952	-0.076	0.103
-522.975	152.204	0.112	-0.154
-521.960	-127.257	0.355	0.052
-520.945	-200.000	-0.003	0.078
-519.931	-80.134	0.153	0.052
-518.916	800.000	-0.064	0.211
-517.902	378.748	-0.137	-0.283
-516.887	-200.000	0.096	0.483
-515.872	162.624	0.078	0.110
-514.858	-51.216	0.160	-0.076
-513.843	800.000	0.051	0.219
-512.829	-78.730	-0.153	0.053
-511.814	-200.000	0.045	0.301
-510.799	-55.002	0.216	-0.098
-509.785	83.462	-0.185	0.204
-508.770	217.246	0.018	-0.029
-507.756	439.068	-0.088	0.194
-506.741	565.760	-0.090	-0.219
-505.726	-90.974	0.121	-0.035
-504.712	133.463	0.093	-0.122
-503.697	-82.592	-0.109	0.036
-502.683	-19.644	-0.286	0.178
-501.668	100.130	-0.056	-0.065
-500.653	-200.000	-0.005	-0.163
-499.639	-100.316	-0.420	0.105
-498.624	29.698	0.122	-0.105
-497.610	409.966	-0.068	0.146
-496.595	-7.501	-0.133	0.091
-495.581	244.182	-0.289	0.490
-494.566	-123.877	-0.359	0.057
-493.551	67.676	0.131	-0.135
-492.537	-101.087	0.321	-0.079
-491.522	-94.006	0.305	0.084
-490.508	128.939	-0.177	-0.228
-489.493	19.881	0.198	0.160
-488.478	-27.406	-0.471	0.276
-487.464	401.536	0.054	-0.115
-486.449	22.504	0.362	-0.298
-485.435	491.741	0.085	-0.196
-484.420	-131.040	-0.313	-0.042
-483.405	161.180	0.228	0.321
-482.391	467.529	0.083	0.188
-481.376	187.567	0.175	-0.263
-480.362	-200.000	-0.009	0.270
-479.347	288.731	0.119	-0.217
-478.332	-81.006	0.209	-0.070
-477.318	12.239	0.059	-0.045
-476.303	-127.696	0.470	-0.068
-475.289	189.780	-0.098	-0.149
-474.274	160.387	-0.106	-0.149
-473.259	156.173	-0.130	-0.180
-472.245	-130.669	-0.029	-0.004
-471.230	-69.712	-0.152	0.059
-470.216	-69.738	0.298	-0.115
-469.201	-200.000	0.008	0.300
-468.186	3.598	-0.137	-0.100
-467.172	60.840	-0.101	0.101
-466.157	12.925	-0.178	0.138
-465.143	69.047	0.079	-0.082
-464.128	-52.692	-0.061	-0.028
-463.113	5.551	0.045	0.033
-462.099	800.000	-0.115	0.402
-461.084	-200.000	0.002	-0.228
-460.070	-79.644	0.223	0.076
-459.055	-50.214	-0.049	-0.024
-458.040	237.229	0.228	-0.380
-457.026	204.198	-0.077	0.120
-456.011	-200.000	0.060	0.314
-454.997	135.880	0.116	-0.152
-453.982	2.842	0.130	-0.095
-452.968	-59.842	0.387	-0.167
-451.953	370.557	0.057	-0.115
-450.938	704.139	-0.043	-0.114
-449.924	16.963	-0.122	-0.097
-448.909	-150.273	-0.177	-0.014
-447.895	-128.545	0.093	0.013
-446.880	245.116	-0.215	0.364
-445.865	549.419	-0.039	0.093
-444.851	-39.555	-0.229	-0.121
-443.836	-144.423	0.274	-0.026
-442.822	-200.000	-0.016	0.115
-441.807	-200.000	0.051	-0.302
-440.792	-59.044	0.294	0.128
-439.778	38.992	-0.066	0.059
-438.763	191.319	0.134	-0.204
-437.749	-200.000	-0.015	0.124
-436.734	-119.375	-0.189	0.033
-435.719	-145.019	-0.341	0.031
-434.705	-178.124	-0.148	-0.004
-433.690	-123.197	-0.246	0.040
-432.676	-200.000	0.073	-0.367
-431.661	800.000	-0.087	-0.315
-430.646	-200.000	0.003	-0.283
-429.632	44.262	-0.217	-0.200
-428.617	-200.000	-0.006	0.437
-427.603	281.957	-0.088	-0.159
-426.588	42.864	0.274	-0.252
-425.573	61.154	-0.154	-0.154
-424.559	800.000	-0.086	-0.298
-423.544	-131.637	0.290	0.038
-422.530	12.308	-0.028	-0.022
-421.515	8.369	-0.131	0.099
-420.500	101.573	0.240	0.281
-419.486	17.947	-0.120	-0.096
-418.471	-45.874	0.266	0.132
-417.457	-97.219	-0.122	0.032
-416.442	496.888	-0.124	0.286
-415.428	218.413	-0.122	0.195
-414.413	431.403	-0.016	0.035
-413.398	-2.601	0.040	0.028
-412.384	142.117	-0.089	0.119
-411.369	-84.599	0.112	-0.036
-410.355	106.458	0.124	-0.148
-409.340	172.112	-0.090	0.130
-408.325	-200.000	0.007	-0.244
-407.311	67.662	-0.137	-0.141
-406.296	-200.000	-0.005	-0.289
-405.282	-57.881	0.386	0.170
-404.267	-122.489	-0.199	-0.032
-403.252	-200.000	0.048	0.281
-402.238	-107.674	-0.305	0.067
-401.223	41.894	0.409	-0.373
-400.209	141.783	0.090	-0.120
-399.194	-12.392	-0.133	0.087
-398.179	265.841	0.164	-0.287
-397.165	73.624	0.146	-0.154
-396.150	190.383	-0.152	-0.229
-395.136	13.081	0.208	0.162
-394.121	-39.996	-0.240	-0.126
-393.106	-6.225	0.242	0.166
-392.092	-200.000	0.037	0.269
-391.077	-184.118	-0.263	-0.004
-390.063	-3.601	0.080	-0.056
-389.048	-38.532	-0.326	0.173
-388.033	313.068	0.126	0.237
-387.019	800.000	-0.020	0.073
-386.004	-70.597	0.116	-0.044
-384.990	411.251	0.090	0.192
-383.975	-200.000	-0.005	0.146
-382.960	-67.808	0.430	-0.169
-381.946	-200.000	-0.023	0.292
-380.931	-150.705	0.061	-0.005
-379.917	-19.472	-0.145	0.090
-378.902	61.381	-0.305	-0.304
-377.888	800.000	0.122	-0.446
-376.873	-117.439	0.308	-0.056
-375.858	800.000	-0.066	-0.234
-374.844	-200.000	-0.015	-0.489
-373.829	-40.837	0.112	-0.058
-372.815	-43.943	-0.095	0.048
-371.800	800.000	-0.049	0.204
-370.785	47.839	-0.076	-0.072
-369.771	459.176	0.147	0.328
-368.756	800.000	-0.072	-0.216
-367.742	433.516	0.110	-0.239
-366.727	292.208	0.062	0.113
-365.712	69.192	-0.057	0.059
-364.698	800.000	-0.071	-0.207
-363.683	406.129	-0.132	0.280
-362.669	37.490	0.149	-0.132
-361.654	-200.000	0.024	0.151
-360.639	-200.000	0.007	0.200
-359.625	111.174	0.073	-0.088
-358.610	-200.000	0.008	-0.156
-357.596	163.150	0.141	-0.199
-356.581	-105.920	0.305	-0.069
-355.566	-40.951	-0.109	-0.057
-354.552	-200.000	-0.014	0.139
-353.537	-133.619	0.031	0.004
-352.523	-9.022	-0.287	-0.193
-351.508	111.876	0.232	-0.280
-350.493	45.744	0.226	-0.210
-349.479	-200.000	-0.023	-0.141
-348.464	-137.756	0.242	-0.027
-347.450	-180.395	0.133	-0.003
-346.435	-200.000	0.016	0.209
-345.420	275.397	-0.112	-0.199
-344.406	192.707	0.137	0.208
-343.391	-200.000	-0.016	0.279
-342.377	-61.978	0.289	0.121
-341.362	123.438	-0.177	0.222
-340.348	-167.182	-0.320	-0.013
-339.333	131.444	-0.200	0.257
-338.318	120.352	0.096	0.119
-337.304	94.887	0.040	-0.046
-336.289	163.022	-0.077	0.108
-335.275	800.000	-0.017	-0.074
-334.260	-82.829	-0.401	0.130
-333.245	360.902	-0.113	-0.226
-332.231	-100.674	0.071	0.017
-331.216	-200.000	-0.008	0.079
-330.202	-171.099	0.278	-0.009
-329.187	-32.807	0.250	-0.139
-328.172	91.967	0.131	0.147
-327.158	224.540	-0.072	0.116
-326.143	-90.589	0.299	-0.087
-325.129	594.302	-0.083	0.205
-324.114	637.806	0.130	0.330
-323.099	387.863	0.082	0.169
-322.085	-80.194	-0.170	-0.057
-321.070	10.845	-0.028	0.022
-320.056	-84.967	0.315	-0.099
-319.041	476.435	0.012	-0.027
-318.026	253.090	0.091	-0.155
-317.012	-200.000	-0.015	0.129
-315.997	-110.304	0.135	0.028
-314.983	-2.265	-0.095	0.067
-313.968	345.189	0.113	-0.222
-312.953	-46.988	0.065	-0.032
-311.939	-135.404	-0.312	-0.037
-310.924	-113.738	0.135	0.026
-309.910	67.673	-0.316	0.323
-308.895	-105.004	0.114	0.026
-307.880	235.200	0.149	-0.246
-306.866	800.000	0.026	0.101
-305.851	-56.481	0.282	-0.125
-304.837	-103.834	0.138	-0.032
-303.822	-87.036	-0.121	0.037
-302.807	-74.713	0.101	-0.036
-301.793	46.865	0.116	-0.108
-300.778	800.000	0.029	-0.083
-299.764	69.504	-0.178	0.184
-298.749	23.432	0.173	-0.142
-297.735	436.638	-0.073	0.158
-296.720	-93.036	-0.241	0.067
-295.705	254.217	0.143	-0.244
-294.691	61.894	0.154	-0.154
-293.676	714.601	0.092	0.243
-292.662	67.137	-0.215	-0.219
-291.647	-164.980	0.165	-0.007
-290.632	-20.484	0.198	0.122
-289.618	121.590	0.107	-0.134
-288.603	234.315	-0.088	0.145
-287.589	-200.000	0.158	-0.000
-286.574	-200.000	-0.018	0.157
-285.559	-200.000	0.014	0.288
-284.545	-114.983	0.210	0.040
-283.530	262.753	0.265	0.460
-282.516	-33.179	0.270	0.150
-281.501	393.297	0.133	0.276
-280.486	-49.776	0.295	-0.140
-279.472	-44.611	-0.143	-0.072
-278.457	417.887	0.184	0.394
-277.443	-124.476	-0.231	0.036
-276.428	-142.849	-0.263	0.026
-275.413	118.573	-0.087	0.107
-274.399	-12.928	0.120	0.078
-273.384	17.568	0.148	-0.118
-272.370	567.030	0.082	-0.199
-271.355	-113.715	-0.330	0.064
-270.340	-34.096	0.248	-0.136
-269.326	-49.633	-0.189	0.090
-268.311	-200.000	0.042	0.431
-267.297	-200.000	0.058	-0.325
-266.282	-200.000	0.018	-0.125
-265.267	-144.212	0.181	-0.017
-264.253	488.706	0.089	-0.202
-263.238	675.235	0.089	-0.232
-262.224	800.000	-0.047	-0.178
-261.209	-103.889	-0.143	0.033
-260.195	-69.213	0.369	-0.142
-259.180	429.490	0.093	-0.201
-258.165	-166.667	0.318	-0.013
-257.151	-1.653	-0.187	0.132
-256.136	103.331	0.309	0.362
-255.122	800.000	-0.076	0.230
-254.107	-200.000	-0.045	0.310
-253.092	-147.389	-0.097	0.008
-252.078	-84.143	-0.006	0.002
-251.063	-200.000	0.051	0.413
-250.049	-114.204	-0.281	0.054
-249.034	57.568	-0.033	-0.032
-248.019	286.179	-0.085	-0.153
-247.005	158.101	-0.287	0.398
-245.990	-200.000	0.066	-0.307
-244.976	504.218	0.083	-0.193
-243.961	-62.127	-0.360	-0.150
-242.946	-118.243	0.066	-0.012
-241.932	204.024	0.034	-0.053
-240.917	-119.797	0.209	0.036
-239.903	-200.000	-0.017	0.319
-238.888	-200.000	-0.038	0.434
-237.873	233.366	0.064	-0.105
-236.859	-161.507	0.244	0.013
-235.844	233.394	-0.029	-0.047
-234.830	439.121	-0.081	0.176
-233.815	76.969	-0.148	-0.156
-232.800	-66.467	-0.096	0.038
-231.786	-200.000	0.017	-0.124
-230.771	273.929	0.039	0.069
-229.757	77.490	-0.224	-0.238
-228.742	327.474	-0.151	-0.288
-227.727	-200.000	0.014	-0.319
-226.713	272.184	-0.086	0.152
-225.698	-200.000	-0.028	0.153
-224.684	-96.331	-0.167	0.044
-223.669	-200.000	-0.024	-0.312
-222.655	-200.000	0.071	-0.356
-221.640	-15.569	0.223	0.142
-220.625	-200.000	-0.035	0.173
-219.611	167.343	-0.170	-0.242
-218.596	50.349	0.292	-0.275
-217.582	-19.357	-0.147	-0.091
-216.567	-106.226	0.188	0.042
-215.552	180.883	0.078	-0.114
-214.538	-147.909	-0.110	0.009
-213.523	-56.225	-0.286	0.127
-212.509	-32.533	0.119	-0.066
-211.494	800.000	-0.056	0.167
-210.479	-115.855	-0.192	-0.036
-209.465	-154.475	0.128	-0.009
-208.450	95.592	0.093	0.106
-207.436	800.000	0.085	0.297
-206.421	132.250	-0.211	-0.271
-205.406	800.000	0.057	0.249
-204.392	595.707	-0.086	-0.212
-203.377	-200.000	0.005	0.294
-202.363	-11.609	-0.297	0.195
-201.348	210.253	0.105	0.165
-200.333	-200.000	0.037	0.213
-199.319	-164.649	0.167	-0.008
-198.304	800.000	0.028	0.115
-197.290	13.769	-0.149	-0.115
-196.275	-73.409	-0.376	-0.137
-195.260	46.871	0.190	-0.176
-194.246	-86.238	-0.206	0.063
-193.231	-94.673	-0.272	-0.074
-192.217	-200.000	0.012	0.319
-191.202	800.000	-0.044	0.183
-190.187	337.484	0.146	0.282
-189.173	443.321	-0.151	0.330
-188.158	-24.355	0.261	0.155
-187.144	430.117	0.109	-0.234
-186.129	-82.720	0.278	0.090
-185.114	25.406	-0.327	-0.271
-184.100	38.481	-0.158	-0.141
-183.085	-86.559	-0.148	-0.045
-182.071	-200.000	0.019	-0.130
-181.056	800.000	0.055	0.170
-180.042	125.453	-0.114	-0.143
-179.027	-84.077	0.276	0.087
-178.012	393.950	-0.049	0.102
-176.998	-59.185	-0.052	-0.022
-175.983	-88.950	-0.201	-0.059
-174.969	-62.942	-0.196	0.081
-173.954	-200.000	0.006	0.054
-172.939	-111.927	0.335	0.067
-171.925	111.918	0.110	-0.132
-170.910	-163.976	-0.114	-0.005
-169.896	800.000	0.034	-0.125
-168.881	65.829	-0.166	0.168
-167.866	-200.000	0.034	-0.457
-166.852	379.405	-0.101	-0.206
-165.837	13.178	0.107	0.083
-164.823	-200.000	0.012	0.067
-163.808	-19.094	-0.138	-0.085
-162.793	368.019	-0.055	0.111
-161.779	224.407	0.119	0.191
-160.764	-142.615	0.257	0.025
-159.750	-5.041	0.159	0.109
-158.735	-41.626	0.264	-0.135
-157.720	-17.326	-0.196	-0.123
-156.706	-71.824	-0.417	0.154
-155.691	-45.211	-0.251	0.124
-154.677	-200.000	-0.014	-0.240
-153.662	6.192	-0.176	-0.130
-152.647	60.305	-0.118	-0.116
-151.633	39.109	0.274	0.244
-150.618	-112.477	-0.239	-0.047
-149.604	193.136	-0.123	-0.184
-148.589	-153.295	0.258	-0.018
-147.574	95.656	0.012	0.014
-146.560	67.810	-0.225	-0.229
-145.545	-200.000	0.031	-0.281
-144.531	-60.920	-0.302	-0.127
-143.516	-200.000	-0.001	0.264
-142.502	800.000	0.016	-0.058
-141.487	-110.728	0.207	0.043
-140.472	654.117	-0.098	0.251
-139.458	-52.910	-0.210	0.096
-138.443	-200.000	0.136	-0.663
-137.429	-83.400	-0.374	-0.119
-136.414	-200.000	-0.019	0.105
-135.399	61.746	0.054	0.054
-134.385	-176.394	0.407	-0.010
-133.370	-16.012	0.138	-0.087
-132.356	-200.000	-0.075	-0.365
-131.341	-106.306	-0.016	-0.004
-130.326	-60.694	-0.216	0.091
-129.312	-73.510	-0.322	0.117
-128.297	-143.687	0.191	0.018
-127.283	-52.293	0.165	-0.076
-126.268	-63.613	0.143	0.058
-125.253	402.349	0.066	-0.137
-124.239	-200.000	0.007	-0.088
-123.224	167.247	0.039	0.055
-122.210	31.329	0.089	-0.076
