DTS Sentinel unit serial number:	SN413079Multiplexer serial number:	ORYXHardware model number:	OX4-SRSoftware version number:	ORYX F/W v4.00 Oryx Data Collector v3.7.2.0data status	okinstallation	princeton_trtdifferential loss correction	single-endedforward channel	channel 1reverse channel	N/Adate	2019/09/18time	07:30:35forward acquisition time	60.00reverse acquisition time	0.00gamma	496.2192k internal	0.2340k external	0.2340temperature offset calibration	0.9975default loss term (dB/km)	0.3790temperature slope calibration	1.0000multiplexer offset coefficient	1.0000multiplexer slope coefficient	1.0000fibre end	0.00T internal ref (°C)	23.19T ext. ref 1 (°C)	0.20T ext. ref 2 (°C)	17.58length (m)	temperature (°C)	Stokes	anti-Stokes-747.200	-20.198	0.147	-0.091
-746.185	102.702	-0.291	0.341
-745.171	20.583	-0.218	0.177
-744.156	49.588	0.066	-0.063
-743.142	173.626	0.116	0.167
-742.127	-43.617	-0.295	0.149
-741.112	-200.000	0.015	-0.195
-740.098	-71.294	0.161	0.060
-739.083	-200.000	0.007	0.084
-738.069	128.591	0.069	-0.088
-737.054	255.997	0.259	0.445
-736.039	-200.000	-0.028	0.182
-735.025	388.492	0.223	0.464
-734.010	311.012	-0.142	-0.267
-732.996	-100.205	-0.185	0.046
-731.981	249.236	-0.113	-0.192
-730.966	187.355	-0.109	-0.162
-729.952	-200.000	-0.034	-0.153
-728.937	124.711	0.103	-0.130
-727.923	-200.000	-0.014	0.138
-726.908	211.850	0.109	-0.172
-725.894	26.992	0.054	0.046
-724.879	-200.000	0.065	-0.453
-723.864	-3.178	-0.219	-0.153
-722.850	-41.620	0.266	0.137
-721.835	189.063	-0.160	0.240
-720.821	-13.954	-0.192	0.124
-719.806	110.667	0.127	0.153
-718.791	604.151	-0.092	-0.229
-717.777	75.942	-0.142	0.151
-716.762	50.560	0.105	0.099
-715.748	-99.454	0.099	-0.025
-714.733	114.322	0.102	-0.124
-713.718	296.781	-0.310	-0.569
-712.704	-5.425	-0.333	-0.229
-711.689	134.084	0.033	0.043
-710.675	737.818	0.091	-0.243
-709.660	-189.868	-0.146	-0.002
-708.645	-52.620	0.151	0.070
-707.631	-25.090	-0.224	-0.133
-706.616	800.000	-0.060	0.200
-705.602	168.657	0.117	-0.166
-704.587	-115.423	0.209	0.040
-703.572	-60.577	0.193	-0.082
-702.558	238.604	-0.182	-0.303
-701.543	1.056	-0.229	0.164
-700.529	-200.000	-0.078	-0.376
-699.514	-194.842	-0.245	0.002
-698.499	-91.488	-0.249	0.071
-697.485	669.780	0.099	-0.258
-696.470	800.000	0.029	-0.081
-695.456	81.979	0.130	-0.141
-694.441	293.237	0.138	-0.253
-693.426	-56.764	0.213	-0.094
-692.412	800.000	-0.083	-0.258
-691.397	-14.587	-0.207	0.133
-690.383	-103.763	-0.614	0.144
-689.368	103.921	0.259	-0.305
-688.354	-96.254	-0.480	-0.127
-687.339	-200.000	0.025	0.124
-686.324	-22.248	0.066	-0.040
-685.310	800.000	-0.065	-0.262
-684.295	32.670	-0.197	-0.170
-683.281	-55.221	-0.338	0.152
-682.266	-162.883	-0.090	0.004
-681.251	-143.679	-0.308	0.029
-680.237	-195.492	0.174	-0.001
-679.222	-98.690	0.151	0.039
-678.208	800.000	-0.030	0.122
-677.193	111.836	-0.119	-0.144
-676.178	800.000	0.061	-0.251
-675.164	728.612	-0.088	-0.234
-674.149	800.000	0.065	0.198
-673.135	-200.000	-0.008	-0.156
-672.120	-55.582	-0.267	0.120
-671.105	53.608	-0.274	-0.263
-670.091	-27.300	-0.162	0.094
-669.076	-200.000	0.030	0.147
-668.062	-193.034	-0.172	0.002
-667.047	-200.000	-0.033	0.301
-666.032	800.000	-0.010	0.032
-665.018	-35.533	-0.187	-0.101
-664.003	308.774	-0.146	-0.272
-662.989	-200.000	0.058	0.264
-661.974	184.427	-0.280	0.414
-660.959	-34.569	-0.199	-0.109
-659.945	345.535	0.104	0.205
-658.930	-1.468	0.134	-0.094
-657.916	-114.624	-0.129	-0.025
-656.901	-163.896	-0.312	-0.015
-655.886	146.345	0.153	0.205
-654.872	26.836	0.140	-0.117
-653.857	344.449	0.129	-0.252
-652.843	-200.000	0.036	-0.209
-651.828	16.374	0.435	-0.343
-650.814	39.966	0.129	-0.115
-649.799	59.825	-0.151	-0.149
-648.784	800.000	-0.048	0.208
-647.770	302.352	-0.041	0.075
-646.755	200.882	-0.145	-0.223
-645.741	-68.929	-0.256	-0.099
-644.726	190.459	0.367	0.551
-643.711	343.184	-0.105	0.205
-642.697	-200.000	-0.008	-0.118
-641.682	87.992	-0.261	-0.289
-640.668	-200.000	0.019	-0.149
-639.653	55.940	-0.091	0.088
-638.638	485.603	0.053	0.120
-637.624	-200.000	-0.014	-0.073
-636.609	94.858	0.222	-0.252
-635.595	-64.737	-0.353	0.143
-634.580	69.282	-0.094	-0.097
-633.565	-119.144	0.188	0.033
-632.551	800.000	0.052	0.205
-631.536	-200.000	-0.049	0.430
-630.522	-132.023	-0.203	-0.026
-629.507	238.765	-0.079	-0.130
-628.492	62.093	0.290	-0.289
-627.478	159.934	0.058	-0.080
-626.463	-48.245	0.126	0.061
-625.449	-94.715	0.146	0.040
-624.434	-73.225	-0.098	-0.036
-623.419	198.299	-0.272	-0.415
-622.405	-200.000	-0.014	-0.132
-621.390	-200.000	-0.008	-0.084
-620.376	66.206	-0.104	-0.106
-619.361	-42.669	0.222	0.113
-618.346	-91.675	0.286	0.081
-617.332	125.181	-0.196	0.247
-616.317	-1.757	-0.238	-0.167
-615.303	-127.654	0.336	-0.048
-614.288	3.096	0.238	-0.172
-613.273	5.386	-0.152	-0.112
-612.259	210.860	0.264	-0.415
-611.244	800.000	-0.025	-0.108
-610.230	40.194	-0.140	0.126
-609.215	-200.000	-0.045	0.263
-608.201	-4.222	0.184	-0.127
-607.186	226.733	-0.173	-0.280
-606.171	-92.738	-0.407	-0.114
-605.157	46.437	0.081	-0.075
-604.142	65.490	-0.061	0.062
-603.128	107.599	-0.121	-0.143
-602.113	-173.852	0.260	0.008
-601.098	-10.448	0.126	-0.083
-600.084	-140.894	-0.047	0.005
-599.069	246.000	0.165	-0.277
-598.055	-39.760	0.148	-0.077
-597.040	-200.000	-0.013	-0.242
-596.025	-53.229	-0.190	-0.087
-595.011	800.000	0.107	-0.327
-593.996	-103.348	0.097	-0.023
-592.982	458.085	0.035	0.078
-591.967	-82.915	0.155	-0.050
-590.952	777.010	-0.037	-0.102
-589.938	-47.556	-0.129	-0.062
-588.923	-151.487	-0.189	0.014
-587.909	44.572	-0.037	-0.034
-586.894	-78.460	0.045	-0.016
-585.879	61.932	0.091	0.091
-584.865	-52.369	-0.123	-0.057
-583.850	-72.666	0.198	0.073
-582.836	377.870	-0.098	-0.199
-581.821	-200.000	-0.014	0.359
-580.806	-200.000	0.001	-0.135
-579.792	85.345	-0.053	-0.058
-578.777	-131.938	0.211	0.027
-577.763	-31.445	-0.317	0.178
-576.748	-52.514	-0.102	-0.047
-575.733	-86.801	0.083	0.025
-574.719	-121.090	-0.239	-0.040
-573.704	-50.571	-0.331	-0.155
-572.690	-22.994	-0.335	0.201
-571.675	800.000	0.101	0.298
-570.661	800.000	-0.051	-0.219
-569.646	-133.848	0.088	-0.011
-568.631	-200.000	-0.025	-0.265
-567.617	-25.080	0.311	-0.183
-566.602	-200.000	0.011	-0.345
-565.588	-60.484	-0.221	0.094
-564.573	-41.983	0.327	-0.167
-563.558	-58.494	-0.203	0.088
-562.544	800.000	-0.077	-0.250
-561.529	800.000	0.049	0.181
-560.515	-168.518	-0.294	0.011
-559.500	-41.758	-0.146	-0.075
-558.485	-34.575	-0.056	0.031
-557.471	580.791	0.056	0.137
-556.456	121.288	0.220	0.273
-555.442	266.967	-0.072	-0.125
-554.427	-200.000	-0.074	0.327
-553.412	-200.000	0.003	-0.280
-552.398	-54.668	0.142	0.064
-551.383	581.763	0.027	-0.067
-550.369	60.520	-0.081	-0.080
-549.354	800.000	0.077	-0.217
-548.339	800.000	-0.040	-0.124
-547.325	251.344	-0.195	-0.330
-546.310	-103.978	0.122	-0.028
-545.296	-38.044	0.028	0.015
-544.281	-23.701	-0.208	-0.124
-543.266	193.718	-0.135	0.203
-542.252	-124.498	-0.261	-0.040
-541.237	-41.635	0.497	0.254
-540.223	69.459	-0.136	-0.139
-539.208	764.199	-0.111	0.299
-538.193	465.654	0.227	0.505
-537.179	800.000	0.058	0.219
-536.164	67.121	0.042	0.043
-535.150	-131.367	-0.108	0.014
-534.135	316.107	-0.160	-0.301
-533.121	-157.905	0.292	0.017
-532.106	66.438	0.113	-0.115
-531.091	42.614	-0.135	0.122
-530.077	180.411	0.087	-0.127
-529.062	800.000	-0.042	-0.117
-528.048	-85.223	0.113	-0.035
-527.033	-50.748	-0.334	-0.156
-526.018	-100.395	0.134	-0.033
-525.004	800.000	-0.059	0.166
-523.989	-200.000	0.040	0.217
-522.975	-200.000	-0.007	0.189
-521.960	-58.675	0.244	0.105
-520.945	-200.000	-0.003	0.015
-519.931	49.317	0.002	0.002
-518.916	-200.000	0.003	0.311
-517.902	-67.227	0.241	0.094
-516.887	12.664	-0.193	-0.148
-515.872	-122.426	0.088	0.014
-514.858	338.737	0.028	0.055
-513.843	179.963	-0.219	-0.319
-512.829	-112.965	0.321	0.063
-511.814	-49.197	-0.057	-0.027
-510.799	-49.989	0.081	0.038
-509.785	-200.000	-0.034	0.240
-508.770	-200.000	-0.009	0.160
-507.756	375.300	0.121	0.244
-506.741	239.094	-0.063	0.104
-505.726	-143.588	-0.269	0.025
-504.712	-146.015	0.378	0.033
-503.697	67.611	0.123	-0.125
-502.683	301.142	-0.222	0.408
-501.668	-200.000	-0.001	0.043
-500.653	-57.565	-0.132	-0.057
-499.639	-139.718	0.193	-0.020
-498.624	405.857	-0.154	-0.324
-497.610	376.512	0.151	-0.306
-496.595	-168.668	0.087	-0.003
-495.581	-80.741	-0.096	0.032
-494.566	-79.184	0.377	0.127
-493.551	101.194	-0.223	-0.258
-492.537	545.135	-0.087	-0.207
-491.522	570.228	-0.129	-0.313
-490.508	800.000	-0.078	-0.215
-489.493	-121.823	0.068	-0.011
-488.478	-115.362	0.016	0.003
-487.464	349.449	-0.054	-0.106
-486.449	326.921	0.126	-0.240
-485.435	-152.563	0.070	-0.005
-484.420	800.000	-0.058	-0.168
-483.405	12.860	0.076	-0.058
-482.391	169.899	-0.095	-0.134
-481.376	800.000	-0.030	0.096
-480.362	-200.000	0.008	0.385
-479.347	222.547	0.199	-0.318
-478.332	800.000	0.031	-0.089
-477.318	150.668	-0.158	0.213
-476.303	-166.634	-0.226	0.009
-475.289	-3.624	-0.128	-0.088
-474.274	577.036	-0.125	-0.304
-473.259	153.691	0.382	-0.519
-472.245	381.454	0.055	0.112
-471.230	-145.284	-0.198	-0.018
-470.216	-8.103	0.091	0.061
-469.201	800.000	0.036	0.122
-468.186	-46.662	-0.215	-0.104
-467.172	-64.644	0.144	-0.058
-466.157	117.449	-0.140	-0.171
-465.143	-112.387	0.268	-0.053
-464.128	786.682	0.043	0.116
-463.113	396.427	0.143	0.296
-462.099	-23.993	-0.106	0.063
-461.084	-149.786	-0.171	-0.013
-460.070	288.942	0.154	0.277
-459.055	800.000	-0.128	0.356
-458.040	800.000	-0.048	-0.188
-457.026	-45.512	-0.133	0.065
-456.011	-102.801	0.170	-0.040
-454.997	-200.000	-0.011	-0.103
-453.982	-124.709	0.152	-0.023
-452.968	36.729	0.149	-0.131
-451.953	-36.713	-0.097	0.052
-450.938	-200.000	-0.060	0.308
-449.924	67.466	0.184	0.186
-448.909	-43.277	0.207	0.104
-447.895	-61.518	0.170	-0.071
-446.880	800.000	-0.068	-0.275
-445.865	-198.269	-0.356	0.002
-444.851	-141.080	0.207	0.021
-443.836	-100.326	0.283	-0.070
-442.822	-18.589	-0.108	0.067
-441.807	61.052	-0.147	0.144
-440.792	-77.949	-0.210	0.072
-439.778	-78.542	0.281	-0.095
-438.763	-138.284	0.085	-0.009
-437.749	800.000	-0.056	-0.168
-436.734	-183.891	-0.352	-0.006
-435.719	-200.000	-0.018	0.171
-434.705	-35.352	0.167	-0.090
-433.690	-200.000	-0.061	-0.389
-432.676	-42.345	0.129	-0.065
-431.661	-49.035	0.128	0.061
-430.646	-135.969	-0.405	0.047
-429.632	20.165	0.159	-0.127
-428.617	-127.179	-0.111	-0.016
-427.603	152.138	-0.266	-0.359
-426.588	2.823	-0.149	0.107
-425.573	-13.176	-0.088	-0.056
-424.559	163.025	-0.085	0.118
-423.544	30.199	0.014	0.012
-422.530	800.000	0.110	0.313
-421.515	800.000	-0.082	0.252
-420.500	-24.577	-0.177	0.104
-419.486	-134.404	-0.389	-0.047
-418.471	-65.451	0.507	0.202
-417.457	55.879	0.338	-0.324
-416.442	407.337	-0.140	-0.292
-415.428	-200.000	-0.069	0.312
-414.413	-200.000	0.009	0.094
-413.398	-5.929	0.058	-0.040
-412.384	3.283	-0.050	-0.036
-411.369	-43.507	0.119	0.059
-410.355	-200.000	-0.060	0.305
-409.340	-16.455	0.166	0.104
-408.325	-97.040	-0.417	-0.108
-407.311	153.464	-0.066	-0.089
-406.296	-23.384	-0.258	-0.153
-405.282	-9.848	0.096	0.063
-404.267	-99.946	0.138	0.034
-403.252	76.237	0.118	0.123
-402.238	-114.005	-0.248	-0.048
-401.223	-10.483	0.205	-0.135
-400.209	-133.901	-0.589	0.072
-399.194	-65.726	0.360	-0.143
-398.179	368.108	0.111	0.223
-397.165	131.347	-0.064	-0.081
-396.150	688.844	0.110	0.284
-395.136	-200.000	-0.069	0.361
-394.121	-54.865	-0.273	-0.122
-393.106	-56.513	-0.103	0.045
-392.092	157.924	-0.195	-0.267
-391.077	-200.000	0.070	-0.438
-390.063	-200.000	0.067	-0.294
-389.048	-200.000	0.025	-0.209
-388.033	-200.000	-0.006	0.286
-387.019	-200.000	0.018	0.195
-386.004	393.353	-0.147	0.303
-384.990	800.000	-0.046	-0.180
-383.975	-136.523	0.377	0.043
-382.960	800.000	-0.085	0.261
-381.946	-200.000	-0.034	-0.233
-380.931	-39.318	0.183	-0.095
-379.917	-200.000	0.032	-0.195
-378.902	40.265	0.334	0.297
-377.888	65.619	0.272	0.273
-376.873	384.153	-0.083	0.169
-375.858	-48.077	0.137	-0.065
-374.844	-100.313	0.183	-0.045
-373.829	113.614	0.159	0.191
-372.815	102.886	-0.093	-0.107
-371.800	434.987	-0.104	0.224
-370.785	59.550	-0.242	-0.236
-369.771	-90.676	0.214	0.061
-368.756	-200.000	-0.009	-0.105
-367.742	-86.797	0.096	-0.029
-366.727	-85.779	0.032	0.010
-365.712	-200.000	0.023	0.392
-364.698	212.606	-0.140	-0.218
-363.683	209.673	-0.121	-0.187
-362.669	109.252	-0.207	0.245
-361.654	-200.000	0.036	0.316
-360.639	85.000	-0.196	-0.212
-359.625	141.570	0.008	-0.010
-358.610	-31.790	0.174	0.097
-357.596	-121.587	-0.193	0.032
-356.581	-200.000	0.024	0.111
-355.566	224.221	0.160	-0.255
-354.552	251.214	-0.121	0.203
-353.537	-13.285	0.110	0.070
-352.523	-200.000	0.064	-0.305
-351.508	-29.733	-0.033	0.019
-350.493	-200.000	-0.036	-0.160
-349.479	-200.000	0.021	-0.239
-348.464	182.552	0.184	-0.268
-347.450	-133.202	0.124	0.015
-346.435	-168.939	-0.372	0.014
-345.420	233.915	0.290	-0.472
-344.406	-42.229	0.190	-0.096
-343.391	-40.241	-0.101	-0.052
-342.377	54.230	-0.133	-0.126
-341.362	-42.083	-0.334	-0.169
-340.348	-177.762	0.186	0.004
-339.333	800.000	-0.052	-0.181
-338.318	-4.848	0.157	0.107
-337.304	177.712	0.130	0.187
-336.289	-88.039	0.097	-0.029
-335.275	-119.790	-0.150	0.026
-334.260	-155.241	0.109	-0.007
-333.245	-160.611	0.218	0.011
-332.231	800.000	0.030	-0.092
-331.216	20.076	0.166	0.132
-330.202	161.895	0.101	0.140
-329.187	-105.826	-0.105	0.023
-328.172	-87.482	0.293	0.087
-327.158	458.306	-0.102	-0.225
-326.143	-0.942	0.166	0.116
-325.129	622.393	-0.170	0.423
-324.114	800.000	0.103	0.294
-323.099	637.850	0.149	0.373
-322.085	800.000	-0.070	-0.227
-321.070	-200.000	0.022	-0.132
-320.056	101.135	-0.012	-0.014
-319.041	139.883	0.233	0.303
-318.026	-99.879	0.503	-0.124
-317.012	218.008	0.109	-0.172
-315.997	-200.000	-0.307	0.000
-314.983	640.988	-0.066	-0.167
-313.968	-93.807	-0.243	0.066
-312.953	800.000	0.038	0.137
-311.939	17.740	0.166	-0.130
-310.924	103.811	0.051	-0.059
-309.910	263.400	0.026	-0.044
-308.895	107.579	0.118	-0.139
-307.880	82.213	-0.110	-0.118
-306.866	-39.417	-0.137	0.071
-305.851	105.620	-0.232	-0.270
-304.837	364.841	0.124	-0.247
-303.822	-51.988	0.134	-0.061
-302.807	298.829	0.121	0.220
-301.793	-33.783	-0.327	0.178
-300.778	439.508	-0.023	-0.049
-299.764	-20.159	0.161	-0.098
-298.749	18.977	-0.316	0.250
-297.735	182.529	0.086	0.126
-296.720	-29.970	-0.176	-0.099
-295.705	-13.768	0.052	-0.033
-294.691	53.222	0.301	-0.284
-293.676	800.000	-0.084	0.275
-292.662	-200.000	-0.019	0.173
-291.647	233.678	0.088	0.142
-290.632	156.949	0.158	0.215
-289.618	126.491	0.062	0.077
-288.603	173.203	0.098	0.139
-287.589	204.855	-0.075	-0.114
-286.574	-47.376	-0.317	0.152
-285.559	-112.452	-0.220	0.043
-284.545	84.045	0.169	-0.182
-283.530	-65.185	0.342	0.136
-282.516	23.926	0.223	-0.181
-281.501	637.276	-0.111	-0.278
-280.486	-200.000	-0.029	-0.175
-279.472	800.000	-0.070	-0.300
-278.457	-145.348	0.054	0.005
-277.443	483.556	-0.087	0.194
-276.428	135.802	-0.148	-0.190
-275.413	212.145	-0.142	0.220
-274.399	-200.000	-0.011	0.152
-273.384	-63.050	-0.341	-0.139
-272.370	-117.903	-0.218	-0.038
-271.355	320.813	-0.110	0.206
-270.340	-120.437	0.179	0.030
-269.326	447.012	0.121	0.262
-268.311	-125.976	-0.249	0.037
-267.297	-81.489	0.190	-0.061
-266.282	-142.137	0.238	-0.023
-265.267	-62.137	0.255	0.105
-264.253	-200.000	-0.047	0.000
-263.238	148.391	-0.087	-0.115
-262.224	414.649	0.080	0.167
-261.209	135.158	-0.234	0.299
-260.195	-200.000	0.000	-0.046
-259.180	409.967	0.094	-0.197
-258.165	-200.000	-0.080	-0.457
-257.151	-194.239	-0.133	-0.001
-256.136	190.212	0.196	-0.289
-255.122	552.510	-0.041	-0.098
-254.107	-50.452	-0.127	-0.059
-253.092	-47.341	-0.242	0.116
-252.078	-57.004	-0.218	0.094
-251.063	151.400	-0.211	-0.282
-250.049	-63.213	0.308	-0.125
-249.034	93.067	-0.134	0.149
-248.019	-200.000	-0.005	0.242
-247.005	106.090	-0.142	0.165
-245.990	0.884	-0.021	-0.014
-244.976	-43.480	-0.160	0.080
-243.961	47.351	-0.072	-0.066
-242.946	-200.000	0.255	-0.001
-241.932	234.326	-0.013	-0.021
-240.917	-62.634	0.341	-0.139
-239.903	199.623	0.160	0.241
-238.888	-200.000	-0.030	0.207
-237.873	128.310	-0.096	-0.120
-236.859	-81.754	-0.293	0.095
-235.844	396.186	-0.086	0.177
-234.830	-200.000	-0.071	0.309
-233.815	-135.809	0.341	-0.040
-232.800	-122.291	0.287	-0.046
-231.786	-75.224	0.131	0.046
-230.771	-28.650	-0.161	-0.091
-229.757	90.275	-0.142	0.156
-228.742	551.100	0.085	-0.201
-227.727	260.977	0.184	0.313
-226.713	-5.102	-0.452	-0.305
-225.698	184.542	-0.079	0.115
-224.684	-64.058	-0.257	-0.103
-223.669	-200.000	0.024	-0.387
-222.655	-200.000	0.057	-0.257
-221.640	-15.396	0.390	0.245
-220.625	787.387	0.047	-0.128
-219.611	-74.622	-0.082	-0.029
-218.596	158.428	0.052	-0.071
-217.582	-99.684	0.212	-0.052
-216.567	-131.766	0.222	0.029
-215.552	-46.888	0.192	-0.092
-214.538	-24.904	0.254	0.148
-213.523	-200.000	-0.073	0.483
-212.509	426.246	0.095	0.201
-211.494	84.838	-0.303	0.326
-210.479	90.002	0.239	0.262
-209.465	199.348	0.075	0.113
-208.450	-95.456	0.219	0.058
-207.436	-41.789	-0.368	-0.185
-206.421	800.000	-0.053	0.192
-205.406	-96.838	0.170	-0.044
-204.392	300.127	0.149	-0.270
-203.377	-112.774	-0.325	-0.063
-202.363	-200.000	-0.004	0.204
-201.348	273.343	-0.103	0.179
-200.333	-200.000	0.002	-0.282
-199.319	113.856	0.077	-0.092
-198.304	747.092	-0.040	0.106
-197.290	70.352	0.231	-0.234
-196.275	-148.268	0.200	-0.016
-195.260	800.000	0.032	-0.103
-194.246	334.041	0.090	-0.170
-193.231	800.000	0.090	0.278
-192.217	-3.510	-0.049	-0.033
-191.202	800.000	0.036	-0.116
-190.187	704.634	0.045	0.116
-189.173	-89.085	0.268	0.078
-188.158	-71.531	0.209	-0.077
-187.144	-200.000	0.043	0.230
-186.129	-10.942	-0.379	-0.245
-185.114	299.417	0.128	0.231
-184.100	118.178	-0.054	0.066
-183.085	782.329	-0.047	-0.127
-182.071	-3.929	-0.271	0.185
-181.056	185.611	-0.042	-0.062
-180.042	8.744	0.425	0.314
-179.027	-16.303	-0.089	0.055
-178.012	-117.731	-0.273	0.048
-176.998	-117.996	0.200	-0.035
-175.983	-200.000	0.003	0.029
-174.969	-200.000	-0.006	0.064
-173.954	490.330	-0.066	0.149
-172.939	-86.882	0.359	-0.107
-171.925	11.378	-0.205	-0.154
-170.910	800.000	-0.044	0.161
-169.896	46.563	-0.106	0.096
-168.881	470.135	0.093	0.205
-167.866	-133.634	-0.072	-0.009
-166.852	-200.000	0.016	0.200
-165.837	-166.761	-0.197	0.008
-164.823	652.518	-0.075	0.189
-163.808	-86.855	0.119	-0.035
-162.793	-115.713	-0.201	0.037
-161.779	800.000	-0.085	0.319
-160.764	638.082	-0.013	-0.031
-159.750	71.595	-0.213	0.216
-158.735	-28.011	0.278	0.158
-157.720	-175.788	-0.338	0.009
-156.706	-46.287	0.258	-0.124
-155.691	-57.745	-0.292	-0.125
-154.677	263.583	-0.133	0.226
-153.662	120.383	-0.052	-0.064
-152.647	-56.285	-0.137	0.060
-151.633	790.095	0.113	0.305
-150.618	337.821	0.065	0.124
-149.604	-92.698	0.250	-0.069
-148.589	259.890	-0.120	0.203
-147.574	-91.625	-0.279	0.078
-146.560	-117.488	-0.343	0.061
-145.545	-79.124	-0.233	-0.078
-144.531	294.584	0.139	-0.248
-143.516	-45.972	-0.299	0.145
-142.502	11.977	0.302	0.228
-141.487	-73.726	-0.244	-0.087
-140.472	-48.939	0.143	-0.067
-139.458	800.000	-0.080	-0.234
-138.443	-44.279	-0.189	-0.093
-137.429	137.224	0.222	0.284
-136.414	800.000	0.046	0.137
-135.399	-200.000	-0.005	-0.074
-134.385	-200.000	-0.037	0.159
-133.370	-36.468	0.171	0.090
-132.356	220.633	-0.108	-0.170
-131.341	800.000	-0.048	0.151
-130.326	-7.519	0.101	0.067
-129.312	18.996	0.226	0.177
-128.297	-200.000	0.033	-0.398
-127.283	-23.341	-0.296	-0.174
-126.268	2.452	-0.134	0.095
-125.253	-162.711	-0.244	0.012
-124.239	60.836	0.211	-0.205
-123.224	-101.020	0.305	0.073
-122.210	235.816	0.167	-0.271
