DTS Sentinel unit serial number:	SN413079Multiplexer serial number:	ORYXHardware model number:	OX4-SRSoftware version number:	ORYX F/W v4.00 Oryx Data Collector v3.7.2.0data status	okinstallation	princeton_trtdifferential loss correction	single-endedforward channel	channel 1reverse channel	N/Adate	2019/09/11time	02:56:11forward acquisition time	60.00reverse acquisition time	0.00gamma	496.2192k internal	0.2332k external	0.2332temperature offset calibration	0.9926default loss term (dB/km)	0.3790temperature slope calibration	1.0000multiplexer offset coefficient	1.0000multiplexer slope coefficient	1.0000fibre end	0.00T internal ref (°C)	29.28T ext. ref 1 (°C)	-0.30T ext. ref 2 (°C)	23.81length (m)	temperature (°C)	Stokes	anti-Stokes-747.200	162.900	0.078	-0.110
-746.185	181.564	0.154	0.227
-745.171	-6.670	-0.217	0.149
-744.156	-28.235	-0.211	-0.123
-743.142	-126.077	0.204	-0.031
-742.127	-159.235	0.248	0.014
-741.112	800.000	-0.067	-0.201
-740.098	-91.098	-0.206	0.059
-739.083	-175.817	0.201	-0.005
-738.069	-63.789	0.193	0.080
-737.054	58.948	-0.047	-0.046
-736.039	-200.000	0.018	-0.200
-735.025	139.654	-0.097	-0.128
-734.010	599.139	0.114	0.284
-732.996	189.715	-0.101	0.152
-731.981	-80.088	0.606	-0.204
-730.966	-91.306	0.151	-0.044
-729.952	-48.666	-0.253	-0.122
-728.937	-182.322	-0.361	-0.007
-727.923	-118.468	0.084	0.015
-726.908	-160.534	-0.288	-0.016
-725.894	-160.564	-0.206	-0.011
-724.879	-76.944	0.344	0.121
-723.864	-112.267	-0.174	-0.035
-722.850	92.022	-0.260	0.294
-721.835	-200.000	0.049	-0.296
-720.821	482.101	-0.082	0.186
-719.806	-200.000	0.019	-0.225
-718.791	-57.924	0.408	0.179
-717.777	-78.036	-0.154	-0.053
-716.762	-135.978	0.247	0.029
-715.748	128.807	-0.089	-0.114
-714.733	-200.000	-0.034	0.168
-713.718	-99.352	0.465	0.118
-712.704	-156.226	-0.295	-0.019
-711.689	567.068	-0.082	0.201
-710.675	800.000	-0.004	0.012
-709.660	-200.000	-0.025	0.204
-708.645	-200.000	-0.001	-0.137
-707.631	-11.715	-0.283	-0.186
-706.616	337.374	0.200	0.391
-705.602	-200.000	0.030	0.173
-704.587	151.425	0.042	-0.057
-703.572	800.000	-0.080	0.264
-702.558	-80.260	0.156	-0.052
-701.543	302.799	-0.122	-0.226
-700.529	44.538	-0.238	-0.219
-699.514	59.071	0.132	-0.131
-698.499	435.151	0.073	0.159
-697.485	-200.000	-0.013	-0.116
-696.470	-200.000	-0.039	-0.273
-695.456	-83.333	-0.056	0.018
-694.441	-68.148	0.154	0.060
-693.426	-200.000	0.020	0.226
-692.412	-200.000	0.012	-0.190
-691.397	420.765	-0.088	-0.189
-690.383	127.554	0.131	-0.167
-689.368	-200.000	-0.002	-0.047
-688.354	370.029	-0.158	-0.320
-687.339	81.675	-0.185	0.201
-686.324	199.574	-0.090	-0.139
-685.310	-73.579	-0.173	0.063
-684.295	800.000	0.044	-0.189
-683.281	-38.613	-0.346	-0.183
-682.266	-21.146	-0.126	-0.077
-681.251	-107.468	-0.348	-0.077
-680.237	-68.617	-0.153	-0.059
-679.222	43.285	-0.059	0.055
-678.208	22.472	-0.161	0.132
-677.193	31.632	-0.246	-0.213
-676.178	800.000	-0.184	-0.627
-675.164	374.835	0.149	-0.304
-674.149	717.687	0.175	-0.466
-673.135	-40.615	-0.142	0.074
-672.120	-200.000	-0.005	0.134
-671.105	94.044	-0.212	-0.241
-670.091	-158.553	0.076	0.004
-669.076	-52.538	0.106	-0.049
-668.062	105.706	-0.144	-0.171
-667.047	-97.485	-0.134	0.035
-666.032	74.109	0.041	0.043
-665.018	-55.361	-0.177	0.080
-664.003	-200.000	0.036	0.316
-662.989	147.479	-0.107	-0.144
-661.974	44.536	0.118	-0.109
-660.959	-92.463	-0.152	0.043
-659.945	60.581	-0.142	0.141
-658.930	96.332	-0.178	0.204
-657.916	103.934	0.099	-0.117
-656.901	-141.183	0.261	-0.027
-655.886	-200.000	-0.001	-0.185
-654.872	-200.000	0.006	-0.173
-653.857	-146.237	-0.292	0.026
-652.843	-175.204	0.116	-0.003
-651.828	194.187	-0.145	0.221
-650.814	172.340	-0.103	-0.148
-649.799	-19.926	0.308	0.191
-648.784	-200.000	-0.027	-0.241
-647.770	408.072	-0.168	-0.356
-646.755	5.346	-0.014	-0.011
-645.741	250.087	-0.037	0.064
-644.726	94.897	0.126	-0.144
-643.711	361.261	-0.100	0.200
-642.697	245.784	0.128	-0.216
-641.682	38.329	-0.264	0.236
-640.668	-44.983	-0.140	0.070
-639.653	-200.000	-0.016	-0.135
-638.638	77.270	0.142	-0.151
-637.624	232.865	-0.113	0.186
-636.609	800.000	-0.032	-0.118
-635.595	772.002	0.055	0.150
-634.580	92.094	-0.153	0.173
-633.565	-63.390	0.391	0.161
-632.551	800.000	0.078	0.221
-631.536	800.000	-0.039	0.117
-630.522	-200.000	-0.010	0.164
-629.507	45.494	-0.125	0.116
-628.492	319.526	0.082	-0.156
-627.478	-150.300	-0.170	-0.013
-626.463	-39.503	0.159	-0.084
-625.449	229.734	-0.123	0.201
-624.434	-172.285	0.131	0.004
-623.419	23.611	-0.356	0.293
-622.405	-67.759	-0.132	0.052
-621.390	103.803	0.100	0.117
-620.376	-45.585	0.142	0.070
-619.361	485.533	0.223	0.508
-618.346	-200.000	-0.021	0.115
-617.332	-114.493	-0.281	-0.054
-616.317	-178.372	0.314	0.007
-615.303	-56.469	-0.224	-0.100
-614.288	-130.190	-0.261	0.036
-613.273	-48.605	-0.252	-0.121
-612.259	-200.000	0.005	-0.070
-611.244	-60.019	-0.082	-0.035
-610.230	800.000	-0.158	-0.549
-609.215	-190.935	0.106	-0.001
-608.201	-200.000	0.034	0.190
-607.186	43.345	-0.255	-0.233
-606.171	153.266	0.325	-0.445
-605.157	62.211	-0.225	-0.225
-604.142	42.106	-0.127	-0.115
-603.128	33.714	0.068	-0.059
-602.113	-103.287	-0.033	0.008
-601.098	-51.013	0.159	-0.075
-600.084	-200.000	-0.009	-0.239
-599.069	-27.198	-0.277	-0.161
-598.055	-168.964	-0.132	0.005
-597.040	-8.495	-0.186	0.125
-596.025	23.012	-0.095	0.078
-595.011	-58.117	-0.141	0.062
-593.996	273.835	-0.102	0.181
-592.982	-78.721	0.069	-0.024
-591.967	-135.682	0.076	-0.009
-590.952	172.348	-0.135	0.194
-589.938	-50.165	-0.131	0.062
-588.923	22.351	-0.234	0.191
-587.909	262.918	-0.104	0.180
-586.894	800.000	0.029	-0.124
-585.879	140.280	0.075	0.099
-584.865	-33.624	-0.455	-0.251
-583.850	166.333	-0.114	-0.161
-582.836	800.000	0.129	-0.490
-581.821	-169.585	-0.272	-0.010
-580.806	-49.087	0.212	0.101
-579.792	-107.976	0.259	-0.056
-578.777	-138.516	0.214	0.024
-577.763	800.000	0.089	-0.268
-576.748	-200.000	-0.046	0.391
-575.733	199.728	-0.340	-0.522
-574.719	180.086	0.114	0.167
-573.704	-54.889	-0.018	0.008
-572.690	-200.000	0.019	0.249
-571.675	44.031	0.339	0.310
-570.661	84.637	0.056	0.061
-569.646	388.735	-0.090	-0.187
-568.631	-64.802	0.021	-0.009
-567.617	-200.000	0.006	0.166
-566.602	73.513	0.117	0.122
-565.588	427.500	-0.076	-0.164
-564.573	800.000	0.053	-0.210
-563.558	86.826	-0.217	-0.240
-562.544	-88.570	-0.322	-0.096
-561.529	32.188	-0.288	0.248
-560.515	-115.240	-0.031	-0.006
-559.500	-7.249	0.170	0.115
-558.485	-200.000	-0.015	-0.309
-557.471	-75.118	-0.067	0.024
-556.456	-158.082	-0.037	-0.002
-555.442	32.688	0.212	0.183
-554.427	-145.266	-0.181	-0.016
-553.412	188.340	-0.046	-0.069
-552.398	154.738	-0.114	-0.156
-551.383	-123.863	0.092	0.014
-550.369	64.792	-0.149	0.150
-549.354	20.664	-0.122	-0.099
-548.339	-68.692	0.254	0.098
-547.325	-200.000	0.016	0.080
-546.310	128.049	0.130	0.165
-545.296	-200.000	-0.025	-0.142
-544.281	227.789	0.029	0.047
-543.266	-200.000	0.031	0.318
-542.252	204.488	0.081	-0.125
-541.237	91.286	-0.094	-0.106
-540.223	20.159	0.124	-0.100
-539.208	708.876	-0.103	-0.273
-538.193	0.393	0.123	0.087
-537.179	94.574	-0.191	-0.217
-536.164	-200.000	-0.008	0.214
-535.150	275.739	0.124	0.220
-534.135	-101.823	0.222	0.053
-533.121	13.555	-0.048	-0.037
-532.106	-200.000	-0.066	-0.378
-531.091	800.000	0.074	-0.225
-530.077	-154.069	-0.154	0.010
-529.062	312.934	0.105	-0.197
-528.048	-200.000	0.004	0.156
-527.033	248.656	0.081	0.138
-526.018	-17.231	0.362	-0.228
-525.004	106.925	0.138	0.163
-523.989	-84.391	0.299	0.094
-522.975	-33.751	-0.105	0.058
-521.960	-200.000	0.045	0.566
-520.945	-32.463	0.234	0.130
-519.931	-200.000	0.017	-0.168
-518.916	-200.000	-0.023	0.261
-517.902	501.432	-0.043	0.099
-516.887	-46.653	-0.124	0.061
-515.872	105.509	0.141	0.166
-514.858	37.470	-0.184	-0.162
-513.843	60.942	-0.268	-0.266
-512.829	382.738	-0.062	-0.127
-511.814	800.000	0.066	0.270
-510.799	-100.845	0.146	-0.036
-509.785	-96.126	-0.321	0.085
-508.770	-200.000	-0.345	-0.001
-507.756	-33.600	-0.252	0.139
-506.741	272.965	0.144	0.254
-505.726	200.801	-0.138	-0.212
-504.712	9.513	0.056	0.042
-503.697	-173.930	0.346	-0.010
-502.683	-25.060	0.106	0.063
-501.668	336.855	-0.130	-0.252
-500.653	178.003	0.096	-0.140
-499.639	-114.053	0.083	0.016
-498.624	800.000	0.140	0.411
-497.610	-22.127	0.414	0.251
-496.595	-105.361	0.212	-0.048
-495.581	-200.000	-0.012	0.128
-494.566	38.330	-0.192	-0.170
-493.551	53.015	0.148	0.141
-492.537	0.096	0.199	-0.141
-491.522	-200.000	-0.084	0.499
-490.508	-102.857	-0.052	0.012
-489.493	358.587	-0.077	0.154
-488.478	-29.021	-0.095	0.054
-487.464	-101.375	-0.222	0.054
-486.449	464.345	-0.040	0.090
-485.435	-200.000	0.122	0.000
-484.420	-61.866	-0.282	-0.118
-483.405	58.779	-0.065	0.064
-482.391	-200.000	0.067	0.317
-481.376	-73.768	-0.433	-0.157
-480.362	-80.954	-0.223	-0.074
-479.347	-200.000	-0.002	0.056
-478.332	-198.825	-0.226	0.001
-477.318	-200.000	0.012	0.150
-476.303	36.455	0.068	0.060
-475.289	-200.000	-0.008	0.053
-474.274	-10.818	0.278	0.183
-473.259	-120.810	-0.226	0.038
-472.245	-93.063	-0.294	-0.082
-471.230	-200.000	-0.457	-0.001
-470.216	-167.995	0.520	0.020
-469.201	18.079	-0.197	-0.156
-468.186	-104.775	0.193	0.044
-467.172	498.162	0.120	0.275
-466.157	-0.477	0.168	-0.119
-465.143	697.132	0.119	-0.312
-464.128	-97.843	0.277	0.071
-463.113	-153.412	0.179	0.012
-462.099	54.831	-0.114	0.109
-461.084	-20.424	-0.287	0.176
-460.070	25.596	-0.201	-0.167
-459.055	256.612	-0.331	0.565
-458.040	5.911	-0.181	-0.134
-457.026	81.371	0.324	-0.348
-456.011	-177.704	0.047	-0.001
-454.997	-7.184	-0.233	-0.157
-453.982	800.000	0.036	-0.114
-452.968	-6.494	0.169	-0.114
-451.953	16.278	0.096	0.076
-450.938	-200.000	-0.024	-0.185
-449.924	-146.810	-0.284	0.024
-448.909	-92.084	-0.256	0.072
-447.895	253.993	0.155	-0.264
-446.880	-200.000	0.004	0.213
-445.865	800.000	0.042	0.156
-444.851	270.234	0.138	-0.241
-443.836	-200.000	-0.092	0.463
-442.822	-147.145	0.438	0.037
-441.807	81.462	-0.049	-0.053
-440.792	-100.405	0.327	0.081
-439.778	723.573	-0.078	0.207
-438.763	-200.000	0.021	0.332
-437.749	-200.000	-0.005	0.086
-436.734	121.873	0.169	-0.209
-435.719	-1.722	-0.311	0.218
-434.705	-73.000	-0.412	-0.150
-433.690	-52.516	-0.155	-0.071
-432.676	-81.727	-0.312	-0.102
-431.661	161.028	-0.163	-0.226
-430.646	800.000	-0.046	-0.147
-429.632	-44.468	-0.056	0.028
-428.617	69.775	0.100	-0.102
-427.603	-125.421	0.103	0.016
-426.588	132.511	0.086	0.110
-425.573	-77.473	-0.164	-0.057
-424.559	800.000	-0.061	0.239
-423.544	9.785	0.124	-0.093
-422.530	-200.000	-0.037	-0.353
-421.515	-117.775	-0.201	0.036
-420.500	-200.000	0.001	-0.066
-419.486	-85.633	-0.273	-0.084
-418.471	305.340	0.065	0.120
-417.457	800.000	-0.016	-0.061
-416.442	-200.000	-0.002	-0.151
-415.428	800.000	-0.029	-0.087
-414.413	62.872	0.159	0.158
-413.398	-163.260	0.095	-0.005
-412.384	57.879	0.373	-0.362
-411.369	-21.754	0.156	0.094
-410.355	-60.169	0.417	0.176
-409.340	-64.568	0.228	0.092
-408.325	46.501	0.233	0.214
-407.311	-200.000	-0.295	0.000
-406.296	-163.675	-0.100	0.005
-405.282	-44.725	0.148	-0.073
-404.267	-148.151	-0.068	0.006
-403.252	-44.188	-0.154	0.076
-402.238	-200.000	-0.004	-0.034
-401.223	-200.000	0.072	0.321
-400.209	220.775	-0.144	0.229
-399.194	80.132	-0.076	0.081
-398.179	-131.635	0.250	-0.033
-397.165	-200.000	-0.016	-0.085
-396.150	-1.285	-0.095	0.067
-395.136	-50.165	-0.120	0.057
-394.121	-200.000	-0.049	0.227
-393.106	-124.999	-0.131	-0.020
-392.092	-188.248	-0.077	0.001
-391.077	77.946	-0.191	-0.202
-390.063	-142.146	-0.049	-0.005
-389.048	126.968	0.056	-0.070
-388.033	71.562	0.095	0.097
-387.019	-70.389	0.235	-0.089
-386.004	573.692	0.146	-0.353
-384.990	-200.000	0.038	0.165
-383.975	-200.000	0.025	0.187
-382.960	-125.876	-0.271	0.041
-381.946	255.779	0.168	-0.285
-380.931	-29.261	-0.216	-0.123
-379.917	-200.000	-0.004	0.049
-378.902	1.638	0.267	-0.191
-377.888	-74.478	-0.210	0.075
-376.873	-51.223	0.470	-0.218
-375.858	800.000	-0.050	0.151
-374.844	-21.274	0.129	0.078
-373.829	-200.000	-0.022	0.165
-372.815	-47.938	-0.257	0.124
-371.800	84.495	0.307	0.333
-370.785	-200.000	-0.014	0.140
-369.771	-200.000	-0.020	0.148
-368.756	-127.812	0.192	0.028
-367.742	514.661	0.094	-0.218
-366.727	-84.907	0.308	0.096
-365.712	-155.515	-0.356	-0.023
-364.698	463.739	-0.070	0.155
-363.683	588.877	-0.128	0.313
-362.669	-73.950	-0.088	-0.032
-361.654	800.000	-0.038	-0.103
-360.639	-109.044	-0.168	0.036
-359.625	-200.000	0.008	-0.094
-358.610	58.415	0.136	-0.132
-357.596	800.000	0.076	-0.227
-356.581	-163.396	0.284	0.013
-355.566	-133.147	-0.230	0.029
-354.552	88.130	-0.110	0.121
-353.537	11.878	0.167	0.127
-352.523	800.000	-0.028	-0.091
-351.508	3.843	0.050	0.036
-350.493	-44.202	0.105	0.052
-349.479	-200.000	0.007	0.188
-348.464	-19.938	-0.129	0.079
-347.450	510.817	-0.105	0.243
-346.435	155.203	0.064	-0.088
-345.420	-2.883	0.102	-0.071
-344.406	-58.921	-0.014	-0.006
-343.391	15.814	0.191	0.149
-342.377	800.000	-0.119	-0.327
-341.362	-200.000	0.043	0.357
-340.348	-200.000	-0.035	0.172
-339.333	73.434	0.042	-0.044
-338.318	41.558	0.253	-0.227
-337.304	277.812	0.162	-0.286
-336.289	-30.243	-0.265	-0.149
-335.275	-54.365	0.083	0.037
-334.260	-92.073	0.178	-0.050
-333.245	-200.000	-0.015	-0.144
-332.231	-130.312	-0.450	-0.060
-331.216	-200.000	0.012	-0.224
-330.202	20.456	0.265	-0.212
-329.187	-51.779	0.358	-0.165
-328.172	799.583	-0.128	-0.351
-327.158	-200.000	0.006	0.085
-326.143	-200.000	-0.019	-0.142
-325.129	69.677	0.078	0.079
-324.114	800.000	-0.012	0.037
-323.099	-45.823	0.146	-0.072
-322.085	8.231	0.050	0.037
-321.070	-60.656	-0.046	-0.019
-320.056	800.000	-0.085	-0.246
-319.041	207.454	-0.203	-0.313
-318.026	-200.000	0.014	-0.305
-317.012	-117.053	-0.358	-0.065
-315.997	-38.232	0.259	-0.136
-314.983	-18.007	-0.254	-0.158
-313.968	-32.314	-0.239	-0.132
-312.953	-89.030	-0.174	-0.051
-311.939	-22.339	0.115	0.069
-310.924	-200.000	-0.010	-0.279
-309.910	169.648	0.050	-0.070
-308.895	-4.724	-0.011	-0.008
-307.880	-119.433	0.285	-0.049
-306.866	800.000	-0.087	-0.252
-305.851	188.997	-0.061	0.091
-304.837	-200.000	0.018	-0.090
-303.822	-200.000	-0.006	-0.105
-302.807	800.000	0.052	-0.198
-301.793	78.786	0.165	-0.175
-300.778	-200.000	-0.022	0.161
-299.764	-24.920	-0.458	0.269
-298.749	-74.830	-0.277	-0.098
-297.735	586.047	0.144	0.350
-296.720	42.581	-0.212	0.191
-295.705	800.000	0.092	0.280
-294.691	-24.224	-0.176	0.104
-293.676	28.014	-0.174	0.145
-292.662	45.599	-0.264	0.241
-291.647	266.256	-0.069	0.119
-290.632	-37.473	0.035	0.018
-289.618	800.000	-0.128	-0.368
-288.603	575.447	0.033	0.079
-287.589	-17.621	-0.309	-0.192
-286.574	-200.000	0.001	0.076
-285.559	-17.647	0.320	-0.199
-284.545	-13.067	0.200	-0.128
-283.530	-200.000	-0.047	0.324
-282.516	-200.000	0.018	0.253
-281.501	708.346	0.059	-0.154
-280.486	-182.255	0.061	0.001
-279.472	-200.000	-0.007	0.233
-278.457	800.000	-0.048	-0.182
-277.443	42.348	0.091	0.082
-276.428	-31.153	0.099	0.055
-275.413	-200.000	-0.005	0.085
-274.399	-200.000	0.020	-0.260
-273.384	4.883	-0.101	0.073
-272.370	-86.045	0.304	0.093
-271.355	-66.845	-0.319	0.124
-270.340	35.570	0.112	-0.098
-269.326	744.608	0.129	-0.344
-268.311	-200.000	0.004	0.060
-267.297	118.199	0.220	0.268
-266.282	90.602	-0.250	-0.277
-265.267	-116.112	0.291	0.053
-264.253	209.729	0.080	0.123
-263.238	-18.645	-0.253	-0.156
-262.224	181.665	-0.061	-0.089
-261.209	153.408	0.082	-0.111
-260.195	800.000	0.065	0.220
-259.180	326.647	0.016	-0.030
-258.165	800.000	-0.151	-0.510
-257.151	453.919	0.090	0.198
-256.136	-200.000	-0.016	-0.100
-255.122	-74.189	-0.315	0.112
-254.107	-3.971	-0.166	0.114
-253.092	-31.331	-0.163	0.090
-252.078	-5.446	-0.173	0.117
-251.063	-116.067	0.385	0.071
-250.049	-170.915	-0.310	-0.010
-249.034	53.192	-0.112	-0.105
-248.019	-116.095	0.358	-0.066
-247.005	249.347	-0.092	0.153
-245.990	800.000	0.028	-0.086
-244.976	-200.000	-0.004	-0.247
-243.961	-84.504	0.167	-0.052
-242.946	349.253	0.078	-0.153
-241.932	754.328	-0.058	-0.156
-240.917	-119.124	0.054	-0.009
-239.903	80.093	0.023	0.024
-238.888	-156.553	0.532	-0.033
-237.873	15.519	0.225	-0.174
-236.859	321.095	-0.092	-0.172
-235.844	-190.690	0.373	-0.004
-234.830	56.121	-0.102	-0.098
-233.815	-200.000	-0.009	-0.192
-232.800	-74.948	0.145	0.051
-231.786	55.354	0.189	0.180
-230.771	98.880	-0.081	0.092
-229.757	-8.156	0.114	-0.076
-228.742	302.900	-0.122	0.223
-227.727	-200.000	0.000	-0.201
-226.713	800.000	-0.142	0.462
-225.698	-200.000	0.021	-0.216
-224.684	224.478	0.278	-0.443
-223.669	-167.273	0.222	-0.009
-222.655	-200.000	-0.027	0.206
-221.640	60.123	0.119	0.116
-220.625	-200.000	-0.014	0.197
-219.611	64.264	0.089	0.088
-218.596	375.091	-0.067	-0.134
-217.582	-200.000	0.012	0.087
-216.567	703.488	-0.186	0.483
-215.552	-97.886	0.106	-0.027
-214.538	-141.286	-0.267	0.027
-213.523	61.718	0.248	-0.243
-212.509	800.000	0.083	-0.231
-211.494	-44.781	0.132	0.065
-210.479	800.000	-0.056	0.171
-209.465	-5.856	-0.362	0.244
-208.450	-19.195	0.214	-0.131
-207.436	800.000	-0.026	-0.075
-206.421	25.484	-0.238	0.195
-205.406	247.903	0.158	-0.263
-204.392	140.409	0.120	-0.156
-203.377	-16.751	-0.293	-0.183
-202.363	390.737	0.244	0.499
-201.348	-200.000	-0.025	0.225
-200.333	-5.808	0.063	0.043
-199.319	255.152	0.107	-0.181
-198.304	-86.653	0.080	-0.024
-197.290	293.827	0.078	0.140
-196.275	-114.727	-0.204	0.038
-195.260	618.789	-0.063	0.156
-194.246	800.000	-0.012	-0.034
-193.231	-200.000	0.033	0.144
-192.217	-154.652	0.223	0.015
-191.202	-84.999	-0.089	-0.028
-190.187	-123.914	0.232	0.036
-189.173	-85.927	0.166	0.051
-188.158	379.058	0.058	0.118
-187.144	14.154	0.202	0.155
-186.129	-63.261	-0.441	0.179
-185.114	800.000	0.066	-0.284
-184.100	90.398	0.136	0.150
-183.085	17.012	0.146	-0.114
-182.071	-66.477	0.354	0.138
-181.056	8.217	0.094	-0.070
-180.042	-122.843	0.421	-0.067
-179.027	-200.000	0.002	-0.029
-178.012	359.218	0.126	0.248
-176.998	-9.168	-0.221	-0.145
-175.983	-111.819	0.210	0.042
-174.969	-129.884	0.263	0.036
-173.954	-90.211	-0.561	0.161
-172.939	-108.602	0.243	-0.051
-171.925	131.265	0.199	-0.251
-170.910	-136.550	0.156	-0.018
-169.896	-29.765	0.331	0.186
-168.881	-124.429	-0.197	0.030
-167.866	-200.000	-0.020	-0.246
-166.852	-41.811	-0.099	-0.050
-165.837	-200.000	-0.069	0.392
-164.823	-200.000	0.009	-0.279
-163.808	35.226	0.125	-0.108
-162.793	-200.000	-0.007	0.122
-161.779	138.467	-0.113	-0.146
-160.764	220.342	0.067	0.105
-159.750	196.938	0.021	-0.031
-158.735	-200.000	0.060	-0.364
-157.720	207.409	0.086	0.131
-156.706	800.000	-0.094	-0.352
-155.691	126.640	-0.175	-0.218
-154.677	554.978	0.112	-0.264
-153.662	195.044	-0.104	-0.155
-152.647	132.273	-0.114	-0.145
-151.633	-107.054	-0.185	0.040
-150.618	-52.195	0.266	0.121
-149.604	800.000	0.060	0.222
-148.589	346.162	-0.018	-0.036
-147.574	165.224	-0.144	0.200
-146.560	-200.000	-0.037	0.397
-145.545	-70.926	0.087	-0.032
-144.531	-173.331	0.326	0.010
-143.516	-6.075	0.352	-0.236
-142.502	39.049	-0.175	-0.154
-141.487	-133.132	-0.282	0.035
-140.472	6.939	-0.134	0.098
-139.458	-200.000	-0.012	0.146
-138.443	-20.808	0.227	-0.137
-137.429	-58.194	0.093	0.040
-136.414	314.921	0.275	0.509
-135.399	-78.942	0.218	-0.073
-134.385	-51.107	-0.034	0.016
-133.370	675.269	-0.138	0.352
-132.356	800.000	0.039	-0.106
-131.341	151.662	0.132	-0.176
-130.326	519.308	0.028	-0.064
-129.312	-162.122	-0.240	-0.012
-128.297	782.118	0.084	0.225
-127.283	15.974	-0.047	0.037
-126.268	42.711	-0.047	0.042
-125.253	-17.790	-0.297	-0.183
-124.239	4.231	0.100	-0.072
-123.224	-50.978	-0.181	0.083
-122.210	-88.752	-0.090	-0.026
-121.195	370.053	-0.123	-0.245
