DTS Sentinel unit serial number:	SN413079Multiplexer serial number:	ORYXHardware model number:	OX4-SRSoftware version number:	ORYX F/W v4.00 Oryx Data Collector v3.7.2.0data status	okinstallation	princeton_trtdifferential loss correction	single-endedforward channel	channel 1reverse channel	N/Adate	2019/09/14time	07:54:35forward acquisition time	60.00reverse acquisition time	0.00gamma	496.2192k internal	0.2334k external	0.2334temperature offset calibration	1.0070default loss term (dB/km)	0.3790temperature slope calibration	1.0000multiplexer offset coefficient	1.0000multiplexer slope coefficient	1.0000fibre end	0.00T internal ref (°C)	26.62T ext. ref 1 (°C)	3.51T ext. ref 2 (°C)	23.53length (m)	temperature (°C)	Stokes	anti-Stokes-747.200	-120.451	-0.054	0.009
-746.185	-200.000	-0.047	0.477
-745.171	-200.000	0.034	-0.248
-744.156	2.171	-0.156	0.113
-743.142	-45.039	-0.382	0.191
-742.127	68.068	0.195	0.201
-741.112	568.079	0.037	0.090
-740.098	157.051	-0.141	0.196
-739.083	123.870	0.069	-0.087
-738.069	800.000	0.039	0.164
-737.054	-200.000	0.003	-0.201
-736.039	144.356	-0.208	-0.279
-735.025	405.613	-0.084	0.178
-734.010	158.639	-0.083	0.116
-732.996	14.985	-0.190	0.149
-731.981	1.616	-0.105	-0.076
-730.966	18.857	0.118	-0.095
-729.952	-122.924	-0.072	-0.012
-728.937	68.506	-0.197	-0.203
-727.923	-200.000	-0.026	0.242
-726.908	120.009	-0.200	0.249
-725.894	-200.000	0.059	-0.278
-724.879	-9.312	0.041	0.028
-723.864	-110.209	0.103	0.022
-722.850	-45.928	0.080	-0.040
-721.835	426.409	-0.124	-0.270
-720.821	383.901	0.165	-0.342
-719.806	-184.868	-0.154	0.002
-718.791	-80.129	0.423	0.142
-717.777	19.657	-0.173	0.140
-716.762	127.527	-0.266	-0.339
-715.748	250.856	0.043	0.073
-714.733	-27.502	-0.076	-0.044
-713.718	-53.128	0.103	-0.047
-712.704	-200.000	0.013	-0.320
-711.689	-64.208	0.360	-0.147
-710.675	64.205	-0.165	0.166
-709.660	-200.000	0.050	0.286
-708.645	-200.000	0.074	-0.500
-707.631	-82.867	-0.025	0.008
-706.616	489.785	-0.086	0.197
-705.602	-200.000	-0.108	-0.000
-704.587	-200.000	-0.025	0.136
-703.572	160.075	0.074	-0.103
-702.558	-46.863	0.278	-0.136
-701.543	86.591	0.018	-0.020
-700.529	-27.727	-0.359	-0.209
-699.514	-69.851	-0.215	0.082
-698.499	57.833	-0.091	-0.089
-697.485	45.484	-0.177	0.164
-696.470	2.196	0.184	-0.134
-695.456	163.862	0.058	-0.082
-694.441	-57.440	0.281	-0.124
-693.426	-48.263	-0.203	-0.098
-692.412	800.000	-0.064	-0.180
-691.397	453.392	-0.102	-0.227
-690.383	-35.261	0.134	0.073
-689.368	-118.276	0.194	-0.035
-688.354	-110.919	0.147	-0.030
-687.339	351.339	-0.180	0.357
-686.324	442.143	-0.027	-0.058
-685.310	800.000	0.041	0.156
-684.295	452.192	-0.106	-0.235
-683.281	-200.000	-0.002	-0.507
-682.266	-9.442	-0.235	-0.157
-681.251	-88.177	0.223	0.067
-680.237	180.687	-0.147	-0.216
-679.222	74.914	-0.323	-0.341
-678.208	-107.385	-0.123	-0.027
-677.193	-200.000	0.032	-0.199
-676.178	-117.902	-0.226	-0.041
-675.164	-200.000	0.022	0.132
-674.149	-86.250	0.075	-0.023
-673.135	480.343	-0.023	0.052
-672.120	-200.000	-0.012	-0.212
-671.105	-200.000	-0.017	0.134
-670.091	-6.367	0.092	0.063
-669.076	-200.000	-0.010	-0.130
-668.062	-117.451	-0.384	0.070
-667.047	631.791	0.049	0.125
-666.032	318.839	-0.107	-0.204
-665.018	151.309	-0.027	0.037
-664.003	800.000	-0.064	0.202
-662.989	120.672	-0.014	-0.018
-661.974	745.416	0.063	0.170
-660.959	-55.262	-0.198	-0.089
-659.945	-57.792	0.387	-0.170
-658.930	171.941	-0.185	-0.266
-657.916	-200.000	0.008	0.174
-656.901	-130.075	0.148	-0.020
-655.886	-200.000	-0.011	-0.231
-654.872	800.000	-0.037	-0.160
-653.857	-102.094	-0.134	0.032
-652.843	-200.000	-0.040	0.244
-651.828	-99.762	-0.083	-0.021
-650.814	-143.908	-0.459	-0.043
-649.799	33.527	0.116	-0.101
-648.784	-123.791	0.370	-0.059
-647.770	-200.000	0.024	0.230
-646.755	-3.889	0.121	-0.084
-645.741	800.000	-0.100	-0.363
-644.726	-57.550	-0.119	-0.052
-643.711	127.667	0.135	-0.171
-642.697	29.570	0.305	-0.259
-641.682	-48.165	0.209	-0.101
-640.668	18.455	-0.106	-0.085
-639.653	-77.221	-0.059	0.021
-638.638	-200.000	0.061	-0.363
-637.624	-142.974	0.258	0.025
-636.609	-138.142	-0.275	0.031
-635.595	79.394	-0.073	-0.078
-634.580	-200.000	0.001	-0.016
-633.565	-200.000	-0.005	-0.159
-632.551	-200.000	-0.300	-0.001
-631.536	207.984	0.163	0.255
-630.522	19.360	-0.044	0.035
-629.507	74.585	0.267	0.281
-628.492	-66.805	-0.156	0.062
-627.478	-0.478	-0.251	-0.179
-626.463	800.000	0.049	-0.200
-625.449	-54.044	0.138	-0.063
-624.434	139.517	-0.165	0.217
-623.419	800.000	-0.031	-0.101
-622.405	-21.208	-0.152	0.093
-621.390	-200.000	0.028	-0.345
-620.376	102.870	-0.069	0.081
-619.361	-61.177	-0.256	0.108
-618.346	265.951	0.023	-0.041
-617.332	388.492	0.071	-0.146
-616.317	280.249	0.155	-0.278
-615.303	-126.554	0.091	0.014
-614.288	363.847	-0.072	-0.145
-613.273	21.786	0.217	-0.177
-612.259	-3.005	-0.087	0.061
-611.244	303.717	-0.063	0.117
-610.230	-48.600	0.180	0.087
-609.215	316.790	-0.118	-0.223
-608.201	553.041	0.072	-0.173
-607.186	-200.000	-0.056	-0.347
-606.171	-200.000	-0.125	-0.549
-605.157	-14.151	-0.282	-0.182
-604.142	-109.788	-0.093	-0.020
-603.128	387.955	0.053	-0.110
-602.113	-16.138	-0.055	-0.035
-601.098	-126.528	0.401	0.060
-600.084	800.000	0.010	-0.032
-599.069	-94.887	0.325	0.088
-598.055	-200.000	0.029	-0.212
-597.040	-78.213	0.200	0.069
-596.025	46.664	-0.261	0.242
-595.011	-166.338	0.130	-0.005
-593.996	-61.691	-0.260	-0.109
-592.982	522.120	-0.091	-0.215
-591.967	42.471	-0.229	0.208
-590.952	-96.846	0.244	0.064
-589.938	-72.168	-0.097	0.036
-588.923	136.854	-0.257	0.336
-587.909	230.382	-0.070	0.115
-586.894	-121.095	-0.100	-0.017
-585.879	462.947	-0.014	-0.032
-584.865	800.000	0.095	-0.276
-583.850	-200.000	-0.065	0.361
-582.836	21.195	-0.102	0.082
-581.821	-122.973	0.079	0.013
-580.806	307.958	0.125	0.232
-579.792	109.267	0.127	-0.151
-578.777	-153.178	0.277	-0.019
-577.763	-75.730	-0.086	-0.030
-576.748	85.785	-0.094	-0.103
-575.733	346.265	-0.090	0.176
-574.719	-200.000	-0.009	0.121
-573.704	190.152	-0.116	-0.175
-572.690	-106.262	0.053	-0.012
-571.675	702.779	0.052	0.136
-570.661	-200.000	0.013	0.177
-569.646	97.741	0.094	0.108
-568.631	800.000	-0.074	0.210
-567.617	-87.571	0.184	0.055
-566.602	169.832	0.143	-0.204
-565.588	-73.985	0.065	-0.024
-564.573	383.783	0.144	0.295
-563.558	700.367	-0.067	-0.176
-562.544	-200.000	-0.004	0.298
-561.529	28.537	-0.145	-0.122
-560.515	-178.176	0.484	-0.011
-559.500	-90.052	0.106	-0.031
-558.485	182.191	0.070	0.103
-557.471	22.026	-0.262	-0.213
-556.456	24.783	-0.138	-0.114
-555.442	800.000	0.119	-0.335
-554.427	261.517	0.048	-0.084
-553.412	-200.000	0.024	0.148
-552.398	-10.989	0.069	0.045
-551.383	-19.338	-0.032	-0.020
-550.369	-31.313	-0.301	0.169
-549.354	121.789	-0.031	-0.038
-548.339	-21.348	0.114	-0.069
-547.325	-7.017	-0.221	-0.149
-546.310	-91.880	0.224	-0.063
-545.296	-106.828	-0.187	-0.041
-544.281	12.743	-0.110	-0.085
-543.266	-51.648	0.246	0.115
-542.252	147.046	0.179	-0.241
-541.237	-200.000	0.019	0.289
-540.223	-127.261	-0.042	0.006
-539.208	-200.000	-0.025	-0.236
-538.193	800.000	-0.092	0.361
-537.179	-200.000	0.007	0.164
-536.164	-21.772	0.320	0.194
-535.150	-41.029	-0.171	-0.088
-534.135	-18.410	-0.113	-0.071
-533.121	129.908	-0.150	-0.192
-532.106	40.719	0.265	-0.238
-531.091	-113.597	-0.181	0.035
-530.077	-200.000	0.000	-0.168
-529.062	-82.018	-0.344	0.112
-528.048	-28.797	0.050	-0.029
-527.033	-54.261	0.278	0.126
-526.018	-200.000	-0.005	-0.133
-525.004	34.488	-0.365	-0.317
-523.989	800.000	-0.037	-0.122
-522.975	-22.220	0.145	-0.087
-521.960	266.342	-0.259	0.450
-520.945	-111.661	-0.102	0.021
-519.931	-90.884	-0.067	0.019
-518.916	-14.422	0.391	0.251
-517.902	800.000	0.107	0.439
-516.887	-98.538	-0.209	0.053
-515.872	-10.785	0.185	0.122
-514.858	-200.000	0.028	-0.348
-513.843	212.878	0.041	-0.064
-512.829	130.144	0.078	-0.100
-511.814	-122.477	-0.026	0.004
-510.799	-200.000	0.022	0.205
-509.785	171.292	-0.177	-0.252
-508.770	68.381	-0.219	-0.223
-507.756	281.371	-0.156	-0.279
-506.741	216.592	-0.076	-0.121
-505.726	-111.212	0.204	0.041
-504.712	22.358	-0.163	-0.133
-503.697	194.234	0.048	-0.072
-502.683	104.910	-0.108	0.126
-501.668	225.196	0.076	-0.122
-500.653	-78.059	0.327	-0.112
-499.639	-89.246	-0.130	0.038
-498.624	-162.935	-0.106	0.005
-497.610	194.303	0.093	0.141
-496.595	-200.000	-0.044	0.355
-495.581	310.411	-0.061	0.114
-494.566	-200.000	0.021	-0.116
-493.551	0.666	0.179	-0.128
-492.537	-23.904	0.107	-0.064
-491.522	102.776	-0.155	-0.180
-490.508	-134.619	-0.378	-0.046
-489.493	-200.000	-0.008	-0.130
-488.478	553.542	-0.084	-0.201
-487.464	-124.155	0.188	-0.029
-486.449	323.568	-0.182	0.346
-485.435	-98.062	-0.023	-0.006
-484.420	-146.927	0.188	-0.016
-483.405	428.467	-0.167	0.359
-482.391	-89.854	0.165	-0.048
-481.376	-18.985	-0.378	0.234
-480.362	-200.000	0.037	-0.223
-479.347	227.330	0.088	-0.142
-478.332	-84.310	-0.042	0.013
-477.318	-21.743	-0.322	-0.195
-476.303	-68.358	-0.133	0.051
-475.289	138.694	0.137	-0.178
-474.274	5.447	0.202	0.148
-473.259	38.236	-0.250	0.221
-472.245	-200.000	0.017	0.261
-471.230	162.445	-0.064	-0.090
-470.216	-163.907	0.191	-0.009
-469.201	800.000	0.048	0.177
-468.186	800.000	0.037	0.105
-467.172	514.199	-0.083	-0.193
-466.157	54.169	-0.126	-0.120
-465.143	800.000	0.059	0.244
-464.128	107.977	0.105	0.124
-463.113	-88.179	0.244	0.073
-462.099	-85.065	0.301	0.094
-461.084	-144.465	0.260	0.024
-460.070	-29.412	0.401	0.228
-459.055	-200.000	0.018	-0.188
-458.040	-123.672	-0.370	-0.058
-457.026	800.000	0.022	0.077
-456.011	-200.000	0.033	-0.270
-454.997	-200.000	-0.023	-0.184
-453.982	89.390	0.329	0.364
-452.968	-65.504	0.088	0.035
-451.953	-163.015	0.236	-0.011
-450.938	32.605	0.121	0.104
-449.924	23.153	0.244	0.199
-448.909	-200.000	0.017	0.244
-447.895	-19.334	0.249	-0.153
-446.880	264.807	-0.135	0.234
-445.865	543.025	-0.050	0.119
-444.851	13.960	-0.234	0.181
-443.836	728.265	-0.040	0.106
-442.822	111.333	0.096	0.115
-441.807	-63.043	0.089	0.037
-440.792	-200.000	-0.006	-0.137
-439.778	171.326	-0.189	-0.269
-438.763	800.000	0.058	-0.231
-437.749	-104.875	0.434	0.099
-436.734	-156.043	-0.278	-0.017
-435.719	-59.550	-0.252	0.107
-434.705	-29.148	0.066	0.037
-433.690	199.569	0.153	0.233
-432.676	-124.547	0.110	-0.017
-431.661	-154.660	0.356	0.024
-430.646	-146.934	0.110	0.009
-429.632	-77.545	0.332	-0.114
-428.617	-200.000	0.033	0.172
-427.603	-5.097	0.183	0.125
-426.588	-117.585	-0.326	0.058
-425.573	-0.238	0.237	-0.167
-424.559	1.638	-0.110	-0.079
-423.544	-200.000	-0.065	-0.486
-422.530	-200.000	0.028	0.132
-421.515	-106.222	-0.163	0.036
-420.500	157.818	0.246	-0.338
-419.486	-89.093	-0.174	-0.051
-418.471	-67.487	-0.232	-0.090
-417.457	-72.609	0.138	0.051
-416.442	570.789	0.024	-0.058
-415.428	-136.190	-0.203	0.024
-414.413	-200.000	-0.017	0.134
-413.398	150.285	0.133	0.179
-412.384	-121.753	-0.265	-0.043
-411.369	800.000	-0.154	-0.471
-410.355	-115.692	0.313	0.058
-409.340	9.431	-0.160	-0.120
-408.325	71.203	0.212	0.218
-407.311	-42.071	-0.028	-0.014
-406.296	32.954	0.089	-0.077
-405.282	-154.037	0.316	0.021
-404.267	21.256	0.261	-0.210
-403.252	-69.800	-0.243	0.092
-402.238	10.372	0.179	-0.135
-401.223	-52.388	-0.040	0.018
-400.209	-200.000	-0.011	-0.053
-399.194	-200.000	-0.013	0.357
-398.179	271.940	-0.145	0.253
-397.165	-200.000	0.101	0.456
-396.150	-9.841	-0.034	0.023
-395.136	-112.094	0.123	-0.024
-394.121	-102.209	-0.275	-0.065
-393.106	-73.068	0.486	-0.177
-392.092	-165.155	0.194	0.009
-391.077	86.913	0.150	0.164
-390.063	375.244	-0.087	-0.175
-389.048	81.730	0.156	-0.168
-388.033	132.542	0.167	-0.213
-387.019	14.789	0.064	0.050
-386.004	741.141	-0.093	0.247
-384.990	-120.232	0.206	-0.035
-383.975	100.860	-0.118	-0.136
-382.960	237.230	0.124	0.203
-381.946	800.000	-0.013	-0.050
-380.931	131.652	-0.073	-0.093
-379.917	-200.000	0.035	-0.370
-378.902	-40.740	-0.077	0.039
-377.888	-148.815	0.297	0.024
-376.873	-65.560	-0.287	-0.114
-375.858	-36.980	0.245	-0.130
-374.844	594.853	-0.108	-0.266
-373.829	-122.793	-0.659	-0.105
-372.815	68.005	0.215	0.218
-371.800	-32.727	-0.270	0.149
-370.785	291.774	0.205	0.369
-369.771	210.256	0.084	0.131
-368.756	-68.946	-0.182	0.070
-367.742	-200.000	-0.002	-0.259
-366.727	569.180	0.060	0.144
-365.712	-111.665	-0.224	-0.045
-364.698	223.845	0.050	-0.080
-363.683	800.000	-0.007	-0.028
-362.669	-98.349	0.255	-0.065
-361.654	-72.240	-0.040	-0.015
-360.639	480.320	0.021	0.047
-359.625	76.550	-0.230	-0.241
-358.610	23.523	0.136	-0.110
-357.596	800.000	0.036	0.143
-356.581	-200.000	-0.014	-0.237
-355.566	800.000	0.026	0.091
-354.552	-41.928	-0.111	-0.057
-353.537	69.175	-0.140	-0.143
-352.523	41.884	-0.200	0.179
-351.508	-106.955	-0.251	-0.055
-350.493	-200.000	-0.027	-0.286
-349.479	-200.000	0.015	0.074
-348.464	-163.658	-0.119	-0.006
-347.450	-200.000	0.011	0.208
-346.435	800.000	0.078	-0.278
-345.420	-90.996	-0.132	-0.038
-344.406	-123.870	-0.085	0.013
-343.391	-200.000	0.012	-0.167
-342.377	-64.761	0.076	-0.031
-341.362	-200.000	0.187	0.000
-340.348	307.633	-0.061	-0.113
-339.333	800.000	0.086	-0.251
-338.318	183.753	-0.013	0.019
-337.304	-35.416	0.406	0.218
-336.289	-144.649	-0.387	-0.035
-335.275	-178.129	-0.491	0.011
-334.260	198.742	-0.190	-0.287
-333.245	268.742	-0.029	-0.050
-332.231	-116.420	-0.174	0.032
-331.216	264.320	0.145	-0.249
-330.202	800.000	-0.041	0.162
-329.187	-200.000	-0.004	-0.263
-328.172	10.790	-0.135	0.102
-327.158	-38.905	-0.209	0.109
-326.143	-200.000	0.029	0.280
-325.129	-160.513	-0.388	0.021
-324.114	503.329	0.104	0.238
-323.099	171.485	0.115	-0.163
-322.085	-200.000	0.086	-0.000
-321.070	-0.625	-0.086	0.060
-320.056	-37.393	0.166	-0.087
-319.041	181.316	0.201	0.293
-318.026	-126.477	-0.124	0.018
-317.012	153.731	-0.159	0.215
-315.997	800.000	0.083	0.238
-314.983	800.000	-0.039	0.137
-313.968	18.222	-0.270	0.213
-312.953	76.256	0.237	0.248
-311.939	800.000	0.078	0.304
-310.924	-83.727	0.105	0.033
-309.910	-59.338	0.219	0.093
-308.895	37.843	0.125	0.110
-307.880	489.236	-0.037	0.085
-306.866	-12.746	0.088	0.057
-305.851	330.447	-0.073	0.139
-304.837	300.215	-0.078	-0.143
-303.822	-38.300	0.083	0.044
-302.807	65.011	-0.151	-0.150
-301.793	316.313	0.108	0.202
-300.778	-72.071	-0.223	0.082
-299.764	-200.000	-0.021	-0.145
-298.749	225.558	-0.130	-0.209
-297.735	-128.261	-0.049	-0.007
-296.720	-105.521	-0.120	-0.027
-295.705	-140.198	-0.203	-0.021
-294.691	139.567	0.144	-0.187
-293.676	-200.000	-0.016	-0.495
-292.662	800.000	-0.053	0.182
-291.647	-21.988	-0.247	0.148
-290.632	-97.603	0.430	-0.110
-289.618	-36.406	-0.065	0.034
-288.603	560.866	0.049	-0.118
-287.589	252.975	-0.148	-0.250
-286.574	7.929	0.083	-0.062
-285.559	-32.803	0.279	0.153
-284.545	261.775	-0.207	0.353
-283.530	-77.503	0.201	-0.069
-282.516	-67.227	0.062	0.024
-281.501	660.050	-0.088	0.224
-280.486	-149.827	0.172	-0.013
-279.472	-107.229	-0.205	-0.044
-278.457	-14.759	0.065	0.041
-277.443	-200.000	-0.001	0.253
-276.428	-200.000	-0.011	-0.102
-275.413	116.153	-0.131	-0.159
-274.399	-60.635	-0.235	0.098
-273.384	-165.931	-0.223	-0.009
-272.370	-200.000	-0.025	0.254
-271.355	-41.361	0.028	0.014
-270.340	149.228	-0.116	-0.155
-269.326	-200.000	-0.000	0.120
-268.311	385.846	0.066	0.135
-267.297	-90.456	0.415	-0.119
-266.282	-159.649	-0.108	-0.006
-265.267	-200.000	0.035	-0.290
-264.253	12.130	-0.159	0.121
-263.238	-200.000	0.007	-0.308
-262.224	-76.994	0.309	0.106
-261.209	165.279	0.161	-0.225
-260.195	-122.698	0.064	0.010
-259.180	-103.410	-0.195	0.045
-258.165	44.348	0.097	-0.087
-257.151	-120.584	0.070	-0.012
-256.136	434.947	-0.054	0.116
-255.122	23.963	0.225	0.183
-254.107	197.200	-0.071	0.107
-253.092	-69.347	0.270	0.102
-252.078	667.711	0.062	-0.159
-251.063	200.418	-0.146	-0.221
-250.049	-200.000	-0.048	-0.286
-249.034	-77.125	-0.627	0.216
-248.019	-112.992	0.157	-0.031
-247.005	-52.156	-0.375	-0.171
-245.990	-42.288	0.141	0.071
-244.976	-172.180	-0.316	-0.010
-243.961	-48.230	0.193	0.092
-242.946	-200.000	0.047	-0.213
-241.932	-200.000	0.020	-0.274
-240.917	-77.495	0.073	0.025
-239.903	800.000	0.054	0.228
-238.888	-177.051	-0.280	-0.007
-237.873	234.973	-0.086	0.139
-236.859	76.359	0.053	0.055
-235.844	-16.135	-0.416	0.260
-234.830	200.176	-0.109	-0.166
-233.815	-32.986	-0.150	-0.082
-232.800	-200.000	-0.008	-0.056
-231.786	-175.651	0.130	0.003
-230.771	3.670	-0.232	-0.167
-229.757	85.540	0.047	0.051
-228.742	108.398	0.102	0.120
-227.727	-8.580	0.320	0.212
-226.713	99.397	-0.161	-0.184
-225.698	18.492	-0.162	0.128
-224.684	54.148	-0.183	0.174
-223.669	2.646	-0.178	-0.127
-222.655	-200.000	-0.050	0.295
-221.640	-118.168	-0.350	0.062
-220.625	98.965	0.280	-0.319
-219.611	-129.465	0.065	-0.009
-218.596	-200.000	0.005	-0.164
-217.582	800.000	-0.044	0.122
-216.567	-101.515	0.070	-0.017
-215.552	-200.000	0.026	0.182
-214.538	130.758	0.215	0.272
-213.523	36.962	-0.116	0.101
-212.509	800.000	0.068	0.268
-211.494	800.000	0.038	-0.122
-210.479	-18.016	0.237	0.146
-209.465	-82.356	-0.089	-0.028
-208.450	-11.387	0.322	0.208
-207.436	-90.169	-0.141	0.040
-206.421	-7.263	0.097	-0.065
-205.406	-127.232	-0.417	-0.060
-204.392	327.929	-0.052	0.098
-203.377	-200.000	0.036	-0.341
-202.363	-137.842	-0.212	-0.023
-201.348	-200.000	-0.013	-0.075
-200.333	15.667	0.164	0.126
-199.319	-126.141	0.108	-0.016
-198.304	-200.000	-0.055	0.245
-197.290	28.073	0.175	-0.146
-196.275	-72.381	-0.218	0.079
-195.260	-20.023	-0.171	0.104
-194.246	800.000	-0.073	0.215
-193.231	-200.000	0.037	-0.359
-192.217	-200.000	0.032	-0.221
-191.202	-88.869	-0.206	0.060
-190.187	-130.446	0.525	0.070
-189.173	-138.653	-0.172	-0.019
-188.158	160.391	0.090	-0.124
-187.144	419.918	0.014	0.029
-186.129	33.864	0.041	-0.035
-185.114	83.680	-0.191	0.205
-184.100	800.000	0.040	-0.110
-183.085	-25.433	-0.111	-0.065
-182.071	28.973	0.205	-0.171
-181.056	108.144	-0.151	-0.177
-180.042	-15.861	-0.118	-0.074
-179.027	-155.928	-0.116	-0.007
-178.012	684.469	0.049	-0.125
-176.998	-172.438	0.251	-0.008
-175.983	-25.175	-0.185	0.108
-174.969	-200.000	-0.013	0.281
-173.954	134.642	0.077	-0.098
-172.939	332.759	-0.030	0.057
-171.925	-99.345	0.155	0.038
-170.910	125.564	0.093	0.115
-169.896	-80.441	-0.080	0.026
-168.881	-125.710	0.078	-0.012
-167.866	-116.964	0.232	0.042
-166.852	732.790	-0.104	0.273
-165.837	-200.000	-0.002	0.339
-164.823	800.000	0.040	-0.159
-163.808	-65.866	0.136	0.053
-162.793	-52.678	0.379	0.172
-161.779	443.496	-0.085	0.183
-160.764	-78.030	-0.215	0.073
-159.750	-200.000	-0.015	0.132
-158.735	68.805	-0.043	0.044
-157.720	22.636	-0.086	-0.069
-156.706	-64.634	-0.095	0.038
-155.691	-8.823	-0.059	-0.039
-154.677	-200.000	-0.025	-0.181
-153.662	36.546	-0.083	0.072
-152.647	800.000	-0.069	0.257
-151.633	9.062	0.126	0.093
-150.618	-81.287	0.054	-0.017
-149.604	-129.978	0.260	-0.035
-148.589	197.966	0.082	-0.123
-147.574	-67.522	-0.076	-0.029
-146.560	666.939	0.104	0.263
-145.545	6.155	-0.289	0.211
-144.531	-106.216	-0.212	-0.047
-143.516	-41.104	-0.169	0.086
-142.502	-58.025	-0.164	0.070
-141.487	800.000	0.075	-0.228
-140.472	-200.000	0.043	-0.201
-139.458	-176.718	0.454	-0.011
-138.443	353.423	0.042	-0.082
-137.429	-200.000	0.044	0.249
-136.414	537.354	0.062	0.144
-135.399	-140.131	0.367	-0.038
-134.385	59.147	-0.094	0.091
-133.370	-200.000	-0.020	0.097
-132.356	800.000	-0.040	-0.141
-131.341	170.772	0.128	-0.179
-130.326	-200.000	-0.003	-0.195
-129.312	-115.504	0.171	-0.032
-128.297	-148.400	0.159	0.013
-127.283	521.744	-0.105	-0.242
-126.268	-6.973	-0.295	-0.196
-125.253	441.214	-0.178	-0.382
-124.239	74.756	-0.094	0.097
-123.224	800.000	0.036	0.138
-122.210	6.444	-0.186	-0.135
