DTS Sentinel unit serial number:	SN413079Multiplexer serial number:	ORYXHardware model number:	OX4-SRSoftware version number:	ORYX F/W v4.00 Oryx Data Collector v3.7.2.0data status	okinstallation	princeton_trtdifferential loss correction	single-endedforward channel	channel 1reverse channel	N/Adate	2019/09/15time	13:34:35forward acquisition time	60.00reverse acquisition time	0.00gamma	496.2192k internal	0.2293k external	0.2293temperature offset calibration	0.9969default loss term (dB/km)	0.3790temperature slope calibration	1.0000multiplexer offset coefficient	1.0000multiplexer slope coefficient	1.0000fibre end	0.00T internal ref (°C)	37.67T ext. ref 1 (°C)	4.82T ext. ref 2 (°C)	35.03length (m)	temperature (°C)	Stokes	anti-Stokes-747.200	223.303	-0.079	0.131
-746.185	257.839	0.143	0.252
-745.171	-200.000	0.013	0.063
-744.156	-118.402	-0.219	0.040
-743.142	187.644	-0.098	0.150
-742.127	282.348	-0.142	0.260
-741.112	286.201	-0.036	0.066
-740.098	-151.598	0.289	-0.022
-739.083	-70.358	-0.197	0.076
-738.069	800.000	0.058	0.167
-737.054	-174.775	-0.251	-0.007
-736.039	-104.099	0.110	0.026
-735.025	800.000	-0.067	-0.195
-734.010	721.650	-0.160	-0.436
-732.996	78.215	-0.167	-0.182
-731.981	121.735	-0.097	0.124
-730.966	321.440	-0.165	-0.320
-729.952	-131.793	0.227	-0.030
-728.937	-200.000	0.020	-0.227
-727.923	800.000	0.055	0.178
-726.908	16.195	-0.135	-0.109
-725.894	167.736	0.227	0.330
-724.879	-60.010	0.243	0.106
-723.864	800.000	-0.082	0.239
-722.850	-200.000	0.010	-0.255
-721.835	353.743	0.061	-0.123
-720.821	-200.000	-0.083	-0.446
-719.806	194.237	-0.215	-0.333
-718.791	-78.056	-0.337	-0.119
-717.777	800.000	-0.039	-0.159
-716.762	-99.512	-0.053	0.014
-715.748	-126.026	0.133	0.020
-714.733	61.626	-0.121	-0.123
-713.718	-49.699	0.080	0.039
-712.704	-97.082	-0.132	-0.035
-711.689	76.077	0.291	0.314
-710.675	-186.625	-0.010	-0.000
-709.660	298.576	-0.139	0.261
-708.645	-200.000	-0.004	-0.132
-707.631	540.529	-0.055	0.134
-706.616	-92.155	-0.152	-0.044
-705.602	800.000	-0.061	0.250
-704.587	-152.038	0.379	-0.028
-703.572	-200.000	-0.044	-0.330
-702.558	800.000	-0.045	0.153
-701.543	73.854	-0.188	0.202
-700.529	-170.283	0.215	0.008
-699.514	-168.043	0.246	-0.010
-698.499	-48.585	-0.274	-0.135
-697.485	-200.000	0.053	-0.308
-696.470	470.311	0.174	-0.398
-695.456	-200.000	0.046	-0.260
-694.441	198.754	0.158	-0.247
-693.426	15.407	0.302	-0.242
-692.412	8.173	-0.378	0.290
-691.397	-200.000	0.015	0.358
-690.383	-200.000	-0.050	-0.268
-689.368	-31.136	0.080	-0.046
-688.354	98.888	-0.156	-0.184
-687.339	468.491	0.112	-0.257
-686.324	-37.522	-0.175	0.095
-685.310	-48.811	0.070	-0.034
-684.295	37.254	0.168	0.152
-683.281	38.672	-0.277	0.253
-682.266	-5.451	0.113	0.079
-681.251	-200.000	-0.007	-0.119
-680.237	-60.667	0.339	-0.147
-679.222	-137.269	-0.352	0.041
-678.208	20.000	-0.073	-0.060
-677.193	6.001	-0.004	-0.003
-676.178	-200.000	-0.051	-0.250
-675.164	-176.748	-0.268	0.007
-674.149	41.688	-0.118	-0.109
-673.135	37.250	-0.183	-0.165
-672.120	50.648	0.124	-0.120
-671.105	-71.989	0.324	-0.123
-670.091	-46.001	-0.175	0.088
-669.076	800.000	0.048	-0.146
-668.062	-200.000	-0.105	-0.661
-667.047	-200.000	-0.005	0.113
-666.032	93.217	-0.141	0.163
-665.018	414.119	0.038	-0.083
-664.003	-4.044	0.178	-0.126
-662.989	140.745	0.097	-0.130
-661.974	-200.000	-0.007	-0.206
-660.959	115.279	0.132	-0.165
-659.945	67.651	0.093	-0.097
-658.930	-21.295	-0.284	-0.177
-657.916	-9.552	0.142	-0.097
-656.901	800.000	0.073	-0.205
-655.886	-200.000	0.001	0.387
-654.872	-63.833	-0.152	-0.064
-653.857	-71.409	-0.088	0.034
-652.843	-200.000	-0.067	-0.375
-651.828	800.000	0.055	-0.156
-650.814	-89.603	0.216	0.065
-649.799	800.000	-0.095	-0.283
-648.784	-73.144	-0.327	-0.122
-647.770	117.158	-0.170	-0.213
-646.755	-200.000	-0.048	-0.297
-645.741	171.599	-0.271	-0.396
-644.726	-49.430	-0.235	-0.114
-643.711	51.305	0.045	-0.043
-642.697	70.615	-0.127	-0.133
-641.682	-55.109	0.608	0.279
-640.668	-200.000	0.028	-0.147
-639.653	-14.118	-0.088	-0.058
-638.638	-200.000	0.015	0.177
-637.624	-69.074	-0.267	-0.105
-636.609	-142.331	-0.059	-0.006
-635.595	-102.560	-0.155	-0.038
-634.580	99.490	0.122	-0.144
-633.565	-100.404	-0.108	0.027
-632.551	16.372	-0.242	-0.195
-631.536	-107.074	0.334	-0.075
-630.522	29.500	0.114	-0.099
-629.507	148.734	0.157	0.217
-628.492	-101.614	0.171	0.042
-627.478	-44.791	-0.149	0.076
-626.463	-96.415	-0.095	-0.026
-625.449	639.236	0.058	-0.149
-624.434	266.329	0.112	-0.199
-623.419	743.248	0.085	0.231
-622.405	125.188	0.215	-0.275
-621.390	-122.171	-0.046	0.008
-620.376	-66.031	0.170	0.069
-619.361	70.129	-0.101	-0.106
-618.346	-54.639	0.036	0.017
-617.332	133.190	0.197	-0.259
-616.317	-198.110	0.102	-0.001
-615.303	-200.000	-0.019	-0.251
-614.288	356.023	-0.012	-0.025
-613.273	800.000	0.046	-0.131
-612.259	800.000	0.072	0.241
-611.244	223.894	-0.157	0.258
-610.230	-5.388	-0.141	0.099
-609.215	-14.786	-0.250	-0.163
-608.201	25.927	-0.044	-0.037
-607.186	-127.145	-0.232	0.035
-606.171	-82.094	0.397	0.132
-605.157	614.382	0.021	-0.054
-604.142	800.000	-0.025	0.106
-603.128	-200.000	0.050	0.236
-602.113	151.127	-0.101	-0.140
-601.098	800.000	0.047	-0.207
-600.084	768.219	-0.117	-0.325
-599.069	-200.000	-0.008	-0.190
-598.055	206.671	0.072	-0.114
-597.040	-136.550	-0.145	0.017
-596.025	-72.739	0.132	-0.049
-595.011	-200.000	0.001	-0.014
-593.996	-14.676	0.207	0.135
-592.982	110.005	0.275	-0.336
-591.967	-134.632	-0.528	0.065
-590.952	523.689	-0.030	-0.071
-589.938	-45.982	0.112	-0.056
-588.923	-10.330	-0.144	-0.097
-587.909	259.976	-0.091	-0.160
-586.894	-200.000	0.048	0.347
-585.879	-185.679	0.038	0.001
-584.865	-89.707	0.158	0.047
-583.850	196.660	0.083	0.128
-582.836	0.652	0.289	0.210
-581.821	-87.631	-0.264	-0.081
-580.806	-28.534	-0.345	0.202
-579.792	-200.000	-0.003	-0.085
-578.777	-168.296	-0.215	-0.008
-577.763	-89.065	0.069	0.021
-576.748	47.467	0.036	0.034
-575.733	800.000	-0.016	0.059
-574.719	-24.069	0.370	-0.225
-573.704	4.927	0.083	0.062
-572.690	-4.919	-0.171	0.120
-571.675	800.000	-0.122	0.397
-570.661	-53.628	-0.067	0.031
-569.646	-200.000	0.022	-0.111
-568.631	-135.002	-0.106	-0.013
-567.617	-24.746	0.218	-0.132
-566.602	-44.549	0.097	0.049
-565.588	-99.338	-0.063	-0.016
-564.573	-114.989	0.154	0.030
-563.558	429.929	-0.071	0.157
-562.544	147.631	-0.100	0.137
-561.529	-127.405	0.191	-0.028
-560.515	-91.866	-0.028	-0.008
-559.500	-116.005	-0.329	0.062
-558.485	-200.000	-0.002	-0.251
-557.471	-37.084	0.359	0.195
-556.456	30.106	0.117	-0.102
-555.442	549.458	0.053	0.130
-554.427	-200.000	0.001	0.124
-553.412	173.857	0.052	-0.077
-552.398	800.000	-0.006	0.016
-551.383	-151.996	-0.299	-0.022
-550.369	-158.624	-0.132	0.008
-549.354	18.945	0.088	-0.072
-548.339	-142.837	0.400	-0.039
-547.325	800.000	-0.028	-0.119
-546.310	800.000	-0.102	0.344
-545.296	78.615	0.104	0.113
-544.281	139.996	-0.139	0.185
-543.266	-200.000	-0.052	0.233
-542.252	-40.380	0.098	0.052
-541.237	202.462	0.248	0.389
-540.223	202.424	0.285	-0.446
-539.208	-200.000	0.024	-0.203
-538.193	-162.348	0.159	-0.008
-537.179	94.816	-0.053	0.061
-536.164	-54.390	-0.173	-0.080
-535.150	52.152	0.149	-0.144
-534.135	-200.000	0.068	0.415
-533.121	-110.472	0.160	0.034
-532.106	275.646	0.101	0.182
-531.091	479.639	-0.117	-0.269
-530.077	-200.000	0.038	0.198
-529.062	88.939	0.102	0.115
-528.048	66.711	-0.249	0.257
-527.033	110.949	-0.125	0.152
-526.018	800.000	0.043	0.151
-525.004	-200.000	-0.035	-0.205
-523.989	29.378	-0.138	-0.119
-522.975	-40.271	0.057	-0.030
-521.960	16.577	0.169	-0.135
-520.945	-127.410	0.221	0.033
-519.931	91.171	-0.107	0.122
-518.916	-38.700	0.062	-0.033
-517.902	800.000	0.038	0.158
-516.887	-200.000	-0.026	0.327
-515.872	-200.000	-0.055	0.320
-514.858	-125.562	-0.141	-0.022
-513.843	-55.588	0.159	-0.072
-512.829	-200.000	0.031	-0.241
-511.814	19.315	-0.234	0.191
-510.799	-61.843	-0.254	-0.108
-509.785	800.000	-0.057	-0.224
-508.770	212.904	0.213	0.340
-507.756	-200.000	0.006	0.027
-506.741	-200.000	-0.030	0.138
-505.726	424.211	-0.024	-0.053
-504.712	66.987	0.106	-0.109
-503.697	-107.501	-0.178	-0.040
-502.683	103.312	-0.202	0.240
-501.668	-200.000	-0.039	0.338
-500.653	298.877	-0.066	0.123
-499.639	2.939	0.218	0.160
-498.624	-87.344	0.169	0.052
-497.610	162.318	-0.140	0.199
-496.595	-28.778	-0.064	-0.037
-495.581	-115.660	-0.121	-0.023
-494.566	-70.114	0.224	-0.086
-493.551	-200.000	0.007	-0.378
-492.537	-1.050	0.201	0.144
-491.522	211.582	0.027	0.043
-490.508	78.917	-0.138	-0.149
-489.493	91.663	-0.115	-0.131
-488.478	-200.000	-0.003	-0.057
-487.464	-70.585	-0.170	0.065
-486.449	334.139	-0.022	0.044
-485.435	162.113	0.083	-0.118
-484.420	-142.198	0.277	-0.028
-483.405	-113.263	0.109	-0.022
-482.391	-200.000	-0.013	0.193
-481.376	43.328	-0.257	-0.238
-480.362	-200.000	-0.010	0.178
-479.347	-200.000	0.021	0.093
-478.332	17.128	-0.158	0.127
-477.318	169.132	0.092	-0.132
-476.303	-8.381	-0.104	0.071
-475.289	-197.309	0.257	0.002
-474.274	-91.525	0.077	-0.022
-473.259	-200.000	-0.018	0.346
-472.245	269.551	-0.149	-0.264
-471.230	394.286	0.125	-0.263
-470.216	85.289	0.061	0.068
-469.201	387.036	0.061	0.127
-468.186	-11.492	-0.346	-0.230
-467.172	174.468	-0.214	0.312
-466.157	60.504	0.135	0.135
-465.143	800.000	-0.008	-0.032
-464.128	72.729	-0.235	0.249
-463.113	732.037	-0.025	0.066
-462.099	-82.772	0.202	0.066
-461.084	51.815	-0.148	0.143
-460.070	-48.035	-0.245	0.120
-459.055	566.741	0.023	-0.057
-458.040	48.681	-0.457	-0.434
-457.026	800.000	0.137	0.441
-456.011	176.201	0.161	0.236
-454.997	-140.905	0.144	0.015
-453.982	-160.396	-0.172	-0.009
-452.968	-200.000	0.004	0.145
-451.953	-107.380	-0.105	0.023
-450.938	-44.253	0.149	-0.076
-449.924	-200.000	-0.025	0.113
-448.909	-200.000	-0.521	-0.001
-447.895	0.882	0.139	0.101
-446.880	800.000	0.081	-0.265
-445.865	64.429	-0.144	-0.147
-444.851	800.000	0.078	0.238
-443.836	85.408	0.204	-0.226
-442.822	226.278	0.184	0.302
-441.807	-84.482	-0.501	-0.160
-440.792	186.118	-0.111	-0.166
-439.778	-101.032	0.046	-0.011
-438.763	751.377	0.071	0.193
-437.749	-200.000	-0.055	-0.286
-436.734	-200.000	-0.018	0.201
-435.719	688.244	0.068	0.180
-434.705	-113.503	-0.359	0.071
-433.690	211.537	0.067	0.106
-432.676	-106.485	-0.236	0.053
-431.661	-97.756	-0.176	0.046
-430.646	135.043	0.080	0.105
-429.632	46.021	-0.096	-0.090
-428.617	-49.159	0.333	-0.161
-427.603	-142.732	0.269	0.027
-426.588	-200.000	-0.006	0.128
-425.573	166.933	0.114	-0.163
-424.559	-200.000	-0.026	0.408
-423.544	-200.000	0.006	-0.029
-422.530	11.879	0.215	0.167
-421.515	-157.839	-0.278	-0.017
-420.500	-126.001	-0.113	0.017
-419.486	-67.359	0.174	0.069
-418.471	-11.811	0.123	-0.082
-417.457	800.000	-0.023	-0.070
-416.442	5.757	0.162	-0.121
-415.428	800.000	0.026	-0.113
-414.413	217.793	-0.354	-0.569
-413.398	-76.491	0.373	-0.132
-412.384	-108.837	-0.081	-0.017
-411.369	-52.103	0.180	-0.084
-410.355	517.211	0.090	-0.214
-409.340	-72.568	-0.369	0.137
-408.325	-129.868	0.275	0.038
-407.311	-42.962	-0.455	0.233
-406.296	97.340	0.074	-0.086
-405.282	55.852	-0.064	0.062
-404.267	-200.000	-0.031	-0.179
-403.252	59.282	0.074	-0.073
-402.238	-89.818	-0.313	0.092
-401.223	-41.027	-0.117	0.061
-400.209	406.849	0.110	0.234
-399.194	1.665	-0.233	0.169
-398.179	-200.000	-0.012	-0.295
-397.165	20.007	0.271	-0.220
-396.150	-12.623	-0.039	-0.026
-395.136	800.000	-0.096	-0.324
-394.121	46.564	0.380	0.356
-393.106	136.917	0.047	0.063
-392.092	244.530	0.019	-0.032
-391.077	51.766	-0.192	-0.184
-390.063	-200.000	0.042	-0.207
-389.048	-200.000	0.027	0.284
-388.033	-200.000	-0.035	0.189
-387.019	-46.115	0.358	0.178
-386.004	395.696	0.163	0.344
-384.990	147.513	-0.058	0.079
-383.975	-53.164	0.271	0.126
-382.960	-122.976	0.138	-0.022
-381.946	23.500	-0.076	-0.063
-380.931	-89.978	0.267	0.078
-379.917	621.462	-0.189	-0.480
-378.902	64.467	-0.184	-0.187
-377.888	-130.406	0.073	0.010
-376.873	510.241	-0.061	-0.143
-375.858	-40.126	0.047	-0.025
-374.844	-122.112	0.332	0.055
-373.829	800.000	-0.078	-0.245
-372.815	-59.133	-0.205	-0.089
-371.800	-36.737	-0.095	0.051
-370.785	-200.000	0.001	-0.042
-369.771	9.966	-0.068	0.052
-368.756	-200.000	-0.027	-0.213
-367.742	-81.640	-0.092	-0.031
-366.727	451.499	-0.098	-0.219
-365.712	682.616	-0.094	0.246
-364.698	6.677	0.081	0.061
-363.683	-117.182	0.062	0.011
-362.669	54.502	-0.226	-0.219
-361.654	70.232	0.345	-0.359
-360.639	-76.546	0.187	0.066
-359.625	-85.207	0.415	0.131
-358.610	-184.377	-0.379	-0.006
-357.596	-200.000	0.054	-0.239
-356.581	64.461	0.164	0.166
-355.566	-3.268	0.136	0.096
-354.552	27.309	-0.126	-0.106
-353.537	-58.657	-0.227	0.099
-352.523	-17.811	0.123	-0.078
-351.508	368.925	0.103	-0.210
-350.493	-200.000	-0.022	-0.138
-349.479	-11.094	0.257	-0.171
-348.464	25.849	0.190	-0.160
-347.450	221.345	-0.063	-0.102
-346.435	71.877	0.113	-0.118
-345.420	-102.861	0.227	0.054
-344.406	96.530	-0.131	0.151
-343.391	-50.353	-0.237	-0.113
-342.377	-38.780	-0.194	-0.103
-341.362	298.018	-0.014	0.026
-340.348	-177.654	0.394	0.010
-339.333	-80.612	-0.104	0.035
-338.318	463.225	-0.038	-0.085
-337.304	82.824	-0.085	0.093
-336.289	-200.000	0.035	0.207
-335.275	80.818	0.128	-0.139
-334.260	-91.481	-0.127	0.036
-333.245	112.186	-0.222	-0.270
-332.231	-14.771	0.302	0.195
-331.216	-25.033	0.190	-0.113
-330.202	-200.000	-0.051	-0.262
-329.187	261.089	-0.120	-0.209
-328.172	67.981	-0.375	0.386
-327.158	-89.165	0.513	0.153
-326.143	229.768	-0.169	-0.277
-325.129	-200.000	0.014	-0.098
-324.114	800.000	-0.075	0.238
-323.099	120.023	-0.110	0.137
-322.085	-82.671	-0.061	0.020
-321.070	166.709	-0.236	-0.337
-320.056	-136.514	-0.204	-0.024
-319.041	-174.150	-0.445	0.013
-318.026	-61.762	-0.202	0.085
-317.012	800.000	0.052	-0.161
-315.997	506.399	-0.050	0.116
-314.983	-10.456	-0.281	-0.188
-313.968	166.015	0.055	0.078
-312.953	-51.409	0.077	-0.036
-311.939	-59.203	0.207	0.090
-310.924	-78.481	0.112	-0.038
-309.910	324.876	-0.051	-0.098
-308.895	-60.216	0.067	0.029
-307.880	-200.000	0.076	0.343
-306.866	-200.000	-0.022	-0.238
-305.851	800.000	-0.046	-0.167
-304.837	24.405	-0.166	-0.138
-303.822	25.761	-0.187	0.157
-302.807	401.188	0.021	0.044
-301.793	-156.514	0.325	0.020
-300.778	-70.673	-0.087	0.033
-299.764	-200.000	0.003	-0.128
-298.749	-2.153	-0.081	-0.057
-297.735	-29.954	0.170	-0.097
-296.720	114.911	-0.121	0.149
-295.705	-39.854	0.026	0.014
-294.691	-200.000	0.028	0.131
-293.676	-200.000	-0.022	0.109
-292.662	86.991	-0.113	-0.125
-291.647	-60.014	-0.075	0.032
-290.632	230.430	-0.192	0.316
-289.618	-200.000	0.027	0.234
-288.603	317.822	-0.174	0.330
-287.589	-170.136	-0.120	0.004
-286.574	-48.251	0.358	0.173
-285.559	748.621	0.067	-0.181
-284.545	-36.753	0.224	0.121
-283.530	198.022	0.053	0.082
-282.516	121.104	0.275	-0.344
-281.501	213.740	-0.019	-0.030
-280.486	129.895	-0.115	0.148
-279.472	-199.570	0.169	0.001
-278.457	-118.709	-0.174	-0.031
-277.443	-200.000	-0.011	0.267
-276.428	-101.665	-0.150	-0.036
-275.413	716.489	-0.057	-0.152
-274.399	800.000	0.113	-0.351
-273.384	-200.000	0.021	-0.098
-272.370	800.000	0.033	0.136
-271.355	17.071	0.153	-0.122
-270.340	-92.603	0.186	-0.052
-269.326	689.089	-0.035	0.092
-268.311	800.000	0.038	0.130
-267.297	-31.903	-0.286	-0.161
-266.282	23.327	0.298	0.246
-265.267	340.684	-0.101	0.197
-264.253	800.000	-0.128	0.434
-263.238	-165.251	-0.070	0.003
-262.224	-200.000	-0.003	0.204
-261.209	-19.632	-0.088	-0.054
-260.195	-145.070	-0.260	0.024
-259.180	697.118	-0.074	0.195
-258.165	-121.307	-0.185	0.031
-257.151	55.429	0.037	0.036
-256.136	-79.956	0.199	-0.067
-255.122	800.000	-0.092	-0.262
-254.107	-178.049	-0.074	-0.002
-253.092	-71.498	-0.050	-0.019
-252.078	135.597	0.121	-0.158
-251.063	-77.304	-0.243	0.085
-250.049	-88.306	0.234	0.070
-249.034	118.896	0.138	0.172
-248.019	409.534	0.098	0.208
-247.005	-44.815	-0.296	-0.148
-245.990	40.338	0.192	-0.173
-244.976	-107.845	-0.109	0.024
-243.961	647.310	0.063	0.162
-242.946	734.149	-0.050	0.133
-241.932	800.000	-0.073	-0.221
-240.917	311.598	0.050	-0.094
-239.903	327.202	0.136	-0.262
-238.888	-200.000	-0.046	-0.373
-237.873	59.249	-0.182	-0.180
-236.859	106.658	-0.050	-0.060
-235.844	16.961	0.113	-0.090
-234.830	118.676	0.037	-0.046
-233.815	21.190	-0.149	0.121
-232.800	70.746	-0.122	-0.127
-231.786	800.000	-0.061	-0.229
-230.771	-124.107	-0.181	-0.029
-229.757	-9.715	0.105	0.070
-228.742	74.933	-0.064	-0.068
-227.727	-54.185	-0.072	-0.033
-226.713	-125.179	-0.308	-0.047
-225.698	-34.817	-0.140	0.077
-224.684	-200.000	-0.012	0.192
-223.669	800.000	0.021	-0.064
-222.655	-200.000	-0.074	0.358
-221.640	-110.187	0.261	0.055
-220.625	-200.000	-0.002	-0.109
-219.611	118.255	0.143	-0.177
-218.596	-200.000	-0.016	0.240
-217.582	-80.433	-0.224	0.075
-216.567	-0.156	-0.216	0.154
-215.552	-200.000	0.011	0.074
-214.538	-200.000	0.009	0.380
-213.523	127.490	0.231	-0.294
-212.509	10.645	0.353	0.270
-211.494	157.309	-0.064	-0.088
-210.479	175.860	-0.138	0.201
-209.465	800.000	-0.031	0.130
-208.450	-86.632	0.122	0.038
-207.436	209.854	-0.121	0.189
-206.421	-70.630	0.166	-0.063
-205.406	-21.744	-0.230	0.141
-204.392	-192.591	0.386	-0.004
-203.377	750.187	-0.047	0.126
-202.363	146.176	0.170	-0.228
-201.348	2.259	-0.254	-0.184
-200.333	76.747	-0.069	-0.073
-199.319	-64.685	0.038	0.016
-198.304	228.148	0.202	-0.330
-197.290	-200.000	0.008	-0.145
-196.275	112.002	0.115	0.139
-195.260	-200.000	-0.003	-0.100
-194.246	800.000	-0.065	-0.261
-193.231	-200.000	0.017	0.120
-192.217	-200.000	-0.030	0.257
-191.202	15.818	-0.005	-0.004
-190.187	-94.830	0.152	0.041
-189.173	-46.785	-0.403	-0.198
-188.158	800.000	-0.051	0.161
-187.144	-200.000	-0.025	0.398
-186.129	425.626	-0.054	-0.117
-185.114	423.093	-0.050	0.108
-184.100	-51.058	0.227	0.107
-183.085	752.055	-0.060	0.162
-182.071	43.076	0.293	0.268
-181.056	-57.163	0.286	0.126
-180.042	72.432	0.086	0.089
-179.027	-162.003	0.294	0.015
-178.012	-25.240	0.185	-0.110
-176.998	3.099	0.157	-0.114
-175.983	67.054	0.191	-0.195
-174.969	21.328	-0.092	-0.075
-173.954	-123.799	-0.395	-0.062
-172.939	-68.850	-0.323	-0.125
-171.925	-141.839	0.422	0.042
-170.910	-171.421	-0.352	0.012
-169.896	280.421	-0.006	0.010
-168.881	523.535	0.061	0.144
-167.866	-200.000	-0.010	0.252
-166.852	-200.000	0.007	0.114
-165.837	-90.871	0.294	-0.085
-164.823	-200.000	0.015	-0.151
-163.808	-12.603	0.199	0.130
-162.793	-200.000	-0.004	-0.301
-161.779	-48.192	0.234	-0.113
-160.764	67.024	-0.236	0.241
-159.750	128.852	0.090	-0.114
-158.735	-200.000	0.017	-0.385
-157.720	-200.000	-0.030	-0.150
-156.706	-93.110	0.278	-0.077
-155.691	262.259	0.192	-0.332
-154.677	-200.000	-0.025	-0.187
-153.662	-54.006	-0.078	0.035
-152.647	-27.312	0.169	0.098
-151.633	-142.042	-0.086	0.009
-150.618	-146.318	-0.139	0.012
-149.604	641.779	0.098	0.249
-148.589	-200.000	-0.002	-0.115
-147.574	-73.132	0.384	-0.141
-146.560	-200.000	0.046	0.237
-145.545	416.169	0.168	-0.358
-144.531	210.955	0.125	-0.196
-143.516	44.172	-0.030	-0.027
-142.502	-140.573	-0.302	-0.031
-141.487	69.125	0.119	0.123
-140.472	492.706	-0.098	0.223
-139.458	22.159	-0.237	0.194
-138.443	315.316	-0.044	0.083
-137.429	64.236	-0.182	0.183
-136.414	-173.925	0.182	0.005
-135.399	-132.416	-0.275	0.035
-134.385	-41.962	-0.139	0.071
-133.370	369.350	-0.055	0.110
-132.356	-200.000	0.009	0.132
-131.341	19.407	-0.219	-0.176
-130.326	565.227	-0.037	-0.089
-129.312	75.874	-0.191	0.202
-128.297	-32.289	0.102	0.057
-127.283	49.218	-0.297	-0.279
-126.268	-131.524	-0.090	0.012
-125.253	97.221	-0.161	0.184
-124.239	-30.175	0.212	-0.120
-123.224	188.147	-0.029	0.043
-122.210	-4.318	-0.054	-0.038
-121.195	214.230	0.365	0.576
