DTS Sentinel unit serial number:	SN413079Multiplexer serial number:	ORYXHardware model number:	OX4-SRSoftware version number:	ORYX F/W v4.00 Oryx Data Collector v3.7.2.0data status	okinstallation	princeton_trtdifferential loss correction	single-endedforward channel	channel 1reverse channel	N/Adate	2019/09/10time	16:20:11forward acquisition time	60.00reverse acquisition time	0.00gamma	496.2192k internal	0.2299k external	0.2299temperature offset calibration	0.9924default loss term (dB/km)	0.3790temperature slope calibration	1.0000multiplexer offset coefficient	1.0000multiplexer slope coefficient	1.0000fibre end	0.00T internal ref (°C)	38.23T ext. ref 1 (°C)	-0.28T ext. ref 2 (°C)	30.83length (m)	temperature (°C)	Stokes	anti-Stokes-747.200	92.965	0.258	0.298
-746.185	800.000	-0.013	-0.042
-745.171	-41.972	-0.278	-0.145
-744.156	-200.000	0.018	0.343
-743.142	171.346	0.207	0.302
-742.127	35.895	0.057	0.052
-741.112	25.191	-0.210	-0.178
-740.098	-200.000	0.017	0.192
-739.083	-94.098	-0.074	0.021
-738.069	-200.000	-0.027	-0.205
-737.054	379.340	0.037	-0.077
-736.039	-38.170	-0.526	-0.285
-735.025	-17.802	-0.196	0.125
-734.010	151.394	-0.234	-0.325
-732.996	-78.491	-0.037	0.013
-731.981	-149.645	-0.173	-0.014
-730.966	-121.554	-0.363	0.061
-729.952	8.271	0.202	0.154
-728.937	-136.626	-0.301	-0.035
-727.923	127.715	0.254	-0.329
-726.908	167.666	-0.161	-0.233
-725.894	-58.468	-0.163	-0.072
-724.879	-200.000	0.052	-0.419
-723.864	64.531	-0.181	-0.186
-722.850	6.423	-0.087	0.066
-721.835	42.869	0.300	-0.279
-720.821	-29.560	-0.174	-0.101
-719.806	620.638	-0.109	-0.279
-718.791	215.133	0.062	0.100
-717.777	-200.000	0.055	-0.534
-716.762	-36.845	-0.115	0.063
-715.748	636.543	-0.059	-0.153
-714.733	254.307	-0.093	-0.162
-713.718	-156.314	-0.245	0.016
-712.704	800.000	0.078	0.239
-711.689	642.292	0.070	-0.182
-710.675	-200.000	0.016	0.069
-709.660	12.938	0.128	-0.101
-708.645	-200.000	-0.473	-0.001
-707.631	265.122	-0.116	0.205
-706.616	-101.368	-0.045	0.011
-705.602	130.172	-0.189	-0.247
-704.587	800.000	-0.120	-0.433
-703.572	800.000	-0.019	-0.063
-702.558	-6.186	0.236	0.164
-701.543	312.807	-0.149	0.285
-700.529	264.108	-0.058	-0.102
-699.514	14.360	0.093	0.074
-698.499	-79.038	-0.274	-0.095
-697.485	452.152	-0.121	-0.273
-696.470	-200.000	0.071	-0.537
-695.456	-19.095	-0.208	0.131
-694.441	-71.937	0.119	-0.045
-693.426	-42.660	0.123	-0.064
-692.412	286.611	-0.197	-0.363
-691.397	-10.635	-0.462	-0.311
-690.383	61.086	-0.229	-0.231
-689.368	534.916	0.055	-0.133
-688.354	-200.000	-0.008	0.201
-687.339	-200.000	-0.015	0.166
-686.324	711.504	-0.067	-0.182
-685.310	136.335	0.079	0.105
-684.295	115.520	-0.200	-0.248
-683.281	106.602	0.165	-0.199
-682.266	-19.990	-0.192	0.120
-681.251	-67.184	-0.470	0.188
-680.237	-21.436	0.135	-0.084
-679.222	-200.000	-0.026	0.222
-678.208	-42.853	-0.397	0.205
-677.193	342.290	0.094	0.188
-676.178	-6.567	-0.076	-0.052
-675.164	800.000	-0.061	0.229
-674.149	-200.000	0.016	0.362
-673.135	43.933	0.082	0.077
-672.120	83.370	0.052	0.058
-671.105	-200.000	-0.023	-0.458
-670.091	43.566	0.081	0.075
-669.076	95.320	0.161	-0.186
-668.062	-162.528	-0.339	-0.017
-667.047	-163.758	-0.254	-0.012
-666.032	305.159	0.158	-0.299
-665.018	345.881	0.177	0.353
-664.003	-137.353	-0.273	-0.031
-662.989	-200.000	-0.018	-0.229
-661.974	147.152	0.124	-0.170
-660.959	800.000	0.027	-0.106
-659.945	-66.580	-0.453	-0.183
-658.930	110.222	0.188	0.230
-657.916	125.686	-0.127	-0.163
-656.901	65.604	0.171	0.176
-655.886	-200.000	-0.004	-0.123
-654.872	-200.000	0.018	-0.143
-653.857	-134.835	-0.335	0.041
-652.843	-128.921	-0.162	0.023
-651.828	100.135	-0.178	-0.210
-650.814	-200.000	-0.019	-0.283
-649.799	800.000	0.036	-0.139
-648.784	56.727	0.167	0.165
-647.770	146.630	-0.097	0.132
-646.755	-200.000	0.002	-0.078
-645.741	-185.799	-0.401	0.006
-644.726	31.438	-0.039	-0.034
-643.711	796.671	-0.074	-0.207
-642.697	800.000	-0.083	-0.255
-641.682	124.715	-0.117	0.149
-640.668	-115.635	0.204	-0.039
-639.653	34.032	-0.367	0.325
-638.638	108.137	0.064	-0.078
-637.624	72.280	0.077	0.081
-636.609	77.840	-0.045	0.049
-635.595	-45.949	-0.043	-0.021
-634.580	394.316	0.071	-0.150
-633.565	-146.544	-0.178	0.016
-632.551	-99.948	0.084	0.021
-631.536	198.430	0.137	0.212
-630.522	-200.000	0.010	0.149
-629.507	-200.000	-0.015	0.076
-628.492	314.598	0.111	0.211
-627.478	-122.481	0.364	-0.060
-626.463	-200.000	0.010	0.335
-625.449	352.735	0.175	0.352
-624.434	-114.275	0.333	-0.065
-623.419	-40.733	-0.084	-0.044
-622.405	762.315	0.063	0.173
-621.390	-200.000	-0.001	0.199
-620.376	554.617	-0.092	0.224
-619.361	-93.427	-0.229	-0.065
-618.346	800.000	0.049	-0.175
-617.332	181.379	-0.083	-0.123
-616.317	60.570	-0.202	-0.203
-615.303	-73.593	0.097	0.036
-614.288	-121.417	0.456	0.077
-613.273	65.925	-0.272	0.280
-612.259	268.780	-0.182	-0.325
-611.244	205.487	-0.224	-0.354
-610.230	-200.000	-0.017	0.089
-609.215	-119.048	0.017	-0.003
-608.201	-67.819	0.177	0.070
-607.186	30.686	-0.036	-0.032
-606.171	-25.934	-0.144	0.086
-605.157	-63.587	-0.217	0.090
-604.142	-56.559	0.065	-0.029
-603.128	298.873	-0.132	-0.247
-602.113	42.088	0.041	0.038
-601.098	289.756	0.089	-0.165
-600.084	6.350	0.218	-0.164
-599.069	-200.000	0.012	-0.141
-598.055	123.182	-0.082	-0.105
-597.040	-2.331	-0.121	-0.086
-596.025	-8.728	0.157	-0.107
-595.011	-62.232	-0.321	-0.136
-593.996	18.694	-0.120	-0.097
-592.982	27.970	-0.217	0.186
-591.967	800.000	0.060	-0.219
-590.952	-149.305	0.271	-0.022
-589.938	283.743	0.160	-0.292
-588.923	-141.519	-0.443	0.045
-587.909	-167.749	0.205	0.008
-586.894	-11.532	-0.240	-0.160
-585.879	800.000	0.045	0.184
-584.865	-131.772	-0.110	0.015
-583.850	263.821	-0.131	-0.230
-582.836	95.582	-0.096	0.111
-581.821	800.000	-0.022	0.082
-580.806	-48.747	0.244	0.119
-579.792	800.000	0.065	-0.250
-578.777	42.007	-0.056	0.051
-577.763	-96.057	-0.380	0.102
-576.748	79.376	0.306	0.332
-575.733	-91.847	0.083	-0.024
-574.719	-4.868	-0.410	-0.286
-573.704	-146.000	0.406	-0.036
-572.690	-200.000	-0.048	-0.253
-571.675	72.625	0.079	-0.084
-570.661	-153.888	-0.156	-0.011
-569.646	312.952	0.158	0.300
-568.631	800.000	0.043	0.139
-567.617	-28.460	0.361	-0.211
-566.602	-55.401	-0.059	-0.027
-565.588	-131.281	0.343	-0.046
-564.573	55.819	0.098	0.097
-563.558	25.916	0.087	0.073
-562.544	-200.000	0.076	-0.400
-561.529	-111.848	0.083	-0.017
-560.515	124.639	-0.089	-0.113
-559.500	111.912	0.135	-0.165
-558.485	160.415	-0.039	0.055
-557.471	-200.000	-0.032	-0.319
-556.456	-200.000	-0.001	0.257
-555.442	-102.413	0.284	-0.069
-554.427	57.540	0.113	-0.112
-553.412	-72.506	-0.163	0.061
-552.398	62.999	0.086	-0.087
-551.383	-106.024	-0.076	0.017
-550.369	-109.291	-0.198	0.042
-549.354	-200.000	-0.029	0.269
-548.339	800.000	0.055	-0.222
-547.325	-3.514	0.159	-0.112
-546.310	800.000	-0.030	-0.085
-545.296	-92.258	0.157	-0.045
-544.281	-66.499	0.181	0.073
-543.266	800.000	0.066	-0.206
-542.252	18.183	0.112	0.091
-541.237	86.604	0.066	-0.073
-540.223	-200.000	0.013	0.104
-539.208	800.000	-0.085	0.270
-538.193	-200.000	0.007	-0.167
-537.179	-129.869	-0.424	0.059
-536.164	-38.853	-0.095	-0.051
-535.150	306.480	0.240	0.451
-534.135	314.593	0.102	0.194
-533.121	-200.000	-0.037	-0.310
-532.106	183.561	-0.263	0.393
-531.091	104.444	0.073	0.087
-530.077	41.463	0.230	-0.211
-529.062	114.315	0.126	0.155
-528.048	83.194	0.227	-0.250
-527.033	-200.000	0.084	-0.562
-526.018	16.971	-0.020	-0.016
-525.004	-92.385	0.015	0.004
-523.989	-112.914	-0.298	0.060
-522.975	-103.705	-0.224	-0.053
-521.960	-99.682	0.095	0.024
-520.945	261.251	0.180	-0.316
-519.931	-200.000	-0.007	-0.154
-518.916	25.262	-0.202	0.170
-517.902	38.308	0.057	-0.051
-516.887	111.051	0.122	-0.148
-515.872	71.952	-0.287	-0.302
-514.858	-32.293	-0.308	-0.174
-513.843	221.431	-0.116	-0.189
-512.829	185.787	0.118	-0.177
-511.814	-200.000	-0.050	-0.234
-510.799	173.034	-0.133	0.194
-509.785	-64.291	0.114	-0.047
-508.770	-83.185	0.143	-0.047
-507.756	34.571	-0.103	0.091
-506.741	-120.715	0.041	-0.007
-505.726	-124.853	-0.146	0.023
-504.712	415.793	0.103	0.221
-503.697	-3.304	0.146	0.103
-502.683	-200.000	0.031	-0.194
-501.668	191.203	-0.048	0.073
-500.653	-133.081	0.173	-0.022
-499.639	-151.779	-0.230	-0.017
-498.624	418.939	0.042	-0.090
-497.610	-103.616	0.013	0.003
-496.595	-10.602	-0.313	0.209
-495.581	-98.610	0.190	0.049
-494.566	-113.460	-0.362	-0.072
-493.551	-191.094	0.183	-0.002
-492.537	-31.294	-0.149	0.085
-491.522	-200.000	0.016	0.115
-490.508	-87.047	0.183	-0.056
-489.493	231.213	-0.028	0.046
-488.478	-119.778	-0.155	0.027
-487.464	-103.736	0.457	0.108
-486.449	-200.000	0.005	-0.263
-485.435	-29.551	0.196	-0.113
-484.420	800.000	0.038	-0.143
-483.405	-136.828	0.158	-0.018
-482.391	-26.415	0.244	-0.144
-481.376	-21.333	-0.215	-0.132
-480.362	136.751	0.129	0.170
-479.347	-56.346	-0.256	-0.115
-478.332	-57.776	-0.359	-0.159
-477.318	20.030	0.233	-0.190
-476.303	-147.478	-0.206	-0.018
-475.289	534.541	-0.055	-0.131
-474.274	667.958	-0.089	0.232
-473.259	205.860	0.106	-0.167
-472.245	448.989	-0.161	-0.357
-471.230	-64.727	0.108	-0.044
-470.216	50.379	-0.121	-0.115
-469.201	-200.000	-0.031	0.187
-468.186	800.000	-0.062	0.195
-467.172	-200.000	0.018	0.192
-466.157	-200.000	-0.008	0.440
-465.143	56.417	0.125	-0.123
-464.128	-170.923	-0.251	0.009
-463.113	155.586	-0.167	-0.233
-462.099	-36.971	-0.186	-0.100
-461.084	170.716	-0.087	-0.125
-460.070	123.856	-0.170	0.216
-459.055	-163.711	-0.400	0.019
-458.040	-101.497	-0.310	0.076
-457.026	749.194	0.064	-0.174
-456.011	-172.698	-0.041	-0.001
-454.997	-200.000	0.023	-0.255
-453.982	-158.414	-0.117	0.007
-452.968	168.352	0.153	-0.219
-451.953	479.910	0.100	-0.229
-450.938	-116.116	-0.247	0.046
-449.924	-200.000	0.005	-0.106
-448.909	-73.073	0.277	0.102
-447.895	2.317	-0.149	-0.109
-446.880	102.930	0.059	0.070
-445.865	-200.000	0.020	-0.290
-444.851	800.000	0.041	-0.139
-443.836	-95.063	0.140	-0.038
-442.822	-200.000	0.006	0.202
-441.807	-200.000	0.031	0.150
-440.792	43.582	0.207	0.191
-439.778	-107.682	-0.219	-0.048
-438.763	-99.978	0.148	0.037
-437.749	263.724	-0.186	-0.327
-436.734	-109.386	0.404	0.086
-435.719	-115.429	0.136	-0.026
-434.705	-149.164	0.187	-0.015
-433.690	800.000	0.164	0.583
-432.676	-81.911	0.313	0.103
-431.661	-200.000	0.009	-0.144
-430.646	213.004	-0.143	-0.228
-429.632	-118.471	0.256	-0.046
-428.617	677.734	-0.103	-0.271
-427.603	-17.905	-0.212	0.134
-426.588	800.000	0.087	-0.259
-425.573	-94.552	-0.246	0.067
-424.559	7.033	0.318	0.239
-423.544	162.273	0.129	0.183
-422.530	-118.466	-0.386	-0.069
-421.515	800.000	0.070	0.202
-420.500	-155.329	0.295	0.019
-419.486	190.460	-0.111	-0.168
-418.471	130.164	0.205	-0.264
-417.457	140.550	-0.109	-0.144
-416.442	-123.214	0.235	0.038
-415.428	33.096	0.219	-0.191
-414.413	-200.000	-0.007	0.172
-413.398	-200.000	-0.036	0.227
-412.384	69.436	-0.035	-0.037
-411.369	56.803	-0.211	-0.207
-410.355	800.000	-0.064	0.213
-409.340	-200.000	-0.044	0.230
-408.325	-144.498	-0.299	0.028
-407.311	-99.158	0.099	-0.025
-406.296	-0.062	-0.441	-0.316
-405.282	800.000	-0.119	0.341
-404.267	-108.674	-0.207	-0.045
-403.252	800.000	-0.109	0.329
-402.238	6.250	0.372	0.278
-401.223	428.754	-0.098	0.212
-400.209	-37.437	0.030	0.016
-399.194	800.000	0.045	0.173
-398.179	-200.000	-0.003	0.333
-397.165	800.000	0.125	0.373
-396.150	136.300	0.136	0.179
-395.136	277.393	-0.195	-0.349
-394.121	-200.000	-0.007	0.251
-393.106	545.493	0.119	-0.286
-392.092	254.150	0.111	-0.192
-391.077	133.702	-0.116	0.151
-390.063	-116.893	-0.129	0.024
-389.048	-31.093	0.068	-0.039
-388.033	245.096	0.154	0.261
-387.019	-114.562	0.060	0.012
-386.004	-200.000	-0.003	-0.322
-384.990	183.237	0.104	0.155
-383.975	800.000	-0.050	-0.191
-382.960	42.140	0.214	0.195
-381.946	499.640	-0.219	0.507
-380.931	-20.324	0.043	0.026
-379.917	-10.628	-0.132	-0.088
-378.902	48.282	0.097	-0.091
-377.888	-184.590	-0.182	-0.003
-376.873	54.598	0.026	-0.025
-375.858	-200.000	0.003	0.133
-374.844	-200.000	-0.016	0.137
-373.829	-121.598	0.462	-0.077
-372.815	-85.019	-0.106	-0.033
-371.800	646.438	0.079	0.203
-370.785	312.660	0.177	0.334
-369.771	-77.845	0.240	0.083
-368.756	-41.141	0.123	-0.064
-367.742	212.490	0.202	0.321
-366.727	128.822	0.185	-0.237
-365.712	580.278	-0.014	-0.034
-364.698	316.778	0.067	-0.127
-363.683	202.332	0.256	0.397
-362.669	404.907	0.082	-0.174
-361.654	-200.000	0.061	0.324
-360.639	-109.656	-0.273	0.058
-359.625	800.000	-0.022	0.088
-358.610	411.961	0.062	0.133
-357.596	-3.447	-0.079	-0.055
-356.581	68.419	0.179	0.185
-355.566	751.368	-0.088	0.238
-354.552	-200.000	-0.030	0.294
-353.537	-86.354	0.057	-0.018
-352.523	800.000	-0.028	-0.112
-351.508	-121.739	-0.256	0.043
-350.493	187.425	0.120	-0.179
-349.479	-63.366	-0.140	-0.058
-348.464	-200.000	0.020	0.319
-347.450	14.549	0.315	0.247
-346.435	126.953	-0.121	0.154
-345.420	800.000	-0.071	0.228
-344.406	14.678	0.313	-0.246
-343.391	330.268	0.147	0.285
-342.377	83.860	-0.203	-0.222
-341.362	-11.432	0.166	0.109
-340.348	-110.229	-0.321	0.067
-339.333	-123.073	0.185	0.030
-338.318	-5.812	-0.231	-0.159
-337.304	-17.033	-0.141	0.089
-336.289	26.976	-0.193	0.163
-335.275	-200.000	0.028	0.312
-334.260	-82.749	0.075	0.024
-333.245	159.900	0.076	-0.106
-332.231	800.000	0.049	-0.195
-331.216	-200.000	0.027	-0.149
-330.202	113.630	-0.071	-0.086
-329.187	187.575	-0.100	0.149
-328.172	59.918	-0.116	0.115
-327.158	-92.899	-0.308	0.086
-326.143	-48.981	-0.415	-0.199
-325.129	-200.000	0.039	-0.250
-324.114	800.000	-0.033	0.110
-323.099	-123.365	-0.127	-0.020
-322.085	357.789	0.191	-0.382
-321.070	-200.000	0.014	0.282
-320.056	109.429	-0.192	-0.230
-319.041	-65.379	0.237	0.096
-318.026	-7.645	-0.207	0.141
-317.012	800.000	0.144	-0.398
-315.997	-51.933	0.118	0.055
-314.983	2.089	0.093	-0.067
-313.968	-57.767	-0.268	0.118
-312.953	356.189	0.046	0.092
-311.939	20.413	-0.114	0.093
-310.924	-193.963	0.123	-0.001
-309.910	-153.584	-0.136	-0.009
-308.895	232.677	0.111	0.182
-307.880	-200.000	0.007	0.144
-306.866	800.000	-0.035	-0.127
-305.851	-200.000	0.086	0.426
-304.837	-200.000	0.010	0.130
-303.822	457.317	-0.149	-0.332
-302.807	39.028	-0.068	0.061
-301.793	-200.000	0.014	0.370
-300.778	800.000	0.194	-0.604
-299.764	-118.964	-0.116	0.020
-298.749	100.881	-0.109	-0.127
-297.735	66.117	-0.129	0.131
-296.720	-200.000	0.019	-0.277
-295.705	-200.000	0.024	-0.139
-294.691	-25.449	-0.430	0.255
-293.676	-59.483	0.197	0.085
-292.662	7.024	0.213	0.159
-291.647	-2.826	0.271	0.190
-290.632	-0.695	-0.222	-0.158
-289.618	23.752	-0.142	0.117
-288.603	17.906	0.201	0.161
-287.589	77.897	0.080	-0.085
-286.574	-149.136	-0.037	-0.003
-285.559	168.732	-0.248	0.355
-284.545	800.000	0.075	0.256
-283.530	-72.907	-0.204	-0.075
-282.516	109.708	0.201	-0.241
-281.501	800.000	0.054	-0.193
-280.486	11.238	-0.262	-0.201
-279.472	-72.717	-0.238	0.088
-278.457	76.315	-0.113	-0.120
-277.443	800.000	-0.096	-0.322
-276.428	800.000	0.007	0.023
-275.413	89.963	0.162	0.181
-274.399	36.257	0.172	0.152
-273.384	-200.000	0.069	-0.386
-272.370	800.000	0.116	-0.472
-271.355	434.778	0.132	0.286
-270.340	-1.373	-0.330	-0.233
-269.326	5.445	-0.325	0.240
-268.311	93.522	-0.094	0.107
-267.297	39.087	-0.105	0.094
-266.282	403.796	0.114	-0.241
-265.267	-11.005	0.035	-0.023
-264.253	311.006	-0.096	-0.181
-263.238	800.000	-0.116	0.454
-262.224	-124.559	-0.079	-0.012
-261.209	-200.000	0.009	0.172
-260.195	-117.607	0.177	-0.032
-259.180	-127.430	0.196	-0.029
-258.165	2.406	0.133	-0.097
-257.151	223.525	-0.093	-0.150
-256.136	800.000	-0.016	-0.058
-255.122	-200.000	0.063	-0.324
-254.107	12.412	0.197	0.152
-253.092	527.916	0.043	-0.103
-252.078	80.717	-0.037	-0.040
-251.063	-6.850	-0.155	0.106
-250.049	-200.000	-0.020	0.284
-249.034	82.049	0.151	0.164
-248.019	-83.603	0.105	0.034
-247.005	-88.040	-0.237	-0.071
-245.990	82.174	-0.160	-0.174
-244.976	-56.973	0.402	-0.178
-243.961	-79.364	-0.190	-0.065
-242.946	-177.987	-0.247	-0.006
-241.932	699.159	0.043	-0.114
-240.917	-121.491	0.322	0.054
-239.903	-112.560	-0.376	0.075
-238.888	-200.000	0.072	-0.512
-237.873	-60.284	0.243	-0.104
-236.859	-129.858	-0.306	0.042
-235.844	87.044	0.230	0.254
-234.830	-58.288	0.233	0.101
-233.815	3.401	-0.111	0.081
-232.800	-69.104	0.032	0.013
-231.786	2.510	-0.148	-0.107
-230.771	213.987	0.057	0.091
-229.757	641.750	-0.081	-0.208
-228.742	-71.569	0.546	-0.204
-227.727	37.805	-0.303	0.269
-226.713	163.548	0.129	0.181
-225.698	30.877	0.083	0.072
-224.684	-89.000	-0.143	0.042
-223.669	800.000	0.017	-0.072
-222.655	144.584	0.069	0.092
-221.640	361.288	0.017	0.034
-220.625	-63.900	-0.360	0.147
-219.611	4.558	-0.041	0.030
-218.596	-200.000	0.019	-0.218
-217.582	-200.000	0.030	0.134
-216.567	-155.535	0.200	-0.013
-215.552	394.153	0.015	0.032
-214.538	24.725	-0.049	-0.040
-213.523	-130.805	0.201	-0.027
-212.509	448.953	0.124	-0.274
-211.494	518.618	-0.060	-0.140
-210.479	-84.535	-0.337	0.106
-209.465	-151.019	0.357	0.027
-208.450	-94.009	-0.081	0.022
-207.436	800.000	0.034	0.118
-206.421	-79.694	-0.292	-0.098
-205.406	-52.775	0.110	0.051
-204.392	-200.000	0.013	0.146
-203.377	-132.768	0.200	0.026
-202.363	111.199	0.155	0.186
-201.348	138.771	0.036	-0.047
-200.333	-200.000	0.052	-0.232
-199.319	643.566	-0.088	-0.225
-198.304	44.408	-0.094	-0.086
-197.290	353.815	-0.153	-0.304
-196.275	-87.327	0.174	0.053
-195.260	163.604	-0.019	0.027
-194.246	108.774	-0.082	0.097
-193.231	531.450	-0.097	0.228
-192.217	80.296	0.080	0.086
-191.202	800.000	-0.078	-0.244
-190.187	-92.843	-0.107	-0.030
-189.173	-162.046	0.192	-0.010
-188.158	-110.398	0.283	0.059
-187.144	53.037	-0.370	0.354
-186.129	-1.541	0.290	-0.204
-185.114	536.188	-0.028	-0.067
-184.100	14.205	0.194	-0.151
-183.085	-200.000	-0.060	-0.410
-182.071	-113.562	0.212	0.041
-181.056	-33.439	0.042	0.023
-180.042	10.321	-0.281	0.214
-179.027	-94.955	-0.054	0.015
-178.012	-44.507	-0.113	0.056
-176.998	800.000	0.045	-0.149
-175.983	584.742	-0.090	0.221
-174.969	800.000	0.073	0.269
-173.954	-116.847	-0.164	0.030
-172.939	264.980	-0.080	-0.139
-171.925	340.629	-0.058	-0.112
-170.910	408.577	-0.094	0.199
-169.896	800.000	0.097	-0.293
-168.881	4.829	0.249	0.182
-167.866	204.534	0.242	0.374
-166.852	218.912	0.026	-0.042
-165.837	-60.074	-0.207	0.088
-164.823	281.666	0.117	-0.210
-163.808	714.070	0.026	0.069
-162.793	-200.000	-0.047	0.220
-161.779	-75.876	-0.348	0.123
-160.764	199.855	0.065	0.099
-159.750	-168.576	-0.173	0.007
-158.735	-51.191	-0.218	-0.102
-157.720	23.921	0.082	0.068
-156.706	-133.462	0.151	0.019
-155.691	-196.361	0.210	-0.001
-154.677	-102.679	0.195	-0.046
-153.662	800.000	0.129	-0.473
-152.647	121.322	-0.112	-0.139
-151.633	-82.180	-0.018	-0.006
-150.618	-55.978	0.226	-0.101
-149.604	-64.174	0.136	0.055
-148.589	131.875	-0.112	-0.143
-147.574	-200.000	0.004	0.026
-146.560	-152.967	-0.108	0.008
-145.545	-131.449	-0.029	-0.004
-144.531	-71.533	-0.111	0.041
-143.516	767.418	-0.070	-0.189
-142.502	63.156	-0.111	0.110
-141.487	-58.729	0.334	-0.144
-140.472	187.745	0.168	-0.249
-139.458	-200.000	0.019	0.190
-138.443	330.286	-0.142	0.273
-137.429	-200.000	0.038	-0.245
-136.414	536.853	-0.061	0.144
-135.399	800.000	-0.073	-0.276
-134.385	-110.300	0.303	-0.063
-133.370	-33.955	0.043	-0.024
-132.356	-163.118	0.120	-0.006
-131.341	421.632	-0.161	-0.344
-130.326	161.416	-0.088	0.122
-129.312	176.054	0.112	0.162
-128.297	362.579	-0.086	0.172
-127.283	-84.927	0.167	0.052
-126.268	-117.404	-0.193	0.035
-125.253	-200.000	-0.004	0.073
-124.239	175.208	0.089	0.128
-123.224	-45.209	0.349	-0.172
-122.210	-45.236	0.192	-0.095
-121.195	-50.390	-0.301	-0.142
