DTS Sentinel unit serial number:	SN413079Multiplexer serial number:	ORYXHardware model number:	OX4-SRSoftware version number:	ORYX F/W v4.00 Oryx Data Collector v3.7.2.0data status	okinstallation	princeton_trtdifferential loss correction	single-endedforward channel	channel 1reverse channel	N/Adate	2019/09/12time	10:44:11forward acquisition time	60.00reverse acquisition time	0.00gamma	496.2192k internal	0.2296k external	0.2296temperature offset calibration	1.0044default loss term (dB/km)	0.3790temperature slope calibration	1.0000multiplexer offset coefficient	1.0000multiplexer slope coefficient	1.0000fibre end	0.00T internal ref (°C)	37.66T ext. ref 1 (°C)	1.90T ext. ref 2 (°C)	36.10length (m)	temperature (°C)	Stokes	anti-Stokes-747.200	-200.000	0.007	0.329
-746.185	-200.000	-0.045	0.352
-745.171	-200.000	0.020	-0.311
-744.156	800.000	0.072	0.208
-743.142	-200.000	-0.010	0.095
-742.127	110.190	-0.160	-0.196
-741.112	-112.111	0.112	0.023
-740.098	800.000	0.184	0.560
-739.083	-169.662	-0.168	0.006
-738.069	-19.154	0.292	0.186
-737.054	-78.020	0.169	-0.060
-736.039	-158.899	-0.240	-0.014
-735.025	241.850	0.194	0.331
-734.010	800.000	-0.025	-0.082
-732.996	800.000	-0.054	-0.197
-731.981	-80.946	-0.203	-0.069
-730.966	132.543	0.294	0.387
-729.952	50.781	0.150	0.145
-728.937	-200.000	-0.067	0.311
-727.923	-136.992	-0.156	0.018
-726.908	40.551	-0.105	0.097
-725.894	12.407	-0.091	-0.072
-724.879	1.562	0.147	0.108
-723.864	-91.743	-0.283	0.082
-722.850	-75.596	0.175	-0.064
-721.835	51.441	-0.258	0.251
-720.821	-200.000	0.004	-0.113
-719.806	-129.016	-0.178	0.025
-718.791	-164.600	-0.276	-0.013
-717.777	-38.581	-0.319	0.172
-716.762	167.112	0.075	-0.109
-715.748	26.793	0.228	0.195
-714.733	-32.565	0.101	-0.058
-713.718	166.758	-0.065	-0.094
-712.704	-52.700	0.094	0.044
-711.689	800.000	-0.050	-0.173
-710.675	321.585	-0.061	0.118
-709.660	-14.637	0.163	-0.107
-708.645	-51.862	-0.227	0.108
-707.631	-200.000	0.012	-0.167
-706.616	800.000	-0.056	0.163
-705.602	-200.000	0.004	-0.031
-704.587	339.006	0.085	-0.170
-703.572	-43.171	0.193	0.100
-702.558	440.530	-0.067	-0.150
-701.543	569.354	-0.123	-0.304
-700.529	-131.651	-0.580	0.078
-699.514	407.219	0.059	0.127
-698.499	-68.559	-0.020	-0.008
-697.485	800.000	-0.056	-0.211
-696.470	437.858	-0.054	0.119
-695.456	-22.412	0.138	-0.085
-694.441	-149.867	-0.187	0.015
-693.426	20.149	-0.226	-0.186
-692.412	14.059	0.155	0.123
-691.397	21.620	0.103	0.086
-690.383	-200.000	-0.000	-0.161
-689.368	-102.671	0.410	0.100
-688.354	393.757	0.053	0.112
-687.339	800.000	0.160	-0.508
-686.324	8.777	-0.415	0.319
-685.310	-128.168	-0.100	0.015
-684.295	-21.830	0.114	0.070
-683.281	242.860	0.148	-0.253
-682.266	494.212	0.034	0.079
-681.251	-60.356	0.288	0.125
-680.237	-63.654	-0.208	-0.087
-679.222	-28.340	-0.256	0.151
-678.208	-66.614	0.244	0.099
-677.193	-25.219	0.011	0.006
-676.178	-200.000	-0.041	-0.295
-675.164	334.177	-0.072	0.143
-674.149	9.956	-0.087	-0.068
-673.135	43.882	-0.190	0.178
-672.120	-42.949	0.267	0.138
-671.105	4.639	-0.245	-0.183
-670.091	-124.649	0.330	-0.052
-669.076	8.694	-0.098	-0.075
-668.062	800.000	-0.045	0.145
-667.047	264.224	-0.027	0.048
-666.032	-118.302	0.235	0.043
-665.018	800.000	0.048	0.175
-664.003	-200.000	-0.003	0.097
-662.989	-54.690	0.245	-0.113
-661.974	372.316	-0.112	-0.232
-660.959	227.150	-0.061	-0.100
-659.945	-32.021	0.161	-0.092
-658.930	-108.421	-0.119	0.026
-657.916	-174.127	-0.119	0.004
-656.901	-148.816	0.299	-0.025
-655.886	-103.377	-0.348	-0.084
-654.872	305.218	0.098	0.185
-653.857	163.002	0.096	-0.138
-652.843	800.000	0.073	-0.217
-651.828	-119.125	0.392	-0.070
-650.814	-137.705	0.263	0.030
-649.799	789.554	0.088	0.245
-648.784	189.009	0.216	-0.329
-647.770	156.977	-0.051	-0.072
-646.755	-67.009	-0.146	-0.058
-645.741	-200.000	-0.000	-0.419
-644.726	-200.000	-0.023	-0.108
-643.711	-85.327	-0.389	-0.123
-642.697	-47.180	-0.288	-0.143
-641.682	-99.266	-0.069	-0.018
-640.668	56.154	0.111	-0.110
-639.653	-69.348	0.426	0.166
-638.638	27.126	0.103	0.088
-637.624	164.248	-0.073	0.104
-636.609	-107.224	-0.171	-0.038
-635.595	-200.000	-0.031	0.319
-634.580	213.324	0.032	-0.052
-633.565	-111.912	0.130	0.027
-632.551	-65.418	-0.082	0.034
-631.536	548.624	0.055	-0.135
-630.522	432.411	0.171	0.377
-629.507	-78.877	0.178	-0.062
-628.492	-49.598	0.361	0.175
-627.478	-200.000	0.032	-0.318
-626.463	591.676	-0.066	-0.166
-625.449	329.203	-0.176	-0.345
-624.434	-200.000	0.001	-0.221
-623.419	608.292	0.007	0.019
-622.405	6.579	-0.178	-0.135
-621.390	-200.000	0.014	0.166
-620.376	-27.536	-0.359	-0.212
-619.361	712.863	-0.138	0.372
-618.346	-83.286	-0.388	0.127
-617.332	-200.000	-0.023	0.120
-616.317	-34.819	0.101	0.056
-615.303	206.818	-0.100	0.158
-614.288	-166.162	0.213	0.009
-613.273	-94.420	-0.186	0.051
-612.259	16.025	0.263	0.211
-611.244	118.881	0.080	-0.100
-610.230	11.868	-0.291	-0.227
-609.215	169.162	-0.042	-0.061
-608.201	-41.163	0.216	0.113
-607.186	330.498	0.110	0.215
-606.171	800.000	0.029	0.116
-605.157	-200.000	0.033	0.173
-604.142	-32.492	0.264	0.150
-603.128	-170.674	-0.367	0.013
-602.113	331.869	-0.081	0.159
-601.098	66.798	0.173	0.179
-600.084	22.644	-0.124	-0.103
-599.069	800.000	0.059	-0.249
-598.055	-200.000	-0.029	0.324
-597.040	135.606	-0.059	0.078
-596.025	256.494	-0.242	-0.422
-595.011	95.735	-0.220	-0.255
-593.996	-200.000	-0.021	-0.135
-592.982	-64.585	-0.324	0.134
-591.967	-200.000	0.036	-0.346
-590.952	800.000	0.103	-0.291
-589.938	101.505	-0.241	0.286
-588.923	-160.398	-0.187	0.010
-587.909	-22.281	0.159	-0.098
-586.894	-81.930	-0.256	0.085
-585.879	163.929	-0.209	0.299
-584.865	5.369	-0.283	0.212
-583.850	41.456	-0.143	0.132
-582.836	-200.000	0.070	-0.386
-581.821	53.431	0.023	0.023
-580.806	262.958	-0.205	-0.362
-579.792	-105.907	0.196	-0.045
-578.777	-116.497	-0.159	-0.030
-577.763	-200.000	0.019	0.155
-576.748	-122.060	0.326	-0.054
-575.733	-119.502	-0.084	-0.015
-574.719	-44.369	0.147	-0.075
-573.704	-21.370	-0.281	0.174
-572.690	152.521	0.121	-0.168
-571.675	70.563	0.148	0.156
-570.661	-3.114	0.282	0.200
-569.646	506.113	-0.095	0.222
-568.631	-102.438	-0.363	-0.088
-567.617	209.636	-0.118	0.188
-566.602	4.275	0.104	0.077
-565.588	579.020	0.067	-0.165
-564.573	498.255	-0.101	-0.235
-563.558	268.003	0.028	0.050
-562.544	-159.534	-0.021	0.001
-561.529	800.000	-0.022	0.093
-560.515	-200.000	-0.039	-0.330
-559.500	800.000	0.030	0.106
-558.485	316.349	-0.076	0.145
-557.471	258.740	0.103	0.180
-556.456	-197.092	-0.270	0.002
-555.442	-129.471	-0.172	0.024
-554.427	8.291	0.421	0.321
-553.412	-200.000	-0.012	-0.260
-552.398	39.287	-0.164	0.149
-551.383	192.601	-0.190	0.291
-550.369	-68.744	-0.067	0.026
-549.354	-74.406	0.419	-0.153
-548.339	741.214	-0.025	0.068
-547.325	-81.308	-0.319	-0.107
-546.310	328.010	-0.091	0.178
-545.296	35.548	0.109	-0.097
-544.281	57.599	0.108	-0.107
-543.266	-89.990	0.229	-0.068
-542.252	-31.469	0.294	0.168
-541.237	-200.000	-0.006	0.055
-540.223	370.968	0.028	0.058
-539.208	81.652	-0.078	-0.086
-538.193	-197.226	0.250	0.002
-537.179	32.741	0.264	-0.232
-536.164	417.105	0.074	-0.160
-535.150	-200.000	0.061	0.288
-534.135	589.503	-0.072	0.179
-533.121	420.940	0.112	0.244
-532.106	800.000	0.146	0.524
-531.091	436.555	0.062	0.138
-530.077	97.103	0.124	0.145
-529.062	172.451	0.112	-0.164
-528.048	-115.157	0.305	-0.059
-527.033	-200.000	-0.028	0.217
-526.018	-90.038	-0.142	0.042
-525.004	-135.675	0.247	-0.030
-523.989	-93.390	-0.156	0.044
-522.975	62.850	0.024	-0.025
-521.960	162.843	-0.124	-0.177
-520.945	-153.845	0.351	-0.024
-519.931	-38.058	-0.256	0.138
-518.916	61.361	-0.037	0.038
-517.902	221.777	0.158	-0.257
-516.887	184.108	-0.069	0.104
-515.872	-200.000	0.030	0.142
-514.858	71.194	-0.061	0.064
-513.843	2.670	-0.155	0.114
-512.829	-115.022	0.109	0.021
-511.814	104.425	-0.038	-0.045
-510.799	-200.000	0.005	-0.082
-509.785	-200.000	0.073	-0.384
-508.770	-106.539	0.392	-0.088
-507.756	-60.053	0.144	0.062
-506.741	211.198	-0.095	-0.151
-505.726	-11.806	0.078	0.052
-504.712	-149.178	0.359	-0.029
-503.697	15.829	-0.219	-0.175
-502.683	800.000	-0.078	-0.275
-501.668	-161.444	0.022	0.001
-500.653	466.938	-0.168	-0.381
-499.639	-30.253	0.092	0.053
-498.624	-46.124	0.162	0.081
-497.610	349.901	0.044	-0.088
-496.595	72.172	0.229	-0.241
-495.581	738.233	0.135	0.366
-494.566	-90.105	-0.191	0.056
-493.551	15.252	-0.279	0.221
-492.537	-143.033	0.297	-0.029
-491.522	-200.000	-0.010	-0.059
-490.508	25.065	-0.134	0.113
-489.493	-88.318	0.277	-0.084
-488.478	-200.000	0.017	0.259
-487.464	276.605	-0.104	-0.187
-486.449	-99.502	0.094	0.024
-485.435	-200.000	0.064	-0.298
-484.420	701.359	0.072	-0.192
-483.405	-98.542	0.293	-0.076
-482.391	-59.997	0.376	0.163
-481.376	167.097	-0.058	-0.083
-480.362	72.052	-0.118	0.124
-479.347	138.517	0.155	0.206
-478.332	4.988	-0.234	0.174
-477.318	-200.000	0.003	-0.153
-476.303	-55.581	-0.242	-0.110
-475.289	604.197	-0.086	0.216
-474.274	132.165	0.139	0.181
-473.259	-103.785	-0.288	-0.068
-472.245	-21.732	-0.201	-0.124
-471.230	4.184	0.233	0.173
-470.216	-95.606	0.082	-0.022
-469.201	-200.000	-0.018	-0.086
-468.186	10.923	0.087	0.067
-467.172	-61.069	0.178	-0.076
-466.157	-198.526	-0.125	0.001
-465.143	-200.000	-0.055	-0.298
-464.128	350.437	-0.102	-0.205
-463.113	799.421	0.145	0.405
-462.099	238.797	0.062	-0.104
-461.084	-105.146	0.088	0.020
-460.070	-158.143	0.228	-0.014
-459.055	486.119	-0.177	-0.408
-458.040	-56.405	0.089	-0.040
-457.026	55.816	0.106	-0.104
-456.011	133.938	-0.169	-0.222
-454.997	686.352	0.113	-0.298
-453.982	-166.431	0.308	0.013
-452.968	182.205	-0.127	-0.189
-451.953	333.282	-0.115	0.225
-450.938	-200.000	-0.001	-0.322
-449.924	-38.407	0.068	0.036
-448.909	-200.000	-0.016	-0.274
-447.895	-68.692	0.234	-0.091
-446.880	800.000	0.037	0.121
-445.865	-200.000	0.017	-0.116
-444.851	-25.040	-0.230	0.138
-443.836	800.000	0.081	0.244
-442.822	-149.698	-0.109	-0.009
-441.807	-107.447	0.197	0.044
-440.792	38.790	-0.170	-0.153
-439.778	-200.000	-0.046	0.239
-438.763	-25.302	0.249	0.149
-437.749	747.902	0.087	0.238
-436.734	-36.173	-0.146	-0.080
-435.719	170.673	0.030	-0.043
-434.705	-200.000	-0.005	0.099
-433.690	-51.176	0.092	0.043
-432.676	-109.450	-0.236	-0.050
-431.661	37.118	-0.110	-0.098
-430.646	22.791	0.103	-0.085
-429.632	45.138	-0.039	0.036
-428.617	800.000	-0.113	0.347
-427.603	538.181	-0.077	-0.184
-426.588	-164.742	0.154	-0.007
-425.573	95.067	0.087	0.100
-424.559	-57.924	0.234	-0.103
-423.544	-15.474	-0.322	-0.207
-422.530	-70.890	-0.059	-0.022
-421.515	800.000	-0.083	0.310
-420.500	309.659	0.089	0.167
-419.486	-200.000	0.022	-0.136
-418.471	-200.000	0.027	-0.146
-417.457	-22.313	0.287	-0.176
-416.442	-132.347	-0.104	-0.014
-415.428	-200.000	-0.015	-0.448
-414.413	-173.116	0.336	-0.010
-413.398	-63.068	-0.283	-0.118
-412.384	-100.274	-0.080	-0.020
-411.369	0.656	-0.158	0.114
-410.355	-3.169	0.248	0.175
-409.340	-62.238	-0.167	-0.070
-408.325	-66.149	0.420	0.169
-407.311	-9.949	-0.124	0.084
-406.296	-70.289	-0.217	0.083
-405.282	656.477	0.075	-0.195
-404.267	477.635	-0.041	0.093
-403.252	-19.299	-0.254	-0.159
-402.238	-200.000	-0.030	-0.397
-401.223	-101.043	-0.178	-0.044
-400.209	276.309	-0.059	0.105
-399.194	800.000	-0.039	-0.167
-398.179	-77.216	-0.216	0.076
-397.165	233.841	-0.133	0.221
-396.150	800.000	0.116	-0.350
-395.136	800.000	-0.057	-0.207
-394.121	800.000	-0.101	0.292
-393.106	390.647	-0.102	-0.214
-392.092	-102.571	0.142	0.034
-391.077	30.807	-0.044	0.038
-390.063	-77.326	0.255	-0.089
-389.048	92.028	-0.142	-0.161
-388.033	-200.000	0.005	-0.109
-387.019	20.369	-0.184	0.150
-386.004	121.085	0.085	0.106
-384.990	-115.771	-0.071	-0.013
-383.975	-84.296	-0.159	-0.051
-382.960	-200.000	-0.030	-0.230
-381.946	-71.753	-0.276	-0.104
-380.931	270.952	-0.211	0.374
-379.917	-42.112	0.153	-0.079
-378.902	-134.286	0.187	0.023
-377.888	498.194	0.028	-0.066
-376.873	262.808	-0.054	-0.094
-375.858	-42.245	0.049	-0.025
-374.844	-200.000	0.023	0.133
-373.829	-13.352	0.142	-0.093
-372.815	143.568	0.130	0.174
-371.800	4.222	-0.071	0.052
-370.785	299.186	-0.108	0.201
-369.771	493.931	0.074	0.171
-368.756	-18.950	0.281	0.176
-367.742	670.562	0.110	-0.287
-366.727	-200.000	0.058	-0.338
-365.712	800.000	0.069	0.194
-364.698	434.875	-0.118	0.259
-363.683	232.742	0.106	0.175
-362.669	-129.019	0.203	0.029
-361.654	-108.504	0.147	-0.032
-360.639	-106.144	-0.137	-0.031
-359.625	36.903	0.195	-0.174
-358.610	-28.624	-0.132	0.076
-357.596	-200.000	-0.035	-0.204
-356.581	-126.662	0.080	-0.012
-355.566	-157.588	-0.183	-0.011
-354.552	753.845	-0.081	-0.221
-353.537	-55.838	-0.141	-0.064
-352.523	116.894	0.177	0.219
-351.508	230.793	-0.259	0.427
-350.493	286.530	0.096	0.174
-349.479	-200.000	-0.003	0.056
-348.464	29.041	-0.232	0.198
-347.450	-105.655	-0.290	-0.066
-346.435	-24.688	-0.223	-0.133
-345.420	202.104	0.062	-0.097
-344.406	-122.550	-0.488	-0.080
-343.391	800.000	0.056	0.181
-342.377	-200.000	-0.052	-0.396
-341.362	-136.744	0.347	0.040
-340.348	-127.869	-0.222	0.032
-339.333	609.526	-0.038	-0.095
-338.318	-41.356	-0.117	0.061
-337.304	753.529	0.094	-0.256
-336.289	-200.000	-0.013	0.243
-335.275	-72.152	0.289	0.108
-334.260	-123.268	0.101	0.016
-333.245	-40.636	-0.127	-0.066
-332.231	49.688	0.077	0.073
-331.216	-200.000	-0.011	0.139
-330.202	17.747	0.298	0.238
-329.187	189.554	0.123	-0.185
-328.172	-200.000	0.008	0.047
-327.158	63.370	0.099	-0.100
-326.143	-200.000	-0.001	-0.189
-325.129	-39.152	-0.108	0.057
-324.114	-198.096	0.146	0.001
-323.099	382.938	0.109	0.226
-322.085	-200.000	-0.001	0.186
-321.070	-200.000	0.003	0.204
-320.056	28.757	0.468	0.398
-319.041	644.200	-0.132	0.337
-318.026	630.628	-0.115	-0.292
-317.012	147.806	-0.241	-0.327
-315.997	800.000	0.011	-0.045
-314.983	-52.594	0.088	-0.041
-313.968	-200.000	-0.010	-0.067
-312.953	-180.180	0.272	0.006
-311.939	165.663	0.154	-0.218
-310.924	-30.176	0.112	0.064
-309.910	-200.000	-0.016	-0.197
-308.895	-53.625	0.179	-0.082
-307.880	144.145	0.215	0.288
-306.866	-59.179	-0.253	0.110
-305.851	259.688	0.056	0.097
-304.837	800.000	0.030	0.110
-303.822	86.844	0.081	0.090
-302.807	262.566	-0.162	0.283
-301.793	-77.904	-0.218	-0.076
-300.778	-77.500	0.305	-0.106
-299.764	-200.000	-0.036	0.199
-298.749	337.078	-0.024	-0.046
-297.735	-160.578	0.232	0.012
-296.720	-110.522	0.384	-0.080
-295.705	279.832	-0.045	-0.081
-294.691	-65.101	-0.141	0.057
-293.676	-5.468	0.341	0.235
-292.662	30.155	-0.093	0.080
-291.647	250.419	0.190	-0.323
-290.632	-24.229	-0.424	-0.254
-289.618	-72.756	0.286	-0.106
-288.603	54.352	-0.114	0.110
-287.589	-159.905	-0.299	0.016
-286.574	-124.811	0.103	0.016
-285.559	-94.582	-0.116	0.032
-284.545	-200.000	-0.012	-0.129
-283.530	107.867	-0.108	-0.130
-282.516	-200.000	-0.053	0.436
-281.501	3.294	-0.080	0.058
-280.486	800.000	-0.101	-0.293
-279.472	-143.491	-0.151	-0.014
-278.457	800.000	-0.066	0.184
-277.443	-84.387	-0.057	0.018
-276.428	-200.000	-0.013	-0.139
-275.413	58.999	0.009	-0.008
-274.399	481.884	0.160	0.364
-273.384	-200.000	0.007	-0.128
-272.370	148.263	0.072	0.097
-271.355	-119.476	-0.070	0.012
-270.340	-142.676	0.294	-0.029
-269.326	57.929	-0.147	-0.144
-268.311	-200.000	-0.000	0.509
-267.297	212.733	0.080	0.127
-266.282	17.364	0.081	-0.064
-265.267	-97.611	-0.405	0.105
-264.253	-134.905	0.415	-0.050
-263.238	28.574	-0.164	0.139
-262.224	-39.395	-0.087	0.046
-261.209	94.429	-0.027	0.031
-260.195	-200.000	0.008	-0.342
-259.180	186.479	0.093	0.139
-258.165	-47.916	0.216	0.105
-257.151	720.765	0.024	-0.065
-256.136	277.083	-0.152	0.270
-255.122	-193.448	-0.157	-0.001
-254.107	630.295	-0.052	0.133
-253.092	259.969	-0.175	-0.303
-252.078	-146.296	-0.275	-0.024
-251.063	70.583	-0.079	0.082
-250.049	-97.936	-0.305	-0.079
-249.034	22.922	0.176	-0.144
-248.019	8.433	-0.297	-0.224
-247.005	-139.043	-0.160	0.017
-245.990	168.999	0.065	-0.093
-244.976	135.005	-0.053	-0.069
-243.961	169.799	-0.133	-0.190
-242.946	-129.694	0.304	-0.042
-241.932	523.496	-0.031	0.073
-240.917	-200.000	0.031	-0.145
-239.903	-0.993	0.129	0.091
-238.888	90.858	0.061	0.069
-237.873	-9.380	-0.261	-0.175
-236.859	-8.024	0.311	0.210
-235.844	-134.290	-0.336	-0.041
-234.830	800.000	-0.097	-0.334
-233.815	-167.382	-0.140	0.006
-232.800	696.257	0.083	0.218
-231.786	-83.852	0.212	0.068
-230.771	-200.000	-0.025	0.156
-229.757	800.000	0.061	0.205
-228.742	-78.024	-0.187	0.065
-227.727	-200.000	0.038	0.303
-226.713	34.652	-0.135	-0.119
-225.698	11.358	-0.469	0.360
-224.684	90.451	-0.202	0.227
-223.669	-55.934	0.272	-0.122
-222.655	-170.201	0.247	0.009
-221.640	-148.789	-0.163	-0.013
-220.625	-132.020	-0.208	-0.027
-219.611	221.840	-0.037	-0.060
-218.596	-110.564	-0.251	0.052
-217.582	-200.000	0.020	0.146
-216.567	-200.000	0.012	-0.189
-215.552	800.000	0.064	-0.196
-214.538	-5.662	0.126	-0.087
-213.523	91.616	0.177	0.199
-212.509	-200.000	0.014	0.217
-211.494	-130.350	0.164	0.022
-210.479	-200.000	-0.026	-0.142
-209.465	-200.000	0.003	-0.173
-208.450	327.781	0.149	0.286
-207.436	115.077	-0.147	-0.180
-206.421	-200.000	0.038	-0.241
-205.406	47.072	-0.192	0.179
-204.392	269.820	-0.088	0.154
-203.377	648.490	-0.040	0.102
-202.363	729.614	0.048	0.128
-201.348	-163.875	-0.196	0.009
-200.333	-31.070	0.232	-0.131
-199.319	-70.244	0.013	-0.005
-198.304	74.047	0.290	-0.304
-197.290	800.000	-0.041	0.114
-196.275	165.822	0.166	-0.235
-195.260	-153.984	-0.249	-0.017
-194.246	304.349	0.070	-0.129
-193.231	-95.957	0.360	0.096
-192.217	-73.576	-0.076	0.028
-191.202	800.000	-0.083	0.284
-190.187	38.228	-0.226	-0.201
-189.173	-58.306	0.115	-0.050
-188.158	-200.000	0.064	0.357
-187.144	-200.000	-0.029	0.233
-186.129	-29.717	-0.013	0.008
-185.114	-200.000	-0.075	-0.416
-184.100	-200.000	0.001	-0.208
-183.085	516.559	-0.048	-0.111
-182.071	121.143	0.123	0.152
-181.056	51.685	0.171	0.163
-180.042	102.245	0.124	0.144
-179.027	-28.362	-0.241	0.139
-178.012	-73.061	-0.162	0.059
-176.998	643.203	0.079	-0.201
-175.983	-40.609	0.247	-0.128
-174.969	20.810	-0.105	-0.085
-173.954	167.823	0.129	-0.183
-172.939	110.647	0.332	-0.399
-171.925	207.996	0.123	0.193
-170.910	-29.273	0.128	0.073
-169.896	800.000	-0.075	0.256
-168.881	408.867	-0.025	0.052
-167.866	-73.671	-0.045	-0.016
-166.852	800.000	0.058	-0.201
-165.837	103.027	0.055	-0.064
-164.823	-200.000	-0.037	0.320
-163.808	-37.086	-0.026	-0.014
-162.793	-77.315	-0.421	0.146
-161.779	356.663	0.049	0.097
-160.764	417.530	0.121	-0.258
-159.750	-62.920	-0.140	0.058
-158.735	-200.000	0.060	0.281
-157.720	-14.847	0.327	-0.210
-156.706	-200.000	0.024	-0.352
-155.691	-95.108	-0.483	-0.130
-154.677	131.754	0.097	-0.124
-153.662	197.293	-0.072	-0.110
-152.647	800.000	0.090	-0.348
-151.633	-158.406	-0.274	0.016
-150.618	149.659	0.194	0.263
-149.604	-129.073	0.126	-0.018
-148.589	800.000	-0.066	0.209
-147.574	-11.943	-0.165	-0.108
-146.560	-200.000	-0.017	0.122
-145.545	422.791	-0.081	0.174
-144.531	-62.387	-0.127	0.053
-143.516	-86.263	-0.326	0.100
-142.502	-200.000	0.053	0.373
-141.487	-200.000	-0.039	-0.248
-140.472	-105.872	-0.125	-0.028
-139.458	201.063	-0.206	0.316
-138.443	800.000	0.043	0.174
-137.429	-30.736	0.431	0.243
-136.414	-98.651	0.269	-0.069
-135.399	800.000	-0.090	0.321
-134.385	-39.398	0.260	-0.136
-133.370	177.319	0.123	-0.178
-132.356	485.471	-0.174	-0.394
-131.341	107.273	-0.083	0.098
-130.326	322.619	0.085	-0.162
-129.312	83.748	0.269	-0.293
-128.297	62.531	0.255	-0.254
-127.283	8.760	-0.297	0.223
-126.268	-200.000	0.012	-0.218
-125.253	-200.000	0.021	-0.320
-124.239	75.725	0.259	0.273
-123.224	-175.481	-0.119	0.003
-122.210	113.140	0.089	0.108
-121.195	14.159	-0.168	0.130
