DTS Sentinel unit serial number:	SN413079Multiplexer serial number:	ORYXHardware model number:	OX4-SRSoftware version number:	ORYX F/W v4.00 Oryx Data Collector v3.7.2.0data status	okinstallation	princeton_trtdifferential loss correction	single-endedforward channel	channel 1reverse channel	N/Adate	2019/09/17time	05:34:35forward acquisition time	60.00reverse acquisition time	0.00gamma	496.2192k internal	0.2325k external	0.2325temperature offset calibration	0.9966default loss term (dB/km)	0.3790temperature slope calibration	1.0000multiplexer offset coefficient	1.0000multiplexer slope coefficient	1.0000fibre end	0.00T internal ref (°C)	29.19T ext. ref 1 (°C)	0.14T ext. ref 2 (°C)	23.12length (m)	temperature (°C)	Stokes	anti-Stokes-747.200	371.514	0.065	0.132
-746.185	800.000	0.039	-0.156
-745.171	-107.016	0.111	-0.025
-744.156	-200.000	0.003	-0.152
-743.142	800.000	-0.050	-0.151
-742.127	-200.000	0.008	0.175
-741.112	-61.532	0.172	0.073
-740.098	-200.000	0.029	0.170
-739.083	-136.913	-0.231	0.027
-738.069	-200.000	0.050	0.285
-737.054	800.000	-0.050	0.180
-736.039	48.913	-0.182	0.173
-735.025	44.620	-0.224	-0.208
-734.010	-14.413	-0.334	-0.217
-732.996	800.000	0.027	0.076
-731.981	27.283	0.261	-0.221
-730.966	7.496	-0.164	0.124
-729.952	-200.000	-0.021	0.353
-728.937	77.391	-0.196	-0.210
-727.923	-200.000	0.024	0.370
-726.908	176.802	-0.165	-0.241
-725.894	-167.575	-0.562	0.023
-724.879	86.462	0.091	0.101
-723.864	-8.867	-0.284	-0.192
-722.850	-6.639	0.068	0.047
-721.835	-42.664	-0.221	-0.114
-720.821	126.499	0.194	-0.248
-719.806	-200.000	-0.037	0.182
-718.791	800.000	-0.110	-0.329
-717.777	-200.000	-0.036	0.172
-716.762	-80.049	0.174	0.059
-715.748	12.665	0.145	-0.112
-714.733	-97.212	0.037	0.010
-713.718	-200.000	0.044	-0.419
-712.704	379.182	0.153	0.315
-711.689	800.000	-0.080	0.346
-710.675	98.609	0.225	-0.261
-709.660	53.962	0.121	0.117
-708.645	-133.649	-0.184	0.023
-707.631	-200.000	-0.028	-0.292
-706.616	-200.000	-0.011	0.057
-705.602	488.862	-0.082	-0.188
-704.587	-57.693	-0.149	-0.066
-703.572	-200.000	0.026	0.170
-702.558	-66.659	0.047	0.019
-701.543	-200.000	0.050	0.274
-700.529	-200.000	0.019	0.366
-699.514	155.249	-0.070	-0.097
-698.499	-200.000	-0.091	0.402
-697.485	-142.887	0.259	-0.025
-696.470	-147.767	-0.147	-0.012
-695.456	10.253	0.297	-0.228
-694.441	407.460	0.095	-0.202
-693.426	-78.634	0.253	-0.087
-692.412	270.859	-0.129	-0.229
-691.397	195.919	-0.112	-0.172
-690.383	-26.830	-0.214	-0.126
-689.368	-2.509	0.230	-0.162
-688.354	672.618	0.032	-0.083
-687.339	-200.000	-0.027	-0.132
-686.324	74.998	0.186	-0.197
-685.310	79.662	0.011	-0.012
-684.295	-72.521	-0.093	0.034
-683.281	-29.394	0.064	0.037
-682.266	-103.349	-0.500	0.119
-681.251	-103.920	-0.236	0.056
-680.237	-92.888	0.168	0.047
-679.222	-28.229	0.187	-0.109
-678.208	-200.000	0.041	-0.336
-677.193	-200.000	0.016	0.134
-676.178	-168.179	-0.128	-0.005
-675.164	119.378	0.280	-0.349
-674.149	80.382	-0.191	-0.207
-673.135	84.084	0.090	0.099
-672.120	-200.000	0.012	-0.071
-671.105	115.351	-0.061	0.075
-670.091	800.000	0.058	0.244
-669.076	-200.000	-0.048	-0.210
-668.062	-200.000	-0.113	0.000
-667.047	215.296	-0.056	-0.089
-666.032	662.757	-0.100	-0.259
-665.018	800.000	0.044	-0.136
-664.003	-90.374	-0.413	0.120
-662.989	-94.861	-0.233	0.063
-661.974	-143.785	0.117	0.011
-660.959	-72.331	0.225	-0.084
-659.945	-98.069	0.113	-0.029
-658.930	-34.913	0.059	-0.032
-657.916	-200.000	0.028	-0.256
-656.901	-157.137	-0.092	-0.006
-655.886	-65.362	-0.159	0.064
-654.872	800.000	-0.034	-0.094
-653.857	-77.829	-0.301	0.105
-652.843	182.806	-0.165	-0.244
-651.828	800.000	0.076	-0.332
-650.814	-79.922	0.110	0.037
-649.799	522.553	-0.075	-0.177
-648.784	-200.000	0.051	-0.303
-647.770	-31.859	-0.366	-0.206
-646.755	-200.000	-0.048	-0.256
-645.741	12.813	-0.223	-0.173
-644.726	-64.832	0.368	0.150
-643.711	-112.982	0.137	0.027
-642.697	-181.131	-0.132	-0.003
-641.682	797.686	-0.097	-0.270
-640.668	222.896	-0.206	-0.333
-639.653	-131.735	0.307	-0.040
-638.638	-200.000	0.063	0.370
-637.624	29.393	-0.234	-0.199
-636.609	23.270	-0.135	0.112
-635.595	416.220	0.130	0.279
-634.580	-93.195	0.362	-0.101
-633.565	-200.000	-0.018	0.131
-632.551	449.829	-0.209	0.463
-631.536	-62.964	0.126	0.052
-630.522	-12.033	-0.269	0.177
-629.507	-200.000	-0.003	-0.099
-628.492	800.000	-0.118	-0.355
-627.478	-20.687	0.175	-0.108
-626.463	-79.015	0.195	-0.067
-625.449	406.009	0.099	0.210
-624.434	-92.546	-0.128	0.036
-623.419	48.240	0.033	0.031
-622.405	-9.475	0.116	0.078
-621.390	-97.212	0.257	-0.067
-620.376	639.438	-0.027	0.068
-619.361	38.278	-0.350	0.313
-618.346	-200.000	-0.062	0.420
-617.332	223.431	-0.233	0.377
-616.317	-200.000	-0.016	0.188
-615.303	-89.846	-0.230	-0.068
-614.288	269.535	-0.156	0.275
-613.273	-88.475	0.131	-0.039
-612.259	-85.739	-0.122	0.038
-611.244	-200.000	-0.084	-0.546
-610.230	-18.025	0.181	-0.114
-609.215	3.297	0.277	-0.203
-608.201	3.197	-0.043	-0.032
-607.186	-200.000	0.058	-0.549
-606.171	-33.986	-0.162	0.089
-605.157	49.811	0.252	0.239
-604.142	-37.108	-0.308	0.166
-603.128	-91.037	-0.137	0.040
-602.113	-27.311	0.235	0.137
-601.098	-97.827	0.230	0.060
-600.084	-50.284	-0.215	-0.102
-599.069	-141.628	0.370	0.037
-598.055	-101.576	-0.062	-0.015
-597.040	-89.977	0.114	-0.033
-596.025	243.725	0.070	0.118
-595.011	-163.992	-0.247	-0.012
-593.996	-200.000	-0.026	-0.308
-592.982	-168.763	-0.408	0.015
-591.967	800.000	-0.041	0.173
-590.952	26.005	-0.197	-0.165
-589.938	585.467	-0.147	0.363
-588.923	166.848	0.098	-0.139
-587.909	-200.000	-0.067	-0.435
-586.894	-200.000	-0.047	0.302
-585.879	100.662	0.086	-0.101
-584.865	-176.930	0.148	0.004
-583.850	800.000	-0.028	0.099
-582.836	169.070	-0.137	0.196
-581.821	800.000	0.042	0.117
-580.806	396.507	-0.092	0.193
-579.792	800.000	-0.096	-0.389
-578.777	-49.747	-0.333	-0.158
-577.763	149.905	0.162	-0.220
-576.748	-108.894	-0.211	-0.045
-575.733	-57.666	0.206	-0.091
-574.719	25.170	-0.114	-0.095
-573.704	-48.050	-0.321	-0.156
-572.690	800.000	-0.047	-0.153
-571.675	-12.747	0.348	-0.227
-570.661	147.284	-0.183	-0.247
-569.646	92.567	-0.108	0.122
-568.631	277.840	-0.089	0.158
-567.617	46.609	0.035	0.033
-566.602	-48.141	0.070	-0.034
-565.588	-54.032	-0.463	0.211
-564.573	72.142	-0.126	0.132
-563.558	-33.991	-0.023	-0.013
-562.544	-2.037	0.110	-0.077
-561.529	-200.000	-0.290	-0.001
-560.515	800.000	0.035	0.118
-559.500	-200.000	-0.058	0.325
-558.485	72.791	-0.248	0.260
-557.471	9.730	-0.122	0.093
-556.456	-8.744	-0.120	0.080
-555.442	-54.151	0.346	-0.158
-554.427	-197.749	-0.176	0.001
-553.412	190.888	0.086	0.130
-552.398	-200.000	-0.002	-0.314
-551.383	-67.163	0.263	0.104
-550.369	72.996	-0.107	-0.112
-549.354	-126.477	-0.286	-0.043
-548.339	-200.000	-0.010	0.181
-547.325	106.048	-0.130	0.154
-546.310	229.610	0.036	-0.059
-545.296	107.521	0.148	-0.176
-544.281	333.113	0.215	-0.415
-543.266	74.420	-0.144	0.152
-542.252	-200.000	0.005	0.168
-541.237	220.816	0.211	-0.340
-540.223	800.000	0.071	0.291
-539.208	368.012	-0.077	-0.157
-538.193	-64.867	0.070	0.029
-537.179	135.345	0.025	0.032
-536.164	800.000	0.079	-0.295
-535.150	110.928	0.138	-0.166
-534.135	-25.756	-0.422	-0.249
-533.121	-40.316	0.364	0.190
-532.106	315.893	-0.110	0.208
-531.091	145.388	0.266	-0.356
-530.077	-170.290	-0.317	0.011
-529.062	-114.218	-0.271	0.052
-528.048	-168.558	0.090	0.003
-527.033	30.291	0.158	-0.135
-526.018	-143.087	-0.341	0.033
-525.004	-60.644	0.241	0.102
-523.989	-200.000	0.039	-0.225
-522.975	-139.983	0.258	0.027
-521.960	-200.000	0.051	0.315
-520.945	-142.468	0.325	0.032
-519.931	669.201	-0.048	-0.125
-518.916	800.000	-0.061	-0.206
-517.902	166.023	0.081	-0.114
-516.887	630.489	0.068	0.172
-515.872	224.548	-0.222	-0.359
-514.858	143.951	-0.188	0.250
-513.843	253.277	0.061	0.105
-512.829	-200.000	0.043	-0.280
-511.814	52.689	0.205	0.196
-510.799	-15.424	0.223	-0.143
-509.785	102.826	0.140	0.164
-508.770	-200.000	-0.009	0.111
-507.756	-57.480	-0.079	0.035
-506.741	112.897	0.073	0.088
-505.726	365.315	-0.097	-0.195
-504.712	-200.000	0.063	0.278
-503.697	-200.000	0.011	-0.241
-502.683	-114.297	-0.180	0.035
-501.668	538.475	-0.089	-0.211
-500.653	-64.133	0.295	-0.120
-499.639	255.868	-0.022	0.037
-498.624	631.796	0.065	0.165
-497.610	-200.000	0.073	0.322
-496.595	800.000	-0.065	0.180
-495.581	98.743	-0.124	0.143
-494.566	-10.224	0.113	0.075
-493.551	-94.342	-0.350	-0.096
-492.537	151.853	0.276	-0.376
-491.522	28.863	0.154	-0.130
-490.508	-193.302	0.241	0.002
-489.493	-32.580	0.289	-0.161
-488.478	26.257	-0.204	-0.170
-487.464	-15.171	0.164	-0.105
-486.449	-113.575	0.288	0.056
-485.435	-14.705	0.198	0.127
-484.420	800.000	0.095	-0.354
-483.405	325.340	0.136	-0.261
-482.391	403.461	0.096	0.201
-481.376	712.380	-0.103	0.272
-480.362	158.985	0.121	0.168
-479.347	240.103	-0.243	-0.405
-478.332	-97.165	0.266	-0.069
-477.318	293.612	0.144	0.262
-476.303	-109.731	-0.433	0.091
-475.289	252.782	-0.110	-0.187
-474.274	-98.704	-0.046	0.012
-473.259	-118.990	0.277	0.049
-472.245	57.620	-0.090	-0.088
-471.230	-10.001	0.286	0.190
-470.216	800.000	0.043	0.123
-469.201	-41.629	-0.144	-0.074
-468.186	49.957	0.270	-0.254
-467.172	-200.000	-0.024	-0.320
-466.157	-200.000	0.010	0.093
-465.143	39.736	-0.214	-0.192
-464.128	-200.000	-0.008	0.102
-463.113	-200.000	-0.008	-0.462
-462.099	101.689	0.036	0.042
-461.084	446.090	0.037	0.081
-460.070	63.780	0.197	0.197
-459.055	146.032	0.085	0.114
-458.040	-9.856	-0.204	-0.135
-457.026	-97.964	0.227	0.059
-456.011	-200.000	0.058	-0.259
-454.997	-50.249	-0.341	0.161
-453.982	-200.000	0.005	0.103
-452.968	-56.376	0.292	-0.130
-451.953	-200.000	0.038	0.213
-450.938	-110.194	-0.486	0.101
-449.924	435.353	-0.196	-0.425
-448.909	-89.493	0.241	-0.071
-447.895	-200.000	0.021	0.205
-446.880	-200.000	-0.008	0.060
-445.865	-55.783	-0.179	-0.080
-444.851	140.390	0.106	-0.140
-443.836	800.000	0.035	-0.134
-442.822	198.272	-0.153	0.234
-441.807	-55.314	0.198	0.089
-440.792	-200.000	0.018	0.270
-439.778	-19.991	0.186	-0.115
-438.763	41.408	-0.274	-0.247
-437.749	39.729	0.196	-0.175
-436.734	-200.000	-0.008	0.066
-435.719	-138.774	0.239	0.026
-434.705	-68.525	0.173	-0.067
-433.690	-200.000	0.052	0.239
-432.676	-77.105	-0.187	-0.065
-431.661	-200.000	-0.005	0.191
-430.646	-148.959	0.188	-0.015
-429.632	-115.253	0.281	0.053
-428.617	-121.840	-0.141	-0.023
-427.603	298.813	0.069	-0.126
-426.588	159.056	-0.227	-0.314
-425.573	-113.591	-0.094	-0.018
-424.559	-85.027	-0.141	0.044
-423.544	192.997	-0.054	-0.081
-422.530	-200.000	-0.001	-0.053
-421.515	-66.086	-0.131	-0.052
-420.500	-22.775	0.333	0.201
-419.486	800.000	-0.061	0.231
-418.471	800.000	0.112	0.355
-417.457	3.707	0.140	0.102
-416.442	547.861	-0.163	0.390
-415.428	-200.000	0.033	-0.330
-414.413	6.903	0.156	0.116
-413.398	184.514	-0.163	-0.241
-412.384	-200.000	0.054	0.280
-411.369	-121.603	0.314	-0.052
-410.355	-200.000	-0.031	0.141
-409.340	-61.771	0.075	0.031
-408.325	33.972	0.070	0.061
-407.311	758.251	0.079	-0.213
-406.296	125.032	0.116	0.146
-405.282	696.274	-0.079	0.208
-404.267	54.584	0.126	-0.121
-403.252	192.202	0.020	-0.031
-402.238	-65.327	0.109	-0.044
-401.223	529.284	-0.177	-0.417
-400.209	-200.000	0.000	-0.196
-399.194	800.000	-0.053	-0.207
-398.179	238.369	0.055	0.091
-397.165	-200.000	-0.007	0.132
-396.150	-130.464	0.221	-0.030
-395.136	188.489	-0.184	0.274
-394.121	-194.380	-0.375	0.003
-393.106	800.000	-0.057	-0.230
-392.092	177.049	-0.096	-0.139
-391.077	10.880	0.206	-0.157
-390.063	-95.994	0.255	-0.067
-389.048	-87.848	-0.220	-0.066
-388.033	37.091	-0.186	0.164
-387.019	800.000	-0.053	-0.194
-386.004	800.000	0.050	-0.174
-384.990	-1.012	-0.296	-0.208
-383.975	379.463	-0.006	0.012
-382.960	-140.780	-0.052	-0.005
-381.946	-94.299	0.290	-0.079
-380.931	800.000	-0.054	0.154
-379.917	358.021	-0.085	-0.168
-378.902	607.560	0.063	0.157
-377.888	-13.259	0.040	0.026
-376.873	800.000	-0.032	0.095
-375.858	-100.873	-0.319	0.078
-374.844	270.139	-0.141	0.246
-373.829	-90.391	0.085	-0.025
-372.815	121.143	0.237	0.294
-371.800	-67.851	0.383	0.149
-370.785	-135.231	0.176	0.021
-369.771	600.413	-0.114	0.282
-368.756	-200.000	-0.004	0.149
-367.742	-51.129	0.086	0.040
-366.727	27.367	-0.130	-0.108
-365.712	-1.375	-0.220	-0.155
-364.698	20.088	0.382	0.307
-363.683	699.296	-0.051	0.132
-362.669	800.000	0.026	-0.092
-361.654	132.397	0.076	0.098
-360.639	-200.000	-0.010	0.148
-359.625	227.611	0.188	0.304
-358.610	-125.642	0.208	-0.031
-357.596	55.051	-0.203	0.195
-356.581	53.669	-0.141	-0.135
-355.566	98.999	0.234	0.269
-354.552	-60.408	0.156	0.066
-353.537	8.265	0.103	0.077
-352.523	121.560	0.146	0.181
-351.508	-143.252	-0.260	0.025
-350.493	722.788	-0.085	0.226
-349.479	111.000	0.227	0.272
-348.464	800.000	-0.057	0.246
-347.450	-154.715	0.228	0.015
-346.435	-88.510	0.129	-0.038
-345.420	-85.775	0.279	0.086
-344.406	-13.664	0.318	-0.204
-343.391	40.141	-0.100	0.090
-342.377	-69.679	0.159	0.061
-341.362	532.459	-0.083	-0.195
-340.348	-200.000	-0.037	-0.388
-339.333	-129.735	0.098	-0.013
-338.318	-200.000	0.003	-0.150
-337.304	448.571	0.007	0.015
-336.289	-53.740	-0.288	-0.131
-335.275	-6.026	-0.062	-0.042
-334.260	800.000	-0.069	0.209
-333.245	77.243	-0.235	-0.248
-332.231	-196.930	-0.258	0.002
-331.216	444.922	-0.133	0.290
-330.202	11.758	-0.104	0.080
-329.187	-43.265	-0.301	0.151
-328.172	-156.063	-0.225	0.014
-327.158	572.164	-0.183	0.443
-326.143	404.624	0.126	0.263
-325.129	76.745	0.143	0.151
-324.114	-129.495	0.029	-0.004
-323.099	-200.000	0.030	0.149
-322.085	-13.826	-0.143	0.092
-321.070	-200.000	-0.045	-0.223
-320.056	-200.000	-0.017	-0.107
-319.041	-200.000	0.016	-0.237
-318.026	-63.424	-0.129	0.053
-317.012	800.000	-0.062	-0.182
-315.997	-200.000	-0.026	0.229
-314.983	-96.312	-0.273	0.072
-313.968	455.224	-0.111	0.244
-312.953	-200.000	-0.004	-0.148
-311.939	118.842	-0.161	0.197
-310.924	-200.000	-0.029	-0.255
-309.910	153.463	-0.184	-0.250
-308.895	111.073	-0.310	0.370
-307.880	-108.996	0.248	-0.052
-306.866	24.487	0.279	-0.229
-305.851	800.000	-0.030	0.101
-304.837	74.942	-0.019	0.020
-303.822	-117.722	0.100	0.018
-302.807	136.127	0.162	-0.209
-301.793	62.112	0.282	0.279
-300.778	-200.000	-0.007	0.271
-299.764	-71.460	0.082	0.031
-298.749	-61.480	0.293	-0.122
-297.735	130.038	0.052	-0.066
-296.720	-0.705	-0.046	0.032
-295.705	136.905	0.136	0.176
-294.691	-200.000	-0.018	-0.117
-293.676	-118.386	-0.165	-0.029
-292.662	246.881	0.179	0.300
-291.647	32.412	0.067	-0.057
-290.632	37.596	0.153	-0.135
-289.618	-117.147	-0.279	-0.050
-288.603	-10.177	0.252	-0.166
-287.589	-90.282	0.103	-0.030
-286.574	-39.271	0.290	-0.151
-285.559	-59.448	0.185	-0.079
-284.545	-89.659	0.277	-0.081
-283.530	800.000	0.114	-0.390
-282.516	6.232	0.155	0.114
-281.501	55.903	0.055	0.053
-280.486	-94.218	0.111	-0.030
-279.472	-86.852	-0.182	-0.055
-278.457	-125.590	0.385	-0.058
-277.443	70.135	0.277	-0.284
-276.428	-68.263	-0.094	0.036
-275.413	-19.113	0.256	-0.158
-274.399	-63.893	-0.394	0.160
-273.384	-200.000	-0.009	0.156
-272.370	-49.933	-0.495	0.233
-271.355	51.520	0.159	-0.150
-270.340	-172.913	-0.255	-0.008
-269.326	-200.000	0.022	0.122
-268.311	-141.835	-0.111	0.011
-267.297	-132.499	0.055	0.007
-266.282	229.789	-0.106	-0.172
-265.267	217.784	-0.254	-0.402
-264.253	86.921	0.106	-0.116
-263.238	751.023	0.047	-0.125
-262.224	-123.114	-0.307	-0.049
-261.209	-183.350	-0.384	-0.007
-260.195	15.407	-0.233	-0.181
-259.180	28.898	-0.157	0.132
-258.165	-39.262	0.275	0.143
-257.151	-115.879	0.229	-0.042
-256.136	169.164	0.140	0.198
-255.122	43.841	0.157	0.142
-254.107	76.285	-0.189	0.198
-253.092	800.000	0.082	0.231
-252.078	-66.409	0.245	0.096
-251.063	800.000	0.105	0.305
-250.049	352.836	-0.115	0.226
-249.034	-27.272	-0.103	0.059
-248.019	294.732	-0.066	-0.120
-247.005	-200.000	-0.030	0.136
-245.990	-63.908	0.111	0.045
-244.976	468.278	0.120	0.266
-243.961	-75.253	0.122	0.043
-242.946	470.402	0.007	-0.015
-241.932	800.000	0.031	0.121
-240.917	24.850	-0.070	-0.057
-239.903	-200.000	-0.005	-0.374
-238.888	-39.101	-0.220	-0.114
-237.873	-101.488	0.313	0.075
-236.859	-125.929	0.083	0.012
-235.844	338.069	-0.063	-0.122
-234.830	277.761	-0.132	-0.233
-233.815	31.069	0.111	0.094
-232.800	-150.825	0.112	-0.008
-231.786	8.342	-0.146	0.109
-230.771	-125.425	-0.393	-0.059
-229.757	2.741	0.310	-0.223
-228.742	800.000	0.060	0.211
-227.727	-41.320	0.122	0.062
-226.713	-78.591	-0.172	-0.058
-225.698	-59.268	0.218	-0.093
-224.684	800.000	0.085	-0.281
-223.669	-89.735	-0.249	-0.072
-222.655	73.151	0.121	0.125
-221.640	0.002	0.157	0.110
-220.625	-60.097	-0.117	-0.049
-219.611	800.000	-0.077	-0.284
-218.596	509.211	0.204	-0.468
-217.582	97.915	0.168	-0.191
-216.567	178.217	-0.107	-0.154
-215.552	-200.000	0.042	0.276
-214.538	407.670	-0.020	-0.042
-213.523	-16.243	0.159	-0.100
-212.509	-43.368	-0.211	-0.105
-211.494	-51.451	0.088	-0.040
-210.479	42.192	0.158	-0.142
-209.465	65.466	0.098	-0.098
-208.450	-200.000	-0.018	0.292
-207.436	-23.796	0.117	-0.069
-206.421	800.000	-0.088	-0.306
-205.406	800.000	0.093	0.278
-204.392	-200.000	-0.058	-0.345
-203.377	-200.000	-0.102	-0.466
-202.363	-192.036	0.253	0.002
-201.348	-200.000	-0.006	0.297
-200.333	-200.000	-0.027	0.214
-199.319	-200.000	-0.025	0.181
-198.304	-54.145	-0.173	0.078
-197.290	72.657	0.138	0.143
-196.275	-39.481	-0.245	-0.127
-195.260	403.145	0.067	0.138
-194.246	-62.920	0.007	0.003
-193.231	-156.935	0.104	0.006
-192.217	-68.380	-0.115	-0.044
-191.202	-200.000	0.023	-0.263
-190.187	-59.414	-0.167	-0.071
-189.173	31.943	-0.139	0.119
-188.158	35.143	0.243	0.210
-187.144	-120.081	-0.209	0.035
-186.129	512.580	-0.024	0.055
-185.114	-200.000	-0.012	0.384
-184.100	-79.447	-0.130	0.044
-183.085	800.000	0.038	-0.145
-182.071	337.893	-0.151	-0.290
-181.056	-139.160	-0.293	0.031
-180.042	-137.370	-0.325	0.036
-179.027	-145.204	0.395	0.035
-178.012	-98.841	0.203	-0.051
-176.998	97.948	0.064	-0.072
-175.983	-200.000	0.043	0.280
-174.969	-104.005	0.229	0.053
-173.954	-8.311	-0.198	-0.131
-172.939	9.449	0.084	-0.063
-171.925	-83.124	-0.206	0.065
-170.910	-146.612	-0.143	-0.012
-169.896	-22.249	0.119	0.071
-168.881	800.000	-0.045	0.123
-167.866	-194.083	-0.296	0.002
-166.852	94.429	0.105	0.118
-165.837	-120.689	-0.159	0.027
-164.823	-29.339	-0.373	-0.210
-163.808	-35.171	-0.263	-0.141
-162.793	22.664	-0.068	-0.055
-161.779	260.546	0.132	0.225
-160.764	800.000	-0.044	0.135
-159.750	45.724	-0.294	0.268
-158.735	67.923	-0.208	-0.210
-157.720	800.000	-0.019	-0.054
-156.706	102.653	0.098	-0.114
-155.691	-121.614	-0.093	0.015
-154.677	800.000	0.030	-0.116
-153.662	402.672	-0.092	0.191
-152.647	-39.560	0.067	0.035
-151.633	138.228	-0.141	-0.182
-150.618	-200.000	-0.008	-0.114
-149.604	33.587	0.210	0.180
-148.589	-179.611	-0.244	0.005
-147.574	-200.000	-0.024	-0.126
-146.560	110.469	0.088	0.104
-145.545	-200.000	0.045	0.281
-144.531	268.605	0.117	0.203
-143.516	800.000	0.071	0.278
-142.502	-73.725	-0.176	0.063
-141.487	15.560	-0.055	0.042
-140.472	214.427	-0.164	0.256
-139.458	125.513	0.086	0.107
-138.443	800.000	-0.125	-0.397
-137.429	508.486	-0.096	-0.219
-136.414	3.004	-0.107	-0.077
-135.399	88.457	0.233	0.255
-134.385	535.799	-0.063	0.148
-133.370	113.762	-0.080	0.096
-132.356	48.426	0.169	-0.156
-131.341	488.849	0.041	0.092
-130.326	66.629	0.110	0.110
-129.312	16.461	0.364	0.283
-128.297	55.784	-0.213	-0.203
-127.283	-200.000	0.010	0.178
-126.268	113.043	-0.124	0.149
-125.253	-200.000	-0.103	0.532
-124.239	-18.977	0.247	0.151
-123.224	550.345	0.027	-0.063
-122.210	219.005	-0.070	0.110
-121.195	-88.892	0.283	0.083
-120.180	-43.253	-0.134	-0.067
