DTS Sentinel unit serial number:	SN413079Multiplexer serial number:	ORYXHardware model number:	OX4-SRSoftware version number:	ORYX F/W v4.00 Oryx Data Collector v3.7.2.0data status	okinstallation	princeton_trtdifferential loss correction	single-endedforward channel	channel 1reverse channel	N/Adate	2019/09/18time	17:14:35forward acquisition time	60.00reverse acquisition time	0.00gamma	496.2192k internal	0.2293k external	0.2293temperature offset calibration	0.9998default loss term (dB/km)	0.3790temperature slope calibration	1.0000multiplexer offset coefficient	1.0000multiplexer slope coefficient	1.0000fibre end	0.00T internal ref (°C)	39.87T ext. ref 1 (°C)	0.90T ext. ref 2 (°C)	35.55length (m)	temperature (°C)	Stokes	anti-Stokes-747.200	-200.000	-0.030	-0.422
-746.185	593.081	0.028	0.072
-745.171	131.562	-0.147	-0.193
-744.156	1.164	-0.127	-0.093
-743.142	-200.000	0.020	0.144
-742.127	-40.682	0.294	-0.156
-741.112	608.964	-0.106	-0.270
-740.098	-200.000	-0.009	0.063
-739.083	-154.090	-0.342	0.024
-738.069	-200.000	0.019	0.503
-737.054	-27.336	0.339	-0.202
-736.039	116.325	0.095	0.119
-735.025	772.272	-0.075	0.208
-734.010	751.239	0.105	-0.289
-732.996	-133.773	-0.478	-0.061
-731.981	-130.694	-0.272	-0.037
-730.966	14.032	-0.112	0.089
-729.952	90.458	0.109	-0.125
-728.937	-19.991	-0.256	-0.162
-727.923	-183.727	0.447	0.008
-726.908	147.274	-0.083	-0.115
-725.894	-21.788	-0.086	-0.054
-724.879	-112.921	0.400	0.081
-723.864	731.736	-0.059	-0.162
-722.850	31.017	0.257	0.225
-721.835	-200.000	-0.016	-0.147
-720.821	23.848	0.248	0.209
-719.806	-72.783	-0.120	-0.045
-718.791	-127.962	-0.197	0.029
-717.777	727.949	-0.057	0.155
-716.762	-99.618	-0.314	0.081
-715.748	-99.803	-0.550	-0.141
-714.733	800.000	-0.047	-0.181
-713.718	800.000	0.031	-0.099
-712.704	314.823	-0.117	0.224
-711.689	19.030	0.117	-0.096
-710.675	800.000	0.102	-0.416
-709.660	237.008	-0.144	0.244
-708.645	-200.000	0.006	0.256
-707.631	32.797	-0.185	0.164
-706.616	-75.197	0.135	0.049
-705.602	684.568	-0.044	-0.118
-704.587	-102.168	0.094	-0.023
-703.572	127.883	-0.104	-0.135
-702.558	-46.547	0.261	0.131
-701.543	-21.101	-0.277	0.173
-700.529	76.049	-0.044	-0.048
-699.514	13.826	-0.244	-0.194
-698.499	226.892	-0.176	0.293
-697.485	-200.000	-0.016	-0.134
-696.470	800.000	0.047	0.163
-695.456	215.769	-0.198	-0.320
-694.441	800.000	0.050	-0.210
-693.426	800.000	0.058	-0.192
-692.412	-117.282	-0.071	-0.013
-691.397	118.148	-0.225	-0.283
-690.383	313.353	-0.044	0.084
-689.368	502.936	-0.161	0.380
-688.354	70.590	0.074	0.078
-687.339	555.850	0.082	0.203
-686.324	800.000	0.048	-0.211
-685.310	-200.000	-0.012	-0.169
-684.295	70.060	-0.139	-0.146
-683.281	-200.000	0.056	0.266
-682.266	118.365	0.201	-0.253
-681.251	-13.096	-0.099	0.065
-680.237	-70.658	-0.221	0.085
-679.222	-119.673	-0.547	-0.097
-678.208	55.018	-0.072	-0.071
-677.193	-200.000	0.014	-0.195
-676.178	785.572	-0.053	0.150
-675.164	-69.917	0.189	0.073
-674.149	-113.236	0.214	0.043
-673.135	29.198	0.127	-0.110
-672.120	-97.365	-0.262	-0.070
-671.105	-106.266	-0.119	0.027
-670.091	190.877	-0.219	0.336
-669.076	98.915	0.033	0.039
-668.062	83.545	-0.179	-0.199
-667.047	402.749	-0.096	-0.205
-666.032	35.184	-0.134	-0.120
-665.018	-200.000	0.037	-0.253
-664.003	-200.000	0.019	0.224
-662.989	800.000	-0.094	0.352
-661.974	189.819	0.195	-0.298
-660.959	727.468	-0.042	0.115
-659.945	800.000	0.061	-0.271
-658.930	9.166	-0.092	-0.071
-657.916	-166.385	0.304	0.013
-656.901	-94.941	0.223	-0.062
-655.886	-28.037	-0.137	-0.081
-654.872	800.000	-0.126	-0.405
-653.857	-39.962	-0.305	0.162
-652.843	800.000	0.061	0.174
-651.828	161.947	-0.179	0.256
-650.814	-200.000	0.006	0.216
-649.799	242.127	0.073	-0.124
-648.784	-78.033	-0.332	-0.117
-647.770	-200.000	0.013	-0.171
-646.755	5.015	-0.163	-0.122
-645.741	521.985	0.041	-0.097
-644.726	-118.783	-0.200	-0.036
-643.711	644.084	0.098	-0.254
-642.697	141.076	0.125	0.169
-641.682	779.336	0.111	-0.309
-640.668	-144.741	-0.188	-0.018
-639.653	255.961	-0.138	-0.241
-638.638	278.263	0.050	-0.091
-637.624	-50.848	0.203	-0.097
-636.609	-200.000	-0.015	-0.380
-635.595	224.624	0.175	0.288
-634.580	27.307	-0.130	0.112
-633.565	800.000	0.103	0.330
-632.551	93.899	-0.268	-0.309
-631.536	-200.000	-0.033	-0.145
-630.522	-134.304	0.079	-0.010
-629.507	-92.101	-0.044	-0.013
-628.492	800.000	-0.067	-0.283
-627.478	304.668	0.060	0.113
-626.463	-200.000	-0.000	-0.040
-625.449	-152.616	-0.165	0.012
-624.434	23.651	-0.185	-0.155
-623.419	215.725	-0.025	0.041
-622.405	-200.000	0.080	-0.383
-621.390	-100.109	-0.124	-0.032
-620.376	349.620	-0.074	-0.149
-619.361	389.569	-0.031	-0.065
-618.346	-6.805	-0.028	0.020
-617.332	-200.000	0.015	-0.176
-616.317	529.992	0.080	-0.192
-615.303	-92.486	-0.255	0.073
-614.288	-200.000	0.066	-0.415
-613.273	511.708	0.114	0.271
-612.259	44.621	-0.080	-0.075
-611.244	-200.000	0.176	0.000
-610.230	1.899	0.057	-0.042
-609.215	45.787	0.129	0.121
-608.201	-75.555	0.082	0.030
-607.186	-122.192	0.183	0.031
-606.171	314.190	-0.057	-0.109
-605.157	800.000	0.047	0.159
-604.142	-130.632	0.363	0.050
-603.128	-153.778	0.307	-0.021
-602.113	170.019	-0.292	-0.425
-601.098	651.557	-0.073	-0.190
-600.084	507.908	0.067	-0.157
-599.069	800.000	-0.034	0.151
-598.055	656.006	-0.081	-0.211
-597.040	-73.148	0.217	0.081
-596.025	-80.980	0.169	0.057
-595.011	572.247	0.105	-0.260
-593.996	32.037	0.239	0.210
-592.982	800.000	0.139	0.414
-591.967	213.636	-0.214	0.345
-590.952	800.000	0.042	0.176
-589.938	558.945	-0.095	-0.232
-588.923	119.510	0.079	-0.100
-587.909	-176.804	-0.112	-0.003
-586.894	31.119	0.202	-0.176
-585.879	85.000	0.201	0.224
-584.865	491.317	-0.066	-0.153
-583.850	197.659	-0.200	0.310
-582.836	3.793	0.136	-0.101
-581.821	-54.395	0.103	-0.047
-580.806	223.211	0.110	0.181
-579.792	-152.372	0.062	0.005
-578.777	800.000	-0.030	-0.124
-577.763	589.564	0.062	0.155
-576.748	800.000	-0.083	0.254
-575.733	-89.999	0.209	0.062
-574.719	-200.000	0.017	0.131
-573.704	800.000	0.095	0.290
-572.690	9.620	-0.173	-0.133
-571.675	800.000	-0.126	-0.365
-570.661	102.132	0.139	-0.165
-569.646	-200.000	0.013	-0.122
-568.631	70.249	-0.026	0.027
-567.617	19.013	-0.200	-0.163
-566.602	-71.603	-0.382	0.145
-565.588	-150.702	0.122	0.009
-564.573	-73.612	-0.314	-0.116
-563.558	-166.046	0.242	0.010
-562.544	0.959	-0.093	0.068
-561.529	800.000	-0.022	0.081
-560.515	-13.122	0.173	0.114
-559.500	-100.408	0.502	0.126
-558.485	-116.944	0.279	-0.052
-557.471	163.301	-0.084	-0.120
-556.456	617.270	-0.069	-0.177
-555.442	-200.000	-0.003	-0.300
-554.427	-122.403	0.137	0.023
-553.412	140.824	0.048	0.064
-552.398	-8.644	-0.240	0.164
-551.383	166.228	-0.280	-0.403
-550.369	-90.031	0.235	-0.070
-549.354	-200.000	-0.014	0.233
-548.339	116.252	0.158	0.197
-547.325	92.755	-0.035	-0.040
-546.310	-156.473	-0.352	-0.022
-545.296	-200.000	0.011	-0.185
-544.281	72.531	-0.236	-0.249
-543.266	-200.000	-0.039	-0.390
-542.252	-37.670	-0.114	-0.061
-541.237	145.685	-0.060	-0.082
-540.223	4.406	-0.112	0.083
-539.208	128.145	-0.126	0.162
-538.193	-200.000	0.001	-0.039
-537.179	-82.602	-0.161	0.053
-536.164	-200.000	0.010	-0.050
-535.150	-8.681	-0.122	-0.083
-534.135	358.873	-0.157	0.318
-533.121	-200.000	0.170	0.001
-532.106	800.000	-0.086	-0.287
-531.091	124.912	-0.073	0.093
-530.077	-20.997	-0.187	-0.116
-529.062	-71.311	0.290	0.110
-528.048	-200.000	-0.045	0.232
-527.033	324.022	-0.146	0.282
-526.018	-200.000	-0.015	0.390
-525.004	-31.561	0.267	-0.152
-523.989	800.000	-0.100	-0.289
-522.975	-152.232	0.230	0.017
-521.960	-200.000	0.002	-0.060
-520.945	414.065	-0.133	-0.288
-519.931	283.097	0.148	-0.270
-518.916	-153.444	-0.088	0.006
-517.902	150.783	0.039	0.054
-516.887	800.000	-0.064	0.222
-515.872	-200.000	0.085	0.393
-514.858	-102.496	-0.246	-0.060
-513.843	224.568	0.135	-0.222
-512.829	-100.602	-0.080	-0.020
-511.814	-71.553	0.146	-0.055
-510.799	-99.713	-0.064	0.016
-509.785	343.179	-0.058	0.115
-508.770	206.666	-0.113	-0.179
-507.756	74.350	-0.091	-0.097
-506.741	-8.403	-0.107	-0.073
-505.726	466.213	-0.049	-0.112
-504.712	-200.000	0.018	0.388
-503.697	-21.742	0.359	-0.221
-502.683	-66.455	0.087	0.035
-501.668	115.493	0.070	0.087
-500.653	113.924	-0.177	-0.219
-499.639	103.021	-0.068	0.081
-498.624	-20.558	-0.225	0.140
-497.610	800.000	-0.037	-0.164
-496.595	211.839	0.066	-0.105
-495.581	-200.000	-0.006	0.197
-494.566	-200.000	0.006	-0.077
-493.551	-88.295	-0.293	-0.089
-492.537	633.450	0.087	0.224
-491.522	-145.167	0.334	0.031
-490.508	-200.000	0.014	-0.102
-489.493	-194.834	0.213	-0.002
-488.478	-200.000	-0.006	-0.086
-487.464	-94.413	-0.157	0.043
-486.449	-200.000	-0.026	-0.265
-485.435	516.979	0.065	-0.153
-484.420	201.510	0.039	-0.061
-483.405	371.161	-0.034	0.070
-482.391	-124.244	0.325	0.051
-481.376	-29.220	-0.066	0.038
-480.362	-31.518	-0.312	-0.178
-479.347	363.532	-0.053	0.107
-478.332	102.375	0.165	0.196
-477.318	168.946	-0.141	0.203
-476.303	258.081	0.134	-0.233
-475.289	-200.000	-0.004	0.159
-474.274	-164.948	-0.471	-0.021
-473.259	-13.373	0.069	-0.046
-472.245	133.558	0.037	-0.048
-471.230	-31.851	-0.242	-0.137
-470.216	800.000	-0.024	0.097
-469.201	-46.884	-0.152	-0.075
-468.186	-37.347	0.149	0.081
-467.172	-200.000	-0.032	-0.151
-466.157	-200.000	0.061	-0.457
-465.143	474.920	0.092	-0.210
-464.128	-89.566	0.188	-0.056
-463.113	457.020	-0.057	-0.128
-462.099	98.101	0.174	0.203
-461.084	350.155	0.071	0.142
-460.070	344.509	-0.106	-0.211
-459.055	28.797	-0.236	0.202
-458.040	-162.005	0.156	0.008
-457.026	-29.201	-0.394	-0.229
-456.011	-200.000	0.021	0.178
-454.997	800.000	-0.029	-0.120
-453.982	52.538	0.185	0.179
-452.968	-150.735	-0.203	-0.016
-451.953	-139.941	-0.181	-0.019
-450.938	-176.050	-0.298	0.008
-449.924	-106.645	0.103	0.023
-448.909	33.171	0.179	-0.157
-447.895	147.718	0.037	0.051
-446.880	80.176	0.124	-0.135
-445.865	332.553	0.097	0.189
-444.851	800.000	0.097	-0.346
-443.836	-159.110	-0.342	-0.020
-442.822	-200.000	-0.006	-0.117
-441.807	359.768	0.100	-0.203
-440.792	-48.664	-0.087	-0.042
-439.778	-95.671	-0.049	0.013
-438.763	191.562	-0.029	0.045
-437.749	-29.353	0.257	0.148
-436.734	800.000	0.055	-0.208
-435.719	-75.413	-0.132	0.048
-434.705	39.763	0.037	0.033
-433.690	-200.000	-0.053	-0.248
-432.676	-200.000	-0.010	0.265
-431.661	738.049	0.151	-0.410
-430.646	56.933	-0.244	-0.240
-429.632	-90.929	0.287	0.083
-428.617	-57.841	0.109	0.048
-427.603	24.505	0.128	-0.107
-426.588	800.000	-0.051	0.170
-425.573	800.000	0.064	0.189
-424.559	163.162	0.047	0.067
-423.544	-200.000	-0.032	0.177
-422.530	-200.000	0.038	-0.202
-421.515	174.356	0.083	0.121
-420.500	-84.538	-0.515	-0.164
-419.486	-200.000	0.017	-0.277
-418.471	800.000	0.041	0.159
-417.457	207.625	-0.156	-0.245
-416.442	-200.000	-0.034	-0.235
-415.428	-92.995	-0.267	-0.075
-414.413	-200.000	-0.013	-0.099
-413.398	-36.631	0.055	-0.030
-412.384	-200.000	-0.013	-0.176
-411.369	-62.337	0.051	-0.022
-410.355	-45.975	-0.370	0.184
-409.340	5.595	-0.197	-0.147
-408.325	69.168	-0.068	0.071
-407.311	-91.621	-0.241	0.069
-406.296	-200.000	0.017	0.185
-405.282	380.013	-0.050	0.104
-404.267	-114.359	0.355	0.069
-403.252	138.129	0.179	-0.237
-402.238	16.591	0.250	-0.200
-401.223	-200.000	0.043	0.220
-400.209	47.393	-0.190	-0.178
-399.194	-200.000	-0.035	-0.204
-398.179	-67.826	-0.124	0.049
-397.165	-200.000	0.041	0.180
-396.150	-121.273	0.050	-0.008
-395.136	231.105	-0.146	0.241
-394.121	-200.000	0.008	-0.128
-393.106	112.613	0.087	0.106
-392.092	-105.360	-0.231	0.053
-391.077	135.289	0.106	-0.139
-390.063	191.001	0.193	0.294
-389.048	-79.464	-0.124	-0.042
-388.033	-92.731	0.151	0.043
-387.019	-186.891	0.481	0.007
-386.004	121.564	-0.169	0.212
-384.990	16.432	-0.253	0.201
-383.975	-87.164	-0.188	-0.058
-382.960	10.607	0.089	-0.068
-381.946	299.397	-0.057	-0.107
-380.931	-200.000	-0.027	-0.181
-379.917	115.427	-0.244	0.300
-378.902	288.565	0.090	0.164
-377.888	-20.084	0.253	-0.158
-376.873	-33.841	-0.133	0.074
-375.858	800.000	0.055	-0.175
-374.844	17.244	-0.078	-0.062
-373.829	-101.342	0.251	0.062
-372.815	182.452	-0.039	-0.058
-371.800	-200.000	-0.018	-0.138
-370.785	774.228	0.029	0.080
-369.771	-200.000	0.002	-0.295
-368.756	800.000	0.028	-0.123
-367.742	-200.000	-0.005	-0.026
-366.727	-200.000	-0.004	0.067
-365.712	-78.999	0.214	0.073
-364.698	-49.471	-0.129	0.062
-363.683	386.647	-0.109	-0.226
-362.669	-167.707	-0.158	0.006
-361.654	287.588	0.071	-0.129
-360.639	-58.051	0.244	-0.107
-359.625	80.174	0.063	0.069
-358.610	271.908	0.183	-0.326
-357.596	-68.612	0.135	0.053
-356.581	-200.000	-0.004	0.446
-355.566	-90.639	0.209	-0.061
-354.552	82.357	0.277	-0.303
-353.537	-200.000	0.038	-0.376
-352.523	120.957	-0.011	-0.014
-351.508	-1.117	0.569	0.405
-350.493	-9.377	0.173	0.117
-349.479	-200.000	0.017	-0.130
-348.464	-200.000	-0.069	0.314
-347.450	7.281	0.140	-0.105
-346.435	51.209	0.146	0.140
-345.420	25.815	-0.090	-0.075
-344.406	306.530	0.128	0.240
-343.391	233.236	0.157	0.260
-342.377	-21.976	-0.288	0.176
-341.362	127.258	0.128	0.164
-340.348	684.951	0.093	-0.245
-339.333	-50.353	-0.186	0.089
-338.318	-200.000	0.007	0.452
-337.304	290.763	-0.121	0.222
-336.289	86.204	-0.199	0.221
-335.275	-148.966	0.210	0.017
-334.260	68.135	-0.249	0.256
-333.245	694.645	-0.056	0.147
-332.231	-142.542	-0.253	-0.025
-331.216	1.010	-0.081	0.059
-330.202	-28.783	0.225	-0.131
-329.187	800.000	0.024	0.100
-328.172	-200.000	0.032	0.273
-327.158	-104.702	0.173	0.040
-326.143	-32.008	-0.180	-0.102
-325.129	248.754	-0.182	-0.310
-324.114	-121.205	-0.268	-0.045
-323.099	154.851	0.087	-0.120
-322.085	-41.274	0.118	-0.061
-321.070	-32.068	0.214	0.120
-320.056	-122.949	-0.074	0.012
-319.041	39.557	0.161	0.145
-318.026	-90.018	0.193	0.057
-317.012	-94.577	-0.236	-0.065
-315.997	-200.000	-0.010	-0.482
-314.983	-200.000	0.035	-0.276
-313.968	-83.798	0.301	-0.097
-312.953	-76.217	-0.142	-0.050
-311.939	-88.943	-0.210	-0.063
-310.924	-78.762	-0.235	0.081
-309.910	679.800	-0.142	-0.372
-308.895	-50.311	-0.180	0.086
-307.880	19.902	0.071	-0.058
-306.866	-200.000	0.058	0.348
-305.851	-200.000	-0.051	0.507
-304.837	800.000	0.087	0.281
-303.822	-79.498	0.316	-0.107
-302.807	-58.617	-0.372	-0.162
-301.793	182.321	-0.146	-0.216
-300.778	-165.902	-0.168	0.007
-299.764	196.554	0.114	0.175
-298.749	800.000	-0.075	0.276
-297.735	325.255	0.254	0.488
-296.720	152.359	0.110	0.150
-295.705	-99.857	0.292	0.073
-294.691	-93.662	0.385	-0.107
-293.676	12.885	0.209	-0.162
-292.662	-200.000	-0.006	-0.241
-291.647	309.779	0.108	-0.204
-290.632	789.276	0.108	0.298
-289.618	-59.285	-0.219	0.095
-288.603	-151.048	0.103	-0.008
-287.589	50.267	0.116	-0.110
-286.574	-188.228	-0.450	0.006
-285.559	800.000	0.053	-0.229
-284.545	-95.298	0.233	-0.063
-283.530	-31.276	0.068	0.038
-282.516	800.000	-0.154	-0.455
-281.501	10.494	0.062	-0.047
-280.486	20.755	0.110	-0.090
-279.472	-92.045	-0.245	-0.070
-278.457	800.000	0.005	0.015
-277.443	-159.419	0.356	-0.020
-276.428	5.617	0.103	-0.077
-275.413	800.000	0.075	0.320
-274.399	800.000	0.043	0.174
-273.384	-200.000	-0.035	0.349
-272.370	169.796	0.125	0.179
-271.355	-53.831	-0.150	-0.069
-270.340	-200.000	0.032	0.374
-269.326	-137.149	-0.163	0.019
-268.311	-200.000	-0.004	0.064
-267.297	-200.000	-0.004	0.079
-266.282	567.277	0.050	0.122
-265.267	119.996	0.120	0.150
-264.253	-137.531	0.300	-0.034
-263.238	82.869	-0.206	-0.225
-262.224	-146.171	-0.106	-0.009
-261.209	52.111	0.033	0.031
-260.195	514.244	0.044	0.104
-259.180	206.242	-0.123	0.192
-258.165	327.582	0.056	0.108
-257.151	169.477	-0.147	0.211
-256.136	-19.853	0.227	0.141
-255.122	800.000	0.069	-0.282
-254.107	506.421	-0.144	-0.335
-253.092	-189.466	-0.311	0.004
-252.078	151.482	-0.119	-0.162
-251.063	800.000	0.122	-0.482
-250.049	-80.054	0.225	-0.076
-249.034	193.714	-0.090	0.137
-248.019	-200.000	-0.009	0.142
-247.005	-200.000	-0.037	0.182
-245.990	-30.910	0.174	0.099
-244.976	-200.000	-0.024	0.238
-243.961	-80.276	0.097	0.032
-242.946	46.012	-0.134	0.124
-241.932	800.000	0.040	-0.153
-240.917	800.000	0.030	0.115
-239.903	273.293	-0.060	0.107
-238.888	36.099	0.127	0.112
-237.873	-74.736	0.218	0.078
-236.859	-57.160	-0.211	0.093
-235.844	3.542	-0.128	0.093
-234.830	27.605	0.149	-0.126
-233.815	-118.551	0.393	0.070
-232.800	-118.937	0.476	0.084
-231.786	668.048	0.096	0.249
-230.771	546.404	-0.035	0.084
-229.757	70.421	-0.232	-0.240
-228.742	-61.822	-0.131	0.055
-227.727	-200.000	-0.075	0.451
-226.713	-200.000	0.016	-0.206
-225.698	228.361	0.151	0.247
-224.684	70.436	-0.230	-0.239
-223.669	137.472	-0.216	0.283
-222.655	800.000	0.124	0.360
-221.640	-44.088	-0.273	-0.138
-220.625	800.000	-0.100	0.318
-219.611	-72.390	-0.223	0.083
-218.596	14.447	0.075	-0.058
-217.582	-52.040	-0.081	0.038
-216.567	-62.740	-0.359	0.149
-215.552	-37.601	0.231	0.124
-214.538	500.424	0.102	0.235
-213.523	53.080	0.114	0.109
-212.509	-92.302	0.383	0.108
-211.494	150.463	-0.053	-0.072
-210.479	-4.912	0.195	0.135
-209.465	-200.000	-0.022	0.128
-208.450	56.137	0.325	0.316
-207.436	-18.152	-0.287	-0.180
-206.421	135.739	-0.105	0.136
-205.406	-107.280	-0.446	0.098
-204.392	110.839	-0.037	0.044
-203.377	800.000	0.068	-0.292
-202.363	365.945	-0.245	0.494
-201.348	107.848	-0.265	-0.316
-200.333	75.638	0.150	0.158
-199.319	-200.000	0.017	0.137
-198.304	-52.435	-0.172	-0.080
-197.290	273.862	0.112	0.199
-196.275	63.552	0.128	-0.129
-195.260	92.836	0.032	0.036
-194.246	-200.000	0.005	-0.096
-193.231	-171.780	-0.128	-0.004
-192.217	800.000	-0.030	-0.093
-191.202	800.000	0.045	-0.183
-190.187	-7.409	-0.209	0.141
-189.173	109.265	-0.122	-0.146
-188.158	-107.834	0.068	0.015
-187.144	-194.053	-0.166	-0.001
-186.129	400.748	-0.064	0.135
-185.114	-170.395	0.117	0.004
-184.100	30.270	-0.114	0.097
-183.085	727.320	0.118	-0.315
-182.071	-121.845	-0.358	0.059
-181.056	-41.856	0.116	-0.060
-180.042	251.576	-0.205	0.349
-179.027	297.247	-0.204	-0.375
-178.012	-43.958	-0.286	0.144
-176.998	-123.046	0.018	-0.003
-175.983	-115.685	-0.095	0.018
-174.969	-200.000	0.005	0.329
-173.954	800.000	0.025	-0.088
-172.939	-24.599	0.125	-0.074
-171.925	44.826	0.224	0.206
-170.910	136.116	0.041	0.053
-169.896	-200.000	-0.031	-0.185
-168.881	-23.153	-0.227	0.137
-167.866	-29.989	0.095	0.054
-166.852	-105.271	0.098	0.022
-165.837	67.071	0.088	-0.089
-164.823	-26.405	0.145	-0.085
-163.808	28.053	0.132	-0.111
-162.793	-16.830	-0.016	-0.010
-161.779	-200.000	-0.020	0.189
-160.764	-145.109	-0.295	0.027
-159.750	-154.133	0.198	0.013
-158.735	-17.015	-0.174	-0.110
-157.720	161.462	0.247	-0.346
-156.706	800.000	0.068	0.284
-155.691	-98.494	-0.262	0.067
-154.677	-54.035	0.270	0.123
-153.662	-119.320	-0.011	0.002
-152.647	246.673	-0.035	-0.060
-151.633	-112.756	0.175	0.035
-150.618	-67.224	0.101	0.040
-149.604	800.000	0.090	0.258
-148.589	-200.000	0.011	0.235
-147.574	800.000	-0.059	0.257
-146.560	36.849	0.054	-0.048
-145.545	-54.695	-0.364	0.165
-144.531	-14.330	-0.249	0.160
-143.516	226.282	-0.050	-0.080
-142.502	-200.000	0.005	0.149
-141.487	800.000	0.044	-0.166
-140.472	-200.000	-0.005	0.202
-139.458	-122.430	0.102	-0.017
-138.443	-167.513	0.211	0.008
-137.429	-200.000	0.015	0.074
-136.414	800.000	0.034	-0.111
-135.399	673.891	0.042	-0.110
-134.385	251.741	-0.133	0.226
-133.370	-59.770	-0.209	-0.089
-132.356	176.463	0.103	0.150
-131.341	-36.476	-0.220	0.118
-130.326	54.703	-0.235	-0.226
-129.312	800.000	-0.113	0.355
-128.297	-200.000	0.136	0.599
-127.283	-56.057	-0.092	-0.041
-126.268	82.073	-0.216	-0.234
-125.253	800.000	-0.056	-0.193
-124.239	-200.000	0.002	0.032
-123.224	-107.897	-0.164	-0.036
-122.210	-26.438	0.108	0.063
-121.195	800.000	0.046	-0.135
