DTS Sentinel unit serial number:	SN413079Multiplexer serial number:	ORYXHardware model number:	OX4-SRSoftware version number:	ORYX F/W v4.00 Oryx Data Collector v3.7.2.0data status	okinstallation	princeton_trtdifferential loss correction	single-endedforward channel	channel 1reverse channel	N/Adate	2019/09/12time	20:05:34forward acquisition time	15.00reverse acquisition time	0.00gamma	496.2192k internal	0.2324k external	0.2324temperature offset calibration	1.0134default loss term (dB/km)	0.3790temperature slope calibration	1.0000multiplexer offset coefficient	1.0000multiplexer slope coefficient	1.0000fibre end	0.00T internal ref (°C)	31.69T ext. ref 1 (°C)	3.47T ext. ref 2 (°C)	26.31length (m)	temperature (°C)	Stokes	anti-Stokes-747.200	-200.000	-0.157	0.923
-746.185	-38.137	0.605	0.324
-745.171	104.183	0.351	0.417
-744.156	318.920	-0.553	1.058
-743.142	142.823	0.295	-0.396
-742.127	-95.933	0.263	-0.071
-741.112	48.638	-0.377	0.357
-740.098	-92.363	0.979	0.278
-739.083	-40.554	0.283	-0.148
-738.069	269.610	0.250	0.442
-737.054	303.878	-0.200	0.374
-736.039	-169.321	-0.704	0.026
-735.025	-200.000	0.083	0.939
-734.010	-60.570	-0.094	-0.040
-732.996	-135.840	-0.885	0.105
-731.981	-118.968	0.882	-0.156
-730.966	800.000	-0.143	0.407
-729.952	717.379	-0.198	-0.532
-728.937	-23.105	0.218	-0.132
-727.923	-59.919	-0.543	0.234
-726.908	660.694	-0.381	-0.991
-725.894	-161.903	-0.434	0.022
-724.879	94.411	-0.474	-0.543
-723.864	-153.232	-0.677	0.048
-722.850	-185.083	-1.225	-0.019
-721.835	-200.000	-0.013	-0.536
-720.821	656.337	0.171	0.444
-719.806	-200.000	0.052	-0.504
-718.791	27.259	-0.449	0.380
-717.777	-74.879	0.138	-0.050
-716.762	125.157	-0.442	-0.562
-715.748	24.156	0.568	-0.473
-714.733	-200.000	-0.049	-0.305
-713.718	46.530	0.196	0.184
-712.704	109.447	-0.299	0.361
-711.689	-166.185	-0.288	0.012
-710.675	-200.000	-0.002	0.133
-709.660	-200.000	-0.010	0.707
-708.645	88.748	0.385	-0.432
-707.631	36.458	-0.767	-0.682
-706.616	-91.869	0.103	0.029
-705.602	-200.000	-0.008	-0.293
-704.587	-33.115	0.463	-0.259
-703.572	-112.382	-0.275	0.055
-702.558	-200.000	-0.185	0.914
-701.543	800.000	0.102	-0.316
-700.529	-65.505	-0.377	0.153
-699.514	-200.000	0.001	-0.405
-698.499	176.238	-0.067	-0.098
-697.485	-43.716	0.701	-0.356
-696.470	-200.000	-0.046	0.217
-695.456	800.000	-0.090	0.317
-694.441	150.984	0.225	0.309
-693.426	-116.377	0.811	-0.151
-692.412	-99.213	-0.183	-0.047
-691.397	-92.155	-0.304	0.086
-690.383	800.000	-0.120	-0.461
-689.368	778.866	-0.268	-0.738
-688.354	-147.298	1.110	0.095
-687.339	190.649	-0.361	-0.546
-686.324	63.931	0.237	0.240
-685.310	156.709	-0.053	0.074
-684.295	-46.895	-0.350	0.172
-683.281	-200.000	-0.049	-1.245
-682.266	38.424	0.562	-0.505
-681.251	-200.000	0.104	-0.923
-680.237	-95.862	0.264	0.071
-679.222	208.377	-0.447	0.704
-678.208	407.602	0.257	-0.547
-677.193	-25.636	0.390	0.232
-676.178	323.405	0.387	0.743
-675.164	289.720	-0.413	-0.754
-674.149	367.355	-0.485	0.986
-673.135	-117.804	-0.671	0.121
-672.120	546.078	-0.153	0.368
-671.105	800.000	0.116	-0.465
-670.091	85.508	0.703	-0.777
-669.076	-200.000	-0.086	0.387
-668.062	298.251	-0.451	-0.835
-667.047	-42.895	0.621	-0.317
-666.032	-129.118	1.026	-0.144
-665.018	-196.747	0.442	0.003
-664.003	-107.606	1.290	0.284
-662.989	-200.000	0.104	-0.764
-661.974	-33.787	-0.294	0.163
-660.959	-200.000	-0.019	-0.439
-659.945	179.755	-0.381	-0.561
-658.930	753.452	-0.216	-0.587
-657.916	-16.059	-0.192	0.123
-656.901	102.626	-1.131	1.331
-655.886	242.917	-0.081	0.137
-654.872	441.383	-0.313	-0.689
-653.857	410.458	0.224	0.478
-652.843	-157.915	0.425	0.025
-651.828	113.181	-0.375	-0.458
-650.814	800.000	0.154	-0.621
-649.799	-163.476	-1.233	-0.059
-648.784	212.576	-0.349	-0.553
-647.770	13.141	-0.426	0.332
-646.755	-65.476	-0.328	0.132
-645.741	61.152	-0.298	0.298
-644.726	-35.397	-0.132	-0.072
-643.711	-69.432	0.765	0.295
-642.697	-87.484	-0.767	0.233
-641.682	-31.818	0.818	0.461
-640.668	245.418	0.144	0.244
-639.653	-81.179	0.419	-0.139
-638.638	158.145	0.554	-0.773
-637.624	-200.000	-0.029	-0.426
-636.609	-111.715	-0.671	0.137
-635.595	46.519	-0.562	-0.524
-634.580	330.993	-0.119	-0.231
-633.565	21.870	-0.322	-0.264
-632.551	800.000	-0.141	0.587
-631.536	-129.216	1.068	0.150
-630.522	-200.000	-0.136	-0.787
-629.507	-1.849	-0.739	-0.522
-628.492	-200.000	0.094	0.525
-627.478	141.643	0.288	0.384
-626.463	5.295	-0.176	-0.131
-625.449	9.714	0.703	0.536
-624.434	-119.227	0.830	0.145
-623.419	800.000	-0.168	-0.501
-622.405	10.908	-0.119	0.092
-621.390	12.154	0.187	0.145
-620.376	-162.735	-0.252	0.012
-619.361	-139.456	-0.326	-0.035
-618.346	271.405	0.370	-0.655
-617.332	-50.194	0.491	-0.233
-616.317	-75.685	-0.601	-0.214
-615.303	-200.000	-0.018	0.310
-614.288	-73.232	-0.155	-0.057
-613.273	-166.231	0.510	-0.022
-612.259	800.000	0.136	0.496
-611.244	101.175	0.104	-0.122
-610.230	-14.500	1.066	0.689
-609.215	-8.121	0.054	0.037
-608.201	280.679	0.680	1.221
-607.186	41.682	-0.426	-0.388
-606.171	39.692	0.171	0.154
-605.157	-91.921	1.040	-0.296
-604.142	-3.851	-0.272	-0.190
-603.128	52.980	1.209	1.161
-602.113	96.217	0.262	0.301
-601.098	-52.455	0.425	-0.197
-600.084	800.000	0.223	-0.877
-599.069	-200.000	0.027	-0.515
-598.055	-102.273	-0.884	-0.213
-597.040	-191.206	0.959	0.010
-596.025	800.000	-0.071	0.220
-595.011	100.777	-0.288	-0.336
-593.996	241.704	0.335	-0.561
-592.982	800.000	0.151	-0.473
-591.967	358.916	-0.346	0.694
-590.952	6.623	-0.549	-0.410
-589.938	69.534	0.494	-0.511
-588.923	800.000	0.216	-0.703
-587.909	581.766	-0.126	-0.309
-586.894	-2.141	0.250	0.176
-585.879	-137.918	0.613	-0.069
-584.865	-200.000	-0.018	-0.434
-583.850	51.738	0.457	-0.436
-582.836	-22.406	0.329	-0.200
-581.821	800.000	0.181	0.645
-580.806	800.000	-0.199	-0.720
-579.792	0.089	-0.239	-0.171
-578.777	-200.000	0.049	-0.624
-577.763	387.130	0.344	0.713
-576.748	-92.704	-0.312	0.088
-575.733	69.020	0.205	0.211
-574.719	-53.462	-0.484	0.222
-573.704	-17.577	0.463	0.292
-572.690	-78.268	0.727	0.250
-571.675	-200.000	-0.013	0.748
-570.661	-200.000	0.116	0.590
-569.646	43.953	0.183	-0.168
-568.631	21.348	-0.166	0.135
-567.617	13.802	0.407	0.317
-566.602	713.593	0.163	0.434
-565.588	800.000	-0.178	-0.761
-564.573	366.414	0.218	0.441
-563.558	29.443	-0.355	0.303
-562.544	-77.005	0.181	0.063
-561.529	91.537	0.396	-0.446
-560.515	-118.184	-0.550	0.098
-559.500	75.223	-0.343	0.362
-558.485	800.000	0.194	-0.691
-557.471	-159.421	-0.329	-0.018
-556.456	-200.000	-0.130	0.660
-555.442	56.819	-0.346	-0.338
-554.427	380.473	0.272	0.560
-553.412	448.649	-0.238	0.525
-552.398	-200.000	0.099	-0.530
-551.383	800.000	0.121	0.488
-550.369	-14.785	0.065	-0.042
-549.354	-82.711	0.582	-0.189
-548.339	-34.471	-0.719	-0.394
-547.325	-135.555	-0.767	0.091
-546.310	-127.135	-0.113	0.017
-545.296	-79.561	-0.436	-0.147
-544.281	800.000	-0.199	0.638
-543.266	414.947	0.272	0.580
-542.252	800.000	0.043	-0.154
-541.237	-70.207	0.638	0.243
-540.223	109.892	-0.227	0.273
-539.208	-148.043	-0.501	-0.042
-538.193	329.646	-0.166	-0.320
-537.179	-200.000	-0.066	-0.455
-536.164	-127.228	-0.975	-0.143
-535.150	235.049	-0.330	-0.545
-534.135	376.248	0.166	0.339
-533.121	11.609	0.625	-0.480
-532.106	-140.441	-0.672	-0.070
-531.091	800.000	0.046	0.196
-530.077	-200.000	-0.037	1.023
-529.062	-110.126	-0.462	0.097
-528.048	29.925	-0.098	0.084
-527.033	800.000	0.049	0.145
-526.018	-96.729	-0.393	-0.103
-525.004	-28.456	0.331	0.191
-523.989	-79.832	0.186	0.063
-522.975	-52.603	-0.248	-0.114
-521.960	-70.750	-0.279	0.105
-520.945	-132.612	0.925	0.119
-519.931	-104.268	0.841	-0.195
-518.916	4.489	-0.465	0.341
-517.902	-30.818	0.456	0.258
-516.887	-200.000	-0.028	0.428
-515.872	45.497	0.637	0.588
-514.858	-58.436	-0.441	-0.192
-513.843	800.000	0.234	0.898
-512.829	-111.589	0.369	-0.075
-511.814	130.815	0.561	0.720
-510.799	579.098	0.044	0.108
-509.785	800.000	0.195	0.650
-508.770	62.141	0.280	-0.280
-507.756	235.135	0.198	-0.327
-506.741	-0.348	-0.720	0.512
-505.726	-67.396	0.367	-0.144
-504.712	144.597	-0.264	-0.353
-503.697	-200.000	-0.063	-0.810
-502.683	105.825	-0.152	0.180
-501.668	323.099	0.113	-0.216
-500.653	-37.632	0.501	0.267
-499.639	-180.848	-0.598	0.012
-498.624	262.123	0.285	0.494
-497.610	219.232	0.223	0.356
-496.595	800.000	-0.059	0.230
-495.581	-107.673	-1.063	0.232
-494.566	-13.274	0.586	-0.380
-493.551	-61.337	0.312	-0.131
-492.537	800.000	0.189	-0.559
-491.522	38.750	-0.275	0.245
-490.508	14.851	-0.012	0.009
-489.493	-62.428	0.294	-0.122
-488.478	120.923	0.516	-0.641
-487.464	-17.237	-0.401	-0.253
-486.449	-16.826	-0.480	-0.303
-485.435	118.193	0.101	-0.125
-484.420	-200.000	-0.008	-0.725
-483.405	-27.464	-0.085	-0.050
-482.391	-200.000	-0.046	0.437
-481.376	-200.000	-0.033	-0.265
-480.362	-90.449	-0.577	-0.167
-479.347	24.146	-0.340	0.281
-478.332	-200.000	0.078	0.619
-477.318	206.565	0.071	0.110
-476.303	-105.564	-0.193	-0.044
-475.289	800.000	-0.112	0.411
-474.274	137.600	-0.505	0.661
-473.259	-200.000	0.025	-0.266
-472.245	-60.318	0.411	-0.175
-471.230	800.000	-0.080	-0.264
-470.216	241.270	0.186	0.311
-469.201	-200.000	0.069	-0.354
-468.186	-91.704	0.227	-0.065
-467.172	117.195	0.307	0.377
-466.157	-200.000	-0.012	-0.123
-465.143	-200.000	0.073	1.078
-464.128	-25.723	0.169	-0.099
-463.113	-153.302	-0.326	-0.023
-462.099	-149.448	0.339	-0.027
-461.084	-13.499	-0.989	0.640
-460.070	-127.208	-0.267	0.039
-459.055	-200.000	-0.027	0.472
-458.040	3.781	-0.305	-0.222
-457.026	282.216	0.482	-0.863
-456.011	-80.114	-0.252	0.084
-454.997	-200.000	-0.087	-0.511
-453.982	75.290	0.317	0.333
-452.968	-5.242	-0.160	-0.109
-451.953	469.580	-0.105	-0.236
-450.938	-200.000	-0.052	0.313
-449.924	-166.705	0.695	-0.029
-448.909	65.998	-0.112	0.113
-447.895	33.271	0.571	-0.494
-446.880	-17.770	-0.602	-0.377
-445.865	395.423	-0.233	0.485
-444.851	-133.984	-0.478	0.059
-443.836	-200.000	0.041	0.340
-442.822	30.306	-0.320	0.272
-441.807	-112.700	0.362	0.072
-440.792	561.733	-0.144	0.346
-439.778	800.000	0.148	0.408
-438.763	9.155	0.217	0.164
-437.749	209.057	0.323	-0.504
-436.734	-200.000	-0.065	-1.386
-435.719	-113.576	-0.472	0.092
-434.705	477.966	-0.290	-0.654
-433.690	-6.309	-0.440	-0.300
-432.676	-29.340	0.246	-0.140
-431.661	-38.436	-0.443	-0.234
-430.646	-90.471	-0.180	0.052
-429.632	-73.290	0.603	0.220
-428.617	-200.000	-0.104	0.540
-427.603	136.119	-0.572	-0.743
-426.588	-156.522	-0.099	-0.006
-425.573	-200.000	-0.056	0.486
-424.559	124.670	0.196	0.246
-423.544	-13.614	-0.866	0.559
-422.530	-53.820	0.319	-0.145
-421.515	257.094	-0.235	-0.403
-420.500	80.502	0.072	-0.077
-419.486	800.000	-0.214	0.726
-418.471	145.640	-0.319	0.426
-417.457	264.778	-0.300	0.521
-416.442	97.920	-0.131	-0.151
-415.428	-160.378	-0.438	-0.023
-414.413	-164.910	-0.354	0.016
-413.398	-200.000	0.073	0.323
-412.384	-102.552	0.312	0.074
-411.369	-0.688	-0.427	0.302
-410.355	-9.232	-0.977	0.651
-409.340	800.000	-0.129	-0.436
-408.325	222.062	-0.607	0.973
-407.311	52.842	-0.446	-0.424
-406.296	30.921	-0.503	-0.429
-405.282	800.000	-0.119	-0.454
-404.267	-200.000	-0.043	-0.303
-403.252	76.659	0.522	0.551
-402.238	-73.353	-0.260	0.095
-401.223	185.669	-0.452	0.668
-400.209	-200.000	0.531	-0.001
-399.194	-200.000	0.098	0.527
-398.179	243.201	0.583	-0.974
-397.165	-200.000	0.000	0.463
-396.150	47.757	0.689	-0.641
-395.136	-3.076	0.321	0.223
-394.121	800.000	0.107	0.421
-393.106	-124.139	-0.910	0.142
-392.092	-200.000	-0.072	0.512
-391.077	-27.307	0.794	0.460
-390.063	-200.000	0.232	1.124
-389.048	166.783	0.453	0.640
-388.033	1.177	-0.617	0.441
-387.019	124.606	0.186	0.233
-386.004	-22.698	-0.189	0.114
-384.990	-89.795	0.203	0.059
-383.975	-29.603	0.673	-0.383
-382.960	-200.000	0.117	0.929
-381.946	-53.161	-0.491	-0.224
-380.931	-8.987	0.895	-0.596
-379.917	-122.075	-0.524	-0.086
-378.902	800.000	-0.220	-0.615
-377.888	-37.311	0.612	0.325
-376.873	20.396	0.999	-0.804
-375.858	-200.000	-0.114	-0.542
-374.844	-200.000	-0.030	0.746
-373.829	-178.091	-0.288	-0.007
-372.815	-115.527	1.154	0.216
-371.800	-37.594	0.405	0.215
-370.785	800.000	0.107	-0.298
-369.771	-61.281	-0.319	0.134
-368.756	-5.565	-0.729	0.498
-367.742	-200.000	0.005	-0.540
-366.727	-35.366	-0.356	-0.193
-365.712	-200.000	0.051	0.272
-364.698	-200.000	0.067	-0.368
-363.683	-200.000	0.024	-0.152
-362.669	337.560	-0.247	0.477
-361.654	800.000	-0.057	0.178
-360.639	214.597	0.189	0.298
-359.625	88.578	-0.410	0.454
-358.610	-200.000	-0.027	-0.442
-357.596	3.389	0.164	-0.119
-356.581	800.000	0.099	-0.308
-355.566	-101.400	0.470	0.114
-354.552	800.000	-0.078	0.234
-353.537	-48.484	-0.368	0.176
-352.523	800.000	0.150	0.493
-351.508	-72.214	-0.398	-0.147
-350.493	-86.456	1.065	-0.325
-349.479	592.475	0.081	-0.198
-348.464	228.246	-0.141	-0.228
-347.450	-189.431	-0.172	-0.002
-346.435	-41.832	-0.564	0.288
-345.420	-200.000	0.003	0.678
-344.406	131.894	-0.311	-0.397
-343.391	-200.000	0.122	-0.677
-342.377	50.165	0.468	0.439
-341.362	-18.539	0.352	0.218
-340.348	425.854	-0.429	0.919
-339.333	800.000	0.122	0.442
-338.318	-67.262	-0.950	-0.371
-337.304	-63.554	-0.527	0.215
-336.289	-200.000	0.207	-1.128
-335.275	-129.190	-0.406	0.056
-334.260	-190.761	-0.300	-0.003
-333.245	-70.318	-0.773	-0.291
-332.231	-88.871	0.596	-0.176
-331.216	-124.404	-0.109	0.017
-330.202	12.366	-0.386	-0.296
-329.187	20.152	0.251	0.201
-328.172	-101.159	1.120	-0.272
-327.158	-164.240	0.576	-0.026
-326.143	-132.103	-0.217	-0.028
-325.129	4.954	-0.265	0.194
-324.114	-200.000	-0.062	-0.542
-323.099	22.779	-0.478	-0.389
-322.085	59.141	0.482	0.471
-321.070	184.759	0.097	0.142
-320.056	-95.728	1.228	0.326
-319.041	-200.000	0.111	-0.717
-318.026	-67.519	0.521	-0.203
-317.012	-90.697	-0.379	-0.109
-315.997	-57.795	-0.597	-0.259
-314.983	800.000	-0.209	0.844
-313.968	375.814	-0.088	-0.177
-312.953	-137.490	-0.987	0.111
-311.939	-178.059	-0.993	0.023
-310.924	-7.664	0.521	0.349
-309.910	-54.851	-0.551	-0.247
-308.895	326.666	-0.225	0.429
-307.880	-200.000	-0.071	0.446
-306.866	-59.337	0.621	-0.265
-305.851	-12.673	-0.327	-0.212
-304.837	251.038	-0.393	-0.664
-303.822	-200.000	0.024	0.458
-302.807	409.959	-0.088	-0.186
-301.793	-200.000	0.091	-1.036
-300.778	800.000	0.189	-0.539
-299.764	-113.859	-0.026	-0.005
-298.749	328.459	0.148	-0.282
-297.735	765.356	-0.231	-0.623
-296.720	-200.000	0.003	-0.283
-295.705	-110.488	0.074	-0.015
-294.691	-121.768	-0.487	0.080
-293.676	-151.342	0.476	0.035
-292.662	-200.000	0.033	-0.263
-291.647	-96.010	0.438	-0.116
-290.632	269.645	-0.251	-0.438
-289.618	509.373	0.123	-0.284
-288.603	-19.824	-0.604	-0.370
-287.589	-50.694	0.356	-0.166
-286.574	-108.042	0.840	-0.181
-285.559	-65.911	-0.856	0.339
-284.545	-155.372	0.620	0.040
-283.530	103.174	-0.518	-0.601
-282.516	-200.000	-0.048	-0.700
-281.501	29.383	-0.250	0.211
-280.486	144.470	0.780	-1.032
-279.472	41.323	-0.429	-0.385
-278.457	-200.000	-0.070	-0.509
-277.443	-200.000	0.053	0.617
-276.428	-74.680	-0.453	-0.162
-275.413	-6.146	0.408	-0.276
-274.399	-72.119	-0.481	0.177
-273.384	-109.892	-0.125	0.026
-272.370	-30.285	-0.917	0.516
-271.355	-75.629	0.348	0.123
-270.340	121.226	-0.322	0.397
-269.326	-95.172	0.429	-0.115
-268.311	-6.164	-0.398	-0.269
-267.297	-84.377	-0.450	-0.141
-266.282	-191.632	0.586	-0.006
-265.267	332.299	0.157	-0.300
-264.253	-140.385	-0.511	0.053
-263.238	33.636	-0.330	0.285
-262.224	-66.437	-0.806	0.317
-261.209	-7.231	0.548	-0.368
-260.195	283.311	0.460	-0.818
-259.180	800.000	-0.312	-0.930
-258.165	-109.176	0.324	-0.068
-257.151	453.025	-0.245	-0.537
-256.136	60.062	0.331	-0.324
-255.122	-200.000	-0.127	-0.768
-254.107	-200.000	-0.037	-0.173
-253.092	-83.642	0.395	0.125
-252.078	-69.686	0.423	0.160
-251.063	80.625	-0.572	-0.610
-250.049	800.000	0.329	0.903
-249.034	800.000	0.178	-0.629
-248.019	-200.000	-0.046	0.491
-247.005	-43.388	0.775	-0.388
-245.990	-39.804	-0.159	0.082
-244.976	272.578	-0.702	1.227
-243.961	24.300	0.124	0.101
-242.946	92.078	0.153	-0.171
-241.932	584.431	0.215	0.524
-240.917	38.003	-0.718	0.632
-239.903	194.990	0.049	0.074
-238.888	-0.885	0.644	-0.451
-237.873	-70.372	-0.255	0.096
-236.859	-124.764	-0.262	0.040
-235.844	-92.803	0.592	0.164
-234.830	-200.000	-0.037	-0.278
-233.815	207.742	-0.189	-0.292
-232.800	61.730	-0.321	0.317
-231.786	12.357	-0.080	0.061
-230.771	108.314	-0.235	-0.278
-229.757	-39.392	-0.127	-0.066
-228.742	800.000	-0.132	0.472
-227.727	-30.099	-0.472	0.265
-226.713	-190.363	-0.992	0.011
-225.698	-200.000	0.121	-0.580
-224.684	100.220	0.369	0.423
-223.669	-88.031	-0.100	0.030
-222.655	-49.616	-0.512	-0.241
-221.640	-101.855	0.468	-0.112
-220.625	-99.706	-0.396	-0.098
-219.611	-89.073	-0.357	-0.104
-218.596	-5.345	0.496	-0.337
-217.582	-84.588	0.783	0.244
-216.567	-169.197	0.095	-0.003
-215.552	-68.813	0.351	0.134
-214.538	800.000	0.222	0.853
-213.523	-200.000	0.019	0.179
-212.509	-28.610	-0.292	0.166
-211.494	800.000	-0.104	-0.341
-210.479	199.909	-0.286	-0.434
-209.465	-200.000	-0.024	-0.485
-208.450	800.000	-0.104	0.405
-207.436	-52.848	0.338	-0.154
-206.421	68.053	-0.559	-0.566
-205.406	446.247	0.323	0.701
-204.392	78.952	0.724	0.766
-203.377	-118.162	-0.369	0.065
-202.363	267.195	-0.247	-0.427
-201.348	-82.436	0.514	-0.165
-200.333	21.483	0.487	-0.391
-199.319	-200.000	0.004	-0.903
-198.304	102.710	-0.333	0.385
-197.290	-45.248	-0.906	0.445
-196.275	247.461	-0.380	0.634
-195.260	-121.574	0.958	-0.157
-194.246	800.000	-0.082	-0.261
-193.231	471.952	-0.449	0.998
-192.217	-49.209	-0.170	-0.080
-191.202	-200.000	-0.074	0.848
-190.187	46.275	0.282	0.258
-189.173	244.977	0.132	-0.219
-188.158	800.000	0.108	0.410
-187.144	-0.697	-0.456	-0.319
-186.129	-186.122	-0.396	0.006
-185.114	-1.751	-0.621	-0.432
-184.100	71.336	-0.260	0.267
-183.085	57.194	-0.285	0.274
-182.071	-131.101	-0.576	-0.076
-181.056	800.000	0.249	-0.840
-180.042	-154.426	0.122	0.008
-179.027	170.683	0.329	-0.465
-178.012	40.780	0.073	0.065
-176.998	147.348	0.487	-0.648
-175.983	-200.000	-0.085	-0.433
-174.969	800.000	-0.073	-0.256
-173.954	498.319	-0.136	-0.310
-172.939	127.418	0.235	0.294
-171.925	31.882	0.179	0.152
-170.910	-200.000	-0.016	-0.124
-169.896	800.000	0.303	-0.994
-168.881	-162.843	0.242	-0.012
-167.866	800.000	-0.166	-0.563
-166.852	-78.813	-0.355	-0.119
-165.837	107.330	0.280	0.328
-164.823	-47.193	0.693	0.333
-163.808	-200.000	0.256	1.395
-162.793	800.000	0.237	0.660
-161.779	251.116	0.332	-0.557
-160.764	-147.425	1.130	-0.094
-159.750	-200.000	-0.010	0.222
-158.735	-93.342	0.289	-0.079
-157.720	25.950	0.418	-0.344
-156.706	74.149	0.177	-0.183
-155.691	-165.199	0.450	-0.020
-154.677	-178.188	0.545	-0.013
-153.662	-168.875	0.688	0.026
-152.647	-101.935	-0.329	0.078
-151.633	380.005	-0.434	-0.877
-150.618	99.470	0.280	-0.319
-149.604	539.538	0.043	0.102
-148.589	-105.658	-0.501	0.112
-147.574	-200.000	0.113	-0.747
-146.560	-35.653	0.353	-0.189
-145.545	-23.889	0.378	0.223
-144.531	224.427	0.418	0.666
-143.516	-107.012	-0.030	0.007
-142.502	-200.000	0.039	0.350
-141.487	-4.050	0.615	0.420
-140.472	-83.161	0.388	0.123
-139.458	71.605	0.535	0.548
-138.443	6.321	-0.551	-0.403
-137.429	-13.134	-0.339	0.217
-136.414	-101.437	0.740	-0.178
-135.399	187.200	0.222	0.327
-134.385	239.010	0.507	-0.831
-133.370	-89.149	-0.453	-0.132
-132.356	67.782	-0.304	-0.306
-131.341	293.531	-0.643	1.156
-130.326	230.271	0.326	0.525
-129.312	-200.000	0.079	0.498
-128.297	-200.000	0.014	0.684
-127.283	281.349	-0.235	0.415
-126.268	222.094	-0.173	-0.274
-125.253	800.000	-0.280	-1.005
-124.239	800.000	-0.075	0.318
-123.224	-61.770	-0.562	0.232
-122.210	-4.960	-0.768	-0.521
-121.195	800.000	0.139	0.514
