DTS Sentinel unit serial number:	SN413079Multiplexer serial number:	ORYXHardware model number:	OX4-SRSoftware version number:	ORYX F/W v4.00 Oryx Data Collector v3.7.2.0data status	okinstallation	princeton_trtdifferential loss correction	single-endedforward channel	channel 1reverse channel	N/Adate	2019/09/11time	10:48:11forward acquisition time	60.00reverse acquisition time	0.00gamma	496.2192k internal	0.2298k external	0.2298temperature offset calibration	0.9952default loss term (dB/km)	0.3790temperature slope calibration	1.0000multiplexer offset coefficient	1.0000multiplexer slope coefficient	1.0000fibre end	0.00T internal ref (°C)	36.87T ext. ref 1 (°C)	0.17T ext. ref 2 (°C)	33.64length (m)	temperature (°C)	Stokes	anti-Stokes-747.200	-140.715	-0.060	0.006
-746.185	293.864	0.127	0.237
-745.171	40.710	0.190	-0.175
-744.156	-200.000	-0.020	0.238
-743.142	138.695	-0.047	0.063
-742.127	366.665	0.159	0.329
-741.112	-112.913	-0.242	0.049
-740.098	-30.771	0.193	0.111
-739.083	-200.000	-0.012	-0.078
-738.069	-200.000	-0.032	-0.235
-737.054	-177.898	0.278	0.007
-736.039	-200.000	0.082	0.000
-735.025	-178.035	0.265	-0.006
-734.010	-64.689	-0.344	-0.142
-732.996	800.000	-0.058	-0.251
-731.981	800.000	0.037	0.133
-730.966	800.000	0.059	-0.220
-729.952	-21.293	0.130	0.081
-728.937	-200.000	0.009	-0.079
-727.923	-200.000	-0.011	0.222
-726.908	-33.664	-0.189	0.106
-725.894	144.420	0.120	0.163
-724.879	-200.000	-0.020	-0.215
-723.864	106.211	0.105	-0.128
-722.850	-18.173	0.306	-0.195
-721.835	-200.000	0.024	-0.182
-720.821	395.664	-0.125	-0.266
-719.806	27.229	-0.220	-0.188
-718.791	-57.770	0.037	-0.016
-717.777	-22.951	0.392	-0.241
-716.762	-96.704	0.121	-0.032
-715.748	-184.893	-0.271	0.004
-714.733	-26.086	0.171	-0.102
-713.718	156.839	0.090	0.127
-712.704	-200.000	-0.019	-0.220
-711.689	48.318	-0.148	-0.141
-710.675	-2.151	0.184	-0.132
-709.660	-78.239	0.117	-0.041
-708.645	-144.648	-0.304	0.029
-707.631	-200.000	-0.026	-0.539
-706.616	-77.815	0.188	-0.066
-705.602	51.912	-0.048	-0.046
-704.587	152.114	-0.087	-0.121
-703.572	166.430	0.230	-0.332
-702.558	-200.000	0.003	0.018
-701.543	21.315	-0.331	0.274
-700.529	800.000	0.092	-0.304
-699.514	65.972	-0.134	-0.138
-698.499	-135.684	0.245	0.030
-697.485	-164.257	-0.270	-0.013
-696.470	800.000	0.059	-0.183
-695.456	7.599	0.149	-0.114
-694.441	-25.368	-0.150	0.090
-693.426	5.208	0.165	-0.124
-692.412	-145.247	0.165	0.015
-691.397	-37.099	0.085	0.046
-690.383	183.165	0.068	0.103
-689.368	-111.772	0.194	0.040
-688.354	409.432	-0.078	0.168
-687.339	-142.141	0.183	0.018
-686.324	-16.495	0.135	-0.087
-685.310	369.649	-0.056	-0.115
-684.295	653.206	-0.139	-0.363
-683.281	-135.779	0.252	0.030
-682.266	49.653	-0.074	0.071
-681.251	32.874	0.177	-0.156
-680.237	-200.000	0.088	-0.446
-679.222	-101.612	0.339	-0.084
-678.208	-137.155	0.251	-0.029
-677.193	-81.659	-0.142	0.047
-676.178	209.360	0.138	-0.220
-675.164	-155.896	-0.214	0.014
-674.149	-63.535	-0.143	0.060
-673.135	197.314	0.174	-0.271
-672.120	-90.628	0.222	-0.065
-671.105	66.192	0.125	0.130
-670.091	-200.000	-0.022	-0.273
-669.076	22.036	0.160	0.133
-668.062	73.485	0.075	-0.080
-667.047	307.393	-0.151	-0.287
-666.032	-86.242	0.204	-0.064
-665.018	800.000	0.125	-0.375
-664.003	455.112	0.047	0.105
-662.989	13.430	0.167	-0.132
-661.974	131.870	0.055	-0.072
-660.959	43.986	0.094	0.087
-659.945	139.116	-0.138	-0.185
-658.930	-133.032	0.303	-0.039
-657.916	-43.101	0.205	0.106
-656.901	800.000	0.026	0.077
-655.886	83.943	-0.093	-0.103
-654.872	-115.346	-0.228	-0.044
-653.857	28.392	-0.099	0.085
-652.843	-200.000	-0.005	0.105
-651.828	-54.140	-0.159	0.074
-650.814	73.459	-0.186	-0.198
-649.799	-103.860	-0.115	-0.027
-648.784	-110.512	0.314	-0.066
-647.770	-36.379	0.315	0.173
-646.755	36.840	-0.139	-0.125
-645.741	381.359	-0.166	0.347
-644.726	161.560	-0.126	0.179
-643.711	90.726	-0.305	-0.348
-642.697	-21.422	0.232	-0.144
-641.682	-58.766	-0.250	0.110
-640.668	100.418	-0.235	0.277
-639.653	-200.000	-0.004	0.160
-638.638	308.987	-0.102	0.195
-637.624	-28.655	0.173	0.101
-636.609	-111.987	-0.151	-0.031
-635.595	358.954	-0.136	-0.276
-634.580	800.000	0.196	-0.557
-633.565	-67.975	0.124	-0.049
-632.551	-200.000	0.003	-0.021
-631.536	800.000	0.009	0.029
-630.522	800.000	0.059	-0.169
-629.507	-16.615	-0.330	-0.212
-628.492	-3.028	-0.397	-0.282
-627.478	-61.547	0.267	0.114
-626.463	-7.167	-0.277	-0.191
-625.449	-200.000	0.007	-0.292
-624.434	-135.720	0.171	0.021
-623.419	-90.242	-0.328	0.097
-622.405	24.986	-0.167	0.141
-621.390	97.746	0.097	0.113
-620.376	-84.646	0.095	0.030
-619.361	289.775	0.085	-0.157
-618.346	52.802	0.102	-0.099
-617.332	-68.659	-0.261	0.103
-616.317	-198.536	-0.247	0.001
-615.303	-200.000	0.032	-0.152
-614.288	-200.000	-0.053	0.392
-613.273	-94.416	0.329	0.091
-612.259	-135.815	0.252	0.030
-611.244	258.340	0.244	0.426
-610.230	-200.000	-0.006	-0.242
-609.215	800.000	0.020	-0.074
-608.201	800.000	-0.017	0.063
-607.186	166.163	0.095	0.137
-606.171	-79.383	0.289	0.099
-605.157	-200.000	-0.009	0.096
-604.142	-200.000	0.017	0.269
-603.128	-131.193	0.160	0.022
-602.113	-200.000	0.010	0.098
-601.098	-11.277	-0.164	0.110
-600.084	-90.789	-0.154	-0.045
-599.069	-64.541	0.216	-0.089
-598.055	800.000	-0.114	0.416
-597.040	227.900	0.178	0.294
-596.025	-200.000	0.032	-0.191
-595.011	-200.000	0.000	-0.046
-593.996	-30.332	-0.146	0.084
-592.982	-155.840	-0.350	0.023
-591.967	218.040	0.197	0.319
-590.952	-175.515	0.206	-0.006
-589.938	174.647	-0.166	-0.244
-588.923	111.651	-0.082	-0.100
-587.909	800.000	-0.076	0.241
-586.894	355.521	0.094	-0.189
-585.879	195.507	-0.097	-0.149
-584.865	249.123	0.201	-0.345
-583.850	-78.161	0.129	0.045
-582.836	800.000	0.086	0.243
-581.821	-29.106	-0.164	0.095
-580.806	800.000	0.152	0.430
-579.792	136.474	-0.156	-0.207
-578.777	53.755	0.114	-0.111
-577.763	-200.000	0.046	-0.282
-576.748	-45.889	0.264	-0.132
-575.733	-98.780	-0.167	-0.043
-574.719	357.557	-0.174	0.352
-573.704	25.605	-0.143	-0.121
-572.690	46.099	-0.171	0.161
-571.675	-49.570	-0.177	0.086
-570.661	266.365	0.011	0.019
-569.646	82.998	0.163	0.180
-568.631	-200.000	0.035	0.253
-567.617	19.049	0.256	0.208
-566.602	-200.000	-0.008	-0.345
-565.588	-42.895	-0.159	-0.082
-564.573	-145.750	-0.198	0.018
-563.558	-200.000	0.022	-0.328
-562.544	102.567	0.066	-0.079
-561.529	-69.229	0.120	0.047
-560.515	5.224	0.196	0.147
-559.500	-116.285	-0.360	-0.068
-558.485	800.000	-0.074	0.255
-557.471	-35.125	-0.157	0.086
-556.456	242.325	0.076	0.129
-555.442	776.665	-0.084	0.232
-554.427	-53.035	0.392	-0.183
-553.412	-65.068	-0.119	-0.049
-552.398	-146.120	0.091	0.008
-551.383	-88.530	0.555	-0.168
-550.369	-200.000	-0.015	-0.210
-549.354	54.843	0.180	-0.176
-548.339	85.959	-0.078	-0.087
-547.325	143.936	-0.083	-0.112
-546.310	-200.000	-0.028	-0.147
-545.296	334.697	-0.021	0.040
-544.281	-81.703	0.117	-0.039
-543.266	-200.000	0.051	0.363
-542.252	-138.697	-0.012	0.001
-541.237	190.186	0.102	0.155
-540.223	54.580	0.172	0.168
-539.208	-200.000	0.005	-0.120
-538.193	-200.000	-0.033	-0.157
-537.179	32.680	0.085	-0.074
-536.164	162.198	0.139	-0.197
-535.150	69.306	-0.122	-0.127
-534.135	-119.081	0.086	0.015
-533.121	-64.028	-0.062	-0.026
-532.106	-72.559	0.066	0.025
-531.091	-128.723	-0.154	0.022
-530.077	-53.690	-0.076	-0.035
-529.062	-53.513	0.077	0.036
-528.048	173.849	-0.055	0.081
-527.033	178.356	-0.186	-0.275
-526.018	-72.087	0.267	0.100
-525.004	-44.589	-0.128	0.065
-523.989	800.000	-0.035	-0.125
-522.975	172.287	-0.088	0.129
-521.960	-126.837	0.393	0.059
-520.945	57.016	-0.126	0.125
-519.931	-5.405	0.094	-0.065
-518.916	-200.000	-0.030	0.260
-517.902	-200.000	0.018	-0.103
-516.887	800.000	0.021	0.085
-515.872	67.310	0.171	-0.176
-514.858	-49.525	-0.298	-0.144
-513.843	2.974	-0.159	-0.117
-512.829	-200.000	0.018	-0.221
-511.814	-126.551	0.103	-0.015
-510.799	-158.558	-0.123	-0.007
-509.785	432.014	0.061	-0.133
-508.770	49.718	-0.217	0.207
-507.756	24.790	0.104	0.087
-506.741	-89.911	-0.083	0.024
-505.726	458.528	-0.104	0.235
-504.712	-18.954	-0.408	-0.257
-503.697	-77.666	0.083	0.029
-502.683	-167.661	-0.194	-0.008
-501.668	8.617	0.271	-0.207
-500.653	23.908	0.230	0.192
-499.639	249.665	-0.118	-0.202
-498.624	4.818	0.017	0.013
-497.610	800.000	-0.109	0.321
-496.595	-200.000	-0.062	-0.303
-495.581	-13.509	0.256	0.168
-494.566	-200.000	-0.020	0.241
-493.551	311.050	-0.086	0.164
-492.537	-200.000	-0.032	-0.220
-491.522	-113.770	-0.184	0.036
-490.508	4.847	-0.233	-0.173
-489.493	-200.000	0.058	0.327
-488.478	-20.851	0.371	0.230
-487.464	69.398	-0.140	-0.146
-486.449	-86.403	-0.366	-0.114
-485.435	-200.000	-0.008	-0.178
-484.420	-108.205	0.380	-0.083
-483.405	6.165	-0.126	0.094
-482.391	-11.687	-0.163	-0.108
-481.376	-200.000	0.015	-0.112
-480.362	224.927	-0.136	0.222
-479.347	-88.926	-0.223	0.067
-478.332	736.636	0.099	0.267
-477.318	-200.000	-0.009	-0.217
-476.303	36.649	0.111	-0.099
-475.289	-77.982	0.163	0.057
-474.274	-141.311	-0.303	0.031
-473.259	-7.316	0.237	-0.162
-472.245	708.752	-0.116	-0.311
-471.230	34.997	0.320	0.283
-470.216	-200.000	0.031	-0.145
-469.201	-9.790	-0.191	-0.128
-468.186	122.546	-0.087	-0.109
-467.172	-55.929	-0.348	-0.157
-466.157	-129.654	-0.278	-0.039
-465.143	321.141	0.076	-0.145
-464.128	-200.000	0.041	0.231
-463.113	-42.510	0.200	-0.103
-462.099	800.000	0.177	-0.560
-461.084	54.196	-0.146	-0.142
-460.070	21.075	0.262	-0.214
-459.055	-107.885	0.343	0.075
-458.040	-118.301	-0.265	-0.048
-457.026	-142.899	0.175	0.017
-456.011	-44.248	-0.119	-0.060
-454.997	3.583	-0.059	-0.044
-453.982	-166.992	0.581	0.024
-452.968	524.289	0.017	0.041
-451.953	12.770	0.291	0.227
-450.938	800.000	-0.061	0.231
-449.924	-200.000	-0.015	0.170
-448.909	30.943	0.085	0.073
-447.895	163.296	0.204	-0.289
-446.880	115.785	0.194	-0.239
-445.865	-126.582	-0.195	0.029
-444.851	-200.000	0.032	0.195
-443.836	678.388	-0.056	0.148
-442.822	-200.000	-0.026	-0.163
-441.807	615.020	0.040	0.102
-440.792	-56.461	-0.250	0.112
-439.778	97.927	-0.152	0.176
-438.763	450.974	0.052	0.116
-437.749	-75.863	0.234	0.083
-436.734	245.260	-0.176	0.299
-435.719	-200.000	0.006	0.194
-434.705	30.132	-0.179	0.154
-433.690	167.460	-0.032	-0.046
-432.676	-200.000	0.013	-0.344
-431.661	-150.512	0.385	-0.030
-430.646	7.824	-0.045	0.034
-429.632	800.000	-0.044	0.160
-428.617	800.000	-0.031	0.113
-427.603	145.164	0.253	0.342
-426.588	-200.000	0.021	0.116
-425.573	-69.036	-0.144	-0.056
-424.559	-44.285	-0.336	0.170
-423.544	46.801	-0.116	-0.109
-422.530	258.578	-0.093	-0.161
-421.515	88.383	-0.023	0.026
-420.500	-25.645	0.154	0.092
-419.486	-80.038	0.345	-0.117
-418.471	1.627	-0.154	0.112
-417.457	39.062	-0.073	0.066
-416.442	-108.265	-0.324	0.071
-415.428	301.255	0.236	-0.439
-414.413	-59.637	-0.059	0.025
-413.398	-89.249	-0.221	0.066
-412.384	-128.577	-0.037	-0.005
-411.369	112.290	-0.101	-0.123
-410.355	-200.000	0.041	-0.419
-409.340	-73.293	0.257	0.095
-408.325	800.000	-0.020	0.072
-407.311	-98.233	0.220	0.057
-406.296	-200.000	0.008	-0.070
-405.282	-77.372	0.163	-0.057
-404.267	-42.833	-0.363	-0.186
-403.252	389.397	0.066	-0.139
-402.238	-200.000	0.050	-0.262
-401.223	-200.000	0.003	0.016
-400.209	348.527	-0.066	-0.131
-399.194	-140.533	-0.322	-0.034
-398.179	-44.238	-0.109	-0.055
-397.165	-34.952	-0.229	0.126
-396.150	-135.989	0.290	-0.034
-395.136	18.079	0.102	-0.082
-394.121	800.000	0.017	-0.074
-393.106	178.392	0.088	0.130
-392.092	-36.921	-0.208	-0.112
-391.077	-106.473	0.159	-0.036
-390.063	-42.180	-0.118	0.061
-389.048	94.344	-0.090	0.102
-388.033	-59.933	-0.167	-0.072
-387.019	800.000	-0.049	0.162
-386.004	-126.077	-0.305	-0.046
-384.990	-2.322	0.206	-0.145
-383.975	-27.070	-0.211	-0.124
-382.960	7.314	0.221	-0.166
-381.946	172.218	-0.060	0.087
-380.931	308.097	0.045	-0.084
-379.917	-22.221	-0.247	-0.151
-378.902	-200.000	0.015	-0.146
-377.888	16.989	-0.452	-0.361
-376.873	231.406	0.115	-0.190
-375.858	-5.965	-0.138	-0.095
-374.844	31.260	0.129	-0.112
-373.829	800.000	-0.072	0.283
-372.815	-200.000	-0.023	-0.119
-371.800	-121.544	0.157	0.026
-370.785	-76.779	-0.246	-0.087
-369.771	-85.583	-0.143	-0.045
-368.756	-9.161	-0.204	0.137
-367.742	-11.476	-0.171	0.113
-366.727	520.912	-0.052	-0.123
-365.712	-77.022	-0.059	0.021
-364.698	435.268	-0.210	0.459
-363.683	800.000	-0.065	-0.254
-362.669	-200.000	-0.000	0.114
-361.654	12.836	-0.100	0.078
-360.639	-82.680	0.346	-0.113
-359.625	-104.717	0.089	-0.021
-358.610	-200.000	-0.236	0.001
-357.596	-200.000	-0.069	0.351
-356.581	304.953	0.093	-0.173
-355.566	800.000	0.065	0.199
-354.552	-66.075	-0.280	-0.112
-353.537	800.000	-0.071	-0.205
-352.523	-200.000	-0.011	-0.154
-351.508	-137.337	0.359	0.041
-350.493	66.467	0.091	0.093
-349.479	58.571	0.203	-0.200
-348.464	349.752	0.146	0.289
-347.450	-125.625	0.544	0.083
-346.435	-123.342	0.421	-0.068
-345.420	82.165	0.189	0.206
-344.406	164.834	0.123	-0.175
-343.391	-152.234	-0.070	-0.005
-342.377	-200.000	-0.047	0.233
-341.362	-200.000	-0.017	0.194
-340.348	-200.000	0.010	0.075
-339.333	252.260	-0.048	0.082
-338.318	169.144	0.222	0.318
-337.304	-131.403	0.379	0.050
-336.289	-68.426	0.238	-0.093
-335.275	800.000	-0.064	-0.182
-334.260	0.714	-0.302	0.217
-333.245	86.565	-0.075	0.083
-332.231	-79.754	-0.171	-0.058
-331.216	-189.037	-0.151	-0.002
-330.202	386.831	-0.113	0.236
-329.187	333.638	-0.106	-0.206
-328.172	583.856	-0.105	-0.258
-327.158	-171.652	-0.447	0.015
-326.143	-21.706	-0.107	0.066
-325.129	428.263	-0.142	0.307
-324.114	-121.719	-0.106	-0.018
-323.099	-133.180	-0.265	-0.034
-322.085	-17.776	-0.137	0.086
-321.070	800.000	0.073	0.233
-320.056	-200.000	-0.017	0.092
-319.041	-17.319	0.231	-0.146
-318.026	54.292	0.150	-0.145
-317.012	-3.258	0.281	-0.196
-315.997	-73.559	-0.150	-0.055
-314.983	-200.000	0.009	-0.337
-313.968	-200.000	-0.015	0.272
-312.953	169.950	0.070	-0.100
-311.939	-172.312	-0.201	-0.006
-310.924	57.612	-0.204	-0.200
-309.910	-151.315	-0.092	-0.007
-308.895	-95.015	-0.255	-0.069
-307.880	182.067	0.154	0.227
-306.866	124.759	0.183	0.232
-305.851	-83.564	0.439	0.141
-304.837	153.370	-0.141	-0.194
-303.822	-28.717	0.152	-0.088
-302.807	800.000	-0.088	0.256
-301.793	-200.000	-0.027	0.134
-300.778	-200.000	-0.040	0.204
-299.764	-200.000	0.045	0.508
-298.749	157.398	0.078	-0.108
-297.735	10.675	0.204	0.156
-296.720	134.231	-0.113	-0.147
-295.705	462.494	-0.043	-0.097
-294.691	-62.160	-0.213	0.089
-293.676	118.856	-0.026	0.032
-292.662	-132.999	-0.181	0.023
-291.647	-21.541	-0.215	-0.132
-290.632	-144.886	0.232	0.021
-289.618	170.864	-0.090	-0.129
-288.603	800.000	-0.113	-0.410
-287.589	-112.617	0.237	-0.047
-286.574	44.673	-0.046	0.043
-285.559	73.696	0.123	-0.130
-284.545	53.910	-0.263	0.254
-283.530	20.049	-0.184	-0.148
-282.516	-149.919	0.246	0.019
-281.501	-200.000	-0.013	0.216
-280.486	800.000	0.007	-0.022
-279.472	-200.000	-0.048	-0.224
-278.457	-10.938	0.385	0.255
-277.443	-50.573	0.329	-0.155
-276.428	150.293	-0.201	-0.273
-275.413	248.654	0.239	-0.406
-274.399	46.090	-0.203	0.189
-273.384	62.856	-0.081	0.082
-272.370	639.069	0.091	0.232
-271.355	-200.000	-0.034	-0.224
-270.340	800.000	-0.089	-0.348
-269.326	313.831	-0.179	0.338
-268.311	-200.000	0.060	-0.272
-267.297	-4.855	0.101	-0.069
-266.282	-79.542	-0.162	-0.055
-265.267	89.026	-0.059	0.065
-264.253	-200.000	0.023	0.216
-263.238	-177.026	0.186	0.005
-262.224	665.478	0.069	-0.179
-261.209	-92.559	0.216	-0.061
-260.195	-191.728	-0.094	-0.001
-259.180	-5.465	-0.213	-0.146
-258.165	800.000	0.046	0.130
-257.151	-200.000	-0.043	0.213
-256.136	-103.094	0.122	0.029
-255.122	9.766	0.122	0.093
-254.107	-165.545	0.350	0.015
-253.092	144.027	-0.234	0.313
-252.078	627.874	0.095	-0.239
-251.063	-91.779	-0.174	0.050
-250.049	-174.235	0.363	-0.011
-249.034	-121.993	-0.176	-0.029
-248.019	-25.138	-0.127	0.075
-247.005	-11.413	-0.074	-0.049
-245.990	-24.747	-0.420	-0.250
-244.976	-200.000	-0.022	0.252
-243.961	470.312	0.102	0.230
-242.946	800.000	0.087	0.254
-241.932	-6.288	0.099	0.068
-240.917	-169.582	-0.120	0.004
-239.903	31.105	0.123	-0.105
-238.888	737.290	0.091	-0.245
-237.873	196.023	-0.149	0.226
-236.859	800.000	-0.102	0.293
-235.844	247.464	-0.131	0.222
-234.830	-105.539	0.201	0.046
-233.815	-46.262	-0.359	-0.177
-232.800	-42.303	-0.181	-0.092
-231.786	-115.986	-0.165	-0.031
-230.771	-200.000	-0.039	-0.208
-229.757	642.123	0.050	-0.127
-228.742	-64.891	0.233	-0.094
-227.727	229.258	-0.065	-0.106
-226.713	-90.815	0.196	0.057
-225.698	-200.000	0.001	-0.261
-224.684	800.000	-0.095	-0.287
-223.669	-123.519	0.405	0.064
-222.655	-41.186	0.147	0.076
-221.640	411.993	-0.051	0.108
-220.625	174.018	-0.097	-0.140
-219.611	23.089	-0.099	0.081
-218.596	48.577	-0.236	-0.221
-217.582	-22.969	0.198	-0.119
-216.567	798.315	0.065	0.180
-215.552	-12.843	0.136	-0.089
-214.538	6.030	-0.171	-0.127
-213.523	-200.000	-0.012	0.250
-212.509	-7.633	-0.209	0.141
-211.494	-108.938	-0.221	-0.047
-210.479	-200.000	0.020	0.091
-209.465	14.946	-0.134	0.105
-208.450	215.073	-0.126	0.200
-207.436	-115.638	-0.161	-0.030
-206.421	-147.421	-0.318	-0.027
-205.406	800.000	-0.049	0.162
-204.392	-200.000	-0.017	0.253
-203.377	-40.897	0.309	-0.160
-202.363	-159.022	0.148	-0.008
-201.348	-38.215	0.205	0.109
-200.333	-67.138	-0.212	-0.083
-199.319	133.622	0.115	0.149
-198.304	71.521	0.158	-0.164
-197.290	166.652	-0.114	0.162
-196.275	0.356	0.228	-0.163
-195.260	28.283	0.047	0.040
-194.246	275.815	0.205	0.363
-193.231	-76.776	-0.235	-0.082
-192.217	-66.589	0.120	-0.048
-191.202	-200.000	-0.080	0.404
-190.187	800.000	0.050	0.156
-189.173	535.152	0.143	-0.340
-188.158	800.000	-0.072	0.251
-187.144	405.254	0.172	0.363
-186.129	-163.868	0.123	0.006
-185.114	800.000	-0.092	0.325
-184.100	185.001	0.137	-0.202
-183.085	264.166	-0.075	-0.131
-182.071	800.000	-0.103	-0.382
-181.056	-104.149	0.171	-0.040
-180.042	278.761	0.065	-0.115
-179.027	610.214	0.039	-0.098
-178.012	800.000	-0.035	-0.118
-176.998	-52.879	0.353	-0.162
-175.983	468.762	-0.117	-0.262
-174.969	800.000	-0.129	-0.361
-173.954	-200.000	-0.006	-0.185
-172.939	800.000	-0.013	-0.051
-171.925	-200.000	-0.007	0.297
-170.910	70.233	-0.094	0.097
-169.896	800.000	-0.058	0.215
-168.881	800.000	-0.055	0.202
-167.866	-43.254	0.350	-0.177
-166.852	800.000	0.076	0.294
-165.837	4.733	0.208	0.152
-164.823	59.741	0.177	-0.174
-163.808	-63.094	-0.129	0.053
-162.793	-42.211	-0.371	-0.189
-161.779	88.326	-0.097	-0.107
-160.764	146.411	-0.056	-0.076
-159.750	91.815	0.168	-0.189
-158.735	-65.818	0.120	-0.048
-157.720	179.796	0.240	0.351
-156.706	-13.949	-0.161	0.104
-155.691	-130.850	0.446	-0.060
-154.677	154.222	0.221	-0.303
-153.662	67.252	-0.156	-0.159
-152.647	77.834	0.307	0.326
-151.633	-142.778	0.231	-0.022
-150.618	-40.767	0.491	0.254
-149.604	-200.000	0.050	0.307
-148.589	744.168	-0.050	0.134
-147.574	397.557	0.035	-0.073
-146.560	-5.746	-0.231	-0.158
-145.545	498.277	0.231	0.532
-144.531	116.677	0.092	-0.112
-143.516	615.832	0.063	0.157
-142.502	121.224	-0.054	0.067
-141.487	69.819	-0.193	0.198
-140.472	-29.405	0.343	-0.196
-139.458	17.934	-0.152	-0.121
-138.443	-200.000	0.014	0.147
-137.429	56.273	-0.130	-0.126
-136.414	89.590	0.068	-0.075
-135.399	-200.000	0.031	-0.304
-134.385	274.296	0.212	-0.374
-133.370	-200.000	0.015	0.082
-132.356	-44.031	-0.215	-0.107
-131.341	-109.200	0.164	-0.035
-130.326	-60.832	0.148	-0.062
-129.312	112.449	-0.125	0.151
-128.297	78.869	-0.238	0.253
-127.283	352.252	-0.074	-0.146
-126.268	-70.321	0.304	0.115
-125.253	20.642	0.151	0.122
-124.239	-96.541	0.314	-0.083
-123.224	61.716	-0.198	-0.197
-122.210	347.450	0.119	-0.233
-121.195	800.000	0.068	-0.226
