DTS Sentinel unit serial number:	SN413079Multiplexer serial number:	ORYXHardware model number:	OX4-SRSoftware version number:	ORYX F/W v4.00 Oryx Data Collector v3.7.2.0data status	okinstallation	princeton_trtdifferential loss correction	single-endedforward channel	channel 1reverse channel	N/Adate	2019/09/18time	08:58:35forward acquisition time	60.00reverse acquisition time	0.00gamma	496.2192k internal	0.2335k external	0.2335temperature offset calibration	0.9974default loss term (dB/km)	0.3790temperature slope calibration	1.0000multiplexer offset coefficient	1.0000multiplexer slope coefficient	1.0000fibre end	0.00T internal ref (°C)	25.00T ext. ref 1 (°C)	0.23T ext. ref 2 (°C)	21.56length (m)	temperature (°C)	Stokes	anti-Stokes-747.200	-83.409	-0.102	0.033
-746.185	-19.224	0.180	-0.113
-745.171	-200.000	0.005	-0.077
-744.156	-123.868	-0.027	0.004
-743.142	-102.691	-0.078	0.019
-742.127	800.000	-0.121	0.385
-741.112	-200.000	0.036	0.178
-740.098	17.482	-0.263	0.210
-739.083	327.611	0.182	-0.350
-738.069	180.465	-0.170	0.251
-737.054	-200.000	0.006	0.156
-736.039	188.408	-0.255	0.383
-735.025	227.449	0.109	0.179
-734.010	171.499	0.069	-0.099
-732.996	-28.182	-0.338	-0.196
-731.981	-69.298	-0.119	-0.046
-730.966	416.625	-0.147	0.315
-729.952	-19.678	-0.198	0.123
-728.937	69.082	0.114	-0.118
-727.923	-200.000	-0.032	-0.142
-726.908	677.005	0.141	0.367
-725.894	142.280	0.066	-0.088
-724.879	-4.460	-0.254	-0.176
-723.864	-122.313	-0.072	0.012
-722.850	-200.000	-0.017	-0.350
-721.835	-76.644	-0.342	-0.121
-720.821	244.033	-0.076	-0.129
-719.806	800.000	-0.002	0.007
-718.791	1.243	-0.095	-0.068
-717.777	-200.000	0.012	-0.164
-716.762	-200.000	0.006	0.095
-715.748	262.222	0.139	0.243
-714.733	-200.000	-0.024	0.156
-713.718	800.000	-0.075	-0.213
-712.704	63.558	-0.207	-0.208
-711.689	-107.761	0.308	0.067
-710.675	168.480	-0.121	-0.173
-709.660	-82.640	-0.169	-0.055
-708.645	-14.462	-0.116	-0.075
-707.631	-67.716	-0.004	-0.001
-706.616	83.630	-0.155	0.170
-705.602	1.820	0.246	0.178
-704.587	-199.493	-0.279	-0.001
-703.572	17.854	-0.383	-0.306
-702.558	-185.396	0.050	0.001
-701.543	346.456	-0.034	-0.068
-700.529	-200.000	-0.004	-0.348
-699.514	63.156	-0.188	0.189
-698.499	248.062	0.175	-0.297
-697.485	18.888	-0.227	-0.182
-696.470	5.402	0.220	0.163
-695.456	205.201	0.095	0.149
-694.441	37.312	0.140	-0.125
-693.426	-37.130	0.026	-0.014
-692.412	-186.535	0.293	0.004
-691.397	395.328	0.092	0.192
-690.383	-174.337	0.109	0.003
-689.368	466.149	-0.098	-0.220
-688.354	-30.015	-0.239	0.136
-687.339	108.434	0.178	-0.213
-686.324	17.501	-0.185	-0.148
-685.310	-72.344	0.437	0.162
-684.295	6.066	-0.279	0.207
-683.281	-74.050	-0.037	-0.013
-682.266	-165.171	0.204	-0.009
-681.251	-89.257	-0.153	0.045
-680.237	-116.355	-0.126	0.023
-679.222	-76.541	0.212	-0.075
-678.208	148.157	-0.223	-0.302
-677.193	101.796	-0.065	-0.076
-676.178	-108.589	0.263	-0.057
-675.164	-104.544	-0.226	0.052
-674.149	606.123	0.076	0.191
-673.135	371.025	0.117	0.238
-672.120	-127.874	-0.180	0.026
-671.105	-44.342	0.136	0.068
-670.091	-200.000	-0.047	-0.205
-669.076	-200.000	-0.050	0.334
-668.062	-7.419	0.096	0.065
-667.047	-200.000	0.034	-0.208
-666.032	273.936	-0.066	0.117
-665.018	-81.703	-0.413	-0.136
-664.003	259.347	0.189	-0.326
-662.989	-4.380	0.091	-0.063
-661.974	800.000	-0.018	-0.066
-660.959	-200.000	-0.000	-0.036
-659.945	85.644	-0.048	0.053
-658.930	-107.819	0.208	-0.045
-657.916	-200.000	-0.014	-0.246
-656.901	280.094	0.130	-0.233
-655.886	452.300	-0.071	0.158
-654.872	22.942	-0.268	-0.220
-653.857	-92.110	-0.179	-0.051
-652.843	-58.114	0.215	-0.094
-651.828	335.559	-0.164	-0.318
-650.814	647.214	-0.068	-0.175
-649.799	-64.784	-0.152	-0.062
-648.784	800.000	0.159	-0.543
-647.770	-51.737	-0.093	-0.043
-646.755	-34.666	0.195	0.106
-645.741	-12.539	-0.328	0.214
-644.726	405.816	0.122	0.257
-643.711	-126.428	-0.321	-0.048
-642.697	37.331	-0.382	0.338
-641.682	35.111	0.335	0.293
-640.668	-139.470	-0.175	0.019
-639.653	-200.000	0.009	-0.120
-638.638	-200.000	0.012	-0.324
-637.624	800.000	-0.042	0.172
-636.609	330.483	-0.061	0.117
-635.595	-200.000	-0.013	0.111
-634.580	-157.707	-0.197	0.012
-633.565	-113.599	0.139	-0.027
-632.551	-52.453	-0.218	0.101
-631.536	-200.000	0.010	-0.112
-630.522	-105.430	0.139	0.032
-629.507	800.000	-0.116	-0.412
-628.492	-27.110	-0.175	0.102
-627.478	-91.744	-0.205	-0.058
-626.463	-143.800	-0.097	-0.009
-625.449	-76.102	0.258	0.091
-624.434	159.788	0.112	-0.156
-623.419	-200.000	0.033	0.182
-622.405	-200.000	0.551	0.000
-621.390	800.000	0.122	0.454
-620.376	62.129	-0.172	-0.171
-619.361	58.036	0.166	-0.163
-618.346	287.067	0.102	-0.185
-617.332	-75.116	-0.171	-0.061
-616.317	-45.167	0.290	-0.144
-615.303	259.304	0.222	-0.383
-614.288	-200.000	0.006	-0.165
-613.273	-106.624	0.175	-0.039
-612.259	-200.000	-0.006	0.191
-611.244	344.502	0.088	0.173
-610.230	-137.712	-0.121	-0.014
-609.215	77.919	0.089	0.094
-608.201	-68.648	-0.350	-0.135
-607.186	-38.104	-0.050	0.027
-606.171	86.226	-0.143	0.158
-605.157	15.419	0.173	0.136
-604.142	321.808	0.032	-0.060
-603.128	32.866	-0.183	0.159
-602.113	800.000	-0.029	0.102
-601.098	691.256	-0.131	-0.342
-600.084	43.908	-0.028	0.025
-599.069	12.685	0.200	-0.154
-598.055	-145.942	-0.284	0.025
-597.040	116.612	0.071	0.086
-596.025	-200.000	0.033	-0.222
-595.011	-109.785	0.054	-0.011
-593.996	80.465	0.175	0.188
-592.982	-144.063	-0.068	-0.006
-591.967	145.283	-0.136	0.182
-590.952	-162.606	-0.112	0.006
-589.938	-200.000	-0.011	0.232
-588.923	19.766	-0.208	-0.167
-587.909	315.811	-0.086	-0.162
-586.894	13.391	-0.317	0.245
-585.879	797.769	-0.106	0.291
-584.865	800.000	0.082	0.293
-583.850	-95.280	0.289	0.078
-582.836	5.010	-0.241	0.177
-581.821	57.464	-0.190	0.186
-580.806	220.072	0.201	0.321
-579.792	194.640	0.107	0.162
-578.777	-200.000	0.004	0.082
-577.763	7.027	-0.208	-0.155
-576.748	10.999	-0.319	-0.243
-575.733	-109.810	0.173	-0.036
-574.719	800.000	-0.046	-0.156
-573.704	-77.581	0.260	-0.090
-572.690	91.130	0.083	-0.092
-571.675	-200.000	-0.081	0.367
-570.661	-200.000	-0.011	-0.247
-569.646	84.886	-0.165	-0.180
-568.631	-70.548	0.146	0.055
-567.617	431.915	-0.098	0.211
-566.602	20.283	-0.229	0.185
-565.588	-200.000	-0.023	-0.109
-564.573	-91.764	0.186	-0.053
-563.558	-143.486	-0.483	-0.046
-562.544	319.303	-0.108	-0.204
-561.529	207.270	0.095	0.148
-560.515	631.763	-0.044	0.110
-559.500	119.612	-0.208	0.257
-558.485	-10.566	0.187	0.123
-557.471	231.921	0.026	0.043
-556.456	61.995	-0.296	0.294
-555.442	400.493	-0.055	0.115
-554.427	453.206	0.148	0.326
-553.412	-200.000	-0.031	0.165
-552.398	-138.469	-0.364	-0.040
-551.383	-200.000	0.052	-0.237
-550.369	-101.399	0.214	0.052
-549.354	-200.000	-0.010	-0.128
-548.339	16.481	-0.127	-0.100
-547.325	-31.999	0.230	-0.128
-546.310	277.556	0.168	0.297
-545.296	206.857	0.123	-0.191
-544.281	76.612	0.168	-0.178
-543.266	-125.728	0.162	-0.024
-542.252	40.816	-0.206	-0.185
-541.237	32.028	-0.265	-0.227
-540.223	474.004	0.070	-0.158
-539.208	800.000	-0.048	0.185
-538.193	661.161	-0.026	-0.066
-537.179	122.306	-0.142	-0.176
-536.164	-173.692	-0.201	0.006
-535.150	137.962	-0.209	-0.272
-534.135	67.793	-0.271	-0.276
-533.121	81.080	-0.215	-0.232
-532.106	79.308	0.187	-0.199
-531.091	800.000	-0.131	-0.372
-530.077	800.000	0.130	-0.373
-529.062	26.106	0.257	-0.213
-528.048	-186.418	-0.241	0.003
-527.033	-23.095	0.111	0.067
-526.018	-62.880	0.258	-0.106
-525.004	-200.000	-0.008	-0.474
-523.989	-23.445	-0.162	-0.097
-522.975	800.000	0.127	0.435
-521.960	-158.417	0.055	0.003
-520.945	-3.650	-0.007	0.005
-519.931	214.675	-0.036	0.057
-518.916	237.452	-0.110	0.182
-517.902	-123.924	-0.085	0.013
-516.887	0.044	0.316	-0.224
-515.872	800.000	-0.037	-0.108
-514.858	-53.924	0.150	-0.068
-513.843	-200.000	0.037	0.207
-512.829	-200.000	-0.012	0.099
-511.814	212.521	0.153	-0.241
-510.799	-200.000	0.004	-0.201
-509.785	-103.203	0.179	-0.042
-508.770	-1.508	-0.245	0.172
-507.756	-89.336	0.093	0.027
-506.741	353.648	0.131	-0.259
-505.726	-89.936	0.224	0.065
-504.712	60.548	0.064	-0.063
-503.697	-101.799	-0.433	-0.104
-502.683	-49.393	-0.298	-0.141
-501.668	-200.000	0.010	-0.277
-500.653	-200.000	0.033	-0.239
-499.639	-200.000	0.006	-0.067
-498.624	8.626	-0.136	0.102
-497.610	-80.779	0.172	-0.057
-496.595	-117.993	0.046	-0.008
-495.581	-129.858	0.358	-0.049
-494.566	-97.300	0.356	0.092
-493.551	-182.294	-0.351	-0.007
-492.537	46.944	0.097	-0.090
-491.522	-34.672	0.098	0.053
-490.508	689.141	-0.089	-0.233
-489.493	135.382	0.054	0.069
-488.478	92.701	0.243	-0.273
-487.464	510.368	-0.155	-0.360
-486.449	321.585	-0.179	0.338
-485.435	620.933	0.119	0.297
-484.420	68.582	0.177	-0.180
-483.405	-178.993	-0.211	-0.005
-482.391	-200.000	0.010	0.119
-481.376	-200.000	-0.034	0.155
-480.362	214.360	-0.172	-0.271
-479.347	3.242	-0.090	-0.065
-478.332	-39.633	0.177	0.092
-477.318	4.099	0.218	-0.159
-476.303	-61.137	-0.482	-0.202
-475.289	-200.000	0.026	-0.267
-474.274	-200.000	-0.005	0.107
-473.259	-92.122	-0.077	0.022
-472.245	-200.000	0.018	-0.123
-471.230	165.747	0.108	0.151
-470.216	410.899	-0.162	0.341
-469.201	-89.691	-0.418	0.122
-468.186	311.519	0.143	-0.266
-467.172	201.488	0.037	-0.056
-466.157	90.285	-0.065	-0.072
-465.143	29.540	0.205	-0.173
-464.128	-200.000	-0.001	-0.051
-463.113	800.000	0.024	-0.083
-462.099	-80.777	0.434	-0.143
-461.084	-200.000	-0.013	-0.115
-460.070	172.479	0.260	0.372
-459.055	82.825	-0.184	-0.198
-458.040	-200.000	-0.028	0.165
-457.026	36.213	-0.148	0.130
-456.011	371.458	-0.054	-0.109
-454.997	-200.000	-0.041	0.352
-453.982	74.141	-0.216	0.225
-452.968	-159.995	0.170	0.009
-451.953	54.266	-0.145	0.139
-450.938	800.000	-0.108	-0.303
-449.924	396.412	0.131	0.272
-448.909	-105.181	0.373	0.085
-447.895	-123.941	-0.273	-0.043
-446.880	-200.000	-0.326	0.001
-445.865	-25.554	0.114	0.067
-444.851	-54.108	-0.172	0.078
-443.836	-27.638	0.202	-0.116
-442.822	-34.654	0.098	0.053
-441.807	-31.341	0.048	0.027
-440.792	233.457	-0.165	0.270
-439.778	-200.000	-0.033	-0.158
-438.763	154.746	-0.063	-0.086
-437.749	-65.389	0.323	-0.129
-436.734	-38.687	-0.284	0.149
-435.719	800.000	0.048	0.134
-434.705	16.222	0.020	-0.016
-433.690	49.706	0.345	0.323
-432.676	120.697	-0.150	-0.185
-431.661	800.000	0.071	0.282
-430.646	272.811	-0.062	0.109
-429.632	152.748	-0.087	-0.119
-428.617	-116.918	0.355	0.064
-427.603	-200.000	0.003	-0.022
-426.588	54.367	0.075	-0.071
-425.573	21.515	-0.148	-0.119
-424.559	-2.680	-0.274	0.190
-423.544	389.641	-0.101	0.207
-422.530	-109.242	-0.076	0.016
-421.515	-47.152	-0.113	0.055
-420.500	18.880	-0.215	0.171
-419.486	800.000	-0.084	-0.335
-418.471	178.809	0.275	0.399
-417.457	-63.309	0.204	0.083
-416.442	-200.000	-0.030	0.156
-415.428	267.127	-0.060	-0.104
-414.413	400.725	0.129	-0.269
-413.398	-2.425	0.025	-0.018
-412.384	26.428	0.125	-0.104
-411.369	-200.000	-0.000	-0.160
-410.355	-28.543	0.256	-0.146
-409.340	800.000	-0.066	0.183
-408.325	-107.896	-0.233	0.050
-407.311	-200.000	0.055	-0.384
-406.296	-192.907	-0.278	-0.002
-405.282	-14.299	-0.109	0.070
-404.267	-200.000	-0.061	-0.268
-403.252	-200.000	-0.004	-0.270
-402.238	-200.000	-0.087	-0.441
-401.223	129.649	-0.244	0.309
-400.209	-137.980	0.237	0.026
-399.194	-57.696	-0.259	0.112
-398.179	40.231	-0.109	0.097
-397.165	-81.745	-0.276	0.090
-396.150	23.516	0.113	0.092
-395.136	-200.000	-0.013	0.097
-394.121	-200.000	-0.065	0.281
-393.106	239.255	0.229	0.377
-392.092	201.452	0.074	0.112
-391.077	299.136	0.256	-0.467
-390.063	800.000	-0.073	0.213
-389.048	53.973	-0.115	0.110
-388.033	-200.000	0.024	-0.276
-387.019	-200.000	-0.049	0.379
-386.004	464.390	0.104	0.229
-384.990	396.033	0.141	0.291
-383.975	-171.484	0.154	0.005
-382.960	-7.967	0.188	-0.126
-381.946	-140.138	0.153	0.016
-380.931	542.518	-0.147	-0.348
-379.917	-200.000	0.028	-0.195
-378.902	475.082	-0.217	-0.485
-377.888	76.421	0.129	0.136
-376.873	150.027	-0.086	-0.116
-375.858	-73.696	0.064	-0.023
-374.844	-200.000	-0.001	-0.197
-373.829	-200.000	-0.027	-0.182
-372.815	-200.000	-0.024	0.596
-371.800	276.987	-0.089	0.157
-370.785	297.686	0.100	-0.182
-369.771	-118.075	0.162	-0.029
-368.756	262.599	0.128	0.220
-367.742	-90.222	-0.157	-0.045
-366.727	195.820	0.023	-0.035
-365.712	800.000	0.036	0.151
-364.698	-83.447	0.328	-0.104
-363.683	-3.864	-0.319	-0.219
-362.669	-13.708	0.141	-0.090
-361.654	-200.000	0.006	0.077
-360.639	181.952	0.134	0.195
-359.625	-200.000	-0.026	-0.205
-358.610	149.738	0.148	-0.198
-357.596	314.873	-0.069	-0.129
-356.581	-200.000	-0.054	0.394
-355.566	321.559	-0.124	0.234
-354.552	-17.942	-0.089	-0.055
-353.537	287.521	0.127	-0.227
-352.523	-4.477	-0.172	0.118
-351.508	-16.061	-0.208	0.131
-350.493	14.712	-0.083	-0.064
-349.479	800.000	-0.031	0.121
-348.464	-152.887	-0.437	0.031
-347.450	116.828	0.244	0.296
-346.435	-200.000	-0.054	0.369
-345.420	-79.925	0.137	-0.046
-344.406	507.187	0.083	0.191
-343.391	-122.931	-0.339	0.054
-342.377	56.582	0.209	-0.201
-341.362	-27.979	0.148	0.085
-340.348	131.131	-0.082	0.104
-339.333	-134.894	0.232	0.028
-338.318	54.964	0.218	-0.208
-337.304	800.000	0.046	-0.185
-336.289	-57.208	-0.276	0.120
-335.275	-106.907	-0.223	0.049
-334.260	-94.027	0.209	-0.057
-333.245	800.000	-0.034	0.134
-332.231	-200.000	-0.017	0.321
-331.216	800.000	0.081	-0.257
-330.202	-155.499	0.296	0.019
-329.187	-178.545	-0.216	0.005
-328.172	-200.000	-0.036	-0.172
-327.158	-138.605	0.048	-0.005
-326.143	76.522	-0.105	-0.110
-325.129	-103.773	0.299	0.069
-324.114	800.000	0.145	0.474
-323.099	13.297	-0.150	0.115
-322.085	800.000	-0.021	0.060
-321.070	91.039	0.260	-0.288
-320.056	73.877	0.050	0.052
-319.041	800.000	0.009	0.029
-318.026	-113.220	-0.329	-0.064
-317.012	800.000	0.074	-0.213
-315.997	146.821	-0.073	-0.097
-314.983	139.947	0.101	-0.131
-313.968	37.211	0.138	0.120
-312.953	800.000	-0.102	-0.282
-311.939	-74.735	-0.232	0.082
-310.924	-35.161	0.202	0.109
-309.910	-200.000	-0.034	0.194
-308.895	-54.129	-0.372	0.167
-307.880	160.352	-0.210	-0.289
-306.866	99.718	0.012	-0.014
-305.851	-55.401	-0.083	-0.037
-304.837	-81.823	0.108	0.035
-303.822	-152.143	0.160	0.011
-302.807	-4.170	0.173	-0.118
-301.793	286.387	-0.061	0.109
-300.778	-94.167	-0.400	-0.108
-299.764	767.588	0.099	-0.265
-298.749	175.912	0.090	-0.130
-297.735	449.591	0.076	-0.166
-296.720	-80.299	0.386	0.127
-295.705	-135.181	0.231	0.027
-294.691	38.641	-0.093	0.082
-293.676	-200.000	0.017	0.079
-292.662	59.120	0.262	-0.254
-291.647	264.472	0.048	-0.082
-290.632	-20.299	-0.103	-0.062
-289.618	216.354	0.139	0.218
-288.603	-200.000	0.055	0.339
-287.589	-91.210	-0.081	-0.023
-286.574	-26.061	0.052	-0.030
-285.559	77.812	-0.182	0.191
-284.545	195.578	0.095	0.143
-283.530	256.334	-0.149	0.253
-282.516	-200.000	-0.011	-0.205
-281.501	-68.617	0.250	0.096
-280.486	800.000	-0.065	0.250
-279.472	160.513	0.113	-0.155
-278.457	-67.700	0.048	-0.019
-277.443	80.171	-0.335	0.356
-276.428	544.570	0.135	0.317
-275.413	326.737	-0.108	0.204
-274.399	-200.000	0.007	-0.182
-273.384	-41.640	-0.282	-0.143
-272.370	92.688	0.185	0.206
-271.355	145.922	-0.144	-0.190
-270.340	-20.287	0.150	0.091
-269.326	369.631	-0.056	-0.112
-268.311	-200.000	0.050	-0.646
-267.297	-102.111	0.171	-0.041
-266.282	75.463	-0.052	0.054
-265.267	463.180	0.099	0.219
-264.253	-103.098	0.148	-0.035
-263.238	-200.000	0.043	0.206
-262.224	-117.673	-0.173	0.031
-261.209	449.461	0.029	0.064
-260.195	-94.235	-0.170	-0.046
-259.180	-89.480	-0.051	-0.015
-258.165	-200.000	-0.007	0.118
-257.151	-50.282	0.147	-0.069
-256.136	-200.000	-0.053	-0.327
-255.122	586.008	-0.072	-0.174
-254.107	162.079	0.212	0.293
-253.092	170.855	0.171	-0.242
-252.078	800.000	-0.030	-0.101
-251.063	-200.000	0.132	-0.641
-250.049	-141.330	-0.490	0.049
-249.034	68.028	0.254	0.256
-248.019	-66.502	-0.211	-0.083
-247.005	81.999	0.011	0.012
-245.990	344.450	-0.117	0.225
-244.976	-200.000	-0.065	0.292
-243.961	19.991	0.207	-0.165
-242.946	302.386	-0.079	0.145
-241.932	800.000	-0.176	0.544
-240.917	-45.540	-0.100	-0.049
-239.903	-72.100	-0.132	0.048
-238.888	30.497	-0.079	0.066
-237.873	-200.000	-0.010	-0.078
-236.859	-112.917	0.065	-0.013
-235.844	9.113	0.187	0.139
-234.830	800.000	-0.117	0.396
-233.815	800.000	0.055	0.179
-232.800	-200.000	0.011	0.062
-231.786	-92.902	-0.173	-0.047
-230.771	0.536	0.184	-0.130
-229.757	136.965	-0.261	-0.335
-228.742	23.680	-0.035	0.029
-227.727	608.570	-0.085	-0.208
-226.713	-8.113	0.127	-0.084
-225.698	-149.218	-0.422	-0.033
-224.684	-26.671	0.277	-0.159
-223.669	-121.040	0.278	-0.046
-222.655	329.387	-0.106	-0.200
-221.640	245.262	0.159	0.264
-220.625	673.980	-0.144	0.369
-219.611	-131.701	0.134	-0.017
-218.596	358.200	0.080	0.157
-217.582	-136.933	0.084	-0.009
-216.567	553.780	0.157	-0.371
-215.552	-48.328	-0.207	0.098
-214.538	-109.659	0.171	0.036
-213.523	-162.740	-0.121	0.006
-212.509	-200.000	-0.008	0.083
-211.494	-200.000	-0.025	0.142
-210.479	-90.814	0.240	-0.068
-209.465	-16.326	-0.111	0.070
-208.450	369.348	-0.032	0.064
-207.436	252.970	0.129	0.216
-206.421	-73.421	0.037	-0.013
-205.406	111.792	-0.108	0.128
-204.392	-7.740	-0.059	0.039
-203.377	800.000	0.087	0.284
-202.363	-145.756	-0.220	-0.019
-201.348	129.814	-0.089	-0.112
-200.333	-59.296	-0.211	0.089
-199.319	268.294	0.051	0.087
-198.304	800.000	-0.078	-0.330
-197.290	800.000	-0.022	0.086
-196.275	800.000	-0.043	-0.152
-195.260	-32.230	-0.027	-0.015
-194.246	88.603	-0.184	0.201
-193.231	-200.000	0.010	-0.103
-192.217	-106.037	-0.257	-0.057
-191.202	-169.338	0.309	0.011
-190.187	-200.000	-0.001	-0.286
-189.173	800.000	-0.058	-0.234
-188.158	-125.323	0.190	-0.028
-187.144	-130.662	-0.180	-0.024
-186.129	159.676	0.119	-0.163
-185.114	73.549	0.198	0.203
-184.100	800.000	0.046	-0.173
-183.085	-116.226	0.203	-0.037
-182.071	-158.314	-0.189	-0.011
-181.056	62.044	0.135	-0.133
-180.042	-38.498	-0.331	0.172
-179.027	519.328	-0.118	0.271
-178.012	122.287	0.073	0.090
-176.998	-40.887	0.322	0.164
-175.983	158.295	0.128	0.174
-174.969	-200.000	0.022	0.315
-173.954	567.107	0.033	0.079
-172.939	-200.000	-0.012	-0.076
-171.925	-134.414	0.287	-0.035
-170.910	423.859	0.144	-0.303
-169.896	-22.826	-0.085	0.050
-168.881	140.754	0.116	0.150
-167.866	-200.000	-0.031	-0.149
-166.852	-200.000	-0.044	0.352
-165.837	84.570	0.153	0.164
-164.823	234.089	0.245	-0.396
-163.808	55.203	0.080	-0.076
-162.793	-22.242	0.273	-0.163
-161.779	-61.776	0.100	-0.041
-160.764	103.357	-0.068	-0.079
-159.750	3.792	0.091	-0.065
-158.735	-131.482	-0.344	0.045
-157.720	-104.626	0.254	0.057
-156.706	-131.682	0.171	-0.022
-155.691	212.888	0.046	-0.071
-154.677	154.074	0.262	-0.353
-153.662	13.712	0.135	-0.103
-152.647	-10.379	0.131	-0.085
-151.633	314.852	0.025	-0.046
-150.618	-200.000	0.023	0.156
-149.604	-103.726	0.042	-0.010
-148.589	-200.000	0.001	0.131
-147.574	93.310	0.067	-0.075
-146.560	116.782	-0.110	0.132
-145.545	800.000	0.063	0.176
-144.531	22.041	0.365	-0.292
-143.516	800.000	-0.104	-0.303
-142.502	31.702	-0.106	0.089
-141.487	-133.730	-0.229	-0.028
-140.472	-200.000	-0.001	-0.052
-139.458	196.902	0.114	-0.171
-138.443	-71.289	-0.127	-0.047
-137.429	800.000	-0.076	-0.235
-136.414	60.459	-0.060	0.059
-135.399	-158.445	0.039	-0.002
-134.385	800.000	0.077	0.228
-133.370	144.180	0.023	-0.030
-132.356	417.698	-0.181	0.379
-131.341	11.441	0.223	0.168
-130.326	-200.000	0.043	0.215
-129.312	585.477	-0.173	-0.416
-128.297	676.085	0.119	-0.304
-127.283	159.782	-0.119	0.163
-126.268	10.450	-0.357	0.267
-125.253	800.000	0.123	-0.379
-124.239	102.216	0.113	0.130
-123.224	-125.591	0.377	-0.056
-122.210	-56.439	0.273	0.119
-121.195	800.000	0.058	-0.164
