DTS Sentinel unit serial number:	SN413079Multiplexer serial number:	ORYXHardware model number:	OX4-SRSoftware version number:	ORYX F/W v4.00 Oryx Data Collector v3.7.2.0data status	okinstallation	princeton_trtdifferential loss correction	single-endedforward channel	channel 1reverse channel	N/Adate	2019/09/18time	23:54:35forward acquisition time	60.00reverse acquisition time	0.00gamma	496.2192k internal	0.2342k external	0.2342temperature offset calibration	1.0020default loss term (dB/km)	0.3790temperature slope calibration	1.0000multiplexer offset coefficient	1.0000multiplexer slope coefficient	1.0000fibre end	0.00T internal ref (°C)	23.19T ext. ref 1 (°C)	0.75T ext. ref 2 (°C)	16.06length (m)	temperature (°C)	Stokes	anti-Stokes-747.200	1.936	0.292	0.211
-746.185	89.956	-0.294	0.329
-745.171	-56.218	0.112	0.050
-744.156	-200.000	0.006	-0.192
-743.142	438.200	-0.110	-0.241
-742.127	107.157	0.140	0.167
-741.112	-31.792	0.186	-0.104
-740.098	800.000	-0.066	-0.218
-739.083	10.855	-0.095	0.072
-738.069	414.724	0.173	0.370
-737.054	-101.310	0.043	0.011
-736.039	-200.000	-0.043	-0.267
-735.025	-47.453	0.331	-0.161
-734.010	679.872	-0.058	-0.151
-732.996	-72.146	-0.217	-0.080
-731.981	405.987	0.074	0.156
-730.966	-102.888	-0.259	0.062
-729.952	-120.747	0.348	0.059
-728.937	-48.679	0.193	-0.093
-727.923	594.605	-0.093	0.231
-726.908	-105.130	-0.120	0.027
-725.894	-200.000	-0.034	-0.407
-724.879	-13.019	-0.176	-0.115
-723.864	186.102	-0.085	-0.126
-722.850	5.341	-0.213	-0.157
-721.835	-134.950	0.189	0.023
-720.821	-200.000	0.024	-0.119
-719.806	240.347	-0.129	0.215
-718.791	52.471	-0.209	-0.199
-717.777	148.567	-0.157	0.213
-716.762	-148.916	-0.046	0.004
-715.748	-200.000	0.002	-0.024
-714.733	716.601	-0.081	0.216
-713.718	171.859	0.038	0.055
-712.704	-18.920	-0.196	-0.122
-711.689	507.969	0.124	-0.287
-710.675	-57.929	0.199	0.087
-709.660	194.104	-0.067	-0.101
-708.645	263.705	-0.050	0.087
-707.631	-122.317	-0.271	0.044
-706.616	31.743	-0.212	-0.183
-705.602	-200.000	-0.010	0.064
-704.587	310.176	0.079	0.148
-703.572	-119.188	-0.357	0.062
-702.558	95.491	0.140	-0.159
-701.543	800.000	-0.044	-0.144
-700.529	-200.000	-0.053	-0.285
-699.514	30.169	0.015	0.013
-698.499	-200.000	-0.020	-0.370
-697.485	-11.268	-0.115	0.076
-696.470	259.600	0.053	0.092
-695.456	-37.859	0.165	-0.088
-694.441	-38.652	-0.102	-0.054
-693.426	1.175	-0.162	0.117
-692.412	800.000	-0.027	0.087
-691.397	284.328	0.046	0.083
-690.383	505.704	-0.106	-0.245
-689.368	49.649	0.114	-0.108
-688.354	-144.502	0.095	-0.009
-687.339	-193.650	-0.080	-0.001
-686.324	800.000	-0.029	-0.105
-685.310	-103.134	0.165	0.039
-684.295	64.030	0.179	-0.179
-683.281	730.276	0.188	-0.502
-682.266	27.082	-0.188	-0.158
-681.251	329.958	0.186	-0.358
-680.237	-8.526	-0.455	-0.305
-679.222	-58.247	-0.291	-0.127
-678.208	140.312	-0.031	0.041
-677.193	-200.000	-0.015	0.100
-676.178	-36.278	-0.331	-0.179
-675.164	235.073	0.062	-0.101
-674.149	-200.000	0.065	-0.403
-673.135	800.000	-0.054	-0.159
-672.120	81.362	-0.203	0.219
-671.105	-200.000	-0.027	0.234
-670.091	-130.873	0.243	0.032
-669.076	263.916	0.147	-0.255
-668.062	800.000	-0.019	0.073
-667.047	-200.000	-0.045	0.212
-666.032	800.000	-0.161	0.570
-665.018	-200.000	-0.050	-0.277
-664.003	11.988	0.231	-0.178
-662.989	22.821	0.040	0.033
-661.974	800.000	0.140	-0.601
-660.959	-200.000	-0.003	0.210
-659.945	44.002	-0.089	-0.081
-658.930	-141.829	0.237	0.024
-657.916	-124.215	-0.114	0.018
-656.901	73.589	0.228	-0.238
-655.886	233.376	0.063	0.104
-654.872	-63.020	-0.284	-0.117
-653.857	-200.000	0.015	-0.190
-652.843	122.923	-0.021	0.027
-651.828	-200.000	0.002	0.015
-650.814	-144.876	-0.304	0.028
-649.799	-169.371	-0.243	-0.009
-648.784	414.289	0.022	-0.047
-647.770	56.766	0.042	0.041
-646.755	-104.628	-0.372	0.086
-645.741	-71.209	0.041	-0.015
-644.726	362.840	0.089	0.177
-643.711	-58.366	0.357	0.155
-642.697	85.228	0.047	0.051
-641.682	-200.000	0.025	-0.224
-640.668	-26.901	0.326	-0.190
-639.653	-104.322	0.286	0.066
-638.638	8.039	0.107	-0.080
-637.624	19.132	0.181	-0.145
-636.609	-42.812	-0.073	-0.037
-635.595	-200.000	0.038	0.166
-634.580	-119.835	-0.303	-0.052
-633.565	-200.000	-0.009	0.180
-632.551	-124.199	-0.217	0.034
-631.536	461.067	-0.122	-0.271
-630.522	-55.266	0.308	-0.138
-629.507	202.063	-0.082	0.126
-628.492	484.751	0.125	-0.284
-627.478	-60.799	0.050	-0.021
-626.463	-200.000	0.005	-0.041
-625.449	134.291	-0.115	-0.148
-624.434	35.129	-0.333	0.291
-623.419	-120.975	0.105	-0.018
-622.405	116.569	-0.168	-0.205
-621.390	800.000	-0.049	0.152
-620.376	-33.665	-0.150	0.083
-619.361	356.368	-0.061	-0.122
-618.346	-62.421	0.443	0.184
-617.332	158.623	-0.135	-0.187
-616.317	0.164	-0.184	-0.131
-615.303	75.681	0.238	0.251
-614.288	-200.000	-0.047	0.333
-613.273	16.619	-0.299	-0.235
-612.259	-43.104	0.111	-0.056
-611.244	106.222	0.123	-0.146
-610.230	-200.000	0.004	0.250
-609.215	270.775	-0.114	0.201
-608.201	41.909	-0.109	0.099
-607.186	800.000	0.062	-0.218
-606.171	-68.213	-0.312	0.121
-605.157	11.773	0.110	-0.084
-604.142	68.871	0.282	0.289
-603.128	800.000	-0.019	0.064
-602.113	101.700	0.130	-0.150
-601.098	-13.236	0.149	-0.096
-600.084	88.416	0.081	0.089
-599.069	-99.472	-0.084	-0.021
-598.055	24.162	0.140	0.116
-597.040	800.000	-0.074	-0.281
-596.025	-171.593	0.295	-0.010
-595.011	292.461	-0.149	0.271
-593.996	615.483	0.159	-0.397
-592.982	602.357	-0.042	-0.104
-591.967	569.933	-0.032	0.076
-590.952	-88.547	-0.019	0.006
-589.938	98.502	0.148	0.170
-588.923	215.270	-0.130	0.205
-587.909	312.740	-0.341	-0.638
-586.894	106.716	-0.055	-0.065
-585.879	-65.049	-0.396	-0.159
-584.865	223.164	0.015	0.025
-583.850	-76.675	-0.098	0.034
-582.836	-200.000	-0.003	-0.209
-581.821	-87.275	0.119	-0.036
-580.806	-200.000	-0.018	-0.324
-579.792	195.504	-0.244	0.370
-578.777	205.945	0.221	0.343
-577.763	494.490	0.029	-0.066
-576.748	-200.000	0.031	0.300
-575.733	-164.792	-0.098	0.004
-574.719	-162.196	-0.021	-0.001
-573.704	-200.000	0.071	-0.334
-572.690	800.000	0.095	-0.296
-571.675	-200.000	0.002	0.099
-570.661	-167.930	0.285	0.011
-569.646	90.188	-0.029	-0.033
-568.631	800.000	0.045	-0.142
-567.617	494.452	-0.104	0.237
-566.602	620.441	-0.060	-0.151
-565.588	174.111	0.192	0.277
-564.573	-69.006	-0.317	-0.122
-563.558	-78.600	0.283	0.096
-562.544	-166.220	0.311	-0.013
-561.529	800.000	-0.061	-0.200
-560.515	363.230	-0.070	-0.139
-559.500	-62.311	-0.331	-0.137
-558.485	37.112	0.201	-0.177
-557.471	16.391	0.062	0.049
-556.456	113.410	-0.246	-0.297
-555.442	-7.028	0.399	0.270
-554.427	293.513	-0.152	0.277
-553.412	-200.000	-0.005	0.220
-552.398	181.467	0.116	-0.170
-551.383	-178.541	0.114	-0.003
-550.369	96.369	-0.145	0.165
-549.354	645.624	0.121	-0.308
-548.339	-71.985	0.055	-0.020
-547.325	-124.512	-0.153	-0.024
-546.310	222.344	-0.103	-0.164
-545.296	800.000	-0.075	0.221
-544.281	-167.124	-0.132	0.005
-543.266	800.000	0.022	-0.091
-542.252	120.998	-0.095	0.117
-541.237	3.582	0.055	0.040
-540.223	-200.000	-0.049	-0.248
-539.208	-112.938	-0.514	-0.101
-538.193	31.057	0.153	-0.131
-537.179	-200.000	0.086	0.381
-536.164	296.117	0.021	0.038
-535.150	-200.000	0.028	0.210
-534.135	-44.085	-0.150	0.075
-533.121	800.000	-0.127	0.419
-532.106	161.777	0.020	-0.028
-531.091	140.841	-0.075	0.099
-530.077	-71.169	-0.201	-0.075
-529.062	644.741	-0.099	-0.250
-528.048	-2.650	0.154	-0.107
-527.033	800.000	0.049	0.149
-526.018	-150.498	0.329	0.025
-525.004	-64.603	-0.251	-0.101
-523.989	212.155	-0.102	0.160
-522.975	-130.086	-0.310	-0.042
-521.960	-38.693	0.158	-0.083
-520.945	488.309	0.169	-0.383
-519.931	-32.132	0.163	0.090
-518.916	32.794	0.241	-0.207
-517.902	-81.032	-0.388	0.127
-516.887	-200.000	-0.044	0.270
-515.872	-200.000	0.047	-0.230
-514.858	116.252	0.201	0.244
-513.843	172.622	0.062	-0.089
-512.829	284.478	0.084	-0.150
-511.814	-200.000	0.037	-0.312
-510.799	-77.950	-0.237	0.081
-509.785	194.094	0.278	0.417
-508.770	7.392	-0.038	0.028
-507.756	800.000	-0.031	0.104
-506.741	-75.780	0.168	-0.059
-505.726	-59.642	-0.149	-0.064
-504.712	-200.000	0.021	-0.179
-503.697	151.228	-0.122	-0.165
-502.683	363.898	0.086	0.171
-501.668	75.864	-0.066	0.069
-500.653	92.467	-0.037	0.042
-499.639	-80.809	-0.183	0.060
-498.624	95.663	0.113	-0.128
-497.610	26.160	0.052	0.043
-496.595	39.901	0.039	-0.035
-495.581	-178.430	0.104	-0.002
-494.566	-200.000	0.031	0.289
-493.551	-73.801	0.199	0.072
-492.537	-120.916	-0.213	0.036
-491.522	-38.854	-0.298	-0.156
-490.508	74.441	0.070	-0.073
-489.493	-133.863	-0.107	-0.013
-488.478	-74.695	0.426	0.152
-487.464	430.773	-0.158	0.340
-486.449	483.055	-0.024	-0.055
-485.435	-187.958	-0.218	0.003
-484.420	173.379	-0.029	0.041
-483.405	-54.455	0.273	-0.123
-482.391	-35.917	0.257	0.138
-481.376	710.053	0.093	-0.245
-480.362	-200.000	-0.043	0.274
-479.347	39.630	0.097	-0.087
-478.332	338.317	0.148	-0.286
-477.318	800.000	0.024	-0.091
-476.303	-134.270	-0.368	0.045
-475.289	-86.799	-0.105	0.032
-474.274	-180.416	0.256	-0.005
-473.259	130.014	0.133	-0.168
-472.245	187.130	-0.162	-0.239
-471.230	-20.300	-0.215	0.131
-470.216	-110.767	-0.117	-0.024
-469.201	-200.000	-0.072	0.339
-468.186	-200.000	-0.016	0.081
-467.172	34.652	-0.031	0.027
-466.157	-196.056	-0.073	0.001
-465.143	147.047	0.140	-0.186
-464.128	-160.970	0.218	0.011
-463.113	-200.000	-0.010	0.078
-462.099	-136.866	0.083	-0.009
-461.084	-53.594	-0.294	-0.133
-460.070	-62.024	-0.074	0.030
-459.055	37.841	0.206	0.181
-458.040	-70.966	0.206	-0.077
-457.026	-200.000	-0.020	0.181
-456.011	800.000	-0.027	0.086
-454.997	-9.418	0.303	-0.200
-453.982	-166.511	-0.325	-0.013
-452.968	23.951	0.113	-0.092
-451.953	800.000	0.051	-0.160
-450.938	800.000	-0.027	-0.111
-449.924	-83.854	-0.188	0.059
-448.909	403.902	0.079	-0.165
-447.895	541.938	-0.041	0.098
-446.880	103.769	0.134	-0.156
-445.865	-139.639	0.144	-0.015
-444.851	800.000	-0.126	-0.499
-443.836	-141.684	-0.335	0.033
-442.822	-200.000	-0.021	-0.098
-441.807	-200.000	0.018	-0.171
-440.792	203.984	-0.207	-0.318
-439.778	-55.935	-0.219	-0.097
-438.763	-200.000	-0.013	-0.072
-437.749	800.000	-0.132	-0.418
-436.734	33.103	0.131	-0.113
-435.719	-200.000	0.007	0.243
-434.705	-35.310	-0.167	-0.090
-433.690	-55.484	0.103	-0.046
-432.676	800.000	0.030	-0.112
-431.661	85.839	0.195	-0.212
-430.646	587.102	0.076	0.184
-429.632	800.000	-0.153	-0.507
-428.617	-54.988	-0.257	0.114
-427.603	800.000	-0.029	-0.105
-426.588	147.596	0.028	0.037
-425.573	44.273	-0.196	-0.178
-424.559	800.000	0.036	-0.105
-423.544	-24.850	0.211	0.124
-422.530	305.222	-0.150	0.276
-421.515	-123.118	0.257	-0.041
-420.500	105.955	-0.083	0.097
-419.486	-46.125	0.123	-0.060
-418.471	45.047	-0.064	0.058
-417.457	-44.097	0.339	0.169
-416.442	-55.083	-0.393	0.175
-415.428	-1.380	-0.157	-0.109
-414.413	179.629	0.180	0.261
-413.398	204.670	0.118	-0.180
-412.384	-200.000	0.049	0.240
-411.369	-200.000	0.055	0.396
-410.355	-71.905	0.148	0.054
-409.340	-143.920	-0.195	-0.018
-408.325	-200.000	-0.083	-0.439
-407.311	-53.731	0.278	-0.125
-406.296	-42.642	0.276	0.139
-405.282	27.562	-0.202	-0.168
-404.267	23.163	0.046	-0.037
-403.252	-6.674	0.306	-0.206
-402.238	178.530	0.204	0.295
-401.223	-200.000	-0.001	-0.200
-400.209	-65.409	0.229	0.091
-399.194	-200.000	-0.030	-0.199
-398.179	16.912	0.079	0.062
-397.165	145.479	0.319	0.422
-396.150	-113.198	-0.146	0.028
-395.136	226.409	0.115	0.184
-394.121	-71.588	0.261	-0.096
-393.106	-200.000	0.003	0.304
-392.092	59.262	-0.093	-0.090
-391.077	356.648	0.065	-0.127
-390.063	-90.335	-0.157	-0.045
-389.048	-118.392	0.074	0.013
-388.033	56.215	0.139	0.134
-387.019	94.130	-0.048	-0.054
-386.004	31.061	-0.375	0.318
-384.990	25.835	-0.125	0.103
-383.975	-86.008	0.149	0.045
-382.960	2.940	0.087	-0.062
-381.946	57.093	-0.116	-0.112
-380.931	270.705	-0.132	-0.230
-379.917	-71.976	-0.194	0.071
-378.902	-122.054	-0.027	0.004
-377.888	113.105	-0.160	-0.192
-376.873	-12.540	0.147	0.095
-375.858	30.224	0.039	-0.033
-374.844	-62.209	-0.082	-0.034
-373.829	-67.721	0.088	-0.034
-372.815	800.000	0.121	0.415
-371.800	-34.905	0.434	-0.234
-370.785	-159.253	-0.141	-0.008
-369.771	-56.445	-0.062	-0.027
-368.756	666.042	-0.110	0.280
-367.742	246.550	-0.041	-0.068
-366.727	-47.053	0.251	0.121
-365.712	-200.000	-0.008	0.069
-364.698	496.066	0.126	0.286
-363.683	-200.000	-0.064	-0.359
-362.669	-99.277	0.097	-0.024
-361.654	-3.410	-0.123	0.085
-360.639	-168.312	0.303	-0.012
-359.625	-1.267	-0.203	-0.142
-358.610	-158.332	-0.278	0.016
-357.596	99.826	0.019	-0.022
-356.581	320.546	0.274	-0.514
-355.566	-71.188	0.264	0.098
-354.552	125.531	-0.186	-0.232
-353.537	-5.629	-0.284	0.192
-352.523	800.000	-0.070	0.209
-351.508	-80.286	0.104	0.034
-350.493	53.667	0.257	-0.243
-349.479	485.749	-0.025	-0.055
-348.464	19.156	-0.164	0.129
-347.450	89.550	-0.185	-0.204
-346.435	-95.132	0.147	-0.039
-345.420	-200.000	-0.057	0.420
-344.406	555.568	0.219	-0.521
-343.391	800.000	-0.090	-0.383
-342.377	91.808	0.152	-0.169
-341.362	-200.000	0.014	0.294
-340.348	-85.206	0.222	-0.069
-339.333	-47.246	-0.169	-0.081
-338.318	-127.126	-0.509	-0.074
-337.304	-183.749	0.364	-0.006
-336.289	578.530	0.075	0.182
-335.275	-58.825	0.174	-0.074
-334.260	-2.045	-0.349	-0.242
-333.245	71.435	-0.211	-0.216
-332.231	-200.000	0.006	-0.075
-331.216	303.051	0.042	0.076
-330.202	-106.727	-0.221	-0.048
-329.187	-200.000	-0.002	-0.118
-328.172	-59.733	-0.134	0.057
-327.158	800.000	0.003	-0.010
-326.143	-26.264	-0.315	0.182
-325.129	800.000	0.020	-0.063
-324.114	-200.000	-0.016	0.148
-323.099	-82.693	0.049	0.016
-322.085	11.852	0.186	-0.140
-321.070	634.970	0.117	-0.293
-320.056	800.000	0.010	0.036
-319.041	-89.384	-0.339	-0.098
-318.026	-80.359	-0.368	-0.121
-317.012	800.000	0.083	0.328
-315.997	-26.601	0.204	0.118
-314.983	800.000	-0.036	-0.101
-313.968	800.000	0.012	0.040
-312.953	-146.002	-0.419	-0.037
-311.939	-200.000	0.087	0.408
-310.924	800.000	-0.092	0.251
-309.910	673.627	0.029	0.075
-308.895	-101.246	0.212	-0.051
-307.880	-181.446	-0.134	0.003
-306.866	-152.464	0.130	-0.009
-305.851	754.888	-0.040	-0.107
-304.837	-200.000	-0.035	0.203
-303.822	-14.311	-0.087	-0.055
-302.807	-127.909	-0.275	-0.039
-301.793	-200.000	0.007	0.387
-300.778	254.674	-0.138	0.233
-299.764	-131.529	-0.185	-0.024
-298.749	-200.000	0.017	0.347
-297.735	-128.688	-0.146	0.020
-296.720	119.088	0.142	-0.172
-295.705	245.040	-0.070	-0.116
-294.691	61.762	-0.269	0.264
-293.676	-99.167	-0.128	0.032
-292.662	25.018	-0.077	-0.063
-291.647	-200.000	-0.001	-0.009
-290.632	276.093	0.177	0.310
-289.618	-200.000	0.045	-0.226
-288.603	245.982	-0.136	-0.226
-287.589	800.000	0.021	-0.087
-286.574	-42.527	0.234	-0.117
-285.559	-13.708	-0.284	-0.181
-284.545	-86.812	0.125	-0.038
-283.530	-78.965	-0.254	-0.085
-282.516	800.000	-0.062	0.252
-281.501	75.439	-0.198	0.206
-280.486	-193.009	-0.355	-0.003
-279.472	262.214	0.186	0.317
-278.457	120.805	-0.186	0.228
-277.443	237.746	0.095	-0.155
-276.428	-41.524	0.111	0.056
-275.413	-32.429	-0.090	-0.049
-274.399	-200.000	-0.008	-0.078
-273.384	616.706	-0.082	0.201
-272.370	800.000	-0.043	0.179
-271.355	-200.000	-0.010	-0.169
-270.340	-105.297	-0.115	-0.026
-269.326	125.930	0.112	-0.139
-268.311	-200.000	0.005	0.330
-267.297	41.564	0.048	0.042
-266.282	-28.711	0.138	-0.078
-265.267	480.082	0.088	0.197
-264.253	72.851	-0.174	-0.179
-263.238	153.865	0.127	-0.172
-262.224	44.344	0.039	-0.035
-261.209	-71.214	-0.119	0.044
-260.195	-65.690	0.279	0.110
-259.180	-95.330	0.157	-0.041
-258.165	517.493	0.019	-0.045
-257.151	-62.300	-0.090	-0.037
-256.136	403.676	0.192	0.398
-255.122	104.915	0.199	-0.231
-254.107	-200.000	0.016	0.452
-253.092	612.581	0.062	0.151
-252.078	-137.306	-0.419	0.047
-251.063	242.704	0.033	-0.054
-250.049	-163.271	0.209	-0.010
-249.034	14.476	-0.111	-0.085
-248.019	800.000	-0.070	0.198
-247.005	-200.000	-0.002	0.109
-245.990	-99.720	0.249	-0.061
-244.976	-12.684	0.076	-0.049
-243.961	21.585	0.140	0.112
-242.946	131.325	-0.142	0.179
-241.932	13.641	-0.155	0.118
-240.917	285.178	-0.036	-0.063
-239.903	-150.677	0.222	-0.017
-238.888	-109.543	-0.284	0.059
-237.873	-82.879	-0.063	-0.020
-236.859	174.088	0.176	-0.249
-235.844	-88.522	-0.046	0.013
-234.830	800.000	-0.083	0.261
-233.815	-82.239	0.484	0.155
-232.800	-200.000	0.034	-0.176
-231.786	800.000	0.013	0.035
-230.771	-200.000	-0.028	0.189
-229.757	65.555	0.027	0.027
-228.742	639.730	0.134	0.335
-227.727	-200.000	0.015	0.078
-226.713	-200.000	-0.075	0.398
-225.698	-200.000	-0.053	0.334
-224.684	223.435	0.176	-0.278
-223.669	-200.000	-0.009	0.170
-222.655	-102.900	0.282	0.066
-221.640	800.000	0.132	0.364
-220.625	-10.428	0.167	0.109
-219.611	-126.873	-0.171	0.025
-218.596	-0.250	0.165	0.115
-217.582	117.048	-0.051	0.062
-216.567	800.000	-0.017	0.071
-215.552	0.015	-0.115	-0.081
-214.538	8.736	0.406	-0.300
-213.523	-120.828	0.308	0.051
-212.509	-200.000	0.030	-0.225
-211.494	425.969	-0.126	0.267
-210.479	800.000	-0.083	-0.278
-209.465	800.000	-0.047	0.172
-208.450	-166.272	-0.460	0.019
-207.436	239.267	-0.119	0.194
-206.421	800.000	-0.042	0.156
-205.406	-31.040	0.301	0.167
-204.392	97.331	0.037	0.042
-203.377	-164.794	-0.273	-0.012
-202.363	-59.800	-0.141	0.059
-201.348	-200.000	-0.028	0.130
-200.333	167.810	-0.106	-0.148
-199.319	-189.642	-0.133	-0.002
-198.304	43.580	0.122	-0.110
-197.290	-200.000	0.057	-0.394
-196.275	-116.213	-0.106	0.019
-195.260	-3.821	0.126	-0.086
-194.246	-134.856	0.239	0.028
-193.231	109.176	0.105	0.124
-192.217	-32.706	0.025	0.014
-191.202	32.745	0.207	-0.176
-190.187	308.256	-0.086	0.156
-189.173	26.933	0.091	-0.075
-188.158	307.449	0.204	-0.372
-187.144	67.243	0.267	-0.267
-186.129	141.421	0.088	0.114
-185.114	-87.292	0.138	0.041
-184.100	-110.219	-0.227	-0.046
-183.085	264.792	-0.044	0.074
-182.071	-42.873	-0.103	-0.051
-181.056	58.994	0.130	-0.126
-180.042	-83.288	0.249	0.078
-179.027	800.000	-0.067	-0.189
-178.012	-8.413	-0.250	-0.164
-176.998	800.000	0.075	-0.266
-175.983	-156.822	0.297	-0.018
-174.969	93.902	-0.209	-0.233
-173.954	-128.958	0.076	-0.010
-172.939	-144.467	-0.067	-0.006
-171.925	-200.000	-0.009	0.178
-170.910	41.625	0.084	0.075
-169.896	-73.314	-0.141	0.050
-168.881	-200.000	0.036	0.246
-167.866	-156.747	0.117	-0.007
-166.852	800.000	-0.017	0.059
-165.837	-63.844	-0.383	0.154
-164.823	800.000	-0.093	-0.292
-163.808	60.706	0.161	-0.156
-162.793	-200.000	0.001	0.070
-161.779	41.651	0.044	0.039
-160.764	-21.114	-0.155	-0.093
-159.750	-200.000	-0.034	-0.343
-158.735	-78.772	0.637	-0.213
-157.720	-200.000	0.047	0.283
-156.706	50.882	-0.182	-0.169
-155.691	-200.000	-0.004	0.166
-154.677	-49.103	-0.094	0.044
-153.662	-107.905	-0.183	-0.039
-152.647	-120.301	-0.265	0.044
-151.633	-83.536	0.049	-0.015
-150.618	-200.000	-0.010	0.093
-149.604	-122.340	-0.159	0.025
-148.589	375.410	0.063	0.126
-147.574	-21.389	-0.081	-0.049
-146.560	-200.000	-0.003	0.019
-145.545	800.000	-0.089	-0.308
-144.531	394.158	-0.098	-0.199
-143.516	69.317	-0.160	-0.161
-142.502	13.227	0.181	-0.137
-141.487	-28.901	-0.317	0.178
-140.472	238.909	-0.047	0.077
-139.458	-153.768	-0.180	-0.012
-138.443	366.355	-0.196	-0.387
-137.429	-92.909	-0.295	0.081
-136.414	-200.000	-0.000	-0.082
-135.399	-200.000	-0.041	-0.252
-134.385	47.400	0.181	0.165
-133.370	-47.310	-0.110	-0.052
-132.356	62.877	0.168	0.164
-131.341	-200.000	-0.031	0.173
-130.326	118.034	0.103	-0.124
-129.312	-68.850	-0.095	-0.036
-128.297	706.020	-0.158	-0.409
-127.283	800.000	-0.045	-0.159
-126.268	561.230	0.146	0.346
-125.253	-200.000	0.013	-0.236
-124.239	-25.820	0.158	-0.091
-123.224	194.848	-0.052	0.076
-122.210	-41.633	-0.331	-0.166
