DTS Sentinel unit serial number:	SN413079Multiplexer serial number:	ORYXHardware model number:	OX4-SRSoftware version number:	ORYX F/W v4.00 Oryx Data Collector v3.7.2.0data status	okinstallation	princeton_trtdifferential loss correction	single-endedforward channel	channel 1reverse channel	N/Adate	2019/09/12time	09:44:11forward acquisition time	60.00reverse acquisition time	0.00gamma	496.2192k internal	0.2300k external	0.2300temperature offset calibration	1.0044default loss term (dB/km)	0.3790temperature slope calibration	1.0000multiplexer offset coefficient	1.0000multiplexer slope coefficient	1.0000fibre end	0.00T internal ref (°C)	35.89T ext. ref 1 (°C)	1.83T ext. ref 2 (°C)	32.66length (m)	temperature (°C)	Stokes	anti-Stokes-747.200	88.265	-0.234	0.264
-746.185	65.144	0.253	0.261
-745.171	407.806	-0.063	0.136
-744.156	-5.052	0.104	0.073
-743.142	-200.000	0.011	-0.197
-742.127	-200.000	0.008	0.195
-741.112	307.814	-0.005	0.010
-740.098	-200.000	-0.022	0.116
-739.083	-200.000	0.063	0.584
-738.069	-200.000	-0.048	0.229
-737.054	-188.472	0.278	-0.004
-736.039	-160.138	-0.136	-0.008
-735.025	171.317	0.103	0.150
-734.010	206.421	-0.178	0.282
-732.996	-104.483	-0.273	-0.064
-731.981	-63.658	-0.014	-0.006
-730.966	-64.768	0.106	0.044
-729.952	-98.900	0.097	-0.025
-728.937	50.834	-0.172	-0.166
-727.923	-30.274	-0.215	0.125
-726.908	-15.877	-0.241	-0.156
-725.894	-4.820	0.152	0.107
-724.879	156.961	0.099	0.139
-723.864	-11.049	-0.198	0.133
-722.850	57.033	-0.221	0.220
-721.835	-52.571	-0.129	-0.061
-720.821	-75.387	-0.152	-0.055
-719.806	-119.600	-0.228	-0.040
-718.791	-200.000	0.001	0.338
-717.777	-200.000	-0.095	0.469
-716.762	-9.644	0.143	0.097
-715.748	-200.000	0.002	-0.204
-714.733	54.752	-0.171	0.168
-713.718	-74.109	-0.277	-0.102
-712.704	80.823	0.254	-0.279
-711.689	-100.082	-0.133	-0.034
-710.675	-50.879	-0.204	0.098
-709.660	-101.611	0.038	-0.009
-708.645	93.867	0.242	-0.279
-707.631	800.000	0.062	0.195
-706.616	77.411	0.238	-0.257
-705.602	-200.000	0.003	0.270
-704.587	-179.093	-0.352	0.008
-703.572	-200.000	0.020	-0.419
-702.558	164.114	0.091	0.130
-701.543	-83.461	0.129	0.042
-700.529	-40.578	-0.172	0.091
-699.514	-83.430	0.198	-0.065
-698.499	-200.000	0.001	-0.197
-697.485	201.835	-0.084	-0.131
-696.470	-200.000	-0.006	-0.086
-695.456	63.386	0.040	0.041
-694.441	31.153	-0.086	0.075
-693.426	-77.130	0.144	0.051
-692.412	-14.446	-0.108	0.071
-691.397	258.631	-0.135	-0.237
-690.383	-43.551	0.226	-0.116
-689.368	127.304	0.086	-0.111
-688.354	-25.727	0.369	-0.222
-687.339	232.990	0.206	0.345
-686.324	584.122	-0.030	-0.076
-685.310	-200.000	0.063	-0.291
-684.295	39.065	-0.206	-0.187
-683.281	-120.917	-0.282	-0.048
-682.266	-43.066	0.209	-0.108
-681.251	43.686	-0.097	0.090
-680.237	800.000	-0.058	0.181
-679.222	-26.378	-0.088	-0.053
-678.208	27.841	0.236	-0.203
-677.193	318.620	-0.166	0.320
-676.178	331.735	0.108	0.211
-675.164	800.000	0.089	0.325
-674.149	-98.686	-0.135	-0.035
-673.135	-200.000	0.001	-0.204
-672.120	800.000	0.053	-0.163
-671.105	-164.338	-0.127	-0.006
-670.091	-94.761	0.101	-0.028
-669.076	-187.293	0.154	0.002
-668.062	-200.000	0.010	-0.312
-667.047	669.752	0.085	0.224
-666.032	-200.000	-0.017	-0.127
-665.018	-193.940	0.425	0.004
-664.003	800.000	0.034	0.104
-662.989	323.438	-0.283	-0.549
-661.974	262.695	-0.025	0.044
-660.959	-96.150	-0.320	0.086
-659.945	-126.987	-0.217	0.032
-658.930	20.304	-0.104	0.085
-657.916	-167.161	0.309	-0.013
-656.901	-164.847	-0.177	0.008
-655.886	-89.152	-0.159	0.048
-654.872	-72.250	0.175	-0.066
-653.857	-200.000	-0.016	0.080
-652.843	-156.088	0.043	-0.003
-651.828	28.191	0.284	0.244
-650.814	305.534	0.108	0.204
-649.799	800.000	0.072	0.287
-648.784	207.427	0.107	-0.169
-647.770	-137.188	-0.232	-0.027
-646.755	-92.531	0.445	0.127
-645.741	36.571	-0.158	-0.142
-644.726	90.592	0.015	-0.017
-643.711	473.818	0.153	-0.351
-642.697	114.019	-0.183	-0.226
-641.682	-101.189	-0.370	0.092
-640.668	800.000	-0.047	0.192
-639.653	404.005	0.076	0.162
-638.638	-200.000	-0.010	-0.109
-637.624	24.870	-0.263	-0.221
-636.609	-68.137	-0.141	-0.056
-635.595	-85.447	-0.165	0.052
-634.580	-166.090	-0.106	-0.005
-633.565	8.519	-0.240	0.183
-632.551	17.784	-0.088	0.071
-631.536	36.226	0.281	0.251
-630.522	293.159	-0.072	-0.134
-629.507	-28.827	0.013	-0.008
-628.492	355.288	-0.056	0.113
-627.478	97.450	-0.166	0.194
-626.463	443.277	-0.007	0.015
-625.449	-77.554	0.132	-0.046
-624.434	-16.175	-0.355	-0.229
-623.419	74.171	-0.131	0.140
-622.405	-13.103	-0.195	0.129
-621.390	-130.380	0.012	-0.002
-620.376	-48.760	0.099	0.048
-619.361	-26.784	-0.171	-0.101
-618.346	5.115	-0.301	-0.225
-617.332	-82.994	0.244	-0.080
-616.317	-152.100	0.177	-0.013
-615.303	240.375	0.124	0.210
-614.288	28.202	0.089	-0.076
-613.273	142.478	0.118	0.159
-612.259	-108.890	-0.252	-0.055
-611.244	31.728	0.107	0.093
-610.230	800.000	0.038	-0.130
-609.215	153.349	0.113	-0.157
-608.201	-72.160	-0.125	-0.047
-607.186	-46.635	0.312	0.155
-606.171	-48.173	-0.238	0.116
-605.157	-9.555	0.215	0.146
-604.142	-31.048	0.167	0.096
-603.128	-14.186	0.172	-0.112
-602.113	80.995	0.119	0.130
-601.098	800.000	0.046	-0.152
-600.084	-112.962	0.094	-0.019
-599.069	105.982	-0.195	-0.234
-598.055	800.000	-0.090	-0.305
-597.040	-102.017	-0.208	0.051
-596.025	-81.974	0.222	-0.074
-595.011	-200.000	-0.062	-0.386
-593.996	-61.407	0.149	-0.063
-592.982	-63.574	-0.299	-0.125
-591.967	82.713	-0.206	-0.227
-590.952	-77.301	-0.342	-0.120
-589.938	-200.000	0.005	0.094
-588.923	198.786	0.125	0.194
-587.909	350.255	-0.056	0.113
-586.894	-123.712	0.058	0.009
-585.879	5.397	-0.091	0.068
-584.865	0.109	-0.063	0.046
-583.850	-88.981	0.150	-0.045
-582.836	-134.445	0.165	-0.020
-581.821	530.895	0.024	-0.057
-580.806	-31.089	-0.134	0.077
-579.792	181.971	-0.126	-0.188
-578.777	-145.506	0.096	-0.009
-577.763	800.000	0.038	-0.115
-576.748	30.395	0.212	-0.183
-575.733	-71.295	0.165	-0.063
-574.719	-117.189	-0.061	-0.011
-573.704	520.678	0.056	0.134
-572.690	11.416	-0.186	-0.144
-571.675	294.616	0.121	-0.224
-570.661	513.326	0.113	-0.268
-569.646	157.873	-0.110	0.154
-568.631	-144.482	-0.194	-0.018
-567.617	156.807	0.163	-0.228
-566.602	773.521	-0.043	0.120
-565.588	-36.436	0.318	-0.173
-564.573	46.864	-0.184	0.173
-563.558	-200.000	-0.015	0.121
-562.544	-200.000	0.035	-0.230
-561.529	18.254	-0.312	-0.252
-560.515	-200.000	0.064	0.295
-559.500	-200.000	-0.020	-0.137
-558.485	800.000	-0.112	-0.347
-557.471	63.416	0.101	0.103
-556.456	-200.000	-0.064	0.317
-555.442	73.783	-0.078	-0.083
-554.427	-167.860	-0.079	0.003
-553.412	-54.957	-0.428	-0.195
-552.398	263.087	-0.072	-0.127
-551.383	527.216	-0.088	0.210
-550.369	-104.851	-0.164	0.038
-549.354	-52.376	0.088	-0.041
-548.339	94.668	0.094	0.109
-547.325	800.000	-0.075	-0.248
-546.310	178.788	0.273	-0.404
-545.296	5.885	-0.277	0.208
-544.281	104.368	0.053	-0.063
-543.266	-27.910	0.087	0.051
-542.252	34.614	-0.290	-0.256
-541.237	-80.123	-0.244	0.083
-540.223	800.000	-0.048	0.157
-539.208	697.328	0.062	0.164
-538.193	800.000	-0.112	-0.331
-537.179	109.991	-0.028	-0.034
-536.164	-200.000	-0.035	0.287
-535.150	1.252	0.176	0.128
-534.135	-200.000	0.038	-0.383
-533.121	-78.838	0.111	-0.038
-532.106	171.512	0.190	-0.275
-531.091	56.852	0.376	0.370
-530.077	800.000	-0.056	-0.212
-529.062	173.051	-0.064	0.093
-528.048	30.469	-0.166	-0.144
-527.033	-135.685	0.206	-0.025
-526.018	101.673	0.147	-0.174
-525.004	656.007	-0.054	-0.141
-523.989	-5.926	-0.072	0.050
-522.975	-200.000	0.035	-0.310
-521.960	-68.382	-0.343	0.135
-520.945	23.266	-0.141	-0.117
-519.931	-32.138	0.039	-0.022
-518.916	-67.976	-0.022	-0.009
-517.902	-200.000	-0.037	-0.245
-516.887	-2.503	0.578	-0.409
-515.872	-47.245	-0.325	-0.160
-514.858	-200.000	-0.049	-0.508
-513.843	108.805	0.064	-0.077
-512.829	118.043	0.118	0.147
-511.814	-1.465	-0.036	0.026
-510.799	-82.701	-0.176	-0.058
-509.785	88.191	-0.205	-0.230
-508.770	351.619	0.071	-0.143
-507.756	-107.001	0.185	0.041
-506.741	-68.338	-0.242	-0.095
-505.726	430.828	0.061	0.133
-504.712	800.000	0.073	0.228
-503.697	-200.000	-0.008	-0.105
-502.683	-36.563	0.283	0.154
-501.668	-129.095	0.080	-0.011
-500.653	639.572	-0.070	-0.181
-499.639	-134.050	0.178	0.022
-498.624	-200.000	-0.008	-0.058
-497.610	112.770	0.220	-0.270
-496.595	82.474	0.137	-0.150
-495.581	130.843	0.148	-0.192
-494.566	-200.000	0.034	-0.159
-493.551	-2.942	-0.070	-0.050
-492.537	17.686	0.167	-0.134
-491.522	-200.000	0.124	-0.565
-490.508	-150.727	-0.123	-0.009
-489.493	50.146	0.026	-0.025
-488.478	63.372	0.125	0.126
-487.464	-200.000	-0.011	0.062
-486.449	281.516	-0.116	-0.210
-485.435	333.529	-0.123	0.241
-484.420	-135.542	-0.323	-0.039
-483.405	-116.697	0.306	-0.057
-482.391	-42.212	-0.420	-0.216
-481.376	202.656	-0.053	-0.083
-480.362	46.248	0.123	0.115
-479.347	-6.890	0.128	0.088
-478.332	-70.466	-0.167	0.064
-477.318	-95.048	0.162	0.044
-476.303	-88.053	-0.118	0.036
-475.289	-21.531	-0.093	-0.057
-474.274	-52.468	0.112	0.052
-473.259	-83.479	-0.268	-0.087
-472.245	-61.908	-0.275	-0.116
-471.230	-32.064	-0.094	0.053
-470.216	800.000	0.084	0.345
-469.201	68.919	0.199	0.207
-468.186	93.520	-0.238	-0.272
-467.172	14.292	0.052	-0.041
-466.157	362.913	-0.017	-0.034
-465.143	-113.626	0.217	0.043
-464.128	-200.000	-0.015	0.101
-463.113	41.834	0.190	0.174
-462.099	-17.884	0.150	0.095
-461.084	577.630	-0.153	0.377
-460.070	761.419	-0.108	0.295
-459.055	-86.701	-0.218	0.067
-458.040	-200.000	-0.018	-0.479
-457.026	-128.924	-0.309	0.044
-456.011	-11.932	0.162	-0.107
-454.997	128.684	-0.045	-0.058
-453.982	-77.321	-0.134	-0.047
-452.968	407.239	0.067	0.142
-451.953	800.000	-0.128	-0.511
-450.938	-43.319	0.138	-0.070
-449.924	692.843	-0.070	0.186
-448.909	9.858	0.246	-0.188
-447.895	800.000	0.055	0.235
-446.880	800.000	0.050	0.142
-445.865	50.607	-0.255	0.243
-444.851	46.524	-0.133	0.124
-443.836	800.000	-0.112	-0.390
-442.822	-106.843	-0.160	0.036
-441.807	139.550	-0.106	-0.141
-440.792	46.744	0.140	0.131
-439.778	65.625	-0.049	0.050
-438.763	-45.970	0.111	-0.055
-437.749	-17.503	-0.290	0.184
-436.734	-200.000	0.040	-0.245
-435.719	-45.166	0.075	-0.038
-434.705	236.669	0.109	0.182
-433.690	56.838	0.115	0.112
-432.676	80.067	0.192	-0.208
-431.661	-72.344	-0.139	0.052
-430.646	205.468	-0.247	-0.386
-429.632	-200.000	-0.026	0.347
-428.617	-31.255	-0.212	0.120
-427.603	-37.207	0.136	0.073
-426.588	-9.073	0.371	0.250
-425.573	800.000	-0.089	-0.282
-424.559	-58.113	0.136	-0.060
-423.544	800.000	-0.073	-0.270
-422.530	-34.075	-0.075	0.042
-421.515	-91.887	-0.252	0.072
-420.500	-72.413	0.400	0.149
-419.486	252.343	0.201	-0.344
-418.471	283.304	0.104	-0.187
-417.457	-24.707	-0.067	0.040
-416.442	800.000	-0.093	0.325
-415.428	800.000	-0.002	0.008
-414.413	-83.987	0.396	-0.127
-413.398	-200.000	-0.003	0.198
-412.384	262.194	-0.101	0.177
-411.369	-33.492	-0.117	-0.065
-410.355	-200.000	-0.014	0.090
-409.340	735.857	-0.091	0.246
-408.325	-200.000	-0.015	0.477
-407.311	-150.278	0.295	-0.023
-406.296	-200.000	-0.018	0.096
-405.282	-136.560	-0.352	0.041
-404.267	-76.847	0.172	0.061
-403.252	800.000	-0.056	-0.194
-402.238	-155.103	0.212	0.014
-401.223	-200.000	-0.007	-0.099
-400.209	800.000	0.068	-0.241
-399.194	800.000	0.078	-0.227
-398.179	39.323	-0.310	-0.279
-397.165	-200.000	0.024	0.257
-396.150	800.000	-0.017	0.070
-395.136	208.808	0.142	0.224
-394.121	-200.000	-0.017	-0.093
-393.106	-77.684	0.168	0.059
-392.092	-91.303	-0.488	-0.141
-391.077	128.429	0.024	-0.031
-390.063	-154.701	0.235	-0.016
-389.048	-95.434	0.045	0.012
-388.033	800.000	-0.054	0.191
-387.019	-7.443	0.065	0.044
-386.004	-70.204	-0.221	0.085
-384.990	-10.973	-0.066	-0.044
-383.975	800.000	0.016	0.050
-382.960	800.000	0.050	0.161
-381.946	-67.753	0.094	0.037
-380.931	377.645	0.054	0.111
-379.917	-10.721	0.241	0.160
-378.902	-200.000	-0.011	0.177
-377.888	164.221	-0.287	-0.407
-376.873	-200.000	-0.049	-0.308
-375.858	-1.576	-0.282	0.199
-374.844	-20.084	-0.223	0.139
-373.829	204.009	-0.114	0.178
-372.815	800.000	-0.099	0.288
-371.800	-200.000	-0.026	-0.300
-370.785	31.498	-0.220	0.190
-369.771	-172.159	-0.100	-0.003
-368.756	-36.465	-0.139	0.075
-367.742	-200.000	0.009	0.424
-366.727	-200.000	0.071	-0.323
-365.712	-87.218	-0.327	-0.100
-364.698	-129.247	0.205	-0.029
-363.683	85.416	0.166	0.184
-362.669	-200.000	-0.049	-0.222
-361.654	-200.000	-0.068	0.319
-360.639	-116.197	-0.336	0.063
-359.625	29.816	0.091	-0.078
-358.610	280.431	0.155	-0.279
-357.596	471.028	0.060	0.135
-356.581	-200.000	0.014	-0.088
-355.566	-200.000	0.065	-0.309
-354.552	-138.951	0.090	0.010
-353.537	-200.000	0.004	0.463
-352.523	165.639	-0.039	-0.055
-351.508	776.844	-0.047	-0.128
-350.493	-4.602	-0.135	0.093
-349.479	-82.039	-0.190	0.062
-348.464	-200.000	-0.067	0.388
-347.450	441.824	0.136	0.299
-346.435	662.767	0.034	-0.087
-345.420	-66.615	0.296	0.118
-344.406	-123.328	0.305	-0.049
-343.391	43.725	0.186	-0.171
-342.377	243.525	0.125	-0.211
-341.362	-65.622	-0.145	0.058
-340.348	800.000	-0.092	0.367
-339.333	-200.000	0.039	0.191
-338.318	190.218	-0.234	0.353
-337.304	46.890	-0.197	-0.184
-336.289	42.007	0.067	0.061
-335.275	192.521	-0.026	-0.040
-334.260	129.065	-0.168	0.215
-333.245	-141.644	-0.060	0.006
-332.231	48.436	0.087	0.082
-331.216	-95.452	0.333	-0.090
-330.202	48.245	-0.016	-0.015
-329.187	78.712	-0.145	0.155
-328.172	90.102	-0.132	0.148
-327.158	36.509	-0.118	-0.104
-326.143	-95.369	0.349	-0.094
-325.129	-200.000	-0.004	0.249
-324.114	304.391	0.194	-0.361
-323.099	-27.570	-0.241	0.141
-322.085	71.960	0.162	0.169
-321.070	-200.000	0.008	0.111
-320.056	-42.252	0.297	-0.152
-319.041	-137.628	0.126	-0.014
-318.026	-200.000	0.020	0.233
-317.012	21.291	0.212	0.173
-315.997	93.032	0.264	-0.299
-314.983	109.982	0.174	-0.210
-313.968	-123.996	0.065	-0.010
-312.953	63.660	-0.218	0.219
-311.939	-200.000	0.044	0.249
-310.924	13.052	0.170	-0.132
-309.910	167.745	0.238	-0.340
-308.895	800.000	-0.030	-0.115
-307.880	198.371	-0.207	-0.318
-306.866	458.115	-0.045	-0.100
-305.851	-21.516	0.306	0.187
-304.837	800.000	-0.081	-0.354
-303.822	105.902	0.137	0.162
-302.807	664.971	0.030	-0.078
-301.793	3.134	0.331	-0.241
-300.778	-5.016	0.231	0.160
-299.764	477.932	0.088	0.200
-298.749	200.618	-0.141	-0.217
-297.735	12.626	0.038	-0.029
-296.720	-200.000	0.007	0.144
-295.705	167.985	0.260	-0.371
-294.691	-159.709	-0.311	0.017
-293.676	-158.303	-0.090	0.005
-292.662	-66.629	0.117	-0.046
-291.647	-139.817	0.355	-0.038
-290.632	433.303	-0.152	-0.331
-289.618	4.676	-0.084	0.062
-288.603	800.000	-0.064	-0.198
-287.589	457.501	0.044	-0.097
-286.574	800.000	0.061	-0.258
-285.559	87.068	-0.039	0.043
-284.545	800.000	0.054	0.192
-283.530	800.000	-0.109	0.415
-282.516	222.705	0.121	0.196
-281.501	-200.000	-0.034	-0.419
-280.486	-200.000	-0.034	-0.257
-279.472	-80.885	-0.323	-0.107
-278.457	11.761	0.233	0.179
-277.443	13.941	0.207	0.161
-276.428	-133.835	-0.209	0.026
-275.413	-80.808	-0.135	-0.045
-274.399	-88.774	0.136	0.041
-273.384	-200.000	-0.002	0.185
-272.370	57.035	-0.155	-0.151
-271.355	787.866	0.057	-0.156
-270.340	-200.000	0.012	-0.166
-269.326	-200.000	-0.152	0.711
-268.311	-200.000	-0.001	0.243
-267.297	-78.736	0.193	-0.066
-266.282	-190.940	0.185	0.002
-265.267	-43.399	0.351	0.178
-264.253	-85.555	-0.079	-0.025
-263.238	-84.062	-0.418	-0.133
-262.224	-32.178	0.078	0.043
-261.209	-155.785	-0.154	0.010
-260.195	217.610	0.122	0.194
-259.180	-200.000	-0.014	-0.356
-258.165	-149.007	0.166	-0.013
-257.151	-61.816	0.338	0.142
-256.136	-200.000	0.018	-0.279
-255.122	800.000	-0.108	0.405
-254.107	-119.182	0.048	0.008
-253.092	500.179	-0.042	-0.097
-252.078	-2.109	-0.360	0.253
-251.063	-47.914	0.193	0.093
-250.049	-108.160	-0.084	-0.018
-249.034	176.024	0.059	0.086
-248.019	176.960	0.227	0.331
-247.005	800.000	0.044	0.187
-245.990	800.000	0.076	0.256
-244.976	345.974	-0.187	0.368
-243.961	-63.546	0.208	0.085
-242.946	59.414	-0.053	0.052
-241.932	800.000	0.095	-0.382
-240.917	66.573	-0.331	0.337
-239.903	-163.968	0.271	-0.013
-238.888	-108.725	-0.297	0.064
-237.873	-81.003	-0.057	0.019
-236.859	-54.600	0.075	-0.034
-235.844	81.479	0.316	0.342
-234.830	800.000	0.091	0.278
-233.815	143.042	-0.127	-0.169
-232.800	132.640	-0.118	-0.152
-231.786	-69.285	0.344	0.132
-230.771	91.852	-0.273	0.308
-229.757	-192.059	0.233	0.002
-228.742	637.053	0.084	-0.214
-227.727	178.629	-0.086	0.126
-226.713	800.000	-0.076	0.260
-225.698	133.496	-0.206	-0.266
-224.684	800.000	-0.008	0.028
-223.669	-200.000	-0.023	0.233
-222.655	64.826	0.141	-0.142
-221.640	-101.603	-0.094	0.023
-220.625	595.610	0.040	0.099
-219.611	-200.000	-0.001	-0.105
-218.596	27.279	-0.087	-0.073
-217.582	-75.521	0.143	0.051
-216.567	-130.049	0.304	-0.042
-215.552	89.569	0.164	0.183
-214.538	-200.000	-0.001	-0.130
-213.523	-200.000	-0.014	0.190
-212.509	39.435	0.085	0.076
-211.494	-75.559	0.162	-0.057
-210.479	315.938	0.181	0.340
-209.465	-200.000	0.084	0.000
-208.450	-125.307	-0.189	0.029
-207.436	169.612	-0.139	-0.199
-206.421	-155.543	0.115	-0.007
-205.406	800.000	0.081	-0.293
-204.392	800.000	0.057	-0.208
-203.377	-103.424	0.104	0.025
-202.363	-126.651	-0.221	-0.033
-201.348	-66.346	-0.268	0.106
-200.333	-73.162	0.241	-0.088
-199.319	53.603	-0.134	-0.129
-198.304	-200.000	-0.022	-0.161
-197.290	63.715	-0.060	-0.060
-196.275	-200.000	0.084	0.445
-195.260	-62.379	0.120	0.050
-194.246	164.135	-0.205	0.288
-193.231	-123.654	-0.520	-0.082
-192.217	-78.822	-0.219	-0.074
-191.202	-60.210	0.158	0.067
-190.187	-102.448	0.096	0.023
-189.173	-19.060	0.156	0.097
-188.158	196.476	0.191	0.290
-187.144	-135.647	-0.185	-0.022
-186.129	800.000	0.080	0.234
-185.114	-113.660	0.123	0.024
-184.100	367.582	-0.154	-0.310
-183.085	-113.763	-0.086	0.017
-182.071	251.717	-0.180	0.306
-181.056	-12.818	-0.204	0.133
-180.042	252.336	-0.104	0.177
-179.027	311.510	0.154	-0.289
-178.012	-121.469	0.419	-0.070
-176.998	117.925	0.084	0.103
-175.983	610.983	-0.063	-0.158
-174.969	113.109	-0.096	0.116
-173.954	-37.811	-0.107	0.057
-172.939	7.991	-0.137	0.103
-171.925	800.000	-0.074	-0.228
-170.910	-72.119	-0.106	-0.039
-169.896	135.363	-0.133	0.172
-168.881	-140.924	0.203	0.021
-167.866	-24.196	0.243	-0.145
-166.852	-75.303	0.125	-0.044
-165.837	-74.729	0.428	0.153
-164.823	167.018	0.054	0.076
-163.808	-108.282	0.262	0.056
-162.793	26.996	-0.157	-0.131
-161.779	-77.444	-0.100	-0.035
-160.764	343.948	-0.162	0.317
-159.750	-190.692	0.122	-0.001
-158.735	-200.000	-0.002	0.223
-157.720	30.265	0.051	-0.043
-156.706	85.738	0.171	-0.188
-155.691	-93.963	-0.057	0.016
-154.677	-72.376	-0.223	-0.082
-153.662	252.922	-0.121	-0.206
-152.647	-3.680	-0.187	0.130
-151.633	354.567	0.053	0.105
-150.618	-119.239	0.057	0.010
-149.604	-185.205	0.295	-0.005
-148.589	-46.619	-0.300	-0.147
-147.574	-200.000	-0.014	-0.132
-146.560	800.000	0.011	0.034
-145.545	-200.000	-0.021	0.276
-144.531	-200.000	-0.010	-0.140
-143.516	-100.421	-0.052	-0.013
-142.502	-119.428	-0.292	0.050
-141.487	420.690	-0.072	0.154
-140.472	326.495	-0.286	0.546
-139.458	800.000	0.056	0.213
-138.443	800.000	-0.031	0.131
-137.429	-200.000	0.001	0.216
-136.414	107.496	0.158	-0.187
-135.399	-160.547	0.178	-0.009
-134.385	-113.086	0.436	-0.086
-133.370	11.759	0.306	0.234
-132.356	322.867	0.096	0.183
-131.341	13.278	0.165	-0.127
-130.326	-200.000	0.064	-0.397
-129.312	393.039	0.128	-0.265
-128.297	144.097	0.144	-0.191
-127.283	-48.640	-0.134	0.064
-126.268	800.000	-0.033	0.117
-125.253	-106.077	-0.156	0.035
-124.239	66.648	0.102	-0.103
-123.224	548.252	-0.052	-0.124
-122.210	-22.430	0.242	0.146
-121.195	396.150	0.005	-0.010
-120.180	-92.073	-0.150	0.042
