DTS Sentinel unit serial number:	SN413079Multiplexer serial number:	ORYXHardware model number:	OX4-SRSoftware version number:	ORYX F/W v4.00 Oryx Data Collector v3.7.2.0data status	okinstallation	princeton_trtdifferential loss correction	single-endedforward channel	channel 1reverse channel	N/Adate	2019/09/18time	01:46:35forward acquisition time	60.00reverse acquisition time	0.00gamma	496.2192k internal	0.2341k external	0.2341temperature offset calibration	0.9982default loss term (dB/km)	0.3790temperature slope calibration	1.0000multiplexer offset coefficient	1.0000multiplexer slope coefficient	1.0000fibre end	0.00T internal ref (°C)	23.00T ext. ref 1 (°C)	0.16T ext. ref 2 (°C)	16.60length (m)	temperature (°C)	Stokes	anti-Stokes-747.200	-135.190	-0.305	-0.037
-746.185	800.000	0.018	-0.052
-745.171	-111.538	0.168	0.034
-744.156	-91.608	-0.204	-0.058
-743.142	-120.319	-0.268	0.046
-742.127	-56.349	-0.166	-0.074
-741.112	-200.000	-0.031	0.484
-740.098	88.273	-0.084	0.094
-739.083	626.063	-0.102	0.259
-738.069	105.442	0.007	-0.009
-737.054	329.820	0.112	-0.217
-736.039	-151.472	-0.310	0.023
-735.025	-76.896	0.400	0.140
-734.010	125.697	0.013	0.016
-732.996	-185.333	0.435	-0.007
-731.981	307.540	0.055	-0.103
-730.966	-84.738	-0.084	-0.027
-729.952	138.184	-0.054	-0.070
-728.937	-200.000	-0.025	0.130
-727.923	-56.534	0.229	0.102
-726.908	-114.515	0.307	-0.059
-725.894	-134.834	0.269	-0.033
-724.879	-64.258	-0.047	0.019
-723.864	-32.099	0.138	-0.077
-722.850	8.210	0.320	0.241
-721.835	800.000	-0.059	-0.173
-720.821	-122.940	-0.143	-0.023
-719.806	-71.397	0.193	-0.072
-718.791	-93.512	0.490	0.136
-717.777	-173.242	-0.123	0.004
-716.762	395.139	-0.107	-0.222
-715.748	-3.390	-0.189	-0.131
-714.733	84.562	0.133	-0.146
-713.718	128.398	-0.135	-0.172
-712.704	-4.734	-0.110	0.076
-711.689	-200.000	-0.101	-0.459
-710.675	-75.591	-0.098	0.035
-709.660	-10.168	0.166	0.110
-708.645	-161.856	-0.249	-0.013
-707.631	-135.490	-0.201	0.024
-706.616	-140.778	0.028	0.003
-705.602	105.521	-0.076	-0.089
-704.587	800.000	0.049	0.138
-703.572	233.260	0.136	0.223
-702.558	-86.037	-0.284	-0.088
-701.543	-200.000	-0.011	0.417
-700.529	-72.419	-0.285	0.106
-699.514	-14.919	0.275	0.177
-698.499	-41.178	-0.288	0.149
-697.485	84.639	0.229	0.251
-696.470	800.000	0.048	0.142
-695.456	-87.501	-0.274	0.083
-694.441	-0.582	0.268	0.190
-693.426	80.894	0.177	-0.191
-692.412	67.399	0.242	-0.247
-691.397	22.163	-0.065	-0.053
-690.383	252.749	-0.214	-0.366
-689.368	135.087	0.186	0.241
-688.354	71.269	0.188	0.195
-687.339	-200.000	-0.028	0.233
-686.324	278.082	-0.046	-0.082
-685.310	-113.602	0.129	-0.025
-684.295	58.782	0.206	-0.202
-683.281	800.000	0.145	0.427
-682.266	179.845	-0.084	-0.122
-681.251	-200.000	-0.031	-0.154
-680.237	-200.000	0.003	-0.036
-679.222	-200.000	0.068	0.333
-678.208	8.505	0.504	-0.379
-677.193	-193.095	-0.189	0.002
-676.178	-200.000	-0.027	0.313
-675.164	310.961	-0.162	-0.303
-674.149	-19.740	-0.112	0.069
-673.135	-200.000	0.010	-0.077
-672.120	-92.413	0.266	0.075
-671.105	442.126	0.091	-0.200
-670.091	-200.000	0.002	0.347
-669.076	54.852	0.113	0.109
-668.062	-200.000	0.042	0.339
-667.047	-106.271	-0.234	-0.052
-666.032	-15.838	0.241	-0.153
-665.018	-146.516	-0.035	0.003
-664.003	-121.757	0.109	0.018
-662.989	800.000	-0.061	0.212
-661.974	800.000	-0.032	-0.092
-660.959	-135.573	0.104	0.012
-659.945	-74.980	0.522	0.187
-658.930	-104.307	-0.327	-0.076
-657.916	48.923	-0.037	-0.034
-656.901	-121.676	0.233	-0.039
-655.886	-69.177	-0.300	0.115
-654.872	644.362	-0.113	-0.288
-653.857	-200.000	-0.012	-0.295
-652.843	-40.279	-0.376	0.195
-651.828	40.990	-0.118	0.106
-650.814	-154.713	0.138	-0.009
-649.799	-43.412	0.113	-0.057
-648.784	-168.616	-0.046	-0.002
-647.770	-200.000	-0.005	0.110
-646.755	276.386	-0.066	-0.117
-645.741	800.000	0.046	0.149
-644.726	-47.439	0.021	-0.010
-643.711	800.000	-0.091	-0.287
-642.697	0.222	0.188	0.134
-641.682	417.332	0.065	0.139
-640.668	55.632	0.111	-0.107
-639.653	-200.000	-0.021	-0.331
-638.638	-200.000	0.258	-0.001
-637.624	16.748	0.414	-0.327
-636.609	227.187	0.044	-0.072
-635.595	-29.733	0.095	-0.054
-634.580	-200.000	-0.015	0.231
-633.565	-29.298	-0.105	-0.060
-632.551	-115.973	0.270	0.050
-631.536	-119.094	-0.460	-0.080
-630.522	-200.000	0.026	-0.313
-629.507	800.000	0.035	-0.102
-628.492	-200.000	-0.027	-0.247
-627.478	-63.079	0.233	-0.096
-626.463	-98.182	0.277	0.071
-625.449	-200.000	0.042	0.461
-624.434	-200.000	0.020	-0.092
-623.419	23.361	0.163	-0.134
-622.405	-16.920	-0.279	-0.176
-621.390	81.249	-0.127	-0.137
-620.376	-200.000	0.030	-0.134
-619.361	-200.000	-0.009	-0.382
-618.346	-200.000	0.003	0.070
-617.332	247.574	0.018	-0.031
-616.317	72.770	-0.112	-0.117
-615.303	316.733	-0.097	-0.183
-614.288	800.000	0.091	-0.251
-613.273	-200.000	-0.090	0.507
-612.259	-200.000	0.007	0.279
-611.244	514.590	0.089	0.208
-610.230	-77.454	-0.309	0.107
-609.215	-91.955	0.125	-0.035
-608.201	-145.191	0.313	-0.028
-607.186	800.000	-0.031	0.106
-606.171	-200.000	-0.024	-0.201
-605.157	11.476	-0.090	-0.069
-604.142	800.000	-0.117	0.335
-603.128	-178.363	0.359	-0.008
-602.113	800.000	0.071	0.228
-601.098	170.512	0.182	0.260
-600.084	-200.000	-0.001	-0.128
-599.069	-200.000	0.038	-0.192
-598.055	-9.944	-0.245	0.163
-597.040	-46.203	-0.071	-0.035
-596.025	-2.143	-0.214	-0.150
-595.011	-200.000	0.027	0.372
-593.996	-152.547	-0.103	0.007
-592.982	150.836	-0.152	0.205
-591.967	248.781	0.070	0.118
-590.952	110.594	-0.268	-0.321
-589.938	118.699	0.313	-0.385
-588.923	106.257	0.243	0.287
-587.909	-83.999	-0.323	0.102
-586.894	655.472	-0.083	0.211
-585.879	52.871	-0.244	-0.233
-584.865	660.437	0.071	0.183
-583.850	83.136	-0.170	-0.184
-582.836	165.214	0.135	-0.189
-581.821	-69.323	-0.428	-0.164
-580.806	82.751	-0.174	-0.189
-579.792	-23.633	0.060	0.036
-578.777	102.732	-0.117	-0.137
-577.763	401.664	-0.249	-0.521
-576.748	382.722	-0.009	-0.019
-575.733	36.424	-0.324	-0.285
-574.719	-97.422	0.117	-0.030
-573.704	-127.256	0.098	0.014
-572.690	800.000	0.016	-0.069
-571.675	384.309	-0.141	0.289
-570.661	-200.000	-0.019	-0.346
-569.646	14.667	0.227	-0.177
-568.631	627.883	0.110	0.276
-567.617	-173.293	0.317	-0.010
-566.602	10.088	-0.082	-0.062
-565.588	-74.249	0.257	-0.092
-564.573	204.766	-0.205	0.317
-563.558	-63.470	-0.240	-0.098
-562.544	379.361	-0.089	-0.182
-561.529	-200.000	-0.006	0.189
-560.515	800.000	-0.009	-0.025
-559.500	-62.730	-0.114	0.047
-558.485	-37.817	0.392	-0.208
-557.471	89.017	-0.177	-0.196
-556.456	-14.586	-0.203	0.130
-555.442	-200.000	0.026	0.401
-554.427	-51.926	-0.115	0.053
-553.412	495.523	0.126	-0.287
-552.398	-200.000	0.018	0.216
-551.383	-200.000	0.013	0.075
-550.369	602.311	0.023	-0.057
-549.354	222.643	-0.147	-0.235
-548.339	8.070	-0.051	-0.038
-547.325	-2.890	0.128	0.089
-546.310	-33.077	-0.353	0.194
-545.296	-122.017	0.171	-0.028
-544.281	-133.939	0.332	0.041
-543.266	88.646	-0.215	0.238
-542.252	129.152	-0.107	0.135
-541.237	54.373	0.167	-0.160
-540.223	695.885	0.157	-0.410
-539.208	800.000	0.044	-0.123
-538.193	25.556	-0.269	-0.223
-537.179	800.000	0.029	0.083
-536.164	-120.309	-0.166	-0.028
-535.150	-81.054	-0.305	0.100
-534.135	-16.350	-0.313	0.197
-533.121	34.810	-0.261	0.227
-532.106	510.265	0.021	-0.048
-531.091	-89.822	-0.243	-0.071
-530.077	-200.000	0.036	0.166
-529.062	-62.613	0.197	0.081
-528.048	-200.000	-0.002	-0.277
-527.033	351.499	0.071	0.140
-526.018	-175.467	-0.514	0.014
-525.004	149.692	0.109	0.147
-523.989	77.936	0.120	-0.127
-522.975	37.045	-0.248	-0.218
-521.960	-200.000	-0.038	0.462
-520.945	-25.718	0.221	0.130
-519.931	333.369	-0.064	-0.123
-518.916	-169.162	-0.180	-0.007
-517.902	-200.000	-0.006	-0.028
-516.887	-93.874	0.479	-0.131
-515.872	800.000	-0.023	0.095
-514.858	66.678	-0.024	0.025
-513.843	-63.548	-0.041	-0.017
-512.829	-67.716	-0.234	-0.091
-511.814	43.243	-0.212	0.192
-510.799	478.362	-0.051	0.116
-509.785	-200.000	-0.014	-0.099
-508.770	800.000	-0.067	0.219
-507.756	-200.000	0.037	0.194
-506.741	-200.000	0.008	-0.086
-505.726	-200.000	0.028	-0.417
-504.712	-137.627	0.257	0.029
-503.697	800.000	-0.088	0.362
-502.683	800.000	-0.130	-0.393
-501.668	-200.000	0.075	0.365
-500.653	28.564	-0.392	0.330
-499.639	-20.102	0.319	-0.195
-498.624	48.900	-0.204	-0.190
-497.610	-200.000	-0.002	-0.056
-496.595	774.373	-0.070	0.191
-495.581	-62.797	-0.228	-0.094
-494.566	-140.889	0.098	0.010
-493.551	542.263	-0.166	0.394
-492.537	131.112	-0.131	-0.167
-491.522	-58.776	0.093	-0.040
-490.508	-29.922	-0.105	0.059
-489.493	800.000	0.040	-0.118
-488.478	-142.345	-0.266	-0.026
-487.464	13.501	0.048	0.037
-486.449	-200.000	-0.006	0.206
-485.435	-129.147	0.179	0.025
-484.420	-77.899	0.261	0.089
-483.405	199.238	-0.042	-0.064
-482.391	-65.272	0.467	0.186
-481.376	269.127	-0.111	-0.192
-480.362	45.065	0.071	0.065
-479.347	-1.846	0.258	-0.180
-478.332	76.512	0.180	-0.189
-477.318	-77.039	0.040	-0.014
-476.303	36.037	-0.241	0.211
-475.289	66.547	-0.152	-0.153
-474.274	800.000	-0.123	-0.339
-473.259	168.585	0.165	-0.233
-472.245	-144.235	-0.065	-0.006
-471.230	-200.000	-0.028	0.258
-470.216	-61.356	-0.120	-0.050
-469.201	123.184	-0.125	0.155
-468.186	410.750	-0.154	-0.323
-467.172	-113.066	-0.293	0.057
-466.157	-200.000	-0.053	0.278
-465.143	70.997	-0.082	0.085
-464.128	800.000	0.007	-0.027
-463.113	-200.000	0.039	0.272
-462.099	-26.440	0.093	0.054
-461.084	-91.477	-0.363	-0.103
-460.070	-200.000	0.012	-0.054
-459.055	-96.348	0.053	-0.014
-458.040	800.000	-0.028	0.094
-457.026	53.548	0.200	-0.190
-456.011	31.570	-0.270	-0.230
-454.997	-61.977	-0.409	0.170
-453.982	-200.000	0.273	0.001
-452.968	-200.000	0.035	0.252
-451.953	800.000	0.045	0.157
-450.938	-72.502	-0.296	0.108
-449.924	-39.309	0.370	-0.193
-448.909	-134.450	0.319	-0.039
-447.895	-183.239	-0.074	-0.001
-446.880	-150.634	-0.326	-0.025
-445.865	-55.795	0.209	-0.092
-444.851	-84.903	0.372	0.116
-443.836	-193.714	-0.288	0.002
-442.822	309.907	0.103	0.191
-441.807	-200.000	0.001	0.215
-440.792	-101.016	0.281	-0.068
-439.778	-150.130	0.203	0.016
-438.763	37.728	0.209	0.184
-437.749	-65.017	-0.312	0.125
-436.734	800.000	0.027	-0.096
-435.719	136.517	-0.168	-0.217
-434.705	33.156	0.246	-0.211
-433.690	-14.048	0.090	-0.057
-432.676	220.572	-0.050	0.079
-431.661	-39.807	-0.179	-0.093
-430.646	88.671	0.121	-0.133
-429.632	-20.975	0.096	0.058
-428.617	-127.938	0.077	0.011
-427.603	226.823	-0.138	0.221
-426.588	-200.000	-0.003	0.355
-425.573	-163.057	0.160	-0.008
-424.559	-40.184	-0.192	0.099
-423.544	-200.000	-0.011	0.068
-422.530	0.020	-0.128	-0.090
-421.515	159.328	-0.108	-0.149
-420.500	186.958	-0.190	-0.280
-419.486	-139.884	0.426	-0.045
-418.471	270.231	0.090	0.156
-417.457	-111.604	-0.216	-0.043
-416.442	237.968	0.027	-0.044
-415.428	-200.000	-0.021	0.090
-414.413	-90.751	-0.278	-0.079
-413.398	-102.702	-0.218	-0.051
-412.384	76.302	-0.048	-0.051
-411.369	639.556	-0.074	0.185
-410.355	-21.327	-0.120	0.073
-409.340	800.000	-0.089	-0.327
-408.325	61.622	-0.204	-0.201
-407.311	422.593	0.141	-0.300
-406.296	800.000	-0.084	-0.265
-405.282	286.381	-0.141	0.252
-404.267	274.448	-0.130	0.228
-403.252	-56.806	0.207	-0.091
-402.238	-200.000	-0.003	0.028
-401.223	-139.091	0.281	0.030
-400.209	-23.502	-0.064	-0.038
-399.194	40.256	0.290	0.258
-398.179	60.640	0.107	0.105
-397.165	-90.426	-0.232	0.066
-396.150	79.837	0.336	-0.357
-395.136	-200.000	-0.036	-0.191
-394.121	371.108	0.084	0.168
-393.106	-143.810	-0.322	0.030
-392.092	-50.746	-0.094	-0.044
-391.077	80.974	0.024	0.026
-390.063	-46.732	0.240	-0.116
-389.048	800.000	-0.110	0.361
-388.033	120.049	0.207	0.254
-387.019	-125.438	0.287	0.043
-386.004	-15.173	-0.123	-0.078
-384.990	-13.346	-0.211	-0.135
-383.975	-174.144	-0.424	-0.012
-382.960	800.000	-0.065	-0.275
-381.946	284.488	0.146	-0.259
-380.931	-111.970	-0.238	0.047
-379.917	608.889	0.099	-0.244
-378.902	161.030	-0.152	0.210
-377.888	-38.646	0.178	0.093
-376.873	702.979	-0.037	-0.096
-375.858	101.662	0.109	0.125
-374.844	-112.473	0.261	0.052
-373.829	296.380	0.090	-0.163
-372.815	59.318	-0.062	0.060
-371.800	-200.000	0.016	-0.302
-370.785	-0.455	-0.088	-0.062
-369.771	9.947	0.066	0.049
-368.756	456.417	-0.109	-0.240
-367.742	-11.226	0.262	-0.171
-366.727	-200.000	-0.029	0.252
-365.712	279.338	-0.017	0.030
-364.698	-200.000	0.049	0.343
-363.683	110.688	-0.280	0.333
-362.669	239.553	-0.196	-0.322
-361.654	800.000	0.014	-0.059
-360.639	-114.285	-0.068	-0.013
-359.625	-200.000	0.003	0.263
-358.610	-25.871	0.247	0.144
-357.596	7.619	-0.122	-0.090
-356.581	-144.517	0.434	0.040
-355.566	-200.000	-0.004	-0.230
-354.552	51.425	0.172	0.161
-353.537	-140.501	0.270	0.028
-352.523	-22.733	-0.221	-0.132
-351.508	800.000	-0.098	-0.286
-350.493	-200.000	0.002	0.143
-349.479	-200.000	-0.017	0.110
-348.464	-200.000	-0.017	0.142
-347.450	797.079	0.133	0.361
-346.435	-200.000	-0.002	-0.093
-345.420	-76.800	0.152	0.052
-344.406	-29.457	-0.191	0.108
-343.391	-124.884	-0.043	0.006
-342.377	-200.000	-0.033	-0.178
-341.362	-200.000	-0.025	0.144
-340.348	-27.340	-0.265	-0.152
-339.333	-75.133	-0.145	0.051
-338.318	800.000	-0.118	0.426
-337.304	44.750	-0.200	0.182
-336.289	98.518	-0.241	0.274
-335.275	800.000	-0.074	0.253
-334.260	106.621	0.140	0.163
-333.245	-59.043	0.678	-0.289
-332.231	-35.145	-0.319	-0.171
-331.216	-113.039	-0.297	0.058
-330.202	-200.000	-0.023	-0.275
-329.187	101.223	0.336	0.386
-328.172	-33.707	-0.202	-0.110
-327.158	-123.364	-0.127	0.020
-326.143	-140.410	-0.210	0.022
-325.129	-200.000	-0.006	0.282
-324.114	397.536	0.084	-0.174
-323.099	116.471	0.134	-0.162
-322.085	315.435	0.115	0.215
-321.070	-200.000	0.049	-0.231
-320.056	76.458	-0.162	0.169
-319.041	-90.903	-0.181	0.051
-318.026	118.222	0.067	-0.081
-317.012	800.000	0.052	0.180
-315.997	-125.148	-0.405	-0.061
-314.983	-115.374	0.354	-0.066
-313.968	-121.133	-0.166	0.027
-312.953	391.079	-0.016	-0.033
-311.939	72.129	0.104	-0.107
-310.924	112.511	0.152	-0.181
-309.910	-73.726	0.236	-0.085
-308.895	-68.550	-0.130	0.050
-307.880	69.047	0.105	0.106
-306.866	40.346	0.129	0.115
-305.851	733.866	-0.109	-0.288
-304.837	196.135	0.093	0.139
-303.822	180.529	0.180	0.261
-302.807	40.723	-0.076	0.067
-301.793	-200.000	-0.022	0.108
-300.778	319.234	-0.053	0.099
-299.764	647.987	0.124	0.311
-298.749	-121.851	-0.024	0.004
-297.735	-125.921	0.098	-0.015
-296.720	-200.000	0.010	0.136
-295.705	-57.298	0.431	-0.187
-294.691	-92.213	-0.147	0.041
-293.676	-57.371	0.117	0.051
-292.662	13.367	0.365	-0.279
-291.647	-106.635	-0.338	-0.074
-290.632	800.000	0.094	-0.344
-289.618	-200.000	-0.014	0.338
-288.603	-6.197	-0.148	0.100
-287.589	-111.365	0.115	0.023
-286.574	64.924	-0.283	-0.281
-285.559	760.667	0.152	-0.407
-284.545	-151.779	-0.121	0.009
-283.530	235.462	-0.080	-0.130
-282.516	-79.041	0.243	-0.081
-281.501	-2.761	0.166	-0.114
-280.486	32.810	0.069	0.059
-279.472	-200.000	0.030	0.321
-278.457	-137.503	0.416	0.046
-277.443	468.449	0.032	0.070
-276.428	800.000	-0.052	-0.151
-275.413	311.791	0.065	0.120
-274.399	-200.000	-0.038	0.259
-273.384	-42.927	0.476	-0.238
-272.370	-100.895	-0.162	-0.039
-271.355	-14.736	-0.123	-0.077
-270.340	416.365	-0.100	0.209
-269.326	273.437	-0.040	0.069
-268.311	-200.000	-0.013	0.486
-267.297	-99.601	0.097	-0.024
-266.282	-26.252	-0.216	-0.125
-265.267	76.060	0.121	-0.126
-264.253	550.824	-0.142	0.336
-263.238	-97.914	-0.197	0.050
-262.224	70.252	-0.099	-0.100
-261.209	-200.000	-0.032	-0.371
-260.195	-19.274	-0.061	0.037
-259.180	-200.000	-0.036	-0.401
-258.165	-50.570	0.108	0.050
-257.151	-92.260	0.060	0.017
-256.136	183.997	-0.160	0.232
-255.122	800.000	-0.045	-0.191
-254.107	800.000	0.003	-0.010
-253.092	286.179	0.166	-0.294
-252.078	-200.000	0.015	-0.237
-251.063	-146.839	0.109	0.009
-250.049	-69.112	-0.076	0.029
-249.034	-200.000	-0.056	0.353
-248.019	92.627	0.130	-0.144
-247.005	-32.037	-0.239	0.131
-245.990	154.092	0.326	0.439
-244.976	119.195	-0.259	0.315
-243.961	1.560	-0.075	-0.053
-242.946	1.998	0.129	0.091
-241.932	-6.875	0.171	0.114
-240.917	50.616	0.195	0.181
-239.903	800.000	0.048	0.183
-238.888	-169.931	0.356	0.013
-237.873	134.133	0.056	0.072
-236.859	-125.921	0.125	-0.019
-235.844	64.584	-0.180	-0.178
-234.830	-120.042	0.189	0.032
-233.815	200.620	0.067	0.101
-232.800	-41.915	-0.059	-0.030
-231.786	800.000	-0.060	-0.179
-230.771	800.000	0.033	0.141
-229.757	-42.914	-0.183	-0.091
-228.742	-64.830	0.388	0.154
-227.727	264.927	0.007	-0.013
-226.713	221.287	0.111	0.174
-225.698	800.000	-0.042	-0.151
-224.684	-77.439	0.180	0.061
-223.669	-79.751	-0.063	0.021
-222.655	800.000	-0.053	-0.178
-221.640	-200.000	-0.026	-0.267
-220.625	-14.065	0.289	0.183
-219.611	157.025	-0.195	-0.265
-218.596	-200.000	-0.018	0.084
-217.582	-200.000	-0.005	-0.045
-216.567	719.614	-0.080	0.208
-215.552	77.413	0.173	-0.181
-214.538	278.432	-0.067	0.118
-213.523	34.924	-0.114	-0.098
-212.509	125.165	0.145	0.179
-211.494	81.019	0.079	-0.084
-210.479	329.326	0.110	0.208
-209.465	374.426	0.180	-0.360
-208.450	102.563	0.238	-0.273
-207.436	-119.648	0.339	-0.057
-206.421	266.888	0.120	-0.206
-205.406	282.689	-0.083	-0.147
-204.392	291.849	0.098	-0.175
-203.377	-200.000	0.054	-0.304
-202.363	-43.018	0.196	-0.098
-201.348	-200.000	-0.035	-0.165
-200.333	-147.803	-0.121	-0.010
-199.319	-43.378	-0.315	0.156
-198.304	591.893	0.045	-0.108
-197.290	-49.292	-0.214	0.100
-196.275	605.934	-0.020	0.050
-195.260	671.691	0.073	0.186
-194.246	599.703	0.192	0.466
-193.231	441.471	-0.119	-0.255
-192.217	-165.106	-0.176	-0.008
-191.202	-59.270	0.457	0.193
-190.187	226.301	-0.184	-0.292
-189.173	800.000	0.086	-0.342
-188.158	-200.000	0.006	-0.243
-187.144	76.865	-0.066	0.068
-186.129	14.813	0.285	0.218
-185.114	-96.072	-0.255	-0.066
-184.100	-149.593	-0.206	-0.016
-183.085	-75.704	0.255	0.089
-182.071	-64.399	0.414	0.165
-181.056	-200.000	0.102	-0.000
-180.042	-66.549	0.109	-0.042
-179.027	-70.193	-0.348	0.130
-178.012	123.102	0.139	0.170
-176.998	-69.444	-0.292	-0.110
-175.983	65.938	0.103	0.102
-174.969	-41.488	0.122	-0.062
-173.954	68.393	-0.036	-0.036
-172.939	1.667	0.178	-0.125
-171.925	-200.000	-0.022	-0.201
-170.910	-108.995	-0.360	-0.075
-169.896	338.343	0.233	0.445
-168.881	51.056	-0.121	0.113
-167.866	-29.103	-0.201	-0.113
-166.852	769.676	0.175	0.466
-165.837	3.125	-0.188	-0.134
-164.823	-74.150	0.294	0.104
-163.808	-188.924	-0.104	0.001
-162.793	800.000	0.015	0.052
-161.779	322.534	-0.087	-0.163
-160.764	75.386	-0.122	-0.126
-159.750	-116.644	0.036	-0.006
-158.735	122.191	-0.119	-0.145
-157.720	19.540	-0.074	0.059
-156.706	800.000	0.091	0.306
-155.691	-82.020	-0.095	0.030
-154.677	250.036	0.149	-0.247
-153.662	-1.224	-0.037	0.025
-152.647	-110.138	0.126	-0.026
-151.633	-47.373	-0.139	0.066
-150.618	800.000	0.032	-0.097
-149.604	269.009	0.053	0.091
-148.589	-101.999	-0.282	0.067
-147.574	-89.054	-0.138	-0.040
-146.560	-63.273	0.233	0.094
-145.545	-124.609	0.093	0.014
-144.531	-104.730	-0.462	0.104
-143.516	-200.000	0.032	0.161
-142.502	5.967	-0.217	0.158
-141.487	-200.000	-0.051	0.354
-140.472	-200.000	-0.002	0.064
-139.458	49.247	-0.084	0.078
-138.443	-76.127	0.238	0.082
-137.429	-64.003	-0.172	-0.069
-136.414	-25.297	-0.197	0.114
-135.399	4.908	0.098	-0.070
-134.385	-121.029	-0.324	-0.053
-133.370	-7.873	0.038	-0.025
-132.356	-111.742	-0.203	-0.040
-131.341	800.000	-0.033	-0.136
-130.326	-92.995	-0.051	0.014
-129.312	60.689	0.097	-0.094
-128.297	-3.987	0.200	0.136
-127.283	-200.000	-0.017	-0.147
-126.268	-200.000	0.026	0.183
-125.253	-36.447	0.324	0.171
-124.239	-1.847	-0.097	-0.067
-123.224	606.184	-0.132	0.321
-122.210	31.737	0.215	0.181
-121.195	67.363	0.083	0.083
