DTS Sentinel unit serial number:	SN413079Multiplexer serial number:	ORYXHardware model number:	OX4-SRSoftware version number:	ORYX F/W v4.00 Oryx Data Collector v3.7.2.0data status	okinstallation	princeton_trtdifferential loss correction	single-endedforward channel	channel 1reverse channel	N/Adate	2019/09/11time	08:08:11forward acquisition time	60.00reverse acquisition time	0.00gamma	496.2192k internal	0.2320k external	0.2320temperature offset calibration	1.1247default loss term (dB/km)	0.3790temperature slope calibration	1.0000multiplexer offset coefficient	1.0000multiplexer slope coefficient	1.0000fibre end	0.00T internal ref (°C)	32.34T ext. ref 1 (°C)	19.88T ext. ref 2 (°C)	28.43length (m)	temperature (°C)	Stokes	anti-Stokes-747.200	800.000	-0.071	-0.247
-746.185	-200.000	-0.052	-0.238
-745.171	96.154	0.137	0.158
-744.156	-89.594	-0.127	-0.038
-743.142	0.165	0.088	-0.063
-742.127	-67.285	0.101	0.040
-741.112	289.308	0.062	-0.114
-740.098	219.668	0.255	0.413
-739.083	-158.590	0.390	-0.023
-738.069	178.716	-0.207	0.306
-737.054	-200.000	0.005	0.212
-736.039	351.078	-0.147	0.293
-735.025	104.015	0.340	-0.404
-734.010	-44.823	-0.205	0.103
-732.996	121.027	0.105	-0.132
-731.981	91.245	-0.244	0.276
-730.966	-200.000	0.050	0.283
-729.952	-109.531	-0.218	-0.046
-728.937	-25.467	-0.337	0.201
-727.923	-124.445	-0.127	0.020
-726.908	-111.355	0.078	-0.016
-725.894	113.267	-0.286	-0.351
-724.879	83.695	-0.214	-0.236
-723.864	-200.000	0.025	0.181
-722.850	-54.284	-0.212	0.097
-721.835	177.573	-0.094	0.139
-720.821	-36.964	-0.146	0.079
-719.806	272.718	0.054	-0.096
-718.791	561.461	0.055	-0.133
-717.777	-138.570	0.288	-0.032
-716.762	154.239	-0.094	0.131
-715.748	459.126	-0.109	-0.244
-714.733	-78.983	-0.129	0.044
-713.718	61.307	-0.320	0.321
-712.704	-65.662	-0.321	0.130
-711.689	-200.000	-0.023	-0.334
-710.675	-200.000	-0.023	0.187
-709.660	594.257	0.069	0.172
-708.645	80.011	-0.321	-0.348
-707.631	-200.000	0.068	-0.332
-706.616	193.421	0.074	-0.113
-705.602	17.213	0.243	0.195
-704.587	-117.596	-0.337	-0.061
-703.572	800.000	0.048	-0.163
-702.558	172.429	-0.124	-0.180
-701.543	-34.273	0.138	-0.076
-700.529	-200.000	-0.018	-0.137
-699.514	192.455	0.275	-0.419
-698.499	188.158	-0.025	-0.038
-697.485	-200.000	0.029	0.326
-696.470	-200.000	-0.006	0.254
-695.456	-200.000	-0.012	-0.114
-694.441	-28.446	-0.154	-0.090
-693.426	83.834	-0.062	0.068
-692.412	-195.309	-0.179	-0.001
-691.397	268.571	-0.107	-0.190
-690.383	-121.373	-0.160	0.027
-689.368	-46.393	0.230	-0.114
-688.354	-200.000	0.046	0.337
-687.339	-50.641	0.308	0.146
-686.324	159.820	-0.148	-0.209
-685.310	1.197	-0.172	-0.124
-684.295	-9.727	0.126	-0.085
-683.281	33.856	0.338	0.296
-682.266	188.937	0.074	-0.112
-681.251	168.976	-0.326	-0.469
-680.237	-134.767	0.130	-0.016
-679.222	-102.309	0.297	-0.072
-678.208	800.000	-0.042	-0.183
-677.193	-87.120	-0.106	0.033
-676.178	99.814	0.087	0.102
-675.164	-145.513	-0.459	-0.042
-674.149	-200.000	-0.019	-0.116
-673.135	98.596	-0.298	-0.346
-672.120	-200.000	-0.022	0.219
-671.105	-200.000	-0.034	-0.244
-670.091	-170.488	0.131	-0.005
-669.076	22.858	-0.120	0.099
-668.062	74.652	-0.220	0.234
-667.047	16.640	-0.137	-0.109
-666.032	346.343	-0.137	0.271
-665.018	800.000	0.062	-0.180
-664.003	-8.756	-0.315	-0.213
-662.989	-113.636	-0.064	-0.013
-661.974	-15.470	0.313	-0.202
-660.959	429.282	0.024	0.053
-659.945	26.371	0.111	0.093
-658.930	4.047	-0.234	0.172
-657.916	-200.000	-0.010	-0.274
-656.901	-200.000	-0.005	0.214
-655.886	-64.372	-0.400	-0.164
-654.872	-104.944	0.335	-0.077
-653.857	-164.473	0.084	-0.004
-652.843	471.599	-0.138	-0.314
-651.828	0.217	0.211	0.152
-650.814	208.639	0.196	0.308
-649.799	800.000	-0.140	0.419
-648.784	164.483	0.092	0.131
-647.770	8.480	0.091	-0.069
-646.755	800.000	-0.012	0.038
-645.741	448.162	-0.089	-0.198
-644.726	629.888	-0.073	-0.187
-643.711	420.902	-0.136	0.294
-642.697	-198.566	0.208	-0.001
-641.682	-167.371	-0.165	0.007
-640.668	-146.099	-0.200	-0.018
-639.653	317.299	0.058	-0.111
-638.638	62.805	-0.104	-0.104
-637.624	203.342	0.196	0.305
-636.609	363.018	0.062	0.125
-635.595	-57.269	-0.025	-0.011
-634.580	-200.000	0.053	0.274
-633.565	-112.558	-0.142	-0.029
-632.551	278.156	0.087	-0.156
-631.536	-200.000	0.033	0.156
-630.522	-159.302	0.184	0.010
-629.507	452.387	0.034	-0.075
-628.492	82.792	-0.136	0.149
-627.478	-200.000	0.002	-0.213
-626.463	-99.537	0.288	0.073
-625.449	800.000	0.081	-0.342
-624.434	-200.000	0.005	-0.189
-623.419	-136.236	-0.295	0.035
-622.405	73.933	-0.163	0.172
-621.390	26.641	0.132	0.111
-620.376	-85.418	-0.206	-0.065
-619.361	725.391	-0.069	0.186
-618.346	800.000	0.126	-0.426
-617.332	-41.592	-0.200	-0.103
-616.317	-200.000	0.031	0.206
-615.303	-97.889	0.111	0.029
-614.288	-129.874	0.250	0.035
-613.273	133.305	0.058	-0.076
-612.259	60.231	0.039	-0.039
-611.244	245.649	-0.085	-0.143
-610.230	-33.528	-0.169	-0.094
-609.215	375.715	-0.114	-0.233
-608.201	-40.877	0.060	-0.031
-607.186	-145.594	0.319	0.029
-606.171	-35.330	0.061	-0.033
-605.157	223.382	-0.032	0.053
-604.142	800.000	-0.090	-0.282
-603.128	800.000	-0.029	-0.082
-602.113	-200.000	-0.001	-0.269
-601.098	-200.000	-0.005	-0.024
-600.084	-200.000	0.021	-0.094
-599.069	-200.000	-0.005	0.061
-598.055	16.387	0.208	0.165
-597.040	-118.469	-0.053	-0.010
-596.025	280.687	0.047	0.084
-595.011	381.407	0.117	0.241
-593.996	-116.895	-0.148	0.027
-592.982	800.000	0.151	0.479
-591.967	41.545	0.224	0.203
-590.952	154.080	-0.122	0.168
-589.938	-89.325	-0.066	0.020
-588.923	-59.872	0.115	0.049
-587.909	800.000	-0.015	0.062
-586.894	103.200	0.186	-0.219
-585.879	-3.351	-0.084	-0.059
-584.865	-128.916	0.136	0.019
-583.850	153.193	-0.253	0.347
-582.836	-177.167	-0.315	-0.008
-581.821	800.000	-0.040	-0.136
-580.806	-122.212	-0.280	0.046
-579.792	167.079	-0.114	-0.163
-578.777	564.269	0.034	0.084
-577.763	-40.074	-0.107	0.056
-576.748	-92.454	-0.125	-0.035
-575.733	67.905	0.090	0.093
-574.719	-22.791	-0.110	-0.067
-573.704	-97.327	-0.101	-0.027
-572.690	-58.533	0.148	-0.065
-571.675	-78.651	-0.321	-0.110
-570.661	-200.000	0.016	-0.144
-569.646	-200.000	-0.017	0.146
-568.631	33.500	-0.172	0.150
-567.617	624.599	0.205	-0.519
-566.602	-200.000	0.023	-0.235
-565.588	-121.816	0.361	-0.060
-564.573	-200.000	-0.021	-0.144
-563.558	-99.714	-0.312	0.079
-562.544	-200.000	0.045	0.288
-561.529	-200.000	-0.016	0.080
-560.515	-200.000	-0.031	0.194
-559.500	-103.846	-0.183	0.043
-558.485	-185.088	0.265	-0.004
-557.471	207.330	0.084	0.132
-556.456	800.000	-0.083	-0.324
-555.442	-50.982	-0.144	-0.068
-554.427	-66.321	-0.094	-0.038
-553.412	83.793	0.133	-0.146
-552.398	-22.658	-0.309	-0.187
-551.383	294.745	-0.077	-0.142
-550.369	0.222	-0.097	-0.069
-549.354	21.263	0.121	0.099
-548.339	10.568	-0.095	0.073
-547.325	-10.868	0.129	0.086
-546.310	-119.540	0.468	0.081
-545.296	-159.713	-0.115	0.006
-544.281	-45.453	-0.073	-0.036
-543.266	88.779	-0.032	-0.036
-542.252	-64.833	-0.265	0.107
-541.237	45.891	-0.037	-0.034
-540.223	-64.378	0.321	-0.131
-539.208	775.613	-0.053	-0.145
-538.193	-12.526	-0.076	-0.050
-537.179	-47.042	-0.342	0.168
-536.164	398.840	0.080	0.169
-535.150	-200.000	-0.013	-0.080
-534.135	146.536	-0.142	-0.192
-533.121	99.767	0.233	0.271
-532.106	-14.995	-0.159	-0.102
-531.091	-161.668	0.255	-0.013
-530.077	-140.583	-0.308	-0.032
-529.062	409.252	-0.067	0.142
-528.048	-200.000	-0.225	0.001
-527.033	-200.000	-0.028	-0.158
-526.018	-16.019	-0.098	-0.063
-525.004	17.922	0.029	-0.023
-523.989	142.846	-0.225	-0.300
-522.975	800.000	-0.037	-0.108
-521.960	369.016	-0.101	0.205
-520.945	800.000	-0.015	-0.051
-519.931	-80.815	0.156	0.052
-518.916	-200.000	-0.033	-0.150
-517.902	-200.000	0.006	-0.098
-516.887	88.763	0.108	0.121
-515.872	376.676	0.079	-0.161
-514.858	-200.000	-0.073	-0.549
-513.843	-75.859	0.141	-0.050
-512.829	31.112	-0.133	-0.114
-511.814	245.791	-0.250	-0.422
-510.799	-200.000	0.015	-0.411
-509.785	99.416	0.196	-0.227
-508.770	-200.000	0.012	-0.110
-507.756	-50.352	-0.047	0.022
-506.741	800.000	-0.085	-0.265
-505.726	-151.523	-0.202	-0.015
-504.712	-51.122	0.226	-0.106
-503.697	800.000	0.074	-0.223
-502.683	800.000	-0.064	0.273
-501.668	57.690	0.213	0.208
-500.653	-42.542	-0.052	0.027
-499.639	669.625	0.065	-0.170
-498.624	-76.420	0.150	-0.053
-497.610	78.985	0.178	-0.191
-496.595	-125.840	0.179	0.027
-495.581	74.037	-0.147	-0.154
-494.566	-100.080	-0.126	0.031
-493.551	80.233	0.090	-0.097
-492.537	800.000	0.094	0.261
-491.522	-62.708	-0.255	0.106
-490.508	-77.566	0.335	-0.116
-489.493	354.444	-0.140	0.279
-488.478	-111.625	-0.406	-0.083
-487.464	-1.878	-0.232	0.163
-486.449	-120.388	-0.149	0.025
-485.435	151.598	0.240	0.327
-484.420	800.000	-0.035	0.136
-483.405	25.797	-0.281	0.234
-482.391	221.359	0.043	-0.070
-481.376	66.251	-0.156	-0.159
-480.362	-200.000	0.004	0.116
-479.347	177.686	0.091	-0.133
-478.332	550.575	-0.069	-0.167
-477.318	-15.482	-0.420	-0.268
-476.303	-107.404	0.170	0.037
-475.289	-62.238	0.228	-0.095
-474.274	30.048	-0.282	-0.241
-473.259	8.044	-0.096	-0.072
-472.245	-75.149	0.105	-0.038
-471.230	-122.638	-0.157	-0.025
-470.216	-200.000	0.038	-0.177
-469.201	-174.506	0.363	-0.010
-468.186	800.000	-0.074	0.258
-467.172	-0.752	-0.345	-0.245
-466.157	-200.000	0.031	-0.310
-465.143	-91.694	0.069	-0.020
-464.128	-33.066	-0.187	0.104
-463.113	-64.402	-0.271	0.110
-462.099	332.250	-0.035	0.068
-461.084	31.267	0.042	0.036
-460.070	237.049	0.038	-0.063
-459.055	-200.000	-0.019	0.153
-458.040	3.099	0.172	0.125
-457.026	-101.427	0.191	-0.046
-456.011	-74.681	0.226	0.081
-454.997	1.499	0.048	-0.034
-453.982	16.544	0.171	0.135
-452.968	-57.060	0.379	0.167
-451.953	-200.000	-0.016	0.255
-450.938	-36.509	0.153	0.082
-449.924	-10.046	0.145	-0.096
-448.909	152.277	0.196	-0.268
-447.895	102.057	0.097	-0.114
-446.880	-84.216	0.174	-0.055
-445.865	6.650	0.219	0.163
-444.851	-39.166	0.087	0.046
-443.836	-168.606	0.425	-0.016
-442.822	-200.000	0.041	0.234
-441.807	269.975	0.142	0.249
-440.792	14.600	0.273	-0.213
-439.778	-151.440	0.340	-0.025
-438.763	28.491	0.079	-0.067
-437.749	212.591	-0.081	-0.128
-436.734	-200.000	-0.048	-0.404
-435.719	116.942	0.186	-0.228
-434.705	-151.728	-0.060	0.004
-433.690	138.549	0.118	0.155
-432.676	206.794	0.152	0.236
-431.661	20.087	0.014	-0.011
-430.646	782.820	-0.050	0.136
-429.632	-156.326	-0.213	-0.013
-428.617	99.963	-0.095	-0.110
-427.603	13.968	0.163	-0.127
-426.588	231.122	0.144	0.236
-425.573	800.000	0.148	0.519
-424.559	-13.236	-0.191	0.124
-423.544	130.138	-0.119	0.152
-422.530	100.657	0.193	0.224
-421.515	739.933	0.112	-0.299
-420.500	649.030	-0.081	0.208
-419.486	-115.575	0.338	-0.063
-418.471	-159.317	0.051	-0.003
-417.457	115.222	-0.132	-0.161
-416.442	-140.930	0.188	-0.019
-415.428	800.000	0.049	-0.145
-414.413	-45.809	-0.397	-0.196
-413.398	-200.000	0.025	-0.255
-412.384	-11.037	0.167	0.110
-411.369	35.678	-0.334	0.293
-410.355	13.296	0.031	-0.024
-409.340	186.219	-0.070	-0.104
-408.325	185.093	0.150	-0.222
-407.311	439.485	-0.115	0.251
-406.296	-144.703	-0.018	0.002
-405.282	-5.145	-0.064	0.044
-404.267	800.000	-0.099	0.419
-403.252	7.604	0.178	-0.133
-402.238	149.354	-0.148	0.199
-401.223	-149.613	0.166	-0.013
-400.209	-60.577	0.187	0.079
-399.194	9.466	0.112	-0.085
-398.179	800.000	0.072	0.283
-397.165	-75.121	0.145	0.052
-396.150	148.127	-0.122	-0.164
-395.136	800.000	-0.040	-0.134
-394.121	105.561	-0.140	-0.165
-393.106	-200.000	0.043	-0.370
-392.092	-160.448	0.095	-0.005
-391.077	-144.121	0.253	-0.024
-390.063	186.103	-0.100	0.149
-389.048	55.269	-0.174	0.168
-388.033	800.000	-0.043	0.136
-387.019	-200.000	0.067	0.309
-386.004	-178.131	-0.339	0.008
-384.990	-17.137	-0.206	-0.129
-383.975	-200.000	0.066	-0.319
-382.960	-68.937	0.073	-0.028
-381.946	-67.514	0.276	0.108
-380.931	800.000	0.019	-0.072
-379.917	-134.072	-0.319	-0.039
-378.902	15.820	-0.211	0.166
-377.888	-6.147	-0.197	0.134
-376.873	-200.000	-0.037	0.237
-375.858	800.000	0.041	0.119
-374.844	68.378	-0.271	0.277
-373.829	594.109	0.107	-0.263
-372.815	264.627	-0.130	0.226
-371.800	-200.000	-0.048	0.249
-370.785	-200.000	-0.028	0.139
-369.771	-200.000	-0.055	-0.296
-368.756	-5.835	-0.183	0.125
-367.742	4.260	0.178	0.130
-366.727	141.967	0.212	0.281
-365.712	-200.000	0.017	0.232
-364.698	145.574	-0.037	-0.049
-363.683	44.195	-0.205	-0.187
-362.669	-136.738	-0.098	0.011
-361.654	272.841	0.161	0.283
-360.639	-62.669	-0.294	-0.121
-359.625	800.000	0.106	0.319
-358.610	800.000	-0.080	0.332
-357.596	629.218	-0.126	-0.318
-356.581	-37.026	0.030	0.016
-355.566	-54.322	-0.124	-0.056
-354.552	527.324	-0.034	0.080
-353.537	188.123	-0.140	-0.209
-352.523	4.214	-0.215	-0.157
-351.508	-192.144	0.344	-0.003
-350.493	-17.351	0.282	-0.177
-349.479	-200.000	0.017	0.227
-348.464	-24.770	0.068	0.040
-347.450	800.000	0.020	-0.077
-346.435	800.000	-0.042	0.119
-345.420	14.590	0.078	0.060
-344.406	538.761	-0.062	-0.147
-343.391	-92.108	-0.470	0.132
-342.377	-3.419	-0.348	-0.241
-341.362	-34.746	0.151	-0.082
-340.348	59.724	-0.149	0.146
-339.333	85.407	-0.221	0.241
-338.318	-1.714	-0.268	0.188
-337.304	-66.457	0.217	-0.086
-336.289	-63.748	0.268	0.109
-335.275	132.139	-0.161	-0.207
-334.260	254.896	-0.071	-0.121
-333.245	-189.716	-0.444	-0.005
-332.231	-107.639	-0.285	-0.062
-331.216	-84.384	-0.212	0.067
-330.202	23.402	0.202	-0.165
-329.187	-76.282	-0.257	-0.090
-328.172	454.966	0.149	0.329
-327.158	-200.000	-0.070	-0.350
-326.143	-200.000	-0.029	0.293
-325.129	464.943	0.122	0.272
-324.114	-200.000	-0.050	-0.242
-323.099	336.499	-0.129	-0.248
-322.085	224.083	-0.247	-0.397
-321.070	12.143	-0.178	0.136
-320.056	-200.000	-0.030	-0.298
-319.041	32.602	0.136	0.117
-318.026	-96.856	-0.074	0.019
-317.012	-111.717	-0.464	0.093
-315.997	227.970	-0.095	-0.153
-314.983	-117.808	0.141	-0.025
-313.968	30.799	-0.017	-0.014
-312.953	-12.977	0.204	-0.132
-311.939	125.187	-0.055	-0.068
-310.924	-200.000	0.031	0.149
-309.910	141.607	0.115	0.151
-308.895	-164.420	0.576	-0.026
-307.880	-200.000	-0.021	-0.150
-306.866	450.659	-0.087	0.191
-305.851	-148.458	0.087	-0.007
-304.837	51.825	0.110	-0.104
-303.822	-77.893	-0.068	0.023
-302.807	-126.529	0.266	0.039
-301.793	78.554	-0.086	-0.092
-300.778	121.695	-0.231	-0.287
-299.764	-15.361	0.119	-0.076
-298.749	-200.000	0.055	-0.241
-297.735	106.443	0.258	0.304
-296.720	149.492	0.229	-0.308
-295.705	-37.454	0.085	-0.045
-294.691	197.417	-0.084	-0.127
-293.676	190.418	0.050	-0.075
-292.662	-157.275	-0.509	-0.031
-291.647	-85.670	0.066	0.020
-290.632	-90.760	0.094	0.027
-289.618	-82.790	-0.210	0.067
-288.603	298.420	-0.082	0.150
-287.589	-131.721	0.229	-0.030
-286.574	800.000	0.010	0.028
-285.559	254.730	-0.160	-0.272
-284.545	-46.881	-0.183	-0.089
-283.530	74.303	0.208	-0.217
-282.516	359.165	0.067	0.133
-281.501	241.103	-0.073	-0.121
-280.486	-93.787	0.095	0.026
-279.472	33.579	-0.024	-0.020
-278.457	-78.834	-0.521	-0.176
-277.443	-200.000	0.007	0.088
-276.428	264.639	0.168	0.291
-275.413	800.000	0.041	0.175
-274.399	272.752	0.074	0.130
-273.384	-153.174	-0.070	0.005
-272.370	41.477	0.054	-0.049
-271.355	384.009	0.119	0.243
-270.340	-25.456	0.177	-0.104
-269.326	-42.462	-0.245	0.124
-268.311	-86.151	0.238	0.073
-267.297	-200.000	0.006	-0.146
-266.282	-113.264	0.204	-0.040
-265.267	111.047	0.223	0.267
-264.253	149.471	-0.227	0.306
-263.238	4.404	-0.040	-0.029
-262.224	175.692	-0.085	0.123
-261.209	800.000	0.110	0.397
-260.195	-160.332	0.280	0.015
-259.180	-136.541	-0.150	0.017
-258.165	628.485	0.176	-0.443
-257.151	-75.322	0.338	0.120
-256.136	-82.606	0.107	0.034
-255.122	-128.418	-0.249	-0.035
-254.107	15.236	0.217	0.169
-253.092	53.431	-0.057	0.054
-252.078	-200.000	0.073	-0.417
-251.063	-63.378	-0.265	0.108
-250.049	176.832	0.131	0.189
-249.034	800.000	-0.048	0.147
-248.019	-124.492	0.248	0.038
-247.005	-200.000	-0.019	-0.308
-245.990	322.819	0.179	-0.338
-244.976	475.724	-0.164	-0.366
-243.961	-200.000	-0.033	-0.160
-242.946	-200.000	-0.001	0.081
-241.932	150.042	-0.200	0.270
-240.917	-138.971	-0.061	-0.007
-239.903	-93.823	-0.033	-0.009
-238.888	556.134	-0.075	-0.179
-237.873	-144.272	-0.217	-0.020
-236.859	8.263	-0.133	-0.099
-235.844	-125.762	0.225	-0.034
-234.830	-28.602	0.245	0.140
-233.815	-126.159	0.162	0.024
-232.800	-126.672	-0.258	0.038
-231.786	-74.778	0.092	-0.033
-230.771	800.000	-0.042	-0.132
-229.757	-176.588	0.123	-0.003
-228.742	480.807	0.129	0.290
-227.727	-200.000	-0.019	0.204
-226.713	-115.708	-0.241	-0.045
-225.698	-155.708	0.283	-0.018
-224.684	800.000	0.022	0.066
-223.669	-152.941	0.174	-0.012
-222.655	147.373	-0.074	0.099
-221.640	-9.720	0.308	-0.203
-220.625	-17.180	0.178	0.111
-219.611	228.850	-0.129	0.208
-218.596	-98.109	0.480	0.122
-217.582	-200.000	0.041	0.190
-216.567	339.694	-0.049	0.094
-215.552	607.883	-0.074	-0.183
-214.538	25.302	-0.067	-0.055
-213.523	-42.638	-0.494	0.249
-212.509	-200.000	-0.001	0.194
-211.494	467.127	-0.108	-0.240
-210.479	648.134	0.093	0.235
-209.465	-101.688	-0.273	0.066
-208.450	262.506	-0.043	-0.075
-207.436	-76.521	-0.146	0.051
-206.421	-26.947	0.118	-0.068
-205.406	-25.491	0.102	0.060
-204.392	-200.000	0.011	-0.278
-203.377	-200.000	-0.020	0.144
-202.363	-3.639	-0.236	0.162
-201.348	32.632	0.244	-0.209
-200.333	416.276	-0.063	0.133
-199.319	-59.947	0.107	0.045
-198.304	56.008	-0.116	-0.111
-197.290	800.000	-0.026	-0.094
-196.275	137.951	-0.101	0.131
-195.260	-8.470	0.132	0.088
-194.246	-145.372	0.419	-0.037
-193.231	-17.956	0.328	0.204
-192.217	311.495	-0.104	-0.194
-191.202	559.972	0.099	-0.238
-190.187	134.070	0.118	0.151
-189.173	-105.018	-0.062	0.014
-188.158	241.222	-0.040	-0.067
-187.144	-200.000	-0.021	0.224
-186.129	-25.801	-0.155	-0.091
-185.114	-127.595	-0.244	-0.035
-184.100	800.000	-0.109	-0.333
-183.085	-200.000	-0.010	0.287
-182.071	-53.579	0.004	-0.002
-181.056	-163.170	0.240	0.011
-180.042	-50.604	0.273	0.127
-179.027	-113.634	0.142	0.027
-178.012	134.878	-0.313	-0.402
-176.998	-136.227	0.231	0.027
-175.983	-108.699	-0.141	0.030
-174.969	-7.226	0.288	-0.193
-173.954	-118.077	0.160	0.028
-172.939	-200.000	-0.027	0.186
-171.925	800.000	0.090	0.250
-170.910	-178.206	-0.178	0.004
-169.896	800.000	-0.042	0.176
-168.881	-123.326	-0.147	0.023
-167.866	-26.589	0.386	0.223
-166.852	-31.876	0.356	-0.197
-165.837	445.418	0.081	-0.175
-164.823	276.923	-0.144	0.253
-163.808	-200.000	0.006	0.081
-162.793	-200.000	0.006	-0.050
-161.779	800.000	0.042	-0.137
-160.764	-30.367	-0.294	-0.165
-159.750	412.056	0.107	0.224
-158.735	82.871	0.327	0.352
-157.720	-200.000	-0.002	0.186
-156.706	-51.244	0.098	-0.045
-155.691	210.541	0.075	0.117
-154.677	-14.892	-0.230	-0.146
-153.662	-38.176	-0.263	-0.138
-152.647	-200.000	0.169	-0.000
-151.633	-192.800	-0.313	-0.003
-150.618	-132.850	-0.165	-0.021
-149.604	531.279	0.035	0.082
-148.589	53.298	0.163	0.154
-147.574	773.467	0.067	-0.180
-146.560	-66.431	-0.111	0.044
-145.545	-61.820	-0.319	-0.132
-144.531	-110.426	-0.237	-0.049
-143.516	-200.000	-0.027	0.410
-142.502	99.068	0.080	0.091
-141.487	-177.397	-0.385	-0.009
-140.472	-200.000	-0.015	-0.147
-139.458	-154.225	0.274	0.018
-138.443	-200.000	-0.006	-0.050
-137.429	554.224	-0.049	-0.117
-136.414	-1.064	0.163	-0.114
-135.399	-80.175	0.061	0.020
-134.385	-200.000	-0.003	-0.080
-133.370	-122.843	0.079	-0.013
-132.356	312.762	0.129	0.240
-131.341	-7.191	0.158	-0.106
-130.326	141.800	0.178	-0.233
-129.312	693.123	0.139	-0.359
-128.297	16.505	-0.329	0.257
-127.283	19.039	0.110	-0.087
-126.268	88.930	0.272	-0.299
-125.253	800.000	-0.064	-0.208
-124.239	-42.839	0.293	-0.147
-123.224	546.378	-0.013	-0.030
-122.210	262.117	-0.047	-0.080
