DTS Sentinel unit serial number:	SN413079Multiplexer serial number:	ORYXHardware model number:	OX4-SRSoftware version number:	ORYX F/W v4.00 Oryx Data Collector v3.7.2.0data status	okinstallation	princeton_trtdifferential loss correction	single-endedforward channel	channel 1reverse channel	N/Adate	2019/09/11time	04:12:11forward acquisition time	60.00reverse acquisition time	0.00gamma	496.2192k internal	0.2330k external	0.2330temperature offset calibration	0.9926default loss term (dB/km)	0.3790temperature slope calibration	1.0000multiplexer offset coefficient	1.0000multiplexer slope coefficient	1.0000fibre end	0.00T internal ref (°C)	29.56T ext. ref 1 (°C)	-0.29T ext. ref 2 (°C)	23.41length (m)	temperature (°C)	Stokes	anti-Stokes-747.200	-49.673	-0.148	-0.071
-746.185	7.983	0.072	0.055
-745.171	-50.090	0.305	0.145
-744.156	-26.220	0.386	0.228
-743.142	-200.000	0.025	-0.241
-742.127	-200.000	0.045	0.214
-741.112	38.703	0.270	-0.242
-740.098	-160.349	-0.209	-0.011
-739.083	288.975	0.061	-0.111
-738.069	-33.723	-0.364	0.202
-737.054	113.709	-0.252	0.309
-736.039	-200.000	-0.008	-0.079
-735.025	-138.341	0.102	-0.011
-734.010	-200.000	-0.064	-0.493
-732.996	-90.856	0.052	-0.015
-731.981	-46.716	-0.383	0.189
-730.966	536.494	-0.152	-0.364
-729.952	-200.000	-0.056	-0.434
-728.937	585.277	0.031	-0.077
-727.923	55.682	-0.061	-0.060
-726.908	-121.936	0.255	0.042
-725.894	231.536	-0.127	0.210
-724.879	-76.071	0.154	-0.055
-723.864	757.670	0.052	-0.140
-722.850	-89.266	-0.119	-0.035
-721.835	-200.000	0.028	0.214
-720.821	-200.000	-0.013	0.231
-719.806	466.526	-0.035	-0.079
-718.791	-26.405	0.134	-0.079
-717.777	-62.660	-0.408	0.170
-716.762	-149.881	-0.347	-0.027
-715.748	-86.650	0.245	0.075
-714.733	30.213	-0.244	-0.209
-713.718	800.000	-0.113	-0.415
-712.704	800.000	0.040	0.156
-711.689	800.000	0.108	-0.315
-710.675	28.094	-0.267	0.227
-709.660	-200.000	0.003	-0.102
-708.645	-80.487	0.327	-0.109
-707.631	117.072	-0.251	0.310
-706.616	-24.198	0.245	-0.147
-705.602	217.264	-0.054	-0.086
-704.587	314.043	0.119	0.225
-703.572	800.000	-0.031	0.131
-702.558	-139.333	-0.064	0.007
-701.543	-74.155	-0.100	-0.036
-700.529	-3.111	-0.175	-0.122
-699.514	7.425	-0.173	-0.130
-698.499	132.184	0.122	-0.158
-697.485	-9.702	-0.222	-0.149
-696.470	162.720	0.124	-0.175
-695.456	-200.000	0.116	-0.000
-694.441	47.124	-0.153	0.143
-693.426	-91.690	0.502	0.143
-692.412	-35.183	0.191	-0.104
-691.397	-44.848	-0.299	0.150
-690.383	33.032	0.126	0.110
-689.368	37.331	0.114	0.102
-688.354	-139.286	-0.173	-0.019
-687.339	24.528	-0.137	-0.114
-686.324	-200.000	0.008	-0.259
-685.310	-200.000	-0.014	-0.216
-684.295	-127.581	-0.206	0.030
-683.281	516.660	-0.142	-0.333
-682.266	545.655	0.009	-0.022
-681.251	-35.134	-0.087	-0.047
-680.237	29.627	0.074	0.063
-679.222	-49.437	0.353	0.169
-678.208	-27.521	-0.180	-0.105
-677.193	-97.065	0.175	0.046
-676.178	-11.269	-0.132	0.088
-675.164	-93.510	-0.352	0.098
-674.149	-67.669	0.155	0.061
-673.135	-110.108	0.199	-0.042
-672.120	-84.943	-0.197	-0.062
-671.105	-84.244	0.236	-0.075
-670.091	107.083	-0.054	0.064
-669.076	-200.000	0.008	0.259
-668.062	254.982	-0.110	-0.190
-667.047	800.000	-0.078	-0.275
-666.032	-200.000	0.000	-0.009
-665.018	101.678	0.245	-0.287
-664.003	43.938	0.154	-0.142
-662.989	-200.000	-0.034	-0.267
-661.974	59.284	-0.173	-0.171
-660.959	-65.686	-0.213	0.086
-659.945	-35.273	-0.397	-0.217
-658.930	-15.038	-0.092	0.059
-657.916	-69.733	-0.063	-0.024
-656.901	-200.000	-0.006	-0.072
-655.886	138.763	-0.092	0.122
-654.872	655.325	0.062	0.160
-653.857	442.249	0.091	-0.200
-652.843	-32.625	-0.215	0.120
-651.828	-143.815	-0.208	-0.020
-650.814	-102.353	-0.267	-0.064
-649.799	800.000	0.054	0.175
-648.784	-200.000	0.021	0.439
-647.770	-200.000	0.072	0.518
-646.755	-113.467	-0.235	0.046
-645.741	37.831	0.071	0.063
-644.726	71.974	-0.270	0.281
-643.711	36.758	-0.138	-0.122
-642.697	-112.013	-0.164	-0.033
-641.682	-129.332	-0.280	-0.039
-640.668	3.895	-0.282	-0.207
-639.653	132.242	-0.160	-0.207
-638.638	800.000	-0.031	0.112
-637.624	27.110	-0.176	-0.148
-636.609	-113.578	-0.147	0.029
-635.595	260.957	0.125	0.216
-634.580	57.049	-0.192	-0.188
-633.565	-98.008	-0.256	0.066
-632.551	-200.000	0.038	0.200
-631.536	-132.057	-0.261	0.034
-630.522	800.000	-0.062	0.202
-629.507	-156.049	-0.093	-0.006
-628.492	229.253	-0.042	0.069
-627.478	800.000	-0.054	-0.152
-626.463	-200.000	0.006	-0.179
-625.449	86.010	-0.200	-0.220
-624.434	-175.817	-0.318	-0.009
-623.419	15.608	0.132	-0.104
-622.405	82.173	0.288	0.313
-621.390	-89.554	0.292	-0.086
-620.376	167.768	0.162	0.231
-619.361	118.998	0.155	0.193
-618.346	358.571	0.047	0.094
-617.332	-158.306	0.123	0.007
-616.317	54.972	0.176	-0.170
-615.303	2.004	0.067	-0.048
-614.288	-93.138	0.212	0.059
-613.273	109.302	-0.271	-0.325
-612.259	-16.234	-0.102	0.065
-611.244	493.156	0.062	-0.143
-610.230	-200.000	0.044	-0.339
-609.215	-200.000	0.029	0.128
-608.201	-200.000	0.015	0.074
-607.186	77.636	-0.166	-0.177
-606.171	-23.238	0.370	0.223
-605.157	102.521	0.315	-0.368
-604.142	592.516	0.150	-0.371
-603.128	-200.000	0.021	-0.304
-602.113	237.566	-0.088	0.146
-601.098	213.501	-0.049	0.077
-600.084	-200.000	-0.010	-0.175
-599.069	223.872	0.048	-0.078
-598.055	-40.106	-0.104	0.054
-597.040	-59.415	-0.131	0.056
-596.025	107.546	-0.256	0.305
-595.011	-200.000	-0.001	0.081
-593.996	-200.000	-0.001	-0.164
-592.982	-200.000	-0.012	0.067
-591.967	-113.151	0.152	-0.030
-590.952	306.100	0.113	0.211
-589.938	265.470	-0.085	-0.149
-588.923	-51.517	-0.066	-0.031
-587.909	-142.354	0.115	0.011
-586.894	800.000	-0.037	-0.135
-585.879	82.000	0.222	0.240
-584.865	800.000	0.051	0.177
-583.850	-200.000	-0.001	-0.025
-582.836	-6.520	0.444	-0.303
-581.821	-53.050	-0.190	0.087
-580.806	634.362	-0.099	-0.252
-579.792	-31.178	-0.301	-0.170
-578.777	-78.853	0.340	-0.116
-577.763	-200.000	-0.038	-0.173
-576.748	-200.000	-0.022	0.258
-575.733	2.439	-0.074	-0.053
-574.719	112.159	-0.047	-0.057
-573.704	173.944	0.124	-0.180
-572.690	-200.000	0.011	-0.150
-571.675	593.461	-0.058	-0.144
-570.661	-7.831	0.176	0.118
-569.646	800.000	-0.080	0.326
-568.631	800.000	0.024	-0.089
-567.617	-29.203	-0.162	0.093
-566.602	-118.124	0.249	-0.044
-565.588	800.000	-0.063	-0.211
-564.573	-111.389	0.164	-0.034
-563.558	329.911	-0.047	0.090
-562.544	-102.165	-0.138	0.033
-561.529	42.935	-0.213	0.194
-560.515	-77.594	-0.105	0.036
-559.500	551.923	-0.115	-0.275
-558.485	-88.992	0.185	0.055
-557.471	-126.617	0.188	-0.028
-556.456	617.880	-0.068	-0.172
-555.442	-149.501	-0.327	0.026
-554.427	-2.622	-0.194	0.135
-553.412	-200.000	-0.049	0.249
-552.398	-45.384	0.151	0.075
-551.383	-200.000	0.066	-0.373
-550.369	800.000	-0.036	0.150
-549.354	-83.925	0.162	0.051
-548.339	705.082	0.037	-0.098
-547.325	315.516	-0.089	-0.167
-546.310	56.264	0.079	-0.077
-545.296	-63.176	0.473	0.195
-544.281	-200.000	-0.022	0.267
-543.266	-41.932	-0.239	-0.123
-542.252	800.000	-0.107	-0.366
-541.237	-200.000	0.015	0.087
-540.223	-152.918	0.358	0.025
-539.208	-200.000	0.063	0.494
-538.193	-18.886	0.073	0.045
-537.179	175.461	-0.216	-0.313
-536.164	165.160	0.186	-0.263
-535.150	-32.204	0.088	0.049
-534.135	-48.273	0.482	0.232
-533.121	-200.000	-0.013	0.104
-532.106	-48.122	0.083	0.040
-531.091	-200.000	0.004	-0.104
-530.077	800.000	-0.063	0.231
-529.062	14.132	-0.120	0.093
-528.048	123.218	-0.094	0.118
-527.033	-25.747	-0.040	0.024
-526.018	123.457	0.247	0.309
-525.004	-87.572	-0.375	0.113
-523.989	-15.241	0.284	0.181
-522.975	-79.218	-0.388	-0.131
-521.960	-200.000	0.015	0.097
-520.945	-12.259	0.210	0.137
-519.931	-88.127	-0.225	-0.067
-518.916	123.696	-0.126	-0.158
-517.902	800.000	-0.116	-0.361
-516.887	-33.375	0.247	0.136
-515.872	-42.080	0.289	0.148
-514.858	32.310	-0.046	0.040
-513.843	-84.875	-0.186	-0.058
-512.829	-57.172	-0.139	0.061
-511.814	133.828	0.161	0.208
-510.799	-108.681	-0.243	0.052
-509.785	58.115	-0.053	0.052
-508.770	-200.000	0.026	0.184
-507.756	800.000	-0.023	-0.068
-506.741	-110.339	0.120	-0.025
-505.726	71.804	-0.086	-0.089
-504.712	-139.230	0.234	0.025
-503.697	-200.000	0.021	0.182
-502.683	14.923	0.086	-0.067
-501.668	-69.441	0.139	0.053
-500.653	-200.000	-0.278	0.001
-499.639	258.177	-0.168	-0.288
-498.624	-162.798	0.227	-0.011
-497.610	-200.000	0.012	0.113
-496.595	425.846	-0.186	0.398
-495.581	64.684	0.100	0.100
-494.566	-36.665	-0.350	-0.188
-493.551	-200.000	0.017	0.143
-492.537	-109.699	0.167	-0.035
-491.522	40.636	0.227	0.204
-490.508	-16.156	-0.165	0.104
-489.493	10.503	-0.276	-0.209
-488.478	-200.000	-0.004	-0.208
-487.464	168.617	-0.074	-0.105
-486.449	800.000	0.076	-0.323
-485.435	86.949	-0.070	-0.077
-484.420	800.000	-0.020	0.069
-483.405	-58.503	0.363	0.157
-482.391	-200.000	-0.009	0.263
-481.376	-6.675	-0.225	-0.153
-480.362	-147.749	0.351	-0.029
-479.347	253.916	-0.203	-0.345
-478.332	597.117	-0.063	0.156
-477.318	-87.210	-0.179	0.054
-476.303	-200.000	0.011	-0.099
-475.289	-9.342	0.299	-0.199
-474.274	-109.077	-0.434	-0.092
-473.259	-60.825	0.100	-0.042
-472.245	36.339	-0.232	0.204
-471.230	800.000	0.036	-0.131
-470.216	-10.424	-0.094	-0.062
-469.201	800.000	-0.034	0.109
-468.186	-126.528	0.133	-0.020
-467.172	136.568	-0.151	0.197
-466.157	-200.000	-0.023	-0.147
-465.143	-200.000	0.030	-0.294
-464.128	-200.000	0.072	-0.395
-463.113	141.161	-0.067	0.088
-462.099	-134.558	0.406	0.049
-461.084	-169.423	-0.221	0.008
-460.070	-200.000	0.079	0.359
-459.055	-200.000	0.005	0.068
-458.040	352.216	-0.029	-0.057
-457.026	354.579	-0.087	0.173
-456.011	-85.385	-0.201	0.062
-454.997	56.064	-0.185	0.178
-453.982	46.587	0.077	0.071
-452.968	-142.533	-0.207	0.020
-451.953	-63.978	0.145	-0.059
-450.938	207.739	-0.153	0.238
-449.924	-56.213	-0.040	0.018
-448.909	-200.000	-0.002	0.011
-447.895	48.981	0.173	-0.162
-446.880	7.780	-0.106	0.079
-445.865	800.000	-0.058	-0.178
-444.851	103.830	-0.212	-0.248
-443.836	-190.605	0.270	-0.003
-442.822	-103.776	0.442	-0.103
-441.807	-160.131	0.197	0.011
-440.792	61.241	-0.193	0.191
-439.778	133.453	0.106	0.136
-438.763	17.450	0.226	-0.179
-437.749	26.516	-0.075	0.063
-436.734	-200.000	0.015	0.289
-435.719	504.777	0.037	-0.085
-434.705	366.486	0.040	-0.080
-433.690	-147.981	-0.137	-0.011
-432.676	-102.310	0.329	-0.079
-431.661	58.470	0.066	-0.064
-430.646	88.086	0.041	0.046
-429.632	-23.632	-0.281	0.168
-428.617	-200.000	0.055	-0.352
-427.603	800.000	-0.033	0.098
-426.588	-200.000	-0.025	-0.261
-425.573	-13.924	0.062	0.040
-424.559	-90.862	0.275	-0.079
-423.544	-62.969	-0.123	-0.051
-422.530	-200.000	-0.014	-0.282
-421.515	-200.000	0.011	0.082
-420.500	-20.845	-0.238	0.145
-419.486	800.000	0.065	-0.227
-418.471	-113.242	-0.283	0.055
-417.457	165.501	-0.201	-0.282
-416.442	59.099	0.191	0.186
-415.428	-136.807	0.294	0.034
-414.413	119.579	-0.087	0.107
-413.398	-200.000	-0.023	0.182
-412.384	-88.217	-0.351	0.104
-411.369	170.983	-0.039	0.055
-410.355	-8.141	0.160	0.107
-409.340	67.676	-0.213	0.216
-408.325	-104.991	-0.065	0.015
-407.311	266.578	-0.111	-0.193
-406.296	-129.820	-0.393	-0.054
-405.282	-200.000	0.022	-0.098
-404.267	-166.179	0.295	-0.012
-403.252	-200.000	0.065	0.307
-402.238	245.272	0.143	0.240
-401.223	-33.498	0.173	0.095
-400.209	4.683	0.211	0.154
-399.194	800.000	-0.050	0.207
-398.179	-175.454	-0.108	-0.003
-397.165	-149.739	0.143	-0.011
-396.150	201.726	-0.132	0.202
-395.136	-34.558	0.302	0.164
-394.121	165.500	0.046	-0.065
-393.106	-200.000	-0.032	0.172
-392.092	-40.270	-0.287	0.148
-391.077	-52.043	0.315	0.145
-390.063	293.912	0.102	-0.185
-389.048	-97.332	-0.256	-0.066
-388.033	213.854	0.228	-0.358
-387.019	-200.000	-0.041	-0.221
-386.004	6.326	-0.428	-0.315
-384.990	54.967	0.224	0.215
-383.975	26.834	-0.191	-0.159
-382.960	330.323	0.160	0.305
-381.946	56.276	0.167	0.161
-380.931	-200.000	-0.089	-0.398
-379.917	-145.665	-0.149	0.013
-378.902	9.645	0.164	-0.124
-377.888	-95.309	0.140	-0.038
-376.873	-200.000	-0.074	0.324
-375.858	-3.466	0.237	-0.164
-374.844	649.886	0.068	0.173
-373.829	-67.011	0.329	-0.129
-372.815	-200.000	-0.047	0.222
-371.800	222.071	0.126	0.201
-370.785	800.000	0.081	-0.315
-369.771	-64.543	-0.269	0.108
-368.756	-200.000	-0.015	-0.340
-367.742	2.895	0.062	0.044
-366.727	89.196	-0.162	-0.179
-365.712	800.000	-0.084	-0.264
-364.698	216.366	-0.048	0.075
-363.683	800.000	-0.086	-0.266
-362.669	-55.437	-0.125	0.055
-361.654	-76.218	-0.093	-0.032
-360.639	-62.060	-0.079	-0.033
-359.625	-69.849	0.308	0.116
-358.610	438.521	0.057	0.122
-357.596	-200.000	-0.051	0.227
-356.581	-118.355	0.242	-0.043
-355.566	257.509	0.137	0.234
-354.552	-73.536	-0.068	0.025
-353.537	-161.552	-0.138	0.007
-352.523	-76.438	-0.319	-0.111
-351.508	-57.751	0.137	0.059
-350.493	-200.000	0.009	-0.280
-349.479	-170.438	0.537	0.019
-348.464	319.743	-0.084	0.157
-347.450	35.656	-0.165	-0.144
-346.435	-68.951	0.133	0.051
-345.420	105.539	0.024	-0.029
-344.406	28.275	0.216	0.180
-343.391	-200.000	0.009	0.081
-342.377	-191.838	0.373	-0.004
-341.362	-120.177	-0.036	-0.006
-340.348	-89.877	-0.066	-0.019
-339.333	30.658	0.216	-0.183
-338.318	48.424	0.289	-0.269
-337.304	-20.019	-0.123	0.075
-336.289	-150.890	-0.179	-0.013
-335.275	800.000	-0.046	0.165
-334.260	-172.742	0.204	0.006
-333.245	800.000	-0.041	0.117
-332.231	-154.644	0.145	-0.010
-331.216	-85.740	-0.288	0.089
-330.202	-143.093	-0.151	-0.014
-329.187	5.580	-0.189	-0.138
-328.172	-7.198	-0.154	-0.103
-327.158	800.000	-0.045	0.148
-326.143	229.671	-0.146	0.237
-325.129	215.137	-0.219	-0.344
-324.114	800.000	-0.080	-0.233
-323.099	515.190	-0.036	0.083
-322.085	800.000	-0.116	0.327
-321.070	774.007	-0.088	0.238
-320.056	134.491	-0.010	0.013
-319.041	39.778	0.035	0.031
-318.026	262.767	-0.063	0.109
-317.012	-43.417	0.257	-0.128
-315.997	800.000	0.019	0.068
-314.983	95.086	0.050	-0.057
-313.968	-69.457	-0.218	0.083
-312.953	-92.411	0.192	0.053
-311.939	748.066	-0.144	-0.383
-310.924	-143.572	-0.146	-0.014
-309.910	-44.454	0.187	0.093
-308.895	800.000	-0.035	0.149
-307.880	-200.000	0.013	-0.106
-306.866	26.181	0.103	-0.085
-305.851	147.427	-0.075	-0.100
-304.837	18.646	0.109	0.086
-303.822	800.000	0.065	-0.217
-302.807	-200.000	-0.148	-0.000
-301.793	254.270	0.065	-0.111
-300.778	-200.000	0.009	0.271
-299.764	0.364	0.072	0.051
-298.749	-64.706	-0.108	0.043
-297.735	34.206	-0.164	-0.141
-296.720	-200.000	-0.046	0.302
-295.705	-126.266	0.376	0.056
-294.691	-200.000	0.006	0.095
-293.676	-24.476	-0.122	-0.072
-292.662	107.497	0.073	0.086
-291.647	800.000	0.099	-0.325
-290.632	-200.000	-0.018	0.297
-289.618	-94.713	-0.111	0.030
-288.603	215.861	-0.025	-0.040
-287.589	800.000	0.106	-0.293
-286.574	16.144	-0.174	0.136
-285.559	15.430	-0.069	0.054
-284.545	-200.000	0.030	-0.180
-283.530	-167.428	-0.294	0.012
-282.516	22.692	0.095	-0.077
-281.501	-200.000	0.023	0.226
-280.486	143.263	-0.058	-0.076
-279.472	-19.208	-0.081	-0.050
-278.457	-123.787	-0.227	0.036
-277.443	-67.470	0.245	-0.095
-276.428	-73.900	0.284	-0.102
-275.413	122.025	0.217	-0.267
-274.399	-70.916	-0.198	-0.074
-273.384	78.314	0.175	-0.185
-272.370	-200.000	-0.004	0.079
-271.355	794.604	-0.116	-0.315
-270.340	114.662	-0.266	0.320
-269.326	800.000	0.104	0.335
-268.311	-105.237	-0.158	-0.036
-267.297	486.630	0.113	-0.254
-266.282	29.056	-0.012	0.010
-265.267	-200.000	0.015	-0.318
-264.253	-65.813	-0.195	0.077
-263.238	-96.869	-0.074	0.019
-262.224	800.000	0.052	-0.152
-261.209	800.000	-0.076	0.260
-260.195	-7.263	-0.169	0.113
-259.180	581.569	0.212	0.514
-258.165	104.099	0.126	-0.146
-257.151	188.306	-0.059	-0.088
-256.136	51.684	0.228	0.214
-255.122	-54.438	0.161	0.072
-254.107	318.361	0.125	0.235
-253.092	64.585	0.323	0.322
-252.078	142.681	0.232	0.304
-251.063	12.222	0.434	-0.330
-250.049	-131.245	-0.369	0.048
-249.034	-200.000	-0.020	-0.198
-248.019	-200.000	0.042	-0.189
-247.005	615.419	-0.055	-0.135
-245.990	362.714	0.095	-0.188
-244.976	800.000	-0.015	-0.044
-243.961	-200.000	0.003	-0.064
-242.946	-200.000	0.026	0.254
-241.932	-200.000	-0.003	0.124
-240.917	19.526	-0.336	-0.266
-239.903	800.000	-0.101	-0.394
-238.888	800.000	0.035	0.118
-237.873	-200.000	-0.032	0.267
-236.859	174.038	-0.039	0.056
-235.844	800.000	0.016	-0.066
-234.830	800.000	0.007	-0.025
-233.815	-39.333	-0.129	-0.067
-232.800	561.911	0.039	0.093
-231.786	800.000	-0.086	-0.354
-230.771	-69.018	0.389	0.148
-229.757	23.456	-0.119	0.097
-228.742	29.334	0.102	0.086
-227.727	-200.000	0.034	-0.348
-226.713	19.725	-0.069	0.055
-225.698	-104.750	-0.376	-0.085
-224.684	771.190	0.104	0.279
-223.669	-62.792	0.127	-0.052
-222.655	112.122	-0.154	-0.184
-221.640	800.000	-0.051	-0.199
-220.625	-77.362	-0.079	0.027
-219.611	-91.920	0.200	-0.056
-218.596	258.484	0.111	0.189
-217.582	21.401	-0.225	-0.180
-216.567	-39.097	-0.085	0.044
-215.552	-34.156	-0.087	-0.047
-214.538	-99.546	-0.386	0.096
-213.523	-200.000	0.006	-0.179
-212.509	297.425	-0.168	-0.304
-211.494	-87.132	0.171	-0.051
-210.479	-102.093	-0.147	0.035
-209.465	-200.000	-0.046	0.430
-208.450	-111.500	-0.108	0.022
-207.436	800.000	-0.099	-0.361
-206.421	800.000	-0.055	-0.226
-205.406	-89.427	0.138	0.040
-204.392	-35.464	0.292	0.156
-203.377	72.689	0.100	-0.103
-202.363	-200.000	-0.026	0.156
-201.348	-9.864	0.214	-0.140
-200.333	-174.465	-0.228	-0.006
-199.319	-137.753	0.240	-0.027
-198.304	228.128	0.131	0.211
-197.290	142.978	-0.124	0.163
-196.275	-117.474	-0.068	0.012
-195.260	-133.384	-0.239	0.030
-194.246	141.691	-0.147	-0.191
-193.231	138.001	-0.267	0.345
-192.217	-38.382	0.336	0.175
-191.202	341.826	-0.092	0.177
-190.187	-61.880	0.290	0.119
-189.173	-17.993	0.054	0.034
-188.158	-32.208	0.076	-0.042
-187.144	-94.396	0.165	0.044
-186.129	376.413	0.091	0.182
-185.114	-200.000	-0.007	0.320
-184.100	-62.745	-0.210	-0.086
-183.085	-136.583	-0.323	0.037
-182.071	-78.846	0.347	-0.116
-181.056	-63.524	-0.170	-0.069
-180.042	76.041	0.306	-0.319
-179.027	117.009	-0.169	0.205
-178.012	800.000	-0.053	-0.208
-176.998	-106.363	-0.182	0.040
-175.983	43.574	-0.080	-0.072
-174.969	800.000	-0.078	-0.234
-173.954	-102.686	0.106	-0.025
-172.939	56.866	0.135	0.129
-171.925	-132.493	-0.305	-0.039
-170.910	-76.869	0.387	0.133
-169.896	-43.072	-0.227	-0.113
-168.881	800.000	-0.021	-0.083
-167.866	-200.000	-0.037	-0.337
-166.852	-117.516	0.363	0.065
-165.837	-45.932	-0.374	0.181
-164.823	-200.000	0.047	-0.447
-163.808	36.041	-0.065	0.056
-162.793	-3.677	0.109	0.075
-161.779	-171.467	0.228	-0.007
-160.764	-105.037	-0.139	-0.031
-159.750	-200.000	-0.018	-0.183
-158.735	-44.657	0.294	-0.144
-157.720	-200.000	0.179	-0.001
-156.706	533.287	-0.102	0.238
-155.691	-47.375	-0.150	-0.072
-154.677	122.602	0.155	0.190
-153.662	-181.228	0.385	0.008
-152.647	172.435	-0.233	-0.329
-151.633	12.434	0.180	-0.136
-150.618	55.368	-0.191	0.181
-149.604	-200.000	0.023	-0.152
-148.589	-12.990	0.318	-0.204
-147.574	88.034	-0.243	-0.265
-146.560	-105.211	0.275	0.062
-145.545	114.547	-0.207	0.248
-144.531	-28.888	0.139	-0.079
-143.516	513.239	0.137	-0.314
-142.502	-200.000	0.005	0.119
-141.487	800.000	0.069	-0.271
-140.472	108.940	0.091	0.107
-139.458	240.245	-0.100	0.164
-138.443	800.000	0.043	-0.143
-137.429	-183.543	-0.310	-0.005
-136.414	125.737	-0.054	-0.067
-135.399	-58.382	-0.469	-0.200
-134.385	-200.000	0.018	0.209
-133.370	99.069	-0.109	-0.124
-132.356	-112.522	-0.351	0.069
-131.341	423.796	-0.235	0.496
-130.326	-40.001	-0.289	0.148
-129.312	-200.000	-0.024	-0.179
-128.297	-110.396	0.065	-0.013
-127.283	-122.021	-0.401	-0.065
-126.268	-81.985	0.137	0.044
-125.253	176.332	-0.066	0.094
-124.239	-200.000	0.021	-0.173
-123.224	-200.000	-0.025	0.339
-122.210	4.497	0.145	0.105
