DTS Sentinel unit serial number:	SN413079Multiplexer serial number:	ORYXHardware model number:	OX4-SRSoftware version number:	ORYX F/W v4.00 Oryx Data Collector v3.7.2.0data status	okinstallation	princeton_trtdifferential loss correction	single-endedforward channel	channel 1reverse channel	N/Adate	2019/09/13time	08:42:35forward acquisition time	60.00reverse acquisition time	0.00gamma	496.2192k internal	0.2329k external	0.2329temperature offset calibration	1.0166default loss term (dB/km)	0.3790temperature slope calibration	1.0000multiplexer offset coefficient	1.0000multiplexer slope coefficient	1.0000fibre end	0.00T internal ref (°C)	27.84T ext. ref 1 (°C)	4.30T ext. ref 2 (°C)	24.74length (m)	temperature (°C)	Stokes	anti-Stokes-747.200	-37.050	0.272	-0.147
-746.185	-200.000	-0.079	0.400
-745.171	-130.779	0.085	-0.011
-744.156	51.447	-0.386	0.370
-743.142	-200.000	-0.006	0.274
-742.127	125.674	-0.177	0.225
-741.112	64.122	0.150	0.152
-740.098	185.003	0.024	-0.036
-739.083	-18.817	0.238	0.150
-738.069	800.000	-0.136	0.450
-737.054	-56.537	0.206	-0.092
-736.039	94.088	-0.120	0.137
-735.025	-82.575	0.404	0.132
-734.010	-104.308	-0.444	0.104
-732.996	139.128	-0.125	0.166
-731.981	-200.000	0.003	0.258
-730.966	155.214	0.161	0.223
-729.952	430.782	-0.072	0.156
-728.937	800.000	0.128	0.417
-727.923	0.836	0.115	-0.083
-726.908	155.130	-0.330	-0.457
-725.894	227.351	0.040	0.066
-724.879	114.476	0.017	-0.020
-723.864	87.783	-0.038	0.042
-722.850	-27.618	0.088	-0.052
-721.835	800.000	-0.127	-0.376
-720.821	-6.958	0.144	-0.099
-719.806	-200.000	-0.005	0.233
-718.791	22.700	-0.246	-0.203
-717.777	-13.849	0.204	0.133
-716.762	-86.931	-0.323	-0.099
-715.748	-33.980	-0.402	-0.223
-714.733	250.624	0.165	-0.282
-713.718	614.215	-0.072	0.182
-712.704	16.612	-0.275	0.218
-711.689	-200.000	0.056	0.264
-710.675	131.320	0.084	0.109
-709.660	-79.565	0.213	-0.072
-708.645	-82.426	-0.255	0.083
-707.631	764.335	-0.076	-0.208
-706.616	-200.000	0.036	0.190
-705.602	-63.473	-0.117	0.049
-704.587	-80.692	-0.226	0.076
-703.572	-156.442	-0.142	0.009
-702.558	19.720	-0.176	0.143
-701.543	478.659	0.066	-0.150
-700.529	-200.000	-0.022	-0.151
-699.514	119.042	-0.141	-0.175
-698.499	800.000	-0.064	-0.255
-697.485	117.422	0.089	0.110
-696.470	-200.000	0.037	-0.357
-695.456	800.000	0.046	0.186
-694.441	437.215	-0.111	0.242
-693.426	-64.622	0.265	-0.108
-692.412	-200.000	-0.005	-0.091
-691.397	-200.000	0.002	0.205
-690.383	-200.000	-0.022	-0.271
-689.368	447.560	0.085	0.187
-688.354	800.000	-0.067	0.196
-687.339	800.000	0.073	-0.277
-686.324	-47.273	0.033	0.016
-685.310	351.917	-0.071	0.142
-684.295	-189.089	-0.207	0.002
-683.281	-200.000	0.038	0.276
-682.266	-6.588	0.067	0.046
-681.251	26.847	-0.165	-0.139
-680.237	360.714	0.059	-0.119
-679.222	11.490	-0.176	-0.136
-678.208	-95.930	0.096	-0.026
-677.193	-200.000	0.012	0.384
-676.178	165.181	-0.060	0.085
-675.164	107.663	-0.081	-0.097
-674.149	-200.000	-0.062	-0.293
-673.135	745.478	0.145	-0.392
-672.120	-28.378	-0.153	-0.088
-671.105	8.428	0.216	0.163
-670.091	-200.000	-0.006	0.195
-669.076	-137.149	-0.072	-0.008
-668.062	-38.791	0.171	0.091
-667.047	-2.471	0.052	-0.036
-666.032	285.023	-0.061	-0.110
-665.018	-86.815	-0.099	-0.030
-664.003	69.302	0.068	-0.070
-662.989	-184.881	-0.225	-0.004
-661.974	-200.000	0.003	-0.171
-660.959	-72.409	0.330	0.123
-659.945	-200.000	0.009	0.182
-658.930	-93.678	0.155	0.043
-657.916	8.012	-0.098	0.074
-656.901	-53.875	0.098	-0.045
-655.886	-89.566	0.215	-0.063
-654.872	-10.556	0.237	0.158
-653.857	488.672	-0.072	0.166
-652.843	-200.000	0.112	-0.599
-651.828	214.052	0.136	-0.217
-650.814	-49.235	0.050	0.024
-649.799	189.390	0.108	-0.162
-648.784	-77.198	0.298	-0.104
-647.770	163.439	0.077	0.108
-646.755	76.370	-0.144	0.153
-645.741	-55.113	-0.206	-0.093
-644.726	-16.885	-0.036	0.023
-643.711	-20.957	-0.249	-0.153
-642.697	-34.148	0.045	0.025
-641.682	-132.302	-0.146	-0.019
-640.668	-26.383	-0.181	-0.107
-639.653	-25.127	-0.298	0.177
-638.638	-10.925	0.268	-0.177
-637.624	-82.889	0.070	-0.023
-636.609	148.877	-0.063	-0.085
-635.595	-141.128	0.361	-0.037
-634.580	-66.012	-0.227	-0.091
-633.565	-123.821	0.419	0.066
-632.551	46.641	-0.198	0.185
-631.536	-163.322	-0.129	0.006
-630.522	-115.097	-0.176	0.033
-629.507	-200.000	0.033	0.247
-628.492	179.439	0.150	-0.221
-627.478	29.575	-0.284	0.242
-626.463	800.000	0.048	-0.145
-625.449	-15.718	-0.235	-0.150
-624.434	105.259	-0.034	-0.041
-623.419	800.000	-0.043	0.173
-622.405	-20.772	-0.080	0.049
-621.390	143.880	0.181	0.242
-620.376	-200.000	0.028	-0.428
-619.361	27.924	-0.118	-0.099
-618.346	-139.291	-0.252	-0.027
-617.332	-38.134	-0.238	-0.126
-616.317	-94.400	-0.148	-0.041
-615.303	-69.494	0.213	-0.082
-614.288	800.000	0.055	-0.183
-613.273	-85.566	-0.243	-0.076
-612.259	-151.828	0.376	0.028
-611.244	-200.000	-0.013	-0.252
-610.230	460.637	-0.038	-0.085
-609.215	87.320	-0.332	-0.368
-608.201	-200.000	0.012	0.235
-607.186	152.051	0.218	0.298
-606.171	-200.000	-0.022	0.147
-605.157	122.624	0.116	-0.145
-604.142	-200.000	-0.008	-0.115
-603.128	800.000	-0.111	-0.325
-602.113	140.790	0.104	-0.138
-601.098	-158.287	0.192	-0.011
-600.084	-149.369	0.127	-0.010
-599.069	-49.117	0.191	0.091
-598.055	-200.000	-0.027	-0.237
-597.040	-83.385	0.347	-0.111
-596.025	534.084	-0.015	0.037
-595.011	-65.747	0.124	0.050
-593.996	-16.709	-0.130	-0.083
-592.982	-64.574	0.344	-0.140
-591.967	712.283	-0.034	0.090
-590.952	3.798	-0.186	0.136
-589.938	134.779	-0.227	-0.295
-588.923	-119.918	0.229	0.039
-587.909	-200.000	-0.049	-0.257
-586.894	-107.654	0.064	0.014
-585.879	800.000	0.057	-0.205
-584.865	-114.050	-0.186	0.036
-583.850	-46.573	-0.165	-0.081
-582.836	-108.939	-0.359	0.077
-581.821	-200.000	-0.039	0.451
-580.806	-85.520	-0.260	0.081
-579.792	800.000	0.053	0.228
-578.777	622.930	-0.054	-0.136
-577.763	800.000	-0.078	-0.219
-576.748	-200.000	0.004	-0.124
-575.733	17.946	-0.136	0.109
-574.719	204.148	0.118	0.183
-573.704	-37.173	-0.341	-0.183
-572.690	713.793	-0.070	0.186
-571.675	122.341	0.188	0.236
-570.661	318.925	-0.089	0.168
-569.646	145.124	-0.030	0.040
-568.631	175.616	0.106	0.153
-567.617	-21.089	0.217	0.133
-566.602	46.010	-0.114	-0.105
-565.588	84.421	0.042	0.046
-564.573	269.921	0.063	-0.111
-563.558	234.704	-0.110	0.181
-562.544	-200.000	-0.008	0.095
-561.529	-52.924	-0.079	0.036
-560.515	-81.175	-0.236	0.078
-559.500	-108.825	0.158	0.034
-558.485	152.705	0.012	0.016
-557.471	-200.000	0.028	0.181
-556.456	-113.531	-0.118	0.023
-555.442	131.477	0.172	0.220
-554.427	-43.171	0.315	0.160
-553.412	-200.000	0.040	-0.285
-552.398	507.513	0.079	-0.184
-551.383	59.888	0.203	-0.200
-550.369	121.877	0.149	0.186
-549.354	-106.392	-0.164	-0.037
-548.339	18.258	0.235	-0.188
-547.325	544.556	-0.095	-0.228
-546.310	127.362	-0.009	-0.011
-545.296	-23.269	-0.174	-0.104
-544.281	800.000	0.019	-0.070
-543.266	-99.340	-0.162	-0.041
-542.252	-154.773	0.310	-0.021
-541.237	-200.000	-0.040	0.268
-540.223	800.000	-0.107	0.339
-539.208	56.200	0.230	0.223
-538.193	-200.000	-0.016	-0.194
-537.179	-101.979	-0.043	0.010
-536.164	800.000	-0.038	-0.116
-535.150	160.130	-0.108	0.150
-534.135	-139.488	0.475	0.051
-533.121	184.952	-0.080	-0.118
-532.106	-200.000	-0.014	-0.108
-531.091	45.358	0.194	-0.179
-530.077	-162.109	0.130	0.007
-529.062	-28.997	0.233	-0.134
-528.048	161.265	0.071	0.099
-527.033	-200.000	0.017	-0.287
-526.018	96.838	0.052	0.060
-525.004	686.766	-0.004	-0.010
-523.989	-42.630	0.047	-0.024
-522.975	-117.087	-0.327	-0.060
-521.960	294.183	-0.122	-0.222
-520.945	-200.000	0.033	-0.375
-519.931	800.000	-0.079	-0.326
-518.916	-43.310	-0.220	0.111
-517.902	-39.346	0.253	0.132
-516.887	336.949	-0.052	-0.100
-515.872	-200.000	-0.010	0.110
-514.858	-9.933	-0.164	-0.109
-513.843	44.807	-0.154	0.141
-512.829	358.142	0.108	0.215
-511.814	-200.000	-0.016	0.596
-510.799	-58.884	0.376	0.162
-509.785	123.223	-0.238	-0.298
-508.770	-200.000	0.018	-0.193
-507.756	-37.713	-0.131	0.070
-506.741	-200.000	-0.080	-0.408
-505.726	256.377	0.119	0.204
-504.712	-157.163	-0.165	-0.010
-503.697	-200.000	0.051	0.340
-502.683	12.539	-0.311	-0.239
-501.668	-167.651	0.350	-0.014
-500.653	323.530	-0.157	-0.299
-499.639	33.485	0.047	-0.040
-498.624	-47.079	0.238	-0.116
-497.610	656.529	0.074	-0.189
-496.595	99.167	-0.061	0.071
-495.581	207.016	-0.109	-0.169
-494.566	135.104	-0.098	-0.126
-493.551	-76.953	0.246	0.086
-492.537	583.436	-0.206	-0.504
-491.522	426.363	0.063	0.135
-490.508	-129.781	-0.142	0.019
-489.493	-105.244	-0.305	0.069
-488.478	159.124	-0.031	0.043
-487.464	-81.892	-0.303	0.099
-486.449	-40.994	0.372	0.192
-485.435	-133.569	0.021	-0.003
-484.420	-89.471	0.041	-0.012
-483.405	112.543	0.161	0.194
-482.391	-200.000	0.002	-0.147
-481.376	-103.066	0.022	0.005
-480.362	120.273	-0.110	0.136
-479.347	75.201	0.077	0.081
-478.332	800.000	-0.052	0.172
-477.318	-94.109	-0.333	-0.091
-476.303	-200.000	0.016	-0.119
-475.289	-200.000	0.026	0.290
-474.274	54.899	-0.200	0.193
-473.259	30.514	-0.205	-0.174
-472.245	-144.514	0.319	-0.029
-471.230	-20.317	-0.091	-0.056
-470.216	-150.303	0.145	-0.011
-469.201	800.000	0.041	-0.168
-468.186	57.229	0.127	0.123
-467.172	-38.482	0.241	0.127
-466.157	-75.299	0.272	0.097
-465.143	421.799	-0.131	-0.280
-464.128	-172.811	0.143	0.004
-463.113	105.736	-0.094	0.111
-462.099	-53.353	-0.064	-0.029
-461.084	-73.081	0.137	0.050
-460.070	-66.291	0.345	-0.137
-459.055	-82.499	-0.307	-0.099
-458.040	800.000	0.068	0.201
-457.026	-51.496	0.127	-0.059
-456.011	-200.000	0.040	0.188
-454.997	-3.853	0.231	0.160
-453.982	405.320	0.183	-0.384
-452.968	800.000	-0.059	-0.172
-451.953	-200.000	0.042	0.237
-450.938	5.437	-0.212	0.156
-449.924	-200.000	-0.002	0.262
-448.909	800.000	0.011	-0.045
-447.895	800.000	-0.102	0.293
-446.880	800.000	-0.108	-0.461
-445.865	566.651	0.099	0.239
-444.851	-168.306	-0.278	0.011
-443.836	-200.000	0.002	0.010
-442.822	800.000	0.098	0.340
-441.807	542.505	0.068	-0.161
-440.792	-16.999	0.085	-0.054
-439.778	-200.000	0.012	0.059
-438.763	-119.309	0.151	0.026
-437.749	-121.748	-0.134	0.022
-436.734	431.557	0.145	-0.313
-435.719	-74.437	0.104	-0.037
-434.705	-62.203	0.303	-0.126
-433.690	800.000	0.039	0.120
-432.676	-200.000	0.031	0.221
-431.661	1.713	-0.202	-0.145
-430.646	-21.423	0.138	-0.084
-429.632	-200.000	-0.025	-0.353
-428.617	-58.722	-0.138	0.060
-427.603	-200.000	0.326	-0.001
-426.588	-200.000	0.005	-0.069
-425.573	608.327	-0.044	0.110
-424.559	-200.000	0.025	-0.180
-423.544	145.860	-0.022	0.029
-422.530	8.828	-0.180	0.135
-421.515	-200.000	-0.026	0.506
-420.500	68.064	0.170	0.173
-419.486	184.851	0.100	0.147
-418.471	20.665	0.201	0.162
-417.457	384.266	0.018	0.038
-416.442	-34.644	0.198	0.108
-415.428	75.764	0.097	0.102
-414.413	-12.756	-0.105	0.068
-413.398	613.515	-0.084	-0.210
-412.384	14.901	-0.295	-0.230
-411.369	-200.000	-0.009	-0.248
-410.355	102.292	-0.096	0.112
-409.340	247.969	-0.139	0.234
-408.325	27.312	0.193	0.162
-407.311	-67.259	-0.245	-0.096
-406.296	380.060	-0.173	0.352
-405.282	19.595	-0.015	0.012
-404.267	-89.288	0.143	-0.042
-403.252	-200.000	-0.034	-0.228
-402.238	-200.000	-0.036	0.311
-401.223	85.050	-0.209	-0.228
-400.209	800.000	-0.035	-0.108
-399.194	-52.269	-0.172	-0.079
-398.179	-200.000	0.006	-0.263
-397.165	-57.448	0.143	0.063
-396.150	800.000	0.031	0.119
-395.136	-200.000	-0.026	0.402
-394.121	-116.760	0.155	0.028
-393.106	11.678	-0.195	-0.149
-392.092	-30.900	-0.181	-0.102
-391.077	79.508	0.100	0.107
-390.063	-200.000	-0.001	0.318
-389.048	27.606	0.197	0.165
-388.033	800.000	0.125	-0.525
-387.019	269.111	-0.090	-0.156
-386.004	640.565	-0.060	0.151
-384.990	164.230	0.164	-0.230
-383.975	83.269	-0.263	-0.284
-382.960	-200.000	-0.057	0.258
-381.946	183.333	-0.158	-0.232
-380.931	47.416	-0.143	0.133
-379.917	510.715	-0.075	-0.173
-378.902	800.000	0.060	0.166
-377.888	-193.408	-0.108	-0.001
-376.873	-200.000	-0.020	0.131
-375.858	-200.000	0.020	-0.119
-374.844	105.957	-0.064	0.075
-373.829	-59.136	-0.377	-0.161
-372.815	49.304	-0.241	-0.225
-371.800	279.468	-0.183	-0.324
-370.785	41.834	0.175	0.157
-369.771	381.365	0.051	-0.104
-368.756	-47.441	0.170	0.082
-367.742	243.699	-0.196	-0.327
-366.727	-200.000	-0.003	0.059
-365.712	5.349	-0.124	-0.091
-364.698	-40.801	-0.186	-0.095
-363.683	5.914	-0.111	0.082
-362.669	88.525	0.122	-0.135
-361.654	5.522	0.059	0.043
-360.639	69.764	-0.191	-0.196
-359.625	198.995	0.075	-0.113
-358.610	672.133	-0.066	0.169
-357.596	133.649	0.121	0.156
-356.581	-200.000	0.037	-0.192
-355.566	-137.978	-0.110	0.012
-354.552	422.120	-0.116	-0.247
-353.537	800.000	0.046	-0.189
-352.523	-200.000	0.105	-0.540
-351.508	362.267	0.151	0.301
-350.493	-154.534	0.099	-0.007
-349.479	52.568	0.059	-0.056
-348.464	-200.000	-0.062	0.320
-347.450	29.112	-0.126	0.106
-346.435	-0.098	0.159	-0.112
-345.420	15.256	0.020	0.015
-344.406	-200.000	-0.000	0.254
-343.391	-135.927	-0.336	-0.039
-342.377	-113.077	-0.103	-0.020
-341.362	142.132	-0.015	0.019
-340.348	85.428	-0.196	0.213
-339.333	-71.504	-0.237	0.088
-338.318	-200.000	0.000	0.063
-337.304	404.111	0.129	0.270
-336.289	800.000	-0.122	-0.443
-335.275	49.197	0.121	0.112
-334.260	-200.000	-0.020	0.253
-333.245	368.806	0.188	0.376
-332.231	191.284	0.043	0.065
-331.216	126.214	0.195	0.244
-330.202	27.101	0.185	0.154
-329.187	-143.647	0.494	-0.047
-328.172	-200.000	-0.078	0.377
-327.158	-130.149	-0.077	-0.010
-326.143	107.786	0.123	-0.146
-325.129	-26.031	0.297	-0.173
-324.114	-75.810	0.218	-0.077
-323.099	-200.000	-0.007	-0.049
-322.085	91.455	-0.105	0.117
-321.070	158.149	0.042	-0.057
-320.056	-106.231	0.174	0.039
-319.041	-13.110	0.184	-0.119
-318.026	-200.000	0.026	0.255
-317.012	192.540	-0.053	-0.079
-315.997	237.754	-0.035	-0.058
-314.983	152.854	0.084	-0.114
-313.968	-200.000	0.043	0.395
-312.953	-158.287	0.311	0.018
-311.939	-200.000	-0.001	0.008
-310.924	440.523	0.121	-0.263
-309.910	800.000	-0.009	0.035
-308.895	-57.588	0.039	-0.017
-307.880	-37.304	-0.251	-0.133
-306.866	-72.516	-0.226	0.083
-305.851	-84.920	-0.101	0.031
-304.837	344.403	-0.039	0.076
-303.822	-154.548	-0.326	-0.022
-302.807	-67.504	-0.270	-0.105
-301.793	248.525	-0.172	-0.288
-300.778	139.270	-0.213	-0.277
-299.764	-83.565	-0.282	-0.089
-298.749	8.723	0.031	-0.023
-297.735	-102.388	0.192	-0.045
-296.720	-149.154	0.160	-0.013
-295.705	-3.255	-0.176	0.122
-294.691	-49.458	0.065	-0.031
-293.676	401.937	-0.171	0.356
-292.662	-9.232	-0.240	0.159
-291.647	80.225	0.253	0.269
-290.632	-200.000	-0.025	0.161
-289.618	-97.238	-0.140	-0.036
-288.603	800.000	0.025	0.077
-287.589	-163.868	0.282	0.013
-286.574	-14.614	-0.040	0.025
-285.559	-12.409	0.153	-0.099
-284.545	800.000	0.050	-0.144
-283.530	-52.710	0.097	-0.044
-282.516	-53.927	-0.498	-0.225
-281.501	-25.684	-0.043	0.025
-280.486	653.993	-0.045	0.114
-279.472	-170.981	0.158	0.005
-278.457	-200.000	-0.007	0.030
-277.443	-82.806	0.134	-0.043
-276.428	635.158	0.045	-0.113
-275.413	65.325	-0.217	-0.217
-274.399	-191.741	0.293	-0.003
-273.384	186.567	0.169	0.249
-272.370	402.370	-0.230	0.479
-271.355	80.925	0.090	-0.096
-270.340	-61.142	0.088	-0.037
-269.326	-200.000	0.065	0.289
-268.311	-105.062	0.177	0.040
-267.297	-63.847	-0.227	-0.092
-266.282	95.303	-0.076	0.086
-265.267	-130.956	0.207	-0.027
-264.253	-103.777	-0.259	-0.060
-263.238	-31.259	0.070	0.039
-262.224	-102.686	0.216	-0.051
-261.209	227.832	0.134	0.215
-260.195	74.314	-0.123	0.128
-259.180	0.172	-0.113	0.080
-258.165	-200.000	0.037	-0.187
-257.151	-40.981	0.227	0.116
-256.136	-200.000	-0.011	-0.070
-255.122	-97.429	0.236	-0.061
-254.107	-86.713	-0.228	-0.069
-253.092	226.197	0.147	-0.236
-252.078	442.267	-0.144	-0.311
-251.063	405.807	-0.201	0.419
-250.049	103.874	0.045	-0.053
-249.034	-42.521	0.338	-0.170
-248.019	-35.649	-0.039	-0.021
-247.005	509.393	-0.050	0.115
-245.990	353.219	0.095	0.187
-244.976	-25.182	0.110	0.064
-243.961	-200.000	0.008	-0.135
-242.946	-33.870	-0.162	0.088
-241.932	76.035	0.164	0.171
-240.917	24.316	-0.072	-0.059
-239.903	-78.376	0.162	-0.055
-238.888	800.000	0.084	-0.250
-237.873	303.946	-0.095	0.174
-236.859	158.492	-0.096	-0.131
-235.844	-200.000	0.019	-0.220
-234.830	-102.965	0.242	-0.057
-233.815	-49.050	0.042	0.020
-232.800	61.546	-0.065	0.064
-231.786	-1.112	0.082	0.057
-230.771	-33.899	0.194	0.106
-229.757	800.000	-0.048	-0.181
-228.742	-169.840	-0.284	0.010
-227.727	-93.981	-0.312	-0.085
-226.713	124.479	0.094	0.117
-225.698	183.704	-0.182	0.265
-224.684	415.774	-0.074	-0.155
-223.669	-17.007	-0.088	-0.055
-222.655	-87.970	-0.182	0.054
-221.640	515.913	-0.187	0.432
-220.625	800.000	0.051	-0.167
-219.611	-120.646	-0.379	-0.063
-218.596	-19.972	-0.254	-0.155
-217.582	-83.610	-0.161	-0.051
-216.567	67.232	-0.170	0.171
-215.552	-158.132	-0.089	0.005
-214.538	136.414	0.133	-0.172
-213.523	53.181	-0.129	-0.122
-212.509	256.203	-0.173	-0.293
-211.494	-74.508	0.212	0.075
-210.479	41.744	-0.097	-0.087
-209.465	494.477	0.147	0.332
-208.450	-76.771	-0.537	-0.185
-207.436	-200.000	-0.012	-0.214
-206.421	0.185	0.384	0.270
-205.406	61.383	0.056	0.055
-204.392	70.898	0.223	0.228
-203.377	-200.000	-0.013	0.363
-202.363	800.000	-0.004	0.013
-201.348	800.000	-0.055	-0.173
-200.333	-55.908	0.112	-0.049
-199.319	117.813	-0.057	0.069
-198.304	-96.533	0.105	0.027
-197.290	145.836	-0.172	-0.227
-196.275	-61.748	0.194	-0.080
-195.260	800.000	-0.039	0.131
-194.246	-41.855	0.044	0.022
-193.231	-200.000	-0.026	0.194
-192.217	-179.754	0.134	-0.003
-191.202	-7.558	0.294	0.196
-190.187	422.702	0.036	0.075
-189.173	-19.413	0.101	0.061
-188.158	-165.517	-0.411	0.018
-187.144	207.243	0.162	-0.248
-186.129	-20.377	-0.116	-0.070
-185.114	-200.000	0.043	0.588
-184.100	-200.000	0.015	0.379
-183.085	-37.437	-0.062	-0.032
-182.071	414.645	-0.149	0.312
-181.056	-200.000	-0.026	-0.358
-180.042	-35.370	0.268	-0.144
-179.027	63.173	0.069	-0.068
-178.012	100.841	-0.061	-0.070
-176.998	-94.349	0.148	-0.040
-175.983	800.000	0.038	-0.115
-174.969	-149.679	0.158	-0.012
-173.954	58.719	0.247	0.239
-172.939	-200.000	0.000	-0.043
-171.925	800.000	0.017	-0.061
-170.910	800.000	-0.017	-0.056
-169.896	104.610	-0.134	0.155
-168.881	459.362	0.201	0.440
-167.866	-40.564	0.277	0.142
-166.852	363.777	0.111	-0.221
-165.837	107.227	0.068	0.080
-164.823	-165.304	0.141	-0.006
-163.808	323.802	-0.080	0.151
-162.793	113.319	-0.047	-0.056
-161.779	12.274	0.218	-0.166
-160.764	800.000	-0.090	-0.385
-159.750	-72.114	-0.084	0.031
-158.735	543.753	0.077	-0.181
-157.720	-103.962	0.243	0.056
-156.706	84.395	0.119	0.128
-155.691	-63.073	-0.005	0.002
-154.677	208.251	-0.128	-0.197
-153.662	-118.348	-0.283	0.049
-152.647	-177.450	0.149	-0.004
-151.633	-200.000	0.006	-0.106
-150.618	-5.877	0.188	-0.127
-149.604	-12.006	-0.177	-0.114
-148.589	-200.000	-0.003	-0.069
-147.574	196.328	-0.254	0.381
-146.560	76.269	-0.252	-0.262
-145.545	250.997	0.167	0.279
-144.531	185.138	-0.054	-0.079
-143.516	800.000	-0.072	0.281
-142.502	800.000	0.048	-0.167
-141.487	289.973	-0.066	0.118
-140.472	197.222	-0.124	0.186
-139.458	4.945	0.191	0.138
-138.443	15.393	-0.090	-0.069
-137.429	800.000	-0.052	0.208
-136.414	49.884	-0.123	0.115
-135.399	800.000	0.039	0.141
-134.385	-17.853	-0.273	-0.168
-133.370	-104.163	0.212	0.049
-132.356	-200.000	0.040	0.300
-131.341	-37.322	0.515	-0.271
-130.326	-16.005	0.098	0.061
-129.312	-12.672	0.227	0.145
-128.297	3.194	0.063	-0.045
-127.283	16.334	-0.122	-0.095
-126.268	-5.207	0.227	-0.154
-125.253	67.535	-0.132	-0.132
-124.239	84.349	-0.040	-0.043
-123.224	800.000	0.072	0.249
-122.210	109.572	-0.066	0.078
-121.195	-200.000	-0.078	-0.556
