DTS Sentinel unit serial number:	SN413079Multiplexer serial number:	ORYXHardware model number:	OX4-SRSoftware version number:	ORYX F/W v4.00 Oryx Data Collector v3.7.2.0data status	okinstallation	princeton_trtdifferential loss correction	single-endedforward channel	channel 1reverse channel	N/Adate	2019/09/13time	18:22:35forward acquisition time	60.00reverse acquisition time	0.00gamma	496.2192k internal	0.2314k external	0.2314temperature offset calibration	1.0131default loss term (dB/km)	0.3790temperature slope calibration	1.0000multiplexer offset coefficient	1.0000multiplexer slope coefficient	1.0000fibre end	0.00T internal ref (°C)	33.80T ext. ref 1 (°C)	4.34T ext. ref 2 (°C)	26.69length (m)	temperature (°C)	Stokes	anti-Stokes-747.200	-65.400	0.291	0.119
-746.185	-21.713	0.086	0.053
-745.171	-200.000	0.027	0.223
-744.156	-76.080	-0.165	0.059
-743.142	310.759	0.128	-0.243
-742.127	800.000	0.151	0.435
-741.112	125.703	-0.057	-0.073
-740.098	-127.434	-0.112	0.017
-739.083	800.000	-0.091	-0.312
-738.069	-146.582	0.085	-0.007
-737.054	-200.000	0.033	-0.326
-736.039	0.697	-0.066	-0.048
-735.025	378.151	-0.049	-0.101
-734.010	-3.935	0.161	-0.113
-732.996	-126.154	-0.427	0.065
-731.981	255.657	0.015	0.026
-730.966	250.908	0.081	0.139
-729.952	-25.528	-0.393	0.235
-728.937	-200.000	-0.038	-0.359
-727.923	-18.388	-0.187	0.118
-726.908	-200.000	-0.015	-0.252
-725.894	-32.382	0.169	-0.095
-724.879	174.109	0.132	0.193
-723.864	-76.538	0.538	-0.192
-722.850	-200.000	-0.074	-0.385
-721.835	800.000	0.072	-0.233
-720.821	-118.002	0.168	-0.030
-719.806	-58.947	-0.196	-0.086
-718.791	-15.082	-0.386	-0.251
-717.777	-200.000	0.045	-0.318
-716.762	91.637	0.076	0.087
-715.748	-200.000	-0.034	-0.172
-714.733	396.343	0.059	0.125
-713.718	98.110	-0.050	-0.058
-712.704	576.557	0.073	-0.180
-711.689	320.181	0.154	-0.297
-710.675	-200.000	0.040	0.252
-709.660	-110.384	-0.194	0.041
-708.645	-134.774	-0.329	-0.040
-707.631	268.530	0.178	-0.315
-706.616	800.000	-0.120	-0.348
-705.602	165.281	0.188	-0.269
-704.587	104.485	0.201	0.239
-703.572	-159.163	0.241	0.014
-702.558	-200.000	0.040	-0.450
-701.543	642.371	0.196	-0.504
-700.529	-26.049	0.324	0.193
-699.514	-52.550	-0.156	-0.073
-698.499	96.823	0.153	-0.177
-697.485	88.324	0.236	0.266
-696.470	800.000	0.079	0.252
-695.456	285.507	0.133	0.242
-694.441	28.047	0.144	-0.123
-693.426	-200.000	-0.034	-0.152
-692.412	-200.000	-0.024	-0.316
-691.397	-103.385	-0.173	-0.041
-690.383	-112.331	-0.257	0.052
-689.368	-102.781	0.249	0.060
-688.354	757.834	-0.036	-0.100
-687.339	63.640	0.253	-0.257
-686.324	-13.735	-0.060	-0.039
-685.310	29.667	0.066	0.057
-684.295	-200.000	0.047	-0.222
-683.281	-71.026	-0.074	-0.028
-682.266	109.625	0.058	-0.070
-681.251	-200.000	0.047	-0.258
-680.237	-200.000	0.024	0.217
-679.222	73.003	0.165	0.174
-678.208	-147.750	-0.037	0.003
-677.193	-200.000	-0.006	0.243
-676.178	159.061	-0.240	0.338
-675.164	23.398	0.091	-0.076
-674.149	-107.186	-0.407	-0.091
-673.135	-127.907	0.282	-0.041
-672.120	-200.000	-0.031	0.239
-671.105	443.298	0.069	0.153
-670.091	-127.662	-0.121	0.018
-669.076	-178.557	-0.200	-0.005
-668.062	25.978	0.087	0.073
-667.047	30.053	0.275	-0.237
-666.032	109.719	0.173	-0.210
-665.018	-200.000	0.025	0.130
-664.003	22.719	-0.289	-0.239
-662.989	9.035	0.402	-0.307
-661.974	7.618	-0.139	0.105
-660.959	55.300	0.278	-0.271
-659.945	-4.609	0.082	-0.057
-658.930	612.580	-0.042	-0.106
-657.916	21.219	-0.251	-0.206
-656.901	-200.000	0.039	0.212
-655.886	-122.990	-0.288	-0.047
-654.872	-88.028	-0.226	-0.068
-653.857	391.132	0.136	-0.284
-652.843	238.841	0.101	-0.170
-651.828	800.000	-0.102	-0.428
-650.814	-200.000	0.014	-0.078
-649.799	-37.670	-0.085	0.046
-648.784	-129.760	-0.177	-0.025
-647.770	70.165	-0.098	0.102
-646.755	136.912	-0.108	-0.142
-645.741	211.824	0.120	-0.190
-644.726	800.000	-0.047	0.136
-643.711	-4.522	-0.199	0.139
-642.697	-58.321	0.150	0.066
-641.682	-109.366	-0.053	-0.011
-640.668	14.292	-0.294	-0.232
-639.653	-81.551	0.045	-0.015
-638.638	254.741	0.081	0.140
-637.624	69.528	-0.088	0.091
-636.609	-200.000	0.351	0.001
-635.595	-48.332	-0.148	-0.072
-634.580	-136.375	0.142	-0.017
-633.565	21.443	-0.262	0.215
-632.551	173.503	0.160	0.233
-631.536	778.168	-0.126	0.349
-630.522	165.140	-0.170	-0.243
-629.507	-40.041	-0.155	0.081
-628.492	-122.470	-0.535	-0.088
-627.478	-151.875	0.049	0.004
-626.463	25.548	-0.182	0.153
-625.449	-82.863	-0.367	-0.120
-624.434	411.740	0.025	-0.053
-623.419	-0.415	-0.163	0.117
-622.405	1.988	-0.313	-0.228
-621.390	29.956	-0.059	0.051
-620.376	-153.728	-0.089	0.006
-619.361	-42.617	0.132	0.068
-618.346	286.419	-0.230	-0.420
-617.332	-166.641	0.476	0.020
-616.317	-92.673	0.373	-0.105
-615.303	264.428	-0.169	-0.296
-614.288	-12.552	-0.109	-0.072
-613.273	151.264	0.115	0.157
-612.259	-28.687	0.139	-0.081
-611.244	-200.000	-0.112	-0.514
-610.230	-44.990	0.084	-0.042
-609.215	158.555	-0.132	0.185
-608.201	43.559	0.044	-0.040
-607.186	-124.655	0.159	0.025
-606.171	362.747	0.070	-0.141
-605.157	-200.000	-0.020	0.000
-604.142	2.615	0.123	0.090
-603.128	288.802	-0.039	-0.072
-602.113	11.473	-0.279	0.216
-601.098	-48.585	-0.265	0.129
-600.084	-167.988	0.352	-0.014
-599.069	-108.373	0.157	0.034
-598.055	-103.260	-0.296	-0.070
-597.040	800.000	0.062	0.210
-596.025	-23.973	-0.078	0.047
-595.011	-130.989	-0.443	0.060
-593.996	-42.252	-0.131	0.067
-592.982	151.502	-0.009	0.012
-591.967	759.838	0.042	0.114
-590.952	67.160	-0.080	-0.082
-589.938	82.352	-0.095	0.104
-588.923	11.744	0.159	-0.123
-587.909	395.208	0.131	-0.275
-586.894	-200.000	-0.039	0.179
-585.879	-200.000	-0.015	0.396
-584.865	-200.000	0.019	-0.199
-583.850	32.923	-0.221	0.192
-582.836	-129.189	0.306	-0.043
-581.821	-3.025	-0.315	0.222
-580.806	-99.291	0.210	-0.053
-579.792	-21.729	0.215	0.132
-578.777	-200.000	0.006	-0.096
-577.763	267.413	0.259	-0.457
-576.748	21.759	-0.104	-0.086
-575.733	-72.285	-0.552	0.206
-574.719	379.107	0.090	0.185
-573.704	22.534	0.313	0.258
-572.690	-95.828	-0.285	0.077
-571.675	170.112	-0.103	-0.148
-570.661	-88.627	0.260	0.078
-569.646	132.272	-0.185	-0.241
-568.631	-200.000	0.023	-0.124
-567.617	-130.105	-0.274	-0.038
-566.602	451.410	-0.182	0.405
-565.588	800.000	-0.081	-0.285
-564.573	-54.296	0.121	-0.055
-563.558	705.649	-0.105	0.279
-562.544	-67.627	-0.266	-0.105
-561.529	105.134	-0.069	0.081
-560.515	578.598	0.048	0.117
-559.500	28.040	-0.019	0.016
-558.485	-134.264	0.287	-0.036
-557.471	127.775	0.184	0.235
-556.456	610.863	0.090	0.227
-555.442	-33.736	-0.108	0.060
-554.427	230.207	0.104	-0.171
-553.412	-5.395	-0.212	-0.146
-552.398	-200.000	0.074	0.331
-551.383	641.668	0.094	0.241
-550.369	-143.507	0.415	0.040
-549.354	43.719	-0.267	0.246
-548.339	-121.793	-0.437	0.073
-547.325	-41.386	0.255	-0.132
-546.310	242.583	-0.092	-0.154
-545.296	470.862	0.145	0.328
-544.281	800.000	0.015	-0.049
-543.266	88.932	-0.107	0.119
-542.252	347.394	-0.082	0.162
-541.237	56.595	-0.156	-0.153
-540.223	-33.895	0.043	-0.024
-539.208	-59.837	-0.090	0.039
-538.193	9.492	0.296	0.226
-537.179	-115.119	0.110	-0.021
-536.164	-15.478	0.460	-0.295
-535.150	94.774	0.029	0.033
-534.135	207.885	0.106	0.166
-533.121	159.196	0.043	-0.059
-532.106	329.370	-0.063	-0.121
-531.091	-17.577	0.217	0.137
-530.077	636.963	0.091	0.233
-529.062	23.898	-0.068	-0.056
-528.048	117.144	0.320	-0.395
-527.033	-114.366	0.139	-0.027
-526.018	346.861	-0.079	0.156
-525.004	617.076	-0.103	0.260
-523.989	785.552	-0.154	-0.423
-522.975	280.586	0.039	-0.070
-521.960	800.000	-0.057	0.168
-520.945	-138.879	-0.289	0.032
-519.931	72.412	0.078	0.082
-518.916	800.000	0.051	0.174
-517.902	-200.000	-0.045	-0.327
-516.887	-66.419	0.173	-0.069
-515.872	194.413	-0.009	-0.014
-514.858	-117.720	-0.080	-0.014
-513.843	-200.000	-0.022	-0.227
-512.829	122.996	0.036	-0.046
-511.814	297.917	-0.192	-0.355
-510.799	138.455	0.143	-0.188
-509.785	-172.347	0.128	-0.004
-508.770	-116.954	-0.105	-0.019
-507.756	166.994	0.159	0.227
-506.741	-55.914	0.164	0.074
-505.726	193.099	0.016	0.024
-504.712	56.934	0.090	0.088
-503.697	-200.000	-0.006	-0.100
-502.683	-200.000	0.539	0.002
-501.668	65.811	0.263	0.268
-500.653	-118.798	-0.093	-0.016
-499.639	97.051	-0.038	0.043
-498.624	-200.000	0.040	-0.270
-497.610	-90.703	0.235	0.068
-496.595	-8.068	0.071	-0.048
-495.581	130.233	-0.107	0.137
-494.566	83.397	0.128	-0.140
-493.551	-200.000	0.009	0.378
-492.537	-79.539	-0.241	0.082
-491.522	24.621	0.318	-0.264
-490.508	148.661	-0.231	0.313
-489.493	698.219	-0.077	-0.203
-488.478	51.153	0.255	0.243
-487.464	-27.117	-0.046	0.027
-486.449	-200.000	0.010	-0.267
-485.435	23.288	-0.256	0.211
-484.420	-44.372	0.410	0.206
-483.405	18.307	0.163	0.131
-482.391	800.000	-0.126	-0.423
-481.376	301.959	0.091	-0.169
-480.362	155.788	-0.168	-0.233
-479.347	800.000	0.077	-0.234
-478.332	-110.969	0.236	0.049
-477.318	-88.712	0.242	-0.072
-476.303	-133.793	0.218	0.027
-475.289	-79.585	-0.122	0.041
-474.274	65.976	0.143	-0.146
-473.259	40.153	0.198	-0.179
-472.245	300.655	0.049	-0.091
-471.230	82.091	-0.047	-0.051
-470.216	-70.476	0.407	0.155
-469.201	800.000	0.072	-0.252
-468.186	800.000	0.009	0.037
-467.172	-200.000	-0.081	-0.363
-466.157	-28.711	-0.210	0.121
-465.143	-69.259	0.168	-0.065
-464.128	800.000	-0.145	0.460
-463.113	265.176	0.255	0.445
-462.099	-200.000	0.020	0.250
-461.084	-200.000	0.025	-0.209
-460.070	-114.663	0.273	-0.052
-459.055	800.000	-0.111	-0.338
-458.040	-68.189	-0.087	0.034
-457.026	-33.060	0.156	-0.087
-456.011	11.354	-0.284	0.218
-454.997	-14.658	0.114	-0.073
-453.982	242.690	-0.257	-0.431
-452.968	250.017	-0.104	-0.177
-451.953	800.000	-0.016	0.052
-450.938	487.029	-0.056	0.128
-449.924	-200.000	-0.003	0.055
-448.909	-134.166	-0.154	-0.019
-447.895	-200.000	-0.025	0.477
-446.880	-32.761	-0.108	0.060
-445.865	-7.143	0.358	0.243
-444.851	-122.605	0.111	0.018
-443.836	-136.210	-0.102	0.012
-442.822	2.886	0.417	-0.303
-441.807	800.000	-0.030	-0.090
-440.792	110.540	0.028	0.033
-439.778	94.459	-0.040	-0.046
-438.763	-200.000	0.023	0.156
-437.749	-58.326	-0.324	-0.141
-436.734	-200.000	-0.005	0.069
-435.719	-136.105	0.232	-0.027
-434.705	554.471	0.149	0.359
-433.690	-100.343	-0.174	-0.043
-432.676	32.256	-0.166	0.143
-431.661	11.962	-0.338	-0.260
-430.646	800.000	-0.017	0.057
-429.632	-32.042	0.155	-0.087
-428.617	296.428	-0.051	-0.093
-427.603	-110.032	-0.057	0.012
-426.588	-200.000	0.013	0.143
-425.573	127.219	0.187	0.237
-424.559	-13.086	0.090	-0.059
-423.544	-84.097	0.164	-0.052
-422.530	310.385	0.031	0.058
-421.515	-200.000	0.047	0.467
-420.500	218.139	-0.037	0.059
-419.486	-39.772	-0.145	0.076
-418.471	41.913	-0.150	-0.137
-417.457	-189.890	0.218	0.002
-416.442	30.109	0.101	-0.086
-415.428	-89.550	-0.314	0.092
-414.413	188.312	-0.065	-0.097
-413.398	-200.000	0.026	-0.256
-412.384	43.357	-0.145	0.132
-411.369	268.856	-0.078	-0.138
-410.355	110.036	-0.234	-0.282
-409.340	-40.140	-0.094	-0.049
-408.325	-127.386	0.218	-0.032
-407.311	374.468	-0.156	-0.319
-406.296	800.000	0.065	-0.230
-405.282	-200.000	0.004	-0.331
-404.267	-200.000	0.004	-0.084
-403.252	-43.451	0.337	0.170
-402.238	-200.000	-0.025	-0.145
-401.223	-60.910	0.230	0.097
-400.209	8.881	-0.347	-0.262
-399.194	226.465	0.021	0.033
-398.179	800.000	0.054	0.221
-397.165	-65.906	0.149	-0.059
-396.150	-200.000	0.007	0.146
-395.136	-164.107	-0.473	0.022
-394.121	-125.433	-0.162	0.025
-393.106	66.370	0.220	-0.224
-392.092	-101.538	0.096	-0.023
-391.077	-146.202	0.085	0.008
-390.063	411.723	0.055	0.117
-389.048	-200.000	-0.022	-0.194
-388.033	131.127	0.046	0.059
-387.019	-57.739	-0.114	0.050
-386.004	-200.000	-0.104	0.483
-384.990	-36.839	0.132	0.071
-383.975	30.707	0.116	-0.099
-382.960	-100.375	-0.128	0.032
-381.946	-46.082	0.328	-0.162
-380.931	14.749	0.091	0.071
-379.917	800.000	0.074	-0.297
-378.902	-48.461	0.045	-0.022
-377.888	180.016	0.090	-0.133
-376.873	130.062	-0.126	0.162
-375.858	-15.108	-0.160	-0.102
-374.844	88.546	0.039	0.044
-373.829	-83.188	-0.427	0.137
-372.815	100.278	0.298	-0.345
-371.800	19.303	-0.153	-0.123
-370.785	-200.000	0.078	0.394
-369.771	230.580	0.150	0.245
-368.756	148.748	-0.172	0.233
-367.742	-182.159	-0.161	0.003
-366.727	-200.000	0.004	0.245
-365.712	-40.861	0.122	-0.063
-364.698	-200.000	-0.026	0.138
-363.683	125.047	-0.059	0.075
-362.669	-200.000	-0.046	0.286
-361.654	-34.278	0.162	-0.089
-360.639	-33.329	0.170	0.094
-359.625	-16.660	0.130	0.082
-358.610	63.709	0.097	-0.097
-357.596	149.168	0.122	0.166
-356.581	-200.000	0.027	0.148
-355.566	-200.000	-0.014	-0.150
-354.552	132.200	0.103	-0.132
-353.537	-45.596	-0.184	0.091
-352.523	-200.000	-0.195	0.000
-351.508	-118.176	0.192	-0.034
-350.493	132.081	-0.128	0.165
-349.479	-37.273	-0.400	0.213
-348.464	-200.000	0.026	-0.129
-347.450	69.374	0.202	-0.208
-346.435	136.075	0.101	0.131
-345.420	-200.000	0.018	-0.519
-344.406	-200.000	-0.030	0.321
-343.391	0.618	0.211	0.150
-342.377	59.879	-0.230	0.227
-341.362	-54.932	-0.126	-0.057
-340.348	66.231	0.167	0.170
-339.333	800.000	-0.062	-0.214
-338.318	86.593	0.027	-0.029
-337.304	-43.237	0.207	0.105
-336.289	17.485	0.107	-0.085
-335.275	3.084	0.091	-0.066
-334.260	602.131	-0.097	-0.240
-333.245	165.669	-0.253	0.357
-332.231	-200.000	0.111	-0.523
-331.216	-200.000	-0.067	0.391
-330.202	-141.415	-0.151	0.015
-329.187	-69.927	0.252	0.096
-328.172	-124.120	-0.405	-0.063
-327.158	-5.995	-0.071	0.049
-326.143	-200.000	-0.050	-0.297
-325.129	800.000	-0.101	-0.408
-324.114	-20.932	-0.035	-0.021
-323.099	327.635	0.055	0.105
-322.085	-27.922	-0.099	0.057
-321.070	800.000	0.017	0.053
-320.056	416.851	-0.107	-0.228
-319.041	284.334	0.281	-0.505
-318.026	-11.898	0.163	0.107
-317.012	90.114	-0.153	0.171
-315.997	800.000	0.048	0.165
-314.983	800.000	-0.074	-0.215
-313.968	-146.514	-0.324	0.028
-312.953	-86.174	-0.317	-0.097
-311.939	662.186	-0.018	0.046
-310.924	467.868	0.202	-0.453
-309.910	-198.337	0.191	-0.001
-308.895	-200.000	-0.037	0.330
-307.880	366.008	-0.034	0.069
-306.866	-86.602	0.379	-0.116
-305.851	-159.822	0.286	0.016
-304.837	-131.526	-0.115	-0.015
-303.822	800.000	0.054	-0.212
-302.807	-41.065	0.123	0.063
-301.793	-200.000	-0.004	0.198
-300.778	800.000	-0.069	0.243
-299.764	800.000	-0.016	0.053
-298.749	800.000	-0.077	-0.266
-297.735	-200.000	0.013	0.161
-296.720	800.000	-0.023	0.066
-295.705	3.792	0.252	0.183
-294.691	597.573	-0.078	0.192
-293.676	365.091	-0.049	-0.098
-292.662	-18.837	0.315	0.196
-291.647	-200.000	-0.013	-0.283
-290.632	154.520	-0.111	0.152
-289.618	38.621	-0.167	0.148
-288.603	-33.710	-0.091	0.050
-287.589	-69.788	0.392	0.149
-286.574	139.842	0.335	0.440
-285.559	800.000	-0.026	0.082
-284.545	-161.534	-0.437	-0.022
-283.530	2.550	0.102	0.074
-282.516	248.485	0.155	-0.261
-281.501	-177.563	0.211	0.005
-280.486	180.754	0.154	0.224
-279.472	800.000	-0.045	-0.144
-278.457	301.656	0.132	0.243
-277.443	-90.672	0.240	-0.069
-276.428	15.133	0.174	0.136
-275.413	455.906	0.050	-0.110
-274.399	192.111	-0.049	-0.073
-273.384	-200.000	-0.021	-0.138
-272.370	-85.396	0.110	-0.034
-271.355	100.328	-0.063	-0.073
-270.340	-112.088	-0.314	0.063
-269.326	-200.000	0.025	0.178
-268.311	-89.524	-0.252	0.074
-267.297	258.229	0.084	0.143
-266.282	26.119	0.154	-0.128
-265.267	-151.765	0.263	-0.019
-264.253	365.565	-0.090	-0.181
-263.238	123.926	0.141	0.176
-262.224	74.855	-0.049	-0.052
-261.209	-200.000	-0.010	0.217
-260.195	-200.000	0.159	-0.001
-259.180	285.363	-0.065	-0.116
-258.165	800.000	0.078	-0.299
-257.151	800.000	0.027	-0.109
-256.136	800.000	-0.031	0.108
-255.122	52.264	0.083	0.079
-254.107	138.420	0.191	-0.250
-253.092	-4.178	-0.443	-0.305
-252.078	113.797	-0.013	0.016
-251.063	-200.000	0.078	-0.359
-250.049	432.268	0.044	0.096
-249.034	-200.000	0.013	-0.256
-248.019	-28.502	0.088	-0.051
-247.005	-68.302	-0.146	-0.057
-245.990	-73.222	-0.129	-0.047
-244.976	800.000	0.060	-0.203
-243.961	155.663	0.273	0.375
-242.946	123.320	-0.051	0.063
-241.932	800.000	-0.108	-0.360
-240.917	171.500	-0.103	0.147
-239.903	-200.000	-0.011	0.148
-238.888	370.093	-0.066	0.132
-237.873	29.564	-0.394	-0.333
-236.859	800.000	0.124	-0.397
-235.844	-75.050	-0.159	0.057
-234.830	576.701	-0.184	-0.447
-233.815	-95.788	-0.331	-0.088
-232.800	132.970	-0.101	0.130
-231.786	-161.386	0.342	0.018
-230.771	-200.000	-0.033	-0.247
-229.757	800.000	0.028	-0.096
-228.742	30.536	0.141	-0.120
-227.727	-200.000	-0.074	-0.363
-226.713	12.290	0.153	-0.117
-225.698	109.214	-0.269	-0.320
-224.684	800.000	-0.051	0.179
-223.669	-200.000	0.030	-0.159
-222.655	184.136	0.036	-0.053
-221.640	-72.452	-0.232	-0.085
-220.625	-90.244	0.264	-0.076
-219.611	-27.022	-0.219	-0.127
-218.596	800.000	0.043	0.168
-217.582	3.422	0.125	-0.091
-216.567	-184.374	-0.261	0.004
-215.552	132.291	-0.031	-0.039
-214.538	-200.000	0.033	0.166
-213.523	-98.355	-0.333	-0.085
-212.509	-89.235	-0.193	-0.057
-211.494	56.760	-0.236	0.228
-210.479	615.516	0.046	0.114
-209.465	-97.268	-0.214	-0.055
-208.450	-200.000	-0.052	-0.275
-207.436	67.813	0.295	0.300
-206.421	-200.000	0.030	0.176
-205.406	-121.081	0.446	0.074
-204.392	496.772	-0.068	0.154
-203.377	-200.000	-0.008	-0.301
-202.363	800.000	0.056	-0.159
-201.348	-17.240	-0.235	0.147
-200.333	-120.604	0.284	0.048
-199.319	-200.000	-0.026	0.339
-198.304	800.000	-0.019	0.074
-197.290	-29.949	0.348	0.197
-196.275	-200.000	0.012	-0.054
-195.260	99.844	0.091	0.105
-194.246	-72.040	-0.201	0.074
-193.231	-37.027	-0.229	0.122
-192.217	348.061	0.197	-0.386
-191.202	188.292	0.037	-0.055
-190.187	800.000	-0.111	-0.382
-189.173	-9.587	-0.231	-0.153
-188.158	-200.000	0.018	-0.124
-187.144	-100.556	0.121	-0.030
-186.129	135.286	0.250	0.323
-185.114	166.543	-0.072	0.101
-184.100	-141.217	-0.300	0.030
-183.085	296.449	-0.072	0.130
-182.071	96.276	0.229	0.260
-181.056	-70.695	0.176	0.066
-180.042	-200.000	0.038	-0.221
-179.027	-44.467	0.230	0.114
-178.012	144.476	0.129	-0.171
-176.998	-94.079	0.095	0.026
-175.983	115.592	-0.002	0.002
-174.969	-71.077	-0.241	0.090
-173.954	8.572	0.174	-0.130
-172.939	-105.821	-0.190	0.043
-171.925	800.000	-0.050	-0.205
-170.910	322.514	-0.122	0.230
-169.896	-200.000	0.021	-0.388
-168.881	140.411	0.210	0.275
-167.866	81.254	0.205	0.220
-166.852	-99.467	-0.413	0.103
-165.837	-67.971	0.169	0.065
-164.823	-57.281	0.436	0.190
-163.808	52.563	-0.026	-0.024
-162.793	503.327	-0.113	-0.259
-161.779	159.433	-0.293	-0.404
-160.764	158.043	0.077	-0.105
-159.750	631.811	-0.072	-0.181
-158.735	-122.288	-0.451	-0.073
-157.720	714.506	0.220	0.579
-156.706	337.470	-0.172	0.332
-155.691	-99.189	-0.318	0.080
-154.677	-121.846	-0.367	-0.060
-153.662	-42.534	-0.403	0.204
-152.647	-28.691	0.194	0.110
-151.633	292.490	-0.041	0.074
-150.618	-200.000	0.000	-0.228
-149.604	43.594	0.110	0.100
-148.589	279.471	-0.085	-0.150
-147.574	127.187	0.114	0.143
-146.560	617.812	0.101	-0.250
-145.545	616.700	0.112	0.278
-144.531	-3.768	0.057	-0.039
-143.516	-16.495	-0.112	-0.070
-142.502	514.805	0.101	-0.232
-141.487	800.000	-0.047	0.181
-140.472	-200.000	0.040	-0.176
-139.458	92.753	0.088	0.099
-138.443	477.763	0.128	0.287
-137.429	20.694	-0.255	0.205
-136.414	308.180	0.215	0.397
-135.399	-120.081	-0.099	-0.017
-134.385	280.638	0.058	0.103
-133.370	-200.000	-0.018	-0.339
-132.356	170.499	0.142	0.202
-131.341	-167.361	0.364	0.014
-130.326	-106.046	-0.211	0.047
-129.312	-32.826	-0.197	0.109
-128.297	-155.271	-0.114	0.007
-127.283	-94.986	0.475	-0.127
-126.268	98.877	0.160	0.183
-125.253	800.000	0.006	0.024
-124.239	312.145	-0.048	0.090
-123.224	-105.876	0.129	-0.029
-122.210	-143.061	0.365	0.035
-121.195	111.025	0.135	-0.161
-120.180	15.222	0.158	-0.123
