DTS Sentinel unit serial number:	SN413079Multiplexer serial number:	ORYXHardware model number:	OX4-SRSoftware version number:	ORYX F/W v4.00 Oryx Data Collector v3.7.2.0data status	okinstallation	princeton_trtdifferential loss correction	single-endedforward channel	channel 1reverse channel	N/Adate	2019/09/12time	19:17:34forward acquisition time	15.00reverse acquisition time	0.00gamma	496.2192k internal	0.2321k external	0.2321temperature offset calibration	1.0115default loss term (dB/km)	0.3790temperature slope calibration	1.0000multiplexer offset coefficient	1.0000multiplexer slope coefficient	1.0000fibre end	0.00T internal ref (°C)	32.50T ext. ref 1 (°C)	3.21T ext. ref 2 (°C)	27.03length (m)	temperature (°C)	Stokes	anti-Stokes-747.200	-87.006	0.545	0.168
-746.185	800.000	-0.060	0.174
-745.171	-147.336	0.748	-0.064
-744.156	250.038	-0.071	0.122
-743.142	182.090	0.349	0.520
-742.127	-200.000	0.093	-0.491
-741.112	-4.663	-0.372	-0.260
-740.098	-67.883	0.701	-0.277
-739.083	800.000	0.158	-0.495
-738.069	20.559	0.232	-0.189
-737.054	564.296	-0.448	-1.098
-736.039	115.151	-0.424	0.523
-735.025	-163.790	-1.155	0.055
-734.010	-88.225	-0.854	-0.258
-732.996	-200.000	-0.003	0.061
-731.981	170.700	0.162	0.234
-730.966	136.993	0.122	0.161
-729.952	-35.785	-0.292	-0.160
-728.937	-15.255	-0.173	0.111
-727.923	-89.202	-0.612	-0.182
-726.908	453.219	0.218	0.487
-725.894	131.280	-0.197	0.256
-724.879	-117.664	0.581	-0.106
-723.864	261.248	0.267	-0.466
-722.850	-122.501	-0.677	-0.111
-721.835	43.753	-0.542	-0.501
-720.821	-4.949	-0.391	0.272
-719.806	19.839	0.270	0.219
-718.791	-141.603	0.802	-0.082
-717.777	-29.378	-0.227	-0.131
-716.762	339.341	-0.205	-0.404
-715.748	23.912	-0.123	-0.102
-714.733	-200.000	-0.116	0.960
-713.718	346.483	0.380	-0.756
-712.704	-88.839	0.317	0.095
-711.689	102.957	-0.382	0.451
-710.675	180.162	0.203	0.300
-709.660	-23.391	0.470	0.285
-708.645	-95.768	-0.306	0.082
-707.631	-200.000	0.086	1.033
-706.616	-112.325	-0.259	0.052
-705.602	-15.993	-0.757	0.486
-704.587	-200.000	-0.008	0.372
-703.572	-200.000	0.018	0.306
-702.558	64.542	0.184	-0.187
-701.543	37.818	-0.516	-0.463
-700.529	22.960	0.524	-0.433
-699.514	330.279	0.216	-0.420
-698.499	651.217	0.195	-0.504
-697.485	-21.315	-0.341	0.210
-696.470	800.000	-0.246	0.717
-695.456	-36.418	0.333	0.181
-694.441	395.469	0.135	0.285
-693.426	99.429	-0.115	-0.134
-692.412	-200.000	-0.055	-1.051
-691.397	-200.000	-0.008	-0.473
-690.383	-93.080	-0.718	0.202
-689.368	-61.066	-0.529	0.225
-688.354	-200.000	0.092	0.505
-687.339	160.728	-0.126	0.177
-686.324	-166.736	0.460	-0.019
-685.310	800.000	-0.060	-0.256
-684.295	35.277	0.448	0.396
-683.281	-72.490	-0.326	0.122
-682.266	-200.000	-0.021	0.095
-681.251	566.357	-0.179	0.438
-680.237	-200.000	0.005	-0.412
-679.222	-190.360	0.556	-0.006
-678.208	21.933	-0.758	-0.623
-677.193	-140.039	0.381	0.041
-676.178	-200.000	-0.042	-0.432
-675.164	-56.653	0.248	0.111
-674.149	185.512	0.164	0.246
-673.135	6.896	0.737	0.553
-672.120	306.820	0.266	-0.498
-671.105	-75.421	-0.400	0.144
-670.091	-200.000	-0.010	-0.152
-669.076	243.962	0.113	-0.191
-668.062	-67.788	-0.608	-0.240
-667.047	-200.000	0.446	0.002
-666.032	800.000	-0.155	-0.437
-665.018	-120.063	-0.291	-0.050
-664.003	252.962	0.366	0.630
-662.989	-200.000	-0.014	0.450
-661.974	86.402	-0.353	-0.392
-660.959	-200.000	-0.001	0.155
-659.945	-70.596	0.676	-0.257
-658.930	800.000	0.277	-0.951
-657.916	-90.664	-0.258	-0.075
-656.901	-127.971	0.024	-0.003
-655.886	-200.000	0.052	-0.930
-654.872	146.332	0.236	-0.319
-653.857	-200.000	0.019	0.355
-652.843	-157.853	-0.519	-0.031
-651.828	120.050	0.436	-0.545
-650.814	-59.453	-0.289	0.125
-649.799	-200.000	0.021	-0.418
-648.784	504.298	0.090	0.209
-647.770	216.057	-0.190	0.304
-646.755	-200.000	-0.162	-0.752
-645.741	-200.000	0.045	-0.328
-644.726	109.248	-0.370	-0.446
-643.711	-136.883	-0.470	0.054
-642.697	-30.582	0.446	-0.254
-641.682	10.821	-0.617	0.474
-640.668	-97.618	0.086	0.022
-639.653	-97.687	-0.392	-0.102
-638.638	217.208	0.211	-0.338
-637.624	800.000	0.111	-0.486
-636.609	68.829	-0.606	0.626
-635.595	135.713	0.336	-0.441
-634.580	300.650	-0.395	-0.734
-633.565	800.000	0.152	0.610
-632.551	30.758	0.140	0.121
-631.536	221.140	0.138	-0.222
-630.522	800.000	0.183	-0.639
-629.507	-200.000	-0.014	-0.346
-628.492	250.398	-0.390	0.667
-627.478	-36.154	-1.393	-0.757
-626.463	-200.000	-0.117	0.528
-625.449	194.625	0.206	0.314
-624.434	800.000	-0.049	0.187
-623.419	-200.000	-0.044	-0.552
-622.405	-50.006	-0.601	-0.287
-621.390	515.176	-0.390	-0.915
-620.376	9.027	0.186	-0.141
-619.361	71.949	-0.097	0.101
-618.346	36.885	0.191	0.170
-617.332	-127.132	0.126	-0.019
-616.317	296.704	-0.405	-0.747
-615.303	-200.000	-0.018	0.142
-614.288	2.789	-0.328	0.239
-613.273	-47.805	-0.786	-0.383
-612.259	346.444	-0.089	-0.177
-611.244	103.200	0.151	-0.178
-610.230	195.105	0.470	-0.717
-609.215	-200.000	0.002	0.425
-608.201	530.762	-0.038	0.090
-607.186	-11.335	0.255	-0.169
-606.171	-171.128	-0.752	-0.026
-605.157	-64.189	0.114	0.047
-604.142	366.339	-0.142	-0.288
-603.128	86.144	0.426	-0.472
-602.113	-84.102	0.511	-0.163
-601.098	800.000	0.192	-0.585
-600.084	800.000	0.228	0.895
-599.069	-148.356	-0.715	-0.059
-598.055	187.920	0.787	-1.182
-597.040	79.470	0.189	0.204
-596.025	22.363	-0.583	0.479
-595.011	800.000	-0.194	0.565
-593.996	266.444	0.381	0.669
-592.982	-200.000	1.134	-0.004
-591.967	-64.883	-0.336	-0.137
-590.952	254.002	-0.450	-0.773
-589.938	-24.831	-0.546	-0.326
-588.923	800.000	0.046	0.165
-587.909	236.844	0.242	-0.403
-586.894	-131.120	-0.456	-0.061
-585.879	-119.443	0.864	0.151
-584.865	105.407	0.322	-0.382
-583.850	800.000	0.123	-0.394
-582.836	800.000	0.212	-0.625
-581.821	341.068	0.217	0.425
-580.806	8.563	0.807	0.610
-579.792	73.861	-0.234	-0.246
-578.777	-46.942	-0.703	-0.345
-577.763	-65.706	0.320	0.129
-576.748	800.000	0.139	0.573
-575.733	-182.521	0.643	0.012
-574.719	-83.120	-0.329	0.106
-573.704	-104.835	-0.090	0.021
-572.690	102.683	-0.203	-0.239
-571.675	219.941	-0.107	0.171
-570.661	71.276	-0.335	-0.348
-569.646	506.577	-0.340	0.791
-568.631	88.415	-0.169	0.188
-567.617	509.047	-0.121	-0.283
-566.602	750.321	0.312	-0.844
-565.588	-39.924	-0.367	0.192
-564.573	-151.758	-0.644	-0.048
-563.558	-59.865	1.132	-0.486
-562.544	-100.406	0.211	0.052
-561.529	-103.443	-0.249	-0.059
-560.515	-124.515	-0.680	-0.106
-559.500	-200.000	0.053	-0.753
-558.485	-150.913	1.038	-0.079
-557.471	-200.000	0.039	0.276
-556.456	706.142	-0.245	-0.648
-555.442	-99.228	-1.160	0.294
-554.427	124.519	0.251	0.317
-553.412	112.813	0.121	-0.147
-552.398	48.173	0.305	0.286
-551.383	133.451	0.438	-0.569
-550.369	46.254	0.210	0.195
-549.354	-200.000	0.009	-0.618
-548.339	-200.000	0.071	0.541
-547.325	-22.105	0.360	-0.219
-546.310	192.317	0.225	0.340
-545.296	-52.126	-0.426	0.198
-544.281	-200.000	-0.075	0.864
-543.266	179.217	-0.269	0.394
-542.252	800.000	0.045	-0.134
-541.237	18.183	-0.676	-0.541
-540.223	10.628	-0.513	0.392
-539.208	69.509	-0.150	0.155
-538.193	404.413	0.232	-0.490
-537.179	67.892	-0.428	-0.439
-536.164	-98.535	0.377	0.097
-535.150	-50.036	-0.606	0.288
-534.135	403.990	0.089	0.188
-533.121	177.006	0.511	-0.746
-532.106	-166.591	-0.476	-0.020
-531.091	-98.295	-0.087	-0.022
-530.077	-200.000	0.015	-0.236
-529.062	-81.005	-0.816	-0.271
-528.048	125.459	-0.232	0.294
-527.033	-20.770	-0.594	0.365
-526.018	-172.086	0.187	-0.006
-525.004	-200.000	0.011	0.196
-523.989	481.195	0.356	-0.811
-522.975	-97.438	-0.979	-0.255
-521.960	27.272	0.797	0.671
-520.945	509.163	0.252	0.587
-519.931	-132.624	0.666	0.086
-518.916	-46.296	-0.144	0.071
-517.902	119.538	0.401	0.497
-516.887	-49.044	-0.771	-0.369
-515.872	68.889	-0.288	0.296
-514.858	24.037	0.353	-0.291
-513.843	-200.000	-0.014	0.147
-512.829	-47.857	0.812	-0.394
-511.814	11.788	0.515	-0.396
-510.799	11.355	0.209	0.160
-509.785	208.930	0.607	0.952
-508.770	-66.522	-0.792	0.315
-507.756	-115.765	-0.689	0.129
-506.741	785.921	0.329	0.905
-505.726	-167.432	0.913	0.037
-504.712	-200.000	-0.101	0.499
-503.697	-42.789	-0.069	0.035
-502.683	-200.000	0.017	-0.366
-501.668	-116.983	-0.271	0.050
-500.653	-96.509	-0.524	-0.138
-499.639	-200.000	-0.008	0.341
-498.624	-76.495	-0.998	0.351
-497.610	-66.319	0.493	0.196
-496.595	-37.029	0.290	-0.155
-495.581	-147.940	-0.591	0.049
-494.566	-98.556	-0.147	0.038
-493.551	13.615	0.493	-0.383
-492.537	26.576	-0.360	0.302
-491.522	-159.318	-0.060	-0.003
-490.508	83.227	-0.050	-0.054
-489.493	800.000	-0.103	0.321
-488.478	-85.429	-1.264	-0.394
-487.464	152.348	0.394	-0.538
-486.449	-200.000	-0.006	-0.222
-485.435	-6.938	-0.951	0.647
-484.420	-72.814	0.545	-0.201
-483.405	303.984	0.078	0.144
-482.391	800.000	0.159	0.648
-481.376	646.754	-0.108	-0.277
-480.362	73.731	-0.375	-0.393
-479.347	800.000	-0.045	0.169
-478.332	281.493	0.380	-0.680
-477.318	-152.486	0.652	0.047
-476.303	30.976	0.289	-0.247
-475.289	-70.805	-0.634	0.239
-474.274	-87.777	0.246	0.074
-473.259	141.423	-0.154	0.204
-472.245	-200.000	0.005	-0.641
-471.230	69.083	-0.558	-0.573
-470.216	-115.201	0.572	0.108
-469.201	142.990	0.041	0.055
-468.186	162.709	-0.746	-1.047
-467.172	221.755	0.474	0.762
-466.157	78.275	-0.199	-0.213
-465.143	233.126	-0.092	0.152
-464.128	301.519	0.261	0.483
-463.113	-200.000	-0.046	-0.445
-462.099	-168.616	-1.128	-0.043
-461.084	8.270	-0.301	0.226
-460.070	-96.617	0.612	-0.161
-459.055	-86.296	-1.028	-0.316
-458.040	-200.000	-0.138	-0.617
-457.026	363.736	-0.123	-0.247
-456.011	-51.130	0.823	0.386
-454.997	800.000	0.066	0.247
-453.982	-110.448	0.773	-0.160
-452.968	75.317	0.057	0.060
-451.953	-37.371	0.778	0.415
-450.938	-0.953	-0.444	0.314
-449.924	0.267	-0.231	-0.165
-448.909	-130.217	-0.577	-0.079
-447.895	-119.852	-0.788	-0.135
-446.880	-136.645	-0.491	-0.057
-445.865	112.714	-0.241	0.292
-444.851	678.400	0.383	0.995
-443.836	240.378	-0.201	0.335
-442.822	310.483	0.148	0.277
-441.807	800.000	-0.099	-0.294
-440.792	-200.000	0.077	-0.616
-439.778	-200.000	0.102	-1.000
-438.763	800.000	-0.241	0.718
-437.749	-180.038	1.173	-0.025
-436.734	41.789	-0.438	0.396
-435.719	-77.227	0.206	0.072
-434.705	266.687	0.233	-0.406
-433.690	333.409	-0.067	-0.130
-432.676	-130.390	1.226	0.166
-431.661	-22.245	-0.593	0.359
-430.646	-200.000	-0.109	-0.489
-429.632	-164.524	0.912	-0.041
-428.617	-67.677	-0.101	-0.039
-427.603	-200.000	0.071	-0.687
-426.588	138.372	0.664	0.870
-425.573	469.100	-0.063	-0.140
-424.559	800.000	-0.163	-0.513
-423.544	800.000	-0.189	-0.570
-422.530	39.306	-0.663	0.592
-421.515	105.930	0.273	0.322
-420.500	-181.573	-1.007	-0.020
-419.486	-102.778	0.712	0.169
-418.471	-121.672	-0.513	-0.085
-417.457	35.740	0.801	0.703
-416.442	-192.008	-0.800	-0.008
-415.428	131.610	0.327	0.420
-414.413	-102.899	0.498	-0.118
-413.398	122.265	0.450	-0.561
-412.384	-90.844	0.672	0.193
-411.369	77.722	-0.311	-0.330
-410.355	41.201	0.372	-0.336
-409.340	326.969	-0.208	-0.397
-408.325	-91.896	-0.892	-0.252
-407.311	66.458	0.360	0.365
-406.296	-21.479	-0.069	0.042
-405.282	250.555	0.208	0.353
-404.267	366.871	-0.168	-0.339
-403.252	-50.950	-0.585	0.274
-402.238	187.848	-0.251	0.374
-401.223	-1.369	0.484	0.341
-400.209	-111.992	-0.238	0.048
-399.194	34.115	0.520	0.452
-398.179	684.195	0.039	-0.101
-397.165	-46.033	0.377	0.185
-396.150	-200.000	-0.161	-0.705
-395.136	-200.000	-0.056	0.549
-394.121	-200.000	0.476	-0.002
-393.106	-100.739	0.248	0.061
-392.092	-163.431	-0.363	0.017
-391.077	-200.000	-0.033	-0.341
-390.063	-200.000	0.041	-0.473
-389.048	-35.489	0.618	0.335
-388.033	800.000	-0.191	-0.723
-387.019	-200.000	0.031	-0.762
-386.004	-26.844	0.233	0.136
-384.990	-137.686	0.810	0.091
-383.975	-158.947	-0.451	0.026
-382.960	18.291	-0.289	-0.230
-381.946	-90.898	-0.629	-0.180
-380.931	-76.254	0.616	-0.216
-379.917	-15.757	0.412	0.262
-378.902	-1.184	0.755	0.532
-377.888	-76.274	-0.635	0.223
-376.873	-13.427	0.123	-0.079
-375.858	-22.616	-0.489	-0.295
-374.844	-132.570	-0.368	-0.047
-373.829	-200.000	-0.093	-0.466
-372.815	800.000	-0.325	1.036
-371.800	800.000	0.063	-0.237
-370.785	-200.000	-0.073	0.479
-369.771	-200.000	0.042	0.808
-368.756	22.745	-0.444	0.362
-367.742	-200.000	0.005	0.396
-366.727	-200.000	-0.013	-0.078
-365.712	800.000	-0.162	-0.551
-364.698	-99.212	-0.268	-0.067
-363.683	-67.669	0.532	-0.207
-362.669	-58.081	0.560	0.243
-361.654	800.000	0.093	-0.349
-360.639	-146.096	-0.712	-0.063
-359.625	-37.786	0.544	0.288
-358.610	-200.000	-0.093	0.429
-357.596	-121.361	-0.503	-0.083
-356.581	-89.262	-0.578	0.170
-355.566	41.241	-0.761	0.685
-354.552	148.559	-0.277	0.373
-353.537	-134.335	0.473	-0.058
-352.523	800.000	-0.043	-0.177
-351.508	-200.000	0.078	0.440
-350.493	-130.625	-0.609	0.082
-349.479	800.000	0.087	-0.256
-348.464	-176.832	-0.220	0.006
-347.450	66.566	-0.229	-0.232
-346.435	105.203	-0.469	-0.551
-345.420	36.803	-0.668	-0.587
-344.406	-105.439	0.535	-0.121
-343.391	-54.397	-0.204	-0.092
-342.377	-200.000	-0.006	0.200
-341.362	-83.431	-0.198	-0.063
-340.348	681.279	0.112	-0.292
-339.333	-200.000	0.111	-0.960
-338.318	-200.000	0.124	-0.811
-337.304	-62.275	-0.335	-0.139
-336.289	-103.855	-0.427	-0.099
-335.275	148.016	-0.399	-0.536
-334.260	109.811	-0.367	0.437
-333.245	-75.535	-0.741	-0.262
-332.231	14.416	-0.896	0.695
-331.216	-42.992	-0.935	-0.472
-330.202	245.670	0.137	0.229
-329.187	-200.000	0.055	-0.372
-328.172	800.000	-0.179	0.657
-327.158	-200.000	-0.009	-0.707
-326.143	172.786	-0.135	0.194
-325.129	12.676	-0.269	0.207
-324.114	85.821	-0.276	0.302
-323.099	-125.762	0.668	0.100
-322.085	270.908	-0.481	0.842
-321.070	-200.000	0.051	0.525
-320.056	-62.717	-0.921	-0.379
-319.041	225.861	0.167	-0.270
-318.026	-72.945	-0.512	0.187
-317.012	800.000	0.087	-0.291
-315.997	-200.000	-0.197	0.937
-314.983	-124.333	0.760	0.118
-313.968	-151.052	0.322	0.024
-312.953	-93.378	-0.152	-0.042
-311.939	-51.066	0.547	0.255
-310.924	266.476	0.261	-0.453
-309.910	-0.399	-0.333	-0.235
-308.895	373.815	-0.431	0.872
-307.880	-33.045	0.676	0.372
-306.866	-46.811	0.365	0.177
-305.851	-83.211	0.186	-0.059
-304.837	800.000	0.134	-0.411
-303.822	-74.764	0.610	-0.218
-302.807	-65.962	0.439	0.174
-301.793	381.463	-0.262	0.534
-300.778	-85.266	0.653	-0.203
-299.764	-200.000	-0.209	-0.941
-298.749	161.946	0.259	-0.360
-297.735	-200.000	0.048	0.819
-296.720	95.964	-0.253	0.287
-295.705	302.325	-0.347	0.638
-294.691	-200.000	0.008	0.436
-293.676	480.751	-0.217	0.489
-292.662	629.518	-0.156	-0.391
-291.647	-200.000	-0.031	0.887
-290.632	-109.580	0.424	-0.089
-289.618	800.000	-0.195	-0.587
-288.603	-65.304	0.089	-0.036
-287.589	-26.779	-0.241	-0.140
-286.574	-136.094	-0.369	-0.043
-285.559	380.281	0.362	-0.736
-284.545	800.000	0.059	0.197
-283.530	-200.000	-0.057	0.999
-282.516	-200.000	0.073	0.857
-281.501	-6.798	-0.607	-0.410
-280.486	-115.289	0.750	0.141
-279.472	533.301	0.089	-0.208
-278.457	548.396	-0.231	0.549
-277.443	40.423	0.229	-0.205
-276.428	800.000	0.098	-0.408
-275.413	-153.053	1.309	-0.091
-274.399	-20.983	0.166	-0.101
-273.384	800.000	-0.126	0.426
-272.370	800.000	-0.284	0.892
-271.355	185.697	0.236	-0.348
-270.340	9.913	-0.434	-0.327
-269.326	32.522	0.599	0.514
-268.311	8.407	-0.527	0.393
-267.297	-98.428	0.539	0.137
-266.282	-121.649	0.654	-0.108
-265.267	-37.299	0.300	0.159
-264.253	-97.186	0.511	0.132
-263.238	25.692	-0.554	-0.457
-262.224	-85.117	0.958	-0.297
-261.209	324.370	0.373	-0.707
-260.195	-29.339	-0.406	0.230
-259.180	-97.512	0.550	-0.142
-258.165	22.591	-1.113	-0.903
-257.151	105.648	0.367	-0.430
-256.136	-103.573	-0.011	0.002
-255.122	-96.643	0.175	-0.046
-254.107	72.531	-0.216	-0.223
-253.092	-144.346	-0.587	0.054
-252.078	16.978	0.572	0.449
-251.063	64.505	0.505	-0.505
-250.049	-12.501	0.815	-0.527
-249.034	-93.829	0.622	-0.170
-248.019	526.062	0.302	0.704
-247.005	263.989	-0.109	0.187
-245.990	239.985	0.220	0.362
-244.976	-7.426	0.360	-0.241
-243.961	-174.842	0.929	-0.026
-242.946	2.106	-0.590	-0.423
-241.932	405.787	0.331	0.692
-240.917	186.983	0.361	-0.534
-239.903	89.153	-0.246	0.271
-238.888	-84.899	0.824	0.256
-237.873	-118.040	0.827	0.147
-236.859	-200.000	-0.154	-0.976
-235.844	176.163	0.104	0.150
-234.830	110.482	0.483	-0.575
-233.815	-200.000	0.061	-0.836
-232.800	-200.000	0.163	0.736
-231.786	-55.844	0.216	-0.095
-230.771	-200.000	0.008	-0.295
-229.757	68.990	0.066	0.068
-228.742	-74.445	-0.618	0.221
-227.727	116.840	0.634	-0.771
-226.713	-162.982	0.628	-0.030
-225.698	584.298	-0.286	-0.696
-224.684	-1.537	-0.381	0.266
-223.669	-42.851	-0.328	-0.165
-222.655	-200.000	0.015	0.782
-221.640	-31.495	0.017	0.009
-220.625	141.757	0.621	0.815
-219.611	-110.266	-0.932	0.192
-218.596	800.000	-0.378	-1.221
-217.582	-54.738	0.441	-0.197
-216.567	-18.547	-0.206	-0.127
-215.552	-52.769	-0.240	0.110
-214.538	-13.280	0.613	-0.394
-213.523	280.996	0.409	0.725
-212.509	-19.237	-0.511	0.314
-211.494	800.000	-0.232	0.705
-210.479	693.302	-0.073	-0.191
-209.465	-200.000	-0.073	0.859
-208.450	-25.020	0.469	-0.275
-207.436	48.080	-0.292	0.270
-206.421	-39.849	-0.186	0.096
-205.406	-112.594	1.014	-0.200
-204.392	14.934	-0.107	0.083
-203.377	-18.243	0.227	0.141
-202.363	-76.430	0.252	-0.088
-201.348	-200.000	0.004	0.386
-200.333	-119.225	0.784	-0.135
-199.319	146.844	0.179	0.238
-198.304	18.243	0.550	-0.435
-197.290	-163.380	0.121	-0.006
-196.275	24.364	-0.187	0.153
-195.260	-6.309	0.296	0.200
-194.246	448.047	-0.443	0.964
-193.231	800.000	0.138	-0.467
-192.217	-200.000	-0.104	0.526
-191.202	-162.618	-0.367	-0.018
-190.187	-36.676	-0.240	-0.128
-189.173	141.968	0.271	-0.355
-188.158	100.005	-0.393	0.450
-187.144	53.873	0.675	-0.641
-186.129	-84.210	-0.414	-0.130
-185.114	-132.220	0.449	-0.058
-184.100	191.081	0.097	0.144
-183.085	71.299	-0.219	-0.225
-182.071	-200.000	-0.039	1.130
-181.056	-123.497	-0.396	-0.062
-180.042	-173.238	-0.862	-0.026
-179.027	178.706	0.205	-0.296
-178.012	300.841	0.191	0.348
-176.998	-155.301	0.358	-0.023
-175.983	800.000	-0.259	-0.785
-174.969	17.378	0.549	0.431
-173.954	-89.855	0.471	-0.136
-172.939	-194.289	-0.586	-0.005
-171.925	-4.833	0.602	0.410
-170.910	258.616	-0.391	0.666
-169.896	-54.471	-0.644	-0.288
-168.881	800.000	0.062	0.216
-167.866	-117.359	-0.579	0.104
-166.852	-133.580	-0.269	0.033
-165.837	-6.099	0.851	0.575
-164.823	12.607	0.140	0.107
-163.808	-200.000	-0.026	0.130
-162.793	-18.827	-0.074	-0.045
-161.779	168.351	-0.456	0.641
-160.764	260.833	-0.219	0.375
-159.750	-23.481	0.298	-0.177
-158.735	-76.325	0.654	0.227
-157.720	-200.000	-0.197	-1.037
-156.706	-200.000	0.048	-0.281
-155.691	739.578	0.248	0.657
-154.677	89.965	0.114	-0.126
-153.662	47.175	0.164	0.150
-152.647	-200.000	-0.045	0.854
-151.633	351.778	0.078	-0.152
-150.618	8.900	-0.319	0.237
-149.604	278.089	-0.297	0.523
-148.589	800.000	-0.241	0.676
-147.574	-200.000	-0.027	0.445
-146.560	-147.403	-0.100	0.008
-145.545	-48.302	0.446	0.212
-144.531	-54.183	0.340	-0.153
-143.516	-94.398	-0.380	-0.102
-142.502	27.870	-0.527	0.439
-141.487	800.000	-0.156	-0.651
-140.472	-30.323	0.323	-0.181
-139.458	-118.951	-0.617	0.107
-138.443	-79.275	0.338	-0.113
-137.429	20.421	-0.465	0.371
-136.414	-134.957	0.627	0.075
-135.399	-113.916	-0.336	0.064
-134.385	-73.741	0.346	-0.124
-133.370	800.000	0.025	-0.072
-132.356	216.384	-0.352	-0.553
-131.341	18.096	-0.137	0.108
-130.326	42.248	-0.537	0.481
-129.312	18.678	0.519	0.409
-128.297	120.721	-0.341	0.418
-127.283	-200.000	0.088	0.671
-126.268	18.404	-0.297	0.234
-125.253	-200.000	-0.028	1.096
-124.239	-133.599	0.696	0.086
-123.224	16.162	0.413	0.321
-122.210	25.223	-0.455	0.372
-121.195	32.840	-0.210	-0.180
