DTS Sentinel unit serial number:	SN413079Multiplexer serial number:	ORYXHardware model number:	OX4-SRSoftware version number:	ORYX F/W v4.00 Oryx Data Collector v3.7.2.0data status	okinstallation	princeton_trtdifferential loss correction	single-endedforward channel	channel 1reverse channel	N/Adate	2019/09/16time	21:18:35forward acquisition time	60.00reverse acquisition time	0.00gamma	496.2192k internal	0.2324k external	0.2324temperature offset calibration	0.9949default loss term (dB/km)	0.3790temperature slope calibration	1.0000multiplexer offset coefficient	1.0000multiplexer slope coefficient	1.0000fibre end	0.00T internal ref (°C)	31.67T ext. ref 1 (°C)	0.04T ext. ref 2 (°C)	25.51length (m)	temperature (°C)	Stokes	anti-Stokes-747.200	-8.176	-0.104	0.071
-746.185	-200.000	0.031	0.334
-745.171	136.721	0.064	0.084
-744.156	-200.000	0.044	0.379
-743.142	-0.709	-0.154	0.110
-742.127	-146.481	-0.318	-0.028
-741.112	47.836	-0.065	0.062
-740.098	-170.502	-0.264	0.009
-739.083	-111.548	0.159	0.033
-738.069	60.516	-0.209	0.209
-737.054	-100.638	-0.115	-0.029
-736.039	114.635	0.035	-0.043
-735.025	-158.926	0.113	-0.006
-734.010	-200.000	0.017	-0.083
-732.996	-133.339	-0.556	-0.071
-731.981	-0.246	-0.075	0.054
-730.966	-148.954	0.266	0.022
-729.952	-69.145	-0.370	0.144
-728.937	20.624	-0.221	0.180
-727.923	617.921	-0.168	-0.427
-726.908	222.744	-0.190	-0.309
-725.894	425.483	-0.085	-0.186
-724.879	-86.575	-0.344	-0.106
-723.864	-200.000	-0.014	-0.183
-722.850	260.489	-0.089	0.156
-721.835	106.650	-0.155	-0.185
-720.821	-55.758	-0.128	-0.058
-719.806	1.474	-0.228	0.165
-718.791	689.488	-0.052	-0.138
-717.777	-5.364	-0.155	-0.107
-716.762	800.000	0.056	-0.188
-715.748	144.303	-0.182	0.244
-714.733	103.744	0.045	0.053
-713.718	130.782	-0.074	-0.096
-712.704	-200.000	-0.075	0.398
-711.689	641.406	-0.031	-0.081
-710.675	127.281	0.087	0.112
-709.660	-200.000	-0.080	0.360
-708.645	19.115	-0.272	-0.220
-707.631	800.000	0.014	-0.041
-706.616	-200.000	0.040	-0.203
-705.602	-81.708	0.081	0.027
-704.587	-200.000	0.011	0.109
-703.572	332.353	-0.063	-0.122
-702.558	496.702	-0.062	0.144
-701.543	-38.032	0.054	-0.029
-700.529	-200.000	-0.017	-0.184
-699.514	-66.553	0.178	0.071
-698.499	-200.000	0.016	0.145
-697.485	-127.717	-0.173	-0.025
-696.470	-171.491	-0.069	-0.002
-695.456	-47.344	-0.137	-0.067
-694.441	577.347	0.091	0.223
-693.426	800.000	0.047	0.141
-692.412	26.287	0.216	-0.182
-691.397	102.809	-0.051	-0.060
-690.383	-45.710	0.151	0.075
-689.368	800.000	-0.065	-0.246
-688.354	143.464	0.079	-0.105
-687.339	800.000	-0.073	0.254
-686.324	231.604	-0.075	-0.124
-685.310	38.049	0.104	-0.093
-684.295	-200.000	0.013	-0.580
-683.281	-16.384	-0.158	-0.101
-682.266	333.885	0.039	0.076
-681.251	506.484	0.039	-0.090
-680.237	-200.000	-0.039	-0.437
-679.222	-155.445	-0.165	-0.011
-678.208	800.000	-0.036	-0.111
-677.193	73.685	0.027	-0.029
-676.178	615.646	0.049	-0.123
-675.164	380.827	0.066	0.136
-674.149	800.000	-0.051	-0.212
-673.135	-127.719	-0.083	-0.012
-672.120	800.000	-0.069	-0.244
-671.105	359.767	0.197	-0.397
-670.091	-200.000	0.061	-0.316
-669.076	-101.942	-0.310	0.075
-668.062	-17.960	-0.062	0.039
-667.047	800.000	-0.084	-0.314
-666.032	-8.577	-0.265	0.179
-665.018	800.000	0.111	0.464
-664.003	-200.000	-0.023	0.145
-662.989	-144.284	-0.205	0.019
-661.974	-112.274	-0.467	0.094
-660.959	309.643	-0.089	-0.167
-659.945	-36.054	-0.160	-0.087
-658.930	1.839	0.074	0.054
-657.916	42.028	-0.132	0.120
-656.901	-200.000	0.025	-0.206
-655.886	-140.547	-0.227	-0.024
-654.872	-72.632	0.195	-0.073
-653.857	309.865	0.147	-0.277
-652.843	-127.721	-0.105	-0.015
-651.828	282.736	-0.034	-0.061
-650.814	800.000	-0.055	-0.171
-649.799	-64.316	0.204	0.084
-648.784	-200.000	0.038	-0.175
-647.770	-14.511	0.131	0.085
-646.755	152.693	-0.145	-0.199
-645.741	141.322	0.139	0.186
-644.726	-81.364	-0.162	-0.054
-643.711	391.148	-0.110	0.230
-642.697	800.000	0.026	-0.087
-641.682	-200.000	-0.009	0.084
-640.668	14.869	-0.120	-0.094
-639.653	91.375	0.127	0.143
-638.638	800.000	0.048	-0.159
-637.624	-12.733	-0.104	-0.068
-636.609	386.721	0.093	-0.193
-635.595	86.702	-0.193	-0.214
-634.580	-7.636	-0.221	-0.150
-633.565	147.255	0.268	-0.362
-632.551	-193.287	0.061	0.001
-631.536	-200.000	0.026	-0.163
-630.522	-100.464	-0.034	-0.008
-629.507	280.834	0.078	0.141
-628.492	-110.966	-0.322	0.066
-627.478	-161.902	-0.366	-0.019
-626.463	-78.331	-0.331	0.114
-625.449	30.271	-0.328	-0.282
-624.434	-58.115	0.218	-0.096
-623.419	68.572	0.076	-0.078
-622.405	-109.966	0.283	-0.059
-621.390	-200.000	0.046	0.230
-620.376	-200.000	0.007	0.241
-619.361	-94.953	0.230	-0.063
-618.346	-22.864	0.252	-0.153
-617.332	-91.605	-0.110	-0.032
-616.317	206.712	-0.117	0.182
-615.303	800.000	-0.120	0.335
-614.288	84.293	0.134	0.147
-613.273	-141.461	-0.213	-0.022
-612.259	-92.291	-0.045	-0.013
-611.244	667.727	-0.263	-0.684
-610.230	273.564	0.112	-0.198
-609.215	-127.805	-0.118	-0.017
-608.201	800.000	0.076	0.219
-607.186	14.598	-0.073	-0.057
-606.171	-200.000	0.017	0.114
-605.157	-118.961	-0.085	-0.015
-604.142	146.882	0.027	-0.036
-603.128	-159.873	-0.098	0.005
-602.113	-88.885	-0.114	-0.034
-601.098	446.295	0.068	-0.150
-600.084	-175.283	-0.126	-0.003
-599.069	800.000	0.066	0.184
-598.055	-179.335	0.531	-0.012
-597.040	431.053	0.066	0.144
-596.025	-38.758	-0.216	-0.114
-595.011	-94.588	-0.509	-0.139
-593.996	34.766	0.111	0.097
-592.982	206.031	0.121	-0.188
-591.967	18.150	-0.215	-0.172
-590.952	-59.862	-0.231	0.099
-589.938	48.467	0.125	0.117
-588.923	707.162	0.015	0.040
-587.909	800.000	-0.054	-0.184
-586.894	-88.517	0.035	-0.011
-585.879	-200.000	0.061	-0.456
-584.865	-62.627	0.063	0.026
-583.850	461.805	-0.057	0.126
-582.836	-51.935	-0.192	0.089
-581.821	-42.826	0.119	-0.061
-580.806	-25.610	-0.156	0.092
-579.792	186.352	0.031	-0.047
-578.777	24.339	-0.160	0.133
-577.763	327.503	-0.152	0.293
-576.748	-200.000	-0.028	0.214
-575.733	800.000	-0.093	-0.296
-574.719	-200.000	-0.011	0.176
-573.704	-200.000	-0.012	-0.308
-572.690	-113.923	0.154	0.030
-571.675	173.704	0.054	0.078
-570.661	-200.000	-0.068	0.372
-569.646	-0.212	-0.305	0.217
-568.631	-148.485	0.030	0.002
-567.617	148.658	-0.116	-0.158
-566.602	-42.416	0.250	-0.128
-565.588	80.251	-0.064	0.069
-564.573	-92.557	-0.373	0.105
-563.558	-66.320	0.354	0.141
-562.544	11.841	-0.167	-0.129
-561.529	-7.619	0.383	0.259
-560.515	-200.000	-0.008	-0.094
-559.500	-12.012	-0.046	0.030
-558.485	-41.170	-0.031	0.016
-557.471	650.426	0.086	0.220
-556.456	245.827	0.108	0.182
-555.442	146.859	-0.078	-0.105
-554.427	-200.000	0.042	-0.220
-553.412	632.167	0.078	-0.198
-552.398	-200.000	0.009	0.176
-551.383	800.000	0.010	0.039
-550.369	104.010	-0.077	0.090
-549.354	-94.953	0.041	0.011
-548.339	-200.000	-0.017	0.092
-547.325	460.962	0.154	0.344
-546.310	-93.686	0.269	0.074
-545.296	800.000	0.035	0.126
-544.281	20.805	0.037	0.030
-543.266	-159.175	-0.193	-0.011
-542.252	5.641	-0.129	0.095
-541.237	-200.000	-0.047	-0.248
-540.223	16.405	-0.248	0.196
-539.208	17.565	0.031	0.025
-538.193	800.000	-0.053	-0.201
-537.179	-163.087	-0.115	-0.006
-536.164	13.634	0.102	0.080
-535.150	61.135	-0.202	0.201
-534.135	-158.445	0.245	-0.014
-533.121	9.085	-0.109	0.082
-532.106	-53.550	-0.276	-0.126
-531.091	-89.535	0.311	0.092
-530.077	59.115	0.213	-0.210
-529.062	196.260	-0.131	-0.199
-528.048	107.008	-0.145	-0.173
-527.033	59.652	-0.282	-0.278
-526.018	-90.612	-0.176	0.051
-525.004	233.423	0.126	0.207
-523.989	19.601	-0.257	0.207
-522.975	608.178	-0.035	-0.087
-521.960	-79.209	-0.054	-0.018
-520.945	-162.442	-0.070	-0.003
-519.931	-147.732	-0.380	-0.032
-518.916	800.000	-0.120	0.447
-517.902	345.853	0.135	-0.266
-516.887	68.566	-0.170	-0.174
-515.872	-122.139	0.246	-0.040
-514.858	177.782	-0.136	-0.198
-513.843	99.765	0.347	-0.402
-512.829	-150.654	-0.083	0.006
-511.814	-172.323	0.323	-0.010
-510.799	0.073	-0.274	0.196
-509.785	41.221	-0.089	0.080
-508.770	-161.416	-0.246	-0.013
-507.756	-200.000	-0.021	0.128
-506.741	-25.589	-0.190	0.112
-505.726	-179.706	0.168	-0.004
-504.712	157.573	-0.128	0.178
-503.697	-111.191	0.247	-0.051
-502.683	-159.234	0.099	0.006
-501.668	800.000	-0.069	-0.249
-500.653	71.996	0.211	0.220
-499.639	800.000	-0.070	0.214
-498.624	-123.975	-0.234	-0.037
-497.610	39.512	-0.135	0.120
-496.595	800.000	-0.071	-0.206
-495.581	-98.006	-0.400	0.103
-494.566	-110.338	0.059	-0.012
-493.551	-4.103	-0.026	-0.018
-492.537	-7.758	0.327	-0.221
-491.522	-108.448	-0.116	-0.025
-490.508	153.030	0.098	-0.133
-489.493	-56.407	0.306	-0.136
-488.478	-4.034	0.096	-0.067
-487.464	-111.571	0.181	-0.037
-486.449	-4.136	-0.179	-0.124
-485.435	46.816	0.128	0.119
-484.420	-111.874	0.334	-0.067
-483.405	-153.411	0.174	0.012
-482.391	102.321	-0.158	0.184
-481.376	152.206	-0.113	0.154
-480.362	267.787	0.206	0.361
-479.347	462.898	0.028	0.062
-478.332	582.882	0.085	-0.209
-477.318	800.000	0.140	0.456
-476.303	-101.387	0.107	0.026
-475.289	162.023	0.178	-0.250
-474.274	-10.755	-0.197	-0.130
-473.259	-200.000	-0.043	-0.274
-472.245	-200.000	0.002	0.219
-471.230	-65.873	0.289	-0.115
-470.216	-5.540	0.257	0.176
-469.201	800.000	0.057	0.177
-468.186	103.682	0.140	0.164
-467.172	-200.000	0.007	-0.245
-466.157	586.724	-0.136	0.335
-465.143	223.647	-0.185	0.299
-464.128	325.869	-0.029	0.056
-463.113	6.018	-0.094	0.070
-462.099	-147.264	0.213	0.018
-461.084	-200.000	0.015	0.262
-460.070	-22.654	0.282	0.170
-459.055	-128.928	-0.128	-0.018
-458.040	800.000	0.073	-0.215
-457.026	-200.000	-0.027	-0.135
-456.011	-200.000	0.011	0.279
-454.997	-200.000	0.228	-0.001
-453.982	-55.772	-0.051	-0.023
-452.968	-200.000	-0.009	-0.055
-451.953	800.000	0.064	-0.240
-450.938	706.244	-0.035	-0.091
-449.924	-116.781	0.104	0.019
-448.909	109.959	-0.141	0.169
-447.895	-30.727	-0.065	0.037
-446.880	-83.585	-0.226	0.072
-445.865	-166.345	-0.299	0.013
-444.851	569.988	-0.059	0.143
-443.836	-106.074	-0.133	-0.030
-442.822	-117.940	0.247	-0.044
-441.807	-93.386	0.074	0.021
-440.792	52.752	0.231	0.220
-439.778	406.814	-0.053	-0.112
-438.763	-200.000	0.027	-0.189
-437.749	-1.343	-0.418	-0.295
-436.734	-75.235	-0.095	-0.034
-435.719	-108.955	-0.194	-0.041
-434.705	800.000	-0.074	-0.211
-433.690	800.000	-0.032	-0.112
-432.676	-180.255	-0.259	0.005
-431.661	235.118	-0.175	0.289
-430.646	800.000	0.041	-0.121
-429.632	228.404	0.074	-0.120
-428.617	119.488	-0.023	-0.028
-427.603	-200.000	0.033	-0.213
-426.588	143.607	-0.255	0.338
-425.573	105.229	0.174	-0.205
-424.559	-159.726	-0.431	0.024
-423.544	-163.653	-0.201	0.009
-422.530	70.761	-0.176	-0.182
-421.515	26.284	-0.287	-0.239
-420.500	-93.496	0.185	0.051
-419.486	161.809	-0.111	0.155
-418.471	-122.146	0.103	-0.017
-417.457	-116.832	0.584	0.107
-416.442	-109.529	0.193	0.041
-415.428	-44.675	-0.088	-0.044
-414.413	-200.000	0.020	-0.400
-413.398	185.682	0.203	0.300
-412.384	-71.144	-0.272	-0.102
-411.369	27.421	-0.088	-0.074
-410.355	-41.398	0.234	0.120
-409.340	-121.339	-0.132	0.022
-408.325	91.100	0.166	-0.185
-407.311	146.126	-0.101	0.134
-406.296	112.675	0.178	0.214
-405.282	271.673	-0.133	-0.234
-404.267	112.935	0.332	0.401
-403.252	460.268	-0.095	0.212
-402.238	800.000	0.025	-0.102
-401.223	-121.399	0.049	0.008
-400.209	147.577	0.159	-0.213
-399.194	44.714	-0.057	0.052
-398.179	-95.539	-0.211	0.056
-397.165	252.331	-0.092	-0.155
-396.150	-76.944	-0.084	0.029
-395.136	142.276	-0.124	-0.164
-394.121	-200.000	0.047	-0.332
-393.106	342.812	0.179	-0.348
-392.092	-200.000	0.006	-0.096
-391.077	190.868	0.178	-0.267
-390.063	145.520	-0.048	-0.064
-389.048	-157.647	0.273	-0.016
-388.033	-103.864	-0.232	-0.054
-387.019	-200.000	-0.051	0.404
-386.004	-193.526	-0.321	-0.003
-384.990	234.643	0.009	-0.014
-383.975	50.732	-0.127	-0.120
-382.960	129.458	-0.140	-0.178
-381.946	-200.000	0.011	0.064
-380.931	317.309	0.043	0.080
-379.917	536.902	0.060	0.142
-378.902	-200.000	0.052	-0.471
-377.888	800.000	-0.059	0.184
-376.873	585.651	-0.070	0.172
-375.858	800.000	-0.051	-0.146
-374.844	-47.840	0.190	-0.092
-373.829	-45.924	-0.088	0.043
-372.815	-188.585	-0.068	0.001
-371.800	-149.913	0.049	-0.004
-370.785	23.513	-0.074	-0.060
-369.771	-200.000	0.057	-0.267
-368.756	93.044	0.093	-0.105
-367.742	-139.954	0.091	0.010
-366.727	122.036	0.281	0.349
-365.712	800.000	0.109	0.398
-364.698	-101.956	0.179	-0.043
-363.683	-147.121	0.190	-0.016
-362.669	-138.699	-0.547	-0.059
-361.654	20.703	0.265	-0.213
-360.639	17.319	0.078	0.062
-359.625	-200.000	-0.005	-0.026
-358.610	6.243	-0.212	-0.157
-357.596	93.086	0.082	-0.092
-356.581	122.591	0.254	0.315
-355.566	-22.346	0.095	-0.057
-354.552	207.752	0.147	-0.228
-353.537	-25.839	-0.252	-0.148
-352.523	127.945	0.128	0.162
-351.508	-200.000	-0.045	0.000
-350.493	-8.612	-0.361	0.241
-349.479	-82.945	-0.292	0.094
-348.464	310.084	-0.100	0.186
-347.450	-200.000	-0.011	-0.221
-346.435	132.742	-0.118	0.151
-345.420	-200.000	-0.045	0.242
-344.406	800.000	0.063	-0.262
-343.391	20.718	0.155	-0.124
-342.377	-200.000	0.005	0.067
-341.362	571.178	0.015	0.036
-340.348	84.354	-0.065	-0.070
-339.333	-87.730	-0.096	-0.029
-338.318	-200.000	0.001	0.094
-337.304	-200.000	-0.040	0.176
-336.289	-200.000	0.062	-0.271
-335.275	-96.367	-0.142	0.037
-334.260	101.413	-0.348	0.403
-333.245	-200.000	-0.042	0.428
-332.231	213.120	0.088	0.138
-331.216	-145.066	0.195	-0.018
-330.202	-122.121	0.287	0.047
-329.187	-60.399	0.268	0.113
-328.172	422.706	0.097	0.208
-327.158	-125.182	0.155	-0.024
-326.143	800.000	-0.082	-0.235
-325.129	-22.504	0.121	-0.073
-324.114	800.000	0.050	-0.146
-323.099	-41.724	-0.193	-0.098
-322.085	526.225	-0.043	0.100
-321.070	36.348	-0.355	0.311
-320.056	800.000	0.059	-0.257
-319.041	259.807	-0.137	-0.235
-318.026	583.262	0.098	0.238
-317.012	-122.862	0.314	-0.050
-315.997	41.183	-0.010	-0.009
-314.983	800.000	-0.142	-0.428
-313.968	-95.106	0.166	-0.045
-312.953	-2.161	-0.011	0.008
-311.939	426.996	0.112	0.240
-310.924	800.000	-0.021	-0.061
-309.910	-104.672	0.118	-0.027
-308.895	-11.292	-0.212	0.139
-307.880	-91.272	-0.313	0.089
-306.866	-138.730	-0.451	0.049
-305.851	-200.000	-0.003	-0.066
-304.837	7.512	0.065	0.048
-303.822	20.817	0.071	0.057
-302.807	-18.927	0.197	-0.122
-301.793	-44.527	0.104	-0.052
-300.778	-200.000	-0.043	0.236
-299.764	163.286	-0.059	0.082
-298.749	800.000	0.037	0.103
-297.735	409.939	-0.102	-0.215
-296.720	-100.760	-0.130	-0.032
-295.705	-200.000	0.001	0.031
-294.691	-140.419	0.106	-0.011
-293.676	-49.024	-0.106	-0.050
-292.662	-170.641	0.024	0.001
-291.647	169.932	0.177	0.252
-290.632	-200.000	0.031	0.202
-289.618	-134.399	0.335	0.041
-288.603	-121.149	0.153	0.025
-287.589	217.966	0.146	0.231
-286.574	-26.491	-0.097	-0.056
-285.559	-55.589	-0.164	-0.073
-284.545	800.000	-0.070	-0.202
-283.530	-200.000	0.022	0.236
-282.516	97.664	-0.201	-0.229
-281.501	-31.795	0.060	-0.034
-280.486	-165.683	0.151	-0.006
-279.472	-154.241	-0.176	-0.012
-278.457	733.638	0.064	0.171
-277.443	23.702	-0.268	0.219
-276.428	-140.660	0.040	-0.004
-275.413	-200.000	-0.024	0.243
-274.399	-70.952	0.437	-0.163
-273.384	-39.921	-0.085	0.044
-272.370	676.472	0.040	0.104
-271.355	-200.000	-0.023	0.153
-270.340	-84.037	0.341	-0.107
-269.326	-4.670	-0.023	-0.015
-268.311	800.000	0.034	0.109
-267.297	-40.063	0.145	0.075
-266.282	-200.000	0.021	0.105
-265.267	800.000	0.109	-0.407
-264.253	-80.490	-0.269	0.089
-263.238	-157.825	0.583	-0.034
-262.224	10.013	0.076	0.057
-261.209	-21.625	-0.214	-0.129
-260.195	800.000	0.078	0.314
-259.180	160.412	-0.062	0.085
-258.165	107.798	0.192	-0.227
-257.151	-163.162	0.179	-0.009
-256.136	800.000	-0.061	-0.232
-255.122	32.494	-0.143	0.122
-254.107	-200.000	-0.052	-0.288
-253.092	-34.893	0.093	0.050
-252.078	39.425	0.161	-0.143
-251.063	-173.591	-0.067	-0.002
-250.049	800.000	0.164	0.578
-249.034	112.280	0.149	0.179
-248.019	-36.713	0.215	0.114
-247.005	800.000	-0.084	-0.337
-245.990	-62.248	0.259	-0.107
-244.976	-55.754	-0.141	0.062
-243.961	800.000	-0.046	-0.136
-242.946	84.985	0.065	-0.070
-241.932	800.000	-0.092	0.318
-240.917	98.784	-0.068	-0.077
-239.903	-25.482	0.130	-0.076
-238.888	-200.000	0.025	-0.283
-237.873	-99.614	-0.328	-0.081
-236.859	-200.000	0.037	-0.251
-235.844	85.888	0.105	0.114
-234.830	-114.524	-0.189	0.036
-233.815	-8.395	0.166	0.111
-232.800	192.250	-0.155	0.232
-231.786	-200.000	0.048	-0.227
-230.771	-72.282	0.277	0.101
-229.757	-139.608	-0.320	0.034
-228.742	573.248	0.062	-0.149
-227.727	7.001	0.077	0.056
-226.713	200.806	0.078	0.119
-225.698	174.242	0.070	-0.100
-224.684	336.691	-0.044	0.085
-223.669	292.120	-0.058	-0.104
-222.655	-83.186	0.101	0.032
-221.640	800.000	-0.046	-0.197
-220.625	-200.000	0.075	-0.338
-219.611	-73.951	-0.085	0.030
-218.596	155.926	0.096	0.131
-217.582	430.086	0.069	-0.147
-216.567	124.533	-0.127	0.157
-215.552	-200.000	-0.026	0.198
-214.538	-103.736	-0.380	-0.088
-213.523	77.765	-0.130	-0.137
-212.509	31.760	0.116	0.099
-211.494	714.800	-0.075	0.195
-210.479	11.238	0.146	-0.111
-209.465	-200.000	0.031	-0.167
-208.450	10.146	0.068	0.051
-207.436	-11.491	-0.102	0.066
-206.421	-200.000	0.032	0.232
-205.406	-200.000	-0.046	-0.232
-204.392	-15.865	0.195	-0.123
-203.377	-75.104	0.287	-0.101
-202.363	2.506	0.132	-0.094
-201.348	-11.686	0.035	-0.023
-200.333	-200.000	0.023	-0.113
-199.319	106.614	0.160	0.188
-198.304	55.460	0.193	-0.185
-197.290	800.000	0.045	0.171
-196.275	800.000	0.034	0.122
-195.260	800.000	0.056	0.190
-194.246	184.115	0.144	-0.210
-193.231	-57.917	-0.134	-0.058
-192.217	-200.000	0.009	-0.129
-191.202	-200.000	-0.030	-0.235
-190.187	43.017	0.118	0.106
-189.173	-200.000	-0.063	-0.304
-188.158	128.580	-0.163	0.205
-187.144	-158.467	0.186	-0.011
-186.129	86.842	-0.187	0.204
-185.114	31.640	0.074	-0.062
-184.100	-179.964	0.166	0.004
-183.085	-200.000	0.040	0.182
-182.071	489.371	0.080	-0.181
-181.056	6.138	-0.205	-0.150
-180.042	54.706	0.186	-0.177
-179.027	37.178	-0.168	0.147
-178.012	29.578	-0.104	-0.087
-176.998	-70.780	0.105	0.039
-175.983	-137.300	-0.246	0.028
-174.969	-83.952	0.232	0.073
-173.954	-105.805	0.157	-0.035
-172.939	-110.745	-0.069	0.014
-171.925	514.740	0.072	0.167
-170.910	-87.963	-0.249	-0.074
-169.896	21.949	0.138	-0.111
-168.881	800.000	0.046	-0.195
-167.866	-38.093	0.031	0.016
-166.852	-164.025	0.245	-0.011
-165.837	256.974	-0.030	0.051
-164.823	-179.540	-0.038	0.001
-163.808	-16.076	-0.206	0.129
-162.793	-117.364	0.224	-0.040
-161.779	239.172	-0.180	0.296
-160.764	93.893	0.160	0.179
-159.750	20.688	-0.036	-0.028
-158.735	43.567	0.057	0.051
-157.720	-200.000	-0.010	-0.083
-156.706	324.456	0.010	-0.018
-155.691	800.000	0.069	-0.203
-154.677	7.011	0.229	0.168
-153.662	-109.520	-0.390	-0.081
-152.647	-80.335	-0.162	0.054
-151.633	263.134	0.082	-0.140
-150.618	-200.000	0.040	0.362
-149.604	-200.000	-0.041	-0.222
-148.589	43.002	0.114	0.103
-147.574	-200.000	-0.006	0.216
-146.560	166.016	-0.102	-0.142
-145.545	-146.998	0.071	0.006
-144.531	-112.698	0.117	0.023
-143.516	-97.380	0.246	0.063
-142.502	-130.607	-0.338	0.045
-141.487	203.798	-0.082	-0.125
-140.472	186.709	0.231	0.339
-139.458	-135.301	0.262	-0.031
-138.443	-200.000	-0.015	-0.161
-137.429	261.736	-0.106	-0.180
-136.414	-200.000	0.016	0.242
-135.399	-161.571	-0.386	0.020
-134.385	-41.025	-0.057	-0.029
-133.370	800.000	0.070	0.252
-132.356	-71.629	0.136	0.050
-131.341	125.037	0.157	-0.195
-130.326	35.791	-0.158	-0.137
-129.312	141.838	0.272	-0.356
-128.297	-165.751	-0.204	-0.009
-127.283	243.690	0.195	0.322
-126.268	-116.776	0.157	0.028
-125.253	-91.920	0.503	-0.140
-124.239	633.579	0.140	-0.351
-123.224	-84.628	-0.126	-0.039
-122.210	-80.177	0.165	-0.054
