DTS Sentinel unit serial number:	SN413079Multiplexer serial number:	ORYXHardware model number:	OX4-SRSoftware version number:	ORYX F/W v4.00 Oryx Data Collector v3.7.2.0data status	okinstallation	princeton_trtdifferential loss correction	single-endedforward channel	channel 1reverse channel	N/Adate	2019/09/17time	12:10:35forward acquisition time	60.00reverse acquisition time	0.00gamma	496.2192k internal	0.2321k external	0.2321temperature offset calibration	0.9976default loss term (dB/km)	0.3790temperature slope calibration	1.0000multiplexer offset coefficient	1.0000multiplexer slope coefficient	1.0000fibre end	0.00T internal ref (°C)	31.31T ext. ref 1 (°C)	0.44T ext. ref 2 (°C)	27.80length (m)	temperature (°C)	Stokes	anti-Stokes-747.200	-200.000	0.019	0.112
-746.185	-200.000	-0.013	0.401
-745.171	-200.000	0.017	0.220
-744.156	86.010	0.173	0.192
-743.142	-117.197	-0.078	-0.014
-742.127	-200.000	0.003	0.201
-741.112	-200.000	-0.003	-0.069
-740.098	-65.280	-0.432	0.176
-739.083	-200.000	0.060	0.405
-738.069	6.197	0.124	-0.093
-737.054	-67.787	-0.188	0.074
-736.039	35.144	-0.506	-0.448
-735.025	38.049	0.190	-0.171
-734.010	-34.144	-0.124	-0.069
-732.996	41.150	-0.136	-0.124
-731.981	-95.771	-0.253	0.068
-730.966	-67.300	-0.346	-0.138
-729.952	-48.731	-0.112	0.054
-728.937	570.575	0.172	0.424
-727.923	337.024	0.041	0.081
-726.908	-101.528	-0.074	-0.018
-725.894	415.545	-0.150	-0.323
-724.879	-2.507	-0.341	-0.241
-723.864	14.265	0.242	-0.191
-722.850	-52.799	-0.064	0.030
-721.835	247.898	-0.073	-0.125
-720.821	595.574	0.066	-0.164
-719.806	-27.195	0.106	-0.062
-718.791	800.000	0.016	0.061
-717.777	84.856	0.220	-0.244
-716.762	380.859	0.025	-0.052
-715.748	-17.794	0.167	0.106
-714.733	-4.911	0.056	-0.039
-713.718	-112.249	-0.137	-0.028
-712.704	103.260	-0.174	-0.206
-711.689	77.410	0.156	0.168
-710.675	236.549	-0.024	0.041
-709.660	-97.162	-0.132	-0.035
-708.645	116.681	-0.153	-0.190
-707.631	-90.711	0.186	0.054
-706.616	-166.443	0.298	0.013
-705.602	-77.141	-0.125	-0.044
-704.587	800.000	-0.029	-0.122
-703.572	-200.000	-0.007	-0.256
-702.558	29.415	0.255	-0.219
-701.543	-150.489	-0.014	0.001
-700.529	-200.000	0.076	-0.367
-699.514	758.565	0.065	-0.178
-698.499	188.596	0.151	-0.228
-697.485	630.240	0.046	-0.118
-696.470	-3.904	0.296	-0.207
-695.456	-84.039	-0.044	-0.014
-694.441	800.000	-0.037	-0.159
-693.426	-82.879	-0.254	0.083
-692.412	-74.678	0.239	-0.087
-691.397	0.100	0.214	0.154
-690.383	130.551	-0.289	-0.374
-689.368	232.878	0.099	0.163
-688.354	56.941	-0.171	0.168
-687.339	129.560	0.123	-0.159
-686.324	-200.000	0.009	0.191
-685.310	-58.282	0.334	0.147
-684.295	-72.952	0.115	-0.043
-683.281	-82.409	-0.149	0.049
-682.266	232.672	0.091	-0.151
-681.251	-100.940	0.051	0.013
-680.237	221.977	0.125	-0.203
-679.222	-88.687	0.114	0.034
-678.208	-200.000	0.006	-0.320
-677.193	-165.301	-0.052	0.002
-676.178	-200.000	-0.010	-0.133
-675.164	-149.693	-0.068	0.005
-674.149	-200.000	0.009	0.114
-673.135	800.000	-0.035	-0.108
-672.120	-90.497	0.137	0.040
-671.105	-89.011	-0.132	0.039
-670.091	-39.073	-0.075	0.040
-669.076	477.174	0.051	-0.117
-668.062	-70.408	0.228	0.087
-667.047	473.710	-0.132	-0.301
-666.032	800.000	0.108	0.333
-665.018	-200.000	0.046	0.341
-664.003	75.053	-0.111	0.118
-662.989	-200.000	-0.021	0.166
-661.974	69.483	-0.120	0.125
-660.959	-52.894	-0.292	-0.136
-659.945	232.472	0.133	0.220
-658.930	-140.723	-0.122	-0.013
-657.916	-200.000	-0.026	-0.198
-656.901	540.746	-0.117	0.281
-655.886	-84.688	-0.220	-0.070
-654.872	369.386	-0.073	0.150
-653.857	-200.000	0.022	-0.235
-652.843	349.336	-0.211	-0.419
-651.828	-200.000	-0.023	-0.332
-650.814	800.000	0.045	0.147
-649.799	-18.511	0.194	0.122
-648.784	-200.000	-0.002	-0.064
-647.770	-200.000	0.052	-0.269
-646.755	-90.559	-0.145	0.042
-645.741	301.449	0.070	0.130
-644.726	130.506	0.264	0.341
-643.711	-105.233	-0.267	0.061
-642.697	420.731	0.061	0.131
-641.682	800.000	-0.076	0.317
-640.668	630.897	0.017	0.043
-639.653	303.515	-0.113	-0.211
-638.638	-25.531	0.261	-0.155
-637.624	-110.562	0.149	-0.031
-636.609	-125.438	-0.267	-0.041
-635.595	-136.253	-0.251	0.030
-634.580	-162.559	0.193	0.010
-633.565	-70.441	-0.169	-0.065
-632.551	-107.448	0.324	-0.072
-631.536	-161.568	-0.060	-0.003
-630.522	-105.102	0.096	0.022
-629.507	80.308	0.076	-0.082
-628.492	-87.290	0.200	-0.061
-627.478	800.000	0.011	0.037
-626.463	800.000	0.086	0.280
-625.449	-82.483	0.077	0.025
-624.434	-200.000	0.048	-0.391
-623.419	133.958	0.045	-0.059
-622.405	-200.000	0.038	0.257
-621.390	-116.248	-0.279	0.052
-620.376	1.089	-0.121	0.087
-619.361	800.000	-0.101	-0.298
-618.346	-200.000	-0.018	-0.278
-617.332	-142.161	-0.167	0.017
-616.317	-80.285	-0.262	0.088
-615.303	-98.867	-0.311	0.080
-614.288	-64.970	0.187	-0.076
-613.273	800.000	0.021	-0.080
-612.259	800.000	0.054	-0.153
-611.244	143.851	0.231	-0.310
-610.230	-33.367	-0.293	0.163
-609.215	95.242	-0.157	0.180
-608.201	16.046	0.188	0.149
-607.186	618.140	-0.099	-0.249
-606.171	-200.000	-0.023	0.113
-605.157	-81.761	-0.260	-0.086
-604.142	-90.310	-0.270	0.079
-603.128	-127.419	-0.145	0.021
-602.113	-143.057	0.228	-0.022
-601.098	90.444	-0.081	-0.091
-600.084	-1.269	0.230	0.163
-599.069	292.128	-0.238	-0.436
-598.055	44.009	-0.240	-0.221
-597.040	-200.000	-0.025	0.254
-596.025	-25.133	0.205	0.122
-595.011	800.000	-0.056	-0.224
-593.996	-11.795	-0.180	-0.118
-592.982	-0.391	0.172	-0.123
-591.967	-160.739	0.202	0.011
-590.952	240.295	-0.200	0.335
-589.938	-84.352	0.170	-0.054
-588.923	1.410	0.142	0.103
-587.909	150.852	0.130	0.178
-586.894	-89.279	0.053	-0.016
-585.879	527.535	-0.122	-0.288
-584.865	216.868	-0.115	0.185
-583.850	456.829	-0.063	0.141
-582.836	-37.760	0.164	0.088
-581.821	-22.766	-0.085	0.052
-580.806	-200.000	0.009	0.140
-579.792	800.000	-0.045	0.192
-578.777	-8.545	0.062	0.042
-577.763	48.314	-0.243	0.228
-576.748	247.585	0.145	-0.246
-575.733	-46.533	-0.166	0.082
-574.719	17.271	0.214	-0.170
-573.704	-200.000	0.018	-0.155
-572.690	-121.811	0.148	0.024
-571.675	-90.099	0.204	-0.060
-570.661	-18.680	0.132	-0.083
-569.646	800.000	0.060	0.220
-568.631	-16.495	-0.030	0.019
-567.617	800.000	0.027	-0.115
-566.602	-180.926	-0.476	-0.010
-565.588	176.471	0.096	-0.141
-564.573	40.734	-0.117	0.106
-563.558	-183.364	-0.131	-0.002
-562.544	364.041	-0.062	0.126
-561.529	-125.065	-0.237	-0.037
-560.515	21.911	0.308	-0.252
-559.500	183.785	-0.163	-0.242
-558.485	685.918	-0.069	-0.181
-557.471	525.297	0.042	-0.099
-556.456	-200.000	0.090	0.505
-555.442	-66.122	0.193	0.077
-554.427	63.305	-0.182	-0.183
-553.412	384.274	-0.056	-0.116
-552.398	577.627	-0.033	0.082
-551.383	800.000	0.092	-0.300
-550.369	112.496	0.219	-0.266
-549.354	0.096	-0.056	-0.040
-548.339	-200.000	0.028	-0.309
-547.325	-149.971	-0.117	0.009
-546.310	105.401	-0.125	-0.149
-545.296	369.247	-0.174	0.354
-544.281	145.427	0.067	0.090
-543.266	-31.745	-0.109	-0.061
-542.252	25.580	0.051	0.042
-541.237	-171.389	0.202	0.007
-540.223	65.810	-0.121	-0.123
-539.208	395.676	0.102	-0.213
-538.193	-35.357	-0.368	-0.201
-537.179	-44.742	0.119	0.060
-536.164	16.563	0.168	-0.133
-535.150	-155.438	0.191	-0.012
-534.135	17.145	-0.172	0.137
-533.121	-200.000	-0.026	0.116
-532.106	589.797	-0.118	0.293
-531.091	162.048	0.073	-0.102
-530.077	-5.904	0.143	-0.098
-529.062	-22.297	0.084	0.051
-528.048	-9.897	0.218	0.145
-527.033	30.233	0.172	-0.147
-526.018	-153.135	0.449	-0.032
-525.004	741.636	0.055	0.147
-523.989	-125.901	-0.074	-0.011
-522.975	239.331	0.184	0.307
-521.960	-74.082	-0.331	-0.120
-520.945	204.666	0.095	-0.148
-519.931	-200.000	0.023	0.131
-518.916	-130.872	-0.510	-0.068
-517.902	-115.206	-0.039	-0.007
-516.887	800.000	0.025	0.085
-515.872	-99.290	-0.312	0.079
-514.858	-106.701	-0.095	-0.021
-513.843	-200.000	-0.009	-0.183
-512.829	800.000	0.121	-0.343
-511.814	-200.000	0.011	-0.162
-510.799	-125.019	-0.133	0.021
-509.785	-200.000	-0.010	0.085
-508.770	504.183	0.031	-0.072
-507.756	93.241	0.130	-0.147
-506.741	-80.557	-0.099	-0.033
-505.726	123.363	0.073	0.092
-504.712	-122.981	-0.035	-0.006
-503.697	-200.000	0.019	-0.140
-502.683	-200.000	-0.017	-0.251
-501.668	527.088	-0.077	-0.183
-500.653	-200.000	-0.014	0.194
-499.639	-26.615	0.199	0.117
-498.624	800.000	0.022	0.076
-497.610	-200.000	0.024	-0.135
-496.595	504.611	-0.076	-0.176
-495.581	-88.695	-0.272	0.081
-494.566	-9.831	0.191	0.127
-493.551	-200.000	-0.028	-0.201
-492.537	431.467	0.108	0.234
-491.522	637.572	0.088	0.224
-490.508	-67.874	0.260	-0.102
-489.493	-107.929	0.164	-0.036
-488.478	-177.618	-0.204	-0.005
-487.464	-200.000	0.046	0.373
-486.449	169.311	0.154	0.220
-485.435	247.127	-0.100	-0.169
-484.420	36.267	0.121	0.106
-483.405	800.000	0.178	-0.514
-482.391	285.374	0.076	-0.137
-481.376	-16.948	0.178	-0.113
-480.362	-20.471	-0.145	0.089
-479.347	-176.292	0.165	-0.004
-478.332	-60.777	0.041	0.017
-477.318	11.565	-0.356	-0.273
-476.303	-42.290	0.112	-0.057
-475.289	-79.855	-0.597	0.201
-474.274	280.771	-0.205	0.367
-473.259	-45.667	0.106	-0.052
-472.245	-200.000	0.027	0.221
-471.230	-184.963	-0.160	0.003
-470.216	-83.833	0.263	0.084
-469.201	-200.000	0.025	0.196
-468.186	800.000	-0.041	-0.143
-467.172	-153.805	0.130	0.009
-466.157	-73.878	0.119	0.043
-465.143	20.394	-0.185	0.150
-464.128	-200.000	0.006	-0.492
-463.113	-200.000	0.036	0.360
-462.099	132.758	-0.088	0.113
-461.084	99.847	-0.199	0.231
-460.070	400.243	0.049	0.102
-459.055	543.546	0.085	-0.202
-458.040	-152.148	-0.310	0.022
-457.026	501.781	-0.099	0.228
-456.011	-122.440	0.175	-0.029
-454.997	-200.000	0.046	-0.347
-453.982	64.177	-0.174	0.175
-452.968	800.000	0.112	-0.360
-451.953	440.813	0.083	-0.181
-450.938	-79.576	0.142	-0.048
-449.924	-200.000	0.004	-0.046
-448.909	-102.055	0.111	-0.027
-447.895	40.331	-0.094	-0.085
-446.880	-200.000	-0.015	-0.076
-445.865	-126.799	0.191	-0.028
-444.851	-15.527	0.120	-0.077
-443.836	-200.000	0.032	0.234
-442.822	800.000	0.058	-0.194
-441.807	175.652	0.064	-0.093
-440.792	271.015	0.154	-0.270
-439.778	147.423	-0.164	0.220
-438.763	-138.099	0.091	0.010
-437.749	-34.350	-0.283	0.155
-436.734	-167.930	0.492	0.019
-435.719	-10.688	-0.230	0.152
-434.705	800.000	0.036	0.132
-433.690	-36.387	0.104	-0.056
-432.676	800.000	0.109	0.341
-431.661	-7.597	0.231	-0.156
-430.646	-85.810	0.288	-0.089
-429.632	-125.943	-0.380	0.057
-428.617	-138.107	-0.285	0.032
-427.603	-200.000	-0.044	-0.200
-426.588	-121.403	-0.284	-0.047
-425.573	-133.646	-0.274	0.034
-424.559	193.124	-0.083	-0.125
-423.544	-200.000	-0.000	0.127
-422.530	6.669	0.177	0.131
-421.515	362.326	-0.275	-0.551
-420.500	-98.009	0.222	-0.057
-419.486	51.878	0.152	0.144
-418.471	64.594	0.083	-0.083
-417.457	-47.578	-0.192	-0.093
-416.442	-200.000	-0.043	-0.235
-415.428	568.424	0.072	0.175
-414.413	-78.680	-0.291	-0.099
-413.398	-108.089	0.165	-0.036
-412.384	-128.434	-0.244	-0.035
-411.369	-107.690	0.186	0.041
-410.355	141.225	-0.162	-0.214
-409.340	357.812	0.141	0.280
-408.325	94.292	-0.168	0.190
-407.311	-126.558	-0.237	-0.035
-406.296	-200.000	-0.013	0.238
-405.282	77.506	0.248	0.263
-404.267	38.902	0.117	0.104
-403.252	3.340	0.135	0.098
-402.238	340.615	0.022	-0.043
-401.223	-122.530	-0.161	-0.026
-400.209	49.509	0.023	0.022
-399.194	411.414	-0.148	-0.312
-398.179	304.583	-0.099	0.183
-397.165	142.069	-0.079	-0.105
-396.150	184.911	-0.031	0.046
-395.136	-200.000	0.084	-0.394
-394.121	-200.000	0.015	-0.115
-393.106	323.089	-0.119	0.227
-392.092	345.239	0.110	0.215
-391.077	-75.103	-0.149	0.053
-390.063	758.890	-0.078	0.211
-389.048	159.364	-0.186	0.257
-388.033	-49.262	0.431	0.205
-387.019	-200.000	0.029	0.271
-386.004	589.585	-0.054	0.132
-384.990	78.416	-0.254	0.270
-383.975	-200.000	-0.094	0.483
-382.960	-88.729	0.043	-0.013
-381.946	-20.007	-0.082	-0.050
-380.931	439.920	0.032	0.069
-379.917	-35.698	-0.165	0.089
-378.902	-47.081	0.160	-0.078
-377.888	-200.000	0.009	-0.282
-376.873	222.231	0.221	-0.354
-375.858	-51.944	-0.068	-0.031
-374.844	365.862	0.101	0.203
-373.829	-1.327	-0.259	-0.182
-372.815	-109.232	-0.222	0.047
-371.800	800.000	-0.087	-0.256
-370.785	-110.148	0.121	0.025
-369.771	-200.000	0.027	0.168
-368.756	123.758	0.183	-0.229
-367.742	-200.000	0.325	-0.000
-366.727	-200.000	0.006	-0.275
-365.712	800.000	0.073	0.229
-364.698	-36.214	-0.199	0.107
-363.683	179.631	0.119	0.173
-362.669	800.000	0.024	-0.084
-361.654	800.000	0.013	-0.046
-360.639	125.228	-0.332	0.417
-359.625	-40.942	-0.196	-0.101
-358.610	-113.867	0.421	-0.082
-357.596	-200.000	-0.022	0.143
-356.581	27.057	-0.125	-0.104
-355.566	-123.175	0.358	-0.057
-354.552	-26.011	-0.138	0.081
-353.537	800.000	-0.012	0.043
-352.523	82.582	0.261	-0.283
-351.508	-59.319	0.320	-0.137
-350.493	-200.000	0.035	-0.237
-349.479	-11.791	-0.171	-0.111
-348.464	138.655	0.125	0.163
-347.450	630.798	-0.137	-0.346
-346.435	251.471	-0.025	-0.042
-345.420	102.772	-0.073	-0.085
-344.406	185.276	-0.120	0.177
-343.391	-115.145	0.184	0.035
-342.377	10.695	0.246	-0.187
-341.362	-200.000	0.073	-0.322
-340.348	-12.817	0.170	-0.110
-339.333	-122.514	0.410	-0.066
-338.318	-63.865	-0.326	0.133
-337.304	81.712	0.242	0.261
-336.289	800.000	0.083	0.329
-335.275	800.000	0.141	-0.464
-334.260	-80.131	-0.175	0.058
-333.245	597.145	0.076	0.187
-332.231	-200.000	-0.002	0.233
-331.216	-126.375	0.217	0.032
-330.202	-200.000	-0.018	-0.321
-329.187	800.000	-0.040	0.165
-328.172	-158.750	0.116	-0.007
-327.158	-94.733	-0.258	-0.070
-326.143	-38.973	0.238	0.125
-325.129	63.354	-0.196	0.195
-324.114	61.841	-0.018	-0.018
-323.099	-88.324	0.389	0.116
-322.085	-50.783	-0.163	-0.076
-321.070	445.333	-0.131	-0.287
-320.056	-157.625	-0.231	-0.014
-319.041	208.119	-0.096	0.149
-318.026	368.630	0.094	0.188
-317.012	723.917	-0.107	0.282
-315.997	-48.165	0.079	0.038
-314.983	419.652	-0.129	0.275
-313.968	-83.755	0.161	0.051
-312.953	39.990	-0.042	0.038
-311.939	51.082	-0.153	-0.144
-310.924	-167.546	-0.131	-0.005
-309.910	233.125	-0.074	0.120
-308.895	104.869	0.171	0.200
-307.880	-116.524	-0.357	-0.065
-306.866	-46.181	-0.325	-0.159
-305.851	-75.378	-0.048	0.017
-304.837	-13.753	-0.198	0.127
-303.822	-41.921	0.094	0.048
-302.807	282.545	0.130	0.231
-301.793	-42.148	-0.085	-0.043
-300.778	680.845	-0.086	-0.223
-299.764	-61.157	0.278	-0.117
-298.749	71.706	-0.280	0.290
-297.735	6.280	0.069	0.051
-296.720	-47.298	-0.071	-0.034
-295.705	-200.000	0.039	0.200
-294.691	800.000	-0.069	0.291
-293.676	-65.691	-0.211	-0.084
-292.662	-133.964	-0.393	-0.048
-291.647	800.000	0.033	-0.112
-290.632	-60.859	0.223	-0.094
-289.618	159.212	0.098	-0.136
-288.603	-73.141	0.342	0.125
-287.589	-148.116	-0.215	-0.018
-286.574	-16.384	0.199	-0.125
-285.559	32.818	-0.239	0.205
-284.545	158.805	0.075	-0.103
-283.530	292.475	-0.057	-0.102
-282.516	-66.073	0.030	0.012
-281.501	-200.000	-0.028	-0.274
-280.486	-200.000	0.031	0.141
-279.472	-146.089	0.306	-0.027
-278.457	422.482	0.060	0.128
-277.443	-99.050	-0.245	-0.062
-276.428	12.061	-0.327	0.250
-275.413	-114.812	0.209	0.040
-274.399	117.370	0.173	-0.211
-273.384	-62.674	0.175	-0.072
-272.370	247.354	-0.079	0.132
-271.355	126.317	0.246	0.308
-270.340	-200.000	-0.014	-0.214
-269.326	-200.000	-0.029	-0.266
-268.311	15.431	0.183	-0.142
-267.297	-200.000	-0.034	-0.305
-266.282	72.229	-0.175	0.181
-265.267	-96.356	-0.428	-0.112
-264.253	38.627	0.046	-0.040
-263.238	252.335	0.210	0.356
-262.224	800.000	0.030	0.115
-261.209	-64.445	0.186	-0.075
-260.195	-200.000	-0.004	-0.185
-259.180	-200.000	0.011	0.049
-258.165	-73.654	0.096	-0.035
-257.151	-200.000	0.012	-0.145
-256.136	800.000	0.083	0.249
-255.122	1.176	-0.093	0.066
-254.107	166.768	-0.090	0.127
-253.092	12.833	-0.137	0.105
-252.078	280.646	0.103	-0.184
-251.063	548.646	0.101	-0.241
-250.049	-200.000	-0.023	0.246
-249.034	-128.506	0.192	-0.027
-248.019	16.359	0.047	-0.037
-247.005	572.685	0.103	-0.249
-245.990	-87.948	0.435	-0.130
-244.976	17.018	-0.188	-0.147
-243.961	423.591	0.036	-0.078
-242.946	155.075	-0.038	-0.052
-241.932	-43.870	-0.522	-0.260
-240.917	-200.000	-0.082	-0.372
-239.903	-157.321	0.270	0.016
-238.888	-200.000	0.036	-0.498
-237.873	-200.000	0.015	-0.291
-236.859	-97.479	-0.392	0.101
-235.844	61.624	0.286	0.282
-234.830	177.009	-0.129	0.186
-233.815	56.200	-0.168	-0.162
-232.800	-29.219	-0.130	-0.074
-231.786	53.454	-0.175	-0.166
-230.771	-36.913	-0.063	0.033
-229.757	368.109	-0.113	-0.226
-228.742	243.418	-0.078	-0.129
-227.727	247.630	-0.094	0.158
-226.713	384.932	0.168	0.342
-225.698	-200.000	-0.018	0.106
-224.684	800.000	0.048	-0.183
-223.669	162.093	-0.148	0.206
-222.655	120.470	-0.062	-0.077
-221.640	800.000	0.121	-0.379
-220.625	4.091	0.206	-0.149
-219.611	800.000	0.153	0.470
-218.596	-200.000	0.027	-0.117
-217.582	-200.000	0.111	0.000
-216.567	-200.000	-0.014	0.129
-215.552	194.641	0.130	0.196
-214.538	-147.829	-0.173	-0.014
-213.523	685.705	-0.087	0.224
-212.509	283.811	-0.081	-0.145
-211.494	-63.026	0.255	0.104
-210.479	484.648	-0.214	0.481
-209.465	-134.646	0.196	0.024
-208.450	-147.070	0.169	-0.014
-207.436	55.840	-0.021	-0.020
-206.421	124.312	0.173	-0.216
-205.406	-84.080	-0.228	-0.072
-204.392	-200.000	-0.042	0.280
-203.377	-38.218	0.161	0.085
-202.363	-88.463	-0.179	-0.053
-201.348	49.466	-0.176	-0.164
-200.333	126.693	0.146	0.183
-199.319	-200.000	-0.024	-0.243
-198.304	-200.000	-0.009	-0.122
-197.290	-200.000	0.019	0.100
-196.275	59.209	0.172	0.167
-195.260	414.334	-0.093	-0.196
-194.246	800.000	-0.105	-0.291
-193.231	-200.000	0.019	0.206
-192.217	800.000	0.108	-0.310
-191.202	-200.000	0.013	0.160
-190.187	-89.148	-0.249	0.073
-189.173	-200.000	0.045	0.311
-188.158	7.064	-0.042	-0.031
-187.144	-100.859	-0.334	0.081
-186.129	800.000	-0.082	0.264
-185.114	-200.000	-0.014	-0.274
-184.100	-74.013	-0.041	0.015
-183.085	65.183	0.219	0.219
-182.071	-59.918	-0.114	0.048
-181.056	-200.000	-0.068	-0.313
-180.042	-50.486	0.207	0.097
-179.027	28.287	0.124	-0.103
-178.012	-20.728	0.123	-0.075
-176.998	-0.742	0.070	0.049
-175.983	-122.581	0.299	-0.048
-174.969	236.817	-0.090	-0.148
-173.954	-200.000	-0.018	0.120
-172.939	-75.538	0.018	0.006
-171.925	278.243	0.236	0.416
-170.910	-59.298	0.264	-0.112
-169.896	384.841	0.078	0.159
-168.881	-112.776	0.273	-0.054
-167.866	156.490	0.059	0.080
-166.852	800.000	0.173	0.484
-165.837	-27.413	0.243	-0.140
-164.823	-89.490	0.316	0.092
-163.808	34.180	-0.190	-0.164
-162.793	114.438	-0.212	-0.256
-161.779	-63.798	-0.278	0.113
-160.764	-42.104	-0.249	0.126
-159.750	-197.651	-0.109	-0.001
-158.735	-200.000	-0.030	0.173
-157.720	-50.045	-0.249	-0.117
-156.706	161.147	-0.109	0.150
-155.691	-71.802	0.336	-0.124
-154.677	-200.000	-0.032	-0.162
-153.662	397.413	-0.135	-0.279
-152.647	800.000	0.112	0.313
-151.633	-200.000	-0.091	0.469
-150.618	800.000	-0.057	-0.174
-149.604	7.597	0.240	0.177
-148.589	-176.810	-0.160	0.004
-147.574	173.023	-0.092	0.131
-146.560	38.465	-0.011	0.009
-145.545	-56.798	0.128	0.056
-144.531	16.221	-0.267	0.208
-143.516	-200.000	-0.006	0.145
-142.502	157.748	-0.298	0.408
-141.487	230.750	-0.095	-0.154
-140.472	84.354	0.196	-0.212
-139.458	16.546	0.193	0.151
-138.443	-200.000	0.000	-0.087
-137.429	-60.766	0.201	0.084
-136.414	800.000	-0.045	0.164
-135.399	42.608	-0.216	0.194
-134.385	-108.912	0.095	-0.020
-133.370	28.724	-0.239	-0.199
-132.356	230.008	-0.277	0.447
-131.341	12.520	0.318	0.242
-130.326	-200.000	-0.002	-0.240
-129.312	430.268	0.082	0.174
-128.297	-23.050	0.249	-0.148
-127.283	800.000	0.005	-0.018
-126.268	147.423	-0.068	0.091
-125.253	-200.000	0.050	0.288
-124.239	335.936	-0.191	0.365
-123.224	-75.701	0.188	0.066
-122.210	-108.992	0.310	0.065
-121.195	61.842	-0.190	0.187
