DTS Sentinel unit serial number:	SN413079Multiplexer serial number:	ORYXHardware model number:	OX4-SRSoftware version number:	ORYX F/W v4.00 Oryx Data Collector v3.7.2.0data status	okinstallation	princeton_trtdifferential loss correction	single-endedforward channel	channel 1reverse channel	N/Adate	2019/09/17time	04:54:35forward acquisition time	60.00reverse acquisition time	0.00gamma	496.2192k internal	0.2323k external	0.2323temperature offset calibration	0.9963default loss term (dB/km)	0.3790temperature slope calibration	1.0000multiplexer offset coefficient	1.0000multiplexer slope coefficient	1.0000fibre end	0.00T internal ref (°C)	29.53T ext. ref 1 (°C)	0.14T ext. ref 2 (°C)	23.94length (m)	temperature (°C)	Stokes	anti-Stokes-747.200	657.908	0.165	0.427
-746.185	-200.000	-0.006	0.042
-745.171	-55.508	-0.250	-0.113
-744.156	800.000	-0.058	-0.200
-743.142	135.763	0.130	0.172
-742.127	-89.032	-0.145	0.043
-741.112	-8.381	0.240	0.163
-740.098	-88.949	-0.333	-0.100
-739.083	19.180	0.071	0.058
-738.069	-200.000	-0.006	0.294
-737.054	708.256	0.112	0.298
-736.039	800.000	-0.037	-0.107
-735.025	-96.936	-0.126	0.033
-734.010	-17.076	-0.287	-0.183
-732.996	-200.000	-0.055	-0.306
-731.981	377.396	-0.078	0.160
-730.966	444.003	0.218	-0.483
-729.952	143.186	-0.085	-0.114
-728.937	-8.006	0.240	-0.163
-727.923	-64.337	-0.140	-0.057
-726.908	146.342	-0.087	-0.117
-725.894	542.656	-0.044	-0.107
-724.879	50.120	0.123	0.117
-723.864	-200.000	-0.032	0.221
-722.850	102.967	-0.163	0.193
-721.835	-200.000	0.032	-0.261
-720.821	-171.250	-0.531	0.018
-719.806	-117.583	0.253	0.046
-718.791	-34.185	-0.191	0.106
-717.777	4.641	0.284	-0.210
-716.762	-34.509	-0.130	-0.072
-715.748	75.132	0.141	0.150
-714.733	63.395	-0.285	-0.288
-713.718	-13.813	0.091	-0.059
-712.704	-122.935	0.155	0.025
-711.689	800.000	0.026	-0.087
-710.675	-22.999	-0.211	0.128
-709.660	-20.082	0.210	0.131
-708.645	81.093	-0.153	-0.166
-707.631	64.254	-0.214	-0.217
-706.616	-52.002	-0.291	0.137
-705.602	-200.000	0.004	-0.134
-704.587	-96.540	0.034	0.009
-703.572	-102.311	0.127	0.031
-702.558	277.538	0.098	-0.175
-701.543	-83.891	0.110	0.035
-700.529	-200.000	-0.035	-0.241
-699.514	-24.003	0.020	0.012
-698.499	-164.455	-0.295	0.014
-697.485	152.911	0.227	0.313
-696.470	-113.507	-0.227	0.045
-695.456	-15.061	-0.019	0.012
-694.441	-40.782	-0.377	0.197
-693.426	-200.000	0.005	-0.084
-692.412	-79.542	-0.146	-0.050
-691.397	-22.340	0.071	-0.043
-690.383	-39.842	0.212	0.111
-689.368	800.000	-0.042	0.175
-688.354	8.226	-0.311	0.235
-687.339	-46.697	0.234	0.115
-686.324	-15.972	-0.257	-0.164
-685.310	116.438	-0.064	0.079
-684.295	216.452	0.157	-0.251
-683.281	796.373	0.093	-0.259
-682.266	800.000	-0.125	0.350
-681.251	49.718	0.206	-0.196
-680.237	315.090	-0.031	0.060
-679.222	424.157	0.092	-0.200
-678.208	-200.000	-0.002	-0.213
-677.193	-179.458	-0.422	-0.009
-676.178	-167.220	0.122	-0.005
-675.164	-200.000	0.012	0.161
-674.149	-69.135	0.185	0.072
-673.135	416.139	-0.085	0.183
-672.120	-46.575	-0.037	-0.018
-671.105	-192.711	-0.499	0.005
-670.091	72.161	0.068	-0.071
-669.076	17.590	0.293	-0.234
-668.062	-200.000	0.604	0.001
-667.047	-20.103	0.149	-0.093
-666.032	35.902	0.127	-0.112
-665.018	-3.582	-0.151	-0.106
-664.003	800.000	-0.047	-0.142
-662.989	294.947	-0.049	-0.090
-661.974	304.220	-0.144	0.268
-660.959	226.242	0.113	0.185
-659.945	-97.398	0.075	-0.020
-658.930	-200.000	-0.024	0.125
-657.916	199.537	0.184	-0.284
-656.901	-200.000	-0.017	-0.214
-655.886	341.676	-0.061	0.119
-654.872	162.326	-0.123	-0.173
-653.857	8.095	-0.287	0.217
-652.843	41.745	0.247	0.225
-651.828	98.048	-0.040	-0.046
-650.814	-200.000	-0.016	-0.113
-649.799	180.349	0.117	0.172
-648.784	-70.316	0.096	0.037
-647.770	-113.156	0.194	-0.038
-646.755	312.259	-0.040	0.076
-645.741	-27.108	-0.117	-0.068
-644.726	-50.836	-0.258	-0.122
-643.711	-163.023	0.109	-0.005
-642.697	313.335	-0.185	-0.351
-641.682	-71.613	0.239	-0.090
-640.668	-200.000	0.007	0.359
-639.653	-200.000	0.056	0.276
-638.638	34.476	-0.167	0.146
-637.624	-90.807	-0.049	0.014
-636.609	6.280	-0.107	0.080
-635.595	130.117	0.193	-0.248
-634.580	-200.000	0.010	-0.451
-633.565	-200.000	0.033	-0.148
-632.551	65.952	-0.128	0.130
-631.536	-200.000	0.032	-0.177
-630.522	-14.054	0.063	-0.041
-629.507	-162.726	-0.257	0.013
-628.492	70.241	0.071	0.073
-627.478	279.704	0.086	0.154
-626.463	23.560	0.218	-0.180
-625.449	104.725	0.084	-0.100
-624.434	-9.048	-0.130	0.087
-623.419	19.551	-0.389	-0.314
-622.405	-39.445	-0.132	-0.070
-621.390	-58.293	0.255	0.112
-620.376	488.056	-0.017	-0.039
-619.361	800.000	-0.029	0.095
-618.346	-65.088	0.284	-0.115
-617.332	-47.413	-0.365	0.178
-616.317	-1.892	-0.295	-0.208
-615.303	-87.965	-0.094	0.028
-614.288	-128.138	-0.134	-0.019
-613.273	-32.028	0.130	0.073
-612.259	199.837	-0.097	-0.149
-611.244	428.381	-0.072	-0.155
-610.230	-26.197	-0.158	-0.093
-609.215	800.000	-0.077	0.254
-608.201	172.125	-0.157	-0.227
-607.186	-200.000	-0.006	-0.216
-606.171	16.056	-0.019	0.015
-605.157	-146.829	-0.154	-0.013
-604.142	-200.000	0.072	0.348
-603.128	-200.000	0.002	0.069
-602.113	-13.681	0.170	0.110
-601.098	-83.628	0.200	0.064
-600.084	-98.383	0.108	-0.028
-599.069	-49.208	0.218	-0.104
-598.055	-200.000	-0.073	0.395
-597.040	-7.657	0.045	0.030
-596.025	149.610	0.166	0.226
-595.011	430.104	0.222	-0.482
-593.996	-7.535	0.116	-0.079
-592.982	-200.000	-0.001	-0.057
-591.967	-65.592	0.255	-0.103
-590.952	76.866	-0.093	0.099
-589.938	-158.369	0.417	0.024
-588.923	-6.980	0.307	-0.209
-587.909	-57.192	-0.110	0.049
-586.894	-200.000	0.026	0.366
-585.879	-95.664	0.143	0.038
-584.865	800.000	0.137	-0.447
-583.850	800.000	-0.039	0.119
-582.836	-155.121	-0.074	-0.005
-581.821	-80.250	0.156	0.052
-580.806	139.815	0.054	-0.071
-579.792	800.000	0.025	-0.075
-578.777	184.189	-0.095	-0.142
-577.763	217.099	-0.125	-0.200
-576.748	26.094	0.108	-0.091
-575.733	95.239	-0.073	0.083
-574.719	5.362	-0.073	0.054
-573.704	-19.568	0.407	-0.253
-572.690	82.338	-0.266	-0.290
-571.675	-67.925	0.280	0.109
-570.661	800.000	0.089	0.391
-569.646	-33.544	0.200	0.111
-568.631	-66.361	0.093	-0.037
-567.617	-127.405	-0.118	0.017
-566.602	-200.000	-0.028	-0.148
-565.588	266.819	0.153	-0.269
-564.573	-86.219	-0.212	0.065
-563.558	-200.000	-0.014	0.109
-562.544	-109.715	-0.131	0.028
-561.529	-200.000	-0.016	-0.387
-560.515	85.836	-0.069	0.076
-559.500	-76.960	0.162	-0.057
-558.485	-36.692	0.347	-0.187
-557.471	-101.884	-0.212	0.051
-556.456	-200.000	-0.048	0.315
-555.442	263.337	-0.042	-0.072
-554.427	-52.237	-0.085	0.040
-553.412	-57.241	-0.590	-0.260
-552.398	-49.002	-0.228	0.109
-551.383	-105.003	0.502	0.115
-550.369	-31.233	0.099	0.056
-549.354	-29.164	-0.146	-0.084
-548.339	295.563	-0.077	-0.142
-547.325	-42.343	0.260	-0.133
-546.310	155.132	0.025	0.034
-545.296	-185.687	0.443	0.007
-544.281	798.209	0.050	0.139
-543.266	-23.100	-0.187	-0.113
-542.252	-54.542	-0.064	-0.029
-541.237	217.775	0.118	0.188
-540.223	46.609	-0.454	-0.422
-539.208	141.797	0.045	-0.060
-538.193	800.000	-0.076	0.252
-537.179	-26.169	0.471	0.277
-536.164	-200.000	-0.006	-0.125
-535.150	-147.169	0.228	0.019
-534.135	-62.947	-0.448	0.185
-533.121	800.000	0.027	-0.116
-532.106	82.028	0.291	0.315
-531.091	91.598	-0.055	0.062
-530.077	189.003	0.052	-0.078
-529.062	-200.000	-0.020	-0.316
-528.048	-48.587	0.201	-0.097
-527.033	-200.000	-0.012	0.092
-526.018	-140.624	-0.198	0.021
-525.004	136.619	0.151	0.197
-523.989	514.218	0.107	0.250
-522.975	392.635	0.013	0.028
-521.960	-174.186	-0.288	-0.008
-520.945	410.169	0.124	0.262
-519.931	-127.597	-0.313	0.045
-518.916	45.423	0.167	-0.154
-517.902	-57.739	0.164	0.072
-516.887	-200.000	0.045	0.512
-515.872	53.860	-0.135	0.130
-514.858	331.029	0.078	0.151
-513.843	113.035	0.228	-0.277
-512.829	-94.948	-0.117	-0.032
-511.814	-200.000	0.029	-0.139
-510.799	-39.403	0.316	0.166
-509.785	405.815	-0.098	0.208
-508.770	70.012	0.088	0.091
-507.756	360.745	-0.111	-0.222
-506.741	75.892	-0.141	-0.149
-505.726	-34.441	-0.131	0.072
-504.712	52.528	-0.245	-0.234
-503.697	-200.000	0.014	-0.351
-502.683	7.516	-0.366	-0.274
-501.668	504.516	-0.035	0.081
-500.653	-185.467	0.622	0.010
-499.639	-200.000	-0.012	0.248
-498.624	-134.588	-0.208	-0.025
-497.610	-42.537	0.336	0.171
-496.595	-200.000	-0.011	0.067
-495.581	360.385	-0.117	0.233
-494.566	800.000	-0.126	0.370
-493.551	-182.959	0.205	-0.004
-492.537	-130.962	0.083	-0.011
-491.522	-200.000	0.009	0.131
-490.508	800.000	-0.043	-0.180
-489.493	-15.427	0.057	-0.036
-488.478	-147.769	-0.246	-0.021
-487.464	800.000	-0.086	0.239
-486.449	33.417	-0.226	0.196
-485.435	-107.107	0.243	-0.054
-484.420	-10.801	-0.150	0.099
-483.405	77.178	-0.178	0.189
-482.391	40.279	0.133	0.120
-481.376	114.992	-0.209	-0.255
-480.362	147.289	-0.159	-0.214
-479.347	-153.562	-0.362	0.025
-478.332	-131.546	0.046	0.006
-477.318	-90.304	0.115	-0.033
-476.303	-156.655	0.182	-0.011
-475.289	-102.960	-0.224	-0.053
-474.274	32.842	0.160	-0.139
-473.259	-143.989	-0.048	-0.005
-472.245	-85.562	-0.115	-0.036
-471.230	-142.423	-0.195	0.019
-470.216	262.550	-0.084	-0.145
-469.201	-113.262	0.112	-0.022
-468.186	-94.661	-0.122	-0.033
-467.172	60.501	-0.110	0.108
-466.157	215.994	-0.017	-0.028
-465.143	-87.858	-0.099	0.030
-464.128	707.311	-0.058	-0.153
-463.113	-200.000	-0.025	0.296
-462.099	-108.465	-0.135	0.029
-461.084	800.000	-0.040	-0.118
-460.070	-17.414	0.023	0.014
-459.055	-19.733	-0.223	-0.138
-458.040	81.291	0.160	0.173
-457.026	394.621	-0.025	0.052
-456.011	126.707	0.244	-0.308
-454.997	-57.458	0.286	0.125
-453.982	275.740	-0.090	-0.159
-452.968	800.000	0.068	-0.190
-451.953	-137.687	-0.141	-0.016
-450.938	-45.651	0.155	0.077
-449.924	-200.000	-0.051	-0.286
-448.909	-200.000	-0.004	-0.456
-447.895	-3.256	-0.126	-0.088
-446.880	154.259	0.174	-0.239
-445.865	251.826	-0.074	-0.126
-444.851	-93.762	-0.357	0.098
-443.836	-200.000	0.026	-0.320
-442.822	-114.803	0.549	0.104
-441.807	-196.000	0.062	-0.000
-440.792	59.167	-0.148	-0.145
-439.778	216.804	0.133	0.211
-438.763	274.947	0.149	0.264
-437.749	-122.563	0.202	-0.033
-436.734	401.248	-0.040	0.084
-435.719	-82.890	-0.199	-0.064
-434.705	-9.287	0.082	0.055
-433.690	149.969	-0.158	0.214
-432.676	-200.000	0.050	-0.306
-431.661	-200.000	-0.040	0.181
-430.646	-61.842	-0.221	-0.092
-429.632	-200.000	0.027	0.147
-428.617	92.925	-0.362	0.408
-427.603	-161.071	0.051	-0.003
-426.588	-104.305	0.392	-0.091
-425.573	-200.000	0.033	-0.407
-424.559	413.230	0.075	0.160
-423.544	113.362	0.036	0.044
-422.530	-22.996	0.233	0.140
-421.515	23.768	0.051	-0.042
-420.500	73.786	0.026	-0.028
-419.486	51.549	0.302	0.286
-418.471	152.464	0.171	0.232
-417.457	355.651	0.212	-0.420
-416.442	29.343	-0.105	-0.089
-415.428	-84.950	-0.051	-0.016
-414.413	239.877	0.199	0.331
-413.398	156.037	-0.072	0.099
-412.384	800.000	-0.032	0.091
-411.369	-114.279	-0.146	-0.028
-410.355	25.338	-0.171	0.142
-409.340	-197.780	0.198	0.001
-408.325	-200.000	0.015	-0.161
-407.311	150.936	-0.195	0.264
-406.296	145.994	0.090	-0.120
-405.282	91.934	0.274	0.307
-404.267	-41.837	0.230	0.118
-403.252	9.484	-0.195	0.147
-402.238	213.110	-0.087	-0.137
-401.223	-96.166	-0.331	0.088
-400.209	-93.158	-0.067	-0.019
-399.194	-55.388	-0.667	-0.298
-398.179	47.141	0.075	-0.070
-397.165	-57.991	0.209	0.091
-396.150	-55.677	-0.062	0.028
-395.136	-29.682	-0.257	-0.146
-394.121	-63.546	-0.177	0.073
-393.106	-48.007	-0.255	-0.123
-392.092	-200.000	-0.034	-0.188
-391.077	800.000	0.070	0.239
-390.063	426.889	-0.041	0.087
-389.048	2.979	-0.324	-0.234
-388.033	-200.000	0.021	-0.116
-387.019	321.406	0.071	-0.134
-386.004	-145.510	-0.095	0.009
-384.990	82.996	-0.027	0.029
-383.975	305.963	-0.050	-0.093
-382.960	36.881	0.226	-0.199
-381.946	-200.000	-0.040	0.315
-380.931	-88.080	-0.317	-0.095
-379.917	-174.250	-0.146	0.004
-378.902	774.063	0.019	-0.050
-377.888	18.965	0.101	0.081
-376.873	-62.471	-0.205	0.085
-375.858	719.663	0.074	0.196
-374.844	-82.016	-0.074	-0.024
-373.829	-92.459	-0.112	-0.031
-372.815	-200.000	-0.057	-0.249
-371.800	189.986	0.126	0.188
-370.785	49.181	-0.259	0.242
-369.771	13.087	0.068	-0.052
-368.756	-35.956	0.160	-0.086
-367.742	-129.752	-0.341	-0.047
-366.727	73.420	-0.118	-0.122
-365.712	-200.000	-0.046	0.276
-364.698	-167.995	-0.286	0.011
-363.683	-96.856	0.232	-0.061
-362.669	-133.465	0.233	-0.029
-361.654	15.060	-0.111	-0.087
-360.639	67.476	0.174	-0.177
-359.625	-87.124	0.263	0.080
-358.610	152.342	-0.169	-0.229
-357.596	107.833	0.286	-0.339
-356.581	165.145	0.160	-0.225
-355.566	94.128	-0.130	0.147
-354.552	-2.463	0.074	-0.052
-353.537	-39.283	-0.148	-0.077
-352.523	75.049	-0.304	-0.318
-351.508	-162.558	0.150	-0.007
-350.493	-176.038	-0.051	0.001
-349.479	-5.391	0.282	-0.192
-348.464	31.528	-0.132	-0.113
-347.450	11.348	0.270	-0.205
-346.435	-200.000	0.019	-0.145
-345.420	762.056	0.048	-0.128
-344.406	-89.204	0.200	0.059
-343.391	76.624	-0.099	-0.105
-342.377	-70.200	0.317	-0.120
-341.362	-31.152	-0.196	0.110
-340.348	191.525	0.178	0.266
-339.333	40.158	-0.307	0.274
-338.318	-116.239	-0.170	0.031
-337.304	-67.631	0.324	0.126
-336.289	82.545	-0.238	0.257
-335.275	-200.000	0.023	0.115
-334.260	800.000	0.062	0.174
-333.245	-97.126	0.223	0.058
-332.231	-22.676	0.202	0.121
-331.216	800.000	-0.033	0.094
-330.202	-105.589	0.282	-0.063
-329.187	395.090	0.065	0.134
-328.172	-56.132	-0.274	0.121
-327.158	-139.172	-0.111	0.012
-326.143	-46.138	0.114	0.056
-325.129	-200.000	0.048	-0.340
-324.114	-57.954	-0.102	-0.044
-323.099	-200.000	0.038	-0.426
-322.085	-25.730	-0.111	-0.065
-321.070	-200.000	-0.022	0.192
-320.056	800.000	0.102	0.319
-319.041	-179.988	-0.185	0.004
-318.026	-164.547	0.421	0.019
-317.012	800.000	-0.016	-0.049
-315.997	312.089	-0.024	-0.045
-314.983	638.219	0.036	0.092
-313.968	73.772	0.255	-0.266
-312.953	-200.000	-0.035	-0.504
-311.939	800.000	-0.057	0.208
-310.924	316.801	-0.133	0.250
-309.910	-26.834	0.251	-0.146
-308.895	-200.000	-0.032	-0.186
-307.880	-200.000	0.011	0.173
-306.866	-140.341	0.152	0.016
-305.851	-38.671	-0.126	-0.066
-304.837	554.345	-0.019	0.046
-303.822	-63.494	0.213	-0.087
-302.807	-79.778	-0.036	-0.012
-301.793	800.000	0.058	-0.229
-300.778	87.617	0.174	0.191
-299.764	-200.000	-0.014	0.138
-298.749	-116.864	0.157	0.029
-297.735	-72.606	0.260	0.095
-296.720	260.708	0.082	0.141
-295.705	-139.301	0.094	-0.010
-294.691	-57.295	-0.265	0.116
-293.676	800.000	0.067	-0.210
-292.662	-141.164	-0.049	-0.005
-291.647	44.092	0.175	0.159
-290.632	-200.000	-0.067	0.315
-289.618	-78.701	0.261	0.088
-288.603	-200.000	0.039	0.304
-287.589	-5.398	0.228	0.155
-286.574	-83.557	-0.118	-0.037
-285.559	284.251	0.071	0.127
-284.545	-143.753	-0.203	-0.019
-283.530	-133.795	-0.238	-0.029
-282.516	35.425	0.128	0.112
-281.501	800.000	-0.086	-0.258
-280.486	-11.588	0.053	0.035
-279.472	179.698	-0.068	0.098
-278.457	531.330	-0.009	-0.022
-277.443	273.909	-0.123	-0.216
-276.428	-9.899	-0.305	0.201
-275.413	129.935	0.126	0.159
-274.399	76.336	-0.035	0.037
-273.384	-147.346	-0.436	-0.037
-272.370	40.751	0.272	0.243
-271.355	-100.988	-0.450	0.109
-270.340	444.119	0.074	-0.162
-269.326	267.972	0.199	-0.346
-268.311	495.148	0.096	-0.218
-267.297	-139.546	0.136	0.014
-266.282	39.946	-0.264	-0.235
-265.267	-200.000	-0.101	-0.000
-264.253	-168.016	-0.419	0.016
-263.238	49.115	-0.175	-0.163
-262.224	800.000	-0.090	-0.356
-261.209	-167.735	-0.288	0.011
-260.195	-200.000	0.041	0.295
-259.180	-105.999	0.207	0.046
-258.165	800.000	-0.081	-0.247
-257.151	-200.000	0.005	-0.069
-256.136	-80.763	-0.052	0.017
-255.122	-40.773	-0.466	-0.239
-254.107	800.000	0.051	-0.144
-253.092	137.701	-0.060	-0.078
-252.078	-46.043	0.296	-0.145
-251.063	-84.143	-0.076	-0.024
-250.049	-66.519	0.139	0.055
-249.034	17.918	0.130	-0.102
-248.019	-173.699	0.238	0.007
-247.005	-21.042	0.252	-0.153
-245.990	733.756	-0.127	-0.337
-244.976	-20.677	0.136	0.082
-243.961	-81.828	0.047	0.015
-242.946	76.725	-0.170	-0.178
-241.932	12.147	-0.211	0.161
-240.917	-135.612	-0.273	0.032
-239.903	92.278	-0.083	0.093
-238.888	800.000	0.059	0.178
-237.873	800.000	0.014	0.045
-236.859	-200.000	0.001	0.220
-235.844	-102.652	0.287	-0.068
-234.830	800.000	0.046	0.132
-233.815	-127.683	0.148	0.021
-232.800	-145.676	-0.052	0.005
-231.786	24.062	-0.079	0.064
-230.771	-200.000	-0.006	0.033
-229.757	205.113	-0.118	-0.182
-228.742	800.000	0.106	0.302
-227.727	129.632	-0.174	-0.221
-226.713	-200.000	0.023	-0.099
-225.698	-200.000	-0.106	-0.481
-224.684	-200.000	0.008	0.115
-223.669	-200.000	-0.046	0.357
-222.655	-48.994	-0.125	0.059
-221.640	-40.907	0.163	-0.083
-220.625	-46.283	0.206	0.100
-219.611	-59.494	-0.096	0.041
-218.596	177.529	0.220	-0.317
-217.582	76.548	0.018	-0.019
-216.567	-200.000	-0.031	0.233
-215.552	435.181	-0.022	-0.048
-214.538	-6.999	0.224	0.151
-213.523	61.069	0.105	-0.103
-212.509	79.996	0.134	-0.143
-211.494	-17.310	-0.209	0.130
-210.479	0.712	-0.237	0.168
-209.465	-24.645	0.073	0.043
-208.450	800.000	0.006	0.021
-207.436	271.939	-0.025	0.043
-206.421	2.284	0.197	0.141
-205.406	-17.933	0.186	-0.115
-204.392	-155.194	-0.584	-0.038
-203.377	-24.339	0.183	-0.108
-202.363	800.000	0.089	-0.246
-201.348	-0.264	0.248	-0.174
-200.333	74.465	-0.102	-0.106
-199.319	-200.000	-0.035	-0.282
-198.304	262.661	0.166	0.284
-197.290	-135.662	-0.370	0.043
-196.275	-200.000	0.019	0.262
-195.260	301.054	0.114	-0.208
-194.246	-200.000	-0.043	0.230
-193.231	800.000	0.131	-0.426
-192.217	163.596	-0.018	0.025
-191.202	-200.000	0.008	0.231
-190.187	-103.207	-0.269	-0.063
-189.173	-103.524	0.433	0.100
-188.158	800.000	0.032	-0.090
-187.144	-200.000	-0.038	-0.182
-186.129	-200.000	0.022	0.120
-185.114	800.000	-0.091	0.384
-184.100	18.941	-0.172	0.136
-183.085	613.179	0.175	-0.433
-182.071	167.335	0.096	0.134
-181.056	561.724	-0.089	0.212
-180.042	-25.105	-0.146	-0.085
-179.027	-200.000	-0.032	0.488
-178.012	113.973	-0.249	0.300
-176.998	511.342	0.073	-0.168
-175.983	-200.000	0.005	0.212
-174.969	88.667	0.091	0.099
-173.954	76.962	-0.256	0.268
-172.939	-86.271	-0.151	0.046
-171.925	-49.453	0.376	0.177
-170.910	800.000	-0.040	0.157
-169.896	50.376	-0.309	0.288
-168.881	-130.991	-0.098	0.013
-167.866	-123.574	0.094	0.015
-166.852	-6.747	0.120	0.080
-165.837	-65.483	-0.342	0.136
-164.823	-140.908	-0.312	0.032
-163.808	81.893	0.217	-0.232
-162.793	800.000	-0.083	-0.230
-161.779	-108.877	-0.238	-0.050
-160.764	130.016	-0.050	0.063
-159.750	-97.369	0.156	0.040
-158.735	-200.000	-0.005	0.112
-157.720	47.094	0.208	0.191
-156.706	-5.864	0.095	-0.064
-155.691	49.327	-0.155	-0.144
-154.677	-86.611	0.386	0.117
-153.662	271.367	-0.058	0.102
-152.647	-41.237	-0.100	-0.051
-151.633	-119.431	0.257	0.044
-150.618	235.243	0.119	0.193
-149.604	734.719	-0.047	-0.124
-148.589	800.000	0.044	-0.175
-147.574	-165.423	0.055	0.002
-146.560	288.756	-0.112	-0.199
-145.545	221.069	-0.101	0.160
-144.531	-5.714	-0.087	-0.059
-143.516	-196.243	-0.086	-0.001
-142.502	800.000	-0.056	-0.225
-141.487	-83.611	0.242	0.076
-140.472	-200.000	-0.025	0.346
-139.458	-200.000	0.010	0.257
-138.443	230.879	-0.156	-0.252
-137.429	-200.000	0.072	0.413
-136.414	-200.000	0.043	0.219
-135.399	-91.405	-0.189	0.053
-134.385	800.000	-0.081	0.301
-133.370	-129.967	0.127	-0.017
-132.356	42.599	-0.060	-0.054
-131.341	171.913	-0.114	-0.162
-130.326	316.278	-0.011	0.021
-129.312	152.110	0.152	0.204
-128.297	32.053	0.125	-0.106
-127.283	800.000	-0.076	0.249
-126.268	82.317	-0.150	-0.161
-125.253	47.932	0.159	-0.146
-124.239	66.278	-0.153	0.153
-123.224	800.000	-0.121	-0.454
-122.210	318.873	0.186	-0.348
-121.195	-143.645	-0.279	-0.026
-120.180	82.539	0.099	0.106
