DTS Sentinel unit serial number:	SN413079Multiplexer serial number:	ORYXHardware model number:	OX4-SRSoftware version number:	ORYX F/W v4.00 Oryx Data Collector v3.7.2.0data status	okinstallation	princeton_trtdifferential loss correction	single-endedforward channel	channel 1reverse channel	N/Adate	2019/09/14time	04:50:35forward acquisition time	60.00reverse acquisition time	0.00gamma	496.2192k internal	0.2334k external	0.2334temperature offset calibration	1.0080default loss term (dB/km)	0.3790temperature slope calibration	1.0000multiplexer offset coefficient	1.0000multiplexer slope coefficient	1.0000fibre end	0.00T internal ref (°C)	26.83T ext. ref 1 (°C)	3.35T ext. ref 2 (°C)	21.97length (m)	temperature (°C)	Stokes	anti-Stokes-747.200	372.003	-0.055	-0.113
-746.185	-186.059	-0.156	-0.002
-745.171	-188.116	0.060	0.001
-744.156	21.656	-0.103	0.084
-743.142	319.272	-0.075	0.142
-742.127	88.659	-0.053	0.059
-741.112	-83.251	0.161	-0.052
-740.098	-200.000	0.006	-0.166
-739.083	-101.301	0.404	0.099
-738.069	238.273	0.080	0.133
-737.054	-166.297	0.099	0.004
-736.039	-69.105	-0.176	0.068
-735.025	800.000	-0.062	0.239
-734.010	109.718	-0.351	-0.423
-732.996	0.322	-0.393	-0.282
-731.981	800.000	-0.109	0.398
-730.966	-200.000	-0.007	0.195
-729.952	93.753	0.120	0.136
-728.937	115.521	-0.126	-0.154
-727.923	97.817	-0.057	-0.066
-726.908	201.177	-0.226	-0.349
-725.894	37.053	-0.205	-0.182
-724.879	-170.139	-0.546	-0.019
-723.864	-200.000	0.007	-0.044
-722.850	1.350	-0.201	0.145
-721.835	15.026	0.117	0.092
-720.821	-200.000	-0.006	-0.033
-719.806	-9.115	-0.151	-0.101
-718.791	66.528	0.103	0.105
-717.777	-200.000	0.017	0.111
-716.762	574.185	0.161	-0.395
-715.748	205.805	0.132	-0.206
-714.733	800.000	-0.128	0.388
-713.718	800.000	-0.027	-0.097
-712.704	-20.373	0.114	0.070
-711.689	111.208	-0.117	0.141
-710.675	-200.000	0.007	0.251
-709.660	800.000	0.059	0.164
-708.645	800.000	0.049	-0.186
-707.631	800.000	-0.024	0.077
-706.616	-200.000	-0.053	0.245
-705.602	-200.000	0.006	-0.152
-704.587	104.885	-0.110	-0.130
-703.572	-200.000	0.084	0.425
-702.558	-200.000	-0.027	-0.197
-701.543	33.557	-0.323	-0.282
-700.529	-2.278	0.122	-0.086
-699.514	-46.921	-0.069	-0.034
-698.499	-200.000	-0.013	0.337
-697.485	489.716	-0.135	0.309
-696.470	161.522	-0.356	0.499
-695.456	370.605	0.055	0.111
-694.441	-45.336	0.044	0.022
-693.426	-6.423	0.184	-0.126
-692.412	-136.920	0.079	0.009
-691.397	-118.850	-0.210	-0.037
-690.383	-200.000	-0.047	-0.225
-689.368	-26.529	-0.326	0.191
-688.354	37.293	0.345	0.306
-687.339	222.546	-0.058	-0.094
-686.324	-200.000	-0.352	-0.001
-685.310	-75.359	-0.206	-0.074
-684.295	-200.000	-0.006	0.284
-683.281	-200.000	-0.009	0.300
-682.266	-103.988	0.160	0.037
-681.251	-45.198	-0.276	0.138
-680.237	9.210	0.067	-0.051
-679.222	-200.000	0.012	0.052
-678.208	-163.048	-0.165	-0.008
-677.193	711.449	-0.025	0.066
-676.178	7.466	0.182	-0.136
-675.164	800.000	0.033	0.101
-674.149	-16.102	-0.064	-0.041
-673.135	100.037	0.090	0.105
-672.120	-73.261	0.298	-0.109
-671.105	-79.492	0.403	0.137
-670.091	101.124	0.127	-0.148
-669.076	-80.908	0.083	-0.028
-668.062	506.026	0.154	0.357
-667.047	-34.799	-0.064	-0.035
-666.032	-68.134	0.136	0.053
-665.018	-11.777	-0.134	-0.088
-664.003	-27.246	-0.137	-0.080
-662.989	139.792	0.078	-0.103
-661.974	-145.157	0.075	-0.007
-660.959	-71.617	-0.194	0.072
-659.945	200.634	0.126	0.195
-658.930	418.516	-0.142	0.304
-657.916	62.204	-0.286	0.286
-656.901	94.256	-0.125	-0.142
-655.886	-16.256	0.116	-0.074
-654.872	-129.575	0.156	0.022
-653.857	37.586	0.167	-0.148
-652.843	-78.691	0.242	0.083
-651.828	800.000	-0.044	0.140
-650.814	-200.000	0.030	0.144
-649.799	-171.301	0.251	-0.008
-648.784	510.512	-0.216	0.504
-647.770	-200.000	-0.075	-0.363
-646.755	-200.000	-0.022	0.142
-645.741	294.721	-0.092	0.168
-644.726	124.088	-0.077	-0.097
-643.711	35.512	0.174	0.153
-642.697	-4.061	-0.120	0.083
-641.682	223.853	0.048	-0.078
-640.668	-158.901	0.095	0.005
-639.653	59.966	0.153	0.152
-638.638	-149.321	0.154	-0.012
-637.624	-35.214	0.287	0.157
-636.609	56.630	-0.174	-0.169
-635.595	-200.000	-0.026	0.119
-634.580	159.831	-0.118	-0.165
-633.565	334.903	0.004	-0.008
-632.551	441.245	0.056	0.123
-631.536	-73.049	0.226	0.083
-630.522	-88.883	-0.517	0.154
-629.507	550.075	0.032	-0.078
-628.492	-200.000	-0.004	-0.437
-627.478	-200.000	0.166	0.000
-626.463	-20.323	-0.176	-0.108
-625.449	1.496	-0.287	-0.206
-624.434	-200.000	-0.009	0.106
-623.419	-93.894	-0.201	-0.055
-622.405	151.513	0.208	-0.283
-621.390	-108.707	-0.164	0.035
-620.376	-19.807	0.059	-0.036
-619.361	800.000	0.061	0.194
-618.346	-121.049	-0.040	-0.007
-617.332	71.772	-0.146	0.152
-616.317	-184.684	0.060	0.001
-615.303	795.740	0.049	0.135
-614.288	45.659	0.175	-0.162
-613.273	800.000	-0.106	-0.330
-612.259	200.392	0.044	-0.068
-611.244	-53.536	0.162	-0.074
-610.230	-64.793	0.330	0.134
-609.215	-200.000	-0.010	0.091
-608.201	-148.987	0.178	-0.014
-607.186	-41.376	0.243	0.125
-606.171	96.985	-0.168	0.193
-605.157	236.382	0.090	0.149
-604.142	-161.080	0.291	-0.015
-603.128	800.000	-0.110	0.409
-602.113	6.934	0.057	0.043
-601.098	-192.962	-0.301	0.003
-600.084	-145.594	0.099	0.009
-599.069	40.239	0.128	-0.115
-598.055	-107.000	0.239	0.053
-597.040	-105.391	-0.092	-0.021
-596.025	174.382	-0.130	0.188
-595.011	236.204	0.079	-0.131
-593.996	-7.080	-0.347	-0.236
-592.982	-200.000	0.045	0.333
-591.967	11.211	-0.131	0.101
-590.952	140.412	0.207	0.273
-589.938	34.785	0.029	-0.025
-588.923	800.000	0.048	0.174
-587.909	-42.259	0.338	-0.172
-586.894	72.394	-0.175	-0.183
-585.879	-64.553	0.355	-0.144
-584.865	197.461	-0.221	0.336
-583.850	195.432	-0.173	0.262
-582.836	-118.653	-0.352	0.062
-581.821	4.618	0.089	0.065
-580.806	-52.670	0.107	0.049
-579.792	-200.000	0.011	-0.126
-578.777	800.000	-0.067	0.257
-577.763	-80.876	0.185	-0.061
-576.748	-200.000	0.006	-0.191
-575.733	275.918	0.175	-0.310
-574.719	330.228	-0.148	-0.285
-573.704	800.000	0.049	-0.214
-572.690	-200.000	-0.017	-0.252
-571.675	-10.801	-0.112	-0.074
-570.661	-200.000	-0.059	0.306
-569.646	344.841	-0.178	-0.348
-568.631	142.320	0.066	0.087
-567.617	800.000	0.045	-0.185
-566.602	43.379	-0.178	-0.162
-565.588	-200.000	-0.027	0.121
-564.573	-185.555	0.263	-0.004
-563.558	103.455	0.168	-0.197
-562.544	764.689	0.076	0.206
-561.529	-190.552	0.462	-0.005
-560.515	-52.585	-0.220	-0.101
-559.500	800.000	-0.025	0.087
-558.485	598.848	-0.055	-0.137
-557.471	229.164	0.239	0.389
-556.456	-27.435	0.078	0.045
-555.442	-89.514	0.069	-0.020
-554.427	-149.837	-0.206	0.016
-553.412	482.422	0.065	-0.147
-552.398	-96.342	0.259	0.068
-551.383	-101.764	-0.297	-0.072
-550.369	-145.024	-0.237	0.022
-549.354	-200.000	-0.030	-0.191
-548.339	-156.856	-0.249	-0.015
-547.325	-200.000	0.025	-0.230
-546.310	-6.777	-0.106	-0.072
-545.296	-164.723	0.296	0.013
-544.281	57.357	0.104	0.102
-543.266	-134.795	0.304	-0.037
-542.252	800.000	0.061	0.193
-541.237	800.000	-0.049	0.214
-540.223	-103.065	0.120	-0.028
-539.208	25.204	0.236	-0.196
-538.193	-200.000	0.017	-0.130
-537.179	-15.836	-0.115	-0.073
-536.164	-187.858	0.185	0.002
-535.150	800.000	-0.082	-0.330
-534.135	-9.517	0.120	-0.080
-533.121	-86.697	0.380	-0.116
-532.106	-69.891	0.127	-0.048
-531.091	800.000	-0.069	-0.267
-530.077	-79.733	0.261	-0.088
-529.062	162.625	0.058	0.081
-528.048	-140.550	-0.148	-0.015
-527.033	-96.624	0.297	0.078
-526.018	-79.318	0.102	-0.035
-525.004	201.952	-0.204	-0.314
-523.989	90.959	0.089	-0.099
-522.975	-200.000	0.032	-0.268
-521.960	-21.498	0.577	-0.351
-520.945	-42.980	0.212	-0.107
-519.931	91.976	-0.193	-0.216
-518.916	-200.000	-0.026	-0.119
-517.902	168.757	-0.099	0.141
-516.887	-95.156	-0.253	0.068
-515.872	-140.998	-0.178	0.018
-514.858	-108.834	-0.253	0.054
-513.843	-97.143	0.151	0.039
-512.829	-6.188	0.071	0.048
-511.814	210.761	0.251	0.393
-510.799	130.585	0.114	0.145
-509.785	24.689	-0.287	0.237
-508.770	58.589	-0.296	-0.290
-507.756	800.000	-0.059	-0.189
-506.741	-38.394	-0.232	0.122
-505.726	-200.000	0.002	-0.118
-504.712	-200.000	-0.056	0.252
-503.697	-62.305	0.060	-0.025
-502.683	18.022	-0.108	-0.086
-501.668	-96.431	0.059	0.016
-500.653	-74.015	-0.116	0.042
-499.639	181.299	0.164	0.239
-498.624	37.029	-0.301	-0.265
-497.610	-198.179	0.072	-0.000
-496.595	800.000	-0.033	0.123
-495.581	777.923	0.015	-0.039
-494.566	-88.901	0.156	-0.046
-493.551	21.963	-0.431	0.349
-492.537	138.565	-0.135	0.176
-491.522	32.472	-0.182	-0.156
-490.508	-64.988	0.184	0.074
-489.493	-39.510	-0.098	0.051
-488.478	404.384	-0.101	-0.213
-487.464	-200.000	0.001	0.319
-486.449	196.563	0.092	-0.139
-485.435	-197.834	-0.426	0.003
-484.420	543.081	-0.200	-0.474
-483.405	54.112	-0.178	-0.170
-482.391	-117.160	0.493	-0.089
-481.376	-34.121	-0.169	-0.092
-480.362	148.805	0.171	0.230
-479.347	140.864	0.046	-0.061
-478.332	-44.963	-0.268	0.133
-477.318	-99.650	0.169	0.042
-476.303	800.000	-0.036	-0.105
-475.289	-108.174	0.253	0.055
-474.274	-36.296	0.176	-0.094
-473.259	800.000	-0.039	-0.118
-472.245	116.247	-0.107	-0.130
-471.230	98.970	0.111	0.127
-470.216	800.000	-0.064	0.253
-469.201	-40.615	0.052	-0.027
-468.186	673.717	-0.048	0.124
-467.172	800.000	-0.043	-0.150
-466.157	800.000	-0.060	0.237
-465.143	-77.416	0.216	-0.074
-464.128	-162.732	0.191	-0.009
-463.113	-43.886	-0.200	-0.100
-462.099	-200.000	0.024	0.110
-461.084	129.062	0.230	0.291
-460.070	245.392	-0.032	-0.053
-459.055	-38.737	-0.147	0.077
-458.040	139.353	-0.260	0.340
-457.026	-200.000	-0.025	0.309
-456.011	412.323	-0.136	0.287
-454.997	75.262	0.142	-0.149
-453.982	21.432	0.124	-0.100
-452.968	203.494	0.049	-0.075
-451.953	-57.839	-0.144	0.062
-450.938	-200.000	0.066	0.378
-449.924	125.736	-0.168	0.210
-448.909	316.562	0.009	0.016
-447.895	800.000	-0.035	-0.114
-446.880	87.934	0.167	-0.184
-445.865	-79.776	-0.245	-0.082
-444.851	-84.205	-0.177	0.056
-443.836	-200.000	0.028	-0.375
-442.822	2.497	-0.175	-0.126
-441.807	-200.000	0.020	-0.157
-440.792	625.707	-0.078	0.196
-439.778	-143.588	-0.122	-0.012
-438.763	-85.740	0.067	-0.021
-437.749	80.249	-0.038	-0.041
-436.734	-200.000	0.021	0.445
-435.719	800.000	0.057	0.193
-434.705	-200.000	0.009	-0.062
-433.690	-64.581	0.322	0.130
-432.676	10.952	-0.188	-0.143
-431.661	267.989	-0.015	-0.026
-430.646	-82.713	-0.102	-0.033
-429.632	-183.085	0.342	0.006
-428.617	136.940	-0.177	0.230
-427.603	-13.109	0.159	0.102
-426.588	-75.930	-0.633	-0.222
-425.573	800.000	-0.075	-0.311
-424.559	800.000	-0.073	0.310
-423.544	590.335	0.086	0.211
-422.530	-144.086	-0.278	-0.026
-421.515	591.521	-0.178	-0.437
-420.500	235.437	0.050	0.082
-419.486	168.309	0.058	-0.083
-418.471	-32.692	-0.115	0.064
-417.457	-200.000	-0.031	0.197
-416.442	176.289	0.220	-0.317
-415.428	106.649	-0.167	0.197
-414.413	-150.459	-0.147	0.011
-413.398	526.802	-0.036	0.084
-412.384	-200.000	0.035	0.163
-411.369	-78.959	0.165	-0.056
-410.355	12.434	-0.221	0.169
-409.340	-29.603	0.076	-0.043
-408.325	142.486	-0.084	0.111
-407.311	-73.248	0.119	0.043
-406.296	278.070	-0.138	0.244
-405.282	-200.000	0.022	-0.181
-404.267	6.093	-0.329	-0.242
-403.252	-35.179	0.187	-0.101
-402.238	153.011	0.241	-0.327
-401.223	-200.000	0.021	0.275
-400.209	-49.476	-0.230	-0.109
-399.194	213.054	0.124	-0.194
-398.179	282.949	-0.100	-0.179
-397.165	-61.188	0.135	-0.057
-396.150	-69.557	0.382	-0.145
-395.136	-23.560	0.070	-0.042
-394.121	101.745	0.266	0.307
-393.106	246.710	-0.149	0.249
-392.092	-141.708	-0.391	-0.039
-391.077	474.980	-0.156	0.348
-390.063	-30.010	0.309	-0.174
-389.048	218.197	-0.144	0.228
-388.033	-26.394	0.158	-0.092
-387.019	132.277	0.117	-0.150
-386.004	800.000	0.081	-0.285
-384.990	-96.876	-0.396	-0.103
-383.975	-99.727	0.089	0.022
-382.960	-200.000	-0.075	0.408
-381.946	71.402	0.122	0.126
-380.931	800.000	-0.059	0.229
-379.917	639.586	0.085	0.214
-378.902	251.872	-0.111	0.188
-377.888	508.646	-0.042	0.097
-376.873	137.696	0.189	-0.245
-375.858	180.780	-0.056	-0.082
-374.844	-200.000	-0.235	-0.000
-373.829	-95.854	0.263	0.070
-372.815	-12.521	-0.394	0.255
-371.800	-2.583	0.141	0.098
-370.785	69.943	-0.161	0.165
-369.771	-200.000	0.007	-0.198
-368.756	800.000	0.042	0.138
-367.742	-29.007	0.228	-0.129
-366.727	184.699	0.028	0.042
-365.712	181.192	-0.321	-0.467
-364.698	30.434	-0.257	-0.217
-363.683	-126.407	-0.202	0.030
-362.669	-112.426	0.256	-0.051
-361.654	194.535	-0.215	0.322
-360.639	394.831	0.124	0.256
-359.625	-21.197	0.111	0.067
-358.610	-200.000	0.074	-0.398
-357.596	-97.329	0.235	-0.061
-356.581	-87.724	0.245	-0.073
-355.566	286.368	0.181	-0.323
-354.552	-200.000	0.003	0.141
-353.537	-200.000	0.080	-0.428
-352.523	78.889	0.221	-0.235
-351.508	216.701	0.122	0.193
-350.493	72.220	-0.322	0.332
-349.479	-143.046	-0.107	-0.010
-348.464	800.000	0.046	0.194
-347.450	-53.928	0.149	0.067
-346.435	-72.462	-0.183	0.067
-345.420	47.660	-0.235	-0.217
-344.406	-158.719	0.308	0.017
-343.391	-76.922	0.350	0.121
-342.377	-98.413	-0.081	0.020
-341.362	800.000	0.033	-0.140
-340.348	513.252	0.070	-0.162
-339.333	547.833	-0.036	0.086
-338.318	389.897	-0.069	-0.142
-337.304	-154.497	0.172	-0.011
-336.289	-200.000	0.043	0.383
-335.275	99.542	-0.139	-0.159
-334.260	369.045	0.041	0.083
-333.245	248.384	-0.180	-0.301
-332.231	-155.076	-0.171	-0.011
-331.216	350.015	0.082	0.160
-330.202	11.767	-0.329	0.250
-329.187	-48.464	-0.176	0.084
-328.172	-44.920	-0.383	-0.189
-327.158	-134.426	0.082	0.010
-326.143	95.343	-0.021	0.023
-325.129	8.567	0.175	-0.131
-324.114	-156.331	0.028	-0.002
-323.099	-154.533	0.302	0.020
-322.085	647.716	0.089	-0.224
-321.070	800.000	0.029	-0.095
-320.056	-200.000	0.034	-0.336
-319.041	496.244	-0.073	0.166
-318.026	-44.146	-0.280	0.139
-317.012	40.265	-0.095	0.085
-315.997	-200.000	-0.022	0.408
-314.983	-78.781	-0.278	0.094
-313.968	-200.000	-0.034	-0.218
-312.953	-200.000	0.040	-0.187
-311.939	5.166	0.070	0.051
-310.924	61.802	-0.070	-0.069
-309.910	82.493	0.297	-0.318
-308.895	-18.076	-0.210	0.130
-307.880	-200.000	0.018	0.205
-306.866	42.523	-0.035	0.032
-305.851	-200.000	-0.022	-0.128
-304.837	-149.209	0.114	-0.009
-303.822	-29.732	-0.201	-0.113
-302.807	381.256	0.125	-0.253
-301.793	-162.844	-0.443	0.021
-300.778	-13.840	0.224	0.143
-299.764	800.000	-0.041	0.138
-298.749	-200.000	0.000	0.098
-297.735	347.211	-0.047	-0.091
-296.720	-101.609	0.090	-0.022
-295.705	27.620	0.159	-0.132
-294.691	800.000	0.090	0.290
-293.676	17.400	-0.276	0.216
-292.662	-200.000	-0.024	0.275
-291.647	142.973	0.240	0.316
-290.632	-156.198	-0.110	0.007
-289.618	768.718	0.143	0.385
-288.603	-4.043	0.401	0.274
-287.589	21.589	0.269	0.216
-286.574	148.679	0.115	0.153
-285.559	438.820	-0.109	0.236
-284.545	60.996	0.336	-0.329
-283.530	261.974	0.095	-0.162
-282.516	331.328	-0.045	0.086
-281.501	-167.440	0.201	0.008
-280.486	14.702	0.132	-0.102
-279.472	164.280	-0.045	-0.063
-278.457	-200.000	0.019	-0.150
-277.443	-200.000	-0.004	-0.146
-276.428	32.866	-0.196	0.167
-275.413	-200.000	-0.015	-0.131
-274.399	275.832	-0.079	-0.139
-273.384	-200.000	0.025	-0.202
-272.370	48.818	0.146	-0.135
-271.355	-165.640	-0.272	-0.012
-270.340	411.341	0.070	-0.147
-269.326	36.783	0.044	0.038
-268.311	129.976	0.258	-0.326
-267.297	361.895	-0.100	0.197
-266.282	-95.638	0.120	-0.032
-265.267	-3.980	-0.082	-0.056
-264.253	3.647	0.051	0.036
-263.238	-141.534	0.216	0.021
-262.224	38.846	0.090	-0.079
-261.209	-137.423	0.404	-0.045
-260.195	-200.000	0.087	-0.505
-259.180	-26.964	-0.146	-0.084
-258.165	620.954	0.164	-0.408
-257.151	-88.749	0.297	-0.087
-256.136	184.877	-0.107	-0.156
-255.122	293.817	-0.120	0.216
-254.107	800.000	0.045	-0.169
-253.092	-46.006	0.049	-0.024
-252.078	167.385	-0.120	-0.169
-251.063	800.000	0.046	-0.137
-250.049	-200.000	-0.008	-0.468
-249.034	20.409	0.037	-0.029
-248.019	17.540	-0.081	-0.064
-247.005	-137.743	0.449	0.050
-245.990	-200.000	-0.015	0.088
-244.976	-200.000	0.008	0.380
-243.961	29.903	0.236	0.198
-242.946	-200.000	-0.047	-0.274
-241.932	486.931	0.057	-0.128
-240.917	-200.000	-0.053	-0.241
-239.903	-83.918	-0.372	-0.117
-238.888	-16.416	-0.070	0.044
-237.873	-90.771	0.108	-0.031
-236.859	-133.125	0.070	0.009
-235.844	-32.998	0.246	-0.134
-234.830	-26.805	0.360	0.207
-233.815	-200.000	-0.027	0.205
-232.800	-91.007	0.127	0.036
-231.786	-156.298	-0.080	0.005
-230.771	-150.827	-0.128	0.010
-229.757	-200.000	-0.025	-0.183
-228.742	86.706	-0.163	-0.177
-227.727	-200.000	0.001	0.100
-226.713	92.311	-0.276	-0.306
-225.698	162.747	-0.126	-0.175
-224.684	-200.000	0.008	0.122
-223.669	548.920	0.073	0.171
-222.655	-151.498	-0.469	0.034
-221.640	800.000	0.032	-0.117
-220.625	-150.338	-0.154	-0.012
-219.611	-200.000	-0.044	-0.197
-218.596	-119.121	0.278	0.048
-217.582	712.134	0.024	-0.061
-216.567	-182.372	0.020	-0.000
-215.552	151.753	-0.061	-0.081
-214.538	-26.082	-0.083	0.048
-213.523	-21.886	0.068	0.040
-212.509	6.623	0.120	0.088
-211.494	126.391	-0.229	0.285
-210.479	-29.663	-0.144	-0.081
-209.465	95.853	-0.222	-0.250
-208.450	800.000	-0.041	-0.174
-207.436	-62.129	0.138	0.057
-206.421	-200.000	0.043	0.331
-205.406	-63.195	-0.194	0.079
-204.392	-1.027	-0.023	0.016
-203.377	-200.000	-0.020	0.129
-202.363	-87.665	0.317	-0.094
-201.348	166.098	-0.151	-0.210
-200.333	-127.964	-0.289	-0.041
-199.319	800.000	0.104	0.327
-198.304	-123.227	0.285	-0.045
-197.290	-200.000	-0.007	-0.210
-196.275	-91.146	0.127	0.036
-195.260	800.000	0.032	0.106
-194.246	18.432	-0.152	0.120
-193.231	-142.792	0.112	0.011
-192.217	-64.789	-0.498	0.198
-191.202	-130.661	-0.160	-0.021
-190.187	-37.110	0.142	-0.075
-189.173	-166.762	0.233	-0.009
-188.158	800.000	-0.064	-0.216
-187.144	155.571	-0.072	0.098
-186.129	0.517	0.277	0.195
-185.114	44.280	-0.081	-0.074
-184.100	548.565	-0.025	0.060
-183.085	-24.961	0.158	0.092
-182.071	-200.000	0.026	-0.167
-181.056	-65.591	0.152	0.060
-180.042	-200.000	-0.018	0.122
-179.027	77.973	-0.314	0.329
-178.012	-66.850	-0.066	0.026
-176.998	-200.000	0.009	0.156
-175.983	-50.119	-0.301	0.140
-174.969	-79.319	-0.324	0.108
-173.954	55.280	-0.166	0.158
-172.939	-168.347	-0.211	-0.008
-171.925	229.078	-0.031	0.050
-170.910	-80.293	0.358	-0.118
-169.896	-200.000	-0.012	0.414
-168.881	709.395	-0.115	0.298
-167.866	-57.671	-0.244	-0.105
-166.852	-98.100	0.027	0.007
-165.837	2.783	0.204	0.146
-164.823	-200.000	0.024	-0.275
-163.808	-147.028	-0.269	-0.023
-162.793	-112.047	-0.276	-0.055
-161.779	-200.000	0.034	-0.384
-160.764	800.000	-0.108	0.427
-159.750	2.232	0.226	-0.160
-158.735	48.373	-0.233	0.214
-157.720	-55.760	0.088	0.039
-156.706	-104.931	0.377	0.085
-155.691	-91.068	-0.198	-0.056
-154.677	91.615	-0.242	-0.267
-153.662	-200.000	-0.020	0.127
-152.647	-129.979	-0.138	-0.019
-151.633	-2.815	0.219	0.150
-150.618	614.290	-0.106	0.260
-149.604	319.062	-0.090	0.168
-148.589	151.446	0.178	-0.238
-147.574	95.855	0.267	0.299
-146.560	-200.000	0.040	0.388
-145.545	-200.000	0.030	-0.138
-144.531	497.680	0.134	0.302
-143.516	486.866	0.282	0.632
-142.502	-0.485	0.080	0.056
-141.487	10.052	-0.245	0.183
-140.472	-60.859	-0.154	0.064
-139.458	-170.027	0.367	-0.013
-138.443	234.340	-0.023	0.037
-137.429	-50.292	0.493	0.229
-136.414	-44.708	-0.169	0.083
-135.399	32.934	0.231	0.197
-134.385	19.799	0.268	0.212
-133.370	-35.826	0.059	0.031
-132.356	-141.159	-0.150	0.015
-131.341	800.000	0.090	-0.310
-130.326	-200.000	-0.107	-0.477
-129.312	0.684	0.148	-0.104
-128.297	-50.763	0.119	0.055
-127.283	-189.329	-0.342	0.004
-126.268	66.727	0.135	0.134
-125.253	-27.638	0.093	-0.053
-124.239	-112.797	0.245	-0.048
-123.224	107.823	-0.150	0.176
-122.210	342.554	0.096	-0.184
-121.195	718.809	-0.090	-0.234
-120.180	189.471	-0.203	-0.298
