DTS Sentinel unit serial number:	SN413079Multiplexer serial number:	ORYXHardware model number:	OX4-SRSoftware version number:	ORYX F/W v4.00 Oryx Data Collector v3.7.2.0data status	okinstallation	princeton_trtdifferential loss correction	single-endedforward channel	channel 1reverse channel	N/Adate	2019/09/11time	19:28:11forward acquisition time	60.00reverse acquisition time	0.00gamma	496.2192k internal	0.2295k external	0.2295temperature offset calibration	1.0029default loss term (dB/km)	0.3790temperature slope calibration	1.0000multiplexer offset coefficient	1.0000multiplexer slope coefficient	1.0000fibre end	0.00T internal ref (°C)	40.55T ext. ref 1 (°C)	1.32T ext. ref 2 (°C)	32.76length (m)	temperature (°C)	Stokes	anti-Stokes-747.200	121.310	0.236	0.300
-746.185	-200.000	0.031	0.222
-745.171	280.791	-0.169	0.309
-744.156	-68.468	0.237	0.094
-743.142	34.076	-0.165	-0.147
-742.127	-200.000	-0.019	0.256
-741.112	261.239	-0.207	0.366
-740.098	-200.000	-0.023	0.186
-739.083	-200.000	0.018	-0.167
-738.069	-112.235	0.013	-0.003
-737.054	-3.900	0.145	0.103
-736.039	100.578	-0.155	-0.184
-735.025	-108.267	-0.536	0.118
-734.010	96.385	-0.099	-0.116
-732.996	-200.000	-0.001	0.055
-731.981	-10.461	-0.213	-0.144
-730.966	-25.895	-0.185	0.111
-729.952	-50.624	-0.401	-0.193
-728.937	-158.246	-0.351	0.021
-727.923	-133.993	0.160	0.020
-726.908	-200.000	0.007	0.344
-725.894	36.434	-0.063	-0.057
-724.879	103.542	-0.322	0.387
-723.864	36.456	-0.212	-0.191
-722.850	112.283	0.099	0.122
-721.835	254.695	0.021	-0.038
-720.821	110.978	-0.144	-0.177
-719.806	-6.008	0.173	0.121
-718.791	-200.000	-0.056	0.400
-717.777	800.000	0.090	0.288
-716.762	595.733	0.050	-0.126
-715.748	-59.194	0.220	-0.097
-714.733	-1.870	0.378	-0.272
-713.718	-94.122	-0.131	-0.037
-712.704	76.118	0.067	-0.073
-711.689	800.000	-0.046	0.167
-710.675	4.689	-0.320	0.240
-709.660	81.618	-0.075	-0.083
-708.645	56.006	-0.055	0.054
-707.631	22.078	0.183	-0.152
-706.616	-200.000	-0.038	0.238
-705.602	800.000	-0.038	-0.149
-704.587	-62.398	0.391	0.166
-703.572	800.000	-0.007	0.022
-702.558	-68.236	-0.367	0.146
-701.543	12.242	-0.047	-0.037
-700.529	75.852	-0.223	-0.241
-699.514	18.684	0.158	-0.129
-698.499	-117.181	0.355	0.066
-697.485	-25.313	0.377	-0.228
-696.470	259.337	0.074	0.131
-695.456	50.703	-0.070	-0.067
-694.441	-48.238	0.120	0.059
-693.426	94.212	0.146	0.169
-692.412	399.843	-0.175	0.374
-691.397	-15.805	-0.312	-0.203
-690.383	-200.000	0.052	-0.386
-689.368	-200.000	0.239	-0.001
-688.354	-200.000	0.072	-0.353
-687.339	530.057	-0.087	-0.208
-686.324	32.162	0.160	-0.141
-685.310	39.989	-0.098	0.089
-684.295	22.557	0.050	0.042
-683.281	-117.828	-0.379	-0.069
-682.266	-200.000	-0.010	0.381
-681.251	-95.962	0.099	-0.027
-680.237	782.252	-0.097	-0.270
-679.222	9.185	0.184	0.142
-678.208	-116.441	0.045	0.008
-677.193	-195.143	-0.318	-0.002
-676.178	-142.679	0.157	-0.016
-675.164	250.298	0.052	0.089
-674.149	-137.548	-0.283	-0.033
-673.135	-99.048	-0.310	0.080
-672.120	-138.427	-0.418	-0.047
-671.105	284.451	-0.095	-0.175
-670.091	-200.000	-0.004	-0.378
-669.076	-36.719	-0.415	-0.227
-668.062	282.651	0.166	0.303
-667.047	-36.257	-0.090	-0.050
-666.032	-52.461	-0.102	-0.048
-665.018	130.538	-0.243	-0.318
-664.003	657.782	-0.025	-0.066
-662.989	-139.191	-0.197	0.022
-661.974	-75.874	-0.134	0.048
-660.959	437.413	-0.054	0.120
-659.945	-39.696	0.146	-0.078
-658.930	-71.989	0.382	0.145
-657.916	-200.000	0.029	-0.154
-656.901	382.875	-0.143	-0.300
-655.886	89.910	0.132	-0.150
-654.872	33.878	-0.173	-0.153
-653.857	-200.000	0.016	0.157
-652.843	800.000	0.058	-0.224
-651.828	19.494	-0.188	-0.154
-650.814	83.850	-0.201	-0.223
-649.799	-18.157	0.063	0.040
-648.784	22.417	-0.447	-0.372
-647.770	-13.277	-0.178	0.118
-646.755	-70.875	0.135	-0.052
-645.741	-200.000	0.000	-0.254
-644.726	84.003	-0.098	0.109
-643.711	800.000	-0.107	0.334
-642.697	-200.000	-0.020	0.242
-641.682	-60.179	0.223	-0.097
-640.668	-136.610	-0.055	-0.006
-639.653	-200.000	0.073	0.353
-638.638	-108.823	0.273	-0.059
-637.624	-91.222	0.049	0.014
-636.609	200.921	0.134	0.209
-635.595	180.800	-0.178	-0.266
-634.580	800.000	-0.113	-0.393
-633.565	-200.000	-0.182	-0.001
-632.551	-68.463	-0.113	0.045
-631.536	646.112	-0.044	0.114
-630.522	-134.250	-0.100	0.013
-629.507	-200.000	-0.010	-0.300
-628.492	39.236	-0.163	-0.148
-627.478	18.939	0.326	-0.265
-626.463	-71.595	0.370	-0.141
-625.449	-91.481	-0.238	0.069
-624.434	-141.018	-0.307	0.032
-623.419	-30.860	0.208	-0.120
-622.405	-60.992	-0.133	-0.057
-621.390	-137.369	0.073	-0.008
-620.376	-68.525	-0.178	0.070
-619.361	800.000	0.062	-0.216
-618.346	-156.835	0.153	-0.010
-617.332	800.000	0.018	-0.067
-616.317	14.945	0.276	-0.220
-615.303	-200.000	-0.276	0.001
-614.288	-200.000	0.042	-0.456
-613.273	328.298	0.120	0.234
-612.259	-133.147	0.231	0.030
-611.244	-200.000	-0.001	-0.042
-610.230	-114.117	-0.235	0.046
-609.215	-200.000	0.004	-0.134
-608.201	-85.890	-0.505	-0.159
-607.186	-84.460	0.161	-0.052
-606.171	-2.350	-0.242	-0.172
-605.157	268.769	-0.082	-0.146
-604.142	-107.028	-0.062	0.014
-603.128	-102.647	-0.162	-0.039
-602.113	-200.000	0.020	-0.552
-601.098	142.707	-0.239	-0.322
-600.084	122.050	0.031	-0.039
-599.069	78.761	0.246	-0.268
-598.055	800.000	0.052	-0.171
-597.040	235.758	-0.076	-0.127
-596.025	800.000	-0.055	0.186
-595.011	136.619	0.102	-0.135
-593.996	-97.205	0.197	0.052
-592.982	5.570	0.034	-0.025
-591.967	800.000	-0.072	0.283
-590.952	-31.173	-0.094	0.054
-589.938	-200.000	0.014	0.366
-588.923	581.483	0.080	0.200
-587.909	800.000	-0.032	-0.112
-586.894	-200.000	-0.020	0.233
-585.879	614.267	0.026	-0.066
-584.865	-103.171	-0.051	-0.012
-583.850	80.098	-0.240	-0.262
-582.836	-108.996	0.324	-0.070
-581.821	-102.326	0.145	0.035
-580.806	-26.417	-0.065	0.039
-579.792	800.000	-0.033	0.101
-578.777	-200.000	-0.015	0.292
-577.763	-122.660	0.227	-0.037
-576.748	-8.229	-0.067	-0.046
-575.733	-200.000	-0.011	-0.188
-574.719	-200.000	0.034	-0.284
-573.704	800.000	-0.035	-0.129
-572.690	-200.000	-0.032	-0.148
-571.675	-200.000	0.051	0.577
-570.661	-179.641	0.161	0.004
-569.646	-163.609	-0.469	-0.023
-568.631	153.037	0.015	0.021
-567.617	248.051	-0.143	-0.246
-566.602	-19.448	0.175	-0.110
-565.588	0.207	-0.124	-0.090
-564.573	800.000	0.081	-0.295
-563.558	-167.518	0.148	-0.006
-562.544	155.764	-0.218	0.305
-561.529	590.081	-0.091	-0.229
-560.515	800.000	0.053	0.232
-559.500	325.235	-0.049	0.095
-558.485	50.303	-0.265	0.254
-557.471	223.606	0.069	0.114
-556.456	-200.000	-0.001	0.108
-555.442	-200.000	0.056	-0.273
-554.427	-14.495	-0.395	-0.258
-553.412	-200.000	-0.024	-0.243
-552.398	363.808	0.153	-0.312
-551.383	42.472	-0.100	-0.092
-550.369	-200.000	-0.006	-0.180
-549.354	53.607	0.157	-0.152
-548.339	-65.678	-0.268	-0.109
-547.325	800.000	-0.081	0.294
-546.310	25.808	0.240	0.203
-545.296	-200.000	0.014	-0.219
-544.281	-200.000	-0.015	-0.104
-543.266	147.282	-0.195	-0.267
-542.252	-200.000	-0.007	-0.064
-541.237	24.069	-0.016	0.013
-540.223	154.102	0.065	0.091
-539.208	-0.638	0.013	0.009
-538.193	-73.545	-0.110	0.041
-537.179	246.348	0.070	0.119
-536.164	-5.403	-0.030	0.021
-535.150	-200.000	-0.008	-0.075
-534.135	521.548	0.123	0.294
-533.121	-24.590	0.053	0.032
-532.106	198.116	-0.079	-0.122
-531.091	-155.791	-0.276	0.018
-530.077	41.924	0.178	0.164
-529.062	111.059	0.212	-0.259
-528.048	-38.590	0.219	-0.117
-527.033	418.712	-0.193	0.417
-526.018	-37.514	0.030	-0.016
-525.004	461.654	-0.040	0.091
-523.989	-200.000	-0.029	-0.238
-522.975	-81.500	0.109	-0.036
-521.960	-200.000	-0.022	-0.149
-520.945	-19.620	0.251	-0.157
-519.931	19.758	0.123	0.100
-518.916	-200.000	-0.006	0.208
-517.902	800.000	-0.105	0.380
-516.887	-118.589	-0.180	0.032
-515.872	-109.124	0.070	0.015
-514.858	-90.086	-0.046	0.013
-513.843	-200.000	0.004	-0.117
-512.829	-74.680	0.192	-0.070
-511.814	121.508	-0.074	0.093
-510.799	-200.000	-0.014	0.181
-509.785	-200.000	-0.018	-0.277
-508.770	-81.310	0.283	-0.095
-507.756	-37.186	0.210	0.114
-506.741	277.301	-0.072	0.130
-505.726	-111.213	0.242	0.050
-504.712	-130.157	0.109	-0.015
-503.697	372.449	0.005	-0.011
-502.683	0.558	0.334	-0.242
-501.668	346.512	0.222	0.443
-500.653	-79.925	0.303	0.103
-499.639	59.652	0.182	-0.182
-498.624	-40.491	0.146	-0.077
-497.610	-8.542	0.192	0.130
-496.595	-4.856	-0.080	0.056
-495.581	606.487	-0.076	-0.191
-494.566	-130.458	-0.152	0.021
-493.551	347.366	-0.044	-0.087
-492.537	19.271	-0.025	-0.020
-491.522	32.361	-0.169	0.148
-490.508	800.000	0.115	-0.366
-489.493	-200.000	0.017	0.344
-488.478	-200.000	0.051	0.373
-487.464	50.720	-0.076	-0.073
-486.449	267.633	-0.126	-0.224
-485.435	-35.016	-0.127	0.070
-484.420	-9.007	0.122	-0.083
-483.405	504.796	-0.125	-0.294
-482.391	-200.000	-0.000	-0.122
-481.376	-142.588	-0.202	-0.020
-480.362	619.053	0.134	0.341
-479.347	-91.317	0.448	0.130
-478.332	245.894	-0.320	-0.545
-477.318	-62.132	-0.395	-0.167
-476.303	413.740	-0.108	0.232
-475.289	119.521	-0.214	0.268
-474.274	-65.841	-0.381	0.154
-473.259	-94.517	-0.178	-0.049
-472.245	-200.000	0.027	-0.300
-471.230	-1.427	-0.353	-0.252
-470.216	800.000	-0.153	0.451
-469.201	-19.246	0.338	-0.212
-468.186	102.092	0.110	-0.130
-467.172	-200.000	0.020	-0.236
-466.157	-200.000	0.041	-0.188
-465.143	-53.833	-0.169	0.078
-464.128	-200.000	0.048	-0.383
-463.113	5.179	-0.165	0.123
-462.099	498.001	-0.107	0.249
-461.084	779.867	0.155	0.429
-460.070	-11.827	-0.154	0.102
-459.055	-142.708	0.268	0.026
-458.040	-106.758	0.382	-0.086
-457.026	62.123	0.119	-0.120
-456.011	-136.703	-0.272	-0.032
-454.997	-200.000	-0.001	-0.101
-453.982	-200.000	-0.028	-0.225
-452.968	-161.717	-0.406	-0.021
-451.953	-45.802	0.233	-0.116
-450.938	-200.000	0.028	0.275
-449.924	753.192	0.170	0.463
-448.909	12.619	0.185	-0.144
-447.895	-40.245	0.220	0.116
-446.880	-26.701	-0.253	0.150
-445.865	-200.000	0.015	0.464
-444.851	-85.184	0.089	-0.028
-443.836	800.000	0.148	-0.442
-442.822	-56.177	0.044	0.020
-441.807	-108.025	-0.126	0.028
-440.792	658.970	-0.095	-0.247
-439.778	20.270	-0.123	0.101
-438.763	800.000	0.084	-0.270
-437.749	-200.000	-0.025	0.309
-436.734	-97.783	-0.015	-0.004
-435.719	462.118	-0.048	-0.108
-434.705	-53.965	-0.181	0.083
-433.690	-145.154	-0.165	-0.015
-432.676	119.074	-0.095	0.118
-431.661	102.919	0.143	-0.169
-430.646	-200.000	0.023	-0.361
-429.632	-29.568	-0.422	-0.243
-428.617	462.819	-0.041	0.092
-427.603	102.568	0.130	0.153
-426.588	543.769	0.145	0.348
-425.573	1.613	0.060	-0.043
-424.559	71.744	0.113	0.118
-423.544	-41.885	0.138	0.072
-422.530	-158.977	-0.264	0.015
-421.515	60.824	-0.155	-0.155
-420.500	-8.805	0.202	-0.136
-419.486	-174.612	-0.194	0.006
-418.471	-88.131	-0.133	0.040
-417.457	-105.307	0.342	0.079
-416.442	62.159	0.210	0.211
-415.428	111.991	-0.156	0.190
-414.413	753.319	0.130	-0.353
-413.398	223.142	-0.067	-0.109
-412.384	567.306	-0.107	0.262
-411.369	-200.000	-0.010	-0.069
-410.355	-76.941	0.386	0.136
-409.340	-138.616	0.127	0.014
-408.325	99.540	-0.230	-0.269
-407.311	-200.000	-0.007	0.456
-406.296	800.000	-0.068	0.221
-405.282	193.431	-0.164	0.251
-404.267	-16.313	-0.176	-0.112
-403.252	210.802	0.096	-0.153
-402.238	-40.028	0.162	0.085
-401.223	-23.879	0.180	-0.108
-400.209	54.987	0.255	-0.248
-399.194	160.092	0.252	0.354
-398.179	800.000	0.088	-0.373
-397.165	-56.186	0.164	-0.074
-396.150	-168.563	-0.132	-0.005
-395.136	-163.367	-0.079	0.004
-394.121	-70.869	0.138	-0.053
-393.106	125.562	0.121	-0.154
-392.092	-75.812	0.130	0.047
-391.077	-64.725	0.229	-0.094
-390.063	-200.000	0.002	-0.292
-389.048	333.989	0.122	-0.237
-388.033	143.968	-0.128	-0.173
-387.019	474.853	-0.043	-0.099
-386.004	264.081	-0.130	-0.228
-384.990	146.765	0.131	-0.178
-383.975	46.541	-0.217	-0.203
-382.960	-85.766	-0.227	0.071
-381.946	-65.197	0.211	0.086
-380.931	-200.000	0.035	0.178
-379.917	-152.984	-0.199	-0.014
-378.902	296.546	0.132	-0.244
-377.888	69.936	-0.194	-0.202
-376.873	-76.652	0.045	-0.016
-375.858	39.116	-0.046	0.041
-374.844	74.791	-0.105	0.112
-373.829	348.288	-0.109	-0.217
-372.815	-145.100	0.466	0.043
-371.800	93.679	-0.167	0.190
-370.785	501.138	-0.088	-0.205
-369.771	215.611	-0.161	-0.257
-368.756	-13.075	0.057	0.037
-367.742	91.463	0.177	-0.200
-366.727	20.752	-0.096	-0.078
-365.712	-43.261	0.134	-0.068
-364.698	87.034	-0.154	-0.171
-363.683	-200.000	-0.044	-0.498
-362.669	-200.000	0.024	-0.268
-361.654	-200.000	0.008	0.213
-360.639	-200.000	0.001	0.030
-359.625	522.795	0.106	0.250
-358.610	-112.402	0.346	0.070
-357.596	-67.267	-0.271	0.108
-356.581	361.284	0.054	0.109
-355.566	-200.000	-0.002	-0.031
-354.552	-4.164	-0.219	0.153
-353.537	-89.333	0.191	0.057
-352.523	238.973	-0.137	0.229
-351.508	-157.955	-0.510	-0.030
-350.493	-200.000	0.038	-0.355
-349.479	84.260	0.047	0.051
-348.464	65.518	0.221	0.225
-347.450	-87.535	-0.139	-0.042
-346.435	793.807	0.079	0.218
-345.420	-200.000	-0.042	-0.210
-344.406	347.866	-0.137	-0.272
-343.391	-86.254	0.317	0.098
-342.377	-158.386	0.098	-0.006
-341.362	800.000	-0.082	-0.268
-340.348	-37.902	-0.161	-0.086
-339.333	250.787	0.102	-0.175
-338.318	-200.000	-0.001	-0.153
-337.304	72.824	0.273	-0.286
-336.289	167.605	0.043	0.061
-335.275	-118.303	-0.184	0.033
-334.260	386.201	-0.059	-0.123
-333.245	89.908	0.092	0.103
-332.231	-200.000	-0.033	-0.217
-331.216	-18.002	0.208	0.131
-330.202	-102.697	0.191	-0.046
-329.187	-113.899	0.062	0.012
-328.172	-24.014	0.028	-0.017
-327.158	198.557	0.142	0.218
-326.143	160.839	-0.246	0.346
-325.129	-200.000	0.009	-0.340
-324.114	34.131	-0.133	0.117
-323.099	-9.926	-0.115	0.077
-322.085	14.578	-0.050	0.039
-321.070	28.595	0.180	0.153
-320.056	-119.861	-0.095	0.016
-319.041	-64.896	0.370	0.150
-318.026	612.182	0.088	-0.222
-317.012	16.546	0.143	0.114
-315.997	78.745	0.219	0.236
-314.983	-200.000	0.016	0.304
-313.968	125.995	-0.164	0.209
-312.953	-128.571	-0.147	0.021
-311.939	-41.580	0.421	0.218
-310.924	-17.128	0.102	0.064
-309.910	102.624	-0.231	0.271
-308.895	-159.186	0.094	0.005
-307.880	309.344	-0.070	0.132
-306.866	-108.899	0.119	-0.026
-305.851	41.790	0.100	-0.091
-304.837	-133.807	0.219	-0.027
-303.822	-15.621	0.084	0.054
-302.807	191.700	0.072	0.109
-301.793	-42.607	-0.203	-0.104
-300.778	800.000	-0.075	0.268
-299.764	19.977	0.077	0.062
-298.749	-200.000	-0.049	-0.228
-297.735	-38.396	0.091	-0.048
-296.720	91.677	0.123	-0.139
-295.705	-185.890	0.304	-0.005
-294.691	-200.000	-0.004	0.110
-293.676	800.000	-0.041	0.130
-292.662	11.943	-0.067	0.052
-291.647	-108.652	-0.265	-0.057
-290.632	800.000	-0.050	0.214
-289.618	548.771	0.066	0.158
-288.603	-13.461	-0.070	0.045
-287.589	-200.000	-0.054	0.283
-286.574	-105.449	-0.031	-0.007
-285.559	-104.362	0.178	-0.041
-284.545	-70.222	0.196	-0.075
-283.530	800.000	0.052	-0.157
-282.516	-83.982	-0.100	-0.032
-281.501	800.000	-0.046	-0.183
-280.486	-25.834	-0.103	0.061
-279.472	-200.000	-0.022	0.238
-278.457	205.272	-0.013	-0.021
-277.443	800.000	0.021	0.077
-276.428	77.713	-0.160	0.171
-275.413	83.617	0.165	-0.181
-274.399	110.279	-0.204	-0.246
-273.384	-108.975	0.182	-0.039
-272.370	69.351	0.066	0.068
-271.355	-38.849	0.248	0.131
-270.340	-150.781	0.240	0.018
-269.326	-200.000	0.002	0.113
-268.311	163.655	0.256	0.361
-267.297	178.803	0.039	0.057
-266.282	-141.763	-0.316	-0.032
-265.267	-26.899	0.146	0.086
-264.253	-54.248	-0.108	-0.049
-263.238	-56.962	-0.033	-0.015
-262.224	-65.277	-0.109	-0.044
-261.209	-111.128	0.055	-0.011
-260.195	79.942	0.338	0.364
-259.180	-178.436	-0.182	-0.004
-258.165	800.000	0.015	-0.044
-257.151	-92.752	-0.378	0.106
-256.136	150.880	0.355	0.483
-255.122	80.205	0.090	0.098
-254.107	-200.000	0.060	0.298
-253.092	789.164	0.074	-0.203
-252.078	-98.789	-0.155	-0.040
-251.063	-200.000	-0.012	0.058
-250.049	-135.266	-0.244	-0.029
-249.034	-140.842	0.172	-0.018
-248.019	-84.697	0.248	0.078
-247.005	-42.801	-0.371	-0.189
-245.990	-147.899	0.251	0.021
-244.976	-155.747	0.210	-0.013
-243.961	-200.000	-0.081	-0.531
-242.946	72.950	-0.076	-0.079
-241.932	-141.810	-0.136	-0.014
-240.917	252.351	0.155	-0.266
-239.903	280.708	-0.042	0.076
-238.888	800.000	0.021	-0.072
-237.873	165.875	0.068	0.096
-236.859	61.490	0.134	0.134
-235.844	370.225	-0.191	0.388
-234.830	-94.945	-0.294	0.080
-233.815	250.703	0.061	0.104
-232.800	195.563	0.115	0.175
-231.786	250.027	-0.102	0.174
-230.771	-200.000	-0.041	0.230
-229.757	-67.739	0.135	0.053
-228.742	-71.419	0.378	-0.142
-227.727	252.418	-0.137	0.233
-226.713	71.750	-0.137	0.142
-225.698	-200.000	0.003	-0.045
-224.684	-94.269	0.113	0.031
-223.669	102.441	-0.126	-0.147
-222.655	-85.083	-0.286	-0.090
-221.640	-200.000	-0.043	-0.360
-220.625	-109.454	0.137	-0.029
-219.611	193.225	0.128	-0.194
-218.596	686.450	-0.088	-0.230
-217.582	-200.000	0.023	-0.161
-216.567	800.000	0.162	0.501
-215.552	-146.582	-0.213	0.019
-214.538	294.803	0.164	0.300
-213.523	800.000	-0.092	0.280
-212.509	800.000	0.043	0.125
-211.494	-7.196	-0.162	0.110
-210.479	-200.000	-0.017	0.305
-209.465	58.415	0.227	-0.223
-208.450	195.931	0.165	0.251
-207.436	177.340	0.166	-0.242
-206.421	-82.979	0.182	0.059
-205.406	338.062	0.200	0.390
-204.392	-17.358	-0.158	-0.100
-203.377	25.053	0.183	-0.152
-202.363	-136.817	-0.165	-0.019
-201.348	-108.935	0.080	-0.017
-200.333	19.001	0.213	-0.171
-199.319	-16.391	-0.139	-0.088
-198.304	-59.153	-0.142	0.061
-197.290	-89.803	-0.170	-0.050
-196.275	-133.484	-0.241	0.030
-195.260	-200.000	-0.029	-0.162
-194.246	212.327	0.131	-0.207
-193.231	129.084	-0.191	0.244
-192.217	-140.315	0.170	0.018
-191.202	111.802	0.095	0.115
-190.187	-178.287	-0.111	-0.003
-189.173	653.329	0.070	-0.179
-188.158	800.000	-0.076	-0.293
-187.144	167.512	0.069	-0.098
-186.129	-200.000	0.010	0.129
-185.114	424.783	-0.069	0.149
-184.100	-200.000	-0.066	0.344
-183.085	362.314	-0.022	0.045
-182.071	-200.000	-0.028	0.284
-181.056	-200.000	-0.025	0.141
-180.042	353.724	-0.217	0.430
-179.027	799.837	-0.033	-0.092
-178.012	-57.228	0.202	-0.089
-176.998	-39.622	-0.225	0.118
-175.983	-104.284	-0.186	0.043
-174.969	-21.663	0.088	-0.054
-173.954	-200.000	-0.016	-0.158
-172.939	38.882	-0.192	0.172
-171.925	-128.444	-0.219	0.031
-170.910	800.000	-0.043	0.154
-169.896	-131.373	-0.236	0.031
-168.881	118.344	-0.129	0.159
-167.866	-112.887	-0.255	0.051
-166.852	-200.000	-0.473	0.001
-165.837	421.109	-0.018	-0.039
-164.823	-62.487	-0.167	0.069
-163.808	800.000	-0.064	0.198
-162.793	800.000	-0.059	0.190
-161.779	55.680	-0.265	0.257
-160.764	-101.400	-0.386	0.094
-159.750	327.305	0.154	-0.295
-158.735	-34.608	0.356	0.195
-157.720	-114.879	-0.197	-0.038
-156.706	-15.940	0.150	0.095
-155.691	-95.991	-0.055	-0.015
-154.677	-200.000	0.007	0.445
-153.662	611.835	-0.106	-0.264
-152.647	133.256	0.300	-0.387
-151.633	-126.183	0.304	0.046
-150.618	7.190	0.229	0.171
-149.604	168.250	0.151	0.215
-148.589	172.287	-0.041	0.059
-147.574	129.164	-0.214	-0.272
-146.560	-175.464	-0.180	-0.005
-145.545	-200.000	-0.009	-0.404
-144.531	-25.630	0.262	-0.154
-143.516	470.051	0.067	-0.151
-142.502	373.176	-0.099	0.201
-141.487	-82.869	-0.167	-0.054
-140.472	114.368	0.173	0.210
-139.458	23.528	-0.279	0.229
-138.443	130.194	-0.125	0.159
-137.429	-35.587	-0.113	0.061
-136.414	-200.000	-0.044	-0.224
-135.399	800.000	-0.081	0.267
-134.385	800.000	-0.123	0.348
-133.370	-200.000	0.001	-0.185
-132.356	-23.133	-0.111	0.067
-131.341	-71.974	0.457	-0.170
-130.326	406.236	-0.027	-0.056
-129.312	-200.000	-0.005	-0.021
-128.297	12.919	-0.297	-0.230
-127.283	157.519	0.027	-0.037
-126.268	-36.663	0.290	-0.155
-125.253	-200.000	-0.001	0.103
-124.239	-55.276	-0.411	-0.184
-123.224	-139.976	-0.267	0.028
-122.210	-200.000	0.051	0.381
