DTS Sentinel unit serial number:	SN413079Multiplexer serial number:	ORYXHardware model number:	OX4-SRSoftware version number:	ORYX F/W v4.00 Oryx Data Collector v3.7.2.0data status	okinstallation	princeton_trtdifferential loss correction	single-endedforward channel	channel 1reverse channel	N/Adate	2019/09/19time	11:38:35forward acquisition time	60.00reverse acquisition time	0.00gamma	496.2192k internal	0.2337k external	0.2337temperature offset calibration	1.0011default loss term (dB/km)	0.3790temperature slope calibration	1.0000multiplexer offset coefficient	1.0000multiplexer slope coefficient	1.0000fibre end	0.00T internal ref (°C)	25.56T ext. ref 1 (°C)	0.80T ext. ref 2 (°C)	21.26length (m)	temperature (°C)	Stokes	anti-Stokes-747.200	107.325	0.095	0.114
-746.185	259.988	0.173	0.301
-745.171	354.523	0.051	0.102
-744.156	147.091	0.202	0.273
-743.142	-200.000	-0.041	0.198
-742.127	-54.387	0.179	0.082
-741.112	-200.000	0.002	-0.127
-740.098	13.654	-0.190	0.148
-739.083	-37.248	-0.265	-0.142
-738.069	-200.000	0.003	-0.015
-737.054	710.054	-0.117	-0.310
-736.039	-200.000	0.001	0.258
-735.025	-200.000	0.008	0.445
-734.010	-51.629	0.071	0.033
-732.996	-74.652	-0.410	-0.148
-731.981	65.217	0.158	0.160
-730.966	13.405	-0.326	-0.254
-729.952	800.000	-0.020	0.084
-728.937	-1.211	-0.435	0.309
-727.923	800.000	-0.059	-0.168
-726.908	-200.000	-0.000	0.261
-725.894	318.222	0.098	-0.185
-724.879	392.530	-0.038	-0.079
-723.864	-200.000	-0.010	-0.169
-722.850	-200.000	0.034	-0.240
-721.835	261.749	-0.173	-0.300
-720.821	800.000	0.015	0.056
-719.806	-147.185	0.289	-0.025
-718.791	-161.907	0.222	0.011
-717.777	-155.110	-0.112	-0.007
-716.762	-103.092	0.135	0.032
-715.748	169.798	-0.040	-0.058
-714.733	336.442	0.032	0.063
-713.718	-68.536	0.053	-0.021
-712.704	-74.821	0.157	0.057
-711.689	-200.000	-0.007	-0.035
-710.675	-32.090	0.013	-0.008
-709.660	-73.527	0.437	0.160
-708.645	590.242	0.060	-0.148
-707.631	800.000	-0.112	0.313
-706.616	366.896	0.041	0.083
-705.602	133.959	0.057	-0.074
-704.587	-90.592	-0.176	0.051
-703.572	-54.105	0.367	-0.167
-702.558	-92.927	0.076	0.021
-701.543	-127.969	-0.292	0.042
-700.529	10.103	-0.121	0.092
-699.514	284.476	0.172	-0.310
-698.499	199.335	-0.119	-0.182
-697.485	428.907	-0.073	-0.159
-696.470	-159.479	0.101	0.006
-695.456	267.640	-0.155	-0.272
-694.441	-42.271	-0.070	0.036
-693.426	185.540	0.096	-0.142
-692.412	349.055	-0.047	-0.093
-691.397	-87.272	0.176	0.054
-690.383	-94.509	-0.172	0.047
-689.368	-133.497	-0.141	-0.018
-688.354	-200.000	0.023	0.134
-687.339	107.942	0.068	0.081
-686.324	169.202	-0.207	-0.296
-685.310	-200.000	-0.032	0.146
-684.295	-200.000	-0.005	-0.233
-683.281	-200.000	-0.022	0.116
-682.266	565.563	0.078	0.189
-681.251	-200.000	0.064	-0.368
-680.237	800.000	-0.068	-0.237
-679.222	-182.188	-0.196	-0.004
-678.208	360.186	-0.065	-0.131
-677.193	-31.057	-0.224	0.126
-676.178	-135.654	0.257	-0.031
-675.164	-200.000	-0.052	-0.272
-674.149	415.593	0.024	0.050
-673.135	-145.960	0.451	0.040
-672.120	-91.633	-0.443	-0.126
-671.105	-129.008	0.198	0.028
-670.091	553.022	-0.050	0.120
-669.076	-200.000	-0.011	0.063
-668.062	800.000	0.068	-0.203
-667.047	-57.846	0.172	0.075
-666.032	800.000	0.083	-0.275
-665.018	255.817	-0.082	-0.140
-664.003	-105.593	0.088	0.020
-662.989	325.964	0.082	0.157
-661.974	-200.000	-0.021	-0.207
-660.959	22.161	0.214	0.175
-659.945	-2.837	-0.188	-0.131
-658.930	-101.299	0.592	-0.145
-657.916	-200.000	0.002	0.027
-656.901	545.347	-0.100	-0.239
-655.886	58.056	-0.177	-0.173
-654.872	25.785	0.201	-0.167
-653.857	800.000	-0.130	-0.364
-652.843	378.623	-0.085	-0.174
-651.828	123.813	0.070	-0.088
-650.814	-143.699	0.569	-0.054
-649.799	155.924	-0.085	0.117
-648.784	-200.000	-0.013	0.073
-647.770	-32.894	0.164	0.091
-646.755	-60.865	0.307	0.130
-645.741	234.389	0.161	-0.266
-644.726	151.530	0.117	0.160
-643.711	-28.467	0.112	0.064
-642.697	-125.377	0.186	-0.028
-641.682	-161.058	0.227	0.012
-640.668	-33.244	-0.091	0.050
-639.653	-7.407	-0.183	0.124
-638.638	-200.000	0.029	-0.159
-637.624	348.314	0.152	0.300
-636.609	-100.886	-0.242	0.059
-635.595	-33.401	-0.361	-0.200
-634.580	185.550	-0.069	-0.103
-633.565	-49.515	-0.019	-0.009
-632.551	-200.000	0.065	-0.338
-631.536	-77.747	-0.126	0.043
-630.522	135.699	0.156	0.203
-629.507	800.000	-0.061	-0.194
-628.492	-64.120	0.315	-0.129
-627.478	-23.537	-0.400	0.240
-626.463	36.276	-0.027	0.024
-625.449	-59.001	-0.118	0.051
-624.434	268.067	-0.198	-0.347
-623.419	-138.063	-0.200	-0.022
-622.405	-38.288	0.182	-0.096
-621.390	-7.346	0.055	-0.037
-620.376	-84.138	0.185	0.059
-619.361	-13.129	0.223	-0.145
-618.346	288.937	0.048	-0.087
-617.332	800.000	0.029	0.099
-616.317	241.719	0.030	0.051
-615.303	800.000	-0.073	0.242
-614.288	702.465	0.072	0.189
-613.273	-73.256	0.112	0.041
-612.259	-73.187	-0.134	0.049
-611.244	531.955	0.096	0.226
-610.230	-33.289	0.185	-0.102
-609.215	-93.196	-0.222	0.062
-608.201	31.485	0.090	-0.077
-607.186	-200.000	0.111	-0.487
-606.171	240.051	-0.116	-0.192
-605.157	390.455	0.156	0.322
-604.142	-99.844	0.238	0.059
-603.128	231.237	-0.167	-0.273
-602.113	195.770	0.179	0.271
-601.098	-200.000	-0.036	0.337
-600.084	106.077	0.105	-0.124
-599.069	-200.000	-0.069	-0.311
-598.055	-95.662	0.226	0.060
-597.040	-133.175	0.072	-0.009
-596.025	91.447	-0.193	0.216
-595.011	-68.812	-0.158	0.061
-593.996	15.155	0.008	0.006
-592.982	-14.964	-0.182	0.116
-591.967	598.588	-0.117	-0.289
-590.952	-112.605	-0.284	0.057
-589.938	-200.000	-0.029	0.333
-588.923	-12.062	-0.042	0.027
-587.909	-45.229	0.142	-0.070
-586.894	-85.027	0.224	0.070
-585.879	-8.415	0.112	-0.075
-584.865	-121.006	0.309	-0.052
-583.850	-168.628	-0.531	-0.020
-582.836	28.612	-0.080	0.068
-581.821	10.757	0.123	0.094
-580.806	-136.992	0.312	-0.036
-579.792	-28.674	0.229	0.131
-578.777	79.782	-0.183	0.196
-577.763	-200.000	0.034	0.272
-576.748	160.320	0.151	0.210
-575.733	-200.000	-0.040	0.339
-574.719	50.916	-0.205	-0.194
-573.704	-25.581	-0.192	-0.113
-572.690	-200.000	0.082	-0.483
-571.675	-200.000	0.017	-0.152
-570.661	311.171	0.031	0.058
-569.646	-78.745	0.160	-0.054
-568.631	8.418	0.351	0.263
-567.617	-35.960	-0.162	0.087
-566.602	77.221	-0.216	-0.229
-565.588	-200.000	0.008	-0.107
-564.573	-129.662	0.493	0.068
-563.558	800.000	-0.055	0.172
-562.544	15.144	0.093	0.072
-561.529	-200.000	0.004	-0.398
-560.515	19.481	0.137	-0.110
-559.500	-112.435	-0.222	-0.044
-558.485	-17.495	-0.282	-0.177
-557.471	-200.000	0.017	-0.130
-556.456	119.535	-0.064	-0.079
-555.442	-82.359	-0.247	-0.080
-554.427	157.732	-0.199	0.274
-553.412	44.569	-0.145	-0.132
-552.398	800.000	-0.031	-0.129
-551.383	-82.665	-0.199	0.064
-550.369	800.000	0.020	0.068
-549.354	69.256	0.065	-0.066
-548.339	636.499	-0.104	0.264
-547.325	-3.775	-0.099	0.068
-546.310	-57.478	-0.157	0.069
-545.296	-31.329	-0.248	-0.139
-544.281	-59.913	0.134	0.057
-543.266	800.000	0.143	0.451
-542.252	54.534	-0.104	0.099
-541.237	607.352	-0.209	-0.518
-540.223	800.000	0.111	-0.434
-539.208	-141.974	0.157	0.016
-538.193	104.519	-0.236	0.276
-537.179	-33.446	-0.245	-0.135
-536.164	-110.395	0.166	0.034
-535.150	267.637	-0.045	-0.078
-534.135	-118.827	0.207	0.036
-533.121	-6.528	-0.200	0.135
-532.106	-146.371	-0.233	-0.020
-531.091	115.691	-0.117	0.142
-530.077	-42.501	0.193	-0.098
-529.062	-200.000	-0.000	-0.057
-528.048	-35.486	0.035	0.019
-527.033	-88.182	-0.411	0.123
-526.018	800.000	0.062	-0.251
-525.004	61.996	0.210	-0.208
-523.989	-121.930	0.168	-0.027
-522.975	293.244	0.033	-0.060
-521.960	573.777	0.080	0.195
-520.945	-135.357	0.154	-0.018
-519.931	-175.969	0.326	-0.009
-518.916	267.985	-0.099	0.172
-517.902	-200.000	-0.016	-0.138
-516.887	318.100	-0.129	-0.242
-515.872	72.864	0.218	-0.226
-514.858	800.000	0.039	-0.131
-513.843	-86.585	0.158	0.048
-512.829	111.102	0.210	-0.251
-511.814	-171.476	-0.099	0.003
-510.799	-114.020	0.204	0.039
-509.785	181.657	0.234	0.343
-508.770	74.678	-0.182	-0.190
-507.756	-151.390	0.289	-0.021
-506.741	103.603	-0.222	0.259
-505.726	-140.044	0.336	0.035
-504.712	-200.000	-0.015	0.000
-503.697	-200.000	-0.002	-0.070
-502.683	280.211	-0.032	0.056
-501.668	800.000	0.071	0.232
-500.653	800.000	0.021	0.068
-499.639	117.650	0.078	-0.096
-498.624	-54.256	0.062	0.028
-497.610	276.745	-0.065	0.115
-496.595	748.818	0.015	-0.039
-495.581	-95.844	0.295	-0.078
-494.566	-33.193	-0.097	0.054
-493.551	0.720	0.251	0.179
-492.537	-200.000	-0.003	-0.105
-491.522	48.318	-0.145	-0.135
-490.508	164.173	0.109	-0.153
-489.493	661.316	0.018	-0.046
-488.478	-82.959	0.412	-0.132
-487.464	-179.754	-0.193	-0.004
-486.449	-200.000	0.041	-0.236
-485.435	476.799	-0.099	-0.221
-484.420	-200.000	-0.032	-0.314
-483.405	296.415	0.131	-0.239
-482.391	-107.441	-0.275	0.060
-481.376	131.435	-0.248	-0.316
-480.362	176.055	-0.227	0.327
-479.347	-200.000	-0.087	-0.408
-478.332	221.938	-0.129	0.206
-477.318	31.634	-0.142	0.121
-476.303	-70.366	0.076	0.029
-475.289	-200.000	0.001	-0.202
-474.274	3.714	0.173	-0.126
-473.259	147.454	-0.123	-0.165
-472.245	-135.191	0.175	-0.021
-471.230	800.000	-0.051	0.154
-470.216	800.000	-0.045	-0.124
-469.201	800.000	0.056	0.154
-468.186	-200.000	0.022	0.179
-467.172	-114.194	0.122	0.023
-466.157	-82.452	-0.158	-0.051
-465.143	-138.813	-0.557	-0.060
-464.128	-200.000	-0.014	0.070
-463.113	-200.000	-0.011	0.080
-462.099	-200.000	-0.025	-0.353
-461.084	800.000	-0.037	0.134
-460.070	-109.358	0.360	0.076
-459.055	323.029	-0.116	-0.219
-458.040	140.152	-0.161	-0.210
-457.026	539.056	-0.078	0.184
-456.011	234.572	-0.178	-0.291
-454.997	-109.981	0.263	-0.055
-453.982	-59.072	0.232	-0.099
-452.968	43.494	0.120	0.109
-451.953	-49.738	-0.195	0.092
-450.938	800.000	-0.058	-0.162
-449.924	37.484	-0.162	-0.143
-448.909	149.281	0.149	-0.200
-447.895	-84.740	-0.238	-0.074
-446.880	800.000	-0.085	0.288
-445.865	18.311	-0.350	0.277
-444.851	82.432	-0.085	-0.091
-443.836	-22.522	-0.118	-0.071
-442.822	-110.047	-0.310	-0.064
-441.807	767.902	-0.057	-0.153
-440.792	-147.795	0.150	0.012
-439.778	684.731	-0.026	-0.068
-438.763	181.477	-0.169	-0.247
-437.749	-133.077	0.049	0.006
-436.734	-98.113	-0.230	0.059
-435.719	-151.958	-0.221	-0.016
-434.705	537.714	0.088	-0.206
-433.690	-200.000	-0.013	-0.112
-432.676	-58.862	0.053	0.023
-431.661	-200.000	-0.011	-0.101
-430.646	193.217	0.064	-0.096
-429.632	-147.739	0.100	0.008
-428.617	-200.000	-0.038	-0.167
-427.603	800.000	0.054	-0.175
-426.588	800.000	0.027	-0.100
-425.573	193.324	-0.229	0.343
-424.559	146.320	0.088	-0.116
-423.544	-93.880	0.178	0.049
-422.530	-200.000	0.054	-0.239
-421.515	-89.515	-0.307	0.089
-420.500	-67.503	0.206	-0.080
-419.486	84.864	-0.083	-0.090
-418.471	218.625	-0.215	-0.340
-417.457	-138.404	-0.116	-0.013
-416.442	-22.208	-0.363	0.218
-415.428	-200.000	0.056	-0.307
-414.413	195.568	0.158	-0.238
-413.398	294.319	0.105	-0.191
-412.384	800.000	-0.057	-0.174
-411.369	-137.776	-0.213	-0.024
-410.355	61.576	-0.325	-0.320
-409.340	-200.000	-0.012	-0.092
-408.325	521.088	-0.131	-0.305
-407.311	173.352	0.026	-0.036
-406.296	154.859	-0.166	0.226
-405.282	303.251	0.094	0.173
-404.267	6.976	0.125	-0.092
-403.252	271.542	-0.037	0.064
-402.238	-21.615	-0.206	-0.124
-401.223	-40.176	-0.040	-0.021
-400.209	248.735	-0.187	-0.313
-399.194	20.792	0.085	0.068
-398.179	800.000	0.043	-0.180
-397.165	800.000	0.058	0.243
-396.150	-200.000	0.016	-0.160
-395.136	-200.000	0.049	0.234
-394.121	-48.747	0.285	0.135
-393.106	65.052	0.157	0.157
-392.092	131.515	-0.144	-0.183
-391.077	76.987	0.180	0.189
-390.063	-89.282	0.591	0.173
-389.048	637.985	0.178	0.448
-388.033	25.731	-0.439	0.362
-387.019	-200.000	0.060	-0.334
-386.004	800.000	0.061	0.166
-384.990	-177.238	0.077	-0.002
-383.975	-200.000	0.005	0.178
-382.960	76.807	0.238	-0.250
-381.946	324.308	-0.105	-0.199
-380.931	365.232	0.092	-0.183
-379.917	3.853	-0.134	0.097
-378.902	4.645	-0.228	-0.166
-377.888	263.486	0.038	0.065
-376.873	-87.315	0.213	-0.064
-375.858	-200.000	0.018	0.265
-374.844	800.000	-0.089	0.265
-373.829	-54.853	-0.175	-0.078
-372.815	800.000	0.048	0.175
-371.800	-109.758	0.191	0.040
-370.785	106.108	-0.183	-0.214
-369.771	-105.126	0.211	-0.048
-368.756	800.000	-0.136	-0.403
-367.742	-67.912	0.198	-0.077
-366.727	242.996	-0.100	-0.166
-365.712	753.607	0.105	-0.282
-364.698	0.258	-0.038	-0.027
-363.683	800.000	-0.009	0.037
-362.669	95.543	0.043	0.049
-361.654	-148.553	-0.505	0.041
-360.639	389.175	0.079	-0.162
-359.625	-9.512	-0.134	0.089
-358.610	-80.079	-0.581	0.193
-357.596	152.200	0.105	-0.141
-356.581	122.532	0.128	-0.158
-355.566	260.375	-0.059	-0.100
-354.552	-89.534	-0.274	-0.080
-353.537	-200.000	-0.020	-0.207
-352.523	-153.848	-0.281	0.019
-351.508	727.792	0.116	0.306
-350.493	-122.400	0.108	-0.017
-349.479	-50.371	-0.204	-0.095
-348.464	119.118	-0.029	-0.036
-347.450	169.149	-0.068	0.096
-346.435	-169.944	0.234	-0.008
-345.420	54.745	-0.121	0.115
-344.406	-125.320	0.222	-0.034
-343.391	-200.000	0.028	0.423
-342.377	-200.000	0.007	0.296
-341.362	684.642	0.172	-0.443
-340.348	-60.238	-0.110	-0.046
-339.333	-19.009	0.225	0.138
-338.318	800.000	-0.034	0.140
-337.304	-77.702	0.152	-0.052
-336.289	-30.164	0.241	-0.136
-335.275	-200.000	0.066	-0.308
-334.260	-31.185	-0.151	-0.084
-333.245	-70.978	-0.226	-0.084
-332.231	-142.035	0.278	0.027
-331.216	353.347	-0.220	0.431
-330.202	147.054	0.169	0.224
-329.187	-117.752	0.266	0.047
-328.172	353.257	-0.047	0.091
-327.158	-100.198	-0.127	-0.031
-326.143	-127.710	-0.159	0.023
-325.129	13.097	0.376	-0.287
-324.114	800.000	0.145	-0.426
-323.099	-200.000	0.004	-0.177
-322.085	-56.620	-0.166	0.073
-321.070	800.000	-0.049	0.209
-320.056	-200.000	0.020	0.173
-319.041	142.968	0.271	0.356
-318.026	91.455	-0.060	0.067
-317.012	11.785	0.211	0.160
-315.997	-41.831	0.267	-0.135
-314.983	31.769	-0.184	0.156
-313.968	-200.000	-0.020	0.325
-312.953	42.282	-0.249	-0.223
-311.939	-163.125	0.435	0.021
-310.924	-170.251	-0.051	0.002
-309.910	-151.750	-0.145	-0.010
-308.895	122.517	0.189	0.234
-307.880	-93.197	0.198	0.054
-306.866	-38.134	0.197	0.103
-305.851	380.517	0.117	-0.238
-304.837	-96.667	0.269	0.070
-303.822	430.367	0.087	-0.187
-302.807	800.000	0.076	0.227
-301.793	80.158	-0.101	-0.108
-300.778	-200.000	-0.026	-0.133
-299.764	-45.457	0.164	0.080
-298.749	800.000	0.037	0.133
-297.735	212.312	0.116	0.181
-296.720	11.934	-0.366	0.277
-295.705	25.648	0.163	0.134
-294.691	-17.896	0.125	-0.077
-293.676	-8.490	-0.166	0.110
-292.662	81.470	0.126	0.134
-291.647	15.865	0.246	0.191
-290.632	800.000	0.126	-0.345
-289.618	709.554	-0.080	0.210
-288.603	-200.000	-0.020	-0.288
-287.589	214.641	-0.031	-0.048
-286.574	23.859	-0.011	0.009
-285.559	-93.733	0.282	0.077
-284.545	800.000	0.021	0.080
-283.530	-200.000	0.011	0.132
-282.516	-102.002	0.189	-0.045
-281.501	128.441	-0.153	-0.192
-280.486	-109.330	-0.186	-0.039
-279.472	-169.890	-0.375	0.013
-278.457	83.111	0.084	0.090
-277.443	139.568	0.180	0.233
-276.428	-9.001	-0.125	0.082
-275.413	-77.619	-0.284	0.097
-274.399	-90.274	-0.155	-0.044
-273.384	-77.966	-0.253	0.086
-272.370	-200.000	-0.024	-0.536
-271.355	-125.830	-0.256	0.038
-270.340	-121.851	0.036	-0.006
-269.326	-44.833	0.166	-0.081
-268.311	-200.000	-0.046	0.317
-267.297	271.138	0.059	0.102
-266.282	-200.000	-0.015	0.088
-265.267	-200.000	-0.005	-0.032
-264.253	15.668	-0.049	-0.038
-263.238	12.334	0.087	0.066
-262.224	800.000	0.195	-0.601
-261.209	89.638	-0.085	-0.093
-260.195	-44.857	-0.100	-0.049
-259.180	-116.728	0.282	0.051
-258.165	211.626	-0.120	-0.186
-257.151	123.132	-0.086	-0.106
-256.136	-73.624	0.171	0.061
-255.122	-115.876	-0.138	0.025
-254.107	-16.939	0.082	0.051
-253.092	154.711	-0.149	0.202
-252.078	-130.480	-0.285	-0.038
-251.063	800.000	-0.125	0.365
-250.049	33.410	-0.096	0.082
-249.034	-200.000	-0.032	0.155
-248.019	-200.000	0.021	0.247
-247.005	-20.550	0.144	-0.087
-245.990	800.000	-0.088	0.249
-244.976	271.557	0.122	0.211
-243.961	345.405	-0.242	0.467
-242.946	-107.169	0.371	-0.080
-241.932	-199.755	-0.298	0.001
-240.917	800.000	0.103	-0.357
-239.903	34.679	0.055	0.047
-238.888	134.390	-0.191	-0.243
-237.873	27.864	-0.045	0.038
-236.859	-200.000	0.006	-0.114
-235.844	-80.321	-0.092	-0.030
-234.830	-60.678	0.092	0.038
-233.815	-144.441	0.262	0.024
-232.800	486.183	-0.049	-0.111
-231.786	9.918	-0.124	-0.093
-230.771	144.841	0.129	0.169
-229.757	-135.663	0.267	0.031
-228.742	-44.992	-0.199	0.097
-227.727	-19.472	0.355	0.217
-226.713	99.640	-0.191	0.217
-225.698	-141.195	0.135	-0.013
-224.684	-200.000	0.004	-0.109
-223.669	-72.768	-0.178	0.065
-222.655	800.000	-0.075	0.282
-221.640	-148.654	-0.191	-0.015
-220.625	-122.666	0.184	0.029
-219.611	-76.651	-0.424	-0.146
-218.596	359.662	-0.171	-0.337
-217.582	-109.062	-0.113	-0.024
-216.567	6.907	0.377	0.276
-215.552	229.456	0.163	0.262
-214.538	-200.000	0.018	0.254
-213.523	396.665	-0.071	-0.146
-212.509	407.406	-0.135	-0.281
-211.494	-43.957	0.203	0.100
-210.479	47.858	-0.094	0.086
-209.465	-39.930	0.353	-0.181
-208.450	-200.000	-0.081	0.432
-207.436	-200.000	-0.015	0.148
-206.421	-200.000	0.024	0.110
-205.406	-86.178	-0.113	0.034
-204.392	-31.074	-0.091	-0.050
-203.377	-111.982	0.515	0.102
-202.363	86.858	-0.271	0.294
-201.348	420.348	-0.083	0.175
-200.333	-200.000	-0.051	0.308
-199.319	-40.181	-0.305	-0.156
-198.304	-85.367	0.123	-0.038
-197.290	65.815	0.248	-0.247
-196.275	718.321	-0.084	0.220
-195.260	-154.007	-0.238	0.016
-194.246	-200.000	0.003	0.166
-193.231	-190.184	-0.286	-0.003
-192.217	39.567	0.174	0.153
-191.202	-154.223	-0.197	0.013
-190.187	-92.293	0.005	0.002
-189.173	-44.266	0.231	0.114
-188.158	-200.000	-0.016	0.198
-187.144	-85.861	0.209	-0.064
-186.129	44.004	-0.130	0.117
-185.114	5.592	0.208	0.151
-184.100	223.015	0.337	0.533
-183.085	800.000	0.085	-0.315
-182.071	417.447	0.088	-0.185
-181.056	158.753	-0.100	0.137
-180.042	321.304	0.134	0.250
-179.027	-134.912	-0.074	0.009
-178.012	53.139	-0.119	-0.112
-176.998	-77.255	0.091	0.031
-175.983	-200.000	-0.019	-0.293
-174.969	56.837	0.108	0.103
-173.954	-197.580	0.533	-0.003
-172.939	-186.733	-0.075	-0.001
-171.925	-200.000	-0.010	-0.356
-170.910	-200.000	-0.004	0.302
-169.896	61.954	-0.215	0.211
-168.881	4.317	-0.209	0.150
-167.866	579.808	0.128	-0.307
-166.852	-34.363	-0.243	0.131
-165.837	13.328	0.122	-0.093
-164.823	39.418	0.124	0.109
-163.808	800.000	-0.051	-0.201
-162.793	-101.642	-0.175	0.042
-161.779	-76.999	-0.200	-0.069
-160.764	134.409	0.203	0.258
-159.750	30.546	0.262	0.220
-158.735	32.536	0.292	0.248
-157.720	800.000	-0.135	-0.435
-156.706	-122.457	-0.179	0.029
-155.691	384.557	0.047	-0.095
-154.677	-35.050	-0.188	0.100
-153.662	-200.000	0.006	0.126
-152.647	45.734	-0.191	-0.173
-151.633	379.060	0.123	-0.248
-150.618	-23.398	-0.181	-0.107
-149.604	545.582	0.103	-0.241
-148.589	298.211	0.071	-0.127
-147.574	15.428	-0.337	-0.259
-146.560	-170.137	0.218	-0.008
-145.545	-200.000	0.081	0.512
-144.531	-20.956	0.273	-0.164
-143.516	217.203	-0.054	0.084
-142.502	359.109	-0.078	-0.154
-141.487	111.462	0.174	0.205
-140.472	-88.081	-0.354	-0.104
-139.458	-116.379	0.394	-0.071
-138.443	-10.804	0.097	-0.063
-137.429	-171.162	-0.142	-0.005
-136.414	-33.080	-0.102	0.056
-135.399	-17.350	-0.093	-0.057
-134.385	-21.246	-0.102	-0.061
-133.370	800.000	0.030	-0.114
-132.356	643.171	0.025	-0.063
-131.341	-119.538	-0.075	0.013
-130.326	-200.000	-0.099	-0.430
-129.312	-200.000	-0.003	-0.061
-128.297	-51.005	0.168	0.077
-127.283	-153.691	0.266	-0.018
-126.268	-72.122	0.200	-0.073
-125.253	-200.000	0.058	-0.332
-124.239	-151.180	0.289	-0.021
-123.224	-3.838	-0.259	0.176
-122.210	-200.000	0.015	0.226
