DTS Sentinel unit serial number:	SN413079Multiplexer serial number:	ORYXHardware model number:	OX4-SRSoftware version number:	ORYX F/W v4.00 Oryx Data Collector v3.7.2.0data status	okinstallation	princeton_trtdifferential loss correction	single-endedforward channel	channel 1reverse channel	N/Adate	2019/09/12time	19:28:34forward acquisition time	15.00reverse acquisition time	0.00gamma	496.2192k internal	0.2322k external	0.2322temperature offset calibration	1.0123default loss term (dB/km)	0.3790temperature slope calibration	1.0000multiplexer offset coefficient	1.0000multiplexer slope coefficient	1.0000fibre end	0.00T internal ref (°C)	32.31T ext. ref 1 (°C)	3.30T ext. ref 2 (°C)	26.81length (m)	temperature (°C)	Stokes	anti-Stokes-747.200	-47.467	-0.147	-0.072
-746.185	594.689	0.047	0.117
-745.171	79.149	0.412	-0.445
-744.156	-35.531	-0.596	0.327
-743.142	-198.202	-0.456	0.003
-742.127	-200.000	-0.230	1.052
-741.112	-50.507	-0.460	-0.219
-740.098	-16.697	0.126	0.080
-739.083	325.025	0.565	1.092
-738.069	-77.473	-1.160	0.406
-737.054	-200.000	-0.071	-0.356
-736.039	-99.791	0.120	-0.030
-735.025	-0.810	0.467	0.334
-734.010	30.579	0.187	-0.162
-732.996	-200.000	0.040	0.186
-731.981	91.408	0.412	-0.468
-730.966	717.009	0.327	-0.878
-729.952	71.603	-0.395	0.414
-728.937	800.000	-0.175	-0.624
-727.923	800.000	0.052	0.192
-726.908	-45.905	-0.270	-0.135
-725.894	-88.572	-0.493	-0.148
-724.879	217.609	0.307	-0.493
-723.864	-114.304	0.556	-0.108
-722.850	72.235	-0.453	0.476
-721.835	-92.959	-0.111	-0.031
-720.821	100.779	-0.394	0.463
-719.806	800.000	-0.202	-0.594
-718.791	-71.024	0.503	0.191
-717.777	-107.852	-0.357	0.078
-716.762	-180.679	0.734	0.015
-715.748	-200.000	-0.200	-0.989
-714.733	-200.000	-0.030	0.173
-713.718	-114.889	-0.867	0.167
-712.704	-104.153	0.460	-0.108
-711.689	800.000	0.129	-0.421
-710.675	-106.613	-1.121	-0.252
-709.660	-200.000	-0.023	0.295
-708.645	93.058	-0.224	0.256
-707.631	-42.208	-0.904	-0.466
-706.616	-2.151	0.463	0.328
-705.602	-143.335	-0.776	0.075
-704.587	-156.934	-0.463	-0.029
-703.572	-124.546	0.921	-0.144
-702.558	800.000	-0.161	0.505
-701.543	140.473	0.629	-0.837
-700.529	140.395	0.147	-0.195
-699.514	-200.000	0.016	0.092
-698.499	-113.197	0.594	0.118
-697.485	119.038	0.367	-0.457
-696.470	172.341	0.216	-0.313
-695.456	76.182	-0.113	-0.121
-694.441	-98.707	-0.242	-0.062
-693.426	800.000	0.174	0.679
-692.412	-126.698	-0.033	-0.005
-691.397	-3.671	0.537	0.376
-690.383	-81.639	-0.813	-0.269
-689.368	-200.000	-0.003	0.260
-688.354	-160.410	0.218	0.012
-687.339	-200.000	0.045	0.682
-686.324	62.864	-0.449	0.453
-685.310	78.887	-0.423	-0.457
-684.295	755.425	-0.303	-0.826
-683.281	800.000	-0.254	-0.714
-682.266	401.218	-0.061	0.129
-681.251	456.989	0.227	0.508
-680.237	-41.410	0.289	0.150
-679.222	66.921	-0.531	0.545
-678.208	290.842	0.492	0.901
-677.193	-75.439	0.665	0.239
-676.178	50.065	0.232	0.221
-675.164	48.383	0.520	-0.490
-674.149	124.064	-0.498	0.631
-673.135	471.773	-0.294	-0.666
-672.120	430.873	-0.188	-0.411
-671.105	682.324	-0.227	0.597
-670.091	-109.745	0.352	-0.075
-669.076	-76.275	-1.022	-0.363
-668.062	-24.719	-1.183	0.708
-667.047	433.644	0.402	0.880
-666.032	-83.094	0.195	0.063
-665.018	103.203	-0.070	-0.083
-664.003	613.864	-0.242	-0.611
-662.989	201.986	-0.455	-0.707
-661.974	-140.088	-0.506	-0.054
-660.959	-200.000	0.124	-0.602
-659.945	-200.000	0.028	-0.390
-658.930	-24.703	-0.505	0.302
-657.916	134.917	0.389	0.509
-656.901	-96.766	-0.050	0.013
-655.886	-200.000	0.072	0.543
-654.872	322.840	-0.188	-0.362
-653.857	56.626	0.200	-0.196
-652.843	-9.553	-0.087	0.058
-651.828	218.295	-0.384	0.618
-650.814	50.888	-0.542	0.517
-649.799	-66.551	-0.790	0.315
-648.784	-200.000	0.019	-0.213
-647.770	133.981	-0.281	0.366
-646.755	-86.127	-0.663	0.206
-645.741	138.903	-0.338	-0.447
-644.726	-73.679	0.606	0.222
-643.711	-139.285	0.567	-0.061
-642.697	43.065	-0.188	0.173
-641.682	-18.974	-0.487	0.305
-640.668	-200.000	-0.143	-1.216
-639.653	-74.667	0.453	-0.164
-638.638	-200.000	-0.032	0.237
-637.624	243.295	-0.431	0.726
-636.609	180.921	-0.359	0.531
-635.595	83.211	-0.148	-0.163
-634.580	316.446	-0.291	-0.554
-633.565	5.311	0.243	0.180
-632.551	-33.534	-0.327	0.182
-631.536	23.830	-0.126	0.105
-630.522	-112.875	-0.126	0.025
-629.507	-90.155	0.817	0.239
-628.492	-155.184	-0.492	0.032
-627.478	-181.961	0.192	-0.004
-626.463	-200.000	-0.113	0.826
-625.449	-147.053	0.073	0.006
-624.434	800.000	0.113	-0.407
-623.419	-200.000	-0.064	0.411
-622.405	75.552	0.413	-0.439
-621.390	-200.000	0.085	-0.710
-620.376	-94.043	-0.362	-0.100
-619.361	-44.944	0.499	0.250
-618.346	14.682	0.552	0.434
-617.332	468.814	-0.318	-0.719
-616.317	-200.000	0.016	-0.417
-615.303	-133.567	-0.665	-0.084
-614.288	-107.808	0.787	-0.172
-613.273	-38.857	-0.344	-0.182
-612.259	-85.218	-0.923	0.290
-611.244	44.779	0.336	0.311
-610.230	126.846	0.274	-0.349
-609.215	800.000	0.190	-0.576
-608.201	-200.000	0.028	0.408
-607.186	-171.690	-0.942	-0.031
-606.171	-70.402	-0.472	0.180
-605.157	42.569	-0.160	-0.147
-604.142	206.567	0.137	0.214
-603.128	-62.863	-0.360	-0.150
-602.113	357.952	-0.511	-1.024
-601.098	-54.683	-1.079	0.490
-600.084	-109.686	-0.214	0.045
-599.069	192.602	-0.293	-0.445
-598.055	-200.000	0.105	-0.809
-597.040	-117.756	-0.373	-0.067
-596.025	-141.369	0.614	0.063
-595.011	160.203	0.434	0.608
-593.996	-200.000	0.007	-0.689
-592.982	-93.716	-0.335	-0.093
-591.967	251.079	0.135	-0.230
-590.952	-171.513	-0.380	-0.013
-589.938	-69.890	0.341	-0.131
-588.923	-200.000	0.002	0.258
-587.909	624.254	-0.341	-0.864
-586.894	673.763	0.304	-0.791
-585.879	127.985	0.836	-1.068
-584.865	-154.048	-0.070	-0.005
-583.850	156.382	0.263	-0.365
-582.836	31.342	0.427	0.368
-581.821	-15.301	-0.276	0.177
-580.806	-28.935	-0.492	0.284
-579.792	-68.317	0.892	0.348
-578.777	-57.918	0.835	0.366
-577.763	-116.756	0.505	-0.093
-576.748	-200.000	0.014	-0.231
-575.733	6.496	0.406	-0.303
-574.719	179.037	0.441	-0.647
-573.704	173.044	0.236	0.341
-572.690	37.941	0.542	0.484
-571.675	161.667	-0.329	0.463
-570.661	-200.000	-0.041	-0.476
-569.646	68.050	-0.349	-0.359
-568.631	-27.855	0.282	-0.164
-567.617	0.248	0.417	0.299
-566.602	0.739	-0.724	-0.520
-565.588	-200.000	0.051	0.921
-564.573	34.489	-0.682	0.597
-563.558	-49.888	-0.508	0.242
-562.544	12.198	-0.265	-0.205
-561.529	-147.219	0.912	-0.078
-560.515	234.540	-0.099	0.164
-559.500	-42.292	0.838	-0.429
-558.485	139.739	-0.286	0.378
-557.471	-111.201	-1.047	-0.215
-556.456	-163.460	0.606	0.029
-555.442	305.837	-0.184	-0.343
-554.427	134.169	0.102	0.132
-553.412	-41.054	-0.668	0.346
-552.398	95.171	-1.149	1.312
-551.383	26.629	-0.160	0.135
-550.369	-73.050	0.573	-0.211
-549.354	-77.869	-0.868	-0.300
-548.339	155.531	-0.153	-0.211
-547.325	82.915	-0.154	0.168
-546.310	39.574	0.912	0.819
-545.296	-200.000	-0.059	-0.449
-544.281	296.265	-0.264	-0.484
-543.266	-82.198	0.565	-0.185
-542.252	800.000	-0.309	-1.009
-541.237	-200.000	0.001	0.368
-540.223	-139.363	0.713	-0.077
-539.208	62.377	-0.239	0.239
-538.193	-23.242	0.597	0.360
-537.179	-200.000	-0.007	-0.072
-536.164	-200.000	0.024	-0.690
-535.150	-26.561	0.247	0.145
-534.135	59.494	-0.264	0.261
-533.121	-83.994	-0.376	0.120
-532.106	-47.081	0.355	-0.174
-531.091	-84.309	-0.370	-0.117
-530.077	-200.000	-0.088	-0.765
-529.062	-200.000	0.052	-0.307
-528.048	-28.965	0.710	0.408
-527.033	151.822	-0.506	-0.690
-526.018	-35.690	-0.698	-0.379
-525.004	458.396	0.451	-1.004
-523.989	-200.000	0.019	-0.090
-522.975	-45.861	-0.606	-0.300
-521.960	-200.000	0.166	1.106
-520.945	57.578	-0.583	-0.571
-519.931	133.920	0.309	0.401
-518.916	167.450	0.438	0.624
-517.902	-10.290	0.310	0.206
-516.887	800.000	0.074	0.250
-515.872	800.000	0.131	0.422
-514.858	6.307	-0.281	0.209
-513.843	37.894	-0.697	-0.620
-512.829	2.087	-0.328	0.237
-511.814	800.000	-0.066	-0.214
-510.799	-88.378	-0.820	0.245
-509.785	-200.000	0.070	-0.424
-508.770	-73.986	-0.733	-0.266
-507.756	-118.287	0.212	-0.038
-506.741	-200.000	-0.027	0.237
-505.726	9.237	-0.778	0.588
-504.712	25.180	0.738	0.614
-503.697	170.450	-0.392	-0.562
-502.683	-115.345	-0.457	-0.086
-501.668	800.000	-0.361	-1.167
-500.653	0.004	0.424	0.302
-499.639	-200.000	0.027	-0.511
-498.624	-102.907	0.388	0.092
-497.610	156.301	0.500	0.691
-496.595	-102.127	0.651	0.157
-495.581	-200.000	-0.072	-0.499
-494.566	-200.000	0.021	-0.166
-493.551	792.121	0.094	0.258
-492.537	559.830	-0.204	-0.493
-491.522	-150.952	0.227	-0.017
-490.508	-84.099	-0.574	-0.182
-489.493	93.197	-0.368	0.416
-488.478	800.000	0.196	0.779
-487.464	-79.354	-0.480	-0.163
-486.449	-15.402	-0.772	0.494
-485.435	-200.000	0.009	-0.344
-484.420	-65.934	-0.952	0.381
-483.405	594.552	0.231	0.572
-482.391	38.164	0.445	0.396
-481.376	-39.476	-0.302	0.158
-480.362	464.674	-0.196	-0.439
-479.347	-17.384	0.352	0.222
-478.332	-73.171	-0.286	0.105
-477.318	719.615	0.057	0.152
-476.303	422.899	-0.124	0.267
-475.289	800.000	0.044	0.171
-474.274	-18.045	0.563	-0.353
-473.259	-200.000	-0.837	0.002
-472.245	-56.893	0.649	-0.286
-471.230	-200.000	-0.035	0.158
-470.216	-200.000	-0.034	0.694
-469.201	125.816	0.462	-0.584
-468.186	139.370	0.329	0.433
-467.172	-200.000	0.006	-0.257
-466.157	131.946	-0.364	0.468
-465.143	145.499	-0.529	0.709
-464.128	-54.780	0.622	-0.281
-463.113	15.565	-0.995	0.781
-462.099	-152.865	-0.327	0.023
-461.084	-127.949	-0.780	-0.112
-460.070	162.055	0.266	-0.372
-459.055	171.325	-0.478	0.685
-458.040	800.000	0.068	-0.269
-457.026	-200.000	-0.061	0.344
-456.011	-65.285	1.184	-0.476
-454.997	-136.651	0.534	0.062
-453.982	-200.000	-0.045	0.217
-452.968	-32.917	0.732	-0.406
-451.953	-200.000	0.055	0.271
-450.938	-66.063	0.194	0.077
-449.924	-71.351	-0.327	-0.122
-448.909	39.985	0.503	-0.452
-447.895	800.000	0.336	0.952
-446.880	800.000	-0.208	0.602
-445.865	135.019	-0.505	0.656
-444.851	-87.019	0.278	-0.085
-443.836	144.767	0.756	-1.009
-442.822	116.185	0.429	-0.525
-441.807	450.945	0.366	-0.808
-440.792	222.020	0.168	0.270
-439.778	-65.834	-0.596	-0.238
-438.763	-200.000	0.035	0.709
-437.749	-200.000	-0.026	-0.237
-436.734	232.794	0.155	0.254
-435.719	65.645	-0.336	-0.340
-434.705	192.746	-0.428	-0.646
-433.690	65.644	0.498	-0.503
-432.676	1.828	-0.397	-0.286
-431.661	-97.868	-0.866	-0.223
-430.646	297.504	0.135	0.247
-429.632	-6.707	0.768	-0.521
-428.617	-200.000	-0.022	0.355
-427.603	-200.000	-0.104	0.518
-426.588	800.000	-0.099	-0.327
-425.573	-200.000	0.055	0.645
-424.559	88.594	0.091	0.101
-423.544	-200.000	-0.036	-0.678
-422.530	81.772	-0.719	-0.777
-421.515	83.625	0.257	0.279
-420.500	314.811	-0.174	0.327
-419.486	37.424	-0.493	0.437
-418.471	9.998	-0.312	0.236
-417.457	-69.519	-0.834	0.319
-416.442	-200.000	-0.165	-0.770
-415.428	800.000	-0.172	-0.547
-414.413	-50.545	-0.072	-0.034
-413.398	352.069	0.388	-0.766
-412.384	140.695	0.162	0.214
-411.369	-138.437	0.673	0.074
-410.355	-104.059	-0.192	-0.045
-409.340	-200.000	0.044	-0.651
-408.325	202.204	0.225	-0.347
-407.311	-125.460	0.265	-0.040
-406.296	129.063	-0.451	-0.574
-405.282	-81.315	1.001	-0.329
-404.267	-46.192	-0.189	0.093
-403.252	87.680	-0.515	0.568
-402.238	18.270	0.285	-0.227
-401.223	-71.967	0.480	-0.178
-400.209	800.000	-0.111	-0.368
-399.194	800.000	0.286	0.827
-398.179	-54.740	-0.759	-0.342
-397.165	-60.025	-0.954	0.406
-396.150	426.233	-0.163	0.351
-395.136	-78.878	-0.168	0.057
-394.121	181.428	-0.422	-0.618
-393.106	800.000	0.105	0.447
-392.092	-200.000	0.005	-0.041
-391.077	303.615	-0.109	0.201
-390.063	-200.000	0.016	0.598
-389.048	-53.750	-0.239	-0.109
-388.033	260.975	0.162	0.279
-387.019	224.811	-0.091	-0.147
-386.004	-200.000	0.040	0.699
-384.990	295.002	-0.239	0.436
-383.975	225.516	0.204	-0.329
-382.960	23.339	-0.533	0.437
-381.946	800.000	-0.130	-0.490
-380.931	228.528	0.071	0.115
-379.917	-55.850	0.625	0.278
-378.902	-200.000	0.076	0.352
-377.888	-171.745	-0.372	0.012
-376.873	800.000	-0.059	0.212
-375.858	-34.771	-0.329	-0.179
-374.844	-18.741	-0.311	-0.193
-373.829	103.370	0.481	0.562
-372.815	-9.790	-0.447	0.296
-371.800	800.000	0.253	0.753
-370.785	388.129	0.355	0.731
-369.771	158.247	-0.246	-0.340
-368.756	-200.000	-0.051	-0.563
-367.742	-96.773	0.717	-0.188
-366.727	-175.101	-0.659	0.018
-365.712	-82.427	0.692	-0.224
-364.698	-0.744	-0.818	-0.577
-363.683	323.877	-0.341	-0.648
-362.669	800.000	-0.130	0.536
-361.654	247.082	-0.295	0.496
-360.639	36.311	-0.159	0.140
-359.625	-1.147	0.377	0.265
-358.610	110.648	0.202	0.241
-357.596	226.034	0.054	-0.086
-356.581	-13.072	-0.607	-0.393
-355.566	-23.952	-0.722	-0.430
-354.552	-34.484	-0.595	0.324
-353.537	256.873	0.329	-0.563
-352.523	-53.221	-0.435	0.199
-351.508	-130.999	0.283	-0.038
-350.493	800.000	-0.072	-0.211
-349.479	-53.909	0.492	-0.223
-348.464	97.514	0.193	-0.220
-347.450	207.640	-0.203	0.315
-346.435	594.136	0.150	0.369
-345.420	800.000	-0.242	-0.738
-344.406	-23.197	-0.671	0.402
-343.391	440.938	0.437	0.950
-342.377	222.818	0.142	-0.227
-341.362	-200.000	0.045	1.062
-340.348	-135.678	-0.678	-0.080
-339.333	51.720	0.226	-0.213
-338.318	-200.000	0.161	-0.951
-337.304	-146.332	0.539	-0.047
-336.289	83.196	-0.325	0.352
-335.275	-16.864	0.293	0.184
-334.260	-200.000	0.018	-0.279
-333.245	4.910	-0.171	-0.125
-332.231	90.164	0.276	-0.307
-331.216	20.577	0.428	-0.344
-330.202	115.190	0.202	0.245
-329.187	-4.039	-0.601	-0.414
-328.172	71.284	-0.440	-0.454
-327.158	27.098	0.421	-0.351
-326.143	-200.000	0.110	0.675
-325.129	124.327	0.385	-0.482
-324.114	53.794	-0.360	-0.344
-323.099	362.186	-0.127	0.253
-322.085	173.461	0.054	-0.078
-321.070	-93.456	-0.717	0.197
-320.056	800.000	0.105	-0.453
-319.041	-200.000	0.041	-0.321
-318.026	-200.000	-0.056	0.430
-317.012	800.000	0.377	-1.220
-315.997	5.602	0.296	0.217
-314.983	800.000	-0.188	-0.750
-313.968	-200.000	0.035	-0.304
-312.953	120.910	0.494	0.610
-311.939	137.369	-0.251	0.326
-310.924	13.899	0.445	0.344
-309.910	193.547	0.700	1.053
-308.895	73.579	0.268	0.279
-307.880	167.489	-0.163	0.230
-306.866	-200.000	-0.029	0.821
-305.851	520.424	0.364	0.848
-304.837	-108.158	0.785	0.169
-303.822	800.000	0.253	1.048
-302.807	3.838	-0.194	0.141
-301.793	-200.000	0.041	-0.674
-300.778	-200.000	-0.185	1.013
-299.764	715.720	-0.321	0.847
-298.749	165.941	0.198	0.278
-297.735	506.535	0.103	-0.236
-296.720	419.244	0.059	-0.125
-295.705	-24.386	-0.357	-0.211
-294.691	800.000	-0.023	0.093
-293.676	230.852	0.019	0.030
-292.662	800.000	-0.386	-1.321
-291.647	-135.664	1.319	-0.155
-290.632	16.643	0.479	-0.376
-289.618	-56.933	0.872	0.382
-288.603	622.433	-0.086	-0.216
-287.589	-45.482	0.309	-0.152
-286.574	-121.866	-0.597	-0.098
-285.559	-200.000	0.019	0.690
-284.545	-6.959	0.370	0.250
-283.530	630.269	-0.064	0.160
-282.516	-72.730	0.332	-0.121
-281.501	-122.855	0.380	0.061
-280.486	100.804	-0.156	-0.180
-279.472	1.828	-0.183	0.131
-278.457	-95.419	0.793	-0.211
-277.443	703.163	-0.179	0.468
-276.428	-200.000	-0.172	0.747
-275.413	-45.164	0.811	0.400
-274.399	-200.000	0.148	0.918
-273.384	36.907	-0.033	0.029
-272.370	343.489	-0.117	-0.227
-271.355	-135.962	-0.499	0.058
-270.340	800.000	-0.244	0.962
-269.326	37.492	-0.648	0.570
-268.311	108.305	-0.325	-0.385
-267.297	616.039	-0.252	0.626
-266.282	-108.962	0.851	0.180
-265.267	-166.199	0.241	0.010
-264.253	-52.895	-0.744	-0.340
-263.238	-72.348	0.780	0.286
-262.224	-18.016	0.364	-0.226
-261.209	572.952	-0.363	-0.877
-260.195	-2.444	-0.537	-0.373
-259.180	-200.000	0.080	0.691
-258.165	-200.000	-0.068	-0.454
-257.151	-64.960	-0.225	-0.090
-256.136	181.175	0.069	0.101
-255.122	-200.000	-0.000	0.111
-254.107	45.868	0.715	0.656
-253.092	258.536	0.225	-0.384
-252.078	-57.536	0.281	-0.122
-251.063	-200.000	-0.043	-0.434
-250.049	800.000	-0.232	0.779
-249.034	-75.872	0.432	0.152
-248.019	-48.495	0.224	0.107
-247.005	-200.000	-0.071	0.384
-245.990	-190.882	0.608	-0.006
-244.976	800.000	0.136	-0.526
-243.961	250.593	0.346	0.582
-242.946	-64.785	-0.434	-0.174
-241.932	800.000	-0.165	-0.572
-240.917	-15.514	-0.355	0.225
-239.903	-68.945	0.484	-0.185
-238.888	-83.233	-0.212	-0.067
-237.873	110.372	-0.529	-0.630
-236.859	-151.988	-1.398	0.101
-235.844	-23.010	0.476	0.284
-234.830	-200.000	0.000	0.370
-233.815	800.000	-0.094	-0.327
-232.800	413.532	0.243	-0.513
-231.786	-200.000	-0.110	-0.820
-230.771	553.092	0.159	0.379
-229.757	-200.000	-0.052	-0.238
-228.742	-52.148	-0.491	-0.226
-227.727	-73.399	0.241	-0.087
-226.713	-144.569	0.603	0.055
-225.698	209.207	-0.471	-0.731
-224.684	-200.000	-0.057	0.719
-223.669	-79.602	-0.485	0.162
-222.655	-200.000	-0.093	0.477
-221.640	77.828	0.541	0.571
-220.625	-137.819	0.399	-0.044
-219.611	800.000	-0.064	-0.207
-218.596	-200.000	-0.071	-0.315
-217.582	27.780	-0.487	0.406
-216.567	-200.000	-0.199	-0.974
-215.552	-58.419	-0.685	0.295
-214.538	-200.000	0.018	-0.367
-213.523	64.637	0.402	-0.401
-212.509	-200.000	0.037	-0.354
-211.494	274.107	-0.399	-0.698
-210.479	-119.501	-0.393	0.067
-209.465	339.456	-0.149	0.288
-208.450	-98.959	0.843	-0.212
-207.436	-111.216	0.165	0.033
-206.421	-200.000	-0.088	-0.640
-205.406	800.000	0.365	-1.150
-204.392	11.281	-0.228	0.173
-203.377	-200.000	-0.026	0.237
-202.363	239.108	0.358	-0.589
-201.348	264.766	0.122	0.210
-200.333	58.641	-0.292	0.284
-199.319	-200.000	0.062	0.274
-198.304	-4.174	-0.072	-0.049
-197.290	11.511	0.538	0.408
-196.275	-83.526	-0.388	0.123
-195.260	800.000	-0.221	-0.736
-194.246	800.000	0.264	-0.899
-193.231	-200.000	-0.035	-0.325
-192.217	800.000	0.043	-0.177
-191.202	800.000	-0.122	-0.428
-190.187	-15.230	0.833	0.527
-189.173	130.415	0.310	-0.393
-188.158	-91.306	0.473	0.134
-187.144	-36.265	-0.172	-0.092
-186.129	-99.653	0.720	-0.179
-185.114	7.807	0.391	0.290
-184.100	-103.217	0.181	-0.042
-183.085	431.866	0.446	0.957
-182.071	800.000	-0.122	0.343
-181.056	-16.455	0.178	-0.112
-180.042	784.090	-0.249	-0.674
-179.027	359.639	0.149	0.295
-178.012	-123.043	0.527	0.084
-176.998	19.883	0.331	-0.264
-175.983	782.296	-0.231	-0.625
-174.969	96.721	0.330	-0.374
-173.954	800.000	0.032	-0.097
-172.939	91.497	-0.074	-0.082
-171.925	-109.846	0.791	-0.164
-170.910	-32.593	0.253	0.139
-169.896	-200.000	0.054	0.567
-168.881	274.905	-0.113	0.198
-167.866	27.690	0.292	0.243
-166.852	577.149	-0.072	-0.175
-165.837	-200.000	-0.043	-0.700
-164.823	206.287	0.225	0.346
-163.808	-25.073	0.690	0.404
-162.793	402.706	0.091	0.190
-161.779	-17.637	0.211	-0.131
-160.764	800.000	0.139	0.434
-159.750	78.730	0.364	0.384
-158.735	-7.624	-0.399	-0.266
-157.720	115.140	-0.407	-0.491
-156.706	123.359	0.428	0.530
-155.691	-151.434	1.008	-0.074
-154.677	57.464	-0.648	0.625
-153.662	-20.789	0.308	-0.186
-152.647	35.009	-0.931	0.804
-151.633	-100.462	-0.330	0.081
-150.618	-200.000	0.090	-1.019
-149.604	71.659	-0.869	-0.891
-148.589	-87.470	0.744	-0.222
-147.574	1.643	-0.601	-0.427
-146.560	-7.182	-0.454	-0.304
-145.545	-21.977	-0.291	0.174
-144.531	249.894	-0.071	0.118
-143.516	189.767	-0.441	-0.652
-142.502	104.993	-0.704	0.819
-141.487	599.305	0.164	-0.402
-140.472	-20.263	0.593	-0.360
-139.458	800.000	-0.223	0.962
-138.443	62.669	0.093	-0.092
-137.429	-144.606	0.263	0.024
-136.414	800.000	-0.145	0.485
-135.399	-200.000	0.075	0.504
-134.385	-192.693	-0.051	0.000
-133.370	-75.789	-0.592	-0.207
-132.356	76.768	-0.420	0.440
-131.341	-30.708	-0.675	0.377
-130.326	118.981	0.224	0.273
-129.312	585.108	-0.313	0.758
-128.297	-200.000	0.070	-0.502
-127.283	481.230	-0.120	0.269
-126.268	-82.352	0.644	0.207
-125.253	70.530	-0.324	0.330
-124.239	-134.863	0.421	-0.050
-123.224	136.706	-0.238	0.307
-122.210	292.223	0.477	0.856
-121.195	402.714	-0.307	0.636
-120.180	214.024	0.190	-0.297
