DTS Sentinel unit serial number:	SN413079Multiplexer serial number:	ORYXHardware model number:	OX4-SRSoftware version number:	ORYX F/W v4.00 Oryx Data Collector v3.7.2.0data status	okinstallation	princeton_trtdifferential loss correction	single-endedforward channel	channel 1reverse channel	N/Adate	2019/09/17time	07:50:35forward acquisition time	60.00reverse acquisition time	0.00gamma	496.2192k internal	0.2331k external	0.2331temperature offset calibration	0.9964default loss term (dB/km)	0.3790temperature slope calibration	1.0000multiplexer offset coefficient	1.0000multiplexer slope coefficient	1.0000fibre end	0.00T internal ref (°C)	27.19T ext. ref 1 (°C)	0.13T ext. ref 2 (°C)	22.16length (m)	temperature (°C)	Stokes	anti-Stokes-747.200	47.294	0.067	-0.063
-746.185	259.287	-0.112	0.194
-745.171	-100.594	0.214	0.053
-744.156	-200.000	0.005	0.152
-743.142	800.000	0.102	0.308
-742.127	-200.000	-0.025	0.503
-741.112	316.886	-0.115	-0.219
-740.098	-136.362	-0.195	0.023
-739.083	-200.000	-0.043	0.494
-738.069	-137.036	0.203	-0.023
-737.054	40.727	0.117	-0.106
-736.039	116.471	-0.239	-0.294
-735.025	477.223	0.169	0.384
-734.010	-92.499	-0.241	-0.068
-732.996	119.087	-0.108	-0.135
-731.981	-104.411	-0.340	-0.079
-730.966	298.558	-0.158	0.292
-729.952	393.937	-0.147	-0.309
-728.937	-200.000	0.037	-0.203
-727.923	462.399	0.157	0.351
-726.908	486.345	0.017	-0.039
-725.894	426.909	-0.072	0.157
-724.879	-58.486	-0.134	0.058
-723.864	28.341	-0.105	-0.089
-722.850	116.313	0.164	0.202
-721.835	-96.020	0.316	-0.085
-720.821	276.732	-0.254	-0.454
-719.806	197.953	0.178	-0.273
-718.791	33.112	-0.126	-0.110
-717.777	-116.529	-0.103	0.019
-716.762	-200.000	-0.081	-0.000
-715.748	-37.523	0.260	-0.139
-714.733	213.579	-0.093	0.148
-713.718	-17.626	0.166	0.105
-712.704	305.535	0.121	0.226
-711.689	-142.175	0.213	0.021
-710.675	-200.000	0.003	-0.041
-709.660	800.000	0.085	-0.272
-708.645	97.949	-0.198	-0.229
-707.631	-117.004	-0.373	-0.069
-706.616	240.789	-0.113	-0.190
-705.602	-200.000	0.005	0.161
-704.587	329.139	-0.146	0.282
-703.572	74.595	0.215	-0.227
-702.558	110.003	-0.169	0.204
-701.543	-65.625	0.197	-0.080
-700.529	62.766	-0.119	-0.120
-699.514	-41.239	0.217	-0.112
-698.499	800.000	0.052	-0.171
-697.485	42.617	-0.223	-0.204
-696.470	-40.990	-0.426	-0.221
-695.456	140.602	0.086	0.114
-694.441	-200.000	0.024	0.289
-693.426	-183.194	-0.279	0.005
-692.412	356.802	0.043	0.085
-691.397	-116.014	-0.182	0.034
-690.383	232.201	0.121	-0.199
-689.368	128.367	-0.135	-0.173
-688.354	137.035	0.204	-0.267
-687.339	800.000	-0.035	0.102
-686.324	81.211	0.177	-0.192
-685.310	483.734	-0.054	-0.124
-684.295	18.726	0.057	0.046
-683.281	-16.789	-0.502	0.319
-682.266	-191.534	-0.098	0.001
-681.251	-200.000	0.049	-0.287
-680.237	800.000	0.044	0.125
-679.222	800.000	-0.052	0.168
-678.208	800.000	-0.023	-0.075
-677.193	-31.278	-0.168	0.095
-676.178	-60.274	-0.361	0.154
-675.164	258.073	0.083	0.144
-674.149	258.344	-0.085	0.147
-673.135	777.533	-0.123	-0.337
-672.120	-42.023	-0.112	0.058
-671.105	-55.493	-0.194	-0.087
-670.091	800.000	0.118	-0.458
-669.076	-110.924	0.332	0.069
-668.062	-200.000	0.032	-0.395
-667.047	-200.000	-0.009	-0.043
-666.032	-115.890	0.104	0.020
-665.018	-88.651	0.137	-0.041
-664.003	-200.000	0.003	-0.034
-662.989	800.000	0.027	0.097
-661.974	-63.977	-0.242	0.099
-660.959	-125.816	0.208	-0.032
-659.945	234.288	-0.109	-0.181
-658.930	-20.936	-0.070	0.043
-657.916	-148.151	-0.371	-0.031
-656.901	-75.429	0.314	-0.112
-655.886	596.747	-0.079	0.196
-654.872	-200.000	0.017	-0.135
-653.857	208.115	0.013	0.020
-652.843	-200.000	0.026	0.165
-651.828	800.000	-0.145	0.444
-650.814	103.728	-0.095	-0.112
-649.799	9.302	-0.090	-0.068
-648.784	-87.720	0.157	-0.048
-647.770	-82.920	0.165	0.053
-646.755	-71.127	-0.204	-0.077
-645.741	-124.455	0.230	-0.036
-644.726	-46.613	-0.386	0.190
-643.711	-2.234	-0.287	-0.202
-642.697	114.065	0.205	0.250
-641.682	268.748	0.103	0.180
-640.668	-167.473	-0.110	-0.004
-639.653	25.767	0.106	0.089
-638.638	-35.984	-0.306	-0.166
-637.624	-5.598	0.132	-0.091
-636.609	-45.336	0.140	0.070
-635.595	21.372	0.215	-0.175
-634.580	-200.000	-0.045	0.313
-633.565	272.799	-0.057	0.100
-632.551	-77.279	0.078	0.027
-631.536	277.802	0.055	0.097
-630.522	120.264	-0.215	-0.267
-629.507	86.325	0.263	0.290
-628.492	-200.000	0.007	-0.119
-627.478	55.450	-0.288	-0.280
-626.463	-103.195	0.097	0.023
-625.449	314.968	0.056	0.106
-624.434	-178.809	-0.425	0.010
-623.419	20.330	0.265	0.215
-622.405	340.742	-0.053	-0.105
-621.390	800.000	0.092	-0.254
-620.376	800.000	0.022	0.067
-619.361	800.000	-0.060	-0.198
-618.346	-200.000	0.009	0.052
-617.332	-138.818	0.262	-0.029
-616.317	800.000	0.018	-0.078
-615.303	-138.275	0.133	0.015
-614.288	462.657	-0.103	-0.231
-613.273	-161.227	-0.233	0.012
-612.259	-38.052	0.075	-0.040
-611.244	-200.000	-0.012	0.272
-610.230	800.000	0.041	-0.145
-609.215	-103.661	0.324	-0.076
-608.201	371.714	-0.058	0.118
-607.186	112.439	-0.340	-0.412
-606.171	800.000	-0.047	0.133
-605.157	-177.530	-0.330	-0.008
-604.142	-57.515	0.260	0.114
-603.128	-103.690	0.111	-0.026
-602.113	-200.000	0.064	-0.303
-601.098	31.040	0.235	-0.202
-600.084	175.414	-0.119	-0.173
-599.069	-48.841	0.264	0.127
-598.055	112.473	0.037	0.045
-597.040	-44.736	-0.201	-0.100
-596.025	267.015	0.034	0.059
-595.011	-200.000	0.001	-0.113
-593.996	215.710	-0.063	-0.100
-592.982	273.864	0.130	-0.230
-591.967	133.609	0.241	-0.311
-590.952	178.348	0.210	-0.307
-589.938	-144.122	-0.171	-0.016
-588.923	58.221	-0.198	-0.194
-587.909	465.302	0.135	0.302
-586.894	605.233	0.121	0.301
-585.879	137.926	-0.178	0.233
-584.865	3.786	-0.222	-0.162
-583.850	-200.000	-0.012	0.339
-582.836	248.524	-0.131	0.222
-581.821	276.890	0.107	0.190
-580.806	-60.548	-0.127	0.054
-579.792	123.187	-0.123	-0.154
-578.777	220.229	-0.114	0.183
-577.763	173.948	-0.054	0.078
-576.748	216.222	-0.139	0.221
-575.733	-111.151	0.262	-0.054
-574.719	572.522	-0.042	-0.103
-573.704	-12.616	-0.109	0.071
-572.690	-200.000	-0.098	0.440
-571.675	53.267	0.145	0.139
-570.661	141.211	0.083	0.110
-569.646	800.000	-0.081	-0.312
-568.631	-200.000	0.012	0.064
-567.617	-200.000	-0.022	0.102
-566.602	800.000	0.039	-0.166
-565.588	-178.084	0.180	-0.004
-564.573	88.466	0.015	0.017
-563.558	-200.000	0.009	0.190
-562.544	275.521	-0.086	0.152
-561.529	-111.865	-0.234	0.047
-560.515	10.335	0.346	-0.263
-559.500	332.096	0.200	-0.386
-558.485	-200.000	-0.052	-0.553
-557.471	538.221	-0.175	-0.416
-556.456	-200.000	-0.004	-0.157
-555.442	-183.357	-0.104	0.002
-554.427	171.453	0.201	-0.289
-553.412	278.133	0.024	0.042
-552.398	-21.434	0.119	-0.072
-551.383	-87.104	0.021	-0.006
-550.369	-200.000	-0.022	-0.122
-549.354	271.478	0.111	0.195
-548.339	-161.734	0.075	0.004
-547.325	-200.000	-0.004	0.088
-546.310	800.000	-0.028	0.090
-545.296	-20.467	0.394	-0.242
-544.281	800.000	0.082	0.264
-543.266	-79.179	-0.242	-0.082
-542.252	-200.000	0.020	0.193
-541.237	-94.706	0.115	0.031
-540.223	800.000	-0.059	-0.202
-539.208	3.228	-0.124	0.090
-538.193	-118.677	0.095	0.017
-537.179	81.950	-0.089	0.096
-536.164	-200.000	-0.011	0.295
-535.150	196.831	0.005	-0.008
-534.135	115.235	-0.304	-0.370
-533.121	-84.017	-0.306	0.097
-532.106	692.349	-0.072	0.190
-531.091	172.707	0.136	0.195
-530.077	278.527	-0.083	-0.147
-529.062	412.728	0.022	0.047
-528.048	18.979	0.105	-0.084
-527.033	800.000	0.039	-0.162
-526.018	-23.050	-0.317	0.191
-525.004	800.000	0.080	0.251
-523.989	-31.781	-0.362	-0.202
-522.975	119.925	-0.074	-0.092
-521.960	-200.000	0.016	0.264
-520.945	10.231	0.127	-0.096
-519.931	-200.000	-0.061	-0.327
-518.916	-200.000	0.013	0.420
-517.902	460.896	-0.154	0.343
-516.887	-103.181	-0.171	0.040
-515.872	47.616	-0.145	-0.135
-514.858	1.586	0.125	0.090
-513.843	-96.083	-0.354	0.094
-512.829	-200.000	-0.030	0.349
-511.814	-74.908	0.177	-0.063
-510.799	106.679	0.193	-0.228
-509.785	25.647	-0.263	0.218
-508.770	62.109	-0.044	-0.043
-507.756	85.084	0.154	0.169
-506.741	-200.000	0.001	0.026
-505.726	50.037	0.123	0.116
-504.712	181.910	0.145	-0.213
-503.697	151.957	0.206	0.280
-502.683	-170.531	0.262	0.009
-501.668	13.048	-0.187	0.145
-500.653	-200.000	-0.065	-0.403
-499.639	800.000	0.110	0.329
-498.624	800.000	-0.050	-0.199
-497.610	-145.582	0.064	-0.006
-496.595	-200.000	-0.004	0.114
-495.581	-200.000	-0.004	-0.267
-494.566	52.007	0.073	-0.069
-493.551	5.807	-0.098	0.072
-492.537	619.046	-0.074	0.185
-491.522	156.790	0.143	-0.197
-490.508	219.359	0.105	0.168
-489.493	-200.000	-0.046	-0.224
-488.478	-200.000	0.025	-0.178
-487.464	-100.452	-0.224	0.055
-486.449	-79.870	-0.340	0.114
-485.435	65.274	-0.204	0.205
-484.420	15.714	0.105	-0.082
-483.405	763.843	0.025	0.068
-482.391	48.520	-0.115	-0.107
-481.376	-129.401	0.107	-0.015
-480.362	66.605	-0.073	-0.074
-479.347	134.654	-0.067	0.086
-478.332	10.096	-0.166	-0.126
-477.318	111.154	-0.247	-0.297
-476.303	85.803	0.314	0.344
-475.289	-200.000	0.028	-0.254
-474.274	-113.359	-0.044	-0.009
-473.259	338.683	-0.026	-0.050
-472.245	-66.818	-0.156	0.062
-471.230	9.212	-0.134	0.101
-470.216	177.895	0.183	-0.266
-469.201	-148.202	-0.308	0.025
-468.186	547.630	0.073	0.174
-467.172	248.632	0.088	0.148
-466.157	55.797	-0.177	-0.170
-465.143	-54.226	-0.175	0.079
-464.128	133.594	0.086	0.111
-463.113	-71.539	-0.243	-0.090
-462.099	-6.559	0.087	-0.059
-461.084	27.297	-0.172	-0.144
-460.070	130.920	0.028	-0.036
-459.055	74.982	0.120	0.126
-458.040	-156.560	-0.362	-0.022
-457.026	86.455	0.182	0.200
-456.011	-28.992	-0.199	-0.114
-454.997	43.880	0.146	-0.133
-453.982	69.190	-0.236	0.241
-452.968	-83.846	0.259	0.082
-451.953	521.451	0.049	0.115
-450.938	-200.000	-0.025	0.182
-449.924	19.491	0.285	-0.228
-448.909	-200.000	-0.034	-0.311
-447.895	47.365	-0.178	-0.165
-446.880	-146.179	-0.121	-0.011
-445.865	-200.000	-0.039	0.451
-444.851	-200.000	-0.028	0.315
-443.836	64.932	0.142	-0.142
-442.822	73.285	0.304	-0.316
-441.807	-93.273	-0.075	-0.021
-440.792	-71.753	-0.216	0.080
-439.778	-5.104	0.150	0.103
-438.763	316.985	0.156	-0.293
-437.749	-200.000	-0.010	-0.388
-436.734	-77.210	0.074	0.026
-435.719	-94.675	0.155	0.042
-434.705	-183.455	-0.333	0.006
-433.690	800.000	-0.105	0.303
-432.676	800.000	-0.074	0.213
-431.661	-84.593	-0.301	-0.094
-430.646	144.932	-0.191	-0.254
-429.632	-115.333	-0.082	0.015
-428.617	-115.375	-0.235	-0.044
-427.603	-200.000	0.017	-0.190
-426.588	262.468	0.205	0.354
-425.573	583.313	0.095	-0.231
-424.559	1.176	-0.098	-0.070
-423.544	646.930	-0.052	0.132
-422.530	800.000	0.060	-0.251
-421.515	-36.832	-0.114	0.061
-420.500	-52.474	-0.126	-0.058
-419.486	-17.468	-0.195	-0.122
-418.471	433.766	0.104	-0.224
-417.457	-200.000	0.369	-0.001
-416.442	-200.000	0.018	-0.270
-415.428	324.341	0.074	-0.141
-414.413	800.000	0.038	-0.109
-413.398	-58.926	0.146	-0.063
-412.384	19.231	0.028	-0.022
-411.369	113.176	0.275	0.331
-410.355	-93.732	0.407	0.111
-409.340	440.337	-0.140	-0.303
-408.325	-100.238	0.246	-0.061
-407.311	800.000	-0.035	0.143
-406.296	-3.129	-0.203	0.141
-405.282	-137.450	0.049	0.006
-404.267	225.935	-0.232	-0.374
-403.252	-116.478	-0.283	-0.052
-402.238	0.154	0.134	-0.095
-401.223	800.000	-0.023	-0.069
-400.209	-67.166	0.189	-0.074
-399.194	-69.643	-0.223	0.085
-398.179	-166.080	0.216	-0.009
-397.165	-17.889	0.073	-0.046
-396.150	59.726	0.226	0.221
-395.136	-28.103	-0.267	0.153
-394.121	38.376	-0.174	0.154
-393.106	352.377	-0.116	0.229
-392.092	800.000	-0.037	-0.124
-391.077	-110.108	0.279	0.058
-390.063	-42.228	-0.490	-0.248
-389.048	-200.000	-0.009	-0.134
-388.033	104.328	-0.180	0.211
-387.019	-30.021	-0.167	0.094
-386.004	-57.949	0.157	-0.068
-384.990	0.170	0.283	0.200
-383.975	-200.000	0.015	-0.084
-382.960	-124.214	-0.126	0.020
-381.946	-112.468	-0.200	0.040
-380.931	-40.269	-0.051	0.026
-379.917	-147.030	0.177	0.015
-378.902	800.000	0.021	-0.085
-377.888	91.823	-0.161	-0.180
-376.873	0.188	0.089	0.063
-375.858	254.306	0.199	0.337
-374.844	-46.791	0.269	0.131
-373.829	800.000	0.043	0.125
-372.815	-59.455	0.365	-0.156
-371.800	94.953	0.213	-0.240
-370.785	130.815	0.111	-0.142
-369.771	-200.000	-0.022	0.212
-368.756	-188.621	-0.154	-0.002
-367.742	-29.878	-0.240	-0.135
-366.727	-82.913	0.391	-0.125
-365.712	-183.776	0.367	0.006
-364.698	-200.000	-0.061	-0.320
-363.683	-120.303	0.350	-0.059
-362.669	283.074	0.095	0.170
-361.654	-132.986	-0.253	0.032
-360.639	-38.014	0.196	-0.103
-359.625	55.388	0.109	0.104
-358.610	-200.000	-0.029	-0.185
-357.596	795.584	0.076	-0.208
-356.581	-82.005	-0.034	0.011
-355.566	235.214	-0.144	-0.235
-354.552	-55.955	0.085	-0.038
-353.537	121.721	-0.047	0.058
-352.523	-39.754	0.073	-0.038
-351.508	-200.000	-0.022	0.104
-350.493	-193.031	-0.239	0.002
-349.479	-200.000	-0.013	-0.111
-348.464	35.990	-0.119	-0.104
-347.450	-47.908	0.116	-0.056
-346.435	800.000	0.085	0.233
-345.420	-131.047	0.105	0.014
-344.406	800.000	0.062	0.244
-343.391	800.000	-0.103	0.391
-342.377	-122.746	0.181	0.029
-341.362	-71.553	-0.306	0.113
-340.348	-26.293	0.360	-0.209
-339.333	-200.000	0.005	-0.111
-338.318	4.034	-0.116	0.084
-337.304	211.283	0.006	0.009
-336.289	800.000	0.024	0.069
-335.275	-71.798	0.194	0.072
-334.260	131.163	0.054	-0.069
-333.245	55.122	-0.031	-0.030
-332.231	139.767	-0.063	0.083
-331.216	39.620	0.161	0.143
-330.202	-143.453	0.317	0.030
-329.187	-200.000	0.047	0.304
-328.172	800.000	0.034	0.105
-327.158	-200.000	0.013	-0.149
-326.143	800.000	-0.028	0.105
-325.129	115.052	-0.186	0.225
-324.114	110.160	-0.166	-0.197
-323.099	-200.000	0.014	-0.290
-322.085	-200.000	-0.038	0.187
-321.070	800.000	0.003	-0.010
-320.056	-200.000	0.016	0.100
-319.041	139.807	0.116	0.151
-318.026	24.791	-0.394	-0.323
-317.012	-87.403	-0.194	-0.058
-315.997	1.435	0.215	0.153
-314.983	-200.000	0.003	-0.058
-313.968	-108.125	-0.034	-0.007
-312.953	79.326	-0.148	-0.158
-311.939	-200.000	-0.025	-0.315
-310.924	-25.196	-0.104	0.061
-309.910	175.927	0.123	-0.177
-308.895	800.000	0.044	0.156
-307.880	228.766	-0.066	-0.106
-306.866	-110.238	0.219	-0.045
-305.851	-200.000	-0.006	-0.359
-304.837	31.003	-0.170	0.144
-303.822	-200.000	0.012	-0.103
-302.807	115.849	-0.170	-0.206
-301.793	527.342	0.066	-0.154
-300.778	135.368	-0.131	-0.169
-299.764	676.631	0.035	-0.091
-298.749	114.792	0.122	-0.148
-297.735	-158.559	-0.233	-0.013
-296.720	-13.995	0.182	-0.116
-295.705	-200.000	-0.054	-0.281
-294.691	-105.934	-0.131	0.029
-293.676	800.000	0.116	0.482
-292.662	143.398	0.280	-0.369
-291.647	-30.264	-0.118	0.066
-290.632	36.541	0.265	-0.231
-289.618	800.000	-0.038	-0.162
-288.603	262.348	-0.047	-0.081
-287.589	-179.147	0.365	0.008
-286.574	-200.000	0.027	0.182
-285.559	-96.013	0.081	0.021
-284.545	267.356	0.107	-0.185
-283.530	-56.450	0.062	-0.027
-282.516	196.289	0.062	-0.094
-281.501	-200.000	0.108	-0.520
-280.486	-66.594	-0.164	0.064
-279.472	-50.908	-0.066	0.031
-278.457	129.116	0.279	-0.352
-277.443	334.021	0.030	-0.057
-276.428	124.004	-0.083	0.102
-275.413	691.275	0.102	0.264
-274.399	1.109	-0.364	-0.258
-273.384	-113.273	0.329	0.064
-272.370	432.604	0.021	-0.045
-271.355	-73.827	-0.273	-0.098
-270.340	138.995	0.091	0.119
-269.326	187.018	-0.173	0.255
-268.311	-55.088	0.255	0.113
-267.297	-25.082	-0.193	0.113
-266.282	-98.633	-0.222	-0.056
-265.267	21.510	0.167	0.134
-264.253	-27.865	-0.132	0.076
-263.238	-12.540	0.174	0.112
-262.224	-200.000	-0.068	-0.558
-261.209	-120.984	-0.166	-0.028
-260.195	-11.006	0.126	-0.082
-259.180	670.668	0.113	0.288
-258.165	-200.000	0.007	-0.211
-257.151	-33.654	-0.233	-0.127
-256.136	800.000	0.173	0.567
-255.122	702.394	0.129	-0.336
-254.107	-45.500	-0.247	0.121
-253.092	-45.120	-0.251	0.123
-252.078	-49.827	-0.115	0.054
-251.063	-53.751	0.018	0.008
-250.049	800.000	-0.104	0.326
-249.034	-200.000	-0.034	0.231
-248.019	800.000	-0.120	-0.419
-247.005	58.488	-0.189	0.183
-245.990	-61.648	0.140	0.058
-244.976	-200.000	0.050	0.276
-243.961	44.676	-0.130	0.118
-242.946	-175.215	-0.271	-0.007
-241.932	-57.122	0.507	0.220
-240.917	183.705	-0.047	-0.068
-239.903	-200.000	-0.000	0.224
-238.888	50.682	0.313	0.293
-237.873	-200.000	0.006	0.124
-236.859	34.554	0.147	-0.127
-235.844	144.761	-0.100	0.132
-234.830	72.840	-0.157	0.162
-233.815	-21.290	0.207	0.124
-232.800	-200.000	-0.003	0.160
-231.786	-200.000	0.054	0.264
-230.771	800.000	-0.079	-0.254
-229.757	-54.634	0.134	0.060
-228.742	90.692	0.083	0.092
-227.727	800.000	-0.018	0.055
-226.713	58.513	0.108	0.105
-225.698	133.571	0.075	-0.095
-224.684	-124.438	0.144	0.022
-223.669	749.065	-0.029	-0.078
-222.655	800.000	-0.041	0.127
-221.640	-152.251	-0.398	-0.028
-220.625	-98.359	0.198	-0.050
-219.611	118.726	0.241	0.293
-218.596	-67.369	0.154	0.060
-217.582	-200.000	-0.008	-0.053
-216.567	282.148	-0.139	-0.246
-215.552	-71.728	0.314	0.116
-214.538	800.000	-0.087	-0.310
-213.523	-52.691	0.148	-0.067
-212.509	173.064	-0.286	-0.406
-211.494	-200.000	0.030	0.168
-210.479	-200.000	0.027	-0.168
-209.465	2.087	-0.074	0.052
-208.450	325.952	0.082	0.155
-207.436	-12.701	0.078	-0.050
-206.421	-59.977	-0.396	-0.167
-205.406	237.645	-0.147	-0.240
-204.392	61.966	-0.237	-0.233
-203.377	16.958	-0.126	0.098
-202.363	136.061	0.018	-0.024
-201.348	99.693	0.107	-0.122
-200.333	-200.000	-0.024	-0.199
-199.319	-120.539	-0.205	-0.034
-198.304	154.298	0.087	-0.117
-197.290	256.049	0.100	-0.170
-196.275	40.452	-0.240	-0.213
-195.260	96.733	0.204	-0.231
-194.246	-18.410	0.082	0.051
-193.231	363.118	0.155	0.307
-192.217	-200.000	-0.019	0.104
-191.202	121.552	0.032	-0.039
-190.187	800.000	0.053	0.173
-189.173	-200.000	-0.026	0.160
-188.158	334.678	-0.178	-0.339
-187.144	-63.123	0.276	-0.112
-186.129	-200.000	0.003	0.188
-185.114	800.000	-0.100	0.400
-184.100	62.806	0.255	-0.251
-183.085	70.113	-0.045	-0.045
-182.071	-200.000	0.016	0.112
-181.056	-22.620	-0.418	0.249
-180.042	217.958	-0.164	0.257
-179.027	249.281	0.178	0.297
-178.012	-69.528	-0.250	-0.094
-176.998	-42.549	-0.321	-0.161
-175.983	-200.000	-0.019	0.163
-174.969	-200.000	-0.050	0.318
-173.954	-200.000	-0.004	0.242
-172.939	-30.050	0.345	-0.193
-171.925	117.947	0.283	0.344
-170.910	-177.348	-0.400	-0.010
-169.896	-71.327	-0.212	-0.078
-168.881	-200.000	-0.043	0.206
-167.866	1.409	-0.219	-0.155
-166.852	240.091	0.118	-0.193
-165.837	800.000	0.162	0.465
-164.823	-57.024	-0.115	-0.050
-163.808	43.492	0.147	0.132
-162.793	-200.000	-0.032	-0.168
-161.779	185.194	-0.044	-0.064
-160.764	332.850	0.113	0.214
-159.750	-36.658	-0.106	-0.056
-158.735	-200.000	0.002	0.331
-157.720	-14.602	0.333	0.211
-156.706	78.422	-0.115	0.121
-155.691	275.864	-0.154	0.269
-154.677	-200.000	-0.029	0.145
-153.662	-14.782	0.155	0.098
-152.647	-70.549	0.323	0.120
-151.633	-80.809	0.271	-0.089
-150.618	-200.000	0.076	-0.361
-149.604	-0.734	0.063	0.044
-148.589	-90.086	-0.045	0.013
-147.574	-43.279	0.529	0.263
-146.560	116.082	0.175	0.211
-145.545	293.683	-0.099	0.177
-144.531	-64.593	-0.268	0.107
-143.516	-90.464	0.151	0.043
-142.502	180.792	0.158	0.228
-141.487	40.859	0.389	0.345
-140.472	-76.109	-0.340	-0.118
-139.458	-83.486	-0.255	-0.080
-138.443	800.000	-0.082	0.252
-137.429	-200.000	-0.060	0.334
-136.414	-200.000	0.032	-0.422
-135.399	800.000	-0.042	-0.116
-134.385	-200.000	0.044	0.683
-133.370	-199.665	-0.199	-0.001
-132.356	-200.000	0.007	-0.113
-131.341	211.580	0.071	-0.110
-130.326	346.242	0.131	-0.252
-129.312	600.612	-0.067	0.163
-128.297	-116.683	-0.159	0.029
-127.283	-11.362	0.167	0.108
-126.268	-130.922	0.414	-0.054
-125.253	-200.000	-0.009	0.076
-124.239	-102.482	-0.240	0.056
-123.224	36.586	-0.140	-0.122
-122.210	800.000	0.083	-0.243
-121.195	-200.000	0.009	0.063
