DTS Sentinel unit serial number:	SN413079Multiplexer serial number:	ORYXHardware model number:	OX4-SRSoftware version number:	ORYX F/W v4.00 Oryx Data Collector v3.7.2.0data status	okinstallation	princeton_trtdifferential loss correction	single-endedforward channel	channel 1reverse channel	N/Adate	2019/09/15time	22:42:35forward acquisition time	60.00reverse acquisition time	0.00gamma	496.2192k internal	0.2331k external	0.2331temperature offset calibration	0.9967default loss term (dB/km)	0.3790temperature slope calibration	1.0000multiplexer offset coefficient	1.0000multiplexer slope coefficient	1.0000fibre end	0.00T internal ref (°C)	28.92T ext. ref 1 (°C)	8.84T ext. ref 2 (°C)	22.38length (m)	temperature (°C)	Stokes	anti-Stokes-747.200	-200.000	-0.011	0.210
-746.185	800.000	-0.078	0.243
-745.171	-200.000	0.007	0.056
-744.156	41.571	0.242	0.220
-743.142	-64.405	-0.120	0.049
-742.127	-103.637	0.187	0.044
-741.112	-195.167	0.067	0.001
-740.098	800.000	0.042	0.126
-739.083	407.132	-0.046	-0.098
-738.069	-124.273	-0.361	0.057
-737.054	800.000	-0.088	0.320
-736.039	-80.995	-0.424	-0.141
-735.025	-125.062	0.373	0.058
-734.010	165.167	-0.082	-0.116
-732.996	204.424	-0.154	-0.240
-731.981	800.000	-0.056	0.193
-730.966	3.144	-0.239	0.175
-729.952	-46.950	-0.261	-0.128
-728.937	404.667	-0.143	-0.303
-727.923	-60.615	-0.088	0.037
-726.908	104.137	-0.303	-0.359
-725.894	-0.505	-0.195	-0.139
-724.879	-105.988	0.131	-0.030
-723.864	483.653	-0.014	0.032
-722.850	-190.351	0.157	-0.002
-721.835	229.862	0.082	-0.135
-720.821	-133.648	-0.252	0.032
-719.806	26.843	-0.279	0.235
-718.791	-121.464	0.232	-0.039
-717.777	-8.003	-0.288	0.195
-716.762	-200.000	-0.313	0.001
-715.748	-12.898	-0.152	0.099
-714.733	706.892	-0.051	0.137
-713.718	-71.624	-0.217	-0.081
-712.704	31.995	0.238	-0.206
-711.689	-170.308	-0.188	0.007
-710.675	-100.137	-0.246	-0.061
-709.660	0.870	-0.221	-0.159
-708.645	-200.000	0.016	-0.071
-707.631	-200.000	-0.055	0.259
-706.616	191.125	-0.118	-0.178
-705.602	-33.306	0.081	-0.045
-704.587	-68.407	0.190	-0.074
-703.572	576.013	0.098	0.240
-702.558	-82.275	0.154	0.050
-701.543	-200.000	0.054	-0.353
-700.529	503.569	0.061	-0.141
-699.514	800.000	-0.022	0.068
-698.499	-36.738	0.173	0.093
-697.485	-200.000	-0.035	-0.247
-696.470	72.513	-0.078	0.082
-695.456	-77.149	-0.122	-0.043
-694.441	800.000	0.044	0.171
-693.426	-87.449	-0.237	0.072
-692.412	-200.000	0.015	-0.189
-691.397	149.810	-0.127	0.172
-690.383	-200.000	0.003	0.062
-689.368	55.126	-0.139	-0.135
-688.354	423.816	-0.112	0.242
-687.339	626.139	0.112	-0.283
-686.324	-75.400	0.102	-0.036
-685.310	-175.740	0.164	0.004
-684.295	-72.109	-0.242	-0.090
-683.281	-100.035	0.323	0.081
-682.266	192.618	-0.104	-0.158
-681.251	171.116	-0.041	0.059
-680.237	-200.000	0.050	-0.261
-679.222	-110.132	0.178	0.037
-678.208	-44.152	0.123	0.062
-677.193	-160.552	-0.448	0.024
-676.178	-10.488	0.155	-0.103
-675.164	266.413	-0.164	0.288
-674.149	800.000	-0.093	0.305
-673.135	-79.306	-0.047	0.016
-672.120	-200.000	0.021	0.189
-671.105	-160.205	0.094	-0.005
-670.091	-154.841	0.324	0.021
-669.076	-96.082	-0.221	-0.059
-668.062	-200.000	-0.012	0.208
-667.047	99.586	0.154	-0.179
-666.032	800.000	0.043	0.163
-665.018	149.725	0.157	-0.214
-664.003	602.052	0.057	-0.141
-662.989	-159.983	0.041	-0.002
-661.974	800.000	-0.015	0.043
-660.959	-41.595	-0.085	-0.044
-659.945	-200.000	0.000	0.175
-658.930	-72.324	0.293	0.109
-657.916	-20.153	-0.195	0.120
-656.901	-105.918	-0.218	-0.049
-655.886	238.417	-0.166	-0.277
-654.872	613.700	0.079	0.198
-653.857	-121.550	-0.330	-0.055
-652.843	12.833	-0.114	-0.088
-651.828	-72.954	-0.334	-0.123
-650.814	-200.000	-0.031	0.263
-649.799	-121.948	-0.116	-0.019
-648.784	-123.765	-0.168	-0.027
-647.770	-20.102	-0.235	0.145
-646.755	-31.967	-0.110	-0.062
-645.741	166.460	-0.063	-0.089
-644.726	-75.933	0.125	0.044
-643.711	663.182	0.074	-0.191
-642.697	26.937	0.079	0.066
-641.682	-120.933	0.191	-0.032
-640.668	225.448	-0.166	-0.270
-639.653	-139.604	-0.319	0.034
-638.638	-109.902	-0.175	-0.037
-637.624	-98.891	0.191	-0.049
-636.609	-200.000	0.008	-0.132
-635.595	179.244	0.118	-0.173
-634.580	82.204	-0.175	0.190
-633.565	-200.000	0.008	-0.362
-632.551	800.000	0.108	-0.355
-631.536	109.903	0.017	-0.020
-630.522	310.042	0.085	-0.160
-629.507	384.825	0.156	-0.323
-628.492	-7.373	0.308	0.209
-627.478	-50.390	-0.104	0.049
-626.463	-141.584	-0.120	0.012
-625.449	-76.027	-0.168	-0.060
-624.434	795.909	-0.123	0.340
-623.419	-106.648	-0.180	0.040
-622.405	109.706	0.119	-0.143
-621.390	-40.631	0.163	-0.085
-620.376	-102.707	0.238	0.057
-619.361	-37.582	-0.209	0.112
-618.346	428.677	-0.177	-0.382
-617.332	-143.441	-0.341	0.033
-616.317	540.061	-0.063	-0.150
-615.303	320.670	-0.021	-0.041
-614.288	230.092	0.202	0.330
-613.273	-200.000	-0.019	0.217
-612.259	508.955	0.139	0.323
-611.244	60.117	0.130	-0.129
-610.230	-163.641	-0.163	0.008
-609.215	-200.000	-0.013	0.288
-608.201	-200.000	-0.008	0.172
-607.186	-115.986	-0.056	0.010
-606.171	531.557	-0.121	0.287
-605.157	70.760	-0.083	-0.086
-604.142	33.667	0.236	0.206
-603.128	237.642	-0.227	-0.376
-602.113	170.826	0.130	-0.187
-601.098	127.828	-0.168	0.214
-600.084	117.612	0.144	0.177
-599.069	64.211	0.061	-0.061
-598.055	42.984	0.064	-0.059
-597.040	-157.353	0.250	0.015
-596.025	119.918	-0.208	-0.259
-595.011	6.174	-0.172	-0.128
-593.996	800.000	-0.104	-0.434
-592.982	319.348	-0.158	-0.299
-591.967	462.259	-0.013	0.028
-590.952	46.879	-0.148	0.138
-589.938	100.750	-0.029	0.034
-588.923	146.200	0.079	-0.105
-587.909	-27.108	-0.202	0.118
-586.894	-159.868	-0.224	-0.012
-585.879	-111.229	-0.240	0.049
-584.865	-99.381	-0.037	-0.009
-583.850	-24.284	-0.098	0.058
-582.836	-200.000	-0.043	-0.337
-581.821	219.323	0.038	0.061
-580.806	-200.000	-0.051	0.254
-579.792	114.650	0.110	-0.133
-578.777	51.679	0.255	0.242
-577.763	19.595	0.167	-0.134
-576.748	-94.924	-0.177	-0.048
-575.733	-3.151	-0.091	-0.063
-574.719	-120.786	0.391	-0.066
-573.704	-174.550	0.243	0.007
-572.690	310.784	-0.113	-0.212
-571.675	37.454	0.150	0.133
-570.661	-200.000	-0.028	-0.265
-569.646	33.717	0.257	-0.223
-568.631	141.408	0.334	-0.442
-567.617	-200.000	-0.037	-0.162
-566.602	32.472	-0.219	-0.189
-565.588	800.000	0.104	-0.351
-564.573	-102.114	0.278	-0.067
-563.558	-53.074	-0.229	0.105
-562.544	64.010	0.084	0.084
-561.529	95.157	-0.124	0.141
-560.515	417.536	-0.094	-0.200
-559.500	-104.288	0.028	-0.007
-558.485	-84.145	-0.326	-0.103
-557.471	800.000	-0.033	0.129
-556.456	-17.640	-0.158	-0.099
-555.442	800.000	0.127	-0.389
-554.427	-200.000	-0.005	0.043
-553.412	-33.999	-0.127	0.070
-552.398	-200.000	-0.019	0.405
-551.383	1.298	0.041	0.029
-550.369	492.710	0.091	0.209
-549.354	-200.000	-0.059	0.308
-548.339	54.379	-0.194	0.187
-547.325	62.481	-0.318	0.317
-546.310	-81.555	0.327	0.107
-545.296	203.356	0.119	-0.184
-544.281	413.348	-0.067	-0.143
-543.266	-200.000	0.037	0.213
-542.252	116.473	0.276	0.337
-541.237	0.026	-0.124	0.088
-540.223	322.925	0.145	0.276
-539.208	305.760	-0.154	-0.287
-538.193	21.208	-0.033	-0.027
-537.179	-128.662	-0.257	0.036
-536.164	76.060	-0.270	0.285
-535.150	800.000	-0.079	0.242
-534.135	185.217	0.194	-0.288
-533.121	169.073	-0.112	0.160
-532.106	-62.611	0.125	-0.052
-531.091	29.051	-0.216	-0.183
-530.077	-200.000	-0.038	0.280
-529.062	800.000	0.065	-0.208
-528.048	-54.063	0.017	-0.008
-527.033	-200.000	-0.053	-0.334
-526.018	-82.696	0.257	-0.083
-525.004	329.491	0.092	-0.176
-523.989	5.084	0.117	0.086
-522.975	-106.866	-0.136	-0.030
-521.960	-200.000	0.024	-0.171
-520.945	87.956	-0.120	0.133
-519.931	-200.000	-0.004	0.059
-518.916	47.234	-0.238	0.221
-517.902	161.098	0.211	0.294
-516.887	-126.730	-0.189	0.028
-515.872	133.382	0.185	-0.238
-514.858	-20.633	-0.569	0.348
-513.843	-8.565	0.133	-0.089
-512.829	800.000	0.104	0.317
-511.814	-116.658	-0.320	-0.059
-510.799	-126.921	-0.023	-0.003
-509.785	-105.389	0.249	0.057
-508.770	-15.653	0.173	-0.110
-507.756	-91.562	-0.192	0.054
-506.741	-200.000	-0.011	0.334
-505.726	629.352	-0.007	0.018
-504.712	-200.000	0.023	-0.249
-503.697	-200.000	0.058	0.455
-502.683	800.000	0.066	-0.216
-501.668	94.996	-0.015	-0.017
-500.653	34.273	-0.043	-0.037
-499.639	-200.000	-0.029	-0.163
-498.624	-19.895	-0.181	-0.111
-497.610	81.774	0.141	0.152
-496.595	800.000	0.061	0.173
-495.581	800.000	0.122	-0.452
-494.566	-96.464	-0.185	-0.049
-493.551	107.291	0.241	-0.286
-492.537	87.502	0.144	0.158
-491.522	-107.792	0.540	-0.117
-490.508	391.112	-0.101	-0.209
-489.493	-187.748	0.359	-0.005
-488.478	-29.974	-0.204	-0.116
-487.464	-200.000	-0.016	-0.130
-486.449	175.017	-0.132	-0.190
-485.435	139.345	0.222	-0.291
-484.420	176.372	0.108	0.157
-483.405	-7.406	-0.129	0.087
-482.391	-74.687	0.245	0.088
-481.376	-20.833	-0.184	0.112
-480.362	637.603	-0.048	0.122
-479.347	-27.938	-0.035	-0.020
-478.332	75.735	0.121	0.127
-477.318	-142.446	0.172	-0.017
-476.303	-5.307	-0.439	-0.300
-475.289	228.375	0.092	-0.149
-474.274	800.000	-0.068	-0.281
-473.259	-13.292	0.181	-0.117
-472.245	-200.000	0.036	0.529
-471.230	89.606	-0.135	0.150
-470.216	-90.591	0.133	-0.038
-469.201	-53.336	-0.392	-0.179
-468.186	787.749	-0.137	-0.374
-467.172	-7.899	-0.331	-0.222
-466.157	248.006	0.124	0.209
-465.143	117.179	0.069	0.084
-464.128	637.399	0.005	0.012
-463.113	54.561	0.213	0.204
-462.099	-114.744	-0.463	-0.088
-461.084	-153.481	0.322	-0.022
-460.070	-64.915	-0.270	-0.109
-459.055	-9.727	0.146	0.096
-458.040	314.365	0.077	0.145
-457.026	-54.204	0.157	-0.071
-456.011	-148.729	-0.286	-0.023
-454.997	97.649	0.017	0.020
-453.982	140.956	0.026	-0.035
-452.968	235.043	-0.079	0.130
-451.953	-200.000	0.061	-0.359
-450.938	800.000	-0.078	-0.239
-449.924	135.219	0.213	-0.275
-448.909	87.014	-0.213	0.234
-447.895	114.372	-0.077	0.094
-446.880	-200.000	-0.007	-0.046
-445.865	-56.166	0.315	-0.139
-444.851	169.477	0.102	-0.146
-443.836	800.000	-0.074	-0.321
-442.822	-200.000	0.010	0.060
-441.807	45.932	-0.484	0.445
-440.792	-200.000	0.001	0.304
-439.778	57.325	0.144	0.140
-438.763	66.112	0.158	0.159
-437.749	-72.525	0.339	-0.125
-436.734	-200.000	0.079	-0.373
-435.719	316.633	-0.099	-0.187
-434.705	170.798	0.211	-0.300
-433.690	-115.589	0.375	-0.070
-432.676	345.721	-0.027	0.052
-431.661	-1.382	-0.173	-0.121
-430.646	71.693	-0.216	0.223
-429.632	-200.000	-0.030	0.272
-428.617	800.000	-0.020	0.058
-427.603	429.894	0.117	-0.251
-426.588	13.181	0.084	0.065
-425.573	32.477	-0.078	-0.067
-424.559	-14.492	-0.252	-0.161
-423.544	-180.662	0.119	-0.002
-422.530	-104.320	0.213	-0.049
-421.515	322.954	-0.179	0.340
-420.500	-200.000	0.002	0.164
-419.486	-200.000	0.032	-0.272
-418.471	-200.000	0.025	-0.236
-417.457	-55.248	-0.145	-0.065
-416.442	-200.000	0.029	-0.236
-415.428	-200.000	0.012	0.055
-414.413	-29.385	-0.464	0.264
-413.398	40.851	0.180	0.161
-412.384	-155.716	0.106	-0.007
-411.369	-134.120	0.319	0.039
-410.355	86.351	0.061	0.067
-409.340	644.940	-0.141	0.356
-408.325	-61.796	-0.165	-0.068
-407.311	-200.000	-0.015	-0.208
-406.296	-27.452	-0.087	-0.050
-405.282	800.000	0.073	0.263
-404.267	22.868	-0.308	0.251
-403.252	-200.000	0.059	0.364
-402.238	-200.000	-0.069	0.318
-401.223	-200.000	-0.044	-0.403
-400.209	98.177	-0.135	0.154
-399.194	140.647	0.080	-0.105
-398.179	-82.671	0.335	0.108
-397.165	247.203	0.127	0.213
-396.150	-65.676	0.102	0.041
-395.136	56.203	0.130	0.125
-394.121	800.000	-0.071	0.231
-393.106	70.643	0.080	0.082
-392.092	-93.781	0.242	-0.066
-391.077	-125.828	0.265	-0.040
-390.063	-118.517	0.272	-0.048
-389.048	5.471	-0.194	0.142
-388.033	59.242	-0.202	0.197
-387.019	800.000	-0.081	-0.318
-386.004	233.554	-0.079	-0.130
-384.990	12.236	0.305	-0.233
-383.975	64.457	0.228	0.228
-382.960	120.979	-0.082	0.102
-381.946	79.622	-0.360	-0.383
-380.931	-123.108	0.115	0.018
-379.917	82.123	-0.108	0.117
-378.902	84.636	0.073	-0.079
-377.888	-118.973	0.051	-0.009
-376.873	161.949	-0.207	0.288
-375.858	800.000	-0.027	-0.095
-374.844	800.000	0.042	-0.157
-373.829	-18.661	0.276	0.171
-372.815	140.438	-0.157	-0.206
-371.800	-113.681	-0.385	0.074
-370.785	-200.000	-0.031	-0.159
-369.771	-29.494	0.130	-0.074
-368.756	-36.225	-0.077	0.041
-367.742	52.502	0.137	-0.129
-366.727	800.000	-0.100	0.278
-365.712	511.824	-0.171	0.395
-364.698	-74.024	-0.203	-0.073
-363.683	257.212	0.047	-0.079
-362.669	-114.767	0.358	0.068
-361.654	20.936	0.237	0.191
-360.639	-152.675	0.068	-0.005
-359.625	117.625	-0.273	-0.333
-358.610	-82.430	-0.166	-0.054
-357.596	-34.972	0.110	-0.060
-356.581	-96.176	-0.088	0.023
-355.566	800.000	-0.083	0.250
-354.552	115.883	0.143	0.173
-353.537	-26.635	-0.180	-0.104
-352.523	33.262	0.200	0.172
-351.508	23.590	-0.159	0.130
-350.493	131.031	-0.200	-0.255
-349.479	-75.792	0.108	-0.038
-348.464	800.000	-0.076	0.279
-347.450	197.258	0.249	0.377
-346.435	215.579	0.150	-0.236
-345.420	-137.704	-0.190	0.021
-344.406	65.873	-0.081	-0.081
-343.391	-123.274	-0.319	0.051
-342.377	-200.000	0.044	0.306
-341.362	-97.915	-0.183	-0.047
-340.348	-76.086	-0.380	-0.133
-339.333	-74.294	0.088	0.031
-338.318	-61.130	-0.380	-0.159
-337.304	221.141	0.200	0.318
-336.289	-200.000	-0.004	0.099
-335.275	-28.767	0.088	-0.050
-334.260	-80.106	0.151	-0.050
-333.245	-200.000	-0.040	-0.399
-332.231	-200.000	0.006	0.049
-331.216	53.163	0.175	-0.166
-330.202	297.389	0.061	-0.111
-329.187	-144.197	0.219	0.020
-328.172	-97.530	-0.354	-0.091
-327.158	58.170	-0.179	0.174
-326.143	-146.999	0.270	-0.023
-325.129	78.629	0.119	0.126
-324.114	-148.250	0.055	-0.005
-323.099	-93.347	-0.244	0.067
-322.085	38.236	-0.143	0.126
-321.070	110.062	-0.174	-0.207
-320.056	-104.586	-0.205	0.047
-319.041	-29.348	-0.178	-0.101
-318.026	-200.000	0.016	0.219
-317.012	800.000	0.040	-0.156
-315.997	32.184	-0.217	-0.185
-314.983	122.175	-0.114	-0.140
-313.968	294.915	0.139	-0.252
-312.953	800.000	0.039	-0.151
-311.939	-72.599	0.261	0.095
-310.924	800.000	-0.033	-0.133
-309.910	90.522	0.057	0.064
-308.895	-118.498	-0.149	-0.026
-307.880	-147.074	0.078	0.007
-306.866	-200.000	-0.015	-0.071
-305.851	6.184	0.260	-0.191
-304.837	-32.876	0.164	0.090
-303.822	166.866	0.079	-0.111
-302.807	67.434	0.124	-0.125
-301.793	147.062	-0.064	-0.085
-300.778	-200.000	0.002	0.129
-299.764	-128.381	0.351	-0.049
-298.749	-93.947	-0.167	0.046
-297.735	-130.715	-0.066	-0.009
-296.720	-200.000	-0.033	0.195
-295.705	118.876	0.211	0.258
-294.691	-4.108	0.254	-0.174
-293.676	71.577	-0.142	0.146
-292.662	-94.349	0.007	-0.002
-291.647	192.776	0.154	-0.230
-290.632	-99.180	0.199	0.050
-289.618	122.064	0.257	0.318
-288.603	113.604	0.180	-0.216
-287.589	-105.339	0.132	0.030
-286.574	-42.290	0.033	0.017
-285.559	-114.205	0.132	0.025
-284.545	-46.276	-0.075	-0.037
-283.530	102.414	-0.110	0.127
-282.516	187.597	0.128	0.189
-281.501	86.910	0.271	0.295
-280.486	-88.797	-0.188	-0.055
-279.472	763.316	0.093	0.251
-278.457	138.656	-0.135	0.175
-277.443	42.505	-0.109	0.098
-276.428	277.682	0.008	-0.014
-275.413	55.312	0.042	0.040
-274.399	-200.000	0.009	-0.126
-273.384	331.170	-0.120	-0.229
-272.370	41.448	0.320	0.286
-271.355	200.390	0.067	-0.102
-270.340	-200.000	-0.036	0.265
-269.326	-100.946	0.152	0.037
-268.311	-101.887	0.226	-0.054
-267.297	-200.000	-0.069	-0.362
-266.282	-9.943	0.183	0.120
-265.267	-200.000	0.039	0.219
-264.253	170.465	-0.078	0.110
-263.238	-141.887	0.189	-0.019
-262.224	87.880	-0.233	-0.255
-261.209	269.415	-0.119	-0.205
-260.195	-27.247	0.289	-0.166
-259.180	-200.000	0.022	-0.162
-258.165	800.000	-0.054	-0.189
-257.151	-200.000	0.013	-0.115
-256.136	-200.000	-0.003	0.233
-255.122	-165.945	0.242	0.010
-254.107	62.540	0.047	0.046
-253.092	-200.000	0.015	-0.207
-252.078	608.598	-0.052	-0.129
-251.063	-157.544	-0.169	-0.010
-250.049	309.961	0.158	-0.291
-249.034	25.113	0.131	0.107
-248.019	-138.958	-0.128	0.014
-247.005	-106.073	0.028	-0.006
-245.990	-73.860	-0.127	0.046
-244.976	-193.961	-0.031	0.000
-243.961	800.000	-0.037	0.128
-242.946	660.361	-0.054	0.138
-241.932	5.095	-0.184	0.133
-240.917	-200.000	0.049	-0.281
-239.903	-200.000	-0.016	0.310
-238.888	-115.174	0.330	0.062
-237.873	-93.994	-0.180	0.049
-236.859	-111.809	0.170	0.034
-235.844	-83.524	0.265	0.084
-234.830	228.447	-0.071	-0.115
-233.815	-200.000	0.004	0.061
-232.800	-20.342	-0.092	0.056
-231.786	-159.726	0.097	0.005
-230.771	-200.000	-0.000	0.074
-229.757	45.010	-0.165	0.150
-228.742	254.989	0.050	0.085
-227.727	-15.133	0.230	-0.145
-226.713	-113.434	-0.069	-0.013
-225.698	-75.305	-0.401	-0.141
-224.684	-69.430	-0.187	0.071
-223.669	-34.994	0.178	-0.096
-222.655	-200.000	0.009	0.326
-221.640	-200.000	0.005	-0.057
-220.625	27.849	0.168	-0.139
-219.611	367.274	-0.080	-0.159
-218.596	-200.000	-0.061	-0.363
-217.582	86.294	0.188	0.204
-216.567	-48.231	0.255	-0.121
-215.552	-36.365	0.155	0.082
-214.538	-101.634	0.177	-0.042
-213.523	-127.371	-0.223	0.032
-212.509	135.946	0.248	0.319
-211.494	126.411	0.161	0.201
-210.479	91.057	0.158	-0.174
-209.465	616.973	-0.104	0.256
-208.450	-127.925	-0.270	-0.038
-207.436	-59.927	-0.248	0.104
-206.421	-3.787	0.202	-0.138
-205.406	-200.000	0.038	-0.245
-204.392	-200.000	0.037	-0.184
-203.377	800.000	0.052	0.218
-202.363	-200.000	-0.056	0.365
-201.348	-117.869	-0.170	-0.030
-200.333	-200.000	0.021	-0.167
-199.319	-200.000	-0.046	-0.348
-198.304	-84.610	0.132	0.041
-197.290	719.206	-0.073	-0.191
-196.275	-200.000	-0.031	0.329
-195.260	52.497	0.262	0.246
-194.246	78.764	-0.024	0.026
-193.231	800.000	0.048	0.170
-192.217	36.597	-0.160	0.139
-191.202	800.000	-0.087	0.254
-190.187	145.314	-0.184	0.243
-189.173	-107.932	0.083	-0.018
-188.158	-46.543	-0.429	-0.207
-187.144	202.380	0.140	0.212
-186.129	99.491	-0.023	0.027
-185.114	-200.000	0.012	0.080
-184.100	800.000	0.064	0.196
-183.085	18.272	-0.190	0.149
-182.071	800.000	0.032	0.119
-181.056	395.708	-0.164	0.337
-180.042	375.772	0.097	-0.196
-179.027	-98.308	0.165	0.042
-178.012	-121.668	-0.235	-0.038
-176.998	-77.005	-0.166	-0.057
-175.983	108.771	0.197	0.232
-174.969	82.033	0.149	0.159
-173.954	27.781	0.131	-0.109
-172.939	124.442	-0.180	0.223
-171.925	-14.628	-0.164	-0.103
-170.910	321.680	-0.134	-0.250
-169.896	55.782	-0.288	-0.275
-168.881	800.000	-0.064	-0.234
-167.866	607.393	-0.056	0.138
-166.852	38.942	0.077	-0.068
-165.837	-200.000	-0.062	-0.286
-164.823	138.846	-0.079	0.102
-163.808	-96.016	0.240	-0.063
-162.793	-200.000	0.016	-0.230
-161.779	-200.000	-0.025	0.247
-160.764	-36.203	-0.233	-0.124
-159.750	7.975	-0.039	0.028
-158.735	465.135	-0.061	-0.133
-157.720	800.000	0.091	0.295
-156.706	-200.000	0.256	-0.001
-155.691	609.272	0.062	-0.152
-154.677	32.155	-0.140	-0.118
-153.662	-150.769	0.248	0.019
-152.647	-69.616	-0.214	-0.080
-151.633	220.222	0.171	0.270
-150.618	150.937	0.211	0.282
-149.604	57.024	-0.272	0.261
-148.589	123.589	-0.303	-0.374
-147.574	407.624	-0.059	0.122
-146.560	-112.018	0.300	-0.059
-145.545	-13.456	0.152	0.097
-144.531	800.000	0.170	0.579
-143.516	108.973	-0.134	-0.158
-142.502	-200.000	-0.006	0.073
-141.487	109.497	0.067	0.079
-140.472	-45.250	0.140	-0.068
-139.458	405.401	-0.034	-0.070
-138.443	800.000	0.027	0.081
-137.429	330.702	0.059	0.112
-136.414	95.087	0.203	-0.228
-135.399	668.441	0.037	0.094
-134.385	-65.300	-0.251	-0.099
-133.370	800.000	-0.028	0.086
-132.356	-200.000	-0.066	0.406
-131.341	-25.316	-0.108	0.063
-130.326	-135.387	-0.258	-0.030
-129.312	-200.000	-0.041	-0.359
-128.297	-200.000	-0.087	0.390
-127.283	712.200	-0.187	0.486
-126.268	744.010	-0.156	-0.411
-125.253	-129.655	0.087	0.012
-124.239	-128.670	-0.039	0.005
-123.224	-93.884	-0.186	0.050
-122.210	-155.285	-0.169	-0.011
-121.195	-151.718	-0.160	0.012
