DTS Sentinel unit serial number:	SN413079Multiplexer serial number:	ORYXHardware model number:	OX4-SRSoftware version number:	ORYX F/W v4.00 Oryx Data Collector v3.7.2.0data status	okinstallation	princeton_trtdifferential loss correction	single-endedforward channel	channel 1reverse channel	N/Adate	2019/09/12time	15:48:11forward acquisition time	60.00reverse acquisition time	0.00gamma	496.2192k internal	0.2297k external	0.2297temperature offset calibration	1.0081default loss term (dB/km)	0.3790temperature slope calibration	1.0000multiplexer offset coefficient	1.0000multiplexer slope coefficient	1.0000fibre end	0.00T internal ref (°C)	39.70T ext. ref 1 (°C)	2.47T ext. ref 2 (°C)	32.41length (m)	temperature (°C)	Stokes	anti-Stokes-747.200	-73.238	0.275	0.103
-746.185	161.833	0.231	0.331
-745.171	-61.176	0.323	0.139
-744.156	-43.281	0.058	0.030
-743.142	168.294	-0.250	0.363
-742.127	-200.000	0.027	0.127
-741.112	208.899	-0.137	0.220
-740.098	445.494	0.143	-0.321
-739.083	-24.016	-0.147	0.089
-738.069	5.299	-0.168	0.127
-737.054	-151.169	0.200	-0.015
-736.039	-9.617	-0.183	0.124
-735.025	-200.000	-0.008	-0.122
-734.010	-103.845	-0.417	0.099
-732.996	-200.000	0.000	0.068
-731.981	-174.055	0.217	-0.006
-730.966	398.995	0.020	-0.042
-729.952	-44.277	0.206	-0.105
-728.937	-200.000	0.077	0.401
-727.923	149.512	-0.133	-0.184
-726.908	60.858	0.078	0.079
-725.894	102.207	-0.029	0.035
-724.879	800.000	-0.087	-0.385
-723.864	-200.000	0.022	-0.111
-722.850	-58.964	-0.139	-0.061
-721.835	-200.000	0.002	0.607
-720.821	78.455	0.081	0.089
-719.806	-25.928	-0.138	-0.083
-718.791	91.132	-0.243	0.278
-717.777	-169.089	-0.101	-0.004
-716.762	23.540	-0.120	-0.101
-715.748	50.825	0.095	-0.092
-714.733	-106.085	0.138	0.032
-713.718	122.384	0.197	-0.252
-712.704	800.000	-0.045	0.171
-711.689	511.508	-0.139	0.329
-710.675	-42.629	0.167	0.087
-709.660	5.538	-0.098	-0.074
-708.645	193.572	0.050	0.078
-707.631	147.194	-0.155	-0.212
-706.616	333.006	-0.097	0.191
-705.602	-139.212	0.092	0.010
-704.587	-28.165	-0.171	-0.101
-703.572	-112.591	0.343	-0.070
-702.558	-119.248	-0.405	-0.072
-701.543	-65.374	0.154	0.063
-700.529	69.199	-0.108	0.113
-699.514	-42.637	-0.089	0.046
-698.499	722.575	0.028	0.077
-697.485	102.570	-0.057	0.068
-696.470	305.270	0.196	-0.371
-695.456	-133.086	0.189	-0.024
-694.441	120.049	-0.166	0.210
-693.426	366.855	-0.096	-0.197
-692.412	800.000	0.081	-0.270
-691.397	-157.147	-0.350	0.022
-690.383	-4.337	-0.074	-0.052
-689.368	-200.000	0.030	-0.232
-688.354	-109.934	-0.120	0.026
-687.339	-157.744	-0.281	-0.017
-686.324	253.298	0.091	0.159
-685.310	-47.325	-0.207	0.103
-684.295	-71.237	-0.267	-0.102
-683.281	-143.335	-0.167	0.016
-682.266	167.329	-0.068	-0.098
-681.251	-40.673	-0.570	0.301
-680.237	7.483	0.195	-0.149
-679.222	-200.000	0.009	-0.152
-678.208	58.367	-0.261	0.260
-677.193	6.302	0.244	0.184
-676.178	-200.000	0.037	0.347
-675.164	227.084	-0.138	-0.228
-674.149	-135.865	-0.209	-0.025
-673.135	-98.732	0.025	0.007
-672.120	424.593	0.036	0.080
-671.105	-164.845	-0.202	0.009
-670.091	-77.554	-0.255	0.090
-669.076	-35.219	0.140	-0.077
-668.062	-144.766	0.151	-0.014
-667.047	653.183	0.111	0.289
-666.032	114.088	-0.156	-0.193
-665.018	232.455	0.053	-0.088
-664.003	-77.205	-0.363	-0.129
-662.989	441.370	-0.161	0.359
-661.974	9.806	-0.045	0.035
-660.959	-72.961	-0.188	-0.070
-659.945	-81.383	0.243	0.082
-658.930	-147.031	-0.162	0.014
-657.916	-102.614	-0.101	0.025
-656.901	208.354	0.191	0.305
-655.886	-200.000	0.032	0.335
-654.872	4.917	-0.105	0.079
-653.857	-27.430	0.117	0.069
-652.843	-20.719	-0.182	0.114
-651.828	151.712	0.295	0.409
-650.814	65.092	-0.114	0.117
-649.799	688.649	0.159	-0.424
-648.784	11.654	0.203	-0.159
-647.770	-93.451	0.176	0.050
-646.755	-115.675	-0.241	-0.046
-645.741	73.938	-0.039	-0.042
-644.726	-200.000	0.007	0.151
-643.711	161.993	0.027	0.039
-642.697	-191.589	-0.392	-0.004
-641.682	-200.000	-0.031	-0.172
-640.668	-200.000	-0.007	-0.124
-639.653	-58.965	-0.337	-0.148
-638.638	-200.000	-0.009	-0.240
-637.624	-44.749	-0.230	0.117
-636.609	-95.058	0.175	-0.048
-635.595	317.984	-0.134	0.259
-634.580	-133.410	-0.343	-0.044
-633.565	31.271	0.230	-0.201
-632.551	7.272	0.302	-0.230
-631.536	435.089	-0.160	-0.355
-630.522	-91.830	-0.273	0.079
-629.507	800.000	0.059	0.174
-628.492	169.451	-0.124	0.180
-627.478	-157.423	0.300	0.018
-626.463	40.138	0.082	-0.075
-625.449	281.639	0.098	0.178
-624.434	-34.410	0.437	0.243
-623.419	-200.000	-0.029	-0.307
-622.405	9.944	-0.201	-0.155
-621.390	38.559	-0.099	0.090
-620.376	-74.588	-0.403	0.147
-619.361	-64.216	0.214	0.089
-618.346	37.327	-0.091	-0.082
-617.332	8.154	0.281	-0.214
-616.317	2.075	-0.047	-0.035
-615.303	-200.000	0.005	0.334
-614.288	-130.267	0.336	0.046
-613.273	-127.030	0.237	-0.035
-612.259	107.881	-0.143	-0.173
-611.244	800.000	0.121	0.383
-610.230	-133.453	-0.436	0.056
-609.215	247.005	0.103	-0.177
-608.201	86.532	0.386	0.433
-607.186	-200.000	-0.045	0.361
-606.171	98.094	-0.080	-0.093
-605.157	29.853	0.151	-0.131
-604.142	-200.000	0.023	0.123
-603.128	-200.000	-0.020	-0.118
-602.113	121.967	-0.196	-0.248
-601.098	-97.267	0.244	0.065
-600.084	-104.697	0.265	-0.062
-599.069	-200.000	0.011	-0.181
-598.055	-200.000	-0.019	0.345
-597.040	800.000	-0.040	0.141
-596.025	-97.467	0.031	-0.008
-595.011	-200.000	-0.022	-0.114
-593.996	-84.006	0.033	-0.011
-592.982	-65.263	0.089	0.036
-591.967	11.315	0.172	0.134
-590.952	-18.217	0.217	0.138
-589.938	293.381	0.097	-0.179
-588.923	-127.581	-0.211	-0.031
-587.909	12.353	0.152	0.119
-586.894	99.200	0.084	-0.098
-585.879	322.803	0.161	0.311
-584.865	-69.547	0.145	-0.056
-583.850	-200.000	-0.004	-0.122
-582.836	-200.000	0.032	-0.248
-581.821	-80.711	-0.158	0.053
-580.806	-105.624	0.196	-0.045
-579.792	212.955	0.201	-0.322
-578.777	-87.663	-0.347	0.106
-577.763	-120.721	0.173	-0.030
-576.748	-113.612	0.152	0.030
-575.733	71.025	0.131	-0.138
-574.719	23.073	0.063	0.053
-573.704	-63.405	-0.409	-0.171
-572.690	189.539	-0.207	0.315
-571.675	-200.000	-0.024	0.122
-570.661	10.351	-0.203	-0.157
-569.646	234.159	-0.138	-0.231
-568.631	-200.000	-0.043	-0.258
-567.617	-126.013	-0.168	0.026
-566.602	430.920	0.083	0.183
-565.588	621.194	-0.043	-0.109
-564.573	366.565	0.097	0.199
-563.558	27.878	0.185	-0.158
-562.544	-80.188	0.369	-0.125
-561.529	-124.553	0.361	0.057
-560.515	-131.546	-0.225	0.030
-559.500	-4.883	-0.050	0.035
-558.485	-165.240	0.172	0.008
-557.471	41.912	-0.178	0.164
-556.456	800.000	0.021	-0.079
-555.442	297.463	-0.074	-0.139
-554.427	-107.544	0.149	-0.033
-553.412	711.322	-0.017	0.046
-552.398	-118.542	0.132	0.024
-551.383	316.677	0.074	0.142
-550.369	-50.325	0.244	-0.117
-549.354	-150.896	0.132	0.010
-548.339	-85.333	-0.203	-0.064
-547.325	-102.445	-0.256	0.062
-546.310	6.801	-0.522	-0.394
-545.296	-200.000	0.064	0.362
-544.281	-200.000	0.036	0.227
-543.266	432.387	-0.098	0.216
-542.252	-200.000	0.013	0.314
-541.237	-200.000	0.034	0.186
-540.223	-11.167	-0.380	-0.254
-539.208	528.059	0.083	-0.199
-538.193	-200.000	-0.001	0.017
-537.179	60.880	0.199	-0.200
-536.164	30.285	-0.248	0.215
-535.150	-200.000	-0.034	0.187
-534.135	-34.872	0.204	-0.113
-533.121	-200.000	-0.002	-0.076
-532.106	130.664	0.125	-0.162
-531.091	-90.990	-0.209	-0.061
-530.077	75.263	-0.066	0.071
-529.062	318.409	-0.089	0.170
-528.048	-30.138	-0.410	0.236
-527.033	149.046	0.083	0.114
-526.018	360.674	-0.038	-0.076
-525.004	-1.210	0.065	0.046
-523.989	-200.000	0.000	-0.056
-522.975	120.605	0.015	-0.019
-521.960	-200.000	-0.027	0.164
-520.945	154.134	0.136	-0.188
-519.931	-60.529	0.152	-0.065
-518.916	-200.000	0.002	-0.168
-517.902	800.000	0.114	0.348
-516.887	376.669	0.172	0.356
-515.872	45.515	0.289	-0.270
-514.858	220.061	-0.104	0.168
-513.843	-200.000	0.012	0.055
-512.829	125.304	-0.232	0.296
-511.814	5.118	-0.129	0.096
-510.799	-7.422	-0.230	-0.158
-509.785	318.490	-0.087	-0.167
-508.770	800.000	0.059	-0.172
-507.756	-173.859	0.079	0.002
-506.741	800.000	0.063	-0.245
-505.726	-7.296	0.273	-0.187
-504.712	-133.145	-0.023	-0.003
-503.697	-8.503	0.134	-0.091
-502.683	-109.240	0.088	0.019
-501.668	-200.000	-0.011	-0.228
-500.653	14.275	0.274	-0.216
-499.639	-27.114	-0.360	-0.212
-498.624	26.578	-0.119	0.101
-497.610	-68.585	0.349	-0.137
-496.595	58.806	-0.216	-0.214
-495.581	7.484	0.151	0.114
-494.566	800.000	-0.070	-0.284
-493.551	-139.568	-0.166	0.018
-492.537	-10.122	-0.051	-0.034
-491.522	-200.000	0.013	0.078
-490.508	-109.237	-0.242	0.052
-489.493	-136.765	-0.444	0.052
-488.478	-160.071	0.331	-0.018
-487.464	-200.000	0.066	-0.365
-486.449	162.839	-0.119	0.169
-485.435	639.619	-0.135	-0.346
-484.420	-123.398	0.227	-0.037
-483.405	104.769	-0.075	-0.089
-482.391	-200.000	-0.043	-0.229
-481.376	-192.318	-0.324	0.003
-480.362	-41.724	0.154	-0.080
-479.347	-166.171	-0.423	-0.018
-478.332	94.520	0.222	0.255
-477.318	-200.000	0.023	0.159
-476.303	800.000	-0.077	-0.334
-475.289	-200.000	0.015	0.103
-474.274	226.935	-0.155	-0.254
-473.259	25.883	0.183	-0.154
-472.245	-70.576	-0.089	-0.034
-471.230	-9.138	-0.277	0.187
-470.216	268.991	0.123	-0.217
-469.201	800.000	0.011	-0.041
-468.186	800.000	0.047	-0.150
-467.172	-89.990	0.291	-0.086
-466.157	-32.945	-0.329	-0.185
-465.143	506.251	-0.076	-0.177
-464.128	-144.829	-0.234	-0.022
-463.113	63.403	0.166	-0.168
-462.099	118.053	0.168	-0.209
-461.084	303.176	0.207	0.387
-460.070	-121.677	0.086	0.014
-459.055	-71.340	-0.331	0.125
-458.040	-85.555	-0.108	0.034
-457.026	643.947	0.043	-0.111
-456.011	585.217	0.108	-0.269
-454.997	-49.823	-0.261	0.125
-453.982	-144.758	0.361	-0.034
-452.968	51.609	-0.135	-0.129
-451.953	-110.737	-0.104	-0.022
-450.938	800.000	-0.032	0.106
-449.924	167.003	-0.168	-0.240
-448.909	-127.905	0.346	0.050
-447.895	206.148	0.084	0.132
-446.880	474.030	-0.094	0.215
-445.865	174.350	-0.094	0.137
-444.851	288.587	0.048	0.089
-443.836	-99.992	0.118	-0.030
-442.822	-65.487	0.112	0.045
-441.807	-144.436	0.252	-0.024
-440.792	-200.000	0.034	-0.327
-439.778	66.700	0.154	0.158
-438.763	136.825	0.234	-0.308
-437.749	-124.554	-0.091	0.014
-436.734	800.000	0.013	0.038
-435.719	-200.000	0.024	0.143
-434.705	25.057	-0.040	-0.033
-433.690	50.785	0.181	0.172
-432.676	-114.747	-0.380	-0.073
-431.661	-60.729	-0.182	-0.078
-430.646	-200.000	-0.013	-0.207
-429.632	-29.861	0.206	-0.119
-428.617	289.846	-0.129	0.236
-427.603	-87.043	-0.204	0.063
-426.588	-33.112	-0.231	0.129
-425.573	-125.415	-0.262	-0.040
-424.559	371.920	0.022	0.044
-423.544	-198.810	-0.287	-0.002
-422.530	-123.963	-0.118	-0.019
-421.515	-103.303	-0.039	0.009
-420.500	-69.608	0.025	0.009
-419.486	-200.000	0.001	-0.199
-418.471	-65.200	-0.331	-0.134
-417.457	-200.000	0.046	-0.204
-416.442	-150.717	-0.149	0.011
-415.428	138.055	0.160	0.211
-414.413	-142.858	-0.214	-0.021
-413.398	328.180	0.073	-0.142
-412.384	-200.000	0.020	0.186
-411.369	800.000	-0.047	-0.202
-410.355	565.394	0.048	0.118
-409.340	-43.268	0.362	0.185
-408.325	112.252	-0.140	0.171
-407.311	-59.593	-0.147	-0.064
-406.296	-200.000	0.027	-0.401
-405.282	536.069	0.030	-0.073
-404.267	-45.424	0.234	-0.117
-403.252	-200.000	-0.051	-0.334
-402.238	-71.432	0.073	-0.028
-401.223	-200.000	-0.004	-0.087
-400.209	130.149	-0.127	0.164
-399.194	640.785	0.085	0.218
-398.179	190.275	-0.109	0.164
-397.165	11.168	-0.134	0.103
-396.150	-93.673	-0.274	0.076
-395.136	10.111	0.208	0.159
-394.121	-200.000	0.007	-0.071
-393.106	800.000	-0.067	-0.186
-392.092	800.000	-0.020	-0.065
-391.077	-83.489	0.223	-0.072
-390.063	129.411	0.078	-0.100
-389.048	-115.354	0.091	-0.017
-388.033	800.000	-0.029	0.100
-387.019	-171.698	-0.232	-0.008
-386.004	-27.205	0.076	0.045
-384.990	90.408	0.116	-0.131
-383.975	800.000	0.099	-0.295
-382.960	-104.447	-0.110	0.026
-381.946	83.815	0.053	0.058
-380.931	6.737	0.113	0.085
-379.917	-18.854	-0.141	-0.088
-378.902	390.794	-0.062	0.129
-377.888	8.453	0.103	-0.078
-376.873	-200.000	0.022	0.140
-375.858	-177.570	-0.187	0.005
-374.844	6.411	0.193	-0.144
-373.829	-200.000	0.023	-0.259
-372.815	-61.750	-0.231	0.097
-371.800	-19.642	0.085	-0.053
-370.785	-200.000	0.046	0.427
-369.771	74.682	0.089	0.095
-368.756	-140.180	-0.184	-0.019
-367.742	166.413	-0.066	-0.095
-366.727	-71.515	0.200	-0.075
-365.712	-58.329	-0.087	-0.038
-364.698	800.000	0.063	-0.188
-363.683	-9.384	-0.205	-0.137
-362.669	-200.000	0.044	-0.265
-361.654	-122.594	-0.343	0.056
-360.639	-200.000	-0.024	0.306
-359.625	155.237	-0.206	0.285
-358.610	-170.209	-0.496	-0.018
-357.596	-200.000	0.029	-0.157
-356.581	260.196	-0.082	-0.143
-355.566	-88.468	-0.149	0.045
-354.552	601.443	-0.105	0.263
-353.537	23.525	0.097	0.080
-352.523	800.000	0.150	0.557
-351.508	-54.990	-0.343	-0.155
-350.493	61.989	-0.222	0.223
-349.479	800.000	-0.049	-0.161
-348.464	101.003	0.137	0.160
-347.450	400.013	-0.083	0.176
-346.435	-143.085	-0.150	0.015
-345.420	-29.533	-0.245	-0.141
-344.406	211.422	-0.041	-0.065
-343.391	39.313	0.281	0.253
-342.377	18.371	0.317	-0.254
-341.362	800.000	0.005	0.021
-340.348	39.435	-0.141	-0.127
-339.333	44.086	-0.240	0.221
-338.318	-80.386	0.064	-0.022
-337.304	-119.021	-0.085	-0.015
-336.289	241.613	0.095	0.160
-335.275	-75.364	0.193	0.069
-334.260	17.202	0.112	0.089
-333.245	-143.760	-0.231	0.022
-332.231	-161.396	0.157	-0.008
-331.216	-116.097	-0.209	0.039
-330.202	-127.093	0.334	-0.049
-329.187	-82.546	0.172	0.056
-328.172	-147.062	0.145	-0.012
-327.158	222.394	0.140	0.226
-326.143	156.050	-0.073	0.102
-325.129	-21.391	0.186	0.114
-324.114	295.533	0.135	0.249
-323.099	42.471	0.359	0.328
-322.085	736.636	0.089	0.239
-321.070	-200.000	0.020	-0.127
-320.056	-146.536	0.098	-0.009
-319.041	-200.000	-0.028	0.478
-318.026	167.642	-0.085	0.121
-317.012	-200.000	0.002	0.230
-315.997	-200.000	-0.000	0.157
-314.983	-200.000	0.017	0.154
-313.968	-200.000	0.006	0.392
-312.953	-33.014	0.125	0.070
-311.939	645.533	0.060	0.154
-310.924	-200.000	0.002	-0.034
-309.910	55.996	0.208	0.203
-308.895	-200.000	-0.007	0.041
-307.880	-191.797	0.108	0.001
-306.866	-34.283	-0.214	-0.118
-305.851	-101.128	0.300	-0.074
-304.837	800.000	-0.051	-0.191
-303.822	-200.000	0.030	-0.222
-302.807	-127.445	-0.086	-0.012
-301.793	-30.032	0.216	-0.123
-300.778	20.832	0.224	0.183
-299.764	39.696	-0.288	-0.260
-298.749	242.504	-0.168	-0.283
-297.735	-28.768	0.087	0.050
-296.720	-23.322	0.272	-0.164
-295.705	-1.573	-0.196	0.139
-294.691	-80.706	0.311	-0.104
-293.676	-43.703	0.118	0.060
-292.662	110.504	-0.147	0.177
-291.647	124.745	-0.109	0.138
-290.632	-43.907	0.173	-0.087
-289.618	130.031	0.171	-0.220
-288.603	13.206	0.043	-0.033
-287.589	136.526	0.067	0.088
-286.574	-7.069	0.375	0.255
-285.559	197.137	0.021	-0.032
-284.545	-103.113	0.271	-0.064
-283.530	-86.907	-0.279	0.086
-282.516	-87.212	-0.308	-0.094
-281.501	-200.000	-0.038	-0.239
-280.486	139.664	0.112	-0.148
-279.472	-74.250	0.097	-0.035
-278.457	-129.954	0.322	-0.044
-277.443	48.130	-0.194	0.182
-276.428	-200.000	-0.031	-0.299
-275.413	-42.084	0.097	0.050
-274.399	-158.890	0.320	-0.018
-273.384	122.511	0.134	-0.168
-272.370	285.438	0.037	-0.066
-271.355	-200.000	-0.033	0.260
-270.340	12.129	-0.139	-0.107
-269.326	-200.000	0.011	-0.097
-268.311	387.053	0.161	-0.333
-267.297	197.227	0.257	-0.392
-266.282	-146.691	-0.108	-0.009
-265.267	-200.000	-0.030	0.269
-264.253	6.333	-0.093	0.069
-263.238	193.624	0.033	-0.050
-262.224	231.966	0.098	-0.162
-261.209	298.800	0.110	-0.203
-260.195	-61.474	-0.216	0.091
-259.180	75.082	-0.240	0.253
-258.165	-58.796	0.316	0.137
-257.151	-42.676	-0.104	0.053
-256.136	349.748	0.170	-0.336
-255.122	-63.777	-0.320	-0.131
-254.107	166.975	0.139	-0.198
-253.092	-139.714	0.063	0.007
-252.078	-25.151	0.064	0.038
-251.063	-161.001	0.296	-0.016
-250.049	-200.000	0.025	0.413
-249.034	48.871	-0.148	-0.139
-248.019	-20.258	-0.322	0.199
-247.005	50.654	-0.102	-0.097
-245.990	436.091	-0.080	-0.175
-244.976	800.000	0.093	-0.262
-243.961	132.632	-0.082	-0.106
-242.946	338.287	0.158	0.309
-241.932	-38.233	0.245	0.130
-240.917	73.023	-0.186	-0.195
-239.903	171.595	0.081	-0.116
-238.888	-200.000	0.038	-0.341
-237.873	800.000	-0.009	0.034
-236.859	-140.976	-0.220	0.023
-235.844	-88.890	0.198	-0.059
-234.830	290.688	-0.056	-0.102
-233.815	-73.890	0.183	-0.067
-232.800	197.660	-0.259	0.397
-231.786	-200.000	0.053	-0.283
-230.771	297.924	-0.078	-0.143
-229.757	362.904	-0.086	0.172
-228.742	-178.847	-0.047	0.001
-227.727	90.074	-0.271	-0.303
-226.713	142.879	-0.278	0.370
-225.698	-200.000	-0.032	0.177
-224.684	258.467	0.097	0.167
-223.669	-57.108	0.182	-0.080
-222.655	-176.172	0.221	0.006
-221.640	756.443	-0.107	0.289
-220.625	-68.612	0.146	0.057
-219.611	-77.926	-0.268	-0.093
-218.596	-13.199	0.045	0.029
-217.582	135.505	0.226	0.294
-216.567	277.260	-0.067	-0.119
-215.552	-60.891	0.283	0.120
-214.538	163.765	-0.156	0.220
-213.523	-200.000	-0.012	-0.144
-212.509	23.496	0.151	0.124
-211.494	-200.000	-0.010	0.467
-210.479	-200.000	0.014	0.322
-209.465	800.000	-0.111	0.369
-208.450	800.000	-0.038	-0.112
-207.436	-135.825	0.250	0.030
-206.421	384.831	-0.135	-0.278
-205.406	100.017	0.156	0.181
-204.392	9.383	-0.034	0.026
-203.377	281.191	-0.146	-0.261
-202.363	800.000	0.039	-0.112
-201.348	-25.783	-0.230	-0.136
-200.333	-200.000	0.007	-0.071
-199.319	800.000	-0.036	-0.154
-198.304	-200.000	-0.016	-0.196
-197.290	256.585	-0.119	0.204
-196.275	-200.000	-0.037	-0.165
-195.260	-106.755	-0.412	0.091
-194.246	-95.435	0.209	-0.056
-193.231	269.473	0.132	-0.232
-192.217	-33.840	0.057	0.031
-191.202	-200.000	-0.030	0.173
-190.187	25.027	-0.147	-0.122
-189.173	403.919	-0.076	-0.159
-188.158	65.103	-0.094	-0.095
-187.144	800.000	0.137	0.407
-186.129	17.176	0.049	0.039
-185.114	267.872	0.056	-0.097
-184.100	800.000	0.016	0.045
-183.085	50.473	-0.064	0.060
-182.071	-45.538	-0.301	0.149
-181.056	228.684	0.164	0.267
-180.042	-200.000	0.013	0.074
-179.027	-37.736	0.253	0.134
-178.012	-200.000	-0.041	0.249
-176.998	117.079	0.056	0.069
-175.983	354.239	-0.123	0.245
-174.969	129.906	-0.296	0.379
-173.954	212.815	0.130	0.205
-172.939	3.135	-0.168	-0.122
-171.925	-61.525	-0.285	-0.119
-170.910	-150.221	0.228	0.018
-169.896	-77.044	0.152	0.053
-168.881	-200.000	0.039	-0.464
-167.866	800.000	-0.014	-0.051
-166.852	-195.534	0.206	-0.002
-165.837	-96.224	0.557	-0.147
-164.823	263.131	0.107	0.185
-163.808	45.233	0.062	0.057
-162.793	-85.452	-0.128	0.040
-161.779	51.213	-0.162	0.153
-160.764	800.000	0.018	-0.070
-159.750	-80.116	-0.125	0.042
-158.735	-200.000	0.007	0.066
-157.720	30.987	-0.373	-0.319
-156.706	-200.000	-0.064	0.343
-155.691	128.707	-0.082	0.104
-154.677	-119.748	-0.335	-0.058
-153.662	-93.328	-0.105	0.029
-152.647	-45.512	0.159	-0.079
-151.633	-13.028	0.099	-0.064
-150.618	-200.000	0.028	0.145
-149.604	800.000	0.074	0.263
-148.589	-102.828	0.345	-0.082
-147.574	-200.000	0.027	0.262
-146.560	-200.000	0.073	0.325
-145.545	-140.973	0.073	0.007
-144.531	299.293	-0.083	0.153
-143.516	-58.671	0.094	-0.041
-142.502	3.030	0.132	-0.096
-141.487	-96.619	0.046	-0.012
-140.472	-11.540	0.178	0.117
-139.458	800.000	0.014	0.046
-138.443	-71.159	0.162	0.061
-137.429	800.000	0.064	-0.205
-136.414	213.767	-0.174	0.275
-135.399	-15.142	0.169	0.108
-134.385	-16.151	-0.176	0.112
-133.370	-179.716	0.504	0.011
-132.356	-200.000	-0.021	-0.197
-131.341	800.000	-0.082	-0.349
-130.326	-48.042	0.169	-0.081
-129.312	-17.731	0.087	0.054
-128.297	403.915	0.226	0.475
-127.283	-33.084	0.155	-0.086
-126.268	136.672	0.123	0.160
-125.253	-200.000	0.013	-0.154
-124.239	223.459	0.187	-0.301
-123.224	-76.888	0.187	0.065
-122.210	368.186	-0.162	0.326
-121.195	156.281	0.076	0.104
-120.180	-58.855	0.083	-0.036
