DTS Sentinel unit serial number:	SN413079Multiplexer serial number:	ORYXHardware model number:	OX4-SRSoftware version number:	ORYX F/W v4.00 Oryx Data Collector v3.7.2.0data status	okinstallation	princeton_trtdifferential loss correction	single-endedforward channel	channel 1reverse channel	N/Adate	2019/09/18time	00:46:35forward acquisition time	60.00reverse acquisition time	0.00gamma	496.2192k internal	0.2341k external	0.2341temperature offset calibration	0.9981default loss term (dB/km)	0.3790temperature slope calibration	1.0000multiplexer offset coefficient	1.0000multiplexer slope coefficient	1.0000fibre end	0.00T internal ref (°C)	23.41T ext. ref 1 (°C)	0.16T ext. ref 2 (°C)	17.01length (m)	temperature (°C)	Stokes	anti-Stokes-747.200	142.928	-0.125	0.167
-746.185	-153.082	0.398	0.028
-745.171	192.869	-0.020	-0.030
-744.156	249.416	-0.191	0.325
-743.142	-200.000	-0.016	0.345
-742.127	89.831	-0.156	0.175
-741.112	9.837	-0.128	-0.097
-740.098	-200.000	-0.011	0.083
-739.083	-200.000	0.034	-0.164
-738.069	42.672	-0.274	0.250
-737.054	-200.000	-0.053	0.398
-736.039	-116.667	0.177	0.033
-735.025	6.851	0.171	0.127
-734.010	-79.190	-0.349	0.119
-732.996	186.313	-0.106	-0.158
-731.981	117.845	0.100	0.124
-730.966	800.000	0.080	0.318
-729.952	800.000	-0.071	-0.197
-728.937	800.000	-0.028	-0.123
-727.923	-32.383	0.371	-0.208
-726.908	800.000	-0.150	0.461
-725.894	425.041	0.057	0.122
-724.879	196.317	0.260	0.396
-723.864	-22.173	-0.081	0.049
-722.850	-103.625	-0.220	0.052
-721.835	-77.003	0.382	0.134
-720.821	-143.427	-0.483	-0.046
-719.806	-181.163	0.114	-0.002
-718.791	-43.154	0.244	0.124
-717.777	-123.940	0.137	-0.022
-716.762	-92.959	0.197	-0.055
-715.748	-200.000	-0.015	-0.124
-714.733	-2.169	-0.110	-0.077
-713.718	93.801	-0.076	-0.086
-712.704	-129.302	-0.442	-0.062
-711.689	14.965	-0.066	0.052
-710.675	-200.000	-0.016	0.093
-709.660	555.831	0.034	-0.081
-708.645	800.000	-0.109	0.336
-707.631	-200.000	0.035	0.242
-706.616	41.094	-0.135	0.122
-705.602	800.000	0.139	-0.444
-704.587	800.000	0.087	0.250
-703.572	-68.554	-0.111	0.043
-702.558	48.208	-0.345	0.323
-701.543	333.949	-0.129	-0.251
-700.529	-115.892	-0.093	0.017
-699.514	82.502	-0.202	0.219
-698.499	316.708	-0.151	-0.286
-697.485	-20.312	-0.193	-0.119
-696.470	6.725	-0.061	-0.046
-695.456	327.052	-0.074	0.143
-694.441	218.345	-0.255	-0.408
-693.426	800.000	0.098	-0.305
-692.412	-123.696	-0.083	-0.013
-691.397	278.351	-0.058	-0.104
-690.383	352.831	0.063	-0.125
-689.368	72.833	0.172	0.179
-688.354	-169.293	-0.252	0.009
-687.339	-133.549	0.261	-0.033
-686.324	-38.012	0.301	-0.160
-685.310	281.010	0.103	0.184
-684.295	-99.039	-0.328	-0.083
-683.281	-200.000	0.013	-0.173
-682.266	-200.000	0.023	-0.208
-681.251	184.658	-0.231	0.342
-680.237	800.000	0.058	-0.179
-679.222	-45.316	-0.172	-0.085
-678.208	161.236	0.064	-0.090
-677.193	28.472	-0.450	-0.381
-676.178	-35.356	-0.279	0.151
-675.164	-128.656	0.161	-0.023
-674.149	-90.018	-0.406	-0.118
-673.135	-118.463	0.134	0.024
-672.120	-48.639	0.043	0.020
-671.105	-83.738	0.115	-0.037
-670.091	578.322	-0.095	-0.233
-669.076	-48.206	-0.252	0.122
-668.062	-200.000	-0.084	-0.373
-667.047	800.000	0.107	-0.297
-666.032	-72.548	-0.331	0.122
-665.018	354.186	0.086	-0.170
-664.003	-55.810	-0.360	0.161
-662.989	215.878	-0.069	-0.110
-661.974	800.000	0.128	0.402
-660.959	-200.000	-0.038	0.655
-659.945	38.481	-0.185	-0.165
-658.930	75.116	0.203	0.213
-657.916	-200.000	0.058	-0.338
-656.901	2.602	0.263	-0.190
-655.886	156.235	-0.099	-0.137
-654.872	-200.000	0.204	0.001
-653.857	800.000	-0.081	-0.227
-652.843	37.820	-0.176	0.156
-651.828	-161.212	0.161	-0.008
-650.814	318.145	-0.166	-0.315
-649.799	-70.632	0.263	0.099
-648.784	465.893	-0.032	-0.071
-647.770	-101.720	-0.106	0.026
-646.755	-46.849	-0.293	0.143
-645.741	-59.186	0.095	0.041
-644.726	800.000	0.057	-0.241
-643.711	-200.000	-0.002	-0.087
-642.697	-200.000	-0.069	-0.343
-641.682	-200.000	-0.012	-0.111
-640.668	800.000	0.102	-0.387
-639.653	-36.873	0.106	0.057
-638.638	-200.000	-0.053	-0.470
-637.624	177.822	0.177	-0.258
-636.609	-95.624	0.181	-0.048
-635.595	-70.062	-0.288	0.109
-634.580	-65.836	0.253	-0.101
-633.565	-200.000	-0.022	0.363
-632.551	-100.163	0.133	-0.033
-631.536	524.311	-0.155	0.364
-630.522	-130.780	-0.422	0.057
-629.507	-200.000	0.035	-0.270
-628.492	-61.274	0.187	-0.079
-627.478	-83.104	0.084	-0.027
-626.463	41.247	0.056	0.050
-625.449	442.442	0.108	0.235
-624.434	800.000	0.138	0.381
-623.419	282.578	-0.137	0.245
-622.405	-200.000	-0.004	-0.082
-621.390	29.445	-0.136	0.115
-620.376	195.344	0.184	-0.279
-619.361	-200.000	-0.048	0.224
-618.346	499.516	0.069	0.158
-617.332	-200.000	-0.006	-0.369
-616.317	-53.865	0.250	-0.114
-615.303	2.413	-0.113	-0.082
-614.288	731.215	0.065	-0.173
-613.273	-85.828	-0.068	-0.021
-612.259	-200.000	0.006	0.215
-611.244	515.038	-0.053	0.122
-610.230	58.672	0.194	-0.190
-609.215	51.593	-0.166	-0.157
-608.201	-74.870	0.211	0.075
-607.186	800.000	0.029	0.091
-606.171	800.000	-0.064	-0.259
-605.157	800.000	0.030	-0.088
-604.142	90.531	0.104	0.116
-603.128	184.325	-0.107	0.158
-602.113	-58.842	-0.394	-0.170
-601.098	281.770	0.094	-0.167
-600.084	-183.094	0.095	-0.002
-599.069	107.158	-0.109	-0.129
-598.055	-156.870	0.217	-0.013
-597.040	-119.658	0.283	0.049
-596.025	-112.420	0.258	-0.051
-595.011	-149.109	0.034	0.003
-593.996	-42.395	-0.265	0.135
-592.982	800.000	0.087	0.321
-591.967	-75.283	-0.072	-0.026
-590.952	-121.268	0.208	0.035
-589.938	151.741	0.169	0.229
-588.923	-98.715	0.367	-0.093
-587.909	-128.373	0.228	-0.032
-586.894	65.462	-0.178	0.179
-585.879	20.362	-0.131	0.105
-584.865	284.405	-0.112	-0.201
-583.850	656.314	0.099	-0.253
-582.836	213.105	0.073	-0.114
-581.821	535.175	0.058	0.137
-580.806	-122.717	0.574	0.092
-579.792	27.264	-0.237	0.198
-578.777	-74.683	0.315	0.113
-577.763	-60.694	-0.096	-0.041
-576.748	255.064	-0.175	-0.299
-575.733	-200.000	-0.010	0.112
-574.719	121.114	0.163	0.202
-573.704	-144.139	0.264	-0.025
-572.690	-34.165	-0.266	0.145
-571.675	428.829	0.121	0.261
-570.661	-100.058	-0.033	-0.008
-569.646	161.970	0.144	0.200
-568.631	-200.000	-0.002	-0.057
-567.617	394.791	0.152	0.316
-566.602	-200.000	0.005	-0.157
-565.588	-50.437	-0.453	-0.213
-564.573	-10.251	-0.159	-0.105
-563.558	106.903	0.116	-0.137
-562.544	70.762	0.159	0.163
-561.529	170.045	-0.118	-0.168
-560.515	-200.000	-0.022	0.186
-559.500	456.189	-0.088	0.193
-558.485	-142.809	0.354	-0.034
-557.471	521.342	0.062	0.146
-556.456	170.443	-0.016	0.023
-555.442	211.022	-0.134	0.209
-554.427	-101.129	0.405	-0.099
-553.412	800.000	-0.071	-0.293
-552.398	-177.277	-0.461	0.011
-551.383	586.019	-0.058	0.143
-550.369	16.549	0.203	0.160
-549.354	-177.298	-0.376	-0.009
-548.339	224.381	-0.156	0.251
-547.325	197.378	0.133	-0.201
-546.310	-200.000	0.008	0.258
-545.296	-123.453	-0.216	-0.034
-544.281	800.000	-0.044	-0.184
-543.266	173.308	0.205	-0.294
-542.252	-200.000	-0.002	0.125
-541.237	-200.000	0.008	0.127
-540.223	-200.000	0.043	0.271
-539.208	-138.767	0.251	-0.027
-538.193	414.336	-0.151	-0.321
-537.179	-200.000	-0.046	-0.301
-536.164	201.451	0.065	0.099
-535.150	-200.000	0.041	-0.233
-534.135	-89.643	0.145	0.042
-533.121	-200.000	-0.025	0.202
-532.106	-92.859	0.091	-0.025
-531.091	-170.068	0.090	-0.003
-530.077	-140.744	-0.299	-0.031
-529.062	-200.000	-0.002	0.027
-528.048	130.710	0.121	0.154
-527.033	-200.000	-0.003	-0.336
-526.018	-19.995	0.195	-0.119
-525.004	-139.421	-0.317	0.034
-523.989	-158.280	-0.227	0.013
-522.975	69.150	-0.276	0.282
-521.960	-200.000	-0.028	0.150
-520.945	-200.000	-0.042	0.255
-519.931	-200.000	-0.070	0.344
-518.916	-58.170	-0.381	0.165
-517.902	115.259	-0.271	0.329
-516.887	-125.871	0.043	0.006
-515.872	-9.205	-0.120	0.079
-514.858	-37.782	-0.184	0.097
-513.843	-200.000	0.009	0.086
-512.829	-83.343	0.291	-0.093
-511.814	-74.296	0.129	-0.046
-510.799	800.000	-0.050	-0.184
-509.785	-200.000	-0.017	0.114
-508.770	800.000	-0.154	-0.520
-507.756	342.561	0.068	-0.133
-506.741	754.322	-0.092	-0.247
-505.726	800.000	-0.038	-0.114
-504.712	-130.781	0.362	0.048
-503.697	6.600	0.072	0.053
-502.683	800.000	-0.037	0.137
-501.668	36.349	0.114	-0.100
-500.653	-200.000	-0.050	0.319
-499.639	-65.419	0.252	-0.100
-498.624	16.283	-0.156	-0.122
-497.610	-41.260	0.030	0.015
-496.595	703.642	0.051	0.133
-495.581	-62.320	0.135	-0.056
-494.566	-59.934	-0.123	0.052
-493.551	-137.230	-0.189	-0.021
-492.537	800.000	0.032	0.113
-491.522	-131.430	0.057	-0.008
-490.508	-112.425	-0.149	0.030
-489.493	-30.966	0.349	-0.196
-488.478	202.104	0.175	0.268
-487.464	-200.000	-0.068	-0.314
-486.449	575.589	0.206	-0.499
-485.435	-200.000	0.045	-0.285
-484.420	101.879	0.174	-0.202
-483.405	420.156	-0.182	0.386
-482.391	121.951	-0.168	-0.208
-481.376	-200.000	-0.054	-0.447
-480.362	128.350	0.175	0.221
-479.347	-59.678	-0.490	-0.208
-478.332	-61.504	-0.213	0.089
-477.318	-151.225	0.519	-0.039
-476.303	-30.046	-0.275	-0.155
-475.289	-26.365	0.162	-0.094
-474.274	355.481	0.058	0.114
-473.259	-200.000	-0.025	-0.158
-472.245	110.564	-0.257	0.306
-471.230	-163.619	0.385	-0.018
-470.216	800.000	0.062	0.208
-469.201	-107.059	0.312	-0.068
-468.186	-200.000	-0.018	0.103
-467.172	61.686	-0.060	0.059
-466.157	-65.451	0.347	0.138
-465.143	800.000	0.117	0.379
-464.128	16.930	-0.323	0.254
-463.113	640.489	0.092	-0.231
-462.099	76.017	0.015	-0.015
-461.084	-185.074	-0.225	0.003
-460.070	139.302	0.073	-0.095
-459.055	406.876	0.056	0.116
-458.040	639.535	-0.229	-0.578
-457.026	405.251	0.070	0.145
-456.011	-25.705	0.140	-0.082
-454.997	134.733	0.138	0.177
-453.982	-126.860	0.151	-0.022
-452.968	-200.000	0.049	-0.358
-451.953	10.173	0.173	-0.130
-450.938	193.680	-0.062	-0.093
-449.924	268.245	-0.222	-0.386
-448.909	800.000	-0.059	-0.163
-447.895	-51.787	0.231	0.107
-446.880	-7.674	0.103	-0.069
-445.865	-27.464	0.349	0.201
-444.851	103.422	0.125	0.145
-443.836	486.129	-0.175	0.396
-442.822	52.298	-0.087	-0.082
-441.807	581.503	-0.068	-0.166
-440.792	-96.900	-0.125	0.032
-439.778	-25.855	-0.258	-0.151
-438.763	64.367	0.044	-0.044
-437.749	143.616	-0.137	0.181
-436.734	800.000	0.117	-0.341
-435.719	46.834	0.214	0.197
-434.705	127.336	-0.039	0.049
-433.690	-108.818	-0.300	-0.063
-432.676	-111.340	-0.228	-0.046
-431.661	-200.000	0.104	-0.523
-430.646	-200.000	-0.009	0.108
-429.632	-43.232	-0.139	-0.070
-428.617	-128.311	0.081	0.011
-427.603	-122.520	-0.097	0.016
-426.588	-200.000	0.045	-0.275
-425.573	-119.630	0.096	0.016
-424.559	-115.082	-0.208	-0.039
-423.544	-177.753	-0.207	-0.005
-422.530	-123.053	-0.390	0.062
-421.515	-200.000	-0.017	-0.322
-420.500	-200.000	0.098	-0.472
-419.486	189.302	-0.169	-0.250
-418.471	800.000	-0.146	0.412
-417.457	-79.317	-0.175	0.059
-416.442	447.000	-0.057	-0.124
-415.428	98.555	0.070	0.080
-414.413	-139.671	-0.191	-0.020
-413.398	-200.000	0.005	0.113
-412.384	-200.000	0.013	0.102
-411.369	-73.921	-0.170	-0.061
-410.355	-125.513	0.276	0.042
-409.340	-106.251	-0.210	-0.047
-408.325	800.000	-0.046	-0.132
-407.311	-200.000	-0.004	0.077
-406.296	-200.000	0.003	-0.113
-405.282	505.036	0.103	-0.237
-404.267	-89.973	0.101	0.029
-403.252	-103.633	-0.146	0.034
-402.238	-200.000	-0.051	0.297
-401.223	-60.653	0.259	0.109
-400.209	371.566	0.130	-0.262
-399.194	-33.092	-0.086	0.047
-398.179	557.288	-0.032	-0.076
-397.165	10.910	-0.070	-0.053
-396.150	-24.591	-0.164	0.096
-395.136	-73.107	-0.136	0.049
-394.121	263.084	-0.201	-0.345
-393.106	52.711	0.096	0.091
-392.092	663.723	0.085	0.217
-391.077	142.981	-0.047	0.062
-390.063	63.730	0.182	-0.181
-389.048	-121.896	0.172	0.028
-388.033	0.064	0.372	0.262
-387.019	247.630	0.152	-0.253
-386.004	-2.949	0.223	-0.154
-384.990	-132.821	0.179	0.023
-383.975	2.619	0.179	0.128
-382.960	800.000	-0.043	0.120
-381.946	599.055	0.063	0.154
-380.931	-169.423	0.223	-0.008
-379.917	-64.516	-0.158	-0.063
-378.902	800.000	-0.064	-0.189
-377.888	102.442	-0.084	-0.097
-376.873	800.000	-0.096	-0.289
-375.858	-167.109	-0.068	-0.003
-374.844	-14.743	-0.193	-0.123
-373.829	-142.761	-0.314	-0.030
-372.815	10.720	-0.094	0.071
-371.800	-91.747	0.180	0.050
-370.785	-16.699	-0.219	-0.137
-369.771	-1.304	-0.312	0.218
-368.756	-200.000	-0.004	-0.106
-367.742	800.000	-0.020	0.057
-366.727	273.310	0.086	-0.150
-365.712	-200.000	0.003	0.037
-364.698	-45.253	0.164	0.080
-363.683	-10.223	0.049	0.032
-362.669	800.000	-0.043	0.177
-361.654	800.000	-0.113	-0.331
-360.639	673.997	-0.083	-0.212
-359.625	-89.738	-0.129	0.037
-358.610	165.348	0.135	0.188
-357.596	399.461	-0.082	-0.170
-356.581	-124.973	-0.208	-0.032
-355.566	306.785	0.096	-0.177
-354.552	-42.700	0.142	-0.071
-353.537	54.352	0.224	-0.213
-352.523	21.153	0.070	-0.056
-351.508	-200.000	-0.001	0.095
-350.493	-200.000	-0.033	0.279
-349.479	-35.931	-0.233	0.124
-348.464	-164.413	0.160	0.007
-347.450	-9.935	0.264	0.174
-346.435	-7.737	-0.157	0.105
-345.420	-93.080	0.228	0.063
-344.406	-86.659	0.293	-0.089
-343.391	-157.447	-0.269	0.016
-342.377	-122.810	0.157	0.025
-341.362	-200.000	-0.026	0.337
-340.348	121.137	0.173	0.213
-339.333	169.277	-0.113	0.160
-338.318	-200.000	-0.043	0.267
-337.304	104.470	0.051	-0.059
-336.289	-114.206	-0.190	-0.036
-335.275	132.158	-0.193	-0.245
-334.260	800.000	0.110	-0.323
-333.245	106.339	0.219	-0.256
-332.231	353.178	-0.077	0.150
-331.216	-176.605	0.285	-0.007
-330.202	800.000	-0.143	0.423
-329.187	-23.831	0.484	0.286
-328.172	547.893	-0.109	0.256
-327.158	23.456	-0.061	-0.050
-326.143	-132.724	0.084	-0.011
-325.129	-49.904	-0.118	0.055
-324.114	-101.012	0.197	-0.048
-323.099	-200.000	-0.069	-0.316
-322.085	468.615	-0.115	-0.254
-321.070	-200.000	0.008	0.070
-320.056	800.000	-0.062	0.171
-319.041	-116.821	-0.213	0.038
-318.026	-200.000	0.009	0.214
-317.012	-143.433	0.113	-0.011
-315.997	637.269	-0.021	-0.052
-314.983	-200.000	-0.030	-0.160
-313.968	-200.000	-0.023	-0.199
-312.953	-200.000	0.012	-0.422
-311.939	800.000	-0.120	-0.344
-310.924	-98.637	0.048	-0.012
-309.910	-6.704	0.128	-0.086
-308.895	705.545	0.103	0.269
-307.880	256.485	0.100	-0.169
-306.866	46.880	-0.094	0.086
-305.851	289.973	-0.145	0.259
-304.837	-200.000	0.007	-0.195
-303.822	-200.000	-0.016	-0.186
-302.807	31.060	-0.233	0.197
-301.793	7.596	0.306	0.226
-300.778	-200.000	-0.043	0.285
-299.764	147.966	-0.261	-0.347
-298.749	800.000	-0.110	-0.390
-297.735	-177.823	0.121	-0.003
-296.720	-200.000	0.042	-0.342
-295.705	800.000	0.031	-0.090
-294.691	-88.954	-0.319	0.093
-293.676	9.565	-0.190	0.142
-292.662	-117.299	0.149	0.027
-291.647	334.932	-0.053	-0.100
-290.632	219.002	0.150	-0.235
-289.618	-124.324	-0.252	-0.039
-288.603	47.736	-0.054	-0.049
-287.589	-63.511	-0.323	-0.131
-286.574	-152.260	0.116	-0.008
-285.559	-47.106	0.086	-0.041
-284.545	128.550	-0.155	0.195
-283.530	-155.271	-0.219	-0.014
-282.516	-146.041	0.283	-0.025
-281.501	-44.401	0.081	-0.040
-280.486	800.000	-0.134	-0.381
-279.472	-85.075	-0.216	-0.067
-278.457	410.827	0.024	-0.050
-277.443	-200.000	-0.018	-0.244
-276.428	405.951	-0.033	0.068
-275.413	-19.830	-0.177	0.107
-274.399	-200.000	0.073	0.531
-273.384	-72.146	-0.251	0.092
-272.370	-112.420	-0.263	-0.052
-271.355	7.747	-0.083	-0.061
-270.340	-38.207	-0.156	-0.081
-269.326	-73.835	0.316	0.113
-268.311	-88.565	-0.086	-0.025
-267.297	-89.249	0.173	-0.050
-266.282	-63.395	0.154	-0.062
-265.267	130.959	-0.083	-0.105
-264.253	-95.185	0.134	-0.036
-263.238	-164.423	-0.239	-0.011
-262.224	800.000	0.062	-0.220
-261.209	38.837	-0.132	0.116
-260.195	464.290	0.117	-0.258
-259.180	36.340	-0.129	-0.112
-258.165	-99.060	0.146	0.036
-257.151	-59.313	-0.048	-0.020
-256.136	201.181	-0.267	0.404
-255.122	-27.325	0.156	0.089
-254.107	-192.315	0.280	-0.003
-253.092	761.357	-0.115	0.306
-252.078	-51.737	-0.216	0.099
-251.063	17.583	0.298	0.233
-250.049	800.000	-0.032	-0.128
-249.034	-32.510	-0.035	0.019
-248.019	-147.827	-0.292	0.024
-247.005	82.895	0.065	0.070
-245.990	800.000	-0.060	0.171
-244.976	-27.463	-0.178	-0.102
-243.961	-96.405	-0.091	0.024
-242.946	-63.186	0.144	0.058
-241.932	18.503	0.205	0.161
-240.917	114.800	0.076	-0.091
-239.903	-108.565	-0.281	-0.059
-238.888	799.817	-0.087	0.237
-237.873	-95.434	-0.100	-0.026
-236.859	464.178	0.102	0.224
-235.844	330.589	-0.098	0.186
-234.830	-151.073	-0.158	0.012
-233.815	-85.155	-0.349	0.107
-232.800	-95.398	-0.260	-0.069
-231.786	-200.000	-0.005	0.425
-230.771	-14.991	0.159	-0.100
-229.757	-74.650	0.320	-0.113
-228.742	-200.000	-0.001	0.409
-227.727	800.000	0.070	0.207
-226.713	-111.943	0.416	-0.082
-225.698	-200.000	-0.024	-0.123
-224.684	-51.204	-0.259	0.119
-223.669	-58.699	-0.163	0.069
-222.655	800.000	0.099	0.381
-221.640	-23.956	0.290	-0.171
-220.625	-86.946	0.404	-0.121
-219.611	0.940	-0.081	-0.057
-218.596	-200.000	-0.006	-0.075
-217.582	107.580	-0.274	-0.320
-216.567	-141.499	-0.397	-0.039
-215.552	397.890	-0.089	0.182
-214.538	145.151	0.177	0.233
-213.523	246.430	-0.135	0.223
-212.509	-200.000	0.027	-0.187
-211.494	292.037	-0.097	-0.173
-210.479	-58.339	-0.024	0.010
-209.465	800.000	-0.064	-0.213
-208.450	155.138	-0.148	0.200
-207.436	800.000	0.090	0.245
-206.421	-12.522	-0.188	0.121
-205.406	154.865	0.164	0.221
-204.392	-185.831	0.369	-0.005
-203.377	-200.000	0.012	0.230
-202.363	-98.268	-0.265	0.067
-201.348	-200.000	0.153	-0.000
-200.333	-134.641	0.164	0.020
-199.319	-200.000	0.009	0.243
-198.304	-131.167	0.294	0.038
-197.290	-78.495	-0.266	-0.089
-196.275	-75.729	0.216	0.075
-195.260	-200.000	-0.001	-0.136
-194.246	198.475	-0.099	-0.149
-193.231	-108.496	-0.112	-0.024
-192.217	-85.484	0.043	-0.013
-191.202	152.350	-0.119	0.159
-190.187	117.573	0.127	0.154
-189.173	182.186	-0.037	0.053
-188.158	-148.792	0.287	0.023
-187.144	193.100	-0.195	-0.288
-186.129	-174.983	0.305	-0.008
-185.114	-90.245	0.406	0.116
-184.100	-200.000	-0.012	0.212
-183.085	-68.168	-0.254	-0.097
-182.071	-47.270	0.122	-0.058
-181.056	-94.389	0.269	-0.072
-180.042	107.916	-0.057	0.066
-179.027	334.859	0.150	0.286
-178.012	-62.623	0.231	-0.094
-176.998	-142.652	0.252	0.024
-175.983	-99.282	-0.071	0.017
-174.969	72.265	-0.189	-0.193
-173.954	41.526	0.212	0.188
-172.939	154.684	-0.115	-0.155
-171.925	-200.000	0.289	0.001
-170.910	-185.305	-0.211	-0.003
-169.896	-200.000	-0.017	0.108
-168.881	800.000	0.154	-0.506
-167.866	62.809	0.069	-0.068
-166.852	304.433	-0.133	-0.242
-165.837	-111.691	0.287	0.057
-164.823	800.000	-0.043	0.134
-163.808	75.605	-0.116	0.120
-162.793	-136.141	-0.219	0.025
-161.779	242.107	-0.079	0.129
-160.764	-164.273	-0.160	-0.007
-159.750	542.979	-0.146	0.341
-158.735	800.000	0.049	0.138
-157.720	800.000	0.045	0.175
-156.706	-200.000	0.043	0.332
-155.691	263.522	-0.109	-0.185
-154.677	-82.169	-0.135	0.043
-153.662	55.764	-0.084	0.080
-152.647	-96.701	-0.097	-0.025
-151.633	-4.071	-0.037	-0.025
-150.618	-47.800	-0.398	-0.189
-149.604	-55.325	0.146	-0.064
-148.589	134.669	-0.363	0.461
-147.574	419.783	0.096	-0.201
-146.560	-5.000	0.302	0.203
-145.545	-200.000	-0.021	-0.355
-144.531	-1.063	0.040	-0.028
-143.516	22.763	0.235	0.188
-142.502	800.000	0.079	0.262
-141.487	-200.000	0.058	-0.314
-140.472	95.440	0.263	0.293
-139.458	-50.723	0.155	-0.071
-138.443	-53.930	0.169	0.076
-137.429	38.922	-0.116	0.101
-136.414	155.480	-0.047	-0.064
-135.399	75.430	0.150	0.155
-134.385	800.000	0.065	0.225
-133.370	-187.497	0.258	0.003
-132.356	-101.311	-0.199	-0.047
-131.341	-71.320	0.147	-0.054
-130.326	-200.000	0.004	0.129
-129.312	-200.000	-0.028	0.364
-128.297	-200.000	-0.009	-0.175
-127.283	800.000	0.045	0.139
-126.268	65.755	-0.211	0.209
-125.253	-158.131	0.058	-0.003
-124.239	-200.000	-0.029	0.180
-123.224	-200.000	-0.002	0.011
