DTS Sentinel unit serial number:	SN413079Multiplexer serial number:	ORYXHardware model number:	OX4-SRSoftware version number:	ORYX F/W v4.00 Oryx Data Collector v3.7.2.0data status	okinstallation	princeton_trtdifferential loss correction	single-endedforward channel	channel 1reverse channel	N/Adate	2019/09/17time	11:30:35forward acquisition time	60.00reverse acquisition time	0.00gamma	496.2192k internal	0.2323k external	0.2323temperature offset calibration	0.9971default loss term (dB/km)	0.3790temperature slope calibration	1.0000multiplexer offset coefficient	1.0000multiplexer slope coefficient	1.0000fibre end	0.00T internal ref (°C)	30.69T ext. ref 1 (°C)	0.34T ext. ref 2 (°C)	26.46length (m)	temperature (°C)	Stokes	anti-Stokes-747.200	-80.883	-0.190	-0.064
-746.185	-38.688	-0.298	0.159
-745.171	800.000	0.046	0.129
-744.156	-46.884	-0.438	0.216
-743.142	54.792	0.263	-0.256
-742.127	333.275	0.042	-0.082
-741.112	23.182	-0.131	-0.109
-740.098	302.306	-0.157	0.294
-739.083	-91.028	-0.366	-0.106
-738.069	-14.657	-0.052	-0.034
-737.054	88.497	-0.058	-0.065
-736.039	-140.644	-0.139	0.015
-735.025	-108.901	0.100	0.022
-734.010	800.000	0.042	-0.167
-732.996	522.014	0.147	0.348
-731.981	274.724	-0.212	0.379
-730.966	470.332	-0.040	0.091
-729.952	-200.000	-0.005	-0.121
-728.937	430.885	-0.106	-0.232
-727.923	-200.000	-0.016	0.227
-726.908	-75.077	-0.128	-0.046
-725.894	-83.983	-0.446	-0.143
-724.879	-200.000	-0.050	0.343
-723.864	800.000	0.068	-0.275
-722.850	14.584	0.205	0.162
-721.835	-80.109	0.269	-0.091
-720.821	-200.000	-0.021	0.105
-719.806	-73.079	-0.163	0.060
-718.791	-60.709	0.072	0.031
-717.777	-188.805	-0.424	-0.005
-716.762	-84.796	0.208	0.066
-715.748	-200.000	0.032	0.147
-714.733	-137.609	0.202	0.023
-713.718	192.033	0.139	-0.212
-712.704	-124.984	-0.154	-0.024
-711.689	493.570	-0.171	-0.396
-710.675	-93.028	-0.289	0.081
-709.660	8.846	0.137	-0.104
-708.645	663.248	0.059	-0.152
-707.631	82.483	0.068	-0.074
-706.616	162.108	0.277	-0.391
-705.602	-79.068	-0.238	0.082
-704.587	42.341	0.056	0.051
-703.572	-23.889	0.220	-0.133
-702.558	-8.625	0.085	-0.058
-701.543	-200.000	0.103	-0.515
-700.529	-200.000	-0.017	-0.116
-699.514	115.470	-0.073	-0.091
-698.499	-200.000	0.048	-0.287
-697.485	-56.858	-0.410	-0.182
-696.470	198.457	-0.160	0.246
-695.456	-22.691	0.213	-0.129
-694.441	-68.622	0.203	0.079
-693.426	800.000	-0.038	0.152
-692.412	-62.700	-0.193	0.081
-691.397	-102.945	-0.369	-0.088
-690.383	4.420	-0.143	-0.106
-689.368	-200.000	-0.093	0.458
-688.354	244.169	-0.107	-0.181
-687.339	25.733	-0.275	0.231
-686.324	-65.108	-0.194	-0.079
-685.310	325.462	0.146	-0.282
-684.295	88.549	-0.128	-0.143
-683.281	800.000	0.110	-0.372
-682.266	79.366	-0.289	0.313
-681.251	-104.379	0.256	-0.060
-680.237	-200.000	0.007	-0.090
-679.222	372.509	0.067	0.137
-678.208	-28.138	0.152	0.088
-677.193	688.592	-0.072	-0.189
-676.178	-24.043	0.455	0.274
-675.164	17.922	-0.158	-0.127
-674.149	-59.872	0.083	0.036
-673.135	456.905	-0.062	0.139
-672.120	201.996	-0.079	0.122
-671.105	-54.971	-0.204	0.093
-670.091	-18.013	0.409	-0.258
-669.076	-5.096	-0.325	-0.225
-668.062	52.951	-0.263	-0.253
-667.047	413.186	-0.073	0.156
-666.032	800.000	0.067	-0.191
-665.018	-121.393	-0.187	-0.031
-664.003	-50.744	0.037	-0.018
-662.989	-200.000	-0.022	0.211
-661.974	-200.000	0.007	0.045
-660.959	5.567	0.323	0.240
-659.945	-88.781	-0.543	0.162
-658.930	-159.286	-0.234	-0.013
-657.916	-200.000	-0.017	-0.268
-656.901	142.638	-0.176	-0.235
-655.886	-200.000	0.031	-0.388
-654.872	112.826	0.068	0.082
-653.857	-53.579	0.273	0.125
-652.843	-152.052	-0.192	0.014
-651.828	324.313	-0.069	0.133
-650.814	77.846	-0.166	-0.178
-649.799	686.335	0.125	0.329
-648.784	-200.000	-0.030	0.191
-647.770	-66.397	-0.105	-0.042
-646.755	146.014	-0.136	-0.184
-645.741	-74.014	-0.249	-0.091
-644.726	-54.318	0.120	-0.055
-643.711	-200.000	0.029	0.187
-642.697	-200.000	-0.015	-0.069
-641.682	-56.683	-0.203	0.091
-640.668	49.267	-0.135	0.128
-639.653	64.543	0.181	-0.183
-638.638	240.509	-0.026	-0.043
-637.624	102.369	-0.129	0.152
-636.609	800.000	-0.115	-0.392
-635.595	5.785	-0.038	-0.028
-634.580	-54.037	0.135	0.062
-633.565	329.271	-0.159	-0.307
-632.551	-200.000	-0.040	-0.200
-631.536	153.830	-0.135	0.185
-630.522	32.325	-0.218	-0.190
-629.507	-37.697	-0.159	-0.085
-628.492	301.281	0.274	0.509
-627.478	-200.000	0.005	0.094
-626.463	-200.000	0.009	-0.119
-625.449	-20.042	-0.111	0.069
-624.434	-30.395	-0.088	0.050
-623.419	31.840	0.123	-0.106
-622.405	-175.187	0.239	0.007
-621.390	-200.000	0.037	-0.378
-620.376	-155.892	-0.118	0.008
-619.361	167.896	0.214	0.305
-618.346	-5.914	0.258	0.177
-617.332	800.000	0.090	-0.318
-616.317	-200.000	-0.011	-0.098
-615.303	631.372	0.130	-0.330
-614.288	-200.000	0.029	0.154
-613.273	164.316	0.049	0.070
-612.259	-52.945	0.382	0.177
-611.244	-112.695	0.341	-0.068
-610.230	-194.384	-0.371	-0.003
-609.215	-21.835	0.338	0.206
-608.201	800.000	0.140	-0.461
-607.186	800.000	0.087	-0.301
-606.171	297.063	-0.106	0.195
-605.157	-160.675	-0.516	-0.028
-604.142	-200.000	-0.045	-0.575
-603.128	228.344	-0.215	-0.351
-602.113	126.691	-0.128	0.163
-601.098	49.848	-0.182	0.173
-600.084	123.559	-0.024	0.030
-599.069	-154.283	-0.120	-0.008
-598.055	-42.947	0.257	0.131
-597.040	60.840	-0.060	-0.060
-596.025	52.808	-0.231	-0.222
-595.011	65.342	0.227	-0.230
-593.996	-111.243	-0.150	-0.031
-592.982	-200.000	-0.013	0.093
-591.967	68.372	0.169	0.174
-590.952	505.758	0.158	0.368
-589.938	-200.000	-0.020	0.227
-588.923	-56.769	-0.309	0.137
-587.909	0.187	0.065	-0.047
-586.894	193.494	-0.072	-0.110
-585.879	306.833	0.063	0.119
-584.865	469.639	-0.175	0.396
-583.850	127.104	-0.061	-0.078
-582.836	244.703	-0.169	-0.286
-581.821	268.294	-0.114	0.200
-580.806	15.333	-0.407	-0.320
-579.792	-55.391	0.138	-0.062
-578.777	93.730	-0.241	-0.274
-577.763	251.056	0.085	0.146
-576.748	-200.000	-0.003	0.071
-575.733	-16.827	0.054	0.034
-574.719	-63.782	-0.367	0.151
-573.704	-77.383	-0.141	-0.049
-572.690	264.502	0.078	-0.136
-571.675	118.311	-0.082	0.102
-570.661	766.123	-0.087	-0.238
-569.646	56.200	0.096	-0.094
-568.631	-79.250	-0.106	0.036
-567.617	-200.000	0.011	-0.332
-566.602	-120.730	-0.432	-0.073
-565.588	-200.000	0.051	0.308
-564.573	-12.920	-0.156	-0.102
-563.558	-75.809	-0.221	0.079
-562.544	-200.000	-0.029	-0.160
-561.529	-144.338	-0.315	0.029
-560.515	-200.000	-0.027	0.282
-559.500	31.964	-0.274	0.237
-558.485	412.645	-0.071	0.151
-557.471	-200.000	0.004	0.041
-556.456	-200.000	-0.016	-0.089
-555.442	80.639	0.050	-0.054
-554.427	-128.834	-0.316	0.045
-553.412	-27.861	0.074	0.043
-552.398	800.000	-0.049	-0.206
-551.383	91.982	-0.216	-0.244
-550.369	208.815	-0.072	0.113
-549.354	-43.273	-0.312	0.158
-548.339	-200.000	-0.014	-0.082
-547.325	-200.000	0.011	-0.145
-546.310	-93.399	-0.131	0.036
-545.296	473.913	-0.133	0.301
-544.281	566.192	0.124	0.301
-543.266	-200.000	0.020	-0.100
-542.252	123.632	-0.113	-0.142
-541.237	-58.729	-0.282	0.122
-540.223	-129.502	-0.609	0.084
-539.208	146.828	0.102	0.137
-538.193	91.302	-0.142	-0.159
-537.179	-73.991	0.202	0.073
-536.164	203.703	-0.121	-0.187
-535.150	-80.969	-0.278	0.092
-534.135	560.572	0.040	-0.097
-533.121	-9.589	-0.157	0.105
-532.106	-200.000	0.039	-0.262
-531.091	-119.744	0.302	0.052
-530.077	111.874	0.020	0.025
-529.062	-99.825	-0.189	0.047
-528.048	27.634	-0.056	0.047
-527.033	800.000	0.100	0.281
-526.018	523.708	-0.108	0.253
-525.004	800.000	0.077	0.244
-523.989	10.845	-0.377	0.288
-522.975	793.678	-0.168	-0.463
-521.960	-200.000	0.025	0.110
-520.945	-134.700	-0.282	0.034
-519.931	-200.000	0.023	0.337
-518.916	800.000	0.062	0.243
-517.902	300.658	0.077	-0.143
-516.887	-135.625	0.231	-0.027
-515.872	238.020	0.176	-0.292
-514.858	800.000	0.082	0.245
-513.843	72.819	-0.074	-0.077
-512.829	-149.108	0.222	-0.018
-511.814	99.063	0.038	0.044
-510.799	-20.763	-0.400	-0.246
-509.785	-200.000	0.045	0.247
-508.770	96.170	0.170	0.194
-507.756	800.000	-0.021	0.084
-506.741	-45.111	0.227	0.113
-505.726	36.288	-0.139	0.122
-504.712	250.412	0.185	0.314
-503.697	-15.693	0.189	0.121
-502.683	313.114	0.064	-0.120
-501.668	-49.264	-0.268	-0.128
-500.653	-136.388	-0.041	0.005
-499.639	793.158	0.114	-0.314
-498.624	163.184	0.196	-0.276
-497.610	92.865	-0.040	-0.046
-496.595	396.096	0.038	-0.079
-495.581	217.615	0.135	-0.215
-494.566	-200.000	0.001	0.053
-493.551	150.878	-0.109	-0.149
-492.537	-200.000	-0.052	-0.334
-491.522	-28.792	-0.129	0.074
-490.508	-103.392	-0.097	-0.023
-489.493	-143.839	0.021	0.002
-488.478	23.020	-0.242	0.199
-487.464	-102.815	0.214	-0.051
-486.449	-200.000	0.011	0.310
-485.435	800.000	-0.147	0.473
-484.420	-16.670	-0.391	-0.247
-483.405	-58.721	-0.397	0.172
-482.391	-113.330	0.155	-0.030
-481.376	43.730	0.087	-0.080
-480.362	36.648	-0.209	-0.185
-479.347	-194.790	0.109	-0.001
-478.332	-200.000	0.028	-0.174
-477.318	13.257	0.070	0.054
-476.303	-162.176	-0.199	-0.010
-475.289	-119.849	-0.066	0.011
-474.274	214.445	0.161	0.256
-473.259	51.936	0.254	-0.242
-472.245	-117.828	0.082	-0.015
-471.230	208.292	-0.098	-0.154
-470.216	-200.000	0.004	0.261
-469.201	-25.577	0.414	0.244
-468.186	-5.375	-0.222	0.152
-467.172	-13.013	0.149	0.097
-466.157	-200.000	0.001	-0.522
-465.143	-88.836	-0.453	-0.134
-464.128	-200.000	-0.064	0.458
-463.113	800.000	0.106	-0.456
-462.099	-200.000	-0.014	0.105
-461.084	-11.450	-0.041	0.027
-460.070	-200.000	0.000	-0.025
-459.055	-200.000	0.022	-0.109
-458.040	800.000	0.053	0.189
-457.026	-77.746	-0.073	-0.025
-456.011	78.747	0.013	0.014
-454.997	-114.939	-0.185	-0.035
-453.982	-27.582	0.373	-0.216
-452.968	-200.000	0.019	0.197
-451.953	226.747	0.086	-0.140
-450.938	155.303	0.303	-0.416
-449.924	-179.848	-0.188	-0.004
-448.909	-167.000	-0.275	-0.011
-447.895	-154.753	0.179	0.012
-446.880	800.000	0.046	0.139
-445.865	441.846	-0.083	-0.182
-444.851	800.000	0.059	-0.216
-443.836	-97.718	-0.256	-0.066
-442.822	-147.311	-0.435	0.037
-441.807	800.000	-0.027	0.094
-440.792	595.032	-0.047	-0.116
-439.778	120.802	0.026	-0.032
-438.763	17.006	0.143	0.113
-437.749	361.364	-0.119	0.238
-436.734	173.283	0.056	0.081
-435.719	-42.883	-0.146	0.074
-434.705	113.108	-0.108	-0.130
-433.690	-200.000	0.056	0.303
-432.676	101.978	0.242	-0.281
-431.661	-57.602	-0.208	-0.091
-430.646	-76.306	0.323	0.113
-429.632	-117.062	0.214	0.039
-428.617	-144.327	0.087	0.008
-427.603	-200.000	0.019	-0.137
-426.588	27.912	-0.083	-0.070
-425.573	-200.000	-0.013	0.264
-424.559	101.313	-0.191	-0.222
-423.544	-34.030	0.396	0.217
-422.530	800.000	-0.054	0.208
-421.515	800.000	-0.091	-0.258
-420.500	-200.000	-0.118	-0.574
-419.486	198.398	0.095	-0.145
-418.471	-200.000	0.005	-0.331
-417.457	-200.000	0.035	-0.210
-416.442	-68.047	-0.193	-0.075
-415.428	58.271	0.077	-0.075
-414.413	-200.000	0.005	0.279
-413.398	282.571	0.145	0.259
-412.384	35.885	0.205	-0.180
-411.369	115.670	0.229	0.279
-410.355	628.175	-0.026	-0.066
-409.340	-27.216	0.132	0.077
-408.325	-200.000	0.047	-0.345
-407.311	800.000	0.049	-0.173
-406.296	207.550	-0.139	0.216
-405.282	46.804	0.118	-0.109
-404.267	-200.000	0.016	-0.171
-403.252	-20.996	0.117	-0.071
-402.238	152.046	0.135	0.184
-401.223	567.705	0.124	-0.301
-400.209	800.000	-0.089	0.333
-399.194	178.116	0.076	-0.110
-398.179	64.914	0.088	0.089
-397.165	309.707	0.042	-0.078
-396.150	-23.994	0.211	0.126
-395.136	-200.000	0.005	0.041
-394.121	800.000	-0.108	-0.331
-393.106	79.331	0.248	0.265
-392.092	800.000	-0.052	0.160
-391.077	-43.742	-0.175	0.088
-390.063	-200.000	-0.029	0.188
-389.048	-200.000	-0.033	0.148
-388.033	273.351	0.124	0.218
-387.019	-200.000	0.011	-0.057
-386.004	107.577	0.021	-0.025
-384.990	545.822	-0.144	-0.342
-383.975	50.872	-0.096	-0.091
-382.960	613.488	0.053	-0.132
-381.946	225.743	-0.112	0.181
-380.931	72.227	0.141	-0.147
-379.917	473.724	0.061	-0.138
-378.902	800.000	-0.036	0.145
-377.888	-85.795	0.070	0.022
-376.873	126.016	0.034	-0.042
-375.858	-152.628	-0.243	0.017
-374.844	-69.106	-0.073	0.028
-373.829	-34.057	0.250	0.137
-372.815	-200.000	-0.068	0.316
-371.800	-111.075	-0.251	-0.051
-370.785	-114.001	-0.251	-0.048
-369.771	800.000	-0.037	0.131
-368.756	11.091	0.294	0.224
-367.742	-82.917	0.035	-0.011
-366.727	-148.951	-0.190	0.015
-365.712	-135.966	0.208	0.024
-364.698	178.801	0.026	0.038
-363.683	-200.000	0.032	-0.306
-362.669	219.268	0.227	-0.362
-361.654	800.000	0.068	-0.212
-360.639	1.060	-0.136	0.097
-359.625	-91.627	0.355	0.101
-358.610	-145.958	-0.165	-0.015
-357.596	-200.000	0.031	-0.306
-356.581	-55.283	-0.076	0.034
-355.566	201.400	-0.173	0.265
-354.552	84.844	-0.056	-0.061
-353.537	367.258	0.114	-0.229
-352.523	253.848	0.066	0.112
-351.508	-200.000	0.007	0.358
-350.493	-200.000	-0.014	-0.181
-349.479	205.726	-0.018	0.029
-348.464	317.835	-0.098	0.184
-347.450	-76.659	0.291	-0.101
-346.435	-200.000	-0.014	-0.092
-345.420	60.767	-0.295	0.291
-344.406	-117.961	-0.087	-0.015
-343.391	800.000	0.058	0.235
-342.377	79.113	-0.138	0.147
-341.362	-120.005	-0.254	0.043
-340.348	-175.369	0.290	-0.008
-339.333	73.669	0.259	0.269
-338.318	182.166	-0.167	0.244
-337.304	800.000	-0.050	0.154
-336.289	-74.269	0.397	0.143
-335.275	121.222	0.193	-0.239
-334.260	-110.194	-0.166	-0.034
-333.245	-98.846	0.334	0.084
-332.231	800.000	0.062	0.183
-331.216	147.607	0.159	0.213
-330.202	-0.246	-0.083	0.058
-329.187	483.705	-0.052	-0.117
-328.172	374.660	-0.054	-0.109
-327.158	-142.147	0.146	0.014
-326.143	-27.761	-0.267	-0.154
-325.129	800.000	-0.076	-0.226
-324.114	-200.000	-0.009	0.357
-323.099	48.200	0.207	0.192
-322.085	-48.522	-0.086	0.041
-321.070	35.543	-0.127	0.111
-320.056	-200.000	-0.029	0.265
-319.041	-109.085	0.251	-0.053
-318.026	66.153	-0.285	-0.287
-317.012	5.059	0.272	0.199
-315.997	-53.837	0.139	0.063
-314.983	44.622	0.096	0.088
-313.968	-105.829	-0.245	0.055
-312.953	788.089	0.054	-0.147
-311.939	-200.000	-0.003	-0.035
-310.924	34.474	0.062	0.054
-309.910	65.958	0.091	-0.091
-308.895	120.271	-0.079	-0.097
-307.880	-95.922	-0.322	-0.085
-306.866	-113.288	0.367	0.072
-305.851	800.000	-0.098	-0.397
-304.837	505.810	-0.031	0.072
-303.822	-140.999	-0.460	0.047
-302.807	461.773	0.106	-0.235
-301.793	-69.724	0.207	0.078
-300.778	800.000	-0.036	-0.110
-299.764	56.719	-0.168	-0.162
-298.749	154.606	0.039	-0.053
-297.735	-104.372	0.211	-0.048
-296.720	-52.184	0.215	0.099
-295.705	27.067	-0.234	0.195
-294.691	-157.755	-0.198	-0.012
-293.676	202.075	-0.152	-0.233
-292.662	93.776	0.250	0.281
-291.647	-91.143	0.255	-0.073
-290.632	-76.601	-0.298	0.104
-289.618	-90.449	0.139	0.040
-288.603	41.387	-0.088	-0.079
-287.589	-200.000	-0.031	-0.146
-286.574	-140.595	0.149	0.015
-285.559	-72.934	0.136	-0.049
-284.545	-30.640	0.150	-0.084
-283.530	-200.000	0.004	0.281
-282.516	-200.000	0.013	-0.127
-281.501	345.155	0.170	-0.330
-280.486	550.974	-0.075	-0.177
-279.472	-8.333	0.159	-0.106
-278.457	-107.410	-0.193	0.042
-277.443	-200.000	0.029	-0.243
-276.428	-100.925	0.026	0.006
-275.413	-200.000	-0.030	0.145
-274.399	45.956	-0.108	0.099
-273.384	-200.000	-0.007	-0.125
-272.370	173.902	-0.149	-0.213
-271.355	246.190	-0.050	0.084
-270.340	14.290	0.115	0.089
-269.326	150.188	0.067	-0.090
-268.311	125.175	0.130	-0.162
-267.297	787.249	-0.107	-0.292
-266.282	-83.354	0.198	-0.063
-265.267	242.677	0.228	-0.379
-264.253	800.000	-0.095	-0.351
-263.238	33.277	0.025	-0.022
-262.224	-165.107	0.102	0.004
-261.209	-200.000	-0.032	-0.219
-260.195	-35.515	0.136	0.073
-259.180	62.135	-0.220	-0.218
-258.165	-200.000	0.009	0.244
-257.151	56.924	-0.220	-0.213
-256.136	584.922	0.098	0.239
-255.122	-17.186	0.057	0.036
-254.107	390.100	-0.159	0.327
-253.092	800.000	0.093	0.257
-252.078	36.956	-0.105	0.092
-251.063	-200.000	-0.001	-0.310
-250.049	-13.736	-0.246	-0.158
-249.034	-153.111	0.192	-0.013
-248.019	-200.000	0.017	-0.107
-247.005	-112.421	0.118	0.023
-245.990	-105.362	0.203	-0.046
-244.976	53.063	0.235	0.223
-243.961	149.911	0.159	0.214
-242.946	-85.451	0.162	0.050
-241.932	-98.403	-0.171	0.043
-240.917	73.714	-0.165	-0.171
-239.903	782.296	-0.064	0.173
-238.888	-27.730	-0.156	-0.089
-237.873	-167.179	0.239	-0.010
-236.859	161.410	0.253	-0.350
-235.844	800.000	-0.048	-0.172
-234.830	-51.564	0.218	-0.101
-233.815	-68.606	0.317	-0.122
-232.800	-200.000	0.045	0.233
-231.786	-75.914	0.466	-0.163
-230.771	-28.750	-0.191	-0.109
-229.757	-200.000	0.060	0.302
-228.742	37.824	0.230	0.203
-227.727	800.000	0.007	0.030
-226.713	759.134	0.075	-0.202
-225.698	-200.000	0.084	-0.393
-224.684	800.000	-0.071	-0.208
-223.669	21.296	-0.127	0.102
-222.655	54.536	-0.162	0.154
-221.640	43.683	0.067	0.060
-220.625	-180.382	-0.124	-0.003
-219.611	76.103	0.225	0.236
-218.596	316.321	-0.164	-0.306
-217.582	-106.930	0.368	-0.081
-216.567	-200.000	0.027	-0.228
-215.552	385.369	0.201	0.411
-214.538	56.532	0.146	0.140
-213.523	121.566	0.280	-0.345
-212.509	-131.132	-0.073	0.010
-211.494	800.000	-0.068	0.274
-210.479	-99.588	-0.240	0.060
-209.465	-24.727	-0.200	-0.118
-208.450	-87.357	-0.201	0.060
-207.436	800.000	-0.112	0.364
-206.421	114.294	-0.140	0.169
-205.406	75.198	0.170	-0.178
-204.392	82.934	0.055	0.059
-203.377	-200.000	-0.014	0.145
-202.363	-5.016	0.393	0.268
-201.348	-93.033	0.080	0.022
-200.333	132.112	-0.084	-0.106
-199.319	-200.000	-0.021	-0.208
-198.304	-4.708	0.210	-0.143
-197.290	131.832	0.157	0.200
-196.275	800.000	-0.103	0.282
-195.260	-44.528	-0.157	-0.077
-194.246	110.313	-0.117	-0.139
-193.231	188.225	-0.032	-0.047
-192.217	-23.514	0.271	0.161
-191.202	-120.225	-0.197	-0.033
-190.187	141.537	-0.071	-0.093
-189.173	-200.000	-0.013	0.174
-188.158	288.778	-0.117	0.210
-187.144	168.835	-0.189	0.266
-186.129	-200.000	-0.008	-0.093
-185.114	-5.052	0.153	-0.104
-184.100	654.635	0.105	0.268
-183.085	-102.075	0.509	0.121
-182.071	-109.088	0.360	-0.076
-181.056	31.427	-0.060	-0.051
-180.042	-200.000	-0.022	-0.143
-179.027	-200.000	0.005	0.146
-178.012	301.174	-0.129	0.235
-176.998	426.120	-0.123	0.261
-175.983	-125.621	-0.113	-0.017
-174.969	70.840	-0.113	-0.115
-173.954	-101.702	0.289	0.069
-172.939	-200.000	0.031	-0.171
-171.925	68.718	0.206	0.209
-170.910	800.000	0.071	0.218
-169.896	86.385	-0.041	0.045
-168.881	-200.000	-0.012	-0.055
-167.866	118.474	0.276	-0.336
-166.852	203.760	0.033	0.050
-165.837	66.986	-0.140	0.141
-164.823	-98.072	0.083	0.021
-163.808	800.000	0.039	0.157
-162.793	44.743	0.149	-0.135
-161.779	178.857	0.298	-0.430
-160.764	800.000	-0.045	0.159
-159.750	200.992	-0.070	-0.106
-158.735	-191.766	-0.111	0.001
-157.720	136.983	-0.095	0.123
-156.706	-129.242	-0.145	-0.020
-155.691	-125.188	0.180	0.027
-154.677	-163.579	0.217	0.010
-153.662	-78.986	-0.106	0.036
-152.647	409.481	0.110	0.230
-151.633	-73.931	0.138	0.050
-150.618	-200.000	0.016	-0.103
-149.604	-200.000	0.064	0.425
-148.589	-163.173	0.112	-0.005
-147.574	-200.000	0.028	-0.305
-146.560	-58.124	-0.297	-0.128
-145.545	-169.168	0.157	0.006
-144.531	-200.000	-0.005	-0.147
-143.516	-35.189	0.213	0.114
-142.502	-200.000	-0.053	-0.263
-141.487	147.844	-0.121	-0.162
-140.472	-1.583	-0.111	-0.077
-139.458	-200.000	-0.002	-0.060
-138.443	132.579	0.073	-0.093
-137.429	-26.541	-0.151	-0.087
-136.414	-111.296	0.301	0.061
-135.399	-80.150	0.394	0.130
-134.385	218.549	-0.146	0.229
-133.370	23.912	-0.084	-0.068
-132.356	708.644	-0.052	0.136
-131.341	0.879	-0.124	0.088
-130.326	606.910	0.086	-0.210
-129.312	47.642	-0.191	-0.176
-128.297	-48.832	0.302	0.143
-127.283	800.000	-0.100	-0.286
-126.268	-50.771	0.208	-0.096
-125.253	218.186	-0.151	0.237
-124.239	-161.939	0.306	-0.015
-123.224	113.235	-0.102	-0.122
-122.210	-69.116	-0.348	0.132
-121.195	-154.576	0.086	-0.006
