DTS Sentinel unit serial number:	SN413079Multiplexer serial number:	ORYXHardware model number:	OX4-SRSoftware version number:	ORYX F/W v4.00 Oryx Data Collector v3.7.2.0data status	okinstallation	princeton_trtdifferential loss correction	single-endedforward channel	channel 1reverse channel	N/Adate	2019/09/17time	09:22:35forward acquisition time	60.00reverse acquisition time	0.00gamma	496.2192k internal	0.2325k external	0.2325temperature offset calibration	0.9958default loss term (dB/km)	0.3790temperature slope calibration	1.0000multiplexer offset coefficient	1.0000multiplexer slope coefficient	1.0000fibre end	0.00T internal ref (°C)	28.75T ext. ref 1 (°C)	0.16T ext. ref 2 (°C)	25.73length (m)	temperature (°C)	Stokes	anti-Stokes-747.200	380.792	-0.153	0.316
-746.185	707.424	-0.121	-0.322
-745.171	74.155	0.151	-0.160
-744.156	-200.000	-0.030	0.413
-743.142	-153.345	-0.217	0.015
-742.127	195.628	0.089	0.136
-741.112	800.000	-0.049	0.215
-740.098	-58.325	-0.346	0.152
-739.083	26.550	-0.227	0.192
-738.069	-200.000	-0.022	0.130
-737.054	800.000	-0.069	-0.245
-736.039	-166.958	-0.467	0.019
-735.025	-81.683	0.408	0.135
-734.010	12.233	-0.259	0.201
-732.996	6.164	-0.118	0.088
-731.981	11.433	-0.050	0.039
-730.966	800.000	-0.113	0.444
-729.952	-200.000	0.035	-0.190
-728.937	116.370	-0.165	-0.203
-727.923	-55.137	-0.275	-0.125
-726.908	616.258	-0.032	0.080
-725.894	-200.000	0.205	0.000
-724.879	-21.612	-0.270	-0.166
-723.864	-120.283	-0.118	0.020
-722.850	71.359	0.096	0.100
-721.835	-84.102	-0.031	-0.010
-720.821	201.485	-0.173	-0.269
-719.806	54.846	-0.392	-0.381
-718.791	89.806	0.014	-0.016
-717.777	-200.000	-0.013	0.090
-716.762	800.000	-0.076	0.284
-715.748	32.344	0.353	-0.307
-714.733	-45.051	-0.234	-0.117
-713.718	-153.027	-0.374	0.027
-712.704	501.129	-0.106	-0.247
-711.689	-200.000	0.026	-0.198
-710.675	-5.910	0.112	0.077
-709.660	-90.873	-0.295	-0.086
-708.645	28.390	-0.148	-0.126
-707.631	-200.000	-0.008	-0.093
-706.616	649.652	0.070	0.179
-705.602	-200.000	-0.034	-0.206
-704.587	-200.000	0.005	-0.122
-703.572	-93.069	0.072	0.020
-702.558	-66.480	0.309	-0.123
-701.543	440.259	-0.075	-0.165
-700.529	133.898	0.201	0.262
-699.514	-53.761	0.173	-0.079
-698.499	-40.059	0.504	0.265
-697.485	800.000	0.108	0.402
-696.470	-200.000	0.072	0.386
-695.456	-100.653	-0.376	-0.093
-694.441	21.978	-0.263	-0.216
-693.426	-140.187	-0.275	0.029
-692.412	-115.804	0.329	0.062
-691.397	49.285	-0.286	-0.271
-690.383	-12.947	0.119	-0.078
-689.368	-183.687	-0.260	-0.004
-688.354	800.000	0.055	0.162
-687.339	145.824	0.108	0.146
-686.324	28.650	-0.289	0.246
-685.310	800.000	0.044	0.143
-684.295	800.000	-0.124	-0.368
-683.281	-125.904	-0.171	0.026
-682.266	-102.988	-0.245	-0.059
-681.251	298.311	0.152	-0.281
-680.237	-92.738	0.360	-0.101
-679.222	-93.566	0.489	0.136
-678.208	7.300	0.125	0.094
-677.193	166.160	-0.143	0.204
-676.178	42.141	0.277	-0.253
-675.164	-200.000	0.008	0.289
-674.149	21.169	-0.176	-0.144
-673.135	-138.541	0.199	0.022
-672.120	-173.702	-0.291	0.009
-671.105	-200.000	0.020	-0.091
-670.091	800.000	0.094	0.319
-669.076	153.708	-0.052	0.071
-668.062	800.000	-0.068	-0.210
-667.047	-200.000	-0.007	-0.251
-666.032	81.161	0.162	-0.176
-665.018	-55.160	0.037	-0.017
-664.003	-200.000	-0.015	-0.274
-662.989	340.489	-0.131	-0.256
-661.974	90.351	0.141	-0.159
-660.959	800.000	0.064	0.210
-659.945	-200.000	-0.006	-0.249
-658.930	-99.571	0.074	0.019
-657.916	-200.000	0.008	-0.225
-656.901	34.643	-0.140	0.123
-655.886	-84.879	0.370	0.117
-654.872	413.625	0.114	0.244
-653.857	-200.000	0.053	-0.444
-652.843	-92.111	0.232	-0.066
-651.828	568.303	0.014	0.034
-650.814	-200.000	0.001	-0.009
-649.799	-179.486	0.379	-0.008
-648.784	434.705	-0.095	-0.208
-647.770	12.448	-0.241	0.187
-646.755	-20.377	-0.286	-0.177
-645.741	155.530	-0.162	0.224
-644.726	-25.645	0.143	-0.085
-643.711	800.000	0.008	-0.025
-642.697	-91.703	0.180	0.051
-641.682	-74.237	0.078	-0.028
-640.668	305.769	0.058	-0.108
-639.653	-200.000	0.045	0.222
-638.638	129.691	-0.113	-0.146
-637.624	97.291	0.031	0.035
-636.609	-173.426	0.402	-0.012
-635.595	63.705	0.250	-0.252
-634.580	192.680	-0.082	-0.124
-633.565	163.630	0.050	-0.070
-632.551	117.183	-0.196	0.242
-631.536	-200.000	-0.009	0.265
-630.522	223.507	-0.049	-0.080
-629.507	-38.754	0.147	-0.078
-628.492	115.271	0.203	0.249
-627.478	173.991	-0.195	0.283
-626.463	-144.401	0.316	-0.029
-625.449	-200.000	0.001	-0.414
-624.434	68.556	-0.084	0.087
-623.419	-135.376	0.264	-0.032
-622.405	-151.734	-0.418	-0.031
-621.390	201.283	-0.106	-0.165
-620.376	129.051	-0.035	-0.045
-619.361	226.891	0.139	-0.227
-618.346	-200.000	0.005	-0.095
-617.332	-200.000	0.017	-0.175
-616.317	-13.504	-0.112	-0.073
-615.303	277.476	0.145	0.258
-614.288	-81.620	-0.249	-0.082
-613.273	-117.468	0.123	-0.022
-612.259	237.862	0.118	0.197
-611.244	-98.685	0.067	-0.017
-610.230	-7.502	-0.122	0.083
-609.215	2.112	-0.265	0.192
-608.201	800.000	0.087	-0.280
-607.186	-109.100	0.338	0.072
-606.171	-139.172	-0.078	0.008
-605.157	-122.604	-0.063	0.010
-604.142	156.985	-0.083	-0.115
-603.128	17.317	-0.106	-0.085
-602.113	70.258	-0.132	-0.137
-601.098	224.147	0.097	0.157
-600.084	-40.514	-0.087	-0.045
-599.069	-82.747	0.216	-0.070
-598.055	800.000	0.037	-0.118
-597.040	89.169	-0.151	0.168
-596.025	494.445	0.068	0.157
-595.011	305.922	-0.157	0.292
-593.996	-23.076	-0.282	0.170
-592.982	311.740	0.098	0.184
-591.967	800.000	-0.128	-0.355
-590.952	-46.563	0.130	0.064
-589.938	-200.000	0.027	0.167
-588.923	6.284	-0.158	0.118
-587.909	800.000	0.104	-0.393
-586.894	-200.000	0.092	-0.408
-585.879	-200.000	0.015	0.156
-584.865	-150.684	-0.362	-0.028
-583.850	-200.000	-0.033	-0.202
-582.836	4.977	-0.157	-0.116
-581.821	800.000	0.101	-0.348
-580.806	-173.440	0.185	0.006
-579.792	-200.000	0.015	-0.278
-578.777	142.712	-0.265	0.353
-577.763	536.212	-0.140	-0.334
-576.748	-184.942	-0.214	0.003
-575.733	-200.000	0.013	-0.116
-574.719	221.178	0.173	0.279
-573.704	30.423	-0.062	-0.053
-572.690	-101.618	-0.092	0.022
-571.675	32.472	-0.120	0.103
-570.661	595.901	-0.129	0.320
-569.646	-114.001	0.401	-0.078
-568.631	800.000	0.012	-0.049
-567.617	800.000	0.068	-0.260
-566.602	28.780	-0.100	-0.085
-565.588	800.000	-0.046	0.170
-564.573	57.816	0.159	0.156
-563.558	177.878	-0.150	-0.220
-562.544	16.339	-0.214	-0.169
-561.529	-45.929	-0.118	0.058
-560.515	32.909	-0.255	0.222
-559.500	-200.000	0.060	-0.308
-558.485	800.000	0.082	-0.314
-557.471	-200.000	0.002	-0.009
-556.456	-17.679	0.096	0.060
-555.442	-72.369	0.153	-0.057
-554.427	238.941	-0.118	-0.197
-553.412	-8.461	0.126	-0.085
-552.398	-122.675	0.134	-0.022
-551.383	604.871	-0.116	0.290
-550.369	-161.696	0.104	0.005
-549.354	800.000	-0.052	-0.146
-548.339	59.491	-0.054	-0.053
-547.325	-200.000	-0.017	0.196
-546.310	665.981	-0.080	0.206
-545.296	800.000	-0.048	-0.134
-544.281	-107.324	0.157	-0.034
-543.266	-200.000	0.052	-0.286
-542.252	-66.641	-0.027	-0.011
-541.237	617.965	-0.194	-0.488
-540.223	541.472	0.075	0.178
-539.208	123.873	0.164	-0.206
-538.193	34.327	-0.206	0.180
-537.179	136.894	0.232	-0.304
-536.164	43.959	0.127	0.117
-535.150	355.153	0.068	0.135
-534.135	-27.716	-0.006	-0.003
-533.121	-125.309	0.206	0.031
-532.106	-121.881	0.099	0.016
-531.091	-200.000	-0.007	0.060
-530.077	184.358	0.072	0.107
-529.062	38.831	0.184	-0.164
-528.048	37.149	-0.056	-0.049
-527.033	-200.000	0.007	0.036
-526.018	-27.487	-0.308	-0.179
-525.004	-138.942	-0.216	0.023
-523.989	-189.248	-0.236	0.003
-522.975	277.517	0.113	0.201
-521.960	36.102	-0.144	0.127
-520.945	86.584	-0.091	-0.101
-519.931	232.700	-0.251	0.412
-518.916	143.931	-0.059	0.079
-517.902	41.136	-0.121	-0.109
-516.887	7.288	-0.195	0.145
-515.872	86.314	0.158	-0.174
-514.858	162.253	0.044	0.061
-513.843	-200.000	0.037	0.283
-512.829	-15.447	0.153	0.098
-511.814	-142.765	-0.164	0.016
-510.799	-200.000	0.025	0.280
-509.785	-112.152	-0.214	0.043
-508.770	194.870	0.165	-0.250
-507.756	322.918	0.145	0.275
-506.741	-22.484	0.635	-0.384
-505.726	800.000	-0.085	-0.293
-504.712	67.186	0.226	-0.231
-503.697	-156.760	0.424	0.026
-502.683	35.398	-0.188	0.165
-501.668	-200.000	0.052	-0.277
-500.653	-148.322	-0.165	-0.014
-499.639	-92.395	-0.491	-0.138
-498.624	-45.354	-0.317	0.157
-497.610	100.519	-0.163	-0.190
-496.595	-89.321	-0.218	-0.064
-495.581	99.695	-0.343	-0.397
-494.566	115.243	-0.091	-0.111
-493.551	310.899	0.086	-0.160
-492.537	-155.785	-0.131	-0.008
-491.522	96.167	0.215	0.246
-490.508	800.000	-0.123	0.536
-489.493	-200.000	-0.036	0.421
-488.478	469.651	0.053	0.120
-487.464	205.470	-0.204	-0.317
-486.449	-200.000	0.057	0.381
-485.435	-33.329	-0.137	-0.076
-484.420	-200.000	-0.002	0.012
-483.405	83.365	0.115	0.125
-482.391	-200.000	-0.024	0.117
-481.376	800.000	-0.043	-0.146
-480.362	800.000	0.123	0.389
-479.347	178.822	0.157	-0.229
-478.332	-200.000	0.053	-0.243
-477.318	54.308	-0.150	0.144
-476.303	-94.491	0.290	0.079
-475.289	-16.258	0.060	-0.038
-474.274	-129.087	-0.072	0.010
-473.259	-72.571	-0.066	0.024
-472.245	-17.373	0.128	0.080
-471.230	53.588	0.219	0.210
-470.216	-200.000	-0.057	-0.328
-469.201	-200.000	0.001	-0.082
-468.186	238.509	0.058	-0.097
-467.172	800.000	0.108	-0.334
-466.157	-151.257	0.119	0.009
-465.143	98.320	0.369	-0.424
-464.128	-68.115	0.259	-0.101
-463.113	134.049	0.194	0.251
-462.099	-49.467	0.436	0.208
-461.084	556.496	-0.039	-0.095
-460.070	-90.819	-0.155	-0.045
-459.055	79.235	-0.099	0.105
-458.040	800.000	-0.031	-0.120
-457.026	-200.000	-0.044	-0.197
-456.011	-106.542	-0.178	-0.040
-454.997	66.145	0.151	0.153
-453.982	21.746	0.165	0.134
-452.968	66.966	0.146	0.148
-451.953	24.038	-0.186	0.153
-450.938	67.787	0.173	0.176
-449.924	214.606	-0.053	0.084
-448.909	-200.000	0.023	-0.210
-447.895	12.909	0.163	-0.126
-446.880	-43.721	0.108	0.054
-445.865	-173.837	0.049	0.001
-444.851	-38.751	0.203	-0.107
-443.836	-133.662	-0.409	-0.051
-442.822	-163.911	0.220	0.010
-441.807	800.000	0.051	-0.140
-440.792	-45.239	-0.301	-0.149
-439.778	536.570	-0.104	-0.247
-438.763	-83.901	0.222	-0.070
-437.749	-200.000	0.017	-0.133
-436.734	83.686	-0.161	-0.175
-435.719	-176.028	0.170	-0.004
-434.705	302.570	0.125	-0.231
-433.690	295.540	0.149	-0.271
-432.676	800.000	-0.079	0.238
-431.661	101.324	-0.037	-0.043
-430.646	225.188	-0.094	-0.151
-429.632	-74.251	0.188	-0.068
-428.617	291.916	0.154	-0.280
-427.603	-100.942	0.174	0.043
-426.588	155.889	-0.073	-0.100
-425.573	-200.000	-0.050	0.223
-424.559	96.175	-0.123	0.140
-423.544	31.763	-0.477	0.409
-422.530	46.202	0.145	0.134
-421.515	-134.188	-0.165	-0.020
-420.500	-36.400	-0.218	-0.117
-419.486	138.485	0.185	0.242
-418.471	-58.996	-0.166	-0.072
-417.457	-100.135	-0.153	0.038
-416.442	104.556	0.131	-0.154
-415.428	-22.626	0.331	-0.199
-414.413	286.709	0.125	0.225
-413.398	89.468	-0.163	-0.181
-412.384	-51.342	0.200	-0.093
-411.369	133.551	-0.210	0.270
-410.355	39.083	0.211	-0.188
-409.340	-71.537	-0.406	-0.151
-408.325	-52.952	-0.166	-0.076
-407.311	-118.439	-0.194	-0.034
-406.296	-53.725	0.160	-0.073
-405.282	-200.000	-0.012	-0.145
-404.267	-15.528	-0.096	-0.061
-403.252	70.198	-0.091	-0.094
-402.238	-108.725	0.255	0.054
-401.223	-200.000	-0.021	0.171
-400.209	-132.035	-0.405	-0.052
-399.194	-164.588	-0.093	-0.004
-398.179	33.222	0.127	0.110
-397.165	-26.743	0.186	0.108
-396.150	261.805	-0.084	-0.146
-395.136	344.692	-0.059	-0.115
-394.121	484.535	0.048	-0.109
-393.106	156.299	-0.051	-0.070
-392.092	-12.268	-0.045	-0.029
-391.077	181.942	0.198	0.291
-390.063	-25.507	-0.124	-0.073
-389.048	33.580	-0.098	0.084
-388.033	188.915	0.106	-0.157
-387.019	-184.166	0.433	-0.007
-386.004	64.086	0.192	-0.192
-384.990	627.273	0.068	0.171
-383.975	130.075	-0.165	0.210
-382.960	-27.110	-0.135	-0.078
-381.946	-200.000	0.045	0.260
-380.931	-200.000	0.051	0.303
-379.917	-17.832	0.472	-0.295
-378.902	279.214	0.104	-0.184
-377.888	-200.000	-0.009	-0.102
-376.873	-200.000	-0.063	0.324
-375.858	-200.000	0.019	0.410
-374.844	-78.866	0.256	0.087
-373.829	800.000	0.075	-0.250
-372.815	-116.881	0.213	0.039
-371.800	-47.737	-0.131	-0.063
-370.785	159.276	-0.233	0.322
-369.771	136.423	0.113	-0.147
-368.756	800.000	0.060	-0.183
-367.742	-200.000	0.014	-0.116
-366.727	-96.347	0.148	0.039
-365.712	173.099	-0.081	-0.116
-364.698	-15.257	-0.111	0.071
-363.683	800.000	-0.035	-0.096
-362.669	-51.848	0.202	-0.093
-361.654	-58.561	0.182	-0.079
-360.639	-200.000	-0.023	-0.384
-359.625	120.064	-0.241	-0.297
-358.610	-200.000	0.099	0.433
-357.596	-200.000	0.005	0.219
-356.581	-132.190	0.412	-0.053
-355.566	-59.981	0.160	0.068
-354.552	-7.537	-0.257	0.173
-353.537	62.775	0.191	-0.190
-352.523	646.351	-0.107	0.271
-351.508	-131.755	-0.147	-0.019
-350.493	73.429	-0.197	0.205
-349.479	-136.381	0.268	0.031
-348.464	191.737	0.191	-0.286
-347.450	93.501	-0.104	-0.117
-346.435	800.000	0.061	0.171
-345.420	218.148	0.084	-0.133
-344.406	-200.000	0.021	0.285
-343.391	-200.000	0.003	-0.179
-342.377	102.614	-0.194	0.225
-341.362	20.236	-0.059	0.047
-340.348	147.532	0.254	0.340
-339.333	-103.395	0.299	-0.070
-338.318	-132.085	0.419	-0.054
-337.304	-18.713	-0.255	0.158
-336.289	-47.384	0.139	-0.067
-335.275	-200.000	-0.069	0.369
-334.260	447.210	0.121	-0.265
-333.245	-94.892	0.203	0.055
-332.231	55.550	0.151	0.145
-331.216	602.313	-0.023	-0.057
-330.202	154.811	0.058	0.079
-329.187	-200.000	0.002	-0.300
-328.172	-143.932	-0.316	-0.030
-327.158	-200.000	0.002	-0.090
-326.143	-123.934	-0.237	0.037
-325.129	-160.192	-0.139	-0.007
-324.114	-200.000	0.009	-0.054
-323.099	-141.705	-0.298	0.030
-322.085	800.000	0.028	-0.113
-321.070	800.000	0.073	-0.301
-320.056	800.000	-0.037	-0.107
-319.041	187.255	0.059	-0.087
-318.026	7.282	-0.212	-0.157
-317.012	732.599	0.037	-0.099
-315.997	-3.643	0.104	0.072
-314.983	800.000	-0.092	-0.324
-313.968	-134.080	-0.110	0.013
-312.953	-152.623	-0.140	0.010
-311.939	185.063	-0.149	0.220
-310.924	87.784	0.108	-0.119
-309.910	-149.682	0.076	0.006
-308.895	-200.000	-0.034	0.230
-307.880	161.336	0.259	-0.360
-306.866	-80.867	0.076	0.025
-305.851	-200.000	0.029	0.141
-304.837	126.853	0.142	0.179
-303.822	-123.148	-0.331	0.053
-302.807	-200.000	-0.005	0.291
-301.793	114.202	0.104	0.125
-300.778	-4.946	-0.251	0.171
-299.764	-34.252	-0.064	-0.035
-298.749	-55.006	-0.206	-0.092
-297.735	800.000	0.020	0.083
-296.720	-200.000	0.038	0.300
-295.705	139.658	-0.107	-0.140
-294.691	226.653	-0.075	-0.121
-293.676	800.000	0.070	-0.232
-292.662	-129.902	-0.329	0.045
-291.647	256.628	-0.081	-0.138
-290.632	-114.175	0.146	0.028
-289.618	525.908	0.083	0.194
-288.603	28.321	-0.184	0.154
-287.589	218.102	-0.152	0.241
-286.574	201.951	-0.153	-0.234
-285.559	-200.000	0.007	-0.098
-284.545	-165.282	0.180	0.008
-283.530	-137.808	-0.070	-0.008
-282.516	70.630	0.089	-0.091
-281.501	-70.145	-0.183	0.069
-280.486	-200.000	-0.022	0.171
-279.472	800.000	-0.071	0.214
-278.457	-66.822	-0.271	0.106
-277.443	-2.399	0.222	-0.154
-276.428	-200.000	-0.064	0.305
-275.413	25.650	0.062	-0.051
-274.399	23.989	0.180	0.147
-273.384	82.555	-0.278	-0.299
-272.370	519.608	0.032	-0.075
-271.355	-136.968	0.176	0.020
-270.340	14.275	0.280	0.216
-269.326	313.875	0.122	-0.227
-268.311	-200.000	0.035	0.374
-267.297	36.788	-0.468	-0.410
-266.282	800.000	-0.095	-0.261
-265.267	-133.183	-0.035	-0.004
-264.253	-14.966	-0.216	-0.137
-263.238	-96.473	0.316	0.083
-262.224	-9.378	-0.118	0.078
-261.209	800.000	0.062	0.215
-260.195	-200.000	0.002	-0.096
-259.180	-145.543	-0.209	0.019
-258.165	-105.283	-0.124	0.028
-257.151	643.841	0.049	0.123
-256.136	-200.000	-0.048	0.251
-255.122	44.220	-0.121	-0.110
-254.107	-114.848	0.240	-0.045
-253.092	-106.344	-0.364	0.081
-252.078	-94.139	0.239	-0.065
-251.063	124.077	0.040	0.050
-250.049	-200.000	0.024	-0.350
-249.034	321.667	-0.147	-0.278
-248.019	-127.956	-0.305	0.043
-247.005	-182.833	0.507	0.009
-245.990	-104.327	0.388	0.089
-244.976	-22.754	-0.176	-0.105
-243.961	145.374	0.061	0.081
-242.946	-17.233	0.144	-0.090
-241.932	311.708	-0.110	-0.203
-240.917	-16.113	-0.272	0.171
-239.903	-79.779	-0.200	0.067
-238.888	-112.922	-0.200	-0.039
-237.873	-200.000	0.032	0.226
-236.859	-156.265	0.318	-0.020
-235.844	-83.897	0.098	-0.031
-234.830	-143.427	0.075	0.007
-233.815	-44.916	0.120	-0.059
-232.800	-13.213	0.142	-0.091
-231.786	-200.000	0.003	-0.018
-230.771	-19.558	0.106	0.065
-229.757	-72.992	-0.480	0.174
-228.742	41.897	-0.102	-0.091
-227.727	800.000	-0.104	-0.291
-226.713	139.376	-0.018	-0.024
-225.698	245.727	-0.123	0.204
-224.684	28.081	-0.145	-0.121
-223.669	800.000	-0.010	-0.034
-222.655	56.843	0.124	-0.119
-221.640	748.791	0.074	0.198
-220.625	620.042	0.080	-0.199
-219.611	-200.000	0.023	0.099
-218.596	0.551	0.214	-0.151
-217.582	800.000	0.095	-0.287
-216.567	800.000	-0.038	0.137
-215.552	67.362	0.233	-0.235
-214.538	45.117	0.143	-0.130
-213.523	-18.077	0.331	0.205
-212.509	-76.176	-0.248	-0.086
-211.494	-132.225	0.196	0.025
-210.479	10.669	0.158	0.119
-209.465	-200.000	-0.065	0.363
-208.450	150.151	0.145	-0.195
-207.436	-181.606	0.141	-0.003
-206.421	582.252	0.097	0.234
-205.406	-124.364	0.354	-0.055
-204.392	522.787	-0.173	0.401
-203.377	29.932	-0.190	-0.160
-202.363	800.000	0.100	0.302
-201.348	612.613	0.049	0.121
-200.333	-47.825	0.122	0.058
-199.319	498.642	0.071	-0.161
-198.304	139.137	0.131	-0.171
-197.290	-55.701	-0.233	0.103
-196.275	-200.000	0.034	0.377
-195.260	24.304	-0.139	-0.113
-194.246	5.232	-0.144	0.105
-193.231	-200.000	-0.004	-0.067
-192.217	90.175	-0.120	0.132
-191.202	-200.000	0.003	0.279
-190.187	269.089	-0.096	0.166
-189.173	732.939	-0.109	-0.288
-188.158	-200.000	0.023	0.157
-187.144	351.072	0.157	0.307
-186.129	-133.988	-0.299	-0.037
-185.114	800.000	-0.023	0.064
-184.100	-66.376	-0.211	-0.083
-183.085	173.421	-0.214	0.304
-182.071	-200.000	-0.024	0.346
-181.056	-200.000	-0.018	0.125
-180.042	-55.043	-0.170	-0.076
-179.027	267.394	-0.109	0.188
-178.012	-43.818	0.102	0.050
-176.998	-47.868	0.143	-0.068
-175.983	230.274	-0.145	0.234
-174.969	125.491	0.082	-0.103
-173.954	-200.000	0.000	0.399
-172.939	3.432	-0.343	0.246
-171.925	222.275	-0.064	0.102
-170.910	-142.500	0.026	-0.003
-169.896	-105.349	0.286	0.064
-168.881	-144.333	-0.192	0.018
-167.866	239.785	-0.014	0.023
-166.852	-120.506	-0.325	-0.054
-165.837	-104.774	0.162	0.037
-164.823	-135.823	0.142	-0.017
-163.808	-5.253	-0.316	0.214
-162.793	17.241	0.210	-0.164
-161.779	-140.626	-0.017	0.002
-160.764	-200.000	-0.018	0.227
-159.750	-200.000	0.050	-0.345
-158.735	310.541	0.089	-0.164
-157.720	-58.423	-0.110	0.047
-156.706	800.000	0.001	-0.003
-155.691	556.788	-0.063	-0.151
-154.677	-107.690	-0.098	0.021
-153.662	90.028	0.188	0.207
-152.647	622.354	0.024	0.059
-151.633	-200.000	-0.010	0.063
-150.618	-200.000	0.011	-0.144
-149.604	54.139	-0.321	0.305
-148.589	-10.523	-0.087	-0.057
-147.574	800.000	-0.124	0.500
-146.560	394.657	0.065	0.133
-145.545	-41.312	-0.099	-0.050
-144.531	-79.947	0.120	-0.040
-143.516	212.218	0.112	0.174
-142.502	-83.147	0.180	0.057
-141.487	-89.103	-0.332	0.097
-140.472	-200.000	-0.029	0.222
-139.458	-107.162	0.177	-0.038
-138.443	-138.281	0.158	0.017
-137.429	800.000	-0.038	0.152
-136.414	-152.725	0.401	-0.028
-135.399	-20.140	0.125	-0.076
-134.385	-1.380	0.144	-0.100
-133.370	-41.028	-0.081	0.041
-132.356	-123.167	-0.087	-0.014
-131.341	-63.565	-0.244	-0.098
-130.326	800.000	0.012	-0.044
-129.312	208.846	0.108	-0.166
-128.297	-25.753	0.238	0.138
-127.283	-102.653	-0.352	0.083
-126.268	-200.000	-0.033	0.219
-125.253	16.204	0.152	0.118
-124.239	-87.916	0.270	0.080
-123.224	-96.694	-0.233	-0.060
-122.210	74.084	-0.090	-0.093
-121.195	75.465	0.254	-0.264
