DTS Sentinel unit serial number:	SN413079Multiplexer serial number:	ORYXHardware model number:	OX4-SRSoftware version number:	ORYX F/W v4.00 Oryx Data Collector v3.7.2.0data status	okinstallation	princeton_trtdifferential loss correction	single-endedforward channel	channel 1reverse channel	N/Adate	2019/09/13time	08:18:35forward acquisition time	60.00reverse acquisition time	0.00gamma	496.2192k internal	0.2330k external	0.2330temperature offset calibration	1.0166default loss term (dB/km)	0.3790temperature slope calibration	1.0000multiplexer offset coefficient	1.0000multiplexer slope coefficient	1.0000fibre end	0.00T internal ref (°C)	27.19T ext. ref 1 (°C)	4.28T ext. ref 2 (°C)	23.13length (m)	temperature (°C)	Stokes	anti-Stokes-747.200	157.949	-0.131	-0.183
-746.185	245.271	0.147	0.249
-745.171	800.000	-0.067	0.210
-744.156	-0.235	-0.220	0.157
-743.142	672.119	-0.079	-0.207
-742.127	-122.216	-0.197	-0.032
-741.112	-200.000	0.008	0.230
-740.098	-200.000	0.015	0.136
-739.083	-80.863	-0.266	-0.089
-738.069	-76.828	0.247	0.087
-737.054	800.000	0.031	0.116
-736.039	124.784	-0.189	0.240
-735.025	-3.542	0.275	-0.193
-734.010	-116.930	-0.197	0.036
-732.996	-3.709	0.123	-0.086
-731.981	-132.658	-0.222	-0.029
-730.966	73.719	-0.234	0.246
-729.952	-54.018	0.100	0.046
-728.937	-173.174	0.331	0.010
-727.923	642.185	-0.115	-0.294
-726.908	-200.000	0.015	-0.193
-725.894	-25.549	-0.367	0.218
-724.879	-106.552	0.203	-0.045
-723.864	-77.734	-0.355	-0.123
-722.850	-200.000	0.055	-0.267
-721.835	-123.145	0.178	0.029
-720.821	-7.450	-0.179	0.122
-719.806	1.104	-0.300	-0.216
-718.791	167.366	0.125	0.179
-717.777	-88.362	0.152	0.046
-716.762	-200.000	-0.032	0.249
-715.748	549.913	-0.130	-0.314
-714.733	-159.804	-0.325	-0.018
-713.718	-200.000	0.028	0.346
-712.704	-200.000	0.009	-0.135
-711.689	800.000	0.018	0.053
-710.675	800.000	0.081	-0.274
-709.660	800.000	0.019	0.058
-708.645	-200.000	-0.060	0.464
-707.631	-200.000	0.013	0.088
-706.616	133.953	0.071	-0.092
-705.602	-85.057	0.180	-0.057
-704.587	46.056	0.017	-0.016
-703.572	118.836	-0.136	0.170
-702.558	-73.705	0.122	-0.045
-701.543	240.770	-0.150	-0.252
-700.529	160.830	-0.141	0.198
-699.514	-136.752	-0.209	0.024
-698.499	-66.327	-0.051	0.020
-697.485	800.000	-0.087	0.355
-696.470	671.360	0.043	-0.113
-695.456	-200.000	0.030	0.173
-694.441	-165.113	-0.090	-0.004
-693.426	155.120	-0.153	-0.211
-692.412	-47.757	-0.192	-0.093
-691.397	99.404	-0.146	0.170
-690.383	-200.000	0.019	-0.083
-689.368	-106.723	-0.140	0.031
-688.354	40.790	-0.183	0.166
-687.339	397.762	-0.139	0.291
-686.324	-59.455	-0.228	0.098
-685.310	328.918	0.161	0.312
-684.295	324.423	-0.082	-0.158
-683.281	485.923	0.105	0.240
-682.266	564.895	0.109	-0.266
-681.251	5.081	0.180	-0.133
-680.237	274.467	0.138	-0.246
-679.222	-87.772	0.161	-0.049
-678.208	-15.856	-0.124	0.079
-677.193	-111.412	0.222	-0.046
-676.178	-15.019	-0.259	-0.167
-675.164	-55.636	0.174	0.078
-674.149	57.313	0.076	-0.074
-673.135	-133.106	0.128	0.016
-672.120	800.000	-0.053	0.226
-671.105	39.334	0.083	0.075
-670.091	383.932	0.034	0.069
-669.076	-70.552	-0.245	0.093
-668.062	35.382	0.079	0.070
-667.047	-200.000	0.049	0.435
-666.032	8.491	0.198	0.149
-665.018	66.845	-0.181	-0.185
-664.003	-43.979	-0.190	-0.096
-662.989	210.849	-0.249	-0.392
-661.974	-200.000	0.027	-0.318
-660.959	-200.000	0.055	-0.321
-659.945	-200.000	-0.068	0.343
-658.930	-167.607	0.182	0.007
-657.916	-200.000	0.004	0.171
-656.901	120.149	0.234	0.292
-655.886	-98.847	-0.142	0.036
-654.872	168.728	0.192	0.274
-653.857	-85.090	-0.129	-0.041
-652.843	19.665	0.051	-0.041
-651.828	101.769	0.084	-0.098
-650.814	-169.630	-0.053	-0.002
-649.799	-144.705	0.421	-0.039
-648.784	83.204	-0.249	-0.272
-647.770	441.974	-0.172	-0.378
-646.755	-67.131	-0.274	0.108
-645.741	-50.165	-0.080	0.038
-644.726	338.263	0.283	-0.552
-643.711	-200.000	0.033	-0.276
-642.697	70.026	-0.114	0.118
-641.682	145.408	-0.134	-0.180
-640.668	-200.000	-0.024	0.223
-639.653	175.622	-0.121	-0.176
-638.638	124.658	-0.244	0.308
-637.624	281.373	0.077	0.138
-636.609	-200.000	0.033	-0.257
-635.595	800.000	-0.044	-0.164
-634.580	-70.389	-0.433	0.165
-633.565	212.345	-0.118	0.187
-632.551	-76.571	-0.215	0.076
-631.536	-200.000	-0.088	0.582
-630.522	-200.000	-0.007	-0.067
-629.507	-121.948	0.020	0.003
-628.492	-91.265	0.044	0.013
-627.478	-99.592	0.319	0.080
-626.463	-35.814	-0.151	0.082
-625.449	407.890	0.083	-0.175
-624.434	-110.776	0.190	-0.039
-623.419	226.111	-0.135	-0.220
-622.405	-113.424	0.152	-0.030
-621.390	-105.462	0.146	0.033
-620.376	673.669	-0.187	-0.487
-619.361	169.350	0.089	-0.128
-618.346	328.764	0.077	-0.147
-617.332	513.000	0.058	0.137
-616.317	4.447	-0.147	0.108
-615.303	-200.000	0.055	-0.245
-614.288	-104.876	-0.124	0.029
-613.273	207.675	-0.076	0.119
-612.259	154.979	-0.197	-0.271
-611.244	-159.858	0.304	0.017
-610.230	-183.710	0.338	-0.006
-609.215	-94.004	-0.029	0.008
-608.201	-107.030	0.237	-0.052
-607.186	800.000	0.146	0.466
-606.171	755.988	-0.074	0.201
-605.157	-132.253	-0.139	0.018
-604.142	-200.000	0.000	-0.296
-603.128	-200.000	-0.054	0.440
-602.113	-162.044	0.118	-0.006
-601.098	-53.020	-0.389	-0.179
-600.084	122.045	-0.063	-0.078
-599.069	-200.000	0.020	-0.322
-598.055	800.000	0.173	-0.556
-597.040	412.556	0.065	0.139
-596.025	-99.632	0.353	-0.089
-595.011	8.746	-0.240	-0.181
-593.996	-150.134	-0.279	0.022
-592.982	296.368	0.078	0.143
-591.967	-55.687	0.172	-0.077
-590.952	54.637	-0.096	-0.092
-589.938	-72.141	0.149	-0.055
-588.923	-141.322	-0.340	0.035
-587.909	43.860	0.161	-0.148
-586.894	-31.439	-0.152	-0.085
-585.879	269.965	-0.120	0.211
-584.865	-79.092	-0.148	0.050
-583.850	-133.613	0.275	0.034
-582.836	16.279	0.304	-0.240
-581.821	-10.281	0.099	-0.066
-580.806	-152.788	-0.186	0.013
-579.792	582.034	-0.076	-0.186
-578.777	29.009	0.199	0.169
-577.763	79.372	-0.208	0.223
-576.748	-38.641	-0.062	-0.033
-575.733	79.104	-0.251	0.269
-574.719	-200.000	0.006	0.047
-573.704	-133.562	0.266	-0.033
-572.690	-181.646	-0.305	0.006
-571.675	129.612	0.021	-0.027
-570.661	57.063	0.152	0.148
-569.646	421.781	0.151	-0.324
-568.631	-200.000	0.017	-0.281
-567.617	-84.746	-0.186	-0.058
-566.602	-200.000	-0.001	-0.506
-565.588	57.003	0.209	0.204
-564.573	-200.000	-0.006	0.040
-563.558	-2.127	0.176	-0.124
-562.544	51.935	0.041	-0.039
-561.529	-24.583	-0.242	0.144
-560.515	800.000	0.063	0.248
-559.500	-200.000	-0.009	0.102
-558.485	-200.000	-0.005	0.155
-557.471	94.235	0.140	0.159
-556.456	-138.383	-0.385	0.042
-555.442	-78.692	0.181	0.062
-554.427	800.000	0.029	-0.101
-553.412	43.998	0.185	0.169
-552.398	-50.117	0.166	-0.079
-551.383	32.774	0.291	-0.251
-550.369	-19.816	-0.120	-0.074
-549.354	-81.770	0.204	-0.067
-548.339	-200.000	-0.017	0.127
-547.325	-90.033	-0.213	0.062
-546.310	214.418	-0.096	0.152
-545.296	295.035	-0.074	0.136
-544.281	-200.000	0.019	0.125
-543.266	148.402	0.129	-0.174
-542.252	-102.819	-0.048	-0.011
-541.237	-200.000	0.052	0.259
-540.223	4.235	-0.124	-0.090
-539.208	-104.282	0.158	-0.037
-538.193	527.379	-0.089	-0.210
-537.179	-106.147	-0.081	0.018
-536.164	22.680	0.183	-0.150
-535.150	-200.000	-0.006	0.185
-534.135	-185.473	0.391	-0.006
-533.121	-38.050	0.064	-0.034
-532.106	-51.642	-0.371	-0.173
-531.091	350.201	-0.053	-0.105
-530.077	-108.576	0.271	0.058
-529.062	-117.108	0.253	-0.046
-528.048	322.572	-0.062	-0.119
-527.033	484.556	-0.080	-0.182
-526.018	43.839	-0.278	0.254
-525.004	113.223	-0.188	-0.227
-523.989	-200.000	0.018	0.244
-522.975	-19.153	-0.418	0.259
-521.960	1.429	0.089	-0.064
-520.945	-200.000	0.041	-0.236
-519.931	355.972	0.068	0.135
-518.916	800.000	-0.065	0.267
-517.902	-68.927	-0.277	0.107
-516.887	100.907	0.106	0.123
-515.872	-83.956	-0.044	0.014
-514.858	800.000	-0.009	0.037
-513.843	74.773	-0.042	0.044
-512.829	-3.987	0.189	-0.131
-511.814	-89.355	-0.263	0.077
-510.799	413.986	-0.016	0.035
-509.785	800.000	0.143	0.556
-508.770	133.773	-0.079	-0.102
-507.756	36.484	0.363	-0.320
-506.741	-110.290	0.097	-0.020
-505.726	276.477	-0.159	-0.282
-504.712	-41.089	-0.072	-0.037
-503.697	240.510	-0.015	-0.025
-502.683	-152.563	0.160	-0.011
-501.668	800.000	0.020	-0.083
-500.653	800.000	0.102	0.374
-499.639	122.202	-0.222	0.276
-498.624	-41.925	0.223	-0.114
-497.610	-102.129	0.407	0.098
-496.595	565.249	-0.073	-0.177
-495.581	1.530	-0.109	-0.078
-494.566	-133.824	0.287	0.036
-493.551	235.213	0.185	0.305
-492.537	255.643	0.239	0.409
-491.522	800.000	-0.047	-0.200
-490.508	-80.092	0.226	-0.076
-489.493	-50.135	-0.279	0.132
-488.478	89.837	-0.148	0.164
-487.464	-200.000	0.007	0.452
-486.449	-200.000	0.029	0.338
-485.435	159.706	0.379	0.526
-484.420	168.500	0.103	-0.147
-483.405	76.636	-0.147	-0.155
-482.391	-44.962	0.136	0.067
-481.376	-103.643	0.369	-0.086
-480.362	-200.000	-0.013	-0.356
-479.347	618.478	-0.055	0.138
-478.332	219.819	0.142	-0.227
-477.318	2.138	-0.213	0.153
-476.303	-200.000	0.015	-0.188
-475.289	-74.909	-0.184	-0.066
-474.274	-200.000	0.001	0.361
-473.259	800.000	-0.048	-0.174
-472.245	98.421	-0.077	0.088
-471.230	-168.079	0.248	0.010
-470.216	-200.000	0.042	-0.255
-469.201	329.966	0.008	-0.015
-468.186	18.303	-0.120	-0.095
-467.172	800.000	-0.044	0.125
-466.157	800.000	0.061	0.192
-465.143	95.474	0.034	0.039
-464.128	-200.000	0.030	-0.160
-463.113	702.994	-0.027	-0.072
-462.099	554.259	0.119	0.285
-461.084	-200.000	0.003	0.256
-460.070	577.966	-0.062	0.151
-459.055	-198.346	-0.331	0.002
-458.040	-99.629	0.361	0.090
-457.026	-142.463	-0.165	0.016
-456.011	331.953	0.039	-0.075
-454.997	732.565	0.060	0.159
-453.982	86.412	-0.122	-0.133
-452.968	621.190	-0.063	-0.158
-451.953	19.426	-0.092	-0.074
-450.938	19.231	-0.062	-0.049
-449.924	412.603	0.130	0.276
-448.909	-62.544	0.344	-0.142
-447.895	800.000	0.072	0.280
-446.880	682.223	-0.139	0.362
-445.865	7.083	0.106	0.079
-444.851	62.133	0.251	0.250
-443.836	138.933	0.122	0.160
-442.822	-38.449	-0.033	-0.017
-441.807	144.572	-0.189	0.251
-440.792	800.000	0.059	0.175
-439.778	-173.171	0.263	0.008
-438.763	188.450	-0.195	-0.290
-437.749	-132.676	0.163	0.021
-436.734	571.621	-0.048	0.116
-435.719	15.464	-0.158	0.123
-434.705	-106.268	0.022	0.005
-433.690	-200.000	0.005	0.275
-432.676	239.504	0.040	-0.067
-431.661	-28.294	-0.266	-0.153
-430.646	129.213	0.172	-0.218
-429.632	-98.913	-0.184	0.046
-428.617	-200.000	0.005	-0.064
-427.603	-143.342	-0.121	-0.012
-426.588	-42.129	0.192	0.098
-425.573	800.000	-0.095	-0.327
-424.559	-200.000	0.005	-0.370
-423.544	48.519	-0.105	-0.097
-422.530	171.868	-0.197	-0.282
-421.515	-151.697	0.091	0.007
-420.500	65.661	0.241	0.243
-419.486	-39.899	-0.179	0.093
-418.471	800.000	0.061	0.205
-417.457	-78.560	-0.093	-0.032
-416.442	36.243	-0.048	0.042
-415.428	800.000	0.069	0.221
-414.413	-200.000	-0.016	0.126
-413.398	-200.000	0.016	-0.100
-412.384	527.411	-0.123	0.289
-411.369	149.974	0.230	-0.310
-410.355	800.000	-0.039	0.119
-409.340	13.732	-0.112	-0.087
-408.325	-93.366	-0.189	0.052
-407.311	800.000	0.038	-0.137
-406.296	800.000	0.033	0.120
-405.282	13.948	0.160	0.124
-404.267	65.081	0.284	0.285
-403.252	359.406	0.264	0.525
-402.238	-64.331	-0.032	0.013
-401.223	68.977	-0.228	0.232
-400.209	-44.715	-0.079	-0.039
-399.194	-49.472	0.142	0.067
-398.179	-42.335	-0.279	-0.141
-397.165	-200.000	0.038	-0.300
-396.150	36.102	0.093	0.081
-395.136	-200.000	-0.006	0.163
-394.121	108.999	-0.067	-0.079
-393.106	-103.484	-0.292	0.068
-392.092	154.943	0.177	-0.241
-391.077	-57.018	-0.300	-0.131
-390.063	-93.205	-0.113	0.031
-389.048	704.433	0.143	0.374
-388.033	-200.000	-0.022	-0.146
-387.019	-10.891	0.301	0.197
-386.004	-200.000	-0.008	-0.347
-384.990	-81.683	-0.055	-0.018
-383.975	-153.089	-0.329	0.023
-382.960	-12.772	0.117	-0.075
-381.946	169.404	0.117	0.166
-380.931	-200.000	0.004	-0.187
-379.917	-97.778	0.144	-0.037
-378.902	-71.203	0.115	-0.043
-377.888	13.505	-0.049	-0.038
-376.873	-200.000	-0.002	-0.085
-375.858	7.236	-0.126	0.093
-374.844	800.000	0.035	-0.140
-373.829	-104.717	0.131	0.030
-372.815	-105.248	0.218	0.049
-371.800	-200.000	0.013	-0.095
-370.785	-36.376	-0.121	-0.065
-369.771	-141.458	0.313	0.031
-368.756	118.186	0.107	0.131
-367.742	202.463	-0.196	-0.300
-366.727	-148.635	-0.229	0.019
-365.712	-98.870	0.076	-0.019
-364.698	620.716	-0.200	-0.498
-363.683	353.696	-0.084	-0.166
-362.669	387.635	0.114	-0.234
-361.654	800.000	0.029	-0.089
-360.639	117.589	-0.312	0.381
-359.625	231.361	0.085	-0.138
-358.610	98.313	-0.250	-0.286
-357.596	72.592	-0.061	0.063
-356.581	93.143	0.081	-0.091
-355.566	-106.298	-0.091	0.020
-354.552	-200.000	0.000	0.281
-353.537	-83.363	0.045	0.014
-352.523	800.000	-0.107	-0.380
-351.508	800.000	0.083	0.274
-350.493	337.002	0.096	-0.185
-349.479	321.126	-0.114	-0.214
-348.464	-147.230	0.120	0.010
-347.450	-49.741	-0.183	0.086
-346.435	107.715	-0.200	0.237
-345.420	800.000	-0.029	-0.080
-344.406	32.971	-0.160	0.137
-343.391	10.555	-0.212	0.160
-342.377	50.116	-0.384	-0.359
-341.362	78.151	-0.228	-0.241
-340.348	-54.060	-0.260	-0.117
-339.333	22.041	0.149	0.121
-338.318	-76.796	-0.174	0.061
-337.304	800.000	0.078	-0.325
-336.289	800.000	-0.007	-0.019
-335.275	-200.000	-0.008	-0.209
-334.260	-200.000	0.010	0.132
-333.245	91.856	0.259	-0.289
-332.231	320.428	0.027	-0.051
-331.216	470.541	-0.008	-0.017
-330.202	178.108	-0.171	0.247
-329.187	-200.000	-0.007	-0.233
-328.172	-43.632	0.337	-0.168
-327.158	59.840	-0.060	0.059
-326.143	168.615	-0.163	0.230
-325.129	-83.936	-0.333	-0.105
-324.114	-77.957	-0.162	0.055
-323.099	451.475	-0.094	0.206
-322.085	-94.052	-0.305	-0.083
-321.070	-93.338	0.153	-0.042
-320.056	-117.177	0.035	0.006
-319.041	-161.020	0.146	-0.008
-318.026	18.641	0.148	0.117
-317.012	63.545	0.156	0.155
-315.997	-86.097	-0.099	0.030
-314.983	-200.000	0.025	-0.290
-313.968	160.960	-0.150	-0.207
-312.953	-89.273	0.203	-0.059
-311.939	-200.000	-0.005	-0.161
-310.924	-53.478	0.169	-0.077
-309.910	-165.947	0.088	0.004
-308.895	-15.122	-0.442	-0.280
-307.880	84.363	-0.275	0.297
-306.866	97.072	-0.260	0.295
-305.851	-200.000	-0.005	0.142
-304.837	191.241	0.105	-0.157
-303.822	-145.123	0.234	-0.021
-302.807	115.411	-0.054	-0.065
-301.793	-70.800	-0.233	-0.087
-300.778	-32.449	0.100	-0.055
-299.764	-71.513	-0.103	0.038
-298.749	800.000	0.033	-0.095
-297.735	-18.377	0.144	-0.089
-296.720	207.979	-0.072	0.112
-295.705	-83.658	0.183	-0.058
-294.691	-200.000	-0.012	0.342
-293.676	60.502	-0.323	-0.316
-292.662	-27.502	0.383	0.220
-291.647	73.836	0.100	-0.104
-290.632	10.716	0.139	0.105
-289.618	248.371	-0.140	0.235
-288.603	93.514	-0.043	-0.048
-287.589	-200.000	0.026	-0.251
-286.574	-77.612	0.167	-0.057
-285.559	-7.633	0.187	0.125
-284.545	99.613	0.101	-0.116
-283.530	42.286	-0.109	0.098
-282.516	132.761	-0.283	-0.362
-281.501	-112.107	0.210	-0.042
-280.486	94.002	0.133	-0.149
-279.472	506.761	0.094	0.215
-278.457	-200.000	-0.022	0.418
-277.443	279.722	-0.136	0.241
-276.428	148.932	0.169	0.226
-275.413	-200.000	0.050	0.315
-274.399	-43.626	-0.418	0.209
-273.384	38.058	0.232	-0.204
-272.370	144.350	-0.026	-0.035
-271.355	-37.422	-0.267	-0.141
-270.340	52.156	-0.188	-0.178
-269.326	-42.605	-0.405	0.204
-268.311	76.841	0.244	-0.256
-267.297	13.242	-0.400	-0.306
-266.282	155.882	-0.118	0.161
-265.267	-91.270	0.476	0.135
-264.253	43.888	0.148	0.134
-263.238	-49.612	0.159	0.075
-262.224	635.467	0.086	-0.216
-261.209	-200.000	-0.021	0.232
-260.195	141.753	0.102	-0.133
-259.180	-138.924	0.189	-0.020
-258.165	523.333	-0.129	0.300
-257.151	-200.000	0.023	-0.103
-256.136	67.639	-0.169	-0.171
-255.122	-65.658	-0.331	-0.131
-254.107	-13.256	-0.197	-0.126
-253.092	31.428	0.200	-0.170
-252.078	-119.337	0.117	0.020
-251.063	549.803	-0.138	0.326
-250.049	67.238	-0.113	-0.113
-249.034	800.000	0.062	-0.231
-248.019	800.000	-0.031	0.083
-247.005	-67.240	-0.345	-0.134
-245.990	-152.854	0.538	0.038
-244.976	-100.706	-0.074	0.018
-243.961	341.558	0.124	0.240
-242.946	-200.000	-0.006	-0.337
-241.932	-200.000	0.010	-0.257
-240.917	-61.084	-0.102	-0.042
-239.903	-66.576	0.031	-0.012
-238.888	800.000	0.035	-0.142
-237.873	-54.764	-0.236	0.105
-236.859	99.716	-0.173	-0.198
-235.844	115.617	0.182	0.220
-234.830	-36.518	0.124	-0.066
-233.815	27.140	0.126	-0.104
-232.800	-21.365	0.100	0.060
-231.786	-80.386	-0.187	0.062
-230.771	-41.604	0.095	0.048
-229.757	447.855	0.120	-0.260
-228.742	426.797	-0.221	0.470
-227.727	70.241	-0.181	-0.184
-226.713	-200.000	0.013	-0.243
-225.698	91.525	-0.236	-0.262
-224.684	-70.630	0.204	0.076
-223.669	204.839	0.056	-0.086
-222.655	-131.864	-0.131	0.017
-221.640	-87.021	-0.311	-0.093
-220.625	162.656	-0.137	0.190
-219.611	-97.308	0.312	0.080
-218.596	209.576	0.158	0.245
-217.582	281.037	0.045	-0.080
-216.567	101.794	-0.051	0.059
-215.552	-200.000	-0.030	0.188
-214.538	-49.734	0.302	0.142
-213.523	-200.000	0.019	0.278
-212.509	761.537	-0.091	-0.243
-211.494	-14.743	-0.078	0.050
-210.479	-97.978	0.139	-0.035
-209.465	-200.000	0.008	-0.165
-208.450	-200.000	-0.023	-0.138
-207.436	54.043	-0.165	0.157
-206.421	800.000	-0.012	0.036
-205.406	800.000	-0.041	0.127
-204.392	800.000	-0.082	0.271
-203.377	-200.000	-0.006	0.104
-202.363	99.586	-0.191	0.218
-201.348	311.235	0.070	0.129
-200.333	-200.000	-0.016	-0.133
-199.319	-185.212	0.318	0.005
-198.304	-129.990	-0.512	-0.069
-197.290	-86.726	-0.069	0.021
-196.275	-200.000	0.018	0.328
-195.260	-91.093	-0.173	-0.049
-194.246	-96.200	-0.158	0.041
-193.231	-160.735	-0.192	0.010
-192.217	448.319	-0.118	-0.256
-191.202	800.000	0.020	0.078
-190.187	59.864	0.048	-0.047
-189.173	328.293	-0.098	-0.185
-188.158	800.000	-0.017	-0.052
-187.144	182.843	-0.296	0.430
-186.129	-200.000	0.093	0.533
-185.114	-127.945	0.250	-0.035
-184.100	-85.582	-0.269	0.082
-183.085	146.399	-0.145	-0.191
-182.071	51.912	0.231	-0.217
-181.056	103.860	0.254	-0.293
-180.042	-139.253	0.361	0.038
-179.027	-133.825	0.095	0.012
-178.012	800.000	0.095	-0.351
-176.998	-122.057	0.190	-0.031
-175.983	-128.844	0.131	0.018
-174.969	427.630	-0.068	-0.145
-173.954	-0.567	0.253	-0.177
-172.939	-67.910	0.194	0.075
-171.925	-44.531	0.250	-0.123
-170.910	-200.000	0.052	-0.233
-169.896	478.949	-0.052	0.116
-168.881	-109.283	-0.075	-0.016
-167.866	800.000	-0.026	-0.104
-166.852	212.616	0.201	-0.312
-165.837	233.036	0.069	0.112
-164.823	-200.000	0.065	-0.000
-163.808	28.732	0.304	-0.254
-162.793	235.133	0.130	0.210
-161.779	19.506	-0.174	0.137
-160.764	-9.724	-0.348	0.228
-159.750	22.498	0.251	0.202
-158.735	87.411	0.286	0.312
-157.720	22.821	-0.290	0.234
-156.706	-94.064	0.248	-0.067
-155.691	101.756	-0.102	-0.117
-154.677	-97.532	0.360	0.092
-153.662	-108.001	-0.250	0.053
-152.647	-200.000	0.012	-0.101
-151.633	-43.474	0.354	-0.176
-150.618	608.412	0.018	-0.045
-149.604	-68.686	-0.148	-0.056
-148.589	359.898	-0.059	0.116
-147.574	-56.159	0.100	0.044
-146.560	800.000	-0.035	-0.114
-145.545	177.655	0.086	0.124
-144.531	-58.027	-0.237	-0.102
-143.516	181.641	0.040	0.058
-142.502	-116.796	-0.160	-0.029
-141.487	-200.000	0.025	0.292
-140.472	800.000	0.203	0.779
-139.458	-104.540	0.227	-0.051
-138.443	-200.000	-0.012	0.481
-137.429	-186.194	-0.104	0.001
-136.414	-46.321	0.127	0.062
-135.399	-129.749	-0.089	-0.012
-134.385	-140.984	-0.105	-0.011
-133.370	800.000	0.034	-0.134
-132.356	-200.000	-0.000	-0.176
-131.341	68.189	0.206	-0.207
-130.326	-42.725	-0.179	0.089
-129.312	-83.074	0.137	0.043
-128.297	244.554	-0.082	-0.135
-127.283	15.335	0.201	0.155
-126.268	-23.504	0.265	0.156
-125.253	143.509	-0.066	0.087
-124.239	-189.829	0.454	-0.005
-123.224	-98.062	0.294	0.074
-122.210	-166.181	-0.264	-0.011
-121.195	-96.586	0.167	-0.043
-120.180	-33.715	0.069	-0.037
