DTS Sentinel unit serial number:	SN413079Multiplexer serial number:	ORYXHardware model number:	OX4-SRSoftware version number:	ORYX F/W v4.00 Oryx Data Collector v3.7.2.0data status	okinstallation	princeton_trtdifferential loss correction	single-endedforward channel	channel 1reverse channel	N/Adate	2019/09/16time	14:34:35forward acquisition time	60.00reverse acquisition time	0.00gamma	496.2192k internal	0.2293k external	0.2293temperature offset calibration	0.9950default loss term (dB/km)	0.3790temperature slope calibration	1.0000multiplexer offset coefficient	1.0000multiplexer slope coefficient	1.0000fibre end	0.00T internal ref (°C)	41.81T ext. ref 1 (°C)	14.27T ext. ref 2 (°C)	36.22length (m)	temperature (°C)	Stokes	anti-Stokes-747.200	-190.757	0.083	-0.001
-746.185	-200.000	0.000	0.105
-745.171	-55.669	-0.112	0.051
-744.156	-169.039	0.298	0.011
-743.142	-200.000	0.004	0.024
-742.127	45.195	-0.259	0.245
-741.112	-29.050	-0.306	-0.180
-740.098	33.446	0.279	0.248
-739.083	-200.000	0.462	0.000
-738.069	561.107	0.116	0.286
-737.054	101.452	-0.012	-0.015
-736.039	-47.245	-0.200	0.100
-735.025	-64.248	0.457	0.190
-734.010	-200.000	-0.008	0.235
-732.996	-200.000	0.003	-0.465
-731.981	151.636	0.079	-0.111
-730.966	-200.000	0.005	-0.033
-729.952	116.020	0.205	0.257
-728.937	800.000	-0.087	-0.250
-727.923	434.845	0.142	-0.316
-726.908	-34.097	-0.173	0.097
-725.894	125.245	-0.227	0.293
-724.879	104.418	-0.226	-0.273
-723.864	644.768	-0.077	-0.200
-722.850	-45.907	-0.089	0.045
-721.835	679.430	0.134	0.356
-720.821	-13.834	-0.157	-0.104
-719.806	-200.000	-0.012	0.193
-718.791	-200.000	0.074	-0.382
-717.777	-72.629	0.191	-0.072
-716.762	-137.055	-0.128	-0.015
-715.748	511.409	0.132	-0.315
-714.733	65.084	-0.040	-0.041
-713.718	-200.000	0.007	-0.086
-712.704	314.978	0.085	-0.163
-711.689	120.262	0.026	0.033
-710.675	-200.000	-0.050	-0.280
-709.660	-200.000	-0.028	-0.189
-708.645	-58.189	-0.093	0.041
-707.631	-200.000	0.006	0.350
-706.616	59.607	0.140	0.141
-705.602	-11.098	-0.368	-0.248
-704.587	-36.743	0.188	-0.103
-703.572	204.695	-0.158	0.250
-702.558	-115.812	-0.302	0.058
-701.543	284.953	-0.050	-0.092
-700.529	-48.607	0.313	0.154
-699.514	195.203	0.092	-0.143
-698.499	-110.236	0.190	-0.040
-697.485	800.000	-0.071	0.226
-696.470	127.422	0.131	-0.170
-695.456	478.191	0.059	0.135
-694.441	213.171	-0.016	0.025
-693.426	331.918	-0.116	-0.228
-692.412	-107.534	0.283	0.063
-691.397	-28.399	-0.115	-0.068
-690.383	-45.067	-0.433	0.220
-689.368	32.916	-0.386	0.341
-688.354	-48.409	-0.450	-0.221
-687.339	-80.665	0.320	-0.109
-686.324	98.146	0.044	0.052
-685.310	-200.000	-0.051	-0.321
-684.295	74.603	-0.122	-0.131
-683.281	52.135	0.069	-0.067
-682.266	351.813	-0.168	-0.339
-681.251	17.083	-0.158	-0.128
-680.237	664.002	-0.163	0.429
-679.222	17.182	-0.202	-0.163
-678.208	-200.000	-0.018	-0.257
-677.193	-138.372	-0.378	0.043
-676.178	-92.824	-0.267	-0.076
-675.164	-200.000	-0.091	-0.545
-674.149	800.000	0.087	-0.273
-673.135	800.000	0.020	0.067
-672.120	181.093	-0.030	0.045
-671.105	-38.133	-0.332	0.180
-670.091	-200.000	0.063	0.423
-669.076	-117.414	0.254	0.047
-668.062	-200.000	-0.003	0.045
-667.047	-117.873	0.125	-0.023
-666.032	800.000	-0.091	0.264
-665.018	-44.261	0.135	-0.069
-664.003	494.291	-0.083	-0.195
-662.989	-60.900	-0.368	0.159
-661.974	62.055	-0.198	0.201
-660.959	-85.915	-0.183	-0.058
-659.945	122.079	0.354	-0.450
-658.930	6.315	0.139	0.105
-657.916	-200.000	-0.061	0.473
-656.901	-6.432	0.210	-0.146
-655.886	-65.687	-0.093	-0.038
-654.872	-130.392	-0.330	0.046
-653.857	-129.185	-0.165	-0.023
-652.843	-22.244	0.123	0.076
-651.828	-81.427	0.118	-0.039
-650.814	-163.604	-0.136	-0.007
-649.799	216.691	0.126	-0.204
-648.784	-200.000	0.042	0.411
-647.770	179.821	0.161	0.241
-646.755	-137.676	-0.401	0.046
-645.741	-85.646	-0.307	0.097
-644.726	48.393	-0.280	0.267
-643.711	-65.940	0.239	-0.097
-642.697	-132.903	-0.337	0.044
-641.682	21.939	-0.151	-0.126
-640.668	-200.000	-0.013	-0.198
-639.653	-141.266	-0.172	-0.018
-638.638	39.443	0.076	-0.069
-637.624	13.562	-0.104	-0.082
-636.609	173.912	0.205	-0.301
-635.595	-55.484	-0.151	-0.069
-634.580	43.179	-0.171	-0.159
-633.565	221.866	0.151	-0.247
-632.551	-141.550	0.306	-0.031
-631.536	57.219	-0.176	-0.175
-630.522	31.831	0.016	-0.014
-629.507	235.620	0.079	-0.133
-628.492	513.351	0.067	0.160
-627.478	800.000	-0.110	-0.336
-626.463	-200.000	0.010	0.104
-625.449	12.153	-0.218	-0.171
-624.434	-200.000	-0.038	0.244
-623.419	-200.000	-0.001	-0.016
-622.405	-50.020	0.156	-0.075
-621.390	-45.774	0.435	-0.219
-620.376	800.000	-0.069	0.218
-619.361	-200.000	0.027	-0.326
-618.346	232.763	0.098	-0.164
-617.332	-2.555	-0.194	-0.139
-616.317	-200.000	-0.013	-0.078
-615.303	800.000	0.188	-0.535
-614.288	800.000	-0.129	-0.416
-613.273	53.156	-0.290	-0.283
-612.259	-200.000	-0.044	-0.241
-611.244	34.037	-0.088	-0.078
-610.230	-44.900	-0.201	0.102
-609.215	391.599	0.081	0.172
-608.201	350.566	-0.159	0.319
-607.186	-200.000	-0.065	-0.299
-606.171	288.569	0.077	-0.142
-605.157	-71.199	0.137	-0.052
-604.142	24.987	0.111	-0.094
-603.128	6.947	0.070	-0.053
-602.113	-200.000	0.010	0.136
-601.098	-54.477	-0.067	-0.031
-600.084	-49.529	0.190	-0.092
-599.069	121.190	0.041	0.052
-598.055	-53.464	-0.205	0.095
-597.040	-149.579	-0.120	0.010
-596.025	-193.746	-0.159	-0.001
-595.011	377.404	-0.049	0.103
-593.996	-155.909	0.167	0.011
-592.982	-90.233	0.301	0.089
-591.967	88.826	-0.143	0.162
-590.952	-111.836	0.142	-0.029
-589.938	331.758	-0.041	0.081
-588.923	-21.655	0.296	-0.183
-587.909	-84.293	0.092	-0.030
-586.894	800.000	0.015	-0.052
-585.879	-200.000	0.009	-0.119
-584.865	65.129	0.078	-0.080
-583.850	571.844	-0.045	0.111
-582.836	-7.075	-0.239	0.165
-581.821	109.195	-0.089	0.108
-580.806	309.505	-0.208	0.395
-579.792	-9.186	0.222	-0.151
-578.777	800.000	0.036	0.123
-577.763	-200.000	0.023	0.130
-576.748	-170.272	0.236	0.008
-575.733	-200.000	0.019	0.405
-574.719	-200.000	0.004	0.021
-573.704	412.284	-0.193	-0.416
-572.690	-200.000	0.000	-0.222
-571.675	-25.304	-0.122	-0.074
-570.661	-112.990	-0.070	-0.014
-569.646	-109.869	-0.198	-0.042
-568.631	232.714	-0.104	0.174
-567.617	800.000	-0.019	0.060
-566.602	560.757	-0.068	0.167
-565.588	-49.694	0.143	-0.069
-564.573	9.310	0.205	-0.157
-563.558	-200.000	-0.014	-0.138
-562.544	10.815	-0.068	0.053
-561.529	31.749	-0.078	0.069
-560.515	-92.740	0.164	0.047
-559.500	470.447	-0.071	-0.162
-558.485	415.322	0.214	0.463
-557.471	-73.724	0.133	0.049
-556.456	152.480	-0.084	0.117
-555.442	-200.000	-0.015	0.578
-554.427	375.333	0.136	0.282
-553.412	202.390	0.228	0.357
-552.398	336.608	0.045	0.088
-551.383	173.996	0.127	0.186
-550.369	800.000	0.028	-0.112
-549.354	-143.635	0.113	0.011
-548.339	31.923	0.166	-0.146
-547.325	83.780	-0.123	-0.136
-546.310	-128.297	0.282	0.041
-545.296	74.136	-0.034	-0.036
-544.281	18.611	0.146	-0.118
-543.266	-61.209	0.160	-0.068
-542.252	683.609	0.124	-0.329
-541.237	110.768	0.159	-0.194
-540.223	21.301	-0.137	0.113
-539.208	64.030	-0.140	0.143
-538.193	-200.000	-0.033	0.269
-537.179	8.902	-0.089	0.069
-536.164	36.405	0.185	-0.165
-535.150	800.000	-0.052	0.165
-534.135	49.560	0.235	-0.225
-533.121	64.409	0.206	0.210
-532.106	108.513	0.145	-0.176
-531.091	-77.603	-0.208	0.073
-530.077	-105.200	-0.232	-0.054
-529.062	8.452	0.181	0.138
-528.048	-90.705	-0.075	0.022
-527.033	-71.164	0.157	-0.060
-526.018	43.924	-0.192	-0.178
-525.004	-96.207	-0.041	0.011
-523.989	122.562	-0.131	-0.166
-522.975	305.262	-0.133	-0.250
-521.960	194.441	0.120	-0.184
-520.945	-21.541	0.173	-0.107
-519.931	350.752	-0.150	0.302
-518.916	-72.315	-0.118	0.044
-517.902	-3.284	-0.134	0.094
-516.887	180.809	0.259	-0.385
-515.872	46.123	-0.162	0.152
-514.858	-42.812	-0.104	0.053
-513.843	210.586	-0.017	0.028
-512.829	-200.000	0.020	-0.119
-511.814	-46.830	-0.221	-0.110
-510.799	-20.261	-0.088	-0.055
-509.785	-43.869	0.359	0.183
-508.770	-200.000	0.017	0.419
-507.756	800.000	0.024	0.097
-506.741	-12.008	0.283	-0.188
-505.726	-200.000	0.051	0.281
-504.712	-147.521	-0.037	-0.003
-503.697	148.413	-0.075	0.102
-502.683	-56.225	-0.045	-0.020
-501.668	-57.564	0.258	-0.115
-500.653	-200.000	-0.359	-0.000
-499.639	-200.000	0.055	0.321
-498.624	481.505	0.064	-0.147
-497.610	179.113	0.207	-0.307
-496.595	99.462	-0.162	0.190
-495.581	622.812	-0.067	-0.170
-494.566	102.333	0.095	-0.113
-493.551	-109.311	-0.057	-0.012
-492.537	368.917	0.061	-0.126
-491.522	800.000	-0.029	-0.109
-490.508	178.965	0.158	-0.234
-489.493	94.193	0.077	0.088
-488.478	800.000	-0.055	-0.191
-487.464	9.970	0.092	0.071
-486.449	749.280	-0.083	-0.225
-485.435	507.712	-0.092	0.216
-484.420	59.870	-0.097	-0.097
-483.405	456.408	0.231	0.519
-482.391	-200.000	-0.044	0.305
-481.376	446.012	-0.107	0.239
-480.362	-178.412	-0.464	0.011
-479.347	-42.662	0.213	0.110
-478.332	-3.190	-0.355	0.251
-477.318	-40.745	0.138	-0.072
-476.303	60.864	0.032	0.033
-475.289	110.324	-0.110	0.134
-474.274	-200.000	-0.058	-0.355
-473.259	20.925	-0.242	-0.198
-472.245	110.609	-0.163	-0.199
-471.230	120.354	0.055	0.069
-470.216	-59.492	0.592	0.257
-469.201	7.242	-0.088	-0.067
-468.186	129.587	-0.100	0.129
-467.172	-50.646	-0.190	0.091
-466.157	800.000	0.115	-0.376
-465.143	800.000	-0.059	-0.183
-464.128	-97.658	-0.268	0.070
-463.113	800.000	0.046	-0.184
-462.099	-200.000	-0.023	0.155
-461.084	108.780	0.078	0.094
-460.070	-95.366	0.169	0.046
-459.055	-200.000	-0.030	-0.146
-458.040	154.006	0.205	-0.284
-457.026	140.249	-0.139	-0.185
-456.011	-200.000	0.040	-0.257
-454.997	-22.760	-0.213	-0.130
-453.982	251.233	0.115	-0.198
-452.968	-200.000	-0.033	0.169
-451.953	-200.000	-0.027	0.276
-450.938	86.530	-0.262	-0.292
-449.924	-133.716	0.162	0.020
-448.909	67.599	-0.084	-0.087
-447.895	44.119	-0.203	0.189
-446.880	-45.902	0.292	-0.146
-445.865	800.000	-0.030	0.088
-444.851	-18.888	-0.065	0.041
-443.836	169.838	0.082	0.118
-442.822	-1.677	0.126	0.090
-441.807	-121.209	-0.094	-0.016
-440.792	-200.000	-0.033	0.156
-439.778	800.000	0.043	0.192
-438.763	-100.304	0.108	-0.027
-437.749	-93.494	0.073	0.020
-436.734	-179.067	-0.027	-0.001
-435.719	-100.877	-0.179	0.044
-434.705	-2.254	-0.200	0.142
-433.690	-200.000	0.022	0.230
-432.676	800.000	0.019	0.067
-431.661	-147.960	-0.257	0.022
-430.646	800.000	-0.045	-0.138
-429.632	-22.858	0.167	0.102
-428.617	149.728	0.143	0.196
-427.603	262.506	0.088	0.155
-426.588	-71.797	-0.173	0.065
-425.573	-187.149	-0.255	0.004
-424.559	45.588	0.135	0.126
-423.544	-200.000	-0.003	-0.140
-422.530	-10.055	0.148	0.100
-421.515	72.764	0.136	0.143
-420.500	22.343	0.111	-0.092
-419.486	-32.704	-0.104	-0.059
-418.471	24.917	-0.380	0.318
-417.457	155.514	0.081	-0.113
-416.442	724.521	-0.048	0.128
-415.428	-188.143	-0.267	-0.003
-414.413	45.673	-0.101	-0.094
-413.398	78.687	0.222	0.240
-412.384	429.215	0.073	-0.159
-411.369	233.505	0.250	-0.416
-410.355	-200.000	0.017	-0.263
-409.340	-34.611	-0.050	0.028
-408.325	185.714	0.189	-0.284
-407.311	-81.643	0.171	-0.057
-406.296	-147.043	0.176	0.015
-405.282	140.369	-0.017	0.022
-404.267	800.000	0.092	0.263
-403.252	281.589	-0.108	-0.195
-402.238	-200.000	0.022	-0.104
-401.223	-107.591	-0.170	0.038
-400.209	-43.104	-0.299	-0.153
-399.194	63.616	-0.161	0.164
-398.179	167.560	0.143	-0.204
-397.165	800.000	0.069	0.214
-396.150	333.721	0.119	-0.232
-395.136	-171.620	-0.188	-0.006
-394.121	-128.353	0.254	0.036
-393.106	800.000	-0.038	-0.144
-392.092	-71.592	-0.171	-0.064
-391.077	-2.645	0.182	0.129
-390.063	324.159	0.055	0.107
-389.048	-30.626	-0.109	-0.062
-388.033	239.485	-0.151	-0.253
-387.019	111.825	-0.044	0.054
-386.004	-200.000	-0.008	0.041
-384.990	320.405	0.178	-0.340
-383.975	316.619	0.063	-0.121
-382.960	94.806	0.226	-0.259
-381.946	590.899	-0.110	-0.274
-380.931	-123.512	0.115	0.019
-379.917	72.776	-0.153	-0.162
-378.902	-123.057	-0.146	0.024
-377.888	174.856	-0.139	0.203
-376.873	56.476	0.132	0.129
-375.858	-200.000	0.015	-0.106
-374.844	15.763	0.132	-0.105
-373.829	-200.000	0.006	-0.048
-372.815	-170.183	0.390	0.014
-371.800	-200.000	-0.004	-0.169
-370.785	-94.296	-0.102	-0.028
-369.771	245.983	-0.170	0.289
-368.756	95.651	-0.202	0.232
-367.742	-138.144	-0.277	0.031
-366.727	-24.728	0.301	0.181
-365.712	800.000	0.025	0.078
-364.698	338.839	-0.170	-0.334
-363.683	-56.255	-0.284	-0.127
-362.669	-45.274	0.092	-0.046
-361.654	-160.090	-0.094	0.005
-360.639	-64.450	0.271	-0.111
-359.625	31.888	-0.100	-0.087
-358.610	90.179	0.185	-0.209
-357.596	55.547	0.208	0.202
-356.581	121.438	0.344	0.432
-355.566	-200.000	-0.029	0.532
-354.552	30.146	-0.178	-0.153
-353.537	186.794	-0.155	-0.233
-352.523	-148.158	0.276	-0.023
-351.508	134.673	-0.198	0.258
-350.493	800.000	-0.050	0.157
-349.479	-42.870	-0.136	0.069
-348.464	800.000	0.179	0.510
-347.450	800.000	0.022	0.078
-346.435	-55.263	0.311	-0.141
-345.420	41.545	0.180	0.164
-344.406	-200.000	-0.138	-0.631
-343.391	151.887	0.079	-0.108
-342.377	-200.000	-0.005	0.087
-341.362	-68.628	-0.308	0.120
-340.348	800.000	-0.044	-0.123
-339.333	-105.743	-0.226	0.051
-338.318	-76.141	-0.251	-0.089
-337.304	-114.686	0.101	-0.019
-336.289	-113.650	-0.106	0.021
-335.275	-102.968	0.158	0.038
-334.260	129.947	-0.119	-0.154
-333.245	89.830	0.328	0.369
-332.231	-89.245	0.454	0.135
-331.216	-200.000	0.005	-0.147
-330.202	800.000	-0.080	-0.273
-329.187	-200.000	-0.044	-0.368
-328.172	362.366	-0.047	0.096
-327.158	166.888	0.155	0.221
-326.143	-33.750	0.126	0.070
-325.129	34.397	-0.279	-0.245
-324.114	800.000	0.076	-0.246
-323.099	74.991	-0.056	0.059
-322.085	-79.522	-0.128	0.044
-321.070	-5.376	-0.086	-0.060
-320.056	60.510	-0.188	0.187
-319.041	-200.000	0.001	-0.024
-318.026	-142.855	-0.141	-0.014
-317.012	-124.717	0.406	-0.063
-315.997	-200.000	-0.002	-0.032
-314.983	555.751	-0.108	-0.261
-313.968	-171.506	-0.061	0.002
-312.953	-200.000	-0.011	0.184
-311.939	-200.000	0.048	-0.258
-310.924	800.000	-0.105	-0.366
-309.910	-102.350	-0.260	-0.063
-308.895	268.850	-0.086	0.152
-307.880	-200.000	0.057	0.630
-306.866	-133.059	-0.226	-0.029
-305.851	36.559	0.205	0.182
-304.837	38.119	0.163	0.146
-303.822	-48.186	0.297	0.144
-302.807	-200.000	0.005	0.086
-301.793	-91.386	-0.258	0.074
-300.778	80.347	0.161	-0.174
-299.764	760.195	0.043	0.118
-298.749	74.450	-0.127	0.134
-297.735	542.654	0.130	-0.312
-296.720	182.595	-0.144	0.214
-295.705	-85.090	-0.209	-0.066
-294.691	-50.509	-0.115	-0.055
-293.676	151.491	-0.216	-0.296
-292.662	-200.000	-0.010	0.069
-291.647	285.794	0.254	0.461
-290.632	7.250	0.293	-0.220
-289.618	-104.408	0.094	0.022
-288.603	-98.720	-0.111	-0.028
-287.589	394.696	0.157	0.328
-286.574	800.000	-0.072	-0.206
-285.559	499.812	-0.069	-0.160
-284.545	179.754	-0.100	-0.148
-283.530	-200.000	-0.068	0.304
-282.516	-27.058	0.126	0.074
-281.501	407.976	-0.093	-0.197
-280.486	254.322	0.105	-0.180
-279.472	-48.852	0.079	0.038
-278.457	103.095	0.183	0.215
-277.443	-157.188	-0.133	0.008
-276.428	-125.709	0.133	0.020
-275.413	-121.733	-0.035	-0.006
-274.399	-200.000	0.057	-0.465
-273.384	-126.947	0.279	0.041
-272.370	-72.313	-0.389	-0.145
-271.355	-5.148	-0.167	0.116
-270.340	5.241	0.339	0.251
-269.326	-77.618	0.162	0.056
-268.311	-14.854	0.153	0.098
-267.297	-200.000	0.042	-0.196
-266.282	-24.755	0.166	0.099
-265.267	-200.000	0.050	-0.285
-264.253	-200.000	0.011	0.186
-263.238	-60.728	-0.517	0.220
-262.224	-157.288	-0.191	-0.012
-261.209	-19.254	-0.254	0.159
-260.195	-200.000	-0.019	-0.114
-259.180	8.715	-0.164	-0.124
-258.165	-200.000	-0.038	0.292
-257.151	114.638	-0.100	0.122
-256.136	-120.556	0.123	0.021
-255.122	-200.000	-0.075	-0.489
-254.107	38.475	0.170	0.152
-253.092	-176.254	-0.459	-0.012
-252.078	-200.000	0.008	0.143
-251.063	-200.000	-0.054	-0.254
-250.049	33.283	0.215	-0.188
-249.034	-200.000	0.011	0.091
-248.019	185.586	-0.073	0.109
-247.005	164.010	-0.129	0.182
-245.990	35.715	0.204	-0.180
-244.976	408.134	0.188	-0.398
-243.961	-38.801	0.121	-0.064
-242.946	-143.141	0.043	-0.004
-241.932	-99.422	-0.181	-0.046
-240.917	161.478	-0.111	0.155
-239.903	85.004	-0.232	-0.255
-238.888	800.000	-0.046	-0.141
-237.873	-55.402	-0.134	-0.060
-236.859	-88.255	0.273	-0.082
-235.844	800.000	0.045	0.197
-234.830	-200.000	0.007	0.056
-233.815	458.612	0.047	0.104
-232.800	-74.907	-0.044	0.016
-231.786	800.000	-0.030	0.092
-230.771	-200.000	-0.028	-0.168
-229.757	167.161	-0.235	-0.334
-228.742	288.892	-0.060	-0.109
-227.727	-200.000	0.011	-0.080
-226.713	-200.000	-0.010	0.122
-225.698	-9.061	0.045	-0.030
-224.684	800.000	-0.097	-0.273
-223.669	-200.000	-0.014	0.119
-222.655	-61.242	0.196	-0.083
-221.640	-73.689	-0.205	0.075
-220.625	97.497	0.130	-0.149
-219.611	-97.684	0.126	0.033
-218.596	47.437	-0.192	0.180
-217.582	-17.733	0.152	0.096
-216.567	-28.761	-0.075	-0.043
-215.552	11.966	0.333	0.256
-214.538	-200.000	0.034	0.255
-213.523	553.313	0.088	0.213
-212.509	-93.416	-0.055	-0.015
-211.494	-158.798	0.279	0.016
-210.479	800.000	-0.067	0.219
-209.465	-66.923	0.170	0.067
-208.450	137.260	-0.201	0.263
-207.436	-200.000	-0.065	0.541
-206.421	-70.713	-0.113	-0.043
-205.406	158.910	0.220	-0.306
-204.392	145.912	-0.150	-0.202
-203.377	-85.243	0.066	-0.021
-202.363	-200.000	0.001	-0.200
-201.348	-104.133	-0.411	-0.096
-200.333	44.929	-0.179	-0.165
-199.319	-123.961	0.315	0.050
-198.304	-200.000	0.004	-0.034
-197.290	-7.136	-0.119	-0.081
-196.275	-108.279	0.280	-0.061
-195.260	465.393	-0.048	0.107
-194.246	-105.856	0.177	0.040
-193.231	-50.364	-0.516	0.244
-192.217	800.000	-0.019	0.074
-191.202	-16.506	0.297	-0.189
-190.187	-15.909	0.254	0.162
-189.173	-56.746	0.317	0.140
-188.158	-200.000	-0.029	-0.308
-187.144	-59.203	-0.367	0.158
-186.129	-164.139	0.086	0.004
-185.114	41.999	-0.142	0.129
-184.100	608.583	0.082	-0.204
-183.085	-200.000	-0.000	-0.079
-182.071	800.000	-0.054	0.218
-181.056	-200.000	0.009	-0.156
-180.042	9.172	-0.051	0.039
-179.027	-69.979	0.120	-0.046
-178.012	170.127	0.143	0.205
-176.998	135.037	-0.172	0.224
-175.983	-25.822	0.177	0.104
-174.969	-122.231	-0.310	-0.051
-173.954	458.141	0.077	0.172
-172.939	-200.000	-0.013	0.093
-171.925	-32.170	0.152	-0.085
-170.910	-140.925	0.299	-0.031
-169.896	-200.000	-0.054	-0.266
-168.881	36.101	-0.246	0.217
-167.866	108.908	0.172	0.205
-166.852	-150.579	-0.151	0.012
-165.837	251.749	-0.054	-0.093
-164.823	209.713	0.096	0.151
-163.808	-200.000	-0.026	0.252
-162.793	12.275	0.375	0.289
-161.779	14.954	0.160	-0.125
-160.764	597.591	-0.151	0.374
-159.750	-200.000	0.058	0.252
-158.735	-63.176	-0.239	0.099
-157.720	-87.722	-0.087	0.026
-156.706	-27.064	-0.127	0.074
-155.691	-200.000	-0.031	-0.405
-154.677	-200.000	0.013	-0.304
-153.662	-200.000	-0.011	0.334
-152.647	-200.000	-0.009	0.074
-151.633	-40.355	0.216	-0.112
-150.618	-120.047	0.125	0.021
-149.604	-34.520	0.181	0.099
-148.589	90.237	-0.110	-0.123
-147.574	-99.730	-0.136	-0.034
-146.560	94.121	0.126	0.143
-145.545	-200.000	-0.058	0.334
-144.531	113.661	0.178	-0.216
-143.516	-200.000	-0.040	0.226
-142.502	-183.156	0.346	-0.006
-141.487	-31.472	-0.366	-0.206
-140.472	-200.000	-0.055	-0.251
-139.458	-32.902	-0.201	0.112
-138.443	800.000	0.037	-0.125
-137.429	-107.347	0.170	0.037
-136.414	16.927	0.072	0.057
-135.399	-85.499	-0.091	0.028
-134.385	-82.804	0.123	0.040
-133.370	524.003	0.063	-0.147
-132.356	-35.926	0.120	-0.065
-131.341	-200.000	-0.005	0.098
-130.326	-57.514	0.053	0.023
-129.312	-77.376	0.222	0.077
-128.297	-68.695	-0.490	0.189
-127.283	-69.464	-0.111	-0.043
-126.268	-149.740	-0.212	-0.017
-125.253	-126.005	-0.383	-0.057
-124.239	-166.002	-0.220	-0.009
-123.224	-200.000	-0.058	0.263
-122.210	-86.053	0.164	-0.050
