DTS Sentinel unit serial number:	SN413079Multiplexer serial number:	ORYXHardware model number:	OX4-SRSoftware version number:	ORYX F/W v4.00 Oryx Data Collector v3.7.2.0data status	okinstallation	princeton_trtdifferential loss correction	single-endedforward channel	channel 1reverse channel	N/Adate	2019/09/16time	21:02:35forward acquisition time	60.00reverse acquisition time	0.00gamma	496.2192k internal	0.2325k external	0.2325temperature offset calibration	0.9949default loss term (dB/km)	0.3790temperature slope calibration	1.0000multiplexer offset coefficient	1.0000multiplexer slope coefficient	1.0000fibre end	0.00T internal ref (°C)	31.98T ext. ref 1 (°C)	0.05T ext. ref 2 (°C)	25.37length (m)	temperature (°C)	Stokes	anti-Stokes-747.200	-64.681	0.357	-0.146
-746.185	-200.000	0.022	0.430
-745.171	-200.000	0.040	0.430
-744.156	-200.000	-0.014	0.371
-743.142	27.658	-0.113	-0.096
-742.127	-183.499	-0.465	-0.008
-741.112	34.631	0.150	0.132
-740.098	1.205	-0.146	0.106
-739.083	-64.995	0.279	0.114
-738.069	200.715	-0.090	0.139
-737.054	389.473	-0.045	0.095
-736.039	25.571	-0.129	-0.109
-735.025	-200.000	0.052	0.450
-734.010	42.325	-0.130	-0.119
-732.996	87.598	-0.074	0.082
-731.981	800.000	0.062	0.172
-730.966	464.505	-0.058	-0.131
-729.952	-161.300	-0.232	-0.012
-728.937	-163.286	-0.263	-0.013
-727.923	-58.925	-0.192	-0.084
-726.908	-200.000	0.020	-0.125
-725.894	445.555	-0.021	-0.047
-724.879	72.998	0.160	-0.169
-723.864	90.276	-0.163	-0.183
-722.850	-166.065	0.372	-0.016
-721.835	-183.305	-0.519	-0.009
-720.821	-200.000	-0.049	0.372
-719.806	-12.188	-0.064	-0.042
-718.791	172.109	0.084	0.122
-717.777	89.012	0.112	-0.125
-716.762	-17.451	0.143	-0.091
-715.748	285.843	0.088	-0.161
-714.733	-96.000	-0.073	-0.020
-713.718	253.245	-0.082	-0.141
-712.704	53.077	-0.291	-0.280
-711.689	-200.000	-0.012	-0.128
-710.675	-22.950	-0.073	0.044
-709.660	-200.000	-0.011	-0.326
-708.645	800.000	0.123	0.353
-707.631	315.672	-0.087	0.165
-706.616	800.000	-0.016	-0.047
-705.602	93.611	-0.130	0.148
-704.587	732.821	-0.104	0.280
-703.572	-24.737	0.524	-0.314
-702.558	800.000	-0.084	-0.282
-701.543	-200.000	0.065	0.528
-700.529	57.433	0.186	-0.183
-699.514	20.461	0.193	-0.158
-698.499	83.426	-0.161	-0.177
-697.485	67.230	-0.118	0.122
-696.470	-44.040	-0.238	0.121
-695.456	102.143	-0.270	-0.318
-694.441	800.000	0.052	-0.208
-693.426	-200.000	-0.052	-0.432
-692.412	315.686	-0.122	-0.231
-691.397	-200.000	0.027	-0.130
-690.383	174.703	-0.363	0.528
-689.368	157.812	-0.099	-0.138
-688.354	0.948	0.061	-0.044
-687.339	135.414	-0.163	-0.214
-686.324	-200.000	0.012	0.103
-685.310	189.015	-0.181	-0.272
-684.295	800.000	-0.004	0.014
-683.281	121.184	0.112	-0.140
-682.266	-104.136	0.117	0.028
-681.251	6.600	0.144	-0.108
-680.237	609.925	-0.114	-0.286
-679.222	-12.972	-0.215	-0.141
-678.208	157.796	0.087	0.121
-677.193	-124.936	0.227	0.035
-676.178	-40.840	0.200	-0.104
-675.164	-38.739	-0.292	0.155
-674.149	16.820	0.043	0.034
-673.135	95.444	-0.200	-0.230
-672.120	-129.450	0.372	0.052
-671.105	-17.029	0.202	0.128
-670.091	-113.061	-0.487	-0.097
-669.076	-200.000	-0.049	-0.304
-668.062	-200.000	0.008	0.180
-667.047	-94.819	-0.189	-0.052
-666.032	-200.000	0.004	-0.087
-665.018	-70.348	0.254	0.097
-664.003	-200.000	0.014	0.410
-662.989	481.758	0.130	0.297
-661.974	-200.000	0.013	-0.086
-660.959	-45.804	-0.172	-0.085
-659.945	52.947	-0.200	-0.192
-658.930	-51.157	0.366	-0.173
-657.916	41.247	0.061	-0.055
-656.901	392.423	0.143	-0.299
-655.886	800.000	-0.069	0.207
-654.872	-154.000	0.160	-0.011
-653.857	93.572	-0.041	0.046
-652.843	149.535	0.218	-0.297
-651.828	-147.407	-0.334	-0.028
-650.814	800.000	0.036	0.121
-649.799	409.163	0.093	-0.199
-648.784	202.349	0.188	-0.292
-647.770	-200.000	0.007	-0.069
-646.755	63.294	0.127	0.128
-645.741	800.000	0.047	0.159
-644.726	-172.907	-0.154	0.005
-643.711	-121.354	-0.310	-0.052
-642.697	-200.000	-0.008	0.226
-641.682	-44.549	0.294	0.148
-640.668	800.000	-0.112	-0.355
-639.653	162.177	-0.133	0.187
-638.638	61.676	-0.259	0.259
-637.624	349.090	0.146	0.289
-636.609	504.725	0.185	-0.430
-635.595	-110.844	0.458	-0.095
-634.580	-200.000	-0.010	0.117
-633.565	-12.477	-0.280	0.184
-632.551	270.551	-0.203	0.358
-631.536	800.000	0.133	0.400
-630.522	18.510	0.201	-0.162
-629.507	800.000	-0.089	-0.250
-628.492	138.789	-0.128	-0.169
-627.478	57.441	-0.229	0.224
-626.463	-83.105	0.141	0.046
-625.449	-54.180	-0.307	-0.140
-624.434	18.112	0.254	-0.203
-623.419	-140.572	-0.243	0.025
-622.405	-16.605	0.099	-0.063
-621.390	555.556	-0.028	-0.069
-620.376	-8.412	-0.132	-0.089
-619.361	-101.812	-0.154	0.037
-618.346	88.034	0.203	0.226
-617.332	279.543	0.188	-0.338
-616.317	452.368	0.038	0.084
-615.303	800.000	0.034	-0.109
-614.288	-136.522	0.223	0.026
-613.273	43.835	0.303	0.278
-612.259	800.000	0.111	0.345
-611.244	-122.018	0.079	0.013
-610.230	-134.919	0.063	0.008
-609.215	-102.812	-0.139	0.033
-608.201	-200.000	0.003	-0.018
-607.186	50.875	0.106	-0.101
-606.171	-200.000	-0.033	-0.373
-605.157	800.000	0.033	0.094
-604.142	37.309	-0.155	0.137
-603.128	570.817	-0.081	-0.197
-602.113	800.000	-0.074	-0.212
-601.098	800.000	-0.100	-0.355
-600.084	-32.664	0.092	-0.052
-599.069	-47.905	-0.281	-0.137
-598.055	718.293	0.040	-0.107
-597.040	542.159	0.185	0.443
-596.025	-101.278	0.148	-0.036
-595.011	41.046	0.097	-0.087
-593.996	-63.347	-0.256	0.106
-592.982	256.972	-0.057	0.098
-591.967	800.000	-0.043	-0.158
-590.952	-187.048	-0.039	-0.001
-589.938	-200.000	-0.047	-0.235
-588.923	330.737	0.066	0.128
-587.909	209.494	-0.084	-0.133
-586.894	-42.262	-0.171	0.087
-585.879	-9.069	0.096	0.065
-584.865	134.472	0.125	-0.162
-583.850	-187.676	0.071	0.001
-582.836	-200.000	0.033	-0.218
-581.821	75.364	0.200	-0.211
-580.806	-126.821	-0.247	0.037
-579.792	261.988	-0.139	-0.241
-578.777	68.563	-0.225	0.232
-577.763	-200.000	-0.016	0.144
-576.748	564.784	-0.207	0.504
-575.733	525.943	-0.121	0.286
-574.719	-148.793	0.267	0.022
-573.704	187.338	-0.125	0.187
-572.690	-51.056	0.243	-0.114
-571.675	-200.000	0.032	-0.218
-570.661	-200.000	0.042	-0.555
-569.646	-200.000	0.018	-0.420
-568.631	233.913	-0.081	0.134
-567.617	-200.000	-0.042	0.270
-566.602	-97.388	0.394	0.103
-565.588	-77.226	0.094	0.033
-564.573	-103.281	-0.085	0.020
-563.558	43.061	0.121	-0.110
-562.544	532.805	0.080	-0.190
-561.529	64.949	0.102	-0.104
-560.515	26.622	0.243	0.204
-559.500	306.170	0.223	-0.416
-558.485	-158.727	0.151	0.009
-557.471	-9.510	0.055	0.037
-556.456	-123.195	0.051	-0.008
-555.442	-35.145	-0.239	0.130
-554.427	11.340	-0.254	-0.195
-553.412	55.893	-0.228	-0.221
-552.398	800.000	0.034	0.128
-551.383	-89.992	-0.422	-0.123
-550.369	-9.788	-0.119	0.080
-549.354	-98.057	0.097	0.025
-548.339	-200.000	-0.029	0.253
-547.325	640.465	-0.020	0.050
-546.310	-200.000	-0.008	-0.341
-545.296	-59.861	-0.212	-0.091
-544.281	251.713	-0.075	0.128
-543.266	482.448	0.068	-0.155
-542.252	-62.525	-0.034	0.014
-541.237	103.740	0.062	0.073
-540.223	800.000	-0.093	0.336
-539.208	-128.799	-0.247	-0.035
-538.193	-200.000	0.040	0.251
-537.179	-200.000	0.112	0.000
-536.164	-76.168	0.013	-0.005
-535.150	-200.000	-0.010	-0.089
-534.135	800.000	0.036	-0.120
-533.121	800.000	0.029	0.100
-532.106	-200.000	0.023	0.117
-531.091	-130.046	-0.113	0.015
-530.077	-80.064	0.175	-0.059
-529.062	-140.360	-0.445	0.046
-528.048	-114.241	-0.169	-0.033
-527.033	391.593	0.084	0.174
-526.018	-98.344	-0.087	-0.022
-525.004	483.578	-0.019	-0.044
-523.989	586.693	0.043	-0.106
-522.975	46.563	-0.160	0.149
-521.960	800.000	-0.123	0.426
-520.945	-18.552	0.313	0.195
-519.931	-101.602	0.377	-0.091
-518.916	-200.000	-0.032	0.144
-517.902	47.221	-0.179	-0.166
-516.887	-200.000	-0.005	-0.161
-515.872	-190.380	-0.155	0.002
-514.858	334.535	0.154	0.299
-513.843	800.000	-0.059	-0.254
-512.829	-200.000	0.014	-0.069
-511.814	306.928	0.171	0.318
-510.799	800.000	-0.113	0.316
-509.785	-200.000	-0.036	-0.237
-508.770	-200.000	-0.078	0.351
-507.756	0.055	-0.123	-0.088
-506.741	135.871	0.183	-0.239
-505.726	517.476	0.045	-0.106
-504.712	415.012	-0.135	-0.288
-503.697	-200.000	-0.032	-0.146
-502.683	-163.320	0.086	-0.004
-501.668	203.308	-0.077	0.119
-500.653	-200.000	0.016	0.077
-499.639	44.803	-0.335	0.308
-498.624	103.745	-0.228	0.267
-497.610	800.000	-0.088	0.282
-496.595	208.085	-0.243	0.379
-495.581	-9.583	0.316	-0.211
-494.566	82.094	-0.031	-0.033
-493.551	-93.035	-0.035	0.010
-492.537	-26.566	-0.232	0.136
-491.522	-200.000	0.019	-0.123
-490.508	-23.041	0.268	0.161
-489.493	168.649	0.091	-0.129
-488.478	135.545	0.185	-0.240
-487.464	-200.000	0.018	-0.495
-486.449	-142.974	0.131	0.013
-485.435	-131.988	-0.281	-0.037
-484.420	137.386	0.175	-0.228
-483.405	-61.491	0.199	0.083
-482.391	362.145	-0.024	-0.049
-481.376	75.584	0.099	0.105
-480.362	155.288	0.149	0.205
-479.347	-20.397	0.094	0.058
-478.332	-159.279	-0.417	-0.023
-477.318	800.000	0.093	0.269
-476.303	38.518	-0.128	-0.114
-475.289	-200.000	-0.046	0.368
-474.274	-200.000	-0.001	-0.095
-473.259	236.966	0.119	0.197
-472.245	200.939	0.115	-0.176
-471.230	68.554	-0.212	-0.217
-470.216	-131.687	0.183	0.024
-469.201	152.986	0.062	0.085
-468.186	-75.820	-0.122	-0.043
-467.172	-200.000	0.039	0.180
-466.157	-181.697	-0.244	-0.005
-465.143	42.171	0.033	-0.030
-464.128	-192.199	-0.260	-0.002
-463.113	-116.401	0.139	0.026
-462.099	67.207	-0.177	-0.180
-461.084	-127.062	-0.026	0.004
-460.070	-156.175	0.282	0.018
-459.055	-200.000	0.055	0.341
-458.040	-112.354	-0.130	-0.026
-457.026	-200.000	-0.010	0.104
-456.011	260.021	-0.089	-0.154
-454.997	175.445	0.046	-0.066
-453.982	104.311	-0.201	-0.236
-452.968	156.500	0.047	0.065
-451.953	-76.511	0.079	0.028
-450.938	-163.641	-0.144	-0.007
-449.924	556.427	-0.097	-0.233
-448.909	-5.411	0.166	0.114
-447.895	57.041	-0.369	0.359
-446.880	-162.466	-0.308	0.015
-445.865	-200.000	-0.045	-0.200
-444.851	-127.755	-0.362	0.052
-443.836	-200.000	0.008	0.074
-442.822	280.260	-0.158	-0.281
-441.807	140.527	0.078	-0.102
-440.792	-180.495	0.132	0.003
-439.778	22.599	-0.240	-0.196
-438.763	783.123	-0.109	-0.296
-437.749	-200.000	0.006	0.045
-436.734	-8.994	-0.205	-0.137
-435.719	103.040	0.186	-0.218
-434.705	130.468	0.090	-0.115
-433.690	-118.476	-0.316	0.056
-432.676	-200.000	-0.012	-0.086
-431.661	800.000	0.022	0.065
-430.646	-200.000	0.031	0.256
-429.632	176.021	0.188	0.272
-428.617	-36.575	0.100	-0.053
-427.603	-106.470	0.257	-0.057
-426.588	64.452	0.160	0.160
-425.573	107.449	0.228	-0.270
-424.559	-22.164	-0.120	-0.073
-423.544	152.252	0.170	-0.231
-422.530	43.331	-0.243	0.221
-421.515	-82.012	0.188	-0.061
-420.500	800.000	0.023	0.079
-419.486	800.000	-0.069	0.258
-418.471	246.147	-0.149	0.249
-417.457	-196.903	-0.189	0.001
-416.442	-151.591	0.152	-0.011
-415.428	66.727	0.034	-0.035
-414.413	-200.000	0.010	0.187
-413.398	-0.290	0.309	-0.219
-412.384	111.241	0.112	0.135
-411.369	-200.000	0.004	0.072
-410.355	-8.254	-0.106	-0.071
-409.340	544.608	0.059	0.140
-408.325	-121.717	-0.168	0.028
-407.311	363.811	-0.042	-0.084
-406.296	-99.881	-0.313	-0.078
-405.282	-135.956	-0.279	-0.033
-404.267	76.990	0.054	-0.057
-403.252	293.357	0.112	-0.203
-402.238	-200.000	-0.083	-0.476
-401.223	-83.798	-0.192	0.061
-400.209	-25.256	0.107	-0.063
-399.194	-200.000	-0.022	-0.309
-398.179	-112.071	0.324	0.065
-397.165	-156.496	0.085	0.005
-396.150	180.875	0.107	0.157
-395.136	-200.000	-0.012	0.206
-394.121	-133.442	0.083	-0.010
-393.106	-200.000	0.011	-0.280
-392.092	328.329	-0.109	0.209
-391.077	116.362	0.131	0.160
-390.063	197.340	-0.056	-0.085
-389.048	221.078	-0.105	0.167
-388.033	244.360	-0.115	0.192
-387.019	609.922	-0.074	0.184
-386.004	275.975	0.108	-0.190
-384.990	800.000	-0.005	0.020
-383.975	-200.000	-0.009	-0.183
-382.960	-200.000	-0.027	0.384
-381.946	800.000	0.112	0.389
-380.931	27.704	0.214	-0.179
-379.917	-150.347	0.334	0.026
-378.902	-57.905	0.202	0.088
-377.888	20.670	0.053	-0.042
-376.873	-25.677	-0.177	-0.104
-375.858	-66.462	-0.324	-0.128
-374.844	224.054	0.208	0.334
-373.829	44.762	-0.061	0.056
-372.815	-71.717	-0.198	0.074
-371.800	-37.983	0.159	-0.084
-370.785	800.000	-0.066	-0.251
-369.771	800.000	0.058	0.195
-368.756	800.000	0.191	0.529
-367.742	800.000	0.016	-0.049
-366.727	-139.644	-0.362	0.038
-365.712	-66.081	-0.365	0.145
-364.698	-135.204	0.056	0.007
-363.683	58.734	-0.107	-0.104
-362.669	11.323	-0.287	0.218
-361.654	154.922	0.067	-0.091
-360.639	-21.309	-0.196	0.119
-359.625	335.275	0.175	0.337
-358.610	-141.339	-0.227	0.023
-357.596	-55.273	-0.245	-0.109
-356.581	800.000	-0.052	0.171
-355.566	174.923	-0.141	0.203
-354.552	25.011	-0.112	0.092
-353.537	292.053	-0.142	-0.257
-352.523	-101.485	0.058	-0.014
-351.508	39.217	-0.128	-0.114
-350.493	465.137	0.067	-0.149
-349.479	800.000	-0.042	0.140
-348.464	49.513	-0.288	0.269
-347.450	800.000	-0.067	-0.202
-346.435	-115.195	0.246	0.046
-345.420	-121.547	-0.144	0.024
-344.406	181.492	0.112	0.163
-343.391	800.000	0.113	-0.364
-342.377	-11.375	-0.385	-0.252
-341.362	-11.173	0.128	-0.084
-340.348	-200.000	0.012	-0.090
-339.333	-154.367	-0.348	-0.023
-338.318	800.000	0.124	0.434
-337.304	287.646	-0.116	-0.208
-336.289	-200.000	-0.016	-0.407
-335.275	282.076	-0.033	0.059
-334.260	783.753	0.057	0.155
-333.245	-106.508	-0.142	-0.031
-332.231	-200.000	0.029	0.186
-331.216	21.296	-0.252	-0.204
-330.202	800.000	-0.061	0.177
-329.187	-90.284	-0.293	0.085
-328.172	-135.319	0.356	0.042
-327.158	73.393	-0.133	0.138
-326.143	23.559	-0.157	0.128
-325.129	-70.287	0.129	0.049
-324.114	-180.633	-0.041	-0.001
-323.099	464.603	0.198	-0.439
-322.085	-104.811	0.196	0.045
-321.070	607.608	-0.208	-0.516
-320.056	332.460	0.088	-0.169
-319.041	-51.923	0.342	0.158
-318.026	-71.987	0.312	0.115
-317.012	81.382	-0.056	-0.060
-315.997	-113.800	0.070	-0.013
-314.983	800.000	-0.024	-0.072
-313.968	99.186	0.104	-0.120
-312.953	-200.000	-0.008	-0.132
-311.939	137.311	0.103	0.134
-310.924	-75.785	0.276	0.097
-309.910	372.747	0.069	-0.140
-308.895	-200.000	-0.001	-0.088
-307.880	23.743	0.073	0.060
-306.866	60.464	0.118	-0.116
-305.851	-175.712	-0.124	0.003
-304.837	110.896	0.101	0.120
-303.822	-130.523	-0.181	0.024
-302.807	-200.000	-0.020	-0.206
-301.793	92.833	-0.160	-0.179
-300.778	-152.339	0.096	0.007
-299.764	800.000	0.038	-0.151
-298.749	-54.134	0.125	-0.056
-297.735	239.976	0.162	0.268
-296.720	15.951	0.184	-0.144
-295.705	-200.000	-0.268	0.000
-294.691	-200.000	0.428	0.001
-293.676	-100.349	-0.217	-0.053
-292.662	-200.000	-0.017	-0.403
-291.647	227.566	0.090	-0.145
-290.632	-200.000	-0.015	-0.407
-289.618	794.361	0.062	-0.169
-288.603	-200.000	-0.018	-0.152
-287.589	-96.658	-0.056	0.015
-286.574	114.501	-0.118	-0.143
-285.559	-33.765	0.202	-0.111
-284.545	258.192	-0.108	-0.185
-283.530	136.832	-0.054	0.070
-282.516	308.847	0.204	-0.378
-281.501	-77.734	-0.360	0.123
-280.486	220.761	0.070	-0.112
-279.472	-51.817	-0.354	-0.163
-278.457	-57.357	0.319	-0.139
-277.443	-0.603	0.095	0.067
-276.428	-70.678	0.179	0.067
-275.413	-92.762	-0.271	-0.075
-274.399	-108.981	0.366	-0.077
-273.384	134.360	-0.012	-0.016
-272.370	-200.000	-0.069	-0.371
-271.355	601.841	-0.137	0.336
-270.340	432.164	0.133	-0.285
-269.326	328.871	0.111	-0.212
-268.311	56.000	-0.106	-0.102
-267.297	229.196	0.043	-0.069
-266.282	38.705	-0.193	0.171
-265.267	-87.667	-0.065	-0.020
-264.253	-170.357	-0.071	-0.002
-263.238	99.895	0.082	0.094
-262.224	800.000	0.102	0.442
-261.209	-46.263	0.372	0.181
-260.195	302.975	-0.020	-0.036
-259.180	800.000	0.149	0.441
-258.165	327.982	-0.040	-0.077
-257.151	43.408	0.348	0.315
-256.136	-113.756	0.274	-0.053
-255.122	-200.000	-0.039	-0.251
-254.107	-200.000	-0.008	0.101
-253.092	218.744	-0.151	-0.239
-252.078	-183.109	0.285	-0.005
-251.063	-130.931	0.093	-0.012
-250.049	-76.035	-0.173	0.060
-249.034	-94.481	0.254	0.069
-248.019	-200.000	-0.004	0.020
-247.005	-200.000	0.029	0.139
-245.990	-200.000	0.002	0.338
-244.976	512.172	0.091	0.210
-243.961	220.093	-0.141	-0.224
-242.946	800.000	0.086	-0.318
-241.932	-127.907	-0.163	-0.023
-240.917	89.738	-0.044	0.048
-239.903	48.795	0.127	0.118
-238.888	800.000	0.116	-0.366
-237.873	-200.000	0.002	0.044
-236.859	27.347	0.308	-0.256
-235.844	197.990	0.105	-0.159
-234.830	116.856	0.150	-0.182
-233.815	101.472	-0.252	0.290
-232.800	-158.016	0.305	-0.018
-231.786	11.886	0.035	-0.026
-230.771	220.643	-0.212	0.336
-229.757	-128.489	-0.140	0.020
-228.742	-200.000	0.045	-0.229
-227.727	-112.016	0.192	0.038
-226.713	-52.540	-0.130	-0.059
-225.698	-115.231	0.154	0.029
-224.684	-168.145	0.501	-0.019
-223.669	-200.000	0.020	0.293
-222.655	-9.775	0.042	-0.027
-221.640	-36.246	0.346	0.185
-220.625	-61.011	-0.179	-0.075
-219.611	-57.630	-0.280	-0.121
-218.596	185.719	0.137	0.201
-217.582	136.434	0.189	0.244
-216.567	-200.000	0.024	-0.166
-215.552	-0.449	0.240	-0.168
-214.538	800.000	-0.059	0.214
-213.523	138.230	-0.041	-0.053
-212.509	274.610	-0.132	0.231
-211.494	800.000	0.063	0.237
-210.479	37.529	0.062	-0.055
-209.465	497.217	0.155	0.352
-208.450	-129.720	0.258	-0.035
-207.436	256.746	0.175	-0.298
-206.421	-18.406	-0.176	-0.109
-205.406	388.720	0.058	0.119
-204.392	247.481	-0.165	-0.275
-203.377	-46.389	-0.343	0.166
-202.363	125.523	0.317	-0.395
-201.348	-28.124	0.081	-0.046
-200.333	-125.068	0.178	0.027
-199.319	-42.103	-0.144	0.073
-198.304	1.805	-0.339	0.242
-197.290	-99.717	-0.105	-0.026
-196.275	89.998	-0.116	-0.128
-195.260	413.230	-0.068	0.142
-194.246	14.410	0.258	0.199
-193.231	-43.612	0.182	-0.091
-192.217	151.871	-0.203	0.273
-191.202	-82.587	-0.260	-0.083
-190.187	29.274	0.187	-0.157
-189.173	-91.297	-0.311	0.088
-188.158	-151.536	0.107	-0.008
-187.144	-200.000	0.025	-0.236
-186.129	-200.000	0.086	-0.419
-185.114	-5.466	-0.163	0.111
-184.100	250.148	-0.071	0.119
-183.085	227.622	0.076	0.122
-182.071	27.667	-0.195	-0.162
-181.056	-165.395	0.385	0.017
-180.042	164.827	-0.099	-0.138
-179.027	-200.000	0.029	0.280
-178.012	800.000	-0.073	0.210
-176.998	-200.000	-0.009	-0.120
-175.983	-23.723	0.413	0.244
-174.969	-77.980	-0.372	0.127
-173.954	-11.737	0.177	-0.115
-172.939	-20.620	-0.058	0.035
-171.925	-200.000	-0.006	0.035
-170.910	318.579	-0.045	0.083
-169.896	552.245	-0.022	-0.053
-168.881	-24.337	-0.059	-0.035
-167.866	169.544	0.111	-0.156
-166.852	-64.704	0.360	-0.144
-165.837	-86.081	-0.232	0.071
-164.823	-107.164	-0.049	-0.011
-163.808	334.846	-0.183	0.350
-162.793	-30.117	-0.296	0.166
-161.779	800.000	-0.131	0.412
-160.764	-200.000	0.012	0.088
-159.750	800.000	-0.056	0.218
-158.735	309.116	0.067	0.124
-157.720	-43.784	0.160	-0.079
-156.706	-77.290	-0.191	-0.066
-155.691	27.810	-0.099	0.083
-154.677	-104.420	0.582	-0.133
-153.662	40.362	0.171	-0.152
-152.647	-117.587	-0.099	0.018
-151.633	-73.508	-0.133	0.048
-150.618	-101.037	0.154	0.037
-149.604	-153.769	0.388	-0.026
-148.589	545.774	-0.025	-0.058
-147.574	-200.000	-0.029	-0.144
-146.560	-71.563	-0.119	0.044
-145.545	800.000	-0.072	-0.236
-144.531	353.359	0.123	0.240
-143.516	-200.000	-0.011	0.263
-142.502	101.030	-0.103	-0.119
-141.487	46.184	0.321	-0.293
-140.472	9.014	-0.096	0.072
-139.458	121.517	-0.111	-0.136
-138.443	68.421	0.155	0.157
-137.429	114.230	0.088	0.106
-136.414	-200.000	0.073	-0.491
-135.399	10.601	0.155	-0.116
-134.385	-162.394	0.339	-0.017
-133.370	-200.000	0.010	0.083
-132.356	704.007	0.152	-0.396
-131.341	-200.000	0.029	0.297
-130.326	-160.040	-0.107	-0.006
-129.312	-30.461	0.278	0.155
-128.297	-89.689	-0.127	0.037
-127.283	-17.448	0.329	-0.204
-126.268	38.417	-0.249	-0.218
-125.253	359.216	-0.156	-0.308
-124.239	-200.000	0.007	0.298
-123.224	-16.574	-0.156	-0.097
-122.210	-63.048	-0.146	0.059
