DTS Sentinel unit serial number:	SN413079Multiplexer serial number:	ORYXHardware model number:	OX4-SRSoftware version number:	ORYX F/W v4.00 Oryx Data Collector v3.7.2.0data status	okinstallation	princeton_trtdifferential loss correction	single-endedforward channel	channel 1reverse channel	N/Adate	2019/09/17time	14:34:35forward acquisition time	60.00reverse acquisition time	0.00gamma	496.2192k internal	0.2298k external	0.2298temperature offset calibration	0.9970default loss term (dB/km)	0.3790temperature slope calibration	1.0000multiplexer offset coefficient	1.0000multiplexer slope coefficient	1.0000fibre end	0.00T internal ref (°C)	36.59T ext. ref 1 (°C)	0.41T ext. ref 2 (°C)	33.72length (m)	temperature (°C)	Stokes	anti-Stokes-747.200	532.418	-0.138	0.333
-746.185	594.120	-0.164	0.414
-745.171	-107.904	-0.122	0.027
-744.156	-107.651	-0.249	0.056
-743.142	-62.821	0.202	-0.085
-742.127	-98.461	-0.134	-0.035
-741.112	289.348	-0.110	-0.203
-740.098	800.000	0.034	0.105
-739.083	-61.180	0.129	-0.056
-738.069	-200.000	0.066	0.483
-737.054	554.234	0.098	-0.240
-736.039	163.020	-0.064	0.092
-735.025	800.000	0.102	0.324
-734.010	-41.048	0.205	-0.108
-732.996	-83.874	-0.410	0.133
-731.981	-154.776	-0.032	0.002
-730.966	12.225	-0.244	-0.191
-729.952	-82.517	-0.199	0.066
-728.937	-50.020	-0.265	0.128
-727.923	-200.000	-0.024	0.277
-726.908	-39.219	-0.295	-0.158
-725.894	-12.179	-0.127	-0.085
-724.879	-120.356	0.201	0.035
-723.864	373.712	-0.119	0.247
-722.850	-17.826	-0.107	-0.069
-721.835	43.932	0.480	-0.449
-720.821	-200.000	-0.010	-0.183
-719.806	411.841	0.006	-0.014
-718.791	240.090	-0.226	0.384
-717.777	-149.420	-0.230	-0.019
-716.762	-167.601	-0.332	-0.013
-715.748	-109.821	-0.214	0.046
-714.733	-200.000	0.030	0.207
-713.718	-20.437	-0.152	-0.095
-712.704	-200.000	0.014	0.366
-711.689	-200.000	0.030	-0.201
-710.675	6.073	-0.156	0.118
-709.660	148.950	-0.143	0.197
-708.645	800.000	-0.065	-0.276
-707.631	-171.021	-0.079	0.003
-706.616	548.743	0.141	-0.344
-705.602	800.000	-0.047	-0.144
-704.587	-0.808	-0.216	-0.156
-703.572	800.000	0.038	0.135
-702.558	-200.000	0.017	-0.316
-701.543	800.000	0.060	-0.256
-700.529	-200.000	-0.158	0.001
-699.514	-83.406	-0.171	-0.056
-698.499	-159.864	0.145	-0.008
-697.485	56.197	0.119	-0.118
-696.470	-176.147	0.455	0.012
-695.456	-65.303	0.221	-0.091
-694.441	-28.190	0.164	0.097
-693.426	800.000	0.004	-0.016
-692.412	800.000	0.164	-0.564
-691.397	-17.759	-0.201	0.128
-690.383	-200.000	-0.006	-0.244
-689.368	-200.000	-0.024	0.149
-688.354	-200.000	0.024	-0.392
-687.339	508.662	0.165	0.389
-686.324	69.080	0.167	-0.175
-685.310	-200.000	-0.471	-0.001
-684.295	-28.692	0.158	0.093
-683.281	90.164	-0.155	0.177
-682.266	45.899	0.092	-0.087
-681.251	86.544	0.152	0.170
-680.237	-46.277	-0.105	-0.052
-679.222	-137.174	-0.134	-0.016
-678.208	214.982	-0.053	-0.085
-677.193	551.213	0.040	0.098
-676.178	-200.000	-0.105	0.000
-675.164	-200.000	0.010	0.224
-674.149	-200.000	-0.045	0.263
-673.135	190.419	0.240	0.367
-672.120	-200.000	0.026	-0.145
-671.105	-65.054	0.071	0.029
-670.091	71.828	0.069	-0.073
-669.076	-87.754	-0.135	0.041
-668.062	-168.591	0.348	-0.013
-667.047	-69.080	0.209	0.082
-666.032	92.130	0.241	0.276
-665.018	40.032	-0.214	0.195
-664.003	163.880	-0.087	0.125
-662.989	-162.468	0.264	-0.013
-661.974	-200.000	0.045	-0.238
-660.959	-131.865	-0.304	-0.040
-659.945	-200.000	-0.041	-0.503
-658.930	134.996	0.298	-0.394
-657.916	-114.926	0.217	-0.042
-656.901	-96.792	-0.137	0.037
-655.886	800.000	-0.053	0.236
-654.872	800.000	0.044	0.158
-653.857	-9.214	0.078	0.053
-652.843	171.653	0.103	0.150
-651.828	-28.251	-0.051	-0.030
-650.814	-200.000	-0.092	0.630
-649.799	-77.670	-0.214	-0.075
-648.784	-20.305	0.261	-0.163
-647.770	-28.650	0.195	-0.114
-646.755	800.000	0.042	-0.139
-645.741	49.491	-0.106	-0.102
-644.726	-200.000	-0.037	-0.185
-643.711	34.384	-0.211	-0.187
-642.697	-121.478	0.352	-0.059
-641.682	-34.660	-0.087	0.048
-640.668	559.464	-0.088	0.216
-639.653	274.471	-0.156	-0.281
-638.638	342.229	-0.087	0.173
-637.624	-200.000	0.024	0.347
-636.609	-73.802	-0.112	-0.041
-635.595	770.309	0.177	0.489
-634.580	174.922	0.063	0.093
-633.565	-55.155	-0.243	0.111
-632.551	-21.326	0.237	-0.147
-631.536	-12.274	-0.197	-0.131
-630.522	-119.276	-0.385	0.068
-629.507	192.094	-0.156	0.239
-628.492	165.816	-0.106	0.152
-627.478	-104.470	0.205	-0.048
-626.463	800.000	-0.082	0.329
-625.449	59.321	0.148	-0.148
-624.434	433.967	-0.049	-0.109
-623.419	45.476	-0.253	0.237
-622.405	-200.000	0.020	0.252
-621.390	87.217	0.120	0.134
-620.376	156.599	0.275	-0.386
-619.361	609.968	-0.044	-0.112
-618.346	-200.000	-0.026	-0.178
-617.332	761.478	0.114	-0.314
-616.317	68.869	0.215	0.225
-615.303	-104.681	0.183	0.043
-614.288	800.000	0.062	-0.202
-613.273	-21.173	-0.129	-0.080
-612.259	-75.575	0.213	-0.077
-611.244	-191.107	-0.031	0.000
-610.230	-53.020	0.148	0.069
-609.215	800.000	-0.048	-0.165
-608.201	-200.000	-0.029	0.188
-607.186	-104.178	0.267	-0.063
-606.171	87.361	-0.167	-0.188
-605.157	92.554	-0.232	0.266
-604.142	177.763	-0.164	0.242
-603.128	328.394	0.031	-0.061
-602.113	-200.000	0.000	0.202
-601.098	-200.000	-0.229	-0.001
-600.084	-169.733	-0.216	0.008
-599.069	429.989	-0.113	-0.247
-598.055	-200.000	0.030	-0.307
-597.040	-99.020	0.111	0.029
-596.025	-200.000	-0.029	0.201
-595.011	-127.267	0.264	-0.039
-593.996	-200.000	0.007	0.160
-592.982	201.436	-0.090	-0.140
-591.967	-16.419	0.189	-0.122
-590.952	131.910	0.229	0.300
-589.938	61.093	-0.196	-0.197
-588.923	-137.283	0.139	-0.016
-587.909	-65.708	-0.044	-0.018
-586.894	-200.000	0.013	-0.102
-585.879	800.000	0.061	0.198
-584.865	-32.656	-0.070	-0.040
-583.850	800.000	-0.058	-0.221
-582.836	-135.471	-0.102	-0.012
-581.821	14.031	-0.245	-0.193
-580.806	747.428	-0.057	0.157
-579.792	800.000	-0.020	0.059
-578.777	-91.519	-0.022	0.006
-577.763	297.848	-0.223	-0.416
-576.748	800.000	0.082	0.233
-575.733	254.399	-0.107	0.185
-574.719	241.088	-0.228	0.386
-573.704	-200.000	0.028	-0.184
-572.690	-14.448	0.217	-0.142
-571.675	-42.494	0.199	-0.103
-570.661	25.739	-0.219	-0.185
-569.646	97.733	-0.192	-0.223
-568.631	-141.700	-0.212	-0.022
-567.617	22.213	0.118	-0.098
-566.602	97.792	-0.111	-0.130
-565.588	111.153	0.127	-0.155
-564.573	800.000	-0.056	-0.187
-563.558	110.583	0.091	-0.111
-562.544	104.395	0.158	0.189
-561.529	800.000	-0.045	0.136
-560.515	-200.000	-0.041	0.283
-559.500	6.637	0.182	-0.137
-558.485	236.477	-0.072	0.121
-557.471	32.533	0.098	-0.086
-556.456	27.301	0.201	-0.171
-555.442	-200.000	-0.074	-0.340
-554.427	362.450	0.082	0.166
-553.412	-78.884	-0.092	0.032
-552.398	21.152	-0.266	0.219
-551.383	-99.834	0.162	-0.041
-550.369	-200.000	-0.003	-0.126
-549.354	754.108	-0.160	-0.439
-548.339	-56.549	0.186	-0.083
-547.325	800.000	0.031	0.094
-546.310	800.000	-0.080	0.342
-545.296	800.000	-0.057	-0.163
-544.281	46.481	-0.110	-0.103
-543.266	375.749	0.117	-0.242
-542.252	141.342	-0.106	-0.143
-541.237	-197.637	0.179	0.001
-540.223	72.228	-0.265	-0.280
-539.208	-74.045	-0.223	-0.082
-538.193	-100.376	-0.225	-0.057
-537.179	-200.000	-0.009	0.041
-536.164	58.691	0.070	0.070
-535.150	133.152	-0.143	0.187
-534.135	518.434	-0.186	-0.441
-533.121	82.170	0.051	-0.056
-532.106	-87.993	-0.085	0.026
-531.091	-200.000	0.022	0.099
-530.077	-177.500	-0.163	0.004
-529.062	-26.211	-0.214	0.127
-528.048	-193.119	-0.135	0.001
-527.033	-34.943	-0.340	0.188
-526.018	136.229	0.090	-0.119
-525.004	-200.000	-0.005	0.166
-523.989	-128.669	0.116	-0.017
-522.975	-32.633	0.267	-0.150
-521.960	2.563	0.225	0.165
-520.945	-77.040	0.236	-0.084
-519.931	12.811	0.240	0.188
-518.916	85.797	-0.095	-0.105
-517.902	-200.000	0.030	-0.250
-516.887	800.000	0.026	0.076
-515.872	706.772	0.098	0.262
-514.858	-23.611	-0.264	0.160
-513.843	-130.360	-0.416	-0.057
-512.829	593.628	0.054	-0.135
-511.814	170.040	0.127	0.184
-510.799	-42.074	0.277	0.144
-509.785	-200.000	0.004	0.277
-508.770	-200.000	0.038	-0.252
-507.756	-124.574	0.150	-0.024
-506.741	414.447	0.104	0.225
-505.726	-157.525	-0.249	-0.015
-504.712	-102.352	0.178	-0.043
-503.697	4.456	0.154	-0.114
-502.683	-114.675	0.276	0.053
-501.668	-103.719	0.159	0.038
-500.653	160.005	-0.094	-0.133
-499.639	-200.000	0.017	0.177
-498.624	-169.919	-0.314	-0.011
-497.610	-50.020	-0.155	0.074
-496.595	14.781	-0.086	-0.068
-495.581	63.334	0.144	0.146
-494.566	62.779	-0.105	0.107
-493.551	-184.920	0.258	-0.004
-492.537	-95.391	0.137	0.037
-491.522	-47.411	0.217	-0.107
-490.508	24.247	0.299	0.250
-489.493	22.885	-0.153	0.127
-488.478	-200.000	0.004	-0.079
-487.464	153.525	-0.029	0.041
-486.449	-129.303	0.059	-0.008
-485.435	133.368	0.080	-0.105
-484.420	-50.883	-0.236	-0.112
-483.405	2.379	0.239	0.175
-482.391	-43.432	0.142	-0.073
-481.376	28.874	-0.140	-0.120
-480.362	800.000	0.054	-0.191
-479.347	53.417	0.165	0.159
-478.332	80.495	-0.022	0.024
-477.318	800.000	-0.058	0.191
-476.303	-102.362	0.090	0.022
-475.289	-190.071	0.385	0.004
-474.274	-200.000	0.022	-0.161
-473.259	81.170	-0.087	-0.095
-472.245	101.859	0.188	0.221
-471.230	-200.000	-0.011	0.152
-470.216	295.510	0.123	0.228
-469.201	-30.253	-0.080	-0.046
-468.186	44.956	-0.197	-0.184
-467.172	-46.827	-0.072	-0.036
-466.157	800.000	0.062	-0.238
-465.143	-52.299	-0.220	0.103
-464.128	-30.220	0.129	-0.074
-463.113	-75.280	0.206	0.074
-462.099	-128.333	-0.379	0.055
-461.084	338.350	0.088	-0.173
-460.070	-2.812	0.200	-0.141
-459.055	-141.019	0.177	0.018
-458.040	-87.363	-0.325	-0.100
-457.026	-200.000	0.004	-0.088
-456.011	800.000	0.050	0.151
-454.997	-15.724	0.030	-0.019
-453.982	-20.602	-0.222	0.138
-452.968	166.527	-0.036	0.052
-451.953	93.833	-0.117	0.134
-450.938	-200.000	0.080	-0.425
-449.924	-200.000	0.004	-0.238
-448.909	-22.039	0.157	0.097
-447.895	38.125	0.092	-0.083
-446.880	-4.405	-0.154	0.107
-445.865	413.584	-0.124	-0.266
-444.851	314.076	-0.042	0.080
-443.836	-23.060	-0.240	-0.146
-442.822	800.000	0.046	-0.143
-441.807	418.774	-0.049	-0.107
-440.792	151.460	0.232	0.319
-439.778	-89.178	-0.166	-0.050
-438.763	-200.000	0.007	-0.131
-437.749	-148.530	0.095	0.008
-436.734	-56.187	-0.208	-0.093
-435.719	-200.000	0.049	0.226
-434.705	328.546	0.073	-0.141
-433.690	123.657	0.045	-0.056
-432.676	15.096	-0.108	0.085
-431.661	-104.775	-0.349	-0.081
-430.646	199.131	0.073	0.112
-429.632	34.035	-0.150	-0.132
-428.617	-200.000	0.023	-0.300
-427.603	717.118	-0.054	-0.144
-426.588	659.052	-0.062	-0.162
-425.573	-47.044	-0.262	0.129
-424.559	21.567	0.369	-0.303
-423.544	-79.758	-0.152	0.052
-422.530	800.000	-0.077	0.303
-421.515	85.293	0.370	0.410
-420.500	-200.000	0.007	0.066
-419.486	-182.714	0.109	0.002
-418.471	-146.890	0.205	-0.018
-417.457	95.283	-0.038	-0.044
-416.442	-75.751	0.018	-0.006
-415.428	-73.907	-0.120	-0.044
-414.413	800.000	-0.071	-0.234
-413.398	-137.148	0.206	-0.024
-412.384	35.284	-0.139	-0.123
-411.369	559.642	0.081	0.197
-410.355	-60.472	-0.270	0.116
-409.340	-72.163	0.223	0.083
-408.325	179.000	-0.139	0.205
-407.311	231.517	-0.098	0.161
-406.296	800.000	0.082	0.260
-405.282	-133.793	-0.308	-0.039
-404.267	800.000	-0.025	-0.088
-403.252	132.874	-0.032	-0.041
-402.238	48.162	-0.139	0.131
-401.223	35.416	-0.141	-0.124
-400.209	-154.121	-0.247	-0.017
-399.194	-70.345	0.260	-0.100
-398.179	297.677	-0.061	0.113
-397.165	-200.000	-0.027	0.608
-396.150	50.214	-0.107	0.102
-395.136	-86.048	0.194	0.060
-394.121	374.552	0.169	-0.347
-393.106	99.171	0.121	0.141
-392.092	-200.000	-0.013	0.094
-391.077	-200.000	0.005	0.143
-390.063	-149.763	0.140	-0.011
-389.048	800.000	-0.017	0.054
-388.033	800.000	0.045	-0.197
-387.019	-83.133	0.265	-0.086
-386.004	-133.668	-0.442	0.056
-384.990	-70.790	0.130	0.049
-383.975	10.432	0.051	-0.039
-382.960	65.314	0.121	0.123
-381.946	64.034	-0.171	-0.173
-380.931	725.952	-0.111	0.297
-379.917	-200.000	0.017	-0.208
-378.902	-70.371	0.136	-0.052
-377.888	-200.000	0.014	-0.128
-376.873	-65.433	0.165	0.067
-375.858	96.845	-0.178	0.205
-374.844	-85.234	0.087	0.027
-373.829	226.609	0.127	0.208
-372.815	-129.536	-0.276	-0.038
-371.800	-200.000	0.006	-0.164
-370.785	204.344	-0.149	0.233
-369.771	-200.000	-0.022	-0.105
-368.756	-9.665	-0.176	0.118
-367.742	10.982	-0.185	-0.142
-366.727	-133.405	-0.385	0.049
-365.712	62.694	0.188	0.189
-364.698	142.865	-0.012	0.017
-363.683	-39.307	-0.226	-0.119
-362.669	-200.000	0.005	0.028
-361.654	800.000	0.049	-0.212
-360.639	170.904	-0.038	0.055
-359.625	195.113	-0.197	-0.300
-358.610	-200.000	-0.062	0.365
-357.596	517.271	0.127	-0.300
-356.581	-200.000	-0.061	-0.285
-355.566	800.000	0.112	0.405
-354.552	-64.581	0.361	0.147
-353.537	-54.869	0.140	-0.063
-352.523	525.133	0.084	-0.199
-351.508	56.000	-0.156	-0.152
-350.493	-200.000	-0.008	0.337
-349.479	-200.000	-0.063	0.351
-348.464	281.570	0.127	0.228
-347.450	-59.584	-0.228	-0.098
-346.435	20.917	0.235	0.192
-345.420	-94.189	-0.217	-0.060
-344.406	-69.865	0.113	0.043
-343.391	-200.000	0.038	0.262
-342.377	14.902	0.090	-0.071
-341.362	-28.568	0.160	0.093
-340.348	-200.000	0.028	-0.125
-339.333	-143.232	-0.440	0.042
-338.318	800.000	-0.051	0.168
-337.304	264.976	-0.079	0.138
-336.289	800.000	-0.038	0.116
-335.275	-28.321	0.104	0.061
-334.260	-200.000	0.042	0.362
-333.245	141.312	0.095	0.127
-332.231	-200.000	0.247	0.001
-331.216	800.000	-0.072	0.213
-330.202	101.834	0.272	-0.318
-329.187	-87.025	-0.169	-0.052
-328.172	0.813	-0.117	0.084
-327.158	800.000	-0.089	0.326
-326.143	800.000	0.112	0.312
-325.129	-52.338	0.296	-0.138
-324.114	389.094	-0.044	0.091
-323.099	326.387	-0.219	-0.422
-322.085	800.000	0.042	0.135
-321.070	-111.429	-0.474	0.097
-320.056	-200.000	-0.041	-0.402
-319.041	79.205	0.179	0.192
-318.026	446.586	0.111	-0.244
-317.012	9.175	-0.134	0.102
-315.997	-79.908	-0.073	0.025
-314.983	800.000	0.038	-0.150
-313.968	388.474	-0.136	0.283
-312.953	-130.907	0.236	0.032
-311.939	135.998	0.163	-0.213
-310.924	247.841	-0.222	-0.377
-309.910	602.851	-0.018	0.045
-308.895	-114.095	-0.209	-0.041
-307.880	-69.116	-0.565	0.218
-306.866	-54.392	0.238	-0.108
-305.851	118.610	-0.297	0.368
-304.837	-200.000	0.034	0.249
-303.822	148.576	0.281	0.381
-302.807	528.352	0.025	0.058
-301.793	60.531	-0.070	-0.069
-300.778	-105.651	0.331	0.075
-299.764	775.660	-0.096	0.263
-298.749	94.465	-0.099	-0.113
-297.735	35.879	0.122	-0.107
-296.720	241.106	-0.045	-0.075
-295.705	800.000	0.080	0.249
-294.691	800.000	0.029	-0.128
-293.676	-2.439	0.209	-0.147
-292.662	-200.000	0.032	-0.143
-291.647	-50.697	0.214	-0.101
-290.632	-101.954	-0.177	-0.043
-289.618	-101.734	0.293	-0.071
-288.603	-200.000	0.015	0.302
-287.589	235.012	-0.092	-0.153
-286.574	506.529	-0.101	0.234
-285.559	-41.027	-0.243	0.126
-284.545	232.550	-0.044	-0.073
-283.530	562.356	0.029	-0.071
-282.516	17.821	0.234	-0.187
-281.501	-109.468	-0.204	-0.043
-280.486	233.646	0.182	-0.301
-279.472	349.471	0.117	-0.232
-278.457	200.308	-0.056	-0.087
-277.443	158.186	0.081	0.112
-276.428	284.412	0.083	0.149
-275.413	-200.000	0.058	0.302
-274.399	-54.617	-0.027	-0.012
-273.384	-25.582	-0.250	0.148
-272.370	140.606	-0.099	-0.131
-271.355	581.231	-0.194	-0.476
-270.340	52.908	-0.116	0.111
-269.326	3.445	-0.204	-0.149
-268.311	-123.686	-0.241	0.038
-267.297	129.152	-0.112	-0.144
-266.282	190.025	0.114	0.172
-265.267	-93.911	-0.239	0.066
-264.253	195.037	0.096	-0.146
-263.238	29.367	0.254	-0.216
-262.224	-136.599	0.283	0.033
-261.209	-152.750	-0.274	0.020
-260.195	-139.515	-0.174	-0.019
-259.180	-133.728	-0.179	0.022
-258.165	521.190	0.012	0.028
-257.151	-72.699	0.200	-0.074
-256.136	46.863	0.346	0.322
-255.122	-167.446	0.412	-0.017
-254.107	800.000	0.080	0.270
-253.092	-15.070	0.071	0.045
-252.078	758.501	-0.019	0.052
-251.063	81.524	0.314	0.340
-250.049	-57.799	0.181	-0.079
-249.034	9.947	0.278	0.212
-248.019	63.390	-0.163	0.164
-247.005	-67.231	-0.226	0.089
-245.990	205.488	-0.261	0.405
-244.976	90.692	0.045	0.050
-243.961	763.215	-0.100	0.272
-242.946	-138.150	-0.142	-0.016
-241.932	196.867	-0.097	-0.148
-240.917	-37.929	0.147	0.078
-239.903	800.000	-0.034	-0.118
-238.888	-41.398	0.040	-0.021
-237.873	-200.000	-0.023	0.328
-236.859	125.516	-0.126	-0.159
-235.844	24.700	-0.014	0.012
-234.830	-122.674	-0.347	0.056
-233.815	18.701	-0.050	0.040
-232.800	-60.369	-0.158	0.067
-231.786	-129.201	-0.090	-0.013
-230.771	-6.277	-0.207	0.142
-229.757	5.502	0.191	0.141
-228.742	-163.685	0.156	-0.007
-227.727	-200.000	-0.023	0.102
-226.713	104.673	-0.175	-0.206
-225.698	-131.463	0.194	0.026
-224.684	-79.769	0.194	-0.065
-223.669	-49.714	0.135	-0.064
-222.655	-200.000	0.031	-0.137
-221.640	-47.689	0.167	0.081
-220.625	117.514	0.365	0.449
-219.611	-14.121	0.294	0.190
-218.596	-200.000	-0.006	-0.055
-217.582	79.262	-0.137	-0.147
-216.567	-200.000	-0.003	0.043
-215.552	800.000	0.043	-0.177
-214.538	-200.000	0.023	0.242
-213.523	800.000	0.050	0.156
-212.509	105.730	-0.150	-0.178
-211.494	-29.669	0.122	0.070
-210.479	118.182	0.172	-0.212
-209.465	-0.949	0.104	-0.073
-208.450	-110.310	-0.104	-0.022
-207.436	800.000	-0.041	0.170
-206.421	66.240	0.213	-0.216
-205.406	375.391	-0.105	-0.214
-204.392	-28.110	-0.170	0.098
-203.377	-95.975	0.253	0.067
-202.363	-35.116	0.230	-0.125
-201.348	182.144	0.146	-0.215
-200.333	-112.566	-0.116	-0.023
-199.319	403.005	-0.058	-0.122
-198.304	-66.582	0.305	-0.121
-197.290	-200.000	0.011	0.110
-196.275	-115.192	-0.168	-0.032
-195.260	229.351	0.259	-0.423
-194.246	110.493	0.164	-0.197
-193.231	-26.715	0.364	0.213
-192.217	-200.000	-0.024	0.298
-191.202	800.000	-0.072	-0.206
-190.187	800.000	0.063	-0.245
-189.173	6.348	-0.153	0.113
-188.158	67.301	0.069	-0.070
-187.144	303.815	0.057	0.106
-186.129	-200.000	-0.004	-0.359
-185.114	-43.636	0.077	-0.039
-184.100	800.000	0.018	0.068
-183.085	-200.000	0.001	-0.405
-182.071	-100.615	-0.227	0.056
-181.056	-200.000	0.013	-0.217
-180.042	104.880	-0.272	0.320
-179.027	15.611	0.101	0.079
-178.012	13.414	0.234	-0.182
-176.998	-21.751	0.131	-0.080
-175.983	105.527	-0.224	-0.265
-174.969	39.936	-0.337	-0.303
-173.954	-200.000	-0.006	-0.054
-172.939	-200.000	-0.045	-0.359
-171.925	-200.000	-0.025	-0.368
-170.910	-39.040	-0.091	0.048
-169.896	24.112	-0.080	0.066
-168.881	303.733	0.104	0.192
-167.866	361.899	0.076	-0.152
-166.852	216.517	-0.150	-0.238
-165.837	238.670	0.080	-0.133
-164.823	287.499	-0.118	-0.213
-163.808	132.509	-0.067	-0.087
-162.793	-52.307	0.414	-0.192
-161.779	-70.638	-0.131	-0.049
-160.764	-47.291	0.053	-0.026
-159.750	-89.491	-0.241	0.071
-158.735	7.969	0.145	0.109
-157.720	602.220	0.024	0.058
-156.706	-200.000	-0.016	-0.159
-155.691	-91.028	-0.059	0.017
-154.677	-19.305	0.158	0.098
-153.662	383.734	0.039	0.080
-152.647	2.507	0.265	0.192
-151.633	-200.000	-0.003	0.117
-150.618	590.045	-0.133	0.327
-149.604	121.307	0.025	-0.031
-148.589	-200.000	0.004	-0.148
-147.574	-190.369	-0.306	0.003
-146.560	446.405	0.095	0.207
-145.545	220.454	0.109	-0.175
-144.531	4.341	0.246	0.180
-143.516	-200.000	-0.047	0.280
-142.502	237.141	0.137	-0.226
-141.487	705.578	0.072	-0.189
-140.472	-200.000	0.004	0.315
-139.458	-57.166	-0.235	-0.103
-138.443	321.516	0.130	0.246
-137.429	800.000	-0.053	0.152
-136.414	28.050	0.331	0.279
-135.399	136.515	0.065	0.084
-134.385	1.093	0.044	0.032
-133.370	-141.756	0.106	0.011
-132.356	-200.000	0.034	0.213
-131.341	57.589	-0.086	0.084
-130.326	13.048	-0.154	0.119
-129.312	-200.000	-0.007	0.147
-128.297	-200.000	-0.028	0.194
-127.283	-9.830	0.150	-0.099
-126.268	-75.691	0.518	-0.183
-125.253	-38.379	0.303	0.160
-124.239	-99.909	-0.205	0.051
-123.224	-120.812	-0.012	-0.002
-122.210	-89.898	-0.151	0.044
-121.195	-200.000	0.007	-0.400
