DTS Sentinel unit serial number:	SN413079Multiplexer serial number:	ORYXHardware model number:	OX4-SRSoftware version number:	ORYX F/W v4.00 Oryx Data Collector v3.7.2.0data status	okinstallation	princeton_trtdifferential loss correction	single-endedforward channel	channel 1reverse channel	N/Adate	2019/09/16time	09:58:35forward acquisition time	60.00reverse acquisition time	0.00gamma	496.2192k internal	0.2317k external	0.2317temperature offset calibration	0.9960default loss term (dB/km)	0.3790temperature slope calibration	1.0000multiplexer offset coefficient	1.0000multiplexer slope coefficient	1.0000fibre end	0.00T internal ref (°C)	33.33T ext. ref 1 (°C)	12.37T ext. ref 2 (°C)	31.79length (m)	temperature (°C)	Stokes	anti-Stokes-747.200	458.896	0.029	0.064
-746.185	114.816	0.082	-0.102
-745.171	-64.397	0.137	0.057
-744.156	81.949	-0.177	0.194
-743.142	-115.748	0.162	0.031
-742.127	117.870	-0.285	0.356
-741.112	-8.682	-0.198	0.135
-740.098	118.650	0.237	0.296
-739.083	800.000	0.145	0.459
-738.069	49.587	-0.137	-0.131
-737.054	-102.994	0.133	0.032
-736.039	189.196	-0.142	0.216
-735.025	-200.000	0.028	-0.145
-734.010	-48.707	0.243	-0.118
-732.996	-106.107	-0.249	-0.057
-731.981	-60.438	-0.216	0.093
-730.966	98.794	-0.241	-0.282
-729.952	261.967	0.116	-0.204
-728.937	800.000	0.081	-0.229
-727.923	-200.000	0.013	-0.119
-726.908	800.000	0.063	-0.215
-725.894	-200.000	-0.042	0.212
-724.879	-56.050	-0.178	0.080
-723.864	378.619	-0.106	-0.220
-722.850	-49.404	-0.133	-0.064
-721.835	56.387	0.027	0.027
-720.821	-94.909	-0.031	0.008
-719.806	-35.708	-0.134	0.073
-718.791	263.693	-0.228	-0.400
-717.777	-15.105	-0.092	-0.060
-716.762	-200.000	0.026	-0.142
-715.748	8.711	-0.028	-0.021
-714.733	538.654	0.041	-0.099
-713.718	-99.994	-0.307	-0.077
-712.704	-55.845	0.281	0.127
-711.689	-200.000	0.014	0.135
-710.675	-200.000	-0.061	-0.276
-709.660	-200.000	0.033	-0.276
-708.645	12.947	-0.160	0.125
-707.631	-78.188	0.310	-0.108
-706.616	7.453	-0.226	-0.171
-705.602	495.517	-0.130	0.301
-704.587	-66.946	-0.172	0.069
-703.572	14.764	-0.119	0.094
-702.558	773.660	0.070	-0.193
-701.543	-113.727	0.210	-0.041
-700.529	-21.298	0.189	-0.117
-699.514	290.203	0.078	0.144
-698.499	-200.000	-0.024	-0.321
-697.485	25.679	0.098	-0.083
-696.470	102.881	0.053	0.062
-695.456	149.449	-0.158	-0.217
-694.441	800.000	-0.078	-0.307
-693.426	-200.000	-0.043	-0.287
-692.412	35.482	0.121	-0.108
-691.397	-200.000	-0.002	-0.072
-690.383	122.458	-0.233	0.294
-689.368	800.000	-0.044	-0.149
-688.354	800.000	-0.074	-0.319
-687.339	-200.000	0.016	-0.120
-686.324	30.294	-0.208	-0.180
-685.310	800.000	-0.119	-0.339
-684.295	205.115	0.203	-0.318
-683.281	10.520	0.167	-0.129
-682.266	24.990	-0.241	0.202
-681.251	-94.967	-0.116	-0.032
-680.237	-28.683	0.203	-0.118
-679.222	800.000	0.043	-0.161
-678.208	102.040	-0.240	0.283
-677.193	303.463	0.122	-0.228
-676.178	366.118	0.101	0.205
-675.164	180.236	0.111	-0.164
-674.149	-15.671	-0.190	0.122
-673.135	-200.000	-0.000	0.029
-672.120	-5.221	-0.183	0.127
-671.105	51.248	0.098	-0.094
-670.091	777.902	0.114	0.315
-669.076	182.196	0.221	-0.329
-668.062	-103.172	-0.505	-0.121
-667.047	-200.000	-0.013	-0.218
-666.032	431.583	0.070	0.153
-665.018	-200.000	0.042	0.198
-664.003	-84.067	-0.195	-0.062
-662.989	-59.557	0.197	0.085
-661.974	800.000	-0.057	-0.179
-660.959	800.000	0.101	-0.328
-659.945	-121.030	-0.236	0.040
-658.930	-26.203	-0.284	0.169
-657.916	73.029	0.063	0.067
-656.901	800.000	-0.093	-0.325
-655.886	103.378	-0.183	0.216
-654.872	-200.000	-0.021	0.191
-653.857	-200.000	0.036	0.271
-652.843	800.000	-0.018	0.060
-651.828	-49.297	-0.045	-0.022
-650.814	800.000	0.057	-0.230
-649.799	-86.945	-0.274	0.084
-648.784	-200.000	0.060	-0.266
-647.770	-80.057	0.146	-0.049
-646.755	-87.390	-0.100	-0.030
-645.741	-87.080	-0.051	-0.016
-644.726	-200.000	0.052	-0.305
-643.711	-85.393	-0.144	-0.045
-642.697	-31.211	0.223	0.127
-641.682	48.501	0.134	0.127
-640.668	-44.483	-0.103	0.052
-639.653	645.343	0.059	0.151
-638.638	-200.000	0.030	-0.351
-637.624	149.891	0.128	0.175
-636.609	197.097	-0.182	-0.280
-635.595	-35.589	-0.183	0.100
-634.580	-200.000	0.042	0.230
-633.565	6.009	-0.286	-0.213
-632.551	154.486	-0.154	0.213
-631.536	94.142	0.195	-0.223
-630.522	-200.000	-0.005	0.249
-629.507	60.548	-0.134	-0.134
-628.492	8.489	0.281	0.213
-627.478	-200.000	0.029	-0.189
-626.463	587.822	-0.123	0.304
-625.449	-41.880	0.147	0.076
-624.434	-45.825	-0.061	-0.030
-623.419	-200.000	-0.028	0.142
-622.405	-98.534	-0.292	-0.075
-621.390	47.091	0.084	-0.079
-620.376	-4.521	0.225	-0.157
-619.361	800.000	0.068	-0.250
-618.346	63.102	0.094	0.095
-617.332	-200.000	-0.053	0.246
-616.317	-121.542	0.191	0.032
-615.303	65.079	-0.080	-0.081
-614.288	66.770	0.238	0.244
-613.273	800.000	0.054	-0.174
-612.259	339.885	0.042	0.082
-611.244	-40.654	0.210	0.109
-610.230	-200.000	0.027	0.267
-609.215	-181.315	-0.322	-0.006
-608.201	-183.435	0.185	0.003
-607.186	-95.310	-0.441	-0.120
-606.171	7.050	-0.008	-0.006
-605.157	800.000	0.041	0.163
-604.142	-200.000	0.045	-0.315
-603.128	-86.977	0.006	0.002
-602.113	-145.863	-0.456	-0.041
-601.098	421.226	-0.096	-0.207
-600.084	206.183	-0.067	-0.105
-599.069	-7.099	-0.212	-0.145
-598.055	19.845	0.156	-0.127
-597.040	193.813	-0.018	-0.027
-596.025	-200.000	0.012	0.073
-595.011	260.520	-0.053	0.092
-593.996	-56.716	-0.186	0.083
-592.982	307.721	0.063	-0.118
-591.967	-159.752	0.201	-0.011
-590.952	-146.011	0.355	-0.032
-589.938	-14.660	-0.040	0.026
-588.923	159.929	-0.133	0.186
-587.909	88.029	0.229	-0.255
-586.894	22.092	-0.178	0.146
-585.879	-54.623	-0.233	0.106
-584.865	-200.000	0.010	0.149
-583.850	208.727	0.038	-0.060
-582.836	181.657	-0.078	-0.116
-581.821	-200.000	0.011	-0.150
-580.806	303.171	0.060	-0.112
-579.792	154.112	0.233	-0.322
-578.777	-143.582	-0.065	-0.006
-577.763	-200.000	-0.003	0.053
-576.748	-4.307	0.207	-0.144
-575.733	-200.000	-0.014	-0.205
-574.719	8.803	0.237	-0.180
-573.704	-163.856	-0.349	0.016
-572.690	-99.068	0.216	-0.055
-571.675	-187.131	-0.218	-0.003
-570.661	-73.694	0.214	-0.078
-569.646	454.021	-0.079	0.175
-568.631	78.305	-0.135	0.145
-567.617	-69.945	0.080	0.031
-566.602	399.028	0.033	0.070
-565.588	-83.857	0.202	-0.065
-564.573	-80.657	0.231	-0.077
-563.558	-200.000	-0.003	-0.056
-562.544	637.818	-0.050	0.128
-561.529	-197.459	-0.279	0.002
-560.515	-95.884	-0.515	-0.138
-559.500	800.000	0.022	0.081
-558.485	382.439	0.053	0.109
-557.471	-31.809	-0.222	-0.125
-556.456	-96.249	-0.022	0.006
-555.442	800.000	-0.075	0.221
-554.427	800.000	-0.054	0.179
-553.412	402.802	-0.049	0.103
-552.398	288.068	0.185	-0.337
-551.383	-200.000	0.031	0.227
-550.369	-77.016	-0.113	0.040
-549.354	-124.924	0.240	-0.037
-548.339	-200.000	-0.014	0.149
-547.325	75.903	-0.309	0.329
-546.310	86.239	-0.195	0.216
-545.296	119.880	-0.142	-0.177
-544.281	424.262	-0.126	-0.273
-543.266	-79.593	-0.253	-0.086
-542.252	162.661	0.058	0.081
-541.237	-168.966	-0.244	0.009
-540.223	-138.679	-0.206	0.023
-539.208	503.188	-0.168	-0.389
-538.193	-200.000	-0.079	0.536
-537.179	-200.000	0.014	-0.113
-536.164	136.777	0.110	-0.144
-535.150	499.984	0.124	0.288
-534.135	44.408	-0.135	0.125
-533.121	-123.424	-0.129	0.021
-532.106	-52.365	0.303	0.141
-531.091	82.339	-0.204	0.223
-530.077	-4.953	-0.383	-0.265
-529.062	-141.549	0.228	0.023
-528.048	683.875	0.144	0.376
-527.033	695.959	-0.114	-0.301
-526.018	-200.000	-0.041	0.191
-525.004	25.345	-0.109	-0.091
-523.989	347.235	-0.121	-0.240
-522.975	397.467	-0.066	-0.138
-521.960	54.776	0.168	-0.162
-520.945	325.304	0.143	-0.275
-519.931	43.902	0.134	0.123
-518.916	-63.737	0.364	0.150
-517.902	-200.000	0.005	0.031
-516.887	37.910	-0.221	0.197
-515.872	-117.471	-0.227	0.041
-514.858	-200.000	-0.025	-0.267
-513.843	259.758	0.202	-0.351
-512.829	-57.138	0.130	-0.057
-511.814	-200.000	0.015	-0.115
-510.799	226.743	0.198	-0.322
-509.785	46.355	-0.140	0.130
-508.770	-64.715	-0.087	0.035
-507.756	-200.000	0.021	0.151
-506.741	130.335	0.076	-0.097
-505.726	-53.017	0.114	-0.053
-504.712	211.548	0.083	0.132
-503.697	200.188	-0.182	-0.280
-502.683	-200.000	-0.011	-0.063
-501.668	437.587	0.107	0.234
-500.653	-70.779	-0.195	-0.074
-499.639	-147.271	0.505	-0.043
-498.624	-80.922	0.156	0.052
-497.610	-151.477	-0.131	0.010
-496.595	383.891	0.095	-0.196
-495.581	-90.490	-0.227	0.066
-494.566	-51.235	-0.180	0.085
-493.551	-64.529	0.207	-0.084
-492.537	435.564	0.183	-0.400
-491.522	-200.000	0.027	0.134
-490.508	-200.000	0.006	0.348
-489.493	-74.261	-0.229	-0.083
-488.478	219.535	-0.079	-0.127
-487.464	496.468	0.160	0.369
-486.449	4.875	0.362	0.267
-485.435	108.569	0.175	-0.210
-484.420	800.000	-0.087	0.310
-483.405	-178.498	-0.261	0.006
-482.391	-11.827	0.104	-0.069
-481.376	-50.807	0.143	0.067
-480.362	800.000	-0.032	0.123
-479.347	-81.715	0.239	0.079
-478.332	74.578	0.110	0.116
-477.318	23.950	0.057	-0.047
-476.303	21.063	-0.156	-0.126
-475.289	40.624	0.047	-0.042
-474.274	99.368	-0.147	-0.170
-473.259	-200.000	0.008	0.089
-472.245	241.355	-0.054	-0.091
-471.230	45.897	0.295	-0.273
-470.216	800.000	-0.176	0.525
-469.201	-155.428	0.179	-0.012
-468.186	7.306	-0.121	-0.090
-467.172	-200.000	0.029	0.359
-466.157	-107.994	-0.167	0.036
-465.143	85.860	0.030	-0.033
-464.128	-73.708	-0.021	-0.008
-463.113	-200.000	-0.029	0.162
-462.099	349.063	0.137	-0.272
-461.084	-60.744	-0.199	0.084
-460.070	40.929	0.122	0.110
-459.055	-200.000	0.029	-0.303
-458.040	35.525	-0.322	0.283
-457.026	159.523	-0.200	-0.279
-456.011	-25.959	0.298	0.176
-454.997	366.620	0.111	-0.225
-453.982	-156.981	-0.235	-0.014
-452.968	135.748	0.088	0.114
-451.953	800.000	-0.093	0.297
-450.938	-21.042	0.221	0.135
-449.924	173.443	-0.150	0.216
-448.909	-125.158	-0.113	0.017
-447.895	800.000	0.031	0.119
-446.880	556.933	-0.122	-0.294
-445.865	-195.497	0.157	0.001
-444.851	5.061	0.168	0.124
-443.836	-200.000	0.007	-0.054
-442.822	-136.255	-0.243	-0.028
-441.807	-187.504	0.620	0.008
-440.792	-200.000	-0.007	0.242
-439.778	88.044	-0.264	-0.293
-438.763	-135.029	-0.184	0.022
-437.749	133.735	-0.218	0.282
-436.734	54.812	-0.115	0.111
-435.719	491.922	-0.166	-0.381
-434.705	13.404	-0.042	-0.033
-433.690	-137.472	-0.344	-0.039
-432.676	447.998	-0.108	-0.239
-431.661	800.000	0.060	0.204
-430.646	305.254	-0.064	0.119
-429.632	-66.401	-0.140	-0.056
-428.617	800.000	0.082	0.243
-427.603	-149.071	0.142	0.011
-426.588	-79.409	0.166	-0.056
-425.573	23.429	-0.399	0.328
-424.559	82.611	0.084	-0.091
-423.544	800.000	-0.065	0.265
-422.530	-40.029	-0.262	-0.137
-421.515	232.995	-0.135	-0.223
-420.500	129.636	-0.107	-0.137
-419.486	-121.699	0.112	-0.019
-418.471	-84.716	0.362	-0.114
-417.457	800.000	0.064	-0.214
-416.442	-200.000	-0.059	-0.292
-415.428	38.269	0.182	-0.162
-414.413	-150.026	0.107	-0.008
-413.398	33.247	-0.249	-0.216
-412.384	800.000	-0.056	-0.185
-411.369	-120.583	0.535	-0.091
-410.355	-11.987	-0.364	0.239
-409.340	756.730	-0.082	-0.222
-408.325	800.000	0.056	-0.169
-407.311	-14.382	0.309	0.199
-406.296	-45.276	-0.101	-0.050
-405.282	-24.427	0.110	0.066
-404.267	18.566	-0.435	-0.348
-403.252	407.419	0.039	0.082
-402.238	-119.702	0.162	-0.028
-401.223	-200.000	0.029	-0.338
-400.209	-103.992	-0.071	-0.017
-399.194	95.419	0.129	0.147
-398.179	-180.538	0.138	-0.003
-397.165	94.519	0.262	0.298
-396.150	310.555	0.151	0.282
-395.136	160.792	0.189	0.263
-394.121	103.804	0.258	0.302
-393.106	-59.106	0.066	0.028
-392.092	-66.110	-0.218	-0.087
-391.077	800.000	0.023	0.086
-390.063	800.000	0.024	0.086
-389.048	106.783	-0.033	0.039
-388.033	-9.798	0.073	-0.048
-387.019	255.520	0.074	0.127
-386.004	162.220	0.203	0.284
-384.990	91.230	-0.130	-0.146
-383.975	398.325	-0.068	0.142
-382.960	-12.210	-0.233	0.152
-381.946	45.242	-0.088	-0.081
-380.931	-200.000	0.054	0.312
-379.917	32.109	-0.028	0.024
-378.902	252.563	-0.044	0.074
-377.888	427.388	0.024	0.051
-376.873	-45.155	0.144	-0.072
-375.858	-200.000	-0.052	-0.269
-374.844	174.674	-0.196	-0.283
-373.829	136.460	0.100	-0.130
-372.815	690.106	0.079	-0.205
-371.800	-84.843	-0.088	-0.027
-370.785	-20.379	-0.108	0.066
-369.771	-53.678	-0.229	-0.104
-368.756	45.351	0.011	0.010
-367.742	-200.000	0.028	-0.416
-366.727	82.706	-0.190	-0.206
-365.712	-159.208	0.367	0.021
-364.698	-112.122	0.102	0.020
-363.683	-123.388	-0.551	0.088
-362.669	415.884	-0.120	0.256
-361.654	180.207	0.252	-0.369
-360.639	-200.000	0.027	0.224
-359.625	179.525	-0.079	-0.116
-358.610	-200.000	-0.053	-0.307
-357.596	-14.054	0.077	-0.050
-356.581	-67.993	0.117	0.045
-355.566	200.940	0.078	0.119
-354.552	-2.320	-0.190	-0.133
-353.537	14.806	-0.165	-0.129
-352.523	-89.470	0.194	0.057
-351.508	-200.000	0.012	0.144
-350.493	800.000	-0.085	-0.311
-349.479	-200.000	0.031	-0.359
-348.464	-72.652	0.277	0.102
-347.450	190.878	0.228	-0.341
-346.435	190.037	-0.067	0.100
-345.420	48.504	0.083	0.077
-344.406	43.134	-0.128	-0.117
-343.391	-125.810	-0.349	-0.053
-342.377	2.522	0.053	0.039
-341.362	-200.000	0.054	-0.369
-340.348	-59.764	-0.385	-0.165
-339.333	475.692	0.111	0.251
-338.318	188.683	0.172	0.256
-337.304	-57.076	-0.246	0.108
-336.289	-145.862	0.104	0.009
-335.275	-0.252	0.071	-0.050
-334.260	-200.000	-0.003	0.018
-333.245	-22.396	-0.073	0.044
-332.231	181.449	0.089	0.130
-331.216	-200.000	-0.030	0.187
-330.202	800.000	0.070	0.261
-329.187	-56.109	0.260	-0.115
-328.172	-56.499	-0.117	-0.052
-327.158	-125.149	-0.192	-0.029
-326.143	-200.000	0.017	0.118
-325.129	-115.289	0.093	-0.018
-324.114	800.000	0.087	0.260
-323.099	760.824	-0.074	0.201
-322.085	-36.317	0.076	0.041
-321.070	-200.000	0.023	0.441
-320.056	800.000	0.070	0.202
-319.041	-134.958	0.259	0.031
-318.026	141.537	-0.163	0.215
-317.012	181.064	-0.056	0.083
-315.997	184.956	0.036	-0.053
-314.983	-200.000	-0.016	0.170
-313.968	-113.777	0.292	0.057
-312.953	104.128	-0.144	-0.168
-311.939	275.103	-0.186	-0.328
-310.924	375.491	0.181	0.367
-309.910	-200.000	0.005	0.166
-308.895	-137.391	-0.205	0.023
-307.880	99.835	-0.046	-0.054
-306.866	-118.638	-0.132	-0.023
-305.851	-111.826	-0.249	-0.050
-304.837	-200.000	-0.004	0.068
-303.822	-200.000	-0.043	0.220
-302.807	800.000	-0.110	0.385
-301.793	-91.778	0.245	-0.069
-300.778	-149.540	0.262	-0.021
-299.764	-200.000	0.022	0.307
-298.749	-49.442	-0.142	0.067
-297.735	-50.797	-0.239	-0.112
-296.720	419.545	0.097	-0.207
-295.705	698.470	-0.098	0.256
-294.691	800.000	-0.133	0.412
-293.676	-13.938	0.046	0.030
-292.662	-105.289	0.099	-0.022
-291.647	-161.038	-0.358	0.019
-290.632	225.220	-0.118	0.190
-289.618	800.000	0.066	0.253
-288.603	800.000	0.044	0.154
-287.589	-36.429	-0.249	0.134
-286.574	-200.000	-0.003	0.040
-285.559	72.138	-0.204	-0.211
-284.545	670.478	-0.186	-0.478
-283.530	-15.953	-0.172	0.109
-282.516	125.448	0.194	-0.244
-281.501	-18.144	0.297	-0.185
-280.486	208.982	-0.180	0.281
-279.472	68.640	0.095	0.097
-278.457	-200.000	0.014	-0.279
-277.443	-128.527	0.148	0.021
-276.428	-200.000	0.020	0.219
-275.413	-23.361	-0.195	0.116
-274.399	1.573	-0.122	-0.087
-273.384	109.297	0.209	-0.249
-272.370	-132.434	-0.130	-0.017
-271.355	-52.848	-0.305	-0.140
-270.340	-58.742	-0.226	0.097
-269.326	754.808	-0.055	0.148
-268.311	-200.000	0.009	0.309
-267.297	-170.534	-0.100	-0.003
-266.282	-72.678	0.305	-0.112
-265.267	333.746	0.108	-0.208
-264.253	18.469	0.068	0.054
-263.238	748.628	-0.014	0.038
-262.224	800.000	-0.018	-0.055
-261.209	383.169	-0.076	-0.156
-260.195	800.000	-0.072	0.202
-259.180	186.483	0.199	0.294
-258.165	800.000	-0.031	0.104
-257.151	554.610	-0.144	0.344
-256.136	35.819	-0.118	0.103
-255.122	800.000	0.049	-0.204
-254.107	-87.727	0.090	0.027
-253.092	352.354	0.109	0.215
-252.078	-200.000	-0.022	0.159
-251.063	-37.532	-0.195	-0.103
-250.049	-40.996	-0.234	0.120
-249.034	378.453	-0.174	-0.353
-248.019	-99.307	0.181	-0.045
-247.005	10.876	0.087	0.066
-245.990	-200.000	0.052	0.342
-244.976	154.998	0.102	-0.139
-243.961	-37.394	-0.377	-0.200
-242.946	24.520	0.221	0.182
-241.932	-200.000	-0.028	-0.262
-240.917	511.201	-0.164	-0.380
-239.903	-52.051	-0.122	0.056
-238.888	-34.188	0.233	0.127
-237.873	-91.330	0.011	-0.003
-236.859	340.109	-0.058	0.112
-235.844	-105.112	-0.192	0.044
-234.830	-118.139	0.083	0.015
-233.815	-68.635	0.163	0.063
-232.800	199.717	0.174	-0.265
-231.786	612.375	0.168	-0.417
-230.771	-120.862	-0.112	0.019
-229.757	-132.840	-0.152	0.019
-228.742	42.337	0.178	-0.161
-227.727	684.726	0.075	-0.195
-226.713	-49.255	-0.294	-0.139
-225.698	281.075	0.103	-0.184
-224.684	-92.078	0.205	-0.057
-223.669	800.000	0.025	-0.088
-222.655	-33.552	-0.260	-0.142
-221.640	-110.161	-0.225	-0.047
-220.625	658.416	0.126	-0.321
-219.611	-30.162	-0.049	0.028
-218.596	-107.480	-0.345	-0.075
-217.582	316.496	-0.123	-0.231
-216.567	571.842	0.162	-0.392
-215.552	-95.263	0.167	0.044
-214.538	-200.000	0.009	0.269
-213.523	-50.169	0.187	0.088
-212.509	-95.428	-0.158	-0.042
-211.494	-200.000	0.005	-0.260
-210.479	-73.097	0.125	-0.045
-209.465	-106.169	0.408	-0.091
-208.450	-200.000	-0.002	-0.179
-207.436	87.847	0.110	0.121
-206.421	342.691	0.145	-0.281
-205.406	-178.481	0.283	0.007
-204.392	297.203	0.091	-0.166
-203.377	-200.000	-0.006	-0.109
-202.363	81.743	-0.171	0.184
-201.348	-121.662	0.264	0.043
-200.333	22.363	-0.347	-0.281
-199.319	1.350	0.102	-0.073
-198.304	-12.961	0.280	0.180
-197.290	9.496	-0.330	0.248
-196.275	-25.682	-0.198	0.116
-195.260	-69.028	0.132	-0.050
-194.246	238.735	0.075	-0.124
-193.231	632.771	0.070	-0.176
-192.217	31.997	0.261	0.223
-191.202	38.418	0.173	-0.153
-190.187	360.681	0.101	-0.201
-189.173	-89.758	-0.057	0.017
-188.158	-110.732	0.060	-0.012
-187.144	-200.000	-0.011	-0.073
-186.129	322.991	0.028	0.052
-185.114	800.000	0.119	0.484
-184.100	205.241	0.062	-0.095
-183.085	-200.000	-0.069	-0.350
-182.071	-200.000	-0.035	-0.305
-181.056	-200.000	0.036	-0.162
-180.042	192.258	0.108	-0.161
-179.027	100.307	0.152	-0.174
-178.012	-200.000	0.001	-0.041
-176.998	21.869	0.049	0.040
-175.983	186.096	-0.011	0.016
-174.969	210.247	0.136	0.211
-173.954	-84.031	0.282	-0.089
-172.939	649.469	-0.133	0.337
-171.925	78.071	0.121	0.128
-170.910	-172.485	0.067	-0.002
-169.896	-105.470	-0.117	0.026
-168.881	-22.764	0.229	-0.137
-167.866	-42.680	0.148	-0.075
-166.852	225.611	-0.240	0.385
-165.837	105.107	0.076	0.089
-164.823	800.000	-0.114	0.458
-163.808	-38.375	-0.075	-0.039
-162.793	-83.129	0.090	0.029
-161.779	-107.161	0.383	0.083
-160.764	-200.000	-0.015	-0.148
-159.750	-161.513	0.388	-0.020
-158.735	-181.990	0.236	0.004
-157.720	46.010	0.223	0.204
-156.706	-200.000	-0.041	0.184
-155.691	-33.447	0.178	0.097
-154.677	-200.000	0.033	0.258
-153.662	-74.593	-0.212	0.075
-152.647	-200.000	0.035	-0.391
-151.633	230.554	-0.080	0.130
-150.618	-109.492	0.245	0.051
-149.604	37.567	-0.177	0.155
-148.589	156.256	0.155	0.212
-147.574	-200.000	-0.014	-0.091
-146.560	-40.916	-0.253	-0.129
-145.545	-200.000	-0.003	0.100
-144.531	-200.000	0.061	0.348
-143.516	599.480	-0.087	-0.215
-142.502	189.705	-0.053	0.078
-141.487	-50.432	0.178	0.083
-140.472	363.133	-0.103	0.205
-139.458	-200.000	0.002	-0.182
-138.443	-0.210	0.135	-0.095
-137.429	232.623	0.123	0.200
-136.414	78.437	0.143	0.151
-135.399	-39.166	0.138	0.072
-134.385	800.000	-0.050	0.146
-133.370	-50.450	-0.055	0.026
-132.356	-52.079	-0.120	-0.055
-131.341	67.354	0.050	0.051
-130.326	-200.000	-0.018	-0.158
-129.312	513.207	-0.135	-0.311
-128.297	-68.046	0.195	0.075
-127.283	-119.534	-0.230	-0.039
-126.268	800.000	0.061	0.172
-125.253	-69.491	-0.540	0.205
-124.239	198.808	-0.077	-0.116
-123.224	800.000	0.077	0.219
-122.210	-127.841	-0.256	0.036
-121.195	191.390	-0.276	-0.410
-120.180	-92.028	0.151	-0.042
