DTS Sentinel unit serial number:	SN413079Multiplexer serial number:	ORYXHardware model number:	OX4-SRSoftware version number:	ORYX F/W v4.00 Oryx Data Collector v3.7.2.0data status	okinstallation	princeton_trtdifferential loss correction	single-endedforward channel	channel 1reverse channel	N/Adate	2019/09/11time	19:32:11forward acquisition time	60.00reverse acquisition time	0.00gamma	496.2192k internal	0.2297k external	0.2297temperature offset calibration	1.0028default loss term (dB/km)	0.3790temperature slope calibration	1.0000multiplexer offset coefficient	1.0000multiplexer slope coefficient	1.0000fibre end	0.00T internal ref (°C)	40.31T ext. ref 1 (°C)	1.34T ext. ref 2 (°C)	32.37length (m)	temperature (°C)	Stokes	anti-Stokes-747.200	-200.000	-0.059	0.266
-746.185	248.633	-0.142	0.246
-745.171	-11.379	-0.208	-0.140
-744.156	30.165	-0.126	0.110
-743.142	-134.153	0.120	0.015
-742.127	800.000	0.192	0.555
-741.112	18.944	-0.231	0.189
-740.098	-151.903	-0.192	-0.014
-739.083	319.985	0.055	-0.106
-738.069	-8.824	-0.314	-0.215
-737.054	-161.435	-0.341	0.018
-736.039	-74.888	-0.194	0.071
-735.025	-200.000	-0.024	0.229
-734.010	-70.030	-0.291	-0.113
-732.996	-200.000	-0.012	0.226
-731.981	-115.856	0.173	-0.033
-730.966	72.354	-0.043	-0.046
-729.952	34.967	0.138	0.123
-728.937	800.000	0.025	0.103
-727.923	-54.494	0.257	-0.119
-726.908	-138.157	-0.208	0.024
-725.894	-187.228	-0.133	0.002
-724.879	-48.163	-0.171	0.084
-723.864	800.000	-0.035	-0.113
-722.850	-19.132	0.268	0.170
-721.835	-166.555	-0.128	-0.005
-720.821	-8.529	-0.107	-0.073
-719.806	800.000	0.081	0.241
-718.791	131.646	-0.149	0.195
-717.777	40.572	-0.094	0.086
-716.762	-75.274	-0.257	-0.094
-715.748	-116.312	0.289	-0.055
-714.733	-174.713	-0.087	0.003
-713.718	-99.175	-0.171	-0.044
-712.704	-53.715	-0.316	0.147
-711.689	-200.000	0.083	-0.407
-710.675	-200.000	0.012	-0.160
-709.660	-115.150	0.274	-0.053
-708.645	-12.869	0.115	0.076
-707.631	245.044	0.101	-0.173
-706.616	86.100	0.100	-0.112
-705.602	-200.000	0.025	0.351
-704.587	-141.993	-0.274	0.028
-703.572	-200.000	-0.009	-0.058
-702.558	-200.000	-0.028	0.269
-701.543	221.390	0.053	-0.088
-700.529	399.836	-0.038	-0.080
-699.514	-62.975	-0.268	-0.113
-698.499	332.204	-0.108	0.213
-697.485	194.907	-0.065	0.100
-696.470	327.707	-0.156	-0.304
-695.456	-3.408	-0.294	-0.209
-694.441	-73.500	-0.104	-0.039
-693.426	-171.536	-0.151	0.005
-692.412	15.697	-0.219	0.175
-691.397	56.139	0.402	0.398
-690.383	182.081	-0.161	-0.242
-689.368	409.059	0.112	-0.242
-688.354	584.033	-0.049	-0.124
-687.339	-34.827	0.167	0.093
-686.324	-119.348	-0.462	0.082
-685.310	313.945	-0.096	-0.184
-684.295	72.221	-0.195	0.207
-683.281	-200.000	-0.060	-0.407
-682.266	-0.049	0.122	0.088
-681.251	800.000	-0.083	0.304
-680.237	-140.798	-0.097	0.010
-679.222	82.546	0.099	-0.110
-678.208	-128.730	-0.210	-0.030
-677.193	11.174	0.129	0.101
-676.178	800.000	-0.096	-0.295
-675.164	563.577	0.090	0.223
-674.149	86.627	0.039	0.044
-673.135	270.297	0.071	-0.128
-672.120	47.788	-0.101	-0.096
-671.105	-83.826	-0.095	-0.031
-670.091	282.489	-0.040	-0.074
-669.076	8.794	0.139	0.106
-668.062	143.309	-0.221	-0.300
-667.047	-200.000	0.010	0.134
-666.032	-200.000	0.012	0.056
-665.018	-76.261	-0.128	0.046
-664.003	-200.000	0.026	-0.244
-662.989	-154.485	0.221	-0.015
-661.974	-77.867	-0.276	0.097
-660.959	85.917	-0.138	-0.155
-659.945	-200.000	0.041	0.245
-658.930	293.246	0.218	0.405
-657.916	-93.094	0.270	-0.077
-656.901	-151.854	-0.096	0.007
-655.886	-117.708	0.079	0.014
-654.872	-200.000	0.017	-0.192
-653.857	-104.064	-0.190	0.045
-652.843	-36.911	-0.412	-0.225
-651.828	-200.000	-0.020	-0.157
-650.814	104.401	0.233	0.279
-649.799	-200.000	-0.015	0.099
-648.784	473.658	0.083	-0.191
-647.770	457.716	0.140	0.317
-646.755	800.000	-0.057	-0.216
-645.741	-106.386	-0.258	0.059
-644.726	-200.000	-0.044	0.210
-643.711	-110.476	0.155	0.033
-642.697	-48.322	0.361	0.177
-641.682	-200.000	0.004	-0.076
-640.668	-200.000	-0.026	-0.172
-639.653	-200.000	-0.047	0.353
-638.638	-65.410	-0.432	0.177
-637.624	-200.000	-0.023	-0.122
-636.609	-16.062	-0.239	-0.155
-635.595	-200.000	0.033	0.349
-634.580	210.228	0.147	0.235
-633.565	-161.003	0.167	-0.009
-632.551	175.517	0.034	0.050
-631.536	37.402	-0.073	0.066
-630.522	63.269	-0.246	-0.251
-629.507	-32.815	-0.392	-0.221
-628.492	31.644	-0.138	0.121
-627.478	103.191	0.187	-0.223
-626.463	-59.287	-0.231	-0.101
-625.449	140.345	0.104	-0.139
-624.434	-200.000	-0.003	0.092
-623.419	-17.590	-0.211	0.135
-622.405	76.245	-0.087	0.094
-621.390	111.183	-0.237	0.291
-620.376	-102.436	-0.210	-0.051
-619.361	-32.346	-0.175	0.099
-618.346	-147.768	-0.212	-0.018
-617.332	-94.783	0.165	0.046
-616.317	45.275	0.118	0.111
-615.303	-181.716	0.265	0.005
-614.288	217.353	-0.175	-0.284
-613.273	-31.633	-0.283	0.162
-612.259	-200.000	0.037	-0.256
-611.244	-126.714	0.396	-0.059
-610.230	-200.000	-0.001	0.074
-609.215	-200.000	-0.039	-0.317
-608.201	-200.000	-0.007	-0.081
-607.186	-200.000	0.008	0.244
-606.171	587.978	-0.242	0.605
-605.157	-16.183	-0.182	0.117
-604.142	9.111	-0.200	0.154
-603.128	67.129	-0.324	-0.336
-602.113	-69.110	-0.090	-0.035
-601.098	-119.672	-0.228	-0.040
-600.084	-200.000	0.002	0.018
-599.069	800.000	0.049	0.203
-598.055	-51.883	-0.104	0.049
-597.040	34.868	0.202	-0.179
-596.025	-13.234	0.128	0.084
-595.011	351.046	0.083	-0.166
-593.996	243.721	0.041	0.070
-592.982	-200.000	0.022	0.193
-591.967	46.706	0.026	-0.024
-590.952	-83.367	-0.298	-0.097
-589.938	609.795	-0.092	0.233
-588.923	-50.725	0.216	-0.103
-587.909	-160.016	0.342	-0.019
-586.894	-200.000	0.034	0.357
-585.879	800.000	-0.029	0.116
-584.865	-77.115	-0.230	-0.081
-583.850	-120.203	-0.283	0.049
-582.836	-184.923	-0.102	0.002
-581.821	-68.812	-0.282	0.110
-580.806	115.470	0.080	-0.099
-579.792	-53.492	0.153	-0.071
-578.777	150.661	-0.135	0.186
-577.763	498.895	-0.102	0.238
-576.748	249.642	-0.088	0.152
-575.733	18.296	0.123	-0.099
-574.719	-137.221	-0.364	-0.042
-573.704	56.856	-0.140	0.139
-572.690	-3.480	0.117	0.083
-571.675	-39.500	0.161	-0.086
-570.661	225.845	0.113	0.186
-569.646	-28.284	-0.194	-0.114
-568.631	457.266	-0.088	-0.199
-567.617	-200.000	0.022	0.177
-566.602	-200.000	-0.013	0.150
-565.588	-33.442	-0.145	0.081
-564.573	-200.000	0.046	-0.425
-563.558	-200.000	0.010	0.133
-562.544	30.800	0.155	0.135
-561.529	-200.000	0.000	-0.092
-560.515	-50.197	-0.208	-0.100
-559.500	-200.000	0.002	-0.211
-558.485	354.266	-0.120	-0.241
-557.471	-103.707	0.169	0.040
-556.456	3.328	-0.295	0.218
-555.442	15.812	0.183	-0.146
-554.427	343.879	0.106	-0.211
-553.412	229.109	-0.151	-0.249
-552.398	189.530	-0.124	-0.189
-551.383	128.873	0.149	-0.193
-550.369	-200.000	0.012	-0.102
-549.354	-99.861	0.228	0.058
-548.339	-123.626	-0.041	0.007
-547.325	214.605	0.053	0.085
-546.310	800.000	-0.009	0.032
-545.296	-86.343	0.160	-0.050
-544.281	15.456	-0.112	0.089
-543.266	-83.910	-0.083	0.027
-542.252	-46.575	0.201	0.100
-541.237	-200.000	0.012	0.122
-540.223	800.000	0.059	-0.240
-539.208	605.513	-0.060	0.152
-538.193	-200.000	-0.036	-0.179
-537.179	102.528	0.024	-0.029
-536.164	-89.981	0.280	0.083
-535.150	-200.000	0.029	-0.333
-534.135	465.348	-0.154	-0.350
-533.121	-53.641	0.287	-0.133
-532.106	-1.855	-0.143	0.102
-531.091	72.765	0.168	-0.178
-530.077	-200.000	0.021	-0.262
-529.062	-200.000	0.001	-0.130
-528.048	-20.707	-0.263	-0.164
-527.033	-200.000	0.018	-0.088
-526.018	57.256	0.423	-0.418
-525.004	322.667	-0.144	-0.277
-523.989	-49.171	-0.254	-0.123
-522.975	-26.972	-0.178	0.105
-521.960	-48.932	-0.103	-0.050
-520.945	-200.000	0.028	-0.472
-519.931	-200.000	0.001	-0.277
-518.916	-18.131	-0.228	-0.144
-517.902	49.462	0.030	0.028
-516.887	-200.000	-0.012	-0.189
-515.872	-173.829	-0.168	-0.005
-514.858	-200.000	0.028	0.273
-513.843	-200.000	-0.006	0.127
-512.829	-119.407	0.317	-0.056
-511.814	16.567	0.176	-0.141
-510.799	-19.621	0.013	0.008
-509.785	-65.764	-0.509	0.206
-508.770	-200.000	0.048	0.274
-507.756	54.727	0.202	0.197
-506.741	295.172	-0.146	-0.270
-505.726	766.795	0.092	0.253
-504.712	-49.048	0.055	0.027
-503.697	199.633	-0.064	0.100
-502.683	-84.358	0.078	-0.025
-501.668	-75.761	-0.272	-0.098
-500.653	-3.882	0.197	-0.138
-499.639	-200.000	0.035	0.156
-498.624	611.929	0.063	-0.158
-497.610	-73.863	0.218	-0.080
-496.595	-30.797	0.220	0.126
-495.581	460.398	-0.119	-0.269
-494.566	-70.188	0.314	0.121
-493.551	-137.535	-0.247	-0.028
-492.537	-200.000	-0.069	0.373
-491.522	-200.000	-0.023	0.397
-490.508	212.694	-0.157	0.250
-489.493	-62.400	-0.163	0.069
-488.478	800.000	-0.030	0.108
-487.464	250.094	0.033	-0.056
-486.449	-9.889	0.192	-0.129
-485.435	-146.636	0.301	0.026
-484.420	-97.670	0.377	0.099
-483.405	690.402	0.116	0.307
-482.391	-200.000	-0.053	-0.368
-481.376	-158.012	-0.723	-0.043
-480.362	-139.467	-0.282	0.030
-479.347	800.000	0.068	-0.238
-478.332	-198.693	-0.064	0.000
-477.318	359.465	-0.054	-0.110
-476.303	-200.000	-0.006	0.148
-475.289	12.438	0.399	0.311
-474.274	26.984	0.081	-0.068
-473.259	114.523	0.093	-0.114
-472.245	-54.649	0.144	0.066
-471.230	72.093	0.185	-0.194
-470.216	800.000	0.033	0.123
-469.201	31.075	0.112	0.097
-468.186	-80.425	-0.040	-0.014
-467.172	-103.651	0.084	0.020
-466.157	107.699	-0.059	-0.070
-465.143	800.000	-0.064	-0.191
-464.128	-89.459	0.132	-0.039
-463.113	-156.623	-0.379	-0.024
-462.099	-200.000	-0.004	-0.048
-461.084	-161.741	-0.213	-0.011
-460.070	58.901	-0.237	0.236
-459.055	800.000	0.034	0.096
-458.040	46.842	0.075	-0.070
-457.026	-200.000	-0.008	-0.176
-456.011	-200.000	-0.008	0.243
-454.997	-11.440	0.131	0.087
-453.982	-109.254	-0.322	-0.069
-452.968	800.000	0.063	-0.203
-451.953	-108.331	-0.208	0.045
-450.938	24.575	-0.313	0.261
-449.924	122.969	-0.136	-0.172
-448.909	-172.889	0.303	0.009
-447.895	26.110	-0.154	0.130
-446.880	163.672	0.191	0.272
-445.865	-30.166	-0.144	-0.083
-444.851	-69.954	0.074	0.028
-443.836	17.521	0.041	0.033
-442.822	-26.885	-0.132	0.078
-441.807	-200.000	0.032	-0.221
-440.792	-56.785	0.125	0.056
-439.778	98.487	0.136	-0.158
-438.763	245.824	-0.209	0.355
-437.749	-43.144	0.076	-0.039
-436.734	-100.221	-0.108	-0.027
-435.719	-29.235	0.185	-0.107
-434.705	-144.618	-0.207	-0.019
-433.690	252.294	-0.068	-0.118
-432.676	-200.000	0.001	0.047
-431.661	-46.402	0.325	-0.161
-430.646	800.000	0.020	0.070
-429.632	-49.443	-0.248	0.119
-428.617	-151.343	-0.434	-0.033
-427.603	60.713	0.120	0.120
-426.588	-95.762	-0.351	0.094
-425.573	381.972	-0.087	-0.181
-424.559	220.723	0.110	-0.178
-423.544	-144.047	-0.366	-0.035
-422.530	-43.113	-0.322	-0.165
-421.515	103.049	-0.047	0.055
-420.500	-41.459	0.150	0.078
-419.486	-134.616	-0.036	0.004
-418.471	753.688	0.052	0.142
-417.457	-200.000	-0.007	0.040
-416.442	296.114	-0.068	-0.127
-415.428	800.000	0.107	-0.452
-414.413	-31.304	0.095	-0.054
-413.398	286.236	-0.121	0.221
-412.384	75.628	0.166	0.177
-411.369	-97.492	-0.226	0.059
-410.355	-200.000	-0.002	0.298
-409.340	53.759	-0.172	0.167
-408.325	-49.957	-0.236	0.113
-407.311	141.326	0.165	0.220
-406.296	67.422	0.323	-0.332
-405.282	-27.259	-0.067	0.039
-404.267	800.000	-0.057	-0.230
-403.252	-110.123	-0.134	-0.028
-402.238	800.000	0.040	0.136
-401.223	-104.765	-0.299	-0.069
-400.209	546.204	-0.061	-0.146
-399.194	-200.000	-0.064	-0.456
-398.179	-200.000	-0.023	-0.110
-397.165	-200.000	0.024	-0.246
-396.150	138.789	0.120	-0.159
-395.136	-142.751	0.553	0.054
-394.121	-97.538	-0.249	0.065
-393.106	24.340	-0.134	0.111
-392.092	-200.000	0.045	-0.000
-391.077	621.792	0.127	0.321
-390.063	767.814	-0.074	-0.203
-389.048	-0.933	0.217	0.155
-388.033	800.000	-0.022	-0.070
-387.019	289.667	0.212	0.388
-386.004	-14.085	-0.098	-0.064
-384.990	-18.529	-0.229	-0.144
-383.975	37.943	0.066	0.059
-382.960	-15.286	-0.032	0.021
-381.946	-78.914	0.220	-0.076
-380.931	-142.009	0.283	0.028
-379.917	-131.969	0.294	0.039
-378.902	-200.000	-0.067	0.467
-377.888	59.336	0.062	-0.061
-376.873	88.527	0.060	-0.067
-375.858	-121.988	-0.519	-0.086
-374.844	-200.000	0.035	-0.209
-373.829	392.533	-0.051	-0.106
-372.815	-29.188	-0.286	-0.165
-371.800	29.577	-0.087	-0.075
-370.785	-4.883	0.162	-0.113
-369.771	421.114	-0.071	0.154
-368.756	9.786	-0.055	-0.042
-367.742	-30.305	-0.163	0.093
-366.727	136.873	-0.063	0.082
-365.712	-200.000	0.016	-0.145
-364.698	200.202	-0.041	0.064
-363.683	272.921	-0.035	-0.063
-362.669	-200.000	-0.061	0.331
-361.654	-200.000	0.012	-0.053
-360.639	373.238	-0.088	0.181
-359.625	-114.665	-0.209	-0.040
-358.610	20.810	0.152	-0.124
-357.596	-52.330	-0.032	0.015
-356.581	148.516	0.170	-0.231
-355.566	123.496	-0.093	-0.118
-354.552	-69.998	-0.172	0.066
-353.537	-131.932	-0.105	-0.014
-352.523	32.722	0.193	0.168
-351.508	148.411	-0.089	0.121
-350.493	-200.000	0.008	0.260
-349.479	184.961	0.165	0.246
-348.464	110.063	-0.193	0.233
-347.450	-141.255	0.336	-0.034
-346.435	64.007	0.104	0.105
-345.420	562.826	0.063	-0.153
-344.406	481.941	0.128	-0.293
-343.391	-121.817	0.258	0.043
-342.377	-200.000	0.031	0.261
-341.362	-128.928	0.294	0.042
-340.348	41.496	-0.272	0.248
-339.333	800.000	0.040	0.173
-338.318	267.703	0.068	0.120
-337.304	-200.000	0.002	0.055
-336.289	35.955	0.208	0.184
-335.275	-200.000	-0.035	0.250
-334.260	197.547	-0.097	0.149
-333.245	308.527	0.069	0.130
-332.231	-200.000	0.025	0.128
-331.216	-89.639	-0.356	-0.105
-330.202	-152.570	-0.280	0.020
-329.187	-1.290	-0.277	-0.196
-328.172	-200.000	0.012	-0.062
-327.158	755.934	0.151	0.412
-326.143	-200.000	0.002	0.053
-325.129	-7.738	0.290	0.197
-324.114	330.140	-0.084	0.163
-323.099	-93.179	0.204	-0.057
-322.085	101.593	0.223	-0.261
-321.070	-112.417	0.267	-0.054
-320.056	16.786	0.222	0.177
-319.041	-65.224	0.296	0.120
-318.026	-200.000	-0.027	-0.130
-317.012	-23.981	-0.134	-0.080
-315.997	-130.523	-0.206	-0.028
-314.983	121.636	-0.190	-0.238
-313.968	-29.598	0.347	0.199
-312.953	-200.000	0.031	-0.153
-311.939	-157.390	0.264	-0.016
-310.924	-81.347	0.161	0.053
-309.910	800.000	0.010	-0.033
-308.895	19.631	-0.152	0.123
-307.880	467.272	-0.114	-0.256
-306.866	93.318	0.217	-0.246
-305.851	60.806	0.237	0.236
-304.837	-173.629	-0.276	-0.008
-303.822	100.552	-0.059	0.069
-302.807	-104.256	-0.185	0.043
-301.793	-16.794	0.386	-0.245
-300.778	-200.000	0.015	-0.176
-299.764	36.661	0.063	0.056
-298.749	248.330	0.092	-0.157
-297.735	800.000	-0.055	-0.181
-296.720	673.845	0.026	0.069
-295.705	-192.101	0.376	0.004
-294.691	800.000	0.004	-0.017
-293.676	-200.000	0.000	-0.009
-292.662	145.690	0.101	0.136
-291.647	287.741	0.086	-0.157
-290.632	754.104	0.039	-0.105
-289.618	485.933	0.059	-0.136
-288.603	206.156	-0.167	-0.261
-287.589	39.879	-0.211	-0.190
-286.574	-87.845	0.173	-0.052
-285.559	-177.545	-0.251	0.006
-284.545	237.510	-0.153	0.255
-283.530	591.222	0.054	0.133
-282.516	-138.962	0.256	0.028
-281.501	170.016	0.021	-0.030
-280.486	71.105	-0.266	-0.277
-279.472	-62.588	-0.162	0.067
-278.457	139.848	0.223	0.294
-277.443	-94.859	0.217	0.059
-276.428	-19.586	0.045	0.028
-275.413	-88.396	0.464	0.139
-274.399	-2.384	0.176	-0.124
-273.384	59.657	0.194	0.192
-272.370	414.764	0.080	-0.171
-271.355	88.332	-0.038	0.042
-270.340	133.749	0.241	0.312
-269.326	179.266	0.169	-0.248
-268.311	-105.765	-0.158	-0.036
-267.297	-89.320	-0.204	0.060
-266.282	161.612	0.124	0.174
-265.267	-11.835	0.147	0.096
-264.253	800.000	0.034	-0.132
-263.238	-200.000	0.024	0.274
-262.224	-2.164	0.130	-0.091
-261.209	-200.000	0.017	-0.103
-260.195	800.000	0.036	-0.123
-259.180	800.000	0.013	0.053
-258.165	133.452	0.087	-0.112
-257.151	-40.348	0.433	-0.225
-256.136	40.658	-0.030	0.027
-255.122	-60.585	0.172	-0.073
-254.107	-59.099	-0.233	0.101
-253.092	-5.113	0.084	-0.058
-252.078	-200.000	0.003	-0.571
-251.063	303.979	-0.215	-0.399
-250.049	-200.000	-0.044	-0.220
-249.034	-98.176	-0.132	-0.034
-248.019	-78.817	0.166	0.057
-247.005	-113.340	0.224	-0.044
-245.990	481.162	-0.092	-0.208
-244.976	-34.196	-0.190	-0.105
-243.961	65.685	0.198	0.201
-242.946	592.695	0.025	0.061
-241.932	58.657	0.130	-0.128
-240.917	-142.383	-0.171	0.017
-239.903	47.643	0.100	-0.094
-238.888	349.187	0.029	-0.056
-237.873	71.867	0.221	0.230
-236.859	-200.000	-0.064	0.363
-235.844	-200.000	0.075	-0.484
-234.830	16.886	-0.097	0.077
-233.815	-69.964	0.196	-0.075
-232.800	-28.556	0.273	-0.157
-231.786	-59.558	-0.265	0.114
-230.771	285.042	-0.192	-0.347
-229.757	-87.531	-0.276	0.084
-228.742	-63.172	0.291	-0.120
-227.727	-114.577	0.323	0.062
-226.713	-124.614	-0.202	0.031
-225.698	310.844	0.012	-0.022
-224.684	-200.000	0.002	0.025
-223.669	-72.669	-0.197	-0.073
-222.655	-200.000	0.059	-0.359
-221.640	-118.689	0.293	-0.052
-220.625	31.875	0.082	0.070
-219.611	-35.229	0.285	0.155
-218.596	800.000	0.092	0.290
-217.582	61.180	-0.109	-0.109
-216.567	-164.983	-0.281	0.013
-215.552	32.951	0.198	0.172
-214.538	92.340	0.294	0.331
-213.523	-13.411	-0.136	0.088
-212.509	-91.945	-0.057	-0.016
-211.494	-44.985	-0.175	0.087
-210.479	-132.306	-0.172	-0.022
-209.465	299.053	0.086	-0.158
-208.450	-200.000	0.021	0.109
-207.436	-165.806	0.358	-0.015
-206.421	-76.409	0.129	-0.045
-205.406	-153.619	-0.045	-0.003
-204.392	-200.000	-0.015	-0.103
-203.377	800.000	0.078	-0.304
-202.363	38.025	-0.040	-0.036
-201.348	159.188	0.117	0.163
-200.333	-29.540	-0.255	-0.146
-199.319	66.558	0.103	-0.105
-198.304	-124.730	-0.224	-0.035
-197.290	33.955	0.167	-0.145
-196.275	56.207	-0.163	-0.158
-195.260	-81.473	0.233	0.077
-194.246	-200.000	0.032	-0.165
-193.231	223.542	-0.019	-0.031
-192.217	23.965	-0.193	0.159
-191.202	158.645	-0.279	0.387
-190.187	23.529	-0.241	0.198
-189.173	21.832	0.131	0.106
-188.158	30.308	-0.117	-0.100
-187.144	-49.579	-0.281	-0.134
-186.129	-114.968	0.116	-0.022
-185.114	96.269	0.117	0.134
-184.100	760.807	0.092	-0.249
-183.085	3.751	-0.027	-0.019
-182.071	-138.719	-0.279	0.030
-181.056	-200.000	0.008	-0.050
-180.042	-45.426	-0.089	0.044
-179.027	-106.458	0.323	0.072
-178.012	31.309	-0.039	0.033
-176.998	-61.859	0.122	0.051
-175.983	0.496	-0.299	0.213
-174.969	336.986	-0.201	0.389
-173.954	15.670	-0.170	0.133
-172.939	-38.257	0.318	0.169
-171.925	43.228	0.414	-0.378
-170.910	-200.000	-0.020	-0.129
-169.896	800.000	0.034	0.150
-168.881	-81.152	0.007	0.002
-167.866	120.585	0.082	-0.102
-166.852	800.000	0.055	0.229
-165.837	-158.578	0.130	0.007
-164.823	-200.000	0.028	0.257
-163.808	-89.460	-0.033	0.010
-162.793	-148.658	0.075	0.006
-161.779	-2.308	-0.307	0.215
-160.764	117.138	-0.115	0.141
-159.750	800.000	-0.071	-0.276
-158.735	-200.000	0.008	0.402
-157.720	514.196	-0.046	0.107
-156.706	323.822	0.152	-0.290
-155.691	8.457	0.373	-0.280
-154.677	19.817	0.229	0.184
-153.662	104.093	-0.032	-0.037
-152.647	-112.719	-0.339	-0.067
-151.633	-30.048	0.091	-0.052
-150.618	-105.056	0.334	0.076
-149.604	-41.937	0.043	-0.022
-148.589	-21.298	-0.128	0.078
-147.574	88.364	-0.081	-0.090
-146.560	2.322	-0.186	-0.134
-145.545	16.892	-0.453	-0.358
-144.531	-200.000	0.006	-0.213
-143.516	-81.658	0.239	0.078
-142.502	6.173	-0.245	-0.181
-141.487	45.077	0.143	0.132
-140.472	-46.101	-0.125	-0.062
-139.458	1.294	0.148	0.106
-138.443	3.706	-0.334	0.243
-137.429	800.000	-0.046	-0.188
-136.414	800.000	-0.020	0.077
-135.399	28.602	0.138	0.116
-134.385	-78.639	-0.141	-0.048
-133.370	129.069	-0.166	-0.211
-132.356	-200.000	-0.019	0.096
-131.341	-37.999	0.122	-0.064
-130.326	-144.933	0.303	-0.028
-129.312	118.794	-0.152	0.188
-128.297	-78.863	-0.196	0.066
-127.283	496.731	0.065	0.150
-126.268	-105.773	-0.121	0.027
-125.253	640.838	-0.085	-0.215
-124.239	470.927	-0.059	0.132
-123.224	-120.610	-0.081	0.014
-122.210	373.278	0.143	-0.290
-121.195	800.000	0.054	-0.162
