DTS Sentinel unit serial number:	SN413079Multiplexer serial number:	ORYXHardware model number:	OX4-SRSoftware version number:	ORYX F/W v4.00 Oryx Data Collector v3.7.2.0data status	okinstallation	princeton_trtdifferential loss correction	single-endedforward channel	channel 1reverse channel	N/Adate	2019/09/19time	07:18:35forward acquisition time	60.00reverse acquisition time	0.00gamma	496.2192k internal	0.2342k external	0.2342temperature offset calibration	1.0012default loss term (dB/km)	0.3790temperature slope calibration	1.0000multiplexer offset coefficient	1.0000multiplexer slope coefficient	1.0000fibre end	0.00T internal ref (°C)	19.11T ext. ref 1 (°C)	0.56T ext. ref 2 (°C)	13.71length (m)	temperature (°C)	Stokes	anti-Stokes-747.200	-114.280	0.388	0.075
-746.185	-25.236	-0.186	0.110
-745.171	-58.532	0.135	0.059
-744.156	-200.000	-0.305	-0.001
-743.142	169.300	-0.103	-0.147
-742.127	24.886	-0.146	-0.121
-741.112	-128.614	-0.099	-0.014
-740.098	-200.000	-0.105	0.537
-739.083	-200.000	-0.021	0.126
-738.069	549.715	0.039	0.093
-737.054	-200.000	0.023	0.187
-736.039	800.000	-0.036	-0.150
-735.025	-200.000	-0.009	0.218
-734.010	-101.605	0.074	0.018
-732.996	121.536	-0.211	-0.264
-731.981	35.854	0.095	-0.084
-730.966	421.339	-0.135	-0.289
-729.952	14.440	-0.169	-0.132
-728.937	50.862	-0.351	0.333
-727.923	35.662	0.110	0.097
-726.908	800.000	0.004	0.013
-725.894	79.032	0.185	-0.198
-724.879	530.472	0.098	-0.231
-723.864	90.904	-0.185	-0.208
-722.850	61.805	-0.144	0.143
-721.835	34.914	0.414	0.363
-720.821	157.362	-0.234	-0.324
-719.806	-172.154	0.095	0.003
-718.791	-199.305	-0.072	-0.000
-717.777	-79.452	0.057	0.019
-716.762	236.333	-0.158	-0.261
-715.748	-15.770	-0.024	0.016
-714.733	145.331	0.136	-0.182
-713.718	-33.073	-0.109	-0.061
-712.704	-84.968	-0.175	0.055
-711.689	-200.000	0.009	0.277
-710.675	800.000	-0.098	-0.326
-709.660	-200.000	-0.002	0.297
-708.645	800.000	-0.018	-0.059
-707.631	330.390	-0.075	0.145
-706.616	105.839	-0.116	-0.137
-705.602	164.653	-0.175	0.246
-704.587	-104.483	-0.185	0.043
-703.572	407.650	0.101	0.213
-702.558	73.197	-0.188	-0.197
-701.543	-200.000	-0.005	-0.403
-700.529	-149.992	0.488	-0.038
-699.514	-113.671	0.292	-0.057
-698.499	800.000	-0.074	-0.241
-697.485	-123.285	0.110	-0.018
-696.470	-51.506	0.174	0.081
-695.456	86.396	0.039	0.043
-694.441	-128.360	-0.163	0.023
-693.426	-53.204	-0.269	0.123
-692.412	-91.410	-0.136	0.039
-691.397	202.133	-0.113	-0.174
-690.383	-200.000	0.016	0.231
-689.368	-158.161	-0.087	-0.005
-688.354	800.000	0.038	0.121
-687.339	-153.014	-0.363	-0.026
-686.324	36.927	0.165	0.146
-685.310	107.011	0.129	0.153
-684.295	300.497	-0.074	-0.137
-683.281	-133.630	-0.440	0.055
-682.266	45.039	-0.086	0.079
-681.251	800.000	-0.018	-0.062
-680.237	-200.000	0.052	0.363
-679.222	438.362	-0.050	0.109
-678.208	-200.000	-0.005	-0.095
-677.193	-117.717	-0.176	0.032
-676.178	18.909	-0.124	-0.099
-675.164	800.000	-0.072	-0.280
-674.149	-200.000	-0.049	-0.253
-673.135	-200.000	-0.032	0.153
-672.120	-117.630	-0.303	0.055
-671.105	747.088	0.039	0.104
-670.091	-78.008	0.214	0.074
-669.076	136.725	0.051	0.067
-668.062	257.045	0.169	0.290
-667.047	-200.000	-0.006	0.289
-666.032	52.342	0.038	0.036
-665.018	800.000	-0.087	0.274
-664.003	-200.000	0.240	-0.001
-662.989	800.000	0.035	-0.101
-661.974	-134.686	-0.137	-0.017
-660.959	-103.316	-0.371	0.087
-659.945	-200.000	0.004	0.076
-658.930	406.699	0.070	-0.149
-657.916	78.694	-0.305	0.326
-656.901	72.068	-0.207	-0.215
-655.886	16.487	-0.137	-0.108
-654.872	17.608	0.198	-0.157
-653.857	-70.379	-0.128	0.048
-652.843	8.383	-0.337	-0.253
-651.828	670.831	-0.039	0.100
-650.814	31.209	0.197	-0.169
-649.799	272.383	0.000	0.001
-648.784	-74.177	-0.176	0.063
-647.770	-200.000	-0.006	-0.086
-646.755	319.810	-0.197	0.373
-645.741	1.550	-0.147	0.106
-644.726	-144.722	0.103	0.009
-643.711	-175.309	-0.311	0.009
-642.697	-200.000	0.026	-0.253
-641.682	-0.320	0.044	-0.031
-640.668	-200.000	-0.047	-0.245
-639.653	-3.780	-0.326	-0.226
-638.638	-93.388	0.123	-0.034
-637.624	-37.582	-0.188	0.100
-636.609	-18.484	0.283	0.176
-635.595	-38.082	-0.280	-0.148
-634.580	-139.932	-0.068	0.007
-633.565	-13.463	-0.087	-0.056
-632.551	469.311	0.005	0.012
-631.536	-127.094	0.231	-0.034
-630.522	800.000	0.067	0.250
-629.507	800.000	-0.022	0.064
-628.492	-51.708	-0.335	-0.156
-627.478	-66.403	0.218	-0.087
-626.463	-200.000	-0.102	0.000
-625.449	-175.230	0.202	0.006
-624.434	186.217	-0.112	-0.165
-623.419	212.882	0.253	-0.398
-622.405	438.184	-0.141	-0.306
-621.390	6.511	-0.081	-0.060
-620.376	-65.478	-0.196	-0.079
-619.361	37.028	-0.101	0.089
-618.346	-92.755	0.354	-0.099
-617.332	-105.955	-0.123	-0.028
-616.317	227.846	0.130	0.210
-615.303	-200.000	-0.052	0.427
-614.288	26.558	-0.188	-0.157
-613.273	329.554	-0.118	-0.227
-612.259	51.172	0.140	-0.133
-611.244	-200.000	-0.006	0.241
-610.230	-34.156	-0.261	-0.143
-609.215	-141.300	-0.059	-0.006
-608.201	492.690	-0.127	0.291
-607.186	88.219	0.032	0.036
-606.171	-200.000	0.004	-0.248
-605.157	-38.555	0.141	0.074
-604.142	800.000	0.035	-0.110
-603.128	-40.974	0.097	-0.050
-602.113	175.133	-0.041	0.060
-601.098	800.000	-0.055	-0.191
-600.084	64.656	0.308	-0.309
-599.069	-95.932	0.189	0.050
-598.055	-200.000	-0.014	-0.135
-597.040	-200.000	-0.033	-0.235
-596.025	10.983	0.153	0.116
-595.011	-47.575	-0.084	0.041
-593.996	-41.684	0.181	-0.092
-592.982	-68.727	-0.049	0.019
-591.967	-0.544	0.044	0.031
-590.952	-200.000	0.001	0.180
-589.938	200.176	-0.018	0.028
-588.923	118.016	0.150	-0.184
-587.909	62.377	0.211	0.210
-586.894	-142.376	0.117	-0.012
-585.879	-118.542	0.148	-0.026
-584.865	-84.557	-0.216	0.068
-583.850	-72.327	0.277	-0.102
-582.836	415.868	0.055	-0.117
-581.821	-136.735	-0.237	-0.027
-580.806	-72.453	-0.298	0.110
-579.792	-89.819	-0.137	0.040
-578.777	-94.351	-0.091	-0.025
-577.763	-43.657	-0.329	-0.165
-576.748	-1.310	0.169	0.119
-575.733	-200.000	-0.012	-0.065
-574.719	-34.951	-0.163	0.088
-573.704	-200.000	0.028	0.162
-572.690	-130.675	-0.208	0.028
-571.675	16.140	-0.210	-0.165
-570.661	-200.000	0.048	0.214
-569.646	30.581	-0.276	-0.235
-568.631	-200.000	0.008	-0.247
-567.617	-24.900	-0.025	-0.015
-566.602	-72.366	-0.317	-0.117
-565.588	-52.825	0.235	0.108
-564.573	800.000	0.144	0.413
-563.558	-44.205	0.145	-0.072
-562.544	-82.119	0.328	-0.106
-561.529	-140.267	0.293	-0.030
-560.515	-200.000	-0.034	0.222
-559.500	-200.000	-0.040	-0.270
-558.485	-200.000	-0.024	-0.265
-557.471	12.139	-0.168	0.129
-556.456	157.322	-0.051	-0.070
-555.442	-172.575	-0.248	-0.008
-554.427	-30.054	0.473	0.268
-553.412	151.451	0.150	-0.203
-552.398	-28.531	0.137	0.078
-551.383	-74.339	0.311	0.112
-550.369	800.000	-0.025	0.080
-549.354	-200.000	-0.002	0.070
-548.339	44.591	-0.186	-0.170
-547.325	-200.000	0.022	-0.228
-546.310	50.932	0.146	-0.137
-545.296	278.101	-0.132	-0.234
-544.281	69.631	-0.341	-0.349
-543.266	-70.322	-0.068	0.025
-542.252	-158.640	-0.468	0.027
-541.237	18.856	0.118	-0.094
-540.223	-186.618	-0.017	-0.000
-539.208	-200.000	-0.042	-0.187
-538.193	-49.617	-0.190	-0.090
-537.179	272.944	0.073	0.129
-536.164	-4.403	0.357	-0.245
-535.150	-62.063	-0.232	0.096
-534.135	124.378	0.136	-0.170
-533.121	275.765	0.165	-0.292
-532.106	629.931	-0.073	0.183
-531.091	286.432	0.087	0.156
-530.077	-147.334	0.093	-0.008
-529.062	-123.873	0.135	0.021
-528.048	-200.000	-0.010	0.306
-527.033	-108.395	-0.330	-0.071
-526.018	256.729	0.132	-0.226
-525.004	800.000	-0.030	-0.107
-523.989	440.217	0.038	-0.082
-522.975	-65.530	-0.025	0.010
-521.960	-35.931	0.083	-0.045
-520.945	-91.502	0.336	0.095
-519.931	-200.000	-0.034	-0.148
-518.916	-200.000	0.004	0.038
-517.902	593.807	0.090	-0.222
-516.887	-115.700	-0.152	0.028
-515.872	-82.099	-0.144	0.047
-514.858	97.783	0.093	0.106
-513.843	-200.000	-0.010	0.396
-512.829	-200.000	0.017	0.231
-511.814	-200.000	-0.011	-0.110
-510.799	-200.000	0.016	-0.111
-509.785	-97.867	0.404	-0.104
-508.770	-200.000	0.002	-0.134
-507.756	-200.000	0.010	0.186
-506.741	347.295	-0.061	-0.118
-505.726	6.302	-0.136	0.100
-504.712	-200.000	-0.039	-0.173
-503.697	-74.202	0.164	-0.059
-502.683	-90.385	-0.201	0.058
-501.668	-88.301	0.192	-0.057
-500.653	393.210	0.135	0.278
-499.639	-74.423	-0.279	0.100
-498.624	800.000	-0.096	0.269
-497.610	197.693	0.065	0.098
-496.595	-200.000	-0.005	0.147
-495.581	800.000	-0.108	0.318
-494.566	-200.000	0.006	0.060
-493.551	-60.243	0.356	-0.150
-492.537	76.871	0.164	0.173
-491.522	-200.000	0.045	0.360
-490.508	-200.000	-0.001	0.185
-489.493	-133.180	-0.306	-0.038
-488.478	-67.106	-0.311	0.122
-487.464	-105.961	0.099	0.022
-486.449	-200.000	0.557	0.001
-485.435	-162.550	-0.247	-0.012
-484.420	12.104	-0.079	-0.060
-483.405	-74.589	0.142	0.051
-482.391	-29.772	-0.130	-0.074
-481.376	-200.000	0.003	-0.151
-480.362	23.020	-0.027	-0.022
-479.347	-101.839	0.373	-0.089
-478.332	-200.000	-0.004	-0.236
-477.318	-134.938	-0.082	-0.010
-476.303	220.836	-0.108	0.172
-475.289	800.000	0.055	-0.220
-474.274	-75.920	0.368	-0.129
-473.259	800.000	-0.046	0.179
-472.245	21.595	0.353	-0.285
-471.230	575.326	-0.213	-0.516
-470.216	-200.000	-0.025	0.188
-469.201	-200.000	0.031	0.153
-468.186	58.170	0.111	-0.107
-467.172	485.496	0.079	-0.178
-466.157	119.498	0.074	-0.091
-465.143	800.000	-0.081	0.284
-464.128	-198.244	-0.195	0.001
-463.113	800.000	-0.077	-0.323
-462.099	-200.000	0.118	-0.516
-461.084	-67.726	0.185	0.072
-460.070	-35.451	-0.340	-0.183
-459.055	30.628	0.051	-0.043
-458.040	69.532	0.093	0.095
-457.026	308.842	0.014	-0.026
-456.011	376.669	0.023	-0.047
-454.997	-193.291	0.163	-0.001
-453.982	-156.570	-0.108	0.007
-452.968	-4.871	0.163	0.111
-451.953	173.401	0.134	-0.191
-450.938	32.071	0.219	-0.187
-449.924	-52.746	-0.410	-0.187
-448.909	566.691	0.115	-0.276
-447.895	552.962	-0.108	-0.258
-446.880	72.566	0.186	-0.193
-445.865	-59.316	-0.155	-0.066
-444.851	106.023	0.217	0.255
-443.836	-94.325	0.346	0.094
-442.822	800.000	-0.026	0.098
-441.807	-200.000	-0.007	0.087
-440.792	269.873	-0.037	0.064
-439.778	-54.297	-0.050	-0.022
-438.763	800.000	0.012	0.045
-437.749	56.321	-0.053	-0.051
-436.734	-83.621	0.358	0.113
-435.719	127.626	0.065	-0.082
-434.705	800.000	0.009	-0.032
-433.690	-20.558	0.041	-0.025
-432.676	-79.396	-0.259	0.087
-431.661	800.000	0.069	-0.257
-430.646	-44.865	-0.080	-0.040
-429.632	39.326	-0.319	0.283
-428.617	81.426	0.168	-0.180
-427.603	-200.000	-0.008	0.141
-426.588	-200.000	-0.037	-0.364
-425.573	-200.000	-0.029	0.304
-424.559	-200.000	-0.005	0.106
-423.544	289.766	-0.043	-0.078
-422.530	787.344	-0.066	-0.179
-421.515	276.558	0.024	-0.042
-420.500	-200.000	0.004	-0.070
-419.486	-200.000	-0.059	0.299
-418.471	192.854	-0.071	0.105
-417.457	-200.000	-0.035	0.297
-416.442	519.684	-0.065	0.151
-415.428	-107.958	0.305	0.066
-414.413	-200.000	-0.021	-0.241
-413.398	640.224	-0.088	-0.222
-412.384	81.881	0.069	0.074
-411.369	-190.998	-0.207	-0.002
-410.355	308.707	0.092	-0.170
-409.340	187.376	0.059	-0.087
-408.325	160.692	0.053	0.073
-407.311	152.251	-0.132	-0.178
-406.296	-69.378	0.187	0.071
-405.282	198.851	0.223	0.338
-404.267	-12.161	0.161	-0.104
-403.252	800.000	0.085	-0.292
-402.238	-123.654	-0.384	-0.060
-401.223	175.469	0.123	0.177
-400.209	800.000	0.030	-0.117
-399.194	-11.546	0.292	0.190
-398.179	150.896	-0.165	0.222
-397.165	-200.000	0.007	0.111
-396.150	103.255	0.166	-0.192
-395.136	-200.000	-0.001	-0.016
-394.121	147.653	0.185	-0.246
-393.106	27.174	-0.062	0.052
-392.092	77.600	-0.117	-0.124
-391.077	394.597	-0.029	0.060
-390.063	185.533	0.142	-0.208
-389.048	-74.994	0.120	0.043
-388.033	37.824	0.468	0.411
-387.019	-80.365	-0.260	-0.086
-386.004	722.100	-0.198	0.520
-384.990	-186.800	0.232	0.003
-383.975	559.698	0.070	0.166
-382.960	-200.000	-0.000	-0.204
-381.946	343.401	0.044	-0.086
-380.931	-117.449	0.330	-0.059
-379.917	-200.000	0.015	0.244
-378.902	315.832	0.074	0.138
-377.888	291.131	-0.022	0.040
-376.873	-28.137	0.113	0.065
-375.858	-28.105	0.219	-0.125
-374.844	-123.426	0.329	0.052
-373.829	126.062	0.340	-0.425
-372.815	-33.333	-0.384	-0.210
-371.800	-99.820	0.171	0.042
-370.785	340.344	-0.086	0.165
-369.771	-138.875	-0.288	0.031
-368.756	-22.033	-0.063	-0.038
-367.742	-200.000	-0.017	0.080
-366.727	800.000	0.062	-0.202
-365.712	789.920	-0.025	-0.068
-364.698	576.785	0.127	0.306
-363.683	-80.309	-0.435	0.143
-362.669	-200.000	0.065	-0.310
-361.654	245.892	-0.089	0.149
-360.639	800.000	0.147	0.483
-359.625	-111.706	-0.391	0.078
-358.610	-78.715	-0.087	-0.029
-357.596	-11.201	0.249	-0.162
-356.581	662.548	0.031	0.079
-355.566	-200.000	0.012	-0.325
-354.552	58.051	-0.112	-0.109
-353.537	-66.628	-0.136	-0.053
-352.523	5.889	0.111	0.081
-351.508	-25.907	-0.182	-0.106
-350.493	-178.906	-0.129	-0.003
-349.479	-4.996	0.290	-0.197
-348.464	350.962	0.136	-0.265
-347.450	-29.862	0.087	-0.049
-346.435	-200.000	0.040	0.212
-345.420	-200.000	0.000	0.006
-344.406	800.000	0.066	0.188
-343.391	-200.000	0.018	0.186
-342.377	135.303	-0.380	-0.488
-341.362	200.785	0.220	-0.333
-340.348	-200.000	0.004	0.065
-339.333	-111.403	0.163	-0.033
-338.318	-154.711	0.262	0.017
-337.304	-200.000	0.008	0.160
-336.289	-129.962	-0.065	-0.009
-335.275	-127.119	0.248	-0.036
-334.260	-200.000	-0.046	-0.235
-333.245	-53.427	0.276	0.125
-332.231	-6.143	0.105	-0.071
-331.216	-19.451	-0.300	-0.183
-330.202	-200.000	0.084	0.543
-329.187	-200.000	-0.003	0.150
-328.172	526.000	-0.132	0.305
-327.158	-200.000	0.060	0.317
-326.143	-200.000	-0.078	-0.444
-325.129	392.560	0.095	0.195
-324.114	-178.038	-0.207	0.005
-323.099	-200.000	0.021	0.183
-322.085	25.329	-0.091	-0.075
-321.070	-200.000	-0.074	-0.452
-320.056	222.158	0.050	-0.079
-319.041	325.455	-0.075	-0.141
-318.026	-139.470	0.120	-0.013
-317.012	-182.559	-0.242	0.004
-315.997	-37.766	0.107	-0.056
-314.983	-200.000	0.004	0.080
-313.968	-36.381	0.167	0.089
-312.953	-200.000	-0.000	0.041
-311.939	-78.683	-0.368	0.124
-310.924	-200.000	-0.014	0.085
-309.910	-88.823	0.029	-0.008
-308.895	-14.177	0.396	0.251
-307.880	800.000	-0.107	0.293
-306.866	-99.013	-0.088	0.022
-305.851	-100.926	0.271	-0.066
-304.837	800.000	-0.048	0.150
-303.822	-37.452	0.175	0.092
-302.807	-200.000	0.051	-0.227
-301.793	800.000	0.022	0.094
-300.778	-200.000	0.047	0.395
-299.764	-200.000	-0.045	0.297
-298.749	709.225	0.070	0.181
-297.735	800.000	-0.025	-0.083
-296.720	-95.622	0.094	0.025
-295.705	17.122	-0.041	-0.032
-294.691	140.244	-0.009	0.012
-293.676	-200.000	-0.007	0.175
-292.662	682.636	-0.090	0.230
-291.647	61.169	-0.206	0.202
-290.632	-141.486	-0.390	-0.039
-289.618	-8.682	0.017	0.011
-288.603	-200.000	-0.012	-0.097
-287.589	-38.754	-0.328	0.170
-286.574	11.049	-0.152	-0.114
-285.559	-24.929	-0.257	0.150
-284.545	58.432	0.089	-0.086
-283.530	-14.490	0.252	-0.160
-282.516	800.000	-0.079	0.242
-281.501	-131.391	-0.245	-0.032
-280.486	-144.871	-0.424	0.038
-279.472	446.214	0.063	-0.135
-278.457	-200.000	0.022	-0.339
-277.443	-131.477	0.395	-0.051
-276.428	-200.000	-0.007	-0.048
-275.413	-126.815	0.252	-0.037
-274.399	27.075	-0.320	0.264
-273.384	-33.998	-0.248	0.134
-272.370	-200.000	0.009	-0.354
-271.355	245.266	0.138	0.228
-270.340	306.098	-0.060	-0.110
-269.326	-200.000	-0.055	0.270
-268.311	163.702	0.039	-0.054
-267.297	71.111	-0.126	-0.129
-266.282	103.274	-0.199	0.229
-265.267	-108.704	0.047	0.010
-264.253	800.000	0.070	-0.278
-263.238	107.207	-0.157	0.184
-262.224	-200.000	0.021	0.264
-261.209	83.528	0.180	-0.192
-260.195	-131.921	0.146	-0.019
-259.180	-21.864	-0.278	-0.166
-258.165	189.839	0.101	0.149
-257.151	77.466	0.222	0.232
-256.136	-77.755	-0.233	-0.079
-255.122	32.113	0.243	0.206
-254.107	-200.000	-0.081	0.461
-253.092	-106.734	0.062	0.013
-252.078	22.453	-0.275	0.221
-251.063	-200.000	0.021	0.287
-250.049	-5.630	-0.088	0.059
-249.034	674.502	-0.161	-0.411
-248.019	-98.031	-0.295	-0.075
-247.005	-148.970	-0.288	-0.023
-245.990	800.000	0.012	-0.039
-244.976	800.000	0.041	-0.168
-243.961	-59.840	0.089	-0.037
-242.946	-108.967	0.143	-0.030
-241.932	124.009	0.074	-0.091
-240.917	96.145	0.270	-0.303
-239.903	-12.152	-0.265	0.170
-238.888	26.832	0.221	0.182
-237.873	88.961	0.064	-0.070
-236.859	-189.162	-0.401	0.005
-235.844	374.907	0.105	-0.211
-234.830	-35.416	-0.025	0.013
-233.815	-52.753	0.175	0.079
-232.800	-101.258	-0.166	-0.040
-231.786	84.610	-0.167	-0.179
-230.771	-46.558	-0.269	-0.130
-229.757	69.466	-0.029	-0.029
-228.742	-200.000	-0.032	0.185
-227.727	12.797	-0.041	0.031
-226.713	-200.000	0.043	0.293
-225.698	-93.847	-0.449	0.121
-224.684	276.927	0.244	0.426
-223.669	-88.361	-0.305	-0.089
-222.655	-200.000	0.020	-0.192
-221.640	77.851	0.139	0.145
-220.625	800.000	-0.024	0.098
-219.611	-60.161	-0.072	-0.030
-218.596	480.872	-0.047	-0.104
-217.582	66.278	0.047	0.047
-216.567	291.044	0.063	0.113
-215.552	-35.260	-0.242	-0.129
-214.538	-87.251	-0.023	0.007
-213.523	241.591	0.040	-0.065
-212.509	49.605	-0.056	-0.052
-211.494	15.053	0.204	0.157
-210.479	-25.154	0.200	0.116
-209.465	-36.405	0.299	-0.158
-208.450	-125.333	0.369	-0.055
-207.436	-48.077	0.135	-0.064
-206.421	113.311	-0.232	0.276
-205.406	-200.000	-0.047	-0.286
-204.392	359.722	0.146	-0.287
-203.377	-200.000	-0.014	-0.130
-202.363	-151.876	0.092	0.007
-201.348	-83.747	0.247	0.077
-200.333	-76.185	0.093	0.032
-199.319	102.524	-0.236	0.270
-198.304	2.964	-0.145	-0.103
-197.290	-200.000	-0.007	0.044
-196.275	-76.175	-0.217	-0.075
-195.260	-6.296	-0.048	0.032
-194.246	800.000	0.009	-0.038
-193.231	-68.858	0.182	0.069
-192.217	-200.000	-0.028	-0.206
-191.202	800.000	0.064	0.228
-190.187	800.000	0.060	0.167
-189.173	-11.604	-0.280	0.180
-188.158	-119.467	0.272	-0.046
-187.144	-200.000	-0.017	0.080
-186.129	124.309	-0.425	0.523
-185.114	800.000	-0.100	0.331
-184.100	800.000	0.101	0.321
-183.085	-12.770	0.107	0.068
-182.071	145.229	-0.262	0.343
-181.056	390.738	-0.105	0.213
-180.042	-200.000	0.026	-0.215
-179.027	-181.124	0.292	0.006
-178.012	-200.000	-0.067	0.304
-176.998	800.000	0.111	-0.453
-175.983	800.000	0.049	0.147
-174.969	-200.000	0.042	0.350
-173.954	-147.722	0.174	0.014
-172.939	-84.888	-0.237	0.073
-171.925	-91.179	-0.309	0.087
-170.910	-33.279	0.113	-0.062
-169.896	800.000	0.042	-0.126
-168.881	-6.900	0.462	-0.307
-167.866	29.535	-0.033	0.028
-166.852	125.012	0.256	-0.315
-165.837	-133.517	-0.149	-0.018
-164.823	-8.784	-0.182	0.119
-163.808	-29.858	-0.230	-0.128
-162.793	183.512	0.080	0.116
-161.779	800.000	0.069	-0.265
-160.764	29.831	-0.108	-0.090
-159.750	-200.000	-0.026	-0.196
-158.735	3.963	-0.068	0.049
-157.720	122.403	-0.248	-0.303
-156.706	83.764	-0.091	0.098
-155.691	800.000	-0.045	0.146
-154.677	52.242	-0.145	-0.135
-153.662	-102.658	0.186	0.043
-152.647	661.559	-0.106	0.266
-151.633	-200.000	-0.034	-0.350
-150.618	-200.000	-0.041	-0.178
-149.604	10.256	-0.065	0.049
-148.589	148.888	-0.281	0.372
-147.574	800.000	-0.073	0.270
-146.560	281.532	-0.130	0.229
-145.545	800.000	-0.085	0.285
-144.531	18.242	0.117	0.091
-143.516	335.585	0.092	-0.174
-142.502	-200.000	0.001	0.158
-141.487	-200.000	0.036	0.371
-140.472	517.344	0.083	-0.190
-139.458	-156.457	0.269	0.016
-138.443	-7.693	-0.236	0.156
-137.429	84.072	0.243	-0.260
-136.414	146.422	-0.078	-0.102
-135.399	-200.000	0.018	0.228
-134.385	800.000	0.053	0.193
-133.370	253.612	-0.196	0.327
-132.356	135.234	-0.045	-0.057
-131.341	-200.000	0.009	0.236
-130.326	-31.864	0.209	0.115
-129.312	154.789	-0.114	-0.153
-128.297	104.220	-0.127	-0.147
-127.283	-185.377	0.273	0.004
-126.268	-67.573	-0.063	-0.024
-125.253	363.582	0.058	-0.113
-124.239	-101.358	-0.256	0.061
-123.224	128.849	-0.005	-0.006
-122.210	96.062	-0.068	0.076
