DTS Sentinel unit serial number:	SN413079Multiplexer serial number:	ORYXHardware model number:	OX4-SRSoftware version number:	ORYX F/W v4.00 Oryx Data Collector v3.7.2.0data status	okinstallation	princeton_trtdifferential loss correction	single-endedforward channel	channel 1reverse channel	N/Adate	2019/09/13time	12:14:35forward acquisition time	60.00reverse acquisition time	0.00gamma	496.2192k internal	0.2309k external	0.2309temperature offset calibration	1.0169default loss term (dB/km)	0.3790temperature slope calibration	1.0000multiplexer offset coefficient	1.0000multiplexer slope coefficient	1.0000fibre end	0.00T internal ref (°C)	34.00T ext. ref 1 (°C)	4.61T ext. ref 2 (°C)	31.27length (m)	temperature (°C)	Stokes	anti-Stokes-747.200	111.686	0.077	0.094
-746.185	-78.919	0.216	0.075
-745.171	-200.000	0.072	0.616
-744.156	-31.450	-0.169	-0.096
-743.142	539.812	0.106	0.257
-742.127	-7.706	0.220	0.151
-741.112	-121.458	-0.094	-0.016
-740.098	-200.000	0.050	0.326
-739.083	458.793	0.046	-0.104
-738.069	480.908	-0.027	0.062
-737.054	-5.114	-0.148	-0.103
-736.039	800.000	0.028	-0.081
-735.025	293.462	0.104	0.192
-734.010	800.000	-0.114	-0.353
-732.996	179.065	0.171	-0.254
-731.981	-162.583	-0.208	-0.010
-730.966	694.951	-0.110	0.293
-729.952	-92.399	-0.139	0.040
-728.937	-19.782	0.163	0.102
-727.923	-200.000	-0.477	0.000
-726.908	18.669	-0.201	0.164
-725.894	-78.311	-0.213	-0.074
-724.879	-104.077	-0.138	0.033
-723.864	800.000	-0.086	-0.266
-722.850	106.288	0.195	-0.235
-721.835	22.484	0.040	0.033
-720.821	-200.000	0.014	0.171
-719.806	-86.585	-0.301	-0.094
-718.791	800.000	0.024	0.076
-717.777	-128.528	0.171	0.025
-716.762	800.000	-0.033	-0.126
-715.748	-86.420	-0.228	0.071
-714.733	117.402	0.171	-0.213
-713.718	-8.954	-0.161	0.109
-712.704	86.217	-0.075	-0.083
-711.689	-27.632	0.123	-0.073
-710.675	-200.000	-0.049	0.496
-709.660	82.438	0.041	-0.045
-708.645	-53.153	0.514	-0.239
-707.631	35.381	-0.381	0.339
-706.616	-71.831	0.295	0.111
-705.602	-200.000	0.013	0.246
-704.587	-98.889	0.157	-0.041
-703.572	-54.353	-0.071	-0.033
-702.558	-71.063	-0.225	-0.086
-701.543	123.785	0.058	0.073
-700.529	-195.131	0.324	-0.002
-699.514	800.000	0.018	0.055
-698.499	-200.000	0.006	-0.256
-697.485	-133.531	-0.158	-0.020
-696.470	262.635	0.159	-0.281
-695.456	-200.000	-0.023	-0.120
-694.441	-43.653	0.074	0.038
-693.426	28.571	0.084	-0.072
-692.412	800.000	-0.061	0.210
-691.397	-69.965	-0.415	0.160
-690.383	-20.115	-0.238	0.148
-689.368	543.742	-0.007	0.017
-688.354	36.575	0.164	0.147
-687.339	800.000	0.085	-0.273
-686.324	-200.000	0.024	0.270
-685.310	-162.278	0.476	-0.024
-684.295	16.043	0.188	-0.150
-683.281	584.255	-0.055	0.136
-682.266	-36.213	-0.242	-0.132
-681.251	92.616	-0.115	0.132
-680.237	227.664	0.053	0.088
-679.222	357.605	0.177	0.358
-678.208	385.075	0.085	-0.178
-677.193	800.000	0.065	0.214
-676.178	800.000	-0.054	0.234
-675.164	9.529	-0.110	-0.084
-674.149	213.388	-0.089	-0.143
-673.135	669.986	0.091	0.239
-672.120	186.869	-0.137	-0.206
-671.105	-163.824	0.163	-0.008
-670.091	294.771	-0.124	0.230
-669.076	34.611	0.185	-0.164
-668.062	-23.813	0.293	-0.178
-667.047	-112.380	-0.463	0.094
-666.032	473.908	0.200	-0.458
-665.018	-200.000	-0.009	-0.223
-664.003	-42.647	-0.374	0.193
-662.989	-140.973	0.299	-0.031
-661.974	-125.927	0.308	-0.047
-660.959	-7.549	-0.327	-0.224
-659.945	16.373	0.163	0.130
-658.930	452.800	0.067	-0.150
-657.916	-22.376	-0.112	0.069
-656.901	303.382	-0.013	-0.025
-655.886	-200.000	-0.025	-0.212
-654.872	140.565	0.054	0.073
-653.857	-60.286	-0.194	-0.084
-652.843	69.455	-0.205	0.213
-651.828	-140.558	-0.168	-0.018
-650.814	800.000	0.106	-0.313
-649.799	-200.000	-0.002	-0.074
-648.784	-3.828	0.140	-0.099
-647.770	-72.628	0.076	0.028
-646.755	-200.000	-0.026	0.250
-645.741	430.370	-0.090	-0.197
-644.726	-44.044	-0.098	-0.050
-643.711	800.000	-0.042	-0.133
-642.697	93.031	0.207	0.237
-641.682	273.178	-0.018	0.032
-640.668	-33.782	-0.311	-0.174
-639.653	-34.399	-0.268	0.149
-638.638	-84.004	-0.359	-0.116
-637.624	800.000	-0.022	-0.075
-636.609	-63.312	0.248	-0.103
-635.595	-52.378	-0.324	0.152
-634.580	-145.106	0.514	-0.047
-633.565	-92.324	-0.186	-0.053
-632.551	-37.392	-0.246	-0.133
-631.536	129.080	0.107	-0.138
-630.522	-125.544	0.179	0.027
-629.507	800.000	-0.131	-0.373
-628.492	339.371	0.037	-0.072
-627.478	-55.107	0.084	-0.038
-626.463	-8.539	0.180	0.122
-625.449	236.728	-0.177	0.296
-624.434	-7.811	0.160	0.109
-623.419	7.104	-0.104	-0.078
-622.405	-200.000	-0.264	0.001
-621.390	-200.000	0.079	-0.587
-620.376	433.992	-0.145	0.318
-619.361	-146.238	-0.151	0.013
-618.346	32.947	-0.275	-0.241
-617.332	800.000	0.050	0.166
-616.317	76.479	-0.090	-0.096
-615.303	181.048	0.067	0.100
-614.288	800.000	0.060	-0.208
-613.273	-109.244	-0.553	-0.119
-612.259	-200.000	-0.068	-0.340
-611.244	186.197	-0.157	-0.237
-610.230	493.396	-0.178	0.412
-609.215	86.992	-0.170	-0.190
-608.201	-73.180	0.185	-0.068
-607.186	-200.000	0.015	0.142
-606.171	64.580	-0.263	0.267
-605.157	-8.957	-0.146	-0.099
-604.142	-120.281	0.118	0.020
-603.128	16.099	0.233	-0.186
-602.113	800.000	-0.093	-0.277
-601.098	173.985	-0.265	0.387
-600.084	-124.018	-0.167	0.027
-599.069	72.669	0.032	-0.033
-598.055	-6.972	-0.263	-0.180
-597.040	-200.000	-0.029	-0.139
-596.025	-200.000	0.002	-0.016
-595.011	-137.528	0.269	-0.031
-593.996	15.194	-0.368	-0.291
-592.982	-33.051	0.072	-0.040
-591.967	-95.915	0.060	0.016
-590.952	-10.045	-0.108	-0.072
-589.938	800.000	-0.095	0.311
-588.923	800.000	-0.089	0.293
-587.909	196.741	0.080	0.123
-586.894	114.059	-0.103	0.127
-585.879	-200.000	-0.055	0.361
-584.865	800.000	0.046	-0.198
-583.850	-98.258	-0.154	-0.040
-582.836	103.160	-0.154	0.183
-581.821	226.801	-0.092	-0.151
-580.806	-68.154	0.256	-0.101
-579.792	291.084	-0.163	-0.300
-578.777	-76.271	0.044	-0.016
-577.763	-137.983	0.102	-0.011
-576.748	-200.000	-0.005	0.069
-575.733	-67.088	-0.086	-0.034
-574.719	162.905	0.076	0.107
-573.704	-51.580	-0.077	-0.036
-572.690	-200.000	-0.024	0.309
-571.675	101.732	-0.087	0.102
-570.661	-49.066	0.220	0.106
-569.646	800.000	-0.039	0.158
-568.631	-9.557	-0.149	-0.100
-567.617	-69.089	-0.088	-0.034
-566.602	-132.013	0.028	-0.004
-565.588	-119.292	-0.189	0.033
-564.573	-99.710	0.099	-0.025
-563.558	-119.578	-0.237	0.041
-562.544	-55.030	-0.116	-0.053
-561.529	-43.628	0.341	-0.173
-560.515	22.811	0.208	0.172
-559.500	59.924	-0.232	-0.231
-558.485	30.979	-0.155	0.134
-557.471	98.418	0.116	0.135
-556.456	20.523	-0.166	0.136
-555.442	137.581	-0.089	-0.118
-554.427	27.909	-0.101	0.085
-553.412	-148.401	0.250	0.021
-552.398	30.193	0.169	-0.145
-551.383	-34.520	-0.222	0.123
-550.369	-54.785	0.277	0.126
-549.354	274.720	-0.060	0.106
-548.339	-136.978	-0.134	0.015
-547.325	-60.924	0.114	-0.049
-546.310	60.897	-0.065	-0.065
-545.296	-50.351	-0.166	0.079
-544.281	-2.296	-0.260	-0.184
-543.266	-66.392	0.216	-0.087
-542.252	-200.000	0.024	-0.234
-541.237	-200.000	-0.019	-0.194
-540.223	473.702	0.212	-0.481
-539.208	12.352	-0.134	-0.104
-538.193	800.000	0.038	0.142
-537.179	-124.275	-0.377	0.059
-536.164	-117.070	0.143	0.026
-535.150	-100.520	0.243	-0.061
-534.135	-34.471	0.196	0.108
-533.121	800.000	-0.013	-0.040
-532.106	-200.000	-0.068	-0.307
-531.091	10.784	0.243	-0.187
-530.077	63.651	-0.045	0.046
-529.062	-8.884	0.223	-0.150
-528.048	29.272	0.201	-0.172
-527.033	800.000	-0.071	-0.217
-526.018	-141.543	0.038	0.004
-525.004	7.729	-0.098	0.074
-523.989	56.470	0.299	-0.293
-522.975	349.801	0.103	-0.205
-521.960	-140.609	-0.087	0.009
-520.945	79.242	0.043	-0.046
-519.931	13.521	0.051	0.040
-518.916	-20.537	-0.251	0.156
-517.902	-75.221	-0.303	0.109
-516.887	324.507	-0.025	0.048
-515.872	-130.518	0.085	0.012
-514.858	-18.854	0.203	0.127
-513.843	-53.369	0.201	0.093
-512.829	493.040	0.112	-0.258
-511.814	800.000	0.065	0.191
-510.799	-2.749	0.266	0.187
-509.785	800.000	0.032	-0.124
-508.770	-71.879	-0.332	-0.125
-507.756	123.780	0.138	0.174
-506.741	-79.728	0.319	-0.108
-505.726	-200.000	0.008	-0.356
-504.712	-200.000	0.009	-0.104
-503.697	-200.000	0.026	0.123
-502.683	450.493	-0.243	-0.540
-501.668	-200.000	0.004	0.035
-500.653	-200.000	-0.030	0.157
-499.639	-200.000	-0.011	-0.126
-498.624	-200.000	-0.028	0.238
-497.610	57.767	-0.094	-0.092
-496.595	-135.011	-0.135	-0.016
-495.581	-119.384	0.432	0.076
-494.566	-50.179	-0.286	-0.136
-493.551	64.021	-0.101	-0.102
-492.537	-161.609	-0.303	-0.016
-491.522	-97.568	-0.178	0.047
-490.508	-94.386	0.481	-0.132
-489.493	709.574	-0.086	-0.230
-488.478	-10.611	-0.258	0.172
-487.464	-106.610	0.184	-0.041
-486.449	680.342	0.126	0.329
-485.435	-33.123	0.135	0.075
-484.420	98.504	-0.183	-0.212
-483.405	-200.000	-0.044	-0.303
-482.391	140.514	-0.051	-0.067
-481.376	36.747	0.133	0.118
-480.362	49.854	0.252	0.239
-479.347	261.855	-0.201	-0.350
-478.332	-61.744	-0.215	0.091
-477.318	93.368	-0.232	-0.264
-476.303	27.345	0.068	-0.058
-475.289	219.398	0.154	-0.248
-474.274	-95.464	-0.379	0.102
-473.259	-87.926	-0.088	0.026
-472.245	-179.464	0.249	0.006
-471.230	-52.197	-0.172	0.080
-470.216	-168.469	0.193	0.007
-469.201	-7.345	-0.268	-0.182
-468.186	-85.684	-0.084	-0.026
-467.172	-92.307	0.522	-0.148
-466.157	-152.386	-0.057	-0.004
-465.143	150.042	-0.146	0.199
-464.128	-200.000	0.044	0.262
-463.113	-200.000	-0.027	0.150
-462.099	458.285	0.124	-0.277
-461.084	494.800	0.137	-0.316
-460.070	-67.909	-0.255	0.100
-459.055	626.279	0.114	0.288
-458.040	-200.000	-0.049	0.329
-457.026	325.061	-0.107	0.205
-456.011	-112.531	0.303	0.061
-454.997	103.151	-0.071	0.083
-453.982	800.000	-0.039	0.139
-452.968	24.563	-0.150	-0.125
-451.953	-126.717	0.190	-0.028
-450.938	6.756	-0.415	-0.310
-449.924	-157.927	0.075	0.004
-448.909	-81.894	-0.262	0.086
-447.895	158.046	0.243	0.338
-446.880	36.212	0.099	0.088
-445.865	-200.000	-0.029	0.165
-444.851	-47.863	0.193	0.094
-443.836	800.000	-0.091	-0.332
-442.822	-1.875	-0.039	0.028
-441.807	-64.158	0.208	0.085
-440.792	-73.802	-0.188	0.069
-439.778	-151.466	0.261	0.019
-438.763	800.000	-0.061	0.173
-437.749	-132.126	0.134	-0.018
-436.734	627.027	0.134	-0.341
-435.719	-113.626	-0.262	-0.051
-434.705	-200.000	-0.037	-0.168
-433.690	11.224	-0.169	0.130
-432.676	-136.600	-0.058	0.007
-431.661	-0.987	0.198	-0.141
-430.646	-88.170	0.039	0.012
-429.632	264.042	0.081	0.142
-428.617	254.572	0.094	-0.162
-427.603	-73.774	-0.232	0.085
-426.588	-200.000	0.001	0.190
-425.573	167.223	-0.170	0.243
-424.559	-122.208	-0.093	-0.015
-423.544	44.556	-0.076	0.070
-422.530	-58.893	-0.159	0.069
-421.515	-75.318	-0.093	-0.033
-420.500	800.000	-0.063	-0.189
-419.486	-200.000	-0.013	-0.249
-418.471	-200.000	-0.036	-0.263
-417.457	97.138	-0.110	-0.126
-416.442	673.121	0.021	0.054
-415.428	-200.000	0.054	0.324
-414.413	-99.876	0.246	-0.062
-413.398	-148.920	-0.151	-0.012
-412.384	-95.345	0.096	-0.026
-411.369	210.373	0.030	-0.047
-410.355	277.522	0.117	-0.209
-409.340	512.277	-0.027	-0.063
-408.325	-200.000	-0.032	0.276
-407.311	-200.000	0.057	-0.294
-406.296	-151.351	-0.218	-0.016
-405.282	800.000	-0.041	-0.134
-404.267	-23.031	-0.124	0.075
-403.252	122.847	0.054	-0.068
-402.238	681.455	0.043	0.111
-401.223	206.300	0.065	0.102
-400.209	-193.333	-0.089	0.001
-399.194	-80.176	-0.409	0.137
-398.179	33.794	0.161	-0.140
-397.165	504.897	-0.073	0.169
-396.150	-170.308	0.256	-0.009
-395.136	-200.000	-0.047	-0.258
-394.121	108.858	-0.043	0.052
-393.106	531.468	-0.067	-0.159
-392.092	62.697	0.191	-0.191
-391.077	-104.894	0.264	-0.061
-390.063	780.370	-0.088	-0.241
-389.048	70.107	-0.074	0.077
-388.033	-81.470	-0.328	0.108
-387.019	800.000	-0.058	0.184
-386.004	18.180	0.133	-0.106
-384.990	30.516	0.356	0.305
-383.975	-200.000	0.022	-0.131
-382.960	-200.000	-0.031	-0.256
-381.946	-86.952	-0.063	-0.019
-380.931	-82.984	0.176	-0.057
-379.917	92.839	0.153	0.173
-378.902	-119.672	0.174	-0.030
-377.888	227.785	-0.222	-0.362
-376.873	-114.797	-0.235	-0.045
-375.858	-200.000	-0.039	0.200
-374.844	-177.456	0.381	0.009
-373.829	800.000	-0.031	0.116
-372.815	-200.000	0.078	-0.451
-371.800	-79.317	0.162	-0.055
-370.785	800.000	-0.094	-0.375
-369.771	-3.906	0.086	0.059
-368.756	800.000	0.111	0.345
-367.742	-83.642	-0.146	0.047
-366.727	-105.073	0.112	0.026
-365.712	227.165	0.228	0.371
-364.698	-102.141	0.401	-0.097
-363.683	-73.861	-0.106	0.039
-362.669	69.282	0.100	0.103
-361.654	-100.494	0.349	0.087
-360.639	27.095	0.363	0.305
-359.625	-200.000	0.011	0.056
-358.610	800.000	-0.089	-0.269
-357.596	-143.457	0.130	-0.012
-356.581	-107.567	-0.332	-0.073
-355.566	-200.000	0.050	0.279
-354.552	423.145	0.135	0.290
-353.537	-119.021	0.102	0.018
-352.523	385.690	-0.095	0.197
-351.508	25.834	0.077	0.064
-350.493	-67.145	0.169	0.066
-349.479	-93.342	0.397	0.110
-348.464	48.961	0.144	0.135
-347.450	-200.000	-0.047	0.281
-346.435	800.000	0.045	0.154
-345.420	13.303	-0.079	-0.061
-344.406	-113.466	0.036	0.007
-343.391	-22.068	-0.264	-0.160
-342.377	-72.175	0.413	0.153
-341.362	74.311	-0.116	0.122
-340.348	-128.763	-0.101	-0.014
-339.333	-200.000	0.011	-0.171
-338.318	-120.830	0.261	0.044
-337.304	-170.066	-0.223	0.008
-336.289	477.195	-0.048	0.108
-335.275	33.826	-0.165	-0.143
-334.260	-200.000	-0.005	-0.028
-333.245	154.331	0.032	-0.044
-332.231	159.012	0.167	-0.232
-331.216	92.890	0.226	0.255
-330.202	800.000	-0.081	0.238
-329.187	-86.810	0.089	-0.027
-328.172	-6.783	-0.125	-0.085
-327.158	339.447	-0.109	0.213
-326.143	50.234	0.144	-0.136
-325.129	-23.216	-0.311	0.187
-324.114	59.329	0.191	0.188
-323.099	335.767	-0.204	-0.396
-322.085	-200.000	0.014	-0.232
-321.070	-123.284	0.195	-0.031
-320.056	-200.000	-0.002	0.107
-319.041	-53.306	-0.286	-0.131
-318.026	42.704	0.249	0.226
-317.012	-71.116	0.217	0.081
-315.997	299.547	0.043	-0.079
-314.983	484.961	0.181	0.412
-313.968	253.882	0.068	-0.116
-312.953	-106.089	-0.030	-0.007
-311.939	-30.054	0.182	0.104
-310.924	800.000	0.042	-0.127
-309.910	388.596	0.024	-0.049
-308.895	-104.748	0.089	0.020
-307.880	30.831	-0.315	-0.270
-306.866	-90.820	-0.267	0.077
-305.851	-80.185	-0.242	0.081
-304.837	-108.852	0.397	0.085
-303.822	78.852	0.130	0.139
-302.807	-67.574	0.491	-0.192
-301.793	-49.493	-0.215	-0.102
-300.778	-200.000	0.011	-0.053
-299.764	-200.000	-0.053	-0.328
-298.749	-22.070	-0.185	-0.112
-297.735	-168.465	-0.198	-0.008
-296.720	-105.192	0.231	0.053
-295.705	96.182	0.305	0.348
-294.691	154.931	-0.212	-0.290
-293.676	-120.450	0.074	-0.012
-292.662	151.746	0.136	-0.185
-291.647	182.527	0.074	0.109
-290.632	42.418	-0.100	-0.090
-289.618	800.000	0.038	0.147
-288.603	-41.031	0.244	0.126
-287.589	800.000	-0.105	0.383
-286.574	-200.000	-0.034	0.189
-285.559	163.858	0.080	-0.113
-284.545	-63.539	-0.136	0.056
-283.530	297.228	0.065	0.120
-282.516	97.837	0.145	0.166
-281.501	-145.205	-0.337	-0.030
-280.486	-26.931	0.149	-0.087
-279.472	-181.196	-0.285	-0.006
-278.457	-186.217	0.279	0.004
-277.443	-140.158	0.148	0.015
-276.428	-56.435	-0.283	0.125
-275.413	-14.871	-0.274	0.175
-274.399	-117.114	-0.311	-0.056
-273.384	-200.000	-0.008	-0.086
-272.370	99.626	-0.303	-0.350
-271.355	7.484	-0.230	-0.172
-270.340	-54.284	-0.013	0.006
-269.326	89.884	0.090	0.100
-268.311	-200.000	0.024	0.109
-267.297	-200.000	-0.015	0.192
-266.282	800.000	-0.171	0.513
-265.267	579.673	0.040	0.097
-264.253	11.000	0.246	-0.188
-263.238	-132.082	-0.096	-0.012
-262.224	663.836	0.118	-0.305
-261.209	-16.882	-0.078	-0.049
-260.195	-31.995	-0.074	-0.041
-259.180	-200.000	0.069	0.359
-258.165	-80.573	-0.248	-0.082
-257.151	-200.000	-0.027	-0.160
-256.136	34.969	0.261	0.228
-255.122	-10.428	-0.032	-0.021
-254.107	-200.000	0.008	0.193
-253.092	-200.000	-0.022	-0.260
-252.078	-92.286	0.101	0.028
-251.063	-126.312	0.382	0.057
-250.049	27.646	-0.004	0.003
-249.034	-75.998	0.130	-0.046
-248.019	-13.242	-0.395	0.255
-247.005	35.836	-0.088	0.077
-245.990	25.860	0.100	0.083
-244.976	25.601	-0.244	-0.203
-243.961	-96.516	-0.030	0.008
-242.946	-128.108	-0.620	-0.088
-241.932	-70.914	-0.197	0.074
-240.917	567.669	0.007	-0.016
-239.903	20.224	0.144	0.116
-238.888	7.598	0.166	-0.123
-237.873	29.983	-0.202	0.172
-236.859	-34.015	-0.101	-0.055
-235.844	-73.344	-0.187	-0.068
-234.830	-87.169	0.392	-0.119
-233.815	34.814	-0.170	0.148
-232.800	-92.875	0.589	0.164
-231.786	800.000	-0.051	-0.204
-230.771	31.637	0.098	0.084
-229.757	-157.243	-0.349	-0.021
-228.742	50.197	-0.303	-0.285
-227.727	-50.698	0.289	0.136
-226.713	-200.000	0.019	0.355
-225.698	389.683	0.120	-0.248
-224.684	391.311	0.035	-0.073
-223.669	800.000	-0.046	0.196
-222.655	48.828	0.124	0.116
-221.640	-67.311	0.486	0.190
-220.625	205.768	-0.188	-0.291
-219.611	-152.382	0.053	-0.004
-218.596	-90.058	-0.451	-0.131
-217.582	355.943	-0.034	0.067
-216.567	373.974	-0.100	-0.203
-215.552	-195.665	-0.253	0.002
-214.538	152.835	-0.111	-0.151
-213.523	-200.000	0.022	0.224
-212.509	185.984	0.264	-0.391
-211.494	-179.133	0.376	0.008
-210.479	796.315	0.164	0.450
-209.465	-200.000	-0.051	0.392
-208.450	2.578	-0.262	-0.189
-207.436	-44.628	-0.398	0.198
-206.421	-200.000	-0.038	0.179
-205.406	-200.000	0.000	0.038
-204.392	-200.000	-0.002	0.032
-203.377	800.000	0.054	-0.169
-202.363	-47.446	0.376	0.182
-201.348	-200.000	-0.010	0.262
-200.333	486.054	0.092	0.210
-199.319	-71.753	-0.287	-0.106
-198.304	-200.000	-0.033	-0.210
-197.290	-25.838	0.492	0.288
-196.275	-24.760	0.244	0.144
-195.260	-151.645	0.115	-0.008
-194.246	256.139	-0.099	0.168
-193.231	-200.000	-0.004	0.492
-192.217	-200.000	-0.003	0.108
-191.202	47.276	0.104	0.096
-190.187	-200.000	0.009	-0.126
-189.173	342.528	-0.123	0.240
-188.158	650.210	0.048	0.121
-187.144	156.738	0.264	-0.362
-186.129	-200.000	0.020	-0.440
-185.114	-45.012	0.124	-0.061
-184.100	-200.000	-0.022	-0.252
-183.085	-23.716	-0.154	-0.091
-182.071	-165.835	0.351	-0.015
-181.056	292.018	0.151	-0.272
-180.042	150.150	0.125	-0.168
-179.027	178.462	0.067	-0.098
-178.012	-125.275	-0.381	-0.058
-176.998	60.205	0.120	0.118
-175.983	64.731	0.184	-0.185
-174.969	-200.000	0.029	0.204
-173.954	-200.000	0.002	0.134
-172.939	16.061	-0.064	-0.050
-171.925	-200.000	-0.009	0.167
-170.910	141.715	-0.205	0.269
-169.896	334.476	-0.163	0.313
-168.881	-175.284	-0.086	-0.002
-167.866	-56.337	0.348	-0.154
-166.852	103.826	-0.169	-0.197
-165.837	-200.000	-0.007	-0.050
-164.823	64.417	-0.141	0.141
-163.808	-200.000	-0.033	0.262
-162.793	-40.341	0.110	0.057
-161.779	-200.000	-0.023	-0.119
-160.764	69.745	-0.152	-0.155
-159.750	7.749	-0.156	0.116
-158.735	-171.323	0.561	-0.019
-157.720	160.801	-0.129	0.179
-156.706	-21.350	0.166	-0.101
-155.691	316.854	0.043	0.081
-154.677	25.279	0.095	-0.079
-153.662	-59.969	0.185	-0.079
-152.647	-109.098	0.182	0.039
-151.633	-85.868	-0.082	-0.025
-150.618	-169.174	0.144	-0.005
-149.604	-108.255	0.208	-0.045
-148.589	600.422	0.052	-0.127
-147.574	-146.665	-0.351	-0.030
-146.560	-118.705	0.242	0.042
-145.545	-200.000	-0.022	0.101
-144.531	-54.112	-0.188	-0.085
-143.516	46.510	0.105	-0.097
-142.502	-200.000	0.042	0.285
-141.487	-91.165	-0.221	0.063
-140.472	-200.000	-0.007	0.165
-139.458	327.220	-0.172	-0.326
-138.443	-75.614	-0.367	-0.129
-137.429	183.341	-0.204	0.299
-136.414	125.459	0.097	-0.122
-135.399	-200.000	-0.075	0.369
-134.385	-25.412	-0.123	0.072
-133.370	-39.423	-0.141	0.073
-132.356	-58.449	0.102	0.044
-131.341	-98.020	0.365	-0.093
-130.326	463.073	0.058	-0.127
-129.312	208.589	-0.161	-0.250
-128.297	36.831	-0.219	0.192
-127.283	-200.000	-0.049	0.319
-126.268	199.879	-0.139	-0.212
-125.253	546.577	-0.011	0.026
-124.239	-36.890	0.359	-0.191
-123.224	-68.137	0.185	0.071
-122.210	33.186	0.036	-0.031
-121.195	526.105	-0.013	0.030
