DTS Sentinel unit serial number:	SN413079Multiplexer serial number:	ORYXHardware model number:	OX4-SRSoftware version number:	ORYX F/W v4.00 Oryx Data Collector v3.7.2.0data status	okinstallation	princeton_trtdifferential loss correction	single-endedforward channel	channel 1reverse channel	N/Adate	2019/09/14time	05:02:35forward acquisition time	60.00reverse acquisition time	0.00gamma	496.2192k internal	0.2334k external	0.2334temperature offset calibration	1.0082default loss term (dB/km)	0.3790temperature slope calibration	1.0000multiplexer offset coefficient	1.0000multiplexer slope coefficient	1.0000fibre end	0.00T internal ref (°C)	26.87T ext. ref 1 (°C)	3.37T ext. ref 2 (°C)	22.00length (m)	temperature (°C)	Stokes	anti-Stokes-747.200	-128.518	0.204	-0.029
-746.185	-102.809	-0.495	-0.119
-745.171	57.858	0.219	-0.215
-744.156	254.185	0.249	0.427
-743.142	-200.000	0.028	0.207
-742.127	73.251	0.117	0.123
-741.112	800.000	0.054	-0.175
-740.098	512.504	-0.071	-0.166
-739.083	-200.000	-0.015	0.169
-738.069	588.519	-0.073	0.180
-737.054	-133.845	-0.097	0.012
-736.039	141.939	-0.200	0.267
-735.025	-25.983	-0.069	-0.041
-734.010	-0.965	0.124	-0.088
-732.996	-81.577	-0.167	-0.055
-731.981	-200.000	0.006	-0.195
-730.966	-127.788	-0.051	0.007
-729.952	309.272	-0.106	-0.198
-728.937	792.981	-0.109	-0.302
-727.923	576.320	0.067	0.164
-726.908	80.259	0.045	0.049
-725.894	180.390	-0.182	0.269
-724.879	800.000	-0.060	0.198
-723.864	-200.000	0.028	-0.142
-722.850	-77.670	0.133	-0.046
-721.835	36.352	-0.077	0.068
-720.821	-200.000	-0.015	-0.172
-719.806	-66.518	-0.221	-0.088
-718.791	-200.000	-0.059	0.402
-717.777	-32.507	0.029	-0.016
-716.762	-12.578	-0.253	0.166
-715.748	14.340	0.187	0.147
-714.733	246.914	0.098	-0.166
-713.718	800.000	0.119	0.364
-712.704	800.000	-0.034	-0.115
-711.689	800.000	0.045	0.196
-710.675	800.000	-0.023	0.082
-709.660	-115.096	-0.059	-0.011
-708.645	569.690	0.009	-0.021
-707.631	-71.105	-0.322	0.121
-706.616	-15.368	0.116	-0.074
-705.602	-99.349	0.142	-0.036
-704.587	-32.388	-0.187	0.105
-703.572	-66.871	-0.093	-0.037
-702.558	-200.000	0.008	-0.324
-701.543	-200.000	-0.054	-0.455
-700.529	-118.855	-0.156	0.027
-699.514	-49.723	0.043	-0.021
-698.499	166.380	0.058	-0.082
-697.485	371.641	0.244	-0.497
-696.470	-144.068	0.213	0.020
-695.456	-200.000	-0.022	0.120
-694.441	-110.520	0.122	-0.025
-693.426	800.000	0.034	-0.099
-692.412	-200.000	-0.048	0.300
-691.397	-14.057	0.063	0.041
-690.383	-115.189	0.072	-0.014
-689.368	-52.621	0.324	-0.150
-688.354	-73.675	-0.277	0.101
-687.339	-200.000	-0.001	0.051
-686.324	129.864	-0.043	-0.055
-685.310	-116.773	0.305	0.056
-684.295	425.621	-0.098	-0.213
-683.281	-29.383	-0.393	-0.226
-682.266	-144.429	0.276	-0.026
-681.251	-105.153	-0.142	0.033
-680.237	278.749	-0.118	-0.211
-679.222	-126.742	-0.076	0.011
-678.208	148.545	-0.189	-0.256
-677.193	174.939	0.181	-0.263
-676.178	34.329	0.090	-0.079
-675.164	112.535	0.142	-0.172
-674.149	-200.000	-0.011	-0.098
-673.135	800.000	0.088	0.251
-672.120	97.023	0.332	-0.382
-671.105	-200.000	0.029	-0.404
-670.091	-200.000	0.010	-0.187
-669.076	-118.061	-0.362	0.065
-668.062	-100.376	0.188	0.047
-667.047	-200.000	-0.044	0.339
-666.032	80.753	-0.201	-0.218
-665.018	-200.000	0.027	-0.327
-664.003	-200.000	-0.036	-0.352
-662.989	-200.000	0.050	-0.559
-661.974	281.886	-0.070	-0.125
-660.959	104.298	-0.159	0.188
-659.945	625.473	-0.196	-0.496
-658.930	-59.647	-0.258	-0.111
-657.916	86.167	-0.224	0.247
-656.901	-101.326	0.097	0.024
-655.886	747.935	0.083	-0.225
-654.872	-10.366	-0.113	0.075
-653.857	92.880	-0.128	0.144
-652.843	-63.202	0.260	0.107
-651.828	71.582	0.246	-0.256
-650.814	570.192	0.060	-0.147
-649.799	-158.552	-0.188	-0.011
-648.784	131.710	0.058	-0.075
-647.770	-138.441	-0.245	0.027
-646.755	-200.000	-0.019	-0.101
-645.741	220.299	-0.044	0.070
-644.726	-200.000	-0.021	-0.328
-643.711	800.000	-0.090	-0.317
-642.697	210.813	-0.132	-0.207
-641.682	-200.000	0.069	-0.434
-640.668	529.676	-0.010	-0.023
-639.653	800.000	0.025	-0.108
-638.638	800.000	-0.061	-0.176
-637.624	-200.000	0.006	-0.060
-636.609	-200.000	-0.040	-0.305
-635.595	-105.538	-0.193	0.044
-634.580	-44.814	-0.236	0.118
-633.565	286.209	-0.224	-0.405
-632.551	451.489	-0.026	0.057
-631.536	-66.956	-0.294	-0.116
-630.522	360.658	0.097	0.194
-629.507	357.401	-0.226	-0.451
-628.492	43.997	0.145	-0.133
-627.478	121.864	0.142	0.178
-626.463	227.908	-0.210	0.342
-625.449	202.612	-0.095	0.147
-624.434	-200.000	-0.061	-0.289
-623.419	-91.899	-0.383	0.109
-622.405	800.000	-0.017	-0.059
-621.390	-200.000	0.023	0.213
-620.376	-129.438	-0.269	0.037
-619.361	-51.430	-0.283	-0.132
-618.346	-50.577	0.210	-0.099
-617.332	148.296	0.048	-0.064
-616.317	800.000	0.045	-0.149
-615.303	162.968	0.213	0.299
-614.288	800.000	0.121	0.493
-613.273	800.000	-0.012	-0.045
-612.259	-200.000	-0.060	0.287
-611.244	800.000	-0.092	-0.286
-610.230	598.209	0.083	0.205
-609.215	800.000	-0.042	0.135
-608.201	800.000	-0.133	0.419
-607.186	413.510	0.119	-0.254
-606.171	425.845	0.098	0.211
-605.157	-136.904	0.075	0.009
-604.142	-22.906	0.188	0.113
-603.128	405.522	0.152	0.320
-602.113	800.000	-0.048	0.141
-601.098	25.113	0.225	-0.187
-600.084	-106.432	-0.118	-0.026
-599.069	165.826	0.252	0.356
-598.055	-22.860	0.067	-0.041
-597.040	-200.000	0.060	-0.308
-596.025	205.760	0.162	0.252
-595.011	710.866	-0.104	-0.276
-593.996	-109.849	-0.178	0.037
-592.982	-73.637	0.075	-0.027
-591.967	-105.642	0.277	0.063
-590.952	582.835	-0.071	-0.173
-589.938	-108.066	-0.262	0.057
-588.923	602.791	-0.070	-0.174
-587.909	-200.000	0.027	-0.421
-586.894	116.635	-0.157	-0.193
-585.879	-47.909	-0.018	-0.009
-584.865	32.812	0.271	0.235
-583.850	49.465	0.065	-0.061
-582.836	-154.303	-0.215	-0.014
-581.821	242.737	0.124	0.208
-580.806	289.024	-0.143	0.258
-579.792	800.000	-0.042	0.125
-578.777	151.534	0.151	-0.205
-577.763	-200.000	-0.102	-0.517
-576.748	127.790	0.121	0.154
-575.733	81.546	0.233	0.251
-574.719	191.223	-0.133	-0.200
-573.704	231.625	0.120	0.197
-572.690	68.663	0.158	-0.162
-571.675	103.859	-0.330	-0.387
-570.661	91.277	0.212	-0.238
-569.646	647.673	0.120	-0.307
-568.631	54.257	-0.129	-0.124
-567.617	-9.988	0.197	0.131
-566.602	-32.032	-0.272	0.152
-565.588	637.097	-0.153	-0.388
-564.573	-200.000	-0.024	-0.133
-563.558	-137.691	0.173	0.019
-562.544	-75.467	-0.172	-0.061
-561.529	-23.260	-0.227	0.137
-560.515	-112.702	0.217	-0.043
-559.500	79.162	0.162	0.173
-558.485	-200.000	0.025	-0.110
-557.471	580.799	0.066	-0.162
-556.456	800.000	-0.061	0.267
-555.442	274.494	-0.096	0.169
-554.427	144.843	-0.137	-0.182
-553.412	-24.568	-0.223	-0.132
-552.398	-42.874	-0.289	-0.147
-551.383	102.554	-0.111	-0.129
-550.369	-43.216	0.251	-0.127
-549.354	-51.758	0.155	-0.072
-548.339	-105.490	0.058	-0.013
-547.325	800.000	0.034	-0.095
-546.310	60.085	0.327	-0.322
-545.296	-19.686	-0.258	0.159
-544.281	-200.000	0.044	0.309
-543.266	160.512	-0.302	-0.420
-542.252	-84.645	0.167	0.053
-541.237	800.000	-0.021	0.072
-540.223	-121.342	0.338	-0.056
-539.208	-200.000	0.006	-0.127
-538.193	409.303	0.070	0.148
-537.179	-200.000	0.006	0.232
-536.164	-17.822	0.107	-0.067
-535.150	583.593	-0.068	0.167
-534.135	-200.000	0.103	0.463
-533.121	109.425	0.232	-0.277
-532.106	-200.000	-0.034	-0.158
-531.091	617.319	-0.050	0.124
-530.077	261.387	-0.239	-0.412
-529.062	511.955	0.089	0.207
-528.048	779.441	0.068	-0.185
-527.033	-125.153	0.121	0.018
-526.018	-104.070	0.217	0.050
-525.004	-19.636	-0.304	0.188
-523.989	326.485	-0.122	-0.233
-522.975	800.000	-0.088	-0.277
-521.960	-113.896	0.157	0.030
-520.945	-47.769	0.066	0.032
-519.931	112.221	0.218	0.263
-518.916	27.078	-0.015	-0.013
-517.902	-200.000	0.040	-0.254
-516.887	-28.986	0.180	0.103
-515.872	-52.031	0.137	-0.064
-514.858	-196.271	0.274	-0.002
-513.843	-86.767	0.123	0.038
-512.829	-102.519	-0.031	0.007
-511.814	-136.551	0.350	0.040
-510.799	104.046	-0.056	-0.065
-509.785	-200.000	-0.018	0.255
-508.770	66.996	-0.326	-0.331
-507.756	-56.367	0.213	0.094
-506.741	-68.901	-0.189	-0.073
-505.726	792.693	0.143	0.391
-504.712	-106.934	0.210	0.046
-503.697	-42.396	-0.086	-0.044
-502.683	-149.299	-0.208	0.017
-501.668	10.999	0.113	-0.086
-500.653	658.271	0.048	-0.124
-499.639	-13.018	-0.277	0.179
-498.624	-120.983	0.086	0.014
-497.610	634.488	-0.056	0.141
-496.595	27.928	-0.106	-0.089
-495.581	-200.000	0.012	0.254
-494.566	575.424	0.150	0.365
-493.551	-200.000	-0.005	0.070
-492.537	-106.718	-0.236	0.052
-491.522	34.343	0.197	0.171
-490.508	-200.000	0.003	-0.203
-489.493	344.869	-0.048	-0.093
-488.478	-85.592	-0.106	0.033
-487.464	183.699	-0.085	0.125
-486.449	-89.600	0.048	-0.014
-485.435	323.902	0.026	-0.050
-484.420	-193.044	0.206	0.002
-483.405	-200.000	-0.025	0.303
-482.391	111.425	-0.273	0.327
-481.376	-79.610	0.135	0.045
-480.362	461.750	0.229	-0.509
-479.347	-143.198	0.138	0.013
-478.332	-174.633	-0.028	0.001
-477.318	800.000	0.022	-0.063
-476.303	-200.000	0.011	-0.339
-475.289	74.230	-0.239	0.250
-474.274	-52.040	0.041	0.019
-473.259	-0.664	0.111	0.078
-472.245	-83.100	-0.178	-0.057
-471.230	37.818	-0.117	-0.104
-470.216	-33.277	0.347	-0.191
-469.201	304.649	-0.032	0.059
-468.186	800.000	0.073	-0.272
-467.172	-97.830	-0.081	0.021
-466.157	-53.997	0.247	0.112
-465.143	109.336	0.172	-0.204
-464.128	42.977	-0.197	0.179
-463.113	-200.000	-0.001	0.430
-462.099	800.000	-0.032	0.117
-461.084	-200.000	-0.006	-0.156
-460.070	-100.770	-0.192	-0.047
-459.055	-147.427	-0.200	-0.017
-458.040	66.568	-0.238	-0.240
-457.026	-81.486	-0.090	0.030
-456.011	-103.593	-0.044	-0.010
-454.997	-3.519	0.319	0.220
-453.982	43.356	0.116	-0.106
-452.968	-166.720	-0.210	-0.009
-451.953	-109.347	-0.165	0.035
-450.938	200.061	0.162	0.247
-449.924	338.372	0.163	0.315
-448.909	214.293	0.076	0.119
-447.895	-113.932	0.093	0.018
-446.880	216.053	-0.235	-0.371
-445.865	800.000	0.067	-0.223
-444.851	-54.500	-0.274	-0.123
-443.836	-68.936	-0.190	0.073
-442.822	-88.939	-0.118	0.035
-441.807	-12.308	0.192	-0.125
-440.792	276.640	-0.014	0.025
-439.778	-200.000	-0.008	-0.221
-438.763	118.510	-0.225	-0.276
-437.749	800.000	0.107	-0.377
-436.734	545.407	0.081	-0.193
-435.719	800.000	-0.087	0.260
-434.705	129.003	-0.043	0.054
-433.690	94.722	-0.111	-0.125
-432.676	87.448	-0.388	0.427
-431.661	370.278	0.245	-0.493
-430.646	-200.000	-0.052	-0.244
-429.632	800.000	-0.052	0.200
-428.617	-142.903	0.379	-0.037
-427.603	-53.765	-0.285	0.129
-426.588	118.219	0.158	-0.194
-425.573	-200.000	0.169	-0.000
-424.559	38.128	-0.245	0.216
-423.544	-200.000	-0.032	0.226
-422.530	-39.153	-0.013	0.007
-421.515	482.439	0.032	0.072
-420.500	26.976	0.209	0.174
-419.486	-1.341	0.245	0.172
-418.471	118.856	-0.196	-0.240
-417.457	-65.937	0.202	-0.080
-416.442	-89.244	0.285	0.083
-415.428	-67.199	-0.088	-0.034
-414.413	-200.000	0.027	0.189
-413.398	-200.000	0.005	-0.237
-412.384	604.760	-0.041	0.101
-411.369	-200.000	0.051	0.404
-410.355	-200.000	-0.039	0.208
-409.340	-200.000	-0.055	-0.311
-408.325	-200.000	0.010	-0.139
-407.311	-199.674	0.313	-0.002
-406.296	-104.950	0.101	-0.023
-405.282	293.722	-0.063	-0.114
-404.267	800.000	-0.041	-0.133
-403.252	-200.000	0.044	-0.253
-402.238	79.172	-0.078	0.083
-401.223	800.000	-0.037	0.110
-400.209	-46.745	0.158	-0.077
-399.194	800.000	-0.073	0.266
-398.179	94.928	-0.309	-0.348
-397.165	-200.000	0.005	-0.295
-396.150	800.000	0.126	-0.397
-395.136	-85.404	-0.201	0.062
-394.121	-200.000	-0.021	-0.098
-393.106	717.795	-0.068	0.180
-392.092	82.703	-0.167	0.180
-391.077	-171.296	0.132	-0.004
-390.063	-200.000	-0.016	0.311
-389.048	800.000	0.047	0.148
-388.033	-167.513	-0.194	0.008
-387.019	-200.000	-0.347	-0.001
-386.004	275.610	-0.140	0.246
-384.990	-200.000	-0.004	0.061
-383.975	-74.968	-0.206	0.073
-382.960	800.000	-0.052	0.170
-381.946	341.650	-0.129	0.249
-380.931	351.238	0.088	-0.173
-379.917	541.957	0.062	0.146
-378.902	-146.390	-0.097	-0.008
-377.888	34.486	-0.198	0.171
-376.873	-200.000	-0.050	-0.281
-375.858	96.750	0.073	-0.082
-374.844	-120.751	0.274	-0.046
-373.829	406.782	-0.011	0.023
-372.815	-92.204	-0.451	-0.126
-371.800	800.000	0.085	-0.261
-370.785	-168.824	0.106	-0.004
-369.771	-200.000	0.013	-0.064
-368.756	-200.000	0.003	-0.278
-367.742	111.023	-0.198	-0.236
-366.727	800.000	0.036	0.136
-365.712	-113.968	-0.105	0.020
-364.698	89.056	0.160	0.176
-363.683	800.000	0.054	-0.205
-362.669	800.000	0.045	0.188
-361.654	-200.000	-0.025	0.189
-360.639	800.000	-0.043	0.122
-359.625	-21.464	0.191	-0.115
-358.610	-149.838	0.184	0.014
-357.596	-11.972	0.200	0.130
-356.581	-65.317	-0.195	0.078
-355.566	-130.147	0.251	-0.034
-354.552	745.411	0.031	0.083
-353.537	-200.000	-0.002	-0.087
-352.523	-179.108	-0.317	0.007
-351.508	800.000	-0.052	-0.178
-350.493	-200.000	0.013	0.224
-349.479	79.921	0.100	-0.107
-348.464	-4.885	0.280	0.191
-347.450	-200.000	-0.012	0.352
-346.435	-6.615	0.099	-0.067
-345.420	51.846	0.018	0.017
-344.406	108.203	-0.161	-0.190
-343.391	8.286	0.074	-0.055
-342.377	-66.713	-0.100	-0.039
-341.362	74.437	-0.137	0.142
-340.348	-156.794	-0.257	0.016
-339.333	-200.000	0.074	-0.353
-338.318	281.530	0.106	0.187
-337.304	-200.000	-0.025	0.113
-336.289	-16.683	0.310	0.194
-335.275	800.000	0.025	0.095
-334.260	-200.000	0.026	0.374
-333.245	-14.454	-0.080	0.051
-332.231	230.143	0.188	-0.305
-331.216	-141.904	-0.172	-0.017
-330.202	800.000	0.047	0.161
-329.187	-30.079	-0.272	0.153
-328.172	-81.293	-0.248	0.081
-327.158	800.000	-0.088	-0.249
-326.143	-81.209	0.064	-0.021
-325.129	-200.000	0.002	0.111
-324.114	-168.283	0.244	-0.009
-323.099	81.221	-0.040	-0.042
-322.085	800.000	-0.017	0.066
-321.070	2.685	-0.100	-0.072
-320.056	-59.180	0.173	0.074
-319.041	58.824	0.146	-0.142
-318.026	-86.071	0.083	-0.025
-317.012	465.787	-0.137	0.302
-315.997	64.213	0.273	-0.272
-314.983	-58.919	-0.320	0.137
-313.968	-200.000	-0.006	-0.150
-312.953	-13.907	-0.137	-0.088
-311.939	11.171	0.260	0.196
-310.924	23.649	-0.123	-0.100
-309.910	329.669	0.156	-0.297
-308.895	-36.741	-0.136	-0.072
-307.880	189.816	-0.087	-0.129
-306.866	-70.825	0.378	-0.141
-305.851	-29.330	-0.219	0.124
-304.837	33.813	-0.073	0.063
-303.822	135.190	-0.063	0.081
-302.807	-24.230	0.174	0.102
-301.793	-68.437	0.232	-0.089
-300.778	-200.000	0.020	-0.104
-299.764	-66.435	0.182	0.071
-298.749	800.000	-0.122	-0.451
-297.735	-68.762	0.286	-0.109
-296.720	-143.871	-0.099	-0.009
-295.705	67.073	0.236	0.238
-294.691	-0.630	-0.110	0.077
-293.676	51.177	-0.168	0.157
-292.662	800.000	-0.120	-0.381
-291.647	494.394	0.045	0.102
-290.632	800.000	0.034	0.112
-289.618	-200.000	-0.035	-0.215
-288.603	-200.000	0.021	0.382
-287.589	-49.993	-0.509	0.238
-286.574	-200.000	0.039	0.335
-285.559	-52.272	-0.152	-0.070
-284.545	-200.000	-0.027	0.238
-283.530	-200.000	0.015	0.131
-282.516	-26.473	0.134	0.077
-281.501	800.000	-0.019	0.062
-280.486	800.000	-0.067	-0.284
-279.472	-200.000	-0.084	0.451
-278.457	-114.470	-0.283	0.054
-277.443	-103.911	-0.155	-0.036
-276.428	-131.547	0.373	-0.048
-275.413	158.358	0.032	0.043
-274.399	-66.156	-0.461	0.182
-273.384	8.243	-0.457	0.339
-272.370	-63.765	0.342	0.138
-271.355	800.000	-0.038	0.120
-270.340	-200.000	0.078	-0.385
-269.326	-200.000	0.100	-0.491
-268.311	-200.000	0.061	0.317
-267.297	800.000	-0.039	-0.123
-266.282	-190.706	-0.256	-0.003
-265.267	-115.648	-0.199	0.037
-264.253	-200.000	0.055	0.300
-263.238	595.504	-0.140	-0.341
-262.224	561.319	0.188	0.449
-261.209	-66.694	0.173	0.067
-260.195	694.051	0.032	0.082
-259.180	424.834	-0.148	0.315
-258.165	-200.000	-0.012	-0.058
-257.151	-21.541	0.242	-0.145
-256.136	-42.865	-0.257	-0.129
-255.122	-17.334	-0.313	-0.194
-254.107	491.065	0.081	0.182
-253.092	-58.961	-0.187	0.080
-252.078	-200.000	0.010	0.072
-251.063	738.557	-0.139	-0.368
-250.049	317.051	0.104	0.194
-249.034	-115.630	-0.392	0.073
-248.019	324.214	-0.186	-0.349
-247.005	-143.557	0.200	0.019
-245.990	-49.384	0.181	0.085
-244.976	800.000	0.044	0.176
-243.961	125.506	-0.153	0.190
-242.946	238.536	-0.047	-0.076
-241.932	-186.507	-0.379	0.005
-240.917	-18.537	0.211	0.130
-239.903	464.337	0.092	-0.203
-238.888	-33.674	0.261	-0.142
-237.873	-10.634	0.215	-0.140
-236.859	211.988	-0.212	-0.329
-235.844	340.396	0.048	-0.093
-234.830	-200.000	0.001	0.132
-233.815	-171.706	0.210	0.007
-232.800	-64.446	-0.281	0.112
-231.786	-200.000	-0.016	-0.195
-230.771	-162.501	0.321	0.016
-229.757	113.349	0.102	0.122
-228.742	357.943	-0.030	-0.060
-227.727	210.610	-0.256	-0.397
-226.713	-101.161	0.247	0.059
-225.698	-147.928	0.158	-0.013
-224.684	-38.833	0.019	0.010
-223.669	-36.414	0.089	0.047
-222.655	26.404	0.122	-0.101
-221.640	54.664	0.121	-0.115
-220.625	-21.410	0.328	0.197
-219.611	-200.000	-0.008	0.168
-218.596	-44.630	0.232	0.114
-217.582	-200.000	-0.036	0.339
-216.567	547.810	-0.029	0.068
-215.552	-200.000	0.062	-0.428
-214.538	86.032	-0.247	-0.268
-213.523	-103.738	-0.242	-0.056
-212.509	-200.000	-0.002	0.156
-211.494	92.589	-0.176	-0.195
-210.479	507.080	0.038	0.087
-209.465	-96.037	0.099	-0.026
-208.450	800.000	0.004	-0.012
-207.436	555.734	0.135	0.321
-206.421	-147.594	-0.191	-0.016
-205.406	704.668	-0.105	-0.273
-204.392	-101.709	0.253	0.060
-203.377	-34.978	0.054	0.029
-202.363	497.645	-0.058	0.132
-201.348	-200.000	-0.046	0.294
-200.333	311.713	-0.073	-0.135
-199.319	-46.860	-0.029	0.014
-198.304	-200.000	0.052	0.227
-197.290	-200.000	-0.008	0.125
-196.275	4.345	0.221	-0.159
-195.260	6.104	0.184	0.134
-194.246	-26.334	0.180	0.104
-193.231	96.586	0.115	-0.130
-192.217	119.790	0.146	-0.178
-191.202	54.100	-0.130	0.123
-190.187	800.000	-0.053	-0.150
-189.173	236.645	-0.046	0.074
-188.158	800.000	-0.066	-0.255
-187.144	-89.961	-0.077	0.022
-186.129	82.515	-0.204	0.218
-185.114	777.788	0.045	-0.121
-184.100	49.595	-0.210	-0.195
-183.085	1.030	0.204	-0.144
-182.071	348.797	0.140	0.271
-181.056	-52.067	0.419	-0.192
-180.042	17.894	0.054	-0.042
-179.027	-200.000	0.060	0.361
-178.012	-146.941	-0.181	-0.015
-176.998	-200.000	0.027	-0.380
-175.983	-116.365	-0.265	-0.048
-174.969	-132.176	0.426	0.054
-173.954	231.861	0.134	-0.216
-172.939	-93.745	-0.091	0.025
-171.925	-200.000	-0.034	0.213
-170.910	-27.907	-0.221	-0.126
-169.896	-200.000	0.032	0.303
-168.881	-58.965	0.290	0.123
-167.866	800.000	-0.032	0.136
-166.852	-20.171	0.330	0.200
-165.837	-200.000	0.010	-0.097
-164.823	65.719	-0.073	0.072
-163.808	-18.915	0.104	-0.063
-162.793	-200.000	-0.008	-0.060
-161.779	172.886	-0.071	-0.100
-160.764	-200.000	0.029	0.169
-159.750	275.580	0.186	0.324
-158.735	229.663	0.121	0.194
-157.720	-200.000	-0.025	0.231
-156.706	-126.204	0.127	-0.019
-155.691	7.977	0.106	-0.078
-154.677	-100.059	-0.376	-0.092
-153.662	-5.950	0.266	0.178
-152.647	45.888	0.238	0.216
-151.633	81.517	-0.178	-0.189
-150.618	-82.466	0.315	-0.100
-149.604	-110.515	-0.150	-0.031
-148.589	159.628	-0.097	0.133
-147.574	-169.211	0.195	-0.007
-146.560	-110.400	-0.136	0.028
-145.545	-61.423	0.230	0.095
-144.531	-36.666	0.351	-0.185
-143.516	-28.304	0.196	-0.111
-142.502	167.881	-0.086	-0.120
-141.487	238.786	-0.022	0.036
-140.472	174.095	0.072	0.103
-139.458	118.801	0.237	-0.288
-138.443	164.503	-0.074	-0.102
-137.429	-12.064	-0.290	0.186
-136.414	-104.218	-0.205	-0.047
-135.399	82.753	-0.108	-0.115
-134.385	-81.583	0.195	0.063
-133.370	-123.949	-0.144	-0.022
-132.356	35.649	-0.365	0.314
-131.341	-4.561	-0.108	-0.073
-130.326	800.000	0.085	-0.246
-129.312	217.388	0.216	0.338
-128.297	-129.868	0.516	0.070
-127.283	-134.699	-0.137	0.016
-126.268	-200.000	0.023	0.417
-125.253	-50.816	0.393	0.181
-124.239	286.476	-0.141	-0.249
-123.224	-200.000	-0.015	-0.117
