DTS Sentinel unit serial number:	SN413079Multiplexer serial number:	ORYXHardware model number:	OX4-SRSoftware version number:	ORYX F/W v4.00 Oryx Data Collector v3.7.2.0data status	okinstallation	princeton_trtdifferential loss correction	single-endedforward channel	channel 1reverse channel	N/Adate	2019/09/15time	02:46:35forward acquisition time	60.00reverse acquisition time	0.00gamma	496.2192k internal	0.2323k external	0.2323temperature offset calibration	0.9989default loss term (dB/km)	0.3790temperature slope calibration	1.0000multiplexer offset coefficient	1.0000multiplexer slope coefficient	1.0000fibre end	0.00T internal ref (°C)	31.37T ext. ref 1 (°C)	4.57T ext. ref 2 (°C)	25.76length (m)	temperature (°C)	Stokes	anti-Stokes-747.200	-200.000	-0.006	-0.122
-746.185	-6.390	-0.189	0.130
-745.171	236.771	0.175	0.293
-744.156	-101.950	-0.127	-0.031
-743.142	218.891	-0.104	0.168
-742.127	67.943	-0.113	0.116
-741.112	-37.176	0.264	-0.143
-740.098	-179.704	-0.106	0.002
-739.083	-72.571	0.124	-0.046
-738.069	-200.000	0.025	0.432
-737.054	800.000	-0.063	-0.273
-736.039	-93.388	-0.159	0.044
-735.025	7.934	0.084	0.063
-734.010	-200.000	-0.029	-0.216
-732.996	-77.803	-0.071	0.025
-731.981	-200.000	-0.011	0.223
-730.966	-123.308	0.204	-0.033
-729.952	72.704	-0.219	-0.231
-728.937	204.350	-0.238	-0.372
-727.923	-200.000	0.007	-0.131
-726.908	197.903	0.057	-0.088
-725.894	-139.676	-0.325	-0.035
-724.879	20.691	-0.209	-0.171
-723.864	800.000	-0.022	-0.080
-722.850	135.150	0.054	0.071
-721.835	210.099	-0.120	0.189
-720.821	94.923	-0.102	0.117
-719.806	-79.002	0.161	-0.055
-718.791	25.774	-0.204	-0.172
-717.777	-174.234	0.079	0.002
-716.762	-66.961	-0.058	-0.023
-715.748	-42.418	0.222	-0.114
-714.733	272.776	-0.088	0.157
-713.718	-122.375	0.163	0.027
-712.704	-81.756	-0.318	-0.105
-711.689	800.000	-0.069	-0.294
-710.675	31.505	-0.141	0.122
-709.660	-141.656	-0.375	0.038
-708.645	-200.000	0.005	0.180
-707.631	800.000	0.088	0.347
-706.616	147.664	0.091	0.124
-705.602	-200.000	-0.037	-0.171
-704.587	30.925	-0.085	0.074
-703.572	800.000	-0.040	-0.159
-702.558	-21.775	0.231	0.142
-701.543	-176.223	-0.245	0.006
-700.529	-32.199	0.110	0.062
-699.514	12.243	-0.187	0.145
-698.499	-27.472	-0.275	0.161
-697.485	-200.000	-0.024	-0.264
-696.470	-46.409	0.179	0.088
-695.456	-85.141	0.309	0.098
-694.441	-41.117	-0.113	-0.059
-693.426	-153.976	-0.442	-0.030
-692.412	-8.580	0.183	-0.124
-691.397	-200.000	0.031	-0.279
-690.383	332.584	0.038	0.074
-689.368	415.864	0.028	0.060
-688.354	114.996	0.118	-0.145
-687.339	26.305	0.103	-0.087
-686.324	447.632	-0.106	0.235
-685.310	-200.000	-0.012	0.155
-684.295	-68.048	-0.410	0.161
-683.281	-22.220	-0.024	0.015
-682.266	-14.787	0.128	-0.083
-681.251	94.030	-0.321	-0.367
-680.237	-200.000	0.005	-0.318
-679.222	-8.381	0.168	-0.114
-678.208	-200.000	0.006	0.040
-677.193	-121.474	-0.080	-0.013
-676.178	-152.036	0.193	0.014
-675.164	-120.341	-0.099	-0.017
-674.149	-194.888	0.310	0.002
-673.135	-134.884	-0.275	0.033
-672.120	-62.714	0.146	-0.061
-671.105	95.284	-0.196	-0.225
-670.091	-102.408	0.201	0.049
-669.076	63.404	-0.205	-0.207
-668.062	-87.287	-0.253	0.077
-667.047	-200.000	0.041	0.278
-666.032	55.376	-0.262	-0.255
-665.018	523.682	0.133	-0.315
-664.003	69.795	0.158	-0.164
-662.989	455.206	-0.040	0.089
-661.974	-200.000	0.058	0.429
-660.959	800.000	0.033	0.125
-659.945	-69.779	-0.311	-0.119
-658.930	-125.135	-0.156	0.024
-657.916	380.028	0.023	-0.048
-656.901	170.054	-0.046	0.067
-655.886	27.367	-0.097	-0.082
-654.872	-102.880	0.287	-0.069
-653.857	-27.179	-0.218	-0.128
-652.843	-104.124	-0.238	-0.056
-651.828	-62.607	0.201	-0.084
-650.814	417.681	0.060	-0.130
-649.799	12.537	-0.130	-0.101
-648.784	-127.208	-0.173	0.025
-647.770	-102.898	0.339	-0.081
-646.755	-62.786	-0.235	0.098
-645.741	-137.519	-0.318	0.036
-644.726	-18.740	0.213	0.134
-643.711	129.859	0.129	-0.165
-642.697	800.000	-0.025	0.087
-641.682	-140.610	-0.416	0.043
-640.668	-37.355	-0.084	-0.045
-639.653	183.756	0.035	0.052
-638.638	-52.147	0.117	-0.055
-637.624	-152.605	-0.178	0.013
-636.609	114.099	-0.288	-0.353
-635.595	61.728	0.227	0.227
-634.580	-182.736	0.264	-0.005
-633.565	40.616	0.049	0.045
-632.551	-200.000	-0.019	-0.212
-631.536	271.446	-0.158	-0.281
-630.522	-140.577	-0.110	-0.011
-629.507	-200.000	0.002	-0.076
-628.492	128.049	0.110	0.140
-627.478	257.536	0.149	0.258
-626.463	621.954	0.004	0.011
-625.449	58.413	-0.168	-0.165
-624.434	756.740	-0.049	-0.132
-623.419	338.265	0.152	-0.298
-622.405	-122.707	-0.176	-0.029
-621.390	130.858	-0.097	0.125
-620.376	-116.129	0.333	0.062
-619.361	-200.000	-0.022	0.163
-618.346	104.075	-0.094	-0.111
-617.332	-58.350	0.189	-0.083
-616.317	-16.080	-0.132	-0.084
-615.303	-154.508	-0.094	-0.006
-614.288	6.669	-0.008	-0.006
-613.273	44.314	-0.123	0.113
-612.259	-200.000	-0.007	-0.105
-611.244	-43.158	-0.376	-0.191
-610.230	-123.634	0.067	-0.011
-609.215	-28.124	0.092	0.053
-608.201	-10.733	0.201	0.133
-607.186	170.087	0.047	-0.067
-606.171	114.442	-0.168	-0.205
-605.157	134.531	0.094	0.123
-604.142	770.918	0.042	0.114
-603.128	437.841	0.107	-0.234
-602.113	-123.820	-0.184	0.029
-601.098	46.368	0.065	0.061
-600.084	-49.740	0.056	0.027
-599.069	-61.741	-0.323	0.136
-598.055	-113.325	-0.298	0.059
-597.040	97.056	-0.059	-0.068
-596.025	270.900	-0.121	-0.214
-595.011	102.042	-0.135	0.158
-593.996	639.302	-0.119	0.303
-592.982	-85.359	-0.205	0.064
-591.967	-200.000	0.017	0.188
-590.952	134.666	-0.119	-0.155
-589.938	3.801	0.126	-0.092
-588.923	69.908	-0.289	0.299
-587.909	360.870	-0.073	0.148
-586.894	-22.197	-0.134	0.081
-585.879	800.000	-0.055	0.182
-584.865	-140.338	-0.160	-0.017
-583.850	800.000	-0.065	-0.271
-582.836	800.000	-0.057	0.182
-581.821	20.079	-0.070	-0.056
-580.806	115.645	-0.302	-0.370
-579.792	31.346	-0.239	0.206
-578.777	-21.528	-0.220	0.135
-577.763	144.381	0.154	-0.206
-576.748	41.194	0.074	0.067
-575.733	82.933	0.114	-0.125
-574.719	67.497	-0.127	0.130
-573.704	-2.997	0.141	-0.098
-572.690	-58.726	-0.371	-0.161
-571.675	-80.648	-0.354	0.118
-570.661	-136.993	0.122	0.014
-569.646	-200.000	0.030	-0.140
-568.631	3.166	-0.208	-0.152
-567.617	261.750	0.151	-0.262
-566.602	118.103	-0.317	0.392
-565.588	-53.040	0.072	-0.033
-564.573	532.642	0.108	0.256
-563.558	173.489	-0.119	0.172
-562.544	-193.065	0.120	0.001
-561.529	-78.124	-0.351	-0.121
-560.515	248.757	-0.122	-0.208
-559.500	-29.883	-0.183	-0.105
-558.485	-43.252	0.292	0.148
-557.471	-200.000	0.057	0.345
-556.456	-99.597	-0.117	-0.030
-555.442	-127.525	-0.323	-0.047
-554.427	-44.599	0.174	-0.087
-553.412	800.000	-0.067	-0.283
-552.398	800.000	-0.035	0.118
-551.383	-200.000	0.027	0.168
-550.369	632.965	-0.022	-0.056
-549.354	-200.000	0.025	-0.160
-548.339	40.170	0.132	0.119
-547.325	148.067	0.157	0.212
-546.310	-58.105	0.207	0.090
-545.296	800.000	-0.062	0.234
-544.281	161.479	0.070	0.098
-543.266	322.313	-0.019	0.036
-542.252	485.135	-0.115	0.262
-541.237	-200.000	-0.008	0.043
-540.223	36.670	0.220	-0.195
-539.208	716.149	-0.065	-0.174
-538.193	20.766	-0.227	0.184
-537.179	25.812	0.142	-0.118
-536.164	35.178	0.269	0.236
-535.150	-200.000	0.022	0.135
-534.135	800.000	-0.020	-0.086
-533.121	363.049	0.165	0.333
-532.106	-22.814	0.029	-0.018
-531.091	-152.321	-0.286	-0.021
-530.077	-118.946	0.388	-0.068
-529.062	-200.000	-0.010	0.142
-528.048	-64.881	0.102	0.041
-527.033	-14.969	0.165	-0.106
-526.018	150.279	-0.171	0.232
-525.004	307.333	-0.153	-0.285
-523.989	517.278	-0.054	0.126
-522.975	-128.678	0.213	-0.030
-521.960	-12.020	-0.050	-0.032
-520.945	-43.347	0.167	0.085
-519.931	-200.000	0.037	-0.231
-518.916	-33.363	0.194	-0.107
-517.902	-200.000	-0.048	-0.231
-516.887	-154.111	-0.165	-0.011
-515.872	115.438	-0.114	0.139
-514.858	-151.323	0.097	0.007
-513.843	248.816	-0.039	0.066
-512.829	-129.358	0.306	-0.043
-511.814	65.319	0.237	-0.240
-510.799	-32.185	-0.212	-0.118
-509.785	-69.529	0.236	-0.091
-508.770	-51.156	0.263	0.123
-507.756	251.811	0.046	-0.078
-506.741	-142.540	-0.291	0.029
-505.726	20.767	-0.087	0.071
-504.712	800.000	0.030	0.103
-503.697	82.685	-0.103	-0.112
-502.683	568.449	0.183	-0.444
-501.668	255.160	-0.132	0.227
-500.653	-78.863	-0.120	0.041
-499.639	578.021	0.147	0.359
-498.624	-200.000	0.043	0.212
-497.610	-200.000	0.006	-0.206
-496.595	-172.409	0.132	-0.004
-495.581	-200.000	-0.005	0.287
-494.566	-66.448	-0.038	-0.015
-493.551	-81.202	0.149	-0.049
-492.537	-35.441	-0.162	0.088
-491.522	-12.666	-0.364	-0.237
-490.508	359.191	-0.093	0.186
-489.493	800.000	0.057	0.223
-488.478	-200.000	0.029	0.142
-487.464	-200.000	0.013	-0.214
-486.449	342.888	-0.076	0.148
-485.435	176.751	-0.066	0.096
-484.420	800.000	-0.083	0.275
-483.405	100.815	-0.112	0.130
-482.391	-13.529	-0.167	-0.108
-481.376	-200.000	-0.041	0.301
-480.362	109.506	0.109	0.130
-479.347	-129.024	-0.021	0.003
-478.332	-100.017	0.139	0.035
-477.318	-132.670	0.010	-0.001
-476.303	76.746	-0.290	0.308
-475.289	6.963	0.232	-0.173
-474.274	495.989	0.090	0.206
-473.259	-84.648	0.261	0.082
-472.245	800.000	-0.127	-0.369
-471.230	800.000	0.085	0.257
-470.216	-74.005	-0.050	0.018
-469.201	265.199	-0.246	0.428
-468.186	800.000	-0.096	0.287
-467.172	-97.876	-0.192	0.049
-466.157	-51.418	-0.150	-0.070
-465.143	-200.000	0.059	-0.285
-464.128	107.849	-0.205	0.244
-463.113	-116.786	-0.082	-0.015
-462.099	800.000	-0.083	-0.236
-461.084	-200.000	-0.000	0.149
-460.070	219.019	-0.133	0.212
-459.055	-200.000	0.044	-0.216
-458.040	143.046	0.107	0.142
-457.026	-48.112	-0.072	0.035
-456.011	-85.064	-0.382	0.119
-454.997	-200.000	-0.004	0.096
-453.982	66.231	0.197	0.200
-452.968	102.334	-0.159	-0.185
-451.953	-67.153	-0.056	-0.022
-450.938	416.165	0.127	-0.271
-449.924	-200.000	-0.023	-0.224
-448.909	-200.000	0.207	0.000
-447.895	155.944	0.199	0.274
-446.880	13.744	-0.136	0.106
-445.865	-162.846	0.141	-0.007
-444.851	-29.636	0.161	-0.092
-443.836	10.323	-0.223	0.170
-442.822	-45.998	0.159	-0.078
-441.807	-42.915	-0.262	0.133
-440.792	-200.000	0.287	0.000
-439.778	800.000	0.021	-0.078
-438.763	400.530	0.071	-0.150
-437.749	-119.616	0.177	0.031
-436.734	152.338	-0.053	0.072
-435.719	-105.261	-0.292	-0.067
-434.705	-115.766	-0.172	-0.032
-433.690	171.002	0.185	0.264
-432.676	-114.173	0.134	-0.026
-431.661	-47.259	-0.215	-0.105
-430.646	106.488	0.208	-0.246
-429.632	800.000	0.067	-0.197
-428.617	510.220	-0.085	-0.197
-427.603	800.000	-0.052	0.159
-426.588	47.234	-0.151	-0.141
-425.573	138.998	0.122	0.160
-424.559	24.935	0.403	0.334
-423.544	-109.617	0.214	-0.045
-422.530	800.000	0.088	-0.314
-421.515	-70.618	-0.370	0.139
-420.500	-75.056	-0.439	-0.157
-419.486	-44.374	0.384	-0.192
-418.471	-143.371	-0.228	-0.022
-417.457	206.858	-0.145	-0.225
-416.442	97.136	0.074	0.085
-415.428	-200.000	-0.038	-0.308
-414.413	215.130	0.057	0.090
-413.398	559.989	-0.119	-0.286
-412.384	410.985	0.112	-0.238
-411.369	-181.517	0.074	0.001
-410.355	17.457	0.127	-0.101
-409.340	329.577	0.072	-0.138
-408.325	387.675	0.008	0.017
-407.311	202.334	-0.117	-0.180
-406.296	-200.000	-0.055	-0.305
-405.282	-200.000	0.043	0.284
-404.267	21.227	0.188	-0.152
-403.252	-66.005	-0.118	-0.047
-402.238	470.774	-0.075	-0.168
-401.223	291.777	-0.133	-0.241
-400.209	-54.535	-0.231	0.104
-399.194	70.459	-0.044	0.046
-398.179	211.017	0.094	0.147
-397.165	30.614	0.143	0.122
-396.150	-64.949	-0.058	0.023
-395.136	-200.000	-0.009	0.055
-394.121	-72.993	0.092	0.034
-393.106	164.869	0.097	0.137
-392.092	-200.000	0.007	0.219
-391.077	-200.000	0.066	0.322
-390.063	782.443	0.020	0.054
-389.048	68.795	0.140	-0.143
-388.033	-200.000	-0.032	-0.193
-387.019	148.845	-0.207	0.279
-386.004	392.513	-0.101	-0.208
-384.990	748.241	-0.084	-0.227
-383.975	7.945	-0.062	0.046
-382.960	800.000	-0.034	-0.142
-381.946	-200.000	0.026	0.167
-380.931	-103.078	0.107	0.025
-379.917	800.000	-0.036	-0.112
-378.902	-141.189	-0.141	0.014
-377.888	-200.000	-0.025	0.167
-376.873	800.000	0.031	-0.118
-375.858	52.122	-0.252	0.239
-374.844	185.259	0.045	0.066
-373.829	-32.008	0.239	0.133
-372.815	-4.595	-0.305	-0.209
-371.800	-95.529	-0.395	0.105
-370.785	800.000	-0.054	0.163
-369.771	134.378	0.167	0.216
-368.756	-163.060	0.378	-0.018
-367.742	35.484	-0.046	0.040
-366.727	8.484	0.202	0.151
-365.712	800.000	-0.101	-0.289
-364.698	384.216	-0.184	0.378
-363.683	-46.690	0.187	0.091
-362.669	103.249	0.186	-0.217
-361.654	800.000	0.056	-0.190
-360.639	110.498	-0.232	-0.277
-359.625	-200.000	-0.038	0.351
-358.610	-18.272	0.159	0.099
-357.596	141.127	0.145	0.191
-356.581	-80.557	0.156	-0.052
-355.566	-200.000	-0.036	-0.309
-354.552	-98.810	-0.109	-0.028
-353.537	-35.448	-0.127	0.069
-352.523	-200.000	-0.146	0.000
-351.508	-105.745	-0.175	-0.039
-350.493	-100.712	-0.170	-0.042
-349.479	29.794	-0.263	-0.223
-348.464	80.553	-0.147	-0.158
-347.450	-188.345	0.275	0.003
-346.435	118.333	-0.200	-0.245
-345.420	-94.740	-0.404	0.109
-344.406	43.215	0.020	0.018
-343.391	310.058	-0.135	-0.251
-342.377	-68.817	0.029	0.011
-341.362	-200.000	-0.008	-0.062
-340.348	107.261	0.110	-0.130
-339.333	703.486	-0.150	0.393
-338.318	496.826	-0.084	-0.191
-337.304	-45.372	-0.255	-0.126
-336.289	-27.224	-0.128	0.074
-335.275	-200.000	0.001	-0.055
-334.260	-135.148	0.395	0.047
-333.245	33.181	0.219	0.189
-332.231	147.457	-0.134	0.179
-331.216	107.214	0.139	0.164
-330.202	-140.321	0.165	0.017
-329.187	-34.298	-0.049	-0.027
-328.172	49.330	-0.193	-0.180
-327.158	-200.000	0.018	-0.182
-326.143	-200.000	0.051	-0.304
-325.129	755.469	0.085	-0.227
-324.114	70.823	-0.118	-0.121
-323.099	800.000	0.018	-0.053
-322.085	-44.848	0.201	0.100
-321.070	800.000	-0.092	-0.271
-320.056	-90.943	-0.170	0.049
-319.041	800.000	0.082	-0.306
-318.026	434.073	-0.087	-0.187
-317.012	83.511	-0.038	-0.041
-315.997	561.579	-0.044	0.107
-314.983	-47.675	-0.386	-0.186
-313.968	166.631	0.132	-0.186
-312.953	-73.040	-0.210	0.077
-311.939	213.652	-0.141	-0.221
-310.924	29.068	0.225	0.190
-309.910	647.560	-0.071	-0.181
-308.895	-153.144	-0.101	0.007
-307.880	-40.834	0.112	0.058
-306.866	-9.060	0.144	-0.095
-305.851	-200.000	-0.038	-0.240
-304.837	-73.480	0.181	-0.065
-303.822	-44.466	0.111	0.055
-302.807	-126.738	0.181	-0.027
-301.793	44.774	-0.277	0.253
-300.778	220.178	-0.010	0.015
-299.764	162.173	0.094	0.131
-298.749	391.070	-0.122	0.251
-297.735	17.492	0.045	-0.035
-296.720	-200.000	0.015	-0.245
-295.705	-170.729	-0.181	0.006
-294.691	-200.000	-0.012	0.354
-293.676	9.147	0.129	-0.096
-292.662	222.250	-0.205	-0.327
-291.647	-200.000	0.012	0.132
-290.632	-200.000	-0.052	0.259
-289.618	484.248	0.023	-0.053
-288.603	-200.000	0.005	-0.361
-287.589	36.418	0.049	0.043
-286.574	-16.071	-0.089	0.056
-285.559	-200.000	0.030	-0.206
-284.545	-200.000	-0.016	-0.454
-283.530	-34.851	-0.533	-0.289
-282.516	-97.010	0.288	-0.075
-281.501	157.060	0.205	0.281
-280.486	-95.622	0.190	0.050
-279.472	-200.000	0.051	-0.222
-278.457	107.861	0.185	0.218
-277.443	4.655	0.148	0.108
-276.428	15.932	0.282	0.220
-275.413	-68.209	-0.091	-0.035
-274.399	504.393	0.139	0.319
-273.384	-155.473	-0.432	-0.028
-272.370	316.900	-0.070	-0.130
-271.355	-200.000	0.053	0.000
-270.340	246.082	0.303	-0.507
-269.326	415.923	0.194	0.411
-268.311	-117.734	-0.164	-0.029
-267.297	-200.000	-0.017	-0.370
-266.282	-200.000	0.028	0.190
-265.267	237.971	-0.114	0.188
-264.253	99.020	-0.193	0.220
-263.238	-200.000	0.033	0.167
-262.224	746.606	0.116	-0.308
-261.209	599.461	-0.085	0.209
-260.195	74.231	-0.257	-0.267
-259.180	-3.393	0.319	0.220
-258.165	222.204	-0.221	-0.352
-257.151	69.384	-0.307	-0.313
-256.136	649.423	-0.078	-0.197
-255.122	49.189	0.172	-0.160
-254.107	800.000	0.140	-0.461
-253.092	173.566	-0.074	0.106
-252.078	-81.350	0.118	-0.038
-251.063	-100.788	0.169	-0.041
-250.049	150.605	-0.033	-0.044
-249.034	-84.776	0.041	-0.013
-248.019	61.733	-0.217	0.214
-247.005	-130.424	0.201	-0.027
-245.990	488.715	0.084	0.190
-244.976	69.975	0.139	0.142
-243.961	-67.212	-0.146	0.057
-242.946	24.461	0.152	-0.124
-241.932	530.751	0.110	0.258
-240.917	-65.935	0.304	0.120
-239.903	-15.426	0.307	-0.194
-238.888	293.593	-0.105	0.189
-237.873	-164.725	0.307	0.014
-236.859	-122.887	0.240	0.038
-235.844	-43.068	0.396	0.199
-234.830	377.245	0.124	-0.251
-233.815	102.946	0.151	0.175
-232.800	800.000	0.088	-0.290
-231.786	-200.000	-0.001	0.044
-230.771	800.000	0.015	-0.043
-229.757	-138.702	-0.065	0.007
-228.742	317.461	0.234	-0.438
-227.727	800.000	-0.073	0.238
-226.713	210.467	-0.093	-0.144
-225.698	800.000	0.073	-0.210
-224.684	-200.000	-0.024	0.313
-223.669	7.003	0.395	0.291
-222.655	-144.095	0.183	0.017
-221.640	116.399	0.149	-0.180
-220.625	-15.903	0.341	0.215
-219.611	61.001	0.177	-0.174
-218.596	-0.633	0.145	-0.102
-217.582	-52.572	0.219	-0.100
-216.567	800.000	0.023	-0.089
-215.552	-200.000	0.017	-0.314
-214.538	-112.429	-0.046	0.009
-213.523	-86.582	0.204	-0.062
-212.509	67.269	-0.029	-0.029
-211.494	4.927	0.214	0.155
-210.479	-200.000	0.075	0.432
-209.465	202.484	-0.257	-0.393
-208.450	-200.000	0.122	-0.000
-207.436	-157.638	0.146	0.009
-206.421	7.360	0.212	-0.156
-205.406	172.501	0.177	0.252
-204.392	62.169	-0.318	-0.314
-203.377	-105.004	-0.247	-0.056
-202.363	-5.035	0.122	0.083
-201.348	800.000	0.060	0.226
-200.333	800.000	-0.088	0.328
-199.319	-54.427	-0.214	0.096
-198.304	-84.581	-0.040	-0.013
-197.290	-170.360	0.444	-0.015
-196.275	49.080	-0.341	-0.317
-195.260	400.066	-0.113	0.235
-194.246	9.206	0.200	0.150
-193.231	-31.399	-0.087	0.049
-192.217	800.000	0.038	-0.133
-191.202	113.376	0.158	0.190
-190.187	220.857	0.066	-0.104
-189.173	267.052	0.108	0.186
-188.158	-102.577	-0.054	-0.013
-187.144	471.668	0.109	-0.242
-186.129	18.545	0.053	0.042
-185.114	-198.803	-0.196	0.001
-184.100	800.000	-0.039	0.125
-183.085	258.159	-0.122	0.208
-182.071	-113.267	-0.108	-0.021
-181.056	343.229	-0.183	-0.355
-180.042	-150.859	-0.364	-0.027
-179.027	150.475	-0.126	0.169
-178.012	63.847	0.239	-0.237
-176.998	-30.285	0.289	0.162
-175.983	-168.809	0.348	-0.013
-174.969	-89.568	0.132	-0.038
-173.954	7.450	0.319	0.235
-172.939	185.853	-0.111	0.163
-171.925	-136.798	0.182	0.021
-170.910	-24.310	-0.066	0.039
-169.896	800.000	0.062	0.245
-168.881	-33.116	0.067	-0.037
-167.866	407.465	0.048	-0.099
-166.852	9.794	0.114	0.086
-165.837	-21.292	-0.192	0.116
-164.823	-200.000	-0.003	0.172
-163.808	-200.000	-0.002	0.223
-162.793	8.076	-0.095	-0.070
-161.779	-100.454	0.522	0.128
-160.764	83.576	0.102	-0.110
-159.750	-14.884	0.183	0.116
-158.735	800.000	-0.112	0.360
-157.720	-200.000	-0.004	-0.199
-156.706	25.689	0.167	0.137
-155.691	-200.000	0.012	0.078
-154.677	-200.000	-0.044	-0.207
-153.662	-56.277	0.265	0.116
-152.647	-96.022	-0.173	-0.046
-151.633	94.587	0.077	-0.086
-150.618	61.940	-0.056	0.055
-149.604	-200.000	-0.042	-0.310
-148.589	-200.000	0.020	-0.247
-147.574	-34.198	0.145	0.079
-146.560	64.615	-0.261	0.259
-145.545	-57.237	0.233	-0.101
-144.531	-18.745	0.185	0.113
-143.516	288.299	-0.159	0.284
-142.502	269.565	0.098	0.170
-141.487	-93.012	0.317	0.087
-140.472	-97.305	0.065	0.017
-139.458	-200.000	0.013	0.456
-138.443	-134.557	-0.022	-0.003
-137.429	-80.298	0.247	-0.081
-136.414	-200.000	-0.055	0.563
-135.399	2.004	0.101	0.072
-134.385	-115.005	-0.206	0.039
-133.370	127.167	0.100	-0.125
-132.356	82.417	0.145	-0.155
-131.341	-200.000	-0.015	0.241
-130.326	-26.922	-0.101	0.058
-129.312	744.283	0.030	0.078
-128.297	-162.357	-0.130	-0.006
-127.283	299.717	0.143	-0.260
-126.268	-200.000	0.000	0.090
-125.253	-16.310	-0.048	-0.030
-124.239	-85.701	0.045	0.014
-123.224	555.494	0.024	-0.056
-122.210	-200.000	0.011	-0.117
-121.195	30.802	0.168	-0.142
-120.180	-75.413	-0.081	0.029
