DTS Sentinel unit serial number:	SN413079Multiplexer serial number:	ORYXHardware model number:	OX4-SRSoftware version number:	ORYX F/W v4.00 Oryx Data Collector v3.7.2.0data status	okinstallation	princeton_trtdifferential loss correction	single-endedforward channel	channel 1reverse channel	N/Adate	2019/09/17time	22:30:35forward acquisition time	60.00reverse acquisition time	0.00gamma	496.2192k internal	0.2340k external	0.2340temperature offset calibration	0.9974default loss term (dB/km)	0.3790temperature slope calibration	1.0000multiplexer offset coefficient	1.0000multiplexer slope coefficient	1.0000fibre end	0.00T internal ref (°C)	25.31T ext. ref 1 (°C)	0.18T ext. ref 2 (°C)	18.59length (m)	temperature (°C)	Stokes	anti-Stokes-747.200	-153.282	-0.085	-0.006
-746.185	139.526	-0.181	0.238
-745.171	-71.730	0.243	0.091
-744.156	-50.452	-0.322	0.152
-743.142	-113.690	0.266	-0.052
-742.127	147.378	-0.294	0.396
-741.112	-68.076	0.242	-0.095
-740.098	-42.798	-0.371	-0.189
-739.083	506.974	0.115	0.267
-738.069	65.354	0.213	0.216
-737.054	-200.000	0.000	0.043
-736.039	-11.295	-0.299	-0.197
-735.025	212.180	0.089	0.141
-734.010	800.000	-0.070	0.255
-732.996	-25.738	-0.379	-0.224
-731.981	95.795	0.107	-0.122
-730.966	155.645	0.127	-0.176
-729.952	18.827	-0.394	-0.316
-728.937	-149.033	-0.349	0.028
-727.923	47.220	-0.124	-0.115
-726.908	446.715	-0.177	-0.389
-725.894	-145.286	0.039	0.004
-724.879	31.880	-0.181	0.156
-723.864	428.373	0.114	0.246
-722.850	91.375	-0.084	-0.095
-721.835	-104.596	-0.336	-0.078
-720.821	421.782	0.084	0.180
-719.806	-200.000	0.001	-0.073
-718.791	-1.695	-0.215	-0.152
-717.777	800.000	-0.039	0.143
-716.762	-34.509	0.169	-0.093
-715.748	800.000	-0.040	0.137
-714.733	-200.000	0.032	-0.483
-713.718	-3.816	0.213	0.148
-712.704	377.244	-0.158	-0.324
-711.689	-200.000	-0.038	0.190
-710.675	-137.628	0.150	0.017
-709.660	98.485	0.218	0.251
-708.645	176.712	-0.096	-0.140
-707.631	-135.849	0.263	0.031
-706.616	-200.000	-0.021	0.132
-705.602	110.345	-0.232	0.279
-704.587	-151.039	-0.350	-0.026
-703.572	376.723	-0.216	-0.441
-702.558	-200.000	0.052	-0.468
-701.543	218.052	0.107	-0.171
-700.529	-151.167	0.107	0.008
-699.514	-200.000	0.172	-0.001
-698.499	150.382	-0.100	-0.136
-697.485	-44.931	0.190	-0.095
-696.470	67.921	-0.216	0.221
-695.456	79.222	0.199	-0.213
-694.441	-164.568	0.003	-0.000
-693.426	-148.185	-0.339	0.028
-692.412	-200.000	0.039	0.367
-691.397	-182.803	-0.211	0.004
-690.383	-4.532	-0.189	-0.131
-689.368	-130.620	-0.507	-0.068
-688.354	-25.018	0.373	-0.221
-687.339	800.000	-0.017	-0.066
-686.324	28.972	0.236	-0.200
-685.310	800.000	0.089	-0.271
-684.295	670.692	-0.127	-0.328
-683.281	-90.416	0.216	-0.063
-682.266	122.911	0.054	0.067
-681.251	-200.000	-0.007	-0.183
-680.237	800.000	0.031	0.134
-679.222	800.000	-0.035	-0.126
-678.208	-200.000	-0.019	-0.291
-677.193	62.562	-0.154	0.154
-676.178	-200.000	0.017	0.149
-675.164	543.307	-0.041	0.097
-674.149	-88.715	0.042	-0.012
-673.135	-154.792	0.318	0.021
-672.120	17.995	0.074	0.059
-671.105	217.066	-0.022	0.035
-670.091	-118.985	-0.352	-0.062
-669.076	-83.884	-0.213	0.068
-668.062	698.583	-0.074	-0.196
-667.047	-186.970	-0.339	0.005
-666.032	370.615	-0.069	0.140
-665.018	57.323	0.148	-0.144
-664.003	-31.090	-0.132	0.074
-662.989	142.971	0.114	-0.151
-661.974	176.866	0.324	-0.472
-660.959	800.000	0.069	0.291
-659.945	20.857	-0.110	0.089
-658.930	66.049	-0.142	0.144
-657.916	800.000	0.010	-0.037
-656.901	-194.549	-0.382	-0.003
-655.886	800.000	0.083	-0.256
-654.872	244.667	0.161	-0.270
-653.857	-80.858	0.177	-0.059
-652.843	-200.000	0.031	-0.153
-651.828	-176.640	-0.076	0.002
-650.814	37.673	0.083	0.073
-649.799	40.067	-0.248	0.223
-648.784	365.709	-0.114	0.230
-647.770	-26.221	-0.127	-0.074
-646.755	75.599	-0.168	-0.177
-645.741	125.820	-0.009	0.011
-644.726	800.000	0.050	0.155
-643.711	104.806	-0.244	-0.287
-642.697	449.403	0.071	-0.156
-641.682	800.000	0.035	0.153
-640.668	800.000	-0.109	0.423
-639.653	-80.898	0.080	-0.027
-638.638	527.147	0.052	-0.122
-637.624	-200.000	0.019	-0.298
-636.609	210.292	-0.138	0.216
-635.595	-110.895	-0.186	-0.038
-634.580	800.000	0.084	-0.235
-633.565	-9.399	0.415	-0.277
-632.551	37.289	0.271	0.240
-631.536	-61.916	-0.169	-0.070
-630.522	800.000	-0.116	-0.410
-629.507	-117.820	0.245	0.044
-628.492	117.362	-0.126	-0.155
-627.478	800.000	-0.033	-0.115
-626.463	-37.175	0.214	0.114
-625.449	-200.000	-0.006	0.119
-624.434	-173.232	0.198	0.006
-623.419	770.051	0.092	0.249
-622.405	113.019	0.013	0.016
-621.390	669.784	-0.045	-0.117
-620.376	245.659	-0.099	-0.166
-619.361	238.310	-0.053	0.087
-618.346	8.702	-0.192	-0.144
-617.332	142.110	-0.130	-0.172
-616.317	-142.212	-0.483	0.048
-615.303	-147.201	0.156	0.013
-614.288	-33.344	-0.242	-0.134
-613.273	-200.000	-0.021	0.201
-612.259	-81.934	0.373	0.122
-611.244	800.000	0.053	-0.186
-610.230	372.662	0.140	-0.284
-609.215	-200.000	0.034	-0.187
-608.201	-12.238	0.114	-0.074
-607.186	-168.961	-0.132	0.005
-606.171	588.081	-0.075	0.184
-605.157	-18.277	-0.119	-0.074
-604.142	800.000	0.055	-0.166
-603.128	-24.081	-0.461	0.275
-602.113	547.792	0.123	-0.293
-601.098	800.000	-0.081	-0.253
-600.084	-122.676	0.291	0.047
-599.069	-53.086	-0.312	0.143
-598.055	245.365	-0.167	-0.280
-597.040	58.071	0.014	-0.013
-596.025	10.948	0.108	0.083
-595.011	-48.899	-0.089	0.043
-593.996	-194.867	-0.046	-0.000
-592.982	-67.603	0.089	0.035
-591.967	800.000	-0.052	0.188
-590.952	89.819	0.083	-0.092
-589.938	304.346	0.048	-0.089
-588.923	469.087	0.033	0.074
-587.909	-200.000	-0.046	-0.281
-586.894	409.269	-0.085	-0.179
-585.879	-15.661	-0.098	-0.062
-584.865	535.264	0.101	-0.239
-583.850	162.578	-0.103	-0.144
-582.836	23.634	-0.210	-0.172
-581.821	-76.947	0.065	0.023
-580.806	128.635	-0.143	0.181
-579.792	800.000	-0.122	0.406
-578.777	-130.783	0.248	0.033
-577.763	31.217	0.173	-0.148
-576.748	800.000	0.040	-0.112
-575.733	495.076	-0.167	0.383
-574.719	212.894	-0.301	-0.474
-573.704	-124.215	-0.223	-0.035
-572.690	247.329	0.178	-0.299
-571.675	-200.000	-0.030	-0.235
-570.661	10.443	0.240	-0.182
-569.646	-88.797	-0.189	0.056
-568.631	-37.769	-0.227	0.120
-567.617	316.189	-0.245	0.460
-566.602	-157.486	0.201	-0.012
-565.588	-117.746	0.243	-0.044
-564.573	720.671	0.024	0.064
-563.558	800.000	0.093	0.263
-562.544	-82.575	0.045	-0.014
-561.529	-114.682	0.154	-0.029
-560.515	-139.132	-0.252	0.027
-559.500	-15.227	-0.254	0.162
-558.485	-56.054	-0.120	-0.053
-557.471	-200.000	0.007	0.117
-556.456	103.651	-0.109	0.128
-555.442	-200.000	0.066	-0.551
-554.427	-124.173	0.266	-0.041
-553.412	171.826	-0.086	-0.123
-552.398	410.856	0.126	0.267
-551.383	-200.000	-0.025	-0.137
-550.369	-149.137	0.197	-0.016
-549.354	-27.463	-0.227	-0.131
-548.339	75.193	-0.200	-0.209
-547.325	374.587	0.052	-0.105
-546.310	-172.706	0.252	-0.008
-545.296	-52.339	-0.191	0.088
-544.281	-54.686	-0.039	-0.017
-543.266	390.522	-0.041	-0.085
-542.252	800.000	-0.023	-0.092
-541.237	52.935	-0.141	-0.134
-540.223	58.717	-0.161	0.157
-539.208	-52.751	0.137	0.063
-538.193	-110.982	0.143	0.029
-537.179	374.211	-0.155	-0.314
-536.164	-25.134	-0.466	-0.275
-535.150	53.376	0.292	0.279
-534.135	-9.296	0.120	-0.080
-533.121	80.100	-0.041	-0.044
-532.106	561.206	-0.025	-0.060
-531.091	-42.573	0.390	0.197
-530.077	153.560	0.074	0.101
-529.062	7.240	0.063	-0.047
-528.048	-171.431	0.332	0.011
-527.033	74.999	0.057	0.059
-526.018	-200.000	-0.092	-0.462
-525.004	-3.426	-0.098	0.068
-523.989	-78.039	-0.168	0.057
-522.975	247.320	-0.126	-0.212
-521.960	228.601	0.263	-0.425
-520.945	800.000	-0.156	0.457
-519.931	38.507	0.102	-0.090
-518.916	-13.645	-0.161	0.104
-517.902	-63.714	0.216	-0.088
-516.887	-142.186	-0.336	0.033
-515.872	-200.000	0.038	0.335
-514.858	126.413	0.112	-0.141
-513.843	-22.468	-0.151	-0.091
-512.829	-200.000	0.058	-0.315
-511.814	27.775	-0.288	0.241
-510.799	-200.000	-0.050	-0.242
-509.785	-200.000	-0.003	-0.021
-508.770	42.607	0.262	-0.237
-507.756	-33.007	0.094	-0.052
-506.741	-147.973	-0.334	0.028
-505.726	-200.000	-0.048	0.424
-504.712	800.000	0.033	0.108
-503.697	-35.358	-0.235	0.127
-502.683	305.038	-0.162	-0.299
-501.668	49.169	-0.093	0.087
-500.653	-200.000	-0.009	-0.085
-499.639	-60.037	-0.378	-0.160
-498.624	-200.000	0.036	-0.274
-497.610	46.500	0.256	0.236
-496.595	-36.936	0.162	0.086
-495.581	-200.000	0.001	-0.024
-494.566	-167.563	0.276	0.011
-493.551	181.948	-0.083	-0.121
-492.537	-108.666	0.226	0.048
-491.522	299.359	-0.126	0.231
-490.508	534.155	-0.103	-0.243
-489.493	-13.835	-0.053	0.034
-488.478	-110.168	0.215	-0.045
-487.464	-200.000	0.002	0.075
-486.449	-38.910	-0.302	0.158
-485.435	-200.000	-0.003	0.161
-484.420	-200.000	-0.008	-0.142
-483.405	131.202	0.150	-0.192
-482.391	-78.515	-0.401	0.136
-481.376	136.575	-0.238	0.308
-480.362	-38.008	0.138	-0.073
-479.347	-34.859	0.026	-0.014
-478.332	86.543	-0.399	0.437
-477.318	800.000	-0.051	0.207
-476.303	-200.000	-0.002	0.258
-475.289	-55.764	-0.105	0.046
-474.274	-106.442	-0.153	0.034
-473.259	-200.000	0.006	-0.069
-472.245	328.525	-0.050	0.096
-471.230	-200.000	-0.087	-0.492
-470.216	-101.460	-0.178	-0.043
-469.201	112.147	-0.225	-0.269
-468.186	-190.600	-0.176	0.002
-467.172	65.421	-0.176	0.177
-466.157	800.000	-0.069	0.229
-465.143	126.912	-0.174	0.219
-464.128	-200.000	-0.027	0.264
-463.113	800.000	-0.054	0.221
-462.099	472.810	0.060	-0.134
-461.084	96.571	0.071	0.080
-460.070	286.337	-0.095	0.169
-459.055	-106.518	-0.035	0.008
-458.040	-83.690	-0.034	0.011
-457.026	-200.000	-0.004	0.050
-456.011	-39.568	0.181	0.094
-454.997	-36.535	0.297	0.158
-453.982	-114.383	0.166	0.032
-452.968	800.000	-0.088	0.284
-451.953	800.000	-0.082	0.288
-450.938	62.903	-0.261	-0.259
-449.924	283.689	0.031	0.055
-448.909	-200.000	-0.091	0.397
-447.895	-83.721	0.143	-0.045
-446.880	-6.367	0.110	0.074
-445.865	-82.236	0.170	-0.055
-444.851	-33.421	-0.204	0.112
-443.836	252.692	-0.069	0.116
-442.822	140.623	0.033	0.043
-441.807	624.654	0.031	0.077
-440.792	-200.000	-0.009	0.049
-439.778	79.206	0.133	0.141
-438.763	-200.000	-0.030	0.176
-437.749	-176.425	0.218	0.006
-436.734	60.383	-0.248	0.244
-435.719	800.000	-0.092	0.280
-434.705	-200.000	0.007	-0.038
-433.690	23.247	-0.152	-0.124
-432.676	-71.511	-0.123	-0.046
-431.661	-6.824	0.162	-0.109
-430.646	-11.895	0.177	-0.115
-429.632	800.000	-0.106	-0.353
-428.617	-126.283	0.242	-0.036
-427.603	-24.035	-0.226	-0.134
-426.588	291.236	0.217	-0.390
-425.573	74.323	0.103	-0.107
-424.559	800.000	-0.079	-0.343
-423.544	129.586	0.188	-0.238
-422.530	216.261	0.115	-0.182
-421.515	-98.157	0.154	0.039
-420.500	27.994	0.050	0.042
-419.486	-200.000	0.049	-0.284
-418.471	685.085	-0.118	-0.305
-417.457	334.273	0.141	0.270
-416.442	-200.000	-0.013	0.187
-415.428	-153.762	-0.115	0.008
-414.413	-128.971	-0.253	-0.035
-413.398	-44.006	-0.044	-0.022
-412.384	-34.067	0.198	-0.108
-411.369	59.594	0.131	-0.128
-410.355	-55.029	-0.266	0.119
-409.340	-60.598	-0.011	-0.005
-408.325	-200.000	0.019	0.228
-407.311	188.091	0.093	-0.138
-406.296	477.294	0.086	0.193
-405.282	229.390	-0.125	-0.202
-404.267	-107.022	0.261	-0.057
-403.252	-62.273	-0.131	-0.054
-402.238	107.488	0.139	-0.164
-401.223	248.639	0.094	-0.158
-400.209	564.164	0.100	-0.241
-399.194	73.816	-0.133	0.138
-398.179	530.082	0.072	0.167
-397.165	143.431	0.068	0.089
-396.150	106.315	-0.097	-0.114
-395.136	192.773	-0.064	-0.095
-394.121	-88.937	0.259	0.076
-393.106	-200.000	0.006	-0.107
-392.092	-85.101	-0.241	-0.075
-391.077	-55.821	0.133	0.059
-390.063	-1.055	-0.045	-0.031
-389.048	-27.627	0.418	-0.240
-388.033	800.000	0.049	-0.146
-387.019	-125.301	0.188	0.028
-386.004	-49.843	0.177	0.083
-384.990	290.711	0.239	0.430
-383.975	-76.507	-0.108	0.038
-382.960	-147.377	0.210	0.018
-381.946	-121.055	0.271	-0.045
-380.931	109.953	0.153	-0.182
-379.917	273.405	0.044	-0.076
-378.902	91.889	-0.196	-0.218
-377.888	-48.924	0.229	-0.108
-376.873	-198.081	-0.397	0.002
-375.858	800.000	-0.079	0.280
-374.844	387.260	0.225	0.460
-373.829	-95.521	-0.425	0.113
-372.815	-66.471	0.102	0.040
-371.800	-38.415	-0.340	0.178
-370.785	-159.886	-0.174	-0.009
-369.771	329.397	-0.041	0.078
-368.756	800.000	-0.006	0.023
-367.742	800.000	-0.044	0.175
-366.727	-200.000	-0.046	0.311
-365.712	-23.435	-0.254	-0.151
-364.698	156.054	0.255	-0.347
-363.683	-45.978	-0.273	-0.133
-362.669	216.607	0.108	-0.170
-361.654	800.000	-0.073	-0.218
-360.639	800.000	0.113	0.371
-359.625	-110.686	-0.434	-0.088
-358.610	-28.699	-0.283	0.161
-357.596	-155.628	-0.313	-0.020
-356.581	109.274	0.095	0.113
-355.566	49.558	-0.099	0.092
-354.552	95.380	0.151	0.170
-353.537	-200.000	0.000	-0.221
-352.523	-200.000	0.004	-0.091
-351.508	-200.000	0.044	-0.370
-350.493	13.689	-0.161	-0.124
-349.479	193.741	0.087	0.131
-348.464	-153.811	-0.036	-0.002
-347.450	563.856	0.038	0.092
-346.435	63.665	-0.215	0.213
-345.420	151.224	-0.148	0.198
-344.406	29.547	-0.046	-0.039
-343.391	-128.208	-0.272	-0.038
-342.377	-82.792	-0.386	0.123
-341.362	-200.000	0.045	-0.280
-340.348	131.633	0.207	0.263
-339.333	-72.745	0.211	-0.077
-338.318	-59.684	0.170	-0.072
-337.304	-200.000	-0.009	-0.245
-336.289	-200.000	-0.007	-0.104
-335.275	490.430	0.121	-0.272
-334.260	-178.295	-0.298	-0.007
-333.245	-9.877	-0.366	0.240
-332.231	800.000	0.031	0.126
-331.216	-1.410	-0.053	-0.037
-330.202	146.428	0.132	-0.175
-329.187	-200.000	0.018	-0.081
-328.172	-50.522	-0.246	0.114
-327.158	215.112	-0.065	-0.102
-326.143	-94.234	0.359	0.097
-325.129	800.000	-0.012	-0.042
-324.114	800.000	0.053	0.187
-323.099	-31.094	0.297	0.165
-322.085	33.777	0.128	0.109
-321.070	800.000	-0.074	0.258
-320.056	-180.811	-0.418	-0.008
-319.041	800.000	0.119	0.359
-318.026	8.880	0.296	0.220
-317.012	-200.000	0.050	0.306
-315.997	-67.563	-0.198	0.077
-314.983	-90.759	0.242	-0.069
-313.968	-200.000	-0.013	0.125
-312.953	762.383	0.178	0.476
-311.939	-200.000	0.018	0.103
-310.924	800.000	-0.106	0.367
-309.910	-200.000	-0.002	0.125
-308.895	733.613	0.103	0.272
-307.880	-45.028	-0.419	-0.205
-306.866	-156.667	0.226	-0.014
-305.851	800.000	0.063	-0.210
-304.837	-61.814	-0.266	0.110
-303.822	800.000	-0.046	-0.192
-302.807	-92.158	0.289	0.081
-301.793	-200.000	-0.006	0.115
-300.778	-76.824	-0.141	0.049
-299.764	-123.169	0.136	-0.021
-298.749	-82.387	0.236	-0.076
-297.735	422.341	0.029	0.061
-296.720	-64.675	0.197	-0.079
-295.705	161.880	-0.181	0.250
-294.691	-91.539	0.254	-0.071
-293.676	-76.562	-0.065	0.023
-292.662	-16.649	0.309	-0.192
-291.647	-168.239	-0.291	0.011
-290.632	-97.149	0.200	0.051
-289.618	-112.725	-0.198	0.039
-288.603	-25.503	0.097	0.056
-287.589	-141.315	0.256	-0.026
-286.574	-23.320	-0.094	0.056
-285.559	-78.702	0.179	-0.060
-284.545	21.869	-0.130	-0.105
-283.530	-86.512	0.132	0.040
-282.516	235.113	-0.162	-0.263
-281.501	472.520	0.141	-0.312
-280.486	-60.488	0.240	-0.101
-279.472	-124.799	0.141	0.021
-278.457	800.000	0.066	0.252
-277.443	-33.710	-0.174	-0.094
-276.428	-26.649	-0.111	-0.064
-275.413	50.709	0.198	0.185
-274.399	-86.472	0.185	0.056
-273.384	-200.000	0.009	0.214
-272.370	-9.822	0.264	0.173
-271.355	-41.461	-0.222	-0.113
-270.340	800.000	-0.088	-0.308
-269.326	119.983	0.156	-0.191
-268.311	-17.181	0.162	-0.101
-267.297	240.753	-0.121	0.199
-266.282	51.757	0.135	-0.127
-265.267	97.785	0.175	-0.198
-264.253	-116.230	0.421	0.077
-263.238	35.479	-0.128	0.111
-262.224	-165.712	0.370	-0.016
-261.209	-41.324	0.242	0.123
-260.195	365.792	0.161	0.318
-259.180	-200.000	0.010	-0.052
-258.165	-105.786	-0.378	0.084
-257.151	800.000	0.056	0.190
-256.136	-76.781	-0.321	0.111
-255.122	-84.678	0.398	0.123
-254.107	-153.596	0.175	0.012
-253.092	231.806	-0.071	0.115
-252.078	-200.000	0.013	0.268
-251.063	33.605	0.128	0.109
-250.049	-194.862	-0.465	-0.004
-249.034	-200.000	-0.050	-0.373
-248.019	103.558	0.130	-0.150
-247.005	-118.442	-0.337	-0.059
-245.990	-97.072	0.326	0.084
-244.976	-21.975	-0.186	-0.111
-243.961	-200.000	-0.014	-0.146
-242.946	315.776	0.121	-0.224
-241.932	162.184	-0.103	0.142
-240.917	47.596	0.058	-0.053
-239.903	-200.000	-0.014	0.104
-238.888	-44.707	0.027	0.013
-237.873	-18.024	0.102	-0.063
-236.859	-51.300	-0.301	0.138
-235.844	-95.849	-0.281	-0.074
-234.830	-62.807	-0.129	-0.052
-233.815	4.449	0.133	0.096
-232.800	-167.446	0.081	0.003
-231.786	-95.805	0.300	0.079
-230.771	-63.827	-0.163	0.065
-229.757	49.959	-0.187	0.173
-228.742	800.000	0.059	-0.222
-227.727	-146.501	-0.243	0.021
-226.713	-142.181	-0.048	-0.005
-225.698	80.097	0.202	-0.213
-224.684	800.000	0.045	-0.186
-223.669	-200.000	-0.038	-0.247
-222.655	546.439	0.173	-0.407
-221.640	-156.122	0.294	-0.018
-220.625	800.000	-0.075	-0.224
-219.611	-148.366	0.135	0.011
-218.596	484.962	-0.117	0.263
-217.582	131.563	-0.209	0.264
-216.567	-91.985	0.142	0.040
-215.552	-5.740	-0.191	0.128
-214.538	-200.000	-0.006	-0.135
-213.523	82.274	0.160	0.171
-212.509	407.212	0.134	0.278
-211.494	-200.000	-0.027	-0.170
-210.479	186.546	0.278	-0.406
-209.465	75.607	-0.166	0.172
-208.450	-15.022	-0.046	-0.029
-207.436	143.033	-0.096	-0.125
-206.421	-96.408	0.387	0.100
-205.406	-126.481	0.247	0.036
-204.392	-90.077	0.399	0.114
-203.377	-200.000	0.008	0.693
-202.363	-151.265	0.143	-0.010
-201.348	-146.487	-0.033	-0.003
-200.333	419.389	0.092	0.194
-199.319	17.896	0.201	0.157
-198.304	-51.411	-0.240	0.110
-197.290	800.000	-0.060	0.249
-196.275	15.535	0.146	0.112
-195.260	-103.441	0.133	0.031
-194.246	-53.991	0.093	0.041
-193.231	-104.865	0.217	0.049
-192.217	-200.000	0.036	-0.272
-191.202	-61.242	0.086	0.036
-190.187	800.000	-0.043	-0.141
-189.173	-200.000	0.016	0.097
-188.158	-159.165	-0.171	0.009
-187.144	44.767	0.417	-0.377
-186.129	-200.000	-0.002	-0.215
-185.114	110.913	0.186	-0.219
-184.100	77.231	-0.147	0.153
-183.085	15.912	-0.089	0.068
-182.071	276.247	0.193	0.336
-181.056	-200.000	-0.005	-0.124
-180.042	-200.000	-0.122	0.595
-179.027	800.000	0.021	-0.077
-178.012	23.435	0.209	-0.169
-176.998	-76.680	0.207	-0.071
-175.983	563.056	-0.071	-0.169
-174.969	-54.277	-0.066	0.029
-173.954	-85.768	-0.040	0.012
-172.939	-117.765	0.199	-0.035
-171.925	258.703	0.060	-0.102
-170.910	-156.651	-0.247	-0.015
-169.896	334.487	0.125	-0.238
-168.881	311.085	0.075	-0.137
-167.866	251.998	0.019	-0.032
-166.852	-78.928	-0.196	-0.065
-165.837	26.282	-0.166	0.136
-164.823	-200.000	-0.001	0.063
-163.808	-115.295	-0.145	-0.027
-162.793	800.000	-0.022	-0.072
-161.779	800.000	-0.060	-0.188
-160.764	75.545	0.231	-0.239
-159.750	-107.928	-0.142	-0.030
-158.735	-76.343	0.185	0.064
-157.720	800.000	-0.042	0.122
-156.706	228.363	0.127	-0.203
-155.691	-200.000	0.064	0.286
-154.677	-145.569	-0.127	-0.011
-153.662	-200.000	0.039	-0.251
-152.647	105.786	-0.191	-0.221
-151.633	800.000	-0.012	0.050
-150.618	139.778	0.125	0.162
-149.604	-95.636	0.337	0.088
-148.589	84.026	-0.090	0.096
-147.574	-200.000	-0.028	-0.209
-146.560	-200.000	-0.010	-0.334
-145.545	-15.758	-0.243	-0.152
-144.531	-71.418	0.374	0.137
-143.516	-85.604	-0.148	-0.045
-142.502	26.201	-0.365	0.298
-141.487	-13.229	-0.154	-0.098
-140.472	176.550	0.167	-0.237
-139.458	242.773	0.023	0.037
-138.443	800.000	-0.042	-0.122
-137.429	199.410	0.166	0.249
-136.414	-83.684	-0.099	-0.031
-135.399	98.513	-0.065	-0.073
-134.385	-72.900	0.305	0.110
-133.370	293.888	0.098	0.176
-132.356	-180.413	0.247	-0.005
-131.341	-147.097	0.313	-0.026
-130.326	557.040	0.090	-0.212
-129.312	-34.263	0.183	0.098
-128.297	-27.503	0.251	0.143
-127.283	12.851	-0.281	-0.213
-126.268	-54.240	0.273	0.122
-125.253	129.072	-0.123	0.154
-124.239	127.503	0.181	0.225
-123.224	738.910	0.143	0.375
-122.210	800.000	0.031	-0.129
-121.195	20.368	-0.027	0.021
