DTS Sentinel unit serial number:	SN413079Multiplexer serial number:	ORYXHardware model number:	OX4-SRSoftware version number:	ORYX F/W v4.00 Oryx Data Collector v3.7.2.0data status	okinstallation	princeton_trtdifferential loss correction	single-endedforward channel	channel 1reverse channel	N/Adate	2019/09/14time	07:38:35forward acquisition time	60.00reverse acquisition time	0.00gamma	496.2192k internal	0.2336k external	0.2336temperature offset calibration	1.0077default loss term (dB/km)	0.3790temperature slope calibration	1.0000multiplexer offset coefficient	1.0000multiplexer slope coefficient	1.0000fibre end	0.00T internal ref (°C)	26.25T ext. ref 1 (°C)	3.47T ext. ref 2 (°C)	21.69length (m)	temperature (°C)	Stokes	anti-Stokes-747.200	-104.872	0.250	-0.058
-746.185	-178.510	-0.133	0.003
-745.171	464.633	-0.014	-0.032
-744.156	397.476	-0.232	0.487
-743.142	-85.265	0.347	0.109
-742.127	-45.969	-0.224	-0.111
-741.112	47.667	0.110	-0.103
-740.098	-41.573	-0.361	0.187
-739.083	372.034	0.058	0.118
-738.069	-200.000	-0.012	0.142
-737.054	71.151	-0.071	-0.074
-736.039	-50.012	-0.177	-0.084
-735.025	-10.823	0.233	0.155
-734.010	800.000	0.039	0.160
-732.996	-104.457	-0.078	0.018
-731.981	-110.135	-0.389	-0.082
-730.966	-128.523	-0.307	0.044
-729.952	-200.000	-0.010	-0.382
-728.937	64.346	0.208	0.210
-727.923	-61.782	-0.186	0.078
-726.908	-115.185	-0.087	0.017
-725.894	-6.306	-0.135	0.092
-724.879	140.865	0.175	-0.232
-723.864	-61.667	-0.051	0.022
-722.850	147.667	-0.106	0.143
-721.835	-152.639	0.122	0.009
-720.821	435.503	0.114	-0.250
-719.806	-200.000	0.031	-0.215
-718.791	-3.632	0.162	-0.113
-717.777	-83.941	-0.172	-0.055
-716.762	-200.000	0.036	-0.229
-715.748	184.079	0.223	0.331
-714.733	272.171	-0.119	0.211
-713.718	-40.238	0.117	-0.061
-712.704	172.556	-0.128	0.185
-711.689	298.265	-0.225	-0.415
-710.675	-171.953	-0.216	-0.007
-709.660	124.205	-0.068	-0.085
-708.645	-146.643	-0.175	-0.015
-707.631	-200.000	-0.021	-0.184
-706.616	173.747	-0.059	0.085
-705.602	35.338	0.196	0.172
-704.587	-12.634	-0.092	-0.060
-703.572	-200.000	-0.034	0.185
-702.558	-99.818	-0.301	0.075
-701.543	157.925	-0.104	-0.144
-700.529	278.127	0.116	0.208
-699.514	-200.000	-0.033	-0.385
-698.499	19.117	-0.229	-0.184
-697.485	-200.000	-0.052	-0.393
-696.470	-147.806	0.153	-0.013
-695.456	147.591	-0.157	-0.213
-694.441	348.683	-0.213	-0.421
-693.426	-114.936	0.102	-0.019
-692.412	-188.727	-0.235	-0.003
-691.397	-200.000	-0.021	-0.124
-690.383	-107.476	0.048	-0.011
-689.368	24.912	-0.337	-0.280
-688.354	-200.000	0.005	0.075
-687.339	6.925	-0.306	-0.228
-686.324	-85.421	0.460	0.144
-685.310	-200.000	0.003	0.085
-684.295	-200.000	-0.034	-0.152
-683.281	469.266	0.062	0.138
-682.266	481.499	-0.111	-0.252
-681.251	336.893	-0.103	0.199
-680.237	-62.617	0.086	0.036
-679.222	-49.431	-0.093	0.044
-678.208	108.241	0.109	0.130
-677.193	800.000	0.026	-0.089
-676.178	-177.429	-0.269	0.007
-675.164	-88.318	-0.230	-0.069
-674.149	-200.000	0.030	0.475
-673.135	548.610	0.142	0.341
-672.120	-200.000	-0.009	-0.252
-671.105	140.222	0.129	-0.170
-670.091	-200.000	-0.008	-0.201
-669.076	-67.244	0.158	-0.062
-668.062	-4.285	-0.255	-0.177
-667.047	58.293	-0.258	0.253
-666.032	800.000	-0.157	-0.498
-665.018	-12.257	0.364	0.238
-664.003	-127.324	0.168	-0.025
-662.989	487.033	0.090	0.206
-661.974	253.705	-0.141	0.241
-660.959	382.483	0.095	-0.196
-659.945	-107.781	0.316	-0.069
-658.930	513.529	-0.070	0.163
-657.916	800.000	0.041	0.161
-656.901	34.087	-0.131	0.114
-655.886	-109.567	0.130	-0.028
-654.872	-43.275	0.136	-0.069
-653.857	-72.801	0.169	-0.062
-652.843	800.000	-0.114	-0.375
-651.828	-200.000	0.020	0.314
-650.814	92.338	0.139	-0.156
-649.799	800.000	-0.057	-0.233
-648.784	201.383	-0.050	0.076
-647.770	-117.909	-0.173	-0.031
-646.755	191.242	-0.235	-0.354
-645.741	21.452	-0.173	0.141
-644.726	-117.328	-0.233	0.042
-643.711	-34.856	-0.123	-0.067
-642.697	-75.233	-0.276	-0.098
-641.682	-200.000	-0.002	-0.126
-640.668	82.154	0.225	0.244
-639.653	-91.322	0.300	-0.086
-638.638	-137.683	0.210	0.024
-637.624	249.851	0.072	-0.123
-636.609	-20.745	-0.125	-0.077
-635.595	214.564	-0.298	-0.472
-634.580	-200.000	0.050	-0.288
-633.565	251.755	0.118	0.201
-632.551	800.000	-0.046	-0.137
-631.536	722.400	-0.166	0.442
-630.522	128.732	0.075	-0.096
-629.507	-168.515	0.247	-0.009
-628.492	800.000	-0.053	0.215
-627.478	-95.090	0.114	0.031
-626.463	-200.000	-0.034	0.190
-625.449	-149.632	-0.133	0.010
-624.434	105.224	-0.155	-0.184
-623.419	800.000	-0.023	-0.098
-622.405	354.290	-0.129	0.256
-621.390	-10.003	-0.281	-0.187
-620.376	-200.000	0.004	-0.113
-619.361	163.679	0.160	-0.225
-618.346	294.220	0.169	0.308
-617.332	800.000	-0.040	-0.123
-616.317	-200.000	0.015	-0.244
-615.303	800.000	-0.069	0.216
-614.288	-173.737	-0.274	0.008
-613.273	64.059	0.126	0.126
-612.259	-107.411	-0.223	0.049
-611.244	44.583	0.301	0.277
-610.230	-135.333	0.266	0.032
-609.215	-7.625	0.190	-0.128
-608.201	155.137	0.105	-0.144
-607.186	-82.792	0.166	-0.054
-606.171	-154.244	-0.384	-0.026
-605.157	25.668	-0.082	-0.069
-604.142	-52.667	-0.160	0.074
-603.128	-200.000	0.003	0.108
-602.113	-152.403	-0.079	-0.006
-601.098	193.834	-0.106	-0.160
-600.084	168.154	-0.121	-0.172
-599.069	-45.033	-0.146	-0.073
-598.055	242.188	0.224	-0.375
-597.040	-108.314	0.163	0.035
-596.025	447.660	-0.079	-0.173
-595.011	-200.000	0.004	0.036
-593.996	464.022	0.147	-0.328
-592.982	-200.000	-0.002	0.217
-591.967	-143.097	-0.264	-0.025
-590.952	2.182	-0.204	-0.147
-589.938	104.843	0.206	0.242
-588.923	-200.000	0.054	-0.259
-587.909	-195.032	-0.237	-0.002
-586.894	-92.559	-0.137	-0.039
-585.879	800.000	-0.048	-0.146
-584.865	-87.546	-0.280	-0.085
-583.850	114.926	-0.189	-0.231
-582.836	268.881	0.155	0.272
-581.821	703.971	-0.081	-0.212
-580.806	229.506	0.135	0.219
-579.792	-50.179	-0.032	-0.015
-578.777	12.104	0.270	-0.207
-577.763	-44.565	-0.174	0.087
-576.748	-80.230	-0.220	-0.073
-575.733	-200.000	-0.350	-0.001
-574.719	4.838	-0.163	0.119
-573.704	-123.205	0.084	-0.013
-572.690	-111.642	0.165	0.033
-571.675	244.596	-0.083	0.138
-570.661	142.330	0.166	0.219
-569.646	800.000	-0.065	-0.262
-568.631	-200.000	-0.028	0.165
-567.617	415.952	0.097	0.205
-566.602	-55.448	-0.246	0.110
-565.588	-40.760	0.290	-0.150
-564.573	-139.576	0.326	-0.035
-563.558	-111.783	-0.059	0.012
-562.544	437.289	-0.063	0.138
-561.529	-107.183	0.099	0.022
-560.515	800.000	0.078	-0.278
-559.500	163.250	0.130	0.183
-558.485	226.563	-0.083	-0.134
-557.471	-200.000	-0.051	-0.301
-556.456	235.285	0.236	-0.389
-555.442	-123.633	0.416	0.066
-554.427	-114.017	0.079	-0.015
-553.412	53.702	0.167	-0.160
-552.398	-18.722	-0.117	0.072
-551.383	-75.765	-0.289	-0.102
-550.369	-177.239	-0.195	-0.005
-549.354	1.039	0.271	0.194
-548.339	32.428	-0.091	-0.078
-547.325	-107.175	-0.189	-0.042
-546.310	60.062	-0.230	0.226
-545.296	800.000	0.076	0.251
-544.281	-140.766	-0.475	-0.049
-543.266	-200.000	-0.003	-0.027
-542.252	-200.000	0.035	0.240
-541.237	-125.120	0.250	-0.038
-540.223	-13.560	0.301	0.194
-539.208	289.420	-0.045	-0.082
-538.193	488.520	-0.065	-0.147
-537.179	75.432	0.087	0.092
-536.164	123.575	-0.241	-0.301
-535.150	-200.000	0.015	0.230
-534.135	-72.882	-0.259	0.095
-533.121	132.337	0.168	-0.216
-532.106	-73.840	0.194	-0.070
-531.091	-38.049	-0.191	-0.101
-530.077	-55.120	0.110	0.050
-529.062	800.000	0.112	0.322
-528.048	622.385	-0.109	-0.274
-527.033	-51.629	0.067	0.031
-526.018	800.000	-0.028	0.081
-525.004	-200.000	-0.028	0.258
-523.989	62.881	-0.179	0.179
-522.975	303.427	0.015	0.027
-521.960	554.751	0.125	0.300
-520.945	10.327	0.197	-0.149
-519.931	-158.039	0.118	-0.007
-518.916	398.411	-0.041	-0.086
-517.902	-200.000	0.017	-0.377
-516.887	-43.326	-0.068	0.034
-515.872	-200.000	-0.061	-0.317
-514.858	34.351	-0.126	0.110
-513.843	139.496	-0.066	-0.087
-512.829	75.805	0.139	-0.146
-511.814	-200.000	-0.073	-0.366
-510.799	12.173	0.051	-0.039
-509.785	-117.703	0.042	0.008
-508.770	-59.135	-0.290	0.124
-507.756	-70.256	-0.219	0.083
-506.741	-47.011	0.185	-0.090
-505.726	800.000	0.083	0.232
-504.712	-139.951	0.110	0.012
-503.697	50.647	0.096	0.090
-502.683	-61.043	-0.105	0.044
-501.668	800.000	0.058	0.181
-500.653	-107.787	-0.050	-0.011
-499.639	-137.507	-0.227	0.025
-498.624	-6.680	0.298	-0.201
-497.610	-200.000	0.023	-0.199
-496.595	-35.110	0.321	-0.174
-495.581	24.789	0.205	-0.169
-494.566	800.000	-0.053	-0.218
-493.551	402.460	0.120	-0.250
-492.537	-51.346	-0.239	0.111
-491.522	-52.661	0.283	0.130
-490.508	-44.116	-0.105	-0.052
-489.493	-165.984	-0.271	-0.011
-488.478	-32.373	0.209	0.116
-487.464	178.925	-0.138	0.201
-486.449	253.547	-0.124	-0.211
-485.435	21.529	0.163	0.132
-484.420	-200.000	0.007	0.142
-483.405	495.820	0.125	0.286
-482.391	-0.384	0.297	-0.210
-481.376	-200.000	-0.002	0.145
-480.362	-200.000	-0.009	0.097
-479.347	71.525	-0.044	-0.046
-478.332	800.000	0.091	0.259
-477.318	-74.097	0.063	-0.023
-476.303	-195.675	0.429	0.003
-475.289	447.044	0.118	-0.258
-474.274	-56.895	-0.281	0.123
-473.259	344.369	-0.156	0.305
-472.245	-143.279	-0.149	0.014
-471.230	800.000	0.044	-0.164
-470.216	-78.911	-0.138	-0.047
-469.201	244.836	0.195	0.326
-468.186	-110.850	-0.183	0.037
-467.172	800.000	0.037	0.115
-466.157	55.751	-0.093	-0.090
-465.143	800.000	-0.123	-0.363
-464.128	20.027	-0.106	-0.085
-463.113	183.617	-0.099	-0.145
-462.099	-200.000	-0.010	-0.230
-461.084	30.075	-0.332	-0.281
-460.070	618.824	-0.014	-0.035
-459.055	-41.463	0.213	0.109
-458.040	800.000	0.027	0.096
-457.026	47.216	-0.111	-0.103
-456.011	56.505	-0.114	-0.110
-454.997	-200.000	0.033	-0.165
-453.982	240.635	0.145	-0.240
-452.968	-7.696	0.263	0.176
-451.953	171.198	0.125	0.179
-450.938	202.367	0.100	0.153
-449.924	5.821	0.173	-0.127
-448.909	-200.000	0.051	0.368
-447.895	-200.000	0.011	0.194
-446.880	-200.000	0.010	0.105
-445.865	800.000	0.063	0.239
-444.851	-32.909	0.250	-0.138
-443.836	50.245	-0.058	-0.054
-442.822	-79.385	0.407	-0.137
-441.807	-77.617	-0.166	0.057
-440.792	-0.149	-0.247	0.175
-439.778	800.000	-0.054	-0.222
-438.763	-166.268	-0.296	0.012
-437.749	75.044	0.262	-0.274
-436.734	-59.118	0.134	0.057
-435.719	-200.000	-0.055	0.361
-434.705	67.034	-0.076	-0.077
-433.690	-44.312	0.190	-0.094
-432.676	-88.286	-0.270	-0.080
-431.661	48.117	0.212	-0.197
-430.646	-68.968	0.149	-0.057
-429.632	-200.000	0.028	-0.165
-428.617	154.903	0.241	0.329
-427.603	-115.231	-0.238	-0.045
-426.588	547.882	0.078	-0.186
-425.573	-89.967	0.288	0.083
-424.559	800.000	0.011	0.033
-423.544	-71.475	-0.329	0.122
-422.530	92.507	-0.172	-0.193
-421.515	-21.502	0.088	0.053
-420.500	800.000	-0.099	0.301
-419.486	-185.622	-0.216	0.003
-418.471	-54.645	0.337	-0.151
-417.457	-5.000	0.166	0.114
-416.442	446.068	-0.057	-0.124
-415.428	343.713	-0.133	-0.259
-414.413	-137.806	0.101	-0.011
-413.398	72.902	0.135	0.140
-412.384	-8.258	0.095	0.064
-411.369	-68.637	-0.095	0.036
-410.355	-200.000	0.007	-0.238
-409.340	800.000	-0.077	-0.244
-408.325	-200.000	0.078	0.353
-407.311	-6.168	-0.284	-0.192
-406.296	-200.000	-0.034	-0.160
-405.282	-15.366	-0.193	-0.123
-404.267	-73.683	0.321	0.116
-403.252	216.566	-0.157	-0.248
-402.238	-200.000	0.036	-0.164
-401.223	92.742	0.120	-0.134
-400.209	10.291	0.136	0.102
-399.194	490.741	0.124	-0.282
-398.179	800.000	0.065	-0.178
-397.165	800.000	0.035	-0.107
-396.150	-200.000	0.010	0.187
-395.136	759.253	0.022	0.060
-394.121	252.758	-0.175	-0.295
-393.106	223.607	-0.119	0.190
-392.092	-96.440	0.231	-0.060
-391.077	800.000	-0.029	0.123
-390.063	-34.573	-0.458	-0.249
-389.048	197.866	-0.055	-0.083
-388.033	-200.000	0.042	0.275
-387.019	-53.022	-0.243	0.111
-386.004	-149.904	0.196	-0.015
-384.990	-124.287	0.207	-0.032
-383.975	-48.428	0.116	0.055
-382.960	41.518	0.133	0.119
-381.946	-1.392	0.202	0.141
-380.931	-200.000	-0.004	0.108
-379.917	-33.564	0.195	0.107
-378.902	800.000	0.039	0.151
-377.888	16.365	-0.121	-0.094
-376.873	378.772	0.156	0.316
-375.858	180.333	0.108	0.157
-374.844	-200.000	-0.054	0.286
-373.829	23.529	0.228	0.186
-372.815	-200.000	0.053	0.376
-371.800	100.294	-0.186	0.213
-370.785	-74.995	-0.096	0.034
-369.771	-28.569	0.118	-0.067
-368.756	800.000	0.029	-0.092
-367.742	-140.937	-0.399	-0.041
-366.727	137.891	-0.072	-0.093
-365.712	133.681	-0.176	-0.225
-364.698	82.839	-0.374	-0.402
-363.683	-189.033	-0.144	0.002
-362.669	182.451	0.047	0.069
-361.654	-108.262	-0.039	0.008
-360.639	-200.000	0.009	0.054
-359.625	-21.364	0.110	0.067
-358.610	-75.677	-0.311	0.109
-357.596	45.914	-0.221	-0.203
-356.581	198.636	-0.105	-0.159
-355.566	-62.177	-0.184	-0.076
-354.552	-200.000	-0.048	-0.226
-353.537	31.350	-0.130	-0.110
-352.523	-149.900	-0.286	0.022
-351.508	-200.000	0.041	0.290
-350.493	-200.000	-0.036	-0.283
-349.479	-194.246	-0.414	-0.003
-348.464	191.664	0.066	0.099
-347.450	-200.000	0.017	0.202
-346.435	-2.803	-0.245	-0.169
-345.420	68.371	-0.230	-0.233
-344.406	186.973	0.138	0.203
-343.391	-160.740	0.182	-0.010
-342.377	-113.350	-0.363	-0.070
-341.362	101.121	-0.212	0.244
-340.348	-78.633	-0.054	0.018
-339.333	-182.083	-0.107	-0.002
-338.318	48.573	-0.070	0.065
-337.304	237.975	0.073	0.119
-336.289	141.192	0.215	-0.281
-335.275	800.000	0.056	0.203
-334.260	274.539	-0.202	0.353
-333.245	-200.000	-0.021	0.186
-332.231	-185.763	0.159	0.002
-331.216	178.617	0.083	-0.119
-330.202	-200.000	-0.019	0.096
-329.187	800.000	0.166	0.506
-328.172	120.770	-0.143	-0.175
-327.158	30.506	-0.159	-0.134
-326.143	-86.478	-0.167	0.051
-325.129	-72.703	-0.226	-0.082
-324.114	-38.575	-0.219	-0.114
-323.099	182.918	0.158	0.230
-322.085	-78.121	0.263	-0.089
-321.070	369.090	0.128	-0.256
-320.056	-36.827	-0.308	0.163
-319.041	-45.736	-0.087	0.042
-318.026	800.000	-0.095	-0.310
-317.012	46.914	0.285	-0.261
-315.997	262.322	0.053	0.091
-314.983	-200.000	-0.040	0.241
-313.968	-41.980	-0.539	0.273
-312.953	-6.373	0.016	0.011
-311.939	-136.497	-0.123	0.014
-310.924	1.553	0.263	-0.187
-309.910	60.245	0.259	0.253
-308.895	-116.362	-0.246	-0.045
-307.880	42.926	-0.079	-0.071
-306.866	-163.229	-0.180	0.009
-305.851	-128.720	0.166	0.023
-304.837	-102.502	0.279	0.066
-303.822	-30.279	0.127	0.071
-302.807	205.856	-0.128	0.197
-301.793	-200.000	-0.008	-0.305
-300.778	-181.115	0.351	0.007
-299.764	14.103	0.387	-0.298
-298.749	-200.000	0.025	-0.134
-297.735	800.000	-0.134	-0.422
-296.720	-75.744	-0.126	0.044
-295.705	-154.772	-0.259	-0.017
-294.691	94.002	0.182	0.204
-293.676	-108.977	0.432	0.091
-292.662	5.552	0.099	-0.073
-291.647	108.784	0.073	0.086
-290.632	70.115	0.170	0.173
-289.618	49.136	0.251	-0.233
-288.603	-60.402	-0.322	-0.135
-287.589	-200.000	0.002	-0.015
-286.574	800.000	-0.038	-0.126
-285.559	-200.000	-0.010	0.173
-284.545	-147.367	-0.115	0.010
-283.530	228.330	-0.058	-0.093
-282.516	498.679	-0.115	-0.262
-281.501	-75.009	0.152	0.054
-280.486	210.441	0.093	0.145
-279.472	-6.643	-0.140	0.094
-278.457	-171.143	0.167	-0.006
-277.443	-200.000	-0.026	0.117
-276.428	445.104	-0.083	0.181
-275.413	158.518	-0.174	0.238
-274.399	142.874	0.117	0.153
-273.384	-127.183	-0.331	-0.048
-272.370	-29.594	-0.163	-0.092
-271.355	-10.521	-0.190	0.124
-270.340	-21.003	0.139	0.084
-269.326	88.969	0.135	-0.148
-268.311	-200.000	0.027	-0.145
-267.297	-200.000	0.007	0.066
-266.282	-150.860	-0.095	0.007
-265.267	-8.661	-0.111	-0.074
-264.253	99.604	0.370	0.422
-263.238	-30.724	-0.207	0.116
-262.224	-24.667	0.214	-0.126
-261.209	7.610	0.271	0.200
-260.195	11.350	-0.150	-0.113
-259.180	-200.000	0.063	-0.299
-258.165	280.883	-0.113	-0.199
-257.151	-83.255	0.206	-0.065
-256.136	8.370	-0.234	-0.173
-255.122	800.000	0.101	0.280
-254.107	-102.157	-0.213	-0.050
-253.092	395.994	0.049	0.101
-252.078	-200.000	0.015	-0.117
-251.063	-164.335	0.167	0.008
-250.049	-200.000	-0.001	0.095
-249.034	-169.887	0.118	-0.004
-248.019	14.370	0.055	-0.042
-247.005	-120.270	0.259	-0.044
-245.990	800.000	-0.106	-0.336
-244.976	-165.511	0.370	-0.016
-243.961	159.125	0.129	0.177
-242.946	102.435	-0.315	0.363
-241.932	800.000	0.044	-0.142
-240.917	-67.083	-0.106	0.041
-239.903	-11.413	-0.195	-0.126
-238.888	-200.000	-0.012	0.078
-237.873	18.970	-0.208	0.164
-236.859	-200.000	0.005	-0.047
-235.844	786.676	-0.072	0.194
-234.830	-21.561	-0.246	0.148
-233.815	45.374	0.320	0.291
-232.800	-72.278	0.131	-0.048
-231.786	-33.743	0.166	-0.090
-230.771	712.197	0.106	0.275
-229.757	800.000	-0.085	0.235
-228.742	800.000	0.035	-0.107
-227.727	129.300	0.083	0.104
-226.713	-102.984	-0.185	0.043
-225.698	69.304	-0.103	0.105
-224.684	-200.000	0.021	-0.167
-223.669	-22.027	0.243	-0.145
-222.655	-9.801	0.058	-0.038
-221.640	-82.213	0.132	-0.042
-220.625	-200.000	-0.004	-0.184
-219.611	151.142	0.124	-0.166
-218.596	46.073	-0.217	-0.198
-217.582	-200.000	0.015	0.083
-216.567	196.386	0.172	0.258
-215.552	195.890	0.122	-0.183
-214.538	-40.066	0.215	0.110
-213.523	393.497	0.078	-0.160
-212.509	-91.062	0.271	0.076
-211.494	19.346	-0.372	0.294
-210.479	-19.212	-0.110	-0.067
-209.465	17.685	0.052	-0.040
-208.450	-200.000	-0.015	-0.201
-207.436	-144.647	0.268	0.024
-206.421	248.600	0.137	0.228
-205.406	-112.484	-0.192	-0.038
-204.392	253.121	0.161	0.270
-203.377	800.000	0.042	-0.168
-202.363	9.446	0.301	0.224
-201.348	276.373	-0.050	-0.087
-200.333	-200.000	-0.007	0.088
-199.319	-133.822	-0.099	-0.012
-198.304	-200.000	0.009	0.132
-197.290	2.999	-0.074	0.053
-196.275	800.000	-0.032	0.114
-195.260	-162.036	0.170	0.008
-194.246	-57.554	0.179	-0.077
-193.231	715.529	-0.072	-0.187
-192.217	-60.814	0.198	-0.083
-191.202	-127.159	-0.257	-0.037
-190.187	-66.942	-0.133	0.051
-189.173	-60.175	0.161	-0.067
-188.158	226.692	0.085	-0.136
-187.144	-37.149	0.260	-0.137
-186.129	800.000	-0.085	0.273
-185.114	110.320	0.054	0.063
-184.100	249.562	0.141	0.235
-183.085	-75.651	-0.087	-0.030
-182.071	-200.000	-0.052	0.330
-181.056	-148.466	-0.255	-0.021
-180.042	305.445	0.157	-0.286
-179.027	800.000	0.136	0.512
-178.012	633.280	-0.070	0.174
-176.998	-200.000	-0.066	-0.414
-175.983	-200.000	-0.090	-0.462
-174.969	-47.132	0.075	-0.036
-173.954	-200.000	0.039	0.299
-172.939	373.317	-0.061	0.121
-171.925	319.220	0.139	0.259
-170.910	411.989	-0.071	0.148
-169.896	76.672	0.076	0.079
-168.881	249.325	0.015	-0.024
-167.866	61.841	-0.263	0.257
-166.852	-12.540	-0.052	0.033
-165.837	-200.000	-0.004	-0.066
-164.823	-124.555	-0.258	0.039
-163.808	56.130	0.504	0.480
-162.793	-200.000	-0.013	0.317
-161.779	-31.433	0.142	-0.078
-160.764	331.782	-0.066	0.125
-159.750	308.087	-0.042	-0.077
-158.735	-48.909	0.162	-0.076
-157.720	-139.875	0.169	-0.018
-156.706	56.360	-0.304	-0.290
-155.691	-200.000	-0.004	0.105
-154.677	39.217	0.087	-0.077
-153.662	-200.000	0.027	-0.286
-152.647	28.816	0.068	-0.056
-151.633	-96.502	0.255	0.066
-150.618	-200.000	-0.021	0.208
-149.604	-16.629	0.067	-0.042
-148.589	234.383	-0.049	0.078
-147.574	-83.959	-0.273	-0.085
-146.560	-67.059	0.292	-0.113
-145.545	-34.713	0.177	0.095
-144.531	-160.754	-0.127	-0.007
-143.516	201.738	0.154	-0.233
-142.502	-31.853	0.149	-0.082
-141.487	735.376	-0.058	0.152
-140.472	-6.154	-0.562	-0.376
-139.458	-86.404	-0.315	-0.095
-138.443	800.000	0.103	-0.323
-137.429	-115.685	-0.424	-0.078
-136.414	-94.240	-0.057	-0.015
-135.399	800.000	-0.029	-0.101
-134.385	-200.000	-0.038	0.196
-133.370	199.462	-0.120	-0.180
-132.356	-124.634	-0.109	-0.017
-131.341	637.233	-0.050	-0.124
-130.326	-92.938	0.299	-0.082
-129.312	-12.344	0.233	-0.150
-128.297	-200.000	-0.047	0.355
-127.283	-44.735	0.228	0.112
-126.268	549.071	-0.109	0.256
-125.253	-92.486	-0.114	-0.031
-124.239	800.000	0.045	0.141
-123.224	-81.156	0.259	-0.084
-122.210	-34.555	0.099	0.053
