DTS Sentinel unit serial number:	SN413079Multiplexer serial number:	ORYXHardware model number:	OX4-SRSoftware version number:	ORYX F/W v4.00 Oryx Data Collector v3.7.2.0data status	okinstallation	princeton_trtdifferential loss correction	single-endedforward channel	channel 1reverse channel	N/Adate	2019/09/14time	02:10:35forward acquisition time	60.00reverse acquisition time	0.00gamma	496.2192k internal	0.2336k external	0.2336temperature offset calibration	1.0073default loss term (dB/km)	0.3790temperature slope calibration	1.0000multiplexer offset coefficient	1.0000multiplexer slope coefficient	1.0000fibre end	0.00T internal ref (°C)	26.50T ext. ref 1 (°C)	3.21T ext. ref 2 (°C)	21.48length (m)	temperature (°C)	Stokes	anti-Stokes-747.200	-200.000	0.011	0.188
-746.185	271.509	-0.198	0.351
-745.171	204.372	-0.234	-0.365
-744.156	-200.000	-0.138	0.000
-743.142	-200.000	0.048	0.346
-742.127	-200.000	-0.046	0.211
-741.112	-113.602	0.166	0.033
-740.098	-200.000	0.098	0.458
-739.083	-95.104	0.329	0.089
-738.069	800.000	-0.061	0.186
-737.054	-22.099	0.187	0.114
-736.039	-148.463	-0.177	-0.015
-735.025	-125.114	0.146	0.022
-734.010	49.491	0.087	0.082
-732.996	560.102	-0.072	0.175
-731.981	-145.330	0.348	0.032
-730.966	305.773	-0.082	-0.153
-729.952	54.957	-0.142	-0.138
-728.937	135.231	0.081	0.106
-727.923	800.000	-0.068	-0.256
-726.908	56.938	-0.276	0.269
-725.894	35.668	0.055	-0.048
-724.879	66.418	-0.172	0.175
-723.864	800.000	0.048	0.201
-722.850	800.000	-0.081	-0.317
-721.835	-200.000	0.010	-0.180
-720.821	16.662	0.163	0.130
-719.806	-200.000	0.070	-0.466
-718.791	-200.000	0.065	0.332
-717.777	-200.000	0.004	-0.143
-716.762	-200.000	0.045	-0.232
-715.748	360.664	0.124	-0.249
-714.733	326.995	0.112	0.216
-713.718	-35.766	-0.366	-0.199
-712.704	-151.288	-0.175	-0.013
-711.689	-174.366	-0.224	0.006
-710.675	-82.385	-0.318	-0.104
-709.660	-18.566	0.099	-0.062
-708.645	-106.126	-0.241	0.054
-707.631	506.253	-0.032	0.075
-706.616	-200.000	-0.018	-0.371
-705.602	155.378	0.087	0.120
-704.587	-33.546	0.048	-0.026
-703.572	-151.966	0.045	-0.003
-702.558	-200.000	-0.031	0.155
-701.543	105.272	-0.236	0.280
-700.529	722.501	-0.154	-0.410
-699.514	-133.375	-0.267	0.034
-698.499	5.340	0.178	0.132
-697.485	380.719	-0.064	-0.132
-696.470	85.593	0.085	0.094
-695.456	-66.222	-0.408	0.163
-694.441	114.895	-0.045	0.055
-693.426	-200.000	0.047	-0.252
-692.412	-50.585	0.153	0.072
-691.397	-43.641	0.159	0.080
-690.383	2.232	-0.057	-0.041
-689.368	-49.211	0.351	-0.168
-688.354	-102.281	-0.203	0.049
-687.339	-11.035	-0.115	0.076
-686.324	800.000	0.081	0.310
-685.310	45.222	-0.081	-0.075
-684.295	163.374	0.031	-0.043
-683.281	574.752	-0.092	0.225
-682.266	6.438	-0.106	0.079
-681.251	-129.026	-0.068	0.010
-680.237	-148.236	-0.139	0.012
-679.222	61.626	-0.151	0.151
-678.208	-167.257	0.299	0.012
-677.193	-200.000	-0.007	0.266
-676.178	-152.327	-0.085	-0.006
-675.164	-107.348	0.195	0.043
-674.149	-158.704	0.306	0.018
-673.135	-64.370	-0.359	0.146
-672.120	-20.723	0.099	0.061
-671.105	-200.000	-0.031	0.398
-670.091	-185.769	-0.035	0.001
-669.076	-45.723	-0.123	-0.061
-668.062	-166.700	-0.460	0.019
-667.047	371.227	0.103	-0.208
-666.032	710.819	-0.156	-0.414
-665.018	451.198	-0.062	-0.137
-664.003	-115.857	-0.258	-0.048
-662.989	-58.159	-0.153	0.067
-661.974	428.975	0.187	0.405
-660.959	800.000	-0.025	0.088
-659.945	-200.000	0.030	-0.328
-658.930	-200.000	0.004	0.100
-657.916	48.514	-0.388	-0.364
-656.901	335.837	-0.069	0.134
-655.886	-62.236	0.289	-0.121
-654.872	-150.266	-0.358	0.028
-653.857	-93.395	-0.057	-0.016
-652.843	38.701	0.264	-0.236
-651.828	58.977	-0.198	-0.195
-650.814	46.383	-0.075	-0.070
-649.799	-200.000	0.010	0.091
-648.784	-56.742	-0.202	-0.089
-647.770	-151.124	-0.368	0.028
-646.755	-200.000	0.010	-0.256
-645.741	-94.461	-0.161	0.044
-644.726	800.000	0.050	-0.180
-643.711	800.000	-0.075	-0.259
-642.697	647.999	-0.045	-0.115
-641.682	-200.000	-0.027	-0.192
-640.668	241.639	0.010	-0.016
-639.653	466.396	0.040	0.089
-638.638	-200.000	-0.033	-0.149
-637.624	-69.876	-0.210	-0.080
-636.609	-78.804	0.582	-0.199
-635.595	-200.000	-0.054	0.360
-634.580	103.412	-0.357	0.419
-633.565	14.698	-0.090	0.070
-632.551	800.000	0.039	-0.169
-631.536	131.573	-0.067	0.087
-630.522	39.383	-0.080	-0.072
-629.507	-200.000	0.010	0.127
-628.492	-106.641	-0.384	-0.085
-627.478	239.088	-0.145	-0.240
-626.463	-200.000	-0.009	0.155
-625.449	-189.067	-0.476	-0.006
-624.434	800.000	0.026	-0.113
-623.419	22.525	0.164	0.134
-622.405	143.563	-0.174	-0.231
-621.390	-193.033	-0.142	0.001
-620.376	130.265	0.178	0.228
-619.361	106.067	0.251	0.298
-618.346	-110.828	0.290	-0.060
-617.332	-200.000	-0.042	0.382
-616.317	-200.000	-0.001	-0.013
-615.303	105.776	0.115	-0.136
-614.288	-135.892	0.310	-0.037
-613.273	-164.885	-0.396	-0.018
-612.259	-200.000	0.012	-0.140
-611.244	-92.175	-0.073	0.021
-610.230	-200.000	0.021	0.094
-609.215	356.747	-0.016	0.032
-608.201	57.135	-0.260	0.253
-607.186	-107.016	-0.073	0.016
-606.171	-24.852	0.222	-0.132
-605.157	-13.003	-0.224	-0.146
-604.142	800.000	0.057	0.193
-603.128	-200.000	-0.012	-0.082
-602.113	-35.108	-0.124	-0.067
-601.098	-11.481	-0.329	0.216
-600.084	-200.000	-0.010	0.128
-599.069	798.361	-0.072	-0.198
-598.055	-109.223	0.269	-0.057
-597.040	-77.390	-0.261	0.090
-596.025	-200.000	0.013	-0.165
-595.011	-93.351	0.416	-0.115
-593.996	317.472	0.072	0.136
-592.982	-161.557	-0.184	-0.009
-591.967	-149.733	0.221	0.017
-590.952	241.475	-0.149	-0.249
-589.938	-66.787	-0.323	-0.127
-588.923	191.996	-0.163	-0.245
-587.909	477.651	-0.039	-0.087
-586.894	-13.236	0.169	0.110
-585.879	-110.143	-0.178	-0.037
-584.865	-186.739	0.101	0.001
-583.850	-89.443	0.178	-0.052
-582.836	171.433	0.116	-0.167
-581.821	88.825	-0.110	0.122
-580.806	-41.760	0.246	0.126
-579.792	34.348	0.140	0.122
-578.777	-200.000	-0.013	0.238
-577.763	-127.214	0.183	0.027
-576.748	448.114	-0.109	0.238
-575.733	-28.208	-0.231	-0.133
-574.719	-162.430	-0.310	-0.015
-573.704	-200.000	-0.059	0.449
-572.690	6.724	0.073	0.054
-571.675	800.000	0.053	-0.206
-570.661	124.804	0.162	-0.204
-569.646	115.545	0.058	-0.071
-568.631	578.213	-0.071	0.173
-567.617	-200.000	-0.031	-0.377
-566.602	-200.000	0.022	-0.295
-565.588	-149.936	0.337	0.026
-564.573	-15.522	-0.432	0.275
-563.558	-26.422	0.104	0.061
-562.544	-84.289	-0.227	0.072
-561.529	73.439	-0.100	-0.104
-560.515	800.000	0.024	0.086
-559.500	82.253	-0.240	-0.259
-558.485	122.944	-0.218	-0.272
-557.471	499.422	0.089	0.205
-556.456	180.810	0.051	-0.075
-555.442	109.725	-0.280	0.334
-554.427	65.150	-0.158	0.159
-553.412	-122.400	0.140	-0.023
-552.398	-106.226	0.050	0.011
-551.383	-137.115	-0.243	-0.028
-550.369	-200.000	0.006	-0.242
-549.354	-98.111	0.384	-0.098
-548.339	-120.581	0.138	-0.023
-547.325	-149.518	-0.153	-0.012
-546.310	-127.403	-0.188	0.027
-545.296	-42.569	-0.559	0.283
-544.281	61.104	-0.183	-0.181
-543.266	-78.176	0.247	-0.085
-542.252	-115.088	0.068	-0.013
-541.237	77.591	-0.162	-0.172
-540.223	571.523	-0.187	-0.455
-539.208	-143.614	0.162	0.015
-538.193	78.931	-0.203	-0.217
-537.179	-21.114	0.250	-0.152
-536.164	-200.000	0.033	-0.299
-535.150	-84.190	0.175	0.055
-534.135	-188.850	-0.238	-0.003
-533.121	59.232	-0.117	0.114
-532.106	-200.000	-0.010	0.113
-531.091	-168.281	-0.400	0.015
-530.077	61.413	-0.018	0.018
-529.062	33.870	-0.010	-0.008
-528.048	-62.107	0.347	-0.144
-527.033	160.905	0.065	-0.091
-526.018	800.000	0.166	0.465
-525.004	-200.000	-0.011	0.157
-523.989	-18.717	0.370	-0.230
-522.975	-25.852	0.100	0.059
-521.960	-63.341	-0.111	0.045
-520.945	39.612	0.138	-0.123
-519.931	800.000	-0.082	-0.254
-518.916	-39.743	0.188	-0.098
-517.902	800.000	-0.054	-0.236
-516.887	384.478	0.060	-0.122
-515.872	282.646	-0.289	-0.517
-514.858	230.342	0.095	-0.154
-513.843	-42.840	0.049	-0.025
-512.829	-112.034	0.262	-0.053
-511.814	153.453	-0.115	0.157
-510.799	687.299	-0.086	-0.224
-509.785	737.366	0.037	0.098
-508.770	125.804	-0.059	0.075
-507.756	-83.644	0.279	0.089
-506.741	43.757	-0.074	-0.068
-505.726	800.000	-0.028	-0.107
-504.712	800.000	0.053	-0.161
-503.697	540.590	0.063	0.150
-502.683	450.079	-0.230	0.505
-501.668	-76.715	0.106	0.037
-500.653	-44.399	0.267	-0.133
-499.639	-77.001	-0.085	0.030
-498.624	751.480	0.125	-0.335
-497.610	85.229	0.204	-0.222
-496.595	-75.815	-0.083	0.029
-495.581	75.832	-0.257	-0.270
-494.566	-49.112	-0.334	0.159
-493.551	10.435	0.380	-0.288
-492.537	-200.000	0.024	-0.317
-491.522	800.000	-0.111	0.314
-490.508	-125.364	0.100	0.015
-489.493	751.183	0.120	0.322
-488.478	207.236	-0.061	0.094
-487.464	-162.463	0.291	0.014
-486.449	42.701	-0.032	-0.029
-485.435	-98.881	0.122	-0.031
-484.420	800.000	0.025	0.073
-483.405	-200.000	0.012	0.077
-482.391	-135.223	0.202	0.024
-481.376	-200.000	-0.006	0.221
-480.362	800.000	0.080	-0.258
-479.347	-101.633	0.271	0.065
-478.332	-200.000	0.011	-0.087
-477.318	-200.000	0.025	0.216
-476.303	800.000	-0.049	0.191
-475.289	31.820	-0.160	-0.137
-474.274	116.290	0.147	-0.179
-473.259	65.049	0.129	-0.130
-472.245	65.296	0.115	0.116
-471.230	292.276	0.054	0.097
-470.216	30.490	-0.090	-0.077
-469.201	68.778	-0.006	0.006
-468.186	414.566	-0.239	0.505
-467.172	165.263	0.181	0.255
-466.157	64.307	0.247	-0.247
-465.143	546.963	0.047	0.113
-464.128	-81.130	-0.259	-0.085
-463.113	-200.000	-0.012	0.111
-462.099	800.000	-0.076	0.275
-461.084	-97.131	0.097	0.025
-460.070	206.992	0.148	-0.229
-459.055	-58.025	-0.436	0.189
-458.040	800.000	-0.033	0.128
-457.026	20.218	0.317	0.254
-456.011	800.000	-0.045	0.191
-454.997	142.489	0.068	-0.089
-453.982	148.218	-0.168	0.226
-452.968	548.658	0.073	-0.173
-451.953	40.018	0.307	-0.274
-450.938	141.365	0.198	0.260
-449.924	-200.000	-0.030	0.227
-448.909	399.423	-0.104	-0.216
-447.895	-13.836	-0.022	-0.014
-446.880	28.217	0.200	0.168
-445.865	84.511	0.165	0.179
-444.851	35.281	0.108	0.094
-443.836	-85.941	-0.013	-0.004
-442.822	-168.960	0.277	-0.010
-441.807	291.441	-0.057	0.104
-440.792	-77.058	0.287	0.099
-439.778	16.969	-0.092	0.073
-438.763	-12.123	0.112	0.073
-437.749	440.533	-0.120	-0.260
-436.734	-32.488	-0.147	0.082
-435.719	-21.552	0.163	-0.099
-434.705	174.135	-0.098	0.141
-433.690	-115.678	-0.094	-0.018
-432.676	-200.000	-0.008	0.157
-431.661	-200.000	0.013	0.460
-430.646	800.000	0.106	0.351
-429.632	393.988	-0.216	0.447
-428.617	-15.505	0.215	-0.136
-427.603	-200.000	-0.054	-0.255
-426.588	45.137	-0.018	0.016
-425.573	-63.245	0.190	0.078
-424.559	27.482	-0.058	0.049
-423.544	-60.165	-0.232	0.098
-422.530	486.662	0.091	0.206
-421.515	-78.290	-0.189	-0.064
-420.500	-200.000	-0.012	-0.101
-419.486	-147.294	0.495	-0.042
-418.471	51.974	-0.328	-0.309
-417.457	-12.231	0.158	0.102
-416.442	-116.775	0.509	-0.092
-415.428	800.000	0.041	-0.132
-414.413	321.903	-0.167	-0.316
-413.398	642.389	-0.059	-0.150
-412.384	31.717	0.066	-0.057
-411.369	18.066	-0.232	0.183
-410.355	-106.275	0.386	-0.086
-409.340	-200.000	-0.104	0.475
-408.325	-14.437	-0.129	-0.082
-407.311	-8.000	-0.002	0.001
-406.296	790.017	-0.039	-0.106
-405.282	-200.000	0.022	0.191
-404.267	-72.296	0.119	-0.044
-403.252	-167.714	-0.248	0.010
-402.238	141.679	0.191	-0.251
-401.223	-60.780	-0.064	0.027
-400.209	-19.532	-0.086	0.053
-399.194	11.574	-0.041	0.031
-398.179	48.478	-0.299	0.277
-397.165	-53.057	-0.122	0.056
-396.150	800.000	0.071	-0.294
-395.136	800.000	-0.019	0.062
-394.121	691.645	0.021	-0.054
-393.106	-26.103	-0.200	-0.116
-392.092	-200.000	-0.035	0.285
-391.077	800.000	0.055	-0.222
-390.063	-82.590	0.364	-0.117
-389.048	800.000	-0.046	0.187
-388.033	-200.000	0.040	0.267
-387.019	351.950	0.098	0.192
-386.004	-200.000	-0.008	0.280
-384.990	380.649	0.118	0.240
-383.975	234.732	0.104	-0.170
-382.960	800.000	0.023	-0.065
-381.946	800.000	0.048	0.154
-380.931	-200.000	-0.038	-0.172
-379.917	800.000	-0.017	-0.066
-378.902	-27.821	0.263	0.151
-377.888	-90.414	-0.241	-0.069
-376.873	-2.319	0.158	0.110
-375.858	-190.801	0.235	0.002
-374.844	-51.166	0.110	0.051
-373.829	-47.464	0.131	-0.063
-372.815	-114.646	-0.201	-0.038
-371.800	-69.405	0.155	0.059
-370.785	-128.259	-0.228	0.032
-369.771	-17.803	0.281	-0.174
-368.756	-52.369	0.357	0.163
-367.742	800.000	0.066	-0.216
-366.727	-75.863	-0.196	0.069
-365.712	800.000	-0.083	0.344
-364.698	800.000	-0.070	-0.247
-363.683	130.049	0.200	-0.253
-362.669	721.985	-0.100	0.263
-361.654	-94.624	-0.300	-0.081
-360.639	-137.266	0.063	0.007
-359.625	800.000	0.096	-0.404
-358.610	800.000	0.028	-0.112
-357.596	131.399	-0.134	-0.170
-356.581	-200.000	-0.005	0.272
-355.566	800.000	0.059	0.248
-354.552	-106.001	-0.279	0.062
-353.537	800.000	-0.099	0.311
-352.523	-62.827	-0.188	0.077
-351.508	558.415	0.058	-0.140
-350.493	-88.452	-0.362	0.107
-349.479	53.231	0.331	-0.313
-348.464	327.913	-0.252	-0.479
-347.450	-104.556	0.263	-0.060
-346.435	527.593	-0.100	0.234
-345.420	-124.959	0.222	0.034
-344.406	75.630	-0.183	-0.191
-343.391	-55.827	-0.244	0.108
-342.377	2.464	0.122	0.087
-341.362	614.016	0.013	-0.032
-340.348	-87.586	0.592	-0.177
-339.333	32.683	0.077	0.066
-338.318	-118.152	-0.185	-0.033
-337.304	592.968	0.070	0.171
-336.289	50.093	-0.124	0.116
-335.275	162.671	0.089	0.123
-334.260	-200.000	-0.011	-0.141
-333.245	-200.000	0.001	-0.181
-332.231	481.847	-0.061	0.136
-331.216	694.337	0.139	0.361
-330.202	-200.000	-0.036	-0.155
-329.187	53.284	0.255	-0.242
-328.172	-200.000	0.040	0.228
-327.158	-176.765	0.286	-0.007
-326.143	-200.000	0.210	0.000
-325.129	29.470	-0.255	0.214
-324.114	-200.000	0.006	-0.307
-323.099	-151.453	-0.056	0.004
-322.085	23.465	0.040	-0.033
-321.070	493.120	0.081	-0.183
-320.056	219.829	-0.124	0.196
-319.041	119.852	0.191	-0.234
-318.026	-82.462	0.191	0.061
-317.012	800.000	0.033	-0.138
-315.997	-163.726	0.104	0.005
-314.983	800.000	0.088	-0.332
-313.968	45.264	-0.099	-0.090
-312.953	-23.564	0.078	0.046
-311.939	-116.977	-0.283	-0.051
-310.924	-200.000	0.064	0.300
-309.910	306.732	0.069	-0.128
-308.895	-142.077	0.132	0.013
-307.880	800.000	-0.037	-0.121
-306.866	663.529	0.072	-0.183
-305.851	-114.202	0.271	0.052
-304.837	-200.000	0.001	0.027
-303.822	94.426	-0.140	0.157
-302.807	41.813	0.057	0.051
-301.793	800.000	0.020	0.075
-300.778	800.000	0.069	0.293
-299.764	-60.617	-0.253	0.106
-298.749	370.919	0.165	0.330
-297.735	35.710	-0.112	0.097
-296.720	800.000	0.081	-0.267
-295.705	223.357	0.128	-0.204
-294.691	800.000	0.108	0.347
-293.676	-56.052	0.086	0.038
-292.662	-200.000	0.032	-0.155
-291.647	-91.919	-0.217	0.061
-290.632	286.549	0.214	-0.381
-289.618	134.827	0.021	-0.027
-288.603	-132.487	-0.169	-0.021
-287.589	-44.843	0.212	0.104
-286.574	-4.958	0.079	0.054
-285.559	0.648	0.069	0.048
-284.545	-200.000	-0.004	0.328
-283.530	-200.000	-0.075	-0.391
-282.516	800.000	-0.049	0.159
-281.501	-99.490	0.277	0.069
-280.486	-200.000	-0.004	0.373
-279.472	-200.000	0.013	0.121
-278.457	-200.000	0.008	0.132
-277.443	-152.355	0.146	0.010
-276.428	-149.599	0.114	0.009
-275.413	-200.000	0.024	0.105
-274.399	167.030	-0.155	0.216
-273.384	-73.755	-0.235	0.084
-272.370	40.510	0.154	-0.137
-271.355	-167.224	0.109	-0.004
-270.340	345.923	-0.112	0.216
-269.326	-50.122	-0.503	-0.235
-268.311	453.964	-0.063	-0.138
-267.297	275.457	0.030	-0.053
-266.282	-1.737	-0.140	0.097
-265.267	-115.566	0.180	-0.033
-264.253	-128.489	-0.207	0.029
-263.238	129.522	0.058	-0.073
-262.224	-119.530	-0.337	-0.058
-261.209	8.365	0.142	0.105
-260.195	120.433	0.232	0.284
-259.180	31.175	0.099	-0.083
-258.165	-200.000	-0.022	0.141
-257.151	-200.000	0.040	-0.178
-256.136	800.000	-0.048	-0.150
-255.122	539.576	-0.056	-0.132
-254.107	-200.000	-0.032	-0.455
-253.092	-200.000	0.014	0.108
-252.078	62.794	0.139	-0.137
-251.063	-171.572	-0.092	-0.003
-250.049	-200.000	-0.039	-0.458
-249.034	9.170	0.193	0.143
-248.019	40.284	-0.307	0.272
-247.005	8.487	0.059	0.043
-245.990	-43.111	-0.224	-0.112
-244.976	800.000	0.102	-0.314
-243.961	800.000	-0.084	-0.289
-242.946	63.377	0.229	0.226
-241.932	-200.000	-0.041	0.247
-240.917	63.583	0.148	-0.146
-239.903	-132.038	0.268	-0.034
-238.888	71.019	-0.083	-0.085
-237.873	-138.633	-0.119	0.013
-236.859	800.000	-0.050	0.170
-235.844	99.277	-0.118	-0.134
-234.830	-19.240	-0.036	0.022
-233.815	86.284	-0.211	0.228
-232.800	386.292	-0.087	0.176
-231.786	-200.000	-0.006	-0.030
-230.771	599.297	0.243	-0.594
-229.757	-116.036	-0.129	0.024
-228.742	-103.771	-0.131	0.030
-227.727	-172.365	-0.391	0.012
-226.713	-191.359	0.366	0.004
-225.698	57.999	-0.273	0.263
-224.684	41.602	-0.389	0.346
-223.669	-200.000	0.003	-0.241
-222.655	73.571	0.104	-0.107
-221.640	410.042	-0.115	0.240
-220.625	-200.000	-0.031	-0.135
-219.611	121.640	0.034	-0.041
-218.596	-13.819	0.192	0.122
-217.582	-200.000	-0.017	-0.085
-216.567	217.688	0.140	0.219
-215.552	-102.456	-0.283	-0.067
-214.538	-12.218	0.294	-0.189
-213.523	148.744	-0.130	-0.173
-212.509	-200.000	0.009	0.068
-211.494	-139.837	0.267	0.028
-210.479	246.759	-0.109	0.181
-209.465	357.660	0.137	-0.268
-208.450	-59.910	0.178	0.075
-207.436	132.740	-0.244	-0.309
-206.421	233.087	0.130	-0.211
-205.406	736.423	-0.081	0.213
-204.392	-106.753	0.098	-0.021
-203.377	-99.395	0.105	-0.026
-202.363	68.842	-0.216	0.218
-201.348	-110.276	0.131	0.027
-200.333	80.009	-0.018	0.018
-199.319	-200.000	-0.017	-0.204
-198.304	116.660	-0.090	-0.108
-197.290	-165.459	-0.230	0.010
-196.275	-200.000	0.041	-0.236
-195.260	-40.163	-0.289	-0.148
-194.246	94.970	0.246	-0.275
-193.231	-19.448	0.363	0.221
-192.217	-33.428	-0.218	0.118
-191.202	-200.000	0.014	-0.200
-190.187	154.170	-0.118	0.160
-189.173	112.075	0.053	0.062
-188.158	-142.198	-0.246	0.024
-187.144	37.704	-0.236	0.206
-186.129	-104.958	-0.542	-0.122
-185.114	-200.000	-0.008	-0.057
-184.100	-55.019	-0.129	-0.057
-183.085	-127.202	0.210	-0.030
-182.071	46.419	0.232	0.211
-181.056	-118.341	-0.154	-0.027
-180.042	268.090	0.095	-0.164
-179.027	51.428	-0.142	0.133
-178.012	-20.320	-0.154	-0.093
-176.998	16.437	0.355	0.276
-175.983	1.048	0.168	0.118
-174.969	456.547	0.073	0.159
-173.954	202.029	-0.035	-0.053
-172.939	-200.000	0.001	-0.181
-171.925	137.643	0.043	0.056
-170.910	414.101	0.118	0.246
-169.896	-200.000	0.036	0.489
-168.881	237.439	-0.161	0.263
-167.866	-36.405	-0.228	-0.121
-166.852	24.287	0.124	-0.100
-165.837	800.000	0.016	-0.043
-164.823	-200.000	-0.050	-0.331
-163.808	408.211	0.129	-0.268
-162.793	-99.174	-0.073	0.018
-161.779	-200.000	0.050	0.344
-160.764	100.172	-0.057	0.064
-159.750	72.205	-0.058	0.060
-158.735	-12.229	-0.195	-0.125
-157.720	256.147	-0.072	-0.121
-156.706	728.287	-0.024	0.062
-155.691	-79.203	-0.421	-0.140
-154.677	-200.000	-0.002	0.046
-153.662	-38.394	0.395	-0.205
-152.647	6.049	-0.178	-0.129
-151.633	-200.000	0.001	-0.248
-150.618	-44.721	0.225	-0.110
-149.604	33.075	0.083	-0.071
-148.589	570.393	-0.058	0.137
-147.574	643.276	0.092	0.230
-146.560	641.507	0.054	-0.136
-145.545	102.550	-0.117	0.134
-144.531	29.619	0.149	0.125
-143.516	-54.852	-0.161	-0.071
-142.502	-200.000	-0.035	-0.260
-141.487	-130.044	-0.114	0.015
-140.472	-200.000	-0.011	0.105
-139.458	-12.135	-0.214	-0.137
-138.443	-200.000	-0.023	0.123
-137.429	-87.558	0.182	-0.054
-136.414	1.121	-0.233	0.164
-135.399	157.096	0.044	0.060
-134.385	800.000	-0.079	0.242
-133.370	7.615	0.239	0.175
-132.356	-66.466	-0.221	-0.086
-131.341	13.995	-0.200	0.152
-130.326	-200.000	-0.011	-0.115
-129.312	-71.492	0.090	-0.033
-128.297	-107.192	0.278	0.060
-127.283	15.160	-0.216	0.166
-126.268	-96.331	0.307	-0.080
-125.253	-200.000	0.011	-0.287
-124.239	44.252	0.446	0.401
-123.224	-109.393	0.161	0.033
-122.210	-149.824	-0.209	-0.016
-121.195	-107.725	0.228	0.049
