DTS Sentinel unit serial number:	SN413079Multiplexer serial number:	ORYXHardware model number:	OX4-SRSoftware version number:	ORYX F/W v4.00 Oryx Data Collector v3.7.2.0data status	okinstallation	princeton_trtdifferential loss correction	single-endedforward channel	channel 1reverse channel	N/Adate	2019/09/13time	18:14:35forward acquisition time	60.00reverse acquisition time	0.00gamma	496.2192k internal	0.2312k external	0.2312temperature offset calibration	1.0138default loss term (dB/km)	0.3790temperature slope calibration	1.0000multiplexer offset coefficient	1.0000multiplexer slope coefficient	1.0000fibre end	0.00T internal ref (°C)	34.23T ext. ref 1 (°C)	4.47T ext. ref 2 (°C)	27.12length (m)	temperature (°C)	Stokes	anti-Stokes-747.200	70.650	0.209	0.219
-746.185	795.769	-0.097	0.270
-745.171	85.129	0.223	0.248
-744.156	-171.915	-0.286	-0.009
-743.142	800.000	-0.025	0.105
-742.127	740.200	-0.037	0.102
-741.112	-1.849	-0.139	0.099
-740.098	-55.447	-0.282	0.128
-739.083	-14.345	-0.133	-0.087
-738.069	352.757	0.191	0.384
-737.054	226.602	0.032	-0.052
-736.039	40.711	0.075	-0.068
-735.025	-200.000	-0.062	-0.313
-734.010	-200.000	0.003	0.205
-732.996	800.000	-0.036	0.114
-731.981	-92.247	-0.080	0.023
-730.966	397.017	-0.081	-0.172
-729.952	-153.419	-0.096	-0.007
-728.937	-94.700	-0.218	0.060
-727.923	58.000	-0.282	-0.280
-726.908	-200.000	0.007	0.194
-725.894	26.096	0.155	-0.132
-724.879	172.502	0.142	-0.208
-723.864	268.055	-0.035	0.062
-722.850	394.725	0.022	-0.047
-721.835	8.195	0.268	-0.204
-720.821	1.230	0.129	-0.094
-719.806	-200.000	-0.021	-0.224
-718.791	-128.893	-0.296	-0.042
-717.777	-127.992	-0.029	0.004
-716.762	261.695	-0.157	0.276
-715.748	-130.186	-0.068	0.009
-714.733	0.690	-0.222	-0.161
-713.718	-168.021	0.057	0.002
-712.704	-200.000	-0.013	-0.563
-711.689	-200.000	-0.040	0.384
-710.675	-94.114	-0.273	0.076
-709.660	61.268	0.253	0.254
-708.645	-64.880	0.134	-0.055
-707.631	-45.808	0.126	0.063
-706.616	-125.907	-0.283	0.043
-705.602	147.616	0.116	-0.159
-704.587	800.000	-0.138	-0.416
-703.572	1.818	0.442	-0.323
-702.558	-200.000	0.085	-0.459
-701.543	383.061	0.062	0.129
-700.529	139.269	0.219	0.292
-699.514	294.872	0.073	0.135
-698.499	800.000	-0.110	-0.326
-697.485	156.363	-0.375	-0.524
-696.470	-121.977	-0.244	0.041
-695.456	-92.221	0.177	0.051
-694.441	495.621	-0.034	-0.078
-693.426	-73.084	0.147	0.055
-692.412	418.900	0.074	0.161
-691.397	54.272	0.111	-0.109
-690.383	-69.102	-0.053	0.021
-689.368	-52.063	0.110	0.052
-688.354	800.000	-0.082	-0.315
-687.339	-113.203	0.109	0.022
-686.324	-122.061	-0.127	-0.021
-685.310	-163.065	-0.315	-0.015
-684.295	194.646	-0.186	0.285
-683.281	53.374	-0.053	-0.051
-682.266	180.625	-0.153	-0.227
-681.251	-25.725	-0.081	0.048
-680.237	-200.000	-0.070	-0.321
-679.222	-61.543	-0.257	0.109
-678.208	-200.000	-0.020	-0.108
-677.193	58.561	0.315	-0.313
-676.178	-21.863	0.198	-0.122
-675.164	-123.334	-0.129	0.021
-674.149	-200.000	0.029	0.136
-673.135	-36.481	0.329	-0.179
-672.120	-100.466	0.313	-0.078
-671.105	46.094	-0.310	0.291
-670.091	-153.379	0.166	-0.012
-669.076	-16.285	-0.155	-0.099
-668.062	291.683	0.212	0.390
-667.047	-5.115	-0.031	0.021
-666.032	353.297	-0.043	-0.087
-665.018	-100.865	-0.035	0.009
-664.003	48.325	0.267	0.253
-662.989	-35.488	-0.110	0.061
-661.974	-130.829	0.326	0.044
-660.959	-191.954	-0.087	-0.001
-659.945	60.598	0.102	-0.103
-658.930	0.189	0.172	0.124
-657.916	80.748	-0.056	0.061
-656.901	-130.357	-0.347	-0.048
-655.886	-141.095	0.172	0.018
-654.872	64.044	-0.254	0.258
-653.857	-200.000	-0.054	0.324
-652.843	69.090	-0.042	0.043
-651.828	-62.119	0.167	0.070
-650.814	14.550	0.188	-0.149
-649.799	378.525	-0.080	0.166
-648.784	-99.234	-0.316	0.081
-647.770	63.262	-0.335	-0.339
-646.755	212.409	-0.071	-0.113
-645.741	159.759	0.021	0.029
-644.726	-43.982	-0.104	-0.053
-643.711	-71.604	-0.331	0.125
-642.697	94.688	0.128	-0.147
-641.682	652.322	0.091	-0.236
-640.668	-134.795	-0.362	-0.044
-639.653	152.434	0.073	0.100
-638.638	590.927	0.045	-0.111
-637.624	-200.000	0.125	-0.000
-636.609	422.808	0.126	-0.274
-635.595	-185.877	0.202	0.003
-634.580	-45.253	-0.315	0.158
-633.565	16.177	-0.139	-0.111
-632.551	-37.781	0.316	-0.170
-631.536	-94.602	-0.200	-0.055
-630.522	-200.000	0.003	0.064
-629.507	-157.452	0.366	0.022
-628.492	-100.479	-0.446	0.111
-627.478	149.138	0.105	-0.144
-626.463	-15.866	-0.075	0.048
-625.449	-149.377	0.127	0.010
-624.434	-200.000	-0.009	0.072
-623.419	-200.000	-0.020	0.107
-622.405	128.843	-0.083	0.106
-621.390	44.346	0.034	-0.032
-620.376	-4.713	-0.123	-0.086
-619.361	-36.241	-0.187	-0.102
-618.346	627.349	-0.135	-0.343
-617.332	-200.000	0.036	-0.269
-616.317	32.473	-0.274	0.239
-615.303	-153.764	-0.235	0.016
-614.288	43.917	0.124	-0.115
-613.273	800.000	0.106	0.370
-612.259	286.441	-0.123	0.224
-611.244	-182.242	0.248	0.005
-610.230	165.899	-0.153	0.218
-609.215	157.527	-0.142	-0.198
-608.201	-200.000	0.007	0.105
-607.186	800.000	0.040	-0.158
-606.171	122.393	0.055	0.069
-605.157	-200.000	0.006	-0.058
-604.142	800.000	-0.066	-0.193
-603.128	-104.593	0.206	0.048
-602.113	157.033	0.164	0.228
-601.098	86.962	0.040	0.045
-600.084	227.500	-0.049	0.080
-599.069	-46.367	-0.117	0.058
-598.055	-54.349	-0.068	0.031
-597.040	-200.000	-0.223	0.001
-596.025	-92.681	-0.401	-0.113
-595.011	-53.046	0.155	0.072
-593.996	-110.662	0.215	0.045
-592.982	47.966	-0.199	0.188
-591.967	-77.301	-0.136	-0.048
-590.952	-200.000	-0.013	0.319
-589.938	-87.694	-0.254	-0.077
-588.923	452.230	0.274	-0.612
-587.909	-109.040	-0.333	-0.072
-586.894	-200.000	0.023	0.167
-585.879	-177.041	0.186	-0.005
-584.865	-200.000	0.018	-0.137
-583.850	503.550	0.035	-0.082
-582.836	320.583	0.144	0.276
-581.821	-145.782	-0.099	-0.009
-580.806	-200.000	-0.067	-0.403
-579.792	280.612	-0.018	0.033
-578.777	-200.000	-0.005	0.159
-577.763	800.000	0.022	-0.073
-576.748	550.838	0.140	-0.338
-575.733	114.510	0.060	-0.074
-574.719	346.869	-0.027	0.054
-573.704	-200.000	0.020	-0.106
-572.690	8.710	0.111	0.084
-571.675	70.514	-0.095	0.099
-570.661	-62.019	-0.162	0.068
-569.646	-124.903	-0.229	0.036
-568.631	-80.437	0.074	-0.025
-567.617	44.957	-0.058	0.054
-566.602	800.000	0.056	-0.242
-565.588	14.073	0.210	-0.164
-564.573	-84.032	-0.263	-0.084
-563.558	137.690	-0.197	-0.259
-562.544	-144.819	-0.435	-0.040
-561.529	216.952	-0.137	0.220
-560.515	498.034	-0.141	0.327
-559.500	34.153	-0.268	0.235
-558.485	114.267	0.072	-0.088
-557.471	-159.487	0.055	-0.003
-556.456	-100.005	-0.181	0.046
-555.442	612.224	0.038	0.095
-554.427	-19.921	0.171	-0.106
-553.412	-82.715	0.464	0.151
-552.398	145.397	0.038	-0.051
-551.383	-200.000	-0.005	0.078
-550.369	800.000	-0.096	0.284
-549.354	-75.306	0.128	0.046
-548.339	-48.850	0.058	0.028
-547.325	54.359	-0.301	-0.291
-546.310	32.506	0.157	0.137
-545.296	-108.486	0.276	-0.060
-544.281	118.019	0.101	0.125
-543.266	-178.873	0.258	-0.006
-542.252	-83.101	0.375	-0.122
-541.237	-170.635	-0.253	0.009
-540.223	-4.269	0.116	-0.081
-539.208	-82.447	-0.477	-0.156
-538.193	222.534	-0.059	-0.096
-537.179	43.887	0.202	0.187
-536.164	-49.146	0.167	-0.080
-535.150	-130.863	0.076	0.010
-534.135	-89.273	-0.308	0.091
-533.121	800.000	-0.012	-0.038
-532.106	161.658	-0.225	0.317
-531.091	-200.000	0.021	0.111
-530.077	75.543	0.336	0.357
-529.062	32.168	-0.086	-0.075
-528.048	0.394	-0.233	0.167
-527.033	-200.000	-0.019	0.140
-526.018	-200.000	-0.005	0.044
-525.004	-96.066	-0.338	0.090
-523.989	200.268	-0.184	0.284
-522.975	800.000	0.049	-0.193
-521.960	-200.000	-0.023	0.369
-520.945	-13.809	0.133	0.086
-519.931	-33.212	-0.109	0.061
-518.916	335.598	0.116	-0.226
-517.902	-200.000	0.011	-0.149
-516.887	78.769	0.054	0.058
-515.872	-10.102	0.328	-0.219
-514.858	-18.390	-0.153	0.096
-513.843	-200.000	0.020	-0.211
-512.829	-156.280	-0.201	0.013
-511.814	-64.628	0.046	-0.019
-510.799	-161.445	0.256	0.013
-509.785	157.220	0.023	-0.032
-508.770	174.920	0.119	0.174
-507.756	-109.485	-0.156	-0.033
-506.741	185.234	0.117	0.175
-505.726	-200.000	-0.006	-0.111
-504.712	233.233	-0.143	-0.236
-503.697	-39.425	-0.163	-0.086
-502.683	-6.041	0.064	0.044
-501.668	-51.313	0.133	0.063
-500.653	473.170	-0.031	-0.070
-499.639	-48.722	-0.123	0.059
-498.624	9.407	0.224	0.170
-497.610	-107.447	-0.058	0.013
-496.595	-174.396	0.181	0.005
-495.581	266.905	-0.119	-0.209
-494.566	-101.864	0.051	0.012
-493.551	-24.909	-0.153	-0.091
-492.537	302.726	-0.045	-0.084
-491.522	-41.519	-0.431	0.223
-490.508	137.731	-0.159	-0.210
-489.493	-137.625	0.405	0.046
-488.478	-98.837	0.309	-0.079
-487.464	100.674	0.111	0.130
-486.449	-200.000	-0.022	0.318
-485.435	-200.000	-0.018	0.123
-484.420	74.585	-0.237	0.251
-483.405	-200.000	0.025	0.293
-482.391	-28.063	-0.097	-0.057
-481.376	174.935	-0.253	-0.368
-480.362	360.406	0.111	0.222
-479.347	-123.105	-0.107	0.017
-478.332	35.646	-0.031	-0.027
-477.318	125.453	-0.040	0.051
-476.303	-52.639	0.263	-0.122
-475.289	-96.363	0.124	0.033
-474.274	283.066	0.168	0.303
-473.259	-152.163	0.081	-0.006
-472.245	-104.757	0.316	-0.073
-471.230	800.000	-0.012	-0.041
-470.216	-92.727	0.370	0.104
-469.201	111.845	-0.115	-0.139
-468.186	156.582	0.103	0.143
-467.172	-173.321	0.553	-0.017
-466.157	192.978	0.117	-0.178
-465.143	225.386	0.052	-0.085
-464.128	39.966	0.139	0.126
-463.113	-200.000	0.011	0.137
-462.099	-20.704	-0.175	0.108
-461.084	51.251	-0.172	-0.164
-460.070	95.554	-0.127	-0.145
-459.055	-22.787	-0.106	-0.064
-458.040	84.196	-0.159	0.174
-457.026	-24.151	0.172	0.103
-456.011	23.206	0.137	-0.113
-454.997	800.000	0.141	-0.415
-453.982	614.108	-0.066	0.165
-452.968	-28.822	-0.096	-0.055
-451.953	-200.000	0.006	0.044
-450.938	-8.380	-0.250	0.169
-449.924	214.501	0.191	0.304
-448.909	111.765	0.082	0.099
-447.895	52.843	-0.107	-0.103
-446.880	183.041	-0.059	0.087
-445.865	156.246	-0.081	0.111
-444.851	-156.485	-0.139	0.009
-443.836	-14.895	-0.090	0.058
-442.822	800.000	-0.060	-0.264
-441.807	715.098	-0.099	-0.262
-440.792	322.027	-0.123	-0.235
-439.778	60.796	-0.216	-0.215
-438.763	800.000	-0.064	0.209
-437.749	100.584	-0.125	0.145
-436.734	-110.077	-0.156	-0.033
-435.719	800.000	0.088	0.262
-434.705	-60.146	-0.040	0.017
-433.690	-200.000	0.022	0.299
-432.676	800.000	-0.059	-0.216
-431.661	800.000	0.022	0.092
-430.646	176.820	0.049	-0.071
-429.632	-200.000	-0.008	-0.230
-428.617	800.000	-0.148	-0.506
-427.603	498.377	-0.074	-0.170
-426.588	800.000	-0.090	0.252
-425.573	72.542	0.304	-0.317
-424.559	-200.000	0.003	0.096
-423.544	800.000	0.041	-0.119
-422.530	-10.289	-0.197	-0.131
-421.515	-89.377	0.212	-0.063
-420.500	800.000	0.037	0.125
-419.486	297.241	0.084	-0.154
-418.471	-200.000	-0.003	0.134
-417.457	-47.638	0.253	-0.123
-416.442	-136.152	-0.020	0.002
-415.428	45.540	0.240	-0.222
-414.413	470.965	-0.062	-0.140
-413.398	-200.000	-0.026	-0.178
-412.384	-200.000	-0.047	-0.271
-411.369	612.827	0.232	-0.580
-410.355	-69.242	-0.221	0.085
-409.340	106.373	0.047	-0.056
-408.325	442.767	0.070	-0.153
-407.311	128.713	-0.076	0.097
-406.296	627.927	-0.162	0.409
-405.282	800.000	-0.037	-0.107
-404.267	800.000	-0.066	-0.204
-403.252	-104.173	0.156	0.036
-402.238	-200.000	0.008	0.044
-401.223	-95.166	-0.336	0.091
-400.209	172.729	-0.136	-0.195
-399.194	462.585	-0.042	0.093
-398.179	1.928	0.299	0.216
-397.165	-200.000	-0.014	0.120
-396.150	580.147	0.074	-0.182
-395.136	-77.717	0.293	0.101
-394.121	40.273	0.174	-0.157
-393.106	99.198	-0.140	-0.162
-392.092	720.944	-0.133	-0.354
-391.077	-19.346	-0.133	0.083
-390.063	-111.505	0.203	-0.041
-389.048	56.780	0.107	0.104
-388.033	56.366	0.318	0.309
-387.019	-200.000	0.001	-0.048
-386.004	2.818	-0.212	-0.154
-384.990	96.820	0.056	-0.064
-383.975	-163.517	0.496	-0.024
-382.960	-45.373	0.181	0.090
-381.946	-88.731	0.113	0.033
-380.931	36.493	0.077	-0.068
-379.917	-200.000	-0.036	0.200
-378.902	-113.832	-0.371	0.072
-377.888	-142.496	-0.196	0.019
-376.873	-161.048	-0.079	-0.004
-375.858	800.000	-0.022	-0.067
-374.844	33.135	0.065	0.057
-373.829	-46.406	-0.156	-0.077
-372.815	-107.499	0.158	-0.035
-371.800	73.368	-0.182	0.190
-370.785	-129.837	-0.151	-0.021
-369.771	-123.794	0.185	0.029
-368.756	642.070	0.069	0.175
-367.742	800.000	-0.062	0.189
-366.727	-76.839	0.284	0.099
-365.712	-200.000	-0.181	-0.001
-364.698	-200.000	0.044	-0.214
-363.683	176.409	-0.133	0.193
-362.669	625.584	0.058	0.147
-361.654	-60.135	-0.041	-0.017
-360.639	-200.000	0.000	-0.151
-359.625	272.406	-0.107	-0.189
-358.610	498.238	0.046	-0.107
-357.596	73.049	-0.203	0.212
-356.581	-200.000	0.007	0.174
-355.566	-134.313	0.316	-0.039
-354.552	-107.057	-0.262	-0.058
-353.537	-111.734	-0.143	0.029
-352.523	115.594	0.219	0.267
-351.508	15.996	0.198	0.156
-350.493	-83.290	-0.285	0.092
-349.479	-76.362	0.152	-0.054
-348.464	388.276	0.110	0.227
-347.450	-20.642	0.299	-0.184
-346.435	13.823	0.256	0.199
-345.420	248.230	-0.167	0.282
-344.406	-33.401	0.127	0.070
-343.391	-200.000	0.126	-0.000
-342.377	281.956	-0.108	-0.194
-341.362	-135.635	-0.231	0.027
-340.348	-1.620	0.216	-0.152
-339.333	-4.041	-0.051	-0.035
-338.318	34.168	0.225	0.196
-337.304	125.020	-0.135	0.170
-336.289	208.861	0.130	-0.204
-335.275	270.758	0.171	-0.300
-334.260	292.218	0.031	0.057
-333.245	-134.133	-0.149	0.018
-332.231	-100.107	-0.389	-0.097
-331.216	-104.909	0.100	-0.023
-330.202	-200.000	0.002	-0.095
-329.187	800.000	-0.087	0.302
-328.172	-91.357	0.164	0.047
-327.158	763.181	0.032	0.088
-326.143	109.324	-0.194	0.232
-325.129	-200.000	-0.015	-0.238
-324.114	609.186	-0.130	0.323
-323.099	14.206	-0.330	-0.256
-322.085	26.095	-0.182	-0.151
-321.070	126.197	-0.121	-0.153
-320.056	-127.076	0.340	0.050
-319.041	51.238	-0.206	0.195
-318.026	-80.326	0.029	0.010
-317.012	38.436	-0.219	0.195
-315.997	-200.000	0.007	0.181
-314.983	-200.000	0.021	-0.102
-313.968	-87.957	0.183	0.055
-312.953	713.696	-0.040	0.106
-311.939	-111.522	-0.093	0.019
-310.924	-81.105	0.144	0.048
-309.910	-200.000	-0.032	-0.272
-308.895	-79.519	-0.354	-0.119
-307.880	-84.576	0.207	-0.065
-306.866	-85.526	-0.378	-0.117
-305.851	291.357	-0.120	-0.218
-304.837	-34.067	0.245	0.134
-303.822	-200.000	-0.000	0.063
-302.807	-121.617	0.290	-0.048
-301.793	-21.527	-0.106	-0.064
-300.778	-120.661	0.198	0.033
-299.764	244.304	-0.108	0.181
-298.749	224.008	-0.107	-0.172
-297.735	31.895	-0.096	-0.083
-296.720	-102.411	0.177	-0.042
-295.705	65.759	-0.246	0.248
-294.691	127.901	-0.060	0.076
-293.676	3.827	-0.319	-0.233
-292.662	64.468	-0.159	-0.160
-291.647	800.000	-0.060	0.204
-290.632	-186.359	0.149	0.002
-289.618	-61.813	0.267	0.111
-288.603	800.000	-0.076	-0.246
-287.589	-200.000	0.020	0.373
-286.574	-200.000	0.063	-0.379
-285.559	10.453	-0.235	-0.178
-284.545	-43.122	0.114	0.058
-283.530	-200.000	-0.040	-0.256
-282.516	-51.786	0.356	0.165
-281.501	64.532	0.137	-0.137
-280.486	-69.999	0.138	0.053
-279.472	-200.000	-0.021	-0.130
-278.457	-113.009	0.237	-0.047
-277.443	66.841	0.151	0.154
-276.428	4.640	0.114	0.084
-275.413	-48.141	-0.066	-0.032
-274.399	-194.876	-0.182	0.001
-273.384	522.073	0.049	-0.115
-272.370	-132.127	0.241	0.031
-271.355	-46.516	0.028	-0.014
-270.340	69.062	0.146	0.149
-269.326	-200.000	0.033	-0.278
-268.311	-200.000	0.000	-0.203
-267.297	-113.175	0.275	-0.054
-266.282	-200.000	-0.062	-0.349
-265.267	-47.608	-0.200	0.097
-264.253	800.000	-0.048	0.193
-263.238	-200.000	-0.047	-0.231
-262.224	227.635	-0.110	-0.179
-261.209	-127.103	-0.349	0.051
-260.195	-115.938	0.297	-0.055
-259.180	800.000	-0.109	-0.395
-258.165	18.575	0.215	-0.171
-257.151	800.000	-0.041	-0.173
-256.136	69.940	-0.120	0.123
-255.122	111.327	0.106	-0.127
-254.107	676.452	0.119	-0.307
-253.092	199.717	0.215	0.329
-252.078	17.389	0.055	0.044
-251.063	-77.517	0.203	-0.070
-250.049	-36.700	0.222	-0.119
-249.034	41.239	0.081	-0.073
-248.019	273.539	-0.086	-0.151
-247.005	273.260	-0.162	0.284
-245.990	-83.713	0.343	0.109
-244.976	-200.000	-0.041	-0.300
-243.961	-119.891	0.128	-0.022
-242.946	185.392	-0.177	-0.262
-241.932	800.000	0.043	0.151
-240.917	-71.524	-0.161	-0.060
-239.903	1.890	-0.067	-0.048
-238.888	-200.000	-0.024	-0.154
-237.873	-42.771	0.154	-0.078
-236.859	-127.359	-0.193	-0.028
-235.844	249.211	0.149	0.252
-234.830	79.407	0.264	0.282
-233.815	228.137	0.164	0.265
-232.800	335.588	-0.143	-0.276
-231.786	-179.133	0.264	0.006
-230.771	800.000	0.045	0.142
-229.757	-72.121	-0.332	-0.122
-228.742	-200.000	0.007	0.070
-227.727	107.056	0.318	0.376
-226.713	-56.378	-0.113	0.050
-225.698	22.484	0.152	0.123
-224.684	-92.097	-0.057	-0.016
-223.669	717.771	-0.106	-0.281
-222.655	-30.421	0.271	-0.153
-221.640	124.933	0.078	-0.098
-220.625	800.000	-0.018	-0.057
-219.611	-65.044	-0.338	0.136
-218.596	-188.685	-0.033	-0.000
-217.582	29.665	-0.136	0.115
-216.567	-89.044	-0.248	0.073
-215.552	57.520	0.040	0.039
-214.538	-136.708	-0.168	-0.019
-213.523	-110.498	0.010	0.002
-212.509	105.079	0.145	-0.170
-211.494	-142.779	-0.159	0.015
-210.479	-39.092	0.036	0.019
-209.465	-86.308	-0.272	0.083
-208.450	-153.297	0.542	-0.038
-207.436	68.870	-0.204	-0.208
-206.421	-49.295	-0.182	0.086
-205.406	-124.275	0.144	-0.022
-204.392	-40.611	0.028	0.015
-203.377	800.000	-0.022	-0.061
-202.363	-190.525	-0.079	-0.001
-201.348	550.632	-0.049	-0.116
-200.333	398.339	-0.014	-0.028
-199.319	42.814	0.195	0.177
-198.304	-0.777	0.256	0.181
-197.290	48.758	0.093	0.087
-196.275	180.270	0.167	0.243
-195.260	504.403	0.030	-0.070
-194.246	-120.179	0.216	0.037
-193.231	258.427	0.096	0.163
-192.217	-110.437	-0.225	-0.046
-191.202	129.885	-0.165	0.209
-190.187	99.956	-0.112	-0.129
-189.173	643.603	0.151	0.381
-188.158	257.567	-0.076	0.130
-187.144	-57.527	-0.235	0.102
-186.129	102.753	0.136	0.158
-185.114	-70.279	0.058	0.022
-184.100	-114.686	-0.029	0.006
-183.085	800.000	0.079	0.242
-182.071	284.613	-0.156	-0.280
-181.056	50.226	-0.181	-0.170
-180.042	7.762	0.084	0.063
-179.027	-49.755	0.274	0.129
-178.012	-153.101	-0.196	-0.014
-176.998	-200.000	-0.021	-0.145
-175.983	8.553	0.329	-0.245
-174.969	346.562	-0.130	-0.254
-173.954	-44.162	0.042	0.021
-172.939	-200.000	0.001	-0.406
-171.925	-107.154	0.323	-0.071
-170.910	143.820	0.038	-0.051
-169.896	-52.215	-0.120	0.055
-168.881	142.781	-0.187	0.246
-167.866	782.810	-0.147	0.398
-166.852	-36.686	0.188	0.100
-165.837	800.000	0.054	-0.227
-164.823	-10.992	0.283	0.185
-163.808	206.800	-0.142	0.219
-162.793	-200.000	-0.019	0.100
-161.779	-82.100	0.438	0.142
-160.764	-200.000	0.012	0.294
-159.750	161.407	0.219	0.304
-158.735	-172.076	-0.155	0.005
-157.720	-3.813	-0.161	-0.111
-156.706	800.000	-0.074	0.224
-155.691	24.182	0.112	-0.092
-154.677	392.096	-0.037	-0.076
-153.662	208.661	-0.078	-0.121
-152.647	362.131	-0.013	0.027
-151.633	116.090	-0.071	0.087
-150.618	52.581	0.245	0.232
-149.604	-200.000	-0.009	-0.102
-148.589	-187.807	0.384	-0.005
-147.574	647.259	-0.034	0.086
-146.560	54.499	0.181	0.173
-145.545	-136.728	0.112	0.013
-144.531	-121.933	0.314	0.051
-143.516	173.897	0.124	0.177
-142.502	-56.755	-0.127	-0.056
-141.487	800.000	-0.026	0.101
-140.472	217.846	0.130	-0.205
-139.458	800.000	-0.050	0.142
-138.443	52.607	-0.114	-0.108
-137.429	51.939	0.069	0.066
-136.414	800.000	0.066	0.245
-135.399	-92.637	0.063	0.018
-134.385	-200.000	0.039	-0.391
-133.370	-86.646	0.266	0.081
-132.356	700.043	0.095	0.248
-131.341	184.944	-0.042	-0.062
-130.326	-91.626	0.135	0.038
-129.312	-40.675	-0.178	0.092
-128.297	-17.625	0.267	-0.166
-127.283	111.011	0.084	0.100
-126.268	-14.276	-0.240	0.153
-125.253	209.532	0.047	0.074
-124.239	-69.844	0.137	-0.052
-123.224	83.205	-0.016	-0.017
-122.210	-50.962	0.140	-0.065
-121.195	-65.806	0.208	0.082
-120.180	-128.848	0.276	-0.038
