DTS Sentinel unit serial number:	SN413079Multiplexer serial number:	ORYXHardware model number:	OX4-SRSoftware version number:	ORYX F/W v4.00 Oryx Data Collector v3.7.2.0data status	okinstallation	princeton_trtdifferential loss correction	single-endedforward channel	channel 1reverse channel	N/Adate	2019/09/17time	03:30:35forward acquisition time	60.00reverse acquisition time	0.00gamma	496.2192k internal	0.2323k external	0.2323temperature offset calibration	0.9960default loss term (dB/km)	0.3790temperature slope calibration	1.0000multiplexer offset coefficient	1.0000multiplexer slope coefficient	1.0000fibre end	0.00T internal ref (°C)	30.02T ext. ref 1 (°C)	0.13T ext. ref 2 (°C)	24.67length (m)	temperature (°C)	Stokes	anti-Stokes-747.200	800.000	0.013	-0.047
-746.185	800.000	-0.038	0.168
-745.171	10.576	-0.263	0.203
-744.156	-200.000	-0.017	0.370
-743.142	-200.000	0.007	-0.039
-742.127	-72.258	-0.332	0.124
-741.112	-30.512	0.430	0.246
-740.098	-200.000	0.051	0.259
-739.083	800.000	0.060	-0.207
-738.069	224.044	0.134	0.219
-737.054	7.130	-0.098	-0.074
-736.039	-19.048	-0.414	-0.260
-735.025	800.000	0.137	0.412
-734.010	-84.550	-0.276	-0.088
-732.996	127.337	-0.172	0.220
-731.981	-200.000	-0.025	-0.124
-730.966	800.000	0.027	0.086
-729.952	-140.010	-0.081	0.009
-728.937	-47.715	-0.146	-0.072
-727.923	-153.088	0.090	-0.006
-726.908	206.867	-0.222	-0.349
-725.894	-54.646	-0.246	0.112
-724.879	49.392	-0.354	-0.336
-723.864	466.064	0.039	0.087
-722.850	381.632	-0.080	0.167
-721.835	-21.151	-0.384	0.237
-720.821	492.608	-0.129	0.298
-719.806	442.765	0.055	0.123
-718.791	-59.067	-0.313	0.136
-717.777	142.828	0.129	-0.173
-716.762	72.976	-0.061	0.064
-715.748	800.000	0.014	0.041
-714.733	-156.309	-0.063	-0.004
-713.718	800.000	-0.070	-0.196
-712.704	-172.006	-0.110	0.004
-711.689	-182.285	-0.063	-0.001
-710.675	57.710	-0.226	0.223
-709.660	171.708	-0.144	0.209
-708.645	-200.000	-0.029	-0.306
-707.631	16.438	-0.264	0.210
-706.616	800.000	0.084	-0.270
-705.602	-3.794	0.118	0.082
-704.587	-200.000	0.013	-0.098
-703.572	-116.789	-0.094	-0.017
-702.558	-85.360	0.068	-0.021
-701.543	800.000	-0.033	0.134
-700.529	108.474	0.265	-0.319
-699.514	-157.646	-0.138	0.008
-698.499	33.112	0.268	0.235
-697.485	608.887	-0.124	-0.311
-696.470	194.427	-0.123	-0.188
-695.456	-119.149	-0.199	0.035
-694.441	173.639	-0.193	0.280
-693.426	-86.056	-0.237	0.074
-692.412	201.458	0.275	-0.427
-691.397	-200.000	0.323	-0.001
-690.383	-134.822	-0.144	0.018
-689.368	147.370	-0.083	0.113
-688.354	81.684	0.259	0.283
-687.339	-63.500	0.257	0.106
-686.324	270.196	-0.132	0.235
-685.310	-71.267	0.046	0.017
-684.295	432.887	-0.045	0.098
-683.281	-200.000	0.041	-0.236
-682.266	-200.000	0.014	0.125
-681.251	-200.000	-0.042	-0.286
-680.237	-107.164	0.319	0.071
-679.222	-40.464	-0.089	0.046
-678.208	786.175	-0.083	-0.229
-677.193	27.219	-0.129	-0.109
-676.178	-24.042	0.199	0.120
-675.164	-200.000	-0.004	-0.080
-674.149	10.397	-0.140	-0.107
-673.135	-160.078	-0.138	0.008
-672.120	106.750	0.098	0.117
-671.105	-200.000	0.043	-0.301
-670.091	-200.000	-0.046	-0.279
-669.076	-71.931	-0.378	0.141
-668.062	29.820	0.104	0.089
-667.047	-200.000	-0.022	0.101
-666.032	-36.246	0.125	0.068
-665.018	-23.250	-0.144	-0.087
-664.003	-170.174	-0.089	0.003
-662.989	-105.896	0.333	-0.076
-661.974	-63.238	0.033	-0.014
-660.959	-161.056	0.200	-0.011
-659.945	800.000	0.182	-0.516
-658.930	-200.000	0.000	0.111
-657.916	800.000	-0.063	-0.192
-656.901	288.790	-0.268	-0.489
-655.886	63.258	-0.177	-0.179
-654.872	209.780	-0.127	-0.200
-653.857	-18.895	0.020	0.012
-652.843	-46.524	-0.207	-0.102
-651.828	396.988	-0.045	0.095
-650.814	-56.386	-0.419	-0.187
-649.799	330.793	0.109	0.210
-648.784	800.000	0.067	-0.292
-647.770	2.653	0.269	-0.196
-646.755	-70.025	0.211	-0.081
-645.741	-124.427	-0.090	-0.014
-644.726	-3.249	0.313	-0.220
-643.711	104.620	-0.128	-0.152
-642.697	48.739	0.009	0.009
-641.682	800.000	-0.063	-0.218
-640.668	-78.565	-0.095	0.033
-639.653	-81.911	0.211	0.069
-638.638	177.896	-0.101	-0.149
-637.624	27.891	0.110	-0.093
-636.609	800.000	0.066	-0.236
-635.595	64.113	0.195	-0.197
-634.580	-63.526	-0.140	-0.058
-633.565	25.789	-0.161	0.135
-632.551	-200.000	0.001	0.282
-631.536	592.964	0.088	0.219
-630.522	-13.576	-0.116	-0.076
-629.507	800.000	-0.075	0.223
-628.492	64.453	0.443	-0.449
-627.478	-143.764	0.196	-0.019
-626.463	426.618	-0.067	-0.146
-625.449	578.175	0.052	-0.129
-624.434	321.933	-0.075	-0.144
-623.419	-44.872	-0.379	-0.190
-622.405	-93.816	0.219	-0.061
-621.390	-81.350	-0.149	-0.049
-620.376	165.512	0.115	0.164
-619.361	800.000	0.062	0.212
-618.346	332.368	-0.032	0.061
-617.332	-200.000	0.013	-0.195
-616.317	800.000	0.119	0.490
-615.303	-114.126	-0.203	0.039
-614.288	162.218	0.037	0.052
-613.273	-200.000	-0.003	0.102
-612.259	-200.000	-0.001	-0.103
-611.244	141.903	-0.109	-0.145
-610.230	67.715	0.229	-0.235
-609.215	800.000	-0.105	-0.292
-608.201	128.123	-0.272	-0.347
-607.186	-156.014	-0.271	0.017
-606.171	-200.000	0.009	0.278
-605.157	-99.251	0.112	0.028
-604.142	382.594	0.045	-0.092
-603.128	166.211	-0.178	0.253
-602.113	800.000	-0.076	-0.279
-601.098	45.267	-0.078	0.072
-600.084	-1.271	0.125	0.089
-599.069	215.834	0.058	-0.093
-598.055	-116.881	0.161	-0.030
-597.040	-200.000	-0.012	-0.055
-596.025	60.216	0.102	-0.101
-595.011	205.254	0.156	-0.244
-593.996	-48.722	-0.123	-0.059
-592.982	-145.464	-0.341	0.031
-591.967	48.196	0.158	0.148
-590.952	72.884	-0.190	0.200
-589.938	-88.498	-0.116	-0.035
-588.923	800.000	-0.095	-0.282
-587.909	-200.000	-0.028	0.131
-586.894	169.721	-0.214	-0.307
-585.879	-148.868	0.340	0.028
-584.865	-33.884	0.216	-0.119
-583.850	71.810	-0.186	0.194
-582.836	-119.778	0.199	-0.034
-581.821	118.934	0.165	-0.205
-580.806	345.789	0.101	0.199
-579.792	-8.343	0.128	0.087
-578.777	76.956	-0.250	-0.267
-577.763	109.557	-0.100	0.121
-576.748	-8.821	0.261	-0.176
-575.733	-40.491	0.157	0.082
-574.719	356.287	0.178	0.357
-573.704	-65.091	-0.272	0.110
-572.690	-200.000	0.000	0.213
-571.675	10.679	-0.198	0.152
-570.661	-158.048	-0.256	-0.015
-569.646	800.000	-0.134	-0.454
-568.631	-53.190	0.326	-0.150
-567.617	-7.195	-0.071	0.048
-566.602	39.962	-0.251	-0.226
-565.588	245.377	-0.181	0.305
-564.573	-86.069	-0.296	0.092
-563.558	-79.586	0.177	0.060
-562.544	401.983	0.109	0.229
-561.529	-91.139	0.242	0.070
-560.515	-140.772	-0.332	0.034
-559.500	-200.000	-0.032	0.395
-558.485	19.562	0.131	0.106
-557.471	-200.000	-0.003	0.203
-556.456	-200.000	-0.010	0.060
-555.442	800.000	0.081	-0.259
-554.427	800.000	-0.065	0.248
-553.412	41.385	-0.336	-0.304
-552.398	-200.000	0.007	0.062
-551.383	25.080	0.080	-0.067
-550.369	800.000	0.033	0.099
-549.354	-58.351	-0.042	-0.018
-548.339	68.207	0.058	0.059
-547.325	-23.409	-0.152	0.092
-546.310	800.000	0.057	0.207
-545.296	-27.988	-0.189	0.109
-544.281	25.277	0.074	0.062
-543.266	-7.956	0.100	0.068
-542.252	321.139	0.070	0.133
-541.237	-200.000	0.006	0.145
-540.223	334.809	-0.129	-0.251
-539.208	-161.046	0.215	0.011
-538.193	-105.222	-0.296	-0.068
-537.179	118.286	-0.007	0.008
-536.164	39.841	0.041	0.037
-535.150	138.278	-0.214	0.282
-534.135	-200.000	0.067	-0.314
-533.121	42.876	-0.113	-0.103
-532.106	-200.000	0.011	0.182
-531.091	-200.000	0.001	-0.115
-530.077	-41.867	-0.172	-0.088
-529.062	738.630	0.035	-0.094
-528.048	507.117	0.030	0.070
-527.033	126.720	-0.058	0.074
-526.018	-112.529	0.219	-0.044
-525.004	-64.085	-0.100	0.041
-523.989	-125.351	0.253	-0.039
-522.975	800.000	0.031	0.113
-521.960	9.677	0.125	0.095
-520.945	-91.784	-0.066	-0.019
-519.931	-200.000	0.016	-0.164
-518.916	-135.760	0.159	-0.019
-517.902	477.516	0.058	0.131
-516.887	-164.127	-0.055	0.003
-515.872	-84.661	0.226	0.071
-514.858	110.403	-0.089	-0.107
-513.843	157.471	-0.024	-0.033
-512.829	-91.945	0.214	0.061
-511.814	90.638	0.078	-0.088
-510.799	800.000	0.053	0.194
-509.785	-49.884	-0.067	0.032
-508.770	-41.428	0.055	-0.028
-507.756	22.999	-0.213	0.175
-506.741	-200.000	0.025	-0.232
-505.726	529.116	0.149	-0.353
-504.712	242.370	-0.070	-0.117
-503.697	212.465	0.093	-0.146
-502.683	272.353	-0.078	-0.138
-501.668	356.344	0.070	-0.140
-500.653	-96.698	0.116	0.030
-499.639	-154.083	0.077	0.005
-498.624	-82.845	0.308	0.100
-497.610	-200.000	0.004	0.125
-496.595	-200.000	0.032	-0.141
-495.581	3.726	0.083	-0.060
-494.566	-200.000	-0.034	-0.274
-493.551	-200.000	0.060	-0.478
-492.537	188.202	0.215	-0.322
-491.522	-200.000	-0.017	-0.350
-490.508	244.234	-0.039	-0.066
-489.493	7.219	0.181	-0.135
-488.478	48.298	0.170	0.159
-487.464	739.464	-0.025	0.068
-486.449	-200.000	0.020	-0.255
-485.435	168.059	-0.085	-0.121
-484.420	494.998	0.048	0.111
-483.405	-14.632	0.144	0.093
-482.391	-31.123	-0.216	-0.122
-481.376	-169.894	-0.260	-0.009
-480.362	20.453	0.082	0.067
-479.347	-200.000	-0.030	0.341
-478.332	0.778	-0.367	-0.263
-477.318	-200.000	0.019	0.105
-476.303	585.787	-0.182	0.447
-475.289	-200.000	0.013	-0.206
-474.274	-144.518	-0.199	-0.018
-473.259	-115.849	0.235	-0.044
-472.245	-170.444	0.408	-0.014
-471.230	-200.000	-0.037	0.201
-470.216	-200.000	0.021	-0.255
-469.201	350.464	0.039	-0.076
-468.186	-200.000	0.021	-0.165
-467.172	-52.029	-0.104	0.048
-466.157	-132.178	-0.191	-0.025
-465.143	605.693	-0.018	-0.044
-464.128	800.000	0.045	0.143
-463.113	800.000	0.190	0.624
-462.099	315.508	0.084	0.157
-461.084	-79.961	0.068	0.023
-460.070	288.309	-0.089	-0.161
-459.055	65.196	0.377	-0.381
-458.040	-200.000	0.000	-0.088
-457.026	37.699	0.317	0.281
-456.011	-200.000	-0.037	-0.229
-454.997	19.265	-0.235	0.188
-453.982	-77.857	0.109	-0.038
-452.968	84.655	0.038	-0.041
-451.953	-122.161	0.051	0.008
-450.938	237.092	0.105	0.174
-449.924	74.111	-0.018	0.018
-448.909	-200.000	0.037	0.173
-447.895	189.761	0.095	-0.142
-446.880	-54.897	0.446	0.201
-445.865	-41.506	-0.316	0.162
-444.851	153.639	-0.129	-0.176
-443.836	-68.267	-0.063	-0.024
-442.822	-160.362	-0.030	-0.002
-441.807	-200.000	-0.050	-0.258
-440.792	-200.000	0.012	0.076
-439.778	376.412	-0.144	-0.294
-438.763	-86.840	-0.241	-0.074
-437.749	-167.505	0.156	-0.006
-436.734	-105.192	-0.083	-0.019
-435.719	-167.878	-0.166	-0.007
-434.705	-16.909	0.170	0.107
-433.690	55.487	0.055	-0.053
-432.676	-138.391	-0.049	0.005
-431.661	-19.793	-0.345	0.213
-430.646	42.332	-0.383	-0.347
-429.632	-200.000	0.023	0.201
-428.617	800.000	-0.102	0.374
-427.603	82.470	0.024	0.026
-426.588	-200.000	-0.031	-0.149
-425.573	800.000	0.050	0.164
-424.559	-132.434	-0.280	0.036
-423.544	-92.450	0.100	-0.028
-422.530	63.231	0.138	-0.138
-421.515	334.517	0.046	-0.089
-420.500	-46.130	-0.213	0.104
-419.486	68.318	0.126	0.128
-418.471	-133.943	0.107	0.013
-417.457	800.000	0.051	0.171
-416.442	-170.307	0.365	0.013
-415.428	-147.581	-0.097	-0.008
-414.413	786.284	0.103	0.283
-413.398	254.198	-0.119	-0.203
-412.384	648.715	0.193	-0.492
-411.369	-127.751	0.119	-0.017
-410.355	110.187	-0.076	0.091
-409.340	662.112	-0.072	0.184
-408.325	396.968	0.174	0.363
-407.311	62.316	0.171	-0.170
-406.296	-82.336	-0.097	-0.032
-405.282	-200.000	-0.040	0.268
-404.267	216.766	0.146	-0.232
-403.252	36.670	0.120	0.105
-402.238	800.000	-0.007	-0.025
-401.223	176.018	-0.385	0.558
-400.209	190.623	0.149	0.223
-399.194	68.881	-0.106	0.108
-398.179	643.128	-0.028	-0.072
-397.165	-200.000	0.000	0.187
-396.150	327.447	0.119	0.228
-395.136	-94.305	-0.117	-0.032
-394.121	-200.000	0.012	-0.246
-393.106	-42.524	-0.259	0.131
-392.092	-200.000	0.011	-0.104
-391.077	90.606	0.160	-0.178
-390.063	9.038	0.209	-0.157
-389.048	-100.148	-0.168	-0.042
-388.033	-7.394	0.219	0.148
-387.019	534.353	-0.140	-0.331
-386.004	-95.612	-0.132	0.035
-384.990	279.818	-0.085	-0.151
-383.975	-200.000	0.021	0.146
-382.960	-200.000	-0.022	-0.176
-381.946	-193.417	0.321	-0.003
-380.931	2.086	-0.185	0.133
-379.917	106.148	-0.084	0.099
-378.902	4.063	-0.222	0.161
-377.888	800.000	0.062	-0.190
-376.873	-200.000	-0.013	-0.088
-375.858	-76.852	-0.235	0.082
-374.844	256.055	-0.060	0.103
-373.829	-40.841	-0.255	-0.131
-372.815	-111.900	0.255	0.051
-371.800	-200.000	0.009	0.116
-370.785	204.892	0.191	-0.295
-369.771	218.253	0.277	-0.440
-368.756	-53.041	0.276	-0.126
-367.742	146.825	-0.052	0.070
-366.727	-194.365	0.073	-0.001
-365.712	143.700	-0.081	-0.108
-364.698	-200.000	-0.026	-0.289
-363.683	-181.997	0.509	-0.010
-362.669	129.783	0.086	0.109
-361.654	491.668	-0.130	-0.296
-360.639	-93.984	0.249	-0.068
-359.625	272.757	-0.122	-0.214
-358.610	-21.950	0.256	0.155
-357.596	-189.570	0.267	-0.003
-356.581	13.373	-0.203	-0.156
-355.566	466.662	-0.120	-0.267
-354.552	431.529	-0.054	0.116
-353.537	356.585	-0.097	0.192
-352.523	-200.000	0.076	0.383
-351.508	97.553	-0.062	-0.071
-350.493	-39.177	-0.074	-0.039
-349.479	131.485	-0.103	-0.131
-348.464	101.230	0.203	-0.235
-347.450	516.258	0.058	-0.135
-346.435	-11.654	-0.420	0.274
-345.420	123.438	0.102	0.128
-344.406	-200.000	-0.056	-0.303
-343.391	-136.345	0.062	0.007
-342.377	-178.854	-0.289	-0.007
-341.362	-200.000	-0.015	0.515
-340.348	-200.000	-0.049	0.282
-339.333	360.804	-0.144	-0.287
-338.318	-200.000	-0.003	-0.157
-337.304	8.835	0.020	-0.015
-336.289	30.976	0.170	-0.145
-335.275	339.812	-0.078	-0.151
-334.260	45.083	-0.156	0.143
-333.245	-146.882	-0.087	0.007
-332.231	-50.305	0.070	0.033
-331.216	-140.048	-0.200	-0.021
-330.202	52.441	-0.223	-0.212
-329.187	13.452	-0.171	0.132
-328.172	-22.356	0.019	0.012
-327.158	145.572	0.133	-0.177
-326.143	-132.077	-0.372	-0.048
-325.129	-89.457	0.170	-0.050
-324.114	234.103	0.123	0.201
-323.099	-45.672	-0.099	0.048
-322.085	800.000	0.078	-0.267
-321.070	-52.693	0.131	-0.060
-320.056	59.120	0.350	0.342
-319.041	57.621	-0.053	-0.051
-318.026	119.571	0.145	0.178
-317.012	-200.000	-0.113	-0.643
-315.997	800.000	0.038	-0.157
-314.983	-200.000	-0.075	0.356
-313.968	-114.794	-0.153	-0.029
-312.953	800.000	0.027	0.106
-311.939	-113.549	0.271	0.053
-310.924	173.504	0.143	0.204
-309.910	68.152	-0.103	-0.105
-308.895	145.091	0.200	0.266
-307.880	178.692	0.083	0.120
-306.866	800.000	-0.029	-0.101
-305.851	-130.575	-0.372	0.050
-304.837	144.438	0.104	0.138
-303.822	35.707	0.138	-0.121
-302.807	12.407	-0.281	0.215
-301.793	800.000	-0.021	-0.072
-300.778	-14.114	0.074	0.047
-299.764	-37.322	-0.326	-0.173
-298.749	8.548	0.344	0.257
-297.735	-63.172	-0.191	-0.078
-296.720	389.605	0.145	-0.299
-295.705	146.906	-0.114	0.153
-294.691	-91.809	-0.109	-0.031
-293.676	368.725	-0.088	-0.176
-292.662	173.779	-0.121	-0.173
-291.647	10.866	0.193	0.147
-290.632	-143.165	-0.261	0.025
-289.618	-63.430	-0.189	-0.077
-288.603	319.670	0.059	0.111
-287.589	-146.065	-0.480	-0.042
-286.574	-45.640	-0.174	0.085
-285.559	253.752	0.193	0.328
-284.545	-131.273	-0.128	-0.017
-283.530	-200.000	-0.001	0.266
-282.516	-157.725	-0.412	-0.024
-281.501	-9.548	-0.086	-0.057
-280.486	221.711	0.099	-0.158
-279.472	-200.000	-0.002	0.087
-278.457	73.165	-0.143	-0.148
-277.443	-200.000	0.058	-0.282
-276.428	558.860	0.087	0.209
-275.413	-200.000	-0.028	-0.269
-274.399	-177.876	-0.273	-0.006
-273.384	-33.144	-0.196	0.107
-272.370	-200.000	0.064	-0.534
-271.355	-200.000	0.032	0.405
-270.340	-54.437	0.184	0.083
-269.326	11.129	-0.344	-0.261
-268.311	197.741	-0.132	0.200
-267.297	-14.951	-0.192	0.122
-266.282	59.357	0.040	-0.039
-265.267	-132.950	-0.021	-0.003
-264.253	-200.000	-0.078	-0.358
-263.238	-200.000	-0.014	-0.127
-262.224	800.000	0.053	-0.212
-261.209	128.874	0.239	-0.302
-260.195	800.000	-0.061	0.169
-259.180	800.000	-0.079	0.297
-258.165	558.249	-0.021	0.049
-257.151	800.000	0.031	0.109
-256.136	-50.619	-0.131	0.061
-255.122	-80.722	0.338	-0.111
-254.107	-80.909	0.417	0.137
-253.092	-30.396	-0.225	0.127
-252.078	-54.985	0.212	-0.095
-251.063	-81.575	0.317	0.103
-250.049	25.870	-0.093	0.076
-249.034	186.523	0.089	-0.131
-248.019	-132.144	0.049	-0.006
-247.005	24.520	-0.205	0.168
-245.990	520.964	-0.135	-0.314
-244.976	32.170	0.095	-0.081
-243.961	-110.801	-0.046	-0.009
-242.946	-200.000	0.312	0.000
-241.932	800.000	0.042	-0.116
-240.917	-52.445	0.099	-0.045
-239.903	-9.784	0.204	0.135
-238.888	-42.837	-0.060	-0.030
-237.873	126.014	0.409	0.512
-236.859	525.253	0.212	0.494
-235.844	337.230	0.094	0.180
-234.830	297.948	-0.109	0.199
-233.815	22.959	0.275	0.223
-232.800	-97.282	-0.116	-0.030
-231.786	790.504	0.094	-0.255
-230.771	-37.860	0.229	0.120
-229.757	800.000	0.042	0.130
-228.742	63.176	0.248	0.246
-227.727	-101.739	-0.142	0.034
-226.713	-119.039	-0.091	-0.016
-225.698	644.560	0.118	0.299
-224.684	-74.993	0.340	-0.120
-223.669	-114.436	0.321	0.061
-222.655	-99.496	0.193	0.048
-221.640	-124.304	-0.222	0.034
-220.625	-30.281	0.194	0.109
-219.611	-200.000	0.004	-0.184
-218.596	-145.845	0.110	0.010
-217.582	492.876	-0.201	0.456
-216.567	-200.000	-0.003	-0.101
-215.552	-188.421	0.224	-0.003
-214.538	103.320	-0.151	0.175
-213.523	87.276	0.033	-0.036
-212.509	-102.692	-0.117	-0.028
-211.494	-10.738	-0.146	-0.096
-210.479	79.205	-0.058	-0.062
-209.465	149.676	-0.380	0.510
-208.450	-57.393	0.150	0.065
-207.436	202.607	-0.138	-0.210
-206.421	-97.586	0.107	-0.027
-205.406	542.129	-0.065	-0.153
-204.392	-200.000	-0.005	0.225
-203.377	90.640	-0.128	-0.142
-202.363	42.976	-0.384	-0.346
-201.348	-32.890	-0.196	-0.108
-200.333	-118.529	0.069	-0.012
-199.319	66.935	-0.049	0.049
-198.304	581.713	-0.018	-0.043
-197.290	-99.532	-0.636	0.158
-196.275	-200.000	-0.035	0.278
-195.260	-139.657	-0.169	-0.018
-194.246	-49.230	0.218	0.103
-193.231	114.532	0.245	-0.295
-192.217	-33.109	-0.372	-0.204
-191.202	-127.254	-0.157	0.023
-190.187	274.841	-0.129	0.225
-189.173	3.430	-0.250	0.180
-188.158	225.615	-0.081	0.130
-187.144	-44.878	-0.155	-0.077
-186.129	-200.000	-0.007	-0.092
-185.114	-53.177	-0.158	0.072
-184.100	-173.008	0.214	0.007
-183.085	27.015	0.178	0.148
-182.071	610.712	-0.065	0.160
-181.056	-98.546	-0.080	0.020
-180.042	-200.000	0.093	-0.435
-179.027	40.278	-0.142	-0.126
-178.012	-56.180	0.100	0.044
-176.998	-146.435	-0.123	0.011
-175.983	79.477	0.252	0.267
-174.969	0.925	0.190	0.135
-173.954	-39.808	-0.183	0.095
-172.939	524.178	-0.112	0.260
-171.925	-6.433	-0.362	-0.244
-170.910	251.758	-0.141	-0.237
-169.896	-97.846	0.258	-0.066
-168.881	288.215	-0.079	0.141
-167.866	-156.907	0.086	0.005
-166.852	79.789	0.124	-0.132
-165.837	-63.674	0.111	-0.045
-164.823	-138.272	0.265	0.029
-163.808	-1.640	0.177	0.123
-162.793	-124.400	-0.266	-0.041
-161.779	-19.077	0.120	-0.073
-160.764	-81.058	-0.247	-0.081
-159.750	413.934	-0.086	0.180
-158.735	-128.395	0.485	0.068
-157.720	-38.144	-0.065	-0.034
-156.706	-1.189	0.311	0.217
-155.691	93.807	-0.198	-0.222
-154.677	-19.322	-0.088	-0.054
-153.662	69.990	0.181	0.184
-152.647	82.812	-0.182	0.195
-151.633	-47.273	0.060	0.029
-150.618	57.615	0.246	0.238
-149.604	-200.000	-0.002	-0.022
-148.589	-144.592	0.167	0.015
-147.574	800.000	-0.012	0.052
-146.560	-80.930	0.175	0.057
-145.545	258.229	0.103	0.175
-144.531	-75.266	0.092	-0.032
-143.516	800.000	-0.040	0.138
-142.502	-98.395	0.371	-0.094
-141.487	-41.107	-0.131	-0.067
-140.472	350.126	0.102	0.199
-139.458	207.659	-0.195	0.301
-138.443	23.584	-0.128	0.104
-137.429	-200.000	-0.054	-0.369
-136.414	800.000	-0.055	-0.159
-135.399	354.645	0.159	0.311
-134.385	35.346	-0.182	0.158
-133.370	15.045	0.225	-0.174
-132.356	309.454	-0.138	0.255
-131.341	182.538	0.180	0.262
-130.326	128.595	0.199	0.250
-129.312	90.743	-0.209	0.231
-128.297	800.000	-0.116	0.453
-127.283	366.188	-0.071	-0.142
-126.268	-174.019	-0.238	0.007
-125.253	-102.900	-0.232	-0.054
-124.239	348.962	0.174	0.338
-123.224	-156.081	0.093	0.006
-122.210	-87.965	-0.318	0.094
-121.195	-78.021	0.430	0.146
