DTS Sentinel unit serial number:	SN413079Multiplexer serial number:	ORYXHardware model number:	OX4-SRSoftware version number:	ORYX F/W v4.00 Oryx Data Collector v3.7.2.0data status	okinstallation	princeton_trtdifferential loss correction	single-endedforward channel	channel 1reverse channel	N/Adate	2019/09/19time	07:14:35forward acquisition time	60.00reverse acquisition time	0.00gamma	496.2192k internal	0.2342k external	0.2342temperature offset calibration	1.0013default loss term (dB/km)	0.3790temperature slope calibration	1.0000multiplexer offset coefficient	1.0000multiplexer slope coefficient	1.0000fibre end	0.00T internal ref (°C)	19.06T ext. ref 1 (°C)	0.56T ext. ref 2 (°C)	13.48length (m)	temperature (°C)	Stokes	anti-Stokes-747.200	-7.403	-0.306	-0.208
-746.185	90.828	-0.073	0.082
-745.171	147.640	0.238	0.322
-744.156	133.605	-0.314	0.406
-743.142	-200.000	0.052	0.380
-742.127	800.000	-0.063	0.220
-741.112	19.358	-0.199	0.160
-740.098	-29.429	0.087	-0.050
-739.083	800.000	0.066	0.238
-738.069	132.127	-0.103	-0.132
-737.054	-200.000	-0.065	-0.441
-736.039	7.101	-0.125	0.094
-735.025	-59.437	-0.252	0.108
-734.010	34.585	-0.226	-0.198
-732.996	74.112	0.142	-0.149
-731.981	-61.560	-0.236	0.099
-730.966	-3.547	0.052	0.036
-729.952	795.224	-0.086	-0.238
-728.937	33.742	0.135	-0.117
-727.923	-200.000	0.009	0.123
-726.908	-200.000	0.017	0.126
-725.894	667.601	0.106	0.275
-724.879	150.480	0.019	0.026
-723.864	-114.864	-0.193	-0.037
-722.850	-24.102	0.076	0.046
-721.835	65.158	-0.184	-0.186
-720.821	27.498	0.041	0.035
-719.806	-82.688	0.170	0.055
-718.791	800.000	-0.079	-0.264
-717.777	-29.125	-0.218	0.125
-716.762	-10.689	-0.176	0.117
-715.748	-142.476	-0.566	-0.056
-714.733	800.000	-0.117	-0.368
-713.718	-118.166	-0.325	0.058
-712.704	-61.531	0.123	-0.052
-711.689	78.831	-0.024	0.026
-710.675	733.281	0.184	0.492
-709.660	-180.417	-0.232	0.005
-708.645	396.753	-0.025	0.052
-707.631	-200.000	-0.027	-0.307
-706.616	-46.799	-0.115	-0.057
-705.602	4.103	0.050	0.037
-704.587	-200.000	-0.043	0.235
-703.572	-80.391	0.287	-0.096
-702.558	-155.789	0.380	-0.024
-701.543	800.000	0.047	-0.171
-700.529	56.040	0.076	0.074
-699.514	800.000	0.040	-0.112
-698.499	-22.485	-0.214	-0.129
-697.485	800.000	-0.104	-0.330
-696.470	-200.000	0.006	-0.160
-695.456	-200.000	0.026	0.150
-694.441	-136.355	0.136	-0.016
-693.426	800.000	-0.101	0.358
-692.412	800.000	0.059	0.234
-691.397	-15.012	0.023	-0.015
-690.383	4.437	-0.167	0.123
-689.368	-42.788	-0.255	-0.130
-688.354	631.861	0.083	0.210
-687.339	-154.639	-0.137	-0.009
-686.324	-200.000	-0.036	-0.231
-685.310	-93.217	-0.184	-0.051
-684.295	-200.000	-0.045	-0.202
-683.281	376.551	-0.116	0.236
-682.266	-200.000	-0.023	-0.253
-681.251	-179.536	-0.126	-0.003
-680.237	550.213	0.143	-0.343
-679.222	115.027	0.173	-0.211
-678.208	9.514	0.324	0.245
-677.193	-169.230	-0.231	0.009
-676.178	-100.556	0.147	-0.036
-675.164	40.020	-0.322	-0.289
-674.149	8.487	0.075	0.056
-673.135	60.616	0.077	-0.076
-672.120	22.239	0.222	-0.181
-671.105	446.892	-0.126	-0.277
-670.091	-93.833	-0.309	0.085
-669.076	53.974	-0.237	0.228
-668.062	-103.237	0.085	-0.020
-667.047	-200.000	0.032	0.164
-666.032	-110.011	0.077	0.016
-665.018	-114.036	-0.076	-0.015
-664.003	-200.000	0.000	0.106
-662.989	-19.966	0.180	0.111
-661.974	201.531	0.135	0.207
-660.959	-129.938	0.234	-0.032
-659.945	-75.553	0.303	0.108
-658.930	539.973	0.121	0.287
-657.916	31.787	-0.339	-0.291
-656.901	151.192	0.233	0.317
-655.886	-27.527	-0.207	-0.120
-654.872	-10.617	0.242	-0.160
-653.857	-44.538	0.154	-0.077
-652.843	-59.755	0.295	0.126
-651.828	72.570	-0.113	-0.117
-650.814	759.232	-0.067	-0.182
-649.799	-25.438	0.307	0.181
-648.784	-85.207	-0.236	0.073
-647.770	-86.477	-0.300	-0.092
-646.755	-143.370	0.080	-0.008
-645.741	-144.914	0.442	-0.040
-644.726	685.517	-0.175	0.455
-643.711	-200.000	-0.003	-0.121
-642.697	-200.000	0.094	0.430
-641.682	7.613	0.192	0.143
-640.668	-200.000	-0.022	0.127
-639.653	800.000	-0.105	-0.360
-638.638	719.340	0.132	0.350
-637.624	-1.901	-0.225	-0.158
-636.609	96.033	-0.122	0.139
-635.595	-127.140	-0.234	-0.034
-634.580	322.695	0.096	0.182
-633.565	-177.046	-0.253	0.006
-632.551	60.935	0.189	0.187
-631.536	-200.000	0.035	0.188
-630.522	800.000	-0.020	0.069
-629.507	30.749	-0.157	0.134
-628.492	-200.000	0.021	0.322
-627.478	-52.020	0.198	-0.092
-626.463	315.990	-0.094	0.177
-625.449	800.000	-0.058	0.228
-624.434	-131.851	0.053	0.007
-623.419	800.000	0.039	-0.119
-622.405	425.215	0.083	0.178
-621.390	800.000	0.021	0.070
-620.376	-67.116	0.182	-0.071
-619.361	-40.485	-0.147	0.076
-618.346	-76.521	-0.390	-0.136
-617.332	62.092	0.404	-0.402
-616.317	-185.382	-0.180	0.003
-615.303	125.815	0.223	-0.281
-614.288	-45.981	-0.228	0.112
-613.273	266.257	-0.133	0.232
-612.259	-121.530	0.232	-0.038
-611.244	147.978	-0.180	0.242
-610.230	31.724	0.195	-0.168
-609.215	-200.000	0.012	-0.186
-608.201	346.843	-0.095	-0.186
-607.186	339.929	0.049	0.096
-606.171	-15.314	-0.174	0.111
-605.157	-200.000	0.020	-0.146
-604.142	-89.717	0.092	-0.027
-603.128	-17.075	0.131	-0.082
-602.113	137.631	0.209	-0.272
-601.098	217.992	-0.037	-0.058
-600.084	760.271	0.097	-0.262
-599.069	-200.000	0.070	-0.330
-598.055	800.000	-0.103	0.286
-597.040	-56.358	-0.257	0.114
-596.025	42.758	-0.203	0.184
-595.011	-200.000	0.011	0.109
-593.996	-91.794	0.149	-0.042
-592.982	-17.168	-0.080	-0.050
-591.967	443.480	0.109	-0.237
-590.952	113.642	-0.166	-0.201
-589.938	-164.975	0.159	0.007
-588.923	-65.075	0.173	-0.070
-587.909	38.983	-0.233	-0.207
-586.894	433.526	-0.117	-0.252
-585.879	-161.380	-0.440	0.023
-584.865	-117.861	-0.034	0.006
-583.850	-200.000	-0.051	-0.261
-582.836	-200.000	0.009	-0.133
-581.821	-200.000	-0.032	-0.253
-580.806	-200.000	-0.029	0.199
-579.792	-41.372	0.130	-0.067
-578.777	-108.376	-0.272	-0.058
-577.763	-200.000	-0.028	0.156
-576.748	-120.811	-0.472	0.079
-575.733	-129.112	-0.237	-0.033
-574.719	-153.688	-0.125	-0.009
-573.704	26.023	0.055	0.045
-572.690	-2.398	0.198	-0.138
-571.675	-21.968	0.399	0.241
-570.661	50.288	-0.170	0.160
-569.646	-11.277	0.408	0.267
-568.631	505.190	0.042	-0.097
-567.617	-58.787	-0.136	-0.059
-566.602	274.504	0.034	0.060
-565.588	-147.483	0.300	-0.025
-564.573	800.000	-0.083	-0.303
-563.558	275.710	0.107	0.188
-562.544	-10.347	0.207	0.136
-561.529	143.224	-0.136	-0.180
-560.515	0.897	0.264	0.188
-559.500	67.669	0.080	-0.081
-558.485	-81.278	-0.272	0.089
-557.471	700.228	-0.060	-0.156
-556.456	-200.000	-0.007	0.186
-555.442	-200.000	-0.041	-0.178
-554.427	510.713	-0.043	0.099
-553.412	757.426	-0.143	-0.384
-552.398	49.082	-0.076	-0.071
-551.383	-4.244	0.092	-0.063
-550.369	-120.715	0.404	0.068
-549.354	-200.000	-0.046	-0.208
-548.339	-200.000	0.019	-0.609
-547.325	-200.000	-0.023	-0.250
-546.310	-200.000	0.056	-0.283
-545.296	800.000	-0.115	0.385
-544.281	284.311	-0.032	-0.057
-543.266	-58.349	-0.165	0.071
-542.252	-169.469	0.186	0.007
-541.237	-57.841	0.413	-0.179
-540.223	-52.000	-0.209	-0.096
-539.208	800.000	0.029	-0.098
-538.193	-110.842	0.236	0.048
-537.179	-200.000	-0.012	-0.090
-536.164	-200.000	-0.064	0.290
-535.150	-76.073	0.072	-0.025
-534.135	-28.791	0.138	0.079
-533.121	-200.000	-0.013	0.069
-532.106	-32.069	-0.277	0.154
-531.091	-61.512	-0.165	-0.069
-530.077	49.631	-0.122	0.114
-529.062	-48.663	0.153	0.073
-528.048	210.261	-0.254	0.396
-527.033	800.000	-0.036	-0.118
-526.018	-2.991	0.121	0.084
-525.004	28.529	-0.071	0.060
-523.989	149.766	0.282	-0.379
-522.975	500.331	0.066	-0.151
-521.960	-200.000	-0.006	0.031
-520.945	361.330	0.111	-0.220
-519.931	30.215	-0.167	-0.141
-518.916	800.000	-0.092	0.377
-517.902	13.481	0.236	0.182
-516.887	-23.917	-0.220	0.131
-515.872	-58.376	-0.195	-0.084
-514.858	-58.157	-0.178	-0.077
-513.843	-111.306	0.243	0.049
-512.829	-170.625	0.110	-0.004
-511.814	21.742	0.234	0.189
-510.799	-133.711	0.382	0.047
-509.785	10.929	-0.088	0.067
-508.770	-53.715	-0.081	0.037
-507.756	-98.205	-0.159	-0.040
-506.741	-108.996	0.179	0.038
-505.726	290.727	-0.036	0.064
-504.712	-68.543	0.051	-0.020
-503.697	460.313	-0.079	0.175
-502.683	11.641	0.123	0.094
-501.668	-12.802	-0.231	-0.149
-500.653	-29.265	-0.174	-0.099
-499.639	-98.109	0.434	-0.111
-498.624	21.902	-0.142	-0.115
-497.610	800.000	0.075	0.253
-496.595	-107.437	-0.090	-0.020
-495.581	126.214	0.086	0.108
-494.566	-18.625	-0.180	0.112
-493.551	-175.977	0.234	-0.006
-492.537	800.000	0.070	0.230
-491.522	-200.000	-0.011	0.146
-490.508	-119.029	-0.048	-0.008
-489.493	800.000	-0.042	0.133
-488.478	-200.000	-0.027	-0.171
-487.464	349.944	0.109	0.215
-486.449	-3.481	0.135	-0.093
-485.435	157.922	0.141	0.193
-484.420	-24.544	-0.068	-0.040
-483.405	46.163	0.261	-0.240
-482.391	89.421	0.167	-0.185
-481.376	-121.365	0.313	0.052
-480.362	148.548	0.111	0.149
-479.347	89.178	-0.106	-0.117
-478.332	-200.000	0.023	0.146
-477.318	712.429	0.055	0.144
-476.303	117.063	-0.273	0.332
-475.289	-125.702	-0.301	0.045
-474.274	-7.609	0.179	0.120
-473.259	-7.909	0.173	0.116
-472.245	-148.038	0.322	0.027
-471.230	180.633	0.204	0.297
-470.216	-20.140	0.128	-0.078
-469.201	514.693	0.150	-0.347
-468.186	-102.899	-0.151	-0.036
-467.172	-134.492	0.095	-0.012
-466.157	-200.000	0.023	0.127
-465.143	3.152	-0.310	0.223
-464.128	685.682	0.036	-0.094
-463.113	-57.244	-0.083	-0.036
-462.099	-200.000	0.031	0.297
-461.084	306.616	0.129	-0.238
-460.070	39.414	0.083	0.074
-459.055	176.353	-0.122	-0.176
-458.040	-53.669	-0.340	0.154
-457.026	-200.000	0.053	-0.304
-456.011	-88.321	-0.315	-0.093
-454.997	23.805	-0.086	-0.070
-453.982	130.210	-0.027	-0.034
-452.968	-103.544	-0.079	-0.018
-451.953	-200.000	-0.035	-0.269
-450.938	800.000	-0.074	-0.210
-449.924	-67.642	0.325	0.126
-448.909	482.549	0.076	0.171
-447.895	800.000	0.062	-0.239
-446.880	-31.356	0.184	0.102
-445.865	-103.041	-0.131	-0.031
-444.851	-82.381	0.417	0.134
-443.836	-136.470	-0.245	-0.028
-442.822	-131.487	0.217	-0.028
-441.807	-84.245	0.192	-0.060
-440.792	800.000	0.052	-0.190
-439.778	800.000	-0.094	0.261
-438.763	-43.952	-0.098	0.049
-437.749	-28.470	0.116	-0.066
-436.734	-200.000	0.010	-0.083
-435.719	355.637	0.158	0.311
-434.705	75.550	0.281	0.293
-433.690	-86.248	-0.118	-0.036
-432.676	-13.156	0.109	-0.070
-431.661	800.000	-0.049	-0.147
-430.646	-109.741	0.104	0.022
-429.632	-76.814	0.271	-0.094
-428.617	-105.261	-0.044	-0.010
-427.603	-200.000	0.010	-0.085
-426.588	71.200	-0.321	-0.329
-425.573	-0.541	-0.004	-0.003
-424.559	-74.619	0.280	0.100
-423.544	800.000	0.103	-0.282
-422.530	-100.662	-0.268	-0.065
-421.515	41.624	0.053	-0.048
-420.500	435.053	0.167	0.359
-419.486	663.796	0.064	0.164
-418.471	800.000	0.090	-0.259
-417.457	131.970	-0.248	0.315
-416.442	-84.460	-0.170	-0.053
-415.428	35.771	0.074	0.065
-414.413	-147.028	-0.069	0.006
-413.398	800.000	0.147	0.405
-412.384	17.767	-0.062	-0.049
-411.369	-98.885	-0.234	-0.059
-410.355	-11.550	0.284	0.185
-409.340	-56.448	-0.009	0.004
-408.325	-112.117	0.042	0.008
-407.311	73.083	0.199	-0.206
-406.296	-57.030	-0.201	0.088
-405.282	-200.000	0.017	0.131
-404.267	168.964	-0.082	-0.115
-403.252	660.298	-0.089	0.227
-402.238	800.000	-0.106	0.322
-401.223	-73.695	-0.274	-0.098
-400.209	-116.916	0.117	-0.021
-399.194	-86.653	0.107	-0.032
-398.179	-22.480	-0.077	0.046
-397.165	136.439	0.156	-0.201
-396.150	346.873	-0.116	-0.226
-395.136	-20.449	-0.105	-0.064
-394.121	-42.293	-0.203	-0.102
-393.106	-69.166	0.187	0.071
-392.092	-200.000	0.004	-0.185
-391.077	-200.000	-0.046	-0.393
-390.063	-200.000	0.003	0.171
-389.048	301.122	-0.038	-0.069
-388.033	640.138	-0.081	-0.205
-387.019	604.666	-0.109	0.268
-386.004	7.474	0.273	0.202
-384.990	-14.701	0.142	-0.090
-383.975	800.000	-0.050	-0.218
-382.960	-200.000	-0.084	0.375
-381.946	31.225	0.180	0.153
-380.931	293.007	0.052	0.094
-379.917	28.912	-0.115	0.096
-378.902	-67.167	0.359	0.140
-377.888	26.282	-0.107	-0.088
-376.873	-200.000	-0.019	-0.185
-375.858	-142.185	-0.259	-0.025
-374.844	8.487	0.143	0.106
-373.829	-90.306	0.101	0.029
-372.815	18.579	-0.133	0.105
-371.800	-89.780	0.124	0.036
-370.785	-53.431	-0.132	0.060
-369.771	-124.379	-0.195	0.030
-368.756	17.958	0.015	0.012
-367.742	0.289	0.150	-0.106
-366.727	-144.940	0.250	-0.023
-365.712	16.143	-0.198	0.154
-364.698	-200.000	-0.032	0.160
-363.683	-81.534	-0.192	-0.062
-362.669	318.747	0.150	-0.280
-361.654	-110.634	-0.448	0.091
-360.639	-57.524	-0.145	-0.063
-359.625	367.679	-0.109	0.218
-358.610	39.954	-0.192	-0.170
-357.596	-11.416	0.261	0.169
-356.581	-145.136	-0.409	0.037
-355.566	-28.630	-0.154	0.087
-354.552	31.471	0.186	-0.158
-353.537	25.828	-0.130	0.107
-352.523	-29.788	0.240	-0.135
-351.508	-131.029	0.212	-0.028
-350.493	800.000	0.032	-0.130
-349.479	660.777	0.023	-0.057
-348.464	80.375	0.093	-0.099
-347.450	138.884	-0.197	0.255
-346.435	-51.380	-0.165	0.076
-345.420	771.431	0.102	0.274
-344.406	132.278	-0.083	0.106
-343.391	-54.798	0.140	-0.062
-342.377	-13.040	-0.261	0.167
-341.362	195.131	-0.189	0.283
-340.348	-95.974	-0.385	0.101
-339.333	800.000	0.051	0.150
-338.318	800.000	-0.065	0.271
-337.304	414.697	0.246	-0.516
-336.289	-42.807	0.087	0.044
-335.275	696.185	-0.058	0.151
-334.260	468.817	-0.076	0.167
-333.245	339.345	-0.070	-0.135
-332.231	-36.849	-0.233	-0.123
-331.216	-87.966	0.119	0.035
-330.202	34.476	-0.144	-0.124
-329.187	800.000	-0.069	-0.267
-328.172	-200.000	-0.073	-0.322
-327.158	800.000	0.041	0.120
-326.143	-200.000	0.054	0.717
-325.129	698.197	0.123	-0.319
-324.114	-2.666	0.365	-0.251
-323.099	-59.988	0.175	0.074
-322.085	800.000	-0.111	-0.446
-321.070	-33.228	-0.206	0.113
-320.056	32.470	0.488	-0.415
-319.041	800.000	-0.062	-0.191
-318.026	-200.000	-0.034	-0.284
-317.012	80.460	0.258	0.274
-315.997	38.691	0.093	0.081
-314.983	-200.000	-0.024	0.275
-313.968	-118.737	-0.136	-0.024
-312.953	-200.000	0.004	-0.082
-311.939	441.386	-0.102	-0.219
-310.924	147.066	0.115	-0.152
-309.910	91.651	-0.193	0.214
-308.895	35.163	-0.131	-0.113
-307.880	492.755	-0.094	-0.211
-306.866	11.802	-0.033	0.025
-305.851	-34.113	0.074	0.040
-304.837	-76.282	-0.109	-0.038
-303.822	85.465	0.136	-0.147
-302.807	188.741	-0.109	-0.161
-301.793	-200.000	-0.016	-0.260
-300.778	421.642	0.106	0.225
-299.764	51.839	-0.112	-0.105
-298.749	73.841	-0.125	-0.129
-297.735	405.612	0.033	0.068
-296.720	-32.519	-0.237	-0.130
-295.705	-88.907	0.080	0.023
-294.691	-66.423	-0.282	-0.110
-293.676	-71.852	0.129	-0.047
-292.662	144.886	0.307	-0.403
-291.647	-200.000	-0.016	0.272
-290.632	-200.000	0.002	0.041
-289.618	-56.616	-0.185	-0.080
-288.603	62.556	0.063	0.062
-287.589	-174.036	-0.039	-0.001
-286.574	-200.000	0.042	-0.202
-285.559	179.331	-0.103	-0.149
-284.545	-121.550	-0.242	0.039
-283.530	-200.000	0.026	0.288
-282.516	-17.261	0.192	-0.119
-281.501	-85.720	0.110	-0.034
-280.486	-84.145	0.162	-0.051
-279.472	6.183	0.286	-0.209
-278.457	-26.710	0.214	0.123
-277.443	800.000	-0.074	-0.303
-276.428	800.000	-0.036	0.156
-275.413	36.467	-0.029	-0.025
-274.399	-200.000	0.006	-0.048
-273.384	-24.238	0.211	0.124
-272.370	49.472	-0.205	-0.190
-271.355	-91.075	-0.300	-0.085
-270.340	549.531	-0.056	0.131
-269.326	-200.000	-0.008	0.166
-268.311	-200.000	-0.010	0.078
-267.297	16.321	-0.230	0.179
-266.282	-5.575	0.139	0.094
-265.267	-200.000	-0.001	-0.032
-264.253	-16.160	0.152	0.095
-263.238	-128.118	0.231	-0.032
-262.224	20.804	-0.169	0.135
-261.209	-35.108	-0.094	0.050
-260.195	207.276	0.161	-0.246
-259.180	386.638	0.212	0.430
-258.165	-100.018	0.267	-0.065
-257.151	-200.000	-0.030	0.140
-256.136	800.000	-0.048	-0.177
-255.122	147.229	-0.282	-0.373
-254.107	-82.302	-0.117	-0.038
-253.092	-101.305	0.219	0.053
-252.078	800.000	0.023	0.097
-251.063	-200.000	0.008	-0.040
-250.049	-106.334	-0.298	-0.065
-249.034	-79.050	-0.262	-0.088
-248.019	-37.756	0.122	0.064
-247.005	7.376	0.052	0.038
-245.990	64.908	-0.176	0.175
-244.976	129.650	0.163	0.205
-243.961	-70.518	-0.264	0.098
-242.946	-200.000	-0.026	-0.200
-241.932	-76.943	-0.322	-0.111
-240.917	-58.595	0.442	0.188
-239.903	800.000	-0.089	-0.247
-238.888	-200.000	-0.013	0.260
-237.873	-200.000	0.001	-0.083
-236.859	52.773	-0.157	0.147
-235.844	33.420	0.261	0.223
-234.830	-200.000	-0.098	-0.474
-233.815	123.588	0.138	0.171
-232.800	-13.803	0.100	-0.064
-231.786	-80.129	-0.086	0.028
-230.771	-200.000	-0.035	0.352
-229.757	16.556	-0.166	0.129
-228.742	-0.065	-0.204	0.143
-227.727	-116.004	-0.233	-0.043
-226.713	-76.848	-0.115	-0.039
-225.698	-145.974	-0.380	-0.033
-224.684	469.268	0.044	0.098
-223.669	696.526	0.043	0.112
-222.655	-200.000	0.004	-0.054
-221.640	63.963	0.069	0.068
-220.625	654.247	0.040	-0.100
-219.611	-101.179	-0.029	-0.007
-218.596	218.734	-0.148	-0.232
-217.582	-48.627	0.106	0.050
-216.567	323.076	-0.019	-0.036
-215.552	59.269	-0.197	0.190
-214.538	184.885	0.160	-0.232
-213.523	89.675	-0.083	-0.091
-212.509	800.000	0.103	0.283
-211.494	-200.000	0.067	-0.372
-210.479	-80.335	-0.321	-0.105
-209.465	536.377	0.032	0.075
-208.450	-88.066	0.232	-0.068
-207.436	-200.000	0.065	0.291
-206.421	-200.000	0.027	0.117
-205.406	-62.542	0.176	-0.072
-204.392	640.272	-0.073	0.183
-203.377	-173.048	-0.254	0.008
-202.363	200.417	0.080	-0.120
-201.348	126.305	-0.060	0.075
-200.333	-56.408	0.041	0.018
-199.319	-169.285	0.048	0.002
-198.304	-161.556	0.379	0.019
-197.290	75.202	-0.040	-0.041
-196.275	-58.471	-0.047	-0.020
-195.260	-179.302	-0.222	-0.005
-194.246	-200.000	-0.009	-0.198
-193.231	130.236	-0.200	0.251
-192.217	-76.671	0.396	0.136
-191.202	-200.000	-0.008	0.372
-190.187	41.336	-0.174	0.154
-189.173	-172.783	-0.231	0.007
-188.158	-142.955	0.074	-0.007
-187.144	800.000	0.037	0.121
-186.129	-7.001	-0.167	0.111
-185.114	97.473	0.108	-0.122
-184.100	800.000	-0.135	-0.393
-183.085	-134.941	-0.100	-0.012
-182.071	-200.000	-0.030	-0.165
-181.056	-108.814	0.313	-0.066
-180.042	104.368	-0.384	-0.443
-179.027	-125.898	-0.327	0.048
-178.012	-78.435	-0.112	0.038
-176.998	-23.879	0.061	0.036
-175.983	-30.481	0.284	0.158
-174.969	515.486	-0.033	0.076
-173.954	-84.659	-0.071	-0.022
-172.939	-91.837	0.401	0.112
-171.925	-23.200	0.231	0.136
-170.910	-105.077	-0.407	-0.091
-169.896	5.389	0.111	0.080
-168.881	-6.372	-0.044	0.029
-167.866	-135.054	-0.284	-0.034
-166.852	-200.000	0.508	0.000
-165.837	165.756	-0.163	0.226
-164.823	57.890	-0.117	-0.113
-163.808	118.723	-0.112	-0.135
-162.793	-85.818	0.180	-0.055
-161.779	59.743	-0.166	-0.161
-160.764	201.999	0.203	-0.307
-159.750	-96.100	0.183	-0.048
-158.735	-200.000	-0.040	0.179
-157.720	81.805	-0.159	-0.169
-156.706	-200.000	0.048	-0.260
-155.691	277.932	0.063	0.110
-154.677	-78.681	0.222	-0.074
-153.662	-141.268	0.135	0.013
-152.647	61.157	0.278	-0.270
-151.633	326.252	-0.069	-0.130
-150.618	-134.901	0.216	-0.026
-149.604	185.259	0.128	-0.186
-148.589	33.313	0.166	-0.141
-147.574	93.446	-0.005	0.005
-146.560	-15.376	0.092	0.058
-145.545	156.440	-0.208	0.281
-144.531	-135.322	-0.237	0.028
-143.516	387.884	0.249	0.505
-142.502	-8.450	-0.263	0.173
-141.487	-200.000	0.000	-0.208
-140.472	-161.250	-0.182	-0.009
-139.458	111.482	-0.167	-0.197
-138.443	719.374	0.035	-0.091
-137.429	-200.000	0.011	0.359
-136.414	-50.710	-0.318	0.146
-135.399	340.791	-0.062	-0.119
-134.385	-200.000	0.010	0.055
-133.370	533.208	-0.128	0.295
-132.356	-12.333	0.278	0.178
-131.341	800.000	-0.086	0.312
-130.326	-200.000	-0.003	-0.103
-129.312	-200.000	-0.002	-0.032
-128.297	-200.000	-0.018	-0.353
-127.283	-135.517	-0.141	0.016
-126.268	-200.000	0.036	0.239
-125.253	-89.180	0.353	-0.102
-124.239	71.445	-0.170	-0.172
-123.224	122.989	-0.078	0.096
-122.210	56.273	0.042	-0.040
-121.195	800.000	0.020	0.066
