DTS Sentinel unit serial number:	SN413079Multiplexer serial number:	ORYXHardware model number:	OX4-SRSoftware version number:	ORYX F/W v4.00 Oryx Data Collector v3.7.2.0data status	okinstallation	princeton_trtdifferential loss correction	single-endedforward channel	channel 1reverse channel	N/Adate	2019/09/15time	08:34:35forward acquisition time	60.00reverse acquisition time	0.00gamma	496.2192k internal	0.2320k external	0.2320temperature offset calibration	0.9988default loss term (dB/km)	0.3790temperature slope calibration	1.0000multiplexer offset coefficient	1.0000multiplexer slope coefficient	1.0000fibre end	0.00T internal ref (°C)	31.77T ext. ref 1 (°C)	4.98T ext. ref 2 (°C)	29.08length (m)	temperature (°C)	Stokes	anti-Stokes-747.200	334.463	0.073	0.144
-746.185	220.663	0.097	0.157
-745.171	153.355	0.262	0.362
-744.156	-70.623	-0.409	0.156
-743.142	-127.328	-0.078	0.011
-742.127	610.593	-0.040	-0.101
-741.112	-200.000	-0.009	0.191
-740.098	99.631	-0.300	0.351
-739.083	114.456	-0.156	0.192
-738.069	-200.000	-0.026	-0.230
-737.054	-2.293	0.320	0.227
-736.039	-31.040	-0.046	0.026
-735.025	-200.000	-0.054	0.243
-734.010	102.093	0.183	-0.216
-732.996	-31.760	-0.175	-0.099
-731.981	188.664	-0.137	0.208
-730.966	24.427	0.077	-0.064
-729.952	-200.000	0.008	-0.232
-728.937	615.989	-0.083	-0.210
-727.923	449.022	0.064	-0.142
-726.908	170.851	-0.207	-0.300
-725.894	-200.000	-0.012	0.063
-724.879	54.294	0.338	-0.329
-723.864	-92.937	0.233	-0.066
-722.850	-200.000	-0.037	0.305
-721.835	-117.908	-0.297	-0.054
-720.821	-200.000	0.000	0.013
-719.806	-200.000	-0.005	-0.270
-718.791	-200.000	0.037	-0.210
-717.777	121.414	-0.110	0.138
-716.762	-172.209	-0.255	-0.008
-715.748	-200.000	-0.005	-0.128
-714.733	367.991	0.150	-0.306
-713.718	18.412	-0.116	0.094
-712.704	-200.000	0.074	-0.406
-711.689	-200.000	-0.006	0.031
-710.675	-200.000	-0.004	-0.043
-709.660	-200.000	-0.003	0.068
-708.645	94.889	0.117	0.135
-707.631	4.295	-0.146	-0.108
-706.616	800.000	0.042	-0.127
-705.602	-88.931	0.346	0.104
-704.587	48.080	0.310	-0.292
-703.572	-200.000	-0.020	-0.133
-702.558	189.529	0.038	-0.057
-701.543	-200.000	-0.022	-0.164
-700.529	800.000	0.051	0.206
-699.514	-200.000	0.043	0.229
-698.499	752.209	0.097	0.263
-697.485	111.600	0.159	0.193
-696.470	-52.593	0.215	0.100
-695.456	70.909	-0.201	0.210
-694.441	-196.603	0.365	-0.002
-693.426	41.929	0.085	0.077
-692.412	133.140	0.149	-0.194
-691.397	8.886	-0.119	-0.091
-690.383	-154.571	0.109	-0.007
-689.368	-126.624	-0.179	0.027
-688.354	-200.000	0.012	-0.290
-687.339	-200.000	0.045	-0.217
-686.324	139.938	-0.151	0.201
-685.310	256.733	-0.098	0.169
-684.295	61.070	-0.372	-0.372
-683.281	353.953	-0.144	-0.288
-682.266	-200.000	-0.037	0.168
-681.251	762.713	0.065	-0.179
-680.237	-1.721	0.220	-0.156
-679.222	73.651	0.187	0.198
-678.208	-200.000	0.017	0.344
-677.193	-107.317	-0.115	0.025
-676.178	266.081	0.097	0.170
-675.164	-137.102	0.141	-0.016
-674.149	-154.039	-0.127	-0.009
-673.135	-200.000	0.005	0.061
-672.120	800.000	-0.019	0.080
-671.105	598.875	-0.057	0.142
-670.091	-150.025	-0.250	0.020
-669.076	113.905	0.160	-0.196
-668.062	800.000	0.056	0.192
-667.047	-80.201	-0.324	-0.109
-666.032	0.764	-0.115	-0.083
-665.018	52.559	0.092	0.089
-664.003	-134.357	-0.099	0.012
-662.989	-100.218	0.237	0.059
-661.974	-42.951	-0.243	0.124
-660.959	27.659	-0.099	0.084
-659.945	-148.335	0.036	0.003
-658.930	-177.450	-0.190	-0.005
-657.916	-22.759	-0.231	-0.141
-656.901	-200.000	-0.026	-0.226
-655.886	112.165	0.078	0.095
-654.872	119.256	-0.231	0.288
-653.857	253.688	0.087	-0.150
-652.843	-49.969	-0.434	-0.208
-651.828	-200.000	-0.012	0.220
-650.814	-200.000	-0.001	-0.252
-649.799	-200.000	0.012	0.223
-648.784	-200.000	-0.012	-0.137
-647.770	7.799	-0.131	-0.099
-646.755	-149.843	0.209	0.017
-645.741	366.307	-0.139	-0.282
-644.726	-123.699	-0.301	0.048
-643.711	-22.541	0.071	0.043
-642.697	-80.740	-0.251	0.084
-641.682	128.055	0.089	0.114
-640.668	59.210	0.092	0.091
-639.653	-122.999	0.140	0.023
-638.638	59.440	0.124	0.123
-637.624	562.375	0.152	-0.371
-636.609	80.815	0.132	0.144
-635.595	-200.000	-0.007	-0.103
-634.580	800.000	-0.093	-0.305
-633.565	800.000	-0.119	-0.334
-632.551	800.000	-0.101	0.325
-631.536	-200.000	-0.012	0.184
-630.522	365.017	0.184	-0.373
-629.507	-121.440	0.158	-0.027
-628.492	-200.000	0.017	-0.100
-627.478	138.048	0.053	0.070
-626.463	-200.000	0.030	0.418
-625.449	-35.048	0.296	-0.163
-624.434	-145.676	-0.275	-0.025
-623.419	-200.000	-0.017	-0.245
-622.405	-200.000	0.054	-0.330
-621.390	107.479	-0.059	-0.070
-620.376	20.825	-0.279	-0.227
-619.361	782.654	-0.125	-0.345
-618.346	800.000	0.033	-0.114
-617.332	199.012	-0.091	0.141
-616.317	800.000	-0.027	-0.109
-615.303	87.899	0.071	0.079
-614.288	240.209	-0.241	0.404
-613.273	-48.519	-0.116	0.056
-612.259	-52.220	-0.020	-0.009
-611.244	800.000	0.021	0.072
-610.230	16.359	0.213	-0.169
-609.215	251.517	0.217	0.372
-608.201	165.261	-0.170	0.242
-607.186	-37.600	-0.146	0.078
-606.171	-81.624	0.073	-0.024
-605.157	800.000	-0.046	0.156
-604.142	267.591	0.060	0.106
-603.128	342.456	0.147	0.290
-602.113	-102.579	0.102	-0.024
-601.098	165.866	-0.183	-0.261
-600.084	-27.459	-0.086	-0.050
-599.069	-44.990	0.099	-0.050
-598.055	-131.683	-0.445	0.059
-597.040	21.232	0.276	-0.225
-596.025	-200.000	0.045	-0.327
-595.011	162.455	-0.067	0.094
-593.996	-62.088	0.467	-0.196
-592.982	342.680	-0.146	-0.287
-591.967	-112.218	-0.151	-0.030
-590.952	31.692	-0.207	-0.179
-589.938	49.265	0.240	-0.227
-588.923	44.059	-0.097	0.089
-587.909	211.681	0.108	0.171
-586.894	-193.613	-0.305	-0.003
-585.879	-70.395	0.173	-0.066
-584.865	250.128	-0.074	-0.127
-583.850	-200.000	-0.031	-0.150
-582.836	-107.473	0.291	0.064
-581.821	140.489	-0.247	0.328
-580.806	-116.700	-0.316	0.058
-579.792	-68.057	-0.131	0.051
-578.777	385.639	0.080	0.166
-577.763	-29.971	-0.111	-0.063
-576.748	325.468	-0.051	0.097
-575.733	-65.561	0.385	0.155
-574.719	301.195	-0.007	-0.012
-573.704	-200.000	-0.015	-0.290
-572.690	-107.262	0.284	-0.063
-571.675	-0.164	0.067	-0.048
-570.661	65.228	-0.058	-0.059
-569.646	198.355	-0.198	0.304
-568.631	-52.251	-0.103	0.048
-567.617	-71.231	0.126	0.048
-566.602	289.676	-0.096	-0.176
-565.588	294.781	-0.066	0.121
-564.573	368.725	0.113	-0.230
-563.558	-127.041	-0.202	-0.030
-562.544	-200.000	-0.076	-0.389
-561.529	25.552	0.281	-0.235
-560.515	-165.122	0.302	-0.013
-559.500	-90.756	-0.323	-0.094
-558.485	123.692	0.122	-0.153
-557.471	66.319	0.106	-0.109
-556.456	-29.417	0.218	-0.125
-555.442	-200.000	-0.011	-0.068
-554.427	-126.312	0.115	-0.017
-553.412	6.449	-0.410	0.306
-552.398	31.761	0.064	0.056
-551.383	-200.000	-0.015	0.109
-550.369	-42.812	0.237	0.121
-549.354	138.645	-0.183	-0.241
-548.339	-161.633	0.198	-0.010
-547.325	-111.311	-0.241	-0.049
-546.310	-54.913	0.130	-0.059
-545.296	-200.000	-0.010	-0.172
-544.281	-115.902	0.176	-0.033
-543.266	800.000	0.066	0.286
-542.252	186.546	0.368	0.550
-541.237	-18.669	-0.029	0.018
-540.223	364.009	-0.055	-0.112
-539.208	91.179	-0.201	0.226
-538.193	-41.331	0.041	0.021
-537.179	-33.455	-0.363	-0.201
-536.164	-200.000	-0.022	0.129
-535.150	-109.195	-0.159	-0.034
-534.135	-156.891	0.186	0.011
-533.121	800.000	-0.097	0.341
-532.106	800.000	0.080	-0.311
-531.091	-79.735	0.170	0.057
-530.077	46.345	-0.205	-0.190
-529.062	-20.988	-0.297	0.182
-528.048	-200.000	0.049	-0.402
-527.033	64.899	0.039	-0.039
-526.018	-115.496	-0.208	0.039
-525.004	-104.032	-0.266	0.062
-523.989	-79.546	-0.296	-0.100
-522.975	114.540	0.022	-0.026
-521.960	-104.203	-0.037	-0.009
-520.945	-87.498	0.260	-0.079
-519.931	-99.409	-0.176	-0.044
-518.916	67.270	-0.351	-0.359
-517.902	-52.901	-0.170	0.078
-516.887	24.866	-0.116	-0.096
-515.872	178.791	-0.133	0.195
-514.858	-200.000	0.020	0.098
-513.843	116.905	-0.147	-0.181
-512.829	371.772	-0.117	0.239
-511.814	-163.593	-0.180	0.009
-510.799	242.048	0.089	-0.149
-509.785	42.926	-0.146	0.134
-508.770	65.743	0.079	-0.081
-507.756	-161.336	0.318	0.017
-506.741	126.734	0.092	0.117
-505.726	-129.712	-0.076	0.010
-504.712	800.000	0.035	0.128
-503.697	-169.697	0.117	-0.004
-502.683	267.591	-0.141	-0.247
-501.668	58.638	-0.127	-0.125
-500.653	-108.730	-0.156	-0.033
-499.639	124.521	-0.050	-0.063
-498.624	56.461	0.187	-0.182
-497.610	68.146	0.100	-0.103
-496.595	-68.917	0.242	-0.094
-495.581	-114.334	-0.192	0.037
-494.566	355.606	-0.103	0.205
-493.551	800.000	0.068	-0.201
-492.537	-200.000	0.021	0.124
-491.522	75.148	0.043	-0.046
-490.508	-191.651	0.303	0.003
-489.493	-200.000	-0.004	-0.034
-488.478	-99.960	-0.222	0.055
-487.464	-200.000	-0.036	-0.185
-486.449	-107.211	-0.032	0.007
-485.435	-149.061	-0.445	0.036
-484.420	188.295	-0.129	0.193
-483.405	-114.396	-0.231	0.045
-482.391	364.319	-0.046	0.092
-481.376	135.998	-0.156	0.204
-480.362	-102.098	0.280	0.067
-479.347	-90.028	0.219	0.064
-478.332	7.823	0.079	0.059
-477.318	103.346	-0.112	0.131
-476.303	-34.592	0.155	-0.085
-475.289	-200.000	0.045	-0.318
-474.274	-43.743	0.039	0.019
-473.259	800.000	0.040	0.119
-472.245	-125.416	0.032	0.005
-471.230	800.000	-0.033	-0.147
-470.216	348.892	0.036	-0.071
-469.201	94.976	0.167	-0.190
-468.186	800.000	-0.058	-0.205
-467.172	800.000	-0.059	-0.193
-466.157	189.923	-0.115	-0.173
-465.143	800.000	-0.013	-0.053
-464.128	30.390	0.291	-0.248
-463.113	-200.000	-0.014	0.253
-462.099	-145.890	-0.304	-0.027
-461.084	78.236	-0.118	0.126
-460.070	-72.641	0.079	-0.029
-459.055	-200.000	0.028	0.125
-458.040	-200.000	-0.001	-0.187
-457.026	-200.000	0.025	-0.199
-456.011	-96.083	0.366	0.097
-454.997	293.760	-0.166	0.303
-453.982	478.352	0.049	0.110
-452.968	800.000	-0.098	-0.333
-451.953	800.000	0.048	0.205
-450.938	-98.719	0.504	-0.128
-449.924	17.552	-0.272	-0.216
-448.909	-23.275	0.045	-0.027
-447.895	51.401	0.165	0.157
-446.880	126.743	-0.022	-0.028
-445.865	-156.310	-0.420	0.026
-444.851	-200.000	-0.005	0.374
-443.836	-27.851	-0.224	-0.129
-442.822	292.144	0.102	-0.185
-441.807	-88.018	-0.238	-0.071
-440.792	321.366	-0.029	-0.055
-439.778	800.000	0.120	-0.340
-438.763	-200.000	0.056	0.463
-437.749	-92.432	0.192	-0.054
-436.734	-67.899	-0.257	0.100
-435.719	-146.115	0.328	-0.029
-434.705	65.877	0.139	-0.141
-433.690	-162.808	0.294	-0.014
-432.676	800.000	0.061	-0.224
-431.661	-200.000	0.026	-0.256
-430.646	-200.000	-0.029	-0.253
-429.632	800.000	-0.066	-0.262
-428.617	-3.425	-0.172	0.120
-427.603	40.823	0.187	-0.169
-426.588	-38.297	-0.233	0.123
-425.573	517.321	0.087	-0.203
-424.559	-11.969	0.168	0.110
-423.544	24.805	-0.145	0.120
-422.530	-166.031	-0.120	0.005
-421.515	228.352	0.152	-0.247
-420.500	724.883	-0.059	0.157
-419.486	-126.350	-0.325	-0.048
-418.471	-200.000	-0.053	0.274
-417.457	-200.000	-0.009	0.148
-416.442	74.335	-0.106	-0.112
-415.428	293.479	0.106	0.193
-414.413	-104.929	-0.046	0.011
-413.398	-4.852	0.274	-0.189
-412.384	102.610	-0.178	0.208
-411.369	-143.806	0.448	-0.042
-410.355	-85.546	0.246	0.076
-409.340	294.532	-0.156	0.285
-408.325	-8.273	0.069	0.046
-407.311	-34.599	0.228	-0.124
-406.296	-105.367	-0.299	-0.068
-405.282	-200.000	0.020	0.246
-404.267	42.419	-0.112	-0.102
-403.252	-90.982	-0.163	0.047
-402.238	454.384	-0.092	0.203
-401.223	529.749	0.105	0.248
-400.209	160.081	-0.143	-0.199
-399.194	422.092	-0.113	0.241
-398.179	36.273	-0.118	0.104
-397.165	339.588	-0.055	-0.107
-396.150	-36.950	0.113	-0.060
-395.136	161.278	-0.209	0.291
-394.121	-24.692	0.081	0.048
-393.106	92.548	0.086	-0.096
-392.092	-73.413	0.300	-0.109
-391.077	-200.000	0.016	0.079
-390.063	33.906	-0.320	-0.278
-389.048	306.824	0.124	-0.231
-388.033	-92.661	-0.246	-0.069
-387.019	97.276	0.036	-0.041
-386.004	-65.731	-0.393	0.157
-384.990	19.193	0.056	-0.044
-383.975	-200.000	-0.016	0.148
-382.960	0.799	0.045	-0.032
-381.946	72.126	-0.067	-0.069
-380.931	79.116	0.129	-0.138
-379.917	715.470	0.115	-0.305
-378.902	-37.653	-0.400	0.213
-377.888	800.000	-0.030	0.114
-376.873	-107.515	0.260	-0.057
-375.858	-135.146	0.201	0.024
-374.844	56.763	-0.072	0.070
-373.829	129.351	-0.171	0.217
-372.815	-69.635	0.164	-0.063
-371.800	549.219	0.079	-0.188
-370.785	800.000	0.084	-0.343
-369.771	206.495	-0.152	-0.237
-368.756	-11.948	0.199	0.130
-367.742	19.511	0.117	0.094
-366.727	166.919	0.142	0.201
-365.712	44.692	0.129	-0.118
-364.698	5.090	0.176	0.129
-363.683	-200.000	-0.054	0.392
-362.669	-200.000	-0.036	-0.292
-361.654	-200.000	-0.055	0.248
-360.639	707.385	0.091	-0.240
-359.625	-200.000	-0.037	0.201
-358.610	-59.706	0.399	-0.170
-357.596	-200.000	0.060	-0.297
-356.581	-89.106	-0.138	-0.041
-355.566	-110.687	0.324	0.067
-354.552	800.000	0.064	-0.195
-353.537	-40.322	-0.049	-0.025
-352.523	800.000	-0.089	-0.332
-351.508	278.932	-0.140	-0.248
-350.493	800.000	-0.103	-0.423
-349.479	740.965	-0.129	0.346
-348.464	-16.382	0.175	-0.111
-347.450	695.730	-0.045	0.117
-346.435	-36.578	-0.236	0.126
-345.420	-49.086	0.524	0.249
-344.406	800.000	-0.079	0.247
-343.391	428.304	0.134	-0.288
-342.377	726.186	0.041	0.110
-341.362	-147.698	-0.223	0.019
-340.348	17.783	-0.099	0.079
-339.333	482.720	-0.077	0.174
-338.318	-200.000	-0.047	-0.270
-337.304	48.498	0.196	0.182
-336.289	-16.628	0.246	0.155
-335.275	89.074	-0.111	0.123
-334.260	-22.242	0.138	0.083
-333.245	-200.000	-0.002	-0.152
-332.231	-149.964	-0.055	-0.004
-331.216	77.351	0.242	-0.256
-330.202	82.512	-0.235	-0.254
-329.187	-200.000	0.006	-0.097
-328.172	4.747	-0.086	-0.063
-327.158	-171.002	-0.326	0.011
-326.143	-200.000	0.002	0.077
-325.129	-170.175	0.039	0.001
-324.114	-37.010	0.049	-0.026
-323.099	53.582	-0.176	-0.168
-322.085	186.536	-0.160	0.237
-321.070	54.891	-0.115	-0.111
-320.056	-36.032	0.138	-0.074
-319.041	-200.000	-0.044	-0.225
-318.026	-17.086	0.280	0.176
-317.012	348.681	0.155	0.303
-315.997	-193.619	-0.448	-0.004
-314.983	-47.700	-0.140	-0.067
-313.968	196.162	0.349	0.529
-312.953	-80.084	0.342	-0.114
-311.939	-62.799	-0.006	-0.002
-310.924	38.327	0.205	-0.181
-309.910	27.260	0.235	0.196
-308.895	-124.489	-0.232	0.036
-307.880	642.548	-0.182	-0.460
-306.866	-45.188	0.274	-0.136
-305.851	26.927	0.071	0.059
-304.837	800.000	0.058	-0.184
-303.822	59.109	0.373	-0.365
-302.807	757.693	-0.116	0.311
-301.793	-12.257	0.224	0.146
-300.778	-0.165	0.299	-0.211
-299.764	-59.330	-0.064	-0.027
-298.749	-59.167	0.114	0.049
-297.735	800.000	-0.086	0.249
-296.720	-38.079	0.163	0.086
-295.705	-200.000	-0.007	0.187
-294.691	51.132	0.096	0.090
-293.676	286.208	0.055	-0.098
-292.662	-200.000	0.026	0.248
-291.647	218.199	-0.110	0.174
-290.632	-123.719	0.335	0.053
-289.618	232.565	-0.136	-0.221
-288.603	-44.027	0.184	-0.092
-287.589	800.000	-0.067	-0.204
-286.574	-78.262	-0.034	-0.012
-285.559	-103.754	0.131	-0.031
-284.545	-78.571	0.166	0.056
-283.530	800.000	-0.063	0.267
-282.516	103.588	-0.118	0.137
-281.501	-200.000	-0.021	0.146
-280.486	-19.042	0.107	-0.066
-279.472	490.865	-0.054	-0.122
-278.457	800.000	-0.094	0.258
-277.443	-71.499	0.208	0.077
-276.428	110.652	-0.121	0.144
-275.413	371.436	-0.103	0.207
-274.399	-15.493	0.194	-0.123
-273.384	-3.350	0.138	0.095
-272.370	-104.467	0.296	-0.068
-271.355	-200.000	-0.042	0.284
-270.340	-200.000	0.006	-0.125
-269.326	265.430	0.104	0.180
-268.311	-118.595	0.450	-0.079
-267.297	-88.400	-0.073	0.022
-266.282	-43.504	-0.073	0.036
-265.267	-200.000	-0.003	-0.185
-264.253	6.146	0.083	-0.061
-263.238	-0.614	-0.260	0.183
-262.224	20.830	0.099	-0.080
-261.209	103.493	-0.110	-0.128
-260.195	800.000	-0.045	-0.140
-259.180	325.392	0.031	0.060
-258.165	-28.099	0.151	0.087
-257.151	382.398	0.054	0.110
-256.136	-80.689	-0.201	-0.066
-255.122	100.956	0.299	0.345
-254.107	-62.095	-0.138	0.057
-253.092	290.151	0.070	-0.125
-252.078	44.588	-0.077	-0.070
-251.063	-85.133	0.059	-0.018
-250.049	-200.000	0.004	-0.336
-249.034	-200.000	-0.049	-0.307
-248.019	2.991	-0.060	0.043
-247.005	17.933	0.122	0.096
-245.990	-200.000	0.004	-0.085
-244.976	-127.879	0.122	-0.017
-243.961	-69.426	0.088	0.033
-242.946	424.423	-0.043	-0.092
-241.932	19.371	-0.075	0.060
-240.917	-200.000	-0.032	-0.182
-239.903	177.618	0.058	-0.084
-238.888	-111.052	-0.094	-0.019
-237.873	-59.416	-0.056	0.024
-236.859	-200.000	-0.062	0.312
-235.844	-142.752	-0.372	-0.036
-234.830	104.884	-0.248	0.290
-233.815	-99.923	-0.171	-0.042
-232.800	438.560	0.054	0.117
-231.786	166.367	-0.194	0.272
-230.771	-105.616	-0.131	-0.029
-229.757	-100.576	-0.255	-0.062
-228.742	800.000	-0.055	0.156
-227.727	-200.000	0.001	-0.101
-226.713	-200.000	-0.063	0.291
-225.698	-89.323	-0.052	-0.015
-224.684	-156.612	-0.267	-0.016
-223.669	-200.000	-0.031	0.348
-222.655	-200.000	0.004	0.233
-221.640	-145.233	-0.084	-0.008
-220.625	-102.285	0.331	0.079
-219.611	-200.000	0.016	-0.330
-218.596	800.000	-0.064	0.212
-217.582	26.333	-0.090	0.074
-216.567	-121.803	-0.146	-0.024
-215.552	109.791	0.067	-0.080
-214.538	21.594	-0.203	0.164
-213.523	-200.000	-0.006	0.347
-212.509	-53.770	-0.059	-0.027
-211.494	-54.418	0.139	0.063
-210.479	60.784	-0.117	0.115
-209.465	800.000	-0.022	-0.072
-208.450	45.234	0.413	-0.377
-207.436	-200.000	-0.039	-0.311
-206.421	154.517	0.164	0.224
-205.406	-62.319	0.045	0.019
-204.392	242.913	-0.059	-0.098
-203.377	102.450	-0.202	0.234
-202.363	-111.268	-0.572	0.116
-201.348	-110.174	0.363	-0.075
-200.333	-30.013	-0.047	-0.026
-199.319	39.247	-0.160	0.142
-198.304	-82.418	0.138	0.044
-197.290	-31.674	-0.260	-0.144
-196.275	61.059	-0.178	-0.175
-195.260	-35.668	0.213	0.114
-194.246	-142.347	-0.193	-0.019
-193.231	268.860	0.199	0.345
-192.217	-114.823	-0.315	0.060
-191.202	-104.709	-0.175	0.040
-190.187	426.194	-0.150	0.320
-189.173	-200.000	-0.017	-0.111
-188.158	-172.666	0.068	0.002
-187.144	-3.810	0.217	0.149
-186.129	-200.000	-0.004	-0.086
-185.114	48.554	-0.149	0.138
-184.100	145.667	0.240	0.318
-183.085	175.818	-0.037	0.053
-182.071	184.623	0.156	0.228
-181.056	800.000	-0.119	0.426
-180.042	-94.031	-0.058	0.016
-179.027	624.663	-0.030	-0.075
-178.012	571.502	-0.028	-0.067
-176.998	-200.000	0.015	0.200
-175.983	-200.000	0.007	-0.165
-174.969	-16.101	-0.171	-0.108
-173.954	-38.294	0.137	0.072
-172.939	-200.000	-0.034	0.193
-171.925	-102.749	0.223	-0.052
-170.910	-141.673	0.302	-0.030
-169.896	-64.838	0.113	0.045
-168.881	800.000	-0.124	0.469
-167.866	87.866	0.037	0.040
-166.852	800.000	0.132	0.375
-165.837	-200.000	0.074	-0.449
-164.823	158.111	0.065	-0.089
-163.808	25.742	0.123	-0.102
-162.793	-86.249	-0.207	-0.063
-161.779	776.447	-0.055	0.148
-160.764	81.316	0.135	-0.145
-159.750	377.088	0.045	-0.090
-158.735	-15.445	0.215	0.136
-157.720	800.000	-0.098	0.360
-156.706	-200.000	0.005	-0.045
-155.691	402.462	-0.105	-0.217
-154.677	-200.000	-0.055	0.381
-153.662	800.000	0.096	-0.302
-152.647	800.000	0.019	-0.071
-151.633	353.561	0.167	-0.327
-150.618	-68.551	0.373	-0.143
-149.604	-200.000	0.042	-0.207
-148.589	-5.078	-0.319	-0.217
-147.574	-106.614	-0.381	0.084
-146.560	-77.908	0.167	-0.057
-145.545	320.014	0.167	0.313
-144.531	239.119	-0.144	-0.237
-143.516	-127.993	0.073	-0.010
-142.502	-200.000	0.002	-0.034
-141.487	-200.000	-0.005	-0.221
-140.472	-19.390	-0.235	0.144
-139.458	-134.032	0.187	0.023
-138.443	-166.617	-0.395	0.016
-137.429	591.477	-0.086	-0.210
-136.414	551.908	-0.161	0.383
-135.399	-93.613	-0.336	0.092
-134.385	49.681	0.185	0.172
-133.370	-200.000	-0.002	0.197
-132.356	30.242	-0.152	0.128
-131.341	42.872	0.129	0.116
-130.326	756.316	0.106	-0.282
-129.312	-87.948	-0.067	0.020
-128.297	-200.000	0.058	0.311
-127.283	18.567	0.323	0.255
-126.268	42.204	0.075	0.067
-125.253	-200.000	-0.031	0.186
-124.239	-26.179	-0.127	0.074
-123.224	66.106	0.106	-0.106
-122.210	84.110	0.076	-0.082
