DTS Sentinel unit serial number:	SN413079Multiplexer serial number:	ORYXHardware model number:	OX4-SRSoftware version number:	ORYX F/W v4.00 Oryx Data Collector v3.7.2.0data status	okinstallation	princeton_trtdifferential loss correction	single-endedforward channel	channel 1reverse channel	N/Adate	2019/09/11time	19:40:11forward acquisition time	60.00reverse acquisition time	0.00gamma	496.2192k internal	0.2299k external	0.2299temperature offset calibration	1.0029default loss term (dB/km)	0.3790temperature slope calibration	1.0000multiplexer offset coefficient	1.0000multiplexer slope coefficient	1.0000fibre end	0.00T internal ref (°C)	39.83T ext. ref 1 (°C)	1.35T ext. ref 2 (°C)	32.44length (m)	temperature (°C)	Stokes	anti-Stokes-747.200	-80.416	-0.210	-0.072
-746.185	-200.000	0.058	0.424
-745.171	-1.060	-0.100	0.072
-744.156	33.402	0.324	0.287
-743.142	329.658	-0.070	0.138
-742.127	800.000	-0.069	0.271
-741.112	134.525	0.373	0.494
-740.098	-38.951	-0.067	0.036
-739.083	-149.254	-0.168	0.014
-738.069	-112.340	0.331	0.068
-737.054	450.190	-0.021	0.047
-736.039	-151.606	-0.246	0.019
-735.025	149.750	0.236	0.326
-734.010	-89.854	-0.145	-0.043
-732.996	-200.000	-0.023	-0.427
-731.981	-200.000	-0.056	0.344
-730.966	-200.000	0.008	-0.128
-729.952	-14.641	-0.198	-0.130
-728.937	480.343	-0.114	-0.264
-727.923	-200.000	-0.014	0.063
-726.908	637.445	-0.078	0.201
-725.894	67.262	0.142	-0.147
-724.879	-46.629	0.146	-0.073
-723.864	-78.744	0.338	0.118
-722.850	-200.000	-0.065	-0.406
-721.835	-200.000	0.021	0.501
-720.821	-164.443	-0.324	-0.015
-719.806	-42.737	-0.298	0.155
-718.791	-200.000	0.061	0.421
-717.777	116.501	-0.118	-0.147
-716.762	-200.000	-0.014	0.072
-715.748	4.854	-0.278	0.208
-714.733	274.134	0.029	-0.053
-713.718	800.000	0.090	-0.311
-712.704	800.000	-0.071	-0.216
-711.689	-200.000	-0.013	-0.140
-710.675	233.148	0.047	-0.080
-709.660	800.000	0.062	0.198
-708.645	-115.791	-0.072	-0.014
-707.631	62.762	0.014	0.015
-706.616	261.178	0.164	-0.289
-705.602	213.924	0.049	-0.079
-704.587	231.330	0.074	0.123
-703.572	-56.731	0.401	0.181
-702.558	57.547	-0.206	0.205
-701.543	800.000	-0.060	-0.216
-700.529	64.490	-0.017	0.017
-699.514	-200.000	-0.002	-0.216
-698.499	-28.608	0.255	0.149
-697.485	573.556	-0.112	-0.278
-696.470	24.227	-0.139	-0.117
-695.456	-54.662	-0.090	-0.041
-694.441	-119.976	-0.230	0.040
-693.426	-66.844	0.313	0.126
-692.412	-154.251	0.187	0.013
-691.397	-42.649	-0.191	-0.099
-690.383	-200.000	-0.037	-0.187
-689.368	-103.496	0.113	-0.027
-688.354	-200.000	0.028	0.303
-687.339	-87.720	-0.171	-0.052
-686.324	-37.081	-0.073	0.040
-685.310	-159.823	0.039	0.002
-684.295	-107.084	0.037	0.008
-683.281	-200.000	-0.019	0.344
-682.266	-44.631	0.333	-0.169
-681.251	-119.746	-0.128	-0.022
-680.237	-200.000	0.023	0.136
-679.222	156.845	0.331	-0.466
-678.208	-200.000	0.059	-0.325
-677.193	-149.168	-0.292	-0.024
-676.178	31.471	0.091	-0.080
-675.164	-25.543	-0.130	-0.078
-674.149	-98.209	-0.399	0.104
-673.135	800.000	0.083	-0.343
-672.120	30.070	-0.055	0.048
-671.105	263.814	0.069	0.122
-670.091	197.425	0.198	-0.308
-669.076	800.000	-0.043	-0.186
-668.062	6.308	-0.223	-0.169
-667.047	-122.467	-0.084	-0.014
-666.032	425.740	0.116	0.255
-665.018	55.948	-0.306	-0.302
-664.003	491.385	0.015	-0.035
-662.989	-163.705	-0.201	0.010
-661.974	83.273	-0.244	-0.270
-660.959	800.000	-0.057	-0.186
-659.945	-200.000	0.014	0.085
-658.930	58.545	0.206	0.206
-657.916	-122.632	0.283	0.047
-656.901	29.244	-0.222	-0.192
-655.886	141.489	0.166	-0.223
-654.872	-170.690	-0.105	0.004
-653.857	-3.441	-0.112	0.080
-652.843	-65.753	-0.082	-0.033
-651.828	-200.000	0.003	0.231
-650.814	-108.212	-0.248	0.055
-649.799	-47.064	-0.104	-0.052
-648.784	800.000	0.071	-0.256
-647.770	20.782	0.235	0.193
-646.755	800.000	-0.064	0.251
-645.741	800.000	-0.051	0.146
-644.726	55.108	-0.323	0.318
-643.711	-200.000	-0.025	-0.242
-642.697	-87.163	0.336	0.104
-641.682	125.077	-0.137	-0.176
-640.668	-200.000	0.001	-0.062
-639.653	-9.724	-0.319	-0.216
-638.638	26.542	0.084	-0.071
-637.624	800.000	0.079	-0.257
-636.609	34.474	-0.304	0.270
-635.595	-111.699	0.231	0.048
-634.580	192.207	0.090	0.138
-633.565	390.740	0.223	0.471
-632.551	163.080	0.152	0.217
-631.536	-56.027	0.187	-0.085
-630.522	26.836	-0.307	0.262
-629.507	59.253	-0.042	-0.042
-628.492	98.865	0.041	0.048
-627.478	-200.000	0.070	-0.404
-626.463	-39.083	-0.274	-0.146
-625.449	411.790	-0.105	-0.226
-624.434	800.000	0.102	-0.394
-623.419	-141.323	-0.166	0.017
-622.405	601.239	0.019	-0.048
-621.390	-81.204	0.201	0.067
-620.376	-116.968	0.357	0.066
-619.361	800.000	0.077	-0.252
-618.346	495.237	-0.089	-0.207
-617.332	-200.000	0.256	0.000
-616.317	384.971	0.185	-0.387
-615.303	-200.000	0.042	-0.296
-614.288	-32.825	0.177	-0.100
-613.273	267.207	0.192	-0.341
-612.259	403.661	0.201	0.430
-611.244	-26.637	-0.267	0.159
-610.230	101.407	-0.239	0.282
-609.215	-80.501	0.088	-0.030
-608.201	-119.540	0.087	-0.015
-607.186	18.957	0.181	-0.147
-606.171	373.215	0.076	0.158
-605.157	-76.801	-0.246	0.087
-604.142	-29.159	0.075	-0.044
-603.128	-200.000	-0.012	0.214
-602.113	-156.597	-0.044	0.003
-601.098	-28.832	-0.133	0.078
-600.084	3.437	0.139	-0.103
-599.069	-16.484	0.107	-0.069
-598.055	-171.805	0.144	-0.005
-597.040	-22.985	0.192	0.117
-596.025	129.655	-0.170	-0.221
-595.011	129.980	-0.039	0.050
-593.996	-91.827	-0.066	0.019
-592.982	171.748	0.148	-0.216
-591.967	800.000	-0.026	-0.098
-590.952	435.294	-0.088	-0.195
-589.938	16.492	0.077	-0.062
-588.923	-200.000	-0.018	0.351
-587.909	-67.715	0.226	-0.090
-586.894	259.639	-0.071	-0.125
-585.879	234.277	-0.164	0.275
-584.865	-200.000	-0.002	0.009
-583.850	-200.000	-0.093	-0.458
-582.836	-200.000	-0.025	-0.250
-581.821	519.247	0.062	0.147
-580.806	685.047	-0.090	0.238
-579.792	17.533	-0.062	0.050
-578.777	95.619	0.201	0.232
-577.763	641.421	-0.064	-0.165
-576.748	52.658	0.091	0.088
-575.733	800.000	-0.131	0.412
-574.719	719.424	-0.092	0.248
-573.704	-200.000	-0.044	-0.334
-572.690	475.441	-0.084	0.192
-571.675	-200.000	0.044	-0.261
-570.661	101.907	0.320	0.378
-569.646	20.978	-0.234	0.192
-568.631	800.000	-0.067	-0.290
-567.617	12.808	-0.112	-0.087
-566.602	-134.513	0.082	-0.010
-565.588	304.382	-0.065	-0.122
-564.573	-61.626	-0.331	0.141
-563.558	211.970	0.099	0.158
-562.544	-23.342	0.115	0.070
-561.529	-200.000	-0.021	-0.124
-560.515	170.185	-0.176	-0.255
-559.500	-1.880	-0.160	-0.114
-558.485	247.404	-0.031	0.053
-557.471	360.617	-0.085	0.173
-556.456	260.533	0.131	-0.229
-555.442	251.781	-0.175	-0.302
-554.427	21.861	-0.194	-0.160
-553.412	800.000	0.068	0.222
-552.398	-164.971	-0.202	-0.009
-551.383	-200.000	-0.038	-0.219
-550.369	23.829	0.157	0.131
-549.354	290.773	-0.078	0.143
-548.339	-55.374	-0.296	-0.135
-547.325	-200.000	0.008	0.035
-546.310	138.750	-0.119	0.159
-545.296	-121.113	-0.732	-0.124
-544.281	-43.710	0.401	-0.205
-543.266	-60.266	0.060	0.026
-542.252	800.000	-0.110	-0.372
-541.237	-132.293	0.250	-0.033
-540.223	-177.081	-0.301	0.008
-539.208	105.179	-0.139	-0.167
-538.193	-150.642	-0.251	-0.019
-537.179	742.831	0.074	0.200
-536.164	-161.397	-0.226	0.012
-535.150	-71.733	0.139	-0.052
-534.135	47.374	-0.055	0.052
-533.121	-15.584	0.379	0.245
-532.106	800.000	0.038	0.122
-531.091	-72.440	0.186	0.069
-530.077	-71.424	0.051	0.019
-529.062	-99.504	-0.106	0.027
-528.048	-124.622	0.205	-0.032
-527.033	-147.815	0.371	-0.031
-526.018	3.484	0.148	0.109
-525.004	-29.987	-0.373	-0.215
-523.989	-12.279	-0.324	0.214
-522.975	-52.350	0.152	-0.071
-521.960	-24.445	0.046	0.028
-520.945	800.000	-0.077	0.237
-519.931	-118.298	0.438	-0.079
-518.916	-154.802	0.343	0.023
-517.902	-200.000	-0.027	0.249
-516.887	-89.748	0.338	-0.100
-515.872	800.000	0.061	0.258
-514.858	-200.000	-0.011	0.462
-513.843	-118.973	-0.420	-0.074
-512.829	33.178	0.111	-0.097
-511.814	-101.241	0.276	-0.068
-510.799	58.805	0.234	-0.232
-509.785	250.393	0.050	-0.085
-508.770	56.882	0.151	0.149
-507.756	12.981	0.317	-0.248
-506.741	-32.688	0.192	0.108
-505.726	28.325	0.106	-0.091
-504.712	41.124	0.094	-0.086
-503.697	148.382	-0.048	0.065
-502.683	32.969	0.156	-0.137
-501.668	4.798	-0.051	0.038
-500.653	521.668	-0.043	-0.102
-499.639	-149.300	0.517	-0.042
-498.624	800.000	0.020	-0.076
-497.610	79.953	-0.140	-0.152
-496.595	-71.205	0.160	-0.061
-495.581	-200.000	0.026	-0.218
-494.566	-200.000	0.001	0.213
-493.551	-200.000	0.008	-0.147
-492.537	34.630	-0.376	-0.332
-491.522	114.854	0.132	-0.163
-490.508	-140.985	-0.197	0.020
-489.493	543.219	0.137	0.331
-488.478	-200.000	-0.014	-0.282
-487.464	-148.365	0.321	0.027
-486.449	-153.737	0.161	-0.011
-485.435	298.796	0.119	-0.221
-484.420	2.483	0.192	-0.141
-483.405	510.108	-0.036	-0.086
-482.391	-37.057	0.025	0.013
-481.376	-200.000	0.016	-0.129
-480.362	-200.000	0.058	-0.262
-479.347	60.463	0.091	-0.091
-478.332	-126.678	0.152	-0.023
-477.318	800.000	-0.097	0.289
-476.303	-76.851	-0.182	0.064
-475.289	-200.000	0.023	0.384
-474.274	313.849	0.225	-0.428
-473.259	-59.714	-0.358	0.155
-472.245	-134.246	0.328	0.041
-471.230	140.230	0.097	-0.129
-470.216	800.000	0.032	-0.133
-469.201	-70.172	0.213	0.082
-468.186	-92.842	-0.204	-0.058
-467.172	-200.000	0.058	-0.361
-466.157	800.000	0.057	-0.182
-465.143	800.000	-0.119	-0.388
-464.128	12.005	-0.102	0.079
-463.113	800.000	-0.070	-0.212
-462.099	80.668	0.029	-0.032
-461.084	-151.335	0.248	0.019
-460.070	12.270	-0.214	0.167
-459.055	348.253	-0.122	-0.243
-458.040	2.397	0.111	0.081
-457.026	-49.603	-0.101	0.048
-456.011	-200.000	-0.037	0.170
-454.997	31.059	0.148	-0.128
-453.982	-53.165	0.185	-0.086
-452.968	-200.000	-0.035	-0.208
-451.953	-3.748	-0.147	-0.103
-450.938	-25.625	-0.232	-0.138
-449.924	98.585	0.062	-0.072
-448.909	-200.000	-0.008	-0.068
-447.895	-93.753	0.151	-0.042
-446.880	800.000	-0.047	-0.136
-445.865	-200.000	-0.020	0.213
-444.851	-77.209	-0.207	0.073
-443.836	311.413	-0.086	-0.162
-442.822	-25.636	0.109	0.065
-441.807	-21.509	-0.068	0.042
-440.792	51.276	0.031	-0.030
-439.778	361.167	0.127	0.256
-438.763	-94.534	0.238	-0.065
-437.749	168.286	-0.114	-0.164
-436.734	67.013	-0.201	0.206
-435.719	-200.000	-0.029	0.172
-434.705	-185.358	-0.358	0.006
-433.690	-157.955	-0.143	-0.009
-432.676	-10.337	-0.110	0.073
-431.661	800.000	0.054	0.170
-430.646	-142.721	-0.116	-0.011
-429.632	-70.709	-0.418	-0.159
-428.617	-200.000	-0.009	-0.280
-427.603	-200.000	-0.021	-0.363
-426.588	-14.230	-0.039	-0.025
-425.573	800.000	0.116	0.421
-424.559	521.951	0.091	-0.215
-423.544	16.158	0.200	-0.159
-422.530	94.076	-0.069	-0.078
-421.515	800.000	0.028	-0.078
-420.500	624.292	-0.118	-0.301
-419.486	-200.000	0.017	0.284
-418.471	-200.000	-0.004	-0.106
-417.457	-107.791	-0.286	-0.063
-416.442	-104.769	0.032	0.007
-415.428	-200.000	0.040	0.394
-414.413	273.993	0.118	-0.211
-413.398	-33.740	-0.287	-0.159
-412.384	69.661	-0.102	0.105
-411.369	112.564	-0.238	0.290
-410.355	-63.837	0.094	-0.039
-409.340	-200.000	-0.066	-0.298
-408.325	800.000	-0.061	0.206
-407.311	421.539	0.093	0.200
-406.296	800.000	0.030	0.096
-405.282	16.522	0.128	-0.102
-404.267	800.000	-0.118	0.454
-403.252	-200.000	0.025	0.244
-402.238	-200.000	-0.000	0.172
-401.223	-147.693	0.182	0.015
-400.209	-84.637	0.040	-0.013
-399.194	97.758	-0.064	-0.074
-398.179	513.146	-0.026	0.061
-397.165	-27.158	-0.131	-0.077
-396.150	-64.427	0.175	0.072
-395.136	-61.174	-0.162	0.069
-394.121	-49.506	0.225	0.108
-393.106	166.153	0.113	-0.161
-392.092	-43.885	-0.112	-0.057
-391.077	-175.946	-0.010	0.000
-390.063	171.329	0.124	-0.180
-389.048	-85.788	-0.206	-0.064
-388.033	234.870	0.160	-0.266
-387.019	-126.539	0.083	-0.012
-386.004	337.317	0.104	0.203
-384.990	76.387	0.065	0.069
-383.975	232.502	-0.119	0.197
-382.960	800.000	-0.064	0.183
-381.946	-37.974	-0.263	0.141
-380.931	185.010	-0.128	-0.191
-379.917	-115.839	-0.298	-0.056
-378.902	325.818	0.070	0.134
-377.888	-42.493	0.323	-0.165
-376.873	-200.000	-0.013	-0.294
-375.858	601.915	0.044	0.110
-374.844	-81.799	-0.315	0.104
-373.829	274.632	0.077	-0.137
-372.815	143.935	-0.038	0.051
-371.800	212.900	0.187	0.297
-370.785	-102.239	0.236	-0.057
-369.771	-42.402	-0.282	-0.145
-368.756	-200.000	0.005	-0.079
-367.742	33.878	0.144	-0.126
-366.727	-97.997	-0.072	-0.019
-365.712	199.569	0.141	0.217
-364.698	-155.493	0.110	-0.007
-363.683	800.000	0.002	-0.005
-362.669	-84.153	0.032	-0.010
-361.654	186.625	-0.143	0.213
-360.639	-67.434	-0.154	-0.061
-359.625	437.208	-0.117	-0.257
-358.610	67.310	0.307	0.315
-357.596	108.858	0.068	0.081
-356.581	372.410	-0.113	-0.231
-355.566	206.253	0.076	0.119
-354.552	455.489	0.066	-0.147
-353.537	-200.000	0.090	0.409
-352.523	800.000	0.027	-0.081
-351.508	-200.000	0.061	-0.268
-350.493	-73.694	-0.254	0.093
-349.479	-200.000	0.016	0.117
-348.464	800.000	-0.035	-0.141
-347.450	-92.708	-0.294	-0.083
-346.435	800.000	0.057	0.178
-345.420	-168.175	-0.417	0.016
-344.406	-130.769	-0.095	-0.013
-343.391	-32.720	-0.118	-0.066
-342.377	-200.000	0.015	-0.201
-341.362	-171.408	0.077	0.003
-340.348	-130.569	0.313	0.042
-339.333	-200.000	-0.034	-0.167
-338.318	617.671	0.014	0.034
-337.304	133.653	0.159	0.206
-336.289	73.993	0.190	0.200
-335.275	-51.036	0.121	0.057
-334.260	262.268	0.052	0.090
-333.245	-200.000	-0.022	0.136
-332.231	45.436	-0.310	0.287
-331.216	-126.012	-0.183	-0.028
-330.202	-83.419	0.226	0.073
-329.187	-57.223	-0.256	-0.113
-328.172	-200.000	0.006	0.238
-327.158	571.365	0.039	0.095
-326.143	80.527	0.124	0.134
-325.129	-66.358	0.117	0.047
-324.114	150.930	-0.102	-0.139
-323.099	-115.132	0.211	-0.040
-322.085	-195.150	0.044	-0.000
-321.070	-93.422	0.014	-0.004
-320.056	-142.885	0.414	0.040
-319.041	161.519	-0.131	0.184
-318.026	-200.000	-0.004	0.157
-317.012	800.000	0.087	-0.285
-315.997	-163.727	-0.368	0.017
-314.983	252.695	-0.129	0.222
-313.968	-173.534	-0.028	0.001
-312.953	-181.145	-0.427	0.009
-311.939	-200.000	0.001	0.368
-310.924	800.000	-0.021	-0.077
-309.910	205.754	-0.199	0.310
-308.895	-200.000	-0.032	0.155
-307.880	651.011	0.062	0.159
-306.866	347.993	0.057	0.113
-305.851	-200.000	0.038	-0.268
-304.837	14.003	0.054	0.042
-303.822	800.000	-0.034	0.134
-302.807	-148.695	0.170	-0.014
-301.793	100.271	-0.101	0.118
-300.778	126.257	0.108	-0.137
-299.764	-200.000	0.002	0.052
-298.749	-53.306	0.393	-0.181
-297.735	-200.000	-0.026	-0.153
-296.720	264.345	-0.196	0.342
-295.705	-200.000	-0.025	0.461
-294.691	432.001	-0.024	0.051
-293.676	76.967	-0.133	-0.142
-292.662	-200.000	-0.032	0.180
-291.647	-200.000	0.007	-0.040
-290.632	-200.000	-0.003	-0.121
-289.618	-34.753	0.122	0.067
-288.603	-49.703	-0.151	-0.072
-287.589	-39.741	0.387	-0.203
-286.574	203.012	-0.050	-0.077
-285.559	-200.000	-0.012	0.055
-284.545	-4.882	0.277	0.192
-283.530	-200.000	0.016	-0.283
-282.516	14.157	-0.178	0.139
-281.501	-100.209	-0.187	-0.047
-280.486	-200.000	0.003	-0.026
-279.472	92.047	-0.196	0.221
-278.457	230.346	0.072	0.118
-277.443	-40.512	-0.259	0.135
-276.428	52.120	-0.363	0.347
-275.413	7.083	0.161	0.120
-274.399	-53.696	0.157	-0.072
-273.384	800.000	0.057	0.182
-272.370	800.000	-0.024	-0.086
-271.355	447.608	-0.121	-0.267
-270.340	142.927	-0.215	-0.286
-269.326	-83.399	0.193	0.062
-268.311	321.487	-0.098	-0.186
-267.297	18.609	-0.220	-0.176
-266.282	-67.806	0.192	0.075
-265.267	800.000	-0.085	0.235
-264.253	145.437	-0.239	-0.321
-263.238	5.794	-0.285	0.211
-262.224	384.005	0.144	0.296
-261.209	476.865	0.126	-0.286
-260.195	-200.000	-0.045	0.407
-259.180	-74.836	0.067	0.024
-258.165	-137.152	-0.040	0.005
-257.151	91.029	0.154	0.173
-256.136	-48.940	-0.160	0.077
-255.122	800.000	-0.093	0.266
-254.107	123.450	0.151	0.190
-253.092	219.703	-0.111	-0.179
-252.078	-200.000	-0.058	0.254
-251.063	-17.180	-0.192	-0.121
-250.049	152.408	-0.149	0.204
-249.034	323.710	0.022	0.041
-248.019	42.406	0.179	0.163
-247.005	526.701	-0.139	-0.328
-245.990	800.000	-0.115	0.352
-244.976	-200.000	-0.009	-0.285
-243.961	-93.338	0.323	-0.090
-242.946	-63.214	-0.214	-0.088
-241.932	140.462	0.171	-0.226
-240.917	-11.249	-0.201	0.132
-239.903	-34.737	0.410	0.224
-238.888	-81.889	0.178	-0.058
-237.873	222.824	0.049	0.078
-236.859	162.838	-0.059	0.083
-235.844	319.314	0.145	-0.275
-234.830	800.000	-0.101	-0.279
-233.815	-180.246	-0.300	0.006
-232.800	69.079	0.178	0.183
-231.786	-142.193	0.174	0.017
-230.771	217.068	-0.125	-0.199
-229.757	48.437	-0.279	-0.261
-228.742	397.978	0.195	-0.409
-227.727	-200.000	-0.005	-0.139
-226.713	58.996	-0.154	-0.151
-225.698	65.289	0.103	0.104
-224.684	-71.317	0.344	-0.129
-223.669	65.158	0.275	0.278
-222.655	800.000	-0.111	-0.466
-221.640	130.824	-0.179	0.229
-220.625	-31.235	0.220	-0.124
-219.611	-200.000	0.029	-0.174
-218.596	65.519	0.053	-0.054
-217.582	465.465	-0.045	0.102
-216.567	-138.764	0.131	-0.014
-215.552	174.427	-0.121	-0.175
-214.538	-112.172	0.158	-0.032
-213.523	800.000	-0.041	0.147
-212.509	317.931	-0.097	0.183
-211.494	-79.477	-0.179	-0.061
-210.479	-106.573	0.404	-0.090
-209.465	-200.000	0.032	0.195
-208.450	282.109	0.030	0.054
-207.436	20.060	0.194	-0.156
-206.421	-51.983	-0.135	-0.063
-205.406	-200.000	-0.066	-0.329
-204.392	-14.086	-0.067	-0.043
-203.377	-161.040	0.015	0.001
-202.363	800.000	0.058	0.196
-201.348	109.894	-0.136	-0.162
-200.333	45.442	-0.064	0.059
-199.319	800.000	-0.148	0.425
-198.304	-200.000	-0.017	0.133
-197.290	243.535	-0.055	-0.091
-196.275	104.253	-0.126	-0.148
-195.260	-15.045	-0.090	0.058
-194.246	649.160	0.061	0.157
-193.231	-148.340	-0.189	-0.016
-192.217	-200.000	0.033	0.238
-191.202	-86.158	0.276	-0.085
-190.187	793.446	-0.016	0.045
-189.173	666.917	-0.092	0.238
-188.158	-10.039	-0.075	-0.049
-187.144	521.483	-0.058	-0.137
-186.129	-27.423	0.080	-0.046
-185.114	-96.718	0.090	-0.024
-184.100	387.523	-0.076	-0.158
-183.085	-138.252	0.076	0.008
-182.071	-101.271	0.102	0.025
-181.056	-183.518	-0.357	0.006
-180.042	129.113	-0.185	0.236
-179.027	-200.000	0.044	0.235
-178.012	127.672	-0.156	0.198
-176.998	106.018	0.046	0.054
-175.983	800.000	0.038	0.154
-174.969	-48.492	0.222	0.107
-173.954	-80.520	0.354	0.118
-172.939	69.284	-0.256	0.263
-171.925	106.882	-0.211	-0.250
-170.910	-200.000	0.035	-0.288
-169.896	195.301	0.032	0.048
-168.881	-7.531	0.095	0.064
-167.866	125.730	0.141	-0.177
-166.852	-200.000	-0.008	0.079
-165.837	274.134	-0.087	0.154
-164.823	262.718	-0.062	0.107
-163.808	-200.000	0.027	0.141
-162.793	-157.870	0.064	0.004
-161.779	-173.766	-0.437	-0.013
-160.764	-142.302	-0.073	0.007
-159.750	69.485	0.276	-0.284
-158.735	-51.358	0.092	-0.043
-157.720	128.466	-0.083	-0.105
-156.706	685.460	0.115	-0.299
-155.691	800.000	0.038	-0.138
-154.677	-200.000	0.001	-0.317
-153.662	504.968	0.072	0.167
-152.647	800.000	-0.027	0.095
-151.633	119.013	-0.249	0.307
-150.618	555.638	0.039	-0.093
-149.604	-200.000	0.002	-0.160
-148.589	-200.000	-0.055	0.242
-147.574	617.026	-0.170	0.426
-146.560	691.509	0.136	-0.355
-145.545	158.779	0.045	-0.063
-144.531	-91.993	-0.339	-0.096
-143.516	-45.738	-0.088	-0.044
-142.502	-39.568	-0.177	0.092
-141.487	29.159	0.334	0.282
-140.472	679.226	-0.061	0.157
-139.458	24.386	-0.118	0.098
-138.443	-110.646	-0.560	0.115
-137.429	-130.929	0.188	0.025
-136.414	-200.000	-0.005	0.191
-135.399	-19.473	0.339	0.209
-134.385	-191.037	0.066	-0.001
-133.370	-200.000	-0.000	0.091
-132.356	-200.000	-0.385	0.002
-131.341	-200.000	0.025	-0.171
-130.326	-200.000	-0.013	-0.131
-129.312	-200.000	0.039	-0.329
-128.297	-118.677	0.158	-0.028
-127.283	49.639	-0.251	0.236
-126.268	124.279	-0.133	0.167
-125.253	-95.517	-0.084	-0.022
-124.239	-162.547	-0.286	-0.014
-123.224	34.933	0.130	0.113
-122.210	172.640	0.160	-0.229
