DTS Sentinel unit serial number:	SN413079Multiplexer serial number:	ORYXHardware model number:	OX4-SRSoftware version number:	ORYX F/W v4.00 Oryx Data Collector v3.7.2.0data status	okinstallation	princeton_trtdifferential loss correction	single-endedforward channel	channel 1reverse channel	N/Adate	2019/09/15time	14:14:35forward acquisition time	60.00reverse acquisition time	0.00gamma	496.2192k internal	0.2291k external	0.2291temperature offset calibration	0.9968default loss term (dB/km)	0.3790temperature slope calibration	1.0000multiplexer offset coefficient	1.0000multiplexer slope coefficient	1.0000fibre end	0.00T internal ref (°C)	38.87T ext. ref 1 (°C)	4.97T ext. ref 2 (°C)	36.15length (m)	temperature (°C)	Stokes	anti-Stokes-747.200	-200.000	0.043	0.244
-746.185	-200.000	0.002	-0.041
-745.171	-120.599	0.134	-0.023
-744.156	-89.420	-0.306	-0.092
-743.142	-187.459	-0.289	0.004
-742.127	48.685	-0.091	0.088
-741.112	161.276	0.090	0.129
-740.098	50.798	-0.291	0.282
-739.083	-75.795	0.080	0.029
-738.069	-89.906	0.244	-0.073
-737.054	-168.111	0.217	-0.009
-736.039	-150.315	-0.061	0.005
-735.025	-73.404	-0.155	0.058
-734.010	-200.000	-0.009	0.096
-732.996	-200.000	-0.029	0.147
-731.981	-96.757	0.129	0.035
-730.966	128.041	-0.179	0.232
-729.952	85.633	-0.092	-0.103
-728.937	-51.706	0.452	-0.216
-727.923	-200.000	-0.066	0.369
-726.908	-163.687	-0.110	0.005
-725.894	-62.793	-0.273	-0.116
-724.879	487.094	-0.116	-0.270
-723.864	800.000	0.116	-0.396
-722.850	595.341	0.058	0.146
-721.835	35.828	0.067	0.060
-720.821	-200.000	-0.056	0.307
-719.806	800.000	-0.038	0.136
-718.791	-76.101	0.114	0.041
-717.777	-200.000	-0.026	0.255
-716.762	800.000	-0.020	-0.078
-715.748	271.858	-0.206	-0.371
-714.733	-200.000	0.018	0.164
-713.718	-200.000	-0.063	0.350
-712.704	-200.000	-0.024	-0.236
-711.689	-112.313	-0.224	-0.046
-710.675	-200.000	0.011	0.233
-709.660	-53.927	-0.279	0.130
-708.645	2.126	-0.179	-0.133
-707.631	-200.000	0.047	-0.284
-706.616	-46.919	0.080	-0.040
-705.602	-200.000	-0.064	-0.401
-704.587	118.483	-0.029	-0.036
-703.572	293.972	0.105	-0.197
-702.558	-27.525	-0.138	-0.082
-701.543	800.000	-0.026	0.109
-700.529	-200.000	-0.024	0.165
-699.514	-83.117	-0.116	0.038
-698.499	-82.575	0.052	-0.017
-697.485	-200.000	-0.010	0.091
-696.470	-28.884	0.113	-0.066
-695.456	-200.000	-0.067	0.330
-694.441	170.888	0.085	0.124
-693.426	12.573	0.186	-0.147
-692.412	-16.809	0.232	-0.150
-691.397	-43.662	-0.267	-0.138
-690.383	-65.744	-0.253	-0.104
-689.368	303.011	-0.099	0.187
-688.354	800.000	0.017	-0.069
-687.339	-71.663	-0.365	-0.139
-686.324	-200.000	-0.024	-0.142
-685.310	105.659	-0.109	-0.131
-684.295	-65.217	-0.168	0.069
-683.281	-64.613	-0.541	0.224
-682.266	800.000	0.068	-0.303
-681.251	56.590	0.122	0.122
-680.237	-143.006	-0.408	0.040
-679.222	221.265	-0.225	-0.369
-678.208	-186.447	-0.291	0.004
-677.193	-200.000	-0.001	-0.207
-676.178	800.000	0.040	0.158
-675.164	-25.092	-0.143	0.087
-674.149	269.803	0.088	-0.159
-673.135	-34.765	-0.227	-0.127
-672.120	-122.252	-0.301	0.050
-671.105	-129.766	-0.050	-0.007
-670.091	72.354	0.089	-0.095
-669.076	-200.000	-0.014	-0.226
-668.062	-81.062	-0.252	-0.085
-667.047	-10.831	-0.073	-0.049
-666.032	-200.000	-0.028	-0.327
-665.018	-200.000	-0.068	0.331
-664.003	344.270	0.095	-0.191
-662.989	-31.508	0.080	-0.046
-661.974	-200.000	0.046	-0.240
-660.959	280.193	0.075	-0.137
-659.945	-200.000	-0.018	0.221
-658.930	654.925	-0.047	-0.123
-657.916	-51.378	-0.279	0.133
-656.901	-116.374	-0.064	-0.012
-655.886	397.973	-0.151	0.322
-654.872	-124.528	0.080	0.013
-653.857	-200.000	-0.029	-0.257
-652.843	-130.830	-0.319	0.044
-651.828	18.485	0.184	0.150
-650.814	-200.000	0.007	-0.070
-649.799	88.414	-0.122	0.139
-648.784	-131.447	-0.099	0.013
-647.770	-57.472	0.276	-0.124
-646.755	-97.018	0.320	-0.086
-645.741	-23.197	-0.179	-0.110
-644.726	800.000	0.016	0.067
-643.711	800.000	0.169	0.569
-642.697	241.028	-0.111	0.188
-641.682	800.000	-0.076	0.315
-640.668	-200.000	-0.027	-0.164
-639.653	-140.202	0.216	0.023
-638.638	-96.893	0.435	-0.116
-637.624	5.734	-0.316	0.238
-636.609	-200.000	0.160	0.000
-635.595	205.156	-0.149	0.235
-634.580	38.891	0.155	-0.142
-633.565	-44.318	-0.202	0.103
-632.551	21.014	-0.092	0.076
-631.536	430.383	-0.071	-0.156
-630.522	39.996	0.149	-0.136
-629.507	-134.657	-0.116	0.014
-628.492	578.124	-0.132	0.328
-627.478	-34.756	-0.037	-0.021
-626.463	-116.234	0.284	-0.054
-625.449	20.142	-0.109	0.090
-624.434	-65.771	0.324	0.132
-623.419	-7.760	-0.143	-0.099
-622.405	-83.296	0.157	-0.051
-621.390	22.042	0.061	-0.051
-620.376	800.000	-0.050	-0.182
-619.361	191.730	0.110	0.169
-618.346	-200.000	-0.016	-0.182
-617.332	-102.019	-0.158	0.039
-616.317	-125.731	-0.103	-0.016
-615.303	-154.617	-0.095	-0.006
-614.288	14.806	-0.216	-0.172
-613.273	411.550	0.096	-0.208
-612.259	-200.000	-0.055	-0.252
-611.244	-200.000	-0.002	-0.119
-610.230	800.000	0.051	0.195
-609.215	-36.823	0.112	0.061
-608.201	34.274	0.181	-0.161
-607.186	-101.260	0.269	-0.067
-606.171	800.000	0.100	-0.327
-605.157	-44.474	-0.239	-0.122
-604.142	-200.000	-0.006	-0.085
-603.128	149.324	0.123	0.170
-602.113	-57.688	-0.345	-0.154
-601.098	-91.874	-0.177	-0.051
-600.084	-38.256	-0.059	-0.032
-599.069	-99.941	0.297	0.075
-598.055	-61.429	-0.089	-0.038
-597.040	-200.000	-0.033	-0.282
-596.025	-50.065	0.261	-0.126
-595.011	-139.733	-0.346	0.037
-593.996	-147.230	0.191	0.017
-592.982	-200.000	0.003	0.044
-591.967	28.137	-0.168	-0.145
-590.952	3.188	0.072	-0.053
-589.938	224.141	0.124	-0.205
-588.923	82.873	0.143	-0.158
-587.909	-76.591	0.358	-0.128
-586.894	-200.000	0.011	-0.168
-585.879	-120.046	-0.134	-0.023
-584.865	800.000	-0.060	0.187
-583.850	252.523	-0.075	-0.130
-582.836	-126.241	0.167	-0.025
-581.821	-140.921	-0.450	0.047
-580.806	-84.538	0.052	0.017
-579.792	66.446	-0.107	0.110
-578.777	257.469	-0.049	0.087
-577.763	-133.826	-0.165	-0.021
-576.748	-36.890	-0.261	0.142
-575.733	80.763	-0.189	0.208
-574.719	-200.000	0.015	0.298
-573.704	-63.160	-0.124	-0.052
-572.690	248.441	0.069	0.119
-571.675	-153.570	-0.335	0.024
-570.661	10.960	-0.127	0.099
-569.646	-134.717	-0.469	-0.058
-568.631	-108.503	-0.141	-0.031
-567.617	331.481	0.103	0.201
-566.602	-200.000	0.000	0.173
-565.588	310.437	-0.100	-0.191
-564.573	131.329	0.152	0.198
-563.558	-180.689	0.153	-0.003
-562.544	-33.964	0.162	-0.090
-561.529	-200.000	-0.072	-0.335
-560.515	2.824	-0.016	0.012
-559.500	38.512	0.175	-0.159
-558.485	2.893	-0.121	0.090
-557.471	114.959	-0.051	0.063
-556.456	52.148	0.127	-0.123
-555.442	-136.166	0.163	-0.019
-554.427	-95.542	-0.372	0.101
-553.412	303.046	-0.088	-0.166
-552.398	-7.082	-0.197	-0.136
-551.383	80.554	-0.202	-0.221
-550.369	-200.000	0.023	-0.175
-549.354	502.624	-0.089	0.209
-548.339	662.234	-0.082	0.214
-547.325	800.000	-0.023	0.078
-546.310	651.828	0.034	-0.089
-545.296	15.549	-0.077	-0.062
-544.281	800.000	-0.058	-0.217
-543.266	65.462	-0.228	-0.234
-542.252	-62.801	-0.084	0.035
-541.237	-104.818	0.266	-0.062
-540.223	-15.570	0.094	-0.061
-539.208	800.000	0.090	-0.258
-538.193	-44.488	-0.251	0.128
-537.179	274.006	0.125	-0.225
-536.164	-68.417	0.259	0.102
-535.150	-50.203	-0.099	0.048
-534.135	-200.000	-0.027	0.138
-533.121	-50.249	0.151	-0.072
-532.106	170.611	0.005	-0.008
-531.091	85.418	0.132	0.147
-530.077	615.637	0.037	-0.095
-529.062	-44.371	0.311	0.158
-528.048	136.755	-0.022	-0.029
-527.033	9.903	0.123	-0.095
-526.018	-114.288	-0.247	-0.048
-525.004	129.203	0.185	-0.240
-523.989	65.307	-0.219	-0.224
-522.975	-22.113	0.417	-0.257
-521.960	50.191	0.228	-0.219
-520.945	83.249	0.062	0.068
-519.931	124.176	-0.218	-0.278
-518.916	146.403	-0.067	0.092
-517.902	-31.304	0.209	0.120
-516.887	-80.861	-0.271	0.091
-515.872	800.000	-0.106	0.304
-514.858	-116.986	0.105	-0.020
-513.843	-200.000	0.036	0.285
-512.829	-79.630	0.133	0.046
-511.814	353.078	0.067	0.134
-510.799	-107.494	-0.138	-0.031
-509.785	36.772	-0.100	-0.090
-508.770	-31.295	0.069	-0.039
-507.756	618.914	-0.058	0.149
-506.741	91.263	0.048	0.055
-505.726	-122.661	-0.218	-0.036
-504.712	-62.383	0.158	-0.067
-503.697	168.146	0.123	-0.178
-502.683	-107.914	0.151	0.033
-501.668	-32.387	-0.365	0.206
-500.653	-9.250	0.259	-0.175
-499.639	-157.265	0.157	0.010
-498.624	-59.118	0.170	-0.074
-497.610	103.115	-0.161	0.191
-496.595	407.172	0.069	-0.147
-495.581	86.456	-0.240	-0.268
-494.566	26.278	-0.190	0.161
-493.551	-200.000	0.012	-0.084
-492.537	-54.967	-0.043	0.020
-491.522	-200.000	0.045	-0.405
-490.508	152.629	-0.063	-0.087
-489.493	-200.000	0.004	0.289
-488.478	800.000	-0.056	-0.177
-487.464	87.440	-0.148	-0.166
-486.449	7.877	-0.159	-0.121
-485.435	-79.102	0.470	0.162
-484.420	51.744	0.138	0.133
-483.405	-200.000	-0.023	-0.218
-482.391	-67.990	0.209	0.083
-481.376	64.871	0.080	-0.081
-480.362	-131.136	0.258	-0.035
-479.347	-45.237	0.212	0.107
-478.332	-5.020	-0.081	-0.056
-477.318	-62.844	0.400	-0.168
-476.303	-200.000	0.007	0.075
-475.289	398.308	0.101	-0.213
-474.274	800.000	0.075	-0.278
-473.259	-200.000	-0.018	-0.132
-472.245	218.076	-0.257	0.415
-471.230	-14.069	-0.266	0.174
-470.216	-58.172	0.239	-0.106
-469.201	-200.000	0.007	0.127
-468.186	279.955	-0.074	-0.134
-467.172	37.602	-0.189	-0.170
-466.157	136.782	0.150	0.199
-465.143	800.000	0.066	0.200
-464.128	98.213	0.098	-0.114
-463.113	115.375	-0.137	-0.169
-462.099	219.517	-0.079	-0.129
-461.084	-16.972	-0.252	-0.161
-460.070	3.287	-0.273	0.201
-459.055	307.043	0.146	-0.275
-458.040	41.043	-0.147	0.134
-457.026	-71.619	-0.160	-0.060
-456.011	-200.000	0.067	0.359
-454.997	29.327	-0.342	0.294
-453.982	84.901	-0.179	-0.199
-452.968	800.000	0.053	-0.223
-451.953	-110.706	0.027	-0.006
-450.938	-59.926	0.210	-0.091
-449.924	33.086	0.161	0.141
-448.909	-149.179	0.050	-0.004
-447.895	18.255	0.052	-0.042
-446.880	28.284	-0.183	0.156
-445.865	-156.831	-0.080	-0.005
-444.851	46.016	0.077	-0.072
-443.836	-159.085	-0.209	0.012
-442.822	-76.691	0.082	0.029
-441.807	-38.136	-0.323	0.174
-440.792	299.201	-0.056	-0.105
-439.778	-200.000	0.040	0.328
-438.763	158.539	0.113	0.159
-437.749	499.889	-0.096	0.225
-436.734	93.416	0.169	-0.194
-435.719	435.521	-0.160	0.352
-434.705	-200.000	-0.009	-0.151
-433.690	-200.000	0.054	0.305
-432.676	17.123	-0.181	-0.145
-431.661	-111.224	-0.068	-0.014
-430.646	232.945	0.255	0.424
-429.632	623.626	0.062	0.158
-428.617	-200.000	0.012	0.179
-427.603	-200.000	0.042	-0.202
-426.588	63.706	-0.168	0.170
-425.573	-128.162	0.093	0.013
-424.559	-60.348	0.111	0.048
-423.544	22.100	-0.348	-0.287
-422.530	-117.508	0.338	0.062
-421.515	96.459	-0.116	-0.135
-420.500	-89.141	-0.105	-0.031
-419.486	99.428	-0.120	0.140
-418.471	44.325	0.063	-0.059
-417.457	800.000	-0.076	0.332
-416.442	47.191	0.071	0.067
-415.428	-30.165	0.234	-0.134
-414.413	-79.577	-0.101	0.035
-413.398	247.405	-0.088	0.150
-412.384	-26.458	0.128	0.076
-411.369	-56.799	0.161	0.072
-410.355	-46.613	-0.282	0.140
-409.340	800.000	0.085	0.318
-408.325	267.209	0.040	0.071
-407.311	-120.762	0.085	-0.014
-406.296	-96.106	0.107	-0.029
-405.282	48.726	-0.127	-0.120
-404.267	-100.271	-0.270	0.068
-403.252	78.038	-0.150	-0.161
-402.238	-148.751	-0.151	-0.012
-401.223	11.278	0.323	-0.250
-400.209	464.179	-0.102	-0.231
-399.194	-200.000	-0.010	0.145
-398.179	37.928	0.163	0.147
-397.165	-200.000	0.020	-0.249
-396.150	49.714	-0.196	-0.187
-395.136	-68.028	-0.142	0.056
-394.121	145.784	0.272	-0.368
-393.106	-78.066	0.118	-0.041
-392.092	-183.708	-0.153	0.003
-391.077	800.000	-0.062	0.232
-390.063	216.740	0.082	0.131
-389.048	-75.745	-0.248	0.089
-388.033	622.789	0.051	0.131
-387.019	11.541	-0.175	0.135
-386.004	-77.205	-0.152	-0.053
-384.990	-11.325	0.065	-0.043
-383.975	-48.107	0.052	0.025
-382.960	-40.657	0.163	0.085
-381.946	-120.592	0.129	-0.022
-380.931	-133.563	-0.127	-0.016
-379.917	98.815	0.196	-0.229
-378.902	-125.792	-0.229	0.035
-377.888	-200.000	-0.029	0.000
-376.873	-87.568	-0.157	0.048
-375.858	-1.768	0.198	-0.141
-374.844	-200.000	-0.014	-0.166
-373.829	-200.000	-0.058	-0.321
-372.815	-200.000	0.001	-0.009
-371.800	63.751	-0.144	-0.146
-370.785	-117.766	0.206	-0.037
-369.771	142.865	0.233	0.312
-368.756	616.958	0.126	-0.320
-367.742	773.338	0.115	-0.315
-366.727	800.000	0.110	0.444
-365.712	-111.014	0.189	0.039
-364.698	-200.000	0.024	0.190
-363.683	36.588	-0.013	-0.012
-362.669	-200.000	-0.359	0.000
-361.654	800.000	-0.083	0.280
-360.639	-200.000	-0.006	0.073
-359.625	387.715	-0.043	0.089
-358.610	331.379	0.065	-0.126
-357.596	-76.328	0.215	-0.077
-356.581	-34.306	-0.384	0.212
-355.566	-95.470	-0.175	-0.047
-354.552	-126.069	0.114	-0.017
-353.537	-200.000	0.027	0.349
-352.523	33.025	0.227	-0.199
-351.508	-150.001	-0.181	0.014
-350.493	278.504	-0.178	0.321
-349.479	687.095	-0.050	0.132
-348.464	177.100	0.090	-0.132
-347.450	-200.000	0.027	0.178
-346.435	800.000	-0.063	-0.264
-345.420	-59.640	0.183	0.079
-344.406	40.416	-0.169	0.154
-343.391	-128.229	-0.370	-0.053
-342.377	15.465	0.300	0.237
-341.362	70.325	-0.227	-0.236
-340.348	-35.989	0.181	0.099
-339.333	-71.577	-0.428	-0.161
-338.318	292.628	0.103	0.189
-337.304	438.424	0.021	-0.047
-336.289	-200.000	-0.003	-0.147
-335.275	211.256	-0.211	0.335
-334.260	111.491	-0.136	0.166
-333.245	-5.929	-0.233	0.161
-332.231	336.760	0.008	-0.015
-331.216	235.431	-0.097	-0.162
-330.202	-200.000	-0.005	-0.024
-329.187	-14.433	0.155	-0.100
-328.172	554.232	0.058	0.140
-327.158	151.155	-0.109	0.149
-326.143	-11.984	0.278	0.184
-325.129	264.528	0.133	-0.233
-324.114	800.000	0.085	-0.294
-323.099	171.097	-0.098	0.142
-322.085	-144.832	0.270	0.025
-321.070	-12.994	-0.073	0.048
-320.056	195.600	-0.088	0.135
-319.041	65.534	0.082	0.084
-318.026	800.000	-0.043	0.160
-317.012	209.563	-0.196	0.309
-315.997	-57.632	0.252	-0.111
-314.983	210.788	-0.208	0.329
-313.968	-77.092	-0.340	-0.119
-312.953	80.660	-0.034	0.037
-311.939	188.028	-0.020	-0.031
-310.924	-137.002	0.138	-0.016
-309.910	240.675	-0.178	-0.299
-308.895	-46.346	0.300	0.149
-307.880	88.776	-0.405	0.454
-306.866	-39.328	0.164	0.087
-305.851	-200.000	-0.024	0.148
-304.837	745.635	-0.102	-0.277
-303.822	123.682	-0.126	-0.159
-302.807	73.463	0.199	0.210
-301.793	-200.000	0.003	0.066
-300.778	179.932	0.042	-0.062
-299.764	1.768	-0.123	0.089
-298.749	800.000	-0.053	0.176
-297.735	-200.000	0.030	0.156
-296.720	-18.000	-0.363	-0.229
-295.705	477.268	0.095	0.216
-294.691	-200.000	-0.028	-0.251
-293.676	100.773	-0.266	-0.311
-292.662	-200.000	0.001	-0.107
-291.647	-115.462	-0.035	-0.007
-290.632	-200.000	0.006	-0.035
-289.618	-175.596	0.357	-0.010
-288.603	180.331	0.173	-0.256
-287.589	31.503	-0.382	-0.331
-286.574	-50.123	-0.080	-0.038
-285.559	-26.332	0.107	-0.063
-284.545	276.178	0.068	-0.122
-283.530	-12.781	0.163	0.107
-282.516	-57.297	0.071	0.032
-281.501	800.000	-0.014	0.053
-280.486	583.627	0.050	-0.125
-279.472	800.000	-0.043	0.172
-278.457	-200.000	-0.004	-0.025
-277.443	45.579	0.225	0.209
-276.428	88.721	0.024	-0.027
-275.413	-4.601	0.143	0.099
-274.399	748.758	0.029	0.078
-273.384	-200.000	0.045	0.282
-272.370	505.867	-0.027	0.064
-271.355	-92.720	0.303	0.085
-270.340	-160.467	0.395	-0.021
-269.326	124.587	-0.271	0.342
-268.311	-200.000	0.034	0.342
-267.297	800.000	-0.040	-0.132
-266.282	-102.563	0.595	0.143
-265.267	-85.936	0.117	0.036
-264.253	52.113	-0.145	0.139
-263.238	185.390	0.079	-0.118
-262.224	-41.992	0.104	0.054
-261.209	168.519	-0.117	-0.167
-260.195	642.183	-0.216	-0.553
-259.180	4.561	0.169	-0.125
-258.165	800.000	-0.054	0.171
-257.151	88.472	0.079	-0.088
-256.136	-113.027	-0.265	0.053
-255.122	-77.355	0.080	-0.028
-254.107	204.409	-0.085	0.132
-253.092	149.451	-0.096	0.130
-252.078	217.027	-0.064	-0.102
-251.063	-101.127	-0.468	0.115
-250.049	-75.613	0.027	-0.010
-249.034	-41.619	-0.222	0.115
-248.019	-97.407	0.272	-0.071
-247.005	368.375	0.078	-0.158
-245.990	-157.399	0.316	0.019
-244.976	125.454	0.025	-0.032
-243.961	437.858	-0.036	0.078
-242.946	-64.205	-0.121	0.050
-241.932	-120.882	0.338	-0.057
-240.917	-200.000	-0.007	-0.127
-239.903	-137.719	0.237	0.027
-238.888	-194.726	-0.328	-0.003
-237.873	-37.826	-0.066	0.035
-236.859	-200.000	-0.051	-0.343
-235.844	-30.031	0.501	-0.286
-234.830	-48.679	-0.322	-0.155
-233.815	116.000	-0.217	0.266
-232.800	-147.962	0.115	0.010
-231.786	-102.230	-0.249	0.060
-230.771	-200.000	0.027	0.238
-229.757	-73.633	0.143	0.052
-228.742	-200.000	-0.024	-0.219
-227.727	-200.000	0.024	-0.208
-226.713	800.000	0.058	-0.231
-225.698	-70.248	-0.151	-0.058
-224.684	-200.000	0.013	-0.262
-223.669	-50.310	0.329	-0.156
-222.655	-200.000	0.043	0.437
-221.640	96.770	0.368	0.423
-220.625	223.224	0.112	0.181
-219.611	-200.000	-0.014	0.102
-218.596	136.941	0.228	-0.299
-217.582	-200.000	0.047	0.292
-216.567	-200.000	0.007	0.532
-215.552	-140.510	-0.330	0.034
-214.538	58.538	-0.234	0.231
-213.523	-59.342	0.163	-0.070
-212.509	-48.903	-0.424	-0.204
-211.494	423.425	0.164	-0.354
-210.479	-178.014	0.253	0.006
-209.465	-12.769	0.257	-0.168
-208.450	94.539	0.134	-0.152
-207.436	800.000	0.060	0.227
-206.421	786.369	-0.025	0.069
-205.406	800.000	0.053	0.161
-204.392	145.822	-0.099	0.133
-203.377	-87.429	-0.082	0.025
-202.363	31.085	0.150	-0.129
-201.348	160.002	0.059	-0.082
-200.333	-200.000	-0.027	-0.212
-199.319	800.000	0.164	0.474
-198.304	756.483	0.177	0.480
-197.290	-200.000	0.016	0.146
-196.275	-200.000	0.056	0.319
-195.260	-200.000	-0.095	-0.580
-194.246	33.250	0.216	0.188
-193.231	-93.311	-0.335	0.093
-192.217	283.191	0.120	0.216
-191.202	-45.512	0.093	0.046
-190.187	-22.535	-0.277	-0.168
-189.173	572.968	0.145	-0.355
-188.158	-88.011	-0.199	-0.060
-187.144	800.000	-0.092	0.263
-186.129	151.707	-0.033	0.045
-185.114	-183.853	0.278	0.005
-184.100	-2.007	0.125	0.088
-183.085	118.296	-0.120	-0.148
-182.071	56.176	0.095	-0.092
-181.056	-84.401	-0.214	-0.068
-180.042	-200.000	-0.042	-0.224
-179.027	-24.745	0.085	0.050
-178.012	5.849	0.182	-0.135
-176.998	-126.346	0.117	0.017
-175.983	-42.700	0.377	-0.192
-174.969	-3.866	0.125	0.087
-173.954	-131.339	-0.244	0.032
-172.939	-200.000	-0.035	-0.311
-171.925	-200.000	0.003	0.043
-170.910	-28.798	0.155	-0.089
-169.896	325.863	-0.087	-0.166
-168.881	118.137	0.083	-0.103
-167.866	-200.000	-0.074	-0.365
-166.852	265.696	-0.140	0.244
-165.837	-85.475	-0.292	0.091
-164.823	800.000	0.090	-0.261
-163.808	27.225	0.153	0.129
-162.793	-82.349	-0.108	-0.035
-161.779	-88.288	0.101	0.030
-160.764	800.000	0.055	-0.179
-159.750	365.738	-0.064	0.129
-158.735	207.713	0.238	-0.371
-157.720	-86.662	-0.190	-0.058
-156.706	48.740	-0.118	-0.110
-155.691	428.160	0.117	-0.253
-154.677	413.524	-0.121	-0.257
-153.662	-41.156	0.197	0.102
-152.647	-110.881	-0.237	-0.049
-151.633	-200.000	0.054	0.238
-150.618	107.342	-0.221	0.262
-149.604	-35.093	-0.113	0.062
-148.589	800.000	-0.059	-0.195
-147.574	213.829	0.237	-0.376
-146.560	-200.000	0.044	-0.196
-145.545	320.303	-0.128	-0.244
-144.531	535.225	-0.058	-0.138
-143.516	-200.000	0.006	-0.112
-142.502	-150.378	-0.023	0.002
-141.487	59.229	-0.173	-0.170
-140.472	800.000	0.031	-0.091
-139.458	-19.035	-0.257	0.160
-138.443	-136.483	0.317	0.037
-137.429	800.000	-0.111	-0.422
-136.414	253.777	-0.167	0.286
-135.399	800.000	-0.093	-0.295
-134.385	-151.551	-0.087	-0.006
-133.370	-200.000	0.008	0.295
-132.356	-10.313	-0.222	0.147
-131.341	-200.000	0.012	-0.137
-130.326	366.577	-0.024	0.048
-129.312	337.574	0.139	0.270
-128.297	-200.000	-0.036	0.220
-127.283	256.495	0.156	0.268
-126.268	800.000	0.053	0.159
-125.253	323.720	0.113	0.216
-124.239	-200.000	-0.002	0.228
-123.224	217.927	0.121	0.192
-122.210	362.823	0.008	-0.017
