DTS Sentinel unit serial number:	SN413079Multiplexer serial number:	ORYXHardware model number:	OX4-SRSoftware version number:	ORYX F/W v4.00 Oryx Data Collector v3.7.2.0data status	okinstallation	princeton_trtdifferential loss correction	single-endedforward channel	channel 1reverse channel	N/Adate	2019/09/19time	07:46:35forward acquisition time	60.00reverse acquisition time	0.00gamma	496.2192k internal	0.2342k external	0.2342temperature offset calibration	1.0013default loss term (dB/km)	0.3790temperature slope calibration	1.0000multiplexer offset coefficient	1.0000multiplexer slope coefficient	1.0000fibre end	0.00T internal ref (°C)	19.52T ext. ref 1 (°C)	0.56T ext. ref 2 (°C)	14.73length (m)	temperature (°C)	Stokes	anti-Stokes-747.200	-200.000	0.009	0.217
-746.185	-127.028	-0.087	0.013
-745.171	-192.765	-0.377	0.003
-744.156	-62.626	0.119	0.049
-743.142	-122.733	-0.063	-0.010
-742.127	-73.262	0.131	0.048
-741.112	800.000	-0.099	0.364
-740.098	425.293	0.243	0.524
-739.083	377.293	-0.102	0.208
-738.069	-84.120	-0.048	0.015
-737.054	800.000	-0.110	-0.306
-736.039	-200.000	0.052	-0.358
-735.025	157.846	0.321	0.446
-734.010	52.121	-0.196	-0.187
-732.996	-200.000	-0.086	-0.496
-731.981	-21.596	-0.146	-0.089
-730.966	-170.780	-0.180	-0.006
-729.952	-200.000	-0.016	0.191
-728.937	-200.000	-0.027	0.280
-727.923	-170.288	-0.080	0.003
-726.908	237.564	0.134	-0.223
-725.894	-8.335	0.193	0.130
-724.879	-88.162	-0.057	0.017
-723.864	-162.563	0.382	-0.019
-722.850	260.387	-0.131	-0.226
-721.835	-200.000	0.051	-0.319
-720.821	98.900	-0.161	0.187
-719.806	83.182	-0.257	-0.280
-718.791	800.000	0.061	-0.199
-717.777	-200.000	-0.011	-0.231
-716.762	-200.000	-0.071	0.314
-715.748	-83.646	0.173	0.055
-714.733	-200.000	-0.006	-0.246
-713.718	-99.891	-0.094	0.023
-712.704	800.000	-0.059	-0.179
-711.689	321.633	-0.106	-0.203
-710.675	-13.519	-0.003	-0.002
-709.660	284.229	0.027	-0.048
-708.645	800.000	-0.127	0.415
-707.631	800.000	-0.019	-0.080
-706.616	174.421	-0.244	0.352
-705.602	-22.601	0.109	0.066
-704.587	247.547	0.154	-0.260
-703.572	-168.591	-0.078	0.003
-702.558	60.647	0.092	0.091
-701.543	154.981	-0.112	-0.154
-700.529	265.460	-0.225	-0.393
-699.514	-107.858	-0.375	-0.082
-698.499	-140.376	0.254	-0.027
-697.485	11.963	0.126	0.097
-696.470	-200.000	-0.021	-0.431
-695.456	-189.054	-0.112	0.001
-694.441	-190.468	-0.284	-0.003
-693.426	250.461	-0.127	0.216
-692.412	164.787	0.184	-0.259
-691.397	-200.000	-0.050	0.236
-690.383	-200.000	0.010	-0.146
-689.368	-2.519	-0.129	0.090
-688.354	145.118	0.201	-0.269
-687.339	299.845	0.050	-0.092
-686.324	490.639	0.049	0.112
-685.310	-8.455	-0.067	0.045
-684.295	-78.655	0.085	0.029
-683.281	185.515	0.117	-0.174
-682.266	583.735	-0.072	0.176
-681.251	93.417	0.046	0.052
-680.237	626.062	0.085	-0.213
-679.222	-107.171	-0.373	0.082
-678.208	716.413	0.107	0.284
-677.193	-83.153	-0.285	0.092
-676.178	299.919	0.059	-0.108
-675.164	-200.000	-0.049	0.221
-674.149	-200.000	0.028	0.237
-673.135	75.336	0.099	-0.105
-672.120	800.000	-0.086	0.315
-671.105	451.811	-0.088	0.194
-670.091	-98.148	0.228	-0.059
-669.076	617.141	0.028	-0.069
-668.062	-63.418	-0.318	-0.131
-667.047	-103.800	0.189	-0.044
-666.032	-85.902	-0.219	-0.068
-665.018	-28.033	-0.314	-0.182
-664.003	-99.512	-0.221	0.056
-662.989	-145.550	0.101	0.009
-661.974	800.000	-0.085	0.301
-660.959	-87.519	-0.087	-0.026
-659.945	-68.949	-0.103	-0.040
-658.930	367.911	-0.170	0.342
-657.916	-200.000	-0.037	-0.255
-656.901	-200.000	-0.006	0.224
-655.886	-86.538	-0.399	0.122
-654.872	40.036	-0.087	-0.078
-653.857	-82.699	-0.362	-0.117
-652.843	-9.207	0.141	-0.094
-651.828	-138.673	0.236	-0.026
-650.814	-61.917	0.311	0.130
-649.799	48.693	-0.083	0.078
-648.784	210.203	0.049	0.076
-647.770	-90.692	-0.206	-0.059
-646.755	287.497	0.037	-0.067
-645.741	-116.719	0.290	0.053
-644.726	-145.259	-0.204	0.018
-643.711	-200.000	0.010	0.214
-642.697	-124.143	-0.082	0.013
-641.682	157.822	0.170	-0.235
-640.668	-200.000	-0.022	-0.168
-639.653	800.000	-0.078	-0.253
-638.638	244.194	-0.054	-0.091
-637.624	297.676	0.202	0.371
-636.609	349.513	0.093	-0.184
-635.595	450.519	-0.044	-0.096
-634.580	-66.122	0.185	-0.074
-633.565	-34.466	0.054	-0.029
-632.551	35.382	0.170	-0.149
-631.536	-200.000	-0.059	0.262
-630.522	-139.232	0.242	-0.026
-629.507	-200.000	0.016	-0.312
-628.492	-200.000	-0.002	-0.043
-627.478	512.735	0.095	-0.222
-626.463	-64.893	-0.303	-0.122
-625.449	800.000	0.114	0.378
-624.434	133.115	0.079	0.102
-623.419	-109.323	0.050	-0.011
-622.405	-96.255	0.264	0.070
-621.390	42.903	-0.116	-0.106
-620.376	-14.373	-0.083	-0.053
-619.361	-94.813	0.422	0.114
-618.346	-200.000	-0.001	-0.260
-617.332	800.000	0.066	0.249
-616.317	-55.163	0.102	0.046
-615.303	539.839	-0.140	-0.333
-614.288	-81.721	0.147	-0.048
-613.273	473.358	0.096	0.215
-612.259	-174.621	-0.314	-0.009
-611.244	-200.000	-0.022	0.160
-610.230	-200.000	0.020	-0.149
-609.215	-200.000	0.003	-0.164
-608.201	-125.316	-0.247	-0.038
-607.186	-30.685	-0.076	-0.043
-606.171	-0.696	-0.246	0.174
-605.157	-0.295	-0.163	-0.115
-604.142	-109.272	0.049	-0.010
-603.128	-58.420	0.082	-0.036
-602.113	49.089	0.166	0.156
-601.098	-166.371	-0.263	0.011
-600.084	800.000	-0.065	0.228
-599.069	800.000	-0.114	0.314
-598.055	91.707	0.298	0.334
-597.040	800.000	0.057	0.249
-596.025	-92.243	-0.280	0.079
-595.011	-76.966	-0.201	-0.070
-593.996	-139.467	0.145	-0.015
-592.982	278.556	0.043	-0.077
-591.967	40.022	-0.038	-0.034
-590.952	-98.160	-0.203	0.052
-589.938	461.555	0.179	0.397
-588.923	648.796	0.072	-0.183
-587.909	-69.223	-0.022	-0.008
-586.894	800.000	0.072	0.312
-585.879	320.032	-0.291	-0.550
-584.865	133.922	0.087	-0.112
-583.850	190.985	0.104	0.156
-582.836	-115.445	0.215	-0.040
-581.821	72.789	-0.136	0.142
-580.806	326.178	-0.112	0.213
-579.792	546.543	-0.073	-0.174
-578.777	-149.604	-0.045	-0.004
-577.763	51.843	-0.290	-0.275
-576.748	-200.000	0.020	0.127
-575.733	7.009	-0.128	0.095
-574.719	172.399	-0.336	0.481
-573.704	-107.822	0.053	-0.011
-572.690	-200.000	-0.038	0.187
-571.675	172.192	-0.150	0.215
-570.661	17.453	0.224	0.177
-569.646	94.034	0.060	0.068
-568.631	534.849	0.024	-0.058
-567.617	-104.107	-0.169	-0.039
-566.602	-200.000	0.063	0.333
-565.588	-200.000	0.007	0.038
-564.573	16.465	0.096	-0.076
-563.558	363.365	-0.018	0.036
-562.544	-18.231	-0.145	0.090
-561.529	-39.886	0.224	0.116
-560.515	800.000	0.006	0.025
-559.500	363.766	-0.075	-0.151
-558.485	72.906	-0.445	0.462
-557.471	75.013	-0.130	-0.136
-556.456	-96.273	0.146	0.038
-555.442	-72.959	-0.224	0.082
-554.427	-16.650	-0.239	-0.150
-553.412	800.000	-0.079	-0.280
-552.398	-80.192	0.114	0.038
-551.383	-115.615	-0.328	0.061
-550.369	-148.656	-0.078	0.006
-549.354	-11.915	-0.274	0.178
-548.339	50.255	0.081	-0.076
-547.325	-200.000	0.018	0.143
-546.310	-151.789	-0.252	-0.018
-545.296	-149.375	-0.385	0.030
-544.281	-200.000	-0.019	0.348
-543.266	-135.681	0.175	-0.021
-542.252	-200.000	-0.017	-0.419
-541.237	-40.084	-0.222	-0.115
-540.223	-200.000	0.011	-0.136
-539.208	-62.693	-0.210	0.087
-538.193	-74.449	-0.281	-0.101
-537.179	800.000	0.128	0.356
-536.164	-57.895	0.400	0.174
-535.150	-200.000	-0.082	0.426
-534.135	-95.033	0.087	-0.023
-533.121	12.626	-0.341	0.262
-532.106	-24.239	0.150	-0.089
-531.091	-58.346	0.158	-0.068
-530.077	-41.376	0.407	0.208
-529.062	119.205	-0.121	-0.148
-528.048	-118.082	-0.019	-0.003
-527.033	-70.575	0.123	0.046
-526.018	800.000	-0.049	-0.184
-525.004	-140.139	-0.416	0.043
-523.989	800.000	0.029	0.079
-522.975	-119.482	0.056	-0.010
-521.960	574.468	0.087	-0.212
-520.945	800.000	-0.146	-0.471
-519.931	475.946	0.114	-0.255
-518.916	173.864	0.174	0.250
-517.902	117.702	-0.089	-0.108
-516.887	-31.779	0.210	-0.117
-515.872	-71.650	-0.154	-0.057
-514.858	-49.522	-0.148	0.070
-513.843	30.420	0.230	0.195
-512.829	-114.760	-0.270	-0.051
-511.814	-15.793	-0.037	0.023
-510.799	-56.045	0.144	0.064
-509.785	-7.265	-0.312	-0.210
-508.770	724.921	0.090	0.239
-507.756	-139.662	-0.223	-0.024
-506.741	-96.419	0.312	0.082
-505.726	-200.000	0.026	0.154
-504.712	470.715	-0.102	0.229
-503.697	-40.278	-0.352	0.182
-502.683	-117.338	0.394	0.071
-501.668	59.890	0.134	-0.131
-500.653	800.000	-0.008	-0.025
-499.639	-96.194	0.275	0.072
-498.624	-200.000	0.056	-0.425
-497.610	144.057	-0.127	-0.167
-496.595	-93.403	0.304	0.084
-495.581	143.576	-0.058	0.077
-494.566	-63.188	-0.406	-0.166
-493.551	-200.000	-0.006	0.246
-492.537	800.000	0.085	0.302
-491.522	82.462	-0.128	0.138
-490.508	-29.952	-0.389	-0.220
-489.493	-45.193	0.148	-0.073
-488.478	776.891	-0.104	0.282
-487.464	-200.000	-0.062	-0.492
-486.449	-200.000	-0.012	-0.153
-485.435	32.769	0.215	0.185
-484.420	-155.911	-0.196	0.012
-483.405	232.034	-0.041	-0.066
-482.391	-200.000	-0.041	-0.207
-481.376	15.642	-0.350	-0.273
-480.362	-19.261	0.180	-0.111
-479.347	-118.373	0.399	0.070
-478.332	164.841	0.164	0.229
-477.318	433.084	-0.167	-0.359
-476.303	-138.062	0.293	-0.032
-475.289	36.069	0.097	-0.085
-474.274	800.000	-0.069	-0.223
-473.259	-34.880	0.243	0.131
-472.245	-149.884	0.098	-0.008
-471.230	107.851	-0.184	-0.217
-470.216	442.309	0.140	-0.305
-469.201	37.438	-0.027	-0.024
-468.186	-200.000	0.022	-0.220
-467.172	800.000	-0.174	-0.529
-466.157	-200.000	0.051	-0.293
-465.143	-125.539	-0.110	-0.017
-464.128	-76.900	0.328	0.114
-463.113	79.551	-0.168	-0.179
-462.099	-7.476	0.196	0.131
-461.084	-200.000	0.008	0.051
-460.070	-80.504	-0.276	0.091
-459.055	115.837	-0.112	-0.135
-458.040	-10.785	-0.098	-0.064
-457.026	6.249	-0.078	-0.057
-456.011	138.669	0.212	0.276
-454.997	-41.855	0.308	-0.157
-453.982	307.167	-0.078	-0.144
-452.968	-60.323	-0.204	-0.086
-451.953	-25.156	-0.176	-0.103
-450.938	-62.454	-0.297	-0.122
-449.924	4.348	0.152	-0.110
-448.909	51.917	-0.166	0.157
-447.895	50.762	-0.255	0.239
-446.880	-17.748	-0.240	-0.149
-445.865	4.771	-0.238	-0.173
-444.851	292.305	-0.174	0.314
-443.836	-94.720	0.097	0.026
-442.822	-28.895	-0.286	0.163
-441.807	-75.794	0.249	-0.087
-440.792	377.849	0.153	0.309
-439.778	-200.000	-0.001	-0.065
-438.763	161.872	-0.151	0.209
-437.749	-150.909	-0.161	-0.012
-436.734	800.000	0.008	-0.035
-435.719	-200.000	-0.020	0.135
-434.705	-200.000	-0.046	0.342
-433.690	-112.985	0.278	-0.054
-432.676	800.000	0.033	-0.104
-431.661	0.504	-0.284	0.201
-430.646	303.907	0.198	0.364
-429.632	491.226	0.186	-0.422
-428.617	669.906	0.087	-0.224
-427.603	106.324	0.196	-0.230
-426.588	-84.104	0.140	-0.044
-425.573	-200.000	0.050	0.463
-424.559	90.827	0.316	0.350
-423.544	-107.519	0.164	0.036
-422.530	-109.007	-0.249	0.052
-421.515	-186.179	0.124	0.002
-420.500	-200.000	-0.008	-0.213
-419.486	-188.831	0.172	-0.002
-418.471	-125.272	0.077	-0.012
-417.457	-96.647	-0.296	0.077
-416.442	800.000	0.020	-0.082
-415.428	39.145	-0.086	-0.076
-414.413	-200.000	0.011	0.064
-413.398	-200.000	0.029	0.195
-412.384	-200.000	-0.069	0.331
-411.369	-26.128	0.041	-0.024
-410.355	-200.000	-0.024	-0.206
-409.340	-75.354	-0.173	0.061
-408.325	-200.000	-0.032	-0.172
-407.311	414.023	0.069	0.145
-406.296	37.711	0.371	-0.325
-405.282	-200.000	-0.055	0.279
-404.267	-21.329	0.170	-0.103
-403.252	-61.665	-0.294	0.122
-402.238	7.900	-0.072	-0.054
-401.223	-4.744	-0.253	-0.173
-400.209	21.214	-0.171	0.138
-399.194	-136.686	0.195	-0.022
-398.179	-200.000	0.014	0.185
-397.165	-86.169	0.290	0.088
-396.150	-200.000	0.056	0.323
-395.136	82.889	0.154	-0.165
-394.121	-28.137	0.087	0.050
-393.106	383.316	0.082	0.167
-392.092	567.663	-0.060	0.144
-391.077	99.653	0.150	0.171
-390.063	800.000	0.044	-0.126
-389.048	-159.815	0.120	-0.007
-388.033	73.637	-0.198	-0.205
-387.019	76.828	-0.107	-0.112
-386.004	125.641	0.195	0.243
-384.990	331.994	0.115	-0.220
-383.975	-50.228	-0.160	0.075
-382.960	-200.000	0.007	-0.033
-381.946	-110.832	-0.238	0.048
-380.931	-200.000	0.006	0.370
-379.917	381.010	-0.153	-0.309
-378.902	73.301	-0.062	-0.064
-377.888	-171.326	0.064	0.002
-376.873	-67.950	-0.276	-0.106
-375.858	-200.000	-0.015	0.201
-374.844	-75.218	0.430	-0.152
-373.829	800.000	0.071	-0.281
-372.815	74.024	0.046	-0.047
-371.800	-200.000	-0.005	0.344
-370.785	192.617	-0.091	-0.135
-369.771	800.000	-0.010	0.040
-368.756	800.000	-0.037	-0.132
-367.742	117.083	0.196	-0.238
-366.727	316.361	0.160	0.298
-365.712	-36.017	0.309	-0.165
-364.698	-16.861	-0.083	-0.052
-363.683	201.993	-0.159	-0.242
-362.669	-159.888	-0.203	0.011
-361.654	193.070	-0.231	0.345
-360.639	-200.000	0.002	0.240
-359.625	759.131	-0.047	-0.126
-358.610	-24.356	-0.202	0.119
-357.596	-200.000	-0.009	-0.174
-356.581	-65.632	-0.353	-0.140
-355.566	230.475	-0.083	-0.134
-354.552	800.000	-0.021	-0.084
-353.537	-7.730	0.138	-0.092
-352.523	-136.464	0.131	-0.015
-351.508	318.601	0.095	-0.177
-350.493	-148.073	0.403	0.033
-349.479	800.000	-0.091	-0.249
-348.464	22.074	-0.061	0.049
-347.450	-200.000	0.001	-0.075
-346.435	359.218	0.110	-0.216
-345.420	-121.708	0.411	-0.067
-344.406	-76.515	-0.246	0.085
-343.391	177.102	0.165	0.237
-342.377	-200.000	-0.048	0.311
-341.362	559.531	-0.104	-0.247
-340.348	185.861	0.227	-0.332
-339.333	-200.000	-0.007	0.080
-338.318	265.401	-0.107	0.184
-337.304	-200.000	0.009	0.145
-336.289	33.551	0.215	-0.185
-335.275	-190.635	-0.151	-0.002
-334.260	-117.229	-0.179	-0.032
-333.245	-39.808	0.102	-0.053
-332.231	25.608	-0.196	-0.161
-331.216	800.000	0.033	0.101
-330.202	391.640	-0.119	0.243
-329.187	-46.108	-0.233	0.113
-328.172	152.269	0.041	0.054
-327.158	64.551	0.115	-0.114
-326.143	234.708	0.096	0.156
-325.129	-104.804	-0.252	0.057
-324.114	58.175	-0.031	-0.030
-323.099	800.000	0.041	0.123
-322.085	-200.000	-0.020	0.248
-321.070	197.636	0.049	0.074
-320.056	-200.000	-0.002	0.220
-319.041	248.926	-0.113	0.189
-318.026	60.974	0.264	0.258
-317.012	112.474	-0.209	0.249
-315.997	-200.000	0.028	-0.264
-314.983	-200.000	0.051	0.253
-313.968	-200.000	0.020	0.115
-312.953	146.727	0.290	-0.384
-311.939	-10.832	0.116	-0.076
-310.924	-112.926	0.137	-0.027
-309.910	246.876	-0.174	-0.290
-308.895	89.203	0.215	-0.236
-307.880	-114.228	-0.178	-0.034
-306.866	-200.000	0.000	0.051
-305.851	-110.087	-0.106	-0.022
-304.837	42.472	0.149	-0.134
-303.822	288.527	0.113	-0.201
-302.807	-179.733	0.145	-0.003
-301.793	44.811	-0.161	0.146
-300.778	-16.273	0.014	0.009
-299.764	800.000	0.117	-0.321
-298.749	800.000	-0.044	0.161
-297.735	-200.000	0.065	0.317
-296.720	478.008	0.022	-0.050
-295.705	800.000	0.075	0.247
-294.691	27.191	0.315	0.261
-293.676	800.000	0.087	-0.374
-292.662	336.065	0.058	0.111
-291.647	475.310	0.066	0.147
-290.632	556.990	0.043	0.101
-289.618	106.683	0.291	-0.339
-288.603	21.865	0.202	-0.162
-287.589	21.208	-0.221	-0.177
-286.574	-109.540	0.216	-0.045
-285.559	377.181	0.048	0.097
-284.545	111.845	0.152	-0.180
-283.530	-132.907	-0.149	-0.019
-282.516	135.640	-0.039	-0.050
-281.501	-159.128	0.040	-0.002
-280.486	-133.159	-0.254	0.032
-279.472	-85.554	0.125	-0.038
-278.457	231.882	0.143	0.230
-277.443	141.565	0.136	0.177
-276.428	202.058	0.159	0.241
-275.413	800.000	0.044	0.148
-274.399	-112.280	-0.057	-0.011
-273.384	-11.069	0.155	-0.101
-272.370	5.563	0.298	0.216
-271.355	-200.000	-0.002	-0.103
-270.340	-17.166	0.107	-0.066
-269.326	36.768	-0.104	-0.091
-268.311	2.792	-0.019	-0.013
-267.297	-125.576	-0.295	0.044
-266.282	46.621	-0.088	0.081
-265.267	-92.115	-0.216	0.060
-264.253	168.971	0.319	0.448
-263.238	29.185	0.169	0.141
-262.224	-200.000	0.004	0.273
-261.209	-67.077	-0.043	0.017
-260.195	-80.744	0.238	0.078
-259.180	-200.000	0.013	0.166
-258.165	-44.251	-0.326	-0.161
-257.151	129.352	-0.166	-0.208
-256.136	21.029	-0.193	0.154
-255.122	-37.992	0.075	0.039
-254.107	800.000	-0.138	-0.386
-253.092	-61.638	-0.025	0.010
-252.078	-200.000	0.000	-0.361
-251.063	800.000	-0.112	0.319
-250.049	160.517	0.193	0.265
-249.034	-109.885	-0.202	0.042
-248.019	-86.533	0.116	-0.035
-247.005	-105.615	0.295	-0.066
-245.990	82.650	0.076	0.081
-244.976	-0.627	0.007	0.005
-243.961	-23.867	-0.183	-0.108
-242.946	56.208	-0.194	0.185
-241.932	177.449	-0.214	-0.306
-240.917	157.230	-0.027	0.037
-239.903	149.425	-0.335	-0.445
-238.888	-48.886	0.213	0.100
-237.873	36.222	0.350	0.303
-236.859	-14.400	0.197	0.124
-235.844	800.000	-0.052	0.181
-234.830	297.591	0.084	0.151
-233.815	-20.711	-0.235	0.142
-232.800	-200.000	-0.009	0.094
-231.786	-63.228	-0.273	0.110
-230.771	-72.626	0.131	0.047
-229.757	-143.489	-0.023	0.002
-228.742	235.923	0.101	0.164
-227.727	-27.386	-0.117	-0.067
-226.713	96.808	-0.065	-0.073
-225.698	-78.405	0.100	-0.034
-224.684	-40.722	-0.130	0.066
-223.669	-170.985	0.323	-0.011
-222.655	-174.550	-0.297	0.008
-221.640	34.892	0.079	-0.068
-220.625	-200.000	0.001	-0.221
-219.611	189.266	-0.126	-0.185
-218.596	800.000	-0.126	-0.369
-217.582	33.166	-0.128	0.109
-216.567	-123.882	-0.147	-0.023
-215.552	-200.000	-0.009	-0.049
-214.538	-200.000	0.071	-0.308
-213.523	362.684	0.229	0.451
-212.509	-200.000	0.001	0.071
-211.494	-67.266	-0.140	0.054
-210.479	50.635	0.045	0.042
-209.465	-200.000	0.028	-0.144
-208.450	-124.479	0.259	-0.039
-207.436	188.032	-0.056	0.082
-206.421	55.704	0.153	-0.145
-205.406	-200.000	0.079	-0.400
-204.392	-36.677	-0.016	-0.008
-203.377	139.141	-0.076	-0.098
-202.363	-200.000	0.040	-0.192
-201.348	-73.614	0.188	-0.067
-200.333	69.574	0.106	0.107
-199.319	-102.410	0.145	0.034
-198.304	57.956	0.129	0.124
-197.290	800.000	0.022	0.071
-196.275	-46.792	0.217	-0.104
-195.260	-90.483	-0.371	-0.105
-194.246	800.000	-0.080	-0.235
-193.231	384.523	0.112	-0.227
-192.217	-40.544	0.169	-0.086
-191.202	-79.632	-0.074	-0.024
-190.187	-82.432	-0.234	-0.074
-189.173	31.541	-0.220	-0.186
-188.158	117.821	0.167	0.202
-187.144	352.331	0.121	-0.236
-186.129	39.127	0.257	0.226
-185.114	-200.000	-0.030	-0.129
-184.100	91.945	-0.164	-0.181
-183.085	-75.202	0.025	-0.009
-182.071	-196.423	-0.358	0.002
-181.056	251.272	0.068	-0.114
-180.042	-48.565	-0.561	-0.264
-179.027	349.601	-0.043	-0.083
-178.012	-120.274	0.386	0.064
-176.998	800.000	-0.061	-0.248
-175.983	-58.500	0.272	0.116
-174.969	800.000	-0.092	-0.272
-173.954	52.603	0.106	0.099
-172.939	-2.765	-0.300	-0.205
-171.925	800.000	0.023	-0.070
-170.910	-58.276	0.352	0.150
-169.896	198.408	0.179	-0.268
-168.881	-168.581	0.130	-0.005
-167.866	-116.211	-0.456	-0.083
-166.852	-200.000	-0.092	0.614
-165.837	-19.777	0.232	-0.140
-164.823	138.315	-0.096	-0.124
-163.808	480.867	-0.044	-0.098
-162.793	126.554	0.139	-0.172
-161.779	240.418	-0.117	-0.192
-160.764	800.000	-0.066	-0.202
-159.750	73.713	-0.040	0.041
-158.735	139.799	0.112	0.145
-157.720	54.377	0.379	0.357
-156.706	517.170	-0.090	-0.207
-155.691	-59.837	-0.114	-0.048
-154.677	-66.685	-0.231	0.090
-153.662	-139.557	0.587	0.061
-152.647	-200.000	0.006	0.212
-151.633	166.717	0.091	-0.126
-150.618	148.193	-0.182	0.240
-149.604	-35.352	0.077	0.041
-148.589	-200.000	-0.011	-0.080
-147.574	555.462	0.080	-0.188
-146.560	-78.927	-0.295	-0.098
-145.545	800.000	-0.013	-0.035
-144.531	-4.453	-0.104	0.070
-143.516	-130.573	-0.215	0.028
-142.502	800.000	0.038	0.106
-141.487	800.000	-0.080	0.221
-140.472	134.151	0.081	-0.103
-139.458	-200.000	0.081	0.379
-138.443	-86.211	0.268	0.081
-137.429	-93.114	0.444	-0.121
-136.414	-119.624	0.213	0.036
-135.399	485.971	-0.101	-0.225
-134.385	8.680	0.263	-0.194
-133.370	-20.814	-0.084	-0.050
-132.356	187.597	0.123	-0.180
-131.341	12.870	-0.231	-0.175
-130.326	246.723	0.089	0.146
-129.312	800.000	0.033	-0.121
-128.297	-100.085	0.133	-0.032
-127.283	108.151	-0.058	0.068
-126.268	-87.158	-0.067	-0.020
-125.253	-200.000	-0.003	-0.119
-124.239	-200.000	0.017	0.207
-123.224	616.984	-0.112	-0.275
-122.210	245.060	-0.084	0.139
