DTS Sentinel unit serial number:	SN413079Multiplexer serial number:	ORYXHardware model number:	OX4-SRSoftware version number:	ORYX F/W v4.00 Oryx Data Collector v3.7.2.0data status	okinstallation	princeton_trtdifferential loss correction	single-endedforward channel	channel 1reverse channel	N/Adate	2019/09/13time	14:30:35forward acquisition time	60.00reverse acquisition time	0.00gamma	496.2192k internal	0.2302k external	0.2302temperature offset calibration	1.0160default loss term (dB/km)	0.3790temperature slope calibration	1.0000multiplexer offset coefficient	1.0000multiplexer slope coefficient	1.0000fibre end	0.00T internal ref (°C)	35.25T ext. ref 1 (°C)	4.62T ext. ref 2 (°C)	31.05length (m)	temperature (°C)	Stokes	anti-Stokes-747.200	68.056	-0.100	0.104
-746.185	-200.000	0.007	0.200
-745.171	32.758	-0.146	0.129
-744.156	91.037	-0.080	-0.091
-743.142	-60.539	-0.254	0.110
-742.127	188.467	-0.131	-0.200
-741.112	-200.000	0.009	0.110
-740.098	-200.000	0.016	0.135
-739.083	136.597	0.086	-0.115
-738.069	149.189	-0.169	0.233
-737.054	184.207	0.176	-0.265
-736.039	263.622	-0.040	0.071
-735.025	205.747	-0.089	0.140
-734.010	-28.584	-0.125	-0.073
-732.996	-124.614	0.084	-0.013
-731.981	800.000	-0.028	0.088
-730.966	-116.769	0.141	-0.026
-729.952	-171.366	-0.355	-0.012
-728.937	-22.687	-0.457	-0.281
-727.923	800.000	-0.078	0.235
-726.908	800.000	0.013	-0.039
-725.894	-92.521	-0.257	-0.073
-724.879	-105.506	-0.339	-0.078
-723.864	139.645	-0.118	0.159
-722.850	362.836	0.128	-0.262
-721.835	-200.000	0.025	-0.197
-720.821	247.604	-0.201	-0.346
-719.806	-13.761	0.126	0.083
-718.791	32.329	-0.292	-0.256
-717.777	-84.669	-0.198	0.064
-716.762	-89.361	0.279	0.084
-715.748	-53.844	-0.064	-0.030
-714.733	-28.999	0.012	-0.007
-713.718	81.009	0.279	-0.307
-712.704	-154.272	-0.552	-0.038
-711.689	-194.051	-0.131	-0.001
-710.675	-200.000	-0.034	-0.198
-709.660	-85.519	0.261	0.083
-708.645	330.883	-0.061	0.120
-707.631	-145.622	0.041	-0.004
-706.616	137.112	0.035	-0.047
-705.602	-12.062	-0.273	0.182
-704.587	-136.384	-0.228	0.027
-703.572	86.022	0.157	0.176
-702.558	-200.000	-0.026	-0.132
-701.543	-200.000	-0.000	-0.034
-700.529	280.672	-0.015	0.027
-699.514	-95.667	0.290	0.079
-698.499	800.000	-0.113	-0.433
-697.485	-157.582	-0.138	0.008
-696.470	-134.099	-0.140	-0.018
-695.456	700.265	-0.061	0.164
-694.441	-96.613	0.084	0.022
-693.426	-36.756	-0.312	0.170
-692.412	68.136	0.142	-0.148
-691.397	-148.194	-0.254	-0.021
-690.383	-97.719	-0.393	0.103
-689.368	-110.517	-0.380	-0.080
-688.354	-200.000	-0.020	0.119
-687.339	-200.000	0.043	0.235
-686.324	608.120	-0.074	0.187
-685.310	-141.463	-0.138	-0.014
-684.295	172.437	-0.222	-0.325
-683.281	-46.203	-0.398	-0.199
-682.266	-83.523	-0.195	-0.063
-681.251	-188.360	0.284	-0.004
-680.237	224.191	0.197	-0.324
-679.222	-200.000	0.016	-0.211
-678.208	139.088	0.203	0.271
-677.193	-38.192	-0.255	-0.137
-676.178	370.261	-0.131	-0.269
-675.164	-87.022	-0.113	0.035
-674.149	-200.000	-0.053	-0.318
-673.135	210.334	-0.022	-0.035
-672.120	-200.000	-0.034	-0.349
-671.105	-200.000	0.070	-0.403
-670.091	154.791	-0.239	-0.333
-669.076	-29.724	0.395	-0.229
-668.062	246.287	-0.086	0.147
-667.047	800.000	0.106	-0.339
-666.032	292.951	0.070	-0.130
-665.018	465.490	-0.036	0.083
-664.003	-76.036	-0.051	0.018
-662.989	-200.000	-0.021	-0.230
-661.974	-200.000	-0.029	0.189
-660.959	800.000	0.098	0.330
-659.945	800.000	-0.064	0.188
-658.930	-90.921	0.135	-0.039
-657.916	400.119	-0.131	0.278
-656.901	106.223	0.112	0.135
-655.886	-200.000	-0.027	0.173
-654.872	-7.466	-0.342	0.235
-653.857	-105.062	0.337	0.078
-652.843	800.000	0.112	0.352
-651.828	-200.000	-0.057	0.285
-650.814	366.105	0.152	0.312
-649.799	-34.934	-0.206	0.114
-648.784	181.016	-0.159	0.237
-647.770	684.706	-0.080	0.213
-646.755	-121.450	-0.078	-0.013
-645.741	290.530	0.116	-0.214
-644.726	-135.827	-0.044	0.005
-643.711	-9.510	-0.221	0.150
-642.697	800.000	-0.061	-0.229
-641.682	130.351	-0.212	-0.276
-640.668	-200.000	0.021	0.293
-639.653	800.000	-0.056	0.179
-638.638	-200.000	-0.019	0.157
-637.624	-200.000	-0.080	0.706
-636.609	230.086	-0.083	0.138
-635.595	800.000	-0.063	-0.244
-634.580	-100.190	-0.177	-0.045
-633.565	-125.705	-0.190	0.029
-632.551	-200.000	0.033	-0.161
-631.536	351.735	0.086	-0.173
-630.522	-200.000	-0.018	0.183
-629.507	-34.946	-0.035	-0.019
-628.492	-137.965	-0.149	0.017
-627.478	-60.570	0.160	-0.069
-626.463	-91.303	-0.169	0.049
-625.449	165.364	-0.075	0.108
-624.434	800.000	0.059	0.238
-623.419	-24.231	0.065	0.040
-622.405	-162.822	0.151	-0.007
-621.390	-2.275	0.276	-0.197
-620.376	465.804	0.085	-0.193
-619.361	-43.074	-0.022	-0.011
-618.346	90.396	0.156	-0.177
-617.332	216.282	0.250	-0.403
-616.317	385.277	0.183	-0.383
-615.303	58.344	-0.025	-0.025
-614.288	-116.370	-0.256	0.048
-613.273	-23.239	-0.104	-0.063
-612.259	129.107	0.087	-0.113
-611.244	217.607	-0.107	0.173
-610.230	-34.728	0.133	0.074
-609.215	269.362	-0.227	-0.404
-608.201	139.907	0.091	0.122
-607.186	-71.656	-0.313	-0.118
-606.171	-200.000	-0.008	0.038
-605.157	-113.172	-0.240	0.048
-604.142	-128.603	-0.215	-0.031
-603.128	-53.477	-0.180	-0.084
-602.113	-123.972	0.216	-0.035
-601.098	14.204	0.126	-0.099
-600.084	-78.406	-0.059	-0.020
-599.069	122.587	0.151	0.192
-598.055	33.309	0.095	-0.083
-597.040	800.000	0.104	-0.329
-596.025	800.000	-0.075	-0.293
-595.011	-200.000	-0.001	-0.068
-593.996	800.000	0.070	0.253
-592.982	-61.704	0.315	0.134
-591.967	800.000	0.061	-0.240
-590.952	-121.794	0.291	-0.049
-589.938	-62.584	0.248	0.104
-588.923	-128.977	0.198	0.028
-587.909	170.878	0.188	-0.273
-586.894	-187.523	-0.351	0.005
-585.879	-151.479	-0.475	-0.036
-584.865	228.539	-0.209	-0.345
-583.850	-200.000	0.039	0.172
-582.836	-200.000	0.008	0.075
-581.821	-48.960	-0.389	0.189
-580.806	800.000	0.123	-0.345
-579.792	247.553	0.048	0.082
-578.777	-126.712	0.154	-0.023
-577.763	-82.959	-0.061	-0.020
-576.748	530.534	-0.145	-0.346
-575.733	-173.892	-0.221	-0.007
-574.719	227.739	0.157	0.259
-573.704	25.284	-0.029	0.024
-572.690	-141.232	-0.231	-0.024
-571.675	82.508	0.130	0.143
-570.661	-119.147	-0.399	0.071
-569.646	-91.811	-0.269	-0.077
-568.631	170.982	0.223	0.323
-567.617	-132.205	-0.072	0.009
-566.602	69.302	0.138	-0.144
-565.588	172.096	-0.219	0.318
-564.573	800.000	-0.031	0.106
-563.558	160.893	0.050	-0.070
-562.544	88.414	-0.169	-0.190
-561.529	126.609	-0.061	-0.078
-560.515	181.430	-0.037	-0.055
-559.500	-109.276	-0.109	-0.023
-558.485	-104.746	-0.213	-0.049
-557.471	800.000	-0.061	-0.211
-556.456	498.895	-0.120	0.280
-555.442	33.826	0.418	0.368
-554.427	-200.000	0.046	-0.212
-553.412	-200.000	0.025	-0.404
-552.398	182.814	-0.043	0.065
-551.383	-200.000	-0.017	0.289
-550.369	209.605	0.148	0.235
-549.354	800.000	-0.042	-0.143
-548.339	-47.606	0.237	0.116
-547.325	212.403	0.182	-0.290
-546.310	800.000	-0.032	0.115
-545.296	270.535	-0.027	0.047
-544.281	94.479	0.237	-0.272
-543.266	130.105	-0.124	-0.161
-542.252	-200.000	-0.035	-0.305
-541.237	-74.650	-0.102	-0.037
-540.223	-108.513	-0.035	-0.008
-539.208	511.312	-0.155	0.365
-538.193	76.982	0.113	0.121
-537.179	207.512	-0.066	0.105
-536.164	-109.944	0.318	0.067
-535.150	-115.521	0.170	0.032
-534.135	800.000	-0.075	0.314
-533.121	-25.267	0.156	-0.093
-532.106	-200.000	-0.014	0.090
-531.091	278.000	0.031	-0.056
-530.077	36.214	-0.123	-0.110
-529.062	335.803	0.089	-0.175
-528.048	516.774	-0.115	-0.272
-527.033	776.542	0.153	0.423
-526.018	76.207	-0.214	-0.228
-525.004	-121.454	-0.214	-0.036
-523.989	-21.967	0.015	-0.009
-522.975	-1.064	-0.202	-0.144
-521.960	-129.541	0.244	0.034
-520.945	-46.328	-0.143	-0.071
-519.931	236.238	0.107	-0.178
-518.916	800.000	0.084	-0.242
-517.902	-129.773	-0.181	-0.025
-516.887	-200.000	-0.030	-0.190
-515.872	-56.322	0.243	-0.109
-514.858	-181.362	-0.371	0.007
-513.843	59.674	0.229	-0.228
-512.829	-89.807	-0.150	0.044
-511.814	-174.851	0.236	-0.007
-510.799	107.823	0.068	0.081
-509.785	-75.736	-0.316	0.113
-508.770	-61.392	0.208	-0.088
-507.756	-200.000	-0.033	0.231
-506.741	135.362	-0.273	0.358
-505.726	90.148	-0.032	-0.037
-504.712	127.374	0.349	-0.447
-503.697	66.700	-0.158	0.163
-502.683	-113.140	0.182	-0.036
-501.668	-112.043	0.161	0.033
-500.653	-197.295	-0.243	-0.002
-499.639	800.000	-0.056	-0.227
-498.624	-22.511	-0.198	0.121
-497.610	-115.311	-0.370	-0.071
-496.595	35.737	0.170	0.151
-495.581	-96.078	-0.419	0.112
-494.566	-76.922	-0.343	-0.121
-493.551	-163.139	0.223	0.011
-492.537	-136.863	-0.449	0.052
-491.522	203.594	0.097	0.152
-490.508	-72.672	-0.298	-0.111
-489.493	35.119	-0.070	-0.062
-488.478	-106.950	0.219	0.049
-487.464	-200.000	0.018	-0.176
-486.449	-200.000	-0.028	0.125
-485.435	147.652	-0.142	-0.193
-484.420	-59.685	-0.152	-0.066
-483.405	-4.161	0.157	0.109
-482.391	-194.805	-0.181	0.001
-481.376	-194.228	0.364	-0.003
-480.362	-200.000	0.013	0.096
-479.347	47.847	-0.046	-0.043
-478.332	250.359	-0.005	0.008
-477.318	520.952	-0.101	-0.239
-476.303	162.664	-0.184	-0.260
-475.289	-200.000	-0.017	0.089
-474.274	40.507	-0.220	0.200
-473.259	-137.436	0.123	-0.014
-472.245	800.000	-0.082	-0.356
-471.230	503.903	-0.045	0.105
-470.216	644.234	0.064	-0.164
-469.201	-77.275	0.121	-0.042
-468.186	-96.522	0.173	0.046
-467.172	800.000	-0.199	0.580
-466.157	-53.227	0.217	-0.100
-465.143	427.542	0.089	0.194
-464.128	-48.541	0.416	0.202
-463.113	18.630	-0.160	0.129
-462.099	106.626	0.213	-0.255
-461.084	-65.265	0.203	0.082
-460.070	-200.000	0.057	0.414
-459.055	800.000	0.101	-0.361
-458.040	104.554	-0.230	-0.274
-457.026	6.816	-0.086	0.065
-456.011	800.000	-0.075	-0.214
-454.997	-152.934	0.286	-0.020
-453.982	-190.793	0.368	-0.004
-452.968	370.229	0.184	0.376
-451.953	-200.000	-0.062	0.284
-450.938	-200.000	0.030	0.330
-449.924	-62.762	-0.343	-0.143
-448.909	-138.851	-0.127	0.014
-447.895	-200.000	0.018	0.285
-446.880	-32.615	-0.094	0.053
-445.865	150.226	0.088	-0.120
-444.851	43.410	0.190	0.175
-443.836	-200.000	0.030	0.198
-442.822	265.418	-0.131	-0.230
-441.807	75.412	-0.118	0.126
-440.792	-96.848	-0.249	0.066
-439.778	203.015	0.162	-0.252
-438.763	-149.347	-0.111	-0.009
-437.749	32.925	0.154	0.134
-436.734	-200.000	-0.032	-0.146
-435.719	-200.000	-0.023	0.236
-434.705	-137.529	-0.222	-0.025
-433.690	800.000	-0.032	-0.102
-432.676	339.858	0.067	-0.132
-431.661	24.004	0.050	0.041
-430.646	94.581	-0.090	0.102
-429.632	82.329	-0.105	0.114
-428.617	-48.019	-0.354	-0.172
-427.603	484.211	-0.077	0.176
-426.588	-28.670	0.227	-0.131
-425.573	-90.803	-0.217	-0.063
-424.559	76.194	0.178	-0.190
-423.544	-89.857	0.162	-0.048
-422.530	-67.680	-0.038	0.015
-421.515	513.155	0.079	-0.184
-420.500	155.190	-0.060	-0.082
-419.486	164.744	0.074	0.106
-418.471	468.288	0.026	-0.059
-417.457	-153.175	0.300	-0.021
-416.442	-153.351	-0.164	-0.011
-415.428	-200.000	-0.037	0.244
-414.413	259.525	0.242	0.420
-413.398	800.000	-0.024	0.106
-412.384	-71.897	0.264	0.099
-411.369	21.956	0.228	-0.187
-410.355	5.917	-0.255	-0.190
-409.340	-30.402	-0.219	0.125
-408.325	25.478	0.041	-0.034
-407.311	-51.272	-0.065	0.031
-406.296	-72.243	-0.228	0.085
-405.282	-16.603	0.227	0.144
-404.267	-200.000	0.024	0.300
-403.252	-200.000	0.031	0.305
-402.238	800.000	0.027	-0.096
-401.223	800.000	-0.118	-0.383
-400.209	-200.000	0.046	0.358
-399.194	-200.000	0.054	0.419
-398.179	142.015	-0.251	-0.334
-397.165	800.000	-0.012	-0.048
-396.150	64.536	0.138	-0.139
-395.136	45.530	-0.073	0.067
-394.121	145.037	0.072	0.097
-393.106	105.962	0.061	-0.073
-392.092	250.661	-0.114	-0.194
-391.077	213.806	0.096	-0.152
-390.063	270.538	0.034	-0.060
-389.048	-113.822	0.313	0.061
-388.033	-62.852	-0.141	-0.059
-387.019	283.459	-0.062	-0.111
-386.004	-80.468	-0.280	-0.094
-384.990	590.702	0.060	0.149
-383.975	-34.070	-0.196	-0.108
-382.960	-79.336	0.368	-0.125
-381.946	800.000	-0.094	-0.317
-380.931	80.039	0.152	-0.165
-379.917	162.497	0.146	-0.205
-378.902	-33.156	-0.126	0.070
-377.888	163.600	0.147	-0.208
-376.873	-99.044	-0.377	-0.096
-375.858	396.144	-0.096	0.202
-374.844	467.633	0.064	0.143
-373.829	44.239	0.047	0.044
-372.815	-130.150	0.094	0.013
-371.800	69.759	-0.152	0.157
-370.785	-35.308	0.347	-0.189
-369.771	-37.034	0.102	-0.055
-368.756	-29.373	0.293	0.168
-367.742	132.741	-0.072	-0.093
-366.727	-45.104	-0.269	0.134
-365.712	-38.103	-0.320	0.170
-364.698	-200.000	-0.010	-0.072
-363.683	187.272	0.051	0.077
-362.669	-97.134	0.129	0.034
-361.654	-132.803	0.353	0.045
-360.639	-135.165	-0.167	-0.020
-359.625	-50.706	-0.087	0.041
-358.610	-161.161	0.359	-0.019
-357.596	667.398	-0.120	0.310
-356.581	122.146	-0.178	-0.223
-355.566	-200.000	0.006	0.067
-354.552	-159.285	0.210	0.012
-353.537	800.000	0.053	-0.158
-352.523	-96.798	-0.301	-0.079
-351.508	-108.150	-0.054	0.012
-350.493	-59.655	-0.155	0.067
-349.479	-84.467	-0.215	0.068
-348.464	121.429	0.126	0.158
-347.450	-116.019	-0.074	0.014
-346.435	-114.527	-0.162	0.031
-345.420	-12.785	0.099	0.065
-344.406	-200.000	-0.022	-0.175
-343.391	120.832	0.029	0.036
-342.377	-72.405	-0.219	-0.081
-341.362	-199.618	-0.198	0.001
-340.348	-200.000	-0.007	-0.215
-339.333	-67.294	0.018	0.007
-338.318	-160.055	-0.189	0.010
-337.304	800.000	0.049	-0.185
-336.289	41.740	-0.189	-0.172
-335.275	-68.942	-0.058	0.022
-334.260	-200.000	0.057	-0.465
-333.245	21.780	-0.123	0.100
-332.231	73.501	-0.002	-0.002
-331.216	-200.000	0.208	0.001
-330.202	800.000	0.121	0.421
-329.187	-126.118	0.643	0.097
-328.172	-25.502	0.378	-0.224
-327.158	-200.000	0.014	-0.078
-326.143	-62.226	-0.030	-0.012
-325.129	-56.741	-0.201	-0.089
-324.114	36.861	0.061	0.054
-323.099	-200.000	0.048	-0.221
-322.085	413.561	0.073	0.156
-321.070	-35.130	0.056	0.031
-320.056	76.428	0.375	0.398
-319.041	38.549	0.061	-0.055
-318.026	-28.512	-0.218	0.126
-317.012	-200.000	0.031	-0.294
-315.997	-59.888	-0.057	0.024
-314.983	14.508	0.185	-0.145
-313.968	-168.800	0.364	0.014
-312.953	182.318	-0.005	0.007
-311.939	-182.993	-0.095	-0.002
-310.924	-80.503	0.250	-0.084
-309.910	210.908	0.031	-0.048
-308.895	245.513	-0.125	-0.211
-307.880	23.094	-0.167	0.137
-306.866	-200.000	0.074	0.334
-305.851	536.002	-0.146	-0.348
-304.837	800.000	-0.067	0.216
-303.822	44.726	-0.131	-0.120
-302.807	-119.298	0.105	-0.018
-301.793	199.226	0.128	-0.197
-300.778	139.284	-0.040	-0.053
-299.764	-200.000	-0.116	0.000
-298.749	-80.341	-0.250	-0.084
-297.735	-78.674	0.165	-0.057
-296.720	243.986	-0.058	0.098
-295.705	-90.101	0.159	-0.046
-294.691	26.141	0.051	-0.043
-293.676	-103.962	0.386	0.090
-292.662	740.989	0.031	0.085
-291.647	-63.026	0.245	0.101
-290.632	41.625	0.259	-0.235
-289.618	-200.000	-0.008	-0.110
-288.603	-44.245	0.253	-0.127
-287.589	800.000	0.062	-0.221
-286.574	255.097	0.105	0.181
-285.559	-195.114	-0.305	0.002
-284.545	800.000	0.143	0.502
-283.530	-67.306	0.104	-0.041
-282.516	-60.956	-0.236	0.100
-281.501	-32.729	0.163	-0.091
-280.486	40.570	0.147	-0.133
-279.472	-200.000	0.084	0.383
-278.457	-32.203	0.162	0.091
-277.443	-11.591	-0.098	-0.065
-276.428	182.666	-0.077	-0.113
-275.413	-122.977	0.125	-0.020
-274.399	133.031	-0.081	0.104
-273.384	-200.000	0.005	0.114
-272.370	49.757	-0.109	-0.103
-271.355	44.387	0.162	0.148
-270.340	530.408	0.153	-0.362
-269.326	256.307	0.067	-0.115
-268.311	392.879	0.121	-0.251
-267.297	73.977	0.161	0.169
-266.282	359.050	-0.130	-0.259
-265.267	237.948	0.123	0.205
-264.253	137.968	-0.162	0.212
-263.238	-71.812	0.081	-0.030
-262.224	110.161	-0.184	-0.221
-261.209	-123.271	-0.196	-0.031
-260.195	-200.000	0.015	0.120
-259.180	-157.917	0.298	0.018
-258.165	-200.000	-0.044	0.302
-257.151	-66.103	0.056	-0.022
-256.136	800.000	-0.043	-0.181
-255.122	18.049	-0.102	-0.081
-254.107	-87.946	0.302	0.091
-253.092	-200.000	-0.015	-0.082
-252.078	187.074	-0.044	-0.066
-251.063	10.729	0.106	-0.081
-250.049	-10.379	0.055	-0.036
-249.034	-29.021	0.213	0.122
-248.019	-200.000	0.006	0.279
-247.005	283.660	0.072	0.129
-245.990	-14.788	0.308	-0.197
-244.976	-13.747	-0.290	0.188
-243.961	-200.000	-0.016	0.204
-242.946	631.552	0.034	0.087
-241.932	-200.000	-0.006	0.307
-240.917	93.194	-0.116	0.131
-239.903	-200.000	-0.036	0.287
-238.888	800.000	0.086	0.350
-237.873	470.938	-0.126	0.282
-236.859	41.419	-0.201	0.182
-235.844	800.000	-0.036	0.149
-234.830	104.557	-0.088	-0.104
-233.815	353.801	0.097	0.192
-232.800	-200.000	0.018	-0.211
-231.786	299.312	-0.070	0.130
-230.771	-200.000	-0.004	0.099
-229.757	800.000	0.095	0.284
-228.742	93.140	0.159	-0.180
-227.727	283.991	-0.054	-0.097
-226.713	-11.317	-0.076	-0.050
-225.698	-200.000	-0.008	-0.036
-224.684	-64.230	0.211	-0.086
-223.669	-102.823	-0.239	0.057
-222.655	-200.000	-0.013	0.245
-221.640	-120.994	0.128	0.022
-220.625	280.987	-0.071	0.126
-219.611	-200.000	-0.003	-0.038
-218.596	105.828	0.093	0.110
-217.582	316.881	0.017	-0.031
-216.567	401.463	0.068	-0.142
-215.552	87.405	-0.225	0.248
-214.538	-103.449	-0.032	-0.007
-213.523	-128.007	0.137	0.020
-212.509	82.319	0.085	-0.092
-211.494	-151.775	0.340	0.025
-210.479	-200.000	-0.020	0.113
-209.465	122.849	0.066	-0.082
-208.450	81.949	-0.066	-0.071
-207.436	-12.064	0.265	-0.173
-206.421	-200.000	-0.013	-0.250
-205.406	462.501	-0.107	-0.239
-204.392	-63.906	-0.396	-0.161
-203.377	-154.418	-0.302	-0.020
-202.363	-85.491	-0.220	0.068
-201.348	38.551	0.168	-0.149
-200.333	800.000	0.057	-0.203
-199.319	-81.699	0.279	0.091
-198.304	-200.000	0.042	0.289
-197.290	-88.576	0.142	-0.042
-196.275	-11.868	0.173	0.113
-195.260	-130.585	0.145	0.019
-194.246	352.520	0.168	0.331
-193.231	61.685	0.102	0.101
-192.217	240.800	-0.020	-0.034
-191.202	800.000	0.095	0.288
-190.187	8.713	-0.226	-0.170
-189.173	-26.055	0.247	0.145
-188.158	352.088	-0.030	-0.059
-187.144	0.610	-0.212	-0.151
-186.129	-4.916	-0.301	-0.207
-185.114	800.000	-0.085	0.304
-184.100	-200.000	0.005	-0.130
-183.085	-50.855	0.258	0.121
-182.071	800.000	-0.079	-0.296
-181.056	-46.939	-0.085	-0.041
-180.042	191.933	-0.090	0.135
-179.027	-59.878	0.130	-0.055
-178.012	162.876	-0.043	0.061
-176.998	-44.566	-0.154	-0.077
-175.983	-129.686	-0.383	-0.053
-174.969	180.099	0.137	0.200
-173.954	2.770	0.118	-0.085
-172.939	61.578	-0.158	0.157
-171.925	174.548	0.234	0.337
-170.910	-1.207	-0.185	-0.130
-169.896	-200.000	0.021	0.098
-168.881	288.557	-0.100	-0.181
-167.866	-10.624	0.251	-0.166
-166.852	639.056	0.071	0.181
-165.837	-97.537	0.017	0.004
-164.823	736.503	0.035	0.094
-163.808	50.351	0.243	-0.229
-162.793	-134.444	-0.148	-0.018
-161.779	41.510	-0.219	-0.198
-160.764	278.828	-0.184	-0.327
-159.750	800.000	-0.072	-0.226
-158.735	-58.549	-0.105	-0.045
-157.720	-47.918	-0.146	0.070
-156.706	29.424	0.131	-0.111
-155.691	-200.000	-0.000	0.124
-154.677	-26.562	-0.264	-0.154
-153.662	262.700	-0.099	0.172
-152.647	13.043	0.198	0.153
-151.633	132.116	0.094	-0.120
-150.618	240.211	0.154	-0.256
-149.604	48.286	-0.070	-0.065
-148.589	138.903	0.283	0.370
-147.574	-24.002	0.069	0.041
-146.560	-51.039	-0.031	-0.015
-145.545	97.723	-0.067	-0.076
-144.531	535.372	0.068	-0.162
-143.516	394.118	0.130	-0.269
-142.502	-133.244	0.112	-0.014
-141.487	-39.209	0.094	0.049
-140.472	-200.000	-0.017	-0.114
-139.458	139.452	0.051	0.067
-138.443	580.832	-0.138	0.338
-137.429	-200.000	0.052	0.231
-136.414	54.423	0.243	0.233
-135.399	71.928	-0.106	0.109
-134.385	-112.927	0.150	-0.030
-133.370	46.521	-0.111	-0.102
-132.356	800.000	0.039	-0.145
-131.341	-134.661	-0.083	-0.010
-130.326	-128.830	-0.066	0.009
-129.312	6.454	-0.200	0.148
-128.297	-58.523	0.224	0.097
-127.283	800.000	0.086	0.295
-126.268	103.673	0.061	0.071
-125.253	-64.018	-0.146	-0.059
-124.239	800.000	0.051	-0.160
-123.224	-7.040	0.203	-0.137
-122.210	464.119	-0.127	-0.283
