DTS Sentinel unit serial number:	SN413079Multiplexer serial number:	ORYXHardware model number:	OX4-SRSoftware version number:	ORYX F/W v4.00 Oryx Data Collector v3.7.2.0data status	okinstallation	princeton_trtdifferential loss correction	single-endedforward channel	channel 1reverse channel	N/Adate	2019/09/17time	00:26:35forward acquisition time	60.00reverse acquisition time	0.00gamma	496.2192k internal	0.2325k external	0.2325temperature offset calibration	0.9961default loss term (dB/km)	0.3790temperature slope calibration	1.0000multiplexer offset coefficient	1.0000multiplexer slope coefficient	1.0000fibre end	0.00T internal ref (°C)	29.48T ext. ref 1 (°C)	0.09T ext. ref 2 (°C)	23.68length (m)	temperature (°C)	Stokes	anti-Stokes-747.200	-103.518	-0.335	-0.079
-746.185	-88.769	-0.233	0.070
-745.171	-200.000	0.081	-0.391
-744.156	479.921	-0.099	0.227
-743.142	-51.170	0.279	-0.132
-742.127	408.439	0.043	0.091
-741.112	150.225	-0.028	-0.039
-740.098	-200.000	0.010	0.118
-739.083	-96.923	0.417	0.110
-738.069	311.170	0.104	-0.197
-737.054	94.327	0.077	0.088
-736.039	577.218	0.025	0.063
-735.025	48.299	0.056	0.053
-734.010	800.000	-0.086	0.243
-732.996	-31.881	0.077	0.044
-731.981	-82.277	-0.174	-0.057
-730.966	678.101	-0.053	0.140
-729.952	-68.472	-0.051	0.020
-728.937	-62.186	-0.163	-0.069
-727.923	-12.291	0.258	-0.170
-726.908	-33.672	-0.174	-0.097
-725.894	800.000	0.118	-0.482
-724.879	-16.171	-0.259	0.166
-723.864	-58.088	0.166	0.073
-722.850	-1.232	-0.263	0.187
-721.835	-56.574	-0.246	-0.110
-720.821	106.733	0.076	-0.091
-719.806	-200.000	-0.027	0.271
-718.791	-200.000	0.053	-0.248
-717.777	-44.134	-0.262	-0.133
-716.762	196.781	-0.054	-0.083
-715.748	2.867	-0.210	-0.154
-714.733	-116.524	-0.247	-0.046
-713.718	128.339	-0.214	-0.274
-712.704	800.000	0.053	-0.174
-711.689	-169.226	0.117	-0.004
-710.675	276.948	-0.135	0.243
-709.660	-150.022	0.177	0.014
-708.645	-200.000	-0.010	-0.083
-707.631	-73.756	-0.287	-0.105
-706.616	-200.000	-0.034	-0.271
-705.602	135.316	-0.142	-0.186
-704.587	-200.000	0.007	-0.127
-703.572	-22.622	0.059	0.036
-702.558	-200.000	-0.011	0.058
-701.543	-200.000	-0.019	-0.086
-700.529	28.043	-0.134	-0.113
-699.514	-72.600	0.234	0.087
-698.499	133.580	-0.143	-0.186
-697.485	529.368	0.078	-0.184
-696.470	14.122	-0.312	-0.245
-695.456	-143.236	-0.191	0.019
-694.441	-96.119	-0.051	0.014
-693.426	-5.567	-0.188	0.130
-692.412	790.264	-0.095	-0.263
-691.397	209.182	0.148	-0.233
-690.383	-165.931	0.421	-0.018
-689.368	-138.113	-0.285	0.032
-688.354	-200.000	-0.010	0.148
-687.339	-67.005	-0.335	-0.133
-686.324	118.785	0.110	0.137
-685.310	800.000	0.171	0.496
-684.295	558.588	0.106	0.257
-683.281	-25.938	0.180	-0.107
-682.266	47.389	-0.333	-0.312
-681.251	800.000	0.030	-0.128
-680.237	800.000	0.113	0.341
-679.222	-200.000	-0.002	0.016
-678.208	-200.000	-0.027	-0.157
-677.193	-200.000	0.022	-0.456
-676.178	28.012	-0.193	-0.164
-675.164	53.428	0.199	-0.192
-674.149	-200.000	-0.085	-0.453
-673.135	-200.000	-0.007	0.130
-672.120	242.538	0.092	0.154
-671.105	220.029	-0.012	-0.019
-670.091	-200.000	-0.010	0.120
-669.076	-170.919	-0.327	0.011
-668.062	800.000	0.073	0.208
-667.047	-200.000	0.042	0.195
-666.032	50.953	-0.433	0.413
-665.018	51.946	-0.152	0.145
-664.003	-200.000	-0.009	0.174
-662.989	800.000	0.062	-0.198
-661.974	-80.973	-0.273	0.091
-660.959	-112.784	-0.270	-0.054
-659.945	286.863	0.126	0.229
-658.930	-200.000	0.024	-0.155
-657.916	-200.000	0.029	0.476
-656.901	19.846	-0.221	0.179
-655.886	-142.139	0.255	-0.025
-654.872	-200.000	-0.010	-0.271
-653.857	-119.522	-0.187	0.033
-652.843	-52.241	-0.279	0.130
-651.828	800.000	0.055	-0.233
-650.814	-200.000	-0.006	-0.153
-649.799	111.622	-0.089	0.108
-648.784	489.706	-0.060	0.139
-647.770	-200.000	-0.007	-0.074
-646.755	-67.939	-0.278	0.109
-645.741	83.899	0.240	0.263
-644.726	-84.058	0.192	-0.061
-643.711	2.651	-0.237	-0.173
-642.697	-200.000	-0.067	0.330
-641.682	-200.000	-0.013	-0.258
-640.668	63.793	-0.288	0.291
-639.653	-200.000	-0.036	0.177
-638.638	-200.000	0.012	0.113
-637.624	-114.846	-0.095	-0.018
-636.609	46.465	-0.083	0.077
-635.595	800.000	-0.116	-0.493
-634.580	99.507	-0.100	0.116
-633.565	206.733	-0.031	-0.049
-632.551	7.761	-0.523	-0.393
-631.536	-62.149	-0.209	0.088
-630.522	70.972	0.183	0.190
-629.507	233.114	0.140	0.231
-628.492	-24.964	0.226	0.134
-627.478	-75.246	-0.414	0.148
-626.463	317.900	0.099	0.188
-625.449	734.237	-0.028	0.076
-624.434	-160.057	0.102	0.006
-623.419	-29.990	-0.172	0.098
-622.405	405.106	-0.051	0.108
-621.390	-27.903	-0.022	-0.013
-620.376	-42.295	-0.166	0.085
-619.361	240.166	-0.109	0.183
-618.346	-12.846	-0.188	-0.123
-617.332	-8.799	0.095	-0.064
-616.317	251.760	-0.061	-0.105
-615.303	76.912	0.187	0.199
-614.288	87.010	-0.070	-0.078
-613.273	731.025	-0.009	0.023
-612.259	234.048	0.076	0.126
-611.244	-109.327	-0.189	-0.040
-610.230	-5.029	0.304	-0.210
-609.215	255.429	0.058	0.100
-608.201	24.212	0.244	-0.202
-607.186	33.612	0.036	0.031
-606.171	249.154	0.042	0.072
-605.157	117.081	-0.075	0.092
-604.142	-166.905	0.244	0.010
-603.128	800.000	-0.081	-0.295
-602.113	306.529	-0.113	0.212
-601.098	91.486	-0.198	-0.223
-600.084	-200.000	0.024	0.130
-599.069	4.213	0.147	-0.108
-598.055	164.227	-0.061	-0.087
-597.040	-200.000	-0.040	-0.192
-596.025	-172.942	0.314	0.010
-595.011	-56.861	0.245	0.109
-593.996	-200.000	-0.023	-0.284
-592.982	800.000	-0.070	-0.303
-591.967	62.874	-0.273	0.274
-590.952	-106.716	0.258	0.057
-589.938	24.779	0.235	-0.195
-588.923	282.107	0.176	-0.317
-587.909	800.000	0.024	0.091
-586.894	-200.000	0.016	0.105
-585.879	-51.515	0.174	0.081
-584.865	800.000	-0.050	0.180
-583.850	-50.543	-0.178	-0.084
-582.836	87.785	-0.099	-0.110
-581.821	38.681	-0.120	-0.108
-580.806	331.213	-0.165	-0.319
-579.792	-155.859	-0.260	0.017
-578.777	-200.000	0.045	0.280
-577.763	38.314	-0.076	0.068
-576.748	-192.930	-0.060	0.001
-575.733	-196.262	0.078	0.001
-574.719	-200.000	-0.018	-0.154
-573.704	-200.000	0.017	-0.091
-572.690	800.000	-0.040	0.116
-571.675	-87.525	0.091	0.028
-570.661	579.967	0.072	0.177
-569.646	444.631	-0.070	0.154
-568.631	16.350	0.029	-0.023
-567.617	335.324	-0.123	0.240
-566.602	32.389	-0.202	-0.175
-565.588	-30.732	-0.124	-0.070
-564.573	-200.000	0.068	-0.356
-563.558	273.017	0.198	-0.350
-562.544	-196.076	-0.261	-0.002
-561.529	1.432	-0.186	-0.134
-560.515	58.062	0.103	0.101
-559.500	-145.406	0.126	0.011
-558.485	705.774	-0.163	0.430
-557.471	-200.000	-0.026	-0.202
-556.456	-31.770	0.126	-0.071
-555.442	255.665	0.146	-0.250
-554.427	54.813	-0.125	-0.121
-553.412	-200.000	-0.052	-0.239
-552.398	-33.534	-0.123	-0.068
-551.383	-83.248	0.304	0.098
-550.369	310.057	0.126	-0.236
-549.354	800.000	0.026	-0.094
-548.339	800.000	-0.069	-0.209
-547.325	162.427	-0.186	-0.262
-546.310	-88.331	-0.066	-0.020
-545.296	800.000	0.058	-0.171
-544.281	-200.000	-0.011	-0.060
-543.266	-30.916	0.218	0.123
-542.252	163.028	-0.065	0.091
-541.237	-12.669	-0.115	-0.075
-540.223	588.684	-0.113	-0.279
-539.208	-109.315	0.386	-0.082
-538.193	-200.000	0.010	-0.190
-537.179	800.000	-0.065	-0.216
-536.164	101.958	-0.397	-0.464
-535.150	-12.029	-0.151	0.099
-534.135	-4.422	0.242	0.168
-533.121	-15.321	-0.171	-0.109
-532.106	-85.022	0.185	-0.058
-531.091	567.194	-0.209	-0.507
-530.077	144.926	0.131	-0.175
-529.062	78.649	0.088	0.094
-528.048	-67.833	0.035	-0.014
-527.033	-200.000	-0.042	-0.371
-526.018	-121.324	0.250	-0.042
-525.004	59.133	0.185	-0.182
-523.989	241.219	0.012	0.019
-522.975	352.921	-0.037	-0.073
-521.960	-69.479	0.140	0.054
-520.945	13.204	0.234	0.181
-519.931	-200.000	-0.027	0.325
-518.916	10.936	-0.089	0.068
-517.902	-200.000	0.344	-0.001
-516.887	-150.097	-0.087	-0.007
-515.872	767.018	0.100	-0.272
-514.858	34.289	-0.097	-0.085
-513.843	800.000	0.047	0.176
-512.829	-93.200	-0.247	-0.069
-511.814	-103.180	-0.205	0.048
-510.799	-69.493	0.093	0.036
-509.785	179.969	-0.266	-0.390
-508.770	316.978	0.047	0.089
-507.756	10.244	-0.041	0.031
-506.741	-90.570	0.210	-0.061
-505.726	-100.395	-0.135	-0.033
-504.712	-93.511	0.110	-0.030
-503.697	-200.000	-0.018	-0.134
-502.683	184.390	0.069	0.102
-501.668	-24.008	0.208	-0.124
-500.653	-200.000	-0.011	-0.133
-499.639	-200.000	0.012	-0.211
-498.624	-200.000	0.064	0.296
-497.610	177.797	0.103	-0.149
-496.595	-14.052	0.135	-0.087
-495.581	-94.498	0.474	0.129
-494.566	800.000	-0.168	0.536
-493.551	-80.415	0.075	-0.025
-492.537	405.565	-0.097	-0.204
-491.522	77.739	-0.208	0.221
-490.508	800.000	-0.025	-0.090
-489.493	-159.485	-0.286	-0.016
-488.478	60.031	0.350	-0.345
-487.464	203.357	0.164	0.253
-486.449	662.418	-0.076	0.196
-485.435	205.760	-0.009	-0.014
-484.420	-149.914	-0.189	-0.015
-483.405	39.785	-0.132	-0.118
-482.391	267.280	-0.040	-0.071
-481.376	303.082	0.096	0.178
-480.362	-113.683	-0.166	-0.032
-479.347	100.543	0.164	-0.190
-478.332	-109.384	0.343	0.073
-477.318	800.000	0.126	0.466
-476.303	-115.220	-0.344	0.065
-475.289	-51.756	0.305	0.142
-474.274	-33.136	-0.247	-0.137
-473.259	-72.524	-0.297	0.109
-472.245	800.000	0.014	0.040
-471.230	-56.118	-0.241	-0.107
-470.216	77.743	0.070	-0.074
-469.201	-6.608	0.108	-0.074
-468.186	32.735	-0.093	-0.080
-467.172	800.000	0.067	0.212
-466.157	-108.597	-0.127	0.027
-465.143	94.712	-0.073	-0.082
-464.128	-200.000	-0.036	0.197
-463.113	215.892	-0.088	-0.140
-462.099	800.000	0.056	0.238
-461.084	-200.000	-0.073	-0.338
-460.070	581.267	-0.189	-0.462
-459.055	142.583	0.141	-0.187
-458.040	28.374	-0.188	0.158
-457.026	673.816	-0.069	0.178
-456.011	505.739	-0.096	0.223
-454.997	-106.664	-0.224	-0.050
-453.982	-61.404	0.233	-0.098
-452.968	32.213	0.253	-0.218
-451.953	97.620	0.130	-0.149
-450.938	223.448	-0.081	0.130
-449.924	30.567	0.100	-0.085
-448.909	348.592	0.168	0.330
-447.895	140.296	-0.068	-0.089
-446.880	-200.000	-0.010	-0.067
-445.865	-200.000	-0.006	0.093
-444.851	-72.917	0.189	0.069
-443.836	-200.000	-0.062	0.433
-442.822	-200.000	-0.003	0.241
-441.807	-6.315	-0.225	0.153
-440.792	-76.265	-0.138	-0.049
-439.778	263.960	0.094	-0.163
-438.763	-72.110	-0.261	-0.097
-437.749	-142.595	-0.291	0.028
-436.734	395.611	-0.005	0.011
-435.719	-134.311	0.098	0.012
-434.705	800.000	-0.099	-0.323
-433.690	-97.798	-0.289	0.075
-432.676	122.543	-0.182	-0.227
-431.661	-60.575	0.155	-0.066
-430.646	82.214	-0.084	-0.091
-429.632	-44.116	-0.133	0.066
-428.617	10.221	0.247	0.187
-427.603	800.000	0.081	0.268
-426.588	534.622	0.021	-0.050
-425.573	83.397	-0.273	-0.296
-424.559	568.794	0.153	0.371
-423.544	143.985	0.197	0.262
-422.530	332.341	0.118	0.228
-421.515	124.094	-0.197	0.247
-420.500	218.546	0.105	-0.168
-419.486	-200.000	0.036	0.188
-418.471	-200.000	-0.037	0.292
-417.457	-136.757	-0.228	0.026
-416.442	168.739	0.113	-0.160
-415.428	77.024	-0.231	-0.245
-414.413	79.839	-0.061	-0.066
-413.398	47.136	0.120	-0.111
-412.384	-137.559	-0.263	0.030
-411.369	192.377	-0.091	-0.137
-410.355	-200.000	0.023	0.126
-409.340	171.750	0.114	-0.163
-408.325	-68.893	0.226	-0.087
-407.311	-74.052	-0.248	0.089
-406.296	-36.871	0.221	-0.118
-405.282	279.736	0.099	-0.176
-404.267	-129.158	0.083	0.012
-403.252	-200.000	0.044	0.239
-402.238	105.285	-0.318	0.374
-401.223	-200.000	0.052	-0.283
-400.209	153.193	0.126	-0.171
-399.194	-83.835	-0.140	-0.044
-398.179	488.832	0.053	0.121
-397.165	-110.892	-0.152	-0.031
-396.150	-98.512	0.204	-0.052
-395.136	0.791	0.047	0.034
-394.121	-60.803	-0.130	0.055
-393.106	-14.659	-0.214	-0.137
-392.092	-200.000	-0.018	-0.086
-391.077	-131.960	-0.249	-0.032
-390.063	-166.805	-0.258	-0.011
-389.048	-31.759	0.351	0.196
-388.033	20.069	0.173	0.139
-387.019	79.896	-0.156	-0.167
-386.004	-159.648	-0.025	-0.001
-384.990	42.133	0.084	0.076
-383.975	-57.062	0.253	0.111
-382.960	149.329	0.129	0.174
-381.946	-200.000	0.032	0.251
-380.931	800.000	0.042	0.122
-379.917	-200.000	0.009	0.335
-378.902	-200.000	0.052	0.546
-377.888	-28.722	-0.195	-0.112
-376.873	-200.000	-0.011	-0.072
-375.858	-200.000	0.057	-0.261
-374.844	-160.827	0.459	0.024
-373.829	-139.290	0.070	0.008
-372.815	-200.000	-0.017	0.099
-371.800	-11.168	-0.295	0.193
-370.785	150.814	0.204	0.276
-369.771	800.000	-0.008	-0.027
-368.756	-200.000	-0.026	0.116
-367.742	134.575	0.042	-0.054
-366.727	-200.000	-0.010	-0.134
-365.712	423.563	-0.148	0.317
-364.698	228.418	-0.084	-0.135
-363.683	-82.205	-0.292	0.095
-362.669	-9.632	-0.312	-0.207
-361.654	-158.395	0.225	-0.013
-360.639	-181.035	-0.340	0.007
-359.625	-173.033	-0.279	0.009
-358.610	-42.806	-0.110	0.056
-357.596	126.273	-0.084	0.106
-356.581	-23.278	-0.207	0.124
-355.566	-5.413	0.074	-0.051
-354.552	52.159	0.073	0.069
-353.537	-90.875	-0.392	-0.112
-352.523	-200.000	0.006	-0.127
-351.508	-200.000	-0.001	0.134
-350.493	-200.000	-0.016	-0.393
-349.479	755.818	-0.102	-0.274
-348.464	54.868	-0.109	0.104
-347.450	-200.000	-0.005	-0.308
-346.435	159.344	0.196	0.271
-345.420	319.180	-0.119	0.224
-344.406	-200.000	-0.007	0.229
-343.391	-50.002	0.246	-0.116
-342.377	-200.000	0.033	-0.339
-341.362	-200.000	0.019	-0.156
-340.348	800.000	0.039	0.117
-339.333	-13.160	-0.127	0.082
-338.318	-56.034	0.239	-0.106
-337.304	-131.637	-0.174	-0.023
-336.289	-104.842	0.265	0.060
-335.275	800.000	-0.076	-0.294
-334.260	606.047	0.057	0.142
-333.245	32.522	-0.133	0.114
-332.231	800.000	0.109	-0.377
-331.216	41.622	0.087	0.078
-330.202	-3.491	0.277	-0.191
-329.187	219.808	0.153	-0.244
-328.172	31.528	0.149	0.127
-327.158	-135.336	0.033	-0.004
-326.143	21.050	0.110	0.089
-325.129	95.660	0.182	-0.206
-324.114	-143.402	0.293	0.028
-323.099	486.912	0.115	-0.261
-322.085	-200.000	0.008	-0.224
-321.070	89.065	0.095	0.105
-320.056	485.668	0.079	0.178
-319.041	-200.000	-0.032	0.241
-318.026	108.575	-0.077	0.091
-317.012	-101.405	-0.167	0.040
-315.997	60.184	0.206	-0.203
-314.983	-106.358	-0.337	-0.075
-313.968	265.610	0.088	-0.152
-312.953	800.000	0.082	-0.233
-311.939	13.069	0.275	0.211
-310.924	-56.892	-0.325	-0.143
-309.910	-2.349	-0.102	-0.071
-308.895	651.257	0.172	-0.436
-307.880	-69.737	-0.166	0.063
-306.866	-41.297	0.296	-0.152
-305.851	-23.675	-0.099	0.059
-304.837	149.399	0.064	0.085
-303.822	-200.000	-0.022	0.209
-302.807	6.424	0.271	-0.199
-301.793	331.015	-0.119	-0.227
-300.778	282.032	0.057	-0.102
-299.764	-33.972	0.172	0.094
-298.749	-101.283	-0.202	0.049
-297.735	347.044	-0.127	-0.248
-296.720	-187.482	0.153	0.002
-295.705	-105.719	-0.204	0.046
-294.691	45.672	0.214	0.196
-293.676	294.168	-0.106	-0.191
-292.662	-133.817	0.126	-0.015
-291.647	-91.951	-0.427	-0.120
-290.632	395.137	0.030	0.061
-289.618	-67.625	0.311	0.121
-288.603	-200.000	0.002	0.064
-287.589	-200.000	-0.035	-0.212
-286.574	800.000	0.051	0.155
-285.559	-17.706	-0.073	0.046
-284.545	11.112	-0.108	-0.082
-283.530	-3.118	-0.220	0.152
-282.516	-168.809	0.228	-0.009
-281.501	-200.000	0.041	0.202
-280.486	-138.633	-0.176	0.019
-279.472	800.000	0.065	0.238
-278.457	800.000	-0.079	-0.226
-277.443	160.765	-0.072	-0.099
-276.428	-35.658	-0.243	0.130
-275.413	156.418	-0.092	-0.126
-274.399	-200.000	0.051	0.544
-273.384	-121.023	0.023	-0.004
-272.370	-200.000	0.034	0.331
-271.355	125.010	-0.119	-0.149
-270.340	-104.783	-0.169	-0.039
-269.326	617.166	0.086	0.215
-268.311	-191.609	0.206	0.002
-267.297	-200.000	0.024	0.241
-266.282	-200.000	0.021	0.185
-265.267	340.423	0.149	0.287
-264.253	-29.647	0.378	-0.214
-263.238	-123.704	0.099	0.016
-262.224	159.458	-0.022	-0.030
-261.209	800.000	-0.066	0.191
-260.195	-113.753	0.223	0.043
-259.180	142.529	-0.106	-0.139
-258.165	-108.810	-0.098	0.021
-257.151	-96.319	0.354	-0.093
-256.136	-119.605	-0.121	0.021
-255.122	142.945	0.063	0.082
-254.107	-200.000	-0.008	-0.167
-253.092	181.993	0.028	0.041
-252.078	-2.999	-0.100	-0.069
-251.063	63.363	0.223	-0.221
-250.049	109.255	-0.195	0.231
-249.034	-200.000	-0.051	-0.241
-248.019	-200.000	0.025	0.310
-247.005	509.086	-0.022	-0.051
-245.990	261.187	0.137	-0.235
-244.976	-200.000	0.000	-0.146
-243.961	32.483	-0.154	0.132
-242.946	-51.579	0.150	0.069
-241.932	-76.200	0.014	0.005
-240.917	-153.550	-0.262	0.018
-239.903	800.000	-0.083	0.284
-238.888	-95.191	0.231	-0.062
-237.873	800.000	-0.063	0.264
-236.859	-200.000	0.022	0.159
-235.844	-66.949	0.156	0.061
-234.830	800.000	-0.090	0.249
-233.815	241.736	-0.063	0.103
-232.800	-127.566	-0.111	0.016
-231.786	800.000	0.029	-0.125
-230.771	119.144	0.239	0.292
-229.757	-40.420	-0.258	-0.133
-228.742	-152.225	0.300	0.021
-227.727	15.506	-0.125	0.097
-226.713	-108.293	0.286	0.061
-225.698	-116.151	-0.069	0.013
-224.684	-9.045	-0.229	-0.152
-223.669	-185.238	-0.158	-0.002
-222.655	72.427	-0.141	0.145
-221.640	-78.789	0.196	-0.066
-220.625	423.813	-0.072	-0.154
-219.611	-200.000	-0.001	-0.161
-218.596	20.559	0.293	0.235
-217.582	800.000	0.065	0.193
-216.567	-109.571	-0.251	-0.052
-215.552	-200.000	0.044	-0.214
-214.538	-92.065	-0.234	-0.066
-213.523	-200.000	-0.069	0.404
-212.509	269.719	0.136	0.236
-211.494	800.000	-0.078	0.294
-210.479	-18.396	0.194	-0.120
-209.465	-142.643	0.190	0.018
-208.450	269.810	-0.080	-0.139
-207.436	279.891	0.128	0.226
-206.421	-171.266	-0.364	-0.012
-205.406	-200.000	0.073	-0.455
-204.392	56.591	-0.119	0.114
-203.377	-50.230	-0.177	0.083
-202.363	-200.000	0.022	-0.168
-201.348	5.572	0.216	0.158
-200.333	542.185	0.062	0.146
-199.319	619.602	0.149	0.371
-198.304	-200.000	-0.031	0.301
-197.290	-28.798	0.075	-0.043
-196.275	47.744	0.139	-0.128
-195.260	46.867	-0.299	-0.274
-194.246	97.552	0.062	-0.070
-193.231	-56.493	0.412	-0.181
-192.217	-104.606	-0.245	-0.056
-191.202	800.000	-0.040	-0.145
-190.187	-36.344	0.054	-0.029
-189.173	800.000	0.037	0.144
-188.158	-30.525	0.246	0.138
-187.144	-153.996	-0.229	0.015
-186.129	-200.000	0.000	0.310
-185.114	-199.688	0.422	-0.002
-184.100	384.068	0.124	-0.252
-183.085	-103.035	0.183	0.043
-182.071	-48.795	-0.054	0.026
-181.056	-22.672	-0.161	0.096
-180.042	-28.440	-0.160	-0.091
-179.027	-150.529	-0.156	-0.012
-178.012	-87.159	0.057	0.017
-176.998	80.134	-0.079	-0.084
-175.983	-87.058	0.124	-0.037
-174.969	-200.000	-0.015	0.129
-173.954	-200.000	-0.019	-0.148
-172.939	232.837	0.054	0.088
-171.925	106.102	0.264	0.308
-170.910	-101.813	0.119	0.028
-169.896	370.238	-0.115	0.231
-168.881	800.000	-0.047	-0.190
-167.866	3.420	0.235	-0.169
-166.852	234.720	-0.055	0.089
-165.837	-200.000	-0.013	-0.206
-164.823	223.509	0.086	-0.137
-163.808	65.408	0.057	0.057
-162.793	-200.000	0.010	0.197
-161.779	800.000	0.090	-0.363
-160.764	-91.468	0.227	-0.064
-159.750	-88.719	-0.069	-0.020
-158.735	800.000	0.041	0.158
-157.720	-200.000	-0.023	-0.209
-156.706	167.872	0.112	0.158
-155.691	-115.116	0.172	0.032
-154.677	-200.000	-0.013	0.106
-153.662	-200.000	-0.011	-0.198
-152.647	-41.781	0.100	-0.051
-151.633	203.143	-0.121	0.184
-150.618	86.890	0.139	0.151
-149.604	-149.342	-0.101	-0.008
-148.589	403.861	-0.029	0.061
-147.574	-114.337	-0.073	-0.014
-146.560	224.100	0.192	0.305
-145.545	304.302	-0.152	0.279
-144.531	-103.912	-0.273	-0.063
-143.516	800.000	0.081	-0.266
-142.502	4.677	-0.070	0.051
-141.487	-10.599	-0.018	-0.012
-140.472	-171.238	-0.078	-0.003
-139.458	456.928	-0.210	-0.459
-138.443	-93.296	-0.101	0.028
-137.429	800.000	-0.102	0.293
-136.414	86.370	0.208	-0.226
-135.399	-13.523	0.059	0.038
-134.385	-200.000	-0.017	0.173
-133.370	-23.252	0.241	-0.143
-132.356	-33.078	0.083	-0.045
-131.341	-142.378	-0.426	-0.041
-130.326	222.437	0.075	-0.119
-129.312	434.519	-0.087	-0.185
-128.297	129.658	0.077	-0.097
-127.283	-127.490	0.190	-0.027
-126.268	-153.157	-0.186	-0.013
-125.253	-100.503	-0.400	0.097
-124.239	-69.897	0.343	-0.129
-123.224	-134.486	0.066	0.008
-122.210	-152.046	0.151	0.011
