DTS Sentinel unit serial number:	SN413079Multiplexer serial number:	ORYXHardware model number:	OX4-SRSoftware version number:	ORYX F/W v4.00 Oryx Data Collector v3.7.2.0data status	okinstallation	princeton_trtdifferential loss correction	single-endedforward channel	channel 1reverse channel	N/Adate	2019/09/16time	00:54:35forward acquisition time	60.00reverse acquisition time	0.00gamma	496.2192k internal	0.2335k external	0.2335temperature offset calibration	0.9977default loss term (dB/km)	0.3790temperature slope calibration	1.0000multiplexer offset coefficient	1.0000multiplexer slope coefficient	1.0000fibre end	0.00T internal ref (°C)	27.37T ext. ref 1 (°C)	9.71T ext. ref 2 (°C)	21.35length (m)	temperature (°C)	Stokes	anti-Stokes-747.200	-200.000	0.017	-0.156
-746.185	-85.906	0.049	-0.015
-745.171	213.064	0.149	-0.236
-744.156	14.052	0.395	-0.309
-743.142	-11.146	0.189	-0.125
-742.127	-62.839	-0.328	0.137
-741.112	-131.062	-0.139	-0.019
-740.098	-111.698	-0.482	0.098
-739.083	214.062	0.101	0.161
-738.069	81.813	-0.086	0.093
-737.054	65.675	-0.146	-0.148
-736.039	-3.910	-0.268	0.187
-735.025	225.420	0.112	0.182
-734.010	-90.489	-0.336	0.098
-732.996	-127.038	0.375	0.055
-731.981	232.827	-0.088	-0.146
-730.966	49.489	-0.126	0.119
-729.952	-200.000	-0.036	-0.204
-728.937	-79.530	-0.313	-0.106
-727.923	-200.000	0.026	-0.221
-726.908	65.060	0.147	-0.150
-725.894	16.979	-0.007	0.005
-724.879	32.024	0.188	-0.163
-723.864	-200.000	-0.044	-0.276
-722.850	228.795	-0.227	-0.372
-721.835	800.000	0.056	-0.199
-720.821	-12.528	0.175	0.115
-719.806	-200.000	0.001	-0.257
-718.791	74.315	-0.292	-0.307
-717.777	800.000	-0.074	-0.232
-716.762	-200.000	0.049	-0.363
-715.748	-84.118	0.167	0.053
-714.733	-154.422	-0.090	0.006
-713.718	-40.174	0.189	-0.099
-712.704	139.006	-0.212	-0.280
-711.689	-156.366	0.073	0.005
-710.675	-60.221	0.085	0.036
-709.660	-200.000	-0.053	0.292
-708.645	-43.164	0.047	0.024
-707.631	-160.093	-0.039	-0.002
-706.616	-200.000	0.054	-0.240
-705.602	-200.000	0.006	0.112
-704.587	58.237	-0.285	-0.280
-703.572	168.621	-0.090	-0.128
-702.558	719.272	-0.027	-0.073
-701.543	-137.128	0.203	0.023
-700.529	19.063	-0.407	0.328
-699.514	-83.589	0.231	0.074
-698.499	-101.716	0.149	-0.036
-697.485	-174.918	0.556	-0.016
-696.470	74.593	-0.164	0.173
-695.456	27.522	0.190	-0.160
-694.441	33.391	0.205	0.178
-693.426	177.943	0.140	0.205
-692.412	246.269	-0.119	-0.201
-691.397	45.614	-0.105	-0.097
-690.383	-62.548	-0.429	-0.179
-689.368	-119.016	-0.453	-0.080
-688.354	-25.263	-0.111	-0.066
-687.339	377.243	-0.089	-0.182
-686.324	14.078	-0.199	-0.155
-685.310	800.000	0.035	-0.130
-684.295	-72.856	-0.121	0.045
-683.281	-59.492	0.297	-0.128
-682.266	286.994	0.096	0.174
-681.251	800.000	0.107	-0.319
-680.237	70.422	-0.216	0.224
-679.222	133.134	0.114	-0.148
-678.208	-45.079	0.196	0.098
-677.193	800.000	0.096	0.283
-676.178	440.117	0.061	0.135
-675.164	-145.490	-0.227	0.020
-674.149	-200.000	0.021	0.145
-673.135	-118.334	-0.135	0.024
-672.120	45.486	-0.092	-0.086
-671.105	129.681	0.124	-0.159
-670.091	545.151	-0.074	-0.177
-669.076	-4.028	0.238	-0.165
-668.062	-200.000	-0.070	0.323
-667.047	800.000	0.009	0.028
-666.032	-21.663	0.339	-0.207
-665.018	-73.227	-0.252	-0.093
-664.003	-126.026	-0.209	-0.032
-662.989	-200.000	-0.003	-0.312
-661.974	-63.453	-0.237	-0.097
-660.959	-60.957	-0.083	-0.035
-659.945	225.969	0.086	-0.140
-658.930	207.618	0.085	-0.134
-657.916	-200.000	0.038	0.178
-656.901	193.888	0.102	0.155
-655.886	-138.963	-0.387	-0.042
-654.872	800.000	-0.114	0.334
-653.857	-77.562	0.191	0.066
-652.843	-54.122	0.275	0.125
-651.828	-28.789	0.348	-0.201
-650.814	49.410	0.039	0.037
-649.799	-29.012	0.048	0.028
-648.784	-200.000	-0.016	-0.135
-647.770	-200.000	0.001	0.183
-646.755	-42.807	0.099	-0.051
-645.741	-200.000	-0.013	0.157
-644.726	266.957	0.031	-0.055
-643.711	-200.000	0.027	-0.207
-642.697	-109.852	0.226	-0.048
-641.682	800.000	0.027	-0.090
-640.668	-200.000	0.033	-0.275
-639.653	-200.000	0.001	-0.307
-638.638	572.319	0.064	0.155
-637.624	-171.331	-0.073	0.002
-636.609	48.610	-0.222	-0.208
-635.595	351.758	0.012	-0.024
-634.580	800.000	-0.064	-0.195
-633.565	45.563	0.157	-0.146
-632.551	661.354	-0.102	-0.263
-631.536	-170.013	-0.169	0.006
-630.522	-25.851	0.199	0.117
-629.507	641.736	0.047	0.119
-628.492	75.031	-0.237	-0.250
-627.478	-196.896	-0.263	0.002
-626.463	-200.000	-0.001	-0.333
-625.449	-87.432	-0.140	0.043
-624.434	800.000	-0.063	-0.190
-623.419	162.093	-0.137	-0.192
-622.405	-26.867	-0.466	-0.272
-621.390	-115.459	0.163	-0.031
-620.376	-57.807	0.252	0.110
-619.361	231.895	-0.151	-0.247
-618.346	-200.000	-0.003	-0.155
-617.332	166.368	0.015	0.021
-616.317	-83.496	-0.158	-0.051
-615.303	37.805	-0.224	-0.199
-614.288	32.335	-0.159	-0.138
-613.273	-155.632	0.174	-0.011
-612.259	800.000	0.009	-0.038
-611.244	-0.895	-0.147	-0.104
-610.230	-51.373	0.149	0.070
-609.215	-112.373	0.113	-0.023
-608.201	800.000	-0.008	0.027
-607.186	36.625	-0.120	-0.106
-606.171	33.879	0.054	-0.047
-605.157	-116.339	-0.105	0.019
-604.142	35.335	0.145	-0.127
-603.128	-81.636	0.183	0.060
-602.113	-200.000	-0.012	0.336
-601.098	14.383	0.132	-0.103
-600.084	-162.279	-0.148	0.007
-599.069	-54.165	-0.221	0.101
-598.055	78.987	0.043	-0.047
-597.040	-76.753	-0.215	-0.075
-596.025	-200.000	0.020	0.145
-595.011	-113.497	0.243	0.048
-593.996	-200.000	0.061	0.434
-592.982	-200.000	-0.004	-0.216
-591.967	800.000	0.100	-0.282
-590.952	-49.330	-0.256	-0.122
-589.938	568.276	0.115	0.280
-588.923	24.058	0.114	-0.094
-587.909	-151.453	0.237	-0.018
-586.894	-108.408	0.337	-0.073
-585.879	305.451	0.026	-0.049
-584.865	717.764	0.096	-0.254
-583.850	800.000	-0.076	-0.239
-582.836	-200.000	-0.044	0.199
-581.821	-129.371	0.477	0.066
-580.806	242.634	0.049	0.083
-579.792	-118.815	0.278	-0.049
-578.777	800.000	0.074	-0.241
-577.763	-142.592	-0.048	-0.005
-576.748	-200.000	-0.029	-0.198
-575.733	-25.614	-0.083	0.049
-574.719	800.000	0.043	0.146
-573.704	-64.802	-0.261	-0.106
-572.690	299.191	0.083	0.152
-571.675	800.000	0.078	0.244
-570.661	113.446	0.098	-0.119
-569.646	142.236	0.146	-0.193
-568.631	9.510	-0.327	-0.247
-567.617	800.000	-0.069	-0.257
-566.602	-178.985	0.181	-0.004
-565.588	-200.000	0.004	-0.047
-564.573	72.829	-0.224	-0.234
-563.558	210.207	-0.110	-0.173
-562.544	68.195	0.454	-0.464
-561.529	105.138	-0.019	0.022
-560.515	13.011	-0.117	0.091
-559.500	-37.201	-0.102	0.054
-558.485	206.601	-0.039	-0.061
-557.471	229.785	0.085	0.138
-556.456	107.088	-0.224	0.266
-555.442	-75.820	-0.178	-0.063
-554.427	-122.164	-0.192	0.031
-553.412	-40.258	-0.134	0.069
-552.398	-88.012	-0.205	-0.061
-551.383	387.041	0.068	0.140
-550.369	172.178	-0.166	-0.238
-549.354	5.165	-0.030	-0.022
-548.339	-102.544	-0.210	0.050
-547.325	-200.000	0.081	0.427
-546.310	-11.157	0.223	-0.147
-545.296	-200.000	0.021	-0.355
-544.281	146.031	0.286	-0.383
-543.266	800.000	-0.035	-0.096
-542.252	11.292	-0.264	-0.201
-541.237	-200.000	0.028	0.171
-540.223	183.750	-0.276	0.407
-539.208	800.000	0.075	0.220
-538.193	305.170	0.043	-0.079
-537.179	-20.788	0.303	0.185
-536.164	-31.886	-0.080	0.045
-535.150	-200.000	-0.027	-0.143
-534.135	800.000	-0.019	-0.074
-533.121	-141.737	-0.220	-0.022
-532.106	800.000	-0.098	-0.286
-531.091	-200.000	0.001	-0.058
-530.077	-200.000	0.023	-0.195
-529.062	421.147	0.094	-0.201
-528.048	-137.360	0.039	0.004
-527.033	95.456	-0.094	-0.107
-526.018	199.669	-0.089	0.135
-525.004	-83.043	-0.173	-0.055
-523.989	143.624	-0.335	0.445
-522.975	-104.611	-0.203	0.047
-521.960	170.713	0.127	-0.182
-520.945	-90.206	0.170	0.049
-519.931	225.391	-0.195	-0.315
-518.916	243.342	0.070	-0.117
-517.902	800.000	-0.070	-0.269
-516.887	41.453	0.046	-0.041
-515.872	103.532	0.201	0.235
-514.858	-200.000	-0.019	0.138
-513.843	-82.276	-0.353	0.115
-512.829	-46.793	0.306	0.149
-511.814	239.664	-0.088	0.146
-510.799	-200.000	-0.014	0.103
-509.785	-200.000	0.037	0.348
-508.770	53.463	-0.190	-0.182
-507.756	-200.000	-0.023	-0.567
-506.741	33.891	-0.179	-0.155
-505.726	349.894	0.236	0.464
-504.712	277.622	-0.067	-0.119
-503.697	-106.032	0.177	0.040
-502.683	203.065	-0.135	-0.208
-501.668	703.281	0.042	-0.110
-500.653	-26.275	-0.232	0.135
-499.639	-130.126	-0.161	0.022
-498.624	19.116	-0.151	0.120
-497.610	-30.503	0.076	-0.043
-496.595	61.455	-0.136	0.134
-495.581	800.000	0.056	0.214
-494.566	-200.000	-0.023	-0.176
-493.551	-166.038	0.302	-0.013
-492.537	212.366	0.128	0.201
-491.522	-200.000	-0.001	0.029
-490.508	265.825	-0.120	-0.209
-489.493	-64.211	0.098	-0.040
-488.478	-48.556	0.385	0.184
-487.464	-200.000	-0.058	-0.358
-486.449	606.841	-0.169	-0.419
-485.435	-91.558	-0.052	-0.015
-484.420	-47.108	0.092	-0.045
-483.405	-43.934	0.312	-0.156
-482.391	-200.000	-0.003	-0.200
-481.376	-200.000	-0.049	0.306
-480.362	257.926	-0.139	-0.238
-479.347	-200.000	-0.020	0.115
-478.332	170.070	-0.114	-0.162
-477.318	531.012	0.155	0.365
-476.303	-200.000	-0.014	-0.233
-475.289	-200.000	-0.035	0.255
-474.274	423.929	0.076	0.163
-473.259	-83.203	-0.347	0.111
-472.245	36.010	-0.220	-0.192
-471.230	-169.087	0.428	0.016
-470.216	-122.577	0.103	-0.017
-469.201	436.895	0.044	-0.096
-468.186	-114.455	-0.128	-0.024
-467.172	-200.000	-0.021	0.284
-466.157	-172.726	0.259	-0.008
-465.143	225.820	0.087	-0.140
-464.128	-200.000	0.032	0.404
-463.113	-81.469	-0.201	0.066
-462.099	211.967	-0.050	-0.078
-461.084	-47.063	-0.133	0.065
-460.070	-200.000	-0.013	0.070
-459.055	-3.471	0.220	-0.152
-458.040	800.000	0.031	-0.094
-457.026	-75.814	-0.206	0.073
-456.011	76.785	0.023	-0.024
-454.997	107.640	0.087	0.103
-453.982	179.766	-0.188	-0.274
-452.968	800.000	-0.112	-0.398
-451.953	115.974	-0.038	0.046
-450.938	-27.049	0.024	0.014
-449.924	-98.564	-0.195	0.050
-448.909	132.036	0.220	0.281
-447.895	-77.063	0.068	-0.023
-446.880	59.198	0.057	-0.056
-445.865	800.000	0.050	0.211
-444.851	194.588	0.085	0.129
-443.836	-70.808	-0.091	0.034
-442.822	658.384	0.091	-0.234
-441.807	-200.000	-0.042	0.207
-440.792	-46.026	-0.101	-0.049
-439.778	309.295	0.178	-0.330
-438.763	-200.000	-0.047	0.382
-437.749	-200.000	-0.112	0.618
-436.734	-108.712	-0.032	-0.007
-435.719	-150.884	0.064	-0.005
-434.705	-200.000	0.030	-0.151
-433.690	-20.872	-0.207	0.126
-432.676	-200.000	-0.045	0.229
-431.661	98.975	-0.127	-0.146
-430.646	714.281	-0.095	0.250
-429.632	800.000	0.076	0.264
-428.617	143.766	0.078	-0.103
-427.603	326.380	-0.110	0.209
-426.588	82.308	-0.171	-0.184
-425.573	67.176	0.286	0.289
-424.559	66.921	-0.105	0.106
-423.544	31.371	-0.190	0.162
-422.530	-128.491	-0.166	-0.023
-421.515	-200.000	-0.007	0.192
-420.500	-104.381	0.164	0.038
-419.486	-118.081	-0.075	0.013
-418.471	4.642	-0.152	0.111
-417.457	-37.727	0.601	0.317
-416.442	201.441	0.062	0.095
-415.428	-132.969	-0.152	-0.019
-414.413	-200.000	-0.031	0.309
-413.398	-68.051	0.117	-0.045
-412.384	662.690	-0.105	-0.268
-411.369	-112.648	-0.272	-0.054
-410.355	4.840	0.083	0.061
-409.340	-200.000	0.028	-0.135
-408.325	-63.195	0.240	-0.098
-407.311	-55.598	-0.163	-0.072
-406.296	800.000	0.081	0.343
-405.282	800.000	-0.050	0.178
-404.267	-200.000	-0.017	0.176
-403.252	-137.649	0.358	-0.040
-402.238	25.277	0.193	-0.159
-401.223	71.950	0.219	-0.226
-400.209	-27.352	0.237	-0.137
-399.194	800.000	0.060	0.190
-398.179	-180.585	0.221	-0.005
-397.165	27.719	-0.188	-0.157
-396.150	276.782	0.074	0.131
-395.136	800.000	0.052	0.146
-394.121	-200.000	-0.024	0.231
-393.106	-109.910	-0.192	0.040
-392.092	-155.892	-0.436	-0.028
-391.077	-105.789	0.083	0.019
-390.063	-56.879	0.118	0.052
-389.048	-159.877	-0.258	-0.014
-388.033	800.000	-0.101	-0.308
-387.019	-200.000	0.143	0.001
-386.004	-84.077	-0.056	0.018
-384.990	-169.672	-0.363	0.013
-383.975	800.000	-0.062	0.208
-382.960	-77.101	-0.331	0.114
-381.946	65.659	-0.182	-0.183
-380.931	-7.618	0.299	0.200
-379.917	-40.890	0.096	0.049
-378.902	800.000	-0.052	-0.209
-377.888	-51.484	0.082	-0.038
-376.873	90.486	0.327	0.363
-375.858	800.000	0.091	0.304
-374.844	-70.348	-0.107	-0.040
-373.829	-127.426	-0.048	-0.007
-372.815	-200.000	0.000	-0.199
-371.800	-200.000	0.004	0.068
-370.785	34.980	0.125	-0.108
-369.771	219.828	0.066	0.105
-368.756	800.000	-0.235	0.665
-367.742	161.036	0.166	0.230
-366.727	-82.224	-0.152	0.049
-365.712	800.000	-0.042	0.121
-364.698	163.128	0.165	0.230
-363.683	-60.412	-0.011	0.005
-362.669	-200.000	0.001	-0.145
-361.654	-200.000	-0.004	0.103
-360.639	-200.000	0.049	0.239
-359.625	-1.873	0.177	0.123
-358.610	109.676	-0.278	0.330
-357.596	760.977	-0.073	-0.196
-356.581	-114.809	0.110	-0.021
-355.566	44.317	0.114	0.104
-354.552	730.008	-0.084	-0.223
-353.537	-57.435	0.155	-0.067
-352.523	-200.000	-0.075	-0.397
-351.508	-26.945	0.171	0.099
-350.493	-172.715	-0.109	0.003
-349.479	-17.971	-0.141	0.087
-348.464	400.269	-0.151	0.314
-347.450	196.609	-0.105	-0.158
-346.435	506.936	-0.179	0.412
-345.420	-200.000	0.004	-0.227
-344.406	-80.072	0.087	0.029
-343.391	-105.471	0.148	-0.033
-342.377	-52.676	-0.141	-0.064
-341.362	53.122	0.054	0.051
-340.348	-200.000	-0.031	0.163
-339.333	-51.916	-0.136	-0.063
-338.318	145.064	0.151	0.199
-337.304	-37.231	-0.057	0.030
-336.289	-154.376	0.191	0.013
-335.275	-91.620	-0.315	0.089
-334.260	306.305	0.051	-0.093
-333.245	-200.000	0.005	-0.204
-332.231	-33.657	-0.124	0.068
-331.216	-49.076	-0.012	-0.006
-330.202	800.000	0.015	0.046
-329.187	-37.862	-0.068	-0.036
-328.172	-55.714	-0.124	0.055
-327.158	-58.454	-0.332	-0.142
-326.143	-117.548	0.282	0.050
-325.129	800.000	0.049	0.171
-324.114	-15.073	-0.171	0.108
-323.099	402.245	0.106	-0.221
-322.085	-63.035	-0.076	-0.031
-321.070	5.180	0.120	-0.087
-320.056	-166.643	-0.243	-0.010
-319.041	-87.129	-0.090	0.027
-318.026	26.259	-0.165	-0.136
-317.012	188.432	0.070	-0.104
-315.997	-141.264	-0.207	-0.021
-314.983	-200.000	0.023	0.199
-313.968	-42.360	0.165	0.083
-312.953	-100.192	-0.110	0.027
-311.939	505.216	-0.139	-0.318
-310.924	-200.000	0.009	-0.070
-309.910	637.020	0.141	-0.353
-308.895	12.636	-0.175	0.133
-307.880	-100.832	0.070	0.017
-306.866	800.000	0.005	0.019
-305.851	9.573	-0.078	0.058
-304.837	-200.000	0.069	-0.470
-303.822	-109.194	0.138	0.029
-302.807	35.184	-0.214	-0.185
-301.793	-90.695	0.063	-0.018
-300.778	-130.179	-0.284	-0.038
-299.764	800.000	0.066	-0.190
-298.749	261.848	0.164	-0.280
-297.735	50.838	-0.103	-0.096
-296.720	3.694	0.238	0.172
-295.705	55.189	-0.188	0.179
-294.691	445.009	0.085	0.183
-293.676	-122.633	0.363	0.058
-292.662	-125.325	0.032	-0.005
-291.647	-51.432	-0.348	0.160
-290.632	5.449	0.223	-0.162
-289.618	207.653	-0.245	-0.377
-288.603	-117.072	0.337	-0.061
-287.589	-24.063	-0.165	0.097
-286.574	174.130	0.165	-0.235
-285.559	145.576	0.220	-0.291
-284.545	439.028	0.124	0.266
-283.530	577.523	-0.090	-0.217
-282.516	-47.473	0.238	-0.114
-281.501	-7.701	0.079	0.052
-280.486	800.000	0.087	0.317
-279.472	131.170	-0.158	0.200
-278.457	-32.037	0.185	0.102
-277.443	73.172	0.083	0.086
-276.428	216.773	0.141	-0.221
-275.413	96.460	0.129	-0.146
-274.399	-200.000	0.007	0.315
-273.384	-132.687	0.498	0.063
-272.370	-200.000	0.003	0.025
-271.355	31.839	-0.313	0.266
-270.340	-84.613	0.232	0.072
-269.326	604.546	0.152	-0.372
-268.311	297.481	0.066	0.120
-267.297	-200.000	0.015	0.352
-266.282	800.000	0.046	0.150
-265.267	-200.000	0.036	0.179
-264.253	216.845	0.155	0.243
-263.238	80.487	-0.117	-0.125
-262.224	-133.039	-0.253	-0.032
-261.209	-88.162	0.111	-0.033
-260.195	174.870	-0.157	0.224
-259.180	372.637	0.147	-0.294
-258.165	54.925	-0.079	-0.075
-257.151	50.610	0.144	0.135
-256.136	-161.702	-0.228	-0.011
-255.122	121.830	0.120	-0.147
-254.107	133.016	-0.028	-0.036
-253.092	-200.000	0.041	-0.288
-252.078	-200.000	-0.004	-0.050
-251.063	-200.000	0.018	0.169
-250.049	20.042	0.175	0.139
-249.034	-78.238	0.237	0.080
-248.019	-164.038	0.391	0.018
-247.005	800.000	-0.079	0.322
-245.990	-104.707	-0.382	0.087
-244.976	-130.043	0.367	0.049
-243.961	-60.345	0.402	-0.169
-242.946	800.000	0.032	-0.129
-241.932	222.117	0.031	-0.050
-240.917	-125.853	-0.248	0.037
-239.903	-34.107	-0.222	0.120
-238.888	167.503	-0.263	-0.368
-237.873	-125.260	-0.217	-0.033
-236.859	-113.434	-0.374	0.072
-235.844	403.169	0.183	-0.380
-234.830	160.893	-0.160	-0.220
-233.815	593.365	-0.132	-0.321
-232.800	-68.788	0.235	-0.090
-231.786	-134.610	-0.250	0.030
-230.771	-200.000	-0.027	-0.129
-229.757	774.730	-0.036	0.098
-228.742	155.402	0.130	0.176
-227.727	-61.916	-0.222	0.092
-226.713	108.994	-0.304	0.358
-225.698	-45.633	-0.261	0.127
-224.684	246.502	-0.101	-0.168
-223.669	-114.889	0.493	0.092
-222.655	-51.172	-0.192	0.088
-221.640	-14.258	0.231	0.147
-220.625	-76.474	0.192	0.066
-219.611	-61.910	0.260	-0.107
-218.596	-72.769	-0.137	-0.050
-217.582	-148.877	-0.406	0.032
-216.567	-132.911	0.465	-0.058
-215.552	-200.000	-0.016	0.185
-214.538	800.000	0.044	-0.174
-213.523	46.229	-0.305	-0.278
-212.509	33.677	-0.242	-0.207
-211.494	-115.732	-0.055	0.010
-210.479	-128.876	0.140	-0.019
-209.465	800.000	0.071	-0.261
-208.450	112.009	0.221	0.262
-207.436	27.761	-0.256	0.212
-206.421	555.878	0.117	-0.277
-205.406	122.544	0.273	0.335
-204.392	-200.000	0.056	0.360
-203.377	-125.566	0.147	0.022
-202.363	-200.000	0.041	-0.222
-201.348	-100.433	0.630	0.154
-200.333	-107.303	0.358	-0.077
-199.319	-200.000	0.088	0.425
-198.304	800.000	-0.091	-0.317
-197.290	-200.000	0.023	-0.102
-196.275	41.863	-0.137	0.122
-195.260	251.448	-0.054	0.091
-194.246	69.038	0.075	-0.076
-193.231	-88.458	-0.069	0.020
-192.217	208.723	0.164	0.253
-191.202	-200.000	-0.064	0.325
-190.187	-59.467	0.289	0.122
-189.173	401.653	-0.115	0.237
-188.158	-101.309	0.249	0.060
-187.144	-83.093	0.129	-0.041
-186.129	-117.170	0.355	-0.064
-185.114	288.569	-0.152	0.271
-184.100	-22.114	-0.208	0.124
-183.085	-93.492	0.359	0.098
-182.071	-200.000	0.019	-0.215
-181.056	166.377	-0.141	0.197
-180.042	800.000	0.058	-0.171
-179.027	-200.000	-0.012	-0.246
-178.012	-189.132	-0.047	0.001
-176.998	371.394	0.141	-0.280
-175.983	-97.972	-0.265	0.067
-174.969	-109.279	-0.390	0.081
-173.954	71.473	-0.165	0.168
-172.939	-194.183	0.159	0.001
-171.925	23.688	-0.208	-0.168
-170.910	-36.105	-0.258	-0.137
-169.896	646.710	0.116	0.291
-168.881	111.293	-0.102	0.121
-167.866	800.000	0.025	0.092
-166.852	800.000	-0.050	-0.213
-165.837	49.420	-0.040	0.037
-164.823	531.482	0.065	-0.152
-163.808	-200.000	-0.045	0.254
-162.793	-200.000	-0.025	-0.261
-161.779	800.000	-0.049	-0.192
-160.764	-106.350	0.128	0.028
-159.750	-132.824	0.362	-0.045
-158.735	85.824	-0.210	0.227
-157.720	394.486	0.166	0.340
-156.706	-76.152	-0.254	-0.088
-155.691	379.945	-0.059	-0.119
-154.677	-200.000	-0.042	0.269
-153.662	-50.037	0.177	0.082
-152.647	-200.000	-0.023	-0.546
-151.633	-151.779	0.028	0.002
-150.618	-7.681	-0.254	-0.168
-149.604	-71.944	-0.116	-0.042
-148.589	236.446	-0.021	-0.034
-147.574	800.000	0.132	-0.389
-146.560	-70.761	0.343	0.127
-145.545	-200.000	-0.059	0.377
-144.531	-200.000	0.000	0.078
-143.516	-200.000	0.001	0.095
-142.502	-1.373	-0.132	0.092
-141.487	32.990	0.152	-0.129
-140.472	72.241	-0.224	0.229
-139.458	229.920	-0.168	0.269
-138.443	31.423	-0.124	0.105
-137.429	-200.000	-0.020	-0.169
-136.414	281.240	-0.066	0.116
-135.399	-200.000	0.007	0.149
-134.385	-88.539	0.214	-0.063
-133.370	-156.681	0.070	0.004
-132.356	800.000	-0.040	-0.135
-131.341	-149.018	-0.250	0.020
-130.326	800.000	0.106	-0.371
-129.312	-92.525	-0.145	0.040
-128.297	74.828	-0.160	-0.166
-127.283	46.768	0.271	0.247
-126.268	-153.524	0.115	-0.008
-125.253	-169.323	0.116	-0.004
-124.239	-179.901	0.102	-0.002
-123.224	-103.628	-0.269	0.062
-122.210	-94.626	0.261	0.070
