DTS Sentinel unit serial number:	SN413079Multiplexer serial number:	ORYXHardware model number:	OX4-SRSoftware version number:	ORYX F/W v4.00 Oryx Data Collector v3.7.2.0data status	okinstallation	princeton_trtdifferential loss correction	single-endedforward channel	channel 1reverse channel	N/Adate	2019/09/13time	09:58:35forward acquisition time	60.00reverse acquisition time	0.00gamma	496.2192k internal	0.2325k external	0.2325temperature offset calibration	1.0156default loss term (dB/km)	0.3790temperature slope calibration	1.0000multiplexer offset coefficient	1.0000multiplexer slope coefficient	1.0000fibre end	0.00T internal ref (°C)	30.19T ext. ref 1 (°C)	4.47T ext. ref 2 (°C)	27.33length (m)	temperature (°C)	Stokes	anti-Stokes-747.200	-200.000	0.005	0.176
-746.185	45.951	-0.156	-0.146
-745.171	102.426	0.196	0.231
-744.156	-74.353	-0.284	0.103
-743.142	-200.000	-0.002	-0.019
-742.127	144.820	-0.275	0.371
-741.112	25.191	0.334	0.280
-740.098	-82.388	0.084	0.028
-739.083	167.902	0.240	0.344
-738.069	-161.836	-0.244	-0.012
-737.054	107.168	0.054	-0.065
-736.039	-123.841	0.125	0.020
-735.025	-79.380	-0.150	-0.051
-734.010	195.154	-0.114	0.175
-732.996	-200.000	0.085	-0.412
-731.981	241.716	0.125	0.211
-730.966	277.928	0.131	0.235
-729.952	50.474	-0.188	-0.179
-728.937	800.000	-0.065	0.231
-727.923	343.469	-0.038	0.074
-726.908	-200.000	0.010	-0.108
-725.894	112.447	0.324	0.395
-724.879	30.492	-0.121	-0.104
-723.864	-76.552	0.121	0.043
-722.850	189.125	0.165	0.249
-721.835	714.230	0.089	0.237
-720.821	-200.000	0.010	0.215
-719.806	120.423	-0.172	-0.215
-718.791	-200.000	0.014	-0.373
-717.777	-200.000	0.007	-0.308
-716.762	81.288	-0.127	-0.139
-715.748	800.000	-0.021	-0.068
-714.733	96.432	0.075	-0.086
-713.718	-39.093	0.230	0.122
-712.704	16.835	0.190	0.152
-711.689	-200.000	-0.120	-0.000
-710.675	109.813	0.205	-0.247
-709.660	-12.923	0.235	-0.154
-708.645	-200.000	-0.019	-0.287
-707.631	182.855	-0.158	-0.235
-706.616	44.566	-0.235	-0.218
-705.602	58.006	0.065	-0.064
-704.587	-108.639	-0.491	-0.106
-703.572	-200.000	-0.012	-0.183
-702.558	-200.000	-0.046	0.218
-701.543	74.752	-0.168	0.178
-700.529	-120.526	-0.294	-0.050
-699.514	-143.256	0.229	-0.022
-698.499	28.084	-0.129	0.109
-697.485	-117.723	0.351	-0.064
-696.470	-136.112	-0.333	-0.039
-695.456	241.732	-0.183	-0.309
-694.441	-200.000	0.018	0.234
-693.426	-12.755	-0.122	-0.080
-692.412	166.611	-0.077	-0.110
-691.397	-200.000	-0.016	-0.200
-690.383	72.052	-0.088	-0.092
-689.368	-121.743	0.043	-0.007
-688.354	-109.434	0.370	0.079
-687.339	-109.929	-0.534	0.113
-686.324	306.838	-0.119	-0.223
-685.310	-101.542	-0.299	0.073
-684.295	778.398	0.139	0.383
-683.281	-82.297	-0.281	-0.092
-682.266	38.679	0.107	-0.096
-681.251	208.465	-0.177	-0.278
-680.237	101.707	-0.141	-0.166
-679.222	-189.598	-0.486	-0.006
-678.208	61.902	-0.198	0.198
-677.193	229.551	0.031	-0.050
-676.178	11.869	-0.040	-0.031
-675.164	-172.798	-0.289	-0.009
-674.149	-29.217	0.190	0.110
-673.135	281.139	0.085	0.153
-672.120	-80.693	0.226	0.076
-671.105	-25.646	0.157	-0.093
-670.091	-175.667	0.352	-0.010
-669.076	-135.105	-0.189	0.023
-668.062	-200.000	0.012	-0.078
-667.047	-89.508	0.460	0.136
-666.032	68.882	0.258	-0.266
-665.018	800.000	0.105	-0.427
-664.003	181.206	0.139	-0.206
-662.989	-91.749	0.288	-0.082
-661.974	-200.000	-0.019	0.221
-660.959	204.335	0.080	-0.125
-659.945	130.538	-0.119	-0.153
-658.930	-147.348	-0.287	0.024
-657.916	-200.000	0.027	0.428
-656.901	800.000	-0.137	-0.404
-655.886	257.441	-0.084	-0.145
-654.872	800.000	0.052	-0.149
-653.857	108.858	0.080	0.096
-652.843	106.262	-0.082	-0.098
-651.828	86.277	-0.070	-0.077
-650.814	800.000	-0.066	0.248
-649.799	-40.183	-0.189	-0.099
-648.784	79.606	-0.103	0.111
-647.770	-200.000	-0.010	-0.242
-646.755	40.051	0.057	-0.051
-645.741	4.044	0.221	0.163
-644.726	611.945	-0.176	0.442
-643.711	-66.528	-0.280	0.112
-642.697	70.622	-0.075	-0.078
-641.682	-28.980	0.083	-0.048
-640.668	-162.426	-0.244	0.012
-639.653	8.622	-0.075	0.057
-638.638	-110.765	-0.278	-0.058
-637.624	-159.398	-0.247	-0.014
-636.609	-200.000	-0.011	0.136
-635.595	-200.000	0.056	-0.466
-634.580	-29.224	0.188	0.108
-633.565	-200.000	-0.008	0.498
-632.551	165.268	-0.081	-0.115
-631.536	800.000	-0.019	0.063
-630.522	-93.625	0.029	-0.008
-629.507	-150.618	-0.094	-0.007
-628.492	-41.149	0.157	0.081
-627.478	800.000	-0.083	-0.266
-626.463	-122.305	0.339	0.056
-625.449	403.265	-0.047	-0.098
-624.434	242.647	0.176	-0.297
-623.419	34.106	-0.176	0.154
-622.405	-86.583	-0.321	-0.099
-621.390	7.412	0.135	-0.102
-620.376	800.000	0.074	0.225
-619.361	623.132	0.095	0.240
-618.346	-157.281	-0.276	-0.017
-617.332	-200.000	-0.001	0.021
-616.317	276.635	-0.155	0.277
-615.303	98.206	-0.073	0.084
-614.288	-200.000	0.010	-0.361
-613.273	159.730	-0.091	-0.127
-612.259	-79.433	0.466	0.158
-611.244	-113.788	-0.245	-0.048
-610.230	128.215	0.039	0.050
-609.215	800.000	0.137	0.423
-608.201	56.266	-0.213	-0.208
-607.186	800.000	-0.051	-0.213
-606.171	177.323	-0.148	-0.216
-605.157	-200.000	0.009	-0.158
-604.142	79.872	0.144	0.155
-603.128	489.036	0.032	0.074
-602.113	158.331	-0.147	-0.204
-601.098	248.700	-0.071	0.121
-600.084	105.612	0.130	0.154
-599.069	9.869	-0.100	0.076
-598.055	-83.766	0.171	0.055
-597.040	-27.544	0.180	0.105
-596.025	591.381	-0.035	0.086
-595.011	-200.000	0.009	-0.207
-593.996	37.751	0.171	-0.152
-592.982	752.226	0.121	-0.328
-591.967	512.042	-0.176	-0.411
-590.952	-60.991	0.297	-0.126
-589.938	800.000	-0.039	-0.136
-588.923	-200.000	-0.019	0.133
-587.909	800.000	0.058	0.229
-586.894	-67.462	-0.238	0.094
-585.879	-200.000	-0.040	-0.250
-584.865	800.000	0.043	-0.150
-583.850	-14.115	0.307	-0.198
-582.836	703.466	-0.055	-0.147
-581.821	0.146	0.056	0.040
-580.806	-33.067	-0.195	0.108
-579.792	17.197	0.416	0.331
-578.777	30.896	-0.240	-0.206
-577.763	-138.233	0.132	0.015
-576.748	185.906	-0.098	-0.146
-575.733	204.142	-0.122	0.189
-574.719	264.115	0.065	0.114
-573.704	0.649	0.210	-0.150
-572.690	-37.416	0.222	0.119
-571.675	-122.991	-0.315	-0.051
-570.661	-143.327	0.053	-0.005
-569.646	-32.409	-0.184	-0.103
-568.631	-86.531	0.222	0.068
-567.617	-18.444	-0.295	0.185
-566.602	200.864	0.238	0.367
-565.588	-82.429	0.184	0.060
-564.573	-63.974	-0.107	0.044
-563.558	-28.706	0.277	-0.160
-562.544	-200.000	-0.021	0.332
-561.529	-200.000	0.029	0.162
-560.515	9.471	-0.278	0.211
-559.500	-67.712	0.076	0.030
-558.485	209.786	0.144	-0.227
-557.471	-80.336	0.209	0.070
-556.456	52.646	0.146	0.140
-555.442	-24.062	-0.115	0.069
-554.427	-140.487	-0.301	-0.031
-553.412	-160.423	-0.105	0.006
-552.398	800.000	0.042	-0.159
-551.383	-116.714	-0.173	0.032
-550.369	-20.223	-0.074	-0.046
-549.354	218.605	-0.083	-0.133
-548.339	291.666	0.179	0.326
-547.325	800.000	-0.037	-0.118
-546.310	-200.000	0.032	-0.184
-545.296	-200.000	-0.007	-0.161
-544.281	-200.000	-0.039	0.324
-543.266	43.102	-0.254	0.232
-542.252	-5.246	0.368	0.253
-541.237	800.000	-0.066	-0.265
-540.223	71.177	-0.151	0.157
-539.208	-33.616	-0.270	0.149
-538.193	-63.573	0.305	0.125
-537.179	13.624	-0.061	-0.047
-536.164	254.869	0.161	-0.276
-535.150	800.000	0.087	-0.309
-534.135	503.730	-0.010	-0.022
-533.121	231.923	-0.170	-0.280
-532.106	800.000	-0.024	-0.089
-531.091	355.603	-0.019	0.038
-530.077	-104.306	-0.450	0.105
-529.062	404.851	0.108	0.227
-528.048	800.000	-0.056	-0.225
-527.033	62.240	-0.081	-0.081
-526.018	64.259	0.111	-0.112
-525.004	-30.046	0.269	0.153
-523.989	290.654	-0.049	0.089
-522.975	8.841	-0.310	0.234
-521.960	-200.000	-0.056	-0.294
-520.945	-17.053	-0.286	-0.181
-519.931	190.216	-0.120	-0.181
-518.916	-85.031	0.182	0.057
-517.902	418.226	-0.065	-0.139
-516.887	800.000	-0.057	-0.227
-515.872	145.097	0.034	-0.046
-514.858	-200.000	-0.002	0.140
-513.843	466.437	0.068	0.153
-512.829	108.862	-0.041	-0.049
-511.814	320.820	-0.070	-0.134
-510.799	575.631	-0.023	0.056
-509.785	800.000	-0.065	0.245
-508.770	-36.432	-0.435	-0.234
-507.756	-54.755	-0.219	-0.099
-506.741	514.440	0.176	-0.410
-505.726	74.166	-0.098	0.103
-504.712	120.771	-0.129	0.160
-503.697	-200.000	-0.027	-0.311
-502.683	800.000	0.107	-0.360
-501.668	-90.301	0.311	-0.090
-500.653	-200.000	-0.040	-0.228
-499.639	-199.917	0.166	0.001
-498.624	401.101	0.172	-0.361
-497.610	-106.002	0.082	0.018
-496.595	135.915	0.097	0.126
-495.581	50.337	-0.105	0.099
-494.566	160.499	0.067	0.094
-493.551	-109.508	0.102	0.022
-492.537	43.315	0.098	0.090
-491.522	-200.000	-0.004	-0.472
-490.508	200.598	0.089	0.137
-489.493	-74.347	-0.118	-0.042
-488.478	221.241	-0.109	0.174
-487.464	-127.919	-0.116	0.017
-486.449	-35.636	-0.283	-0.153
-485.435	-44.398	-0.352	0.176
-484.420	179.805	-0.138	0.201
-483.405	-200.000	0.055	-0.297
-482.391	-200.000	-0.015	0.082
-481.376	72.155	0.076	-0.079
-480.362	-116.680	0.275	0.050
-479.347	-52.975	-0.095	-0.044
-478.332	-200.000	-0.048	0.263
-477.318	-88.790	0.161	0.048
-476.303	-198.773	0.217	-0.001
-475.289	-111.142	-0.243	-0.050
-474.274	30.964	-0.230	-0.197
-473.259	98.824	0.067	-0.077
-472.245	-41.838	-0.117	0.060
-471.230	23.948	-0.132	0.109
-470.216	766.965	-0.065	0.176
-469.201	800.000	0.028	-0.102
-468.186	335.749	-0.065	0.126
-467.172	124.498	-0.198	-0.248
-466.157	10.623	-0.076	-0.058
-465.143	-200.000	-0.023	0.236
-464.128	-200.000	-0.004	-0.094
-463.113	78.589	0.123	-0.131
-462.099	92.177	-0.104	0.117
-461.084	55.600	0.249	0.241
-460.070	-44.953	0.019	-0.010
-459.055	800.000	-0.039	-0.168
-458.040	-200.000	-0.051	-0.325
-457.026	-44.565	0.129	-0.064
-456.011	-117.822	0.201	0.036
-454.997	-200.000	0.047	-0.245
-453.982	-101.749	0.279	-0.068
-452.968	-27.169	-0.248	0.144
-451.953	-47.490	-0.308	0.149
-450.938	-170.000	-0.243	-0.009
-449.924	-46.883	0.258	0.126
-448.909	-119.641	0.070	-0.012
-447.895	-123.338	-0.257	0.041
-446.880	102.665	0.185	0.216
-445.865	142.654	-0.193	0.256
-444.851	-200.000	-0.016	-0.166
-443.836	-91.228	0.072	-0.021
-442.822	202.615	0.169	0.260
-441.807	-29.428	-0.132	0.075
-440.792	-122.087	0.271	-0.044
-439.778	-66.740	0.232	0.092
-438.763	185.324	-0.071	-0.105
-437.749	800.000	-0.074	0.234
-436.734	-68.546	-0.287	0.111
-435.719	-128.058	-0.333	0.048
-434.705	-66.295	-0.169	-0.067
-433.690	31.145	-0.122	0.104
-432.676	-174.453	-0.102	0.003
-431.661	-200.000	-0.071	-0.435
-430.646	59.171	-0.136	0.133
-429.632	83.768	-0.092	0.100
-428.617	800.000	-0.057	-0.195
-427.603	132.847	0.282	-0.363
-426.588	6.617	0.047	-0.035
-425.573	-30.471	-0.174	0.098
-424.559	-88.939	-0.212	0.063
-423.544	60.052	0.144	-0.142
-422.530	-56.940	0.045	0.020
-421.515	104.692	-0.150	-0.176
-420.500	-85.971	-0.263	0.081
-419.486	-177.808	0.087	-0.002
-418.471	119.648	-0.135	-0.167
-417.457	-128.934	0.138	0.019
-416.442	-94.908	0.055	0.015
-415.428	143.923	0.127	-0.169
-414.413	-134.340	0.213	0.026
-413.398	207.553	0.052	0.080
-412.384	162.203	0.160	0.224
-411.369	102.120	0.184	-0.214
-410.355	0.541	0.325	-0.231
-409.340	800.000	-0.063	-0.232
-408.325	-14.787	-0.107	0.068
-407.311	-77.943	0.272	-0.093
-406.296	0.705	0.444	0.316
-405.282	44.470	0.181	0.165
-404.267	-200.000	-0.002	-0.117
-403.252	-103.538	-0.029	-0.007
-402.238	80.827	0.178	-0.191
-401.223	-200.000	0.041	0.247
-400.209	-154.708	-0.277	-0.018
-399.194	53.349	0.336	0.321
-398.179	-200.000	-0.032	-0.381
-397.165	78.367	0.090	-0.095
-396.150	-200.000	-0.068	-0.324
-395.136	386.097	-0.309	-0.634
-394.121	-200.000	-0.008	0.102
-393.106	-115.698	-0.025	0.005
-392.092	155.844	-0.066	0.091
-391.077	800.000	0.043	-0.176
-390.063	25.150	0.105	-0.087
-389.048	-107.691	0.094	-0.020
-388.033	-58.928	0.144	-0.062
-387.019	-85.327	-0.288	0.090
-386.004	-60.641	-0.516	-0.218
-384.990	29.712	0.272	0.231
-383.975	98.779	-0.031	0.035
-382.960	139.113	-0.108	0.142
-381.946	461.761	-0.042	-0.092
-380.931	340.058	-0.048	0.092
-379.917	-200.000	-0.051	0.435
-378.902	187.826	-0.057	0.084
-377.888	449.127	0.067	-0.148
-376.873	519.225	0.194	-0.453
-375.858	676.372	0.056	-0.145
-374.844	800.000	0.056	-0.224
-373.829	-53.249	-0.133	0.061
-372.815	323.097	0.026	0.049
-371.800	-28.061	0.325	0.187
-370.785	22.008	-0.104	0.084
-369.771	582.303	-0.069	-0.169
-368.756	-200.000	0.035	-0.334
-367.742	563.278	0.050	0.121
-366.727	-95.948	0.257	0.068
-365.712	-118.257	-0.286	0.051
-364.698	-34.975	-0.133	0.072
-363.683	405.865	-0.018	0.037
-362.669	-76.302	0.325	-0.114
-361.654	-49.893	-0.119	-0.056
-360.639	-200.000	0.042	0.372
-359.625	24.756	-0.075	-0.062
-358.610	800.000	0.097	0.382
-357.596	65.961	0.138	-0.139
-356.581	406.625	-0.078	0.164
-355.566	-115.547	0.063	0.012
-354.552	-200.000	-0.044	0.268
-353.537	-34.911	-0.381	-0.207
-352.523	-200.000	-0.016	0.178
-351.508	-71.796	0.268	-0.099
-350.493	-99.827	-0.146	-0.036
-349.479	241.041	0.050	0.082
-348.464	106.059	0.121	-0.143
-347.450	-139.421	0.318	0.034
-346.435	317.981	-0.113	0.212
-345.420	-200.000	0.012	0.103
-344.406	-98.250	-0.240	-0.061
-343.391	-10.793	0.026	0.017
-342.377	-69.928	0.088	0.033
-341.362	255.073	0.143	0.242
-340.348	328.317	-0.097	-0.185
-339.333	-95.260	-0.097	0.026
-338.318	134.043	0.128	-0.165
-337.304	93.741	-0.152	0.172
-336.289	-200.000	-0.018	0.167
-335.275	-13.158	0.213	-0.138
-334.260	102.162	-0.147	-0.170
-333.245	800.000	0.073	0.208
-332.231	-44.043	-0.364	0.182
-331.216	-200.000	-0.003	-0.015
-330.202	26.837	-0.221	-0.183
-329.187	408.683	0.005	-0.010
-328.172	-107.770	0.134	-0.029
-327.158	-76.176	0.162	-0.057
-326.143	800.000	-0.060	0.203
-325.129	52.391	0.195	-0.185
-324.114	684.137	0.058	-0.151
-323.099	-142.422	0.077	0.008
-322.085	47.042	-0.072	0.066
-321.070	-128.007	0.132	0.019
-320.056	146.766	-0.071	0.094
-319.041	269.984	-0.139	-0.242
-318.026	459.835	-0.116	0.257
-317.012	111.848	0.080	0.096
-315.997	-50.575	0.026	0.012
-314.983	-200.000	-0.020	0.219
-313.968	-200.000	-0.008	-0.089
-312.953	-158.593	0.321	0.018
-311.939	258.958	-0.005	0.009
-310.924	160.807	0.150	-0.207
-309.910	416.544	-0.094	0.199
-308.895	48.009	-0.149	0.138
-307.880	-50.706	0.419	-0.196
-306.866	34.805	-0.146	0.127
-305.851	-93.107	0.160	-0.044
-304.837	-122.559	0.191	0.031
-303.822	16.677	0.261	0.204
-302.807	-108.316	0.194	-0.041
-301.793	-130.663	0.199	0.027
-300.778	140.057	0.031	0.041
-299.764	108.003	-0.213	-0.252
-298.749	147.175	0.231	-0.308
-297.735	-25.682	0.238	0.139
-296.720	0.035	0.076	-0.054
-295.705	-1.761	-0.080	-0.055
-294.691	-200.000	-0.048	-0.222
-293.676	-200.000	0.025	-0.177
-292.662	800.000	0.017	-0.055
-291.647	-200.000	-0.038	-0.214
-290.632	-101.143	0.259	0.063
-289.618	286.191	0.107	0.191
-288.603	-112.906	-0.184	-0.036
-287.589	-161.623	0.140	0.007
-286.574	-200.000	-0.019	0.240
-285.559	311.276	0.082	-0.153
-284.545	-59.620	0.243	-0.103
-283.530	-128.309	0.309	-0.044
-282.516	-52.402	0.158	-0.072
-281.501	-98.667	0.093	0.023
-280.486	-139.278	-0.343	-0.037
-279.472	28.106	0.123	-0.103
-278.457	800.000	0.138	0.484
-277.443	-133.105	0.132	-0.017
-276.428	-116.167	-0.196	-0.036
-275.413	27.023	0.132	0.109
-274.399	-137.418	-0.280	-0.031
-273.384	-200.000	0.010	0.323
-272.370	-152.435	-0.178	0.013
-271.355	-27.910	-0.399	-0.229
-270.340	-200.000	0.032	-0.211
-269.326	-26.701	-0.184	0.106
-268.311	249.442	-0.162	-0.273
-267.297	-12.723	0.253	0.163
-266.282	800.000	-0.132	0.450
-265.267	426.576	0.101	-0.216
-264.253	-1.970	-0.180	-0.126
-263.238	-120.929	-0.142	0.024
-262.224	183.484	-0.187	-0.273
-261.209	-113.649	0.152	0.029
-260.195	-36.947	0.155	0.082
-259.180	80.875	0.094	-0.101
-258.165	642.266	0.063	0.159
-257.151	-191.718	0.047	-0.000
-256.136	-129.665	-0.016	0.002
-255.122	-144.865	0.244	-0.022
-254.107	-106.585	-0.212	0.047
-253.092	46.920	0.126	-0.116
-252.078	180.460	-0.149	-0.217
-251.063	-27.604	-0.010	-0.006
-250.049	117.306	-0.169	-0.206
-249.034	-200.000	-0.014	-0.387
-248.019	293.349	0.164	-0.296
-247.005	-93.726	0.291	-0.079
-245.990	-200.000	-0.003	0.359
-244.976	-77.392	-0.298	-0.102
-243.961	-83.174	-0.072	0.023
-242.946	6.428	-0.125	0.092
-241.932	-200.000	-0.020	0.146
-240.917	-1.477	0.124	0.086
-239.903	-200.000	0.050	0.296
-238.888	-20.159	0.229	0.140
-237.873	-200.000	-0.021	0.237
-236.859	-124.598	-0.029	-0.004
-235.844	-52.602	0.164	0.075
-234.830	-131.658	0.089	-0.012
-233.815	391.954	0.090	-0.185
-232.800	82.135	-0.062	-0.066
-231.786	40.025	0.250	-0.222
-230.771	-200.000	-0.041	0.212
-229.757	-52.491	-0.232	0.106
-228.742	800.000	-0.040	0.141
-227.727	-200.000	-0.011	0.209
-226.713	481.943	0.069	-0.155
-225.698	-200.000	-0.017	-0.228
-224.684	-70.371	-0.145	0.054
-223.669	444.690	-0.181	-0.393
-222.655	184.348	-0.058	0.086
-221.640	-89.792	0.082	-0.024
-220.625	-5.026	0.240	-0.163
-219.611	-200.000	0.055	0.335
-218.596	-200.000	0.003	0.028
-217.582	450.868	0.029	0.063
-216.567	800.000	-0.093	0.258
-215.552	-115.503	0.231	0.043
-214.538	-8.718	-0.262	0.174
-213.523	-113.246	0.373	-0.073
-212.509	218.119	0.166	0.261
-211.494	23.656	0.167	0.136
-210.479	469.897	-0.094	0.209
-209.465	11.301	0.220	-0.167
-208.450	-78.645	-0.262	0.088
-207.436	41.733	0.052	-0.046
-206.421	-18.427	-0.086	0.053
-205.406	-200.000	0.023	0.293
-204.392	-200.000	-0.065	-0.375
-203.377	-36.529	0.179	0.095
-202.363	-39.885	-0.090	-0.047
-201.348	-51.271	-0.302	-0.140
-200.333	-200.000	0.009	-0.076
-199.319	36.941	0.262	-0.229
-198.304	-200.000	0.033	0.482
-197.290	239.576	0.102	-0.168
-196.275	159.185	-0.186	-0.256
-195.260	800.000	-0.045	0.137
-194.246	-66.005	-0.065	-0.026
-193.231	-200.000	0.048	0.316
-192.217	-189.421	-0.040	-0.000
-191.202	-73.627	-0.092	-0.033
-190.187	-53.765	-0.255	0.115
-189.173	-125.578	-0.285	0.043
-188.158	-70.291	0.080	-0.030
-187.144	-94.257	0.305	0.082
-186.129	31.442	0.117	0.100
-185.114	-88.118	0.380	-0.112
-184.100	-35.290	0.137	-0.073
-183.085	22.158	0.206	0.166
-182.071	-134.003	-0.448	0.055
-181.056	-71.601	-0.074	0.027
-180.042	-200.000	-0.010	0.240
-179.027	-59.577	0.237	0.101
-178.012	466.590	-0.129	-0.286
-176.998	182.629	-0.238	0.347
-175.983	-200.000	-0.026	0.215
-174.969	73.156	-0.288	-0.297
-173.954	-6.772	0.082	-0.055
-172.939	-200.000	-0.010	-0.140
-171.925	77.779	-0.055	0.058
-170.910	7.635	-0.052	0.039
-169.896	83.561	-0.102	-0.110
-168.881	-47.139	-0.079	-0.038
-167.866	-200.000	0.035	0.243
-166.852	108.067	-0.146	0.172
-165.837	389.665	-0.073	0.150
-164.823	0.532	0.266	0.188
-163.808	-67.546	0.410	-0.159
-162.793	800.000	0.061	0.245
-161.779	800.000	0.047	-0.138
-160.764	118.608	-0.230	0.280
-159.750	196.146	0.020	-0.030
-158.735	-89.173	0.179	0.052
-157.720	-39.987	0.185	0.095
-156.706	800.000	0.016	0.055
-155.691	-5.842	-0.081	0.055
-154.677	-136.667	-0.312	-0.036
-153.662	800.000	-0.037	-0.134
-152.647	-101.818	-0.219	0.052
-151.633	800.000	-0.038	-0.118
-150.618	-81.945	0.397	0.128
-149.604	-15.626	-0.223	-0.140
-148.589	800.000	-0.128	0.486
-147.574	264.775	-0.074	0.128
-146.560	376.318	-0.240	0.483
-145.545	525.330	0.071	-0.165
-144.531	-139.079	-0.219	-0.023
-143.516	-39.185	0.195	0.101
-142.502	-62.448	-0.043	-0.018
-141.487	-31.195	0.232	0.129
-140.472	-67.728	-0.344	-0.133
-139.458	719.802	-0.151	0.395
-138.443	-59.540	0.182	0.077
-137.429	-173.250	0.241	0.007
-136.414	-107.820	0.259	-0.056
-135.399	146.178	0.042	-0.055
-134.385	800.000	-0.034	0.098
-133.370	-82.549	0.099	-0.032
-132.356	800.000	-0.047	-0.150
-131.341	634.749	0.063	0.158
-130.326	-200.000	-0.021	0.105
-129.312	-23.763	-0.408	-0.241
-128.297	-133.594	0.204	0.025
-127.283	-7.396	-0.115	0.077
-126.268	-70.583	-0.258	-0.096
-125.253	14.543	-0.101	0.078
-124.239	800.000	0.015	-0.064
-123.224	379.670	0.085	-0.172
-122.210	-14.634	0.165	-0.104
-121.195	-71.671	-0.117	-0.043
