DTS Sentinel unit serial number:	SN413079Multiplexer serial number:	ORYXHardware model number:	OX4-SRSoftware version number:	ORYX F/W v4.00 Oryx Data Collector v3.7.2.0data status	okinstallation	princeton_trtdifferential loss correction	single-endedforward channel	channel 1reverse channel	N/Adate	2019/09/18time	21:46:35forward acquisition time	60.00reverse acquisition time	0.00gamma	496.2192k internal	0.2341k external	0.2341temperature offset calibration	1.0018default loss term (dB/km)	0.3790temperature slope calibration	1.0000multiplexer offset coefficient	1.0000multiplexer slope coefficient	1.0000fibre end	0.00T internal ref (°C)	24.84T ext. ref 1 (°C)	0.81T ext. ref 2 (°C)	18.26length (m)	temperature (°C)	Stokes	anti-Stokes-747.200	99.509	-0.115	0.134
-746.185	132.399	-0.207	0.267
-745.171	14.100	-0.127	0.099
-744.156	-54.494	-0.286	-0.130
-743.142	114.062	-0.172	-0.209
-742.127	-114.162	-0.287	0.056
-741.112	-40.477	0.252	0.131
-740.098	-135.402	0.225	-0.027
-739.083	-140.724	-0.225	0.023
-738.069	521.832	0.140	-0.330
-737.054	-21.742	-0.022	0.014
-736.039	-200.000	-0.020	-0.270
-735.025	-65.247	0.146	0.059
-734.010	-200.000	0.050	-0.326
-732.996	-36.041	0.222	-0.120
-731.981	8.316	-0.189	0.142
-730.966	142.371	0.274	-0.365
-729.952	-86.771	-0.080	-0.025
-728.937	220.695	-0.043	-0.069
-727.923	-33.449	0.215	-0.119
-726.908	-136.617	0.119	-0.014
-725.894	-200.000	-0.035	-0.325
-724.879	-200.000	0.021	-0.167
-723.864	-4.235	-0.037	-0.026
-722.850	88.896	-0.129	0.144
-721.835	16.341	-0.029	-0.023
-720.821	-109.885	0.162	-0.034
-719.806	48.978	-0.091	0.085
-718.791	-43.055	-0.137	0.070
-717.777	687.883	0.081	0.213
-716.762	-200.000	-0.002	-0.229
-715.748	-34.958	-0.335	-0.183
-714.733	40.994	-0.051	-0.046
-713.718	800.000	0.035	-0.150
-712.704	-200.000	-0.007	-0.055
-711.689	800.000	0.105	-0.294
-710.675	-143.569	-0.411	0.039
-709.660	800.000	0.158	-0.451
-708.645	-63.386	0.185	0.076
-707.631	-179.047	0.167	0.004
-706.616	-89.941	0.188	-0.055
-705.602	55.044	-0.086	-0.083
-704.587	330.678	-0.078	0.151
-703.572	-200.000	0.013	0.131
-702.558	-200.000	0.012	-0.127
-701.543	-69.247	-0.204	0.078
-700.529	800.000	0.009	0.031
-699.514	11.123	-0.188	0.144
-698.499	-108.302	0.110	0.024
-697.485	-66.513	-0.123	0.049
-696.470	-120.078	-0.144	0.025
-695.456	-90.786	-0.061	-0.017
-694.441	-61.441	0.320	0.135
-693.426	-200.000	0.016	-0.346
-692.412	-143.149	-0.105	-0.010
-691.397	341.141	0.014	-0.027
-690.383	325.395	-0.051	-0.097
-689.368	178.475	-0.143	0.208
-688.354	-18.616	-0.030	-0.019
-687.339	-153.069	0.082	-0.006
-686.324	800.000	-0.103	-0.381
-685.310	-200.000	0.059	0.521
-684.295	49.296	0.180	0.169
-683.281	800.000	-0.044	-0.124
-682.266	38.372	0.145	0.129
-681.251	-153.416	-0.121	-0.008
-680.237	-200.000	-0.001	-0.023
-679.222	800.000	-0.087	-0.241
-678.208	-88.540	0.039	-0.012
-677.193	-116.068	-0.389	-0.072
-676.178	108.521	-0.241	0.288
-675.164	186.547	-0.176	-0.262
-674.149	-63.534	-0.153	0.063
-673.135	451.546	-0.085	-0.187
-672.120	-134.639	-0.468	0.057
-671.105	43.025	0.118	-0.107
-670.091	800.000	-0.047	0.159
-669.076	624.982	-0.066	-0.166
-668.062	800.000	0.074	0.284
-667.047	-200.000	0.043	-0.236
-666.032	-85.990	-0.178	0.055
-665.018	-145.465	-0.166	0.015
-664.003	-139.171	0.274	-0.030
-662.989	244.514	0.081	0.135
-661.974	449.430	-0.035	-0.078
-660.959	426.360	0.088	0.188
-659.945	37.384	0.129	0.114
-658.930	253.817	-0.117	-0.200
-657.916	179.654	-0.239	-0.350
-656.901	33.779	0.150	-0.130
-655.886	-200.000	-0.003	0.424
-654.872	-19.196	-0.106	0.066
-653.857	-200.000	0.053	-0.265
-652.843	11.342	-0.185	0.142
-651.828	-171.426	-0.143	-0.005
-650.814	9.461	0.149	0.112
-649.799	800.000	-0.099	0.381
-648.784	-32.764	0.177	0.098
-647.770	-81.132	-0.077	0.025
-646.755	293.363	-0.098	0.178
-645.741	12.246	-0.337	-0.259
-644.726	280.428	-0.105	0.188
-643.711	-149.649	0.343	-0.027
-642.697	-29.516	0.349	0.199
-641.682	-200.000	-0.003	-0.142
-640.668	-41.976	0.121	-0.062
-639.653	-12.314	0.137	-0.089
-638.638	-28.182	0.294	-0.169
-637.624	64.286	0.084	-0.085
-636.609	800.000	-0.087	-0.310
-635.595	-140.316	0.185	0.019
-634.580	800.000	-0.020	0.081
-633.565	159.460	-0.230	0.319
-632.551	800.000	-0.043	-0.150
-631.536	-58.694	0.218	-0.094
-630.522	-130.230	-0.205	0.028
-629.507	56.975	0.159	0.154
-628.492	-200.000	0.002	-0.412
-627.478	-200.000	0.010	-0.171
-626.463	-200.000	-0.011	-0.165
-625.449	-105.537	0.173	0.039
-624.434	734.558	-0.013	0.034
-623.419	-200.000	0.029	0.229
-622.405	-198.604	-0.273	0.002
-621.390	5.939	0.221	0.163
-620.376	-38.133	0.229	0.121
-619.361	-85.301	-0.076	-0.024
-618.346	-79.102	0.367	-0.124
-617.332	-99.920	0.335	0.083
-616.317	48.526	-0.267	-0.249
-615.303	-22.698	0.143	0.086
-614.288	-200.000	0.001	-0.213
-613.273	-68.976	-0.076	0.029
-612.259	125.252	-0.230	0.290
-611.244	-99.180	-0.119	0.030
-610.230	109.088	0.043	-0.051
-609.215	-19.171	0.262	-0.162
-608.201	-200.000	-0.034	-0.254
-607.186	-4.528	-0.238	0.164
-606.171	-138.850	0.089	0.010
-605.157	-81.087	-0.027	-0.009
-604.142	800.000	-0.043	0.182
-603.128	-35.327	0.104	0.057
-602.113	429.223	0.123	-0.264
-601.098	-143.199	-0.402	0.039
-600.084	142.362	0.098	0.129
-599.069	-200.000	0.010	-0.175
-598.055	800.000	0.028	-0.119
-597.040	466.534	0.100	-0.223
-596.025	332.765	-0.110	0.211
-595.011	297.056	-0.170	-0.311
-593.996	67.652	-0.106	-0.108
-592.982	-200.000	-0.003	-0.044
-591.967	-95.168	0.096	0.026
-590.952	-124.062	-0.448	-0.070
-589.938	-200.000	0.099	-0.000
-588.923	-123.084	0.265	0.042
-587.909	-58.255	-0.027	0.012
-586.894	54.662	0.190	0.182
-585.879	800.000	-0.037	0.149
-584.865	-31.951	0.042	-0.024
-583.850	-24.116	0.197	-0.117
-582.836	-168.033	0.106	0.004
-581.821	303.795	-0.091	-0.168
-580.806	53.143	-0.111	0.106
-579.792	197.341	-0.092	-0.140
-578.777	-82.292	0.462	-0.150
-577.763	-74.091	-0.221	-0.080
-576.748	144.736	0.127	0.169
-575.733	-93.653	-0.241	0.066
-574.719	-62.029	-0.138	-0.058
-573.704	800.000	-0.090	0.308
-572.690	673.998	0.010	0.026
-571.675	407.726	-0.089	-0.188
-570.661	-92.670	0.255	0.071
-569.646	-18.365	0.211	-0.131
-568.631	259.216	-0.156	-0.268
-567.617	-146.653	-0.193	0.017
-566.602	124.882	0.053	0.067
-565.588	-30.183	0.122	-0.069
-564.573	76.377	0.274	0.289
-563.558	-200.000	0.028	-0.247
-562.544	-61.581	0.282	0.118
-561.529	-33.571	0.046	0.025
-560.515	800.000	-0.022	0.066
-559.500	-15.011	0.543	-0.346
-558.485	75.641	0.189	-0.198
-557.471	-30.518	0.273	-0.154
-556.456	126.749	-0.145	-0.182
-555.442	396.039	-0.063	-0.132
-554.427	120.484	-0.028	-0.035
-553.412	82.514	-0.079	0.085
-552.398	179.477	-0.184	-0.268
-551.383	-85.990	0.134	-0.041
-550.369	-121.058	-0.357	-0.060
-549.354	-151.049	-0.174	-0.013
-548.339	-97.039	-0.410	-0.107
-547.325	57.471	-0.188	-0.183
-546.310	-61.098	0.389	0.163
-545.296	-200.000	0.044	0.336
-544.281	371.408	0.042	0.084
-543.266	-200.000	-0.026	-0.215
-542.252	-81.794	0.117	-0.038
-541.237	425.859	-0.123	0.263
-540.223	-166.799	0.395	-0.016
-539.208	-174.083	0.088	0.003
-538.193	-200.000	-0.029	-0.282
-537.179	211.026	-0.240	-0.375
-536.164	15.813	0.198	0.155
-535.150	652.865	0.110	0.279
-534.135	-200.000	0.009	0.286
-533.121	41.885	-0.379	-0.342
-532.106	-200.000	0.014	-0.128
-531.091	13.650	-0.055	0.042
-530.077	-99.669	-0.167	0.042
-529.062	-17.846	0.138	-0.086
-528.048	-81.788	-0.115	-0.038
-527.033	-141.207	-0.273	-0.028
-526.018	119.532	0.234	-0.287
-525.004	-68.503	0.096	-0.037
-523.989	2.094	-0.260	0.186
-522.975	656.085	0.089	-0.227
-521.960	-144.036	-0.118	-0.011
-520.945	219.084	-0.187	-0.298
-519.931	19.298	0.308	-0.246
-518.916	579.287	0.116	0.281
-517.902	-48.822	-0.240	-0.114
-516.887	368.024	-0.118	-0.237
-515.872	-77.103	0.050	0.017
-514.858	800.000	0.032	-0.100
-513.843	666.573	0.103	-0.264
-512.829	-200.000	-0.014	-0.262
-511.814	-122.624	-0.186	-0.030
-510.799	238.200	-0.091	0.149
-509.785	-155.354	0.262	0.017
-508.770	-200.000	-0.014	0.414
-507.756	33.670	-0.231	-0.200
-506.741	-200.000	-0.084	0.435
-505.726	-200.000	0.008	-0.050
-504.712	204.677	0.085	0.131
-503.697	96.294	0.111	-0.127
-502.683	76.022	-0.067	-0.070
-501.668	-27.607	-0.283	-0.163
-500.653	-200.000	0.013	0.195
-499.639	-81.701	0.096	-0.031
-498.624	-200.000	-0.005	-0.195
-497.610	116.641	-0.137	0.166
-496.595	-57.638	0.133	-0.058
-495.581	92.211	-0.141	0.158
-494.566	-174.225	0.259	0.007
-493.551	-200.000	0.033	-0.182
-492.537	800.000	-0.071	0.287
-491.522	-116.443	-0.207	-0.038
-490.508	27.999	0.220	0.184
-489.493	-200.000	0.034	0.207
-488.478	172.853	-0.217	-0.310
-487.464	2.070	-0.345	-0.247
-486.449	-200.000	0.003	-0.389
-485.435	-64.506	-0.309	0.125
-484.420	-200.000	-0.035	0.322
-483.405	128.196	-0.234	0.295
-482.391	-128.445	0.303	-0.043
-481.376	181.431	0.222	-0.323
-480.362	-200.000	-0.018	0.211
-479.347	325.185	-0.060	-0.113
-478.332	-55.936	-0.092	0.041
-477.318	-153.743	-0.166	-0.011
-476.303	83.265	0.159	-0.172
-475.289	447.968	-0.179	-0.390
-474.274	-200.000	-0.007	-0.074
-473.259	711.724	-0.059	0.156
-472.245	102.577	0.018	-0.021
-471.230	-140.114	-0.012	-0.001
-470.216	204.408	0.070	0.107
-469.201	201.663	-0.269	0.411
-468.186	-200.000	0.030	-0.204
-467.172	279.342	0.128	-0.227
-466.157	-200.000	0.077	-0.393
-465.143	-6.147	0.323	0.219
-464.128	-61.750	-0.082	-0.034
-463.113	-200.000	0.001	0.142
-462.099	483.722	-0.049	-0.110
-461.084	-91.264	-0.154	0.044
-460.070	-91.535	0.191	-0.054
-459.055	-200.000	-0.021	0.187
-458.040	-58.717	0.300	0.129
-457.026	-25.953	0.210	-0.123
-456.011	-200.000	0.000	0.109
-454.997	308.397	0.123	0.228
-453.982	-40.542	0.207	0.106
-452.968	-68.398	0.064	0.024
-451.953	-200.000	-0.012	-0.269
-450.938	800.000	0.077	-0.233
-449.924	-21.541	-0.173	-0.104
-448.909	-18.397	-0.239	-0.148
-447.895	322.886	-0.071	0.134
-446.880	249.616	-0.078	0.131
-445.865	800.000	-0.067	0.262
-444.851	800.000	0.065	0.233
-443.836	-200.000	-0.011	0.182
-442.822	-186.422	-0.269	0.004
-441.807	305.670	0.101	0.185
-440.792	441.739	0.130	0.282
-439.778	-200.000	-0.050	0.222
-438.763	-200.000	0.004	-0.142
-437.749	29.531	0.226	-0.190
-436.734	96.165	0.020	-0.023
-435.719	-4.599	-0.384	0.263
-434.705	31.158	0.160	-0.136
-433.690	800.000	0.057	-0.176
-432.676	-51.859	-0.398	-0.184
-431.661	70.217	0.163	-0.167
-430.646	-200.000	0.019	-0.258
-429.632	-200.000	-0.008	-0.092
-428.617	-200.000	-0.022	0.102
-427.603	800.000	-0.076	-0.235
-426.588	-25.552	0.087	-0.051
-425.573	183.471	0.120	0.176
-424.559	499.765	-0.128	0.293
-423.544	-200.000	0.002	-0.066
-422.530	198.863	0.029	-0.044
-421.515	208.956	0.058	0.091
-420.500	408.083	-0.155	-0.325
-419.486	796.705	0.051	-0.140
-418.471	-49.409	0.123	0.058
-417.457	108.468	0.109	-0.129
-416.442	549.230	-0.106	0.251
-415.428	800.000	-0.049	0.146
-414.413	14.722	-0.082	0.064
-413.398	-200.000	-0.081	-0.399
-412.384	116.262	-0.106	0.128
-411.369	800.000	-0.087	-0.247
-410.355	310.870	-0.176	0.326
-409.340	124.216	0.237	0.294
-408.325	800.000	-0.035	0.110
-407.311	417.524	-0.095	0.201
-406.296	469.834	-0.021	-0.048
-405.282	-112.689	0.146	0.029
-404.267	-101.632	0.060	0.015
-403.252	-200.000	-0.061	0.397
-402.238	-22.471	-0.109	0.065
-401.223	4.995	0.215	-0.156
-400.209	800.000	-0.097	0.335
-399.194	3.908	0.106	0.077
-398.179	-34.949	0.303	-0.163
-397.165	-113.640	0.105	-0.020
-396.150	-200.000	0.016	0.104
-395.136	-200.000	-0.043	-0.352
-394.121	800.000	-0.063	-0.182
-393.106	-200.000	0.019	0.185
-392.092	258.851	-0.124	0.211
-391.077	8.971	-0.087	0.065
-390.063	3.135	-0.077	0.056
-389.048	-151.804	0.108	-0.008
-388.033	49.105	-0.125	-0.116
-387.019	5.036	0.126	0.092
-386.004	-61.437	-0.312	0.130
-384.990	105.137	0.351	-0.410
-383.975	-110.505	-0.149	-0.031
-382.960	-69.827	0.115	-0.043
-381.946	188.440	-0.182	-0.269
-380.931	-59.543	-0.111	-0.047
-379.917	-30.906	-0.234	0.130
-378.902	625.265	0.024	-0.060
-377.888	-142.786	-0.131	0.013
-376.873	681.088	0.075	0.192
-375.858	596.854	-0.034	-0.083
-374.844	800.000	-0.072	-0.201
-373.829	-2.694	0.113	-0.078
-372.815	800.000	0.039	-0.110
-371.800	800.000	0.062	0.256
-370.785	-116.478	-0.315	-0.057
-369.771	264.725	-0.149	0.256
-368.756	800.000	0.055	0.196
-367.742	-27.257	-0.125	0.072
-366.727	-64.347	-0.152	-0.061
-365.712	543.297	-0.091	-0.215
-364.698	800.000	-0.085	0.331
-363.683	294.780	0.126	-0.227
-362.669	-200.000	0.021	-0.271
-361.654	-161.631	-0.141	-0.007
-360.639	-34.149	0.168	-0.091
-359.625	-200.000	-0.002	-0.157
-358.610	-107.497	-0.223	-0.048
-357.596	-177.213	0.023	0.001
-356.581	-100.725	-0.063	-0.015
-355.566	633.675	0.120	0.301
-354.552	381.930	-0.150	-0.303
-353.537	5.750	0.171	0.125
-352.523	-116.335	0.302	0.055
-351.508	448.313	0.111	0.241
-350.493	199.316	-0.108	-0.163
-349.479	-161.316	0.289	0.015
-348.464	26.747	0.134	-0.110
-347.450	800.000	-0.034	-0.120
-346.435	-0.390	0.264	0.185
-345.420	-11.636	-0.168	0.109
-344.406	142.999	0.198	0.260
-343.391	-200.000	0.041	-0.280
-342.377	236.907	-0.279	0.455
-341.362	315.259	-0.143	0.266
-340.348	46.228	-0.132	-0.120
-339.333	40.023	-0.176	-0.156
-338.318	-200.000	-0.013	-0.179
-337.304	-200.000	0.022	-0.280
-336.289	245.219	0.171	-0.284
-335.275	800.000	0.046	-0.168
-334.260	-200.000	-0.047	0.218
-333.245	-16.409	0.225	-0.140
-332.231	607.237	0.063	-0.155
-331.216	30.354	-0.362	-0.305
-330.202	93.343	-0.067	0.075
-329.187	800.000	0.064	0.237
-328.172	800.000	0.032	0.101
-327.158	384.857	-0.119	0.241
-326.143	-123.325	0.193	0.030
-325.129	-48.296	0.063	-0.030
-324.114	-60.218	-0.236	0.099
-323.099	-73.893	0.154	0.055
-322.085	-88.415	-0.296	0.087
-321.070	-200.000	0.059	-0.333
-320.056	-52.110	-0.182	0.083
-319.041	47.150	-0.136	0.125
-318.026	800.000	0.032	0.113
-317.012	-200.000	-0.008	-0.145
-315.997	-200.000	-0.004	-0.136
-314.983	-200.000	-0.040	-0.185
-313.968	800.000	0.061	-0.203
-312.953	-165.117	0.327	-0.014
-311.939	800.000	-0.073	-0.280
-310.924	178.583	-0.100	0.144
-309.910	225.843	-0.167	0.267
-308.895	-97.313	-0.258	-0.066
-307.880	283.436	-0.116	0.206
-306.866	-3.547	0.098	-0.067
-305.851	-200.000	-0.078	-0.421
-304.837	-138.324	-0.157	-0.017
-303.822	196.274	0.071	0.107
-302.807	-48.576	-0.043	-0.020
-301.793	-110.917	-0.061	-0.012
-300.778	265.825	-0.028	-0.049
-299.764	325.149	0.057	-0.108
-298.749	-22.072	0.091	0.054
-297.735	-53.551	-0.089	0.040
-296.720	-153.745	0.292	-0.020
-295.705	-95.007	-0.207	0.055
-294.691	213.400	-0.094	-0.146
-293.676	37.510	-0.188	-0.164
-292.662	95.894	0.142	0.160
-291.647	200.821	-0.138	-0.209
-290.632	-69.174	-0.144	-0.054
-289.618	-200.000	-0.025	0.147
-288.603	-39.288	-0.229	-0.118
-287.589	69.078	-0.294	0.298
-286.574	-100.442	0.453	0.110
-285.559	171.710	-0.216	0.305
-284.545	160.281	-0.072	0.099
-283.530	50.843	0.110	-0.103
-282.516	-173.121	0.087	0.003
-281.501	-85.398	0.164	0.050
-280.486	-200.000	-0.022	0.101
-279.472	-115.286	0.357	0.066
-278.457	142.239	0.199	-0.260
-277.443	129.727	0.154	-0.194
-276.428	-56.399	0.208	0.091
-275.413	-200.000	0.021	0.149
-274.399	30.301	-0.083	0.070
-273.384	43.678	0.097	-0.087
-272.370	-25.165	-0.192	-0.112
-271.355	-28.628	-0.148	0.084
-270.340	-200.000	-0.002	-0.244
-269.326	-40.939	-0.063	-0.032
-268.311	146.701	0.079	0.104
-267.297	-128.195	0.260	0.037
-266.282	800.000	-0.037	0.155
-265.267	800.000	-0.046	-0.179
-264.253	-8.477	0.184	-0.122
-263.238	-53.978	-0.069	0.031
-262.224	546.290	-0.053	0.125
-261.209	69.172	-0.391	0.396
-260.195	-167.795	0.329	-0.013
-259.180	800.000	0.119	-0.346
-258.165	-29.337	-0.291	-0.164
-257.151	800.000	-0.138	0.396
-256.136	-111.477	-0.131	0.026
-255.122	-68.705	0.179	-0.068
-254.107	143.809	0.112	-0.147
-253.092	53.367	-0.300	0.283
-252.078	-104.377	0.131	0.030
-251.063	-93.042	-0.098	0.027
-250.049	4.143	-0.234	-0.168
-249.034	-145.297	-0.180	-0.016
-248.019	25.321	-0.046	-0.037
-247.005	776.322	-0.098	-0.264
-245.990	-200.000	0.037	-0.186
-244.976	192.501	0.189	0.281
-243.961	131.035	-0.193	0.244
-242.946	-118.015	0.052	0.009
-241.932	-200.000	0.060	0.350
-240.917	1.105	0.242	0.171
-239.903	0.517	0.130	0.091
-238.888	-200.000	0.034	-0.232
-237.873	-109.367	0.293	-0.061
-236.859	-200.000	-0.052	-0.267
-235.844	-169.542	0.140	0.005
-234.830	-50.794	-0.080	-0.037
-233.815	-13.668	0.161	-0.102
-232.800	-41.636	-0.217	0.110
-231.786	378.924	-0.093	0.187
-230.771	118.096	-0.142	0.172
-229.757	138.320	0.087	-0.112
-228.742	800.000	0.036	-0.128
-227.727	-19.543	0.144	-0.088
-226.713	14.608	-0.205	0.157
-225.698	-200.000	-0.011	-0.250
-224.684	800.000	0.085	0.273
-223.669	-152.386	0.222	0.016
-222.655	383.876	0.101	-0.204
-221.640	-137.772	0.306	-0.034
-220.625	119.180	-0.153	-0.186
-219.611	800.000	0.037	0.104
-218.596	540.134	-0.029	0.068
-217.582	46.068	0.271	0.246
-216.567	15.043	0.044	0.034
-215.552	-43.460	0.352	0.174
-214.538	137.609	-0.211	-0.271
-213.523	-200.000	-0.005	0.071
-212.509	-98.308	0.142	-0.036
-211.494	800.000	0.070	0.274
-210.479	88.354	-0.195	0.213
-209.465	-45.271	-0.250	0.122
-208.450	-68.914	0.220	0.083
-207.436	-154.607	-0.342	0.022
-206.421	-200.000	0.024	0.145
-205.406	93.378	-0.199	0.221
-204.392	267.562	-0.057	-0.098
-203.377	280.678	0.012	-0.021
-202.363	-12.776	0.170	-0.108
-201.348	19.647	-0.191	-0.151
-200.333	-162.039	-0.407	-0.020
-199.319	160.181	0.180	-0.246
-198.304	424.914	0.057	-0.120
-197.290	-78.862	0.109	0.036
-196.275	800.000	-0.068	0.197
-195.260	684.840	-0.057	0.145
-194.246	-117.371	-0.208	-0.037
-193.231	56.164	0.019	-0.019
-192.217	463.447	0.079	0.173
-191.202	-200.000	0.045	0.297
-190.187	-200.000	0.054	0.274
-189.173	56.241	-0.130	0.124
-188.158	473.580	0.204	0.451
-187.144	72.113	0.091	-0.093
-186.129	36.766	0.073	-0.063
-185.114	-45.222	0.058	-0.028
-184.100	13.594	-0.204	0.155
-183.085	230.005	-0.145	-0.232
-182.071	-34.043	0.088	0.048
-181.056	238.904	0.049	0.080
-180.042	-92.546	0.280	-0.077
-179.027	-200.000	-0.005	-0.082
-178.012	800.000	-0.072	0.225
-176.998	59.879	0.026	0.025
-175.983	387.596	0.153	0.310
-174.969	-86.836	0.099	0.030
-173.954	-200.000	0.012	0.266
-172.939	800.000	-0.099	0.295
-171.925	-10.419	0.130	-0.084
-170.910	-111.467	-0.152	-0.030
-169.896	231.079	-0.154	-0.247
-168.881	27.096	0.313	0.258
-167.866	-200.000	0.043	0.189
-166.852	-82.962	0.278	-0.088
-165.837	24.748	-0.241	0.196
-164.823	-200.000	0.026	-0.174
-163.808	-45.655	-0.167	-0.081
-162.793	272.825	-0.078	-0.136
-161.779	263.628	0.111	0.188
-160.764	42.804	-0.142	-0.127
-159.750	-64.181	0.506	0.202
-158.735	-2.982	0.083	-0.057
-157.720	-85.905	0.115	0.035
-156.706	474.527	-0.107	-0.236
-155.691	-101.601	-0.090	-0.021
-154.677	-148.744	0.196	-0.016
-153.662	68.180	0.131	0.131
-152.647	46.296	-0.312	0.284
-151.633	-110.283	-0.165	-0.034
-150.618	-48.410	0.266	0.125
-149.604	-181.520	-0.254	-0.005
-148.589	-200.000	0.014	0.246
-147.574	-39.904	-0.056	-0.029
-146.560	449.065	0.061	0.132
-145.545	-22.198	-0.213	-0.126
-144.531	-35.809	0.060	0.032
-143.516	415.971	0.086	-0.179
-142.502	-200.000	0.027	-0.350
-141.487	295.826	-0.111	-0.198
-140.472	-200.000	-0.067	-0.374
-139.458	-25.973	-0.230	0.133
-138.443	433.358	0.064	0.137
-137.429	67.068	0.199	0.198
-136.414	181.475	0.113	-0.162
-135.399	-200.000	0.048	0.220
-134.385	-25.751	0.304	-0.175
-133.370	800.000	-0.072	-0.265
-132.356	-62.475	-0.263	0.107
-131.341	-120.338	-0.109	0.018
-130.326	36.904	-0.118	0.102
-129.312	-200.000	0.045	-0.193
-128.297	-34.300	-0.106	-0.057
-127.283	-46.716	0.133	-0.064
-126.268	-200.000	-0.045	-0.286
-125.253	-54.433	0.235	0.104
-124.239	-85.957	0.308	-0.093
-123.224	59.861	-0.252	-0.244
-122.210	800.000	-0.064	-0.185
