DTS Sentinel unit serial number:	SN413079Multiplexer serial number:	ORYXHardware model number:	OX4-SRSoftware version number:	ORYX F/W v4.00 Oryx Data Collector v3.7.2.0data status	okinstallation	princeton_trtdifferential loss correction	single-endedforward channel	channel 1reverse channel	N/Adate	2019/09/19time	08:18:35forward acquisition time	60.00reverse acquisition time	0.00gamma	496.2192k internal	0.2342k external	0.2342temperature offset calibration	1.0012default loss term (dB/km)	0.3790temperature slope calibration	1.0000multiplexer offset coefficient	1.0000multiplexer slope coefficient	1.0000fibre end	0.00T internal ref (°C)	20.31T ext. ref 1 (°C)	0.57T ext. ref 2 (°C)	15.94length (m)	temperature (°C)	Stokes	anti-Stokes-747.200	800.000	0.158	0.530
-746.185	-104.513	-0.284	0.066
-745.171	-200.000	-0.004	0.285
-744.156	800.000	0.007	-0.024
-743.142	-200.000	-0.019	0.375
-742.127	201.717	-0.111	0.172
-741.112	278.479	-0.213	-0.380
-740.098	385.252	-0.132	0.273
-739.083	153.206	0.090	-0.124
-738.069	-200.000	0.018	0.227
-737.054	312.039	0.163	0.306
-736.039	-200.000	-0.016	-0.104
-735.025	83.596	0.326	0.356
-734.010	-101.644	-0.297	-0.072
-732.996	-200.000	0.002	0.101
-731.981	800.000	-0.037	0.151
-730.966	-77.548	0.291	0.101
-729.952	-18.901	-0.206	-0.128
-728.937	-200.000	0.010	0.159
-727.923	0.671	-0.202	0.145
-726.908	320.946	-0.072	0.137
-725.894	-65.089	-0.189	-0.076
-724.879	49.412	-0.205	-0.193
-723.864	-54.196	-0.153	-0.070
-722.850	74.131	-0.274	0.288
-721.835	-57.323	-0.142	0.062
-720.821	-200.000	-0.030	0.193
-719.806	-70.845	0.448	0.169
-718.791	-111.856	0.314	-0.064
-717.777	75.267	-0.112	-0.118
-716.762	219.655	0.132	-0.211
-715.748	-200.000	-0.104	-0.000
-714.733	502.040	0.062	-0.143
-713.718	-81.597	0.034	0.011
-712.704	-52.161	0.229	0.106
-711.689	-122.413	0.383	-0.062
-710.675	-160.705	-0.230	-0.012
-709.660	-197.652	0.285	-0.002
-708.645	-21.564	0.282	0.172
-707.631	-200.000	0.039	-0.226
-706.616	2.549	0.201	0.145
-705.602	624.354	0.078	-0.197
-704.587	-200.000	0.023	-0.172
-703.572	-75.917	0.178	-0.063
-702.558	800.000	-0.052	-0.145
-701.543	180.489	-0.086	0.126
-700.529	-200.000	-0.025	-0.157
-699.514	150.433	0.123	-0.167
-698.499	-200.000	0.001	-0.088
-697.485	0.937	0.173	-0.124
-696.470	202.859	-0.113	0.175
-695.456	-200.000	-0.007	0.044
-694.441	-200.000	0.034	0.171
-693.426	-177.160	-0.064	-0.002
-692.412	-200.000	-0.013	0.126
-691.397	-119.696	0.085	0.015
-690.383	48.144	-0.158	0.148
-689.368	-19.595	-0.101	-0.062
-688.354	434.188	-0.168	-0.364
-687.339	800.000	0.149	-0.440
-686.324	-200.000	0.034	-0.262
-685.310	497.916	0.119	-0.275
-684.295	-200.000	-0.021	-0.471
-683.281	-149.940	-0.322	0.025
-682.266	-149.695	-0.082	-0.006
-681.251	-0.543	0.242	0.172
-680.237	252.814	-0.151	0.258
-679.222	545.294	-0.099	-0.237
-678.208	-161.584	-0.248	0.013
-677.193	726.541	-0.048	0.129
-676.178	237.145	0.137	0.226
-675.164	162.846	0.219	0.307
-674.149	-46.827	-0.279	-0.137
-673.135	-61.039	-0.099	0.042
-672.120	48.479	-0.137	-0.128
-671.105	45.983	0.182	0.168
-670.091	-81.202	0.121	0.040
-669.076	-131.459	0.062	0.008
-668.062	-115.930	-0.303	0.056
-667.047	73.361	-0.066	0.069
-666.032	123.211	-0.236	-0.295
-665.018	25.713	-0.280	-0.233
-664.003	611.056	0.039	-0.098
-662.989	151.546	0.248	-0.338
-661.974	10.314	0.091	0.069
-660.959	42.095	-0.294	0.267
-659.945	-8.319	0.391	0.262
-658.930	-200.000	0.023	0.113
-657.916	-62.768	0.242	-0.100
-656.901	-142.473	-0.147	0.014
-655.886	-93.498	0.352	-0.097
-654.872	12.553	-0.268	0.206
-653.857	-200.000	-0.006	0.036
-652.843	473.311	0.081	0.181
-651.828	292.654	0.079	-0.144
-650.814	73.641	0.086	0.090
-649.799	800.000	0.017	-0.073
-648.784	332.104	-0.049	-0.094
-647.770	-4.973	-0.054	0.037
-646.755	-200.000	-0.008	0.242
-645.741	63.972	0.159	0.160
-644.726	299.225	-0.140	0.258
-643.711	-200.000	0.030	0.165
-642.697	14.725	-0.170	-0.133
-641.682	-27.696	0.324	-0.188
-640.668	-32.399	0.120	0.067
-639.653	-103.554	0.123	0.029
-638.638	800.000	0.063	-0.212
-637.624	-173.474	-0.254	-0.008
-636.609	-70.793	0.117	0.044
-635.595	549.850	-0.140	0.336
-634.580	-60.106	-0.164	0.070
-633.565	-165.830	0.119	-0.005
-632.551	132.385	0.166	-0.214
-631.536	375.567	-0.127	-0.258
-630.522	458.412	0.184	-0.407
-629.507	-10.160	-0.049	-0.032
-628.492	16.227	0.135	-0.106
-627.478	272.962	0.167	0.293
-626.463	62.763	-0.257	0.257
-625.449	800.000	0.058	-0.241
-624.434	275.366	-0.032	-0.057
-623.419	-44.482	0.174	-0.087
-622.405	800.000	0.148	0.501
-621.390	-181.111	-0.421	-0.008
-620.376	245.279	-0.114	-0.191
-619.361	-131.949	0.074	-0.010
-618.346	327.957	0.070	-0.134
-617.332	135.620	-0.121	0.156
-616.317	800.000	0.090	-0.249
-615.303	-157.723	-0.211	0.013
-614.288	-4.109	-0.240	0.166
-613.273	475.460	-0.032	0.073
-612.259	144.081	-0.174	0.231
-611.244	47.338	-0.259	-0.241
-610.230	310.119	0.107	-0.200
-609.215	94.511	-0.188	-0.213
-608.201	-28.491	0.099	-0.057
-607.186	800.000	-0.113	0.323
-606.171	206.781	0.126	0.196
-605.157	800.000	0.083	0.321
-604.142	655.760	-0.099	-0.254
-603.128	-200.000	0.009	-0.064
-602.113	101.409	0.166	0.193
-601.098	16.921	-0.125	0.099
-600.084	219.385	0.213	0.340
-599.069	-173.937	0.048	0.001
-598.055	-43.774	0.221	-0.111
-597.040	158.868	-0.197	-0.273
-596.025	-118.852	0.229	-0.040
-595.011	107.075	-0.071	-0.084
-593.996	-50.786	0.109	0.051
-592.982	17.231	0.099	0.078
-591.967	105.452	0.269	-0.317
-590.952	1.524	0.256	-0.183
-589.938	433.215	-0.092	-0.198
-588.923	-200.000	0.012	-0.088
-587.909	413.246	0.081	-0.172
-586.894	48.911	-0.150	-0.140
-585.879	-94.121	-0.169	0.046
-584.865	18.389	0.234	0.186
-583.850	-200.000	-0.014	-0.197
-582.836	418.371	-0.066	-0.140
-581.821	-200.000	0.001	-0.176
-580.806	-200.000	0.013	-0.077
-579.792	-70.688	0.147	-0.055
-578.777	-69.822	-0.286	0.109
-577.763	476.346	0.171	-0.385
-576.748	-200.000	0.054	-0.295
-575.733	395.628	0.093	0.192
-574.719	33.017	-0.432	-0.372
-573.704	800.000	0.060	-0.177
-572.690	193.192	0.088	0.133
-571.675	34.326	-0.166	0.144
-570.661	-79.455	0.173	0.058
-569.646	-200.000	-0.009	-0.357
-568.631	604.114	-0.064	-0.158
-567.617	-54.848	0.153	-0.069
-566.602	-70.071	0.135	-0.051
-565.588	264.875	-0.185	0.320
-564.573	38.664	0.305	0.271
-563.558	800.000	0.044	0.130
-562.544	407.838	-0.057	0.120
-561.529	-200.000	-0.040	-0.222
-560.515	-96.146	-0.190	0.050
-559.500	800.000	0.061	-0.236
-558.485	37.522	0.367	-0.323
-557.471	-108.143	0.016	0.003
-556.456	106.130	0.073	0.086
-555.442	67.040	-0.013	0.013
-554.427	-14.474	0.157	-0.101
-553.412	36.052	-0.119	-0.104
-552.398	-123.596	-0.170	0.027
-551.383	-111.145	-0.121	-0.025
-550.369	-200.000	-0.002	0.225
-549.354	102.109	0.046	0.053
-548.339	800.000	0.125	-0.366
-547.325	-133.623	-0.366	-0.046
-546.310	-96.247	-0.198	-0.052
-545.296	88.435	0.104	-0.115
-544.281	-32.093	-0.106	0.059
-543.266	-71.378	0.147	-0.055
-542.252	97.138	0.184	-0.210
-541.237	142.145	-0.269	0.355
-540.223	-92.736	0.148	-0.041
-539.208	75.766	-0.233	-0.245
-538.193	800.000	-0.134	-0.431
-537.179	-62.121	0.294	0.122
-536.164	-24.265	0.167	0.099
-535.150	115.053	0.133	-0.161
-534.135	-30.939	0.132	-0.074
-533.121	800.000	0.112	0.389
-532.106	-72.739	-0.219	-0.080
-531.091	548.918	-0.046	-0.110
-530.077	-200.000	0.013	0.110
-529.062	800.000	0.033	-0.129
-528.048	716.853	-0.062	0.164
-527.033	-200.000	0.000	0.166
-526.018	-200.000	0.014	-0.121
-525.004	67.723	-0.167	-0.169
-523.989	-42.482	-0.084	-0.042
-522.975	-115.061	-0.161	-0.030
-521.960	800.000	0.082	-0.271
-520.945	118.197	-0.107	0.131
-519.931	353.252	-0.096	0.190
-518.916	-125.463	0.317	-0.048
-517.902	170.535	-0.222	-0.316
-516.887	51.932	0.087	-0.082
-515.872	-24.832	0.096	0.057
-514.858	195.434	-0.248	0.374
-513.843	-128.528	-0.092	0.013
-512.829	106.331	-0.211	0.248
-511.814	-54.322	0.235	-0.106
-510.799	-83.771	-0.138	-0.044
-509.785	93.492	-0.082	0.092
-508.770	-80.517	0.279	0.092
-507.756	800.000	-0.070	-0.198
-506.741	62.460	0.154	-0.153
-505.726	-57.914	0.321	-0.139
-504.712	-2.821	-0.122	-0.084
-503.697	800.000	0.043	-0.118
-502.683	352.337	-0.046	-0.091
-501.668	-162.883	0.183	-0.009
-500.653	-76.912	-0.128	0.044
-499.639	452.696	-0.144	0.316
-498.624	-86.802	-0.352	-0.107
-497.610	-49.679	0.240	-0.113
-496.595	-34.060	0.197	0.107
-495.581	-77.239	-0.289	0.100
-494.566	31.549	-0.170	-0.145
-493.551	-69.164	0.056	-0.021
-492.537	44.820	0.184	-0.168
-491.522	75.591	-0.230	-0.241
-490.508	-65.067	-0.109	0.044
-489.493	-39.974	0.085	-0.044
-488.478	144.450	-0.151	-0.200
-487.464	9.026	-0.105	-0.078
-486.449	-200.000	-0.086	-0.398
-485.435	800.000	0.087	-0.250
-484.420	-200.000	0.000	0.098
-483.405	89.250	-0.235	-0.259
-482.391	-25.765	0.351	-0.205
-481.376	108.734	0.245	-0.290
-480.362	-56.867	0.353	-0.155
-479.347	30.835	-0.341	-0.290
-478.332	597.846	-0.067	-0.165
-477.318	-76.252	-0.180	-0.063
-476.303	130.517	-0.200	0.254
-475.289	-76.546	-0.184	0.064
-474.274	800.000	-0.002	-0.006
-473.259	-76.294	0.205	0.072
-472.245	-87.165	-0.277	0.083
-471.230	157.158	-0.204	0.280
-470.216	800.000	0.069	0.230
-469.201	654.719	-0.081	0.205
-468.186	-73.764	0.084	0.030
-467.172	88.293	0.134	0.148
-466.157	-146.919	-0.020	-0.002
-465.143	-136.613	-0.403	0.046
-464.128	-200.000	-0.032	-0.320
-463.113	-93.262	0.344	0.095
-462.099	137.232	-0.074	0.096
-461.084	-126.881	0.037	-0.005
-460.070	-187.639	0.240	0.003
-459.055	-136.043	0.207	0.024
-458.040	279.068	-0.056	-0.098
-457.026	-192.541	-0.266	0.002
-456.011	-2.645	-0.237	0.164
-454.997	-200.000	0.043	0.257
-453.982	-200.000	-0.002	0.150
-452.968	292.050	-0.129	0.232
-451.953	201.797	0.149	0.228
-450.938	197.446	-0.149	-0.225
-449.924	185.253	-0.205	0.301
-448.909	-94.269	0.189	-0.051
-447.895	-200.000	-0.009	0.291
-446.880	800.000	0.018	-0.052
-445.865	800.000	-0.031	-0.094
-444.851	-8.199	-0.327	0.218
-443.836	-64.467	0.264	0.106
-442.822	-200.000	-0.034	0.380
-441.807	-99.224	-0.290	0.073
-440.792	-16.645	-0.397	-0.249
-439.778	226.361	-0.047	0.076
-438.763	10.285	0.049	0.037
-437.749	-91.559	-0.313	-0.088
-436.734	82.371	-0.037	0.040
-435.719	-112.353	0.110	-0.022
-434.705	-173.930	-0.308	-0.009
-433.690	-200.000	-0.062	0.347
-432.676	480.476	0.066	0.148
-431.661	-32.528	-0.345	-0.190
-430.646	-53.100	0.044	-0.020
-429.632	431.911	0.074	-0.158
-428.617	15.127	0.157	-0.122
-427.603	29.786	-0.265	0.223
-426.588	-100.199	-0.257	0.063
-425.573	309.101	0.037	-0.069
-424.559	-115.570	0.157	0.029
-423.544	50.664	0.343	0.321
-422.530	189.824	-0.023	0.033
-421.515	-103.209	-0.187	0.044
-420.500	282.137	0.045	0.079
-419.486	219.462	-0.112	-0.177
-418.471	-48.298	0.182	0.087
-417.457	-200.000	-0.001	0.180
-416.442	800.000	-0.015	-0.058
-415.428	-38.451	0.269	-0.141
-414.413	20.276	-0.226	0.181
-413.398	-91.061	0.143	0.041
-412.384	-139.053	-0.156	0.017
-411.369	800.000	0.089	0.323
-410.355	-130.108	0.295	-0.040
-409.340	59.353	0.143	-0.139
-408.325	-120.900	-0.284	-0.047
-407.311	-30.068	0.193	-0.109
-406.296	-12.417	0.223	-0.144
-405.282	-62.250	0.183	-0.075
-404.267	591.476	-0.141	0.344
-403.252	60.713	0.114	0.112
-402.238	-200.000	0.034	0.192
-401.223	81.891	0.114	-0.122
-400.209	101.236	0.116	0.133
-399.194	147.729	0.061	0.081
-398.179	-200.000	0.022	-0.401
-397.165	-56.342	0.457	-0.201
-396.150	800.000	0.070	0.226
-395.136	34.113	-0.169	0.145
-394.121	-33.269	-0.099	-0.054
-393.106	-39.872	-0.329	-0.170
-392.092	-200.000	-0.066	-0.296
-391.077	-111.898	-0.277	0.055
-390.063	-94.630	-0.058	-0.016
-389.048	800.000	-0.069	0.220
-388.033	111.675	-0.153	-0.183
-387.019	-5.979	0.114	-0.077
-386.004	77.828	-0.092	-0.097
-384.990	-200.000	0.015	0.092
-383.975	675.985	0.055	0.142
-382.960	3.115	0.143	0.103
-381.946	-53.210	-0.170	0.077
-380.931	-122.578	-0.277	-0.044
-379.917	-91.309	0.109	-0.031
-378.902	-200.000	-0.005	0.087
-377.888	-200.000	-0.007	0.057
-376.873	440.374	-0.082	-0.177
-375.858	65.209	0.116	0.115
-374.844	800.000	0.052	0.204
-373.829	387.844	0.151	0.308
-372.815	124.026	-0.046	-0.057
-371.800	-200.000	-0.029	0.301
-370.785	318.940	-0.223	-0.417
-369.771	-200.000	-0.007	-0.051
-368.756	800.000	0.064	0.183
-367.742	-154.591	0.179	-0.012
-366.727	-62.895	0.131	0.053
-365.712	800.000	-0.027	0.077
-364.698	-4.029	-0.227	-0.156
-363.683	-18.518	-0.182	-0.112
-362.669	-200.000	0.022	-0.393
-361.654	-61.642	0.059	0.024
-360.639	-4.006	0.013	-0.009
-359.625	-133.607	-0.425	0.052
-358.610	3.966	0.096	-0.070
-357.596	53.409	0.152	-0.144
-356.581	572.504	-0.167	-0.402
-355.566	171.260	-0.072	-0.101
-354.552	-60.787	-0.107	0.045
-353.537	-118.872	0.063	-0.011
-352.523	632.678	-0.075	0.187
-351.508	-4.160	0.320	-0.219
-350.493	151.932	-0.087	0.118
-349.479	-27.583	-0.129	0.074
-348.464	800.000	-0.108	0.321
-347.450	800.000	-0.041	-0.134
-346.435	205.349	-0.068	-0.105
-345.420	-93.892	0.269	-0.073
-344.406	-2.277	-0.257	0.178
-343.391	392.519	-0.073	0.149
-342.377	547.667	-0.036	-0.085
-341.362	-129.655	0.294	-0.040
-340.348	-154.511	-0.087	-0.006
-339.333	90.103	-0.097	-0.107
-338.318	-61.360	-0.247	-0.102
-337.304	193.016	0.168	-0.250
-336.289	800.000	-0.016	0.066
-335.275	47.709	0.177	0.163
-334.260	99.838	0.090	0.103
-333.245	-141.556	0.396	-0.039
-332.231	-4.594	0.386	-0.263
-331.216	-200.000	0.030	0.188
-330.202	-112.055	-0.425	0.084
-329.187	186.177	-0.139	0.204
-328.172	-89.349	0.051	0.015
-327.158	320.152	-0.146	0.274
-326.143	-119.582	0.201	-0.034
-325.129	-38.277	0.185	0.097
-324.114	800.000	-0.027	-0.112
-323.099	-200.000	0.026	0.151
-322.085	455.221	-0.168	0.368
-321.070	98.051	-0.115	-0.130
-320.056	-51.833	-0.182	-0.083
-319.041	-5.673	0.113	-0.076
-318.026	98.367	0.235	0.267
-317.012	-150.412	-0.207	-0.016
-315.997	-74.424	0.226	-0.080
-314.983	-200.000	0.017	0.203
-313.968	568.849	0.117	0.279
-312.953	33.941	0.306	-0.262
-311.939	131.845	-0.076	-0.097
-310.924	-200.000	-0.004	0.194
-309.910	800.000	-0.045	0.142
-308.895	-137.672	0.187	0.021
-307.880	-36.515	-0.244	0.129
-306.866	-102.989	0.088	0.021
-305.851	-200.000	-0.011	0.094
-304.837	33.810	0.193	0.165
-303.822	-67.230	0.151	0.059
-302.807	-36.190	0.014	-0.007
-301.793	243.212	-0.074	-0.123
-300.778	-168.149	0.188	0.007
-299.764	-125.727	0.320	-0.048
-298.749	-25.896	-0.177	0.103
-297.735	-52.280	0.266	0.121
-296.720	218.188	0.060	-0.094
-295.705	-79.178	0.110	-0.037
-294.691	132.827	0.077	0.098
-293.676	58.018	-0.054	-0.052
-292.662	-101.366	0.369	0.089
-291.647	594.257	-0.099	0.241
-290.632	800.000	-0.090	0.285
-289.618	-135.504	0.314	-0.037
-288.603	-200.000	-0.003	-0.064
-287.589	800.000	-0.100	0.286
-286.574	-110.263	-0.349	-0.071
-285.559	-62.225	-0.160	0.065
-284.545	146.433	0.066	0.088
-283.530	-158.638	0.092	0.005
-282.516	800.000	-0.023	-0.079
-281.501	478.600	0.035	-0.077
-280.486	-2.633	0.193	-0.133
-279.472	52.616	0.274	0.257
-278.457	27.596	-0.052	-0.043
-277.443	-51.669	-0.155	-0.071
-276.428	800.000	0.093	-0.311
-275.413	77.398	-0.015	-0.016
-274.399	580.507	-0.050	-0.120
-273.384	164.897	0.158	-0.220
-272.370	174.424	-0.184	-0.261
-271.355	-200.000	-0.017	-0.141
-270.340	-106.536	-0.287	-0.063
-269.326	-123.406	-0.270	-0.042
-268.311	163.961	-0.099	0.137
-267.297	-91.900	0.279	-0.078
-266.282	-200.000	-0.009	0.235
-265.267	-1.612	0.345	-0.239
-264.253	-88.176	-0.138	-0.041
-263.238	-200.000	0.014	-0.096
-262.224	-138.799	0.048	0.005
-261.209	-164.105	0.237	-0.011
-260.195	136.781	0.139	0.179
-259.180	31.310	-0.306	-0.258
-258.165	-104.628	0.125	-0.028
-257.151	203.113	0.093	0.141
-256.136	338.234	-0.190	-0.364
-255.122	-200.000	-0.043	0.229
-254.107	9.633	-0.273	0.203
-253.092	-26.438	-0.178	-0.102
-252.078	116.386	-0.191	0.230
-251.063	800.000	0.093	0.329
-250.049	800.000	-0.072	0.198
-249.034	-98.839	-0.213	0.053
-248.019	-72.404	0.190	0.069
-247.005	45.090	0.297	0.268
-245.990	22.679	0.241	-0.194
-244.976	-83.497	-0.075	-0.024
-243.961	32.771	-0.242	0.205
-242.946	-39.556	0.158	0.081
-241.932	-187.691	-0.201	0.003
-240.917	-29.738	0.105	-0.059
-239.903	-104.641	0.349	-0.079
-238.888	21.362	-0.262	-0.209
-237.873	370.565	-0.054	-0.107
-236.859	503.125	-0.188	-0.427
-235.844	-63.398	-0.179	-0.072
-234.830	-175.828	0.134	-0.004
-233.815	84.031	0.169	-0.181
-232.800	-200.000	-0.036	0.163
-231.786	627.075	0.081	-0.200
-230.771	157.495	-0.133	-0.181
-229.757	-200.000	-0.078	0.391
-228.742	800.000	0.036	-0.151
-227.727	-200.000	0.059	0.291
-226.713	211.237	-0.054	0.084
-225.698	87.890	-0.094	-0.102
-224.684	108.827	0.036	-0.042
-223.669	8.050	0.267	0.197
-222.655	78.727	0.133	0.139
-221.640	-200.000	0.027	0.128
-220.625	-53.335	0.100	0.045
-219.611	93.635	0.146	0.162
-218.596	259.011	0.053	0.089
-217.582	73.668	0.182	-0.188
-216.567	-200.000	-0.005	0.231
-215.552	23.917	0.048	-0.039
-214.538	-200.000	0.018	0.138
-213.523	330.775	-0.229	0.432
-212.509	-105.355	0.253	-0.056
-211.494	-3.653	0.093	0.064
-210.479	-200.000	-0.000	0.062
-209.465	92.979	0.171	0.189
-208.450	51.712	-0.072	-0.067
-207.436	-56.498	0.298	0.130
-206.421	-200.000	-0.006	0.168
-205.406	-2.887	-0.109	0.074
-204.392	559.698	0.124	0.294
-203.377	-85.184	-0.231	0.071
-202.363	800.000	-0.055	-0.230
-201.348	-161.988	0.268	0.013
-200.333	-56.392	-0.437	0.190
-199.319	-44.092	0.222	-0.109
-198.304	-101.147	0.229	0.055
-197.290	-11.589	-0.109	0.071
-196.275	800.000	-0.074	0.252
-195.260	-86.034	0.097	-0.029
-194.246	57.123	0.141	0.134
-193.231	-57.756	0.018	-0.008
-192.217	-137.427	-0.301	0.033
-191.202	648.613	0.031	0.079
-190.187	-150.257	-0.106	0.008
-189.173	-200.000	-0.016	0.154
-188.158	-134.380	0.093	0.011
-187.144	-200.000	0.017	-0.087
-186.129	-99.017	0.285	-0.071
-185.114	-10.575	-0.151	-0.098
-184.100	-52.196	-0.235	0.107
-183.085	-200.000	-0.085	-0.509
-182.071	-19.402	0.212	-0.129
-181.056	-150.194	-0.148	-0.011
-180.042	121.979	0.092	-0.112
-179.027	533.955	-0.132	0.306
-178.012	255.626	0.207	0.347
-176.998	-9.506	-0.255	-0.166
-175.983	522.760	0.014	-0.032
-174.969	-134.912	0.280	-0.033
-173.954	-35.409	-0.295	-0.157
-172.939	-131.464	0.173	0.022
-171.925	308.269	0.156	-0.285
-170.910	142.776	-0.312	-0.406
-169.896	-36.573	-0.123	-0.065
-168.881	36.843	-0.155	-0.134
-167.866	-200.000	0.047	-0.264
-166.852	202.323	0.147	-0.223
-165.837	-35.333	-0.122	0.065
-164.823	-200.000	0.063	0.407
-163.808	-11.659	0.188	-0.121
-162.793	230.853	-0.007	-0.010
-161.779	7.251	-0.113	-0.083
-160.764	163.606	0.091	-0.125
-159.750	-115.831	-0.102	-0.019
-158.735	-97.553	-0.215	0.055
-157.720	-103.701	0.063	0.014
-156.706	-124.960	0.237	0.036
-155.691	89.312	-0.207	-0.226
-154.677	167.395	0.184	-0.256
-153.662	-87.919	-0.252	0.074
-152.647	95.953	0.194	0.217
-151.633	-64.798	0.099	0.039
-150.618	78.673	0.209	0.219
-149.604	17.207	-0.193	0.150
-148.589	93.214	0.214	-0.236
-147.574	-200.000	-0.022	-0.243
-146.560	-96.924	-0.078	-0.020
-145.545	125.695	0.150	0.185
-144.531	-200.000	-0.006	0.281
-143.516	-121.122	-0.184	-0.030
-142.502	-99.691	0.080	-0.020
-141.487	313.606	0.044	-0.080
-140.472	-179.800	-0.278	0.006
-139.458	517.261	0.084	-0.191
-138.443	147.879	0.142	-0.187
-137.429	-69.242	0.274	0.103
-136.414	162.442	-0.201	0.275
-135.399	-151.352	0.076	0.006
-134.385	-63.244	0.362	-0.146
-133.370	5.036	-0.147	-0.106
-132.356	-148.826	0.171	0.014
-131.341	197.971	-0.065	0.096
-130.326	107.863	-0.192	0.224
-129.312	-130.990	-0.089	-0.012
-128.297	-139.584	0.127	0.013
-127.283	-200.000	-0.025	-0.224
-126.268	-124.530	-0.340	-0.052
-125.253	800.000	0.045	-0.154
-124.239	174.223	0.066	-0.093
-123.224	-150.252	0.240	0.018
-122.210	64.784	-0.397	0.392
-121.195	-139.038	-0.142	0.015
-120.180	182.015	0.165	-0.237
