DTS Sentinel unit serial number:	SN413079Multiplexer serial number:	ORYXHardware model number:	OX4-SRSoftware version number:	ORYX F/W v4.00 Oryx Data Collector v3.7.2.0data status	okinstallation	princeton_trtdifferential loss correction	single-endedforward channel	channel 1reverse channel	N/Adate	2019/09/10time	16:52:11forward acquisition time	60.00reverse acquisition time	0.00gamma	496.2192k internal	0.2300k external	0.2300temperature offset calibration	0.9924default loss term (dB/km)	0.3790temperature slope calibration	1.0000multiplexer offset coefficient	1.0000multiplexer slope coefficient	1.0000fibre end	0.00T internal ref (°C)	37.62T ext. ref 1 (°C)	-0.30T ext. ref 2 (°C)	32.46length (m)	temperature (°C)	Stokes	anti-Stokes-747.200	800.000	0.076	0.305
-746.185	12.500	0.258	0.203
-745.171	-200.000	0.063	0.301
-744.156	560.032	0.211	0.521
-743.142	-200.000	0.040	0.192
-742.127	138.568	-0.043	0.057
-741.112	-68.034	-0.166	-0.066
-740.098	72.755	-0.037	-0.039
-739.083	800.000	-0.028	-0.116
-738.069	-67.519	0.084	0.034
-737.054	-171.672	-0.341	0.011
-736.039	-200.000	-0.024	-0.291
-735.025	173.338	0.081	-0.118
-734.010	-112.829	-0.197	0.040
-732.996	202.873	-0.214	-0.338
-731.981	800.000	-0.098	-0.380
-730.966	-144.982	-0.201	0.019
-729.952	-200.000	-0.022	0.273
-728.937	-70.678	0.181	0.070
-727.923	-148.592	-0.438	-0.036
-726.908	-153.541	-0.415	-0.029
-725.894	28.524	0.224	-0.193
-724.879	141.432	0.158	0.214
-723.864	-200.000	0.009	-0.369
-722.850	-200.000	0.015	0.106
-721.835	-162.519	-0.127	-0.006
-720.821	456.102	0.017	-0.038
-719.806	-176.646	-0.198	0.005
-718.791	120.526	-0.132	0.167
-717.777	6.630	-0.197	-0.150
-716.762	-200.000	0.068	-0.318
-715.748	29.817	-0.309	-0.268
-714.733	-189.801	-0.074	-0.001
-713.718	-114.676	0.099	0.019
-712.704	-87.332	-0.495	-0.153
-711.689	-51.331	-0.221	0.105
-710.675	800.000	-0.075	0.309
-709.660	-78.546	-0.102	0.035
-708.645	-9.386	0.214	-0.145
-707.631	-35.742	0.255	-0.141
-706.616	-165.006	0.062	-0.003
-705.602	-131.446	0.019	0.002
-704.587	-61.482	0.428	-0.183
-703.572	-200.000	-0.192	-0.000
-702.558	-81.265	0.018	0.006
-701.543	-10.148	0.277	-0.187
-700.529	-5.485	-0.012	-0.008
-699.514	209.739	0.019	0.031
-698.499	216.787	0.162	0.262
-697.485	42.616	0.183	0.169
-696.470	-128.111	-0.116	0.017
-695.456	-109.528	0.350	-0.075
-694.441	28.722	-0.233	0.201
-693.426	800.000	-0.029	0.096
-692.412	206.932	0.064	0.101
-691.397	-24.406	-0.043	-0.026
-690.383	-149.702	-0.205	-0.016
-689.368	308.866	-0.108	-0.206
-688.354	170.169	-0.145	0.212
-687.339	91.047	-0.126	-0.144
-686.324	50.604	-0.150	0.144
-685.310	800.000	-0.021	-0.079
-684.295	-31.618	0.144	-0.083
-683.281	-200.000	-0.028	0.199
-682.266	472.134	-0.166	-0.381
-681.251	201.690	-0.223	-0.349
-680.237	-45.980	0.240	0.120
-679.222	628.073	0.017	-0.043
-678.208	39.312	-0.105	0.096
-677.193	567.583	-0.134	0.330
-676.178	-103.600	-0.087	-0.021
-675.164	301.354	0.084	-0.159
-674.149	-200.000	-0.069	0.507
-673.135	800.000	0.109	0.367
-672.120	-200.000	0.004	-0.074
-671.105	165.795	0.157	-0.227
-670.091	362.411	0.108	0.220
-669.076	-189.165	-0.199	-0.002
-668.062	-75.963	0.089	-0.032
-667.047	-120.502	-0.323	-0.056
-666.032	-99.825	0.068	0.017
-665.018	-67.767	0.077	0.031
-664.003	326.584	0.218	-0.424
-662.989	84.631	-0.217	-0.241
-661.974	-122.779	0.153	0.025
-660.959	800.000	-0.082	-0.246
-659.945	-9.237	-0.228	-0.155
-658.930	-133.036	0.076	0.010
-657.916	179.280	-0.088	-0.130
-656.901	-98.330	0.116	0.030
-655.886	-200.000	0.035	-0.176
-654.872	4.340	0.253	0.189
-653.857	107.196	0.278	0.336
-652.843	-54.759	0.212	-0.097
-651.828	800.000	0.030	0.131
-650.814	630.973	-0.082	-0.211
-649.799	-135.386	0.058	0.007
-648.784	11.406	-0.273	0.212
-647.770	-119.521	-0.388	-0.068
-646.755	60.216	-0.050	0.051
-645.741	110.261	0.192	0.235
-644.726	-148.258	0.217	-0.018
-643.711	-63.799	-0.122	0.051
-642.697	-78.193	0.132	0.046
-641.682	417.621	-0.161	0.349
-640.668	307.004	0.183	-0.347
-639.653	34.878	-0.117	0.104
-638.638	-200.000	0.046	0.233
-637.624	159.322	-0.048	0.067
-636.609	-93.669	0.191	0.054
-635.595	-200.000	0.016	0.131
-634.580	-90.843	0.110	0.032
-633.565	-7.882	0.138	-0.094
-632.551	-24.906	-0.211	-0.127
-631.536	-46.279	-0.381	0.190
-630.522	-136.802	-0.169	0.020
-629.507	-200.000	-0.018	-0.175
-628.492	305.531	0.077	-0.146
-627.478	-146.625	-0.268	-0.024
-626.463	-85.994	-0.213	0.067
-625.449	-51.456	-0.345	-0.164
-624.434	519.577	0.221	-0.525
-623.419	-200.000	0.007	-0.182
-622.405	79.199	0.172	0.187
-621.390	-130.247	0.108	0.015
-620.376	-200.000	0.042	0.427
-619.361	-0.490	-0.353	0.255
-618.346	-133.836	0.278	-0.035
-617.332	149.088	-0.114	-0.157
-616.317	-200.000	-0.025	-0.141
-615.303	284.507	-0.149	-0.272
-614.288	43.837	0.072	0.067
-613.273	177.186	-0.056	0.082
-612.259	71.621	0.028	-0.030
-611.244	-58.325	0.221	0.097
-610.230	-159.102	0.208	-0.012
-609.215	571.431	-0.136	0.336
-608.201	510.992	-0.053	-0.125
-607.186	681.468	-0.036	-0.096
-606.171	36.848	0.316	0.283
-605.157	800.000	-0.030	-0.090
-604.142	-20.826	-0.068	-0.043
-603.128	-73.143	-0.330	0.123
-602.113	-115.940	-0.296	-0.056
-601.098	-20.011	-0.192	0.120
-600.084	152.123	0.276	0.381
-599.069	232.509	0.071	0.118
-598.055	86.530	0.187	0.209
-597.040	130.210	-0.107	0.139
-596.025	-200.000	-0.010	-0.082
-595.011	-124.587	-0.415	-0.065
-593.996	-51.354	-0.034	-0.016
-592.982	-92.719	-0.212	-0.060
-591.967	-154.752	-0.427	-0.029
-590.952	800.000	-0.118	-0.453
-589.938	-50.471	0.229	-0.110
-588.923	73.828	-0.121	-0.129
-587.909	87.470	0.072	-0.081
-586.894	180.758	0.231	-0.344
-585.879	60.226	0.130	-0.130
-584.865	398.076	0.173	-0.367
-583.850	32.937	0.177	-0.156
-582.836	152.891	0.061	0.084
-581.821	54.856	0.080	-0.078
-580.806	369.754	-0.090	-0.185
-579.792	21.645	-0.079	0.065
-578.777	-48.422	-0.206	0.101
-577.763	-200.000	0.006	0.145
-576.748	514.429	-0.127	0.300
-575.733	-121.505	-0.392	-0.066
-574.719	-5.633	-0.481	-0.334
-573.704	-200.000	-0.021	-0.287
-572.690	-146.546	0.047	-0.004
-571.675	-42.749	-0.178	0.092
-570.661	715.787	0.096	0.258
-569.646	73.519	-0.264	-0.280
-568.631	-78.270	-0.024	-0.008
-567.617	145.235	0.062	-0.084
-566.602	-106.135	0.177	-0.040
-565.588	667.173	0.104	0.271
-564.573	-163.156	0.177	0.009
-563.558	48.883	-0.223	0.212
-562.544	360.339	-0.158	0.319
-561.529	-200.000	-0.021	-0.306
-560.515	180.887	0.061	-0.090
-559.500	94.243	0.142	-0.164
-558.485	-81.270	-0.349	-0.117
-557.471	-200.000	0.000	-0.217
-556.456	123.679	0.076	-0.097
-555.442	-28.979	-0.083	0.049
-554.427	20.330	-0.237	0.194
-553.412	16.613	-0.121	-0.097
-552.398	763.701	-0.086	-0.237
-551.383	84.776	0.065	0.072
-550.369	11.926	0.040	0.031
-549.354	-60.592	-0.146	0.063
-548.339	-41.453	0.226	0.118
-547.325	89.595	0.224	0.253
-546.310	-29.400	-0.159	0.092
-545.296	-189.605	-0.265	0.003
-544.281	-18.311	-0.301	0.190
-543.266	136.792	0.176	0.233
-542.252	800.000	0.030	-0.093
-541.237	-145.338	-0.217	-0.020
-540.223	264.617	-0.066	0.116
-539.208	535.767	-0.023	-0.054
-538.193	-72.674	0.350	-0.131
-537.179	-200.000	0.019	0.211
-536.164	-104.426	0.373	-0.087
-535.150	-26.895	-0.460	-0.272
-534.135	-60.144	-0.156	-0.067
-533.121	22.205	0.221	0.183
-532.106	20.571	0.197	0.161
-531.091	800.000	0.085	0.292
-530.077	43.222	-0.156	0.144
-529.062	93.416	0.095	0.109
-528.048	-182.392	0.136	0.003
-527.033	22.979	0.102	0.085
-526.018	-127.318	-0.091	0.013
-525.004	-178.255	0.068	0.002
-523.989	163.177	0.023	-0.032
-522.975	28.123	-0.094	-0.080
-521.960	-200.000	-0.008	0.225
-520.945	-1.150	-0.079	-0.056
-519.931	-83.312	0.299	-0.097
-518.916	-200.000	-0.040	0.446
-517.902	-132.542	0.176	0.023
-516.887	800.000	0.021	-0.067
-515.872	112.571	0.082	0.100
-514.858	-200.000	-0.007	-0.079
-513.843	-200.000	0.023	-0.170
-512.829	172.825	0.141	0.206
-511.814	800.000	-0.041	0.115
-510.799	65.824	0.048	0.049
-509.785	800.000	-0.106	0.407
-508.770	-91.719	-0.231	-0.066
-507.756	-143.276	0.272	-0.026
-506.741	-200.000	-0.015	-0.259
-505.726	800.000	-0.038	-0.132
-504.712	-80.058	-0.260	-0.088
-503.697	201.021	0.031	0.048
-502.683	-91.694	-0.251	-0.072
-501.668	-157.647	0.104	0.006
-500.653	8.371	-0.201	-0.153
-499.639	-74.348	0.291	0.106
-498.624	-39.937	-0.456	0.241
-497.610	-106.285	-0.252	-0.057
-496.595	-187.057	-0.158	0.002
-495.581	476.895	0.246	-0.562
-494.566	115.728	-0.261	-0.323
-493.551	216.869	0.071	-0.114
-492.537	110.506	0.167	0.203
-491.522	45.538	-0.179	0.167
-490.508	-200.000	0.034	-0.222
-489.493	-189.391	-0.065	0.001
-488.478	-62.979	-0.070	0.029
-487.464	6.073	0.212	-0.159
-486.449	-93.254	-0.154	-0.043
-485.435	736.579	-0.025	0.067
-484.420	260.864	0.030	-0.053
-483.405	-200.000	-0.048	-0.356
-482.391	142.132	-0.183	-0.246
-481.376	3.984	-0.173	-0.128
-480.362	-12.863	-0.169	-0.111
-479.347	156.076	0.258	0.359
-478.332	251.237	0.059	-0.101
-477.318	117.859	-0.072	-0.089
-476.303	-200.000	-0.044	-0.206
-475.289	-200.000	0.000	-0.279
-474.274	-11.090	-0.202	-0.134
-473.259	-101.442	0.100	-0.025
-472.245	800.000	0.077	0.306
-471.230	-200.000	0.007	0.145
-470.216	800.000	0.022	-0.069
-469.201	-59.883	0.035	-0.015
-468.186	309.088	0.151	-0.285
-467.172	35.113	0.186	0.165
-466.157	49.669	-0.054	-0.051
-465.143	-1.692	0.129	-0.091
-464.128	-51.605	0.141	-0.066
-463.113	2.446	-0.086	0.063
-462.099	230.272	0.029	0.048
-461.084	-91.702	-0.166	0.048
-460.070	71.469	0.157	0.164
-459.055	98.418	-0.202	-0.235
-458.040	601.764	-0.077	-0.193
-457.026	52.808	0.056	0.054
-456.011	-100.399	0.099	-0.025
-454.997	568.068	0.100	-0.245
-453.982	-178.078	-0.256	-0.006
-452.968	-200.000	0.020	0.089
-451.953	800.000	-0.040	-0.151
-450.938	53.810	-0.150	-0.145
-449.924	172.998	-0.154	0.224
-448.909	-108.635	0.218	0.047
-447.895	800.000	-0.083	0.233
-446.880	-104.141	-0.188	0.044
-445.865	-31.455	-0.167	-0.094
-444.851	-145.622	0.308	-0.028
-443.836	101.605	0.316	-0.372
-442.822	-119.170	0.287	0.051
-441.807	-200.000	0.045	0.257
-440.792	-52.687	0.136	-0.063
-439.778	-175.146	-0.254	0.007
-438.763	-52.541	0.281	0.131
-437.749	-75.872	-0.394	0.141
-436.734	-13.577	0.232	-0.151
-435.719	75.461	0.219	0.233
-434.705	-70.984	0.247	-0.094
-433.690	58.395	-0.232	-0.229
-432.676	196.493	0.052	0.080
-431.661	-166.559	-0.089	-0.004
-430.646	112.518	0.047	-0.057
-429.632	527.835	-0.022	0.051
-428.617	568.848	0.157	-0.385
-427.603	-47.076	0.180	0.088
-426.588	-8.174	-0.253	0.172
-425.573	800.000	0.073	-0.208
-424.559	-55.702	-0.365	-0.164
-423.544	70.245	-0.165	-0.172
-422.530	800.000	-0.070	0.213
-421.515	800.000	0.032	0.110
-420.500	267.803	0.130	-0.229
-419.486	146.264	0.141	0.191
-418.471	-24.158	0.228	-0.137
-417.457	-129.988	-0.311	0.043
-416.442	-81.003	-0.256	-0.086
-415.428	-200.000	0.013	0.244
-414.413	800.000	-0.063	-0.272
-413.398	-55.805	-0.139	0.062
-412.384	212.493	0.074	0.117
-411.369	47.877	0.210	0.197
-410.355	15.980	0.262	0.208
-409.340	-94.238	-0.270	0.074
-408.325	-65.300	-0.068	0.028
-407.311	19.687	-0.077	0.062
-406.296	182.175	-0.087	-0.130
-405.282	-67.059	-0.042	0.017
-404.267	-200.000	0.004	-0.030
-403.252	-60.366	0.322	0.138
-402.238	-28.829	0.337	-0.195
-401.223	-165.131	-0.180	-0.008
-400.209	131.221	0.112	-0.144
-399.194	-65.762	0.303	0.122
-398.179	800.000	-0.045	0.159
-397.165	105.806	0.084	-0.101
-396.150	3.976	0.273	0.201
-395.136	-130.439	0.110	-0.015
-394.121	91.096	-0.201	-0.227
-393.106	-3.702	0.157	-0.110
-392.092	-48.786	-0.064	-0.031
-391.077	48.417	0.375	0.353
-390.063	218.086	0.120	0.193
-389.048	800.000	0.087	0.247
-388.033	-44.636	0.120	-0.060
-387.019	-0.497	0.181	-0.129
-386.004	30.683	0.142	-0.122
-384.990	-71.043	-0.240	0.091
-383.975	-79.180	-0.324	-0.110
-382.960	-156.885	0.269	0.017
-381.946	537.519	-0.168	0.400
-380.931	-200.000	-0.015	0.231
-379.917	89.686	0.004	0.005
-378.902	327.545	-0.009	0.018
-377.888	-10.034	0.068	-0.046
-376.873	-0.694	0.190	-0.136
-375.858	-187.890	0.180	-0.002
-374.844	566.260	0.034	-0.084
-373.829	800.000	0.021	0.069
-372.815	-47.394	-0.187	0.091
-371.800	268.298	0.087	-0.153
-370.785	-0.210	-0.184	-0.132
-369.771	-15.656	0.028	0.018
-368.756	-140.330	0.351	-0.037
-367.742	800.000	0.039	0.152
-366.727	-200.000	0.037	0.231
-365.712	158.267	-0.097	0.135
-364.698	79.071	0.106	-0.114
-363.683	-200.000	0.027	-0.292
-362.669	-132.270	-0.440	0.057
-361.654	-74.678	0.120	0.043
-360.639	-78.983	0.229	0.078
-359.625	41.694	0.225	0.204
-358.610	-200.000	0.266	0.001
-357.596	65.301	-0.163	0.166
-356.581	355.799	0.100	0.201
-355.566	189.979	0.035	0.053
-354.552	63.444	0.252	-0.254
-353.537	8.630	0.108	0.082
-352.523	211.836	-0.040	-0.063
-351.508	-16.950	-0.102	-0.065
-350.493	-113.414	-0.080	-0.016
-349.479	-70.168	-0.433	0.165
-348.464	-200.000	-0.038	-0.226
-347.450	800.000	-0.049	-0.162
-346.435	-66.804	0.229	-0.091
-345.420	-117.502	-0.261	0.047
-344.406	310.487	-0.094	-0.177
-343.391	-200.000	-0.017	-0.081
-342.377	800.000	-0.056	0.223
-341.362	55.351	-0.143	-0.139
-340.348	-75.053	-0.166	0.060
-339.333	800.000	0.124	-0.390
-338.318	-25.422	0.155	0.092
-337.304	800.000	0.118	0.389
-336.289	213.791	-0.137	-0.218
-335.275	-48.629	-0.207	-0.100
-334.260	-130.419	0.192	-0.026
-333.245	-200.000	-0.033	0.178
-332.231	746.758	0.067	0.181
-331.216	-49.017	0.073	0.035
-330.202	-155.339	0.223	0.015
-329.187	136.418	-0.229	0.300
-328.172	130.995	0.216	0.278
-327.158	800.000	-0.061	-0.192
-326.143	-84.156	0.179	-0.057
-325.129	800.000	0.092	0.262
-324.114	800.000	-0.090	0.279
-323.099	-126.512	0.115	0.017
-322.085	41.812	-0.413	0.376
-321.070	16.450	0.068	0.053
-320.056	-86.282	-0.343	-0.106
-319.041	-9.966	0.361	-0.241
-318.026	-45.451	-0.068	0.034
-317.012	-200.000	0.019	-0.186
-315.997	256.841	-0.024	-0.041
-314.983	-68.758	-0.124	-0.048
-313.968	800.000	-0.044	-0.147
-312.953	714.399	0.027	-0.071
-311.939	473.229	0.054	0.123
-310.924	-87.964	0.116	0.035
-309.910	55.328	0.214	0.208
-308.895	-132.374	0.394	0.051
-307.880	9.577	-0.256	-0.194
-306.866	-200.000	0.071	-0.471
-305.851	-5.687	-0.153	-0.105
-304.837	13.627	0.280	-0.218
-303.822	-65.123	-0.005	-0.002
-302.807	-49.770	-0.366	0.174
-301.793	259.586	-0.101	0.175
-300.778	83.892	0.234	0.256
-299.764	33.605	-0.143	0.125
-298.749	221.442	0.046	0.074
-297.735	-39.341	-0.227	0.120
-296.720	58.341	-0.145	-0.143
-295.705	682.573	-0.056	-0.146
-294.691	75.191	0.109	0.115
-293.676	23.788	0.341	-0.281
-292.662	652.524	0.165	0.424
-291.647	-114.017	-0.098	0.019
-290.632	-62.843	-0.179	0.074
-289.618	526.278	0.048	-0.114
-288.603	12.460	0.046	0.036
-287.589	-1.611	-0.298	0.210
-286.574	800.000	0.044	-0.138
-285.559	-115.601	0.234	-0.044
-284.545	-115.222	0.291	0.055
-283.530	-200.000	-0.005	-0.100
-282.516	800.000	-0.083	-0.271
-281.501	-83.798	0.327	-0.104
-280.486	46.973	0.108	-0.101
-279.472	-200.000	0.007	0.140
-278.457	-200.000	-0.019	-0.114
-277.443	156.691	0.166	-0.230
-276.428	-36.746	-0.073	-0.039
-275.413	-118.478	0.138	0.024
-274.399	-36.152	0.383	-0.207
-273.384	-131.597	-0.078	0.010
-272.370	-200.000	0.004	0.165
-271.355	-200.000	0.286	0.000
-270.340	131.893	-0.130	0.168
-269.326	-142.007	0.289	0.029
-268.311	-200.000	0.015	-0.079
-267.297	-96.522	0.300	0.079
-266.282	-157.905	0.351	-0.021
-265.267	-200.000	-0.001	-0.073
-264.253	-9.225	-0.033	0.022
-263.238	-200.000	0.008	-0.198
-262.224	81.166	-0.045	0.049
-261.209	-105.398	-0.183	0.042
-260.195	350.024	-0.068	-0.134
-259.180	-64.921	-0.471	-0.191
-258.165	-78.565	-0.301	-0.103
-257.151	81.262	0.190	0.205
-256.136	-200.000	0.210	-0.001
-255.122	-96.661	-0.391	-0.103
-254.107	83.047	-0.138	-0.150
-253.092	-156.878	-0.411	-0.025
-252.078	-13.738	0.161	0.104
-251.063	29.843	0.209	-0.178
-250.049	-67.892	-0.128	-0.050
-249.034	-65.270	0.095	-0.038
-248.019	326.879	0.187	-0.359
-247.005	607.601	0.097	-0.242
-245.990	-200.000	0.035	-0.179
-244.976	292.231	-0.061	0.112
-243.961	789.718	0.063	0.174
-242.946	131.818	-0.026	0.033
-241.932	-140.630	0.157	-0.016
-240.917	-128.284	0.262	0.037
-239.903	-170.249	-0.294	-0.010
-238.888	-77.652	0.218	-0.075
-237.873	800.000	0.041	-0.128
-236.859	-174.762	-0.183	0.005
-235.844	-94.383	0.238	0.065
-234.830	800.000	-0.080	-0.223
-233.815	-7.010	-0.107	0.073
-232.800	-113.086	0.144	0.028
-231.786	800.000	0.013	-0.050
-230.771	499.198	0.066	0.152
-229.757	547.124	-0.047	0.112
-228.742	-195.638	0.037	0.000
-227.727	-200.000	-0.025	-0.164
-226.713	-11.568	-0.251	-0.165
-225.698	20.214	-0.056	0.045
-224.684	366.091	-0.078	-0.157
-223.669	-200.000	0.026	-0.166
-222.655	-200.000	-0.007	0.304
-221.640	-76.469	0.024	-0.009
-220.625	-167.521	0.138	-0.006
-219.611	-2.922	-0.148	-0.103
-218.596	-200.000	0.006	-0.206
-217.582	201.471	0.169	0.259
-216.567	-91.113	0.209	0.060
-215.552	164.673	-0.060	-0.084
-214.538	800.000	-0.081	-0.224
-213.523	-117.090	0.175	-0.032
-212.509	120.613	-0.051	-0.063
-211.494	-134.806	0.020	0.002
-210.479	800.000	0.066	0.250
-209.465	-172.503	-0.107	-0.003
-208.450	-61.630	-0.081	-0.034
-207.436	154.853	0.024	0.033
-206.421	-65.972	0.022	0.009
-205.406	182.499	0.102	0.150
-204.392	-124.104	-0.320	0.050
-203.377	96.265	-0.060	0.069
-202.363	-110.510	0.204	0.042
-201.348	111.243	0.101	0.122
-200.333	-45.187	0.108	-0.054
-199.319	-200.000	0.006	-0.122
-198.304	-200.000	-0.003	-0.041
-197.290	-200.000	-0.007	-0.125
-196.275	-128.962	0.202	-0.028
-195.260	184.590	0.074	0.109
-194.246	251.928	0.234	-0.397
-193.231	-66.762	-0.109	0.043
-192.217	-111.708	0.092	0.019
-191.202	800.000	0.091	0.275
-190.187	-200.000	0.021	-0.151
-189.173	-200.000	0.028	0.201
-188.158	-186.483	0.175	0.002
-187.144	88.411	-0.198	0.220
-186.129	752.083	0.058	-0.157
-185.114	-21.221	-0.245	0.149
-184.100	63.006	0.132	-0.132
-183.085	-35.357	-0.190	0.103
-182.071	63.299	0.107	-0.107
-181.056	108.575	-0.155	0.185
-180.042	37.210	-0.149	0.131
-179.027	-74.629	0.135	0.048
-178.012	-46.125	0.191	0.094
-176.998	-109.381	0.174	-0.037
-175.983	203.373	-0.033	0.051
-174.969	98.123	0.149	0.171
-173.954	119.833	0.276	0.341
-172.939	206.918	0.164	0.255
-171.925	-42.131	-0.302	-0.154
-170.910	-39.419	-0.216	0.113
-169.896	194.554	0.047	0.071
-168.881	-32.455	-0.160	-0.089
-167.866	-118.531	-0.096	-0.017
-166.852	-98.414	-0.214	-0.055
-165.837	12.755	0.112	-0.086
-164.823	491.874	-0.097	-0.222
-163.808	-87.996	0.223	-0.067
-162.793	552.532	-0.073	0.175
-161.779	-84.074	-0.227	-0.072
-160.764	-77.416	-0.100	0.035
-159.750	53.777	-0.059	-0.057
-158.735	800.000	0.103	0.372
-157.720	-12.429	-0.285	0.185
-156.706	-171.531	0.062	-0.002
-155.691	-76.295	-0.273	-0.096
-154.677	-200.000	0.002	-0.088
-153.662	246.164	0.113	0.190
-152.647	192.812	-0.110	-0.166
-151.633	-200.000	-0.006	0.219
-150.618	-14.332	0.079	0.051
-149.604	-55.929	-0.250	0.111
-148.589	-141.741	0.190	-0.019
-147.574	-73.707	0.237	0.086
-146.560	13.242	0.204	0.158
-145.545	-74.481	-0.399	0.143
-144.531	-177.408	-0.193	-0.005
-143.516	39.976	0.050	-0.045
-142.502	-200.000	0.011	-0.366
-141.487	125.808	-0.010	-0.012
-140.472	407.222	-0.094	0.197
-139.458	136.291	0.094	-0.122
-138.443	82.913	-0.051	0.056
-137.429	-134.434	0.220	0.027
-136.414	-200.000	-0.005	0.125
-135.399	20.686	0.181	0.146
-134.385	-106.593	0.145	0.032
-133.370	156.470	0.064	0.088
-132.356	135.715	0.294	0.382
-131.341	46.701	0.145	0.134
-130.326	-60.313	-0.076	-0.032
-129.312	800.000	-0.064	0.181
-128.297	-147.228	-0.379	0.032
-127.283	-92.361	-0.234	-0.066
-126.268	8.636	-0.149	0.111
-125.253	-105.288	0.105	-0.024
-124.239	242.226	0.211	-0.351
-123.224	-136.627	-0.048	-0.006
-122.210	559.617	-0.030	-0.072
-121.195	239.830	-0.040	-0.066
-120.180	800.000	-0.060	0.204
