DTS Sentinel unit serial number:	SN413079Multiplexer serial number:	ORYXHardware model number:	OX4-SRSoftware version number:	ORYX F/W v4.00 Oryx Data Collector v3.7.2.0data status	okinstallation	princeton_trtdifferential loss correction	single-endedforward channel	channel 1reverse channel	N/Adate	2019/09/14time	17:58:35forward acquisition time	60.00reverse acquisition time	0.00gamma	496.2192k internal	0.2299k external	0.2299temperature offset calibration	1.0042default loss term (dB/km)	0.3790temperature slope calibration	1.0000multiplexer offset coefficient	1.0000multiplexer slope coefficient	1.0000fibre end	0.00T internal ref (°C)	37.36T ext. ref 1 (°C)	4.97T ext. ref 2 (°C)	31.92length (m)	temperature (°C)	Stokes	anti-Stokes-747.200	-200.000	-0.007	-0.191
-746.185	-200.000	0.025	0.133
-745.171	-98.381	0.184	-0.048
-744.156	-121.714	0.211	0.036
-743.142	32.583	-0.229	-0.202
-742.127	-174.747	0.070	0.002
-741.112	-150.889	0.232	0.018
-740.098	-36.725	-0.093	0.051
-739.083	126.732	-0.142	-0.184
-738.069	800.000	0.082	0.332
-737.054	-200.000	0.002	0.356
-736.039	167.924	0.146	-0.212
-735.025	-200.000	0.005	0.153
-734.010	69.083	-0.112	-0.118
-732.996	162.620	-0.027	-0.038
-731.981	-164.522	-0.340	-0.016
-730.966	25.447	-0.340	-0.288
-729.952	-98.960	0.357	-0.092
-728.937	-87.258	0.187	-0.058
-727.923	-115.139	0.532	-0.103
-726.908	216.303	-0.023	-0.037
-725.894	-113.360	-0.190	0.038
-724.879	130.632	0.197	0.257
-723.864	800.000	0.047	-0.137
-722.850	87.751	-0.157	0.177
-721.835	-162.647	-0.155	-0.008
-720.821	800.000	-0.046	-0.133
-719.806	190.902	0.195	-0.299
-718.791	-35.259	-0.315	0.175
-717.777	800.000	0.064	0.262
-716.762	-168.152	0.074	0.003
-715.748	-77.700	-0.264	0.093
-714.733	-200.000	0.091	-0.522
-713.718	-138.886	0.282	0.031
-712.704	-200.000	0.006	-0.246
-711.689	82.745	0.126	-0.139
-710.675	-15.963	-0.154	0.100
-709.660	-200.000	0.022	0.322
-708.645	165.220	0.131	0.188
-707.631	182.310	0.045	0.068
-706.616	-135.736	-0.089	0.011
-705.602	266.778	-0.093	-0.165
-704.587	72.227	0.228	-0.242
-703.572	21.006	0.153	-0.126
-702.558	49.665	-0.118	0.113
-701.543	112.851	0.221	0.273
-700.529	-98.050	-0.302	0.079
-699.514	-95.538	0.081	-0.022
-698.499	-200.000	-0.017	0.152
-697.485	-200.000	0.005	-0.146
-696.470	-200.000	-0.021	0.294
-695.456	800.000	0.074	-0.236
-694.441	-42.804	0.131	-0.068
-693.426	-0.319	-0.160	-0.116
-692.412	-138.094	-0.045	-0.005
-691.397	33.571	-0.098	-0.087
-690.383	106.808	0.184	0.223
-689.368	570.648	-0.033	-0.081
-688.354	800.000	0.034	-0.099
-687.339	-116.898	-0.173	-0.032
-686.324	27.307	0.137	0.117
-685.310	-168.454	-0.075	0.003
-684.295	510.454	0.163	-0.385
-683.281	22.700	0.204	0.170
-682.266	86.827	-0.027	-0.030
-681.251	232.376	0.150	-0.250
-680.237	800.000	0.053	0.155
-679.222	800.000	-0.046	0.146
-678.208	60.909	-0.205	-0.207
-677.193	224.083	0.259	-0.426
-676.178	-33.305	-0.103	-0.058
-675.164	800.000	-0.048	-0.162
-674.149	176.696	-0.143	0.211
-673.135	-113.428	-0.169	0.034
-672.120	-65.642	-0.166	0.068
-671.105	-200.000	-0.003	0.181
-670.091	54.822	0.227	0.223
-669.076	-200.000	0.043	0.199
-668.062	-200.000	-0.014	-0.163
-667.047	135.159	0.138	0.182
-666.032	-66.495	0.421	-0.170
-665.018	-173.450	-0.108	-0.003
-664.003	-90.590	0.238	-0.070
-662.989	-154.652	-0.043	0.003
-661.974	-29.218	-0.107	0.062
-660.959	706.326	-0.059	-0.159
-659.945	-94.459	-0.166	0.046
-658.930	-113.629	0.226	-0.045
-657.916	-200.000	0.067	0.303
-656.901	-200.000	0.037	-0.213
-655.886	52.995	0.274	0.267
-654.872	-18.353	0.269	-0.171
-653.857	-200.000	0.027	0.235
-652.843	34.295	0.193	0.171
-651.828	-200.000	0.014	0.124
-650.814	-156.787	-0.260	0.016
-649.799	-200.000	0.030	-0.278
-648.784	-125.715	0.108	0.017
-647.770	21.672	0.285	0.236
-646.755	49.216	-0.168	0.160
-645.741	115.595	0.200	-0.248
-644.726	43.598	0.226	0.210
-643.711	324.424	-0.050	0.097
-642.697	264.435	0.116	0.205
-641.682	800.000	0.051	-0.213
-640.668	-97.253	0.089	-0.023
-639.653	-200.000	0.025	0.209
-638.638	619.556	-0.164	0.418
-637.624	39.937	0.298	0.272
-636.609	56.314	-0.205	-0.203
-635.595	84.682	-0.261	0.290
-634.580	-18.898	0.276	0.174
-633.565	-200.000	0.010	0.159
-632.551	-26.963	0.200	0.119
-631.536	-10.666	-0.068	0.046
-630.522	195.097	0.171	-0.264
-629.507	113.941	-0.255	-0.315
-628.492	136.997	0.151	0.200
-627.478	35.352	-0.137	-0.122
-626.463	-154.817	-0.215	0.014
-625.449	170.453	-0.097	-0.141
-624.434	128.419	-0.113	-0.146
-623.419	486.566	-0.064	-0.149
-622.405	-200.000	0.015	0.156
-621.390	800.000	-0.121	-0.418
-620.376	-200.000	0.028	0.168
-619.361	800.000	-0.039	-0.145
-618.346	104.288	-0.084	0.100
-617.332	60.348	-0.242	0.243
-616.317	-200.000	0.052	-0.372
-615.303	19.989	-0.087	0.071
-614.288	800.000	-0.078	-0.231
-613.273	-113.548	0.040	-0.008
-612.259	-200.000	0.040	-0.216
-611.244	-168.738	0.115	0.004
-610.230	-126.049	0.054	-0.008
-609.215	133.132	0.104	-0.137
-608.201	-140.664	0.180	-0.019
-607.186	-173.518	-0.037	0.001
-606.171	800.000	0.081	-0.262
-605.157	190.036	-0.061	0.092
-604.142	-200.000	-0.090	0.509
-603.128	91.866	0.259	-0.296
-602.113	-150.674	0.147	0.011
-601.098	-15.471	0.495	-0.321
-600.084	78.466	0.173	-0.187
-599.069	-200.000	-0.064	0.287
-598.055	-38.031	-0.074	0.040
-597.040	800.000	-0.071	-0.269
-596.025	128.421	0.149	-0.192
-595.011	-200.000	0.022	0.176
-593.996	124.505	-0.176	-0.224
-592.982	-120.344	0.302	0.052
-591.967	-200.000	0.056	0.335
-590.952	-169.100	0.105	0.004
-589.938	67.942	0.036	-0.037
-588.923	-104.786	-0.061	-0.014
-587.909	-59.786	0.133	-0.058
-586.894	-200.000	0.049	-0.265
-585.879	41.598	-0.091	0.084
-584.865	800.000	-0.028	-0.080
-583.850	-122.313	-0.282	-0.047
-582.836	-63.192	-0.267	-0.111
-581.821	-76.318	-0.246	-0.088
-580.806	28.605	0.126	0.108
-579.792	165.898	-0.134	0.193
-578.777	-65.044	0.069	-0.028
-577.763	800.000	-0.106	0.425
-576.748	-28.061	0.129	0.075
-575.733	-53.227	-0.190	-0.088
-574.719	-32.672	-0.156	-0.088
-573.704	243.057	0.047	-0.080
-572.690	388.440	-0.103	0.217
-571.675	324.677	0.150	0.291
-570.661	-17.690	-0.199	-0.127
-569.646	-87.298	-0.356	-0.110
-568.631	-150.103	-0.030	0.002
-567.617	-153.397	0.399	0.028
-566.602	-118.295	0.190	0.034
-565.588	-200.000	-0.043	0.318
-564.573	98.098	0.091	-0.106
-563.558	-200.000	-0.018	0.145
-562.544	-9.895	-0.117	0.079
-561.529	57.284	0.160	-0.158
-560.515	800.000	0.024	-0.105
-559.500	-44.506	-0.225	0.114
-558.485	20.078	-0.087	0.071
-557.471	183.906	0.155	-0.232
-556.456	490.763	0.081	0.188
-555.442	-12.947	-0.410	0.270
-554.427	396.586	-0.167	0.353
-553.412	800.000	0.040	-0.117
-552.398	283.071	-0.126	-0.230
-551.383	46.879	-0.051	-0.048
-550.369	190.753	0.256	0.390
-549.354	-113.295	-0.086	0.017
-548.339	-200.000	0.021	-0.326
-547.325	-200.000	0.001	0.015
-546.310	-200.000	-0.008	0.227
-545.296	800.000	-0.096	-0.288
-544.281	-200.000	0.059	-0.316
-543.266	800.000	-0.035	0.113
-542.252	216.270	-0.095	0.153
-541.237	58.979	-0.214	0.213
-540.223	-200.000	0.024	-0.257
-539.208	145.793	0.133	0.180
-538.193	189.205	0.231	-0.351
-537.179	-108.013	-0.133	-0.029
-536.164	139.475	0.242	-0.322
-535.150	84.234	-0.103	0.114
-534.135	75.229	0.140	0.149
-533.121	800.000	0.009	0.032
-532.106	-200.000	-0.050	-0.324
-531.091	-9.153	0.131	0.089
-530.077	-200.000	-0.015	0.174
-529.062	111.584	0.085	-0.104
-528.048	-200.000	-0.018	-0.130
-527.033	100.880	0.106	0.125
-526.018	-155.609	0.247	-0.016
-525.004	23.431	0.114	-0.095
-523.989	-82.812	-0.225	-0.073
-522.975	-124.476	0.228	-0.036
-521.960	352.610	-0.132	0.264
-520.945	414.979	-0.029	0.062
-519.931	93.203	0.055	-0.062
-518.916	7.356	0.250	-0.189
-517.902	212.459	-0.187	-0.298
-516.887	-37.589	0.134	0.072
-515.872	-93.104	0.225	-0.063
-514.858	-200.000	-0.049	-0.375
-513.843	-83.966	0.145	0.047
-512.829	193.914	0.018	-0.028
-511.814	92.904	-0.246	0.281
-510.799	267.741	-0.145	-0.256
-509.785	800.000	0.146	-0.474
-508.770	-11.762	-0.128	0.085
-507.756	-94.175	0.432	-0.120
-506.741	-200.000	0.015	-0.073
-505.726	-58.111	0.302	0.133
-504.712	381.460	-0.088	-0.183
-503.697	800.000	-0.075	-0.289
-502.683	2.111	-0.087	0.064
-501.668	777.200	-0.034	0.094
-500.653	-68.540	0.064	0.025
-499.639	562.873	0.104	-0.253
-498.624	136.332	0.151	-0.200
-497.610	92.509	-0.158	-0.181
-496.595	-61.477	0.250	0.106
-495.581	365.340	0.148	-0.302
-494.566	106.830	-0.125	-0.149
-493.551	-75.900	-0.053	0.019
-492.537	87.157	0.126	-0.140
-491.522	296.386	0.143	-0.265
-490.508	-22.409	-0.202	-0.123
-489.493	-58.125	-0.267	0.118
-488.478	-14.340	-0.128	-0.084
-487.464	800.000	-0.064	-0.216
-486.449	800.000	-0.037	-0.138
-485.435	24.750	0.191	-0.160
-484.420	-149.546	0.459	-0.037
-483.405	-2.564	-0.048	-0.034
-482.391	-26.903	-0.149	0.088
-481.376	137.276	0.134	-0.177
-480.362	-200.000	-0.012	0.214
-479.347	77.345	0.087	0.093
-478.332	-174.689	0.045	0.001
-477.318	-146.203	0.046	0.004
-476.303	-132.229	0.223	-0.029
-475.289	-44.958	0.056	0.028
-474.274	-182.051	-0.299	-0.006
-473.259	284.035	0.125	-0.227
-472.245	-125.070	0.023	-0.004
-471.230	93.664	-0.190	-0.218
-470.216	10.251	-0.007	-0.006
-469.201	4.247	-0.251	0.186
-468.186	-128.717	0.354	-0.050
-467.172	-99.582	0.130	0.033
-466.157	-141.730	-0.144	0.015
-465.143	479.915	-0.068	0.157
-464.128	94.872	-0.155	-0.177
-463.113	738.755	-0.040	0.110
-462.099	1.139	-0.162	-0.117
-461.084	800.000	0.072	0.252
-460.070	314.939	0.130	-0.248
-459.055	800.000	0.049	0.165
-458.040	315.062	-0.154	0.293
-457.026	-200.000	0.010	-0.067
-456.011	800.000	0.113	-0.392
-454.997	66.337	0.222	0.227
-453.982	-88.586	-0.108	-0.032
-452.968	-200.000	0.003	0.098
-451.953	63.038	0.116	-0.117
-450.938	800.000	-0.017	0.049
-449.924	-200.000	-0.039	0.363
-448.909	4.426	-0.355	0.263
-447.895	-100.592	-0.152	0.038
-446.880	-1.117	-0.153	-0.109
-445.865	-200.000	-0.050	-0.232
-444.851	-67.135	-0.225	-0.089
-443.836	-112.325	-0.212	0.043
-442.822	-127.085	-0.203	-0.030
-441.807	800.000	-0.038	0.135
-440.792	-164.072	0.442	-0.021
-439.778	800.000	0.080	0.271
-438.763	14.751	-0.173	-0.136
-437.749	729.189	0.162	-0.436
-436.734	-131.193	-0.500	0.067
-435.719	-200.000	-0.035	0.327
-434.705	138.905	0.201	0.266
-433.690	59.345	-0.204	-0.202
-432.676	-200.000	0.038	-0.508
-431.661	144.834	-0.128	0.172
-430.646	305.313	0.081	-0.152
-429.632	437.465	0.077	0.170
-428.617	-144.619	0.193	0.018
-427.603	2.824	0.083	-0.061
-426.588	227.673	-0.103	-0.168
-425.573	83.649	0.204	-0.224
-424.559	-200.000	0.019	0.258
-423.544	-5.059	-0.202	0.140
-422.530	87.223	-0.114	0.127
-421.515	-200.000	0.020	0.403
-420.500	-200.000	-0.015	-0.149
-419.486	72.580	0.023	-0.025
-418.471	-75.608	-0.370	0.133
-417.457	-126.831	0.235	0.035
-416.442	-200.000	0.072	0.388
-415.428	98.953	0.126	0.146
-414.413	-52.078	0.144	-0.068
-413.398	-200.000	-0.105	-0.513
-412.384	89.071	-0.157	0.176
-411.369	-200.000	0.002	-0.279
-410.355	-103.133	-0.194	0.046
-409.340	800.000	-0.107	0.393
-408.325	-116.396	0.159	-0.030
-407.311	-142.222	-0.248	-0.025
-406.296	-60.160	-0.282	0.121
-405.282	468.830	0.053	0.121
-404.267	78.315	-0.013	-0.014
-403.252	-200.000	-0.066	-0.332
-402.238	-52.201	-0.147	0.068
-401.223	-143.653	0.264	-0.025
-400.209	-200.000	-0.001	0.078
-399.194	-136.026	-0.190	-0.022
-398.179	-153.715	0.031	-0.002
-397.165	2.063	-0.182	0.132
-396.150	158.278	-0.066	-0.093
-395.136	-200.000	0.001	-0.017
-394.121	654.789	0.109	-0.281
-393.106	-200.000	-0.023	0.218
-392.092	128.709	0.072	0.092
-391.077	-113.129	-0.170	0.034
-390.063	800.000	-0.100	-0.329
-389.048	358.253	-0.080	0.161
-388.033	-200.000	0.010	0.133
-387.019	-200.000	0.022	-0.108
-386.004	21.680	0.215	0.176
-384.990	-45.652	-0.187	0.093
-383.975	-168.210	-0.397	-0.015
-382.960	347.454	0.066	0.130
-381.946	-112.722	-0.268	0.054
-380.931	-139.119	-0.204	0.022
-379.917	126.492	0.037	-0.048
-378.902	251.056	0.023	-0.040
-377.888	-200.000	0.015	0.182
-376.873	-200.000	0.003	-0.190
-375.858	-156.983	-0.469	0.029
-374.844	800.000	0.050	0.166
-373.829	-200.000	0.025	0.116
-372.815	7.343	0.126	-0.095
-371.800	-183.913	0.160	-0.003
-370.785	255.156	-0.028	0.048
-369.771	-193.673	0.203	0.002
-368.756	26.596	-0.113	-0.095
-367.742	2.054	0.279	0.203
-366.727	-190.208	0.352	-0.004
-365.712	-78.673	-0.273	-0.094
-364.698	-200.000	0.020	-0.217
-363.683	800.000	-0.037	0.126
-362.669	-127.785	0.121	-0.018
-361.654	59.531	-0.136	0.135
-360.639	-124.539	0.339	-0.053
-359.625	16.092	0.206	-0.163
-358.610	320.262	-0.137	-0.261
-357.596	-63.120	-0.082	-0.034
-356.581	-98.343	-0.077	-0.020
-355.566	800.000	0.091	-0.323
-354.552	757.484	0.087	0.238
-353.537	103.326	0.205	-0.242
-352.523	637.951	0.051	-0.130
-351.508	311.882	0.029	-0.054
-350.493	-200.000	-0.023	-0.139
-349.479	127.718	0.145	0.186
-348.464	180.867	-0.092	0.136
-347.450	-0.893	0.253	0.180
-346.435	102.686	-0.143	-0.168
-345.420	-7.049	0.084	-0.058
-344.406	-145.383	-0.199	0.018
-343.391	293.502	-0.118	0.217
-342.377	-200.000	0.274	-0.001
-341.362	-75.116	0.225	0.081
-340.348	-79.610	-0.381	0.129
-339.333	147.717	0.121	0.164
-338.318	-2.565	-0.168	0.118
-337.304	-200.000	-0.009	0.059
-336.289	154.643	0.216	-0.299
-335.275	-200.000	0.071	0.362
-334.260	800.000	-0.018	-0.060
-333.245	-23.606	0.303	-0.182
-332.231	-54.441	-0.100	0.045
-331.216	800.000	-0.033	-0.127
-330.202	-143.875	-0.305	0.029
-329.187	-96.268	0.199	0.053
-328.172	458.164	0.017	-0.038
-327.158	800.000	0.039	-0.146
-326.143	69.685	0.143	0.148
-325.129	420.198	-0.024	-0.053
-324.114	103.408	0.086	0.102
-323.099	140.821	-0.211	0.280
-322.085	99.684	0.114	0.132
-321.070	800.000	-0.104	-0.309
-320.056	-200.000	-0.006	0.092
-319.041	12.230	-0.123	0.095
-318.026	78.371	-0.111	-0.119
-317.012	-35.639	-0.222	0.121
-315.997	-135.584	-0.084	0.010
-314.983	104.084	0.224	0.265
-313.968	208.726	0.094	-0.148
-312.953	800.000	-0.007	0.022
-311.939	-1.327	-0.146	0.103
-310.924	-200.000	0.047	-0.283
-309.910	378.881	-0.041	-0.085
-308.895	-151.036	-0.304	0.023
-307.880	90.863	-0.138	0.155
-306.866	-127.327	-0.298	-0.044
-305.851	621.353	0.057	0.145
-304.837	215.570	-0.196	0.312
-303.822	266.921	0.122	0.214
-302.807	800.000	0.092	-0.335
-301.793	-200.000	-0.032	0.376
-300.778	-13.385	-0.167	0.109
-299.764	-2.032	-0.215	-0.152
-298.749	30.415	-0.088	-0.075
-297.735	-49.104	0.225	-0.108
-296.720	273.263	0.219	0.388
-295.705	-66.199	0.272	0.109
-294.691	257.514	-0.253	0.437
-293.676	86.159	0.087	-0.096
-292.662	150.811	-0.166	0.226
-291.647	330.752	0.142	-0.273
-290.632	-200.000	0.000	-0.037
-289.618	8.682	-0.236	0.178
-288.603	-3.775	-0.245	-0.171
-287.589	-150.325	0.172	0.013
-286.574	-167.634	0.301	0.012
-285.559	639.965	0.071	0.181
-284.545	-136.612	0.378	0.044
-283.530	20.743	0.073	-0.059
-282.516	-200.000	-0.018	0.142
-281.501	242.051	-0.025	-0.041
-280.486	19.447	0.100	0.081
-279.472	1.129	0.072	0.052
-278.457	-200.000	-0.035	-0.197
-277.443	172.194	0.170	-0.244
-276.428	397.521	-0.036	-0.075
-275.413	-142.914	0.349	0.034
-274.399	-61.974	-0.185	-0.077
-273.384	-200.000	-0.011	0.115
-272.370	-133.995	-0.227	0.028
-271.355	-2.917	0.146	-0.102
-270.340	-63.297	-0.347	-0.143
-269.326	209.436	0.086	-0.135
-268.311	-30.998	0.165	-0.093
-267.297	-200.000	-0.020	0.147
-266.282	-101.436	-0.411	0.100
-265.267	-125.471	-0.309	0.047
-264.253	-200.000	0.003	-0.192
-263.238	64.931	0.136	0.137
-262.224	8.073	0.264	0.198
-261.209	616.875	0.086	0.216
-260.195	-155.675	-0.256	0.016
-259.180	-200.000	-0.068	-0.393
-258.165	70.390	0.170	-0.176
-257.151	-200.000	-0.008	-0.183
-256.136	-80.337	-0.376	0.126
-255.122	73.740	0.226	0.238
-254.107	196.642	-0.111	-0.170
-253.092	576.513	-0.212	-0.518
-252.078	-200.000	-0.010	-0.527
-251.063	-200.000	0.002	0.077
-250.049	447.801	-0.083	0.183
-249.034	239.937	0.151	0.252
-248.019	-130.550	-0.480	-0.065
-247.005	56.228	-0.071	-0.069
-245.990	-53.411	0.290	0.133
-244.976	63.360	0.175	0.176
-243.961	-79.240	-0.207	-0.070
-242.946	171.426	-0.130	-0.187
-241.932	34.363	-0.121	0.105
-240.917	-79.372	0.300	0.102
-239.903	-65.206	-0.192	-0.078
-238.888	800.000	-0.102	0.302
-237.873	582.984	0.108	0.266
-236.859	-200.000	0.001	-0.087
-235.844	-47.737	0.177	-0.086
-234.830	87.303	-0.354	0.391
-233.815	322.313	-0.156	0.297
-232.800	-15.970	-0.218	0.138
-231.786	-56.071	0.073	-0.033
-230.771	-38.541	0.245	-0.129
-229.757	-66.710	-0.191	-0.076
-228.742	-32.809	-0.202	0.112
-227.727	338.451	-0.178	0.346
-226.713	290.105	0.062	-0.113
-225.698	46.355	0.260	0.241
-224.684	28.070	-0.185	-0.156
-223.669	-118.330	-0.054	-0.010
-222.655	-153.604	-0.233	-0.016
-221.640	-200.000	-0.008	0.107
-220.625	245.763	0.025	-0.042
-219.611	-60.344	0.224	0.095
-218.596	88.891	0.090	-0.100
-217.582	399.098	-0.041	-0.085
-216.567	-149.257	0.213	-0.017
-215.552	145.794	-0.163	-0.219
-214.538	69.350	0.187	-0.192
-213.523	-131.779	0.102	0.013
-212.509	23.261	0.216	-0.178
-211.494	-132.794	0.119	-0.015
-210.479	-49.990	0.023	0.011
-209.465	-65.551	0.184	0.074
-208.450	-92.281	-0.306	0.086
-207.436	25.364	0.120	0.099
-206.421	-200.000	-0.025	-0.123
-205.406	-131.774	0.197	-0.026
-204.392	-200.000	0.007	-0.376
-203.377	-156.759	0.282	-0.017
-202.363	570.577	0.111	-0.270
-201.348	279.725	0.161	0.288
-200.333	362.957	0.136	0.273
-199.319	-59.640	0.250	-0.107
-198.304	-40.218	-0.169	0.088
-197.290	-90.519	-0.077	0.022
-196.275	-108.952	-0.136	-0.029
-195.260	86.759	0.126	-0.139
-194.246	263.813	0.169	-0.294
-193.231	60.168	-0.036	0.036
-192.217	-63.245	-0.020	0.008
-191.202	-152.904	0.238	-0.017
-190.187	90.573	0.219	0.244
-189.173	8.991	-0.215	0.162
-188.158	-200.000	0.006	0.122
-187.144	-111.626	0.192	0.039
-186.129	39.266	-0.158	0.141
-185.114	72.597	0.170	0.177
-184.100	-87.010	0.120	0.036
-183.085	-146.990	-0.179	-0.015
-182.071	-68.315	-0.256	-0.099
-181.056	43.825	0.129	0.118
-180.042	800.000	-0.048	-0.174
-179.027	159.245	-0.176	-0.245
-178.012	128.098	0.197	0.251
-176.998	-105.145	-0.216	0.049
-175.983	47.927	-0.106	0.098
-174.969	-82.402	0.233	-0.076
-173.954	82.094	-0.097	-0.105
-172.939	-52.968	-0.108	0.050
-171.925	-104.156	-0.165	-0.038
-170.910	19.221	0.343	0.274
-169.896	-27.857	0.131	-0.076
-168.881	-112.876	-0.110	-0.022
-167.866	-160.222	0.208	0.011
-166.852	-127.013	0.246	0.036
-165.837	35.776	-0.213	0.186
-164.823	603.482	0.110	-0.273
-163.808	-10.993	-0.050	-0.033
-162.793	51.879	-0.155	-0.147
-161.779	800.000	0.097	0.302
-160.764	6.844	-0.363	0.269
-159.750	-56.782	-0.143	-0.063
-158.735	800.000	0.009	0.028
-157.720	-70.108	-0.130	-0.049
-156.706	-112.233	0.104	0.021
-155.691	33.968	0.087	0.075
-154.677	-200.000	-0.035	0.161
-153.662	800.000	0.019	-0.082
-152.647	-39.506	0.166	0.087
-151.633	-200.000	0.041	-0.331
-150.618	123.359	0.152	0.190
-149.604	-38.105	0.135	0.071
-148.589	7.255	-0.194	0.144
-147.574	-182.414	-0.327	0.006
-146.560	31.087	0.163	0.140
-145.545	113.904	0.079	0.096
-144.531	102.181	0.100	-0.117
-143.516	93.964	0.069	0.078
-142.502	-107.810	0.599	0.130
-141.487	117.579	0.164	-0.202
-140.472	-98.805	-0.095	0.024
-139.458	228.207	-0.087	-0.141
-138.443	349.155	0.069	-0.136
-137.429	505.711	-0.085	-0.197
-136.414	108.064	0.186	0.221
-135.399	72.913	-0.196	0.204
-134.385	800.000	0.100	0.350
-133.370	53.942	0.098	-0.094
-132.356	-1.839	0.235	-0.165
-131.341	102.331	0.028	0.033
-130.326	800.000	0.090	-0.342
-129.312	-121.739	-0.155	-0.026
-128.297	-16.182	0.306	-0.194
-127.283	-61.052	-0.252	-0.106
-126.268	-107.526	-0.041	0.009
-125.253	409.537	0.139	-0.292
-124.239	-2.967	-0.174	-0.121
-123.224	800.000	-0.037	-0.153
-122.210	-112.908	-0.261	0.051
-121.195	59.454	-0.219	0.215
-120.180	300.074	-0.056	-0.103
