DTS Sentinel unit serial number:	SN413079Multiplexer serial number:	ORYXHardware model number:	OX4-SRSoftware version number:	ORYX F/W v4.00 Oryx Data Collector v3.7.2.0data status	okinstallation	princeton_trtdifferential loss correction	single-endedforward channel	channel 1reverse channel	N/Adate	2019/09/11time	19:24:11forward acquisition time	60.00reverse acquisition time	0.00gamma	496.2192k internal	0.2295k external	0.2295temperature offset calibration	1.0021default loss term (dB/km)	0.3790temperature slope calibration	1.0000multiplexer offset coefficient	1.0000multiplexer slope coefficient	1.0000fibre end	0.00T internal ref (°C)	40.80T ext. ref 1 (°C)	1.30T ext. ref 2 (°C)	33.03length (m)	temperature (°C)	Stokes	anti-Stokes-747.200	123.877	-0.080	0.103
-746.185	800.000	0.007	-0.021
-745.171	-138.462	0.413	0.046
-744.156	53.315	0.068	0.066
-743.142	-155.732	-0.122	-0.008
-742.127	-200.000	0.018	0.153
-741.112	-136.520	-0.275	0.033
-740.098	-67.568	0.075	0.030
-739.083	-75.603	0.108	-0.039
-738.069	117.086	-0.149	0.187
-737.054	-34.785	-0.048	0.027
-736.039	149.442	-0.028	-0.039
-735.025	-58.437	-0.164	0.073
-734.010	-200.000	-0.008	-0.045
-732.996	-156.378	0.179	0.011
-731.981	-64.175	0.001	-0.001
-730.966	743.963	-0.080	-0.221
-729.952	-28.972	-0.135	-0.079
-728.937	3.839	-0.092	-0.069
-727.923	-87.152	-0.353	-0.110
-726.908	293.224	-0.172	0.321
-725.894	-200.000	-0.007	0.266
-724.879	131.329	0.058	0.076
-723.864	234.547	0.149	-0.250
-722.850	-64.377	-0.190	0.079
-721.835	800.000	0.053	-0.174
-720.821	181.427	0.132	0.198
-719.806	627.739	-0.044	0.114
-718.791	-200.000	-0.030	-0.227
-717.777	-176.289	-0.417	0.011
-716.762	459.925	0.217	-0.493
-715.748	28.232	0.072	-0.062
-714.733	-57.622	-0.291	-0.130
-713.718	150.766	0.122	0.169
-712.704	-110.594	0.093	0.020
-711.689	-122.250	0.091	-0.015
-710.675	36.990	0.036	0.033
-709.660	-4.221	-0.327	0.231
-708.645	87.814	-0.081	0.092
-707.631	-162.617	0.141	0.007
-706.616	800.000	-0.047	-0.180
-705.602	-200.000	0.052	-0.390
-704.587	-2.580	-0.250	-0.179
-703.572	551.203	-0.042	-0.104
-702.558	748.032	-0.052	0.144
-701.543	-32.820	0.145	-0.082
-700.529	-95.580	-0.162	0.044
-699.514	-97.904	0.433	-0.114
-698.499	-200.000	0.018	0.371
-697.485	-151.504	0.221	0.017
-696.470	-32.758	-0.237	0.134
-695.456	-200.000	0.001	0.156
-694.441	-59.663	0.156	0.068
-693.426	-91.014	-0.018	-0.005
-692.412	-200.000	-0.053	0.329
-691.397	-55.008	-0.168	0.077
-690.383	800.000	-0.083	-0.346
-689.368	800.000	-0.103	0.388
-688.354	226.610	0.155	0.257
-687.339	690.485	-0.076	0.204
-686.324	80.213	-0.089	-0.098
-685.310	-152.627	0.249	-0.018
-684.295	231.239	0.024	0.041
-683.281	-137.584	0.169	-0.019
-682.266	84.089	-0.211	-0.235
-681.251	800.000	0.119	0.339
-680.237	-161.277	0.311	-0.016
-679.222	708.071	-0.073	0.197
-678.208	800.000	-0.051	0.152
-677.193	-132.932	-0.413	-0.054
-676.178	199.025	0.116	0.182
-675.164	15.385	-0.134	-0.107
-674.149	-31.948	0.170	-0.097
-673.135	-39.734	0.106	-0.057
-672.120	-14.359	0.062	0.041
-671.105	93.507	-0.122	-0.141
-670.091	-200.000	0.000	0.149
-669.076	16.566	-0.054	0.043
-668.062	247.046	-0.237	-0.408
-667.047	331.095	0.195	0.383
-666.032	200.580	0.131	0.206
-665.018	180.449	-0.112	-0.168
-664.003	212.833	0.123	-0.198
-662.989	-42.201	0.499	0.260
-661.974	560.431	-0.014	0.034
-660.959	69.504	0.121	-0.127
-659.945	800.000	-0.116	0.356
-658.930	-131.683	0.351	-0.047
-657.916	58.187	0.158	0.158
-656.901	169.953	-0.240	0.350
-655.886	-114.682	-0.219	-0.043
-654.872	-68.551	-0.359	-0.142
-653.857	470.112	0.054	0.123
-652.843	-33.019	-0.120	-0.068
-651.828	-85.784	-0.218	-0.069
-650.814	253.168	-0.097	0.169
-649.799	800.000	-0.096	-0.404
-648.784	-38.735	-0.301	0.162
-647.770	800.000	0.075	-0.292
-646.755	-79.847	-0.099	-0.034
-645.741	-200.000	-0.038	0.200
-644.726	-1.093	0.145	0.105
-643.711	-13.376	-0.230	0.152
-642.697	-200.000	0.045	0.334
-641.682	-94.952	-0.143	0.040
-640.668	-7.643	0.436	-0.300
-639.653	-200.000	0.023	0.109
-638.638	37.119	0.042	0.038
-637.624	-129.274	0.166	-0.024
-636.609	276.187	0.071	-0.128
-635.595	800.000	0.070	-0.283
-634.580	-133.821	-0.327	-0.041
-633.565	-80.376	-0.578	-0.197
-632.551	-103.420	-0.273	0.065
-631.536	-83.290	-0.050	0.016
-630.522	51.071	0.175	-0.169
-629.507	-109.868	0.037	-0.008
-628.492	-61.830	-0.168	-0.072
-627.478	-25.079	0.112	-0.068
-626.463	-83.254	0.427	-0.140
-625.449	-185.747	-0.231	-0.004
-624.434	-200.000	0.008	-0.208
-623.419	-63.085	-0.136	-0.057
-622.405	-200.000	-0.039	-0.288
-621.390	800.000	0.114	-0.382
-620.376	800.000	0.007	-0.024
-619.361	66.657	-0.066	-0.068
-618.346	-125.248	0.421	-0.065
-617.332	-114.300	-0.152	0.030
-616.317	-128.722	0.209	0.030
-615.303	215.245	0.106	-0.171
-614.288	-111.956	0.058	0.012
-613.273	-120.740	-0.294	0.051
-612.259	158.203	0.186	0.262
-611.244	569.716	-0.172	0.425
-610.230	429.123	-0.158	-0.347
-609.215	-93.005	-0.418	0.119
-608.201	180.498	-0.181	0.270
-607.186	-136.981	-0.352	0.041
-606.171	95.803	0.424	-0.493
-605.157	456.760	-0.262	-0.592
-604.142	511.764	0.118	-0.280
-603.128	530.211	0.061	0.146
-602.113	-14.776	0.141	-0.092
-601.098	-27.194	-0.126	-0.075
-600.084	89.776	0.151	0.172
-599.069	-106.287	-0.205	0.047
-598.055	-109.561	0.166	-0.036
-597.040	-200.000	-0.049	-0.373
-596.025	-200.000	-0.056	0.270
-595.011	-110.123	0.326	0.069
-593.996	-136.922	-0.256	0.030
-592.982	-104.094	-0.197	-0.047
-591.967	-86.717	0.267	-0.083
-590.952	800.000	0.172	-0.541
-589.938	88.113	-0.043	0.048
-588.923	1.572	0.140	-0.103
-587.909	-111.011	-0.230	0.048
-586.894	-80.983	0.106	0.036
-585.879	800.000	0.011	-0.050
-584.865	615.750	-0.067	0.171
-583.850	-61.079	-0.054	0.023
-582.836	-141.094	0.205	0.021
-581.821	800.000	-0.031	0.109
-580.806	800.000	0.031	-0.122
-579.792	439.746	-0.042	-0.094
-578.777	-200.000	0.028	0.317
-577.763	26.373	-0.138	-0.118
-576.748	-77.370	0.211	-0.074
-575.733	-200.000	0.006	-0.117
-574.719	-27.174	-0.116	0.069
-573.704	-69.452	-0.115	-0.045
-572.690	-78.927	0.340	-0.118
-571.675	-43.690	0.235	0.120
-570.661	351.168	-0.048	-0.097
-569.646	100.371	-0.173	0.204
-568.631	800.000	-0.035	-0.099
-567.617	-200.000	0.007	-0.177
-566.602	-108.626	0.603	-0.131
-565.588	417.336	-0.093	-0.201
-564.573	108.470	-0.086	-0.105
-563.558	-200.000	0.028	0.162
-562.544	140.738	0.112	0.150
-561.529	800.000	-0.091	0.342
-560.515	-73.811	-0.164	0.061
-559.500	-114.552	0.111	0.022
-558.485	800.000	0.023	0.090
-557.471	-40.619	-0.154	0.081
-556.456	95.046	-0.063	-0.073
-555.442	241.024	0.163	-0.276
-554.427	-200.000	0.004	0.189
-553.412	-9.758	-0.051	0.035
-552.398	-53.392	0.286	-0.133
-551.383	-186.401	0.032	-0.000
-550.369	668.777	-0.045	0.118
-549.354	-103.173	-0.152	-0.037
-548.339	-72.819	-0.363	0.136
-547.325	73.034	-0.094	-0.100
-546.310	259.072	-0.007	0.012
-545.296	614.900	-0.099	-0.252
-544.281	14.905	-0.103	-0.082
-543.266	-200.000	-0.023	0.293
-542.252	-147.267	0.039	-0.003
-541.237	483.069	0.074	0.170
-540.223	373.033	0.078	0.162
-539.208	-25.611	-0.041	0.025
-538.193	512.822	-0.079	0.188
-537.179	557.294	-0.049	-0.120
-536.164	310.867	-0.214	0.407
-535.150	-109.880	-0.124	0.026
-534.135	46.509	0.094	0.089
-533.121	-200.000	-0.001	-0.126
-532.106	92.590	0.090	0.103
-531.091	800.000	-0.095	0.319
-530.077	217.196	0.096	-0.155
-529.062	-200.000	0.001	0.161
-528.048	469.548	-0.117	0.266
-527.033	-200.000	-0.014	-0.114
-526.018	800.000	-0.038	-0.165
-525.004	-145.658	-0.185	-0.017
-523.989	726.314	-0.055	-0.149
-522.975	-200.000	-0.015	0.214
-521.960	423.029	0.035	0.076
-520.945	776.186	-0.135	-0.373
-519.931	1.609	-0.321	-0.234
-518.916	68.044	-0.063	0.066
-517.902	-118.240	-0.137	-0.025
-516.887	-85.495	-0.229	-0.072
-515.872	800.000	-0.058	-0.236
-514.858	39.414	-0.061	0.056
-513.843	-140.362	0.243	0.026
-512.829	-31.592	-0.130	0.074
-511.814	-48.437	0.087	-0.042
-510.799	412.330	0.060	-0.128
-509.785	-31.721	-0.024	0.014
-508.770	-130.519	0.322	-0.044
-507.756	28.711	-0.114	0.098
-506.741	-57.973	-0.196	0.087
-505.726	800.000	-0.146	-0.413
-504.712	-160.737	0.125	-0.007
-503.697	11.045	0.173	0.134
-502.683	43.767	-0.200	0.186
-501.668	-200.000	0.040	0.241
-500.653	-69.380	0.146	0.057
-499.639	-200.000	0.020	-0.175
-498.624	130.874	-0.072	0.093
-497.610	-117.941	-0.259	-0.047
-496.595	214.551	0.065	-0.105
-495.581	-89.592	0.098	-0.029
-494.566	-200.000	-0.043	-0.295
-493.551	-83.856	0.178	0.057
-492.537	135.248	-0.082	-0.108
-491.522	-200.000	-0.008	-0.456
-490.508	800.000	0.064	0.227
-489.493	425.795	0.180	0.394
-488.478	-77.550	-0.357	0.125
-487.464	-53.460	0.195	0.090
-486.449	-102.065	-0.099	-0.024
-485.435	-47.379	-0.263	0.129
-484.420	118.188	0.436	0.544
-483.405	-77.550	0.228	-0.080
-482.391	228.293	-0.131	-0.216
-481.376	77.777	-0.147	-0.159
-480.362	254.087	-0.116	0.201
-479.347	800.000	0.062	-0.187
-478.332	194.447	-0.073	-0.111
-477.318	230.544	-0.200	0.331
-476.303	232.869	0.188	0.313
-475.289	42.067	0.136	-0.125
-474.274	-170.606	0.152	0.005
-473.259	-200.000	-0.009	0.084
-472.245	800.000	0.022	0.088
-471.230	-133.284	-0.120	-0.015
-470.216	36.053	-0.209	-0.186
-469.201	212.431	-0.092	0.146
-468.186	-123.937	0.317	-0.050
-467.172	-200.000	0.019	0.180
-466.157	-56.394	0.168	0.076
-465.143	-9.917	0.060	0.040
-464.128	252.282	-0.049	0.085
-463.113	-200.000	-0.030	-0.182
-462.099	-82.551	-0.307	-0.101
-461.084	325.252	-0.121	0.234
-460.070	170.627	0.114	0.165
-459.055	-63.533	0.068	0.028
-458.040	454.779	0.110	0.247
-457.026	-118.669	0.130	-0.023
-456.011	-12.052	0.072	-0.048
-454.997	-60.107	0.128	0.055
-453.982	-121.176	-0.239	-0.040
-452.968	66.678	0.199	-0.204
-451.953	-60.445	-0.188	0.081
-450.938	263.611	-0.214	0.375
-449.924	360.551	-0.136	0.274
-448.909	170.386	-0.190	-0.275
-447.895	800.000	0.078	-0.226
-446.880	800.000	-0.047	0.177
-445.865	-174.072	0.295	0.009
-444.851	800.000	0.042	0.130
-443.836	-101.207	-0.059	0.015
-442.822	-149.173	-0.189	-0.015
-441.807	14.252	0.182	-0.144
-440.792	-35.884	-0.189	0.103
-439.778	-200.000	-0.010	-0.245
-438.763	800.000	0.114	0.376
-437.749	65.674	0.077	-0.079
-436.734	-100.118	0.104	-0.026
-435.719	7.024	0.115	-0.087
-434.705	-32.237	0.277	-0.156
-433.690	31.777	0.177	-0.154
-432.676	800.000	0.028	-0.089
-431.661	108.348	0.123	-0.148
-430.646	-134.141	0.138	-0.017
-429.632	-14.792	-0.187	-0.121
-428.617	-0.589	-0.279	-0.200
-427.603	-200.000	-0.040	-0.222
-426.588	-53.128	-0.049	-0.023
-425.573	800.000	0.049	-0.159
-424.559	208.894	-0.238	-0.376
-423.544	-13.072	-0.094	-0.062
-422.530	61.577	-0.258	0.259
-421.515	-200.000	0.061	0.350
-420.500	729.306	-0.065	-0.174
-419.486	800.000	0.034	0.137
-418.471	-180.723	-0.117	0.002
-417.457	54.842	-0.085	-0.083
-416.442	-200.000	-0.006	0.047
-415.428	-55.538	-0.075	0.034
-414.413	342.742	0.106	0.209
-413.398	-200.000	-0.002	-0.211
-412.384	-200.000	-0.045	0.229
-411.369	-136.140	-0.199	-0.023
-410.355	58.475	0.221	0.219
-409.340	165.733	-0.074	0.106
-408.325	134.556	0.158	0.207
-407.311	-91.278	0.158	-0.046
-406.296	-200.000	0.024	-0.151
-405.282	-112.126	0.311	-0.063
-404.267	-200.000	-0.032	-0.196
-403.252	29.868	0.236	-0.203
-402.238	-39.849	-0.127	0.067
-401.223	42.416	-0.149	0.137
-400.209	-38.919	-0.105	-0.056
-399.194	304.011	-0.159	-0.298
-398.179	46.643	-0.105	0.099
-397.165	-200.000	-0.032	-0.235
-396.150	43.948	0.098	-0.090
-395.136	26.017	0.107	0.090
-394.121	120.201	0.199	-0.249
-393.106	703.885	0.143	0.380
-392.092	10.109	0.137	-0.105
-391.077	124.090	-0.166	-0.210
-390.063	800.000	-0.033	0.126
-389.048	-81.340	-0.523	0.174
-388.033	2.052	0.308	0.224
-387.019	-158.429	0.386	0.023
-386.004	31.342	0.150	0.130
-384.990	-47.553	0.182	0.089
-383.975	41.169	-0.062	0.056
-382.960	-143.432	-0.544	-0.052
-381.946	800.000	0.106	0.403
-380.931	33.612	0.149	0.130
-379.917	274.405	0.130	0.232
-378.902	308.959	-0.090	0.170
-377.888	681.332	0.024	-0.062
-376.873	-8.462	0.016	-0.011
-375.858	-166.459	0.159	0.007
-374.844	759.010	0.041	-0.111
-373.829	-1.276	-0.106	0.075
-372.815	43.266	0.114	0.105
-371.800	-113.155	-0.075	-0.015
-370.785	691.743	0.070	0.184
-369.771	725.799	0.033	0.088
-368.756	68.239	-0.088	0.091
-367.742	-30.547	-0.203	-0.116
-366.727	138.843	-0.094	0.125
-365.712	-93.382	0.147	0.041
-364.698	-200.000	0.012	-0.059
-363.683	-200.000	0.016	0.181
-362.669	800.000	0.008	0.031
-361.654	-200.000	-0.061	-0.385
-360.639	-200.000	0.009	0.073
-359.625	-150.009	0.070	0.006
-358.610	-41.175	0.262	-0.136
-357.596	307.450	-0.201	-0.377
-356.581	319.132	0.160	-0.305
-355.566	731.291	0.049	-0.133
-354.552	-103.704	0.276	-0.065
-353.537	269.333	-0.065	0.116
-352.523	800.000	-0.067	0.272
-351.508	11.243	-0.252	0.194
-350.493	-200.000	0.036	0.242
-349.479	98.407	0.076	0.088
-348.464	-119.186	0.202	0.035
-347.450	-130.016	-0.282	0.039
-346.435	-2.908	-0.121	-0.085
-345.420	81.998	0.163	0.178
-344.406	800.000	-0.060	0.190
-343.391	193.627	0.205	0.313
-342.377	-98.838	0.058	0.015
-341.362	107.810	-0.146	-0.175
-340.348	45.364	0.221	0.205
-339.333	-200.000	-0.018	0.087
-338.318	662.649	0.098	-0.255
-337.304	-30.892	0.120	0.068
-336.289	-200.000	-0.028	-0.154
-335.275	111.610	-0.056	0.068
-334.260	238.991	0.110	0.185
-333.245	214.518	-0.161	-0.256
-332.231	0.762	-0.123	0.089
-331.216	-112.560	-0.048	0.010
-330.202	-200.000	0.015	-0.100
-329.187	386.809	0.189	-0.392
-328.172	147.127	0.023	0.031
-327.158	64.098	-0.092	-0.093
-326.143	91.095	-0.035	-0.039
-325.129	-200.000	0.111	0.000
-324.114	247.839	-0.113	-0.193
-323.099	800.000	0.058	0.204
-322.085	800.000	0.160	0.474
-321.070	8.067	0.134	0.101
-320.056	-11.398	-0.097	0.064
-319.041	730.742	0.065	-0.174
-318.026	429.943	0.076	-0.166
-317.012	362.346	0.106	0.214
-315.997	-200.000	-0.004	-0.198
-314.983	95.659	0.305	0.350
-313.968	-200.000	-0.005	0.184
-312.953	-75.256	0.054	0.019
-311.939	46.761	0.114	-0.107
-310.924	-105.256	0.067	0.015
-309.910	-200.000	-0.031	0.274
-308.895	800.000	-0.092	0.281
-307.880	-7.363	0.113	-0.077
-306.866	35.642	0.100	-0.088
-305.851	240.987	-0.049	-0.082
-304.837	-64.423	0.249	-0.102
-303.822	311.092	0.212	0.398
-302.807	800.000	-0.145	0.468
-301.793	-21.310	0.116	-0.071
-300.778	258.130	-0.081	-0.140
-299.764	255.067	0.152	-0.262
-298.749	21.422	0.282	0.230
-297.735	-30.620	0.170	0.096
-296.720	621.741	-0.097	-0.244
-295.705	-84.918	-0.208	0.065
-294.691	33.754	0.247	0.215
-293.676	238.061	-0.158	0.263
-292.662	-200.000	-0.023	0.227
-291.647	113.373	0.062	-0.075
-290.632	-50.096	0.301	-0.143
-289.618	527.789	-0.144	-0.342
-288.603	-156.580	0.167	0.010
-287.589	-137.065	-0.284	0.033
-286.574	-63.167	-0.332	0.137
-285.559	-49.975	0.273	0.130
-284.545	-19.273	0.178	0.111
-283.530	800.000	-0.059	0.247
-282.516	311.423	0.146	0.274
-281.501	-91.525	-0.250	-0.072
-280.486	800.000	0.104	-0.334
-279.472	110.598	-0.160	-0.193
-278.457	-200.000	-0.033	-0.183
-277.443	30.909	-0.269	-0.232
-276.428	297.550	0.127	-0.234
-275.413	-125.564	0.096	-0.015
-274.399	308.792	0.095	-0.177
-273.384	199.157	-0.073	-0.112
-272.370	-200.000	-0.050	0.246
-271.355	167.325	0.095	0.136
-270.340	-200.000	-0.015	0.247
-269.326	-32.553	0.006	0.003
-268.311	36.409	-0.020	-0.018
-267.297	71.161	-0.034	-0.035
-266.282	51.743	-0.157	0.150
-265.267	-72.085	0.441	0.164
-264.253	-200.000	-0.032	-0.352
-263.238	-181.406	-0.149	0.003
-262.224	58.373	0.158	-0.156
-261.209	-161.527	-0.224	0.012
-260.195	449.083	0.031	-0.069
-259.180	731.850	-0.088	0.235
-258.165	146.476	-0.178	-0.240
-257.151	-174.509	0.020	0.001
-256.136	105.308	-0.077	-0.091
-255.122	61.135	0.145	-0.145
-254.107	-200.000	-0.015	0.314
-253.092	-95.384	0.497	-0.134
-252.078	-149.005	0.359	0.029
-251.063	90.445	-0.195	0.219
-250.049	-26.866	0.247	0.145
-249.034	161.881	-0.062	-0.087
-248.019	286.123	-0.190	0.344
-247.005	800.000	0.026	0.109
-245.990	-103.783	0.200	-0.047
-244.976	-200.000	-0.016	0.254
-243.961	5.065	-0.113	0.083
-242.946	-181.674	-0.282	0.005
-241.932	141.790	0.109	-0.145
-240.917	-46.480	-0.496	0.244
-239.903	-35.152	-0.305	0.167
-238.888	-22.921	0.071	0.043
-237.873	-92.704	-0.066	-0.019
-236.859	-200.000	0.061	-0.376
-235.844	-81.718	-0.320	0.105
-234.830	112.651	-0.117	-0.142
-233.815	-200.000	-0.031	0.172
-232.800	93.594	-0.142	0.161
-231.786	38.771	0.061	0.055
-230.771	30.035	-0.252	-0.215
-229.757	321.495	0.084	0.160
-228.742	186.340	-0.077	0.115
-227.727	800.000	0.057	0.194
-226.713	-18.850	0.070	0.044
-225.698	-200.000	0.020	-0.127
-224.684	800.000	-0.040	0.145
-223.669	-145.219	0.217	-0.020
-222.655	81.976	0.244	-0.265
-221.640	-120.203	-0.200	0.034
-220.625	393.820	0.046	0.097
-219.611	-67.138	0.209	0.082
-218.596	18.853	-0.079	-0.063
-217.582	-110.472	-0.061	0.013
-216.567	192.579	-0.205	-0.310
-215.552	-133.498	0.095	-0.012
-214.538	-200.000	0.017	0.250
-213.523	-200.000	0.056	0.527
-212.509	-143.736	0.175	0.017
-211.494	-200.000	-0.028	-0.183
-210.479	-200.000	-0.028	0.280
-209.465	-48.537	0.138	0.067
-208.450	-200.000	0.002	0.028
-207.436	-116.299	-0.040	-0.007
-206.421	-124.995	0.367	-0.057
-205.406	-200.000	-0.036	-0.331
-204.392	-178.362	-0.139	0.003
-203.377	-200.000	0.039	-0.198
-202.363	581.715	0.109	-0.268
-201.348	174.433	0.132	0.191
-200.333	-200.000	-0.049	0.296
-199.319	126.011	0.114	-0.145
-198.304	-62.878	-0.385	-0.159
-197.290	-200.000	0.021	-0.187
-196.275	143.332	0.180	0.240
-195.260	-15.894	0.074	-0.047
-194.246	800.000	-0.034	0.128
-193.231	-200.000	-0.063	-0.287
-192.217	800.000	-0.012	0.042
-191.202	-48.540	-0.090	0.044
-190.187	-200.000	-0.018	-0.338
-189.173	800.000	0.066	-0.183
-188.158	-200.000	-0.011	-0.093
-187.144	-117.241	0.062	-0.011
-186.129	800.000	-0.056	-0.242
-185.114	-200.000	0.026	-0.162
-184.100	800.000	-0.058	0.168
-183.085	-22.113	0.046	0.028
-182.071	-200.000	0.018	0.158
-181.056	-89.437	-0.132	-0.039
-180.042	179.588	-0.085	-0.124
-179.027	-156.354	0.130	-0.008
-178.012	256.755	0.087	0.150
-176.998	-12.863	0.088	0.057
-175.983	-200.000	0.038	-0.380
-174.969	-98.856	-0.157	-0.040
-173.954	-20.763	-0.189	-0.116
-172.939	48.917	-0.191	0.179
-171.925	-100.304	-0.095	0.024
-170.910	800.000	-0.067	-0.283
-169.896	781.038	-0.047	-0.129
-168.881	-178.391	-0.183	-0.004
-167.866	-61.546	0.204	0.086
-166.852	-92.342	-0.098	-0.028
-165.837	-167.216	0.133	-0.005
-164.823	511.412	-0.028	-0.066
-163.808	5.749	0.185	-0.137
-162.793	346.904	-0.099	-0.194
-161.779	78.560	0.264	-0.282
-160.764	758.519	0.044	-0.118
-159.750	-1.318	-0.174	0.122
-158.735	-200.000	0.006	-0.212
-157.720	347.809	0.131	0.257
-156.706	514.122	-0.072	0.167
-155.691	-200.000	-0.010	0.180
-154.677	-200.000	0.002	-0.294
-153.662	-18.757	-0.171	-0.106
-152.647	156.215	0.071	-0.098
-151.633	95.948	-0.191	-0.217
-150.618	3.378	-0.144	-0.104
-149.604	14.491	0.236	0.184
-148.589	704.384	0.096	-0.253
-147.574	-122.121	-0.256	0.042
-146.560	-28.188	0.427	-0.247
-145.545	510.990	0.025	-0.059
-144.531	800.000	0.023	-0.063
-143.516	-200.000	0.061	0.344
-142.502	800.000	-0.112	0.339
-141.487	800.000	-0.047	-0.160
-140.472	800.000	-0.084	0.303
-139.458	218.774	0.029	-0.046
-138.443	0.872	0.229	-0.164
-137.429	99.010	0.116	0.134
-136.414	36.989	0.099	-0.088
-135.399	-86.927	0.312	0.095
-134.385	-118.121	0.124	0.022
-133.370	135.271	-0.038	0.050
-132.356	192.847	0.142	0.213
-131.341	-150.082	0.254	0.020
-130.326	-200.000	0.050	-0.248
-129.312	800.000	-0.043	0.163
-128.297	-169.863	0.575	-0.021
-127.283	-101.356	0.140	0.034
-126.268	371.615	-0.190	0.385
-125.253	133.338	-0.296	0.382
-124.239	800.000	0.075	-0.263
-123.224	800.000	-0.069	-0.213
-122.210	53.285	-0.124	-0.118
-121.195	-122.892	0.175	-0.028
