DTS Sentinel unit serial number:	SN413079Multiplexer serial number:	ORYXHardware model number:	OX4-SRSoftware version number:	ORYX F/W v4.00 Oryx Data Collector v3.7.2.0data status	okinstallation	princeton_trtdifferential loss correction	single-endedforward channel	channel 1reverse channel	N/Adate	2019/09/17time	21:46:35forward acquisition time	60.00reverse acquisition time	0.00gamma	496.2192k internal	0.2340k external	0.2340temperature offset calibration	0.9973default loss term (dB/km)	0.3790temperature slope calibration	1.0000multiplexer offset coefficient	1.0000multiplexer slope coefficient	1.0000fibre end	0.00T internal ref (°C)	26.52T ext. ref 1 (°C)	0.18T ext. ref 2 (°C)	19.10length (m)	temperature (°C)	Stokes	anti-Stokes-747.200	162.250	-0.117	-0.164
-746.185	261.477	0.046	0.080
-745.171	256.079	-0.214	0.368
-744.156	251.699	-0.178	0.304
-743.142	218.624	0.085	-0.136
-742.127	-141.752	0.303	0.031
-741.112	295.716	0.120	-0.221
-740.098	-150.828	-0.470	0.036
-739.083	55.108	0.105	0.102
-738.069	222.168	-0.067	0.108
-737.054	-134.430	0.054	0.007
-736.039	204.499	-0.204	-0.318
-735.025	-111.527	0.397	0.081
-734.010	-200.000	0.062	-0.303
-732.996	-200.000	0.026	-0.161
-731.981	-127.614	-0.216	-0.031
-730.966	453.947	-0.071	0.158
-729.952	-2.954	-0.235	0.164
-728.937	-36.655	-0.049	-0.026
-727.923	-103.806	-0.332	-0.078
-726.908	800.000	-0.022	-0.097
-725.894	18.080	0.135	-0.107
-724.879	151.182	0.104	0.142
-723.864	800.000	-0.080	-0.244
-722.850	-165.938	-0.459	0.020
-721.835	-55.970	-0.206	0.092
-720.821	133.635	-0.207	-0.268
-719.806	-97.501	0.165	-0.043
-718.791	-117.609	-0.460	0.083
-717.777	-200.000	-0.011	-0.316
-716.762	6.661	0.220	0.164
-715.748	-105.941	-0.248	-0.056
-714.733	31.071	0.088	-0.076
-713.718	423.678	-0.108	-0.232
-712.704	800.000	0.046	-0.166
-711.689	-129.278	-0.208	-0.029
-710.675	-57.306	0.087	-0.038
-709.660	93.793	0.176	0.200
-708.645	251.155	0.135	-0.229
-707.631	24.129	0.075	0.062
-706.616	-15.475	-0.168	-0.107
-705.602	297.991	-0.249	0.459
-704.587	-200.000	-0.055	0.293
-703.572	-119.894	-0.090	-0.015
-702.558	176.714	0.108	-0.157
-701.543	-95.783	-0.125	0.033
-700.529	800.000	0.017	-0.047
-699.514	-200.000	-0.001	0.164
-698.499	85.079	-0.032	0.035
-697.485	469.234	0.119	-0.268
-696.470	800.000	-0.009	0.034
-695.456	-200.000	0.001	0.066
-694.441	-73.139	0.374	-0.137
-693.426	-200.000	0.014	0.103
-692.412	-200.000	-0.031	0.174
-691.397	129.250	0.115	-0.147
-690.383	98.569	-0.271	-0.313
-689.368	800.000	-0.067	-0.236
-688.354	800.000	-0.057	-0.213
-687.339	-81.533	-0.163	0.054
-686.324	24.666	0.237	0.196
-685.310	-65.327	0.043	0.017
-684.295	-80.744	-0.359	0.119
-683.281	-104.284	0.207	0.048
-682.266	-42.303	-0.095	0.048
-681.251	-200.000	-0.006	-0.142
-680.237	-47.075	-0.275	0.134
-679.222	-52.936	-0.127	0.059
-678.208	6.864	0.156	0.116
-677.193	-104.179	-0.267	0.062
-676.178	-143.794	-0.308	-0.029
-675.164	-200.000	0.019	-0.272
-674.149	-176.430	0.098	-0.003
-673.135	58.402	-0.247	-0.242
-672.120	-110.699	-0.145	-0.030
-671.105	-33.370	-0.416	0.230
-670.091	-79.417	-0.282	-0.095
-669.076	-93.370	-0.266	-0.074
-668.062	-77.160	-0.207	0.072
-667.047	-105.260	0.339	-0.077
-666.032	14.182	-0.063	-0.049
-665.018	18.837	0.071	0.057
-664.003	800.000	-0.138	-0.477
-662.989	-176.158	-0.279	-0.007
-661.974	-182.836	-0.114	0.002
-660.959	-40.136	-0.192	-0.100
-659.945	800.000	0.058	0.214
-658.930	-35.343	-0.187	-0.102
-657.916	134.664	-0.101	-0.130
-656.901	-200.000	-0.030	-0.369
-655.886	199.681	0.191	0.292
-654.872	0.922	0.294	0.210
-653.857	152.509	-0.222	-0.303
-652.843	-170.268	-0.142	0.005
-651.828	286.483	-0.019	-0.035
-650.814	800.000	-0.041	0.123
-649.799	-79.138	0.224	0.076
-648.784	384.180	-0.031	0.064
-647.770	-121.752	-0.438	0.072
-646.755	68.517	0.182	-0.186
-645.741	800.000	0.118	-0.439
-644.726	-200.000	-0.000	-0.310
-643.711	-200.000	-0.054	-0.311
-642.697	-137.119	0.247	0.028
-641.682	94.589	-0.199	-0.226
-640.668	-123.657	-0.283	-0.045
-639.653	105.980	0.054	0.064
-638.638	504.038	-0.089	0.205
-637.624	196.147	-0.165	0.250
-636.609	-82.604	-0.240	0.078
-635.595	63.117	0.133	-0.133
-634.580	45.114	-0.079	0.073
-633.565	-63.974	0.234	0.096
-632.551	-200.000	-0.043	-0.381
-631.536	58.511	0.192	0.188
-630.522	800.000	-0.179	-0.500
-629.507	-151.598	0.260	-0.019
-628.492	-28.027	-0.261	0.151
-627.478	-96.494	-0.151	0.040
-626.463	-109.240	0.560	0.119
-625.449	103.239	0.143	0.167
-624.434	-200.000	0.032	0.234
-623.419	-200.000	0.004	0.161
-622.405	-200.000	0.031	0.141
-621.390	-68.808	-0.353	-0.136
-620.376	267.893	0.103	-0.181
-619.361	17.841	-0.401	-0.319
-618.346	232.214	0.183	0.300
-617.332	-102.271	-0.149	0.036
-616.317	-110.452	-0.154	-0.032
-615.303	504.901	-0.038	-0.089
-614.288	-95.331	0.141	0.038
-613.273	532.720	0.108	0.256
-612.259	-43.399	-0.080	-0.040
-611.244	-104.747	0.218	-0.050
-610.230	135.905	0.139	-0.180
-609.215	-148.239	-0.418	0.034
-608.201	29.462	-0.295	0.250
-607.186	94.250	0.211	-0.239
-606.171	800.000	-0.024	0.074
-605.157	77.342	0.108	-0.115
-604.142	-22.311	-0.119	0.072
-603.128	-200.000	0.053	0.460
-602.113	412.853	0.124	0.264
-601.098	92.271	-0.238	-0.267
-600.084	44.185	-0.069	0.063
-599.069	-4.432	-0.069	0.048
-598.055	-61.965	-0.256	-0.107
-597.040	-187.317	0.119	0.002
-596.025	338.755	0.126	0.244
-595.011	-173.999	-0.146	0.004
-593.996	73.110	-0.210	0.219
-592.982	-200.000	0.019	0.120
-591.967	800.000	-0.052	0.167
-590.952	-65.694	0.095	0.038
-589.938	104.249	-0.253	-0.296
-588.923	86.081	0.232	-0.255
-587.909	-39.417	-0.293	0.153
-586.894	-19.500	-0.261	-0.161
-585.879	-200.000	-0.006	-0.169
-584.865	-163.775	0.298	0.014
-583.850	57.283	0.275	0.268
-582.836	354.791	0.196	0.388
-581.821	155.338	-0.125	0.172
-580.806	154.821	0.096	-0.131
-579.792	-200.000	-0.001	-0.194
-578.777	-200.000	-0.035	-0.351
-577.763	16.958	-0.328	0.259
-576.748	7.129	-0.395	0.294
-575.733	-200.000	0.017	-0.239
-574.719	-187.181	-0.253	-0.003
-573.704	70.587	0.206	0.212
-572.690	220.501	0.073	0.117
-571.675	30.318	-0.087	-0.074
-570.661	16.426	-0.276	-0.217
-569.646	800.000	0.109	0.300
-568.631	800.000	0.075	0.315
-567.617	-23.580	0.173	0.103
-566.602	-81.636	0.035	-0.011
-565.588	313.601	-0.026	0.048
-564.573	-29.570	0.286	-0.163
-563.558	800.000	-0.034	-0.110
-562.544	560.450	0.243	0.583
-561.529	-58.495	0.227	0.098
-560.515	-128.280	-0.131	-0.019
-559.500	250.851	0.142	-0.240
-558.485	-55.790	-0.121	0.054
-557.471	800.000	-0.020	0.062
-556.456	-200.000	0.006	0.345
-555.442	-65.232	0.273	0.109
-554.427	800.000	-0.032	0.106
-553.412	800.000	-0.103	0.299
-552.398	-130.934	0.161	0.021
-551.383	0.541	0.168	-0.119
-550.369	-3.284	0.181	-0.125
-549.354	-47.522	-0.085	0.041
-548.339	-200.000	0.031	-0.293
-547.325	-34.327	-0.353	-0.193
-546.310	-37.484	-0.143	-0.076
-545.296	-200.000	0.002	0.327
-544.281	322.971	0.136	-0.257
-543.266	96.112	-0.104	0.119
-542.252	-38.843	0.246	0.129
-541.237	-93.424	-0.195	-0.054
-540.223	-200.000	0.055	0.310
-539.208	151.444	0.073	0.099
-538.193	-13.919	0.225	-0.145
-537.179	-200.000	0.020	-0.149
-536.164	-18.605	0.280	0.174
-535.150	133.033	-0.164	-0.211
-534.135	-53.452	-0.271	-0.124
-533.121	60.815	0.044	0.043
-532.106	-182.478	0.072	0.001
-531.091	63.917	0.031	0.031
-530.077	-149.293	-0.177	0.014
-529.062	-52.570	-0.165	-0.076
-528.048	800.000	0.081	0.343
-527.033	-42.628	0.140	0.071
-526.018	-144.002	-0.173	0.016
-525.004	-12.384	-0.089	0.058
-523.989	-200.000	0.073	-0.384
-522.975	115.470	0.128	0.156
-521.960	-103.098	-0.190	-0.045
-520.945	249.734	-0.081	0.136
-519.931	-95.881	-0.159	0.042
-518.916	149.067	0.268	-0.361
-517.902	234.074	0.041	0.068
-516.887	800.000	-0.042	-0.157
-515.872	-3.630	-0.213	-0.147
-514.858	-58.231	-0.123	-0.053
-513.843	109.132	-0.210	0.249
-512.829	97.894	0.250	0.286
-511.814	-76.056	-0.202	0.071
-510.799	800.000	-0.087	-0.367
-509.785	-32.359	-0.086	-0.048
-508.770	117.618	-0.137	-0.167
-507.756	-48.251	0.085	-0.041
-506.741	800.000	-0.047	-0.148
-505.726	65.598	-0.232	-0.234
-504.712	376.447	0.211	0.429
-503.697	-101.890	-0.309	0.074
-502.683	587.073	0.058	-0.143
-501.668	-68.299	-0.244	0.094
-500.653	-200.000	0.013	0.187
-499.639	-115.995	0.455	-0.084
-498.624	-27.643	0.199	-0.115
-497.610	118.877	-0.091	0.112
-496.595	664.157	0.101	0.258
-495.581	-107.530	-0.468	0.102
-494.566	-75.998	0.043	-0.015
-493.551	-200.000	-0.029	0.308
-492.537	-191.654	0.190	0.002
-491.522	-136.863	-0.274	0.031
-490.508	548.332	0.103	-0.245
-489.493	-200.000	0.033	-0.187
-488.478	28.858	-0.123	-0.104
-487.464	46.651	0.119	-0.110
-486.449	-120.948	-0.097	-0.016
-485.435	800.000	0.012	0.047
-484.420	-140.481	0.154	-0.016
-483.405	-200.000	-0.009	0.043
-482.391	-50.716	0.162	0.075
-481.376	-126.867	-0.595	-0.087
-480.362	75.316	0.142	0.149
-479.347	-52.577	-0.172	0.079
-478.332	203.668	0.058	0.090
-477.318	97.323	0.087	0.099
-476.303	-32.753	0.048	0.027
-475.289	-195.138	0.043	-0.000
-474.274	800.000	-0.052	0.147
-473.259	157.885	-0.186	-0.256
-472.245	620.640	-0.024	-0.060
-471.230	-200.000	0.012	-0.286
-470.216	224.207	-0.169	0.272
-469.201	800.000	-0.115	-0.342
-468.186	467.367	-0.087	-0.194
-467.172	-35.728	-0.088	-0.047
-466.157	-200.000	0.069	-0.326
-465.143	-200.000	0.055	-0.378
-464.128	68.046	-0.243	0.247
-463.113	188.056	0.042	0.063
-462.099	-132.811	-0.371	0.047
-461.084	-96.246	0.226	-0.060
-460.070	-91.192	0.083	0.024
-459.055	800.000	0.118	0.378
-458.040	190.786	-0.025	-0.037
-457.026	-82.667	-0.126	-0.041
-456.011	44.687	-0.088	0.081
-454.997	-200.000	-0.038	-0.178
-453.982	-49.535	-0.285	0.135
-452.968	254.982	0.023	-0.039
-451.953	-90.707	0.094	0.027
-450.938	-92.022	-0.193	0.054
-449.924	-62.374	-0.204	-0.084
-448.909	-9.415	0.095	0.063
-447.895	-163.326	-0.422	0.020
-446.880	-200.000	-0.016	-0.286
-445.865	-200.000	0.032	-0.198
-444.851	-153.548	-0.148	-0.010
-443.836	-193.307	-0.113	0.001
-442.822	-8.294	0.142	0.095
-441.807	42.363	0.035	0.031
-440.792	-76.986	0.033	0.011
-439.778	-200.000	-0.025	-0.274
-438.763	453.577	-0.109	-0.240
-437.749	-200.000	-0.005	0.149
-436.734	-169.170	-0.162	-0.006
-435.719	20.218	-0.144	-0.115
-434.705	-0.198	-0.068	0.048
-433.690	-39.784	0.128	0.066
-432.676	-200.000	-0.002	-0.025
-431.661	100.359	0.098	0.113
-430.646	-85.587	-0.348	0.107
-429.632	140.427	0.350	-0.458
-428.617	-184.297	0.366	-0.006
-427.603	800.000	0.048	0.140
-426.588	-166.609	0.501	-0.021
-425.573	-80.788	0.388	0.128
-424.559	800.000	-0.035	-0.097
-423.544	-200.000	0.004	0.212
-422.530	64.954	0.193	0.193
-421.515	571.293	-0.065	0.156
-420.500	-41.550	0.403	-0.205
-419.486	253.354	0.154	0.260
-418.471	-127.693	-0.402	0.058
-417.457	-84.142	0.143	0.045
-416.442	-93.755	0.201	-0.055
-415.428	-200.000	-0.044	-0.295
-414.413	-200.000	-0.019	0.195
-413.398	164.808	-0.108	-0.150
-412.384	-40.874	0.125	-0.064
-411.369	-34.690	0.266	-0.144
-410.355	153.385	0.162	0.220
-409.340	128.515	0.154	0.194
-408.325	105.843	-0.058	-0.067
-407.311	-118.147	-0.196	-0.035
-406.296	543.892	0.076	-0.180
-405.282	-72.144	0.297	-0.109
-404.267	800.000	-0.058	0.187
-403.252	-200.000	0.004	-0.082
-402.238	23.156	-0.268	-0.217
-401.223	202.621	-0.089	-0.135
-400.209	-200.000	0.059	0.464
-399.194	-52.083	0.281	-0.129
-398.179	-200.000	0.026	0.416
-397.165	-86.004	-0.192	0.059
-396.150	176.589	0.161	-0.231
-395.136	64.123	0.163	-0.163
-394.121	73.487	-0.277	-0.287
-393.106	-76.632	-0.075	0.026
-392.092	33.085	0.233	0.200
-391.077	-200.000	0.045	-0.302
-390.063	-156.461	0.438	-0.027
-389.048	-66.336	-0.149	-0.059
-388.033	800.000	0.051	0.210
-387.019	800.000	0.066	-0.272
-386.004	107.694	-0.114	0.134
-384.990	-200.000	-0.047	0.475
-383.975	-85.061	0.239	0.074
-382.960	-54.041	0.181	-0.081
-381.946	52.397	0.083	-0.079
-380.931	-200.000	-0.021	-0.463
-379.917	-200.000	-0.073	-0.411
-378.902	800.000	0.063	-0.257
-377.888	800.000	0.055	-0.164
-376.873	89.674	-0.100	0.110
-375.858	477.854	0.066	0.148
-374.844	72.430	0.290	0.299
-373.829	372.382	-0.085	-0.171
-372.815	-97.159	0.366	-0.094
-371.800	-55.879	0.378	-0.167
-370.785	-8.650	-0.223	-0.148
-369.771	59.419	0.033	-0.032
-368.756	-34.714	0.083	-0.045
-367.742	139.959	0.052	-0.068
-366.727	786.352	-0.029	0.079
-365.712	-137.243	0.187	0.021
-364.698	-200.000	-0.003	0.113
-363.683	-72.638	0.069	-0.025
-362.669	-200.000	0.092	-0.416
-361.654	125.049	0.056	0.070
-360.639	-47.992	-0.096	0.046
-359.625	-71.168	-0.134	0.050
-358.610	147.403	0.099	0.132
-357.596	-1.920	0.232	0.161
-356.581	30.045	0.288	0.242
-355.566	-200.000	0.058	-0.515
-354.552	-200.000	0.019	-0.144
-353.537	41.107	-0.083	0.074
-352.523	-112.913	-0.280	0.055
-351.508	-76.660	-0.233	-0.081
-350.493	-122.261	0.042	0.007
-349.479	131.164	-0.147	0.186
-348.464	-55.619	0.017	-0.007
-347.450	-182.035	-0.285	0.005
-346.435	-65.317	0.058	0.023
-345.420	-76.931	-0.092	-0.032
-344.406	462.817	-0.047	0.104
-343.391	-63.854	0.112	-0.045
-342.377	-82.902	0.287	-0.091
-341.362	62.074	0.083	-0.082
-340.348	-140.296	-0.156	0.016
-339.333	800.000	0.023	-0.088
-338.318	109.749	0.202	-0.239
-337.304	800.000	-0.055	0.186
-336.289	17.217	0.159	0.124
-335.275	460.288	-0.089	0.196
-334.260	6.160	-0.103	-0.076
-333.245	-108.505	0.198	-0.042
-332.231	-88.492	0.107	-0.032
-331.216	23.694	0.160	0.130
-330.202	-92.403	0.044	-0.012
-329.187	225.348	-0.017	0.028
-328.172	-5.404	0.265	0.180
-327.158	-200.000	0.018	-0.097
-326.143	-115.950	0.227	0.042
-325.129	158.357	-0.100	-0.136
-324.114	-66.477	-0.162	0.063
-323.099	592.075	-0.085	-0.208
-322.085	136.209	-0.035	-0.045
-321.070	-99.113	0.080	0.020
-320.056	138.818	-0.151	-0.195
-319.041	206.730	0.234	0.359
-318.026	487.074	-0.062	-0.140
-317.012	-200.000	0.084	-0.472
-315.997	2.258	0.030	-0.021
-314.983	787.132	-0.129	-0.348
-313.968	-68.364	-0.262	-0.100
-312.953	-68.537	-0.108	-0.041
-311.939	-31.276	0.106	-0.059
-310.924	-200.000	0.015	-0.071
-309.910	-133.859	-0.265	0.032
-308.895	-18.956	0.011	-0.007
-307.880	-6.569	0.036	0.024
-306.866	136.062	0.179	0.230
-305.851	11.849	-0.237	0.180
-304.837	-35.431	0.168	0.090
-303.822	-160.318	-0.323	0.017
-302.807	-200.000	-0.021	0.115
-301.793	-147.935	-0.174	-0.014
-300.778	-78.463	-0.089	-0.030
-299.764	800.000	-0.018	-0.059
-298.749	800.000	0.055	-0.208
-297.735	409.996	-0.054	0.113
-296.720	-92.855	-0.377	0.104
-295.705	-200.000	-0.066	0.284
-294.691	-90.417	0.442	-0.126
-293.676	-10.028	-0.248	0.163
-292.662	-164.843	-0.155	-0.007
-291.647	432.611	-0.054	0.116
-290.632	-111.773	-0.238	-0.048
-289.618	40.966	0.207	-0.184
-288.603	-49.693	-0.102	-0.048
-287.589	800.000	-0.093	-0.304
-286.574	465.636	0.070	0.155
-285.559	-47.019	0.282	-0.136
-284.545	-117.726	0.244	0.043
-283.530	-75.787	-0.155	0.054
-282.516	-14.015	-0.106	0.068
-281.501	90.853	-0.176	-0.194
-280.486	-39.958	-0.074	0.038
-279.472	-125.194	-0.188	0.028
-278.457	-27.756	0.214	-0.122
-277.443	-126.455	0.052	-0.008
-276.428	-163.427	0.284	0.013
-275.413	-200.000	0.007	-0.248
-274.399	-17.794	-0.390	0.241
-273.384	209.358	0.172	0.266
-272.370	220.186	0.147	0.232
-271.355	82.905	0.168	-0.180
-270.340	-200.000	-0.008	0.056
-269.326	177.806	-0.113	-0.162
-268.311	-14.485	0.267	0.169
-267.297	-17.359	0.086	0.053
-266.282	253.537	-0.158	-0.265
-265.267	-46.744	0.176	0.085
-264.253	-29.681	-0.331	-0.186
-263.238	-129.651	0.210	0.029
-262.224	644.314	0.067	-0.167
-261.209	-31.898	0.286	0.158
-260.195	-165.055	0.197	-0.009
-259.180	800.000	0.134	-0.381
-258.165	-200.000	0.007	0.184
-257.151	-35.183	-0.191	0.102
-256.136	-200.000	0.057	0.288
-255.122	-79.698	0.371	0.123
-254.107	621.034	0.109	-0.270
-253.092	800.000	-0.043	-0.124
-252.078	-43.986	-0.318	0.157
-251.063	-18.295	-0.315	-0.194
-250.049	324.722	0.119	0.224
-249.034	569.222	0.204	0.488
-248.019	131.974	-0.153	0.193
-247.005	-137.823	-0.247	-0.027
-245.990	-47.080	0.527	-0.253
-244.976	233.806	0.043	0.070
-243.961	81.842	0.096	0.102
-242.946	-116.571	-0.295	0.054
-241.932	-47.660	0.101	0.048
-240.917	-200.000	-0.020	-0.198
-239.903	80.075	0.094	-0.099
-238.888	-16.987	0.303	0.188
-237.873	-118.969	0.134	0.023
-236.859	800.000	-0.027	0.082
-235.844	211.790	0.099	-0.154
-234.830	-133.083	0.222	0.028
-233.815	488.247	0.030	-0.068
-232.800	-200.000	-0.054	0.308
-231.786	265.584	0.146	0.250
-230.771	-200.000	-0.040	-0.240
-229.757	-81.145	-0.525	-0.171
-228.742	800.000	0.016	-0.045
-227.727	-148.805	0.067	0.005
-226.713	-117.725	0.042	0.007
-225.698	800.000	0.128	0.364
-224.684	119.721	0.080	-0.097
-223.669	-21.504	-0.279	0.167
-222.655	-163.096	0.155	-0.007
-221.640	58.109	0.086	-0.083
-220.625	-102.624	0.189	-0.044
-219.611	-107.949	0.127	-0.027
-218.596	800.000	-0.039	0.118
-217.582	-56.937	-0.374	0.162
-216.567	-5.271	0.347	-0.234
-215.552	455.616	-0.135	-0.294
-214.538	168.853	0.114	0.160
-213.523	426.773	-0.124	-0.262
-212.509	16.502	0.260	-0.201
-211.494	13.927	-0.190	0.146
-210.479	800.000	-0.069	-0.224
-209.465	-200.000	0.018	0.091
-208.450	92.425	-0.197	0.218
-207.436	-99.051	0.347	-0.086
-206.421	-77.760	-0.366	-0.124
-205.406	-123.022	-0.237	-0.037
-204.392	39.726	-0.088	-0.078
-203.377	-200.000	0.017	-0.098
-202.363	-200.000	-0.005	0.032
-201.348	113.992	0.048	0.057
-200.333	-157.493	0.276	0.016
-199.319	-200.000	0.018	0.098
-198.304	-200.000	0.013	0.107
-197.290	180.357	0.156	0.224
-196.275	-67.506	-0.229	0.088
-195.260	-200.000	-0.006	0.251
-194.246	-4.845	-0.138	0.094
-193.231	-149.475	0.149	-0.012
-192.217	322.354	-0.157	0.293
-191.202	338.232	0.045	0.085
-190.187	-41.185	-0.113	-0.057
-189.173	797.365	0.079	-0.214
-188.158	-41.067	-0.182	-0.092
-187.144	-200.000	0.014	0.163
-186.129	-152.833	-0.440	-0.031
-185.114	52.619	0.155	-0.145
-184.100	-200.000	0.043	-0.330
-183.085	-95.363	0.152	0.040
-182.071	598.977	0.079	0.192
-181.056	-95.652	-0.343	0.090
-180.042	800.000	-0.036	0.102
-179.027	-115.592	-0.251	-0.046
-178.012	-200.000	-0.018	-0.144
-176.998	-193.865	0.220	-0.002
-175.983	-200.000	-0.021	-0.213
-174.969	26.465	0.149	-0.122
-173.954	-200.000	-0.035	0.458
-172.939	-20.834	-0.080	-0.048
-171.925	15.786	0.330	-0.255
-170.910	-165.612	0.084	-0.004
-169.896	-100.664	0.102	0.025
-168.881	800.000	0.041	-0.173
-167.866	-160.985	-0.376	0.019
-166.852	-85.082	-0.438	0.134
-165.837	-76.914	0.131	-0.045
-164.823	-21.241	0.215	0.129
-163.808	-25.670	-0.206	0.119
-162.793	-200.000	0.010	0.060
-161.779	-78.946	-0.119	0.040
-160.764	80.947	-0.007	0.008
-159.750	800.000	-0.085	-0.268
-158.735	-91.692	0.051	-0.014
-157.720	248.181	-0.078	0.129
-156.706	800.000	0.022	0.060
-155.691	44.052	0.102	0.092
-154.677	108.151	-0.135	0.157
-153.662	-140.686	-0.027	-0.003
-152.647	-200.000	-0.008	-0.101
-151.633	155.732	-0.048	-0.065
-150.618	355.012	-0.102	-0.199
-149.604	354.712	0.163	0.317
-148.589	-200.000	0.009	0.265
-147.574	5.907	0.212	-0.154
-146.560	-32.273	-0.163	-0.089
-145.545	531.102	0.084	0.194
-144.531	-30.531	0.256	-0.142
-143.516	-200.000	0.019	0.097
-142.502	171.312	-0.056	0.078
-141.487	-50.756	-0.152	-0.070
-140.472	-75.841	0.110	0.038
-139.458	-50.695	-0.291	0.134
-138.443	69.533	0.198	-0.199
-137.429	-100.955	0.496	0.119
-136.414	-127.891	0.272	0.038
-135.399	800.000	0.162	-0.490
-134.385	-88.591	0.196	-0.057
-133.370	-7.686	-0.160	-0.106
-132.356	800.000	-0.034	0.109
-131.341	548.392	-0.075	0.176
-130.326	-200.000	-0.319	-0.001
-129.312	175.404	-0.072	0.102
-128.297	208.875	-0.029	-0.045
-127.283	125.996	0.172	-0.213
-126.268	800.000	-0.025	-0.072
-125.253	662.832	-0.095	-0.241
-124.239	-106.440	-0.113	-0.025
-123.224	-50.305	0.141	-0.065
-122.210	-200.000	-0.037	0.161
-121.195	-200.000	0.024	0.448
