DTS Sentinel unit serial number:	SN413079Multiplexer serial number:	ORYXHardware model number:	OX4-SRSoftware version number:	ORYX F/W v4.00 Oryx Data Collector v3.7.2.0data status	okinstallation	princeton_trtdifferential loss correction	single-endedforward channel	channel 1reverse channel	N/Adate	2019/09/17time	22:38:35forward acquisition time	60.00reverse acquisition time	0.00gamma	496.2192k internal	0.2340k external	0.2340temperature offset calibration	0.9975default loss term (dB/km)	0.3790temperature slope calibration	1.0000multiplexer offset coefficient	1.0000multiplexer slope coefficient	1.0000fibre end	0.00T internal ref (°C)	25.19T ext. ref 1 (°C)	0.18T ext. ref 2 (°C)	18.53length (m)	temperature (°C)	Stokes	anti-Stokes-747.200	23.561	-0.288	-0.238
-746.185	74.230	-0.234	-0.246
-745.171	-31.369	0.247	-0.139
-744.156	675.319	-0.170	0.444
-743.142	-26.682	0.290	0.170
-742.127	-59.426	-0.223	-0.096
-741.112	112.049	0.071	0.086
-740.098	53.971	-0.431	0.416
-739.083	-200.000	-0.019	0.394
-738.069	454.237	-0.149	0.331
-737.054	-163.584	-0.045	0.002
-736.039	-199.350	-0.664	-0.004
-735.025	800.000	0.023	0.067
-734.010	800.000	0.054	-0.208
-732.996	-116.567	-0.378	-0.070
-731.981	-92.464	0.036	0.010
-730.966	800.000	-0.076	0.251
-729.952	330.861	0.055	-0.107
-728.937	-46.485	-0.369	-0.181
-727.923	146.774	0.119	-0.160
-726.908	-69.656	-0.138	0.053
-725.894	-172.351	-0.150	0.005
-724.879	-39.062	-0.132	0.070
-723.864	60.043	0.108	0.107
-722.850	-29.532	-0.085	0.049
-721.835	17.243	0.079	0.063
-720.821	-55.860	-0.393	-0.176
-719.806	213.215	0.157	-0.248
-718.791	-152.649	-0.545	0.039
-717.777	-200.000	0.040	-0.240
-716.762	-132.469	0.189	0.024
-715.748	-102.498	0.388	-0.093
-714.733	800.000	0.076	-0.211
-713.718	348.677	-0.211	-0.417
-712.704	72.236	0.039	-0.040
-711.689	-136.875	-0.073	-0.008
-710.675	75.629	0.222	-0.235
-709.660	46.722	-0.258	-0.239
-708.645	-97.423	-0.096	-0.025
-707.631	800.000	-0.044	-0.121
-706.616	-200.000	0.013	0.281
-705.602	63.602	0.352	0.354
-704.587	-14.489	-0.190	0.122
-703.572	89.773	0.206	-0.230
-702.558	17.975	0.274	0.219
-701.543	416.317	0.036	-0.078
-700.529	117.347	0.100	0.123
-699.514	-59.149	0.075	-0.032
-698.499	237.021	0.025	-0.041
-697.485	-156.354	-0.328	-0.021
-696.470	-200.000	-0.014	0.097
-695.456	-185.663	-0.092	0.001
-694.441	-176.816	-0.121	-0.003
-693.426	44.326	-0.295	0.271
-692.412	51.649	-0.244	-0.232
-691.397	102.674	0.008	0.010
-690.383	6.899	0.232	-0.173
-689.368	269.473	0.060	0.106
-688.354	717.805	-0.108	0.287
-687.339	-88.750	-0.252	0.075
-686.324	0.372	0.138	0.099
-685.310	-84.097	-0.359	-0.114
-684.295	-200.000	0.009	-0.313
-683.281	3.334	0.268	0.195
-682.266	800.000	0.052	0.159
-681.251	119.585	-0.085	-0.105
-680.237	50.799	0.036	-0.034
-679.222	-200.000	0.020	-0.119
-678.208	37.122	0.044	0.039
-677.193	-49.890	0.267	-0.127
-676.178	40.784	-0.186	0.168
-675.164	61.924	-0.109	-0.108
-674.149	50.787	0.109	0.103
-673.135	113.618	-0.282	0.342
-672.120	-200.000	0.008	-0.043
-671.105	-119.227	0.102	0.018
-670.091	-20.065	0.241	0.148
-669.076	-157.291	-0.124	0.007
-668.062	800.000	0.068	-0.231
-667.047	677.984	0.079	-0.206
-666.032	-61.137	0.034	0.014
-665.018	376.095	-0.095	-0.193
-664.003	-25.506	0.267	-0.157
-662.989	317.246	0.049	-0.093
-661.974	211.286	-0.083	0.131
-660.959	466.595	-0.109	0.245
-659.945	-83.429	-0.423	0.136
-658.930	800.000	0.016	0.071
-657.916	485.829	0.068	0.154
-656.901	-116.340	0.047	0.009
-655.886	-76.837	0.399	0.139
-654.872	-132.197	-0.295	0.038
-653.857	800.000	-0.224	-0.654
-652.843	160.271	-0.188	-0.262
-651.828	129.147	0.052	-0.067
-650.814	-143.361	-0.323	0.031
-649.799	-200.000	0.059	0.335
-648.784	-200.000	-0.086	0.386
-647.770	71.507	0.115	0.120
-646.755	-200.000	-0.010	0.414
-645.741	591.061	0.021	-0.052
-644.726	-88.974	0.192	-0.057
-643.711	-200.000	-0.012	0.251
-642.697	-200.000	-0.018	-0.232
-641.682	-7.166	0.144	0.098
-640.668	-200.000	-0.008	-0.198
-639.653	188.458	-0.057	-0.085
-638.638	55.318	0.279	0.269
-637.624	71.475	0.190	0.197
-636.609	-26.101	0.300	0.176
-635.595	11.000	-0.175	0.133
-634.580	-171.067	-0.045	0.002
-633.565	117.649	-0.140	-0.172
-632.551	373.180	-0.044	0.089
-631.536	94.560	0.231	0.262
-630.522	97.204	0.111	-0.127
-629.507	-76.250	-0.371	0.131
-628.492	800.000	-0.039	0.133
-627.478	257.525	0.092	-0.158
-626.463	-200.000	0.096	-0.448
-625.449	220.876	0.081	0.130
-624.434	42.152	0.084	-0.076
-623.419	21.398	-0.072	0.058
-622.405	-39.291	0.139	-0.073
-621.390	152.482	0.112	0.153
-620.376	308.886	-0.119	0.222
-619.361	-200.000	-0.282	0.000
-618.346	115.004	0.141	-0.171
-617.332	-36.897	-0.245	-0.131
-616.317	-200.000	-0.023	-0.293
-615.303	-23.393	-0.151	-0.090
-614.288	-118.602	-0.394	-0.069
-613.273	39.305	0.083	-0.074
-612.259	-200.000	-0.023	0.146
-611.244	-61.266	0.241	-0.101
-610.230	-200.000	0.010	-0.277
-609.215	-82.493	0.151	-0.049
-608.201	-200.000	-0.002	0.317
-607.186	-63.160	0.148	-0.061
-606.171	800.000	-0.026	-0.078
-605.157	-38.745	-0.126	0.066
-604.142	-109.664	-0.171	0.036
-603.128	-87.130	-0.068	-0.021
-602.113	800.000	-0.117	0.508
-601.098	-200.000	0.011	-0.157
-600.084	-77.818	-0.013	0.004
-599.069	-57.567	0.233	-0.102
-598.055	-200.000	0.000	0.234
-597.040	-120.336	0.169	0.029
-596.025	310.578	-0.187	0.349
-595.011	-200.000	-0.005	-0.052
-593.996	-87.350	0.122	-0.037
-592.982	-60.116	-0.245	0.104
-591.967	-200.000	0.072	0.482
-590.952	800.000	0.040	-0.135
-589.938	-200.000	-0.006	0.248
-588.923	800.000	-0.082	-0.263
-587.909	-101.919	0.185	-0.044
-586.894	65.892	-0.045	-0.046
-585.879	-39.672	0.262	0.137
-584.865	294.448	-0.099	-0.180
-583.850	164.078	-0.065	-0.091
-582.836	-104.148	0.168	0.039
-581.821	721.661	0.134	0.356
-580.806	-155.529	-0.128	0.008
-579.792	-200.000	-0.007	-0.323
-578.777	-200.000	0.042	-0.356
-577.763	-12.056	0.390	-0.255
-576.748	548.240	0.089	-0.213
-575.733	303.018	0.099	-0.182
-574.719	-14.228	0.088	-0.057
-573.704	-126.849	0.053	0.008
-572.690	-98.381	-0.110	-0.028
-571.675	73.257	-0.036	0.037
-570.661	-200.000	-0.023	0.251
-569.646	130.951	0.085	0.109
-568.631	-121.412	-0.291	-0.048
-567.617	800.000	-0.057	-0.193
-566.602	-80.847	-0.229	0.076
-565.588	-39.536	-0.230	0.120
-564.573	211.691	-0.059	-0.093
-563.558	-122.175	-0.133	-0.022
-562.544	78.240	0.161	0.171
-561.529	-65.581	-0.268	-0.107
-560.515	119.857	0.143	0.176
-559.500	-105.088	0.191	-0.044
-558.485	112.352	-0.199	0.240
-557.471	800.000	0.042	-0.154
-556.456	-200.000	0.078	-0.527
-555.442	45.088	0.079	-0.072
-554.427	-66.936	-0.125	0.049
-553.412	5.307	-0.028	0.021
-552.398	-200.000	0.018	-0.272
-551.383	-200.000	0.002	0.104
-550.369	-78.128	-0.279	0.095
-549.354	-18.507	-0.242	-0.150
-548.339	800.000	-0.097	0.418
-547.325	-40.935	-0.213	0.109
-546.310	98.633	0.129	-0.148
-545.296	-63.584	0.500	0.204
-544.281	-200.000	0.017	0.156
-543.266	-45.213	0.215	0.106
-542.252	-46.344	-0.118	0.058
-541.237	-200.000	0.036	-0.229
-540.223	-119.519	0.322	-0.055
-539.208	-118.161	0.133	0.024
-538.193	-59.878	0.153	0.065
-537.179	-101.616	0.306	0.074
-536.164	-200.000	0.007	0.087
-535.150	800.000	-0.053	0.151
-534.135	235.591	0.185	0.303
-533.121	-73.905	-0.312	-0.113
-532.106	-200.000	-0.006	-0.285
-531.091	-104.907	-0.329	-0.075
-530.077	-189.371	0.322	0.004
-529.062	-200.000	0.053	-0.289
-528.048	266.387	-0.120	-0.208
-527.033	32.015	-0.119	0.102
-526.018	-76.046	-0.087	0.030
-525.004	325.780	-0.131	0.248
-523.989	-200.000	0.107	-0.471
-522.975	317.489	0.064	-0.120
-521.960	-25.990	0.129	0.075
-520.945	-200.000	0.027	0.168
-519.931	394.569	-0.103	0.213
-518.916	-107.833	0.236	-0.051
-517.902	295.124	-0.045	0.083
-516.887	7.832	0.168	-0.125
-515.872	-200.000	-0.033	-0.202
-514.858	568.285	-0.069	0.166
-513.843	24.221	-0.203	0.166
-512.829	-108.673	-0.298	0.064
-511.814	-53.244	0.287	0.131
-510.799	116.964	0.074	-0.090
-509.785	285.259	-0.147	0.263
-508.770	231.069	0.071	-0.116
-507.756	14.981	-0.197	-0.154
-506.741	-79.709	-0.176	0.059
-505.726	-137.829	0.267	0.030
-504.712	302.741	0.048	-0.089
-503.697	-127.098	-0.133	-0.019
-502.683	362.754	0.094	-0.188
-501.668	30.038	-0.205	-0.174
-500.653	800.000	-0.060	-0.209
-499.639	32.883	0.140	0.120
-498.624	-110.825	-0.261	0.053
-497.610	-78.096	-0.138	0.047
-496.595	-113.385	-0.288	-0.056
-495.581	57.335	-0.168	-0.163
-494.566	-103.850	-0.458	-0.106
-493.551	800.000	0.062	0.211
-492.537	-71.093	-0.293	0.109
-491.522	53.517	0.153	0.145
-490.508	-75.497	-0.076	-0.027
-489.493	422.217	0.055	0.117
-488.478	257.521	-0.114	0.195
-487.464	-200.000	-0.010	-0.065
-486.449	-2.667	-0.111	-0.077
-485.435	605.007	0.108	0.267
-484.420	-61.193	0.043	-0.018
-483.405	-13.874	0.433	0.277
-482.391	165.870	-0.063	0.088
-481.376	168.330	0.218	-0.307
-480.362	561.528	-0.027	0.065
-479.347	357.988	-0.043	0.086
-478.332	3.072	-0.102	0.074
-477.318	-112.772	0.067	0.013
-476.303	800.000	0.037	-0.101
-475.289	-31.493	0.129	0.072
-474.274	800.000	0.104	0.415
-473.259	128.449	0.131	0.165
-472.245	105.737	0.190	0.223
-471.230	-200.000	-0.000	-0.409
-470.216	189.499	-0.162	-0.241
-469.201	-200.000	-0.066	0.342
-468.186	-97.947	0.340	0.087
-467.172	-107.569	-0.410	0.089
-466.157	800.000	-0.011	0.039
-465.143	91.620	-0.066	-0.074
-464.128	24.025	-0.116	-0.095
-463.113	800.000	-0.051	-0.142
-462.099	102.302	0.141	0.163
-461.084	156.015	0.112	-0.153
-460.070	-43.827	-0.324	-0.162
-459.055	12.781	0.300	0.230
-458.040	61.875	-0.096	0.094
-457.026	800.000	0.063	-0.271
-456.011	48.736	0.237	-0.220
-454.997	472.948	-0.121	-0.271
-453.982	-17.428	0.136	-0.085
-452.968	-200.000	-0.034	-0.192
-451.953	-200.000	-0.002	-0.089
-450.938	-200.000	0.020	0.097
-449.924	-83.189	0.318	0.101
-448.909	436.675	-0.023	0.049
-447.895	-5.039	0.094	-0.064
-446.880	-10.294	-0.101	0.067
-445.865	193.930	-0.154	-0.231
-444.851	-138.257	-0.267	0.029
-443.836	-119.815	-0.237	-0.040
-442.822	15.089	-0.231	0.179
-441.807	335.601	-0.098	0.189
-440.792	800.000	-0.070	0.215
-439.778	-84.819	-0.168	-0.052
-438.763	44.929	-0.169	-0.154
-437.749	284.275	-0.011	-0.019
-436.734	246.547	-0.227	-0.379
-435.719	-200.000	-0.030	0.218
-434.705	-78.712	0.036	0.012
-433.690	-120.458	0.190	0.032
-432.676	-200.000	-0.031	-0.209
-431.661	-51.706	0.187	0.086
-430.646	195.280	-0.121	0.183
-429.632	549.054	-0.096	-0.228
-428.617	-49.647	-0.352	0.166
-427.603	-99.165	0.150	0.037
-426.588	9.005	-0.017	0.013
-425.573	800.000	-0.067	0.248
-424.559	-146.315	0.656	0.057
-423.544	249.300	-0.055	0.092
-422.530	-200.000	-0.025	0.197
-421.515	-200.000	0.020	0.087
-420.500	394.624	-0.204	-0.421
-419.486	-200.000	0.031	-0.181
-418.471	-115.685	-0.276	0.051
-417.457	-63.666	0.184	-0.075
-416.442	-57.502	-0.356	0.155
-415.428	89.306	0.030	0.033
-414.413	510.094	0.078	0.179
-413.398	16.669	-0.263	-0.206
-412.384	500.570	0.207	0.473
-411.369	115.342	0.151	-0.183
-410.355	-67.228	-0.070	-0.027
-409.340	707.931	0.024	0.063
-408.325	-200.000	0.017	0.210
-407.311	-78.491	0.149	0.051
-406.296	-19.368	-0.125	-0.077
-405.282	-6.941	-0.175	-0.118
-404.267	-157.296	0.086	-0.005
-403.252	800.000	-0.037	0.158
-402.238	-200.000	0.011	-0.057
-401.223	-44.171	-0.122	-0.060
-400.209	79.255	-0.116	0.122
-399.194	36.956	-0.257	-0.225
-398.179	425.465	-0.115	0.244
-397.165	-200.000	-0.045	-0.282
-396.150	-141.732	0.189	-0.019
-395.136	-113.725	0.127	0.024
-394.121	800.000	-0.020	-0.059
-393.106	800.000	-0.050	0.215
-392.092	-24.919	0.232	-0.136
-391.077	800.000	-0.032	0.111
-390.063	-190.106	-0.301	0.003
-389.048	21.697	-0.218	0.175
-388.033	-200.000	-0.031	0.240
-387.019	165.307	0.131	-0.183
-386.004	212.552	-0.206	-0.321
-384.990	800.000	0.081	-0.299
-383.975	-186.050	0.374	-0.005
-382.960	-116.106	-0.173	-0.032
-381.946	88.380	-0.046	-0.050
-380.931	-5.075	-0.282	-0.192
-379.917	-72.570	-0.046	-0.017
-378.902	27.079	0.424	-0.352
-377.888	-200.000	-0.006	-0.089
-376.873	-103.216	0.061	0.014
-375.858	220.709	-0.166	0.264
-374.844	-141.777	-0.329	-0.033
-373.829	-24.006	-0.095	-0.056
-372.815	-169.865	0.136	-0.005
-371.800	-94.465	-0.109	-0.029
-370.785	180.790	0.113	-0.164
-369.771	-82.864	0.040	0.013
-368.756	-200.000	0.066	0.373
-367.742	73.479	-0.251	0.259
-366.727	179.251	0.176	0.254
-365.712	-108.136	-0.251	0.054
-364.698	-24.307	-0.315	-0.186
-363.683	-200.000	0.011	0.241
-362.669	-14.800	-0.265	-0.168
-361.654	31.250	-0.243	-0.206
-360.639	239.957	-0.008	-0.014
-359.625	800.000	-0.021	0.058
-358.610	269.690	-0.136	0.236
-357.596	800.000	0.009	0.032
-356.581	72.323	-0.186	0.191
-355.566	-41.309	-0.228	0.116
-354.552	-47.808	-0.120	-0.058
-353.537	-200.000	-0.007	0.191
-352.523	-163.995	-0.206	-0.009
-351.508	-0.925	-0.180	0.125
-350.493	-55.580	0.171	-0.076
-349.479	189.125	0.169	0.250
-348.464	800.000	0.054	0.184
-347.450	-200.000	0.044	0.197
-346.435	-54.030	0.182	-0.082
-345.420	-137.830	0.287	0.032
-344.406	-163.521	-0.252	0.012
-343.391	128.022	0.042	0.052
-342.377	800.000	0.114	0.341
-341.362	-36.841	0.210	-0.111
-340.348	-200.000	-0.188	0.000
-339.333	103.468	-0.240	0.277
-338.318	8.407	-0.063	-0.046
-337.304	143.313	-0.054	0.071
-336.289	-27.420	-0.178	0.102
-335.275	800.000	-0.112	-0.462
-334.260	16.390	0.116	-0.090
-333.245	189.851	0.070	0.104
-332.231	-79.813	-0.158	-0.052
-331.216	-58.574	0.299	-0.128
-330.202	-76.336	0.281	0.098
-329.187	587.750	0.069	0.169
-328.172	-158.321	0.172	-0.010
-327.158	-161.802	-0.037	-0.002
-326.143	551.757	0.107	-0.253
-325.129	80.102	-0.286	0.303
-324.114	215.311	0.156	-0.245
-323.099	800.000	0.057	0.163
-322.085	-192.448	-0.219	-0.002
-321.070	126.117	0.136	-0.170
-320.056	-44.855	-0.119	0.058
-319.041	-41.209	-0.464	-0.236
-318.026	-61.001	0.109	-0.045
-317.012	80.202	-0.042	-0.044
-315.997	-134.453	0.477	-0.058
-314.983	800.000	0.052	-0.162
-313.968	-200.000	-0.001	-0.226
-312.953	486.076	0.031	-0.070
-311.939	-200.000	0.033	-0.217
-310.924	800.000	0.129	0.433
-309.910	-20.595	0.170	-0.103
-308.895	-184.413	-0.108	-0.002
-307.880	244.406	-0.113	0.186
-306.866	-200.000	-0.000	-0.143
-305.851	-123.729	0.170	0.026
-304.837	-113.523	-0.387	-0.075
-303.822	-70.563	0.119	-0.044
-302.807	-200.000	0.035	0.197
-301.793	-63.947	0.132	0.053
-300.778	-200.000	0.002	-0.185
-299.764	-9.836	-0.156	0.103
-298.749	800.000	-0.036	0.124
-297.735	-111.031	-0.171	-0.035
-296.720	800.000	0.079	-0.255
-295.705	28.025	-0.131	-0.109
-294.691	213.619	-0.111	-0.173
-293.676	564.868	-0.090	-0.216
-292.662	-146.999	0.296	-0.025
-291.647	-117.848	0.097	0.017
-290.632	-133.544	-0.061	-0.008
-289.618	264.486	-0.120	0.206
-288.603	-88.120	0.235	0.069
-287.589	-3.595	0.144	-0.099
-286.574	-172.458	-0.160	-0.005
-285.559	800.000	0.020	-0.065
-284.545	19.804	-0.221	-0.175
-283.530	199.799	0.106	0.160
-282.516	-172.718	0.229	-0.007
-281.501	76.394	-0.091	-0.094
-280.486	-200.000	-0.004	-0.024
-279.472	141.226	-0.098	-0.128
-278.457	119.661	-0.152	-0.186
-277.443	67.861	0.151	0.152
-276.428	242.571	-0.159	0.262
-275.413	-13.856	0.282	0.179
-274.399	67.790	0.117	0.118
-273.384	-171.282	-0.213	0.007
-272.370	-200.000	0.010	0.113
-271.355	800.000	-0.143	0.428
-270.340	164.968	0.017	-0.023
-269.326	-159.017	0.296	0.017
-268.311	-51.809	-0.201	-0.092
-267.297	-96.694	-0.120	-0.031
-266.282	176.402	-0.125	-0.178
-265.267	-140.120	-0.236	0.024
-264.253	32.196	0.108	0.092
-263.238	-16.433	-0.421	-0.262
-262.224	-36.522	-0.234	-0.124
-261.209	-200.000	0.043	-0.331
-260.195	-56.522	0.386	-0.169
-259.180	20.028	0.144	-0.115
-258.165	647.562	-0.097	-0.245
-257.151	-200.000	-0.054	-0.295
-256.136	-200.000	0.005	0.052
-255.122	800.000	0.118	0.484
-254.107	146.816	0.167	0.220
-253.092	-200.000	0.026	-0.189
-252.078	147.768	0.208	-0.276
-251.063	419.468	0.051	-0.108
-250.049	194.493	0.056	0.084
-249.034	11.052	0.141	-0.106
-248.019	-39.408	-0.165	-0.085
-247.005	-154.598	0.099	-0.006
-245.990	-200.000	-0.008	-0.352
-244.976	800.000	-0.094	-0.365
-243.961	-135.458	-0.138	0.016
-242.946	493.521	0.093	0.209
-241.932	-56.011	-0.368	0.161
-240.917	-200.000	0.010	-0.278
-239.903	-119.603	-0.119	-0.020
-238.888	42.080	0.242	0.216
-237.873	-200.000	-0.005	-0.207
-236.859	-90.305	0.205	0.059
-235.844	120.719	-0.105	0.128
-234.830	-101.670	-0.419	0.100
-233.815	-101.766	0.151	-0.036
-232.800	14.331	0.142	0.109
-231.786	162.046	-0.176	0.242
-230.771	-36.083	-0.171	-0.091
-229.757	-86.429	0.301	-0.091
-228.742	800.000	0.080	-0.222
-227.727	398.959	0.170	-0.349
-226.713	87.443	0.085	-0.092
-225.698	-71.461	-0.190	-0.070
-224.684	-18.138	-0.266	0.164
-223.669	483.554	0.051	-0.113
-222.655	-200.000	-0.029	-0.282
-221.640	-71.862	0.287	0.105
-220.625	-78.138	0.220	-0.074
-219.611	7.476	-0.329	0.242
-218.596	-200.000	0.064	-0.289
-217.582	96.046	-0.159	0.178
-216.567	400.941	-0.072	0.149
-215.552	-15.222	0.089	0.056
-214.538	-93.436	0.187	0.051
-213.523	-200.000	0.025	0.145
-212.509	-200.000	-0.078	-0.477
-211.494	-15.561	-0.067	0.042
-210.479	76.462	0.084	-0.087
-209.465	-77.988	0.230	-0.078
-208.450	129.115	-0.026	0.032
-207.436	800.000	0.044	0.121
-206.421	-51.769	-0.052	-0.024
-205.406	-200.000	0.045	-0.258
-204.392	549.409	-0.130	-0.305
-203.377	490.792	0.114	-0.257
-202.363	97.481	0.238	0.269
-201.348	-175.181	0.423	0.011
-200.333	-18.497	-0.207	-0.127
-199.319	-196.211	-0.036	-0.000
-198.304	403.067	0.120	0.248
-197.290	694.010	0.104	-0.268
-196.275	-128.758	0.357	0.049
-195.260	-200.000	-0.052	-0.376
-194.246	309.334	-0.015	-0.028
-193.231	30.432	0.262	-0.219
-192.217	336.046	0.080	-0.152
-191.202	-46.268	-0.270	0.131
-190.187	-90.171	-0.086	0.025
-189.173	-79.753	0.158	-0.052
-188.158	217.184	0.222	0.347
-187.144	800.000	0.014	0.057
-186.129	70.835	0.111	0.112
-185.114	3.567	0.231	-0.165
-184.100	264.413	-0.141	-0.242
-183.085	-200.000	-0.003	0.267
-182.071	-200.000	0.033	0.314
-181.056	57.564	0.167	-0.160
-180.042	800.000	0.108	0.329
-179.027	6.267	0.137	0.100
-178.012	64.236	-0.287	0.283
-176.998	22.186	-0.116	-0.093
-175.983	-118.678	-0.327	-0.057
-174.969	149.088	0.299	0.397
-173.954	123.939	0.225	0.277
-172.939	800.000	0.116	-0.338
-171.925	145.351	0.063	0.083
-170.910	-96.296	0.303	-0.079
-169.896	-93.607	0.212	0.057
-168.881	-16.250	0.210	-0.131
-167.866	-165.053	-0.380	-0.017
-166.852	-107.403	-0.121	-0.026
-165.837	-137.543	-0.188	0.021
-164.823	-200.000	-0.014	-0.110
-163.808	16.381	-0.114	-0.088
-162.793	-93.606	0.352	0.095
-161.779	800.000	0.024	-0.072
-160.764	-200.000	0.059	-0.274
-159.750	383.696	0.087	0.175
-158.735	-200.000	-0.023	0.119
-157.720	-114.287	0.165	0.031
-156.706	-130.454	0.345	0.046
-155.691	800.000	0.136	-0.396
-154.677	-141.322	-0.036	0.004
-153.662	-200.000	0.067	0.342
-152.647	373.497	0.106	-0.212
-151.633	-72.110	0.105	0.038
-150.618	-200.000	0.008	0.101
-149.604	509.198	-0.088	-0.201
-148.589	354.816	-0.086	0.168
-147.574	618.421	0.053	0.130
-146.560	317.481	-0.132	0.245
-145.545	586.368	0.180	0.434
-144.531	321.113	-0.116	0.215
-143.516	-171.979	0.230	0.007
-142.502	800.000	0.049	-0.156
-141.487	9.795	-0.145	0.108
-140.472	-15.063	-0.119	-0.075
-139.458	-149.066	0.096	-0.008
-138.443	15.351	0.121	-0.093
-137.429	16.005	-0.263	0.202
-136.414	-200.000	-0.037	0.369
-135.399	-6.308	-0.131	0.087
-134.385	66.881	0.175	-0.174
-133.370	223.063	-0.077	-0.121
-132.356	-200.000	-0.420	0.001
-131.341	10.692	0.278	0.207
-130.326	-200.000	0.009	-0.219
-129.312	-104.799	-0.301	0.068
-128.297	-200.000	0.005	0.162
-127.283	-200.000	0.036	0.176
-126.268	-95.974	0.117	-0.030
-125.253	-35.063	0.244	0.130
-124.239	-32.417	-0.237	-0.129
-123.224	800.000	-0.068	-0.217
-122.210	-200.000	0.032	0.170
-121.195	-25.371	-0.178	0.103
