DTS Sentinel unit serial number:	SN413079Multiplexer serial number:	ORYXHardware model number:	OX4-SRSoftware version number:	ORYX F/W v4.00 Oryx Data Collector v3.7.2.0data status	okinstallation	princeton_trtdifferential loss correction	single-endedforward channel	channel 1reverse channel	N/Adate	2019/09/12time	19:11:34forward acquisition time	15.00reverse acquisition time	0.00gamma	496.2192k internal	0.2319k external	0.2319temperature offset calibration	1.0122default loss term (dB/km)	0.3790temperature slope calibration	1.0000multiplexer offset coefficient	1.0000multiplexer slope coefficient	1.0000fibre end	0.00T internal ref (°C)	32.56T ext. ref 1 (°C)	3.18T ext. ref 2 (°C)	27.18length (m)	temperature (°C)	Stokes	anti-Stokes-747.200	-200.000	-0.074	-0.594
-746.185	40.176	-0.588	0.535
-745.171	-67.730	0.238	0.094
-744.156	-64.043	0.372	0.153
-743.142	800.000	0.227	-0.951
-742.127	65.352	0.348	0.356
-741.112	137.576	-0.215	-0.285
-740.098	222.556	-0.472	0.769
-739.083	111.342	0.412	-0.503
-738.069	-96.471	0.311	0.083
-737.054	-200.000	-0.027	0.238
-736.039	11.025	-0.659	0.510
-735.025	-200.000	-0.004	0.840
-734.010	-111.875	0.228	0.046
-732.996	-107.494	-0.184	-0.041
-731.981	340.656	-0.306	-0.604
-730.966	-12.339	-0.243	-0.161
-729.952	-60.680	0.792	0.340
-728.937	-53.428	-0.670	-0.310
-727.923	217.735	-0.179	0.288
-726.908	-105.095	-0.432	-0.100
-725.894	250.794	-0.394	0.677
-724.879	-200.000	0.048	0.258
-723.864	329.467	-0.149	-0.289
-722.850	385.444	-0.523	-1.091
-721.835	1.644	-0.143	0.104
-720.821	-130.834	-0.087	-0.012
-719.806	721.360	-0.492	-1.321
-718.791	-44.730	-0.776	0.391
-717.777	438.411	0.457	-1.008
-716.762	800.000	-0.193	0.561
-715.748	-3.885	-0.512	0.359
-714.733	295.535	-0.540	-1.000
-713.718	-13.839	-0.345	-0.225
-712.704	-200.000	-0.048	-0.338
-711.689	215.525	-0.277	-0.444
-710.675	-200.000	0.100	0.617
-709.660	58.107	-0.057	0.057
-708.645	157.049	0.279	-0.389
-707.631	-15.565	1.029	-0.663
-706.616	-155.003	-0.935	0.062
-705.602	318.077	-0.463	0.886
-704.587	52.066	-0.414	-0.398
-703.572	222.067	0.143	0.232
-702.558	113.298	0.297	0.364
-701.543	-200.000	-0.062	0.283
-700.529	20.753	0.267	-0.219
-699.514	-200.000	0.062	-0.923
-698.499	-61.876	0.312	-0.132
-697.485	761.616	-0.470	-1.287
-696.470	155.141	0.430	-0.597
-695.456	36.956	-0.250	0.223
-694.441	351.124	-0.075	-0.150
-693.426	-200.000	-0.011	-0.441
-692.412	225.094	0.195	0.318
-691.397	-106.168	0.242	0.055
-690.383	165.928	-0.066	-0.095
-689.368	21.663	0.671	-0.552
-688.354	79.546	-0.330	0.357
-687.339	173.482	-0.382	-0.556
-686.324	-200.000	-0.024	-0.317
-685.310	76.943	-0.760	-0.814
-684.295	-200.000	0.072	-0.359
-683.281	367.859	-0.369	0.752
-682.266	132.318	-0.157	0.205
-681.251	137.557	-0.177	0.234
-680.237	-200.000	-0.009	-0.175
-679.222	-149.231	-0.563	0.045
-678.208	-88.352	0.976	-0.294
-677.193	-98.055	-0.693	-0.180
-676.178	800.000	-0.068	-0.263
-675.164	19.918	0.118	-0.096
-674.149	21.333	0.146	-0.120
-673.135	261.943	-0.278	0.487
-672.120	-50.983	-0.536	0.254
-671.105	-82.332	-0.442	-0.145
-670.091	-29.877	0.393	-0.226
-669.076	-144.443	0.803	0.075
-668.062	758.746	-0.302	-0.824
-667.047	-200.000	0.098	-0.461
-666.032	-200.000	-0.028	0.220
-665.018	-15.358	-0.225	0.145
-664.003	-20.118	0.249	0.155
-662.989	97.489	0.079	0.091
-661.974	88.227	0.329	-0.368
-660.959	-52.810	0.302	0.140
-659.945	-79.243	0.371	0.127
-658.930	800.000	-0.141	0.524
-657.916	-187.728	-0.420	-0.006
-656.901	-19.886	0.380	-0.237
-655.886	-100.202	-0.894	0.224
-654.872	3.598	0.539	-0.397
-653.857	-200.000	0.010	-0.953
-652.843	-66.920	-0.804	-0.320
-651.828	-93.274	-0.597	-0.167
-650.814	-29.088	0.312	-0.181
-649.799	-10.249	-0.385	-0.258
-648.784	-63.396	-0.837	-0.347
-647.770	-7.848	-0.530	-0.361
-646.755	567.467	-0.213	-0.522
-645.741	-119.140	-0.221	0.039
-644.726	-127.774	-0.155	0.023
-643.711	-123.368	-1.002	0.161
-642.697	-144.921	-0.627	-0.058
-641.682	-200.000	-0.108	0.498
-640.668	211.031	-0.182	0.289
-639.653	69.412	-0.526	0.545
-638.638	-86.797	0.658	-0.203
-637.624	-126.240	-0.436	-0.066
-636.609	115.702	0.188	-0.232
-635.595	556.731	0.353	0.857
-634.580	-124.662	-0.348	0.054
-633.565	800.000	0.097	0.318
-632.551	-48.063	0.874	0.425
-631.536	-103.351	-0.090	-0.021
-630.522	-169.874	-0.912	-0.033
-629.507	96.853	-0.439	0.507
-628.492	580.643	-0.234	-0.577
-627.478	800.000	-0.098	0.430
-626.463	-200.000	0.062	-0.284
-625.449	-43.246	-0.326	0.166
-624.434	800.000	-0.072	0.244
-623.419	-95.604	0.510	0.137
-622.405	-149.352	0.245	-0.020
-621.390	-200.000	0.006	-0.513
-620.376	-165.499	0.739	0.032
-619.361	-45.670	0.760	0.378
-618.346	153.385	0.230	-0.317
-617.332	800.000	-0.122	-0.341
-616.317	-200.000	0.073	0.414
-615.303	-200.000	0.043	0.425
-614.288	-200.000	-0.034	-0.199
-613.273	320.336	0.315	-0.602
-612.259	33.672	-0.514	-0.450
-611.244	17.995	-0.363	-0.291
-610.230	-41.480	0.066	0.034
-609.215	-78.383	-0.347	0.120
-608.201	-200.000	0.023	0.137
-607.186	33.719	0.539	0.472
-606.171	-16.248	0.796	0.509
-605.157	-108.241	-0.433	0.094
-604.142	-200.000	0.091	-0.451
-603.128	210.253	0.357	0.563
-602.113	-200.000	0.007	-0.277
-601.098	-110.403	0.684	-0.143
-600.084	-42.461	0.100	0.051
-599.069	800.000	-0.110	0.423
-598.055	640.699	0.252	-0.644
-597.040	-200.000	0.030	-0.156
-596.025	-67.252	0.336	0.133
-595.011	-36.699	-0.254	0.137
-593.996	-11.112	0.474	-0.315
-592.982	-172.801	0.720	-0.023
-591.967	-58.872	-0.456	0.198
-590.952	64.334	-0.214	0.217
-589.938	726.785	-0.201	-0.539
-588.923	180.083	-0.173	-0.255
-587.909	2.058	0.289	0.210
-586.894	-200.000	-0.135	1.068
-585.879	-200.000	-0.037	0.297
-584.865	-76.832	-0.279	0.098
-583.850	-154.223	0.394	-0.027
-582.836	-200.000	0.065	-0.801
-581.821	178.166	0.549	0.806
-580.806	-172.757	0.446	0.014
-579.792	618.084	-0.281	-0.709
-578.777	800.000	0.225	-0.762
-577.763	-45.322	-0.796	0.397
-576.748	560.847	-0.245	0.595
-575.733	800.000	0.291	0.861
-574.719	-200.000	0.005	0.362
-573.704	517.955	-0.316	-0.744
-572.690	19.298	0.443	-0.358
-571.675	-39.674	-0.266	0.140
-570.661	800.000	0.055	-0.202
-569.646	-22.032	-0.248	-0.151
-568.631	-101.827	0.184	-0.045
-567.617	-100.185	0.334	-0.083
-566.602	-63.333	-0.142	0.059
-565.588	239.194	-0.380	-0.635
-564.573	324.466	-0.115	0.221
-563.558	800.000	-0.036	-0.102
-562.544	-100.701	-0.926	-0.229
-561.529	-198.501	0.387	0.002
-560.515	800.000	0.198	0.778
-559.500	33.594	-0.413	0.360
-558.485	-8.576	-0.109	-0.073
-557.471	-200.000	0.189	1.070
-556.456	800.000	-0.175	-0.534
-555.442	-104.724	0.636	0.147
-554.427	76.416	-0.415	0.442
-553.412	-200.000	-0.134	-1.160
-552.398	-14.460	0.278	0.180
-551.383	-31.432	0.240	-0.135
-550.369	193.050	-0.297	-0.451
-549.354	800.000	-0.103	0.314
-548.339	-27.094	-0.892	-0.522
-547.325	-200.000	0.025	-0.317
-546.310	-49.855	-0.675	-0.322
-545.296	172.581	0.160	-0.231
-544.281	1.172	-0.327	0.236
-543.266	156.689	0.453	-0.628
-542.252	-200.000	0.143	-0.703
-541.237	-200.000	-0.010	0.393
-540.223	198.006	-0.188	0.288
-539.208	340.974	-0.040	-0.077
-538.193	66.902	-0.109	-0.111
-537.179	1.343	0.492	-0.355
-536.164	800.000	-0.105	0.380
-535.150	-171.004	-0.648	0.022
-534.135	90.733	0.330	-0.371
-533.121	800.000	-0.048	-0.135
-532.106	10.116	-0.410	-0.312
-531.091	-22.808	-0.671	-0.406
-530.077	800.000	0.092	-0.268
-529.062	181.841	0.378	0.558
-528.048	-200.000	0.094	-1.031
-527.033	172.838	-0.358	0.517
-526.018	133.251	-0.194	0.251
-525.004	-141.538	0.476	-0.048
-523.989	800.000	-0.286	0.923
-522.975	800.000	0.172	0.661
-521.960	-12.525	-0.564	0.369
-520.945	-91.685	0.353	0.101
-519.931	-106.929	-0.664	-0.147
-518.916	-19.057	-0.741	0.462
-517.902	19.056	0.601	-0.484
-516.887	304.416	-0.053	0.099
-515.872	-200.000	-0.081	0.587
-514.858	179.845	-0.114	0.168
-513.843	7.868	0.245	0.184
-512.829	-13.292	-0.125	-0.081
-511.814	-145.569	-0.317	0.028
-510.799	233.823	-0.328	-0.541
-509.785	-115.807	0.752	0.141
-508.770	-30.835	-0.327	-0.185
-507.756	765.782	0.176	-0.481
-506.741	234.587	0.065	0.108
-505.726	14.923	-0.249	-0.196
-504.712	134.623	-0.218	-0.283
-503.697	-68.804	-0.256	0.099
-502.683	98.743	-0.285	0.330
-501.668	109.805	0.578	0.694
-500.653	-72.164	0.122	-0.046
-499.639	172.714	0.126	-0.182
-498.624	118.994	-0.152	-0.188
-497.610	800.000	0.021	0.069
-496.595	-200.000	-0.082	0.943
-495.581	-91.311	-0.599	0.172
-494.566	89.413	0.295	-0.329
-493.551	99.263	-0.412	-0.478
-492.537	126.861	0.690	0.876
-491.522	-200.000	0.036	0.621
-490.508	29.466	0.496	-0.422
-489.493	-59.465	0.291	0.125
-488.478	800.000	-0.068	-0.243
-487.464	-179.237	0.325	-0.007
-486.449	-200.000	-0.045	0.695
-485.435	-157.014	0.367	-0.022
-484.420	-200.000	-0.009	-0.161
-483.405	7.295	0.499	0.373
-482.391	34.473	0.464	0.406
-481.376	-200.000	0.015	-0.094
-480.362	58.387	-0.179	-0.176
-479.347	340.928	-0.103	-0.201
-478.332	-148.715	-0.558	-0.045
-477.318	744.615	0.135	0.363
-476.303	297.100	0.184	-0.338
-475.289	-130.079	0.496	0.068
-474.274	800.000	-0.201	0.612
-473.259	350.947	0.325	0.644
-472.245	507.779	-0.302	-0.701
-471.230	158.347	0.188	-0.260
-470.216	-38.082	-0.453	-0.241
-469.201	-35.568	-0.507	-0.275
-468.186	-97.155	0.366	-0.096
-467.172	389.028	0.175	-0.363
-466.157	-32.796	0.221	0.123
-465.143	-197.808	-0.624	0.004
-464.128	-71.418	-0.234	0.088
-463.113	-200.000	0.055	-0.789
-462.099	57.224	0.636	0.621
-461.084	314.068	0.396	-0.745
-460.070	-200.000	0.527	0.000
-459.055	-62.439	0.069	0.029
-458.040	170.870	0.392	0.562
-457.026	-101.498	0.294	0.072
-456.011	-141.186	-0.822	0.084
-454.997	-19.096	-0.444	0.276
-453.982	551.071	-0.172	-0.412
-452.968	-128.178	-0.886	0.127
-451.953	-66.944	0.437	-0.173
-450.938	740.654	0.186	-0.500
-449.924	-159.218	0.200	-0.011
-448.909	465.467	0.242	-0.542
-447.895	43.959	0.586	-0.537
-446.880	65.490	-0.198	-0.201
-445.865	-117.474	-0.364	-0.066
-444.851	800.000	-0.056	-0.223
-443.836	-149.320	0.379	-0.030
-442.822	-139.774	-1.095	0.116
-441.807	-87.742	0.500	0.151
-440.792	-130.130	0.567	-0.077
-439.778	36.744	0.606	0.535
-438.763	-200.000	0.171	0.932
-437.749	17.317	0.246	0.195
-436.734	-17.024	0.693	0.437
-435.719	-121.005	-0.834	0.140
-434.705	-40.238	0.897	0.467
-433.690	-47.773	-0.615	0.298
-432.676	-200.000	-0.016	0.400
-431.661	-200.000	0.063	-0.671
-430.646	-43.017	0.147	-0.075
-429.632	325.441	-0.406	-0.775
-428.617	93.203	0.484	0.547
-427.603	800.000	0.073	-0.286
-426.588	-47.061	-0.767	0.374
-425.573	326.180	-0.379	0.726
-424.559	245.646	-0.082	-0.137
-423.544	800.000	-0.103	0.430
-422.530	75.341	-0.808	0.851
-421.515	134.923	-0.586	-0.760
-420.500	-103.973	0.571	0.133
-419.486	-124.722	-0.427	0.066
-418.471	-127.788	-0.382	-0.055
-417.457	-57.709	0.303	0.133
-416.442	100.403	-0.600	-0.696
-415.428	-131.635	0.781	0.103
-414.413	-197.369	0.409	-0.003
-413.398	231.396	0.256	0.419
-412.384	-55.334	0.720	0.323
-411.369	396.104	0.414	0.864
-410.355	772.439	-0.078	0.212
-409.340	-54.741	-0.586	0.264
-408.325	101.917	0.339	-0.395
-407.311	3.669	-0.433	-0.316
-406.296	391.221	0.182	-0.378
-405.282	-90.391	-0.610	0.177
-404.267	177.799	-0.528	0.768
-403.252	-115.827	0.607	-0.113
-402.238	-200.000	0.052	0.724
-401.223	19.406	0.708	-0.568
-400.209	-101.627	0.589	0.143
-399.194	30.188	-0.283	-0.241
-398.179	-152.529	0.178	-0.013
-397.165	-143.256	0.519	0.050
-396.150	-120.868	-0.551	0.093
-395.136	800.000	0.382	-1.076
-394.121	-61.020	0.401	-0.169
-393.106	-121.531	-0.135	0.022
-392.092	164.149	-0.260	-0.365
-391.077	-200.000	0.057	-0.301
-390.063	-97.280	0.419	0.109
-389.048	-200.000	-0.027	-0.576
-388.033	167.467	0.330	0.468
-387.019	-52.981	0.262	-0.120
-386.004	800.000	0.147	-0.607
-384.990	800.000	0.154	0.582
-383.975	338.604	0.140	0.272
-382.960	-90.867	0.100	0.029
-381.946	-200.000	0.090	-0.601
-380.931	-112.186	0.129	0.026
-379.917	-15.927	-0.195	-0.124
-378.902	-200.000	-0.012	-0.202
-377.888	27.302	-0.053	0.045
-376.873	164.169	0.251	0.353
-375.858	-90.584	0.844	0.243
-374.844	4.990	0.252	0.185
-373.829	102.546	-0.258	-0.300
-372.815	-200.000	0.167	0.875
-371.800	800.000	0.195	0.702
-370.785	293.465	0.571	-1.040
-369.771	-119.989	0.481	-0.082
-368.756	800.000	0.342	1.121
-367.742	305.322	-0.158	0.292
-366.727	-2.392	-0.041	-0.028
-365.712	161.839	-0.133	0.185
-364.698	-81.216	-0.190	0.063
-363.683	64.278	0.359	0.360
-362.669	33.725	-0.242	-0.210
-361.654	22.846	0.195	0.160
-360.639	-200.000	-0.114	-0.555
-359.625	88.789	0.662	0.733
-358.610	74.184	0.360	0.376
-357.596	28.334	-0.623	0.524
-356.581	93.348	-0.401	-0.453
-355.566	-40.491	-1.032	0.534
-354.552	0.952	0.352	0.251
-353.537	800.000	0.206	-0.573
-352.523	227.919	-0.200	-0.325
-351.508	800.000	-0.246	0.691
-350.493	-92.557	0.823	0.230
-349.479	-12.805	-0.563	-0.365
-348.464	206.041	0.345	0.534
-347.450	-36.345	0.765	-0.411
-346.435	144.156	-0.468	-0.622
-345.420	-159.322	0.237	-0.013
-344.406	-59.808	1.103	0.470
-343.391	87.599	-0.422	-0.466
-342.377	-26.441	-0.857	-0.500
-341.362	-144.670	0.732	-0.067
-340.348	44.025	0.358	-0.327
-339.333	-200.000	-0.147	-1.200
-338.318	-200.000	-0.024	-0.127
-337.304	194.861	-0.529	0.800
-336.289	-43.185	-0.385	0.194
-335.275	-89.106	0.351	-0.103
-334.260	-200.000	-0.011	0.267
-333.245	-109.173	-0.376	-0.079
-332.231	345.401	0.264	0.517
-331.216	375.553	0.275	0.558
-330.202	87.192	0.427	-0.469
-329.187	-115.560	0.686	0.128
-328.172	-136.531	0.591	-0.068
-327.158	-13.770	-0.199	0.128
-326.143	-88.701	0.201	-0.060
-325.129	-123.986	-0.142	-0.022
-324.114	16.306	-0.437	0.343
-323.099	800.000	-0.116	0.356
-322.085	-18.356	0.573	-0.356
-321.070	-59.917	-0.654	-0.278
-320.056	800.000	0.292	0.885
-319.041	-200.000	-0.101	-0.921
-318.026	-100.390	-0.319	-0.079
-317.012	-92.507	-0.746	-0.208
-315.997	-44.391	0.731	0.364
-314.983	177.639	0.462	0.670
-313.968	-157.417	-0.332	0.020
-312.953	70.888	0.451	-0.465
-311.939	62.915	-0.320	0.319
-310.924	-1.582	0.679	-0.476
-309.910	-91.292	-0.420	-0.120
-308.895	-100.822	-0.695	-0.170
-307.880	50.518	-0.154	0.145
-306.866	-89.359	0.833	0.244
-305.851	-71.753	-0.433	-0.161
-304.837	571.603	-0.163	-0.396
-303.822	95.792	-0.293	-0.333
-302.807	-109.015	-0.571	0.121
-301.793	-102.773	-0.589	0.139
-300.778	226.927	0.275	0.444
-299.764	264.304	-0.053	0.092
-298.749	-200.000	0.098	0.924
-297.735	-46.885	-0.121	0.059
-296.720	-24.896	-0.823	0.485
-295.705	57.451	-0.278	-0.270
-294.691	209.067	0.429	-0.667
-293.676	13.922	-0.219	0.169
-292.662	-129.312	-0.274	-0.038
-291.647	-43.264	-0.631	0.317
-290.632	29.911	-0.386	-0.327
-289.618	51.669	-0.909	-0.859
-288.603	-130.102	0.765	-0.104
-287.589	-100.081	-0.561	0.139
-286.574	611.348	0.250	-0.621
-285.559	-200.000	-0.426	0.001
-284.545	800.000	0.353	-1.302
-283.530	-200.000	-0.059	-0.459
-282.516	260.506	-0.179	-0.308
-281.501	800.000	0.083	-0.239
-280.486	-17.550	0.631	0.394
-279.472	-38.936	-0.683	0.357
-278.457	-159.693	0.612	0.034
-277.443	7.679	-0.444	0.330
-276.428	-21.298	0.201	0.122
-275.413	-43.206	-0.325	0.163
-274.399	202.884	-0.313	0.480
-273.384	274.922	0.390	-0.686
-272.370	800.000	-0.111	-0.403
-271.355	-10.587	-0.555	-0.365
-270.340	111.607	-0.366	-0.438
-269.326	7.732	0.459	-0.341
-268.311	-68.736	0.318	-0.122
-267.297	-200.000	-0.518	0.002
-266.282	23.116	-0.255	0.207
-265.267	742.800	0.111	0.296
-264.253	-27.491	0.230	-0.133
-263.238	236.176	0.468	-0.768
-262.224	-161.403	-0.861	0.044
-261.209	-200.000	0.019	-0.175
-260.195	-86.269	0.364	-0.111
-259.180	-147.176	1.191	-0.101
-258.165	158.912	-0.275	0.380
-257.151	-19.500	0.765	-0.470
-256.136	-109.923	-0.534	-0.111
-255.122	154.235	0.419	0.570
-254.107	-82.912	-0.262	-0.084
-253.092	-15.657	-0.457	-0.289
-252.078	-76.730	0.448	-0.156
-251.063	-100.685	-0.035	-0.008
-250.049	80.045	0.053	-0.057
-249.034	-200.000	-0.005	0.630
-248.019	-12.923	-0.806	-0.520
-247.005	-86.736	-0.403	0.122
-245.990	119.416	-0.306	-0.376
-244.976	120.815	-0.110	0.136
-243.961	-84.998	0.220	-0.069
-242.946	21.632	0.314	0.254
-241.932	-24.832	0.708	-0.417
-240.917	-200.000	0.027	0.362
-239.903	11.342	0.417	-0.316
-238.888	79.992	0.481	0.512
-237.873	800.000	0.205	-0.747
-236.859	-91.732	1.155	0.326
-235.844	-126.383	0.661	0.098
-234.830	-200.000	0.015	0.379
-233.815	229.829	-0.464	0.752
-232.800	369.200	-0.100	-0.201
-231.786	-174.508	0.987	0.028
-230.771	22.784	0.584	0.475
-229.757	-50.993	0.233	-0.108
-228.742	-143.686	-0.452	0.042
-227.727	88.307	-0.165	0.182
-226.713	-126.835	-0.458	-0.067
-225.698	61.219	0.435	0.428
-224.684	-200.000	0.017	-0.510
-223.669	-111.248	-0.229	0.046
-222.655	-95.071	-0.224	-0.060
-221.640	-22.029	0.785	0.472
-220.625	190.253	-0.211	0.314
-219.611	-31.991	0.344	-0.191
-218.596	27.405	0.289	-0.241
-217.582	800.000	-0.385	1.159
-216.567	-47.129	-0.436	0.211
-215.552	800.000	-0.109	0.334
-214.538	21.180	-0.472	0.380
-213.523	-200.000	-0.008	-0.904
-212.509	26.283	-0.280	-0.232
-211.494	-101.118	-0.232	0.056
-210.479	800.000	0.063	0.230
-209.465	-89.562	-0.450	-0.131
-208.450	-200.000	-0.012	0.423
-207.436	9.440	-0.629	-0.471
-206.421	30.065	0.240	0.203
-205.406	15.953	0.285	-0.222
-204.392	-200.000	0.137	-0.758
-203.377	178.975	-0.593	-0.858
-202.363	-33.976	0.196	0.107
-201.348	-78.593	-0.127	0.043
-200.333	122.404	0.516	-0.638
-199.319	177.339	-0.377	0.543
-198.304	-71.608	-0.856	-0.317
-197.290	-200.000	-0.082	-0.370
-196.275	-23.279	0.604	0.360
-195.260	56.854	-0.230	-0.222
-194.246	-55.621	0.857	-0.380
-193.231	49.231	0.478	0.444
-192.217	26.053	0.384	-0.317
-191.202	-84.739	-0.868	-0.270
-190.187	217.464	0.480	-0.757
-189.173	154.768	0.311	-0.423
-188.158	-98.859	-0.414	-0.104
-187.144	28.404	0.829	-0.693
-186.129	78.738	-0.353	0.374
-185.114	30.957	-0.265	0.225
-184.100	5.964	0.548	0.402
-183.085	101.659	0.085	-0.098
-182.071	532.560	0.176	0.411
-181.056	250.542	0.123	0.208
-180.042	42.977	-0.591	0.533
-179.027	-65.014	0.200	-0.080
-178.012	55.605	-0.484	-0.464
-176.998	-101.527	-0.630	-0.152
-175.983	3.873	-0.673	0.486
-174.969	-183.920	-0.801	0.013
-173.954	84.447	0.292	-0.316
-172.939	225.463	0.213	0.341
-171.925	-200.000	-0.016	0.151
-170.910	-1.260	0.535	0.374
-169.896	-1.537	-0.788	0.549
-168.881	37.084	0.351	0.307
-167.866	-40.330	0.483	-0.248
-166.852	131.780	-0.397	-0.505
-165.837	-76.726	-0.754	-0.261
-164.823	800.000	-0.236	-0.715
-163.808	118.300	-0.516	0.629
-162.793	233.883	0.424	-0.691
-161.779	489.109	-0.167	-0.377
-160.764	-98.477	0.208	0.053
-159.750	-29.685	0.034	0.019
-158.735	-119.564	-0.523	-0.090
-157.720	-91.225	0.421	0.119
-156.706	45.964	0.184	-0.168
-155.691	-60.234	-1.048	0.441
-154.677	-51.107	0.419	-0.194
-153.662	33.036	-0.916	-0.785
-152.647	-71.790	0.826	-0.304
-151.633	-117.321	0.613	0.110
-150.618	-57.642	1.305	0.565
-149.604	-32.054	-0.187	-0.104
-148.589	-135.164	-0.219	0.026
-147.574	106.029	0.419	0.490
-146.560	-49.351	-0.168	0.079
-145.545	-200.000	0.036	0.472
-144.531	-4.573	-0.472	0.322
-143.516	-200.000	0.073	0.522
-142.502	22.763	0.288	-0.233
-141.487	-34.220	-0.372	-0.202
-140.472	90.208	-0.568	-0.627
-139.458	201.412	-0.455	-0.692
-138.443	21.986	0.396	0.319
-137.429	596.746	-0.200	-0.490
-136.414	-200.000	-0.113	0.966
-135.399	342.807	0.281	0.543
-134.385	41.976	-0.122	0.109
-133.370	800.000	-0.244	0.798
-132.356	-101.951	0.179	0.043
-131.341	-26.631	-0.012	0.007
-130.326	137.489	-0.453	0.586
-129.312	-123.022	-0.493	-0.078
-128.297	25.550	0.314	0.258
-127.283	800.000	-0.174	0.721
-126.268	53.239	-0.063	0.060
-125.253	-48.753	0.549	-0.260
-124.239	127.436	0.032	0.039
-123.224	114.390	0.447	-0.537
-122.210	-78.010	-1.016	-0.346
-121.195	16.024	-0.531	-0.413
-120.180	-200.000	0.044	0.643
