DTS Sentinel unit serial number:	SN413079Multiplexer serial number:	ORYXHardware model number:	OX4-SRSoftware version number:	ORYX F/W v4.00 Oryx Data Collector v3.7.2.0data status	okinstallation	princeton_trtdifferential loss correction	single-endedforward channel	channel 1reverse channel	N/Adate	2019/09/18time	12:46:35forward acquisition time	60.00reverse acquisition time	0.00gamma	496.2192k internal	0.2316k external	0.2316temperature offset calibration	0.9982default loss term (dB/km)	0.3790temperature slope calibration	1.0000multiplexer offset coefficient	1.0000multiplexer slope coefficient	1.0000fibre end	0.00T internal ref (°C)	32.95T ext. ref 1 (°C)	0.55T ext. ref 2 (°C)	30.00length (m)	temperature (°C)	Stokes	anti-Stokes-747.200	-200.000	0.012	0.140
-746.185	800.000	0.126	0.353
-745.171	-190.573	0.351	0.004
-744.156	-1.765	-0.147	0.105
-743.142	-69.599	-0.289	0.112
-742.127	395.632	0.102	0.215
-741.112	-90.285	0.169	0.050
-740.098	-200.000	0.065	0.321
-739.083	115.461	0.312	0.386
-738.069	222.560	-0.224	0.365
-737.054	4.422	-0.098	0.073
-736.039	-101.024	0.123	0.031
-735.025	-90.518	0.283	0.083
-734.010	-136.563	0.092	0.011
-732.996	-12.394	-0.244	0.162
-731.981	800.000	0.020	-0.073
-730.966	-200.000	-0.057	0.261
-729.952	572.935	-0.048	-0.118
-728.937	-146.333	-0.346	-0.031
-727.923	-168.652	-0.073	0.003
-726.908	295.958	-0.232	-0.430
-725.894	800.000	0.080	-0.260
-724.879	50.770	0.170	-0.163
-723.864	184.514	0.139	-0.208
-722.850	-100.517	-0.215	-0.054
-721.835	-200.000	0.016	-0.136
-720.821	-200.000	-0.018	-0.193
-719.806	-89.459	0.227	-0.068
-718.791	-200.000	-0.053	-0.286
-717.777	-30.629	-0.170	0.098
-716.762	-200.000	-0.018	-0.168
-715.748	800.000	0.023	-0.066
-714.733	192.905	0.092	0.140
-713.718	-35.020	-0.150	0.083
-712.704	-54.295	-0.116	-0.053
-711.689	-200.000	0.026	0.264
-710.675	-116.443	0.256	-0.048
-709.660	134.594	-0.103	-0.135
-708.645	-67.901	0.239	-0.095
-707.631	-200.000	0.045	0.263
-706.616	89.280	-0.088	-0.099
-705.602	800.000	0.076	-0.269
-704.587	800.000	0.033	-0.100
-703.572	800.000	0.023	-0.079
-702.558	-200.000	0.037	-0.257
-701.543	800.000	0.082	-0.288
-700.529	-59.677	0.322	0.139
-699.514	-118.893	0.278	-0.049
-698.499	800.000	0.070	-0.200
-697.485	716.413	0.054	-0.145
-696.470	-46.350	0.260	-0.129
-695.456	-82.384	-0.083	0.027
-694.441	-65.443	0.175	-0.071
-693.426	-200.000	0.005	-0.208
-692.412	-83.050	0.179	-0.058
-691.397	73.642	-0.232	-0.245
-690.383	800.000	-0.065	-0.211
-689.368	-178.072	0.324	-0.008
-688.354	498.952	-0.140	0.325
-687.339	86.498	-0.082	-0.091
-686.324	-146.522	0.095	-0.008
-685.310	-200.000	0.024	-0.210
-684.295	-200.000	-0.008	-0.200
-683.281	270.922	-0.136	-0.243
-682.266	-200.000	0.048	-0.281
-681.251	464.906	0.083	0.188
-680.237	-112.427	-0.187	0.038
-679.222	77.140	0.186	0.199
-678.208	800.000	-0.076	0.213
-677.193	-200.000	-0.020	0.223
-676.178	33.866	-0.148	0.130
-675.164	135.025	0.194	-0.255
-674.149	-69.026	-0.175	-0.068
-673.135	-139.131	0.158	-0.017
-672.120	-16.465	-0.140	0.090
-671.105	-88.150	-0.142	0.043
-670.091	-41.480	0.283	-0.147
-669.076	-128.962	-0.138	0.020
-668.062	-117.213	-0.094	-0.017
-667.047	800.000	-0.048	0.142
-666.032	-200.000	-0.044	-0.358
-665.018	800.000	-0.045	0.130
-664.003	-119.436	0.240	-0.042
-662.989	800.000	0.067	-0.281
-661.974	169.928	0.122	-0.176
-660.959	149.387	-0.179	-0.245
-659.945	-200.000	0.006	-0.266
-658.930	-200.000	-0.002	-0.042
-657.916	-200.000	-0.025	-0.447
-656.901	36.206	-0.268	0.238
-655.886	-161.486	0.437	0.023
-654.872	-88.594	0.244	-0.073
-653.857	800.000	-0.071	-0.230
-652.843	17.376	0.064	0.052
-651.828	-102.976	-0.308	0.074
-650.814	169.424	-0.041	0.059
-649.799	2.362	0.181	-0.132
-648.784	-34.322	-0.045	0.025
-647.770	-200.000	0.001	-0.094
-646.755	-87.453	-0.243	-0.074
-645.741	800.000	-0.032	-0.109
-644.726	248.608	0.121	-0.207
-643.711	-58.442	0.165	-0.072
-642.697	79.615	-0.238	-0.258
-641.682	6.732	0.197	0.148
-640.668	-36.643	0.165	0.089
-639.653	-21.594	-0.016	0.010
-638.638	-161.198	0.391	-0.021
-637.624	-111.607	0.307	-0.063
-636.609	-90.623	-0.131	0.038
-635.595	-86.608	-0.084	0.026
-634.580	-138.192	0.189	-0.021
-633.565	2.159	0.068	0.050
-632.551	-200.000	-0.048	-0.240
-631.536	321.912	-0.072	-0.139
-630.522	-73.276	-0.075	-0.028
-629.507	-23.927	-0.122	-0.073
-628.492	-23.553	-0.129	-0.078
-627.478	-118.882	0.251	-0.044
-626.463	150.046	-0.082	-0.112
-625.449	800.000	-0.049	0.144
-624.434	158.628	-0.234	-0.327
-623.419	-126.226	-0.157	0.024
-622.405	40.091	0.203	-0.184
-621.390	-6.775	0.441	0.302
-620.376	-29.006	-0.140	0.081
-619.361	-200.000	0.012	0.135
-618.346	-82.855	-0.017	-0.006
-617.332	-19.160	0.286	0.179
-616.317	150.199	0.102	-0.140
-615.303	-107.914	0.086	-0.019
-614.288	174.629	0.079	0.115
-613.273	-51.042	-0.111	-0.053
-612.259	113.224	0.255	-0.312
-611.244	-200.000	0.017	-0.211
-610.230	281.471	-0.109	-0.197
-609.215	-158.652	0.233	0.013
-608.201	140.182	-0.073	-0.097
-607.186	-200.000	0.036	-0.301
-606.171	-74.240	0.297	0.108
-605.157	13.472	-0.046	-0.036
-604.142	152.333	-0.114	0.157
-603.128	800.000	-0.010	-0.033
-602.113	783.139	0.050	0.138
-601.098	-140.380	-0.211	-0.022
-600.084	130.747	-0.263	-0.339
-599.069	121.001	0.137	0.171
-598.055	107.493	-0.148	-0.178
-597.040	-37.325	0.115	0.062
-596.025	800.000	-0.099	0.296
-595.011	-121.771	-0.316	0.053
-593.996	-30.093	0.182	0.104
-592.982	143.659	0.242	-0.325
-591.967	411.824	0.058	-0.124
-590.952	48.439	-0.207	0.195
-589.938	-62.851	-0.092	0.038
-588.923	760.930	-0.130	-0.354
-587.909	-200.000	-0.042	-0.400
-586.894	-68.389	0.189	-0.074
-585.879	73.394	0.387	-0.408
-584.865	-200.000	-0.014	0.157
-583.850	-6.143	-0.149	-0.102
-582.836	800.000	-0.065	0.217
-581.821	800.000	0.032	-0.109
-580.806	328.022	0.048	-0.093
-579.792	177.839	0.067	0.099
-578.777	-94.566	0.031	0.009
-577.763	-200.000	-0.012	-0.143
-576.748	-49.479	-0.199	0.096
-575.733	482.777	-0.107	-0.245
-574.719	800.000	-0.023	-0.063
-573.704	-98.281	0.293	0.076
-572.690	107.804	-0.149	-0.179
-571.675	321.808	0.185	0.355
-570.661	13.500	0.217	-0.169
-569.646	18.503	-0.086	-0.069
-568.631	469.690	0.110	-0.249
-567.617	-87.805	0.427	0.129
-566.602	800.000	0.040	-0.170
-565.588	-33.634	-0.146	-0.081
-564.573	-43.726	0.042	-0.021
-563.558	92.572	-0.188	0.213
-562.544	280.466	0.165	0.296
-561.529	-63.705	0.169	-0.070
-560.515	527.024	-0.114	0.269
-559.500	800.000	0.070	-0.258
-558.485	-102.416	-0.457	-0.110
-557.471	-135.515	-0.462	-0.055
-556.456	-74.151	-0.243	-0.089
-555.442	-2.584	0.096	0.067
-554.427	-200.000	0.037	-0.236
-553.412	253.583	0.087	0.149
-552.398	525.882	-0.079	0.188
-551.383	-29.394	0.195	0.112
-550.369	-200.000	0.011	0.084
-549.354	-200.000	-0.083	-0.383
-548.339	-112.141	0.101	0.020
-547.325	-16.157	0.097	0.062
-546.310	800.000	0.089	-0.256
-545.296	800.000	-0.035	0.127
-544.281	0.333	-0.271	-0.195
-543.266	-200.000	0.026	-0.171
-542.252	-156.802	-0.203	0.013
-541.237	53.009	0.234	-0.225
-540.223	-178.858	-0.301	-0.007
-539.208	-18.745	-0.423	-0.265
-538.193	-190.653	0.273	0.003
-537.179	-108.791	0.115	0.025
-536.164	-47.467	0.270	-0.132
-535.150	747.443	0.073	0.198
-534.135	-200.000	-0.040	0.198
-533.121	-200.000	-0.029	-0.157
-532.106	190.857	-0.124	-0.188
-531.091	-200.000	-0.000	-0.046
-530.077	-90.394	-0.373	-0.109
-529.062	288.815	-0.144	-0.262
-528.048	-63.057	-0.458	0.190
-527.033	145.849	0.067	-0.090
-526.018	-200.000	-0.003	0.039
-525.004	268.650	0.088	-0.156
-523.989	231.579	-0.122	-0.201
-522.975	-134.131	0.321	-0.040
-521.960	-115.901	-0.111	0.021
-520.945	-200.000	0.035	0.241
-519.931	-8.161	0.074	-0.050
-518.916	218.688	-0.073	0.117
-517.902	314.020	0.100	-0.188
-516.887	-73.070	0.164	0.060
-515.872	-121.496	-0.056	-0.009
-514.858	46.572	-0.124	-0.116
-513.843	63.674	-0.148	-0.150
-512.829	800.000	0.010	-0.039
-511.814	-53.618	-0.095	-0.044
-510.799	9.685	-0.272	0.207
-509.785	436.212	-0.083	-0.182
-508.770	-123.972	-0.200	-0.032
-507.756	75.455	-0.060	-0.064
-506.741	-72.509	-0.172	0.064
-505.726	-48.997	-0.297	-0.143
-504.712	-87.133	0.034	-0.010
-503.697	-179.486	0.076	-0.002
-502.683	1.584	0.136	-0.098
-501.668	23.968	0.065	0.053
-500.653	280.706	-0.112	0.201
-499.639	-140.777	0.059	-0.006
-498.624	79.487	-0.120	0.129
-497.610	-28.137	0.178	-0.103
-496.595	93.403	-0.184	0.209
-495.581	119.582	0.124	-0.154
-494.566	-103.002	-0.264	0.063
-493.551	-8.068	0.226	0.153
-492.537	-3.750	-0.069	0.048
-491.522	-191.491	-0.225	-0.002
-490.508	-62.992	-0.347	-0.144
-489.493	800.000	-0.029	-0.096
-488.478	56.525	0.072	0.070
-487.464	7.469	-0.105	0.079
-486.449	-101.408	-0.224	0.055
-485.435	72.366	-0.152	-0.159
-484.420	-98.092	0.209	0.054
-483.405	604.974	0.023	-0.058
-482.391	-200.000	0.014	-0.210
-481.376	97.507	0.095	-0.109
-480.362	800.000	-0.080	0.324
-479.347	-148.412	-0.164	0.013
-478.332	714.267	0.095	-0.253
-477.318	326.520	-0.038	-0.072
-476.303	290.662	-0.134	0.244
-475.289	-32.354	0.158	-0.088
-474.274	-78.046	0.233	0.080
-473.259	800.000	-0.029	0.097
-472.245	-101.810	-0.210	0.051
-471.230	-136.607	0.426	-0.049
-470.216	800.000	-0.125	0.373
-469.201	-61.793	0.079	0.033
-468.186	410.648	-0.091	0.193
-467.172	32.796	-0.092	-0.080
-466.157	330.150	0.119	-0.230
-465.143	-83.957	0.090	0.029
-464.128	76.708	-0.238	0.253
-463.113	-79.239	-0.077	0.026
-462.099	270.562	0.144	0.254
-461.084	-124.909	-0.184	0.028
-460.070	800.000	0.131	0.386
-459.055	-136.037	0.226	-0.027
-458.040	-200.000	0.014	0.353
-457.026	-200.000	-0.019	-0.170
-456.011	55.261	0.084	0.082
-454.997	37.099	-0.168	0.149
-453.982	-135.277	-0.278	0.033
-452.968	276.084	0.060	0.107
-451.953	37.184	-0.331	0.294
-450.938	181.860	-0.140	0.206
-449.924	68.766	0.011	0.011
-448.909	-200.000	0.016	0.092
-447.895	240.146	0.105	0.175
-446.880	245.690	-0.129	0.218
-445.865	449.711	-0.108	-0.238
-444.851	-171.861	-0.144	0.005
-443.836	-46.996	-0.091	0.045
-442.822	800.000	-0.044	-0.127
-441.807	-52.388	0.053	-0.025
-440.792	181.914	-0.160	-0.236
-439.778	-80.263	0.235	-0.079
-438.763	-177.763	-0.057	-0.001
-437.749	-141.871	0.201	-0.020
-436.734	800.000	0.055	-0.209
-435.719	-42.104	0.317	0.162
-434.705	-65.416	0.185	0.074
-433.690	179.976	-0.023	0.033
-432.676	122.650	-0.114	0.142
-431.661	-12.377	-0.437	0.286
-430.646	98.423	-0.144	0.166
-429.632	78.449	-0.260	0.278
-428.617	-115.436	0.057	0.011
-427.603	-200.000	-0.002	-0.100
-426.588	337.682	0.155	-0.302
-425.573	28.711	0.279	0.236
-424.559	52.258	0.139	0.132
-423.544	225.452	-0.098	-0.158
-422.530	229.942	0.147	-0.241
-421.515	800.000	0.040	-0.138
-420.500	-200.000	0.049	-0.274
-419.486	57.572	0.095	-0.093
-418.471	-200.000	0.003	0.113
-417.457	156.858	-0.061	-0.084
-416.442	800.000	0.110	0.366
-415.428	30.359	-0.016	-0.014
-414.413	87.465	-0.300	0.332
-413.398	702.122	0.040	0.105
-412.384	-147.521	0.284	-0.024
-411.369	-93.596	0.234	-0.065
-410.355	-52.680	-0.209	0.097
-409.340	-53.584	0.341	0.156
-408.325	33.662	-0.133	0.116
-407.311	-200.000	-0.147	0.001
-406.296	-42.158	0.213	-0.109
-405.282	595.555	-0.019	0.048
-404.267	-200.000	-0.039	0.363
-403.252	80.785	0.142	0.153
-402.238	116.796	0.109	0.134
-401.223	62.482	-0.186	-0.186
-400.209	-200.000	0.010	0.134
-399.194	73.224	0.267	0.279
-398.179	62.114	-0.156	0.155
-397.165	-138.389	0.152	0.017
-396.150	739.891	-0.061	-0.164
-395.136	-200.000	-0.000	0.100
-394.121	80.808	0.048	0.052
-393.106	-200.000	0.035	0.196
-392.092	-95.621	0.024	0.006
-391.077	155.241	-0.087	-0.120
-390.063	-50.029	-0.170	-0.081
-389.048	-59.400	0.424	-0.182
-388.033	4.945	-0.096	0.070
-387.019	-200.000	0.040	-0.318
-386.004	-42.248	-0.212	-0.108
-384.990	59.701	-0.199	0.196
-383.975	-11.613	-0.459	0.301
-382.960	39.770	-0.159	-0.142
-381.946	5.343	0.039	0.029
-380.931	-50.421	-0.400	0.189
-379.917	51.276	-0.110	0.104
-378.902	403.691	-0.118	-0.247
-377.888	-200.000	-0.047	-0.275
-376.873	-176.922	0.134	0.003
-375.858	174.880	-0.106	0.154
-374.844	-95.016	0.047	-0.013
-373.829	66.457	0.289	-0.293
-372.815	49.596	-0.293	-0.275
-371.800	-115.567	0.171	0.032
-370.785	37.944	0.166	-0.147
-369.771	-200.000	-0.037	-0.185
-368.756	-74.716	-0.224	0.080
-367.742	-165.289	0.207	-0.009
-366.727	-147.566	-0.345	-0.029
-365.712	659.396	-0.050	-0.129
-364.698	43.381	0.200	0.183
-363.683	-200.000	0.019	-0.193
-362.669	-200.000	0.062	-0.316
-361.654	285.277	-0.042	0.075
-360.639	31.630	-0.055	-0.047
-359.625	691.893	0.092	-0.240
-358.610	-45.159	-0.162	-0.080
-357.596	-75.181	0.223	-0.079
-356.581	142.808	-0.225	0.298
-355.566	13.299	-0.219	-0.169
-354.552	122.225	0.109	-0.136
-353.537	-99.710	0.134	0.033
-352.523	53.724	0.172	0.165
-351.508	-117.901	-0.384	-0.069
-350.493	-0.062	0.099	-0.070
-349.479	-109.237	-0.250	0.053
-348.464	347.168	0.083	-0.162
-347.450	48.640	0.110	-0.103
-346.435	44.754	0.243	0.223
-345.420	-200.000	0.041	0.225
-344.406	64.390	0.135	0.136
-343.391	-200.000	0.023	0.189
-342.377	-67.398	-0.206	0.081
-341.362	546.792	0.142	0.340
-340.348	34.384	-0.242	0.211
-339.333	-200.000	-0.030	0.148
-338.318	194.833	-0.038	-0.057
-337.304	800.000	0.104	0.397
-336.289	98.379	0.137	0.157
-335.275	-200.000	0.006	-0.392
-334.260	-10.115	-0.045	0.030
-333.245	28.520	0.130	0.109
-332.231	349.336	-0.136	-0.267
-331.216	-148.387	0.156	0.013
-330.202	-151.768	0.091	0.007
-329.187	75.273	0.101	-0.106
-328.172	-22.493	-0.108	0.065
-327.158	-26.158	-0.112	-0.066
-326.143	292.814	-0.057	0.104
-325.129	-114.904	0.108	0.020
-324.114	-172.607	0.096	-0.003
-323.099	-67.850	0.271	-0.105
-322.085	-124.974	-0.292	0.045
-321.070	127.735	0.042	0.054
-320.056	39.385	0.050	-0.045
-319.041	-54.312	-0.285	-0.129
-318.026	356.077	0.115	0.228
-317.012	-200.000	-0.064	0.321
-315.997	-97.884	-0.118	0.030
-314.983	70.295	-0.187	0.192
-313.968	23.289	0.174	0.142
-312.953	-169.858	0.344	0.012
-311.939	159.964	-0.043	0.060
-310.924	-126.998	-0.324	0.047
-309.910	800.000	0.048	-0.166
-308.895	-100.384	-0.272	-0.067
-307.880	24.824	-0.126	0.104
-306.866	800.000	0.062	-0.182
-305.851	420.434	-0.067	0.143
-304.837	-9.053	0.280	-0.187
-303.822	113.570	0.232	0.280
-302.807	495.445	0.035	0.081
-301.793	-141.279	0.097	-0.010
-300.778	534.267	0.039	0.091
-299.764	67.642	-0.140	-0.142
-298.749	-157.034	0.157	-0.010
-297.735	-85.116	0.400	-0.125
-296.720	-46.494	-0.114	0.056
-295.705	-25.977	-0.314	0.184
-294.691	533.890	-0.165	-0.389
-293.676	-124.362	-0.222	-0.034
-292.662	-29.140	0.259	-0.148
-291.647	111.113	-0.206	0.247
-290.632	530.742	0.182	0.428
-289.618	441.671	-0.055	0.119
-288.603	466.471	-0.032	-0.072
-287.589	800.000	-0.046	-0.182
-286.574	-200.000	0.007	-0.124
-285.559	139.811	0.045	-0.059
-284.545	307.314	-0.100	0.185
-283.530	-147.979	-0.101	-0.008
-282.516	-113.840	0.055	0.011
-281.501	129.110	0.081	-0.103
-280.486	34.905	-0.187	-0.163
-279.472	250.627	-0.111	0.188
-278.457	175.398	-0.115	-0.165
-277.443	-42.943	0.184	0.093
-276.428	-200.000	0.003	0.088
-275.413	86.622	0.075	0.082
-274.399	28.892	-0.090	-0.076
-273.384	-200.000	-0.002	0.153
-272.370	-199.208	0.260	-0.001
-271.355	-200.000	-0.051	-0.225
-270.340	-107.855	-0.459	-0.099
-269.326	-200.000	0.012	0.372
-268.311	25.989	-0.332	-0.276
-267.297	79.519	-0.267	-0.285
-266.282	116.240	-0.122	-0.149
-265.267	87.130	-0.036	-0.040
-264.253	-200.000	0.050	0.229
-263.238	760.696	0.071	-0.192
-262.224	345.002	0.146	0.286
-261.209	226.176	0.111	0.179
-260.195	800.000	-0.047	-0.189
-259.180	-200.000	0.034	-0.178
-258.165	-125.399	-0.304	-0.046
-257.151	37.741	0.122	-0.108
-256.136	94.062	0.095	-0.107
-255.122	800.000	0.084	-0.305
-254.107	95.750	0.115	-0.130
-253.092	22.011	0.069	-0.056
-252.078	-48.421	0.343	-0.164
-251.063	164.958	-0.188	-0.263
-250.049	-105.384	-0.210	0.048
-249.034	509.759	0.087	0.200
-248.019	-200.000	-0.041	0.312
-247.005	-136.409	0.169	0.020
-245.990	-200.000	0.048	0.259
-244.976	-68.635	-0.419	-0.161
-243.961	-28.257	0.455	-0.261
-242.946	148.090	0.094	0.126
-241.932	87.007	0.266	0.292
-240.917	9.461	-0.229	-0.172
-239.903	-200.000	-0.022	-0.283
-238.888	148.238	0.084	-0.112
-237.873	156.368	-0.151	0.207
-236.859	149.446	0.182	-0.245
-235.844	-12.681	0.181	0.117
-234.830	800.000	0.012	0.040
-233.815	-133.132	0.426	-0.054
-232.800	-61.266	0.197	-0.082
-231.786	-18.378	-0.082	0.051
-230.771	-19.535	-0.231	0.142
-229.757	-108.661	-0.198	0.042
-228.742	-35.218	-0.140	0.076
-227.727	-200.000	-0.024	0.164
-226.713	416.072	0.074	0.157
-225.698	-35.746	-0.146	-0.078
-224.684	-19.731	0.210	0.129
-223.669	-200.000	0.002	-0.130
-222.655	-147.646	0.311	0.026
-221.640	10.601	-0.268	0.202
-220.625	108.675	0.044	-0.052
-219.611	316.880	-0.134	-0.251
-218.596	55.519	-0.155	-0.149
-217.582	464.265	-0.058	-0.128
-216.567	39.457	0.104	-0.092
-215.552	80.123	0.135	0.144
-214.538	4.598	-0.135	-0.098
-213.523	43.144	-0.188	-0.171
-212.509	-180.229	0.284	0.006
-211.494	-200.000	0.030	0.240
-210.479	-149.180	0.189	0.015
-209.465	-200.000	-0.007	0.075
-208.450	-200.000	-0.017	-0.085
-207.436	-68.688	-0.214	0.082
-206.421	67.455	0.205	0.208
-205.406	26.389	0.117	0.097
-204.392	568.393	0.076	0.182
-203.377	800.000	0.081	0.326
-202.363	-200.000	0.001	0.231
-201.348	216.244	0.204	0.321
-200.333	800.000	0.038	0.127
-199.319	792.207	-0.062	-0.170
-198.304	-31.390	0.271	0.151
-197.290	-184.825	0.148	0.002
-196.275	-91.787	-0.216	0.061
-195.260	-6.154	0.215	0.146
-194.246	-113.323	0.078	0.015
-193.231	532.315	0.112	0.263
-192.217	-200.000	0.028	-0.403
-191.202	-200.000	0.034	-0.159
-190.187	-64.286	-0.094	0.038
-189.173	277.402	-0.181	0.320
-188.158	-26.672	0.215	0.125
-187.144	238.682	-0.121	0.199
-186.129	211.668	-0.088	0.138
-185.114	42.731	0.128	0.116
-184.100	299.959	0.085	0.156
-183.085	-43.154	-0.163	-0.082
-182.071	-100.767	-0.128	-0.031
-181.056	-7.764	0.187	0.125
-180.042	55.198	-0.124	-0.118
-179.027	-83.286	0.276	-0.088
-178.012	-200.000	-0.038	-0.228
-176.998	800.000	-0.058	0.185
-175.983	-200.000	-0.034	0.148
-174.969	-79.802	0.151	-0.050
-173.954	-200.000	-0.034	-0.186
-172.939	800.000	0.052	-0.191
-171.925	149.005	-0.067	-0.090
-170.910	-90.236	-0.052	-0.015
-169.896	170.752	0.083	-0.118
-168.881	-200.000	-0.005	0.068
-167.866	17.686	0.195	0.153
-166.852	472.079	0.023	0.051
-165.837	-76.132	-0.343	-0.120
-164.823	92.686	0.111	-0.124
-163.808	37.472	-0.154	-0.135
-162.793	171.175	0.239	-0.340
-161.779	-123.357	0.230	-0.036
-160.764	-62.059	0.073	-0.030
-159.750	-23.113	0.249	0.149
-158.735	-200.000	-0.027	0.185
-157.720	-80.351	0.249	-0.082
-156.706	-200.000	-0.000	-0.112
-155.691	-200.000	-0.013	0.078
-154.677	800.000	0.096	0.302
-153.662	-200.000	-0.015	-0.431
-152.647	-200.000	0.009	0.194
-151.633	-200.000	-0.004	0.180
-150.618	-200.000	0.031	-0.326
-149.604	-200.000	0.049	-0.251
-148.589	108.779	0.141	-0.167
-147.574	-200.000	-0.003	0.233
-146.560	-62.562	0.205	-0.084
-145.545	177.753	0.210	0.302
-144.531	-1.664	-0.179	0.125
-143.516	18.787	-0.200	0.159
-142.502	-100.049	0.379	-0.093
-141.487	-124.695	0.376	-0.058
-140.472	-200.000	0.045	0.448
-139.458	800.000	0.102	-0.315
-138.443	-3.625	-0.276	0.190
-137.429	-67.273	0.327	0.127
-136.414	241.207	-0.201	-0.333
-135.399	107.992	0.231	-0.273
-134.385	-6.973	-0.227	-0.153
-133.370	-60.519	0.171	-0.072
-132.356	800.000	-0.048	0.191
-131.341	326.644	0.138	-0.262
-130.326	-32.448	-0.122	-0.067
-129.312	298.761	-0.195	-0.355
-128.297	-200.000	-0.026	-0.218
-127.283	800.000	0.039	0.154
-126.268	-200.000	-0.084	-0.371
-125.253	413.377	0.133	-0.279
-124.239	200.530	-0.052	0.079
-123.224	581.630	0.082	-0.199
-122.210	-200.000	0.075	-0.526
-121.195	79.404	-0.232	-0.246
