DTS Sentinel unit serial number:	SN413079Multiplexer serial number:	ORYXHardware model number:	OX4-SRSoftware version number:	ORYX F/W v4.00 Oryx Data Collector v3.7.2.0data status	okinstallation	princeton_trtdifferential loss correction	single-endedforward channel	channel 1reverse channel	N/Adate	2019/09/15time	17:46:35forward acquisition time	60.00reverse acquisition time	0.00gamma	496.2192k internal	0.2291k external	0.2291temperature offset calibration	0.9928default loss term (dB/km)	0.3790temperature slope calibration	1.0000multiplexer offset coefficient	1.0000multiplexer slope coefficient	1.0000fibre end	0.00T internal ref (°C)	44.87T ext. ref 1 (°C)	6.31T ext. ref 2 (°C)	39.76length (m)	temperature (°C)	Stokes	anti-Stokes-747.200	271.058	-0.111	-0.199
-746.185	-200.000	-0.003	0.041
-745.171	37.966	0.081	-0.073
-744.156	-58.698	0.170	0.075
-743.142	-200.000	-0.044	0.277
-742.127	-26.434	0.141	0.084
-741.112	-200.000	0.004	-0.198
-740.098	-57.416	0.317	0.143
-739.083	-56.139	-0.115	0.052
-738.069	319.054	-0.243	0.472
-737.054	-200.000	-0.003	0.133
-736.039	215.741	0.080	-0.130
-735.025	134.811	0.100	0.133
-734.010	50.431	0.152	-0.147
-732.996	-177.449	0.134	0.003
-731.981	800.000	-0.099	0.315
-730.966	-200.000	-0.003	0.031
-729.952	-200.000	-0.019	-0.143
-728.937	337.378	0.127	-0.253
-727.923	14.487	0.146	-0.116
-726.908	-22.637	-0.307	0.190
-725.894	800.000	-0.070	0.220
-724.879	800.000	0.099	-0.280
-723.864	-200.000	-0.025	0.227
-722.850	-200.000	0.007	0.041
-721.835	-200.000	-0.032	-0.177
-720.821	-139.041	-0.142	-0.016
-719.806	-4.287	-0.108	0.076
-718.791	-122.547	-0.335	0.056
-717.777	-11.166	0.048	-0.032
-716.762	-111.005	0.246	0.052
-715.748	7.626	0.209	0.160
-714.733	90.541	-0.313	0.359
-713.718	-200.000	0.035	0.176
-712.704	16.823	-0.055	0.044
-711.689	48.145	-0.170	0.163
-710.675	25.231	-0.063	0.054
-709.660	606.704	-0.063	-0.161
-708.645	-193.582	-0.105	0.001
-707.631	424.396	-0.038	0.084
-706.616	25.464	-0.291	-0.247
-705.602	435.361	0.124	0.277
-704.587	15.247	-0.214	-0.171
-703.572	-92.963	0.431	-0.123
-702.558	163.096	0.132	0.190
-701.543	-141.958	0.044	-0.004
-700.529	12.889	-0.027	-0.021
-699.514	-98.332	0.049	-0.013
-698.499	309.844	-0.125	-0.240
-697.485	-122.745	0.098	-0.016
-696.470	-200.000	-0.018	-0.093
-695.456	100.296	0.141	-0.167
-694.441	668.077	-0.176	-0.465
-693.426	32.069	-0.248	0.219
-692.412	-126.303	-0.363	0.055
-691.397	246.847	0.104	-0.180
-690.383	-200.000	0.025	0.305
-689.368	-54.807	0.320	0.148
-688.354	99.943	0.057	-0.067
-687.339	-200.000	-0.005	0.332
-686.324	112.663	-0.169	-0.209
-685.310	-200.000	0.008	0.143
-684.295	800.000	-0.091	-0.355
-683.281	16.621	0.182	-0.147
-682.266	-66.992	0.142	-0.057
-681.251	305.555	0.093	-0.176
-680.237	154.176	0.136	-0.190
-679.222	-200.000	0.033	0.299
-678.208	-200.000	0.021	-0.313
-677.193	-200.000	-0.032	-0.201
-676.178	800.000	0.026	-0.092
-675.164	26.535	-0.121	0.104
-674.149	411.454	-0.215	-0.466
-673.135	-200.000	-0.056	-0.272
-672.120	-21.691	-0.356	0.222
-671.105	59.943	0.183	-0.184
-670.091	-137.573	0.292	-0.034
-669.076	-105.542	-0.167	-0.039
-668.062	-75.320	0.207	-0.075
-667.047	83.303	0.060	0.067
-666.032	-110.717	0.122	-0.026
-665.018	-200.000	-0.001	-0.190
-664.003	545.722	-0.078	0.189
-662.989	72.426	0.085	-0.090
-661.974	-200.000	0.012	-0.107
-660.959	-68.488	-0.277	0.110
-659.945	-81.901	-0.295	0.099
-658.930	-123.935	-0.201	-0.032
-657.916	-200.000	-0.004	-0.145
-656.901	800.000	0.114	-0.458
-655.886	-62.245	0.152	-0.065
-654.872	-32.757	0.136	-0.077
-653.857	-200.000	-0.016	-0.258
-652.843	-15.961	0.043	-0.028
-651.828	-87.097	-0.315	-0.098
-650.814	-200.000	0.022	0.268
-649.799	20.692	-0.206	0.170
-648.784	-130.774	0.123	0.017
-647.770	18.759	-0.147	-0.120
-646.755	-49.568	-0.174	0.084
-645.741	-200.000	-0.098	0.515
-644.726	772.496	-0.023	-0.064
-643.711	80.178	-0.135	0.148
-642.697	107.031	-0.124	0.150
-641.682	-169.585	-0.193	0.007
-640.668	235.437	0.104	-0.175
-639.653	140.841	-0.198	0.266
-638.638	-166.608	-0.232	0.010
-637.624	253.344	-0.158	0.276
-636.609	-200.000	-0.058	-0.314
-635.595	-200.000	-0.003	0.122
-634.580	-200.000	0.031	-0.331
-633.565	-67.581	0.077	0.031
-632.551	-178.055	0.347	0.008
-631.536	-92.450	-0.214	-0.061
-630.522	77.871	-0.055	0.059
-629.507	-80.362	-0.145	0.050
-628.492	-200.000	0.013	0.070
-627.478	190.777	0.129	0.197
-626.463	-52.658	-0.252	-0.118
-625.449	118.371	0.150	0.188
-624.434	800.000	-0.040	0.113
-623.419	-102.456	0.308	-0.075
-622.405	-83.226	-0.263	0.086
-621.390	144.428	0.143	-0.195
-620.376	156.488	-0.232	-0.327
-619.361	423.653	0.126	-0.275
-618.346	-82.787	-0.199	-0.065
-617.332	-200.000	0.005	0.066
-616.317	-78.508	-0.160	-0.056
-615.303	-24.964	0.377	0.228
-614.288	42.960	-0.104	-0.097
-613.273	-200.000	0.035	0.354
-612.259	-16.140	0.082	0.053
-611.244	135.915	-0.081	0.107
-610.230	22.101	0.174	-0.145
-609.215	-200.000	0.004	0.057
-608.201	40.907	-0.216	0.199
-607.186	-60.013	0.247	-0.107
-606.171	-141.389	0.289	-0.030
-605.157	-30.751	-0.221	0.127
-604.142	-82.472	-0.297	0.098
-603.128	208.316	-0.088	-0.141
-602.113	-166.773	-0.195	-0.008
-601.098	-72.445	0.140	-0.053
-600.084	59.042	0.251	0.252
-599.069	-200.000	-0.127	0.648
-598.055	-200.000	0.033	-0.294
-597.040	-200.000	-0.054	-0.349
-596.025	29.226	-0.237	0.205
-595.011	764.892	-0.080	0.220
-593.996	333.659	-0.011	0.022
-592.982	-32.484	0.140	-0.080
-591.967	29.076	0.219	0.189
-590.952	209.731	0.082	-0.130
-589.938	0.904	0.105	-0.077
-588.923	312.705	-0.085	-0.163
-587.909	-125.630	0.239	0.037
-586.894	199.505	0.070	0.110
-585.879	800.000	0.056	-0.218
-584.865	255.223	-0.127	-0.222
-583.850	55.202	-0.220	0.216
-582.836	-200.000	-0.017	-0.305
-581.821	-28.933	-0.283	-0.165
-580.806	800.000	0.020	0.087
-579.792	-103.533	-0.155	-0.037
-578.777	20.224	-0.350	0.287
-577.763	800.000	-0.137	-0.551
-576.748	-200.000	-0.024	-0.168
-575.733	351.441	-0.227	-0.458
-574.719	-200.000	0.027	0.201
-573.704	709.552	0.119	0.321
-572.690	-68.364	0.172	-0.068
-571.675	-200.000	0.044	0.277
-570.661	-24.344	0.484	-0.293
-569.646	-200.000	-0.030	-0.157
-568.631	-118.092	-0.222	0.040
-567.617	-109.593	0.303	-0.065
-566.602	-84.367	0.166	0.053
-565.588	140.478	-0.240	0.322
-564.573	82.429	0.171	0.188
-563.558	6.510	-0.047	-0.035
-562.544	93.646	0.146	0.168
-561.529	-64.482	0.136	0.056
-560.515	-200.000	0.004	-0.117
-559.500	173.101	-0.050	-0.074
-558.485	245.294	-0.137	-0.234
-557.471	28.588	0.045	0.039
-556.456	-107.043	-0.340	0.076
-555.442	-200.000	-0.059	0.293
-554.427	-148.641	-0.323	-0.027
-553.412	-46.638	-0.168	0.084
-552.398	-200.000	0.006	0.298
-551.383	-76.310	-0.112	-0.040
-550.369	80.645	0.103	-0.113
-549.354	-69.696	-0.224	-0.087
-548.339	-102.468	-0.400	0.097
-547.325	146.402	0.086	-0.117
-546.310	-51.022	-0.248	-0.118
-545.296	-26.639	-0.374	-0.223
-544.281	-109.017	0.206	-0.045
-543.266	-70.605	0.141	0.054
-542.252	30.255	-0.215	-0.186
-541.237	121.835	-0.419	-0.531
-540.223	18.171	0.118	-0.096
-539.208	517.994	0.041	-0.098
-538.193	-85.812	0.189	-0.059
-537.179	-81.347	-0.288	0.096
-536.164	-101.162	-0.154	0.038
-535.150	-58.959	0.283	0.124
-534.135	-103.857	0.396	0.094
-533.121	-172.464	-0.147	-0.005
-532.106	85.224	0.140	0.156
-531.091	-200.000	0.005	-0.033
-530.077	-200.000	-0.025	-0.252
-529.062	17.866	0.272	-0.220
-528.048	-123.737	-0.364	-0.058
-527.033	-100.427	-0.135	-0.034
-526.018	-78.835	-0.327	-0.113
-525.004	-200.000	-0.042	0.243
-523.989	-82.063	0.108	-0.036
-522.975	233.658	-0.101	-0.169
-521.960	-89.094	-0.082	-0.025
-520.945	-200.000	-0.009	-0.077
-519.931	-20.518	0.179	0.112
-518.916	90.436	-0.094	0.106
-517.902	53.714	0.036	-0.035
-516.887	-66.793	-0.087	-0.035
-515.872	221.958	-0.056	-0.091
-514.858	800.000	0.058	-0.185
-513.843	44.592	-0.114	-0.107
-512.829	800.000	-0.028	-0.079
-511.814	-59.329	-0.136	-0.060
-510.799	133.048	0.207	-0.271
-509.785	189.642	0.122	0.186
-508.770	-114.300	0.198	-0.039
-507.756	-90.550	0.402	-0.118
-506.741	275.431	-0.023	-0.042
-505.726	85.293	0.181	0.201
-504.712	-73.700	0.173	0.064
-503.697	-39.418	0.194	-0.103
-502.683	467.394	0.054	-0.122
-501.668	-200.000	0.007	-0.337
-500.653	-66.789	0.392	0.157
-499.639	-81.592	-0.421	-0.140
-498.624	378.555	-0.081	0.168
-497.610	-200.000	0.053	-0.292
-496.595	60.018	0.077	-0.077
-495.581	-50.951	-0.508	0.242
-494.566	72.686	-0.203	0.214
-493.551	39.015	0.199	-0.181
-492.537	-105.293	-0.506	0.117
-491.522	17.139	-0.139	-0.112
-490.508	786.029	0.148	-0.411
-489.493	7.407	-0.126	-0.095
-488.478	-200.000	0.040	-0.577
-487.464	637.235	0.056	0.143
-486.449	-32.829	-0.229	0.129
-485.435	-200.000	0.042	-0.327
-484.420	-200.000	-0.009	0.166
-483.405	800.000	-0.062	-0.184
-482.391	-200.000	0.009	0.093
-481.376	-134.914	0.316	-0.039
-480.362	-133.923	0.246	0.031
-479.347	-61.210	0.349	0.149
-478.332	64.257	-0.267	0.272
-477.318	-200.000	0.002	-0.187
-476.303	-200.000	0.011	0.135
-475.289	-34.347	0.266	0.148
-474.274	76.127	-0.046	-0.050
-473.259	800.000	-0.035	-0.144
-472.245	800.000	-0.075	-0.241
-471.230	164.007	0.166	-0.237
-470.216	-62.124	-0.360	0.152
-469.201	-6.935	0.135	0.093
-468.186	-5.750	0.224	-0.155
-467.172	17.305	-0.037	0.030
-466.157	-200.000	0.035	0.274
-465.143	800.000	0.064	-0.243
-464.128	800.000	-0.143	0.522
-463.113	-98.631	-0.199	-0.051
-462.099	674.997	0.120	0.315
-461.084	-50.822	0.101	-0.048
-460.070	-80.276	-0.188	0.064
-459.055	265.102	0.175	0.309
-458.040	-102.121	0.182	0.044
-457.026	800.000	-0.042	0.130
-456.011	267.127	-0.090	0.160
-454.997	-90.831	-0.110	-0.032
-453.982	-34.313	0.217	0.120
-452.968	-152.414	0.209	-0.015
-451.953	-200.000	0.009	-0.077
-450.938	-200.000	-0.084	-0.644
-449.924	800.000	-0.036	-0.103
-448.909	-32.742	0.110	0.062
-447.895	-7.043	0.263	-0.181
-446.880	-200.000	-0.014	-0.285
-445.865	34.136	-0.042	-0.037
-444.851	-116.856	-0.137	-0.025
-443.836	-95.843	-0.220	0.060
-442.822	-200.000	0.008	-0.186
-441.807	-86.483	-0.060	-0.019
-440.792	-31.492	-0.206	0.117
-439.778	800.000	-0.049	-0.210
-438.763	-168.417	-0.097	-0.004
-437.749	765.809	-0.112	0.309
-436.734	587.138	-0.042	0.106
-435.719	101.410	0.113	0.134
-434.705	800.000	0.058	-0.252
-433.690	-93.201	-0.248	-0.070
-432.676	800.000	0.011	-0.038
-431.661	7.031	0.121	-0.091
-430.646	353.708	-0.058	-0.116
-429.632	-80.926	0.104	-0.035
-428.617	150.155	0.067	-0.092
-427.603	112.772	-0.200	0.245
-426.588	-200.000	-0.041	0.227
-425.573	800.000	-0.048	0.181
-424.559	800.000	0.033	-0.114
-423.544	-26.334	-0.163	0.097
-422.530	-184.151	0.294	0.005
-421.515	-200.000	0.028	-0.488
-420.500	73.315	0.185	0.196
-419.486	800.000	-0.085	-0.254
-418.471	192.431	-0.124	0.189
-417.457	-115.688	-0.147	-0.028
-416.442	-171.344	0.084	0.003
-415.428	-200.000	0.011	0.139
-414.413	117.843	-0.118	-0.147
-413.398	-149.037	0.309	-0.025
-412.384	54.852	0.111	-0.108
-411.369	6.407	0.063	0.047
-410.355	106.767	0.114	0.137
-409.340	-26.659	0.088	-0.052
-408.325	9.794	-0.125	-0.096
-407.311	17.621	-0.074	-0.059
-406.296	800.000	0.138	-0.398
-405.282	14.348	0.113	-0.089
-404.267	30.446	0.115	-0.099
-403.252	-200.000	-0.048	0.296
-402.238	-14.490	-0.201	0.131
-401.223	296.498	0.045	-0.083
-400.209	-12.326	0.057	-0.037
-399.194	-79.938	0.422	-0.143
-398.179	-138.980	-0.241	0.026
-397.165	-77.624	-0.287	0.100
-396.150	133.036	-0.071	0.093
-395.136	-20.335	0.336	0.209
-394.121	21.119	0.124	-0.101
-393.106	-98.694	-0.140	0.036
-392.092	-118.466	-0.184	-0.033
-391.077	800.000	-0.027	0.084
-390.063	-136.313	0.180	0.021
-389.048	-83.609	0.030	-0.010
-388.033	241.784	0.154	0.259
-387.019	-110.784	-0.384	-0.080
-386.004	-67.537	0.111	0.044
-384.990	800.000	0.158	0.576
-383.975	-200.000	0.014	0.116
-382.960	10.538	-0.195	-0.150
-381.946	800.000	-0.058	-0.187
-380.931	-134.467	0.328	0.041
-379.917	800.000	0.080	-0.346
-378.902	92.275	-0.142	-0.162
-377.888	-200.000	-0.015	0.245
-376.873	800.000	-0.084	-0.281
-375.858	296.966	0.085	0.157
-374.844	-29.524	0.203	-0.117
-373.829	-185.991	0.202	-0.003
-372.815	-200.000	-0.033	0.375
-371.800	586.178	-0.069	0.172
-370.785	23.616	-0.281	0.234
-369.771	138.214	0.157	-0.208
-368.756	83.077	0.099	-0.109
-367.742	-200.000	-0.005	-0.067
-366.727	-43.689	0.304	0.155
-365.712	-100.591	0.150	0.037
-364.698	-200.000	0.050	-0.307
-363.683	-200.000	0.006	-0.121
-362.669	206.016	-0.095	-0.148
-361.654	800.000	0.034	0.097
-360.639	373.665	-0.112	-0.229
-359.625	-200.000	-0.009	0.089
-358.610	12.460	-0.242	-0.188
-357.596	-200.000	0.009	0.124
-356.581	113.926	-0.064	0.079
-355.566	-200.000	-0.068	-0.464
-354.552	-103.975	-0.301	0.071
-353.537	232.396	-0.091	0.151
-352.523	-126.314	-0.282	-0.042
-351.508	8.958	-0.277	0.211
-350.493	108.625	0.211	-0.254
-349.479	-200.000	0.056	0.342
-348.464	-200.000	-0.058	-0.319
-347.450	44.753	-0.168	-0.156
-346.435	261.162	0.073	-0.128
-345.420	24.023	0.099	0.083
-344.406	-2.255	0.077	0.055
-343.391	-177.674	0.417	0.010
-342.377	75.524	-0.145	0.155
-341.362	800.000	-0.037	-0.108
-340.348	13.009	0.255	-0.199
-339.333	126.190	0.123	0.157
-338.318	13.903	-0.131	-0.103
-337.304	163.376	0.094	-0.133
-336.289	472.838	-0.125	0.284
-335.275	800.000	0.036	0.141
-334.260	182.684	-0.077	0.114
-333.245	-200.000	0.076	0.418
-332.231	26.313	-0.206	-0.174
-331.216	-83.793	-0.209	-0.067
-330.202	800.000	-0.071	0.199
-329.187	-8.337	-0.349	-0.236
-328.172	25.188	0.120	0.101
-327.158	-111.095	0.085	0.017
-326.143	-99.315	0.067	0.017
-325.129	800.000	0.085	0.339
-324.114	-20.232	0.212	0.131
-323.099	-25.789	-0.145	-0.086
-322.085	-17.269	0.242	-0.154
-321.070	439.935	0.037	-0.082
-320.056	150.301	0.229	0.312
-319.041	-112.464	0.137	-0.028
-318.026	71.383	0.196	-0.204
-317.012	-200.000	0.016	-0.487
-315.997	-200.000	-0.035	0.273
-314.983	800.000	0.085	-0.360
-313.968	508.580	0.068	-0.160
-312.953	-17.469	-0.116	-0.073
-311.939	-97.343	0.115	-0.030
-310.924	-55.606	-0.257	0.116
-309.910	-200.000	0.015	0.095
-308.895	-200.000	-0.030	0.171
-307.880	58.197	-0.032	-0.032
-306.866	35.690	0.226	-0.200
-305.851	218.492	0.085	-0.137
-304.837	-156.610	-0.280	-0.017
-303.822	-200.000	-0.017	0.176
-302.807	-30.111	0.138	-0.079
-301.793	80.735	0.130	0.141
-300.778	586.301	0.074	0.183
-299.764	53.630	-0.050	-0.048
-298.749	800.000	0.076	0.240
-297.735	279.752	-0.100	-0.180
-296.720	-200.000	-0.001	0.199
-295.705	800.000	0.097	0.387
-294.691	-3.351	-0.222	-0.156
-293.676	49.451	0.074	0.070
-292.662	139.265	-0.148	0.196
-291.647	55.908	0.045	-0.044
-290.632	-52.068	0.245	-0.114
-289.618	800.000	0.044	0.140
-288.603	32.117	0.414	0.359
-287.589	-41.557	-0.012	-0.006
-286.574	621.269	-0.047	0.119
-285.559	6.132	0.194	0.144
-284.545	39.119	0.161	0.145
-283.530	267.602	-0.034	0.060
-282.516	72.963	0.181	0.190
-281.501	800.000	-0.060	0.169
-280.486	136.253	0.034	0.045
-279.472	-165.106	0.265	0.012
-278.457	5.474	0.192	0.142
-277.443	-200.000	-0.044	0.305
-276.428	90.981	0.065	0.073
-275.413	-22.703	-0.195	-0.119
-274.399	-45.634	0.070	-0.035
-273.384	-79.262	0.105	-0.036
-272.370	-3.351	-0.171	0.120
-271.355	89.886	0.228	0.256
-270.340	-24.384	0.144	0.086
-269.326	684.029	0.043	-0.112
-268.311	-20.455	-0.121	0.075
-267.297	75.955	0.074	-0.079
-266.282	-111.424	-0.559	0.115
-265.267	255.257	-0.105	-0.181
-264.253	-200.000	-0.041	-0.282
-263.238	163.748	0.153	0.217
-262.224	-200.000	-0.002	0.080
-261.209	-132.273	0.260	-0.034
-260.195	-147.889	0.308	0.026
-259.180	-200.000	-0.063	0.297
-258.165	-12.754	0.123	0.081
-257.151	180.542	0.225	0.332
-256.136	380.826	-0.037	0.076
-255.122	-32.872	-0.254	0.141
-254.107	-17.761	0.263	0.166
-253.092	-54.079	-0.119	-0.054
-252.078	-200.000	0.007	0.145
-251.063	780.927	-0.143	0.393
-250.049	423.886	0.129	-0.278
-249.034	-130.095	0.083	-0.011
-248.019	64.537	-0.291	0.295
-247.005	224.805	-0.211	-0.342
-245.990	263.332	-0.211	-0.369
-244.976	83.568	-0.114	-0.124
-243.961	664.462	-0.175	0.453
-242.946	425.178	0.119	-0.256
-241.932	-61.018	-0.113	-0.048
-240.917	-155.911	0.278	0.018
-239.903	6.775	-0.261	-0.195
-238.888	-55.600	0.183	-0.082
-237.873	800.000	-0.041	-0.147
-236.859	-200.000	-0.046	-0.369
-235.844	800.000	0.053	0.234
-234.830	-151.504	-0.300	-0.022
-233.815	-172.193	-0.364	0.012
-232.800	-162.892	-0.190	0.009
-231.786	-200.000	-0.005	0.393
-230.771	15.661	0.192	0.151
-229.757	90.175	0.149	0.167
-228.742	102.723	-0.165	0.194
-227.727	102.826	-0.128	0.150
-226.713	-59.703	0.152	-0.065
-225.698	-200.000	0.019	-0.138
-224.684	-19.305	0.311	0.193
-223.669	620.446	-0.075	-0.190
-222.655	739.388	-0.018	0.048
-221.640	-24.978	-0.084	0.050
-220.625	800.000	0.096	-0.272
-219.611	303.279	0.179	-0.333
-218.596	7.188	0.109	0.082
-217.582	266.024	0.047	-0.083
-216.567	-48.417	-0.286	-0.138
-215.552	179.822	0.079	-0.116
-214.538	-59.165	-0.227	-0.098
-213.523	30.530	-0.111	-0.095
-212.509	136.056	0.196	0.256
-211.494	157.395	-0.180	0.249
-210.479	-172.746	0.307	-0.010
-209.465	-7.918	-0.123	-0.083
-208.450	800.000	0.006	-0.019
-207.436	140.793	-0.165	0.218
-206.421	800.000	-0.035	-0.104
-205.406	-200.000	-0.001	0.316
-204.392	94.909	0.235	-0.268
-203.377	-81.949	0.172	-0.056
-202.363	-11.700	-0.146	-0.096
-201.348	51.411	-0.173	-0.165
-200.333	-5.370	0.159	0.109
-199.319	-200.000	0.018	0.184
-198.304	-43.170	0.165	0.084
-197.290	800.000	0.047	-0.182
-196.275	-82.944	-0.137	0.044
-195.260	-58.365	0.124	0.054
-194.246	-14.236	0.269	0.174
-193.231	146.746	0.153	-0.206
-192.217	198.726	-0.120	-0.185
-191.202	-8.187	-0.265	-0.179
-190.187	636.284	-0.137	-0.349
-189.173	800.000	-0.021	0.090
-188.158	13.922	0.173	0.135
-187.144	-136.389	0.400	0.047
-186.129	129.458	-0.141	-0.180
-185.114	-200.000	-0.009	-0.320
-184.100	-156.096	0.478	-0.030
-183.085	16.564	0.123	-0.097
-182.071	-161.740	0.071	-0.004
-181.056	-34.569	-0.142	0.078
-180.042	-173.241	-0.203	-0.006
-179.027	800.000	0.063	-0.182
-178.012	258.663	0.218	0.376
-176.998	101.547	-0.097	0.113
-175.983	-200.000	-0.014	0.104
-174.969	-99.447	-0.330	0.083
-173.954	-157.614	0.266	0.016
-172.939	-200.000	-0.018	-0.321
-171.925	-106.011	-0.281	0.063
-170.910	-104.499	0.090	0.021
-169.896	-200.000	0.042	0.473
-168.881	-54.101	-0.175	0.080
-167.866	-16.719	0.182	-0.115
-166.852	-111.456	-0.222	-0.045
-165.837	84.912	0.089	-0.098
-164.823	238.558	-0.033	-0.055
-163.808	12.514	0.034	0.026
-162.793	-200.000	-0.002	0.135
-161.779	-200.000	0.029	-0.128
-160.764	-136.690	0.102	0.012
-159.750	20.881	-0.019	0.015
-158.735	-98.285	0.076	0.020
-157.720	44.948	0.175	-0.161
-156.706	-21.418	0.131	-0.080
-155.691	775.562	-0.081	-0.222
-154.677	786.203	0.080	-0.220
-153.662	-0.873	0.142	-0.101
-152.647	-111.263	-0.072	-0.015
-151.633	162.553	0.133	0.186
-150.618	-200.000	0.072	0.559
-149.604	125.128	0.067	-0.085
-148.589	-75.282	0.131	0.047
-147.574	800.000	0.128	-0.362
-146.560	122.586	-0.169	-0.212
-145.545	-162.215	0.183	0.009
-144.531	-109.050	-0.105	-0.022
-143.516	800.000	0.109	-0.350
-142.502	-33.965	0.180	-0.099
-141.487	139.841	-0.174	0.230
-140.472	364.328	0.079	-0.158
-139.458	-110.532	0.171	0.035
-138.443	-200.000	0.062	-0.311
-137.429	-200.000	0.007	0.053
-136.414	800.000	0.056	0.177
-135.399	789.679	-0.092	-0.253
-134.385	-200.000	-0.033	-0.159
-133.370	-200.000	0.018	0.213
-132.356	800.000	-0.108	-0.342
-131.341	164.996	-0.120	0.169
-130.326	92.808	-0.077	-0.087
-129.312	102.955	0.203	-0.237
-128.297	-102.668	-0.465	-0.111
-127.283	-200.000	-0.019	-0.291
-126.268	-200.000	-0.012	-0.139
-125.253	101.033	-0.065	-0.076
-124.239	38.235	-0.247	0.220
-123.224	-99.601	-0.210	-0.053
-122.210	244.421	0.194	0.325
-121.195	-11.183	-0.268	-0.177
