DTS Sentinel unit serial number:	SN413079Multiplexer serial number:	ORYXHardware model number:	OX4-SRSoftware version number:	ORYX F/W v4.00 Oryx Data Collector v3.7.2.0data status	okinstallation	princeton_trtdifferential loss correction	single-endedforward channel	channel 1reverse channel	N/Adate	2019/09/14time	02:22:35forward acquisition time	60.00reverse acquisition time	0.00gamma	496.2192k internal	0.2337k external	0.2337temperature offset calibration	1.0077default loss term (dB/km)	0.3790temperature slope calibration	1.0000multiplexer offset coefficient	1.0000multiplexer slope coefficient	1.0000fibre end	0.00T internal ref (°C)	26.52T ext. ref 1 (°C)	3.22T ext. ref 2 (°C)	21.50length (m)	temperature (°C)	Stokes	anti-Stokes-747.200	-103.933	-0.230	0.054
-746.185	-200.000	-0.023	0.386
-745.171	15.088	0.131	0.103
-744.156	-43.172	-0.240	0.122
-743.142	-63.114	-0.091	0.038
-742.127	-142.044	-0.293	-0.029
-741.112	-18.414	-0.070	0.044
-740.098	699.680	-0.094	0.249
-739.083	-61.519	-0.225	0.095
-738.069	-150.904	0.341	-0.026
-737.054	-200.000	-0.011	-0.136
-736.039	-31.692	0.067	0.038
-735.025	-163.568	-0.174	-0.008
-734.010	800.000	-0.127	-0.358
-732.996	-29.762	-0.140	-0.080
-731.981	-76.407	-0.384	-0.135
-730.966	-17.870	0.082	-0.052
-729.952	-91.293	-0.131	0.038
-728.937	-137.820	-0.328	0.037
-727.923	60.956	0.449	-0.447
-726.908	-78.497	-0.236	0.081
-725.894	138.558	-0.116	0.153
-724.879	73.601	-0.160	-0.168
-723.864	-130.909	0.187	0.025
-722.850	-200.000	-0.038	-0.355
-721.835	-200.000	0.022	-0.119
-720.821	-148.337	-0.118	-0.010
-719.806	101.270	0.055	0.064
-718.791	24.038	-0.245	0.203
-717.777	-103.659	-0.156	0.037
-716.762	800.000	-0.083	-0.339
-715.748	15.487	0.060	-0.047
-714.733	-200.000	-0.022	0.223
-713.718	-200.000	0.022	-0.249
-712.704	-200.000	-0.026	-0.168
-711.689	-200.000	0.002	-0.032
-710.675	110.042	-0.124	-0.149
-709.660	-200.000	-0.004	-0.142
-708.645	-72.381	-0.278	0.103
-707.631	-70.273	0.153	-0.058
-706.616	-80.605	0.238	-0.079
-705.602	511.989	-0.064	0.149
-704.587	-200.000	0.042	0.238
-703.572	62.174	-0.167	-0.167
-702.558	132.262	-0.045	-0.058
-701.543	-200.000	0.035	0.278
-700.529	800.000	-0.043	-0.170
-699.514	-33.558	-0.339	-0.187
-698.499	800.000	-0.021	-0.071
-697.485	-200.000	0.048	-0.576
-696.470	-103.768	-0.261	-0.061
-695.456	-200.000	0.008	0.151
-694.441	-107.318	-0.192	0.042
-693.426	369.182	-0.068	0.138
-692.412	745.994	-0.044	-0.119
-691.397	217.206	-0.083	0.132
-690.383	117.961	-0.119	0.147
-689.368	26.513	0.165	0.138
-688.354	-130.498	0.132	0.018
-687.339	92.457	0.233	-0.263
-686.324	539.563	-0.109	-0.259
-685.310	-146.188	-0.200	0.018
-684.295	-110.177	0.222	0.046
-683.281	-48.524	-0.309	-0.149
-682.266	47.083	0.096	0.089
-681.251	-200.000	-0.064	0.301
-680.237	441.792	0.023	0.050
-679.222	198.368	-0.202	0.309
-678.208	-72.472	-0.056	-0.021
-677.193	253.150	0.151	-0.259
-676.178	-64.126	-0.151	-0.061
-675.164	800.000	-0.126	-0.437
-674.149	-73.927	0.360	-0.131
-673.135	-123.536	0.062	-0.010
-672.120	-200.000	-0.085	-0.410
-671.105	11.903	-0.312	0.240
-670.091	-200.000	0.006	-0.083
-669.076	75.217	0.040	-0.042
-668.062	-85.464	-0.233	0.073
-667.047	235.588	0.179	0.296
-666.032	314.480	-0.170	0.321
-665.018	225.046	-0.238	0.386
-664.003	-55.273	0.291	-0.131
-662.989	220.253	-0.112	0.179
-661.974	-81.844	0.282	0.092
-660.959	-46.144	-0.118	-0.058
-659.945	-83.286	0.138	-0.044
-658.930	-53.124	-0.247	0.114
-657.916	187.680	-0.084	-0.125
-656.901	339.332	-0.179	0.349
-655.886	646.138	-0.072	-0.183
-654.872	-200.000	0.058	-0.385
-653.857	800.000	-0.046	-0.156
-652.843	453.031	-0.042	-0.093
-651.828	14.067	-0.225	0.175
-650.814	28.713	-0.077	-0.066
-649.799	155.864	-0.103	-0.142
-648.784	-29.563	-0.118	-0.067
-647.770	-5.847	0.079	0.054
-646.755	800.000	-0.067	0.283
-645.741	271.816	-0.015	-0.026
-644.726	125.394	0.081	-0.102
-643.711	-122.368	0.222	-0.036
-642.697	64.113	-0.193	-0.194
-641.682	-200.000	0.034	-0.153
-640.668	-85.303	0.253	-0.079
-639.653	30.510	0.086	-0.073
-638.638	800.000	0.035	0.121
-637.624	58.913	0.087	0.085
-636.609	-60.861	0.111	-0.047
-635.595	-71.273	-0.380	-0.142
-634.580	37.586	0.278	-0.246
-633.565	83.841	-0.054	-0.058
-632.551	800.000	0.096	-0.272
-631.536	-73.539	-0.149	0.055
-630.522	-159.806	-0.339	-0.019
-629.507	66.252	0.012	-0.013
-628.492	111.223	0.186	-0.224
-627.478	-166.824	0.344	0.014
-626.463	194.905	0.061	-0.093
-625.449	-200.000	-0.003	-0.035
-624.434	275.587	-0.162	-0.287
-623.419	-161.582	-0.143	0.007
-622.405	-75.842	0.092	-0.033
-621.390	-65.964	-0.509	0.203
-620.376	254.033	0.106	0.180
-619.361	800.000	-0.022	-0.072
-618.346	-135.056	0.137	-0.017
-617.332	136.446	0.279	-0.364
-616.317	-200.000	-0.032	-0.165
-615.303	3.939	0.176	-0.128
-614.288	-5.800	0.236	-0.161
-613.273	-200.000	-0.009	0.171
-612.259	800.000	0.119	-0.368
-611.244	-53.899	-0.071	-0.032
-610.230	45.367	-0.134	0.123
-609.215	800.000	-0.028	-0.078
-608.201	-50.033	0.099	-0.047
-607.186	-40.990	0.315	-0.163
-606.171	146.151	0.208	-0.278
-605.157	143.114	0.206	-0.273
-604.142	-32.983	0.258	0.143
-603.128	105.684	-0.100	0.118
-602.113	87.817	0.101	-0.112
-601.098	-60.323	-0.237	0.101
-600.084	-116.660	-0.207	0.038
-599.069	800.000	0.071	-0.276
-598.055	222.778	-0.074	0.119
-597.040	345.815	0.141	-0.277
-596.025	-52.416	0.183	-0.084
-595.011	-31.903	0.052	0.029
-593.996	-148.147	-0.290	-0.024
-592.982	-28.482	-0.216	0.125
-591.967	-83.904	-0.200	-0.063
-590.952	-200.000	-0.048	0.495
-589.938	800.000	0.107	-0.315
-588.923	800.000	0.097	0.364
-587.909	306.098	-0.108	0.200
-586.894	-120.172	-0.154	-0.026
-585.879	-65.933	0.302	0.121
-584.865	-94.356	-0.363	-0.099
-583.850	-102.254	-0.414	0.099
-582.836	-24.958	-0.246	0.146
-581.821	244.442	0.208	0.349
-580.806	-11.245	-0.096	0.063
-579.792	-29.942	0.170	0.097
-578.777	-42.083	-0.044	0.022
-577.763	800.000	0.043	-0.152
-576.748	144.151	0.210	-0.280
-575.733	42.862	0.139	0.126
-574.719	379.824	-0.084	0.172
-573.704	300.484	0.123	0.226
-572.690	651.128	-0.093	-0.238
-571.675	-0.611	0.136	0.096
-570.661	-200.000	0.003	0.082
-569.646	404.347	-0.092	-0.194
-568.631	-200.000	-0.005	-0.212
-567.617	30.172	-0.151	-0.129
-566.602	-24.637	-0.292	0.173
-565.588	-36.908	-0.266	-0.142
-564.573	-12.830	-0.134	-0.087
-563.558	134.832	-0.079	-0.102
-562.544	9.809	0.290	-0.219
-561.529	800.000	0.064	-0.217
-560.515	800.000	0.056	-0.164
-559.500	174.610	-0.248	-0.358
-558.485	-61.481	0.116	-0.049
-557.471	76.072	0.103	-0.108
-556.456	-130.921	-0.133	0.018
-555.442	-200.000	-0.013	-0.172
-554.427	-44.577	0.167	-0.083
-553.412	-41.347	-0.335	-0.172
-552.398	-76.674	0.416	0.145
-551.383	11.632	-0.174	0.133
-550.369	-137.953	0.317	-0.035
-549.354	-200.000	-0.023	-0.195
-548.339	-200.000	-0.010	0.369
-547.325	-79.409	-0.199	-0.067
-546.310	92.072	0.038	-0.043
-545.296	-113.165	-0.138	-0.027
-544.281	-104.041	0.173	0.040
-543.266	124.663	-0.050	0.063
-542.252	-148.949	0.176	0.014
-541.237	595.013	-0.071	-0.175
-540.223	-136.594	-0.329	0.038
-539.208	800.000	-0.033	0.102
-538.193	800.000	0.106	0.427
-537.179	800.000	0.074	0.226
-536.164	-31.760	-0.257	0.144
-535.150	24.498	-0.213	-0.175
-534.135	195.182	-0.011	0.016
-533.121	-80.950	-0.101	0.033
-532.106	800.000	0.037	0.142
-531.091	227.352	-0.146	0.236
-530.077	800.000	0.069	-0.281
-529.062	-29.863	-0.154	0.087
-528.048	45.096	-0.044	0.040
-527.033	5.421	0.322	0.236
-526.018	282.971	-0.130	0.233
-525.004	-80.311	0.177	0.059
-523.989	-37.026	0.040	-0.021
-522.975	155.392	0.066	-0.090
-521.960	-180.276	-0.402	-0.008
-520.945	323.764	0.166	0.315
-519.931	-61.278	-0.257	-0.108
-518.916	768.444	0.145	-0.392
-517.902	-139.115	0.202	0.022
-516.887	8.279	0.169	-0.127
-515.872	800.000	-0.066	-0.285
-514.858	-51.925	-0.240	-0.111
-513.843	595.338	-0.093	-0.230
-512.829	117.335	0.058	-0.071
-511.814	-22.048	0.146	-0.088
-510.799	-118.752	-0.324	-0.057
-509.785	-139.736	-0.124	-0.013
-508.770	-80.601	-0.167	-0.055
-507.756	-200.000	-0.015	0.288
-506.741	-150.464	0.191	-0.015
-505.726	-97.950	-0.364	0.094
-504.712	-57.338	0.291	-0.127
-503.697	-141.336	-0.055	0.006
-502.683	-69.157	-0.191	0.073
-501.668	-91.889	-0.130	0.037
-500.653	667.946	0.052	0.135
-499.639	84.305	-0.134	0.145
-498.624	-122.449	-0.296	0.048
-497.610	800.000	-0.017	0.057
-496.595	242.672	0.051	-0.085
-495.581	347.456	0.058	0.113
-494.566	-34.730	0.382	-0.207
-493.551	112.838	-0.180	-0.216
-492.537	-169.193	0.437	-0.016
-491.522	27.510	0.126	-0.105
-490.508	-140.433	-0.237	-0.025
-489.493	95.133	-0.176	-0.199
-488.478	0.086	0.051	-0.036
-487.464	-96.315	-0.359	0.094
-486.449	-102.820	-0.423	0.100
-485.435	800.000	0.115	0.330
-484.420	-200.000	0.073	0.597
-483.405	95.590	-0.222	-0.251
-482.391	707.295	-0.134	-0.352
-481.376	800.000	0.044	0.185
-480.362	132.206	0.075	-0.095
-479.347	99.883	-0.141	-0.162
-478.332	800.000	-0.028	-0.088
-477.318	85.586	-0.150	-0.164
-476.303	-149.992	-0.208	0.016
-475.289	87.132	0.031	-0.034
-474.274	-200.000	0.015	0.296
-473.259	-73.982	-0.099	-0.036
-472.245	588.040	-0.079	0.192
-471.230	101.340	0.096	-0.111
-470.216	94.353	-0.104	-0.118
-469.201	-68.163	0.211	0.082
-468.186	-98.640	-0.107	0.027
-467.172	-94.681	0.303	0.082
-466.157	37.498	-0.202	0.178
-465.143	11.746	-0.054	-0.041
-464.128	-200.000	0.031	-0.322
-463.113	-70.715	-0.236	-0.088
-462.099	-47.826	-0.295	0.142
-461.084	800.000	-0.148	0.420
-460.070	730.333	-0.170	0.452
-459.055	800.000	-0.161	-0.450
-458.040	-34.130	0.353	-0.193
-457.026	27.820	-0.217	0.182
-456.011	242.243	0.164	-0.272
-454.997	-176.043	-0.505	0.013
-453.982	-130.698	0.306	-0.041
-452.968	-200.000	-0.027	-0.272
-451.953	277.202	0.071	0.126
-450.938	-33.802	0.203	0.111
-449.924	7.612	0.376	0.279
-448.909	800.000	0.045	0.186
-447.895	-27.206	0.159	0.092
-446.880	-129.351	0.354	0.049
-445.865	-38.086	-0.046	-0.024
-444.851	-200.000	-0.025	-0.113
-443.836	-74.048	-0.233	-0.084
-442.822	75.165	0.229	0.239
-441.807	659.874	0.105	-0.267
-440.792	-200.000	0.017	-0.171
-439.778	-109.441	0.070	0.015
-438.763	-68.632	0.184	0.071
-437.749	-200.000	0.007	0.102
-436.734	-124.358	0.054	-0.008
-435.719	49.915	-0.216	0.202
-434.705	208.366	-0.067	-0.104
-433.690	44.494	-0.254	0.231
-432.676	543.669	0.030	-0.071
-431.661	-45.741	-0.202	-0.099
-430.646	-200.000	0.010	-0.079
-429.632	-106.219	-0.124	0.028
-428.617	-200.000	-0.046	0.540
-427.603	61.464	-0.118	-0.116
-426.588	-84.751	0.029	-0.009
-425.573	394.973	-0.033	0.067
-424.559	123.823	0.095	-0.118
-423.544	252.043	-0.181	-0.305
-422.530	-69.000	0.135	-0.052
-421.515	-38.058	0.243	-0.128
-420.500	-40.228	0.197	0.102
-419.486	211.922	-0.180	0.281
-418.471	-21.409	0.447	0.270
-417.457	33.689	0.281	-0.242
-416.442	-82.701	-0.174	-0.056
-415.428	800.000	0.032	0.099
-414.413	-28.965	-0.176	0.100
-413.398	76.944	0.155	-0.163
-412.384	78.383	0.170	-0.180
-411.369	800.000	0.076	0.278
-410.355	87.793	0.144	0.158
-409.340	-189.496	0.341	-0.004
-408.325	-200.000	0.020	-0.101
-407.311	-200.000	-0.021	-0.330
-406.296	-61.768	0.080	0.033
-405.282	-200.000	-0.018	-0.289
-404.267	-49.880	-0.211	-0.099
-403.252	-200.000	0.002	0.123
-402.238	40.457	-0.208	-0.185
-401.223	249.214	0.078	-0.131
-400.209	52.131	0.193	-0.182
-399.194	-200.000	-0.061	-0.404
-398.179	26.231	-0.169	0.139
-397.165	800.000	0.096	0.359
-396.150	173.711	-0.157	-0.225
-395.136	22.255	0.253	-0.205
-394.121	-25.199	-0.294	-0.173
-393.106	-49.983	-0.128	0.060
-392.092	209.801	0.074	-0.115
-391.077	-200.000	-0.011	0.423
-390.063	-157.299	0.276	-0.017
-389.048	-200.000	-0.063	0.376
-388.033	-119.428	-0.017	-0.003
-387.019	-194.298	0.454	0.004
-386.004	7.395	0.156	-0.115
-384.990	800.000	0.023	0.063
-383.975	403.791	0.033	-0.070
-382.960	-200.000	0.004	0.074
-381.946	-8.108	0.100	0.067
-380.931	122.163	-0.051	-0.063
-379.917	-82.827	0.273	-0.087
-378.902	339.768	0.131	-0.253
-377.888	800.000	0.056	-0.233
-376.873	-92.744	-0.226	0.063
-375.858	-153.644	-0.199	0.014
-374.844	800.000	-0.061	0.212
-373.829	800.000	-0.091	0.340
-372.815	-97.085	0.140	0.036
-371.800	-97.358	-0.211	0.055
-370.785	-200.000	0.001	0.031
-369.771	31.436	-0.354	-0.301
-368.756	-97.540	0.396	-0.102
-367.742	237.876	0.166	-0.273
-366.727	-134.797	-0.176	0.021
-365.712	800.000	-0.032	-0.090
-364.698	-102.792	-0.128	0.030
-363.683	-86.718	0.081	0.024
-362.669	248.837	0.106	-0.177
-361.654	-200.000	0.061	-0.325
-360.639	298.367	0.212	0.385
-359.625	-77.373	-0.017	0.006
-358.610	-67.019	0.107	-0.042
-357.596	537.691	0.082	-0.193
-356.581	-200.000	-0.009	-0.069
-355.566	-110.489	0.227	0.047
-354.552	-56.928	0.134	0.059
-353.537	-200.000	0.052	0.261
-352.523	93.108	-0.159	0.178
-351.508	387.533	0.026	0.054
-350.493	18.819	0.120	-0.095
-349.479	-182.310	-0.149	0.003
-348.464	-8.317	0.095	-0.063
-347.450	203.219	0.088	0.135
-346.435	49.036	-0.201	0.186
-345.420	-200.000	-0.025	0.177
-344.406	-84.758	0.184	-0.057
-343.391	170.525	-0.116	-0.164
-342.377	159.082	-0.033	0.045
-341.362	323.592	0.087	0.164
-340.348	33.860	0.226	-0.195
-339.333	69.943	0.191	0.195
-338.318	52.691	-0.141	-0.133
-337.304	68.292	-0.179	-0.181
-336.289	-19.395	0.079	0.049
-335.275	592.162	0.006	0.014
-334.260	-200.000	0.005	-0.091
-333.245	96.416	-0.118	0.133
-332.231	14.417	0.300	0.232
-331.216	-166.115	-0.182	0.008
-330.202	800.000	-0.018	0.068
-329.187	2.680	-0.105	0.075
-328.172	-191.534	0.067	-0.001
-327.158	169.388	0.119	-0.168
-326.143	127.195	-0.169	0.212
-325.129	-123.008	0.097	0.015
-324.114	-200.000	0.028	0.415
-323.099	-17.704	0.083	-0.052
-322.085	-200.000	-0.016	-0.182
-321.070	-200.000	-0.036	-0.563
-320.056	253.210	-0.148	0.249
-319.041	-89.908	0.325	-0.094
-318.026	145.698	0.063	0.084
-317.012	21.224	0.307	-0.246
-315.997	-1.703	0.307	0.214
-314.983	800.000	0.095	0.315
-313.968	-47.641	0.095	-0.045
-312.953	-200.000	0.046	-0.336
-311.939	800.000	0.023	-0.068
-310.924	80.690	0.142	-0.151
-309.910	160.587	0.138	0.190
-308.895	-147.846	0.193	0.016
-307.880	-90.574	0.212	-0.061
-306.866	546.442	-0.100	0.237
-305.851	496.230	0.048	0.108
-304.837	-38.170	0.161	0.084
-303.822	-91.877	-0.132	0.037
-302.807	800.000	0.020	-0.059
-301.793	-105.180	-0.184	0.041
-300.778	-67.741	-0.409	-0.158
-299.764	-1.211	-0.039	0.027
-298.749	-21.242	-0.300	-0.181
-297.735	209.342	-0.098	-0.152
-296.720	-75.014	0.115	-0.041
-295.705	-200.000	-0.001	0.270
-294.691	-128.995	-0.086	0.012
-293.676	265.069	-0.131	-0.226
-292.662	7.823	0.076	0.056
-291.647	-1.564	-0.179	-0.124
-290.632	22.353	-0.116	-0.093
-289.618	66.728	0.436	0.437
-288.603	-9.612	0.202	0.133
-287.589	105.575	0.183	-0.214
-286.574	800.000	-0.002	0.008
-285.559	-9.583	-0.208	0.137
-284.545	-20.194	0.198	-0.120
-283.530	-79.353	0.262	-0.087
-282.516	800.000	0.043	0.182
-281.501	-200.000	0.028	0.259
-280.486	-3.994	-0.186	0.127
-279.472	-56.017	-0.295	0.130
-278.457	-20.796	0.082	-0.050
-277.443	117.702	-0.166	0.202
-276.428	84.566	-0.069	-0.075
-275.413	-22.972	0.359	-0.213
-274.399	-10.665	-0.143	-0.093
-273.384	176.874	0.033	0.048
-272.370	-60.661	-0.183	0.076
-271.355	248.646	0.031	-0.052
-270.340	134.909	-0.039	-0.050
-269.326	74.661	-0.306	0.318
-268.311	-200.000	0.019	0.152
-267.297	92.765	0.118	-0.132
-266.282	424.711	0.173	0.367
-265.267	572.490	0.071	-0.170
-264.253	258.510	0.177	0.301
-263.238	-200.000	-0.033	0.166
-262.224	427.546	0.123	0.262
-261.209	63.734	0.145	0.144
-260.195	52.909	-0.157	-0.148
-259.180	-200.000	-0.004	0.071
-258.165	-200.000	0.011	-0.091
-257.151	-102.126	-0.185	0.044
-256.136	86.999	0.059	0.064
-255.122	37.982	-0.079	0.069
-254.107	4.146	0.285	0.205
-253.092	800.000	0.019	0.067
-252.078	-29.105	0.173	-0.098
-251.063	-68.338	-0.215	-0.082
-250.049	-200.000	-0.016	0.346
-249.034	223.348	0.096	-0.152
-248.019	-200.000	0.038	0.300
-247.005	594.344	-0.164	-0.398
-245.990	43.581	-0.153	0.137
-244.976	186.937	-0.139	-0.204
-243.961	-56.254	0.168	0.073
-242.946	34.053	-0.200	-0.172
-241.932	-200.000	-0.018	0.100
-240.917	-143.415	-0.086	0.008
-239.903	227.521	-0.177	-0.283
-238.888	-64.812	-0.204	-0.081
-237.873	-200.000	-0.056	-0.334
-236.859	-172.147	-0.283	0.009
-235.844	-200.000	-0.038	0.257
-234.830	-84.427	0.093	0.029
-233.815	612.346	0.036	-0.089
-232.800	-200.000	-0.018	-0.120
-231.786	-200.000	-0.025	0.107
-230.771	800.000	-0.021	0.066
-229.757	97.047	0.135	0.153
-228.742	62.233	0.239	0.234
-227.727	-24.523	-0.218	-0.128
-226.713	-117.424	-0.237	0.042
-225.698	-161.853	-0.156	-0.008
-224.684	-125.894	0.118	0.017
-223.669	37.401	0.109	0.095
-222.655	52.648	-0.273	0.257
-221.640	236.325	-0.076	-0.123
-220.625	5.162	0.229	0.166
-219.611	0.595	-0.277	0.195
-218.596	-200.000	0.016	-0.209
-217.582	110.243	0.044	-0.052
-216.567	147.301	-0.090	-0.119
-215.552	83.570	0.348	-0.373
-214.538	-79.396	-0.259	-0.086
-213.523	348.394	0.154	0.300
-212.509	-103.392	0.165	-0.038
-211.494	58.195	0.269	0.259
-210.479	-87.114	-0.171	-0.051
-209.465	800.000	0.031	-0.125
-208.450	800.000	-0.172	-0.527
-207.436	241.222	-0.033	-0.055
-206.421	-200.000	0.007	-0.191
-205.406	40.128	-0.166	0.147
-204.392	-89.243	-0.163	0.047
-203.377	-182.011	0.459	-0.009
-202.363	800.000	0.022	0.074
-201.348	-200.000	-0.057	0.265
-200.333	351.367	0.087	0.169
-199.319	94.055	-0.051	0.057
-198.304	800.000	-0.088	0.257
-197.290	-160.530	-0.383	-0.020
-196.275	800.000	-0.045	0.170
-195.260	800.000	0.009	-0.039
-194.246	304.372	0.113	-0.207
-193.231	-122.196	-0.408	0.066
-192.217	-119.851	-0.199	0.034
-191.202	-177.259	-0.039	0.001
-190.187	-133.947	-0.071	0.009
-189.173	132.416	0.074	-0.093
-188.158	547.897	0.168	0.396
-187.144	186.616	0.198	0.289
-186.129	800.000	-0.015	0.057
-185.114	-200.000	-0.026	0.167
-184.100	-56.065	0.101	-0.044
-183.085	-82.171	-0.226	-0.072
-182.071	-96.706	0.203	0.052
-181.056	-105.223	-0.092	0.021
-180.042	219.308	0.139	0.218
-179.027	-200.000	-0.034	-0.286
-178.012	-123.150	-0.281	0.044
-176.998	383.186	0.124	-0.250
-175.983	19.114	0.160	-0.126
-174.969	5.268	0.175	0.127
-173.954	-129.408	-0.208	0.028
-172.939	126.076	0.164	-0.203
-171.925	17.392	0.091	-0.071
-170.910	-17.922	-0.065	0.040
-169.896	-200.000	-0.034	0.249
-168.881	-0.860	-0.109	0.076
-167.866	-200.000	0.017	-0.081
-166.852	-153.921	0.351	-0.024
-165.837	260.458	0.114	0.194
-164.823	28.821	-0.170	-0.141
-163.808	275.727	-0.071	0.124
-162.793	-200.000	-0.008	0.237
-161.779	-200.000	-0.003	-0.026
-160.764	-122.936	0.074	0.012
-159.750	-200.000	0.009	-0.175
-158.735	114.013	0.245	0.292
-157.720	-102.324	-0.095	0.022
-156.706	477.628	-0.086	0.192
-155.691	562.123	-0.029	-0.069
-154.677	663.928	-0.048	0.121
-153.662	-200.000	-0.049	-0.274
-152.647	163.379	0.257	-0.355
-151.633	-69.668	-0.221	0.083
-150.618	339.941	-0.067	-0.127
-149.604	-83.966	-0.459	0.143
-148.589	-200.000	0.002	0.337
-147.574	-200.000	-0.006	-0.278
-146.560	-200.000	-0.018	0.130
-145.545	800.000	0.028	-0.099
-144.531	-63.613	-0.269	-0.108
-143.516	68.010	0.078	-0.078
-142.502	26.260	-0.161	0.132
-141.487	-49.190	0.326	0.153
-140.472	297.407	-0.266	0.480
-139.458	-17.793	0.193	-0.119
-138.443	800.000	-0.012	-0.053
-137.429	76.984	0.193	0.201
-136.414	-121.895	0.145	-0.023
-135.399	-200.000	-0.049	-0.275
-134.385	-200.000	0.077	-0.343
-133.370	-200.000	0.024	0.144
-132.356	166.709	-0.029	0.041
-131.341	-122.544	0.196	-0.031
-130.326	-74.508	0.166	0.059
-129.312	238.895	0.034	-0.056
-128.297	153.384	-0.126	0.169
-127.283	-5.726	0.429	-0.288
-126.268	-108.423	-0.345	-0.073
-125.253	-116.800	-0.232	-0.042
-124.239	-61.391	0.079	0.033
-123.224	-200.000	0.025	-0.231
-122.210	351.626	-0.090	0.174
-121.195	-89.612	0.207	0.060
