DTS Sentinel unit serial number:	SN413079Multiplexer serial number:	ORYXHardware model number:	OX4-SRSoftware version number:	ORYX F/W v4.00 Oryx Data Collector v3.7.2.0data status	okinstallation	princeton_trtdifferential loss correction	single-endedforward channel	channel 1reverse channel	N/Adate	2019/09/11time	20:04:11forward acquisition time	60.00reverse acquisition time	0.00gamma	496.2192k internal	0.2301k external	0.2301temperature offset calibration	1.0034default loss term (dB/km)	0.3790temperature slope calibration	1.0000multiplexer offset coefficient	1.0000multiplexer slope coefficient	1.0000fibre end	0.00T internal ref (°C)	38.64T ext. ref 1 (°C)	1.39T ext. ref 2 (°C)	32.01length (m)	temperature (°C)	Stokes	anti-Stokes-747.200	-18.730	0.059	-0.038
-746.185	224.492	0.147	0.242
-745.171	55.334	0.016	-0.016
-744.156	391.101	-0.114	-0.241
-743.142	125.668	-0.099	-0.127
-742.127	-132.995	-0.247	-0.032
-741.112	-128.965	-0.218	0.031
-740.098	-200.000	-0.009	0.144
-739.083	-114.573	-0.258	-0.050
-738.069	-134.791	-0.138	-0.017
-737.054	-40.089	-0.078	0.041
-736.039	36.119	0.162	-0.146
-735.025	-155.601	0.248	0.016
-734.010	119.354	0.096	-0.121
-732.996	-200.000	0.010	-0.256
-731.981	-200.000	-0.001	0.014
-730.966	-200.000	-0.043	-0.505
-729.952	-118.968	-0.171	-0.031
-728.937	-177.635	-0.166	-0.004
-727.923	800.000	-0.099	0.325
-726.908	-65.711	0.112	-0.046
-725.894	130.653	0.165	-0.216
-724.879	130.845	-0.082	0.107
-723.864	800.000	-0.052	-0.154
-722.850	800.000	0.048	-0.167
-721.835	98.015	-0.141	-0.165
-720.821	-116.083	-0.314	0.060
-719.806	26.862	0.046	0.039
-718.791	290.492	-0.213	-0.394
-717.777	-200.000	-0.081	-0.439
-716.762	-60.538	-0.128	-0.055
-715.748	-84.574	-0.079	0.026
-714.733	411.810	0.048	-0.103
-713.718	34.724	-0.096	-0.086
-712.704	93.539	0.111	-0.128
-711.689	-200.000	-0.016	0.099
-710.675	477.668	-0.120	-0.277
-709.660	-145.350	0.181	-0.017
-708.645	177.952	0.135	-0.201
-707.631	800.000	0.089	-0.345
-706.616	800.000	-0.043	-0.127
-705.602	-120.225	-0.090	0.016
-704.587	-200.000	0.000	-0.028
-703.572	-1.421	-0.308	-0.222
-702.558	-47.417	-0.281	-0.139
-701.543	6.010	-0.117	-0.088
-700.529	202.221	0.102	-0.160
-699.514	-178.930	0.181	-0.004
-698.499	-116.125	-0.246	-0.047
-697.485	211.938	-0.139	0.224
-696.470	-47.924	-0.105	-0.052
-695.456	160.533	-0.075	0.107
-694.441	303.013	0.134	0.252
-693.426	5.087	-0.170	0.128
-692.412	-174.309	-0.405	0.012
-691.397	800.000	-0.046	-0.155
-690.383	331.150	-0.071	0.138
-689.368	-200.000	-0.003	-0.160
-688.354	-6.935	0.084	-0.058
-687.339	112.703	-0.136	-0.167
-686.324	75.646	-0.264	-0.284
-685.310	-56.507	-0.092	0.041
-684.295	-200.000	0.026	0.119
-683.281	-29.294	0.205	-0.120
-682.266	-200.000	0.036	0.191
-681.251	249.781	0.034	0.059
-680.237	376.534	-0.065	0.136
-679.222	-126.986	-0.315	0.047
-678.208	-33.371	-0.233	-0.131
-677.193	-92.316	-0.103	-0.029
-676.178	800.000	0.083	-0.321
-675.164	69.836	-0.192	0.201
-674.149	-175.193	-0.077	-0.002
-673.135	-119.582	0.148	0.026
-672.120	-200.000	0.016	0.147
-671.105	-80.493	0.321	0.109
-670.091	55.723	-0.334	-0.329
-669.076	800.000	-0.090	-0.378
-668.062	800.000	-0.016	0.056
-667.047	161.564	0.160	-0.228
-666.032	-128.879	0.214	0.031
-665.018	80.931	-0.244	0.267
-664.003	-177.230	-0.345	-0.009
-662.989	800.000	0.076	-0.260
-661.974	-111.808	0.099	0.020
-660.959	64.731	-0.058	-0.059
-659.945	-87.902	0.117	-0.036
-658.930	-45.709	-0.088	-0.044
-657.916	-0.644	-0.207	-0.149
-656.901	-200.000	-0.008	0.151
-655.886	-13.754	0.177	-0.116
-654.872	-7.974	-0.277	0.190
-653.857	757.778	-0.103	-0.282
-652.843	-93.520	0.119	-0.033
-651.828	-200.000	-0.006	0.179
-650.814	-200.000	-0.019	0.218
-649.799	-113.721	0.096	0.019
-648.784	82.630	0.101	-0.111
-647.770	-48.900	-0.128	-0.062
-646.755	800.000	-0.037	0.118
-645.741	-39.443	-0.243	-0.130
-644.726	-174.972	0.162	0.005
-643.711	294.638	-0.174	0.323
-642.697	800.000	0.056	-0.169
-641.682	719.679	-0.051	-0.139
-640.668	111.253	-0.119	-0.145
-639.653	-200.000	-0.052	-0.234
-638.638	800.000	0.054	0.155
-637.624	28.545	0.185	0.159
-636.609	-16.776	-0.144	-0.093
-635.595	-84.082	0.101	-0.032
-634.580	463.316	0.039	0.088
-633.565	321.073	0.080	-0.154
-632.551	-200.000	-0.065	-0.304
-631.536	445.997	-0.110	-0.245
-630.522	-116.719	0.226	-0.042
-629.507	80.913	0.227	-0.249
-628.492	-200.000	0.025	0.228
-627.478	47.297	0.121	-0.114
-626.463	-200.000	0.028	0.199
-625.449	-82.068	0.199	0.066
-624.434	-200.000	0.024	-0.233
-623.419	-42.304	0.245	-0.127
-622.405	-200.000	0.009	0.046
-621.390	62.906	-0.245	-0.249
-620.376	-200.000	0.024	0.294
-619.361	8.208	-0.199	0.152
-618.346	800.000	-0.012	-0.042
-617.332	132.678	-0.209	0.274
-616.317	74.495	0.072	-0.077
-615.303	96.934	-0.156	-0.182
-614.288	-94.008	0.092	-0.026
-613.273	800.000	-0.038	-0.141
-612.259	-70.396	-0.203	0.078
-611.244	250.039	0.134	-0.230
-610.230	-87.114	0.311	-0.096
-609.215	-41.218	-0.242	-0.127
-608.201	-73.615	-0.224	-0.083
-607.186	-200.000	-0.082	0.427
-606.171	351.517	-0.084	0.168
-605.157	122.011	0.160	-0.202
-604.142	399.444	0.112	0.239
-603.128	227.881	0.123	-0.204
-602.113	118.046	-0.186	-0.232
-601.098	4.608	-0.165	-0.122
-600.084	-152.457	-0.271	-0.020
-599.069	262.195	-0.088	0.155
-598.055	800.000	0.049	0.164
-597.040	-44.179	0.234	-0.119
-596.025	800.000	0.072	-0.224
-595.011	103.379	-0.270	0.321
-593.996	348.652	-0.153	-0.307
-592.982	39.365	-0.064	0.058
-591.967	-57.052	0.207	0.093
-590.952	36.366	-0.234	-0.209
-589.938	-160.077	-0.258	0.014
-588.923	800.000	0.092	0.277
-587.909	573.962	-0.053	-0.130
-586.894	-93.498	0.120	0.034
-585.879	-124.130	-0.214	-0.034
-584.865	-200.000	-0.015	0.154
-583.850	-200.000	0.011	-0.075
-582.836	391.622	-0.154	0.325
-581.821	800.000	-0.025	0.074
-580.806	-16.553	0.262	0.168
-579.792	-136.367	0.238	-0.028
-578.777	-88.320	-0.102	0.031
-577.763	-14.305	-0.372	-0.243
-576.748	214.001	-0.173	0.277
-575.733	-130.272	-0.163	-0.022
-574.719	800.000	0.041	0.124
-573.704	335.434	-0.067	-0.132
-572.690	-200.000	0.017	0.288
-571.675	170.220	0.048	-0.070
-570.661	-118.832	0.414	0.074
-569.646	732.620	0.102	-0.277
-568.631	-27.131	-0.115	-0.068
-567.617	149.504	0.170	-0.233
-566.602	-200.000	-0.012	0.234
-565.588	286.855	-0.063	0.115
-564.573	800.000	0.084	-0.290
-563.558	-16.901	0.236	-0.151
-562.544	-132.208	0.065	0.009
-561.529	461.831	0.089	0.200
-560.515	-59.434	0.189	-0.082
-559.500	-118.508	0.341	-0.061
-558.485	-63.874	0.084	-0.035
-557.471	-79.180	-0.149	0.051
-556.456	-200.000	-0.001	-0.007
-555.442	-174.716	0.239	-0.007
-554.427	83.118	-0.174	-0.192
-553.412	-200.000	0.001	-0.250
-552.398	28.810	0.207	0.177
-551.383	-200.000	0.050	0.279
-550.369	66.875	-0.385	-0.397
-549.354	196.436	-0.125	0.192
-548.339	499.719	-0.151	0.353
-547.325	800.000	0.034	-0.144
-546.310	352.310	-0.111	-0.223
-545.296	9.879	-0.193	0.148
-544.281	-110.476	-0.212	-0.044
-543.266	-62.168	-0.096	0.041
-542.252	-200.000	-0.004	0.359
-541.237	-200.000	0.023	0.134
-540.223	-14.795	0.189	0.123
-539.208	-71.577	0.355	-0.134
-538.193	169.906	-0.017	-0.024
-537.179	90.739	0.079	0.090
-536.164	-114.923	-0.140	0.027
-535.150	-33.662	0.234	0.131
-534.135	-116.209	0.236	-0.044
-533.121	-200.000	-0.019	0.182
-532.106	-179.290	0.314	0.007
-531.091	2.816	0.077	0.056
-530.077	-91.027	-0.424	-0.123
-529.062	24.422	0.107	-0.089
-528.048	95.181	-0.076	-0.088
-527.033	-138.781	0.273	0.030
-526.018	512.779	-0.068	-0.159
-525.004	-100.733	-0.502	0.125
-523.989	-200.000	0.024	-0.135
-522.975	286.170	0.130	-0.238
-521.960	800.000	-0.028	-0.092
-520.945	331.622	-0.063	-0.123
-519.931	-200.000	0.043	-0.258
-518.916	-200.000	-0.012	0.103
-517.902	-200.000	0.011	0.084
-516.887	93.602	0.055	0.063
-515.872	800.000	0.056	0.189
-514.858	26.357	0.278	-0.235
-513.843	-200.000	-0.053	-0.483
-512.829	32.291	0.302	0.263
-511.814	-39.583	0.052	-0.027
-510.799	-88.008	-0.094	-0.029
-509.785	-200.000	0.002	-0.068
-508.770	79.511	-0.166	-0.180
-507.756	-103.420	-0.231	-0.055
-506.741	-124.216	0.437	0.069
-505.726	10.807	-0.236	0.182
-504.712	64.207	0.269	-0.273
-503.697	-126.710	-0.297	-0.044
-502.683	-34.731	-0.112	0.062
-501.668	-23.282	-0.163	-0.099
-500.653	208.715	0.007	-0.011
-499.639	-200.000	0.027	0.135
-498.624	-200.000	0.007	0.169
-497.610	-200.000	-0.003	0.205
-496.595	228.303	0.072	-0.118
-495.581	59.615	-0.045	-0.044
-494.566	-58.835	-0.152	-0.066
-493.551	-144.288	-0.086	-0.008
-492.537	16.741	0.367	0.293
-491.522	800.000	0.054	0.169
-490.508	-89.380	-0.144	-0.043
-489.493	-200.000	-0.017	0.343
-488.478	-136.085	-0.271	0.032
-487.464	268.709	0.130	0.230
-486.449	245.755	0.107	-0.181
-485.435	114.196	0.131	0.161
-484.420	800.000	-0.050	-0.193
-483.405	203.662	-0.135	-0.211
-482.391	800.000	-0.098	0.281
-481.376	80.370	0.078	-0.085
-480.362	81.385	-0.212	0.231
-479.347	156.162	-0.069	-0.096
-478.332	800.000	0.044	0.123
-477.318	-35.349	0.114	0.062
-476.303	-200.000	0.027	-0.277
-475.289	-129.571	-0.046	-0.006
-474.274	39.552	0.121	0.109
-473.259	26.135	-0.262	0.221
-472.245	800.000	-0.106	-0.341
-471.230	-48.133	0.365	-0.178
-470.216	247.832	-0.075	0.128
-469.201	-200.000	-0.011	0.258
-468.186	800.000	-0.065	-0.278
-467.172	-10.773	0.185	-0.123
-466.157	-51.729	0.199	-0.094
-465.143	800.000	0.069	0.230
-464.128	-46.683	-0.149	-0.074
-463.113	-200.000	0.001	-0.418
-462.099	119.956	0.183	-0.229
-461.084	8.585	-0.246	0.187
-460.070	-97.368	-0.352	0.093
-459.055	208.780	-0.086	0.136
-458.040	-200.000	0.073	0.366
-457.026	83.016	-0.289	0.317
-456.011	-120.691	0.330	0.056
-454.997	11.731	-0.099	-0.077
-453.982	800.000	-0.047	-0.188
-452.968	658.353	0.099	-0.256
-451.953	-51.208	0.229	-0.108
-450.938	129.044	0.226	0.291
-449.924	-9.111	-0.153	-0.103
-448.909	163.611	-0.146	0.206
-447.895	245.579	0.159	-0.270
-446.880	-120.711	0.200	-0.034
-445.865	-200.000	0.072	-0.405
-444.851	540.478	-0.071	-0.170
-443.836	129.307	-0.109	-0.140
-442.822	-180.780	-0.205	0.004
-441.807	79.806	-0.371	-0.402
-440.792	800.000	-0.047	-0.170
-439.778	132.195	-0.084	0.109
-438.763	28.676	-0.083	-0.071
-437.749	-200.000	0.074	-0.441
-436.734	800.000	0.048	-0.199
-435.719	-200.000	0.057	-0.277
-434.705	-117.074	-0.466	0.086
-433.690	417.776	-0.039	-0.083
-432.676	-9.506	0.163	-0.110
-431.661	-200.000	-0.022	-0.238
-430.646	-29.833	-0.200	0.115
-429.632	87.487	0.136	-0.152
-428.617	-58.339	-0.310	-0.136
-427.603	363.499	-0.077	0.156
-426.588	-101.583	0.123	0.030
-425.573	-119.489	0.169	-0.030
-424.559	-200.000	-0.007	0.092
-423.544	751.622	0.157	0.427
-422.530	-165.044	0.479	0.021
-421.515	-97.540	0.109	-0.028
-420.500	-75.535	-0.178	0.064
-419.486	273.240	-0.075	-0.134
-418.471	-105.325	0.166	-0.038
-417.457	-200.000	0.011	-0.219
-416.442	-87.744	-0.068	0.021
-415.428	2.238	-0.164	-0.119
-414.413	518.367	0.076	-0.178
-413.398	-200.000	0.006	-0.055
-412.384	-85.212	0.375	0.118
-411.369	19.551	0.389	-0.315
-410.355	-80.859	-0.085	-0.028
-409.340	-20.295	-0.123	0.076
-408.325	377.224	-0.034	-0.070
-407.311	655.964	-0.053	-0.138
-406.296	-60.098	-0.371	0.159
-405.282	-9.350	-0.141	0.095
-404.267	431.871	0.035	-0.076
-403.252	-15.536	-0.214	-0.137
-402.238	393.088	0.116	0.244
-401.223	133.598	-0.222	-0.288
-400.209	-75.278	-0.235	-0.084
-399.194	-200.000	0.071	0.373
-398.179	-43.105	0.300	0.153
-397.165	-127.474	-0.091	0.013
-396.150	772.166	-0.124	-0.339
-395.136	-166.142	0.373	-0.016
-394.121	-10.514	0.238	-0.158
-393.106	271.226	0.050	0.088
-392.092	173.380	0.140	0.203
-391.077	-200.000	0.004	0.305
-390.063	-200.000	0.060	0.498
-389.048	55.787	0.364	0.355
-388.033	-200.000	-0.072	0.349
-387.019	41.507	-0.194	-0.176
-386.004	800.000	0.075	-0.283
-384.990	42.116	-0.116	-0.106
-383.975	85.824	0.099	-0.110
-382.960	-25.295	-0.142	-0.085
-381.946	-42.871	0.288	-0.147
-380.931	30.569	-0.305	0.262
-379.917	800.000	-0.078	0.332
-378.902	-28.192	0.258	0.150
-377.888	-121.834	0.206	0.034
-376.873	-32.222	-0.258	0.145
-375.858	-67.408	0.288	0.114
-374.844	-200.000	-0.022	-0.207
-373.829	405.329	-0.094	0.200
-372.815	800.000	-0.083	0.281
-371.800	156.475	-0.128	0.178
-370.785	-200.000	0.004	0.216
-369.771	328.007	0.156	0.300
-368.756	49.111	0.524	-0.495
-367.742	84.415	0.275	-0.303
-366.727	800.000	0.025	0.085
-365.712	-35.221	0.021	-0.011
-364.698	-200.000	-0.055	-0.310
-363.683	587.451	-0.121	-0.298
-362.669	-40.398	0.291	-0.152
-361.654	-12.553	0.416	-0.273
-360.639	142.058	-0.268	-0.357
-359.625	-23.983	0.207	-0.125
-358.610	-25.117	-0.336	0.200
-357.596	200.387	-0.235	-0.363
-356.581	800.000	0.054	-0.167
-355.566	81.750	-0.085	-0.092
-354.552	-200.000	-0.018	0.225
-353.537	-148.362	0.111	-0.009
-352.523	-200.000	0.045	0.222
-351.508	-74.865	-0.309	-0.111
-350.493	135.439	-0.040	0.052
-349.479	-97.514	0.238	-0.062
-348.464	197.368	-0.118	0.180
-347.450	-54.379	-0.161	0.073
-346.435	-42.116	-0.104	-0.053
-345.420	-85.137	-0.196	-0.061
-344.406	27.517	0.183	0.155
-343.391	-2.211	0.293	-0.206
-342.377	-0.634	0.123	0.087
-341.362	-14.966	-0.205	-0.132
-340.348	-200.000	-0.007	0.145
-339.333	-200.000	-0.026	0.123
-338.318	62.329	0.104	-0.104
-337.304	-200.000	0.001	-0.060
-336.289	246.688	-0.185	0.314
-335.275	-135.759	0.087	0.010
-334.260	94.829	-0.021	0.024
-333.245	69.073	0.091	0.094
-332.231	78.303	0.257	0.275
-331.216	-200.000	0.066	0.483
-330.202	-149.637	-0.124	-0.010
-329.187	-100.530	0.185	-0.046
-328.172	-162.709	-0.096	0.005
-327.158	15.107	0.121	-0.095
-326.143	-88.977	-0.129	0.038
-325.129	-200.000	-0.055	0.287
-324.114	-194.219	0.219	-0.002
-323.099	-200.000	-0.009	0.179
-322.085	800.000	0.026	0.095
-321.070	-109.722	-0.162	0.034
-320.056	-78.411	-0.195	-0.067
-319.041	278.977	0.093	0.167
-318.026	-200.000	-0.057	0.265
-317.012	-121.280	0.187	-0.031
-315.997	-144.735	0.132	0.012
-314.983	-200.000	0.141	0.000
-313.968	216.069	-0.211	-0.336
-312.953	-84.101	-0.207	-0.066
-311.939	40.236	0.382	0.344
-310.924	800.000	0.108	-0.317
-309.910	800.000	0.103	-0.309
-308.895	57.599	-0.112	-0.109
-307.880	-56.145	-0.171	-0.076
-306.866	-45.689	-0.244	0.121
-305.851	265.493	0.126	0.221
-304.837	364.316	-0.179	0.361
-303.822	-156.919	-0.295	0.018
-302.807	510.897	0.069	0.162
-301.793	-95.067	-0.273	-0.074
-300.778	-151.995	0.501	0.037
-299.764	-7.745	-0.218	0.148
-298.749	561.055	-0.094	-0.228
-297.735	-82.492	-0.293	-0.095
-296.720	310.516	0.200	0.375
-295.705	-10.174	-0.093	0.062
-294.691	-200.000	-0.017	0.079
-293.676	29.744	-0.091	0.078
-292.662	-17.891	-0.105	0.066
-291.647	-135.680	-0.169	-0.020
-290.632	-81.852	-0.119	-0.039
-289.618	-135.091	-0.138	-0.017
-288.603	-200.000	0.028	0.140
-287.589	-54.707	-0.152	-0.069
-286.574	800.000	-0.033	-0.109
-285.559	-125.197	-0.362	0.056
-284.545	-7.185	-0.107	-0.073
-283.530	-84.923	0.079	-0.025
-282.516	71.344	0.141	0.147
-281.501	98.707	0.276	0.318
-280.486	800.000	0.044	-0.138
-279.472	74.273	-0.192	-0.202
-278.457	403.029	0.100	-0.211
-277.443	-200.000	0.061	-0.454
-276.428	-200.000	-0.024	-0.120
-275.413	719.848	-0.111	0.295
-274.399	62.950	-0.106	0.107
-273.384	474.914	-0.139	-0.314
-272.370	-122.690	0.283	-0.046
-271.355	535.991	0.045	0.107
-270.340	-129.386	-0.134	0.019
-269.326	443.245	-0.066	0.145
-268.311	-9.402	-0.205	0.137
-267.297	-116.477	0.443	0.082
-266.282	800.000	-0.034	-0.123
-265.267	678.311	-0.089	-0.231
-264.253	-200.000	-0.017	-0.105
-263.238	-76.893	0.194	-0.068
-262.224	4.064	-0.276	-0.202
-261.209	800.000	0.151	0.420
-260.195	-109.969	0.334	-0.070
-259.180	392.429	0.248	-0.516
-258.165	-200.000	0.019	-0.258
-257.151	28.699	0.265	0.224
-256.136	-34.282	0.279	0.153
-255.122	289.425	0.072	-0.130
-254.107	-141.021	-0.153	0.016
-253.092	800.000	0.016	-0.069
-252.078	-200.000	0.021	0.099
-251.063	-115.781	0.388	-0.073
-250.049	181.056	0.215	0.316
-249.034	162.327	-0.124	0.174
-248.019	-200.000	-0.009	-0.114
-247.005	-130.097	-0.230	-0.031
-245.990	-200.000	0.034	-0.371
-244.976	-91.867	0.074	0.021
-243.961	800.000	0.088	-0.246
-242.946	-10.614	-0.144	-0.095
-241.932	396.373	0.102	-0.213
-240.917	101.339	-0.116	-0.136
-239.903	411.264	-0.130	0.277
-238.888	-58.582	-0.234	-0.101
-237.873	-200.000	0.008	0.134
-236.859	800.000	-0.100	0.284
-235.844	5.648	-0.050	0.037
-234.830	-200.000	0.033	0.395
-233.815	318.895	-0.073	-0.138
-232.800	15.207	0.093	-0.073
-231.786	476.296	-0.221	0.499
-230.771	800.000	-0.026	-0.086
-229.757	365.149	0.124	-0.249
-228.742	80.783	-0.308	0.332
-227.727	-158.430	-0.324	0.019
-226.713	-63.292	0.314	-0.129
-225.698	-15.683	-0.052	-0.033
-224.684	-45.802	-0.108	0.053
-223.669	-65.712	0.214	-0.086
-222.655	-68.399	0.179	0.069
-221.640	-200.000	0.001	0.048
-220.625	800.000	0.063	0.188
-219.611	-22.215	0.063	0.038
-218.596	-155.846	-0.378	-0.024
-217.582	389.611	-0.119	-0.246
-216.567	109.359	0.111	0.132
-215.552	-29.401	-0.129	0.074
-214.538	561.246	0.068	-0.165
-213.523	-200.000	0.011	0.402
-212.509	-200.000	0.072	0.389
-211.494	800.000	0.070	-0.223
-210.479	-200.000	0.011	0.107
-209.465	232.818	0.139	0.229
-208.450	72.516	-0.036	-0.037
-207.436	-200.000	0.027	0.161
-206.421	-150.968	0.152	-0.011
-205.406	64.073	0.120	-0.121
-204.392	49.482	0.189	0.178
-203.377	-170.313	0.320	-0.011
-202.363	-62.797	-0.195	-0.080
-201.348	-93.279	0.057	-0.016
-200.333	93.503	-0.142	0.161
-199.319	129.602	-0.182	0.233
-198.304	187.534	-0.118	0.176
-197.290	-102.740	-0.323	0.077
-196.275	-97.077	-0.132	0.034
-195.260	204.153	-0.205	-0.318
-194.246	297.163	-0.031	-0.057
-193.231	-5.381	0.301	-0.207
-192.217	-76.887	-0.257	0.090
-191.202	-141.102	-0.322	0.033
-190.187	-200.000	-0.002	-0.179
-189.173	-18.130	-0.388	0.242
-188.158	-200.000	-0.031	0.282
-187.144	800.000	0.104	-0.418
-186.129	-145.266	0.469	-0.042
-185.114	69.001	0.138	0.141
-184.100	-200.000	0.001	0.275
-183.085	800.000	-0.079	0.342
-182.071	-21.244	-0.303	-0.185
-181.056	800.000	-0.082	-0.323
-180.042	-96.692	-0.163	-0.043
-179.027	16.362	-0.109	0.085
-178.012	54.775	0.208	0.200
-176.998	-73.781	0.106	0.039
-175.983	-200.000	0.031	-0.139
-174.969	-200.000	-0.026	-0.116
-173.954	34.977	0.243	-0.212
-172.939	-200.000	0.061	-0.497
-171.925	163.003	0.086	0.121
-170.910	46.564	-0.104	0.097
-169.896	-111.619	0.085	0.017
-168.881	-32.141	0.405	-0.226
-167.866	-200.000	-0.004	-0.371
-166.852	800.000	0.030	0.115
-165.837	-34.632	-0.575	0.313
-164.823	800.000	0.022	0.082
-163.808	226.670	0.093	0.151
-162.793	-55.626	0.199	0.089
-161.779	-200.000	0.183	0.000
-160.764	-95.148	-0.224	0.060
-159.750	800.000	-0.077	0.215
-158.735	-86.592	-0.206	-0.063
-157.720	-4.551	-0.186	0.128
-156.706	241.534	0.134	-0.223
-155.691	-86.838	0.330	0.100
-154.677	39.784	0.225	-0.201
-153.662	-200.000	0.042	0.203
-152.647	201.085	0.079	0.121
-151.633	104.773	-0.172	0.202
-150.618	-200.000	0.012	0.201
-149.604	800.000	-0.117	0.380
-148.589	-15.068	-0.210	-0.134
-147.574	-35.434	-0.043	-0.023
-146.560	52.663	0.094	-0.089
-145.545	135.584	0.172	-0.222
-144.531	-200.000	0.024	-0.608
-143.516	-148.871	-0.430	0.035
-142.502	500.762	-0.179	0.412
-141.487	-115.891	-0.054	0.010
-140.472	475.642	-0.101	0.227
-139.458	-107.018	-0.231	-0.051
-138.443	-64.389	-0.207	0.084
-137.429	137.165	0.172	0.224
-136.414	91.033	0.234	0.261
-135.399	49.549	-0.242	-0.227
-134.385	-149.939	-0.207	0.016
-133.370	-8.273	0.179	0.120
-132.356	332.999	0.095	-0.182
-131.341	620.081	-0.104	0.259
-130.326	-33.625	0.483	0.265
-129.312	-200.000	-0.018	0.225
-128.297	359.458	0.088	-0.175
-127.283	114.225	0.153	-0.186
-126.268	-17.008	-0.152	-0.096
-125.253	800.000	0.077	0.246
-124.239	-116.851	-0.151	0.028
-123.224	-129.255	-0.119	-0.016
-122.210	800.000	-0.062	-0.194
