DTS Sentinel unit serial number:	SN413079Multiplexer serial number:	ORYXHardware model number:	OX4-SRSoftware version number:	ORYX F/W v4.00 Oryx Data Collector v3.7.2.0data status	okinstallation	princeton_trtdifferential loss correction	single-endedforward channel	channel 1reverse channel	N/Adate	2019/09/15time	03:46:35forward acquisition time	60.00reverse acquisition time	0.00gamma	496.2192k internal	0.2324k external	0.2324temperature offset calibration	0.9987default loss term (dB/km)	0.3790temperature slope calibration	1.0000multiplexer offset coefficient	1.0000multiplexer slope coefficient	1.0000fibre end	0.00T internal ref (°C)	30.97T ext. ref 1 (°C)	4.61T ext. ref 2 (°C)	25.91length (m)	temperature (°C)	Stokes	anti-Stokes-747.200	98.683	0.076	-0.089
-746.185	269.292	-0.019	-0.034
-745.171	-194.891	-0.190	-0.001
-744.156	-200.000	-0.008	0.117
-743.142	-94.884	-0.216	0.059
-742.127	-200.000	-0.012	0.408
-741.112	-68.771	-0.122	-0.048
-740.098	-84.850	0.031	-0.010
-739.083	-61.788	0.217	-0.092
-738.069	-36.736	-0.256	-0.139
-737.054	35.792	0.174	-0.155
-736.039	-110.283	-0.258	0.054
-735.025	-45.683	0.346	0.173
-734.010	-150.149	-0.532	-0.042
-732.996	-200.000	0.036	-0.272
-731.981	8.840	0.142	0.108
-730.966	24.332	-0.337	0.281
-729.952	155.411	-0.256	-0.356
-728.937	206.575	0.059	-0.093
-727.923	425.025	-0.085	-0.185
-726.908	-200.000	0.005	0.192
-725.894	-200.000	-0.034	-0.159
-724.879	-137.443	-0.036	-0.004
-723.864	-139.956	-0.193	-0.021
-722.850	-185.813	0.197	-0.003
-721.835	-4.816	0.116	-0.080
-720.821	173.407	-0.166	-0.241
-719.806	269.762	-0.116	-0.206
-718.791	-111.336	-0.042	0.009
-717.777	765.900	-0.043	0.119
-716.762	-161.804	0.229	-0.012
-715.748	-142.830	-0.422	-0.041
-714.733	47.348	0.042	0.039
-713.718	92.718	-0.143	0.163
-712.704	437.017	0.093	-0.204
-711.689	-106.626	-0.070	0.016
-710.675	18.490	-0.256	-0.207
-709.660	268.268	0.079	0.139
-708.645	-44.629	0.102	0.051
-707.631	68.697	-0.108	-0.112
-706.616	-111.067	0.175	0.036
-705.602	18.627	-0.409	-0.330
-704.587	306.889	-0.156	-0.294
-703.572	424.091	0.087	-0.188
-702.558	800.000	0.070	-0.248
-701.543	800.000	0.012	-0.044
-700.529	36.533	0.258	-0.230
-699.514	-200.000	0.012	-0.091
-698.499	113.561	-0.117	0.144
-697.485	-81.560	0.264	-0.088
-696.470	-102.974	0.286	0.068
-695.456	-120.894	0.079	-0.013
-694.441	-200.000	0.017	-0.295
-693.426	-1.477	0.144	-0.103
-692.412	112.479	0.120	-0.146
-691.397	9.395	-0.075	-0.057
-690.383	-48.757	-0.118	-0.057
-689.368	-79.550	0.063	0.022
-688.354	-200.000	-0.021	-0.145
-687.339	-200.000	-0.018	-0.283
-686.324	-200.000	-0.009	-0.246
-685.310	19.368	0.303	-0.245
-684.295	-200.000	-0.007	-0.036
-683.281	-141.795	-0.154	-0.016
-682.266	-95.159	-0.250	-0.068
-681.251	-200.000	-0.035	-0.180
-680.237	-8.803	0.056	-0.038
-679.222	9.417	-0.192	0.146
-678.208	-154.415	-0.149	-0.010
-677.193	36.245	0.114	-0.101
-676.178	-155.526	-0.158	-0.010
-675.164	-58.341	0.229	-0.100
-674.149	20.422	0.077	0.063
-673.135	55.216	-0.100	0.097
-672.120	-106.657	0.172	0.039
-671.105	9.561	0.216	-0.165
-670.091	102.581	-0.120	0.141
-669.076	18.532	-0.125	-0.100
-668.062	111.817	-0.201	-0.245
-667.047	800.000	0.116	-0.345
-666.032	231.993	-0.067	0.110
-665.018	87.177	0.290	-0.322
-664.003	-89.333	-0.159	-0.047
-662.989	-106.747	0.069	-0.016
-661.974	47.023	-0.221	-0.207
-660.959	-40.156	0.130	0.068
-659.945	45.471	-0.138	-0.128
-658.930	-151.700	0.193	0.014
-657.916	800.000	0.069	-0.216
-656.901	249.091	0.069	0.118
-655.886	-17.730	-0.106	-0.067
-654.872	-133.962	0.441	-0.055
-653.857	192.719	0.180	0.273
-652.843	-200.000	-0.003	0.190
-651.828	-200.000	0.014	-0.250
-650.814	225.736	-0.144	-0.235
-649.799	185.214	0.126	0.188
-648.784	-180.436	0.174	-0.004
-647.770	14.974	0.206	-0.162
-646.755	-78.821	0.367	-0.126
-645.741	-54.404	-0.140	-0.064
-644.726	-47.732	0.298	0.145
-643.711	279.267	0.098	-0.175
-642.697	83.370	0.140	-0.153
-641.682	167.252	-0.113	0.162
-640.668	25.980	-0.222	0.186
-639.653	371.669	0.011	0.022
-638.638	376.422	-0.087	0.179
-637.624	-86.883	0.112	0.034
-636.609	-128.022	-0.129	-0.019
-635.595	-45.027	-0.249	0.125
-634.580	-126.471	-0.337	0.050
-633.565	-200.000	0.005	0.037
-632.551	-67.653	-0.247	-0.097
-631.536	-77.785	-0.278	-0.097
-630.522	-48.378	0.333	-0.161
-629.507	-112.145	0.338	-0.068
-628.492	67.987	0.068	-0.070
-627.478	-200.000	0.002	0.171
-626.463	-75.452	0.296	-0.106
-625.449	-200.000	-0.026	-0.124
-624.434	-95.578	-0.052	-0.014
-623.419	-200.000	0.004	-0.023
-622.405	-138.943	-0.297	-0.032
-621.390	-173.650	0.326	-0.010
-620.376	-200.000	-0.015	0.069
-619.361	-183.565	-0.060	0.001
-618.346	173.807	0.246	0.356
-617.332	-62.929	-0.305	0.127
-616.317	-160.923	-0.111	-0.006
-615.303	-200.000	-0.023	-0.197
-614.288	-150.189	0.176	0.014
-613.273	4.251	-0.192	-0.141
-612.259	-120.329	-0.164	-0.028
-611.244	800.000	0.101	-0.303
-610.230	-57.452	0.160	-0.071
-609.215	64.838	-0.164	0.166
-608.201	-102.341	-0.107	-0.026
-607.186	-22.168	0.114	-0.069
-606.171	-200.000	0.012	-0.129
-605.157	-9.259	-0.134	-0.090
-604.142	27.633	-0.095	-0.080
-603.128	-200.000	-0.053	-0.382
-602.113	354.884	0.032	0.063
-601.098	-93.394	0.327	-0.091
-600.084	-200.000	0.046	-0.300
-599.069	719.595	0.078	0.208
-598.055	282.004	-0.051	0.091
-597.040	800.000	-0.050	-0.163
-596.025	-200.000	-0.025	0.135
-595.011	39.244	0.094	-0.084
-593.996	50.999	0.107	-0.102
-592.982	71.326	0.104	-0.108
-591.967	43.866	0.125	0.115
-590.952	-57.152	-0.120	0.053
-589.938	510.249	-0.149	0.347
-588.923	-200.000	-0.005	-0.143
-587.909	57.888	-0.305	-0.300
-586.894	473.629	0.122	-0.276
-585.879	-161.451	0.423	0.022
-584.865	-17.604	0.346	0.218
-583.850	-200.000	0.069	-0.330
-582.836	-96.905	0.165	-0.043
-581.821	-105.405	0.396	-0.090
-580.806	-107.788	-0.137	0.030
-579.792	-23.038	0.090	0.054
-578.777	-31.407	0.148	-0.083
-577.763	-0.064	-0.303	-0.216
-576.748	800.000	0.060	-0.204
-575.733	-163.882	-0.490	0.023
-574.719	-26.973	-0.028	0.016
-573.704	-200.000	-0.051	-0.423
-572.690	-54.388	0.153	-0.069
-571.675	-79.457	0.397	0.135
-570.661	-200.000	-0.047	-0.292
-569.646	800.000	0.040	0.124
-568.631	-145.554	0.279	-0.025
-567.617	-25.751	0.315	0.186
-566.602	-200.000	-0.005	-0.030
-565.588	12.555	-0.181	-0.140
-564.573	-74.027	-0.272	-0.099
-563.558	-75.698	0.281	0.100
-562.544	-3.401	0.069	-0.048
-561.529	-92.880	0.103	-0.029
-560.515	27.565	-0.157	-0.133
-559.500	-0.906	-0.090	0.064
-558.485	60.352	-0.292	-0.290
-557.471	800.000	-0.106	0.346
-556.456	102.648	-0.082	0.096
-555.442	-100.670	0.236	-0.058
-554.427	800.000	-0.004	-0.015
-553.412	-200.000	0.053	0.333
-552.398	591.293	0.149	0.369
-551.383	-21.973	-0.362	-0.221
-550.369	800.000	-0.049	0.188
-549.354	152.748	-0.095	0.130
-548.339	-132.864	-0.209	-0.027
-547.325	-53.641	-0.237	0.108
-546.310	800.000	0.047	0.188
-545.296	-35.822	0.111	0.060
-544.281	-97.262	-0.180	-0.047
-543.266	-97.301	0.322	-0.084
-542.252	800.000	-0.077	-0.228
-541.237	81.189	-0.227	-0.246
-540.223	-56.238	-0.336	-0.150
-539.208	201.458	-0.115	-0.177
-538.193	-24.260	0.305	-0.182
-537.179	-53.321	-0.240	-0.110
-536.164	-106.901	0.150	0.033
-535.150	14.418	0.127	-0.099
-534.135	23.531	0.132	-0.108
-533.121	-1.368	-0.202	0.143
-532.106	94.522	-0.121	-0.137
-531.091	-45.585	0.095	-0.047
-530.077	-59.381	-0.431	0.185
-529.062	87.812	-0.175	0.194
-528.048	-18.455	-0.176	0.110
-527.033	192.060	0.116	0.176
-526.018	180.705	-0.056	0.082
-525.004	-200.000	-0.015	-0.143
-523.989	109.642	-0.050	0.060
-522.975	800.000	-0.055	0.208
-521.960	760.687	-0.109	0.295
-520.945	62.756	-0.014	0.014
-519.931	380.169	-0.052	-0.106
-518.916	-115.405	-0.262	-0.050
-517.902	-200.000	-0.079	-0.446
-516.887	160.041	-0.062	0.087
-515.872	80.301	-0.048	-0.052
-514.858	-181.285	-0.244	-0.005
-513.843	9.753	0.239	-0.182
-512.829	-200.000	-0.028	-0.291
-511.814	-200.000	0.053	-0.386
-510.799	-43.957	-0.291	-0.146
-509.785	88.176	-0.171	-0.190
-508.770	63.959	-0.131	-0.132
-507.756	55.561	-0.061	0.059
-506.741	-129.993	0.197	0.027
-505.726	461.117	-0.076	0.169
-504.712	108.627	-0.105	0.126
-503.697	443.492	-0.059	0.129
-502.683	-184.968	-0.231	-0.004
-501.668	-104.998	-0.099	0.023
-500.653	-200.000	0.055	-0.281
-499.639	-84.324	0.382	-0.121
-498.624	407.121	-0.043	0.091
-497.610	-200.000	0.020	0.149
-496.595	34.647	-0.207	0.181
-495.581	800.000	0.106	0.453
-494.566	540.796	-0.109	-0.259
-493.551	304.616	-0.034	0.063
-492.537	-200.000	-0.005	-0.032
-491.522	304.428	-0.087	0.161
-490.508	-81.805	-0.083	-0.027
-489.493	15.088	0.346	0.271
-488.478	48.164	0.021	-0.019
-487.464	-200.000	0.015	0.266
-486.449	-163.904	0.243	0.011
-485.435	21.924	-0.028	-0.023
-484.420	-24.796	0.246	-0.146
-483.405	127.259	-0.107	0.136
-482.391	-200.000	0.065	0.542
-481.376	-118.275	-0.268	0.048
-480.362	-102.768	0.295	0.070
-479.347	-129.731	-0.211	-0.029
-478.332	-200.000	0.002	0.083
-477.318	135.126	0.220	0.286
-476.303	-66.643	0.270	-0.107
-475.289	800.000	0.039	0.169
-474.274	99.627	-0.209	0.242
-473.259	122.310	0.176	0.220
-472.245	-188.697	0.320	0.004
-471.230	560.219	0.071	-0.172
-470.216	-200.000	0.055	0.362
-469.201	-131.913	0.201	-0.026
-468.186	19.230	-0.253	0.203
-467.172	800.000	-0.098	-0.331
-466.157	111.413	0.233	0.281
-465.143	-117.707	-0.159	-0.029
-464.128	-200.000	-0.015	0.082
-463.113	-114.207	-0.125	-0.024
-462.099	15.884	-0.143	-0.113
-461.084	-38.852	-0.091	0.048
-460.070	800.000	0.065	-0.209
-459.055	581.172	0.048	-0.118
-458.040	-33.065	0.259	-0.143
-457.026	-200.000	-0.033	-0.203
-456.011	-52.255	-0.311	-0.144
-454.997	29.506	-0.279	-0.237
-453.982	-200.000	-0.022	-0.246
-452.968	-200.000	0.009	-0.204
-451.953	397.551	-0.003	-0.006
-450.938	88.026	-0.324	0.358
-449.924	217.148	0.134	0.214
-448.909	186.768	0.100	0.149
-447.895	800.000	0.059	0.251
-446.880	-200.000	0.002	-0.265
-445.865	233.200	0.140	-0.230
-444.851	-200.000	-0.027	-0.317
-443.836	-123.760	0.170	0.027
-442.822	-68.938	0.083	-0.032
-441.807	-166.337	0.072	0.003
-440.792	-70.911	-0.187	-0.070
-439.778	135.827	0.200	0.260
-438.763	-48.266	-0.209	0.100
-437.749	200.141	-0.160	-0.245
-436.734	-4.071	0.239	0.165
-435.719	117.070	-0.150	0.183
-434.705	-200.000	0.011	0.119
-433.690	97.457	-0.231	-0.264
-432.676	-148.458	0.133	0.011
-431.661	-200.000	0.015	0.458
-430.646	74.400	-0.059	0.062
-429.632	748.248	0.050	-0.134
-428.617	93.427	-0.124	-0.139
-427.603	-154.552	-0.356	0.024
-426.588	-200.000	0.028	-0.198
-425.573	-188.055	-0.215	-0.003
-424.559	-15.265	-0.369	-0.235
-423.544	800.000	-0.037	-0.104
-422.530	-104.147	-0.233	0.054
-421.515	-200.000	-0.081	0.000
-420.500	-9.535	-0.146	-0.097
-419.486	800.000	-0.082	0.356
-418.471	326.593	0.071	0.135
-417.457	58.591	0.057	0.055
-416.442	800.000	0.079	-0.295
-415.428	-200.000	0.042	-0.303
-414.413	132.198	-0.204	0.262
-413.398	-200.000	-0.029	0.243
-412.384	-163.009	0.154	0.007
-411.369	-146.967	-0.235	0.020
-410.355	155.766	0.040	0.055
-409.340	407.597	0.143	-0.301
-408.325	197.743	-0.034	-0.052
-407.311	-200.000	-0.029	-0.352
-406.296	-102.131	-0.103	-0.025
-405.282	-21.119	-0.327	-0.199
-404.267	-177.650	0.246	0.006
-403.252	222.956	0.186	0.298
-402.238	-92.031	0.181	-0.051
-401.223	-200.000	-0.019	0.343
-400.209	-141.394	0.187	-0.019
-399.194	527.651	-0.090	-0.212
-398.179	30.136	0.144	-0.123
-397.165	21.600	-0.141	0.114
-396.150	29.058	0.114	0.096
-395.136	-200.000	-0.007	-0.067
-394.121	-200.000	-0.004	-0.182
-393.106	800.000	0.061	-0.203
-392.092	-20.672	0.231	0.142
-391.077	167.626	-0.222	-0.314
-390.063	-70.229	-0.309	-0.117
-389.048	-34.316	0.143	-0.078
-388.033	619.257	0.068	-0.171
-387.019	153.142	0.055	-0.075
-386.004	25.404	-0.163	-0.135
-384.990	-34.759	-0.247	-0.134
-383.975	-200.000	-0.006	-0.039
-382.960	-12.143	-0.155	-0.101
-381.946	201.927	0.231	0.355
-380.931	185.600	0.048	0.071
-379.917	-89.667	-0.347	0.101
-378.902	33.774	-0.132	0.114
-377.888	-42.348	-0.280	0.142
-376.873	800.000	-0.081	-0.232
-375.858	-200.000	0.009	-0.097
-374.844	-133.590	0.306	-0.038
-373.829	-200.000	-0.045	-0.229
-372.815	-200.000	0.016	0.198
-371.800	800.000	-0.030	0.113
-370.785	-177.761	0.344	-0.008
-369.771	-142.643	0.208	0.020
-368.756	-80.371	-0.286	0.095
-367.742	116.359	-0.234	-0.285
-366.727	-200.000	0.054	-0.274
-365.712	-63.132	0.216	-0.088
-364.698	-93.853	0.333	-0.091
-363.683	-132.096	0.150	-0.019
-362.669	304.141	-0.103	0.190
-361.654	663.601	-0.084	0.215
-360.639	198.222	-0.074	-0.113
-359.625	74.746	-0.191	-0.200
-358.610	-117.478	0.226	0.041
-357.596	-27.259	-0.137	-0.079
-356.581	800.000	-0.045	0.167
-355.566	800.000	-0.117	0.386
-354.552	5.655	0.162	0.119
-353.537	-61.452	-0.277	-0.116
-352.523	405.239	0.010	0.020
-351.508	-200.000	-0.002	0.353
-350.493	58.498	0.141	0.138
-349.479	-49.236	0.160	-0.076
-348.464	-62.952	-0.186	-0.077
-347.450	223.610	0.133	-0.214
-346.435	-47.170	-0.253	0.123
-345.420	-37.476	-0.162	0.086
-344.406	800.000	-0.064	0.240
-343.391	-200.000	0.067	-0.453
-342.377	-89.910	-0.200	0.058
-341.362	31.651	0.076	0.065
-340.348	-62.183	-0.111	0.046
-339.333	269.717	-0.074	-0.129
-338.318	163.747	0.131	0.183
-337.304	296.124	-0.087	0.158
-336.289	-200.000	0.048	-0.241
-335.275	-200.000	-0.037	0.335
-334.260	-66.956	-0.250	0.098
-333.245	14.670	0.104	0.081
-332.231	53.012	-0.072	0.069
-331.216	524.048	-0.102	-0.238
-330.202	165.229	0.142	0.199
-329.187	-200.000	0.041	-0.309
-328.172	-90.967	-0.313	-0.089
-327.158	402.255	-0.082	0.170
-326.143	186.583	-0.078	-0.115
-325.129	657.729	-0.064	-0.163
-324.114	-63.169	-0.247	-0.101
-323.099	-200.000	0.093	0.468
-322.085	37.053	-0.093	0.082
-321.070	-200.000	-0.023	-0.114
-320.056	3.465	0.233	-0.169
-319.041	14.854	-0.249	-0.194
-318.026	-73.628	0.024	0.009
-317.012	800.000	-0.067	0.289
-315.997	752.326	-0.105	0.282
-314.983	-200.000	0.033	-0.225
-313.968	4.409	-0.131	-0.095
-312.953	65.783	-0.124	0.125
-311.939	280.601	-0.187	0.331
-310.924	-200.000	-0.041	0.403
-309.910	48.820	0.080	0.075
-308.895	800.000	0.039	0.132
-307.880	-46.236	0.345	-0.169
-306.866	-80.046	0.392	-0.131
-305.851	-151.675	-0.253	0.018
-304.837	494.460	-0.039	0.089
-303.822	-98.320	0.201	0.051
-302.807	478.358	-0.118	-0.265
-301.793	-111.727	0.408	-0.082
-300.778	253.383	-0.045	-0.076
-299.764	-66.021	0.157	-0.062
-298.749	-71.610	-0.384	0.142
-297.735	144.716	-0.119	0.158
-296.720	-54.376	0.200	-0.090
-295.705	-64.843	0.250	0.100
-294.691	737.129	0.110	0.291
-293.676	570.244	0.025	-0.060
-292.662	-156.676	0.223	0.014
-291.647	-44.319	-0.229	-0.114
-290.632	-200.000	-0.002	0.363
-289.618	723.856	-0.049	0.130
-288.603	-84.808	-0.103	0.032
-287.589	-115.739	0.072	0.013
-286.574	159.124	0.158	0.218
-285.559	-200.000	-0.008	0.356
-284.545	-15.409	0.059	-0.037
-283.530	-99.195	-0.083	0.021
-282.516	-45.608	0.312	0.153
-281.501	-65.910	0.522	-0.207
-280.486	-200.000	0.043	-0.266
-279.472	-143.186	0.138	-0.013
-278.457	91.753	-0.133	0.148
-277.443	76.615	0.084	-0.088
-276.428	431.761	0.112	0.241
-275.413	110.041	0.122	0.145
-274.399	228.389	0.192	0.310
-273.384	31.669	0.208	0.177
-272.370	-96.265	0.041	0.011
-271.355	-69.993	-0.121	0.046
-270.340	-78.263	-0.290	0.099
-269.326	-200.000	0.040	-0.337
-268.311	-200.000	-0.025	0.114
-267.297	-47.481	-0.175	-0.084
-266.282	-200.000	-0.029	0.321
-265.267	-10.477	-0.079	-0.052
-264.253	-43.205	0.265	0.133
-263.238	-54.242	-0.135	-0.061
-262.224	-200.000	0.003	-0.039
-261.209	-162.315	-0.191	0.009
-260.195	247.794	-0.084	0.141
-259.180	-97.039	-0.078	0.020
-258.165	-200.000	-0.023	0.129
-257.151	170.104	-0.075	0.107
-256.136	-88.011	0.260	0.077
-255.122	-200.000	-0.047	0.315
-254.107	779.370	-0.086	0.233
-253.092	-28.049	-0.166	0.095
-252.078	162.968	0.038	-0.052
-251.063	212.524	-0.038	0.059
-250.049	-200.000	0.066	0.376
-249.034	-200.000	0.037	0.216
-248.019	215.567	0.095	0.149
-247.005	-200.000	0.019	0.098
-245.990	144.292	0.056	-0.074
-244.976	-83.381	0.216	0.069
-243.961	-200.000	0.024	-0.243
-242.946	86.916	-0.119	0.131
-241.932	40.187	-0.101	-0.090
-240.917	-117.163	0.380	-0.069
-239.903	16.377	0.245	-0.192
-238.888	214.030	0.107	-0.167
-237.873	119.458	-0.036	0.044
-236.859	112.246	-0.099	0.118
-235.844	12.746	0.091	-0.070
-234.830	-200.000	0.017	-0.274
-233.815	-137.652	0.115	-0.013
-232.800	-200.000	0.032	-0.287
-231.786	531.670	0.065	-0.153
-230.771	60.180	-0.220	-0.215
-229.757	86.403	0.108	0.118
-228.742	-200.000	-0.014	-0.117
-227.727	800.000	-0.013	-0.039
-226.713	-200.000	-0.001	-0.287
-225.698	-1.113	-0.038	0.027
-224.684	-200.000	0.017	0.082
-223.669	-24.874	-0.072	0.042
-222.655	-170.565	-0.184	-0.006
-221.640	-1.984	0.111	0.077
-220.625	-83.794	0.264	-0.083
-219.611	648.080	0.051	0.128
-218.596	-200.000	0.054	0.275
-217.582	-51.675	-0.110	0.051
-216.567	-87.918	0.273	0.081
-215.552	-11.472	0.237	-0.154
-214.538	-126.632	-0.149	0.022
-213.523	-110.757	0.325	0.066
-212.509	-21.654	0.172	-0.104
-211.494	-200.000	0.056	0.375
-210.479	-200.000	-0.030	0.274
-209.465	33.559	0.116	0.100
-208.450	-137.868	0.120	-0.013
-207.436	-67.929	0.128	-0.049
-206.421	800.000	0.095	-0.315
-205.406	-200.000	0.025	-0.132
-204.392	549.362	0.112	-0.265
-203.377	447.598	-0.138	-0.300
-202.363	58.092	0.333	-0.322
-201.348	800.000	0.092	0.325
-200.333	800.000	0.027	0.097
-199.319	399.901	0.091	-0.188
-198.304	-84.863	-0.118	-0.037
-197.290	800.000	-0.073	0.281
-196.275	-200.000	0.051	0.000
-195.260	-118.957	0.282	-0.049
-194.246	-91.986	-0.292	-0.082
-193.231	800.000	-0.025	-0.072
-192.217	1.264	0.336	-0.239
-191.202	-24.943	0.272	-0.160
-190.187	-158.344	-0.332	-0.019
-189.173	-200.000	-0.043	-0.205
-188.158	380.413	0.042	0.084
-187.144	176.333	0.053	-0.076
-186.129	-0.203	-0.297	-0.208
-185.114	39.181	0.175	0.155
-184.100	-182.499	-0.339	0.006
-183.085	-200.000	0.029	-0.416
-182.071	143.087	-0.043	-0.056
-181.056	-200.000	0.059	-0.393
-180.042	-34.350	-0.156	-0.085
-179.027	-50.782	0.140	0.065
-178.012	5.155	0.328	0.239
-176.998	4.476	-0.095	-0.069
-175.983	-120.443	-0.345	0.058
-174.969	-200.000	-0.058	0.405
-173.954	-51.906	0.207	0.095
-172.939	-26.463	-0.184	0.106
-171.925	-155.904	0.299	0.019
-170.910	765.471	-0.073	0.196
-169.896	-36.202	0.173	-0.092
-168.881	100.216	-0.162	0.185
-167.866	800.000	-0.055	-0.167
-166.852	-46.131	0.139	-0.068
-165.837	-48.411	0.038	0.018
-164.823	-190.043	-0.162	0.002
-163.808	187.225	-0.082	-0.120
-162.793	-21.611	-0.198	0.119
-161.779	69.358	0.151	0.154
-160.764	-96.653	0.175	-0.045
-159.750	52.807	-0.115	0.109
-158.735	-80.938	-0.207	-0.068
-157.720	496.130	0.037	0.084
-156.706	-200.000	0.022	-0.148
-155.691	13.567	0.199	-0.153
-154.677	-32.720	-0.302	-0.166
-153.662	23.274	0.283	0.229
-152.647	-15.295	0.082	0.052
-151.633	-38.575	-0.128	-0.067
-150.618	776.966	-0.194	-0.522
-149.604	-46.160	0.369	-0.179
-148.589	-139.214	0.126	-0.013
-147.574	-200.000	0.054	-0.282
-146.560	-7.482	0.354	0.236
-145.545	-172.889	0.259	0.008
-144.531	-156.613	0.194	0.012
-143.516	238.358	-0.100	-0.164
-142.502	-82.056	-0.073	0.024
-141.487	800.000	-0.053	0.184
-140.472	-114.408	0.088	0.017
-139.458	158.037	-0.114	-0.156
-138.443	-200.000	0.232	0.000
-137.429	-200.000	-0.026	0.167
-136.414	164.166	0.164	0.227
-135.399	-200.000	-0.051	-0.413
-134.385	-7.005	0.050	-0.033
-133.370	-200.000	0.036	0.162
-132.356	-106.344	0.123	0.027
-131.341	-111.971	-0.263	0.052
-130.326	-85.581	0.302	0.093
-129.312	144.536	-0.143	-0.188
-128.297	-110.599	0.323	0.066
-127.283	3.126	-0.200	-0.143
-126.268	215.458	-0.149	0.233
-125.253	434.607	-0.082	-0.177
-124.239	800.000	0.033	0.093
-123.224	-148.373	0.227	0.018
-122.210	-200.000	0.016	-0.174
