DTS Sentinel unit serial number:	SN413079Multiplexer serial number:	ORYXHardware model number:	OX4-SRSoftware version number:	ORYX F/W v4.00 Oryx Data Collector v3.7.2.0data status	okinstallation	princeton_trtdifferential loss correction	single-endedforward channel	channel 1reverse channel	N/Adate	2019/09/12time	17:08:11forward acquisition time	60.00reverse acquisition time	0.00gamma	496.2192k internal	0.2313k external	0.2313temperature offset calibration	1.0099default loss term (dB/km)	0.3790temperature slope calibration	1.0000multiplexer offset coefficient	1.0000multiplexer slope coefficient	1.0000fibre end	0.00T internal ref (°C)	35.41T ext. ref 1 (°C)	2.82T ext. ref 2 (°C)	28.78length (m)	temperature (°C)	Stokes	anti-Stokes-747.200	800.000	-0.026	-0.097
-746.185	143.115	0.109	-0.147
-745.171	15.093	0.274	0.218
-744.156	-200.000	-0.008	0.253
-743.142	-56.238	0.108	-0.049
-742.127	799.645	-0.121	0.340
-741.112	276.977	-0.141	0.255
-740.098	-200.000	-0.001	0.108
-739.083	800.000	0.014	0.042
-738.069	-41.773	0.198	0.103
-737.054	800.000	-0.040	0.115
-736.039	177.333	-0.239	0.352
-735.025	-47.885	0.187	-0.092
-734.010	-200.000	-0.009	-0.110
-732.996	-200.000	-0.015	-0.241
-731.981	-200.000	0.024	-0.420
-730.966	-43.765	-0.020	0.010
-729.952	11.034	-0.269	0.209
-728.937	-88.278	0.182	-0.055
-727.923	-108.913	-0.393	-0.085
-726.908	-165.278	-0.261	-0.012
-725.894	130.095	0.253	-0.329
-724.879	140.716	-0.123	0.165
-723.864	-145.699	-0.219	0.020
-722.850	-152.973	-0.342	0.024
-721.835	35.687	0.091	-0.081
-720.821	-124.433	-0.179	-0.028
-719.806	84.754	-0.321	-0.356
-718.791	800.000	-0.054	0.173
-717.777	74.207	0.111	-0.118
-716.762	-79.359	0.074	0.025
-715.748	137.383	-0.056	-0.074
-714.733	194.368	0.064	-0.098
-713.718	800.000	0.052	0.188
-712.704	339.450	0.067	0.133
-711.689	-34.644	-0.140	-0.078
-710.675	-200.000	0.000	0.063
-709.660	-136.524	-0.173	0.020
-708.645	282.395	0.220	-0.399
-707.631	138.870	0.117	-0.156
-706.616	-152.189	0.357	0.026
-705.602	76.682	-0.142	0.153
-704.587	-200.000	-0.049	-0.259
-703.572	800.000	-0.041	-0.127
-702.558	-200.000	0.008	-0.106
-701.543	193.008	-0.086	0.132
-700.529	180.743	0.051	-0.077
-699.514	-200.000	0.067	0.304
-698.499	-200.000	-0.058	0.346
-697.485	-147.195	0.127	-0.011
-696.470	-200.000	0.200	-0.001
-695.456	145.341	0.053	0.072
-694.441	34.269	-0.177	-0.156
-693.426	-100.620	-0.263	0.066
-692.412	-200.000	-0.007	0.220
-691.397	4.978	-0.184	0.137
-690.383	-200.000	0.020	0.203
-689.368	-57.609	0.307	0.136
-688.354	800.000	0.072	0.232
-687.339	-81.491	0.243	-0.081
-686.324	-200.000	-0.023	-0.352
-685.310	-200.000	0.009	-0.200
-684.295	-200.000	-0.030	0.242
-683.281	-122.305	-0.267	-0.044
-682.266	-200.000	0.014	-0.153
-681.251	208.294	0.075	0.118
-680.237	-200.000	0.033	0.156
-679.222	-45.729	-0.234	-0.117
-678.208	-77.538	0.064	0.022
-677.193	-178.048	0.304	0.007
-676.178	800.000	-0.117	-0.357
-675.164	800.000	0.056	-0.192
-674.149	-162.592	0.044	0.002
-673.135	55.219	-0.231	-0.226
-672.120	52.608	-0.211	-0.204
-671.105	72.635	-0.230	-0.243
-670.091	329.274	0.077	-0.150
-669.076	477.243	0.064	0.147
-668.062	-19.497	0.299	0.187
-667.047	-63.139	0.388	0.162
-666.032	-200.000	0.001	-0.048
-665.018	800.000	-0.047	0.185
-664.003	117.215	-0.176	-0.219
-662.989	680.972	-0.038	0.101
-661.974	-146.600	-0.278	0.024
-660.959	-200.000	0.005	0.140
-659.945	-60.842	-0.179	0.077
-658.930	298.202	0.076	0.142
-657.916	-82.369	0.283	-0.093
-656.901	520.464	-0.170	-0.404
-655.886	-164.669	-0.187	0.009
-654.872	15.479	0.175	-0.139
-653.857	-14.444	-0.323	-0.210
-652.843	198.370	-0.242	0.374
-651.828	800.000	0.084	-0.289
-650.814	-75.284	-0.213	0.077
-649.799	-51.470	0.145	0.068
-648.784	-71.596	-0.242	0.092
-647.770	-200.000	0.095	0.470
-646.755	-5.869	0.349	-0.242
-645.741	-87.533	-0.349	0.107
-644.726	-30.802	-0.155	-0.088
-643.711	-68.426	0.131	-0.051
-642.697	294.737	0.088	0.164
-641.682	-136.890	0.368	0.043
-640.668	173.729	0.131	-0.190
-639.653	426.557	-0.083	-0.181
-638.638	319.302	-0.120	-0.230
-637.624	-84.872	0.350	-0.111
-636.609	-200.000	0.002	-0.022
-635.595	-156.807	-0.211	-0.013
-634.580	-56.884	0.261	-0.117
-633.565	-51.080	-0.466	-0.221
-632.551	-134.913	-0.101	0.012
-631.536	158.975	-0.055	-0.077
-630.522	-200.000	-0.015	-0.143
-629.507	-164.685	0.161	-0.007
-628.492	413.173	-0.119	-0.255
-627.478	173.224	-0.099	0.144
-626.463	4.950	-0.265	-0.197
-625.449	800.000	-0.120	-0.467
-624.434	-90.636	-0.415	-0.121
-623.419	-83.175	-0.162	-0.053
-622.405	800.000	-0.020	-0.060
-621.390	-130.830	0.379	0.051
-620.376	-200.000	0.010	0.098
-619.361	168.761	-0.195	-0.281
-618.346	106.280	-0.223	-0.267
-617.332	4.001	-0.106	-0.078
-616.317	-36.836	-0.142	0.077
-615.303	-200.000	-0.034	-0.396
-614.288	43.214	-0.219	0.202
-613.273	70.066	0.227	-0.237
-612.259	-115.873	-0.269	-0.051
-611.244	-109.992	-0.336	0.071
-610.230	8.243	0.036	0.027
-609.215	-200.000	-0.020	0.163
-608.201	123.155	-0.130	-0.165
-607.186	29.065	0.200	0.171
-606.171	-200.000	0.064	0.383
-605.157	7.266	0.193	0.145
-604.142	-200.000	-0.024	-0.126
-603.128	297.312	0.028	0.051
-602.113	-114.668	0.226	0.044
-601.098	492.002	0.156	0.359
-600.084	-33.545	-0.301	-0.168
-599.069	393.368	0.078	-0.164
-598.055	8.884	0.238	0.181
-597.040	97.809	0.152	-0.176
-596.025	-77.434	0.138	0.048
-595.011	-84.112	0.470	0.150
-593.996	392.546	-0.122	-0.257
-592.982	218.123	-0.135	0.218
-591.967	-62.905	-0.127	0.053
-590.952	-81.238	0.065	-0.022
-589.938	-1.452	-0.208	-0.148
-588.923	-65.720	0.491	-0.198
-587.909	-96.197	-0.370	-0.099
-586.894	358.412	-0.174	0.351
-585.879	-66.130	0.123	0.049
-584.865	-121.573	-0.193	0.032
-583.850	-200.000	-0.004	-0.064
-582.836	-1.058	-0.095	-0.068
-581.821	-200.000	-0.001	0.129
-580.806	-108.109	-0.190	0.042
-579.792	93.144	-0.022	-0.025
-578.777	301.713	-0.099	0.184
-577.763	-119.353	-0.198	0.035
-576.748	-200.000	-0.028	-0.177
-575.733	18.146	0.187	0.150
-574.719	48.691	-0.111	-0.105
-573.704	-104.857	-0.376	0.087
-572.690	293.181	-0.072	0.132
-571.675	-200.000	0.045	-0.238
-570.661	-200.000	-0.010	0.230
-569.646	57.643	0.136	0.134
-568.631	-200.000	-0.009	-0.348
-567.617	-58.242	0.109	-0.048
-566.602	-200.000	0.011	0.068
-565.588	98.096	-0.112	0.130
-564.573	-51.668	0.129	-0.061
-563.558	-56.587	0.054	-0.024
-562.544	-200.000	0.040	-0.401
-561.529	-80.646	0.044	0.015
-560.515	113.230	-0.283	-0.346
-559.500	-60.360	-0.162	0.069
-558.485	-9.764	-0.089	-0.060
-557.471	204.051	-0.098	-0.152
-556.456	-126.685	-0.327	0.049
-555.442	425.857	0.082	-0.178
-554.427	800.000	0.050	-0.194
-553.412	800.000	0.049	0.160
-552.398	-200.000	0.002	0.076
-551.383	-121.696	-0.264	0.044
-550.369	64.030	0.120	0.121
-549.354	195.850	0.151	0.231
-548.339	-102.976	-0.230	-0.055
-547.325	-101.909	-0.131	-0.032
-546.310	-62.572	-0.119	0.050
-545.296	-52.612	0.229	0.106
-544.281	-200.000	-0.022	-0.183
-543.266	194.903	-0.055	-0.085
-542.252	32.843	-0.170	0.148
-541.237	-200.000	-0.008	0.041
-540.223	-37.641	0.179	-0.096
-539.208	-200.000	-0.027	-0.132
-538.193	800.000	-0.108	-0.360
-537.179	124.297	0.174	-0.220
-536.164	257.163	0.077	-0.134
-535.150	-27.511	0.331	-0.193
-534.135	59.173	0.111	-0.110
-533.121	-200.000	0.001	-0.120
-532.106	-131.308	0.203	-0.027
-531.091	138.932	0.261	0.345
-530.077	146.856	-0.232	0.314
-529.062	275.462	0.096	-0.171
-528.048	-147.426	0.390	-0.033
-527.033	-40.879	0.260	0.135
-526.018	666.735	0.072	0.186
-525.004	-145.985	-0.169	0.015
-523.989	-164.632	-0.355	0.016
-522.975	-186.848	0.129	0.002
-521.960	217.229	-0.052	-0.083
-520.945	-115.504	0.480	0.091
-519.931	337.866	0.144	-0.281
-518.916	800.000	0.066	0.205
-517.902	-200.000	0.056	-0.256
-516.887	74.512	0.236	-0.250
-515.872	-30.819	0.203	-0.115
-514.858	105.271	-0.135	0.160
-513.843	75.090	0.185	0.196
-512.829	44.330	0.219	0.202
-511.814	-101.689	-0.214	0.052
-510.799	112.221	0.269	0.327
-509.785	582.272	-0.034	-0.083
-508.770	58.340	0.205	0.202
-507.756	166.093	-0.143	0.203
-506.741	326.883	-0.108	0.208
-505.726	-68.815	0.075	0.029
-504.712	-157.875	0.279	-0.017
-503.697	514.488	-0.038	-0.088
-502.683	18.051	-0.026	-0.020
-501.668	-143.326	-0.249	0.024
-500.653	-143.397	0.115	0.011
-499.639	28.270	0.227	-0.192
-498.624	-200.000	-0.043	0.233
-497.610	800.000	0.116	0.448
-496.595	-200.000	-0.008	-0.052
-495.581	-6.534	0.270	-0.185
-494.566	-77.118	0.142	-0.050
-493.551	-200.000	-0.030	-0.264
-492.537	66.691	-0.222	-0.227
-491.522	-141.854	0.212	0.021
-490.508	469.460	0.049	0.112
-489.493	800.000	-0.079	-0.246
-488.478	71.479	-0.167	0.175
-487.464	125.697	-0.204	0.259
-486.449	-173.136	0.206	-0.006
-485.435	158.237	-0.072	-0.100
-484.420	-81.317	0.172	-0.057
-483.405	86.538	-0.040	0.045
-482.391	-88.387	-0.193	-0.058
-481.376	-78.531	-0.480	0.165
-480.362	125.786	-0.204	0.259
-479.347	-167.149	0.307	-0.013
-478.332	-200.000	0.044	-0.279
-477.318	-6.903	-0.183	0.125
-476.303	82.089	0.265	0.289
-475.289	-200.000	0.053	0.288
-474.274	800.000	0.047	0.191
-473.259	-100.411	-0.174	-0.043
-472.245	-164.397	0.039	0.002
-471.230	-154.345	0.208	-0.014
-470.216	-200.000	-0.019	-0.230
-469.201	-75.555	0.178	0.063
-468.186	417.448	-0.053	0.114
-467.172	-21.203	0.315	0.193
-466.157	-200.000	-0.015	-0.105
-465.143	653.545	0.060	-0.155
-464.128	-200.000	-0.024	0.130
-463.113	-57.924	-0.083	-0.036
-462.099	-200.000	0.018	-0.145
-461.084	-66.707	-0.393	0.156
-460.070	-82.032	-0.230	0.075
-459.055	87.889	0.065	-0.072
-458.040	-200.000	0.050	0.268
-457.026	-120.332	0.137	-0.023
-456.011	259.901	-0.114	-0.197
-454.997	-91.409	-0.128	0.037
-453.982	-51.580	0.087	-0.041
-452.968	597.409	0.185	-0.460
-451.953	-1.368	0.212	-0.150
-450.938	-200.000	-0.046	0.207
-449.924	800.000	-0.049	0.180
-448.909	-129.208	-0.114	-0.016
-447.895	-137.776	0.453	-0.051
-446.880	-3.504	-0.223	-0.156
-445.865	-52.300	-0.041	0.019
-444.851	-49.271	-0.186	0.089
-443.836	-45.027	-0.042	0.021
-442.822	800.000	0.057	0.164
-441.807	50.280	-0.335	-0.317
-440.792	102.018	0.260	0.304
-439.778	-109.696	-0.249	-0.053
-438.763	-0.276	0.112	-0.080
-437.749	650.537	0.124	0.317
-436.734	41.397	-0.231	0.209
-435.719	68.684	0.302	-0.311
-434.705	-28.414	-0.199	0.115
-433.690	-200.000	-0.010	0.207
-432.676	-27.111	0.076	-0.044
-431.661	516.434	0.067	0.156
-430.646	-200.000	0.019	0.162
-429.632	-101.214	-0.205	-0.050
-428.617	-200.000	-0.021	0.142
-427.603	12.026	0.034	0.026
-426.588	377.822	-0.051	-0.104
-425.573	-23.780	0.287	-0.172
-424.559	266.507	-0.056	-0.098
-423.544	355.995	0.032	-0.065
-422.530	27.297	-0.101	-0.085
-421.515	-66.324	0.136	-0.054
-420.500	782.542	0.077	-0.211
-419.486	360.138	0.137	0.274
-418.471	-110.410	-0.327	-0.068
-417.457	324.864	-0.164	-0.314
-416.442	9.487	-0.104	-0.079
-415.428	-112.236	-0.196	-0.039
-414.413	-39.582	0.207	0.109
-413.398	-200.000	0.018	-0.337
-412.384	-200.000	-0.013	0.125
-411.369	95.969	0.061	-0.069
-410.355	-200.000	-0.013	0.207
-409.340	-200.000	0.059	0.331
-408.325	586.521	0.033	0.081
-407.311	-200.000	-0.001	0.270
-406.296	-99.185	-0.153	-0.039
-405.282	23.704	0.229	-0.189
-404.267	276.587	-0.142	0.252
-403.252	-70.701	-0.107	0.040
-402.238	-100.947	-0.063	-0.015
-401.223	-109.512	0.175	0.037
-400.209	317.679	0.064	-0.121
-399.194	22.074	-0.283	-0.231
-398.179	168.355	0.161	-0.229
-397.165	-200.000	-0.005	-0.136
-396.150	27.406	-0.116	0.097
-395.136	-67.617	0.064	0.025
-394.121	-136.138	-0.150	-0.018
-393.106	69.989	0.141	-0.146
-392.092	-0.205	-0.218	0.155
-391.077	442.163	0.098	0.214
-390.063	60.346	-0.322	0.319
-389.048	-200.000	-0.040	0.207
-388.033	-146.280	0.153	-0.013
-387.019	-133.939	-0.033	-0.004
-386.004	12.532	-0.172	-0.133
-384.990	-128.367	-0.175	-0.025
-383.975	-50.356	-0.076	0.036
-382.960	429.189	0.105	0.226
-381.946	-23.519	-0.186	0.112
-380.931	78.733	0.128	-0.136
-379.917	-200.000	-0.002	0.207
-378.902	-154.855	0.320	0.021
-377.888	-200.000	0.038	0.208
-376.873	-42.651	0.178	0.091
-375.858	784.536	-0.079	0.216
-374.844	800.000	-0.028	-0.089
-373.829	-200.000	-0.023	0.104
-372.815	-200.000	0.003	0.404
-371.800	-200.000	-0.018	-0.179
-370.785	-134.393	0.104	-0.013
-369.771	-108.302	0.154	-0.033
-368.756	-200.000	0.002	0.082
-367.742	-115.477	0.235	0.044
-366.727	334.569	0.050	0.097
-365.712	627.937	0.011	0.027
-364.698	-200.000	-0.025	-0.145
-363.683	570.764	-0.134	0.325
-362.669	106.634	0.014	-0.017
-361.654	-200.000	0.021	0.138
-360.639	261.672	-0.104	0.180
-359.625	633.750	0.029	-0.073
-358.610	800.000	-0.040	-0.126
-357.596	103.474	-0.090	-0.106
-356.581	-32.883	0.096	0.053
-355.566	-200.000	0.003	-0.194
-354.552	137.179	-0.100	-0.130
-353.537	-190.476	-0.242	0.003
-352.523	44.174	0.232	0.213
-351.508	20.850	0.239	-0.193
-350.493	552.545	0.076	-0.184
-349.479	-106.984	-0.100	-0.022
-348.464	786.578	0.051	-0.140
-347.450	-81.229	-0.131	0.043
-346.435	-135.539	-0.198	0.023
-345.420	-192.937	-0.127	0.001
-344.406	-84.357	-0.073	-0.023
-343.391	56.375	0.208	-0.202
-342.377	36.452	-0.267	-0.235
-341.362	-109.131	-0.176	-0.037
-340.348	229.707	0.113	-0.184
-339.333	589.846	0.024	-0.058
-338.318	-200.000	-0.047	-0.223
-337.304	-124.114	-0.177	-0.028
-336.289	-101.943	0.275	0.066
-335.275	-200.000	-0.019	-0.184
-334.260	-101.290	0.185	0.045
-333.245	800.000	0.098	-0.354
-332.231	370.999	0.072	-0.146
-331.216	135.764	0.123	0.160
-330.202	-54.007	-0.284	0.129
-329.187	800.000	-0.040	-0.120
-328.172	439.443	0.074	-0.160
-327.158	111.125	-0.250	0.300
-326.143	183.548	0.160	-0.236
-325.129	-103.767	0.120	-0.028
-324.114	-90.948	0.185	0.053
-323.099	-166.778	0.163	-0.007
-322.085	229.058	-0.215	-0.350
-321.070	-200.000	0.041	-0.189
-320.056	-165.688	0.155	0.007
-319.041	157.395	0.134	-0.185
-318.026	-200.000	-0.100	0.461
-317.012	-101.639	-0.204	-0.049
-315.997	288.700	0.067	0.121
-314.983	800.000	-0.031	0.112
-313.968	623.620	0.087	0.220
-312.953	31.255	-0.159	-0.136
-311.939	328.410	-0.065	0.124
-310.924	-110.869	0.421	0.086
-309.910	-146.397	0.258	0.022
-308.895	-105.478	0.053	-0.012
-307.880	-102.757	-0.345	0.082
-306.866	-89.538	-0.226	-0.066
-305.851	50.432	0.233	0.219
-304.837	-95.147	0.241	0.065
-303.822	209.894	0.199	0.311
-302.807	450.895	0.197	0.434
-301.793	-33.421	0.135	0.075
-300.778	-79.350	0.301	0.102
-299.764	-76.928	-0.262	-0.091
-298.749	592.957	0.033	0.081
-297.735	-84.080	-0.081	0.026
-296.720	-165.055	-0.162	-0.007
-295.705	498.107	-0.028	-0.064
-294.691	-157.602	0.057	0.003
-293.676	102.628	-0.176	0.206
-292.662	604.647	0.112	0.278
-291.647	202.341	-0.330	-0.508
-290.632	124.079	0.212	-0.265
-289.618	-143.048	-0.169	-0.016
-288.603	-23.270	0.354	-0.212
-287.589	-161.637	0.104	-0.005
-286.574	29.264	-0.137	0.116
-285.559	65.323	0.227	-0.228
-284.545	800.000	-0.143	0.565
-283.530	-200.000	0.069	0.337
-282.516	236.928	0.151	-0.250
-281.501	-200.000	-0.029	0.187
-280.486	-43.860	0.220	0.110
-279.472	-16.741	0.017	0.011
-278.457	413.674	0.176	-0.373
-277.443	-200.000	-0.005	-0.101
-276.428	-146.510	-0.155	-0.013
-275.413	-200.000	-0.017	0.112
-274.399	-31.863	0.177	0.099
-273.384	14.250	-0.203	-0.157
-272.370	800.000	-0.083	-0.302
-271.355	49.563	-0.328	0.307
-270.340	-200.000	-0.008	0.160
-269.326	-50.969	-0.113	0.053
-268.311	10.327	0.182	0.138
-267.297	69.615	-0.053	0.055
-266.282	-61.701	-0.271	-0.113
-265.267	505.190	0.062	-0.143
-264.253	-144.945	0.404	0.037
-263.238	63.252	0.081	-0.081
-262.224	-200.000	0.001	0.112
-261.209	-59.856	-0.371	-0.158
-260.195	-78.391	-0.303	0.103
-259.180	134.072	0.089	0.115
-258.165	-35.153	-0.085	-0.046
-257.151	-43.796	0.106	-0.053
-256.136	-73.165	0.256	0.094
-255.122	-87.615	-0.123	0.037
-254.107	-80.874	0.179	0.059
-253.092	374.927	-0.147	0.297
-252.078	443.081	0.079	-0.172
-251.063	-21.493	-0.159	0.097
-250.049	800.000	-0.173	-0.590
-249.034	156.333	0.183	-0.251
-248.019	-21.347	-0.146	0.089
-247.005	32.692	-0.272	0.234
-245.990	796.398	0.070	0.193
-244.976	-115.770	0.067	-0.012
-243.961	-200.000	-0.016	0.091
-242.946	-28.162	-0.133	0.077
-241.932	13.011	0.173	0.133
-240.917	-104.156	0.186	0.043
-239.903	449.281	0.051	0.113
-238.888	215.911	-0.069	0.109
-237.873	77.792	-0.059	-0.063
-236.859	158.308	0.162	0.224
-235.844	348.372	0.055	0.108
-234.830	-104.221	0.251	-0.058
-233.815	-46.897	0.214	0.104
-232.800	-200.000	0.045	0.233
-231.786	-128.780	-0.159	0.022
-230.771	800.000	-0.039	-0.146
-229.757	-200.000	-0.001	-0.048
-228.742	-38.294	-0.219	0.115
-227.727	124.863	-0.156	0.196
-226.713	-135.725	-0.259	0.030
-225.698	-149.386	0.232	-0.018
-224.684	-45.391	-0.395	-0.194
-223.669	21.833	0.281	-0.227
-222.655	-71.030	0.127	-0.048
-221.640	-62.411	-0.035	-0.014
-220.625	10.834	0.123	0.093
-219.611	124.013	0.227	-0.283
-218.596	-114.098	-0.358	0.069
-217.582	478.213	0.045	-0.102
-216.567	293.824	-0.071	0.129
-215.552	160.981	-0.145	-0.201
-214.538	-139.811	0.203	-0.021
-213.523	-200.000	-0.104	0.486
-212.509	265.965	-0.010	0.017
-211.494	800.000	-0.099	-0.315
-210.479	-200.000	0.019	-0.109
-209.465	800.000	0.029	0.114
-208.450	-69.842	-0.047	-0.018
-207.436	-200.000	-0.007	0.357
-206.421	-112.325	0.221	0.044
-205.406	661.841	0.076	-0.194
-204.392	286.358	-0.065	0.117
-203.377	-200.000	-0.018	0.300
-202.363	-117.242	-0.196	0.035
-201.348	-200.000	0.070	0.325
-200.333	-200.000	0.032	0.145
-199.319	61.939	-0.215	-0.213
-198.304	42.568	0.021	0.019
-197.290	-187.436	0.298	0.004
-196.275	-98.945	0.253	0.064
-195.260	125.689	0.192	0.241
-194.246	-200.000	0.051	-0.563
-193.231	-39.190	-0.378	-0.197
-192.217	231.929	0.019	-0.031
-191.202	-200.000	-0.012	-0.099
-190.187	800.000	-0.025	0.104
-189.173	83.847	0.101	-0.110
-188.158	-158.852	0.073	-0.004
-187.144	184.150	-0.080	0.117
-186.129	-200.000	0.001	-0.113
-185.114	207.669	-0.222	-0.344
-184.100	-34.311	0.293	-0.159
-183.085	138.856	0.115	-0.150
-182.071	-17.998	-0.197	-0.123
-181.056	168.957	0.079	0.112
-180.042	-35.319	-0.250	-0.135
-179.027	-200.000	0.038	0.402
-178.012	118.469	0.181	0.222
-176.998	800.000	-0.159	-0.485
-175.983	-50.285	-0.217	0.102
-174.969	-200.000	-0.049	0.249
-173.954	-200.000	-0.008	0.077
-172.939	-75.201	-0.079	0.028
-171.925	-63.846	-0.124	-0.050
-170.910	130.277	0.091	-0.115
-169.896	27.176	-0.261	-0.218
-168.881	-200.000	-0.001	-0.060
-167.866	-200.000	-0.029	0.128
-166.852	-24.172	-0.102	-0.060
-165.837	-200.000	-0.016	-0.152
-164.823	800.000	0.081	-0.253
-163.808	-200.000	-0.013	-0.178
-162.793	4.921	0.199	-0.145
-161.779	-97.777	0.193	0.049
-160.764	-200.000	-0.052	0.371
-159.750	-69.187	0.051	-0.019
-158.735	-93.576	0.039	0.011
-157.720	-59.884	0.048	-0.020
-156.706	-194.907	0.162	-0.001
-155.691	-200.000	0.045	-0.298
-154.677	-86.755	-0.255	-0.077
-153.662	-200.000	-0.022	-0.190
-152.647	66.428	-0.188	0.189
-151.633	-39.051	-0.290	-0.151
-150.618	-127.300	0.197	0.028
-149.604	-200.000	-0.044	0.518
-148.589	318.888	0.098	-0.185
-147.574	-40.345	0.197	0.101
-146.560	196.349	0.058	-0.088
-145.545	57.964	-0.145	-0.141
-144.531	-200.000	0.025	-0.278
-143.516	-152.176	0.106	0.008
-142.502	28.226	-0.073	0.061
-141.487	348.604	0.051	0.100
-140.472	-145.410	-0.095	-0.009
-139.458	-83.015	0.118	-0.038
-138.443	-89.230	0.159	-0.046
-137.429	98.630	-0.175	0.200
-136.414	-133.805	0.263	0.032
-135.399	75.561	0.260	0.271
-134.385	-28.337	-0.248	-0.142
-133.370	800.000	0.075	0.207
-132.356	-127.103	0.191	-0.028
-131.341	36.218	-0.045	-0.039
-130.326	-142.315	-0.142	-0.014
-129.312	22.208	0.214	-0.173
-128.297	-200.000	0.054	-0.418
-127.283	-20.252	0.175	0.107
-126.268	-200.000	0.023	0.309
-125.253	-200.000	-0.007	0.253
-124.239	366.161	0.071	-0.141
-123.224	800.000	-0.007	0.025
