DTS Sentinel unit serial number:	SN413079Multiplexer serial number:	ORYXHardware model number:	OX4-SRSoftware version number:	ORYX F/W v4.00 Oryx Data Collector v3.7.2.0data status	okinstallation	princeton_trtdifferential loss correction	single-endedforward channel	channel 1reverse channel	N/Adate	2019/09/16time	03:22:35forward acquisition time	60.00reverse acquisition time	0.00gamma	496.2192k internal	0.2330k external	0.2330temperature offset calibration	0.9984default loss term (dB/km)	0.3790temperature slope calibration	1.0000multiplexer offset coefficient	1.0000multiplexer slope coefficient	1.0000fibre end	0.00T internal ref (°C)	27.70T ext. ref 1 (°C)	10.53T ext. ref 2 (°C)	21.80length (m)	temperature (°C)	Stokes	anti-Stokes-747.200	-99.495	-0.026	-0.007
-746.185	277.055	0.225	0.402
-745.171	-200.000	0.059	0.271
-744.156	-200.000	-0.040	0.512
-743.142	-200.000	0.011	-0.055
-742.127	-200.000	-0.110	0.651
-741.112	-36.433	0.246	-0.133
-740.098	-200.000	0.018	0.217
-739.083	131.182	0.288	0.372
-738.069	330.803	0.141	0.274
-737.054	105.773	-0.060	-0.071
-736.039	-81.286	-0.369	0.122
-735.025	117.473	0.090	0.112
-734.010	246.455	-0.182	0.308
-732.996	-50.653	-0.067	0.032
-731.981	0.657	-0.054	-0.039
-730.966	55.214	0.068	0.066
-729.952	-200.000	-0.005	-0.064
-728.937	-60.324	0.249	0.107
-727.923	-200.000	0.016	-0.257
-726.908	-20.169	-0.227	0.141
-725.894	56.560	0.178	-0.174
-724.879	-3.368	-0.147	0.103
-723.864	-76.273	-0.247	0.087
-722.850	148.991	-0.201	-0.273
-721.835	-166.191	-0.185	-0.008
-720.821	-200.000	-0.011	0.069
-719.806	-129.534	0.039	-0.005
-718.791	-118.738	-0.101	0.018
-717.777	-36.231	-0.242	-0.132
-716.762	148.381	-0.022	-0.030
-715.748	800.000	0.045	-0.139
-714.733	-21.221	-0.195	-0.120
-713.718	-200.000	-0.027	-0.159
-712.704	-56.026	-0.232	-0.104
-711.689	89.817	-0.296	0.332
-710.675	-121.503	0.192	-0.032
-709.660	-47.268	-0.341	0.167
-708.645	-57.962	-0.260	0.114
-707.631	476.701	-0.181	-0.410
-706.616	404.194	0.075	-0.159
-705.602	537.711	-0.024	-0.056
-704.587	117.156	0.156	-0.192
-703.572	536.434	0.129	-0.309
-702.558	-80.001	0.139	0.047
-701.543	232.594	0.165	-0.272
-700.529	-76.606	-0.182	0.064
-699.514	-200.000	0.005	-0.108
-698.499	-21.684	-0.169	-0.103
-697.485	800.000	-0.030	-0.088
-696.470	-154.817	-0.278	0.018
-695.456	-18.775	-0.198	0.124
-694.441	247.772	-0.114	0.194
-693.426	-92.327	-0.329	-0.093
-692.412	-91.102	-0.511	-0.147
-691.397	-32.753	-0.191	-0.107
-690.383	-102.710	-0.298	0.071
-689.368	409.728	0.142	-0.302
-688.354	0.545	-0.271	-0.195
-687.339	-108.466	0.382	0.083
-686.324	-200.000	-0.021	-0.093
-685.310	-138.208	-0.285	0.032
-684.295	-70.377	0.225	-0.086
-683.281	-200.000	-0.041	0.217
-682.266	-15.561	-0.053	-0.034
-681.251	-25.577	0.146	-0.086
-680.237	240.352	0.155	0.259
-679.222	112.231	-0.053	0.065
-678.208	-15.316	-0.114	-0.073
-677.193	616.319	-0.072	0.181
-676.178	128.211	-0.162	-0.207
-675.164	-64.687	-0.110	0.045
-674.149	-37.934	0.183	-0.097
-673.135	-200.000	-0.026	-0.205
-672.120	113.359	-0.163	-0.199
-671.105	-50.633	0.113	0.053
-670.091	17.530	0.085	0.068
-669.076	-14.050	0.122	0.079
-668.062	-14.440	-0.160	-0.103
-667.047	348.219	0.048	0.095
-666.032	800.000	0.031	0.133
-665.018	800.000	-0.016	0.048
-664.003	165.882	0.120	0.171
-662.989	26.969	-0.102	0.086
-661.974	-131.221	-0.157	-0.021
-660.959	-87.991	0.100	0.030
-659.945	-127.604	-0.222	-0.032
-658.930	-176.935	0.597	0.015
-657.916	-200.000	0.053	0.430
-656.901	-105.300	0.293	0.067
-655.886	800.000	0.155	-0.497
-654.872	-74.978	-0.295	-0.106
-653.857	-155.378	0.481	-0.031
-652.843	237.986	0.072	0.120
-651.828	-79.260	-0.495	0.168
-650.814	800.000	0.084	-0.278
-649.799	122.137	0.149	-0.186
-648.784	-145.669	0.116	-0.010
-647.770	-200.000	-0.071	0.350
-646.755	-127.731	0.457	0.066
-645.741	-44.436	-0.252	0.126
-644.726	287.912	0.091	-0.165
-643.711	-166.999	0.013	-0.001
-642.697	54.598	-0.214	-0.207
-641.682	-200.000	-0.035	-0.175
-640.668	212.790	0.112	0.177
-639.653	-86.070	-0.138	-0.043
-638.638	507.515	-0.055	0.128
-637.624	-76.828	0.134	0.047
-636.609	302.546	0.085	0.157
-635.595	800.000	-0.095	0.275
-634.580	-124.586	-0.222	-0.035
-633.565	-200.000	-0.004	-0.248
-632.551	-104.889	0.138	-0.032
-631.536	-125.209	0.174	-0.027
-630.522	55.578	0.008	-0.008
-629.507	638.393	-0.102	0.259
-628.492	-115.684	0.127	0.024
-627.478	-118.407	-0.366	-0.065
-626.463	-183.412	-0.263	0.005
-625.449	40.439	-0.089	-0.080
-624.434	341.468	-0.119	0.233
-623.419	141.817	-0.155	-0.206
-622.405	435.701	-0.039	-0.084
-621.390	800.000	0.050	-0.191
-620.376	-2.966	0.180	0.126
-619.361	12.424	0.313	0.242
-618.346	-144.543	0.287	0.027
-617.332	423.852	-0.072	-0.154
-616.317	800.000	0.091	-0.279
-615.303	24.998	0.162	-0.134
-614.288	-110.643	-0.111	-0.023
-613.273	92.854	0.115	0.130
-612.259	-131.758	0.420	0.055
-611.244	-200.000	-0.011	-0.224
-610.230	-64.192	0.203	0.083
-609.215	800.000	-0.037	-0.107
-608.201	363.043	0.124	-0.249
-607.186	-200.000	-0.002	-0.225
-606.171	-83.055	0.198	0.064
-605.157	-200.000	-0.014	-0.165
-604.142	800.000	-0.056	0.206
-603.128	-200.000	0.010	-0.225
-602.113	-200.000	-0.021	-0.289
-601.098	152.311	-0.261	-0.357
-600.084	-200.000	0.004	0.337
-599.069	148.052	0.099	-0.133
-598.055	371.523	-0.103	-0.210
-597.040	311.373	-0.138	-0.259
-596.025	-150.228	-0.178	0.014
-595.011	458.309	0.151	0.335
-593.996	-50.515	-0.119	-0.056
-592.982	416.180	0.141	0.301
-591.967	-25.322	-0.162	0.096
-590.952	418.890	-0.105	-0.224
-589.938	-90.534	-0.200	-0.058
-588.923	-200.000	-0.037	0.209
-587.909	-200.000	-0.005	0.193
-586.894	-127.244	0.427	-0.062
-585.879	-12.140	-0.084	0.055
-584.865	-75.431	0.158	0.056
-583.850	-200.000	-0.011	-0.113
-582.836	-135.501	-0.358	0.043
-581.821	800.000	-0.084	-0.233
-580.806	-70.628	0.211	-0.080
-579.792	343.557	-0.075	-0.148
-578.777	54.120	0.165	-0.159
-577.763	-159.422	0.096	-0.005
-576.748	-34.904	0.039	0.021
-575.733	40.362	-0.163	-0.147
-574.719	700.708	0.050	-0.130
-573.704	-68.046	-0.124	0.048
-572.690	206.893	-0.154	-0.240
-571.675	-171.008	0.117	0.004
-570.661	-200.000	-0.036	0.189
-569.646	40.027	-0.065	0.058
-568.631	-200.000	0.002	-0.223
-567.617	800.000	-0.022	0.081
-566.602	-200.000	-0.067	0.343
-565.588	396.340	0.043	0.089
-564.573	142.789	-0.124	-0.165
-563.558	800.000	-0.058	-0.191
-562.544	-87.632	0.199	-0.060
-561.529	-114.814	-0.326	0.062
-560.515	342.550	-0.102	0.199
-559.500	800.000	-0.025	0.097
-558.485	-200.000	0.023	0.178
-557.471	-200.000	0.055	0.321
-556.456	355.335	0.137	-0.272
-555.442	-139.717	-0.303	0.032
-554.427	679.779	-0.052	-0.136
-553.412	-58.466	0.025	0.011
-552.398	-130.596	-0.292	0.039
-551.383	-46.308	0.257	-0.126
-550.369	-58.160	-0.180	-0.078
-549.354	113.112	0.225	-0.272
-548.339	-79.917	-0.289	0.097
-547.325	-8.065	0.036	-0.024
-546.310	-33.894	0.158	-0.087
-545.296	-165.488	0.154	-0.007
-544.281	-90.495	0.077	-0.022
-543.266	93.224	-0.218	-0.246
-542.252	-103.333	0.145	0.034
-541.237	19.316	-0.282	-0.226
-540.223	-150.775	0.390	0.030
-539.208	-182.034	0.219	0.004
-538.193	-5.635	-0.254	-0.174
-537.179	45.922	-0.058	-0.054
-536.164	-200.000	0.043	-0.209
-535.150	-82.588	-0.213	-0.069
-534.135	-63.540	0.119	0.049
-533.121	149.765	0.234	0.316
-532.106	-189.072	-0.315	0.004
-531.091	216.726	0.163	-0.259
-530.077	180.479	-0.076	0.112
-529.062	-200.000	-0.025	-0.118
-528.048	22.406	-0.071	-0.058
-527.033	49.846	-0.320	-0.301
-526.018	-130.707	-0.140	0.019
-525.004	-42.045	-0.378	0.193
-523.989	714.338	-0.092	0.244
-522.975	-123.742	-0.387	0.061
-521.960	-81.210	0.144	-0.047
-520.945	-200.000	0.037	-0.264
-519.931	-200.000	0.034	-0.249
-518.916	79.613	-0.106	0.113
-517.902	-200.000	0.038	0.188
-516.887	26.086	-0.075	-0.062
-515.872	-72.212	0.185	-0.069
-514.858	1.647	-0.335	-0.241
-513.843	-73.202	0.082	-0.030
-512.829	381.937	-0.134	-0.276
-511.814	-14.078	0.012	-0.008
-510.799	510.633	0.111	0.258
-509.785	-73.455	-0.224	0.082
-508.770	-84.330	-0.243	0.077
-507.756	-117.292	-0.525	-0.095
-506.741	343.820	0.112	0.220
-505.726	800.000	-0.042	-0.152
-504.712	-104.908	0.228	-0.052
-503.697	741.166	-0.083	-0.223
-502.683	-6.983	-0.252	-0.171
-501.668	-200.000	-0.070	-0.312
-500.653	63.177	-0.182	-0.182
-499.639	-68.573	0.165	0.064
-498.624	-200.000	0.027	0.153
-497.610	-1.118	0.202	0.143
-496.595	86.510	0.132	-0.145
-495.581	-99.861	0.069	0.017
-494.566	-133.891	0.433	-0.054
-493.551	305.941	-0.075	-0.139
-492.537	800.000	-0.053	0.172
-491.522	800.000	-0.008	-0.027
-490.508	-200.000	0.032	0.227
-489.493	-48.226	0.062	0.030
-488.478	79.520	0.092	0.098
-487.464	362.524	-0.038	-0.076
-486.449	172.315	0.154	0.220
-485.435	35.158	-0.125	-0.109
-484.420	-109.391	-0.162	-0.034
-483.405	-118.591	-0.330	0.058
-482.391	-200.000	-0.021	0.200
-481.376	-200.000	0.002	0.066
-480.362	-144.108	0.030	0.003
-479.347	800.000	-0.095	-0.279
-478.332	50.363	-0.282	-0.266
-477.318	-200.000	-0.029	0.129
-476.303	-62.262	-0.236	-0.098
-475.289	-200.000	-0.007	0.221
-474.274	121.659	-0.213	-0.265
-473.259	800.000	0.074	-0.216
-472.245	-58.820	-0.360	-0.155
-471.230	80.036	-0.084	0.090
-470.216	451.659	0.069	-0.152
-469.201	-162.420	-0.085	0.004
-468.186	-68.533	0.151	-0.058
-467.172	800.000	-0.035	-0.125
-466.157	-21.921	-0.269	0.163
-465.143	-200.000	0.017	0.279
-464.128	-33.932	0.200	0.110
-463.113	-200.000	-0.006	0.225
-462.099	59.799	-0.216	-0.213
-461.084	46.279	-0.105	0.097
-460.070	57.766	-0.019	0.018
-459.055	133.532	0.174	0.224
-458.040	-77.992	-0.321	0.110
-457.026	281.609	0.160	-0.285
-456.011	16.228	-0.037	0.029
-454.997	-200.000	-0.025	0.181
-453.982	-65.742	0.184	0.073
-452.968	99.044	-0.116	-0.134
-451.953	164.508	0.056	0.078
-450.938	-200.000	-0.051	-0.234
-449.924	24.148	-0.137	0.112
-448.909	-25.551	-0.295	-0.174
-447.895	237.205	-0.071	0.118
-446.880	-146.322	0.186	0.016
-445.865	-67.384	0.151	-0.059
-444.851	117.864	0.120	0.147
-443.836	-11.585	-0.124	0.081
-442.822	-200.000	-0.030	-0.176
-441.807	-78.595	-0.067	-0.023
-440.792	340.140	-0.166	0.322
-439.778	651.278	-0.060	0.152
-438.763	-177.514	-0.211	-0.005
-437.749	-21.295	-0.057	0.035
-436.734	-74.824	-0.286	0.102
-435.719	-41.433	0.250	-0.128
-434.705	15.066	-0.157	-0.122
-433.690	250.583	-0.131	0.221
-432.676	232.553	0.081	0.133
-431.661	-200.000	0.054	-0.336
-430.646	64.684	0.226	0.226
-429.632	-200.000	-0.008	-0.485
-428.617	342.266	0.043	-0.084
-427.603	800.000	-0.076	-0.213
-426.588	-70.041	-0.074	0.028
-425.573	-124.584	0.141	-0.022
-424.559	-60.397	0.143	0.061
-423.544	41.320	-0.131	0.118
-422.530	73.735	0.162	0.168
-421.515	132.257	0.157	-0.201
-420.500	178.036	-0.118	-0.171
-419.486	102.200	-0.032	0.037
-418.471	95.630	0.170	0.193
-417.457	161.228	-0.153	0.213
-416.442	800.000	-0.051	0.167
-415.428	-117.248	0.070	0.013
-414.413	109.899	0.283	0.338
-413.398	180.119	0.137	-0.199
-412.384	-55.776	0.244	0.109
-411.369	1.464	0.098	-0.070
-410.355	211.327	0.154	0.241
-409.340	198.673	0.054	0.082
-408.325	-200.000	-0.033	0.159
-407.311	-87.903	-0.054	0.016
-406.296	800.000	-0.078	-0.331
-405.282	-200.000	0.006	-0.166
-404.267	800.000	-0.015	0.052
-403.252	267.483	-0.174	0.303
-402.238	142.432	0.170	-0.225
-401.223	-42.437	-0.432	-0.219
-400.209	-186.226	0.181	-0.003
-399.194	-200.000	-0.025	0.111
-398.179	66.810	-0.137	0.138
-397.165	-200.000	0.053	0.576
-396.150	-200.000	-0.011	0.409
-395.136	134.075	-0.200	0.257
-394.121	-101.648	-0.057	0.014
-393.106	446.605	0.131	-0.285
-392.092	-88.454	0.208	0.062
-391.077	609.753	-0.154	-0.382
-390.063	25.095	-0.179	-0.148
-389.048	-96.395	-0.134	-0.035
-388.033	136.791	-0.202	-0.262
-387.019	-200.000	0.000	0.251
-386.004	-200.000	0.021	0.127
-384.990	309.062	0.176	-0.327
-383.975	204.335	0.120	-0.184
-382.960	-97.049	0.086	-0.022
-381.946	31.811	-0.282	0.241
-380.931	-171.398	-0.371	0.012
-379.917	-7.734	0.033	0.022
-378.902	206.280	-0.266	0.411
-377.888	-177.897	-0.254	-0.006
-376.873	-64.869	-0.204	0.082
-375.858	-25.041	-0.155	-0.091
-374.844	99.085	0.062	0.071
-373.829	47.069	-0.228	0.210
-372.815	-14.151	-0.194	0.124
-371.800	-96.587	0.201	-0.052
-370.785	131.878	-0.235	0.300
-369.771	800.000	0.063	0.199
-368.756	26.487	0.125	-0.104
-367.742	-45.494	-0.104	-0.051
-366.727	75.994	-0.183	0.192
-365.712	800.000	0.186	0.530
-364.698	89.170	-0.045	-0.050
-363.683	-187.620	0.275	0.004
-362.669	-49.150	-0.338	0.160
-361.654	204.014	0.163	0.251
-360.639	171.779	0.154	0.220
-359.625	-13.902	0.244	0.156
-358.610	-183.056	0.153	-0.003
-357.596	-200.000	0.055	-0.311
-356.581	15.238	-0.086	0.067
-355.566	-168.250	-0.072	-0.003
-354.552	-156.493	-0.459	-0.028
-353.537	203.879	-0.039	-0.060
-352.523	332.349	0.167	0.320
-351.508	-200.000	0.024	-0.152
-350.493	33.183	0.018	-0.015
-349.479	-34.102	-0.281	-0.153
-348.464	-200.000	0.013	0.225
-347.450	-93.876	0.219	-0.060
-346.435	130.867	-0.040	0.051
-345.420	16.478	-0.025	0.019
-344.406	800.000	-0.066	-0.264
-343.391	-109.668	-0.214	0.045
-342.377	-54.892	0.161	0.072
-341.362	391.595	-0.156	-0.320
-340.348	227.392	0.136	-0.219
-339.333	-62.126	0.268	0.111
-338.318	20.447	-0.213	-0.171
-337.304	-200.000	-0.060	0.521
-336.289	800.000	-0.041	-0.138
-335.275	-19.740	-0.244	-0.149
-334.260	-57.198	0.079	0.035
-333.245	-94.660	-0.124	0.033
-332.231	29.499	0.305	0.257
-331.216	-120.914	0.056	-0.009
-330.202	353.515	0.099	-0.194
-329.187	209.355	0.084	-0.131
-328.172	-200.000	-0.027	0.163
-327.158	-200.000	0.012	-0.097
-326.143	-84.931	0.128	-0.040
-325.129	-12.232	-0.182	0.118
-324.114	-128.003	0.338	-0.048
-323.099	-20.919	0.128	-0.077
-322.085	800.000	-0.065	0.252
-321.070	220.324	0.284	0.451
-320.056	-183.428	0.352	0.006
-319.041	-156.471	-0.117	-0.007
-318.026	800.000	-0.080	-0.246
-317.012	96.622	-0.137	0.155
-315.997	800.000	-0.047	-0.168
-314.983	248.700	0.038	-0.063
-313.968	34.457	0.158	-0.137
-312.953	123.134	0.156	-0.193
-311.939	-14.536	0.119	0.076
-310.924	43.168	0.137	-0.124
-309.910	-200.000	-0.054	-0.267
-308.895	800.000	-0.072	0.219
-307.880	662.776	0.085	0.217
-306.866	800.000	-0.069	-0.189
-305.851	78.555	0.047	-0.050
-304.837	524.186	-0.106	0.247
-303.822	366.202	0.140	-0.279
-302.807	156.784	-0.151	-0.206
-301.793	21.172	0.231	0.186
-300.778	-132.200	-0.078	0.010
-299.764	800.000	-0.023	-0.089
-298.749	-149.830	0.246	0.019
-297.735	262.393	0.070	-0.121
-296.720	-48.579	0.287	0.136
-295.705	800.000	0.018	0.051
-294.691	-54.598	0.258	-0.116
-293.676	-3.508	0.200	0.138
-292.662	-200.000	0.049	0.411
-291.647	-71.318	-0.135	0.050
-290.632	-108.441	-0.175	-0.037
-289.618	104.205	0.233	-0.271
-288.603	800.000	0.147	0.474
-287.589	-120.476	0.419	-0.070
-286.574	499.059	0.020	-0.046
-285.559	165.394	0.113	0.158
-284.545	-200.000	0.014	-0.288
-283.530	-141.336	0.198	0.020
-282.516	-200.000	-0.013	0.153
-281.501	221.019	0.121	-0.192
-280.486	-162.182	0.112	0.006
-279.472	-200.000	-0.057	0.289
-278.457	800.000	0.024	-0.083
-277.443	566.243	-0.124	0.297
-276.428	190.626	0.070	0.104
-275.413	-163.811	-0.218	-0.010
-274.399	-70.554	-0.065	-0.024
-273.384	-119.721	0.411	-0.070
-272.370	88.898	0.041	0.045
-271.355	-135.924	-0.277	-0.032
-270.340	-149.702	-0.028	-0.002
-269.326	-200.000	-0.012	-0.109
-268.311	60.023	0.127	-0.124
-267.297	-116.016	0.184	0.034
-266.282	-52.336	-0.280	-0.128
-265.267	-103.469	0.282	-0.065
-264.253	207.178	-0.080	0.124
-263.238	-200.000	0.007	-0.057
-262.224	-108.034	0.209	0.045
-261.209	-104.663	0.078	-0.018
-260.195	-55.251	0.230	-0.102
-259.180	-96.018	0.352	-0.093
-258.165	247.518	0.031	0.052
-257.151	-200.000	0.035	0.177
-256.136	121.817	-0.125	0.155
-255.122	-69.033	-0.277	0.105
-254.107	-34.741	-0.252	0.136
-253.092	-200.000	0.010	0.267
-252.078	-200.000	0.001	-0.075
-251.063	706.857	-0.022	-0.057
-250.049	-18.769	0.201	0.124
-249.034	-200.000	-0.033	-0.227
-248.019	-47.409	-0.052	-0.025
-247.005	-200.000	-0.017	-0.147
-245.990	-105.390	-0.118	-0.027
-244.976	-80.177	0.097	-0.032
-243.961	590.982	-0.114	-0.279
-242.946	800.000	-0.122	-0.343
-241.932	-92.036	-0.140	-0.039
-240.917	167.454	0.274	0.385
-239.903	800.000	-0.098	0.395
-238.888	159.216	0.139	0.191
-237.873	164.379	-0.059	-0.082
-236.859	-3.514	-0.122	0.084
-235.844	-155.762	0.237	-0.015
-234.830	-200.000	-0.049	-0.280
-233.815	140.054	-0.215	0.280
-232.800	-53.612	0.243	0.109
-231.786	-177.745	0.121	0.003
-230.771	800.000	0.085	0.308
-229.757	192.630	0.182	-0.271
-228.742	-124.611	0.448	-0.069
-227.727	150.707	-0.201	-0.270
-226.713	229.742	0.114	-0.184
-225.698	-200.000	-0.026	-0.373
-224.684	607.219	0.034	0.084
-223.669	-200.000	-0.028	0.151
-222.655	200.250	0.107	-0.162
-221.640	-12.074	0.372	0.240
-220.625	-200.000	-0.007	0.085
-219.611	-200.000	0.002	-0.257
-218.596	800.000	0.028	0.098
-217.582	372.004	0.068	-0.137
-216.567	-200.000	-0.002	0.180
-215.552	-82.644	0.397	-0.127
-214.538	619.505	-0.080	-0.198
-213.523	-7.793	-0.222	-0.148
-212.509	98.292	-0.100	-0.114
-211.494	-148.444	-0.326	0.026
-210.479	-200.000	0.027	0.328
-209.465	-200.000	-0.002	-0.081
-208.450	47.058	0.163	0.149
-207.436	-200.000	0.004	-0.189
-206.421	800.000	-0.048	-0.165
-205.406	800.000	0.109	-0.310
-204.392	-142.036	-0.195	0.019
-203.377	-200.000	0.004	0.048
-202.363	-39.325	-0.101	0.052
-201.348	-87.281	-0.398	0.119
-200.333	-144.393	-0.122	-0.011
-199.319	-200.000	0.014	-0.094
-198.304	800.000	0.048	0.147
-197.290	-166.824	0.184	0.007
-196.275	-200.000	0.004	-0.368
-195.260	459.131	0.126	-0.276
-194.246	74.906	-0.137	0.142
-193.231	-172.745	0.090	-0.003
-192.217	-111.532	0.306	0.061
-191.202	800.000	0.044	-0.175
-190.187	-134.257	-0.454	-0.055
-189.173	-136.674	-0.291	0.033
-188.158	-200.000	0.000	-0.054
-187.144	-200.000	0.013	0.151
-186.129	130.974	-0.175	0.221
-185.114	275.535	0.070	-0.122
-184.100	-200.000	-0.001	-0.137
-183.085	56.677	-0.185	-0.177
-182.071	800.000	-0.065	-0.263
-181.056	-77.826	0.272	0.092
-180.042	-28.500	0.254	-0.144
-179.027	-200.000	0.012	0.128
-178.012	239.546	0.092	0.151
-176.998	68.706	-0.304	-0.308
-175.983	88.323	0.113	0.124
-174.969	800.000	0.027	0.117
-173.954	800.000	0.030	0.115
-172.939	-42.207	0.094	0.047
-171.925	-57.778	0.299	0.129
-170.910	139.561	-0.142	0.184
-169.896	-108.975	0.252	0.053
-168.881	30.948	0.324	0.273
-167.866	202.430	-0.032	0.048
-166.852	-103.199	0.161	0.037
-165.837	800.000	-0.083	-0.349
-164.823	-74.520	0.182	0.065
-163.808	457.390	0.095	-0.208
-162.793	-200.000	0.048	-0.222
-161.779	105.109	-0.287	-0.333
-160.764	-74.343	0.221	0.079
-159.750	-200.000	0.014	0.246
-158.735	800.000	-0.067	0.268
-157.720	504.987	0.149	0.339
-156.706	415.747	0.059	0.124
-155.691	-200.000	0.002	-0.100
-154.677	-200.000	0.002	0.095
-153.662	405.434	0.134	0.277
-152.647	78.507	0.086	0.090
-151.633	800.000	-0.017	0.071
-150.618	-54.884	-0.366	-0.163
-149.604	191.047	0.043	0.064
-148.589	800.000	-0.132	0.373
-147.574	-110.497	-0.144	0.029
-146.560	-94.823	-0.094	-0.025
-145.545	800.000	0.049	0.146
-144.531	-128.448	-0.290	-0.040
-143.516	176.054	-0.113	-0.161
-142.502	-200.000	0.039	0.230
-141.487	-57.967	-0.266	-0.114
-140.472	-200.000	0.066	0.406
-139.458	-200.000	-0.052	0.239
-138.443	-189.408	-0.430	0.005
-137.429	-96.582	0.094	0.024
-136.414	-161.655	0.149	0.007
-135.399	82.856	-0.170	0.182
-134.385	-200.000	-0.299	-0.001
-133.370	397.397	-0.069	0.142
-132.356	-200.000	-0.018	-0.178
-131.341	155.074	-0.105	-0.141
-130.326	800.000	0.026	0.091
-129.312	162.074	0.159	-0.219
-128.297	-139.143	-0.164	-0.017
-127.283	-37.760	0.485	-0.253
-126.268	388.619	-0.170	-0.346
-125.253	163.166	-0.073	-0.101
-124.239	-200.000	0.050	-0.312
-123.224	800.000	-0.072	-0.206
