DTS Sentinel unit serial number:	SN413079Multiplexer serial number:	ORYXHardware model number:	OX4-SRSoftware version number:	ORYX F/W v4.00 Oryx Data Collector v3.7.2.0data status	okinstallation	princeton_trtdifferential loss correction	single-endedforward channel	channel 1reverse channel	N/Adate	2019/09/11time	06:28:11forward acquisition time	60.00reverse acquisition time	0.00gamma	496.2192k internal	0.2331k external	0.2331temperature offset calibration	0.9919default loss term (dB/km)	0.3790temperature slope calibration	1.0000multiplexer offset coefficient	1.0000multiplexer slope coefficient	1.0000fibre end	0.00T internal ref (°C)	29.59T ext. ref 1 (°C)	-0.17T ext. ref 2 (°C)	24.17length (m)	temperature (°C)	Stokes	anti-Stokes-747.200	132.633	-0.133	0.173
-746.185	181.703	-0.213	0.316
-745.171	-8.408	0.081	-0.055
-744.156	-111.674	-0.421	0.086
-743.142	23.116	-0.300	0.248
-742.127	-124.500	0.105	0.016
-741.112	-134.126	-0.287	-0.036
-740.098	240.071	-0.084	0.141
-739.083	164.651	0.072	0.102
-738.069	-200.000	0.006	0.336
-737.054	800.000	0.014	-0.041
-736.039	-110.505	-0.505	-0.105
-735.025	-23.501	0.157	-0.095
-734.010	-86.526	-0.278	0.086
-732.996	-38.658	-0.260	-0.138
-731.981	-9.754	0.175	-0.117
-730.966	93.471	-0.122	-0.139
-729.952	800.000	-0.075	0.298
-728.937	-84.292	0.196	-0.062
-727.923	186.448	0.106	0.158
-726.908	-154.004	0.220	0.015
-725.894	-200.000	0.040	-0.178
-724.879	498.349	0.037	-0.087
-723.864	800.000	-0.053	-0.181
-722.850	87.344	-0.123	-0.136
-721.835	800.000	0.052	-0.204
-720.821	403.804	0.147	-0.311
-719.806	21.948	-0.253	-0.207
-718.791	343.693	0.180	-0.354
-717.777	625.356	0.172	-0.437
-716.762	215.411	0.141	-0.225
-715.748	340.251	0.071	-0.140
-714.733	-169.264	0.123	0.005
-713.718	50.208	-0.076	-0.072
-712.704	254.802	-0.103	-0.178
-711.689	462.583	0.082	-0.184
-710.675	187.153	-0.015	-0.023
-709.660	-171.569	0.374	0.012
-708.645	173.250	-0.155	-0.225
-707.631	-200.000	0.093	-0.718
-706.616	-200.000	-0.051	0.247
-705.602	800.000	-0.010	0.037
-704.587	103.382	-0.095	-0.112
-703.572	-200.000	0.014	0.100
-702.558	496.430	-0.102	0.235
-701.543	-109.894	-0.320	0.067
-700.529	114.546	-0.286	-0.351
-699.514	-200.000	0.003	-0.473
-698.499	-200.000	0.007	0.074
-697.485	-110.141	0.107	0.023
-696.470	-129.585	0.383	0.053
-695.456	-19.086	-0.035	-0.022
-694.441	-171.029	-0.237	0.008
-693.426	-200.000	0.006	-0.084
-692.412	-200.000	-0.065	0.381
-691.397	-138.827	-0.317	0.035
-690.383	-67.807	-0.420	-0.165
-689.368	-84.092	0.168	-0.053
-688.354	46.050	0.299	-0.278
-687.339	561.087	0.165	-0.401
-686.324	-200.000	0.047	-0.320
-685.310	197.369	-0.109	0.167
-684.295	169.902	0.058	-0.083
-683.281	-200.000	-0.027	-0.150
-682.266	171.105	-0.090	0.129
-681.251	139.876	-0.207	-0.274
-680.237	-1.772	0.102	0.072
-679.222	5.295	-0.235	-0.174
-678.208	659.312	-0.046	0.118
-677.193	-109.426	-0.476	0.101
-676.178	45.096	0.082	-0.076
-675.164	-152.871	0.338	0.024
-674.149	75.603	-0.187	-0.199
-673.135	-80.640	-0.254	0.085
-672.120	-161.253	-0.167	0.009
-671.105	-200.000	-0.006	-0.232
-670.091	-37.099	-0.324	-0.174
-669.076	-102.306	0.060	-0.014
-668.062	607.294	0.110	-0.276
-667.047	33.545	0.014	-0.012
-666.032	800.000	0.047	-0.152
-665.018	-97.113	-0.223	-0.059
-664.003	121.401	0.081	0.102
-662.989	-179.968	-0.459	-0.010
-661.974	-161.134	0.237	0.012
-660.959	-40.400	0.066	-0.034
-659.945	800.000	-0.022	-0.075
-658.930	-157.868	0.230	-0.014
-657.916	800.000	0.052	-0.184
-656.901	-61.323	-0.208	0.088
-655.886	-200.000	0.084	-0.419
-654.872	40.816	-0.109	-0.098
-653.857	41.108	-0.329	-0.298
-652.843	-49.750	0.035	-0.017
-651.828	-82.731	-0.131	0.042
-650.814	-200.000	-0.074	-0.327
-649.799	-162.898	-0.294	0.014
-648.784	90.286	0.073	-0.082
-647.770	-152.491	-0.168	-0.012
-646.755	-86.062	-0.330	-0.102
-645.741	-114.748	0.172	-0.033
-644.726	24.083	0.036	0.030
-643.711	160.431	0.014	0.019
-642.697	272.995	0.193	0.341
-641.682	210.657	-0.182	0.287
-640.668	-200.000	-0.042	0.397
-639.653	-200.000	-0.037	0.199
-638.638	-138.763	-0.194	0.021
-637.624	-42.222	0.297	-0.152
-636.609	-35.490	0.171	-0.093
-635.595	279.318	-0.138	0.246
-634.580	22.042	-0.170	-0.139
-633.565	800.000	-0.064	0.245
-632.551	-66.284	-0.028	-0.011
-631.536	694.113	-0.105	0.275
-630.522	189.580	-0.135	-0.203
-629.507	-200.000	-0.035	-0.175
-628.492	-29.055	0.096	-0.055
-627.478	46.168	0.209	-0.194
-626.463	-200.000	0.007	-0.209
-625.449	-65.028	-0.111	-0.045
-624.434	-4.846	-0.433	-0.299
-623.419	23.778	-0.249	0.205
-622.405	59.127	0.223	-0.220
-621.390	-200.000	0.002	-0.172
-620.376	-200.000	0.035	-0.323
-619.361	325.300	0.103	0.197
-618.346	-12.669	-0.205	0.134
-617.332	94.041	0.190	-0.216
-616.317	483.274	-0.099	0.226
-615.303	66.949	-0.207	-0.211
-614.288	-200.000	0.011	-0.428
-613.273	184.517	-0.125	-0.186
-612.259	-118.412	0.190	0.034
-611.244	-129.725	0.552	-0.076
-610.230	-106.754	0.384	0.085
-609.215	500.635	0.078	0.179
-608.201	14.794	0.255	-0.200
-607.186	-120.271	0.031	0.005
-606.171	-200.000	-0.007	0.072
-605.157	800.000	-0.076	0.314
-604.142	144.253	-0.042	0.057
-603.128	-53.688	-0.162	-0.074
-602.113	50.097	0.105	-0.099
-601.098	-200.000	-0.016	-0.094
-600.084	-125.169	-0.053	0.008
-599.069	-200.000	-0.011	-0.077
-598.055	255.490	0.112	-0.192
-597.040	-80.951	-0.431	-0.143
-596.025	31.231	0.095	0.082
-595.011	6.902	-0.143	0.107
-593.996	-44.727	0.332	0.166
-592.982	-200.000	-0.010	-0.468
-591.967	332.047	0.061	-0.118
-590.952	202.241	0.170	0.262
-589.938	-23.369	0.245	0.147
-588.923	82.100	-0.232	-0.251
-587.909	16.257	-0.134	-0.106
-586.894	-30.957	0.155	0.088
-585.879	-74.268	-0.084	0.030
-584.865	305.083	0.091	0.169
-583.850	-11.190	-0.183	0.120
-582.836	-8.908	-0.230	-0.154
-581.821	-69.775	0.139	0.053
-580.806	-53.144	-0.274	0.126
-579.792	139.323	0.074	0.097
-578.777	-200.000	-0.043	-0.409
-577.763	-200.000	0.027	-0.227
-576.748	800.000	0.083	-0.350
-575.733	297.304	-0.068	0.124
-574.719	311.588	-0.124	-0.233
-573.704	154.402	0.110	-0.151
-572.690	268.011	-0.120	-0.209
-571.675	-200.000	0.029	0.128
-570.661	776.147	-0.084	-0.229
-569.646	800.000	-0.002	-0.005
-568.631	330.652	0.146	-0.281
-567.617	-27.751	-0.342	0.198
-566.602	-135.235	0.217	0.026
-565.588	-200.000	-0.027	0.258
-564.573	800.000	-0.050	-0.177
-563.558	-166.033	0.213	-0.009
-562.544	-11.721	-0.169	-0.111
-561.529	97.899	-0.189	-0.217
-560.515	13.874	-0.166	0.129
-559.500	-200.000	-0.017	0.215
-558.485	9.733	-0.084	0.064
-557.471	-40.938	-0.102	0.053
-556.456	-200.000	0.032	0.190
-555.442	-200.000	-0.046	-0.260
-554.427	358.584	-0.072	0.145
-553.412	2.919	-0.435	0.315
-552.398	691.282	-0.019	0.051
-551.383	-200.000	0.017	-0.344
-550.369	96.704	0.045	-0.051
-549.354	103.351	0.057	-0.067
-548.339	43.584	-0.242	-0.221
-547.325	-159.129	0.208	0.012
-546.310	-62.519	0.398	-0.165
-545.296	255.440	-0.254	-0.435
-544.281	3.611	-0.124	-0.090
-543.266	-151.380	-0.010	-0.001
-542.252	-49.758	0.033	0.016
-541.237	-200.000	0.023	-0.305
-540.223	-163.480	-0.032	-0.002
-539.208	800.000	0.052	0.216
-538.193	-182.050	0.092	0.002
-537.179	13.643	-0.112	0.087
-536.164	-56.740	-0.315	-0.139
-535.150	91.127	0.174	-0.195
-534.135	-79.286	0.142	0.048
-533.121	-78.844	0.023	-0.008
-532.106	60.095	-0.086	0.085
-531.091	800.000	0.062	-0.180
-530.077	18.480	-0.101	-0.081
-529.062	-96.757	-0.145	0.038
-528.048	-50.525	0.074	-0.035
-527.033	-91.619	-0.097	-0.028
-526.018	313.207	0.015	0.029
-525.004	43.307	0.282	-0.257
-523.989	-200.000	0.014	-0.478
-522.975	-89.307	-0.384	-0.113
-521.960	-61.667	-0.108	0.045
-520.945	61.748	-0.324	0.322
-519.931	162.400	-0.122	0.171
-518.916	158.994	-0.074	-0.103
-517.902	335.847	-0.047	-0.090
-516.887	-200.000	0.017	0.248
-515.872	-19.346	-0.331	0.205
-514.858	16.218	-0.238	0.187
-513.843	-84.034	0.060	0.019
-512.829	-200.000	-0.009	-0.042
-511.814	800.000	0.078	0.234
-510.799	-200.000	-0.025	0.288
-509.785	-5.718	0.091	-0.062
-508.770	101.470	0.051	-0.060
-507.756	-80.584	0.372	0.124
-506.741	-45.761	-0.146	0.072
-505.726	638.791	0.063	-0.159
-504.712	800.000	-0.056	-0.168
-503.697	-200.000	0.022	-0.332
-502.683	-94.464	0.267	-0.073
-501.668	726.741	0.141	0.375
-500.653	655.184	0.111	-0.283
-499.639	-30.038	0.408	-0.232
-498.624	-73.188	0.180	-0.066
-497.610	-85.822	0.160	0.049
-496.595	382.471	-0.074	-0.151
-495.581	-14.771	-0.143	0.091
-494.566	-200.000	0.009	-0.096
-493.551	-4.619	0.038	0.026
-492.537	800.000	0.102	-0.297
-491.522	50.460	-0.155	-0.146
-490.508	30.739	-0.097	-0.083
-489.493	-200.000	-0.034	-0.165
-488.478	36.511	0.053	-0.047
-487.464	82.913	-0.098	0.106
-486.449	-27.597	-0.230	-0.133
-485.435	-106.040	0.479	0.107
-484.420	-69.132	-0.027	-0.010
-483.405	-79.986	-0.283	-0.095
-482.391	800.000	0.019	0.065
-481.376	495.599	-0.097	-0.222
-480.362	62.899	-0.150	0.149
-479.347	800.000	0.004	-0.015
-478.332	-3.029	0.149	-0.103
-477.318	-52.081	0.201	0.093
-476.303	176.112	0.052	-0.075
-475.289	124.152	-0.125	-0.156
-474.274	-15.608	-0.067	0.042
-473.259	74.709	0.176	0.184
-472.245	390.663	0.003	0.007
-471.230	-123.729	-0.118	-0.019
-470.216	54.235	0.051	0.049
-469.201	-62.784	-0.280	0.115
-468.186	184.023	-0.059	0.086
-467.172	302.667	-0.085	0.157
-466.157	722.707	0.106	-0.281
-465.143	-1.663	0.306	-0.214
-464.128	293.688	0.122	-0.221
-463.113	-200.000	0.054	-0.370
-462.099	63.827	-0.102	-0.102
-461.084	-200.000	-0.016	-0.237
-460.070	-200.000	0.067	-0.308
-459.055	79.926	0.187	0.200
-458.040	15.380	-0.129	-0.100
-457.026	123.629	0.121	-0.152
-456.011	-67.669	0.043	0.017
-454.997	126.383	-0.113	-0.142
-453.982	404.167	0.145	0.303
-452.968	-200.000	0.014	0.200
-451.953	2.648	0.193	0.139
-450.938	-85.391	0.207	-0.064
-449.924	39.465	-0.158	-0.141
-448.909	800.000	0.120	0.349
-447.895	-68.962	0.294	0.113
-446.880	738.762	-0.212	-0.567
-445.865	-24.090	0.297	-0.176
-444.851	36.314	-0.077	-0.068
-443.836	-200.000	0.039	-0.426
-442.822	-200.000	0.021	0.178
-441.807	-200.000	0.014	0.117
-440.792	-70.051	-0.239	0.090
-439.778	-121.728	-0.131	0.022
-438.763	121.307	-0.369	0.457
-437.749	-124.299	0.045	-0.007
-436.734	-70.851	-0.072	-0.027
-435.719	-200.000	0.002	0.152
-434.705	-88.494	-0.317	0.094
-433.690	-200.000	0.028	0.131
-432.676	-46.598	0.293	0.143
-431.661	-146.899	0.175	0.015
-430.646	32.144	0.116	0.099
-429.632	800.000	0.035	0.115
-428.617	-31.154	-0.371	0.208
-427.603	800.000	-0.093	0.306
-426.588	-28.237	-0.052	-0.030
-425.573	58.276	-0.373	-0.364
-424.559	374.047	0.076	-0.154
-423.544	20.974	0.068	0.054
-422.530	6.084	0.176	0.130
-421.515	-200.000	-0.021	0.230
-420.500	-118.088	0.373	0.066
-419.486	-142.846	-0.106	0.010
-418.471	4.857	0.102	-0.074
-417.457	-111.914	-0.268	0.054
-416.442	-36.493	0.085	-0.045
-415.428	-21.080	0.249	0.151
-414.413	800.000	0.083	0.227
-413.398	328.031	0.061	-0.117
-412.384	190.909	-0.221	0.331
-411.369	-70.883	0.325	-0.122
-410.355	-10.460	0.109	0.072
-409.340	-200.000	0.060	0.280
-408.325	-62.282	-0.114	-0.047
-407.311	-97.925	0.188	-0.048
-406.296	-120.196	0.170	0.029
-405.282	-71.785	-0.120	-0.044
-404.267	-33.576	-0.057	-0.031
-403.252	-200.000	0.055	0.277
-402.238	-141.426	0.214	-0.022
-401.223	-81.635	-0.058	-0.019
-400.209	-200.000	-0.057	-0.252
-399.194	-97.172	0.221	-0.057
-398.179	800.000	0.122	-0.444
-397.165	-200.000	-0.042	-0.303
-396.150	13.307	-0.131	-0.101
-395.136	9.195	-0.088	-0.066
-394.121	-200.000	0.009	0.077
-393.106	583.284	-0.019	-0.046
-392.092	-200.000	-0.053	-0.391
-391.077	-200.000	0.032	-0.263
-390.063	800.000	0.037	0.132
-389.048	-118.705	-0.179	0.031
-388.033	371.351	0.063	-0.127
-387.019	-200.000	-0.015	-0.105
-386.004	-56.186	-0.157	-0.070
-384.990	242.283	0.079	-0.131
-383.975	800.000	-0.022	-0.096
-382.960	800.000	-0.023	-0.069
-381.946	-112.667	-0.048	0.009
-380.931	236.602	0.122	0.201
-379.917	57.674	-0.115	-0.111
-378.902	478.870	0.031	0.071
-377.888	-200.000	0.043	-0.238
-376.873	800.000	-0.126	-0.545
-375.858	23.706	-0.379	-0.310
-374.844	57.046	0.250	-0.242
-373.829	-200.000	0.158	0.001
-372.815	367.069	-0.130	0.261
-371.800	30.921	0.058	0.050
-370.785	800.000	-0.109	0.451
-369.771	-200.000	0.035	0.193
-368.756	77.306	0.178	-0.188
-367.742	294.907	0.184	0.333
-366.727	800.000	-0.049	0.168
-365.712	-23.595	-0.040	0.024
-364.698	724.180	0.101	0.266
-363.683	562.646	0.115	-0.275
-362.669	78.168	-0.110	-0.117
-361.654	-126.037	0.145	0.022
-360.639	105.124	-0.079	0.093
-359.625	-200.000	-0.007	0.362
-358.610	-173.294	0.230	0.007
-357.596	161.374	-0.155	-0.214
-356.581	-73.853	0.139	0.050
-355.566	-107.770	0.252	0.055
-354.552	-200.000	-0.003	0.236
-353.537	-121.563	0.374	-0.061
-352.523	-82.637	0.115	0.037
-351.508	49.874	0.216	0.202
-350.493	291.955	-0.078	0.141
-349.479	32.437	0.306	0.262
-348.464	-89.531	0.315	0.092
-347.450	-70.239	0.389	0.147
-346.435	189.643	0.131	-0.194
-345.420	-67.329	-0.156	0.061
-344.406	570.151	0.098	-0.236
-343.391	109.740	-0.165	-0.196
-342.377	231.703	-0.087	-0.142
-341.362	49.663	0.152	0.142
-340.348	-40.181	-0.256	0.132
-339.333	-200.000	-0.010	0.269
-338.318	1.950	-0.095	-0.068
-337.304	-59.074	-0.106	-0.045
-336.289	-22.913	-0.071	-0.042
-335.275	-112.794	0.118	0.023
-334.260	-102.098	-0.147	-0.035
-333.245	-7.487	0.116	-0.078
-332.231	510.564	-0.011	-0.025
-331.216	800.000	0.113	0.394
-330.202	689.217	0.092	0.240
-329.187	-118.464	-0.116	0.020
-328.172	800.000	0.051	-0.164
-327.158	-200.000	0.001	0.243
-326.143	-1.004	0.129	-0.091
-325.129	-4.073	0.221	0.152
-324.114	-19.615	-0.236	-0.144
-323.099	800.000	-0.099	0.273
-322.085	-114.931	0.174	-0.033
-321.070	-127.449	-0.352	0.051
-320.056	7.916	0.067	0.050
-319.041	330.638	-0.069	0.131
-318.026	84.691	0.023	-0.025
-317.012	-200.000	-0.007	0.217
-315.997	166.821	-0.056	-0.079
-314.983	93.083	-0.211	-0.236
-313.968	7.460	0.255	0.188
-312.953	-48.895	0.379	0.180
-311.939	-35.823	-0.334	0.179
-310.924	116.938	0.056	0.069
-309.910	-84.689	-0.158	0.049
-308.895	143.687	-0.105	0.138
-307.880	-200.000	0.042	0.491
-306.866	800.000	0.127	0.411
-305.851	-121.452	0.154	0.025
-304.837	453.222	0.096	-0.209
-303.822	-200.000	0.010	-0.085
-302.807	33.687	-0.178	0.153
-301.793	278.360	-0.154	0.272
-300.778	75.991	-0.205	-0.214
-299.764	-200.000	-0.013	-0.203
-298.749	-73.540	-0.246	0.089
-297.735	-97.270	0.220	0.057
-296.720	800.000	0.115	0.479
-295.705	487.010	0.012	0.027
-294.691	152.875	0.164	-0.222
-293.676	-200.000	-0.021	0.563
-292.662	800.000	-0.063	0.243
-291.647	-118.006	0.389	0.069
-290.632	-20.956	0.092	-0.056
-289.618	27.795	0.108	-0.090
-288.603	33.287	0.299	-0.257
-287.589	-147.153	-0.241	0.020
-286.574	102.190	0.331	0.383
-285.559	87.976	0.035	-0.039
-284.545	800.000	-0.119	-0.395
-283.530	800.000	-0.075	0.289
-282.516	-132.717	-0.357	0.045
-281.501	-200.000	0.008	0.135
-280.486	33.343	0.134	0.115
-279.472	158.147	-0.027	-0.036
-278.457	-200.000	-0.041	0.199
-277.443	252.467	-0.110	0.185
-276.428	-200.000	-0.041	0.226
-275.413	-64.692	-0.181	0.073
-274.399	-125.175	0.220	0.033
-273.384	53.037	0.135	0.128
-272.370	-49.741	0.056	-0.026
-271.355	-112.466	0.142	-0.028
-270.340	118.686	-0.159	0.193
-269.326	290.006	-0.142	0.255
-268.311	-53.573	-0.160	0.072
-267.297	609.319	0.076	-0.187
-266.282	-130.094	0.303	0.041
-265.267	-100.597	-0.189	-0.046
-264.253	-200.000	0.012	-0.087
-263.238	197.931	0.110	0.166
-262.224	101.110	-0.099	-0.114
-261.209	-110.201	-0.267	0.055
-260.195	-200.000	-0.011	-0.172
-259.180	800.000	0.045	0.185
-258.165	-200.000	0.007	0.200
-257.151	119.406	-0.120	-0.146
-256.136	31.354	0.035	-0.029
-255.122	-55.927	-0.162	-0.071
-254.107	-120.732	0.068	-0.011
-253.092	753.549	-0.049	-0.129
-252.078	-200.000	0.009	-0.183
-251.063	-91.404	-0.069	-0.019
-250.049	308.793	-0.089	-0.164
-249.034	16.676	0.220	0.171
-248.019	10.059	-0.206	0.155
-247.005	687.955	-0.119	-0.307
-245.990	-66.094	0.210	0.083
-244.976	67.823	0.172	0.174
-243.961	66.406	-0.161	0.161
-242.946	-41.059	-0.203	0.103
-241.932	51.133	-0.155	0.145
-240.917	-25.966	0.193	-0.112
-239.903	23.255	0.058	-0.047
-238.888	-200.000	-0.109	0.482
-237.873	-80.034	-0.294	-0.097
-236.859	-58.056	-0.180	-0.077
-235.844	-190.093	-0.414	0.005
-234.830	-56.001	0.311	-0.137
-233.815	800.000	0.134	-0.422
-232.800	-49.121	-0.333	0.157
-231.786	-128.470	-0.074	0.010
-230.771	800.000	0.040	-0.113
-229.757	9.588	0.277	0.207
-228.742	200.551	0.069	0.105
-227.727	43.980	0.230	0.208
-226.713	-200.000	0.051	0.305
-225.698	-192.602	-0.352	0.003
-224.684	543.020	0.209	-0.491
-223.669	115.634	-0.214	0.258
-222.655	-200.000	0.034	0.152
-221.640	-200.000	-0.057	0.432
-220.625	571.496	-0.053	0.127
-219.611	114.720	-0.106	-0.128
-218.596	558.598	-0.069	0.163
-217.582	-126.242	0.328	0.048
-216.567	-163.174	-0.259	0.012
-215.552	62.750	0.065	0.064
-214.538	800.000	-0.048	0.139
-213.523	50.535	-0.118	0.110
-212.509	-33.022	-0.101	0.055
-211.494	-200.000	-0.014	-0.191
-210.479	-200.000	-0.007	-0.251
-209.465	-86.527	-0.130	0.039
-208.450	800.000	0.097	-0.296
-207.436	-200.000	-0.018	0.200
-206.421	-199.836	0.033	-0.000
-205.406	-50.435	0.086	0.040
-204.392	-90.500	0.168	-0.048
-203.377	225.601	0.132	-0.210
-202.363	82.053	-0.062	-0.066
-201.348	800.000	0.060	-0.177
-200.333	64.469	-0.105	0.104
-199.319	800.000	-0.092	-0.266
-198.304	303.851	0.037	0.068
-197.290	215.996	0.141	-0.221
-196.275	-69.272	-0.200	0.076
-195.260	-10.161	-0.082	0.054
-194.246	800.000	-0.051	0.151
-193.231	-29.238	-0.147	0.083
-192.217	-6.173	0.075	0.050
-191.202	800.000	-0.062	0.212
-190.187	262.491	-0.027	0.047
-189.173	-33.997	0.150	-0.082
-188.158	-194.719	-0.190	0.001
-187.144	-51.678	0.118	-0.054
-186.129	-130.297	-0.218	-0.029
-185.114	-200.000	-0.003	-0.077
-184.100	-200.000	0.015	0.253
-183.085	-51.608	0.057	-0.026
-182.071	114.772	-0.067	0.081
-181.056	49.396	-0.054	0.050
-180.042	-133.939	-0.284	0.035
-179.027	248.967	-0.064	-0.107
-178.012	-1.090	0.017	0.012
-176.998	-113.506	-0.117	-0.022
-175.983	150.572	-0.136	-0.182
-174.969	680.995	-0.045	-0.116
-173.954	156.399	0.171	-0.233
-172.939	-200.000	0.023	-0.141
-171.925	800.000	-0.042	0.181
-170.910	-104.688	0.188	0.043
-169.896	-10.709	-0.205	0.134
-168.881	565.524	-0.095	-0.226
-167.866	48.318	0.145	-0.134
-166.852	-142.425	0.214	-0.021
-165.837	800.000	0.109	-0.449
-164.823	122.874	-0.126	-0.155
-163.808	-55.738	0.259	-0.114
-162.793	311.373	0.216	-0.399
-161.779	34.441	-0.234	0.201
-160.764	-22.392	0.197	-0.118
-159.750	-115.121	0.185	0.035
-158.735	75.998	-0.286	0.297
-157.720	-200.000	0.004	0.059
-156.706	800.000	-0.057	0.195
-155.691	-54.540	0.278	0.124
-154.677	800.000	0.063	-0.182
-153.662	78.318	-0.128	-0.134
-152.647	77.989	0.105	-0.110
-151.633	-10.205	0.254	0.166
-150.618	115.557	-0.077	-0.093
-149.604	-192.280	0.110	0.001
-148.589	-162.797	-0.174	-0.008
-147.574	-95.390	0.316	-0.083
-146.560	-67.994	-0.217	-0.083
-145.545	367.886	0.061	0.122
-144.531	-73.770	-0.119	0.043
-143.516	-31.907	0.159	0.087
-142.502	-128.200	0.231	-0.032
-141.487	65.848	-0.120	-0.120
-140.472	-33.116	-0.189	0.103
-139.458	-200.000	-0.024	-0.311
-138.443	86.653	0.105	-0.114
-137.429	-200.000	-0.009	-0.126
-136.414	650.217	0.099	0.249
-135.399	38.943	0.089	0.078
-134.385	-93.777	-0.177	0.048
-133.370	37.269	-0.151	-0.132
-132.356	26.731	0.142	0.117
-131.341	641.010	-0.115	0.288
-130.326	-32.684	-0.272	0.149
-129.312	202.096	0.110	0.167
-128.297	-8.390	0.122	0.080
-127.283	22.325	-0.123	0.099
-126.268	-200.000	0.036	0.252
-125.253	-200.000	0.029	-0.165
-124.239	155.578	-0.206	-0.278
-123.224	-200.000	0.012	-0.059
-122.210	-110.451	-0.260	0.053
-121.195	-200.000	0.068	-0.322
-120.180	-99.540	-0.483	-0.119
