DTS Sentinel unit serial number:	SN413079Multiplexer serial number:	ORYXHardware model number:	OX4-SRSoftware version number:	ORYX F/W v4.00 Oryx Data Collector v3.7.2.0data status	okinstallation	princeton_trtdifferential loss correction	single-endedforward channel	channel 1reverse channel	N/Adate	2019/09/17time	20:18:35forward acquisition time	60.00reverse acquisition time	0.00gamma	496.2192k internal	0.2328k external	0.2328temperature offset calibration	0.9977default loss term (dB/km)	0.3790temperature slope calibration	1.0000multiplexer offset coefficient	1.0000multiplexer slope coefficient	1.0000fibre end	0.00T internal ref (°C)	31.59T ext. ref 1 (°C)	0.22T ext. ref 2 (°C)	21.94length (m)	temperature (°C)	Stokes	anti-Stokes-747.200	-105.654	0.316	0.072
-746.185	-13.048	-0.461	0.302
-745.171	-200.000	-0.001	0.106
-744.156	800.000	0.068	0.261
-743.142	148.061	-0.296	0.403
-742.127	87.997	-0.293	0.327
-741.112	138.237	0.117	0.155
-740.098	-123.772	-0.202	0.032
-739.083	240.651	0.181	0.305
-738.069	800.000	-0.030	0.095
-737.054	-99.851	0.273	0.069
-736.039	-125.238	-0.335	0.052
-735.025	-23.359	0.180	-0.109
-734.010	-200.000	0.026	0.346
-732.996	800.000	0.013	-0.050
-731.981	-128.003	-0.222	-0.032
-730.966	282.508	-0.029	-0.053
-729.952	-124.325	-0.092	0.014
-728.937	-169.919	-0.185	-0.007
-727.923	800.000	-0.070	0.220
-726.908	-146.881	-0.120	0.010
-725.894	-200.000	-0.013	-0.262
-724.879	129.937	0.029	0.038
-723.864	266.690	-0.154	0.271
-722.850	800.000	-0.033	0.107
-721.835	-93.367	0.283	-0.079
-720.821	-200.000	0.009	-0.042
-719.806	50.608	-0.236	-0.225
-718.791	-173.150	-0.130	-0.004
-717.777	-47.783	0.054	-0.026
-716.762	-52.887	-0.273	-0.127
-715.748	-200.000	-0.010	-0.342
-714.733	-88.899	0.087	0.026
-713.718	-6.653	-0.284	-0.195
-712.704	130.259	0.118	-0.152
-711.689	68.070	-0.156	-0.161
-710.675	178.730	-0.094	0.138
-709.660	614.274	-0.097	-0.246
-708.645	-200.000	0.021	-0.180
-707.631	-200.000	-0.019	0.088
-706.616	-122.214	0.231	-0.038
-705.602	-200.000	0.080	0.434
-704.587	-41.361	-0.082	0.043
-703.572	-67.008	-0.354	0.140
-702.558	-57.051	-0.392	0.174
-701.543	-200.000	-0.015	0.119
-700.529	36.838	-0.166	-0.148
-699.514	29.302	-0.216	-0.185
-698.499	-200.000	-0.011	0.061
-697.485	-116.980	-0.312	0.057
-696.470	-200.000	-0.049	-0.301
-695.456	253.278	0.165	-0.283
-694.441	139.755	0.247	0.327
-693.426	552.183	-0.144	-0.347
-692.412	245.622	-0.116	-0.196
-691.397	-145.208	-0.183	0.017
-690.383	377.762	0.109	-0.224
-689.368	582.675	0.026	0.063
-688.354	-200.000	0.042	0.317
-687.339	-200.000	-0.079	0.463
-686.324	-97.818	-0.246	-0.064
-685.310	800.000	0.039	-0.115
-684.295	544.767	-0.157	0.378
-683.281	22.567	-0.253	0.208
-682.266	-93.754	0.205	-0.057
-681.251	118.429	-0.072	0.090
-680.237	496.751	-0.124	-0.287
-679.222	-200.000	0.061	-0.283
-678.208	-20.079	-0.092	0.057
-677.193	800.000	-0.061	0.213
-676.178	16.694	-0.164	0.130
-675.164	273.186	0.109	0.193
-674.149	590.385	-0.108	-0.268
-673.135	-200.000	-0.048	0.267
-672.120	416.495	0.079	0.170
-671.105	11.416	0.231	0.178
-670.091	800.000	-0.049	0.155
-669.076	-200.000	-0.009	-0.124
-668.062	-50.381	-0.142	-0.068
-667.047	-51.211	0.133	-0.063
-666.032	-180.925	-0.490	0.010
-665.018	273.397	0.071	-0.125
-664.003	-180.105	0.132	-0.003
-662.989	-24.300	-0.079	-0.048
-661.974	192.347	-0.167	-0.252
-660.959	-140.059	-0.266	0.028
-659.945	-200.000	-0.056	-0.274
-658.930	315.719	-0.127	0.240
-657.916	84.701	-0.147	-0.162
-656.901	688.936	-0.159	-0.418
-655.886	-116.589	-0.180	0.033
-654.872	-200.000	-0.018	0.094
-653.857	800.000	-0.117	-0.327
-652.843	-50.577	0.436	0.207
-651.828	-130.211	-0.465	-0.064
-650.814	11.035	-0.145	0.111
-649.799	-41.469	-0.113	0.058
-648.784	106.749	-0.195	-0.232
-647.770	800.000	0.066	-0.290
-646.755	-98.869	0.236	0.060
-645.741	-66.244	-0.059	-0.024
-644.726	151.826	-0.095	-0.130
-643.711	405.879	-0.155	-0.329
-642.697	-101.088	-0.303	-0.075
-641.682	-168.642	0.156	-0.006
-640.668	800.000	-0.079	-0.296
-639.653	-106.814	0.268	0.060
-638.638	-72.467	0.095	-0.035
-637.624	-51.778	0.416	-0.194
-636.609	222.052	0.149	-0.241
-635.595	-87.235	-0.148	0.045
-634.580	800.000	-0.042	0.154
-633.565	-36.325	-0.272	0.147
-632.551	7.300	-0.142	-0.107
-631.536	164.299	0.271	0.383
-630.522	-18.595	0.130	0.081
-629.507	-200.000	0.028	0.286
-628.492	153.196	-0.148	-0.203
-627.478	800.000	0.060	-0.183
-626.463	800.000	0.003	0.010
-625.449	-95.764	0.287	-0.077
-624.434	-65.465	0.077	-0.031
-623.419	800.000	0.060	-0.193
-622.405	-181.316	0.252	0.005
-621.390	1.329	-0.171	0.124
-620.376	-50.913	-0.224	-0.106
-619.361	-88.932	0.217	-0.065
-618.346	-103.874	-0.476	0.111
-617.332	43.165	-0.306	-0.280
-616.317	115.265	0.157	0.192
-615.303	321.683	0.080	0.153
-614.288	214.628	-0.122	-0.194
-613.273	-200.000	0.029	-0.132
-612.259	-200.000	-0.007	0.391
-611.244	267.091	0.067	-0.118
-610.230	-44.640	0.290	-0.145
-609.215	-200.000	0.041	0.231
-608.201	-46.968	-0.114	-0.056
-607.186	-63.653	-0.139	-0.057
-606.171	-77.838	0.343	0.119
-605.157	137.695	0.088	-0.115
-604.142	77.555	0.221	-0.236
-603.128	119.653	-0.041	0.051
-602.113	-21.696	-0.230	0.140
-601.098	177.330	0.224	-0.328
-600.084	25.171	0.392	-0.326
-599.069	800.000	0.026	-0.111
-598.055	-200.000	-0.037	-0.173
-597.040	284.010	0.079	-0.143
-596.025	-146.977	0.389	-0.033
-595.011	-83.369	-0.143	0.046
-593.996	800.000	0.045	-0.185
-592.982	-12.394	0.135	-0.089
-591.967	46.332	0.094	-0.087
-590.952	85.811	-0.203	-0.224
-589.938	62.817	0.059	-0.059
-588.923	800.000	0.167	0.472
-587.909	-200.000	0.009	-0.124
-586.894	800.000	0.050	-0.177
-585.879	55.374	-0.283	0.275
-584.865	-200.000	-0.023	-0.116
-583.850	-22.594	0.396	0.240
-582.836	-147.511	-0.144	-0.012
-581.821	432.226	0.048	0.105
-580.806	369.110	0.058	0.117
-579.792	-36.614	-0.047	-0.025
-578.777	-105.298	0.132	-0.030
-577.763	205.164	-0.165	-0.257
-576.748	-30.371	-0.083	0.047
-575.733	-151.614	0.137	-0.010
-574.719	111.818	-0.187	-0.226
-573.704	-200.000	0.034	-0.181
-572.690	-43.537	-0.254	-0.128
-571.675	-114.888	-0.399	-0.076
-570.661	180.186	-0.046	0.068
-569.646	17.420	-0.324	-0.258
-568.631	-200.000	-0.028	-0.172
-567.617	-200.000	0.003	0.205
-566.602	-200.000	-0.258	0.001
-565.588	-2.600	-0.166	-0.116
-564.573	-200.000	0.013	-0.096
-563.558	128.759	-0.140	0.179
-562.544	800.000	0.157	0.468
-561.529	800.000	-0.092	0.284
-560.515	31.653	0.236	0.203
-559.500	117.727	-0.198	-0.243
-558.485	-111.560	-0.099	-0.020
-557.471	179.023	-0.055	0.081
-556.456	52.422	0.139	0.133
-555.442	-112.572	0.293	-0.058
-554.427	-111.252	-0.107	-0.022
-553.412	-39.427	-0.129	0.068
-552.398	-70.553	-0.194	-0.073
-551.383	201.815	0.239	-0.369
-550.369	124.689	0.102	0.129
-549.354	15.838	-0.300	-0.236
-548.339	-200.000	0.010	0.076
-547.325	430.124	-0.200	0.433
-546.310	9.143	0.018	-0.014
-545.296	32.019	0.113	-0.097
-544.281	-142.809	-0.297	0.029
-543.266	800.000	0.060	0.179
-542.252	-200.000	-0.054	0.373
-541.237	-181.671	0.243	0.005
-540.223	-75.011	0.145	0.052
-539.208	-181.862	0.106	0.002
-538.193	-128.363	-0.236	0.034
-537.179	-188.945	-0.388	0.005
-536.164	-200.000	0.042	0.424
-535.150	-61.167	0.163	-0.069
-534.135	10.171	-0.018	-0.014
-533.121	-200.000	-0.002	-0.041
-532.106	-200.000	-0.012	-0.315
-531.091	34.494	0.202	0.176
-530.077	-27.289	-0.206	-0.120
-529.062	528.482	0.065	0.153
-528.048	30.092	-0.231	-0.197
-527.033	-156.365	-0.149	0.009
-526.018	-200.000	-0.027	0.287
-525.004	800.000	0.039	0.112
-523.989	506.471	0.053	-0.123
-522.975	-138.782	0.330	-0.036
-521.960	-200.000	0.020	-0.183
-520.945	54.717	0.115	-0.111
-519.931	-14.121	-0.446	-0.288
-518.916	788.820	-0.042	-0.116
-517.902	222.911	-0.078	0.126
-516.887	-121.999	0.326	-0.054
-515.872	359.097	-0.152	-0.304
-514.858	754.465	-0.045	0.120
-513.843	358.519	0.114	0.228
-512.829	198.724	0.096	0.148
-511.814	-124.914	-0.456	-0.070
-510.799	-74.947	-0.208	-0.075
-509.785	-200.000	0.046	-0.343
-508.770	49.452	-0.284	-0.267
-507.756	82.947	0.220	-0.239
-506.741	222.390	-0.166	0.267
-505.726	-110.120	0.152	-0.032
-504.712	-47.855	0.220	-0.106
-503.697	-130.005	0.090	-0.012
-502.683	-51.410	0.294	-0.137
-501.668	169.247	-0.066	0.094
-500.653	800.000	-0.038	-0.140
-499.639	-73.278	-0.033	-0.012
-498.624	-200.000	-0.055	0.293
-497.610	-189.795	-0.261	0.003
-496.595	-141.668	0.365	-0.037
-495.581	106.684	-0.163	-0.193
-494.566	362.384	0.021	-0.041
-493.551	114.639	0.135	0.165
-492.537	54.510	-0.174	0.168
-491.522	332.407	0.052	0.101
-490.508	-98.756	-0.243	0.062
-489.493	95.637	0.091	-0.103
-488.478	50.848	-0.120	-0.113
-487.464	149.118	0.199	-0.269
-486.449	800.000	-0.104	-0.421
-485.435	-73.650	-0.276	-0.100
-484.420	-152.001	-0.095	-0.007
-483.405	-164.416	-0.290	0.013
-482.391	-99.336	0.092	0.023
-481.376	800.000	0.059	-0.170
-480.362	-73.158	-0.066	0.024
-479.347	-200.000	0.000	-0.084
-478.332	-89.033	-0.314	0.093
-477.318	244.697	-0.066	0.110
-476.303	122.556	0.100	-0.125
-475.289	-62.615	-0.078	-0.032
-474.274	-200.000	-0.000	-0.066
-473.259	158.666	0.218	-0.302
-472.245	132.005	-0.384	0.492
-471.230	-46.407	0.278	0.136
-470.216	435.453	0.128	0.277
-469.201	83.397	0.166	0.180
-468.186	556.535	0.109	0.261
-467.172	-132.504	0.147	0.019
-466.157	23.906	-0.177	0.145
-465.143	588.578	0.057	0.140
-464.128	800.000	-0.039	0.112
-463.113	-200.000	0.026	0.124
-462.099	-130.922	0.101	0.013
-461.084	-120.974	0.308	0.052
-460.070	440.062	0.088	0.192
-459.055	-127.776	-0.070	-0.010
-458.040	189.064	0.077	-0.115
-457.026	43.263	0.179	0.163
-456.011	270.145	0.045	-0.078
-454.997	340.247	-0.022	0.043
-453.982	260.098	0.050	0.086
-452.968	19.077	-0.052	0.042
-451.953	800.000	0.048	-0.132
-450.938	-63.119	-0.087	0.036
-449.924	800.000	0.054	0.150
-448.909	490.489	-0.174	0.397
-447.895	280.657	-0.126	0.225
-446.880	-120.913	0.286	-0.048
-445.865	-87.463	-0.024	0.007
-444.851	9.457	0.352	-0.266
-443.836	-72.245	-0.243	0.090
-442.822	-162.003	-0.092	0.005
-441.807	800.000	0.110	0.442
-440.792	35.701	0.176	0.154
-439.778	66.966	-0.182	-0.185
-438.763	-120.993	0.259	0.043
-437.749	107.491	0.155	0.184
-436.734	-109.924	-0.073	0.015
-435.719	-200.000	-0.001	0.056
-434.705	-22.761	-0.335	0.202
-433.690	-31.433	0.111	0.062
-432.676	297.703	0.059	0.108
-431.661	106.122	0.164	0.194
-430.646	8.013	0.385	-0.287
-429.632	-80.289	-0.189	0.063
-428.617	616.919	0.136	0.340
-427.603	303.112	0.059	-0.110
-426.588	-37.272	0.163	-0.087
-425.573	272.586	0.150	0.264
-424.559	-119.240	0.175	0.030
-423.544	-41.433	-0.235	-0.121
-422.530	101.002	-0.143	-0.166
-421.515	-84.718	-0.090	-0.028
-420.500	148.761	-0.144	0.194
-419.486	14.397	-0.088	-0.069
-418.471	-101.224	-0.147	-0.036
-417.457	-129.939	-0.298	0.041
-416.442	-184.113	0.143	-0.002
-415.428	-174.637	0.124	0.004
-414.413	61.196	-0.071	0.070
-413.398	800.000	-0.034	-0.133
-412.384	-100.654	0.592	-0.145
-411.369	152.906	0.059	0.080
-410.355	-122.224	0.129	-0.021
-409.340	-107.471	0.353	-0.077
-408.325	-200.000	0.014	-0.065
-407.311	-103.432	-0.162	0.038
-406.296	800.000	-0.088	-0.278
-405.282	-200.000	-0.041	-0.206
-404.267	-124.536	-0.112	-0.017
-403.252	21.817	-0.052	0.042
-402.238	19.556	-0.128	-0.102
-401.223	-77.602	-0.081	0.028
-400.209	159.489	0.146	0.202
-399.194	343.436	0.051	-0.098
-398.179	51.747	0.135	0.128
-397.165	29.349	-0.201	0.169
-396.150	-51.090	0.109	-0.051
-395.136	800.000	0.041	0.119
-394.121	-138.368	-0.425	0.047
-393.106	-122.892	0.123	0.020
-392.092	357.941	-0.107	-0.212
-391.077	221.576	-0.115	-0.184
-390.063	-200.000	0.013	0.117
-389.048	800.000	0.029	0.092
-388.033	-200.000	-0.083	0.000
-387.019	0.620	0.220	0.156
-386.004	372.282	0.018	0.037
-384.990	87.691	0.253	-0.278
-383.975	-28.866	-0.212	-0.121
-382.960	-47.910	0.243	0.117
-381.946	-16.935	-0.131	-0.082
-380.931	14.460	0.151	0.117
-379.917	156.184	0.106	0.145
-378.902	241.749	-0.089	-0.148
-377.888	49.735	0.273	0.256
-376.873	-125.484	-0.089	0.013
-375.858	70.970	0.099	-0.102
-374.844	-158.076	0.092	-0.005
-373.829	468.887	-0.147	0.329
-372.815	-66.431	-0.273	0.108
-371.800	105.960	-0.254	0.299
-370.785	800.000	0.019	0.070
-369.771	-36.382	0.275	-0.147
-368.756	-29.085	0.413	-0.235
-367.742	219.358	-0.094	-0.150
-366.727	72.612	0.276	0.286
-365.712	800.000	-0.062	-0.205
-364.698	44.730	0.303	-0.277
-363.683	-123.846	-0.268	0.042
-362.669	-10.594	-0.234	0.154
-361.654	-110.959	0.244	0.050
-360.639	194.197	-0.131	-0.197
-359.625	-200.000	-0.015	0.306
-358.610	800.000	-0.064	0.235
-357.596	38.734	0.089	0.079
-356.581	-200.000	-0.016	0.094
-355.566	69.018	-0.298	-0.304
-354.552	800.000	0.043	-0.171
-353.537	661.631	0.110	0.282
-352.523	124.334	0.111	-0.139
-351.508	101.846	0.185	-0.214
-350.493	-76.723	0.212	-0.074
-349.479	-39.505	-0.391	0.203
-348.464	-119.794	0.256	0.044
-347.450	800.000	-0.113	0.352
-346.435	-113.282	0.095	-0.018
-345.420	-141.995	-0.326	0.032
-344.406	-200.000	0.048	-0.330
-343.391	135.986	-0.302	0.390
-342.377	-26.246	0.177	0.103
-341.362	-15.186	-0.269	0.171
-340.348	-200.000	-0.003	0.094
-339.333	-166.966	0.193	-0.008
-338.318	29.507	-0.150	0.126
-337.304	-155.765	0.332	-0.021
-336.289	-26.546	-0.293	-0.170
-335.275	326.105	0.148	-0.281
-334.260	108.785	-0.149	-0.176
-333.245	-176.661	0.094	0.002
-332.231	268.261	0.119	-0.206
-331.216	178.137	0.183	-0.264
-330.202	-200.000	0.014	0.291
-329.187	-158.874	-0.205	0.012
-328.172	-155.226	-0.162	0.010
-327.158	-200.000	0.025	0.113
-326.143	45.844	0.114	0.105
-325.129	20.382	0.271	-0.217
-324.114	219.922	0.130	0.207
-323.099	-101.106	0.225	-0.055
-322.085	687.469	-0.165	-0.427
-321.070	-30.020	-0.435	-0.246
-320.056	-64.450	0.201	-0.081
-319.041	-104.711	0.320	-0.073
-318.026	-200.000	0.009	0.188
-317.012	-86.790	0.327	-0.099
-315.997	-11.966	0.183	0.119
-314.983	781.939	-0.006	-0.017
-313.968	800.000	-0.038	-0.121
-312.953	219.218	0.031	0.050
-311.939	800.000	-0.065	-0.203
-310.924	-200.000	0.005	-0.166
-309.910	188.415	-0.158	-0.234
-308.895	-28.785	0.139	0.079
-307.880	-20.243	-0.048	0.029
-306.866	-160.608	0.090	-0.005
-305.851	-165.479	-0.126	0.005
-304.837	-200.000	0.032	0.361
-303.822	38.572	0.203	-0.179
-302.807	800.000	0.039	-0.142
-301.793	-200.000	0.058	0.349
-300.778	-145.526	-0.534	0.047
-299.764	-135.021	-0.059	0.007
-298.749	4.528	-0.308	-0.224
-297.735	-68.653	-0.317	-0.121
-296.720	-196.374	-0.262	-0.002
-295.705	800.000	-0.015	-0.059
-294.691	326.238	-0.173	-0.329
-293.676	27.477	0.201	-0.167
-292.662	149.537	0.108	0.146
-291.647	131.127	-0.246	0.313
-290.632	653.659	0.071	-0.179
-289.618	800.000	0.053	-0.171
-288.603	-28.962	-0.265	-0.151
-287.589	800.000	0.063	-0.231
-286.574	202.185	0.057	0.087
-285.559	259.718	0.069	-0.118
-284.545	62.278	-0.207	-0.204
-283.530	800.000	-0.040	-0.134
-282.516	-64.470	-0.361	-0.145
-281.501	87.319	-0.173	-0.190
-280.486	72.220	0.085	-0.087
-279.472	-121.824	-0.365	-0.060
-278.457	-48.520	0.241	-0.115
-277.443	646.752	-0.082	0.208
-276.428	470.367	-0.094	-0.208
-275.413	-44.247	-0.102	0.051
-274.399	800.000	-0.063	0.204
-273.384	30.245	-0.099	0.084
-272.370	72.189	-0.065	-0.067
-271.355	800.000	-0.141	0.602
-270.340	-169.234	0.126	0.005
-269.326	161.424	0.127	0.176
-268.311	800.000	-0.023	-0.078
-267.297	-68.916	-0.221	0.084
-266.282	117.245	-0.111	-0.136
-265.267	-81.714	0.305	0.099
-264.253	198.615	-0.112	-0.170
-263.238	-125.992	0.449	0.067
-262.224	-141.649	-0.231	-0.023
-261.209	14.761	-0.417	-0.322
-260.195	256.729	0.084	0.142
-259.180	-70.106	-0.534	0.201
-258.165	-200.000	0.033	0.178
-257.151	368.277	-0.103	-0.205
-256.136	800.000	-0.055	-0.204
-255.122	-184.579	-0.115	-0.002
-254.107	6.400	0.017	-0.012
-253.092	-2.713	0.270	-0.187
-252.078	-200.000	-0.015	0.108
-251.063	-54.664	-0.175	0.078
-250.049	-116.371	-0.027	0.005
-249.034	-26.446	0.075	-0.043
-248.019	338.651	-0.089	0.172
-247.005	46.426	-0.255	0.234
-245.990	-95.239	0.143	0.038
-244.976	461.921	-0.065	-0.144
-243.961	-59.339	0.340	-0.144
-242.946	-114.161	0.094	0.018
-241.932	-90.034	0.147	-0.042
-240.917	115.720	-0.207	0.250
-239.903	213.749	0.087	0.137
-238.888	800.000	0.039	0.155
-237.873	800.000	-0.011	-0.031
-236.859	-126.399	-0.330	0.049
-235.844	-200.000	-0.001	-0.146
-234.830	-149.323	0.182	-0.014
-233.815	660.360	-0.146	0.372
-232.800	-8.206	0.339	-0.226
-231.786	21.189	0.127	0.102
-230.771	-200.000	0.015	-0.167
-229.757	177.783	0.143	-0.206
-228.742	-162.832	0.349	-0.017
-227.727	-200.000	-0.057	-0.352
-226.713	-200.000	0.049	-0.312
-225.698	-113.903	-0.189	-0.036
-224.684	800.000	-0.048	0.195
-223.669	-2.095	-0.139	0.096
-222.655	-200.000	-0.037	-0.216
-221.640	-105.679	-0.068	-0.015
-220.625	69.809	0.048	-0.049
-219.611	-177.359	0.201	-0.005
-218.596	211.890	0.073	0.114
-217.582	131.453	0.312	0.396
-216.567	16.306	-0.135	-0.105
-215.552	-200.000	0.089	0.591
-214.538	-117.247	-0.084	0.015
-213.523	124.264	0.119	0.147
-212.509	39.966	-0.238	-0.211
-211.494	800.000	-0.118	0.354
-210.479	-38.325	0.104	0.054
-209.465	90.684	0.201	0.223
-208.450	178.197	0.166	0.239
-207.436	-13.913	-0.091	-0.058
-206.421	-14.864	0.164	-0.104
-205.406	330.619	0.127	0.241
-204.392	-148.854	0.141	0.011
-203.377	-77.549	-0.143	-0.049
-202.363	-200.000	0.007	-0.032
-201.348	-46.505	0.236	0.114
-200.333	250.981	0.099	0.165
-199.319	203.360	0.142	-0.217
-198.304	-10.398	-0.168	-0.110
-197.290	-200.000	-0.010	-0.117
-196.275	229.256	0.018	-0.030
-195.260	-125.257	0.176	-0.027
-194.246	-87.618	-0.043	-0.013
-193.231	496.526	-0.171	0.387
-192.217	-200.000	0.000	-0.152
-191.202	800.000	0.033	-0.109
-190.187	-200.000	-0.055	0.274
-189.173	403.296	-0.080	-0.167
-188.158	800.000	0.027	0.083
-187.144	-161.150	-0.213	0.011
-186.129	477.436	-0.070	-0.157
-185.114	-66.623	-0.377	-0.147
-184.100	229.316	-0.190	0.305
-183.085	-52.838	0.419	0.190
-182.071	-200.000	-0.025	0.188
-181.056	-22.558	-0.066	-0.039
-180.042	-54.689	-0.155	0.069
-179.027	-50.434	0.181	-0.084
-178.012	-135.507	-0.065	-0.008
-176.998	800.000	0.085	-0.236
-175.983	-29.169	0.071	-0.040
-174.969	146.364	0.146	0.193
-173.954	77.607	0.147	0.155
-172.939	83.537	-0.071	0.076
-171.925	-116.281	0.088	-0.016
-170.910	-200.000	-0.061	0.374
-169.896	-200.000	0.010	-0.228
-168.881	-101.732	0.407	-0.097
-167.866	219.345	0.265	0.417
-166.852	-200.000	0.008	0.212
-165.837	-132.149	-0.150	0.019
-164.823	-72.384	-0.328	-0.120
-163.808	-200.000	-0.025	-0.176
-162.793	-6.627	-0.200	0.134
-161.779	-167.167	0.224	-0.009
-160.764	343.560	0.079	0.152
-159.750	-125.033	0.038	-0.006
-158.735	-195.111	0.040	0.000
-157.720	-200.000	-0.029	0.195
-156.706	115.832	-0.114	-0.138
-155.691	800.000	-0.087	-0.368
-154.677	615.274	-0.129	-0.318
-153.662	-88.241	0.313	0.092
-152.647	-71.979	-0.136	-0.050
-151.633	-200.000	-0.008	-0.122
-150.618	73.456	-0.136	0.140
-149.604	-200.000	-0.002	0.050
-148.589	34.417	0.221	0.190
-147.574	-5.418	-0.342	-0.231
-146.560	-200.000	0.023	0.346
-145.545	48.864	-0.230	0.213
-144.531	800.000	0.114	0.425
-143.516	-200.000	0.041	-0.257
-142.502	434.590	0.064	-0.137
-141.487	-73.085	0.332	0.120
-140.472	-162.932	0.118	0.006
-139.458	-80.974	0.183	0.060
-138.443	62.702	0.230	-0.226
-137.429	-142.958	0.351	0.033
-136.414	-38.383	-0.296	0.154
-135.399	-85.378	0.218	0.067
-134.385	-62.256	-0.056	0.023
-133.370	800.000	-0.034	0.117
-132.356	154.190	-0.087	0.117
-131.341	-57.397	-0.219	0.095
-130.326	82.538	0.170	0.182
-129.312	39.864	0.268	0.237
-128.297	800.000	-0.090	-0.318
-127.283	800.000	-0.036	0.112
-126.268	-36.568	0.090	-0.048
-125.253	800.000	-0.047	0.144
-124.239	-137.808	0.441	0.049
-123.224	-23.474	0.113	0.067
-122.210	-44.711	0.143	0.070
