DTS Sentinel unit serial number:	SN413079Multiplexer serial number:	ORYXHardware model number:	OX4-SRSoftware version number:	ORYX F/W v4.00 Oryx Data Collector v3.7.2.0data status	okinstallation	princeton_trtdifferential loss correction	single-endedforward channel	channel 1reverse channel	N/Adate	2019/09/17time	05:26:35forward acquisition time	60.00reverse acquisition time	0.00gamma	496.2192k internal	0.2324k external	0.2324temperature offset calibration	0.9965default loss term (dB/km)	0.3790temperature slope calibration	1.0000multiplexer offset coefficient	1.0000multiplexer slope coefficient	1.0000fibre end	0.00T internal ref (°C)	29.28T ext. ref 1 (°C)	0.14T ext. ref 2 (°C)	23.37length (m)	temperature (°C)	Stokes	anti-Stokes-747.200	531.443	-0.079	-0.188
-746.185	0.234	0.100	-0.072
-745.171	-200.000	0.031	-0.257
-744.156	-43.776	-0.155	-0.079
-743.142	-113.580	0.208	-0.041
-742.127	-76.673	0.097	-0.034
-741.112	-85.378	0.156	0.049
-740.098	-200.000	0.000	0.363
-739.083	125.047	0.089	0.114
-738.069	-10.366	-0.379	-0.254
-737.054	742.258	0.106	-0.288
-736.039	800.000	0.076	0.327
-735.025	-200.000	0.114	0.551
-734.010	-104.275	0.176	-0.041
-732.996	-200.000	0.008	0.134
-731.981	-32.768	-0.137	-0.077
-730.966	53.913	-0.139	-0.135
-729.952	-77.942	-0.020	0.007
-728.937	800.000	-0.101	-0.350
-727.923	-123.409	-0.216	0.035
-726.908	248.380	-0.210	0.359
-725.894	-111.748	-0.135	0.028
-724.879	-78.008	-0.228	0.079
-723.864	-200.000	-0.252	0.001
-722.850	-170.091	-0.313	0.011
-721.835	-131.244	-0.382	-0.051
-720.821	37.283	0.091	0.082
-719.806	112.057	-0.180	0.219
-718.791	-200.000	0.005	-0.132
-717.777	395.103	-0.032	0.068
-716.762	35.861	-0.260	-0.231
-715.748	69.031	0.216	-0.224
-714.733	-200.000	0.045	0.276
-713.718	-200.000	-0.008	-0.145
-712.704	-200.000	0.018	-0.122
-711.689	-127.403	-0.072	-0.011
-710.675	-200.000	0.023	-0.258
-709.660	800.000	-0.131	0.377
-708.645	-113.414	-0.157	0.031
-707.631	-88.246	0.080	-0.024
-706.616	-127.307	-0.134	-0.020
-705.602	-107.609	0.060	0.013
-704.587	791.733	-0.123	0.340
-703.572	73.892	-0.096	-0.101
-702.558	-200.000	-0.027	0.128
-701.543	121.839	0.217	0.272
-700.529	194.137	0.195	0.298
-699.514	148.213	-0.083	0.113
-698.499	-136.306	0.090	-0.011
-697.485	-200.000	-0.005	-0.058
-696.470	103.512	-0.216	-0.256
-695.456	800.000	0.032	0.099
-694.441	-101.045	0.288	-0.071
-693.426	-66.241	0.136	0.055
-692.412	44.585	-0.227	-0.211
-691.397	87.782	-0.186	-0.208
-690.383	62.656	-0.119	0.119
-689.368	209.339	0.111	-0.175
-688.354	157.480	-0.132	0.184
-687.339	800.000	0.145	-0.462
-686.324	40.327	0.356	0.323
-685.310	800.000	0.128	0.449
-684.295	113.159	0.100	-0.122
-683.281	-61.053	0.437	-0.186
-682.266	422.805	-0.047	0.102
-681.251	277.945	0.144	-0.259
-680.237	-200.000	0.007	0.238
-679.222	-109.606	0.255	0.054
-678.208	567.537	0.025	-0.061
-677.193	-200.000	-0.002	0.214
-676.178	-157.877	-0.153	0.009
-675.164	479.852	-0.114	-0.260
-674.149	800.000	-0.114	-0.375
-673.135	3.737	-0.105	0.077
-672.120	800.000	-0.071	-0.230
-671.105	-86.689	0.226	0.070
-670.091	-18.472	0.116	0.073
-669.076	204.547	0.204	-0.318
-668.062	-74.259	-0.319	-0.116
-667.047	-200.000	-0.009	0.265
-666.032	800.000	-0.051	-0.158
-665.018	-147.275	-0.425	-0.036
-664.003	704.990	-0.099	0.262
-662.989	16.541	-0.290	0.230
-661.974	94.636	-0.285	0.325
-660.959	-16.659	0.158	-0.101
-659.945	-61.750	0.093	0.039
-658.930	127.387	-0.166	0.212
-657.916	2.501	0.162	-0.118
-656.901	519.134	0.123	-0.289
-655.886	285.179	0.052	0.094
-654.872	-200.000	-0.005	-0.237
-653.857	-17.656	-0.272	-0.172
-652.843	-200.000	-0.023	-0.212
-651.828	-200.000	0.022	-0.175
-650.814	-200.000	-0.019	0.281
-649.799	153.127	0.153	0.210
-648.784	800.000	-0.048	0.197
-647.770	-200.000	0.014	-0.372
-646.755	-134.135	0.039	0.005
-645.741	-159.547	0.180	0.010
-644.726	-164.563	-0.177	0.008
-643.711	91.123	0.168	-0.190
-642.697	-96.935	-0.109	-0.029
-641.682	-23.250	-0.253	0.153
-640.668	800.000	-0.056	-0.195
-639.653	-77.537	-0.028	0.010
-638.638	-117.961	0.549	0.099
-637.624	176.877	0.086	-0.125
-636.609	63.064	-0.082	-0.083
-635.595	-51.797	0.400	0.187
-634.580	-94.883	-0.114	0.031
-633.565	41.649	0.154	0.140
-632.551	95.411	-0.037	-0.043
-631.536	-25.396	-0.393	0.234
-630.522	6.931	0.060	0.045
-629.507	-165.103	-0.075	-0.003
-628.492	-200.000	0.005	-0.402
-627.478	30.644	-0.028	0.024
-626.463	100.859	-0.151	-0.176
-625.449	22.994	-0.120	-0.099
-624.434	-4.657	0.177	0.123
-623.419	260.836	-0.114	-0.198
-622.405	-73.577	0.229	-0.084
-621.390	-200.000	0.027	-0.171
-620.376	-134.655	-0.176	-0.021
-619.361	-34.515	0.211	-0.116
-618.346	-200.000	-0.013	0.189
-617.332	-200.000	-0.030	-0.178
-616.317	800.000	0.034	0.140
-615.303	100.775	0.122	0.142
-614.288	-102.418	-0.201	0.048
-613.273	239.789	0.321	-0.537
-612.259	6.953	0.247	0.185
-611.244	103.140	0.159	-0.187
-610.230	134.732	0.191	0.249
-609.215	-200.000	-0.034	0.150
-608.201	-83.363	-0.144	-0.046
-607.186	34.659	0.138	-0.121
-606.171	159.811	0.046	-0.064
-605.157	56.816	0.124	0.122
-604.142	-98.707	0.229	-0.058
-603.128	496.233	0.149	0.343
-602.113	-163.717	-0.246	0.012
-601.098	-200.000	-0.043	0.330
-600.084	-129.994	0.154	-0.021
-599.069	170.130	-0.071	-0.103
-598.055	121.974	-0.167	-0.210
-597.040	-94.243	0.145	-0.040
-596.025	-83.464	0.367	0.118
-595.011	800.000	-0.127	-0.354
-593.996	-200.000	-0.125	0.000
-592.982	-144.353	-0.198	-0.018
-591.967	-146.614	0.099	0.009
-590.952	458.373	-0.043	-0.097
-589.938	-33.230	-0.138	0.077
-588.923	-67.833	-0.273	0.107
-587.909	2.833	-0.112	-0.082
-586.894	-70.553	0.175	-0.066
-585.879	800.000	-0.039	0.136
-584.865	-100.623	-0.366	0.091
-583.850	-121.269	-0.384	-0.064
-582.836	-8.187	0.114	0.077
-581.821	-110.477	0.330	-0.069
-580.806	348.501	0.115	-0.227
-579.792	448.124	0.099	0.219
-578.777	359.009	0.043	0.086
-577.763	-6.948	0.281	-0.192
-576.748	800.000	0.006	0.019
-575.733	800.000	-0.045	0.183
-574.719	381.428	-0.151	0.311
-573.704	-100.430	-0.231	-0.057
-572.690	67.339	-0.262	-0.268
-571.675	-84.298	-0.118	-0.037
-570.661	-59.320	0.300	-0.130
-569.646	-117.753	-0.026	-0.005
-568.631	291.388	0.143	-0.261
-567.617	536.127	-0.106	-0.252
-566.602	187.888	0.139	0.208
-565.588	-200.000	-0.026	0.273
-564.573	137.308	-0.287	0.377
-563.558	-23.062	-0.057	0.034
-562.544	-70.470	0.306	-0.116
-561.529	-1.023	-0.106	0.075
-560.515	-99.381	-0.519	0.131
-559.500	800.000	-0.041	0.126
-558.485	49.223	0.181	-0.171
-557.471	-61.791	-0.246	0.103
-556.456	800.000	0.058	0.205
-555.442	171.223	-0.214	-0.307
-554.427	386.937	-0.065	0.135
-553.412	800.000	0.116	0.363
-552.398	-95.092	-0.549	0.149
-551.383	-200.000	-0.029	-0.273
-550.369	281.343	0.075	-0.135
-549.354	0.290	0.242	0.173
-548.339	-74.829	-0.354	-0.127
-547.325	-77.440	-0.073	-0.025
-546.310	-200.000	0.025	-0.284
-545.296	-99.694	-0.360	0.090
-544.281	-72.768	0.271	-0.100
-543.266	58.116	-0.081	-0.080
-542.252	-89.372	0.119	0.035
-541.237	800.000	0.026	0.088
-540.223	50.186	0.193	-0.183
-539.208	-200.000	-0.039	-0.265
-538.193	32.426	-0.352	0.305
-537.179	341.692	0.053	-0.105
-536.164	-123.774	-0.123	0.020
-535.150	-159.573	0.325	-0.018
-534.135	-98.554	0.187	0.048
-533.121	-118.024	-0.266	0.048
-532.106	394.927	0.130	-0.271
-531.091	383.505	-0.140	-0.288
-530.077	-124.866	-0.214	0.033
-529.062	284.259	-0.099	0.178
-528.048	-27.364	0.100	-0.058
-527.033	-108.381	0.179	-0.039
-526.018	-90.163	0.233	-0.068
-525.004	240.876	0.159	-0.265
-523.989	294.623	-0.129	-0.235
-522.975	-91.734	-0.261	0.074
-521.960	-121.619	0.276	0.046
-520.945	-132.794	-0.161	0.021
-519.931	-75.161	-0.302	-0.108
-518.916	199.229	0.103	0.158
-517.902	-89.561	-0.276	0.081
-516.887	-121.752	-0.290	0.048
-515.872	-200.000	0.040	0.241
-514.858	459.732	0.121	-0.270
-513.843	-56.263	-0.336	-0.150
-512.829	77.355	0.155	-0.165
-511.814	4.511	0.136	0.100
-510.799	133.226	-0.124	0.160
-509.785	-15.740	0.170	-0.108
-508.770	-72.920	-0.323	0.119
-507.756	-141.583	-0.163	0.016
-506.741	86.868	-0.271	0.299
-505.726	800.000	-0.084	0.232
-504.712	189.303	-0.119	0.178
-503.697	-200.000	-0.057	-0.494
-502.683	-150.620	-0.189	0.014
-501.668	-117.048	-0.099	-0.018
-500.653	-200.000	-0.018	-0.111
-499.639	-77.930	-0.505	0.174
-498.624	268.846	-0.123	-0.215
-497.610	145.003	0.278	0.372
-496.595	-46.618	-0.174	0.085
-495.581	-86.943	-0.158	-0.048
-494.566	-153.695	-0.029	0.002
-493.551	-28.744	-0.139	-0.080
-492.537	800.000	0.064	-0.234
-491.522	306.678	-0.201	0.374
-490.508	39.233	0.123	0.110
-489.493	-41.612	0.381	-0.195
-488.478	-132.573	0.345	0.044
-487.464	800.000	0.143	0.459
-486.449	294.345	-0.145	-0.264
-485.435	800.000	0.094	-0.330
-484.420	-131.882	0.168	0.022
-483.405	-179.403	-0.300	-0.007
-482.391	-68.946	-0.121	-0.047
-481.376	35.381	-0.031	-0.027
-480.362	-200.000	0.006	-0.153
-479.347	-200.000	0.114	-0.550
-478.332	-121.586	-0.093	-0.015
-477.318	428.331	0.229	-0.494
-476.303	-74.532	0.348	0.125
-475.289	-59.246	0.312	-0.134
-474.274	-200.000	-0.031	-0.293
-473.259	-194.384	0.397	-0.003
-472.245	495.469	0.059	-0.135
-471.230	800.000	0.112	0.313
-470.216	-24.730	0.046	0.027
-469.201	-34.130	-0.059	-0.033
-468.186	252.749	0.137	-0.234
-467.172	352.835	0.112	-0.221
-466.157	101.338	0.081	0.095
-465.143	-39.055	-0.241	0.127
-464.128	727.063	0.104	-0.276
-463.113	164.880	-0.112	0.157
-462.099	106.562	-0.185	-0.219
-461.084	-122.661	-0.192	-0.031
-460.070	-200.000	-0.230	-0.000
-459.055	175.245	0.182	-0.263
-458.040	-79.025	-0.031	0.011
-457.026	-60.160	0.452	0.193
-456.011	-84.856	0.207	-0.065
-454.997	291.673	-0.191	0.346
-453.982	100.015	-0.112	0.130
-452.968	302.731	0.076	0.140
-451.953	-200.000	-0.018	0.094
-450.938	-159.037	0.225	-0.013
-449.924	38.435	0.080	0.071
-448.909	137.451	0.134	0.175
-447.895	-149.419	0.268	0.021
-446.880	-159.711	-0.039	0.002
-445.865	-200.000	-0.059	0.376
-444.851	-109.229	0.424	0.090
-443.836	-200.000	0.006	-0.105
-442.822	491.454	-0.073	-0.168
-441.807	15.855	-0.110	-0.086
-440.792	152.812	0.123	-0.168
-439.778	540.711	0.092	-0.218
-438.763	-19.261	0.238	0.147
-437.749	33.945	-0.060	-0.052
-436.734	-200.000	0.025	0.215
-435.719	-142.201	0.152	0.015
-434.705	800.000	0.056	-0.243
-433.690	421.741	0.058	-0.125
-432.676	654.683	0.013	0.033
-431.661	516.414	-0.087	-0.202
-430.646	113.438	0.136	0.165
-429.632	-200.000	0.048	0.265
-428.617	-105.695	-0.193	0.044
-427.603	-167.591	-0.300	0.012
-426.588	135.840	0.054	-0.070
-425.573	800.000	-0.047	-0.149
-424.559	-200.000	-0.016	0.178
-423.544	466.838	0.195	0.436
-422.530	800.000	-0.062	0.220
-421.515	408.792	-0.087	0.184
-420.500	306.275	-0.161	0.298
-419.486	-200.000	0.015	0.253
-418.471	-116.192	0.219	0.040
-417.457	123.622	0.003	0.004
-416.442	-200.000	-0.020	0.092
-415.428	-200.000	0.108	-0.000
-414.413	118.896	0.196	-0.241
-413.398	161.791	-0.028	0.039
-412.384	-97.089	-0.231	0.060
-411.369	66.708	0.121	0.123
-410.355	-200.000	0.021	0.244
-409.340	-50.645	0.144	0.068
-408.325	59.114	-0.109	0.107
-407.311	-200.000	0.056	0.308
-406.296	-119.264	-0.215	0.037
-405.282	-200.000	-0.030	-0.194
-404.267	395.517	-0.072	-0.149
-403.252	-200.000	0.011	-0.139
-402.238	-142.289	0.192	-0.019
-401.223	58.815	-0.163	-0.160
-400.209	-200.000	-0.013	-0.108
-399.194	-36.330	0.291	-0.156
-398.179	-148.855	0.508	-0.041
-397.165	-45.537	-0.148	-0.073
-396.150	2.176	0.163	-0.117
-395.136	108.514	-0.076	0.091
-394.121	146.314	-0.061	0.081
-393.106	-178.029	0.165	0.004
-392.092	36.865	-0.046	0.041
-391.077	10.232	-0.098	0.074
-390.063	-75.021	-0.153	-0.055
-389.048	-21.461	0.243	0.148
-388.033	177.040	-0.040	0.058
-387.019	-39.242	0.291	-0.152
-386.004	-101.021	-0.334	0.082
-384.990	256.374	0.023	0.040
-383.975	330.774	-0.013	0.025
-382.960	-90.270	0.304	0.088
-381.946	-133.507	0.363	-0.045
-380.931	-87.681	-0.457	-0.137
-379.917	-200.000	0.084	-0.393
-378.902	-87.722	0.188	0.056
-377.888	370.781	-0.116	0.235
-376.873	-200.000	-0.064	0.380
-375.858	8.332	-0.193	-0.144
-374.844	-105.945	-0.300	0.067
-373.829	-181.166	-0.222	0.004
-372.815	181.442	-0.074	0.108
-371.800	800.000	-0.060	0.202
-370.785	800.000	-0.032	-0.115
-369.771	-42.457	-0.309	-0.157
-368.756	-92.577	0.094	-0.026
-367.742	220.373	-0.141	0.224
-366.727	-147.113	0.231	0.020
-365.712	-179.675	-0.120	-0.003
-364.698	800.000	0.079	0.294
-363.683	-200.000	0.005	-0.032
-362.669	800.000	0.052	0.221
-361.654	12.733	0.258	0.198
-360.639	46.385	-0.132	-0.122
-359.625	-92.745	-0.197	0.055
-358.610	-159.668	-0.171	0.009
-357.596	-1.541	0.142	0.099
-356.581	600.679	-0.075	0.186
-355.566	-21.866	0.243	-0.147
-354.552	-31.147	0.101	-0.057
-353.537	-200.000	-0.024	0.185
-352.523	34.847	-0.209	0.182
-351.508	-112.200	0.329	-0.066
-350.493	800.000	-0.088	0.355
-349.479	580.315	-0.092	-0.224
-348.464	-174.426	-0.196	-0.006
-347.450	70.059	-0.228	-0.234
-346.435	15.780	-0.290	0.227
-345.420	120.151	-0.116	-0.143
-344.406	-200.000	-0.000	-0.089
-343.391	-200.000	0.032	-0.367
-342.377	-186.333	0.417	0.006
-341.362	-186.053	-0.157	-0.002
-340.348	800.000	-0.094	-0.343
-339.333	-114.239	0.165	-0.032
-338.318	-49.529	-0.079	-0.038
-337.304	474.813	0.030	-0.066
-336.289	-82.735	-0.190	-0.061
-335.275	446.378	-0.167	-0.364
-334.260	540.501	-0.042	0.098
-333.245	800.000	0.085	0.347
-332.231	-46.844	0.181	-0.088
-331.216	-200.000	-0.015	-0.155
-330.202	-145.612	-0.263	-0.023
-329.187	-54.572	0.259	0.116
-328.172	800.000	-0.086	0.269
-327.158	490.138	0.052	0.118
-326.143	170.620	-0.149	-0.211
-325.129	-87.502	0.207	-0.062
-324.114	-105.778	-0.262	0.059
-323.099	-38.153	-0.126	0.066
-322.085	-92.266	0.290	0.081
-321.070	554.203	-0.138	0.329
-320.056	91.760	-0.061	-0.068
-319.041	-116.126	-0.251	-0.046
-318.026	365.162	-0.049	-0.097
-317.012	218.702	-0.163	-0.259
-315.997	427.762	0.143	0.306
-314.983	-166.327	-0.279	-0.012
-313.968	-200.000	-0.038	0.418
-312.953	160.916	0.121	0.168
-311.939	150.325	0.098	0.132
-310.924	60.487	0.040	-0.039
-309.910	145.199	-0.157	-0.208
-308.895	800.000	0.084	-0.234
-307.880	-107.959	0.244	-0.053
-306.866	-196.304	-0.229	0.002
-305.851	-200.000	0.014	-0.167
-304.837	81.964	-0.055	-0.059
-303.822	45.119	0.102	0.093
-302.807	-200.000	-0.059	0.291
-301.793	496.431	0.140	0.319
-300.778	-173.296	0.067	0.002
-299.764	132.017	0.199	0.254
-298.749	-79.933	-0.405	-0.135
-297.735	-66.357	-0.164	0.065
-296.720	163.917	-0.099	0.138
-295.705	-200.000	-0.021	0.209
-294.691	101.564	-0.140	-0.162
-293.676	-200.000	-0.015	-0.139
-292.662	75.948	-0.251	-0.263
-291.647	303.523	0.175	0.321
-290.632	800.000	-0.086	-0.286
-289.618	20.678	0.225	-0.181
-288.603	-73.306	0.219	-0.080
-287.589	-200.000	0.008	0.147
-286.574	800.000	0.025	-0.108
-285.559	11.190	0.134	0.102
-284.545	-200.000	-0.007	-0.135
-283.530	123.382	0.036	0.045
-282.516	-84.418	-0.308	-0.097
-281.501	72.691	0.238	0.246
-280.486	469.958	0.073	-0.163
-279.472	65.574	0.109	-0.110
-278.457	-200.000	-0.004	0.229
-277.443	-200.000	-0.030	0.170
-276.428	366.697	-0.161	-0.321
-275.413	-200.000	-0.018	-0.203
-274.399	-43.895	-0.351	0.175
-273.384	141.344	0.092	0.120
-272.370	-165.046	-0.187	0.008
-271.355	-43.169	-0.211	-0.106
-270.340	-200.000	0.059	-0.309
-269.326	82.439	-0.066	-0.071
-268.311	85.063	-0.075	-0.081
-267.297	-120.147	-0.188	-0.032
-266.282	-200.000	-0.009	-0.050
-265.267	398.699	0.159	0.330
-264.253	773.436	0.149	0.402
-263.238	800.000	0.106	0.292
-262.224	705.406	0.157	0.411
-261.209	-54.250	0.103	0.046
-260.195	-134.213	0.096	-0.012
-259.180	479.221	-0.095	-0.213
-258.165	-200.000	-0.007	0.262
-257.151	-200.000	0.012	0.141
-256.136	-200.000	0.020	-0.125
-255.122	58.426	-0.027	-0.027
-254.107	221.852	-0.053	-0.085
-253.092	-130.081	0.167	0.023
-252.078	7.684	0.222	0.165
-251.063	-50.405	-0.132	-0.062
-250.049	-17.306	0.188	-0.117
-249.034	-81.586	0.209	-0.068
-248.019	166.734	0.139	0.195
-247.005	-73.227	-0.048	-0.017
-245.990	800.000	-0.085	-0.248
-244.976	42.960	-0.369	0.333
-243.961	-200.000	0.010	0.081
-242.946	10.264	0.135	0.102
-241.932	-137.512	-0.205	-0.023
-240.917	-40.266	-0.077	0.040
-239.903	-42.425	-0.173	0.087
-238.888	47.290	0.177	-0.163
-237.873	-38.208	-0.467	-0.245
-236.859	-200.000	0.007	0.086
-235.844	-110.368	0.322	0.066
-234.830	60.308	0.328	-0.321
-233.815	-13.621	0.173	0.111
-232.800	-79.466	0.078	0.026
-231.786	255.989	0.224	0.379
-230.771	-185.928	0.078	-0.001
-229.757	2.616	0.313	-0.224
-228.742	-77.498	-0.248	-0.085
-227.727	43.330	-0.230	-0.208
-226.713	764.273	0.100	-0.268
-225.698	-45.827	-0.271	0.132
-224.684	-200.000	-0.044	-0.237
-223.669	-56.270	0.023	0.010
-222.655	-149.516	-0.244	-0.019
-221.640	-200.000	0.018	0.379
-220.625	-74.852	-0.194	-0.069
-219.611	-126.881	-0.018	-0.003
-218.596	-132.382	0.193	0.025
-217.582	-113.789	0.261	-0.050
-216.567	-122.530	-0.217	0.035
-215.552	-10.830	0.044	0.028
-214.538	-200.000	-0.014	0.332
-213.523	544.579	0.084	0.199
-212.509	-98.871	0.266	0.067
-211.494	160.864	0.150	0.208
-210.479	13.722	-0.158	0.121
-209.465	342.064	-0.077	-0.148
-208.450	-35.845	0.151	-0.081
-207.436	371.981	-0.122	0.244
-206.421	-60.390	0.073	0.031
-205.406	133.138	0.216	0.276
-204.392	800.000	0.018	-0.057
-203.377	-40.452	-0.107	0.055
-202.363	-200.000	-0.041	-0.202
-201.348	-200.000	-0.042	-0.337
-200.333	-200.000	-0.007	-0.214
-199.319	1.196	0.174	-0.123
-198.304	619.830	0.085	-0.212
-197.290	-200.000	-0.001	0.012
-196.275	667.805	0.133	-0.340
-195.260	37.502	0.365	0.320
-194.246	-137.683	0.141	-0.016
-193.231	-15.456	0.265	0.167
-192.217	-86.409	-0.110	0.033
-191.202	304.763	-0.098	-0.179
-190.187	80.348	0.155	0.165
-189.173	-200.000	-0.010	0.380
-188.158	800.000	-0.049	-0.188
-187.144	-101.876	-0.219	-0.052
-186.129	301.564	-0.046	-0.084
-185.114	-200.000	0.021	-0.168
-184.100	17.212	0.150	-0.117
-183.085	-53.711	-0.084	0.038
-182.071	-200.000	0.003	-0.041
-181.056	-56.530	-0.150	-0.066
-180.042	130.971	0.028	-0.035
-179.027	336.872	-0.066	0.126
-178.012	-146.262	-0.278	0.024
-176.998	-200.000	0.015	0.088
-175.983	-146.402	-0.308	-0.027
-174.969	346.716	0.232	0.451
-173.954	115.531	0.070	-0.084
-172.939	-134.751	0.191	-0.023
-171.925	800.000	0.066	-0.189
-170.910	114.733	-0.071	-0.086
-169.896	-75.628	0.242	0.085
-168.881	-36.279	-0.210	0.112
-167.866	-97.808	0.328	-0.084
-166.852	-57.706	-0.223	-0.096
-165.837	800.000	-0.077	-0.217
-164.823	-21.528	-0.204	0.123
-163.808	140.163	0.225	-0.293
-162.793	800.000	-0.010	-0.033
-161.779	-120.665	-0.035	-0.006
-160.764	181.257	-0.127	-0.185
-159.750	734.998	-0.107	0.283
-158.735	314.736	0.102	0.189
-157.720	-200.000	0.064	-0.482
-156.706	176.939	0.105	-0.151
-155.691	580.882	-0.146	-0.354
-154.677	76.402	0.152	-0.159
-153.662	-11.208	-0.152	-0.099
-152.647	-32.544	0.303	-0.166
-151.633	-200.000	0.035	-0.158
-150.618	800.000	0.128	0.550
-149.604	-66.880	-0.386	0.151
-148.589	-200.000	0.049	0.315
-147.574	578.584	0.060	-0.145
-146.560	-61.769	0.414	0.171
-145.545	223.884	0.186	-0.296
-144.531	-79.017	-0.188	-0.063
-143.516	-127.701	0.057	-0.008
-142.502	-200.000	-0.018	0.110
-141.487	72.029	0.247	0.253
-140.472	800.000	0.036	-0.117
-139.458	-200.000	0.015	-0.270
-138.443	415.092	0.068	0.144
-137.429	109.892	0.077	-0.091
-136.414	234.821	-0.096	0.156
-135.399	-200.000	0.016	-0.074
-134.385	154.179	-0.068	-0.092
-133.370	574.156	0.063	0.150
-132.356	137.536	0.098	0.126
-131.341	-200.000	0.025	0.359
-130.326	800.000	-0.061	-0.250
-129.312	-200.000	-0.005	0.329
-128.297	-173.378	-0.256	-0.008
-127.283	-79.458	-0.043	0.014
-126.268	336.081	-0.076	-0.146
-125.253	-200.000	0.009	-0.082
-124.239	307.948	-0.099	0.182
-123.224	248.912	-0.128	-0.214
