DTS Sentinel unit serial number:	SN413079Multiplexer serial number:	ORYXHardware model number:	OX4-SRSoftware version number:	ORYX F/W v4.00 Oryx Data Collector v3.7.2.0data status	okinstallation	princeton_trtdifferential loss correction	single-endedforward channel	channel 1reverse channel	N/Adate	2019/09/14time	09:18:35forward acquisition time	60.00reverse acquisition time	0.00gamma	496.2192k internal	0.2324k external	0.2324temperature offset calibration	1.0069default loss term (dB/km)	0.3790temperature slope calibration	1.0000multiplexer offset coefficient	1.0000multiplexer slope coefficient	1.0000fibre end	0.00T internal ref (°C)	30.87T ext. ref 1 (°C)	3.80T ext. ref 2 (°C)	28.73length (m)	temperature (°C)	Stokes	anti-Stokes-747.200	544.312	-0.030	0.073
-746.185	11.815	0.100	0.077
-745.171	-200.000	0.031	-0.155
-744.156	259.942	-0.030	0.053
-743.142	-200.000	0.003	0.237
-742.127	30.184	0.322	0.278
-741.112	53.847	0.174	-0.169
-740.098	456.601	0.073	-0.164
-739.083	-157.833	-0.344	-0.021
-738.069	155.393	-0.149	-0.206
-737.054	-200.000	-0.003	0.131
-736.039	39.531	-0.332	0.300
-735.025	1.609	0.276	0.201
-734.010	513.178	0.173	-0.408
-732.996	-130.373	0.416	-0.057
-731.981	-99.218	-0.264	0.067
-730.966	11.996	-0.181	-0.141
-729.952	105.090	-0.186	-0.221
-728.937	-200.000	-0.000	-0.183
-727.923	-56.619	0.101	0.045
-726.908	-19.225	-0.177	0.111
-725.894	-78.913	-0.300	-0.103
-724.879	-200.000	0.015	-0.255
-723.864	378.262	0.092	0.189
-722.850	215.374	-0.137	-0.219
-721.835	288.670	-0.159	-0.291
-720.821	-106.843	-0.221	-0.049
-719.806	-48.684	0.231	0.112
-718.791	504.764	0.169	0.396
-717.777	21.099	-0.101	-0.082
-716.762	50.195	-0.129	-0.123
-715.748	-27.962	0.233	0.136
-714.733	-182.727	-0.231	0.004
-713.718	65.134	0.080	0.082
-712.704	67.292	-0.206	-0.211
-711.689	-5.954	-0.349	-0.241
-710.675	108.608	-0.149	0.180
-709.660	385.086	-0.030	-0.062
-708.645	-121.159	0.184	0.031
-707.631	-200.000	0.045	0.314
-706.616	281.045	0.048	-0.087
-705.602	-200.000	-0.099	-0.441
-704.587	47.526	-0.132	-0.124
-703.572	-200.000	-0.025	-0.281
-702.558	-200.000	-0.011	-0.060
-701.543	-63.721	0.336	-0.139
-700.529	-200.000	-0.010	-0.052
-699.514	-200.000	-0.001	0.194
-698.499	-181.188	0.018	0.000
-697.485	-29.696	0.250	-0.144
-696.470	152.702	-0.110	0.152
-695.456	32.627	0.154	-0.134
-694.441	-115.119	-0.317	-0.061
-693.426	-90.977	-0.258	-0.075
-692.412	800.000	-0.027	0.088
-691.397	149.680	-0.014	-0.019
-690.383	-156.113	0.218	0.014
-689.368	-71.899	0.166	0.062
-688.354	-46.502	0.145	0.072
-687.339	370.752	0.086	-0.175
-686.324	-167.337	-0.243	0.010
-685.310	-34.161	-0.178	0.098
-684.295	-81.993	-0.114	0.038
-683.281	229.776	-0.044	-0.072
-682.266	-200.000	-0.033	-0.157
-681.251	289.292	0.115	-0.210
-680.237	763.612	0.064	0.175
-679.222	800.000	-0.047	0.190
-678.208	-104.430	0.116	0.027
-677.193	-200.000	-0.015	-0.543
-676.178	-200.000	0.011	-0.208
-675.164	800.000	-0.012	-0.041
-674.149	-92.994	0.340	0.095
-673.135	31.269	-0.295	0.255
-672.120	-10.338	-0.083	-0.055
-671.105	-183.209	0.231	-0.004
-670.091	-200.000	-0.027	0.182
-669.076	-200.000	-0.019	-0.187
-668.062	-39.874	-0.029	0.015
-667.047	-172.648	-0.247	-0.008
-666.032	-55.351	-0.214	-0.097
-665.018	-200.000	0.011	0.151
-664.003	125.466	-0.179	-0.227
-662.989	-25.061	-0.213	0.127
-661.974	261.906	0.086	0.149
-660.959	94.847	-0.168	-0.192
-659.945	-147.650	0.249	-0.021
-658.930	76.654	0.072	-0.077
-657.916	-87.645	0.247	0.075
-656.901	-110.587	0.287	0.060
-655.886	-42.534	-0.148	-0.076
-654.872	-104.211	-0.251	-0.059
-653.857	-147.871	-0.213	-0.018
-652.843	196.084	-0.080	-0.123
-651.828	-85.136	-0.479	0.151
-650.814	-59.311	-0.222	-0.096
-649.799	-138.630	0.197	0.022
-648.784	-3.599	-0.264	-0.184
-647.770	341.774	-0.064	0.127
-646.755	-68.781	-0.171	0.066
-645.741	-200.000	0.001	-0.275
-644.726	-200.000	-0.007	0.078
-643.711	-200.000	-0.016	-0.345
-642.697	196.392	-0.053	-0.081
-641.682	-200.000	-0.003	-0.046
-640.668	-113.587	0.248	-0.049
-639.653	-47.644	-0.116	-0.057
-638.638	-12.885	0.225	0.147
-637.624	95.387	0.151	-0.173
-636.609	-136.345	0.196	0.023
-635.595	151.935	0.081	0.111
-634.580	-110.263	-0.388	-0.081
-633.565	72.810	0.061	0.064
-632.551	137.521	-0.109	-0.143
-631.536	154.332	-0.059	0.082
-630.522	-36.783	0.228	0.123
-629.507	-56.760	-0.465	0.207
-628.492	73.992	0.097	-0.102
-627.478	-63.176	-0.253	0.105
-626.463	800.000	0.045	0.186
-625.449	-44.709	-0.403	0.202
-624.434	55.100	-0.232	-0.225
-623.419	56.331	-0.123	-0.120
-622.405	-8.941	0.067	-0.045
-621.390	114.279	-0.059	-0.072
-620.376	-147.127	-0.314	-0.027
-619.361	80.997	-0.069	0.075
-618.346	123.425	-0.181	-0.228
-617.332	-131.279	-0.258	-0.034
-616.317	82.843	-0.118	0.129
-615.303	-200.000	0.038	0.243
-614.288	301.749	-0.132	0.245
-613.273	-56.524	0.124	-0.055
-612.259	11.344	0.236	-0.182
-611.244	341.533	-0.083	0.162
-610.230	-18.941	-0.162	0.101
-609.215	-200.000	0.021	0.218
-608.201	42.182	0.168	0.154
-607.186	57.760	0.163	0.160
-606.171	-200.000	-0.019	-0.168
-605.157	800.000	0.039	-0.157
-604.142	-127.963	-0.166	0.024
-603.128	-45.708	0.253	0.125
-602.113	145.958	0.040	-0.054
-601.098	-50.874	0.169	0.080
-600.084	-200.000	-0.011	-0.071
-599.069	288.430	0.052	0.094
-598.055	-62.091	-0.330	-0.138
-597.040	468.355	-0.080	-0.181
-596.025	-34.419	0.189	0.104
-595.011	471.391	0.026	0.058
-593.996	-83.255	0.415	0.134
-592.982	-64.376	0.112	0.046
-591.967	-200.000	0.016	-0.403
-590.952	800.000	-0.108	-0.329
-589.938	800.000	-0.063	-0.221
-588.923	-96.284	0.183	-0.049
-587.909	-95.428	-0.243	0.066
-586.894	-200.000	-0.011	0.116
-585.879	-200.000	0.045	0.304
-584.865	-200.000	0.034	-0.163
-583.850	800.000	-0.061	0.189
-582.836	800.000	-0.050	-0.216
-581.821	-54.582	0.144	0.065
-580.806	800.000	-0.072	0.252
-579.792	-200.000	0.019	-0.092
-578.777	72.969	0.302	-0.317
-577.763	-88.701	-0.220	0.066
-576.748	-200.000	-0.002	0.347
-575.733	-18.923	0.103	0.064
-574.719	109.992	0.204	-0.245
-573.704	-196.748	-0.170	-0.001
-572.690	-128.163	-0.321	-0.046
-571.675	800.000	-0.030	-0.093
-570.661	-132.134	0.302	-0.039
-569.646	800.000	-0.032	0.120
-568.631	85.462	0.020	-0.022
-567.617	146.612	0.132	-0.178
-566.602	178.236	0.131	-0.192
-565.588	73.789	-0.261	-0.275
-564.573	-200.000	0.001	-0.170
-563.558	-100.201	-0.368	0.092
-562.544	67.328	-0.049	-0.051
-561.529	495.998	-0.075	0.173
-560.515	800.000	-0.050	0.197
-559.500	791.101	0.064	0.175
-558.485	-52.109	0.182	0.085
-557.471	-137.876	0.213	-0.024
-556.456	-122.111	-0.477	-0.078
-555.442	-54.889	-0.147	-0.066
-554.427	-94.029	0.410	0.113
-553.412	27.849	-0.329	0.278
-552.398	-200.000	0.007	0.076
-551.383	-118.839	0.133	0.024
-550.369	217.496	-0.176	0.281
-549.354	410.882	0.049	-0.104
-548.339	194.585	-0.103	-0.157
-547.325	-64.313	-0.212	0.086
-546.310	18.300	0.205	-0.164
-545.296	-200.000	-0.028	0.188
-544.281	23.491	0.242	-0.199
-543.266	-200.000	0.002	0.145
-542.252	19.150	-0.310	0.249
-541.237	-200.000	-0.068	-0.355
-540.223	-77.212	0.024	0.008
-539.208	-200.000	-0.025	0.165
-538.193	-145.956	-0.073	-0.006
-537.179	-67.988	0.039	0.015
-536.164	151.764	-0.114	0.155
-535.150	34.102	0.050	0.043
-534.135	800.000	-0.050	-0.174
-533.121	-12.698	-0.213	0.139
-532.106	590.975	0.048	0.119
-531.091	-200.000	0.079	-0.361
-530.077	-200.000	-0.111	-0.596
-529.062	277.005	-0.103	-0.183
-528.048	-129.661	0.142	0.020
-527.033	800.000	-0.089	-0.248
-526.018	417.956	0.029	-0.063
-525.004	285.437	0.084	-0.151
-523.989	-102.915	-0.194	0.046
-522.975	-105.468	-0.459	-0.104
-521.960	347.291	0.161	0.317
-520.945	-50.186	0.170	0.080
-519.931	-31.944	0.318	-0.178
-518.916	-104.113	-0.332	-0.077
-517.902	-200.000	0.012	-0.061
-516.887	-27.561	0.085	0.049
-515.872	170.560	0.030	0.043
-514.858	-94.489	0.151	-0.041
-513.843	257.649	0.111	-0.191
-512.829	193.014	0.136	-0.206
-511.814	800.000	0.014	-0.043
-510.799	-16.534	-0.119	-0.076
-509.785	185.560	-0.168	-0.250
-508.770	73.809	-0.060	-0.063
-507.756	-57.137	0.044	-0.019
-506.741	-33.437	-0.157	0.087
-505.726	788.421	-0.046	-0.126
-504.712	-134.399	-0.364	0.045
-503.697	282.820	0.053	0.094
-502.683	800.000	0.085	-0.318
-501.668	406.360	-0.088	-0.185
-500.653	-200.000	0.006	0.165
-499.639	-200.000	0.059	-0.275
-498.624	-188.419	0.185	-0.002
-497.610	-160.677	0.216	0.011
-496.595	800.000	0.084	0.266
-495.581	-87.175	0.172	-0.052
-494.566	-129.848	-0.257	0.035
-493.551	7.651	0.188	-0.141
-492.537	-130.966	0.183	-0.024
-491.522	110.020	-0.283	-0.339
-490.508	-159.042	0.227	-0.013
-489.493	526.065	-0.087	0.205
-488.478	-110.648	-0.308	-0.064
-487.464	391.894	-0.109	0.227
-486.449	800.000	-0.049	-0.163
-485.435	213.060	-0.151	-0.239
-484.420	-200.000	0.003	-0.017
-483.405	-200.000	-0.003	-0.133
-482.391	-54.158	0.223	-0.101
-481.376	257.602	-0.095	0.163
-480.362	-150.749	0.132	0.010
-479.347	-112.835	-0.439	-0.087
-478.332	800.000	0.003	-0.009
-477.318	-69.540	-0.347	0.133
-476.303	-110.740	0.224	0.046
-475.289	51.102	-0.330	0.312
-474.274	-65.487	0.256	-0.103
-473.259	6.875	-0.082	0.061
-472.245	800.000	-0.145	0.474
-471.230	-200.000	0.044	0.197
-470.216	643.812	0.026	-0.067
-469.201	-143.844	0.212	-0.020
-468.186	226.977	-0.239	0.388
-467.172	-20.415	0.339	0.208
-466.157	-171.667	0.137	0.005
-465.143	88.686	0.211	0.234
-464.128	-200.000	0.015	0.167
-463.113	141.109	0.138	-0.182
-462.099	12.547	0.234	0.181
-461.084	-38.585	-0.135	-0.071
-460.070	96.851	-0.153	-0.175
-459.055	19.810	-0.095	0.077
-458.040	-136.262	0.321	0.037
-457.026	293.799	0.009	-0.016
-456.011	800.000	0.021	-0.074
-454.997	800.000	0.063	0.200
-453.982	343.990	0.062	0.121
-452.968	-57.609	0.467	0.204
-451.953	-181.411	-0.534	0.010
-450.938	-200.000	-0.022	0.150
-449.924	-166.644	-0.088	-0.004
-448.909	30.634	-0.045	-0.039
-447.895	-184.779	0.246	0.004
-446.880	19.693	-0.258	-0.207
-445.865	800.000	0.101	-0.301
-444.851	-50.364	-0.369	0.174
-443.836	-156.650	0.249	-0.015
-442.822	78.350	-0.037	0.040
-441.807	-103.385	0.106	0.025
-440.792	800.000	-0.053	0.168
-439.778	455.269	-0.102	0.226
-438.763	35.467	0.110	-0.097
-437.749	-200.000	-0.033	0.292
-436.734	364.929	-0.118	-0.237
-435.719	242.949	-0.071	-0.118
-434.705	800.000	0.084	-0.363
-433.690	-117.789	-0.348	-0.062
-432.676	-102.271	0.098	-0.024
-431.661	-200.000	-0.007	0.035
-430.646	-158.649	0.154	0.009
-429.632	-200.000	0.001	0.009
-428.617	365.561	-0.170	0.341
-427.603	116.348	0.181	0.221
-426.588	87.737	-0.148	-0.164
-425.573	748.017	-0.104	-0.278
-424.559	32.761	0.144	0.125
-423.544	-9.302	-0.185	-0.123
-422.530	67.559	-0.300	-0.305
-421.515	-109.102	-0.120	-0.025
-420.500	-26.843	-0.090	0.052
-419.486	21.599	0.183	-0.148
-418.471	-165.479	-0.442	0.019
-417.457	244.862	0.174	0.291
-416.442	61.313	0.227	-0.225
-415.428	87.311	0.119	0.132
-414.413	-78.012	0.175	-0.060
-413.398	31.956	0.171	0.147
-412.384	206.682	0.106	0.165
-411.369	-76.694	0.190	0.066
-410.355	-175.800	0.137	-0.004
-409.340	25.574	-0.225	0.186
-408.325	77.477	0.211	-0.223
-407.311	800.000	0.082	0.234
-406.296	501.728	-0.008	-0.019
-405.282	-5.388	0.265	0.182
-404.267	385.813	0.095	-0.195
-403.252	-139.793	0.251	0.026
-402.238	800.000	-0.020	0.071
-401.223	-58.892	-0.299	-0.129
-400.209	184.524	0.351	-0.518
-399.194	138.680	-0.092	-0.120
-398.179	151.275	-0.041	0.055
-397.165	-185.569	-0.171	0.003
-396.150	-200.000	0.005	0.173
-395.136	800.000	0.008	0.028
-394.121	-32.405	0.225	0.125
-393.106	-200.000	-0.053	-0.243
-392.092	50.437	0.192	0.180
-391.077	-133.439	-0.211	0.026
-390.063	90.002	0.079	-0.087
-389.048	-48.393	0.204	-0.098
-388.033	151.482	0.201	-0.273
-387.019	-198.586	-0.280	-0.002
-386.004	-60.871	-0.380	0.160
-384.990	-200.000	-0.020	-0.135
-383.975	800.000	0.131	-0.392
-382.960	-21.353	0.212	0.129
-381.946	800.000	-0.033	0.112
-380.931	22.372	0.392	0.319
-379.917	-200.000	0.004	0.087
-378.902	-99.703	-0.190	-0.047
-377.888	-35.966	-0.105	0.056
-376.873	-68.604	-0.544	0.210
-375.858	-200.000	-0.010	0.168
-374.844	430.935	0.167	0.360
-373.829	-38.660	-0.238	-0.125
-372.815	-73.485	0.151	0.055
-371.800	-200.000	-0.027	0.152
-370.785	39.442	0.199	0.177
-369.771	-97.896	0.074	0.019
-368.756	-54.066	-0.042	-0.019
-367.742	-109.026	0.189	0.040
-366.727	243.907	-0.038	-0.064
-365.712	-200.000	-0.028	-0.256
-364.698	-200.000	0.018	-0.518
-363.683	43.232	0.203	0.184
-362.669	-200.000	-0.009	-0.123
-361.654	-22.421	-0.130	-0.078
-360.639	800.000	-0.043	0.178
-359.625	6.144	0.221	-0.163
-358.610	7.224	-0.079	-0.059
-357.596	-5.220	-0.387	0.265
-356.581	-200.000	0.046	0.338
-355.566	-126.490	-0.068	-0.010
-354.552	103.334	0.171	-0.200
-353.537	62.488	-0.164	-0.163
-352.523	-95.047	0.141	0.038
-351.508	-18.403	0.329	-0.205
-350.493	-37.760	0.385	-0.204
-349.479	-80.399	-0.325	-0.108
-348.464	46.267	-0.200	-0.185
-347.450	800.000	0.028	0.114
-346.435	39.776	0.086	0.077
-345.420	800.000	-0.024	-0.092
-344.406	717.157	-0.147	0.387
-343.391	-200.000	0.019	-0.165
-342.377	27.291	0.113	-0.094
-341.362	755.135	-0.163	-0.437
-340.348	800.000	0.144	0.409
-339.333	800.000	-0.101	-0.282
-338.318	180.808	0.033	-0.048
-337.304	352.031	0.055	0.108
-336.289	-12.052	-0.149	0.097
-335.275	-88.752	0.339	-0.100
-334.260	-200.000	-0.001	-0.335
-333.245	22.054	-0.009	0.007
-332.231	45.275	0.028	0.025
-331.216	-39.587	0.263	-0.137
-330.202	-99.946	0.201	-0.050
-329.187	-200.000	-0.036	0.354
-328.172	-41.529	-0.293	0.150
-327.158	556.464	-0.055	-0.133
-326.143	321.445	-0.078	-0.147
-325.129	-20.528	-0.175	0.107
-324.114	-10.615	0.160	-0.106
-323.099	605.382	0.099	0.244
-322.085	-136.588	0.041	0.005
-321.070	-21.645	0.349	0.211
-320.056	-75.887	0.080	-0.028
-319.041	252.402	-0.108	0.183
-318.026	-93.741	-0.153	0.042
-317.012	-0.499	-0.178	0.125
-315.997	-103.673	-0.150	-0.035
-314.983	-27.644	-0.005	0.003
-313.968	-200.000	-0.022	0.332
-312.953	-136.074	0.178	-0.021
-311.939	-91.396	-0.229	-0.065
-310.924	296.841	0.088	0.160
-309.910	-28.292	-0.135	0.077
-308.895	96.036	-0.095	-0.107
-307.880	289.446	0.070	0.127
-306.866	-76.975	-0.204	-0.071
-305.851	221.158	0.117	0.187
-304.837	-68.862	-0.217	0.083
-303.822	56.176	-0.254	-0.245
-302.807	377.506	-0.077	-0.157
-301.793	34.175	0.107	-0.093
-300.778	41.734	-0.117	-0.105
-299.764	521.302	0.203	0.472
-298.749	114.266	-0.059	0.071
-297.735	-200.000	-0.043	-0.226
-296.720	-37.013	0.186	0.099
-295.705	-124.688	0.201	-0.031
-294.691	253.610	0.058	0.098
-293.676	34.942	0.109	-0.094
-292.662	1.366	0.336	0.240
-291.647	-112.121	-0.098	-0.020
-290.632	429.022	-0.101	-0.216
-289.618	491.252	0.153	-0.348
-288.603	-44.307	-0.076	0.038
-287.589	800.000	0.082	0.232
-286.574	-66.557	0.338	0.133
-285.559	-39.164	0.197	-0.103
-284.545	-23.716	-0.212	0.126
-283.530	-101.836	0.130	0.031
-282.516	-42.754	-0.395	-0.199
-281.501	286.479	0.043	-0.077
-280.486	394.272	0.108	-0.223
-279.472	182.826	0.157	-0.229
-278.457	-114.884	-0.181	0.034
-277.443	200.781	-0.253	-0.385
-276.428	165.940	-0.202	-0.283
-275.413	-100.790	-0.271	0.066
-274.399	21.400	-0.190	0.153
-273.384	-200.000	-0.019	-0.281
-272.370	224.643	0.177	-0.283
-271.355	-77.316	0.417	-0.144
-270.340	149.180	-0.228	-0.306
-269.326	-200.000	0.017	0.174
-268.311	237.419	0.132	0.218
-267.297	373.764	-0.144	-0.290
-266.282	-160.597	0.209	-0.011
-265.267	-18.946	0.269	-0.166
-264.253	2.792	-0.135	0.097
-263.238	-200.000	-0.007	-0.058
-262.224	-200.000	-0.020	-0.149
-261.209	37.600	-0.131	-0.115
-260.195	644.037	-0.096	0.243
-259.180	35.853	-0.124	0.108
-258.165	800.000	0.027	0.099
-257.151	614.715	0.101	0.249
-256.136	-43.791	0.245	0.122
-255.122	-94.116	0.115	-0.031
-254.107	-154.481	-0.174	-0.012
-253.092	157.209	0.129	-0.177
-252.078	-181.570	0.011	0.000
-251.063	-50.142	0.106	0.049
-250.049	-200.000	0.023	0.208
-249.034	800.000	-0.044	0.180
-248.019	-109.439	-0.329	0.069
-247.005	93.747	0.088	-0.099
-245.990	536.538	0.129	-0.303
-244.976	90.360	-0.009	-0.010
-243.961	61.438	0.244	0.240
-242.946	800.000	0.033	0.110
-241.932	800.000	0.079	-0.240
-240.917	149.285	0.097	0.130
-239.903	-59.965	0.095	0.040
-238.888	-200.000	-0.037	0.293
-237.873	-200.000	-0.003	-0.199
-236.859	66.250	-0.195	-0.196
-235.844	-200.000	-0.018	0.325
-234.830	-200.000	0.006	0.036
-233.815	148.564	0.145	0.194
-232.800	800.000	0.112	-0.390
-231.786	384.038	-0.101	-0.205
-230.771	-40.521	-0.173	0.089
-229.757	-82.846	0.193	0.062
-228.742	-200.000	-0.011	0.248
-227.727	-158.729	0.318	-0.018
-226.713	61.213	0.056	-0.055
-225.698	579.070	0.054	0.131
-224.684	-22.688	-0.116	-0.069
-223.669	419.903	-0.104	-0.220
-222.655	256.551	-0.129	-0.219
-221.640	61.945	0.246	0.243
-220.625	-13.654	0.147	-0.094
-219.611	346.699	0.084	-0.164
-218.596	782.948	0.153	-0.414
-217.582	292.881	-0.210	0.378
-216.567	14.940	-0.177	-0.137
-215.552	800.000	0.111	0.310
-214.538	62.039	0.070	0.069
-213.523	-119.874	-0.275	-0.047
-212.509	-89.318	-0.061	-0.018
-211.494	-91.853	-0.219	-0.061
-210.479	44.227	-0.103	-0.093
-209.465	167.107	0.028	0.039
-208.450	596.578	0.083	0.203
-207.436	711.487	-0.095	0.249
-206.421	-54.069	-0.161	0.073
-205.406	-126.553	0.153	0.022
-204.392	-177.647	0.146	-0.004
-203.377	87.697	0.193	0.211
-202.363	-200.000	-0.022	-0.256
-201.348	-13.202	-0.228	0.146
-200.333	481.426	0.075	0.169
-199.319	-76.911	-0.182	0.063
-198.304	-102.473	0.340	0.080
-197.290	-200.000	0.052	-0.364
-196.275	668.105	-0.104	0.266
-195.260	-200.000	-0.017	0.203
-194.246	-154.783	-0.169	0.011
-193.231	-150.174	-0.102	0.008
-192.217	-200.000	0.010	0.090
-191.202	-80.919	0.049	0.016
-190.187	5.992	-0.063	0.046
-189.173	449.733	-0.064	0.140
-188.158	-200.000	0.016	0.190
-187.144	199.168	0.055	-0.083
-186.129	-134.162	0.193	0.024
-185.114	-143.789	-0.064	0.006
-184.100	5.842	-0.096	-0.070
-183.085	190.224	-0.093	0.137
-182.071	115.033	0.175	-0.211
-181.056	-68.789	-0.472	0.180
-180.042	-67.795	-0.077	0.030
-179.027	26.716	0.158	0.130
-178.012	-20.068	-0.234	-0.143
-176.998	800.000	0.097	0.312
-175.983	-44.006	-0.120	0.059
-174.969	-200.000	0.006	-0.341
-173.954	-200.000	-0.011	0.170
-172.939	-200.000	0.042	0.370
-171.925	-23.660	0.288	-0.170
-170.910	224.859	0.160	-0.256
-169.896	332.593	-0.129	0.247
-168.881	9.996	0.353	-0.265
-167.866	-71.022	0.247	-0.092
-166.852	800.000	-0.026	-0.077
-165.837	800.000	0.026	-0.089
-164.823	99.524	0.175	-0.200
-163.808	-49.404	0.065	-0.031
-162.793	106.436	-0.126	0.148
-161.779	-59.428	-0.239	-0.101
-160.764	-93.940	0.224	-0.061
-159.750	-109.898	-0.043	-0.009
-158.735	-72.666	0.279	-0.101
-157.720	-55.838	0.183	0.081
-156.706	-187.418	-0.141	-0.002
-155.691	-93.244	0.307	0.084
-154.677	518.024	-0.118	0.272
-153.662	-200.000	0.025	0.190
-152.647	460.728	-0.131	0.287
-151.633	-61.324	0.089	-0.037
-150.618	-136.731	-0.131	-0.015
-149.604	-169.024	0.212	-0.008
-148.589	-68.497	-0.360	-0.138
-147.574	-10.841	0.336	-0.219
-146.560	-70.193	0.134	0.050
-145.545	-162.227	0.432	0.021
-144.531	-131.147	-0.342	0.045
-143.516	800.000	0.079	-0.221
-142.502	-200.000	0.056	-0.326
-141.487	155.741	-0.098	-0.134
-140.472	73.355	0.264	0.272
-139.458	517.626	-0.109	-0.251
-138.443	-144.266	0.390	-0.036
-137.429	120.648	0.147	-0.180
-136.414	-81.969	0.267	0.086
-135.399	-126.129	-0.408	0.060
-134.385	120.061	-0.088	0.107
-133.370	187.057	0.044	-0.064
-132.356	-200.000	0.036	0.386
-131.341	-200.000	0.062	0.321
-130.326	623.904	0.055	0.138
-129.312	500.907	0.063	-0.143
-128.297	243.986	-0.144	-0.238
-127.283	-200.000	0.008	0.087
-126.268	706.577	0.149	0.388
-125.253	142.854	-0.149	0.195
-124.239	-149.406	0.316	0.025
-123.224	234.081	-0.051	0.082
-122.210	-200.000	-0.046	-0.214
-121.195	176.522	0.128	-0.183
