DTS Sentinel unit serial number:	SN413079Multiplexer serial number:	ORYXHardware model number:	OX4-SRSoftware version number:	ORYX F/W v4.00 Oryx Data Collector v3.7.2.0data status	okinstallation	princeton_trtdifferential loss correction	single-endedforward channel	channel 1reverse channel	N/Adate	2019/09/16time	05:14:35forward acquisition time	60.00reverse acquisition time	0.00gamma	496.2192k internal	0.2332k external	0.2332temperature offset calibration	0.9981default loss term (dB/km)	0.3790temperature slope calibration	1.0000multiplexer offset coefficient	1.0000multiplexer slope coefficient	1.0000fibre end	0.00T internal ref (°C)	27.19T ext. ref 1 (°C)	11.05T ext. ref 2 (°C)	22.17length (m)	temperature (°C)	Stokes	anti-Stokes-747.200	-74.799	-0.075	-0.027
-746.185	106.145	-0.218	0.260
-745.171	-134.727	0.469	0.057
-744.156	468.718	-0.054	0.122
-743.142	461.091	0.068	0.152
-742.127	-200.000	-0.009	0.169
-741.112	358.648	0.039	0.078
-740.098	-143.301	-0.222	0.021
-739.083	356.582	0.114	-0.228
-738.069	-151.766	-0.383	-0.028
-737.054	800.000	0.118	0.412
-736.039	-111.830	-0.122	-0.025
-735.025	12.445	0.117	0.091
-734.010	-200.000	-0.028	-0.180
-732.996	232.033	0.202	-0.334
-731.981	15.699	-0.071	-0.056
-730.966	-117.261	-0.042	0.008
-729.952	-134.452	-0.246	-0.030
-728.937	164.977	0.096	-0.136
-727.923	-91.722	-0.142	0.041
-726.908	20.746	-0.254	0.207
-725.894	-54.595	0.140	-0.063
-724.879	-147.801	0.171	-0.014
-723.864	800.000	0.070	-0.249
-722.850	-46.662	-0.103	-0.051
-721.835	638.310	-0.094	-0.240
-720.821	349.015	-0.067	-0.133
-719.806	-3.378	-0.095	-0.066
-718.791	800.000	-0.075	-0.301
-717.777	65.542	-0.193	0.196
-716.762	216.424	0.160	0.255
-715.748	800.000	0.127	-0.483
-714.733	252.540	-0.080	0.137
-713.718	800.000	-0.055	-0.200
-712.704	-148.393	-0.201	-0.017
-711.689	-18.151	-0.129	-0.081
-710.675	381.096	-0.119	-0.245
-709.660	462.692	0.117	0.262
-708.645	-200.000	-0.021	0.180
-707.631	-137.593	0.267	0.030
-706.616	27.091	-0.163	0.137
-705.602	-200.000	-0.003	-0.201
-704.587	615.302	-0.180	0.453
-703.572	723.665	-0.066	-0.175
-702.558	55.466	0.027	-0.026
-701.543	-20.147	-0.435	0.269
-700.529	-200.000	-0.003	-0.165
-699.514	103.448	-0.105	-0.124
-698.499	-44.654	-0.446	0.224
-697.485	114.868	-0.167	-0.205
-696.470	-200.000	-0.022	-0.168
-695.456	109.354	0.335	0.402
-694.441	-39.406	-0.060	-0.032
-693.426	631.041	0.092	-0.234
-692.412	-80.745	0.267	-0.089
-691.397	311.187	0.143	0.269
-690.383	-28.575	0.500	-0.289
-689.368	55.298	0.166	-0.161
-688.354	-51.271	-0.281	0.132
-687.339	-4.129	-0.234	0.163
-686.324	800.000	0.103	0.298
-685.310	120.183	-0.312	0.389
-684.295	-48.697	-0.283	-0.136
-683.281	383.245	0.126	0.259
-682.266	131.594	0.147	0.190
-681.251	430.191	0.127	0.276
-680.237	21.951	0.136	0.111
-679.222	24.987	0.388	0.323
-678.208	-200.000	0.013	0.291
-677.193	800.000	-0.042	-0.162
-676.178	454.027	-0.171	-0.380
-675.164	345.750	-0.062	-0.122
-674.149	31.252	0.233	-0.201
-673.135	-200.000	0.024	-0.117
-672.120	-200.000	0.029	-0.319
-671.105	-200.000	-0.046	-0.318
-670.091	71.917	0.209	-0.218
-669.076	-123.507	-0.072	0.011
-668.062	-85.874	-0.415	-0.129
-667.047	-115.118	-0.335	-0.064
-666.032	-68.095	0.066	-0.026
-665.018	-200.000	-0.009	-0.143
-664.003	665.994	0.159	-0.413
-662.989	115.775	-0.158	0.194
-661.974	603.135	0.093	-0.233
-660.959	136.069	-0.154	0.201
-659.945	-21.191	-0.488	-0.299
-658.930	0.957	-0.094	0.067
-657.916	-163.212	0.334	0.016
-656.901	157.999	0.149	0.208
-655.886	3.471	0.228	-0.166
-654.872	-200.000	0.014	0.122
-653.857	-195.798	-0.107	0.001
-652.843	-200.000	-0.008	0.060
-651.828	-200.000	0.010	-0.406
-650.814	-200.000	0.029	0.209
-649.799	413.674	-0.039	-0.083
-648.784	271.789	0.091	-0.162
-647.770	-29.052	0.162	0.093
-646.755	-200.000	0.071	-0.519
-645.741	133.531	0.169	0.219
-644.726	509.175	-0.072	0.168
-643.711	-200.000	-0.009	-0.173
-642.697	-85.887	0.168	0.052
-641.682	70.620	-0.084	-0.087
-640.668	17.671	0.182	-0.145
-639.653	-58.058	-0.174	-0.076
-638.638	99.679	-0.055	-0.063
-637.624	18.322	-0.130	-0.104
-636.609	-71.039	-0.300	-0.113
-635.595	-200.000	0.042	-0.259
-634.580	-137.725	-0.150	-0.017
-633.565	800.000	0.030	-0.102
-632.551	685.009	-0.041	0.107
-631.536	24.457	-0.057	-0.047
-630.522	654.378	0.132	0.338
-629.507	111.246	0.088	-0.106
-628.492	-21.434	0.029	0.018
-627.478	-38.291	0.165	-0.088
-626.463	39.383	-0.137	-0.123
-625.449	234.105	-0.107	-0.177
-624.434	-176.741	0.248	-0.006
-623.419	656.033	-0.086	0.222
-622.405	-89.723	0.194	-0.057
-621.390	-200.000	-0.001	-0.208
-620.376	-200.000	-0.031	-0.377
-619.361	130.308	-0.147	-0.189
-618.346	-71.953	0.367	0.137
-617.332	-16.949	-0.172	0.109
-616.317	-164.086	0.321	0.015
-615.303	800.000	0.171	0.518
-614.288	17.331	0.069	-0.055
-613.273	-200.000	-0.006	0.140
-612.259	-39.833	0.268	0.140
-611.244	-200.000	-0.011	-0.192
-610.230	-200.000	-0.036	0.173
-609.215	-149.463	-0.150	0.012
-608.201	800.000	0.086	0.253
-607.186	-200.000	0.029	0.228
-606.171	-74.696	0.133	-0.048
-605.157	385.764	-0.057	0.118
-604.142	-16.693	-0.206	-0.130
-603.128	-194.211	0.343	-0.003
-602.113	-101.869	-0.146	-0.035
-601.098	352.858	-0.103	0.204
-600.084	459.918	-0.142	0.315
-599.069	52.259	-0.035	0.034
-598.055	37.087	0.079	0.070
-597.040	-133.301	-0.143	-0.018
-596.025	267.341	0.086	0.151
-595.011	-43.259	0.410	-0.207
-593.996	101.082	-0.204	0.237
-592.982	-200.000	-0.033	-0.297
-591.967	570.308	0.050	-0.121
-590.952	-44.015	-0.076	-0.038
-589.938	42.334	-0.299	0.272
-588.923	65.936	0.127	-0.129
-587.909	15.273	-0.130	-0.102
-586.894	-200.000	-0.013	0.112
-585.879	-182.570	-0.287	0.005
-584.865	-36.038	-0.216	-0.117
-583.850	800.000	0.013	0.045
-582.836	128.779	-0.096	0.122
-581.821	132.290	0.196	-0.252
-580.806	-2.522	-0.117	-0.082
-579.792	800.000	0.086	-0.333
-578.777	-44.350	0.334	-0.167
-577.763	-29.119	0.227	-0.130
-576.748	-1.173	-0.196	0.139
-575.733	68.623	0.159	0.163
-574.719	800.000	-0.035	-0.110
-573.704	-122.421	0.128	-0.021
-572.690	348.730	-0.111	-0.219
-571.675	20.556	-0.208	0.168
-570.661	-146.998	0.220	0.019
-569.646	85.439	0.051	0.055
-568.631	21.807	0.097	-0.079
-567.617	-2.223	-0.203	0.143
-566.602	-200.000	-0.016	-0.115
-565.588	-146.813	-0.446	-0.038
-564.573	492.566	0.129	0.295
-563.558	-72.180	-0.336	-0.124
-562.544	-99.780	-0.500	-0.125
-561.529	-114.817	-0.105	-0.020
-560.515	474.146	0.076	-0.171
-559.500	800.000	-0.025	0.098
-558.485	-93.739	0.225	-0.062
-557.471	-107.581	-0.339	0.074
-556.456	-17.188	0.198	-0.125
-555.442	77.951	0.110	0.117
-554.427	800.000	0.064	-0.223
-553.412	-32.995	-0.065	-0.036
-552.398	44.810	-0.164	0.151
-551.383	-200.000	0.037	0.464
-550.369	-136.445	0.029	-0.003
-549.354	-171.379	0.331	0.011
-548.339	675.663	-0.089	-0.230
-547.325	-90.296	0.131	-0.038
-546.310	-67.703	-0.274	0.107
-545.296	670.089	0.188	0.487
-544.281	76.658	0.337	0.357
-543.266	158.855	-0.106	-0.147
-542.252	-47.154	-0.116	0.056
-541.237	-63.803	0.023	-0.010
-540.223	16.846	0.126	0.100
-539.208	-200.000	-0.046	0.242
-538.193	800.000	0.007	0.025
-537.179	-169.003	-0.329	-0.012
-536.164	508.084	0.084	0.194
-535.150	-200.000	0.001	-0.180
-534.135	144.721	-0.101	-0.135
-533.121	-200.000	0.031	0.250
-532.106	800.000	0.091	0.282
-531.091	-119.472	0.272	-0.047
-530.077	-68.979	0.212	-0.081
-529.062	800.000	0.075	0.316
-528.048	800.000	-0.076	-0.268
-527.033	-200.000	-0.011	-0.273
-526.018	-166.578	0.214	-0.009
-525.004	-144.724	-0.330	-0.030
-523.989	341.111	0.103	-0.200
-522.975	-200.000	0.017	0.291
-521.960	-76.225	0.213	-0.075
-520.945	-152.618	-0.060	-0.004
-519.931	-15.739	0.235	-0.149
-518.916	-137.477	-0.342	0.038
-517.902	529.535	-0.034	0.080
-516.887	-109.147	0.127	-0.027
-515.872	114.475	0.263	0.319
-514.858	-200.000	0.042	0.341
-513.843	265.220	-0.041	0.071
-512.829	-158.572	0.288	-0.017
-511.814	163.519	0.048	-0.067
-510.799	34.516	0.131	0.114
-509.785	-67.134	0.078	0.031
-508.770	-36.705	-0.281	-0.151
-507.756	333.243	-0.049	0.094
-506.741	49.216	0.327	0.306
-505.726	-124.866	-0.052	-0.008
-504.712	26.556	-0.112	-0.093
-503.697	162.879	0.120	0.168
-502.683	88.474	-0.226	-0.250
-501.668	13.829	0.111	0.086
-500.653	-113.204	0.195	-0.038
-499.639	405.763	-0.122	0.257
-498.624	800.000	0.083	0.265
-497.610	250.441	-0.161	-0.272
-496.595	201.340	0.191	-0.293
-495.581	-93.371	0.369	-0.102
-494.566	543.810	-0.139	-0.330
-493.551	121.206	-0.111	-0.138
-492.537	704.427	0.117	-0.307
-491.522	-200.000	-0.015	0.283
-490.508	-73.071	0.237	0.087
-489.493	800.000	-0.106	-0.304
-488.478	-154.108	0.283	-0.019
-487.464	-200.000	0.230	0.000
-486.449	135.744	-0.144	0.187
-485.435	-29.736	0.114	-0.065
-484.420	-113.079	0.126	0.025
-483.405	-158.547	-0.168	0.010
-482.391	-200.000	0.008	0.185
-481.376	-200.000	-0.060	-0.413
-480.362	137.095	0.070	0.091
-479.347	-104.598	-0.303	-0.070
-478.332	-200.000	0.003	-0.076
-477.318	-104.225	0.208	-0.048
-476.303	800.000	0.076	-0.289
-475.289	-112.307	-0.050	-0.010
-474.274	-200.000	-0.002	-0.010
-473.259	3.414	-0.268	0.194
-472.245	-200.000	-0.017	0.150
-471.230	-200.000	-0.028	-0.239
-470.216	147.981	-0.050	0.067
-469.201	-30.921	0.150	-0.084
-468.186	163.342	-0.195	-0.272
-467.172	-200.000	0.061	0.333
-466.157	154.116	-0.139	-0.190
-465.143	-129.165	-0.201	-0.028
-464.128	-126.484	0.250	0.037
-463.113	166.867	-0.070	-0.099
-462.099	23.606	-0.154	0.126
-461.084	-151.071	0.093	-0.007
-460.070	-108.252	0.212	0.046
-459.055	-7.751	-0.271	-0.182
-458.040	800.000	0.030	-0.114
-457.026	31.798	0.033	-0.028
-456.011	209.031	-0.182	0.283
-454.997	-65.610	0.025	0.010
-453.982	166.119	-0.148	-0.208
-452.968	-200.000	0.073	-0.325
-451.953	-46.381	-0.241	0.118
-450.938	-133.871	0.190	0.023
-449.924	-110.245	-0.260	0.054
-448.909	35.315	0.046	-0.040
-447.895	-143.133	0.210	-0.020
-446.880	5.918	-0.190	-0.140
-445.865	31.847	0.250	0.214
-444.851	800.000	0.014	-0.051
-443.836	-200.000	0.046	-0.333
-442.822	118.846	-0.101	0.125
-441.807	-69.544	0.134	-0.051
-440.792	35.546	0.058	0.051
-439.778	-88.229	0.115	0.034
-438.763	800.000	0.094	-0.332
-437.749	-200.000	-0.002	0.110
-436.734	417.553	0.093	0.198
-435.719	-64.664	0.080	0.032
-434.705	165.936	0.037	-0.052
-433.690	46.043	-0.037	-0.034
-432.676	262.824	-0.181	-0.312
-431.661	52.435	0.125	-0.119
-430.646	-200.000	-0.003	0.075
-429.632	625.371	-0.043	-0.109
-428.617	-172.443	-0.183	-0.006
-427.603	-43.729	0.171	0.086
-426.588	524.030	0.118	0.275
-425.573	-64.951	-0.256	0.103
-424.559	411.016	-0.063	0.133
-423.544	352.981	-0.167	0.329
-422.530	66.698	0.171	0.172
-421.515	203.664	-0.100	-0.153
-420.500	-105.708	-0.152	-0.034
-419.486	259.781	0.215	-0.368
-418.471	-200.000	0.018	0.174
-417.457	629.111	-0.121	-0.304
-416.442	-108.128	0.231	0.050
-415.428	37.264	-0.172	0.151
-414.413	-200.000	-0.074	0.336
-413.398	-142.367	0.336	-0.033
-412.384	-86.948	0.074	0.022
-411.369	-101.231	0.266	-0.065
-410.355	-22.751	-0.106	-0.064
-409.340	47.498	-0.094	-0.087
-408.325	-104.795	0.231	-0.053
-407.311	103.996	-0.122	0.143
-406.296	-40.765	0.271	-0.140
-405.282	-124.957	0.117	0.018
-404.267	55.271	-0.074	0.071
-403.252	-171.109	-0.090	0.003
-402.238	76.759	-0.056	0.059
-401.223	70.385	-0.153	0.157
-400.209	137.798	-0.122	-0.159
-399.194	-200.000	-0.010	-0.123
-398.179	136.176	-0.141	-0.183
-397.165	-144.166	0.410	0.038
-396.150	800.000	-0.022	0.063
-395.136	562.833	0.176	0.423
-394.121	-200.000	0.020	-0.110
-393.106	482.863	-0.015	-0.033
-392.092	-112.304	-0.427	0.085
-391.077	-108.283	-0.360	0.077
-390.063	-69.905	0.088	0.033
-389.048	-200.000	-0.040	-0.326
-388.033	-79.755	0.245	-0.082
-387.019	800.000	0.014	-0.056
-386.004	-200.000	-0.002	-0.268
-384.990	-75.898	-0.075	0.026
-383.975	183.516	-0.094	-0.138
-382.960	120.236	0.126	-0.155
-381.946	-200.000	0.046	-0.244
-380.931	-200.000	-0.024	-0.118
-379.917	15.049	-0.086	0.067
-378.902	-11.545	-0.113	0.074
-377.888	231.674	0.104	0.169
-376.873	-109.446	-0.395	-0.083
-375.858	-39.843	-0.444	0.230
-374.844	-122.564	-0.126	0.020
-373.829	-200.000	0.041	0.186
-372.815	-86.410	0.384	0.117
-371.800	208.849	-0.128	0.198
-370.785	-187.910	0.342	-0.004
-369.771	-200.000	-0.052	0.273
-368.756	-200.000	-0.046	0.286
-367.742	23.429	-0.056	-0.046
-366.727	211.061	0.082	0.128
-365.712	142.226	-0.112	0.147
-364.698	-200.000	-0.003	-0.151
-363.683	80.909	-0.234	0.250
-362.669	-70.895	-0.259	-0.097
-361.654	-133.478	-0.256	-0.032
-360.639	81.095	-0.339	0.363
-359.625	307.892	0.251	0.464
-358.610	-119.433	-0.240	-0.041
-357.596	-102.353	-0.079	0.019
-356.581	800.000	0.102	-0.291
-355.566	-200.000	-0.004	-0.115
-354.552	172.358	-0.110	-0.157
-353.537	-106.923	-0.079	0.017
-352.523	155.827	0.152	-0.208
-351.508	-153.280	0.118	0.008
-350.493	-182.358	-0.213	0.004
-349.479	-200.000	0.017	-0.161
-348.464	219.868	-0.202	0.320
-347.450	-200.000	0.201	-0.001
-346.435	236.850	-0.222	-0.364
-345.420	-56.287	-0.150	-0.066
-344.406	-123.471	0.195	0.031
-343.391	-86.177	-0.120	0.037
-342.377	-200.000	0.017	-0.214
-341.362	70.938	0.100	0.102
-340.348	-56.820	-0.129	-0.057
-339.333	-200.000	-0.002	-0.243
-338.318	139.649	0.153	0.200
-337.304	232.922	0.159	-0.259
-336.289	-200.000	0.007	-0.186
-335.275	800.000	-0.103	0.333
-334.260	-110.883	-0.194	-0.039
-333.245	-200.000	0.001	-0.188
-332.231	522.169	0.090	0.209
-331.216	-200.000	-0.028	-0.322
-330.202	-85.415	0.264	-0.081
-329.187	327.321	-0.071	0.136
-328.172	-95.876	0.086	-0.023
-327.158	-159.537	0.262	0.014
-326.143	-59.472	0.383	0.163
-325.129	800.000	0.035	0.136
-324.114	351.218	-0.169	0.330
-323.099	-145.338	0.209	-0.019
-322.085	-200.000	0.023	0.401
-321.070	441.330	0.014	-0.030
-320.056	-172.357	0.176	0.006
-319.041	-9.613	-0.186	-0.123
-318.026	465.478	0.158	-0.350
-317.012	-139.417	-0.116	-0.012
-315.997	23.896	-0.257	-0.209
-314.983	-200.000	0.049	-0.222
-313.968	-11.158	-0.111	0.072
-312.953	284.302	0.113	0.201
-311.939	71.873	-0.352	-0.362
-310.924	15.205	-0.119	0.092
-309.910	-200.000	0.003	0.036
-308.895	-54.379	-0.436	0.196
-307.880	-200.000	-0.048	-0.317
-306.866	288.898	-0.054	0.097
-305.851	800.000	-0.040	-0.158
-304.837	-200.000	0.011	-0.053
-303.822	-61.405	0.131	-0.054
-302.807	-200.000	0.032	-0.247
-301.793	-74.008	0.078	0.028
-300.778	14.320	-0.257	-0.198
-299.764	-200.000	-0.006	-0.317
-298.749	53.318	-0.093	0.088
-297.735	285.565	0.159	-0.283
-296.720	239.341	0.094	-0.155
-295.705	406.877	-0.063	-0.131
-294.691	48.188	-0.065	0.060
-293.676	-92.333	0.196	0.055
-292.662	-200.000	-0.042	-0.313
-291.647	-200.000	0.027	0.285
-290.632	-61.047	-0.308	0.128
-289.618	-200.000	-0.037	0.382
-288.603	-86.774	0.222	-0.067
-287.589	-122.944	0.053	0.009
-286.574	33.401	-0.063	0.054
-285.559	59.937	-0.262	0.256
-284.545	800.000	0.085	-0.270
-283.530	157.565	0.100	-0.137
-282.516	-171.557	0.249	-0.008
-281.501	681.208	0.025	0.063
-280.486	-60.518	-0.348	-0.146
-279.472	-116.732	0.572	0.104
-278.457	-200.000	0.064	0.501
-277.443	94.775	-0.132	0.148
-276.428	459.273	-0.066	-0.146
-275.413	800.000	-0.056	0.173
-274.399	-200.000	0.064	0.394
-273.384	-200.000	0.007	0.532
-272.370	42.016	0.177	0.159
-271.355	98.727	-0.050	-0.057
-270.340	-89.910	0.212	0.061
-269.326	-97.044	0.103	-0.027
-268.311	800.000	0.130	-0.357
-267.297	-120.057	0.153	-0.026
-266.282	123.564	-0.141	0.175
-265.267	212.399	0.094	0.146
-264.253	-65.884	0.037	-0.015
-263.238	135.866	-0.060	-0.077
-262.224	-119.985	0.046	0.008
-261.209	-77.280	0.211	-0.072
-260.195	-102.231	0.166	0.039
-259.180	800.000	0.039	0.108
-258.165	20.455	-0.191	-0.153
-257.151	-200.000	0.049	0.454
-256.136	-200.000	-0.038	-0.164
-255.122	195.633	0.118	-0.176
-254.107	1.845	0.245	-0.175
-253.092	10.586	-0.035	0.026
-252.078	28.248	-0.185	0.154
-251.063	38.854	0.070	0.062
-250.049	-25.202	-0.405	0.237
-249.034	398.904	-0.165	-0.340
-248.019	-124.562	0.153	-0.023
-247.005	219.476	-0.182	-0.287
-245.990	-22.387	-0.159	-0.095
-244.976	166.798	-0.137	0.191
-243.961	156.820	0.045	0.061
-242.946	198.765	0.159	0.240
-241.932	393.682	0.101	0.208
-240.917	-200.000	-0.007	0.065
-239.903	-1.763	-0.083	-0.057
-238.888	457.500	0.099	-0.218
-237.873	8.342	0.206	0.153
-236.859	-77.702	-0.456	-0.156
-235.844	-166.408	0.200	-0.008
-234.830	-2.125	-0.137	-0.095
-233.815	-168.508	-0.141	-0.005
-232.800	214.712	0.076	-0.118
-231.786	491.077	-0.064	-0.145
-230.771	-200.000	-0.052	-0.251
-229.757	230.778	-0.142	0.230
-228.742	-193.883	0.401	0.003
-227.727	-200.000	0.012	0.116
-226.713	800.000	0.046	0.193
-225.698	800.000	0.093	0.299
-224.684	16.014	-0.163	-0.127
-223.669	800.000	0.049	0.193
-222.655	89.422	-0.040	0.044
-221.640	87.741	0.128	0.140
-220.625	53.642	0.103	-0.098
-219.611	211.656	-0.132	0.205
-218.596	-64.562	0.052	0.021
-217.582	-21.072	0.493	-0.297
-216.567	-66.857	0.171	-0.067
-215.552	114.110	0.057	0.068
-214.538	-110.453	0.127	-0.026
-213.523	47.084	0.159	-0.145
-212.509	25.342	-0.220	-0.180
-211.494	54.212	-0.335	0.317
-210.479	184.790	0.049	0.072
-209.465	-50.975	-0.402	0.186
-208.450	65.493	-0.156	-0.156
-207.436	-196.895	-0.280	0.002
-206.421	-93.280	-0.181	0.049
-205.406	-51.905	0.240	-0.110
-204.392	-28.370	0.447	-0.254
-203.377	122.208	-0.054	0.067
-202.363	-16.944	-0.098	-0.061
-201.348	-66.161	-0.137	0.054
-200.333	50.714	-0.176	0.164
-199.319	-45.395	0.256	-0.125
-198.304	-115.828	0.328	0.060
-197.290	92.471	-0.073	-0.082
-196.275	-14.769	-0.232	-0.146
-195.260	96.388	-0.204	0.230
-194.246	-88.332	-0.158	-0.047
-193.231	-52.583	0.286	-0.130
-192.217	-200.000	-0.028	-0.163
-191.202	-70.888	0.144	0.053
-190.187	-132.959	0.306	-0.038
-189.173	-200.000	-0.002	-0.445
-188.158	-200.000	0.023	-0.129
-187.144	-142.360	0.209	-0.020
-186.129	-105.404	-0.215	-0.048
-185.114	800.000	0.051	0.202
-184.100	33.188	0.224	0.191
-183.085	-200.000	0.031	0.175
-182.071	-200.000	0.019	-0.213
-181.056	579.162	0.059	0.143
-180.042	82.951	0.095	0.102
-179.027	800.000	-0.086	-0.320
-178.012	-104.240	-0.406	-0.093
-176.998	219.042	0.158	0.249
-175.983	-200.000	-0.019	0.226
-174.969	89.158	-0.192	-0.210
-173.954	-84.882	-0.119	-0.037
-172.939	-69.633	0.215	0.081
-171.925	-200.000	-0.321	-0.001
-170.910	228.354	-0.084	0.135
-169.896	-165.899	-0.319	-0.013
-168.881	-200.000	-0.005	-0.161
-167.866	800.000	0.052	0.196
-166.852	-80.224	-0.208	0.068
-165.837	-200.000	0.014	0.077
-164.823	-180.806	-0.214	-0.004
-163.808	-119.052	-0.128	-0.022
-162.793	800.000	0.087	0.310
-161.779	16.674	-0.273	0.212
-160.764	-200.000	-0.022	0.329
-159.750	800.000	-0.017	0.049
-158.735	-9.188	0.301	-0.198
-157.720	-40.265	0.148	-0.076
-156.706	-200.000	0.014	-0.339
-155.691	-57.718	-0.099	-0.042
-154.677	-80.641	0.203	-0.066
-153.662	-19.615	0.087	-0.053
-152.647	-75.701	-0.223	0.078
-151.633	-200.000	0.057	-0.333
-150.618	12.811	-0.232	0.176
-149.604	-200.000	0.018	0.330
-148.589	154.686	0.056	0.076
-147.574	180.210	0.150	-0.215
-146.560	9.606	-0.142	0.106
-145.545	43.178	-0.195	-0.175
-144.531	800.000	-0.037	-0.121
-143.516	-49.042	0.312	0.147
-142.502	-200.000	0.088	0.543
-141.487	-200.000	-0.028	-0.146
-140.472	-200.000	-0.019	-0.246
-139.458	12.259	0.357	0.270
-138.443	513.955	-0.105	0.240
-137.429	-5.069	0.112	0.076
-136.414	81.463	-0.026	-0.027
-135.399	-200.000	-0.003	0.074
-134.385	771.932	-0.088	-0.236
-133.370	-200.000	0.113	0.000
-132.356	-143.341	0.221	-0.021
-131.341	-57.362	0.131	-0.057
-130.326	-31.910	-0.280	0.154
-129.312	760.932	-0.025	0.068
-128.297	73.226	0.247	-0.254
-127.283	-119.828	0.272	-0.046
-126.268	-133.443	-0.197	-0.024
-125.253	-200.000	-0.035	-0.253
-124.239	-197.965	0.182	0.001
-123.224	482.102	-0.043	-0.095
