DTS Sentinel unit serial number:	SN413079Multiplexer serial number:	ORYXHardware model number:	OX4-SRSoftware version number:	ORYX F/W v4.00 Oryx Data Collector v3.7.2.0data status	okinstallation	princeton_trtdifferential loss correction	single-endedforward channel	channel 1reverse channel	N/Adate	2019/09/18time	05:18:35forward acquisition time	60.00reverse acquisition time	0.00gamma	496.2192k internal	0.2339k external	0.2339temperature offset calibration	0.9982default loss term (dB/km)	0.3790temperature slope calibration	1.0000multiplexer offset coefficient	1.0000multiplexer slope coefficient	1.0000fibre end	0.00T internal ref (°C)	23.50T ext. ref 1 (°C)	0.18T ext. ref 2 (°C)	17.25length (m)	temperature (°C)	Stokes	anti-Stokes-747.200	50.922	0.142	0.135
-746.185	-68.705	-0.358	0.139
-745.171	-11.837	0.218	-0.144
-744.156	15.092	-0.189	0.148
-743.142	-70.962	-0.194	0.073
-742.127	-200.000	-0.011	0.174
-741.112	34.219	-0.185	0.162
-740.098	800.000	0.064	0.182
-739.083	-28.856	-0.256	-0.148
-738.069	800.000	0.118	0.334
-737.054	-13.407	0.104	-0.067
-736.039	-36.696	-0.339	-0.182
-735.025	3.123	0.302	-0.220
-734.010	-24.992	-0.136	0.081
-732.996	-12.011	-0.343	-0.225
-731.981	95.330	0.159	-0.181
-730.966	470.830	-0.125	-0.282
-729.952	800.000	-0.106	0.314
-728.937	-125.559	0.095	0.015
-727.923	-85.399	-0.301	-0.094
-726.908	1.153	-0.092	-0.066
-725.894	-84.887	-0.071	-0.022
-724.879	-200.000	-0.024	0.175
-723.864	-200.000	-0.110	0.550
-722.850	-200.000	-0.001	0.279
-721.835	502.981	-0.144	0.335
-720.821	-84.748	-0.068	0.021
-719.806	-77.028	0.375	0.131
-718.791	-200.000	0.003	0.172
-717.777	110.479	-0.121	-0.145
-716.762	2.764	-0.292	-0.212
-715.748	7.613	0.134	-0.101
-714.733	-168.373	-0.101	-0.004
-713.718	-180.350	-0.493	0.010
-712.704	-165.814	0.161	0.007
-711.689	-81.457	-0.352	-0.116
-710.675	-176.150	0.159	-0.004
-709.660	-123.093	0.164	0.026
-708.645	215.237	-0.073	0.117
-707.631	227.931	-0.095	0.155
-706.616	-93.347	0.088	0.024
-705.602	-64.694	-0.170	-0.069
-704.587	243.200	0.066	-0.111
-703.572	-200.000	-0.016	0.266
-702.558	93.164	-0.082	-0.093
-701.543	23.153	-0.230	-0.189
-700.529	57.276	-0.154	-0.150
-699.514	-200.000	0.000	-0.335
-698.499	-43.512	0.252	0.127
-697.485	-158.396	0.254	0.015
-696.470	215.146	0.067	-0.107
-695.456	300.257	-0.003	0.005
-694.441	-200.000	-0.057	-0.493
-693.426	-200.000	-0.003	0.243
-692.412	-120.273	0.215	0.037
-691.397	-200.000	-0.008	-0.119
-690.383	-36.720	0.121	0.065
-689.368	201.575	-0.079	0.122
-688.354	374.338	-0.063	0.127
-687.339	345.746	0.116	-0.227
-686.324	20.192	0.185	-0.150
-685.310	-200.000	-0.112	0.670
-684.295	196.605	-0.126	0.192
-683.281	157.425	0.020	0.028
-682.266	-23.494	-0.108	-0.065
-681.251	74.495	0.288	-0.303
-680.237	-168.631	0.372	-0.014
-679.222	30.504	0.093	-0.080
-678.208	-118.362	0.213	-0.038
-677.193	-44.404	0.285	-0.143
-676.178	800.000	0.012	-0.036
-675.164	67.776	0.241	-0.247
-674.149	-151.877	0.190	0.014
-673.135	152.393	-0.087	0.119
-672.120	-200.000	-0.041	-0.250
-671.105	546.880	-0.104	-0.248
-670.091	34.894	-0.099	-0.087
-669.076	-115.547	0.320	-0.060
-668.062	158.971	0.025	0.034
-667.047	800.000	0.038	-0.141
-666.032	800.000	0.055	-0.163
-665.018	188.497	0.194	0.290
-664.003	-142.776	0.090	0.009
-662.989	262.073	-0.132	-0.229
-661.974	-123.533	0.247	0.039
-660.959	213.126	-0.098	-0.155
-659.945	-29.747	0.202	0.115
-658.930	58.130	0.242	-0.237
-657.916	96.256	0.069	-0.079
-656.901	-56.246	-0.152	0.068
-655.886	-131.648	-0.263	0.035
-654.872	69.230	0.022	0.022
-653.857	-86.994	-0.034	0.010
-652.843	-200.000	0.019	0.113
-651.828	-200.000	-0.008	-0.221
-650.814	170.462	0.047	-0.067
-649.799	4.058	0.068	-0.050
-648.784	-63.018	0.085	-0.035
-647.770	144.246	0.037	0.050
-646.755	-170.719	-0.257	-0.009
-645.741	-188.598	-0.045	0.001
-644.726	-151.680	-0.295	0.022
-643.711	-171.147	-0.195	-0.007
-642.697	-200.000	-0.004	0.052
-641.682	-82.274	-0.041	0.013
-640.668	-117.019	0.061	0.011
-639.653	272.272	0.067	-0.119
-638.638	198.370	0.101	0.154
-637.624	70.034	0.124	0.128
-636.609	65.293	-0.144	0.145
-635.595	800.000	-0.037	-0.159
-634.580	-200.000	0.007	-0.159
-633.565	248.680	0.117	-0.198
-632.551	800.000	-0.080	0.255
-631.536	267.301	0.027	0.047
-630.522	231.795	0.211	-0.346
-629.507	-35.120	-0.209	-0.113
-628.492	53.909	-0.144	0.138
-627.478	76.080	-0.201	-0.212
-626.463	800.000	0.073	-0.288
-625.449	-200.000	0.038	-0.168
-624.434	800.000	0.032	0.122
-623.419	265.957	0.178	0.310
-622.405	-105.704	0.329	-0.074
-621.390	-177.071	-0.278	0.007
-620.376	800.000	-0.035	0.108
-619.361	800.000	0.034	0.102
-618.346	-104.461	-0.105	-0.024
-617.332	-42.254	-0.262	0.133
-616.317	-98.863	-0.284	-0.072
-615.303	-56.104	-0.280	0.124
-614.288	-179.128	-0.184	-0.004
-613.273	-173.917	-0.153	-0.004
-612.259	-111.832	-0.182	-0.037
-611.244	58.605	-0.041	-0.041
-610.230	-200.000	-0.042	-0.264
-609.215	800.000	0.023	0.093
-608.201	466.441	-0.188	-0.419
-607.186	-135.389	0.269	0.032
-606.171	40.218	0.161	-0.145
-605.157	6.546	0.121	0.090
-604.142	42.191	-0.060	-0.054
-603.128	-74.532	-0.227	0.082
-602.113	-200.000	0.009	0.140
-601.098	-137.862	0.555	-0.062
-600.084	164.707	-0.169	-0.238
-599.069	262.652	-0.071	0.122
-598.055	-41.599	0.382	0.196
-597.040	242.843	-0.115	-0.192
-596.025	-200.000	-0.027	0.143
-595.011	215.916	0.101	-0.160
-593.996	323.356	0.148	-0.280
-592.982	483.695	-0.099	-0.226
-591.967	471.917	0.046	-0.104
-590.952	-118.353	-0.218	-0.039
-589.938	36.473	0.238	-0.209
-588.923	340.382	0.010	-0.020
-587.909	-200.000	-0.031	0.156
-586.894	195.774	-0.083	0.125
-585.879	-97.010	-0.147	0.038
-584.865	-200.000	0.002	0.140
-583.850	13.071	0.118	0.091
-582.836	-59.573	0.216	0.092
-581.821	518.690	-0.113	-0.263
-580.806	-200.000	-0.018	0.109
-579.792	14.998	0.191	0.149
-578.777	-200.000	-0.038	-0.181
-577.763	-28.417	-0.220	-0.126
-576.748	-126.686	-0.189	-0.028
-575.733	800.000	-0.029	0.084
-574.719	47.344	-0.166	0.154
-573.704	301.219	-0.141	0.259
-572.690	282.076	0.046	-0.083
-571.675	84.480	0.215	-0.235
-570.661	446.198	0.166	-0.364
-569.646	196.349	0.064	-0.096
-568.631	696.998	0.038	-0.100
-567.617	461.611	0.083	0.184
-566.602	12.016	0.215	-0.165
-565.588	800.000	-0.066	0.194
-564.573	800.000	0.072	-0.242
-563.558	386.942	0.067	-0.138
-562.544	-200.000	-0.012	-0.091
-561.529	-185.825	0.174	0.003
-560.515	130.831	0.154	-0.197
-559.500	695.903	-0.050	-0.130
-558.485	-109.421	0.146	-0.031
-557.471	-57.228	0.070	-0.031
-556.456	800.000	-0.078	-0.257
-555.442	-114.171	-0.171	0.033
-554.427	299.653	0.113	0.208
-553.412	38.618	0.126	-0.111
-552.398	-35.064	-0.132	-0.071
-551.383	367.700	0.167	-0.337
-550.369	-200.000	-0.001	-0.098
-549.354	-74.272	0.104	-0.038
-548.339	-42.846	-0.165	0.084
-547.325	9.734	0.213	-0.161
-546.310	149.769	-0.027	0.036
-545.296	-19.992	-0.137	-0.084
-544.281	664.963	-0.028	0.071
-543.266	-200.000	-0.007	-0.186
-542.252	-27.537	-0.164	-0.095
-541.237	-7.221	0.145	-0.098
-540.223	800.000	0.063	-0.175
-539.208	-58.914	0.228	0.098
-538.193	105.886	0.185	-0.217
-537.179	-117.965	0.246	-0.044
-536.164	-200.000	-0.053	0.318
-535.150	50.875	0.214	0.202
-534.135	-155.864	0.114	0.007
-533.121	326.097	0.079	0.151
-532.106	37.263	-0.070	0.062
-531.091	-29.808	0.338	0.192
-530.077	-200.000	-0.009	0.270
-529.062	629.708	-0.083	-0.208
-528.048	-193.224	0.063	0.001
-527.033	-82.992	0.176	-0.056
-526.018	-184.870	-0.139	0.002
-525.004	15.000	0.197	0.153
-523.989	566.296	-0.054	0.129
-522.975	257.581	0.184	0.315
-521.960	0.024	0.046	0.033
-520.945	-97.413	0.094	0.024
-519.931	73.471	0.289	-0.300
-518.916	-133.060	0.131	-0.017
-517.902	-96.487	0.441	-0.116
-516.887	-200.000	0.019	0.230
-515.872	-81.482	0.228	0.075
-514.858	-111.331	0.057	0.011
-513.843	-4.340	0.193	0.132
-512.829	-0.658	-0.112	0.079
-511.814	175.559	-0.193	-0.278
-510.799	-80.886	-0.022	0.007
-509.785	76.999	-0.143	-0.151
-508.770	800.000	-0.034	-0.112
-507.756	578.317	0.030	0.073
-506.741	53.446	-0.220	-0.210
-505.726	-127.355	0.376	0.054
-504.712	-200.000	0.003	0.154
-503.697	19.234	0.126	0.101
-502.683	-35.647	-0.134	0.072
-501.668	-132.488	0.188	0.024
-500.653	92.936	-0.142	-0.159
-499.639	-108.288	-0.207	0.045
-498.624	-103.157	0.271	-0.064
-497.610	-31.201	0.080	0.045
-496.595	18.164	0.051	-0.040
-495.581	106.388	0.143	-0.169
-494.566	-114.182	-0.080	0.015
-493.551	-85.813	-0.172	0.053
-492.537	-177.814	-0.201	0.005
-491.522	-200.000	0.008	0.183
-490.508	51.404	0.337	0.318
-489.493	800.000	0.041	-0.150
-488.478	-59.359	0.151	-0.064
-487.464	145.154	-0.189	0.251
-486.449	2.455	0.247	0.177
-485.435	-128.622	0.112	0.016
-484.420	-184.434	0.318	-0.005
-483.405	10.946	-0.256	0.195
-482.391	133.934	-0.152	-0.195
-481.376	48.435	-0.229	-0.213
-480.362	-200.000	-0.046	-0.276
-479.347	62.578	-0.068	-0.068
-478.332	-141.717	-0.366	-0.036
-477.318	6.877	-0.048	0.035
-476.303	-69.555	0.243	-0.092
-475.289	632.717	-0.086	0.217
-474.274	69.092	0.084	-0.086
-473.259	101.654	0.206	-0.238
-472.245	-20.846	0.289	0.176
-471.230	12.291	-0.086	-0.066
-470.216	-200.000	-0.021	-0.126
-469.201	-173.424	-0.117	0.004
-468.186	4.926	0.161	0.118
-467.172	-200.000	0.019	-0.171
-466.157	357.669	-0.260	0.516
-465.143	-35.056	-0.289	0.156
-464.128	-80.619	-0.297	0.098
-463.113	182.032	-0.188	0.274
-462.099	800.000	0.092	0.279
-461.084	-11.235	0.343	0.224
-460.070	-107.876	0.164	0.035
-459.055	499.295	0.116	-0.266
-458.040	-82.870	-0.112	0.036
-457.026	800.000	0.046	0.143
-456.011	-33.359	0.073	-0.040
-454.997	-84.426	-0.204	-0.064
-453.982	132.651	0.216	-0.276
-452.968	800.000	0.140	-0.390
-451.953	-200.000	0.016	0.184
-450.938	800.000	0.047	-0.162
-449.924	724.540	0.061	-0.160
-448.909	289.252	-0.036	0.065
-447.895	-200.000	-0.017	0.309
-446.880	151.030	-0.173	0.233
-445.865	70.059	-0.128	-0.131
-444.851	293.917	0.151	-0.273
-443.836	73.574	0.192	-0.200
-442.822	-123.153	-0.185	-0.029
-441.807	-4.942	0.004	-0.003
-440.792	88.518	-0.252	0.278
-439.778	-200.000	-0.013	0.307
-438.763	107.365	-0.288	0.340
-437.749	-200.000	-0.003	-0.256
-436.734	-200.000	-0.007	0.044
-435.719	800.000	0.116	0.401
-434.705	-200.000	0.026	-0.335
-433.690	-163.280	-0.486	0.023
-432.676	-0.239	0.420	-0.296
-431.661	75.576	-0.038	-0.040
-430.646	270.853	-0.141	0.246
-429.632	-87.554	-0.228	-0.068
-428.617	-120.974	0.198	-0.033
-427.603	419.572	-0.060	0.128
-426.588	17.761	0.243	0.192
-425.573	-200.000	-0.035	-0.168
-424.559	109.878	-0.166	0.198
-423.544	-88.000	-0.164	0.049
-422.530	-117.561	-0.266	0.048
-421.515	-135.321	-0.045	-0.005
-420.500	-200.000	0.015	-0.082
-419.486	-177.377	0.254	-0.006
-418.471	5.680	0.216	-0.158
-417.457	800.000	0.011	0.030
-416.442	-153.859	0.214	0.015
-415.428	-69.875	-0.358	-0.135
-414.413	253.855	0.068	-0.115
-413.398	-51.721	0.253	0.117
-412.384	772.442	0.133	0.358
-411.369	-200.000	0.015	0.080
-410.355	354.549	0.054	-0.106
-409.340	-200.000	-0.005	-0.206
-408.325	238.182	0.261	0.429
-407.311	137.744	-0.121	0.157
-406.296	-28.806	0.046	0.026
-405.282	-108.645	-0.351	-0.075
-404.267	19.074	0.252	0.200
-403.252	665.651	-0.053	0.137
-402.238	416.775	-0.165	0.349
-401.223	-159.827	0.291	-0.016
-400.209	-125.441	-0.179	-0.027
-399.194	800.000	0.040	-0.159
-398.179	278.077	0.193	0.340
-397.165	-16.055	-0.122	0.077
-396.150	-200.000	0.034	0.195
-395.136	-7.663	0.202	-0.135
-394.121	210.235	0.189	-0.293
-393.106	-113.273	-0.434	0.084
-392.092	754.481	0.081	-0.217
-391.077	237.319	-0.074	0.121
-390.063	800.000	-0.024	0.100
-389.048	-51.286	0.208	-0.096
-388.033	-20.838	0.115	0.070
-387.019	800.000	0.071	0.275
-386.004	-44.729	-0.028	-0.014
-384.990	47.351	-0.325	-0.299
-383.975	3.789	-0.090	0.065
-382.960	-94.919	0.147	0.039
-381.946	226.474	0.119	-0.190
-380.931	-66.485	0.296	0.116
-379.917	800.000	-0.056	0.206
-378.902	320.580	0.127	0.239
-377.888	-51.444	-0.216	-0.100
-376.873	-72.523	0.113	-0.041
-375.858	580.824	0.096	-0.232
-374.844	800.000	-0.087	-0.301
-373.829	-165.814	-0.186	-0.008
-372.815	-39.444	0.149	0.077
-371.800	-19.635	0.143	-0.088
-370.785	-160.100	-0.128	0.007
-369.771	-56.081	0.244	0.108
-368.756	800.000	0.046	-0.132
-367.742	-81.266	-0.376	0.123
-366.727	237.929	-0.197	0.323
-365.712	-78.037	-0.255	0.087
-364.698	-200.000	-0.003	0.039
-363.683	-200.000	-0.008	-0.118
-362.669	148.611	-0.131	-0.175
-361.654	-31.546	-0.173	0.096
-360.639	106.120	-0.115	0.135
-359.625	432.638	-0.077	-0.165
-358.610	121.417	-0.139	0.171
-357.596	800.000	0.052	-0.194
-356.581	102.129	0.044	0.050
-355.566	240.247	-0.132	-0.217
-354.552	-17.691	-0.284	-0.176
-353.537	-35.753	-0.018	-0.010
-352.523	-67.040	0.193	-0.075
-351.508	-200.000	0.018	0.264
-350.493	800.000	0.040	-0.129
-349.479	-93.290	0.101	-0.028
-348.464	-97.924	0.192	0.049
-347.450	-200.000	0.042	0.393
-346.435	-76.652	-0.522	0.181
-345.420	-200.000	-0.010	0.143
-344.406	159.898	-0.239	0.328
-343.391	125.951	0.117	0.146
-342.377	-200.000	-0.002	0.481
-341.362	41.974	0.254	0.227
-340.348	-73.686	0.257	-0.092
-339.333	800.000	-0.115	0.349
-338.318	-200.000	-0.035	0.318
-337.304	-105.538	0.411	-0.092
-336.289	-87.936	-0.094	0.028
-335.275	-43.327	-0.127	-0.064
-334.260	421.513	0.177	-0.374
-333.245	27.960	-0.238	-0.198
-332.231	46.475	-0.294	-0.269
-331.216	-113.354	0.255	-0.049
-330.202	46.847	-0.205	0.188
-329.187	800.000	0.047	-0.136
-328.172	139.268	-0.171	-0.222
-327.158	-200.000	0.003	-0.085
-326.143	-200.000	0.050	-0.238
-325.129	800.000	-0.047	0.141
-324.114	212.393	-0.168	-0.262
-323.099	-26.262	-0.315	-0.183
-322.085	800.000	-0.110	0.473
-321.070	800.000	0.065	-0.192
-320.056	85.514	-0.087	0.094
-319.041	-200.000	0.004	0.316
-318.026	221.058	0.084	0.132
-317.012	-45.343	-0.129	-0.063
-315.997	-128.141	-0.253	0.036
-314.983	3.709	0.210	-0.151
-313.968	-152.378	0.152	-0.011
-312.953	-52.991	-0.380	0.173
-311.939	352.427	0.101	-0.198
-310.924	-115.995	0.131	-0.024
-309.910	173.196	0.195	-0.277
-308.895	-200.000	-0.025	-0.223
-307.880	-200.000	0.001	0.015
-306.866	-77.033	-0.163	0.056
-305.851	-124.442	0.274	0.042
-304.837	-35.999	-0.238	-0.127
-303.822	174.774	0.282	-0.402
-302.807	-44.113	0.282	-0.139
-301.793	58.976	-0.180	-0.174
-300.778	-200.000	-0.055	-0.425
-299.764	270.633	0.071	0.123
-298.749	7.758	0.173	0.128
-297.735	-116.843	-0.227	0.041
-296.720	-24.423	0.131	-0.077
-295.705	-200.000	-0.036	-0.383
-294.691	176.619	-0.051	0.073
-293.676	155.077	-0.103	0.139
-292.662	-58.329	0.025	0.011
-291.647	77.870	-0.130	-0.137
-290.632	-70.415	-0.244	-0.091
-289.618	-10.878	0.149	0.097
-288.603	-162.957	-0.251	0.012
-287.589	71.091	-0.007	-0.007
-286.574	-200.000	-0.003	-0.040
-285.559	-200.000	0.031	0.204
-284.545	800.000	-0.149	-0.417
-283.530	-200.000	-0.065	-0.445
-282.516	31.091	0.111	0.094
-281.501	-77.225	-0.293	-0.100
-280.486	265.116	-0.089	-0.153
-279.472	119.389	-0.129	0.158
-278.457	-65.403	0.252	0.100
-277.443	-113.144	-0.040	0.008
-276.428	-134.061	-0.173	0.021
-275.413	404.488	-0.146	-0.303
-274.399	800.000	0.015	-0.059
-273.384	82.807	0.337	-0.361
-272.370	-142.511	-0.341	0.033
-271.355	-166.889	0.185	0.007
-270.340	86.903	0.137	-0.149
-269.326	-200.000	0.039	-0.442
-268.311	-73.719	-0.278	0.100
-267.297	-90.390	0.320	0.091
-266.282	-157.071	-0.225	0.013
-265.267	-109.443	-0.311	0.065
-264.253	800.000	0.060	0.165
-263.238	2.948	-0.250	0.178
-262.224	374.964	-0.106	0.212
-261.209	133.569	0.040	-0.051
-260.195	199.442	0.219	0.331
-259.180	150.364	0.274	-0.366
-258.165	370.358	-0.030	0.059
-257.151	800.000	0.064	-0.177
-256.136	-118.658	-0.243	0.042
-255.122	800.000	0.043	-0.178
-254.107	-200.000	-0.051	-0.365
-253.092	23.221	-0.190	0.153
-252.078	10.620	-0.115	-0.086
-251.063	572.589	0.206	-0.494
-250.049	-120.022	0.358	-0.060
-249.034	-102.151	-0.168	-0.040
-248.019	253.090	0.116	0.195
-247.005	144.120	0.108	-0.142
-245.990	43.209	-0.197	-0.177
-244.976	-200.000	-0.009	-0.154
-243.961	366.088	0.106	0.211
-242.946	234.739	0.133	0.215
-241.932	-82.750	-0.101	-0.032
-240.917	-76.361	0.211	-0.073
-239.903	-126.699	0.114	0.017
-238.888	94.344	-0.124	0.139
-237.873	-63.835	0.136	-0.055
-236.859	104.083	0.274	0.317
-235.844	722.685	-0.061	0.159
-234.830	-65.206	-0.268	0.106
-233.815	-59.234	0.084	-0.036
-232.800	-87.105	0.125	0.037
-231.786	766.436	0.048	-0.127
-230.771	51.454	-0.117	-0.109
-229.757	-200.000	-0.040	0.513
-228.742	609.255	-0.074	0.182
-227.727	-200.000	-0.016	0.349
-226.713	49.269	-0.073	0.067
-225.698	17.273	0.172	0.134
-224.684	-200.000	0.082	0.681
-223.669	-11.974	0.035	0.022
-222.655	-110.289	-0.049	-0.010
-221.640	72.088	-0.057	0.058
-220.625	17.696	-0.073	0.057
-219.611	452.819	-0.123	-0.267
-218.596	800.000	-0.035	0.142
-217.582	800.000	0.127	-0.492
-216.567	-157.536	0.284	-0.017
-215.552	458.728	0.054	-0.118
-214.538	800.000	0.056	-0.210
-213.523	-132.114	-0.064	0.008
-212.509	800.000	0.156	0.430
-211.494	-78.046	-0.433	0.146
-210.479	248.899	0.023	0.038
-209.465	-200.000	0.012	-0.096
-208.450	800.000	-0.053	0.223
-207.436	206.055	0.089	-0.136
-206.421	-200.000	-0.019	-0.488
-205.406	-70.509	-0.109	0.040
-204.392	-200.000	0.115	0.525
-203.377	-27.730	0.131	0.074
-202.363	-78.241	0.045	-0.015
-201.348	159.573	-0.134	0.184
-200.333	-121.357	-0.423	0.069
-199.319	-200.000	0.041	-0.258
-198.304	115.025	-0.079	0.094
-197.290	768.573	0.020	0.052
-196.275	211.688	-0.214	-0.330
-195.260	-13.446	0.107	-0.068
-194.246	-121.313	-0.133	0.022
-193.231	186.553	0.063	0.092
-192.217	101.933	-0.340	0.389
-191.202	8.788	-0.036	-0.026
-190.187	54.502	0.081	-0.077
-189.173	-91.059	0.099	-0.028
-188.158	-29.627	-0.256	-0.144
-187.144	-200.000	0.070	0.453
-186.129	-55.331	0.058	-0.025
-185.114	-200.000	-0.005	-0.241
-184.100	561.229	-0.062	0.147
-183.085	-102.615	-0.110	-0.026
-182.071	-200.000	0.008	0.281
-181.056	469.789	0.114	0.251
-180.042	40.202	0.152	-0.134
-179.027	2.416	0.115	-0.082
-178.012	-84.704	0.084	-0.026
-176.998	-29.185	-0.131	0.073
-175.983	-49.336	0.225	0.105
-174.969	188.244	-0.274	-0.402
-173.954	91.930	0.189	-0.209
-172.939	107.209	0.213	0.248
-171.925	760.754	-0.076	-0.202
-170.910	541.496	0.042	0.098
-169.896	244.777	-0.072	-0.118
-168.881	171.742	0.097	0.137
-167.866	-66.946	0.230	0.089
-166.852	-16.076	0.181	0.113
-165.837	-69.285	-0.233	-0.088
-164.823	-61.036	0.214	-0.089
-163.808	800.000	-0.058	-0.178
-162.793	-168.539	0.265	0.010
-161.779	-200.000	-0.011	0.050
-160.764	-67.482	-0.189	0.073
-159.750	186.385	-0.145	0.211
-158.735	-1.630	-0.144	-0.100
-157.720	14.396	-0.343	0.262
-156.706	51.477	0.116	-0.108
-155.691	-44.388	0.184	-0.091
-154.677	640.558	-0.018	-0.044
-153.662	-200.000	0.014	0.192
-152.647	70.526	-0.247	-0.250
-151.633	-200.000	-0.002	0.419
-150.618	-47.241	0.245	0.117
-149.604	-76.336	-0.243	0.084
-148.589	-90.696	0.376	0.106
-147.574	-77.925	0.445	-0.150
-146.560	800.000	0.083	-0.242
-145.545	-61.682	0.091	0.037
-144.531	28.023	-0.184	-0.152
-143.516	57.638	0.356	-0.341
-142.502	-200.000	-0.023	-0.217
-141.487	-200.000	0.011	0.196
-140.472	800.000	0.076	0.241
-139.458	-45.615	0.037	0.018
-138.443	-145.032	-0.097	-0.009
-137.429	-141.351	-0.286	0.028
-136.414	-1.527	0.203	-0.140
-135.399	-180.298	-0.135	-0.003
-134.385	-132.519	-0.099	0.012
-133.370	118.679	-0.109	-0.132
-132.356	-78.525	-0.145	0.049
-131.341	-145.379	0.253	0.022
-130.326	-81.858	0.090	-0.029
-129.312	-96.071	0.315	0.082
-128.297	-122.897	-0.085	0.013
-127.283	247.665	-0.174	0.289
-126.268	-102.611	0.552	-0.129
-125.253	186.181	-0.226	0.329
-124.239	-62.150	0.111	-0.045
-123.224	423.622	0.130	0.273
-122.210	161.328	0.150	0.205
-121.195	535.710	-0.136	-0.316
-120.180	164.151	-0.071	0.098
