DTS Sentinel unit serial number:	SN413079Multiplexer serial number:	ORYXHardware model number:	OX4-SRSoftware version number:	ORYX F/W v4.00 Oryx Data Collector v3.7.2.0data status	okinstallation	princeton_trtdifferential loss correction	single-endedforward channel	channel 1reverse channel	N/Adate	2019/09/12time	20:46:36forward acquisition time	60.00reverse acquisition time	0.00gamma	496.2192k internal	0.2324k external	0.2324temperature offset calibration	1.0145default loss term (dB/km)	0.3790temperature slope calibration	1.0000multiplexer offset coefficient	1.0000multiplexer slope coefficient	1.0000fibre end	0.00T internal ref (°C)	31.05T ext. ref 1 (°C)	3.63T ext. ref 2 (°C)	25.58length (m)	temperature (°C)	Stokes	anti-Stokes-747.200	-200.000	0.005	0.321
-746.185	-200.000	0.046	0.254
-745.171	-200.000	-0.003	0.144
-744.156	57.618	0.133	0.131
-743.142	43.496	-0.174	0.161
-742.127	-67.828	-0.405	0.160
-741.112	-58.654	-0.110	0.048
-740.098	242.624	-0.188	0.317
-739.083	50.784	-0.180	0.172
-738.069	262.042	-0.132	0.231
-737.054	-200.000	-0.005	0.117
-736.039	800.000	-0.059	-0.207
-735.025	-70.594	-0.328	0.125
-734.010	232.828	-0.206	-0.341
-732.996	-161.715	0.485	-0.025
-731.981	-200.000	0.040	-0.256
-730.966	75.130	-0.122	-0.130
-729.952	-156.973	0.095	0.006
-728.937	-200.000	0.070	-0.389
-727.923	-161.482	-0.391	0.020
-726.908	166.017	-0.145	0.207
-725.894	-47.854	-0.151	-0.074
-724.879	-80.668	-0.342	-0.115
-723.864	235.899	-0.071	-0.118
-722.850	-13.116	0.125	0.082
-721.835	-169.038	-0.207	-0.008
-720.821	65.488	0.113	-0.116
-719.806	-132.175	-0.380	-0.050
-718.791	-13.580	0.118	0.077
-717.777	-6.912	0.208	-0.143
-716.762	109.555	0.113	-0.137
-715.748	39.404	-0.139	-0.126
-714.733	-200.000	0.007	0.115
-713.718	-32.356	-0.254	0.143
-712.704	-200.000	-0.055	-0.251
-711.689	200.055	0.038	-0.059
-710.675	113.838	-0.042	0.051
-709.660	-200.000	0.028	-0.167
-708.645	77.121	-0.301	-0.323
-707.631	-7.070	0.158	0.108
-706.616	389.831	-0.232	0.485
-705.602	-74.665	0.344	-0.125
-704.587	-16.559	-0.138	-0.088
-703.572	-144.343	0.386	0.036
-702.558	-200.000	-0.029	-0.309
-701.543	40.098	-0.135	0.122
-700.529	15.432	0.173	-0.137
-699.514	399.839	-0.057	-0.120
-698.499	16.777	0.244	-0.195
-697.485	-199.545	-0.304	0.002
-696.470	-200.000	0.011	0.150
-695.456	409.994	-0.081	0.172
-694.441	-29.126	-0.446	0.257
-693.426	-79.002	0.135	0.046
-692.412	42.114	-0.177	0.162
-691.397	109.988	-0.021	-0.025
-690.383	800.000	0.111	0.402
-689.368	-74.339	0.286	0.104
-688.354	-169.515	-0.032	0.001
-687.339	20.535	0.136	0.111
-686.324	-45.917	0.099	0.049
-685.310	800.000	-0.026	-0.101
-684.295	209.832	-0.170	0.269
-683.281	-132.910	-0.262	-0.034
-682.266	380.094	0.101	-0.209
-681.251	120.532	0.247	0.309
-680.237	85.771	-0.195	0.215
-679.222	24.304	0.228	0.190
-678.208	195.661	-0.064	-0.099
-677.193	122.691	0.286	-0.360
-676.178	-200.000	0.026	-0.147
-675.164	218.362	-0.190	0.306
-674.149	-200.000	-0.033	0.344
-673.135	-107.347	0.144	0.032
-672.120	86.169	-0.174	-0.193
-671.105	40.065	0.140	-0.127
-670.091	-53.403	0.076	0.035
-669.076	-42.044	-0.415	-0.214
-668.062	246.836	-0.102	0.172
-667.047	-200.000	0.008	-0.199
-666.032	-200.000	-0.029	-0.194
-665.018	-200.000	0.004	0.037
-664.003	-70.571	-0.344	0.131
-662.989	58.347	-0.152	0.150
-661.974	-133.789	0.165	-0.021
-660.959	-200.000	0.012	-0.098
-659.945	-54.261	0.095	0.043
-658.930	800.000	0.051	0.167
-657.916	-83.689	0.392	-0.126
-656.901	370.057	0.060	0.122
-655.886	-171.604	-0.201	-0.007
-654.872	-12.163	-0.310	-0.204
-653.857	-15.084	-0.280	-0.180
-652.843	800.000	-0.040	0.138
-651.828	-90.574	-0.148	-0.043
-650.814	38.420	-0.104	0.093
-649.799	12.197	0.095	0.073
-648.784	55.548	0.299	0.291
-647.770	-116.331	-0.401	0.075
-646.755	-200.000	-0.003	0.113
-645.741	-58.647	-0.162	-0.071
-644.726	551.110	0.107	-0.259
-643.711	-200.000	-0.034	-0.415
-642.697	-61.553	0.302	0.127
-641.682	-94.630	-0.086	0.024
-640.668	-200.000	-0.002	0.031
-639.653	71.052	0.116	-0.121
-638.638	-15.887	0.285	-0.182
-637.624	164.438	-0.119	-0.169
-636.609	48.142	-0.041	0.039
-635.595	-161.466	0.129	-0.007
-634.580	-107.022	0.361	-0.080
-633.565	-37.994	-0.100	0.053
-632.551	-200.000	0.030	0.234
-631.536	800.000	0.084	-0.298
-630.522	800.000	0.062	-0.202
-629.507	-78.561	0.308	-0.106
-628.492	4.487	-0.040	0.030
-627.478	798.150	0.127	0.352
-626.463	-143.517	0.302	0.029
-625.449	-124.590	0.233	0.036
-624.434	-65.392	-0.224	0.091
-623.419	-200.000	0.001	-0.061
-622.405	64.467	0.105	-0.106
-621.390	-119.007	0.197	0.035
-620.376	-110.489	0.382	0.080
-619.361	192.132	-0.143	-0.216
-618.346	-182.156	0.486	0.009
-617.332	-22.250	0.200	-0.122
-616.317	-87.140	-0.201	-0.061
-615.303	-9.473	-0.050	0.034
-614.288	337.205	-0.174	0.340
-613.273	64.074	0.246	-0.249
-612.259	71.657	-0.038	-0.040
-611.244	800.000	-0.022	-0.072
-610.230	111.102	-0.109	-0.131
-609.215	-24.604	0.167	0.100
-608.201	-26.673	0.337	0.198
-607.186	-144.765	0.097	0.009
-606.171	-184.492	-0.134	0.002
-605.157	8.382	-0.387	0.292
-604.142	-140.987	0.259	-0.027
-603.128	-152.525	0.188	-0.014
-602.113	-132.661	-0.202	-0.026
-601.098	-11.070	0.245	-0.162
-600.084	-58.320	-0.359	-0.157
-599.069	148.422	-0.095	0.129
-598.055	-200.000	0.001	-0.116
-597.040	454.041	-0.148	-0.329
-596.025	89.673	-0.159	-0.178
-595.011	70.994	-0.240	0.250
-593.996	-24.113	-0.221	-0.133
-592.982	-66.292	0.091	0.036
-591.967	-177.234	-0.171	0.004
-590.952	-200.000	0.036	0.259
-589.938	-200.000	-0.008	-0.413
-588.923	-10.146	0.250	0.166
-587.909	431.912	-0.008	0.017
-586.894	337.704	0.137	-0.267
-585.879	800.000	0.023	-0.088
-584.865	-1.952	0.347	0.244
-583.850	-200.000	-0.003	-0.135
-582.836	302.343	-0.088	0.163
-581.821	-78.329	-0.274	-0.094
-580.806	491.880	-0.061	-0.140
-579.792	-117.888	0.236	-0.042
-578.777	-149.825	-0.197	0.015
-577.763	-63.279	-0.508	0.210
-576.748	800.000	-0.075	-0.241
-575.733	470.157	-0.093	-0.210
-574.719	57.577	-0.316	-0.309
-573.704	800.000	-0.049	-0.210
-572.690	-200.000	0.011	0.076
-571.675	-200.000	-0.001	0.175
-570.661	-105.476	0.189	-0.043
-569.646	800.000	0.034	-0.146
-568.631	211.272	-0.118	0.187
-567.617	-200.000	0.024	0.279
-566.602	665.815	0.151	0.391
-565.588	347.811	-0.011	0.022
-564.573	-87.855	0.316	-0.095
-563.558	-146.246	-0.377	-0.033
-562.544	136.763	-0.161	0.210
-561.529	-70.045	-0.099	-0.038
-560.515	-62.496	0.291	0.121
-559.500	-59.903	-0.334	-0.143
-558.485	-200.000	-0.015	0.220
-557.471	-86.383	0.178	-0.055
-556.456	-50.142	-0.347	-0.165
-555.442	518.620	0.076	0.179
-554.427	39.868	0.177	-0.160
-553.412	800.000	0.075	-0.272
-552.398	-105.964	0.249	-0.056
-551.383	-200.000	0.051	0.386
-550.369	-61.630	-0.105	0.044
-549.354	651.985	0.036	-0.091
-548.339	-200.000	-0.082	-0.669
-547.325	-200.000	-0.100	0.515
-546.310	-94.505	-0.190	0.052
-545.296	-123.978	0.275	-0.043
-544.281	552.566	-0.105	0.252
-543.266	-38.574	-0.368	0.194
-542.252	800.000	-0.097	0.278
-541.237	539.606	-0.069	-0.165
-540.223	136.677	0.182	-0.237
-539.208	132.697	0.056	-0.072
-538.193	800.000	0.045	0.140
-537.179	-200.000	0.013	-0.326
-536.164	-123.069	0.079	0.013
-535.150	-23.483	0.198	0.119
-534.135	-124.669	0.341	0.053
-533.121	-200.000	-0.031	-0.198
-532.106	-52.993	-0.191	0.088
-531.091	101.323	-0.340	-0.396
-530.077	439.345	0.047	0.103
-529.062	-104.000	0.350	-0.082
-528.048	-137.212	-0.092	-0.011
-527.033	50.072	0.135	-0.127
-526.018	-50.142	-0.260	0.123
-525.004	-59.037	-0.144	0.062
-523.989	101.932	-0.104	0.121
-522.975	-89.884	0.168	-0.049
-521.960	-0.819	-0.017	-0.012
-520.945	-22.073	0.280	-0.170
-519.931	-51.971	0.102	0.048
-518.916	-66.913	-0.196	0.077
-517.902	-178.783	-0.248	0.006
-516.887	-200.000	0.022	-0.205
-515.872	-200.000	0.007	0.139
-514.858	38.894	0.141	-0.126
-513.843	-59.587	0.128	0.055
-512.829	-96.298	-0.133	0.035
-511.814	19.819	-0.024	-0.020
-510.799	452.368	0.039	-0.085
-509.785	-125.409	-0.104	-0.016
-508.770	-9.421	0.138	0.092
-507.756	27.348	-0.143	-0.120
-506.741	60.962	0.275	-0.273
-505.726	-10.078	0.135	0.090
-504.712	59.816	-0.287	-0.283
-503.697	800.000	-0.042	-0.152
-502.683	699.970	-0.108	-0.284
-501.668	-138.499	-0.016	-0.002
-500.653	-90.155	-0.097	0.028
-499.639	201.167	-0.128	0.197
-498.624	15.441	-0.062	0.049
-497.610	-65.611	-0.177	0.071
-496.595	305.132	-0.098	-0.182
-495.581	-55.764	-0.150	0.067
-494.566	-134.483	0.138	0.017
-493.551	800.000	-0.024	0.094
-492.537	-178.241	0.124	0.003
-491.522	-171.010	0.201	0.007
-490.508	-200.000	-0.030	0.140
-489.493	133.459	-0.149	-0.193
-488.478	-91.292	-0.284	0.081
-487.464	341.345	0.083	-0.161
-486.449	135.756	0.081	-0.105
-485.435	10.862	0.093	-0.071
-484.420	175.731	-0.084	-0.121
-483.405	800.000	-0.082	0.245
-482.391	-200.000	-0.002	-0.120
-481.376	56.518	0.132	-0.128
-480.362	280.526	-0.073	-0.131
-479.347	-154.902	0.428	0.028
-478.332	800.000	0.154	0.629
-477.318	5.999	-0.197	0.146
-476.303	384.358	0.125	0.256
-475.289	4.231	-0.115	-0.084
-474.274	-200.000	-0.053	-0.340
-473.259	-200.000	0.015	-0.086
-472.245	72.425	0.058	0.060
-471.230	-2.306	-0.155	-0.108
-470.216	-91.728	-0.233	-0.066
-469.201	-28.668	-0.339	-0.195
-468.186	-110.192	0.188	-0.039
-467.172	-153.363	-0.111	-0.008
-466.157	-42.935	0.182	0.092
-465.143	-172.503	-0.230	0.007
-464.128	236.283	0.035	-0.057
-463.113	-90.769	-0.223	-0.064
-462.099	-200.000	0.114	0.511
-461.084	-200.000	0.001	0.207
-460.070	73.905	-0.054	-0.057
-459.055	59.207	0.036	0.035
-458.040	165.451	-0.178	0.252
-457.026	156.632	-0.123	-0.169
-456.011	800.000	0.069	0.213
-454.997	94.589	0.217	-0.246
-453.982	-169.018	0.186	0.007
-452.968	-115.427	0.304	0.057
-451.953	67.976	0.021	0.021
-450.938	-79.543	-0.169	0.057
-449.924	34.876	-0.229	0.200
-448.909	-25.159	0.252	-0.149
-447.895	277.690	0.046	0.081
-446.880	752.367	0.076	0.205
-445.865	122.113	0.153	-0.190
-444.851	486.802	-0.131	-0.299
-443.836	-129.363	-0.164	-0.023
-442.822	-66.260	-0.304	-0.121
-441.807	440.693	-0.071	0.154
-440.792	-200.000	-0.018	-0.081
-439.778	230.341	-0.142	-0.232
-438.763	-100.861	0.157	0.038
-437.749	-128.397	-0.140	-0.020
-436.734	-64.700	0.212	0.086
-435.719	326.364	0.143	-0.273
-434.705	-19.629	-0.235	-0.145
-433.690	-200.000	0.018	-0.258
-432.676	94.540	-0.264	-0.299
-431.661	-76.355	0.141	0.050
-430.646	-138.187	-0.101	0.011
-429.632	800.000	0.046	-0.142
-428.617	-78.609	0.383	0.131
-427.603	-58.144	-0.226	0.098
-426.588	-51.648	-0.418	0.194
-425.573	451.087	-0.176	-0.388
-424.559	800.000	-0.054	0.186
-423.544	182.376	-0.112	0.165
-422.530	-200.000	-0.021	-0.461
-421.515	-5.345	-0.177	-0.122
-420.500	503.088	-0.078	-0.179
-419.486	-200.000	0.003	0.026
-418.471	-76.698	-0.234	0.082
-417.457	-200.000	-0.020	0.316
-416.442	-21.645	-0.235	0.143
-415.428	26.224	0.183	-0.153
-414.413	800.000	-0.062	-0.201
-413.398	-2.236	-0.123	0.086
-412.384	-47.028	0.267	0.130
-411.369	-85.565	0.322	0.100
-410.355	-117.068	-0.091	-0.016
-409.340	294.427	0.071	0.129
-408.325	-22.873	-0.189	-0.114
-407.311	-200.000	-0.074	0.366
-406.296	518.118	-0.230	0.536
-405.282	800.000	0.019	-0.058
-404.267	-54.186	0.268	0.121
-403.252	483.929	0.109	0.247
-402.238	-200.000	-0.030	0.170
-401.223	98.410	-0.195	0.224
-400.209	498.456	0.046	0.106
-399.194	-119.421	0.198	-0.034
-398.179	50.826	0.314	-0.296
-397.165	112.196	-0.195	-0.234
-396.150	-122.892	-0.149	-0.024
-395.136	-200.000	-0.063	-0.280
-394.121	-147.633	-0.089	0.007
-393.106	197.323	-0.068	0.103
-392.092	-62.273	-0.110	-0.045
-391.077	-52.142	0.187	-0.086
-390.063	-83.879	0.109	0.035
-389.048	397.022	-0.054	0.113
-388.033	744.775	-0.090	-0.241
-387.019	381.892	-0.079	-0.162
-386.004	-200.000	0.020	0.088
-384.990	21.984	0.144	0.117
-383.975	-87.941	0.276	-0.083
-382.960	-103.407	0.100	0.023
-381.946	41.479	0.039	0.035
-380.931	390.123	0.004	-0.009
-379.917	70.299	-0.234	-0.241
-378.902	41.527	0.096	-0.087
-377.888	800.000	-0.059	0.226
-376.873	-200.000	-0.018	-0.165
-375.858	200.180	-0.206	-0.315
-374.844	146.462	0.115	0.154
-373.829	140.452	0.076	-0.099
-372.815	800.000	-0.064	-0.253
-371.800	-200.000	-0.018	-0.311
-370.785	-149.524	-0.339	0.027
-369.771	-200.000	0.023	-0.116
-368.756	-17.530	0.121	-0.075
-367.742	10.044	-0.203	-0.153
-366.727	121.607	0.185	-0.229
-365.712	-72.974	0.055	-0.020
-364.698	133.662	-0.186	0.239
-363.683	59.242	0.165	-0.162
-362.669	-200.000	-0.052	0.240
-361.654	-154.648	-0.198	0.013
-360.639	78.455	-0.230	0.244
-359.625	-137.026	0.121	-0.014
-358.610	-200.000	-0.040	0.306
-357.596	59.727	-0.202	0.198
-356.581	230.440	0.186	-0.302
-355.566	-140.095	0.141	0.015
-354.552	800.000	0.086	-0.370
-353.537	800.000	0.009	0.025
-352.523	800.000	-0.034	0.138
-351.508	11.997	-0.176	-0.135
-350.493	-200.000	-0.017	-0.251
-349.479	800.000	0.040	0.120
-348.464	-86.165	0.256	0.078
-347.450	51.035	-0.164	-0.155
-346.435	142.876	-0.108	-0.143
-345.420	13.465	0.298	-0.229
-344.406	313.186	-0.107	0.199
-343.391	-155.616	-0.553	-0.035
-342.377	800.000	0.071	-0.241
-341.362	233.504	-0.127	0.208
-340.348	-77.855	-0.091	-0.031
-339.333	56.651	-0.142	-0.138
-338.318	-200.000	0.116	-0.000
-337.304	-110.128	-0.092	-0.019
-336.289	-90.146	0.150	0.043
-335.275	800.000	-0.077	0.253
-334.260	189.437	-0.014	-0.021
-333.245	-102.036	0.290	-0.069
-332.231	-96.256	-0.192	0.050
-331.216	300.939	0.105	0.193
-330.202	-75.559	-0.212	-0.075
-329.187	-36.839	-0.183	-0.098
-328.172	-130.097	-0.292	0.040
-327.158	297.621	-0.160	-0.292
-326.143	-200.000	0.058	-0.448
-325.129	147.862	-0.109	-0.146
-324.114	188.871	-0.282	0.419
-323.099	-100.965	-0.035	-0.009
-322.085	159.393	-0.122	-0.168
-321.070	375.777	-0.038	-0.077
-320.056	-200.000	0.005	0.026
-319.041	168.138	0.136	-0.192
-318.026	-200.000	-0.001	0.007
-317.012	-74.234	0.201	0.072
-315.997	-200.000	0.033	0.171
-314.983	-81.594	-0.211	-0.069
-313.968	-200.000	-0.003	0.041
-312.953	-103.708	0.402	-0.094
-311.939	-5.293	-0.286	0.195
-310.924	689.748	0.134	0.348
-309.910	800.000	-0.041	-0.172
-308.895	-200.000	0.001	0.239
-307.880	-108.755	0.246	0.052
-306.866	-89.288	-0.212	0.062
-305.851	87.065	0.214	0.235
-304.837	-189.502	-0.271	0.003
-303.822	-200.000	-0.056	0.353
-302.807	-54.398	-0.208	0.094
-301.793	-200.000	-0.028	0.129
-300.778	800.000	-0.042	-0.151
-299.764	-23.762	-0.116	0.069
-298.749	47.167	-0.177	0.164
-297.735	166.805	0.128	0.180
-296.720	800.000	0.080	0.268
-295.705	-59.675	0.202	-0.086
-294.691	-59.843	0.094	-0.040
-293.676	514.833	-0.109	0.252
-292.662	-200.000	-0.023	0.142
-291.647	-53.343	0.333	0.152
-290.632	30.985	0.160	0.136
-289.618	-6.125	0.274	0.186
-288.603	-105.843	0.193	-0.043
-287.589	108.431	-0.191	-0.226
-286.574	142.606	-0.076	-0.100
-285.559	800.000	-0.047	-0.160
-284.545	382.554	0.042	0.085
-283.530	-51.129	-0.145	0.067
-282.516	-67.696	0.128	-0.050
-281.501	79.470	-0.299	0.318
-280.486	192.971	0.049	0.074
-279.472	-130.570	0.398	0.053
-278.457	-122.570	-0.228	-0.037
-277.443	800.000	0.052	0.143
-276.428	-170.768	0.261	-0.009
-275.413	-17.711	-0.305	0.190
-274.399	49.410	0.147	-0.137
-273.384	32.817	0.099	0.085
-272.370	61.307	0.098	0.097
-271.355	758.219	0.030	-0.082
-270.340	800.000	0.088	-0.273
-269.326	-200.000	-0.002	-0.016
-268.311	149.516	-0.237	-0.318
-267.297	-80.568	0.204	0.067
-266.282	296.723	-0.149	-0.271
-265.267	-26.343	0.018	-0.011
-264.253	29.476	0.246	0.207
-263.238	-52.818	-0.108	-0.049
-262.224	89.653	0.176	0.195
-261.209	-152.886	0.196	-0.014
-260.195	130.465	0.275	0.349
-259.180	-88.753	-0.084	-0.025
-258.165	-13.061	-0.301	-0.194
-257.151	-8.373	-0.401	0.267
-256.136	400.761	0.066	0.138
-255.122	-200.000	0.010	-0.308
-254.107	6.276	-0.134	0.098
-253.092	-200.000	-0.016	0.081
-252.078	-137.454	-0.130	-0.015
-251.063	-63.471	0.279	0.114
-250.049	-107.267	0.162	0.035
-249.034	-69.088	0.286	-0.109
-248.019	-24.532	0.217	0.128
-247.005	-200.000	-0.025	-0.122
-245.990	-164.316	0.164	0.007
-244.976	181.593	0.264	-0.385
-243.961	-179.698	-0.063	0.001
-242.946	122.345	0.109	-0.135
-241.932	-124.342	-0.423	-0.065
-240.917	12.512	-0.130	-0.099
-239.903	-16.456	0.057	0.036
-238.888	538.670	0.126	0.297
-237.873	194.323	0.240	0.359
-236.859	135.789	-0.089	0.115
-235.844	47.817	0.141	-0.130
-234.830	47.209	-0.143	-0.132
-233.815	1.386	0.064	-0.045
-232.800	323.561	-0.054	-0.102
-231.786	-83.584	0.167	-0.053
-230.771	800.000	-0.083	0.337
-229.757	-200.000	0.007	-0.122
-228.742	6.294	-0.161	-0.118
-227.727	-200.000	0.025	-0.136
-226.713	25.089	0.182	0.149
-225.698	800.000	-0.088	0.280
-224.684	-126.855	-0.239	-0.035
-223.669	52.210	-0.163	-0.154
-222.655	147.410	-0.087	-0.116
-221.640	58.894	-0.399	-0.388
-220.625	800.000	0.017	-0.069
-219.611	210.649	0.088	0.137
-218.596	-172.816	-0.083	-0.003
-217.582	-125.233	0.382	-0.058
-216.567	800.000	0.097	0.311
-215.552	-1.450	0.062	-0.043
-214.538	-62.815	-0.382	0.156
-213.523	-88.427	0.286	0.084
-212.509	126.205	-0.167	-0.209
-211.494	-200.000	-0.047	0.214
-210.479	-143.083	0.307	-0.029
-209.465	-200.000	0.439	0.002
-208.450	21.036	0.239	0.192
-207.436	-200.000	0.010	0.113
-206.421	800.000	0.084	-0.243
-205.406	-171.029	-0.155	-0.005
-204.392	47.375	0.162	-0.149
-203.377	-200.000	-0.061	0.357
-202.363	-156.376	-0.139	0.009
-201.348	287.633	0.070	0.125
-200.333	-1.100	0.194	-0.136
-199.319	-200.000	-0.035	0.161
-198.304	-47.133	-0.433	0.208
-197.290	-56.120	-0.408	-0.179
-196.275	-116.017	-0.331	0.061
-195.260	-19.017	0.108	0.066
-194.246	-16.822	-0.236	-0.147
-193.231	-116.130	0.246	0.045
-192.217	-200.000	-0.018	0.407
-191.202	800.000	-0.039	0.130
-190.187	293.747	0.159	-0.288
-189.173	-95.528	0.273	0.072
-188.158	179.955	-0.109	-0.158
-187.144	132.771	0.260	0.331
-186.129	-4.968	0.142	-0.096
-185.114	-87.030	0.226	-0.068
-184.100	6.727	0.191	0.140
-183.085	-81.854	0.330	0.107
-182.071	84.312	-0.179	-0.194
-181.056	115.261	-0.189	0.228
-180.042	249.693	0.034	0.057
-179.027	-110.783	0.269	-0.055
-178.012	800.000	-0.023	0.098
-176.998	52.540	-0.225	-0.212
-175.983	209.539	-0.080	-0.124
-174.969	-151.294	-0.054	-0.004
-173.954	93.452	0.256	0.286
-172.939	-200.000	-0.013	-0.142
-171.925	-200.000	-0.025	-0.167
-170.910	79.085	0.140	0.148
-169.896	395.876	-0.033	0.067
-168.881	-200.000	-0.001	-0.046
-167.866	-64.664	0.226	0.091
-166.852	-94.423	0.191	0.052
-165.837	-125.022	-0.113	-0.017
-164.823	-160.383	0.176	0.009
-163.808	137.119	-0.122	0.157
-162.793	800.000	-0.101	-0.342
-161.779	148.411	0.159	0.212
-160.764	61.328	-0.196	0.192
-159.750	-200.000	0.018	0.204
-158.735	-200.000	0.000	0.247
-157.720	800.000	-0.049	-0.197
-156.706	-33.539	-0.116	-0.063
-155.691	187.116	0.232	-0.341
-154.677	-165.545	-0.166	-0.007
-153.662	-112.689	0.303	0.059
-152.647	0.605	0.238	0.168
-151.633	339.584	-0.105	0.202
-150.618	-35.254	0.300	0.161
-149.604	-48.900	-0.263	0.124
-148.589	18.711	-0.064	-0.050
-147.574	-53.591	-0.301	-0.136
-146.560	94.922	-0.084	-0.094
-145.545	92.135	-0.126	-0.140
-144.531	800.000	0.117	-0.364
-143.516	715.868	-0.071	0.185
-142.502	470.790	0.039	0.086
-141.487	-9.945	-0.186	0.122
-140.472	-200.000	-0.025	0.167
-139.458	800.000	0.049	-0.171
-138.443	-178.241	0.193	0.004
-137.429	195.058	0.220	-0.329
-136.414	66.326	-0.020	-0.020
-135.399	407.304	0.034	-0.071
-134.385	-0.998	-0.183	-0.128
-133.370	-200.000	0.010	-0.268
-132.356	349.154	0.201	0.391
-131.341	260.483	0.129	-0.220
-130.326	-108.086	-0.364	-0.078
-129.312	-35.406	0.125	-0.067
-128.297	-200.000	0.043	0.220
-127.283	-82.973	0.163	0.052
-126.268	-200.000	0.060	0.385
-125.253	4.545	-0.355	0.257
-124.239	325.694	-0.148	0.278
-123.224	-69.151	0.148	0.056
-122.210	187.301	-0.092	-0.136
-121.195	-24.681	-0.061	-0.036
