DTS Sentinel unit serial number:	SN413079Multiplexer serial number:	ORYXHardware model number:	OX4-SRSoftware version number:	ORYX F/W v4.00 Oryx Data Collector v3.7.2.0data status	okinstallation	princeton_trtdifferential loss correction	single-endedforward channel	channel 1reverse channel	N/Adate	2019/09/15time	15:42:35forward acquisition time	60.00reverse acquisition time	0.00gamma	496.2192k internal	0.2291k external	0.2291temperature offset calibration	0.9938default loss term (dB/km)	0.3790temperature slope calibration	1.0000multiplexer offset coefficient	1.0000multiplexer slope coefficient	1.0000fibre end	0.00T internal ref (°C)	41.78T ext. ref 1 (°C)	5.18T ext. ref 2 (°C)	40.19length (m)	temperature (°C)	Stokes	anti-Stokes-747.200	-1.783	0.110	0.079
-746.185	-145.997	0.210	0.019
-745.171	-200.000	0.001	-0.005
-744.156	27.333	0.201	0.173
-743.142	-147.270	0.246	-0.021
-742.127	657.999	0.119	0.314
-741.112	115.794	-0.195	0.244
-740.098	158.666	0.041	0.059
-739.083	15.652	0.189	0.152
-738.069	800.000	-0.021	0.072
-737.054	-145.165	0.197	0.018
-736.039	362.215	0.135	-0.276
-735.025	-200.000	0.023	-0.183
-734.010	70.325	-0.094	-0.099
-732.996	-68.335	-0.294	-0.117
-731.981	-200.000	0.006	0.178
-730.966	-81.192	0.264	-0.089
-729.952	-200.000	-0.027	-0.498
-728.937	391.582	-0.128	-0.272
-727.923	-113.575	-0.079	0.016
-726.908	58.682	-0.308	0.309
-725.894	237.167	-0.136	0.230
-724.879	-44.955	0.345	0.176
-723.864	-200.000	0.005	0.091
-722.850	800.000	0.103	-0.381
-721.835	146.079	-0.071	-0.098
-720.821	-146.173	-0.146	0.013
-719.806	-12.401	0.093	-0.062
-718.791	-68.140	-0.167	0.067
-717.777	-77.563	-0.224	-0.079
-716.762	-153.975	-0.084	-0.006
-715.748	-153.948	0.265	0.018
-714.733	-169.768	0.203	0.007
-713.718	-103.416	0.203	0.049
-712.704	41.828	-0.138	-0.128
-711.689	-200.000	0.021	-0.227
-710.675	-84.467	-0.038	0.012
-709.660	-20.559	0.145	-0.091
-708.645	38.379	0.163	-0.149
-707.631	291.048	0.108	-0.200
-706.616	63.101	0.010	0.011
-705.602	617.833	0.166	-0.427
-704.587	-47.273	0.088	-0.044
-703.572	579.708	-0.048	-0.119
-702.558	800.000	-0.048	0.145
-701.543	-200.000	-0.004	-0.116
-700.529	323.683	-0.157	-0.306
-699.514	-164.758	-0.334	-0.015
-698.499	77.425	0.132	-0.144
-697.485	-74.527	-0.082	0.030
-696.470	-76.791	0.224	0.080
-695.456	-112.356	-0.197	0.040
-694.441	-200.000	-0.050	-0.224
-693.426	-53.933	0.196	0.091
-692.412	800.000	-0.065	0.222
-691.397	579.579	-0.088	-0.220
-690.383	511.940	0.104	-0.248
-689.368	-200.000	-0.047	-0.222
-688.354	327.800	-0.068	0.132
-687.339	451.714	0.100	0.226
-686.324	457.148	-0.057	-0.130
-685.310	800.000	-0.095	0.316
-684.295	-145.237	-0.380	-0.035
-683.281	203.149	-0.124	0.196
-682.266	106.785	0.186	-0.225
-681.251	-120.165	-0.316	-0.055
-680.237	258.430	0.080	-0.141
-679.222	-200.000	-0.034	-0.200
-678.208	-200.000	-0.018	-0.082
-677.193	-200.000	-0.066	0.413
-676.178	-138.996	0.267	0.030
-675.164	122.865	-0.109	0.139
-674.149	147.923	0.233	0.320
-673.135	358.491	-0.035	0.072
-672.120	-200.000	-0.017	-0.330
-671.105	89.739	0.132	-0.150
-670.091	-100.995	-0.008	-0.002
-669.076	800.000	0.062	-0.179
-668.062	-4.871	-0.199	-0.140
-667.047	-55.982	-0.149	-0.068
-666.032	22.990	0.277	-0.232
-665.018	191.584	0.123	0.189
-664.003	165.832	-0.180	0.260
-662.989	-200.000	0.024	0.143
-661.974	-22.951	0.038	-0.024
-660.959	-200.000	-0.022	-0.277
-659.945	-200.000	-0.000	0.279
-658.930	81.673	0.093	-0.102
-657.916	-32.774	-0.124	-0.071
-656.901	-200.000	-0.002	-0.020
-655.886	718.642	0.155	0.419
-654.872	690.595	-0.067	-0.178
-653.857	33.380	-0.045	-0.040
-652.843	299.648	-0.094	-0.177
-651.828	-200.000	-0.025	-0.227
-650.814	9.581	0.136	-0.105
-649.799	322.458	0.054	-0.105
-648.784	365.532	-0.147	0.301
-647.770	560.776	0.142	-0.351
-646.755	367.149	-0.129	0.267
-645.741	228.681	0.133	0.221
-644.726	47.688	-0.337	-0.320
-643.711	-200.000	0.025	-0.266
-642.697	250.216	-0.100	-0.173
-641.682	-136.884	-0.154	-0.018
-640.668	222.440	0.029	0.047
-639.653	-77.681	0.190	-0.067
-638.638	503.030	0.013	0.031
-637.624	-172.272	0.225	0.007
-636.609	-200.000	-0.017	0.300
-635.595	-200.000	0.008	0.156
-634.580	-67.351	-0.109	0.044
-633.565	-93.316	0.182	-0.052
-632.551	-200.000	0.058	0.434
-631.536	-190.677	0.251	0.003
-630.522	20.612	-0.387	0.319
-629.507	101.393	-0.078	0.092
-628.492	-79.322	0.156	0.054
-627.478	43.988	0.212	0.198
-626.463	493.990	-0.036	-0.084
-625.449	-49.814	-0.317	-0.153
-624.434	4.313	0.125	0.094
-623.419	-200.000	-0.003	0.212
-622.405	19.498	-0.269	0.220
-621.390	569.978	-0.077	0.191
-620.376	78.010	0.176	0.191
-619.361	800.000	0.046	-0.200
-618.346	-200.000	-0.016	-0.083
-617.332	-200.000	-0.009	-0.152
-616.317	-200.000	0.009	-0.081
-615.303	-86.207	0.368	-0.115
-614.288	800.000	-0.024	-0.069
-613.273	-3.651	-0.055	0.039
-612.259	-200.000	0.017	0.187
-611.244	210.603	-0.099	-0.158
-610.230	1.136	-0.099	-0.072
-609.215	0.641	-0.209	0.152
-608.201	-200.000	-0.044	-0.350
-607.186	226.978	0.152	-0.251
-606.171	483.071	-0.149	0.344
-605.157	-44.730	-0.045	-0.023
-604.142	369.729	0.112	-0.231
-603.128	-200.000	0.004	-0.168
-602.113	800.000	0.079	0.262
-601.098	-83.380	0.298	0.097
-600.084	-30.751	0.150	-0.087
-599.069	-19.445	-0.090	-0.056
-598.055	61.224	0.155	0.157
-597.040	800.000	-0.033	-0.095
-596.025	-8.595	-0.056	-0.038
-595.011	-81.915	-0.142	0.047
-593.996	-118.145	0.132	0.024
-592.982	364.715	0.193	-0.396
-591.967	-7.768	0.071	0.049
-590.952	-55.642	-0.385	-0.175
-589.938	136.761	0.167	-0.223
-588.923	15.549	0.137	-0.109
-587.909	-83.113	-0.206	-0.067
-586.894	723.672	-0.057	0.155
-585.879	508.436	0.036	0.084
-584.865	165.745	0.258	0.371
-583.850	152.057	-0.207	0.288
-582.836	-200.000	-0.022	0.190
-581.821	-200.000	0.032	-0.200
-580.806	133.014	0.017	0.022
-579.792	-132.994	0.161	0.021
-578.777	-41.978	-0.272	-0.142
-577.763	-75.103	0.105	0.038
-576.748	191.412	-0.146	0.224
-575.733	14.952	0.126	0.100
-574.719	-113.457	0.114	-0.023
-573.704	-176.246	0.242	0.006
-572.690	-27.785	-0.293	0.173
-571.675	800.000	-0.060	-0.196
-570.661	33.729	0.149	-0.132
-569.646	-53.185	-0.136	0.064
-568.631	-200.000	0.067	0.318
-567.617	800.000	-0.028	-0.080
-566.602	131.512	-0.220	0.287
-565.588	-2.580	-0.111	0.079
-564.573	-15.949	-0.349	-0.226
-563.558	-128.996	0.200	0.029
-562.544	140.712	0.069	0.092
-561.529	-106.539	0.188	-0.043
-560.515	-87.298	0.376	-0.116
-559.500	-165.025	-0.283	0.013
-558.485	-64.519	-0.254	-0.105
-557.471	-3.284	0.099	-0.070
-556.456	-117.588	-0.304	-0.056
-555.442	-200.000	0.024	0.251
-554.427	-25.136	-0.141	0.085
-553.412	-200.000	-0.187	0.000
-552.398	73.409	0.109	0.116
-551.383	-21.485	-0.310	0.192
-550.369	381.352	0.264	0.551
-549.354	681.718	0.106	-0.282
-548.339	-29.190	0.207	-0.120
-547.325	-24.859	0.044	-0.026
-546.310	-78.415	0.198	0.069
-545.296	-26.194	0.241	0.144
-544.281	-147.521	-0.067	-0.006
-543.266	-117.422	0.074	0.014
-542.252	-51.137	-0.287	0.137
-541.237	-49.045	0.167	-0.081
-540.223	-200.000	-0.010	0.163
-539.208	-6.410	-0.331	-0.229
-538.193	-17.778	0.053	0.034
-537.179	125.426	0.109	-0.140
-536.164	-48.458	0.266	0.130
-535.150	46.583	-0.185	-0.175
-534.135	52.351	-0.212	-0.205
-533.121	33.860	-0.083	0.074
-532.106	116.905	0.222	0.277
-531.091	504.693	-0.042	-0.099
-530.077	-30.145	0.073	-0.042
-529.062	47.655	-0.061	-0.058
-528.048	122.866	-0.201	0.255
-527.033	351.953	0.058	0.116
-526.018	711.165	0.062	-0.166
-525.004	94.238	-0.164	0.189
-523.989	223.484	-0.165	0.270
-522.975	8.961	0.139	0.106
-521.960	-200.000	0.016	0.176
-520.945	800.000	-0.049	-0.147
-519.931	53.896	-0.179	0.174
-518.916	800.000	-0.101	-0.314
-517.902	-27.585	-0.271	-0.160
-516.887	133.868	-0.103	-0.136
-515.872	-97.614	0.140	-0.037
-514.858	-67.197	-0.227	0.091
-513.843	3.362	0.189	-0.140
-512.829	126.499	0.184	-0.236
-511.814	-73.702	0.111	0.041
-510.799	-196.021	-0.193	0.001
-509.785	154.996	-0.178	-0.248
-508.770	-200.000	-0.019	-0.088
-507.756	-56.496	-0.116	0.052
-506.741	-132.306	-0.172	0.023
-505.726	28.998	-0.237	0.204
-504.712	-200.000	-0.013	0.225
-503.697	-200.000	-0.006	-0.140
-502.683	-41.537	-0.221	0.115
-501.668	-99.283	-0.120	0.031
-500.653	-58.151	0.137	-0.060
-499.639	800.000	-0.069	-0.242
-498.624	-30.441	0.234	-0.135
-497.610	486.755	-0.045	-0.104
-496.595	-200.000	-0.045	-0.507
-495.581	185.809	0.223	0.336
-494.566	-200.000	-0.074	0.451
-493.551	648.132	-0.101	0.262
-492.537	-84.947	0.516	-0.164
-491.522	-26.400	-0.222	0.132
-490.508	71.342	-0.246	0.258
-489.493	-107.793	-0.139	0.031
-488.478	-95.608	-0.219	-0.059
-487.464	-200.000	0.010	-0.200
-486.449	404.946	0.063	0.136
-485.435	226.674	-0.179	-0.294
-484.420	-77.050	-0.184	0.065
-483.405	273.300	0.186	-0.333
-482.391	800.000	-0.050	0.150
-481.376	117.478	0.131	-0.163
-480.362	185.247	0.128	-0.192
-479.347	-92.300	-0.368	-0.105
-478.332	-88.286	0.380	-0.115
-477.318	800.000	-0.141	0.463
-476.303	182.208	-0.032	-0.048
-475.289	236.705	-0.041	0.070
-474.274	-63.661	-0.126	-0.052
-473.259	111.839	-0.186	-0.228
-472.245	-200.000	0.085	-0.422
-471.230	-200.000	-0.035	0.244
-470.216	-46.226	-0.171	0.085
-469.201	-28.667	0.226	0.132
-468.186	-200.000	-0.095	-0.443
-467.172	-200.000	0.038	0.180
-466.157	-92.193	-0.104	-0.030
-465.143	-81.407	-0.109	-0.036
-464.128	15.348	0.149	0.118
-463.113	469.760	0.083	-0.188
-462.099	-200.000	-0.047	-0.515
-461.084	67.049	-0.361	0.372
-460.070	-42.890	0.146	-0.075
-459.055	-119.069	0.266	-0.047
-458.040	246.250	-0.120	-0.205
-457.026	800.000	0.014	-0.060
-456.011	46.734	-0.246	0.232
-454.997	436.223	-0.074	0.164
-453.982	-49.705	-0.179	-0.086
-452.968	28.489	-0.044	-0.038
-451.953	-129.794	0.183	-0.025
-450.938	-142.722	-0.267	-0.026
-449.924	-95.137	-0.210	0.057
-448.909	171.456	-0.118	-0.172
-447.895	-19.771	-0.348	0.218
-446.880	-64.389	0.070	0.029
-445.865	10.864	-0.167	0.129
-444.851	-14.968	0.130	0.084
-443.836	36.169	0.061	-0.055
-442.822	-89.855	-0.445	-0.132
-441.807	-139.506	0.075	-0.008
-440.792	-200.000	-0.049	-0.317
-439.778	351.022	0.107	0.215
-438.763	-121.064	-0.190	-0.032
-437.749	164.807	0.138	0.197
-436.734	27.548	0.251	0.214
-435.719	800.000	0.016	0.063
-434.705	800.000	-0.058	0.217
-433.690	-34.663	0.356	-0.197
-432.676	422.310	-0.062	-0.134
-431.661	800.000	0.082	0.254
-430.646	161.101	0.144	0.204
-429.632	108.508	0.122	-0.147
-428.617	-73.132	0.071	-0.027
-427.603	800.000	-0.038	-0.124
-426.588	-71.502	0.475	0.179
-425.573	800.000	-0.078	-0.330
-424.559	-68.550	0.060	-0.024
-423.544	253.750	0.172	-0.297
-422.530	169.265	-0.071	-0.103
-421.515	2.399	0.132	0.096
-420.500	-2.847	-0.199	0.140
-419.486	318.179	0.080	-0.153
-418.471	800.000	0.070	-0.304
-417.457	-1.984	-0.093	-0.066
-416.442	-103.838	-0.227	-0.054
-415.428	-32.033	-0.090	0.051
-414.413	-100.518	0.150	0.037
-413.398	35.792	0.153	0.136
-412.384	-38.878	0.284	-0.151
-411.369	705.151	-0.122	0.326
-410.355	91.067	0.081	0.091
-409.340	800.000	-0.075	0.315
-408.325	-200.000	-0.020	0.092
-407.311	-200.000	0.039	-0.472
-406.296	91.374	0.235	-0.267
-405.282	36.787	-0.164	-0.147
-404.267	-200.000	-0.014	0.164
-403.252	-84.477	-0.385	-0.123
-402.238	800.000	-0.140	0.434
-401.223	166.318	0.153	-0.219
-400.209	305.889	-0.165	-0.310
-399.194	1.586	0.187	0.136
-398.179	15.439	-0.280	0.222
-397.165	297.877	-0.052	0.097
-396.150	-73.446	0.012	0.004
-395.136	-102.397	-0.127	0.031
-394.121	273.138	-0.118	-0.211
-393.106	-137.643	0.119	0.014
-392.092	-50.547	-0.050	-0.024
-391.077	-184.774	-0.076	0.001
-390.063	-116.004	0.284	0.053
-389.048	70.756	-0.177	0.185
-388.033	800.000	0.047	-0.203
-387.019	-92.451	-0.301	0.085
-386.004	-200.000	-0.009	0.136
-384.990	447.665	-0.074	-0.164
-383.975	212.354	-0.150	0.238
-382.960	455.466	-0.138	0.308
-381.946	-88.319	0.155	0.047
-380.931	800.000	0.065	0.233
-379.917	-200.000	0.010	-0.048
-378.902	-118.656	0.206	-0.037
-377.888	-131.768	0.112	0.015
-376.873	-200.000	0.046	0.228
-375.858	104.113	0.287	0.341
-374.844	-17.567	0.049	-0.031
-373.829	162.588	0.060	0.085
-372.815	-23.622	-0.109	0.066
-371.800	601.342	-0.066	-0.165
-370.785	-80.582	0.101	-0.034
-369.771	449.240	-0.154	-0.342
-368.756	-200.000	-0.001	-0.143
-367.742	-163.782	-0.366	-0.017
-366.727	416.323	0.117	0.252
-365.712	800.000	-0.031	0.087
-364.698	-200.000	-0.035	0.320
-363.683	-29.900	-0.117	-0.067
-362.669	260.733	0.159	-0.277
-361.654	33.892	0.145	0.127
-360.639	137.214	0.412	-0.543
-359.625	800.000	-0.154	-0.522
-358.610	10.525	-0.183	0.140
-357.596	-200.000	0.010	0.326
-356.581	-200.000	-0.002	-0.140
-355.566	-122.863	-0.092	0.015
-354.552	199.695	-0.051	-0.078
-353.537	-200.000	0.071	0.374
-352.523	-200.000	-0.035	0.372
-351.508	-93.622	0.191	-0.053
-350.493	-76.809	-0.080	-0.028
-349.479	-117.163	-0.008	0.001
-348.464	121.968	0.093	-0.117
-347.450	800.000	0.039	-0.130
-346.435	66.428	0.193	0.198
-345.420	236.475	0.057	0.095
-344.406	108.201	-0.289	-0.347
-343.391	640.117	0.162	-0.415
-342.377	18.095	0.166	0.133
-341.362	387.798	0.065	-0.136
-340.348	-141.010	-0.259	0.027
-339.333	166.164	-0.141	-0.201
-338.318	211.436	-0.099	-0.156
-337.304	-197.612	0.177	0.001
-336.289	-160.078	0.262	-0.014
-335.275	-200.000	0.040	-0.208
-334.260	800.000	0.145	-0.434
-333.245	-200.000	0.019	-0.161
-332.231	255.245	-0.118	-0.203
-331.216	232.335	-0.016	0.026
-330.202	-32.736	-0.149	-0.083
-329.187	800.000	0.040	-0.133
-328.172	568.522	-0.051	-0.125
-327.158	-75.952	0.168	0.060
-326.143	1.675	0.259	-0.188
-325.129	-200.000	0.028	0.282
-324.114	76.402	-0.048	0.052
-323.099	-200.000	0.006	0.040
-322.085	-137.273	-0.194	0.022
-321.070	158.329	0.161	-0.224
-320.056	-200.000	-0.020	0.279
-319.041	-200.000	-0.045	0.000
-318.026	-200.000	0.012	0.077
-317.012	-200.000	-0.029	0.212
-315.997	-200.000	-0.011	0.205
-314.983	800.000	0.089	0.378
-313.968	-142.480	-0.129	0.013
-312.953	-6.445	-0.056	-0.039
-311.939	344.253	-0.095	-0.187
-310.924	31.036	-0.178	0.153
-309.910	-200.000	0.005	-0.044
-308.895	-22.166	0.197	-0.120
-307.880	-200.000	0.056	-0.317
-306.866	307.158	0.063	-0.118
-305.851	533.333	-0.088	-0.209
-304.837	-44.261	-0.362	-0.183
-303.822	-200.000	0.025	-0.151
-302.807	-15.374	-0.207	0.133
-301.793	-200.000	-0.009	0.365
-300.778	-64.077	0.167	-0.069
-299.764	-2.905	0.279	-0.196
-298.749	-200.000	0.001	-0.285
-297.735	-65.233	0.048	0.019
-296.720	385.259	-0.233	-0.483
-295.705	-77.166	-0.345	0.121
-294.691	12.548	-0.179	-0.139
-293.676	-200.000	-0.077	0.474
-292.662	-8.106	-0.203	0.138
-291.647	-36.473	0.218	-0.118
-290.632	59.444	-0.117	0.116
-289.618	360.474	0.272	0.549
-288.603	599.761	0.106	0.264
-287.589	74.919	-0.256	0.271
-286.574	-124.941	0.288	-0.045
-285.559	221.882	0.243	-0.392
-284.545	252.700	-0.079	-0.135
-283.530	800.000	-0.083	0.271
-282.516	-65.989	0.396	-0.159
-281.501	233.245	-0.111	-0.183
-280.486	-91.582	0.183	0.052
-279.472	19.572	-0.223	0.180
-278.457	56.878	0.096	0.094
-277.443	800.000	0.113	0.378
-276.428	356.076	-0.245	0.490
-275.413	800.000	0.020	0.055
-274.399	27.085	0.136	0.115
-273.384	710.280	0.090	-0.241
-272.370	41.283	0.202	-0.184
-271.355	-46.459	0.178	0.088
-270.340	95.234	0.153	-0.176
-269.326	121.098	0.086	0.107
-268.311	-53.288	0.053	0.024
-267.297	-200.000	0.011	0.281
-266.282	327.898	0.170	0.328
-265.267	-77.982	0.310	-0.107
-264.253	-114.654	-0.314	0.060
-263.238	53.673	-0.200	-0.192
-262.224	359.406	0.052	-0.104
-261.209	27.097	-0.080	0.067
-260.195	308.019	-0.085	0.159
-259.180	621.161	0.008	0.021
-258.165	257.264	0.119	-0.205
-257.151	-127.605	0.426	-0.062
-256.136	-9.543	0.178	0.119
-255.122	58.579	-0.055	0.054
-254.107	-135.071	-0.179	-0.022
-253.092	800.000	0.087	-0.376
-252.078	800.000	0.058	0.173
-251.063	-108.560	0.049	-0.010
-250.049	181.345	0.113	0.166
-249.034	339.702	0.156	-0.306
-248.019	800.000	-0.124	0.353
-247.005	-145.284	0.204	-0.019
-245.990	-44.976	-0.082	-0.041
-244.976	25.590	-0.141	-0.117
-243.961	-55.922	0.351	0.157
-242.946	154.577	0.284	0.392
-241.932	441.752	0.117	-0.257
-240.917	4.490	0.186	0.137
-239.903	-109.575	-0.101	0.021
-238.888	-200.000	-0.023	0.221
-237.873	-200.000	-0.026	0.224
-236.859	-200.000	-0.047	0.250
-235.844	-88.769	0.105	-0.031
-234.830	135.336	0.210	-0.274
-233.815	180.197	-0.051	-0.076
-232.800	-76.737	-0.124	-0.044
-231.786	75.502	0.102	-0.108
-230.771	-89.735	0.268	0.079
-229.757	725.270	0.114	0.306
-228.742	-110.322	0.173	-0.036
-227.727	-200.000	-0.044	0.195
-226.713	-1.211	-0.315	0.223
-225.698	-200.000	-0.041	0.213
-224.684	-200.000	-0.005	-0.296
-223.669	-200.000	0.016	-0.248
-222.655	-154.698	0.217	0.014
-221.640	-200.000	0.012	0.154
-220.625	36.779	0.085	-0.075
-219.611	-35.807	-0.054	0.029
-218.596	-200.000	-0.032	0.417
-217.582	241.823	0.143	0.239
-216.567	-91.796	0.258	0.073
-215.552	46.045	0.235	0.218
-214.538	800.000	0.018	-0.055
-213.523	-119.797	-0.085	0.015
-212.509	-200.000	0.006	0.117
-211.494	800.000	-0.032	-0.124
-210.479	800.000	-0.071	0.269
-209.465	191.677	-0.232	0.350
-208.450	-200.000	0.006	-0.186
-207.436	800.000	-0.175	-0.494
-206.421	-93.428	-0.430	-0.119
-205.406	118.690	0.083	0.103
-204.392	800.000	0.025	-0.083
-203.377	-200.000	-0.061	-0.326
-202.363	-144.279	-0.075	0.007
-201.348	-200.000	-0.023	-0.227
-200.333	142.506	0.141	-0.188
-199.319	-82.645	-0.167	-0.054
-198.304	45.358	0.191	-0.176
-197.290	-76.650	-0.182	-0.064
-196.275	-120.749	-0.258	-0.044
-195.260	188.353	-0.145	-0.218
-194.246	-6.755	-0.172	0.117
-193.231	-200.000	0.039	0.332
-192.217	-200.000	0.038	0.306
-191.202	635.464	-0.186	-0.474
-190.187	-50.496	0.271	0.128
-189.173	3.901	0.159	0.116
-188.158	-200.000	-0.007	-0.075
-187.144	-152.724	0.195	0.014
-186.129	263.186	-0.114	-0.198
-185.114	800.000	0.038	0.122
-184.100	143.470	0.246	0.328
-183.085	163.248	0.159	-0.224
-182.071	32.561	-0.151	-0.131
-181.056	800.000	0.039	-0.140
-180.042	-200.000	0.012	-0.055
-179.027	800.000	-0.050	0.167
-178.012	54.954	-0.048	-0.047
-176.998	-200.000	-0.003	-0.265
-175.983	-200.000	-0.003	0.015
-174.969	-200.000	0.007	-0.283
-173.954	-200.000	-0.009	-0.199
-172.939	62.555	0.288	-0.288
-171.925	-66.776	0.074	0.029
-170.910	33.138	0.246	-0.214
-169.896	-200.000	0.000	-0.151
-168.881	42.161	-0.272	-0.247
-167.866	-200.000	0.021	-0.105
-166.852	-134.597	-0.235	0.029
-165.837	-41.136	0.040	-0.020
-164.823	-59.701	0.307	-0.132
-163.808	-200.000	-0.086	0.433
-162.793	-63.216	0.103	0.043
-161.779	800.000	0.101	-0.389
-160.764	-184.759	0.033	-0.001
-159.750	-200.000	-0.002	0.053
-158.735	21.392	-0.264	0.214
-157.720	188.297	-0.084	0.126
-156.706	-68.530	0.219	-0.085
-155.691	800.000	-0.122	-0.354
-154.677	160.903	-0.091	0.127
-153.662	-135.344	0.087	0.010
-152.647	800.000	-0.128	-0.368
-151.633	-9.068	-0.055	-0.037
-150.618	496.634	0.076	-0.174
-149.604	-103.501	-0.210	-0.049
-148.589	-103.456	-0.194	0.046
-147.574	250.696	0.080	0.137
-146.560	-200.000	0.084	0.428
-145.545	229.503	-0.119	0.194
-144.531	800.000	-0.160	-0.495
-143.516	358.319	0.084	0.168
-142.502	57.300	-0.067	0.066
-141.487	-151.742	0.309	0.023
-140.472	201.874	0.173	0.267
-139.458	277.204	0.064	-0.115
-138.443	800.000	0.009	-0.031
-137.429	480.023	-0.198	-0.449
-136.414	-84.999	0.439	0.137
-135.399	-194.073	0.275	0.002
-134.385	390.862	0.135	0.280
-133.370	800.000	0.137	0.438
-132.356	-122.496	-0.450	0.073
-131.341	-170.974	-0.372	0.013
-130.326	-53.605	0.068	-0.031
-129.312	-46.077	0.217	-0.107
-128.297	15.071	0.005	0.004
-127.283	-100.875	0.409	0.101
-126.268	-200.000	0.028	0.136
-125.253	161.905	-0.178	-0.249
-124.239	-39.796	0.246	-0.128
-123.224	71.383	-0.261	-0.271
-122.210	-200.000	0.061	-0.419
-121.195	17.002	-0.165	0.130
