DTS Sentinel unit serial number:	SN413079Multiplexer serial number:	ORYXHardware model number:	OX4-SRSoftware version number:	ORYX F/W v4.00 Oryx Data Collector v3.7.2.0data status	okinstallation	princeton_trtdifferential loss correction	single-endedforward channel	channel 1reverse channel	N/Adate	2019/09/16time	07:22:36forward acquisition time	60.00reverse acquisition time	0.00gamma	496.2192k internal	0.2330k external	0.2330temperature offset calibration	0.9981default loss term (dB/km)	0.3790temperature slope calibration	1.0000multiplexer offset coefficient	1.0000multiplexer slope coefficient	1.0000fibre end	0.00T internal ref (°C)	27.44T ext. ref 1 (°C)	11.59T ext. ref 2 (°C)	22.99length (m)	temperature (°C)	Stokes	anti-Stokes-747.200	547.284	0.037	0.089
-746.185	-67.925	-0.443	0.174
-745.171	-123.238	0.377	0.061
-744.156	-141.425	-0.342	-0.035
-743.142	-44.862	0.294	0.147
-742.127	-9.372	0.261	0.176
-741.112	-123.197	0.088	-0.014
-740.098	800.000	-0.100	0.398
-739.083	-34.949	0.269	0.147
-738.069	800.000	0.129	-0.370
-737.054	-51.258	0.113	-0.053
-736.039	221.701	-0.110	-0.177
-735.025	546.613	-0.084	-0.202
-734.010	-85.653	-0.175	-0.055
-732.996	58.583	-0.128	-0.126
-731.981	50.204	0.194	0.184
-730.966	273.772	0.112	0.199
-729.952	800.000	-0.028	0.089
-728.937	-8.974	-0.282	-0.190
-727.923	2.446	-0.207	0.151
-726.908	12.512	-0.125	0.097
-725.894	121.035	0.072	0.090
-724.879	336.189	-0.021	0.041
-723.864	28.547	0.123	0.105
-722.850	-200.000	0.016	-0.211
-721.835	185.044	-0.059	-0.088
-720.821	14.386	0.335	0.263
-719.806	-200.000	0.025	-0.207
-718.791	800.000	0.171	-0.475
-717.777	-150.822	0.332	-0.025
-716.762	-176.879	-0.552	0.014
-715.748	442.835	-0.135	0.298
-714.733	9.227	-0.481	0.365
-713.718	-200.000	-0.032	0.337
-712.704	-200.000	0.040	-0.205
-711.689	-98.653	0.020	0.005
-710.675	127.628	-0.039	0.049
-709.660	131.189	-0.091	-0.117
-708.645	-200.000	0.010	-0.071
-707.631	-57.675	0.128	0.056
-706.616	-200.000	-0.036	-0.307
-705.602	143.904	0.096	0.129
-704.587	-200.000	-0.006	-0.167
-703.572	503.397	-0.059	0.136
-702.558	242.202	-0.139	-0.234
-701.543	800.000	0.053	0.198
-700.529	-35.463	-0.302	0.165
-699.514	782.243	-0.064	0.176
-698.499	-200.000	0.025	-0.179
-697.485	-200.000	0.039	-0.408
-696.470	-45.756	-0.067	-0.033
-695.456	59.595	-0.248	-0.246
-694.441	330.145	-0.087	0.169
-693.426	-132.670	0.220	0.028
-692.412	-200.000	-0.025	-0.213
-691.397	9.856	-0.101	-0.077
-690.383	-200.000	0.038	0.225
-689.368	724.917	-0.130	-0.347
-688.354	-73.672	-0.203	-0.074
-687.339	-105.434	0.085	-0.019
-686.324	-76.189	0.350	0.124
-685.310	-41.781	-0.062	-0.032
-684.295	199.431	-0.038	0.058
-683.281	-41.479	-0.325	0.168
-682.266	-200.000	-0.018	0.182
-681.251	-63.228	-0.300	-0.124
-680.237	-60.709	-0.103	0.044
-679.222	224.282	0.019	-0.030
-678.208	-34.172	-0.162	-0.090
-677.193	-138.564	-0.445	0.049
-676.178	188.090	-0.168	-0.253
-675.164	320.604	-0.075	0.143
-674.149	-200.000	-0.002	0.359
-673.135	-200.000	-0.034	0.319
-672.120	-200.000	-0.016	0.199
-671.105	-149.188	-0.046	0.004
-670.091	800.000	-0.078	-0.301
-669.076	351.201	0.098	0.195
-668.062	-95.356	-0.201	-0.054
-667.047	-3.998	0.238	-0.165
-666.032	531.708	0.071	0.168
-665.018	-200.000	-0.059	-0.389
-664.003	-200.000	0.006	-0.235
-662.989	-200.000	-0.002	0.028
-661.974	-58.160	-0.076	-0.033
-660.959	-178.697	0.414	0.010
-659.945	-36.148	-0.314	0.170
-658.930	8.259	0.186	-0.141
-657.916	-192.337	-0.199	0.002
-656.901	163.351	0.113	0.159
-655.886	-86.234	0.129	-0.040
-654.872	800.000	-0.044	-0.157
-653.857	93.608	-0.285	0.323
-652.843	-111.639	0.069	-0.014
-651.828	-200.000	0.004	-0.202
-650.814	193.828	0.120	0.182
-649.799	164.751	0.032	0.045
-648.784	-68.390	0.258	-0.100
-647.770	192.022	0.088	0.132
-646.755	41.996	-0.208	-0.189
-645.741	76.434	-0.333	-0.354
-644.726	-157.707	0.336	0.020
-643.711	620.249	0.076	0.192
-642.697	16.182	0.062	0.049
-641.682	36.560	0.296	-0.262
-640.668	-139.206	-0.339	0.037
-639.653	-30.569	0.044	-0.025
-638.638	-200.000	-0.005	0.213
-637.624	-129.838	-0.278	-0.038
-636.609	170.327	0.133	-0.191
-635.595	-43.059	0.209	-0.106
-634.580	-200.000	0.010	-0.211
-633.565	-200.000	-0.052	0.360
-632.551	-200.000	0.008	0.069
-631.536	19.786	-0.115	0.093
-630.522	-12.187	-0.199	0.131
-629.507	497.727	-0.075	-0.173
-628.492	514.907	-0.055	-0.128
-627.478	235.859	-0.090	-0.149
-626.463	294.381	0.085	-0.155
-625.449	308.352	0.196	-0.367
-624.434	635.210	0.148	-0.375
-623.419	-200.000	-0.030	0.222
-622.405	19.407	0.240	-0.193
-621.390	-77.447	-0.214	-0.074
-620.376	156.787	0.163	-0.226
-619.361	-136.489	-0.039	-0.004
-618.346	-61.551	0.094	0.040
-617.332	800.000	0.127	-0.366
-616.317	122.258	-0.195	0.244
-615.303	174.794	-0.169	0.245
-614.288	19.802	0.165	-0.133
-613.273	-49.846	0.282	-0.134
-612.259	-48.584	0.066	-0.032
-611.244	-46.406	0.136	0.067
-610.230	-200.000	0.077	0.440
-609.215	-43.680	-0.247	-0.125
-608.201	76.672	-0.215	-0.228
-607.186	-165.014	-0.337	-0.015
-606.171	-79.392	0.139	0.047
-605.157	-106.077	-0.078	-0.018
-604.142	75.681	-0.049	0.052
-603.128	182.714	0.190	0.280
-602.113	32.041	0.178	-0.153
-601.098	340.788	0.096	-0.188
-600.084	800.000	-0.060	-0.223
-599.069	-80.194	-0.395	0.132
-598.055	-200.000	-0.033	0.362
-597.040	46.865	-0.026	-0.025
-596.025	-200.000	-0.002	-0.028
-595.011	49.650	0.119	-0.112
-593.996	-50.295	0.108	-0.051
-592.982	94.854	0.093	0.105
-591.967	800.000	0.103	0.294
-590.952	-138.849	0.342	-0.037
-589.938	-70.812	0.310	-0.117
-588.923	243.703	-0.130	-0.219
-587.909	36.240	0.157	0.138
-586.894	9.937	-0.341	0.259
-585.879	-200.000	0.012	0.349
-584.865	-200.000	-0.024	-0.111
-583.850	212.535	-0.130	-0.205
-582.836	-135.235	0.200	0.024
-581.821	51.865	0.162	-0.154
-580.806	91.568	-0.263	0.295
-579.792	153.332	0.190	0.260
-578.777	-87.900	0.534	-0.161
-577.763	-48.957	0.193	-0.093
-576.748	800.000	-0.016	-0.055
-575.733	-50.307	0.225	0.106
-574.719	60.237	-0.191	0.189
-573.704	-58.219	-0.187	0.082
-572.690	68.832	0.102	0.105
-571.675	-200.000	-0.045	0.460
-570.661	-23.704	0.240	0.144
-569.646	-74.872	0.186	0.067
-568.631	800.000	-0.145	-0.525
-567.617	-175.532	-0.333	-0.009
-566.602	38.857	-0.156	-0.139
-565.588	-15.244	-0.198	0.127
-564.573	496.846	0.124	0.285
-563.558	-200.000	0.020	-0.234
-562.544	-156.508	0.299	-0.019
-561.529	643.870	-0.066	-0.168
-560.515	70.724	-0.162	-0.167
-559.500	-200.000	-0.011	0.078
-558.485	-90.797	-0.385	-0.111
-557.471	-140.855	0.130	0.013
-556.456	-59.108	0.231	0.100
-555.442	-150.679	0.146	-0.011
-554.427	800.000	0.083	0.259
-553.412	-200.000	-0.031	-0.323
-552.398	21.615	0.113	0.092
-551.383	496.891	0.036	0.084
-550.369	182.365	-0.005	0.007
-549.354	157.773	-0.123	0.170
-548.339	-72.860	-0.160	-0.059
-547.325	-200.000	-0.015	0.347
-546.310	-100.690	-0.097	-0.024
-545.296	149.400	0.042	-0.057
-544.281	-147.458	-0.161	0.014
-543.266	-200.000	0.025	0.198
-542.252	-89.023	-0.236	-0.070
-541.237	-26.075	-0.391	0.230
-540.223	800.000	-0.039	-0.109
-539.208	432.064	-0.106	0.230
-538.193	146.231	0.186	0.249
-537.179	-200.000	-0.015	0.179
-536.164	-41.669	-0.096	0.049
-535.150	800.000	0.056	-0.208
-534.135	-155.734	0.287	0.018
-533.121	-135.863	-0.374	0.044
-532.106	-23.476	-0.341	0.205
-531.091	84.800	0.085	-0.093
-530.077	188.325	-0.047	0.070
-529.062	42.344	-0.361	-0.328
-528.048	-200.000	0.041	-0.424
-527.033	-25.689	-0.352	-0.207
-526.018	-101.582	0.328	-0.079
-525.004	-162.798	-0.232	0.011
-523.989	-33.707	-0.179	-0.099
-522.975	-11.323	-0.321	-0.211
-521.960	-200.000	-0.001	-0.093
-520.945	-71.601	0.300	-0.112
-519.931	286.924	-0.096	0.173
-518.916	45.892	-0.320	0.295
-517.902	245.972	-0.209	0.352
-516.887	5.434	0.154	-0.114
-515.872	28.039	0.312	-0.263
-514.858	-81.891	-0.409	0.134
-513.843	-200.000	0.019	0.126
-512.829	-200.000	0.004	0.307
-511.814	-200.000	0.051	0.251
-510.799	171.438	-0.138	0.197
-509.785	-125.826	-0.085	0.013
-508.770	-125.415	-0.149	0.023
-507.756	-200.000	-0.005	0.053
-506.741	-200.000	0.014	-0.135
-505.726	233.473	-0.101	0.166
-504.712	800.000	-0.090	0.293
-503.697	-200.000	-0.014	0.351
-502.683	800.000	0.072	0.266
-501.668	17.610	-0.103	0.081
-500.653	-68.538	0.533	0.206
-499.639	-34.155	0.318	0.174
-498.624	-61.057	0.236	0.099
-497.610	-200.000	-0.001	-0.317
-496.595	366.561	-0.082	0.165
-495.581	-200.000	0.083	0.432
-494.566	635.009	-0.054	0.137
-493.551	55.209	-0.043	-0.041
-492.537	-136.589	0.195	-0.023
-491.522	-37.083	-0.184	-0.098
-490.508	-29.694	-0.142	0.081
-489.493	-33.690	-0.259	0.142
-488.478	484.093	-0.197	-0.447
-487.464	-200.000	0.014	-0.168
-486.449	130.968	0.154	0.197
-485.435	-87.578	0.388	-0.117
-484.420	-200.000	0.007	-0.051
-483.405	-95.114	0.137	-0.037
-482.391	99.955	-0.218	-0.251
-481.376	-55.241	0.349	-0.156
-480.362	-107.558	0.259	0.056
-479.347	-41.055	-0.231	0.119
-478.332	-200.000	-0.038	-0.197
-477.318	163.538	0.084	-0.117
-476.303	-200.000	-0.031	0.284
-475.289	272.779	0.114	-0.201
-474.274	15.197	-0.251	-0.196
-473.259	131.940	-0.183	0.234
-472.245	158.568	0.191	-0.264
-471.230	-119.498	-0.320	0.055
-470.216	-45.953	0.224	-0.110
-469.201	350.348	0.102	-0.200
-468.186	-130.124	0.136	-0.019
-467.172	61.373	-0.080	-0.079
-466.157	24.515	0.218	-0.180
-465.143	100.661	-0.174	0.201
-464.128	103.542	-0.229	-0.267
-463.113	553.913	0.043	-0.102
-462.099	66.817	-0.207	-0.210
-461.084	17.125	0.109	-0.086
-460.070	-104.318	-0.214	0.049
-459.055	-42.316	-0.123	0.062
-458.040	39.017	0.135	0.120
-457.026	800.000	-0.093	-0.364
-456.011	-147.749	-0.148	0.012
-454.997	-200.000	-0.037	-0.316
-453.982	-62.049	0.580	-0.241
-452.968	-200.000	-0.033	0.282
-451.953	463.862	0.077	-0.172
-450.938	-86.554	-0.320	0.098
-449.924	212.564	-0.223	-0.350
-448.909	-200.000	0.023	0.257
-447.895	183.532	0.140	0.206
-446.880	-20.385	-0.218	-0.133
-445.865	217.571	-0.027	-0.042
-444.851	189.184	0.098	0.146
-443.836	-84.112	0.177	0.056
-442.822	-23.265	-0.273	-0.163
-441.807	800.000	-0.020	0.087
-440.792	-168.276	0.173	0.007
-439.778	77.445	0.203	-0.214
-438.763	-65.595	-0.447	0.178
-437.749	-105.699	0.053	0.012
-436.734	-200.000	-0.005	0.121
-435.719	17.844	-0.267	0.212
-434.705	-77.422	-0.455	0.157
-433.690	5.804	-0.220	-0.162
-432.676	800.000	-0.073	-0.216
-431.661	-120.785	0.197	-0.033
-430.646	644.954	-0.189	0.481
-429.632	-200.000	0.050	-0.313
-428.617	800.000	0.022	0.087
-427.603	94.394	-0.172	0.195
-426.588	-200.000	0.033	0.146
-425.573	-55.259	-0.073	0.033
-424.559	-144.632	0.161	-0.015
-423.544	57.944	0.243	0.237
-422.530	9.721	0.172	-0.129
-421.515	-88.350	0.045	0.013
-420.500	444.171	0.048	0.104
-419.486	365.754	0.224	-0.450
-418.471	-19.747	0.101	-0.062
-417.457	260.493	0.074	-0.127
-416.442	11.662	-0.197	-0.150
-415.428	-96.711	-0.317	-0.083
-414.413	-80.362	0.159	-0.053
-413.398	-200.000	-0.048	0.446
-412.384	-200.000	0.032	-0.198
-411.369	62.729	0.116	0.115
-410.355	68.586	-0.077	0.079
-409.340	-90.130	-0.289	0.084
-408.325	91.016	-0.021	0.023
-407.311	-153.876	0.338	-0.023
-406.296	3.341	0.201	0.145
-405.282	569.114	0.098	0.236
-404.267	38.816	0.079	-0.070
-403.252	-200.000	0.033	-0.174
-402.238	144.341	-0.181	-0.240
-401.223	800.000	0.017	-0.071
-400.209	-128.488	-0.185	0.026
-399.194	359.730	-0.043	0.086
-398.179	-32.661	0.156	0.086
-397.165	94.240	0.196	0.221
-396.150	50.763	0.181	0.170
-395.136	-1.271	-0.454	0.318
-394.121	800.000	0.045	0.193
-393.106	-14.132	0.084	-0.054
-392.092	800.000	-0.043	0.136
-391.077	-78.145	0.124	-0.042
-390.063	-120.470	0.315	-0.053
-389.048	716.419	-0.039	-0.103
-388.033	-200.000	-0.001	-0.045
-387.019	-132.373	-0.165	-0.021
-386.004	-79.543	-0.347	0.116
-384.990	-200.000	-0.048	-0.250
-383.975	-200.000	-0.038	0.279
-382.960	128.019	0.109	0.137
-381.946	179.895	0.048	0.070
-380.931	60.641	0.091	-0.089
-379.917	-200.000	-0.012	-0.076
-378.902	-200.000	-0.073	-0.512
-377.888	-200.000	0.026	-0.205
-376.873	355.780	-0.228	0.450
-375.858	-112.529	-0.191	-0.038
-374.844	100.393	0.012	-0.013
-373.829	800.000	-0.088	0.247
-372.815	-75.121	-0.425	0.151
-371.800	800.000	0.114	-0.332
-370.785	-24.301	0.161	0.095
-369.771	98.604	0.040	0.045
-368.756	-139.232	-0.147	0.016
-367.742	413.352	0.119	-0.250
-366.727	310.353	-0.180	0.335
-365.712	-200.000	-0.002	-0.436
-364.698	-155.780	0.302	-0.019
-363.683	0.368	-0.272	0.193
-362.669	29.439	0.142	0.119
-361.654	80.037	-0.300	0.320
-360.639	800.000	0.035	0.129
-359.625	800.000	-0.088	0.335
-358.610	-200.000	0.022	0.131
-357.596	178.583	0.034	0.049
-356.581	105.851	0.218	-0.256
-355.566	800.000	0.060	-0.179
-354.552	-57.138	0.051	0.022
-353.537	-70.647	-0.230	-0.086
-352.523	386.408	-0.113	-0.232
-351.508	-200.000	0.031	-0.240
-350.493	-141.879	0.062	0.006
-349.479	800.000	0.152	-0.435
-348.464	108.971	-0.102	-0.121
-347.450	46.412	-0.099	0.091
-346.435	-90.854	0.300	-0.086
-345.420	-121.974	-0.221	0.036
-344.406	-59.071	0.230	-0.098
-343.391	-50.536	0.413	-0.193
-342.377	800.000	0.060	0.253
-341.362	-200.000	0.256	-0.000
-340.348	-65.600	-0.270	-0.107
-339.333	36.709	0.196	-0.172
-338.318	613.928	0.098	-0.242
-337.304	-157.040	0.171	0.010
-336.289	-177.689	-0.216	-0.005
-335.275	299.259	0.194	-0.353
-334.260	800.000	-0.053	0.228
-333.245	128.232	0.107	0.135
-332.231	203.804	-0.147	0.225
-331.216	-90.110	0.131	0.038
-330.202	73.423	0.209	-0.217
-329.187	65.303	-0.308	-0.309
-328.172	-200.000	0.013	0.230
-327.158	-200.000	0.030	0.197
-326.143	-142.480	-0.230	0.022
-325.129	-19.498	0.166	0.102
-324.114	-86.769	-0.268	0.081
-323.099	-43.746	-0.086	0.043
-322.085	223.045	0.120	-0.192
-321.070	-84.349	0.188	-0.059
-320.056	105.321	-0.276	-0.323
-319.041	-76.088	-0.031	0.011
-318.026	153.701	0.110	-0.149
-317.012	-41.474	-0.110	-0.056
-315.997	141.021	0.223	0.292
-314.983	273.542	0.108	-0.188
-313.968	-200.000	0.011	-0.253
-312.953	-137.001	0.125	0.014
-311.939	23.307	0.130	-0.106
-310.924	-67.430	-0.152	0.059
-309.910	84.872	0.212	-0.230
-308.895	-200.000	-0.042	-0.311
-307.880	28.942	0.029	0.025
-306.866	19.066	0.078	-0.062
-305.851	250.075	-0.121	-0.203
-304.837	-57.285	-0.161	0.070
-303.822	-84.750	-0.304	-0.095
-302.807	103.931	-0.189	-0.220
-301.793	-200.000	0.004	0.074
-300.778	800.000	0.094	-0.260
-299.764	-6.240	-0.234	0.158
-298.749	112.300	-0.087	-0.105
-297.735	373.051	-0.118	-0.237
-296.720	-95.169	0.057	-0.015
-295.705	-127.737	-0.260	0.037
-294.691	-24.073	-0.347	-0.205
-293.676	222.672	0.120	-0.191
-292.662	-136.088	-0.447	-0.052
-291.647	-43.504	-0.149	-0.074
-290.632	-16.447	0.178	-0.112
-289.618	-200.000	-0.025	-0.141
-288.603	-74.798	-0.180	-0.064
-287.589	184.041	0.156	-0.228
-286.574	-72.687	0.173	0.063
-285.559	690.342	-0.107	0.278
-284.545	-141.952	0.646	0.064
-283.530	800.000	0.051	0.208
-282.516	-157.910	-0.289	0.017
-281.501	-97.948	-0.173	0.044
-280.486	-82.546	-0.132	-0.042
-279.472	753.089	-0.114	0.303
-278.457	655.070	-0.037	0.094
-277.443	80.444	-0.071	-0.076
-276.428	623.092	0.087	0.217
-275.413	237.990	-0.142	0.233
-274.399	-112.354	-0.195	-0.038
-273.384	-128.080	0.133	-0.019
-272.370	-9.715	0.153	-0.101
-271.355	-113.548	-0.050	0.010
-270.340	-68.098	0.250	0.096
-269.326	-134.374	-0.387	0.047
-268.311	-117.934	0.186	0.033
-267.297	-200.000	0.019	0.235
-266.282	6.451	0.114	0.083
-265.267	515.404	-0.081	0.186
-264.253	-129.607	0.131	0.018
-263.238	-14.806	-0.136	-0.086
-262.224	243.976	-0.102	-0.169
-261.209	-61.611	-0.183	0.076
-260.195	-200.000	0.003	0.165
-259.180	800.000	0.037	-0.129
-258.165	-116.672	0.169	0.031
-257.151	-45.289	-0.228	0.112
-256.136	105.673	0.126	-0.148
-255.122	232.090	0.022	0.036
-254.107	8.632	0.155	0.115
-253.092	-132.611	-0.067	0.008
-252.078	338.776	-0.152	0.292
-251.063	-68.082	0.251	0.097
-250.049	-65.715	0.311	0.123
-249.034	465.234	-0.130	0.287
-248.019	-200.000	0.061	-0.289
-247.005	489.858	-0.071	-0.161
-245.990	800.000	-0.038	0.114
-244.976	-44.592	-0.209	0.103
-243.961	138.099	0.144	0.187
-242.946	352.520	-0.042	-0.082
-241.932	-200.000	-0.068	0.443
-240.917	-77.612	-0.060	0.021
-239.903	653.869	0.113	-0.286
-238.888	-33.296	-0.266	0.145
-237.873	280.302	-0.121	-0.213
-236.859	93.243	-0.199	0.223
-235.844	-62.619	0.097	-0.040
-234.830	800.000	0.065	-0.177
-233.815	400.273	-0.180	0.373
-232.800	-183.696	0.397	0.007
-231.786	-200.000	0.062	0.340
-230.771	-200.000	0.031	0.237
-229.757	-108.118	0.298	0.064
-228.742	37.986	-0.164	0.144
-227.727	-68.727	-0.222	0.085
-226.713	59.683	0.146	-0.142
-225.698	-91.512	-0.144	0.041
-224.684	800.000	0.037	0.105
-223.669	-200.000	-0.056	0.356
-222.655	-43.277	0.025	-0.012
-221.640	101.500	0.113	0.130
-220.625	-200.000	0.047	-0.324
-219.611	800.000	-0.134	-0.519
-218.596	-83.037	0.164	0.052
-217.582	-46.754	0.291	-0.140
-216.567	-103.003	-0.139	0.033
-215.552	800.000	0.138	0.394
-214.538	-164.651	0.047	0.002
-213.523	386.844	0.103	-0.210
-212.509	278.970	0.309	-0.544
-211.494	336.616	0.077	-0.147
-210.479	150.656	0.391	-0.524
-209.465	125.464	0.175	-0.217
-208.450	-61.586	0.147	-0.061
-207.436	-105.203	0.213	-0.048
-206.421	-68.264	0.180	0.069
-205.406	-93.724	-0.250	0.068
-204.392	-111.052	0.206	0.042
-203.377	-200.000	-0.025	-0.269
-202.363	462.400	-0.193	-0.425
-201.348	96.833	0.037	0.042
-200.333	230.439	-0.115	-0.186
-199.319	299.023	-0.189	-0.343
-198.304	800.000	-0.088	0.291
-197.290	104.027	-0.159	0.184
-196.275	-19.255	-0.033	0.020
-195.260	-90.679	-0.140	0.040
-194.246	393.124	-0.063	0.129
-193.231	-146.984	-0.282	0.024
-192.217	24.295	-0.082	0.067
-191.202	-200.000	-0.003	-0.122
-190.187	-200.000	0.100	-0.489
-189.173	29.314	0.132	-0.110
-188.158	-92.335	0.186	-0.051
-187.144	-200.000	0.079	0.470
-186.129	267.213	0.091	0.157
-185.114	38.180	0.004	0.004
-184.100	-89.281	-0.132	0.038
-183.085	-31.800	0.155	-0.086
-182.071	175.260	-0.035	0.050
-181.056	343.341	-0.025	0.047
-180.042	45.962	0.179	0.163
-179.027	606.466	-0.169	0.416
-178.012	-75.756	0.061	-0.021
-176.998	63.810	-0.047	-0.047
-175.983	267.326	0.056	0.097
-174.969	54.093	0.186	0.176
-173.954	-24.398	-0.120	0.070
-172.939	-15.045	-0.103	-0.065
-171.925	283.721	0.160	0.282
-170.910	-112.836	-0.082	-0.016
-169.896	542.096	0.143	0.335
-168.881	11.993	0.321	0.243
-167.866	426.104	0.068	0.143
-166.852	12.129	0.200	0.152
-165.837	232.264	0.048	-0.077
-164.823	-200.000	0.003	-0.095
-163.808	-196.178	-0.068	0.000
-162.793	-84.353	0.192	0.060
-161.779	-133.897	0.125	0.015
-160.764	800.000	-0.030	-0.102
-159.750	6.158	0.289	-0.211
-158.735	-105.262	0.396	0.089
-157.720	-167.981	-0.097	0.004
-156.706	57.894	0.156	-0.150
-155.691	223.834	0.133	-0.212
-154.677	192.724	-0.122	-0.181
-153.662	119.941	0.164	-0.200
-152.647	-71.574	-0.345	-0.127
-151.633	800.000	-0.027	0.101
-150.618	-180.618	-0.269	0.005
-149.604	335.515	-0.054	-0.104
-148.589	-127.548	0.167	0.024
-147.574	114.480	-0.125	-0.150
-146.560	-30.594	0.080	-0.044
-145.545	26.400	0.124	0.102
-144.531	274.792	-0.119	-0.208
-143.516	-21.318	0.081	0.048
-142.502	43.772	0.128	-0.115
-141.487	-68.627	0.218	0.083
-140.472	-47.099	-0.406	0.195
-139.458	-124.384	0.356	-0.055
-138.443	800.000	0.058	-0.183
-137.429	15.478	0.282	0.217
-136.414	-114.885	0.182	0.034
-135.399	0.634	-0.116	-0.082
-134.385	38.023	0.277	0.242
-133.370	800.000	0.052	0.158
-132.356	134.562	0.106	-0.135
-131.341	190.332	0.021	0.031
-130.326	73.678	-0.045	0.046
-129.312	139.077	0.204	0.263
-128.297	-34.025	-0.060	0.032
-127.283	351.289	0.187	-0.364
-126.268	-105.795	0.170	0.038
-125.253	-200.000	-0.043	0.223
-124.239	43.477	0.090	0.081
-123.224	350.310	-0.038	0.074
-122.210	-69.441	0.185	0.070
-121.195	-77.590	0.192	0.065
-120.180	-64.128	0.374	-0.150
