DTS Sentinel unit serial number:	SN413079Multiplexer serial number:	ORYXHardware model number:	OX4-SRSoftware version number:	ORYX F/W v4.00 Oryx Data Collector v3.7.2.0data status	okinstallation	princeton_trtdifferential loss correction	single-endedforward channel	channel 1reverse channel	N/Adate	2019/09/17time	02:22:35forward acquisition time	60.00reverse acquisition time	0.00gamma	496.2192k internal	0.2323k external	0.2323temperature offset calibration	0.9955default loss term (dB/km)	0.3790temperature slope calibration	1.0000multiplexer offset coefficient	1.0000multiplexer slope coefficient	1.0000fibre end	0.00T internal ref (°C)	29.75T ext. ref 1 (°C)	0.13T ext. ref 2 (°C)	24.72length (m)	temperature (°C)	Stokes	anti-Stokes-747.200	-200.000	0.061	0.403
-746.185	-118.152	0.282	0.051
-745.171	95.194	0.130	0.150
-744.156	639.792	0.209	0.536
-743.142	-117.612	0.198	-0.036
-742.127	187.405	0.252	0.380
-741.112	24.885	0.165	0.138
-740.098	242.382	0.316	0.534
-739.083	294.013	0.110	0.203
-738.069	-17.668	-0.296	-0.188
-737.054	-200.000	-0.050	-0.227
-736.039	-200.000	-0.097	-0.479
-735.025	-45.143	0.177	0.089
-734.010	-200.000	0.015	0.124
-732.996	221.412	0.095	-0.153
-731.981	-104.210	0.294	-0.069
-730.966	800.000	0.009	0.032
-729.952	277.002	-0.189	-0.339
-728.937	-40.583	-0.213	-0.111
-727.923	-133.291	0.195	-0.025
-726.908	-112.124	0.236	-0.048
-725.894	-51.459	0.205	-0.097
-724.879	-78.845	0.101	-0.035
-723.864	-200.000	-0.014	0.298
-722.850	-23.562	0.064	-0.039
-721.835	-80.259	0.154	0.052
-720.821	-200.000	-0.024	0.148
-719.806	92.023	-0.145	0.165
-718.791	-30.743	-0.124	0.071
-717.777	800.000	0.081	0.296
-716.762	-42.180	-0.051	0.026
-715.748	196.403	-0.021	-0.033
-714.733	-200.000	0.012	0.109
-713.718	24.433	-0.102	-0.085
-712.704	-60.242	-0.299	0.129
-711.689	-170.595	0.360	0.013
-710.675	107.596	-0.061	0.074
-709.660	2.993	0.213	-0.156
-708.645	-89.106	-0.235	-0.070
-707.631	-123.818	0.076	-0.012
-706.616	-53.815	-0.116	-0.053
-705.602	800.000	0.039	0.129
-704.587	-131.952	0.227	-0.030
-703.572	-200.000	-0.015	-0.266
-702.558	-171.010	-0.088	-0.003
-701.543	-35.768	0.140	0.077
-700.529	100.505	-0.074	0.087
-699.514	800.000	0.024	0.105
-698.499	177.873	0.203	0.298
-697.485	-196.017	0.361	-0.003
-696.470	-101.304	0.162	-0.040
-695.456	-57.022	0.304	-0.135
-694.441	-200.000	-0.022	-0.270
-693.426	55.570	0.142	-0.139
-692.412	151.549	-0.248	-0.341
-691.397	-88.784	0.065	-0.019
-690.383	304.385	-0.033	-0.061
-689.368	-200.000	-0.012	-0.152
-688.354	-200.000	-0.074	0.333
-687.339	-200.000	0.059	0.569
-686.324	171.839	-0.136	-0.197
-685.310	-200.000	-0.011	0.101
-684.295	800.000	-0.096	0.287
-683.281	-200.000	0.006	0.064
-682.266	-200.000	0.018	-0.197
-681.251	-70.265	0.268	0.102
-680.237	-23.471	0.174	-0.106
-679.222	-10.997	-0.364	0.242
-678.208	194.803	-0.133	-0.203
-677.193	-35.067	-0.389	0.214
-676.178	55.774	-0.173	-0.169
-675.164	-200.000	-0.050	-0.283
-674.149	343.362	-0.198	0.391
-673.135	-70.694	0.048	0.018
-672.120	-200.000	-0.008	-0.488
-671.105	800.000	0.027	0.112
-670.091	50.912	0.215	0.205
-669.076	116.245	0.141	0.175
-668.062	144.090	-0.229	0.307
-667.047	-200.000	-0.015	0.387
-666.032	111.195	-0.124	-0.150
-665.018	-151.555	0.241	0.018
-664.003	-164.396	0.178	-0.008
-662.989	-200.000	-0.054	0.300
-661.974	-22.179	-0.293	0.179
-660.959	544.304	-0.131	-0.315
-659.945	-156.642	0.198	-0.012
-658.930	-200.000	-0.016	-0.122
-657.916	9.890	-0.354	-0.270
-656.901	310.770	-0.066	-0.125
-655.886	-10.806	0.086	-0.058
-654.872	-77.601	-0.373	-0.130
-653.857	800.000	-0.094	-0.276
-652.843	82.844	0.076	-0.083
-651.828	-184.059	-0.037	-0.001
-650.814	800.000	0.064	-0.227
-649.799	-65.811	0.164	0.066
-648.784	9.606	0.182	-0.139
-647.770	-18.495	0.123	-0.077
-646.755	800.000	-0.006	-0.018
-645.741	757.894	-0.016	0.044
-644.726	-85.400	-0.175	-0.055
-643.711	-175.269	0.186	0.005
-642.697	-200.000	-0.069	-0.454
-641.682	-200.000	0.044	0.201
-640.668	-72.748	-0.148	-0.055
-639.653	137.278	0.183	0.240
-638.638	45.796	-0.104	0.097
-637.624	68.785	-0.103	-0.106
-636.609	-112.486	-0.072	0.015
-635.595	-123.552	-0.116	-0.019
-634.580	-200.000	-0.002	0.074
-633.565	-200.000	-0.032	-0.154
-632.551	23.358	0.092	-0.076
-631.536	55.669	0.280	-0.273
-630.522	24.819	-0.374	-0.312
-629.507	-166.070	-0.124	0.005
-628.492	-58.608	0.159	-0.069
-627.478	-148.543	0.345	0.028
-626.463	-99.154	-0.246	-0.062
-625.449	667.224	-0.126	-0.328
-624.434	565.624	-0.107	0.261
-623.419	-64.293	-0.325	-0.133
-622.405	543.178	0.148	0.356
-621.390	30.515	0.177	-0.152
-620.376	-70.726	0.146	0.055
-619.361	800.000	-0.093	0.315
-618.346	173.252	0.119	0.173
-617.332	-10.459	0.213	-0.142
-616.317	-200.000	-0.005	-0.142
-615.303	-177.620	-0.293	-0.007
-614.288	-143.076	-0.290	-0.028
-613.273	-200.000	0.021	-0.292
-612.259	-68.939	-0.131	0.051
-611.244	117.385	0.060	0.075
-610.230	275.977	-0.030	-0.054
-609.215	-69.914	-0.311	-0.119
-608.201	368.373	0.158	-0.321
-607.186	800.000	0.059	-0.207
-606.171	-64.166	-0.239	0.098
-605.157	-200.000	-0.034	-0.388
-604.142	-200.000	-0.006	-0.059
-603.128	-200.000	-0.055	0.274
-602.113	-200.000	0.018	-0.117
-601.098	142.425	-0.025	0.033
-600.084	115.363	0.090	-0.110
-599.069	800.000	0.098	-0.296
-598.055	512.200	0.045	-0.104
-597.040	-14.571	-0.363	0.234
-596.025	-55.661	-0.201	0.090
-595.011	-50.892	-0.075	-0.035
-593.996	12.497	0.138	0.107
-592.982	-120.173	0.217	0.037
-591.967	281.799	-0.095	0.171
-590.952	800.000	-0.027	-0.104
-589.938	101.852	0.183	-0.215
-588.923	-73.849	-0.165	-0.060
-587.909	384.141	-0.070	-0.145
-586.894	-33.987	0.253	-0.140
-585.879	-200.000	0.018	-0.144
-584.865	800.000	0.019	-0.059
-583.850	52.833	-0.134	-0.129
-582.836	101.714	-0.150	-0.176
-581.821	-200.000	-0.043	-0.196
-580.806	45.013	-0.270	-0.249
-579.792	-57.913	-0.192	-0.084
-578.777	171.477	0.186	-0.268
-577.763	63.817	0.292	-0.295
-576.748	-200.000	-0.018	-0.158
-575.733	-45.183	-0.060	-0.030
-574.719	-142.848	0.119	-0.012
-573.704	550.351	0.106	0.255
-572.690	-200.000	0.002	0.107
-571.675	-39.611	0.057	-0.030
-570.661	-117.307	-0.194	-0.035
-569.646	25.187	-0.120	0.100
-568.631	20.892	0.091	0.074
-567.617	-137.305	-0.272	0.031
-566.602	315.334	-0.129	-0.243
-565.588	-200.000	0.025	-0.200
-564.573	-86.840	0.217	-0.066
-563.558	-3.712	0.138	0.096
-562.544	-200.000	0.033	0.337
-561.529	337.372	0.199	-0.387
-560.515	122.226	-0.206	-0.258
-559.500	-19.781	0.104	0.064
-558.485	258.365	-0.064	-0.111
-557.471	111.934	-0.205	-0.249
-556.456	-45.494	-0.141	0.070
-555.442	604.718	-0.020	-0.049
-554.427	60.738	0.255	-0.253
-553.412	368.242	0.078	-0.159
-552.398	-69.525	0.207	0.079
-551.383	-173.550	-0.319	0.010
-550.369	-48.055	0.151	0.073
-549.354	304.262	0.044	-0.081
-548.339	45.689	0.299	-0.277
-547.325	-200.000	-0.027	0.367
-546.310	-3.009	0.167	-0.117
-545.296	-200.000	-0.039	-0.218
-544.281	115.880	-0.184	0.225
-543.266	162.104	-0.086	0.121
-542.252	-200.000	0.006	0.149
-541.237	-200.000	0.040	-0.251
-540.223	-24.703	-0.092	-0.055
-539.208	198.435	0.148	-0.226
-538.193	445.050	0.158	-0.347
-537.179	-66.250	0.055	-0.022
-536.164	-64.063	-0.204	-0.084
-535.150	800.000	0.023	-0.085
-534.135	-200.000	-0.006	0.133
-533.121	-200.000	-0.001	0.121
-532.106	-128.441	-0.156	0.022
-531.091	800.000	-0.029	0.105
-530.077	-200.000	-0.004	-0.121
-529.062	120.532	0.139	0.173
-528.048	-139.872	-0.115	-0.012
-527.033	142.164	0.048	0.064
-526.018	-200.000	0.059	-0.297
-525.004	-15.222	0.201	0.129
-523.989	-158.414	0.322	0.019
-522.975	-18.247	0.183	0.114
-521.960	-200.000	0.022	0.210
-520.945	-116.268	-0.125	0.023
-519.931	217.496	0.256	-0.408
-518.916	101.941	0.253	-0.295
-517.902	800.000	0.016	0.069
-516.887	-77.248	-0.113	-0.039
-515.872	118.178	-0.158	0.195
-514.858	188.978	0.063	-0.094
-513.843	-200.000	0.000	-0.074
-512.829	-49.847	-0.162	-0.077
-511.814	-71.968	0.280	-0.104
-510.799	-200.000	-0.005	0.059
-509.785	335.164	-0.032	0.061
-508.770	656.132	0.092	-0.237
-507.756	-19.989	-0.095	-0.058
-506.741	370.123	-0.117	0.238
-505.726	-31.438	-0.138	0.078
-504.712	800.000	0.081	-0.292
-503.697	-200.000	0.025	-0.304
-502.683	-106.602	-0.245	-0.055
-501.668	-133.349	-0.077	-0.010
-500.653	121.764	-0.159	-0.199
-499.639	-90.441	-0.542	0.157
-498.624	-132.438	-0.203	-0.026
-497.610	754.136	-0.101	-0.273
-496.595	-58.930	0.353	0.152
-495.581	113.849	0.044	-0.054
-494.566	-200.000	-0.030	0.155
-493.551	69.183	0.114	0.117
-492.537	-40.321	-0.077	-0.040
-491.522	105.457	-0.048	0.057
-490.508	128.546	0.159	0.202
-489.493	172.909	0.137	-0.197
-488.478	55.384	0.066	0.064
-487.464	218.734	-0.056	0.089
-486.449	235.269	-0.042	0.069
-485.435	-63.072	-0.055	-0.023
-484.420	338.949	-0.126	0.245
-483.405	-60.367	-0.400	0.170
-482.391	-69.707	-0.181	-0.069
-481.376	-8.411	0.092	0.062
-480.362	88.775	-0.188	-0.209
-479.347	800.000	0.207	-0.589
-478.332	9.954	-0.247	-0.188
-477.318	-170.624	0.164	-0.006
-476.303	555.605	0.253	0.608
-475.289	-200.000	0.019	0.324
-474.274	241.234	0.022	0.037
-473.259	46.758	-0.134	-0.124
-472.245	-200.000	-0.025	-0.185
-471.230	6.241	-0.128	0.095
-470.216	71.302	-0.179	0.185
-469.201	-100.523	-0.190	-0.047
-468.186	-113.990	-0.111	-0.021
-467.172	-115.059	-0.411	-0.078
-466.157	-17.917	0.108	-0.067
-465.143	-200.000	-0.004	0.119
-464.128	800.000	0.045	-0.195
-463.113	-200.000	-0.043	0.310
-462.099	-200.000	0.011	-0.416
-461.084	-115.080	0.226	0.043
-460.070	304.935	0.056	-0.105
-459.055	-200.000	0.030	-0.132
-458.040	-50.172	-0.226	0.107
-457.026	-140.137	-0.252	-0.026
-456.011	244.461	-0.037	-0.063
-454.997	-37.624	0.355	-0.189
-453.982	-200.000	-0.008	0.271
-452.968	-126.900	-0.335	-0.049
-451.953	554.973	0.036	-0.086
-450.938	311.814	-0.151	0.282
-449.924	-36.098	-0.225	-0.121
-448.909	743.680	-0.069	0.186
-447.895	-33.309	0.423	0.234
-446.880	800.000	-0.052	0.175
-445.865	47.865	-0.131	0.123
-444.851	-108.758	0.343	0.073
-443.836	-167.977	0.102	0.004
-442.822	-200.000	0.003	0.081
-441.807	-200.000	-0.030	0.148
-440.792	-59.832	0.127	0.054
-439.778	-27.570	0.218	-0.127
-438.763	132.570	0.147	0.190
-437.749	800.000	-0.035	0.127
-436.734	193.908	-0.142	-0.214
-435.719	800.000	-0.082	0.250
-434.705	-35.801	0.249	0.135
-433.690	-33.796	-0.247	-0.136
-432.676	-200.000	0.013	0.073
-431.661	-169.286	0.328	-0.012
-430.646	-51.894	0.206	-0.096
-429.632	-134.210	0.386	-0.047
-428.617	71.022	0.128	-0.133
-427.603	800.000	-0.031	0.102
-426.588	-162.904	0.255	-0.012
-425.573	-200.000	-0.029	0.420
-424.559	800.000	0.023	0.067
-423.544	-67.943	-0.277	0.108
-422.530	-32.375	-0.073	0.041
-421.515	-20.832	0.290	0.177
-420.500	-101.553	-0.179	0.043
-419.486	385.011	-0.141	-0.290
-418.471	349.929	-0.102	-0.200
-417.457	169.569	-0.099	-0.140
-416.442	263.436	-0.209	-0.362
-415.428	-200.000	0.019	0.231
-414.413	-168.575	0.167	0.006
-413.398	611.063	0.045	0.112
-412.384	-52.252	-0.069	-0.032
-411.369	-200.000	-0.003	0.253
-410.355	77.605	-0.079	-0.083
-409.340	-108.304	-0.120	-0.026
-408.325	-155.426	0.054	-0.003
-407.311	800.000	-0.010	-0.033
-406.296	800.000	-0.042	0.147
-405.282	352.866	-0.121	-0.239
-404.267	-170.277	-0.175	-0.006
-403.252	-6.665	0.112	-0.076
-402.238	-200.000	-0.009	-0.207
-401.223	276.624	-0.092	0.164
-400.209	-69.079	-0.246	-0.094
-399.194	-159.235	-0.246	0.014
-398.179	298.970	0.123	0.225
-397.165	260.393	0.021	0.037
-396.150	62.009	0.127	-0.126
-395.136	-54.421	0.276	0.124
-394.121	-200.000	0.030	0.290
-393.106	51.257	0.279	0.264
-392.092	-36.944	-0.261	-0.140
-391.077	50.918	-0.353	-0.333
-390.063	800.000	-0.045	0.168
-389.048	53.793	0.144	-0.137
-388.033	136.584	0.095	0.123
-387.019	-86.212	0.211	-0.065
-386.004	800.000	0.033	0.132
-384.990	285.541	0.040	0.071
-383.975	-46.570	-0.142	-0.069
-382.960	438.033	0.180	0.390
-381.946	195.405	-0.202	0.306
-380.931	-200.000	-0.008	0.106
-379.917	-200.000	-0.011	0.187
-378.902	40.641	-0.098	0.088
-377.888	2.076	0.114	0.082
-376.873	-200.000	-0.044	-0.191
-375.858	99.870	0.075	-0.086
-374.844	-92.978	-0.106	0.030
-373.829	-9.726	0.223	-0.148
-372.815	-46.167	0.169	0.083
-371.800	106.982	-0.191	0.226
-370.785	800.000	0.070	0.215
-369.771	413.939	0.028	-0.059
-368.756	-109.631	-0.067	0.014
-367.742	69.332	0.056	-0.058
-366.727	754.603	0.048	0.130
-365.712	-135.748	-0.090	-0.011
-364.698	20.750	-0.253	0.204
-363.683	53.433	0.039	-0.037
-362.669	-82.702	0.430	-0.138
-361.654	-101.377	-0.403	-0.098
-360.639	287.867	-0.057	-0.102
-359.625	-27.071	0.053	-0.031
-358.610	30.462	0.529	0.450
-357.596	-200.000	-0.068	0.435
-356.581	130.062	0.158	0.201
-355.566	-29.938	0.238	0.135
-354.552	-200.000	0.040	0.281
-353.537	-42.290	-0.072	0.037
-352.523	-200.000	0.014	0.093
-351.508	-151.157	0.260	0.019
-350.493	282.665	0.056	0.101
-349.479	-99.163	0.146	0.037
-348.464	-103.636	-0.363	-0.085
-347.450	35.846	-0.086	0.076
-346.435	-200.000	0.005	-0.166
-345.420	-17.553	-0.417	0.260
-344.406	54.411	0.065	0.062
-343.391	-200.000	0.043	0.189
-342.377	473.295	0.186	-0.416
-341.362	800.000	0.096	0.342
-340.348	119.529	0.121	-0.149
-339.333	-42.316	-0.295	0.150
-338.318	122.597	-0.118	-0.147
-337.304	800.000	-0.082	-0.315
-336.289	111.440	0.149	0.179
-335.275	-70.916	-0.383	-0.144
-334.260	-200.000	0.088	-0.508
-333.245	800.000	0.149	-0.472
-332.231	72.141	0.163	-0.169
-331.216	800.000	0.105	0.364
-330.202	800.000	-0.024	0.068
-329.187	-22.190	-0.364	0.220
-328.172	-70.580	0.216	-0.081
-327.158	-200.000	-0.014	0.098
-326.143	11.512	0.141	0.108
-325.129	762.011	0.155	0.417
-324.114	-163.397	-0.352	-0.017
-323.099	233.888	-0.076	-0.124
-322.085	-200.000	-0.035	0.264
-321.070	-49.346	0.299	0.142
-320.056	12.261	-0.045	-0.034
-319.041	210.744	0.249	-0.388
-318.026	800.000	-0.050	-0.141
-317.012	28.905	0.185	-0.156
-315.997	28.356	0.132	0.110
-314.983	-183.125	0.066	0.001
-313.968	236.443	-0.234	-0.384
-312.953	-160.039	-0.315	0.017
-311.939	382.486	0.043	-0.087
-310.924	-74.283	0.118	-0.042
-309.910	-98.831	-0.226	0.057
-308.895	198.870	-0.172	0.261
-307.880	-54.283	0.174	0.079
-306.866	-93.289	0.273	0.075
-305.851	228.094	0.122	0.197
-304.837	226.412	-0.166	0.267
-303.822	-109.795	0.322	0.067
-302.807	-106.202	0.248	-0.055
-301.793	800.000	-0.043	-0.128
-300.778	14.343	0.127	-0.099
-299.764	71.051	-0.143	-0.147
-298.749	76.048	-0.359	0.377
-297.735	-111.657	-0.135	0.027
-296.720	-94.240	0.129	-0.035
-295.705	-6.001	-0.097	-0.066
-294.691	-200.000	-0.021	-0.380
-293.676	-122.699	-0.293	0.047
-292.662	-200.000	0.046	0.470
-291.647	146.845	0.123	0.164
-290.632	68.184	-0.079	-0.080
-289.618	-200.000	0.017	-0.192
-288.603	126.681	-0.028	0.035
-287.589	-146.070	0.029	-0.003
-286.574	134.667	-0.041	-0.052
-285.559	-146.834	-0.057	0.005
-284.545	722.592	0.093	-0.246
-283.530	-200.000	0.026	0.117
-282.516	-66.503	0.272	0.107
-281.501	800.000	0.081	0.254
-280.486	110.545	0.045	-0.054
-279.472	800.000	-0.020	-0.064
-278.457	233.933	-0.035	0.057
-277.443	47.868	-0.133	0.123
-276.428	-113.067	0.086	0.017
-275.413	-89.656	0.074	-0.021
-274.399	-200.000	0.014	0.401
-273.384	-47.484	0.241	0.116
-272.370	-80.686	0.149	0.049
-271.355	1.809	0.169	0.121
-270.340	-109.278	-0.200	0.042
-269.326	-200.000	-0.010	-0.109
-268.311	-119.578	0.123	0.021
-267.297	226.709	-0.068	-0.110
-266.282	-131.823	-0.215	0.028
-265.267	112.232	0.221	0.265
-264.253	-58.227	-0.163	0.070
-263.238	-200.000	0.047	-0.226
-262.224	782.387	-0.075	0.202
-261.209	-200.000	-0.051	0.241
-260.195	-63.810	0.253	0.102
-259.180	-51.348	0.199	0.092
-258.165	-157.119	-0.167	0.010
-257.151	405.397	-0.069	-0.145
-256.136	147.976	0.117	0.156
-255.122	-58.768	-0.251	-0.108
-254.107	128.188	-0.202	0.254
-253.092	-0.873	-0.194	0.136
-252.078	133.606	-0.155	-0.199
-251.063	64.405	0.108	0.108
-250.049	-200.000	-0.016	0.197
-249.034	-200.000	0.052	0.337
-248.019	160.405	-0.066	-0.091
-247.005	-138.436	0.241	-0.026
-245.990	800.000	0.104	0.317
-244.976	-200.000	-0.003	0.095
-243.961	86.067	-0.158	0.172
-242.946	-147.772	-0.338	0.028
-241.932	-32.351	0.382	0.211
-240.917	-192.375	-0.203	0.002
-239.903	243.955	0.045	0.075
-238.888	212.431	-0.069	0.108
-237.873	-200.000	-0.018	-0.265
-236.859	800.000	-0.018	-0.059
-235.844	-200.000	-0.009	-0.153
-234.830	1.833	-0.105	-0.075
-233.815	-200.000	-0.029	0.170
-232.800	-97.517	0.128	0.033
-231.786	327.839	-0.074	0.140
-230.771	-200.000	-0.011	-0.150
-229.757	-115.205	-0.094	0.018
-228.742	-142.769	-0.196	-0.019
-227.727	76.149	0.238	-0.249
-226.713	308.906	0.400	-0.739
-225.698	394.453	0.072	-0.148
-224.684	-175.437	0.092	0.002
-223.669	-187.765	-0.112	0.001
-222.655	416.498	0.049	-0.104
-221.640	-174.586	0.170	-0.005
-220.625	-200.000	-0.006	-0.115
-219.611	99.496	0.181	0.208
-218.596	65.211	0.011	-0.011
-217.582	63.112	-0.306	-0.303
-216.567	-59.222	0.165	-0.070
-215.552	765.196	-0.047	-0.127
-214.538	-109.138	0.179	0.038
-213.523	50.362	0.149	0.139
-212.509	428.657	0.071	-0.152
-211.494	-15.107	0.066	-0.042
-210.479	800.000	-0.080	0.228
-209.465	2.815	0.093	0.067
-208.450	284.861	0.138	-0.246
-207.436	-48.631	0.266	-0.126
-206.421	5.370	0.253	-0.184
-205.406	-200.000	0.077	-0.361
-204.392	-104.749	-0.266	0.060
-203.377	-40.303	-0.181	0.093
-202.363	-65.788	0.104	0.041
-201.348	-14.881	-0.072	0.046
-200.333	167.496	-0.142	0.200
-199.319	123.863	-0.201	0.250
-198.304	119.354	-0.177	-0.216
-197.290	51.294	0.070	-0.065
-196.275	102.151	-0.072	-0.083
-195.260	-92.396	-0.226	0.063
-194.246	370.450	0.154	0.308
-193.231	409.511	-0.083	0.173
-192.217	-189.345	-0.419	0.005
-191.202	-55.098	0.293	-0.130
-190.187	-200.000	0.026	0.373
-189.173	-103.586	0.362	0.084
-188.158	113.816	-0.191	0.230
-187.144	95.362	-0.110	-0.124
-186.129	-200.000	-0.073	-0.329
-185.114	436.439	0.171	-0.368
-184.100	-64.311	-0.241	-0.097
-183.085	-117.776	-0.260	-0.046
-182.071	-101.803	0.343	0.082
-181.056	-30.688	0.033	0.019
-180.042	-77.434	0.364	-0.125
-179.027	237.385	0.070	0.115
-178.012	-40.229	0.006	0.003
-176.998	-3.322	-0.155	0.106
-175.983	115.925	-0.187	0.226
-174.969	128.150	0.047	0.059
-173.954	-107.189	-0.079	-0.017
-172.939	-150.156	0.100	0.008
-171.925	-0.286	0.299	0.210
-170.910	83.980	-0.247	0.266
-169.896	-14.938	-0.284	0.180
-168.881	-200.000	0.030	-0.526
-167.866	29.953	0.091	-0.077
-166.852	83.705	0.097	-0.104
-165.837	153.525	-0.250	0.338
-164.823	800.000	0.042	0.163
-163.808	430.495	0.077	-0.164
-162.793	143.094	0.222	-0.291
-161.779	-20.826	0.113	0.068
-160.764	79.880	-0.172	0.182
-159.750	800.000	0.058	-0.168
-158.735	12.111	0.156	0.119
-157.720	-200.000	-0.016	0.180
-156.706	74.717	-0.034	0.036
-155.691	-97.228	-0.281	0.072
-154.677	-123.440	0.249	0.039
-153.662	-83.864	-0.200	-0.063
-152.647	-200.000	-0.005	-0.126
-151.633	-124.026	0.116	0.018
-150.618	-200.000	-0.007	0.231
-149.604	-18.810	-0.077	0.047
-148.589	-93.449	-0.052	0.014
-147.574	-200.000	-0.021	-0.148
-146.560	800.000	-0.021	0.076
-145.545	-84.564	0.576	0.179
-144.531	-200.000	-0.017	-0.109
-143.516	72.397	-0.141	-0.144
-142.502	-200.000	0.035	0.178
-141.487	-178.714	-0.061	-0.001
-140.472	452.938	0.250	0.546
-139.458	179.491	0.051	-0.073
-138.443	235.074	0.182	-0.296
-137.429	9.258	0.198	-0.148
-136.414	195.164	-0.122	0.183
-135.399	800.000	0.023	0.094
-134.385	-200.000	0.021	-0.298
-133.370	-99.749	0.101	-0.025
-132.356	-200.000	-0.016	0.163
-131.341	637.051	-0.030	0.075
-130.326	403.665	0.052	0.109
-129.312	297.191	0.201	-0.363
-128.297	104.308	-0.223	0.258
-127.283	800.000	0.041	0.123
-126.268	-174.119	0.014	0.000
-125.253	186.922	0.062	-0.092
-124.239	-96.331	-0.244	-0.064
-123.224	-80.541	-0.283	-0.093
-122.210	-28.279	0.244	-0.139
