DTS Sentinel unit serial number:	SN413079Multiplexer serial number:	ORYXHardware model number:	OX4-SRSoftware version number:	ORYX F/W v4.00 Oryx Data Collector v3.7.2.0data status	okinstallation	princeton_trtdifferential loss correction	single-endedforward channel	channel 1reverse channel	N/Adate	2019/09/14time	16:22:35forward acquisition time	60.00reverse acquisition time	0.00gamma	496.2192k internal	0.2296k external	0.2296temperature offset calibration	1.0065default loss term (dB/km)	0.3790temperature slope calibration	1.0000multiplexer offset coefficient	1.0000multiplexer slope coefficient	1.0000fibre end	0.00T internal ref (°C)	38.11T ext. ref 1 (°C)	5.09T ext. ref 2 (°C)	32.96length (m)	temperature (°C)	Stokes	anti-Stokes-747.200	70.853	0.264	-0.279
-746.185	83.034	0.117	0.130
-745.171	152.997	-0.138	0.192
-744.156	-153.402	0.269	-0.019
-743.142	800.000	0.006	-0.020
-742.127	800.000	0.089	0.338
-741.112	800.000	0.165	-0.501
-740.098	-83.022	0.394	0.130
-739.083	800.000	0.107	0.370
-738.069	-171.796	0.295	0.010
-737.054	2.742	0.091	-0.068
-736.039	297.109	0.092	0.173
-735.025	356.566	0.134	0.273
-734.010	-163.339	-0.355	0.017
-732.996	-89.142	-0.461	-0.139
-731.981	20.567	-0.180	0.149
-730.966	-74.725	-0.285	-0.105
-729.952	96.347	0.148	-0.172
-728.937	104.212	-0.241	0.290
-727.923	-200.000	0.007	0.126
-726.908	138.199	-0.012	-0.016
-725.894	-70.883	0.129	-0.050
-724.879	578.099	0.090	0.224
-723.864	-200.000	-0.016	0.333
-722.850	-200.000	0.041	0.194
-721.835	45.213	0.055	-0.052
-720.821	100.145	-0.056	-0.066
-719.806	-114.068	-0.146	-0.029
-718.791	-89.042	-0.074	-0.022
-717.777	7.160	-0.280	-0.213
-716.762	-101.087	0.101	0.025
-715.748	-110.105	-0.222	0.047
-714.733	-99.861	-0.104	0.027
-713.718	39.376	0.117	-0.107
-712.704	-112.387	-0.407	0.083
-711.689	17.464	-0.082	-0.066
-710.675	-50.001	0.303	0.146
-709.660	749.362	-0.119	0.327
-708.645	296.163	-0.052	-0.096
-707.631	464.615	-0.054	0.122
-706.616	215.696	0.110	-0.178
-705.602	800.000	-0.111	-0.346
-704.587	-34.229	0.175	-0.098
-703.572	173.039	-0.084	0.123
-702.558	-100.524	0.228	0.058
-701.543	-200.000	0.057	0.332
-700.529	-200.000	0.041	0.292
-699.514	-200.000	0.002	0.041
-698.499	-12.914	-0.130	-0.086
-697.485	623.023	0.044	0.114
-696.470	574.198	0.074	0.185
-695.456	-65.516	-0.152	0.062
-694.441	260.096	-0.109	0.193
-693.426	-200.000	0.061	0.277
-692.412	-196.444	-0.182	-0.001
-691.397	684.229	0.067	0.177
-690.383	-65.416	0.257	-0.105
-689.368	97.322	-0.049	-0.058
-688.354	232.211	-0.051	0.085
-687.339	660.324	-0.164	0.431
-686.324	201.246	-0.041	-0.064
-685.310	-53.974	-0.133	-0.062
-684.295	755.723	0.094	-0.260
-683.281	7.586	-0.217	-0.165
-682.266	14.029	-0.095	-0.075
-681.251	800.000	-0.077	0.240
-680.237	79.327	-0.266	-0.291
-679.222	104.049	-0.148	-0.177
-678.208	-200.000	0.063	0.391
-677.193	-20.265	-0.145	0.091
-676.178	-2.475	-0.159	0.113
-675.164	33.156	-0.253	0.224
-674.149	59.034	-0.130	-0.130
-673.135	-200.000	0.068	0.397
-672.120	86.389	0.175	-0.196
-671.105	-25.239	-0.280	0.169
-670.091	35.380	0.104	-0.093
-669.076	-76.274	-0.209	-0.075
-668.062	-200.000	-0.042	-0.284
-667.047	-190.870	-0.311	-0.003
-666.032	333.603	0.200	-0.394
-665.018	410.629	0.071	-0.152
-664.003	149.317	-0.193	-0.266
-662.989	800.000	0.026	-0.085
-661.974	-160.904	-0.364	-0.020
-660.959	-91.217	-0.135	0.039
-659.945	94.296	-0.068	0.078
-658.930	-142.659	0.180	-0.018
-657.916	746.313	-0.129	0.354
-656.901	257.867	-0.106	0.186
-655.886	-200.000	-0.003	-0.406
-654.872	-200.000	-0.023	-0.107
-653.857	-200.000	0.015	-0.168
-652.843	-121.999	-0.173	-0.029
-651.828	-5.890	0.080	0.056
-650.814	332.695	0.129	-0.253
-649.799	-35.171	0.093	-0.052
-648.784	800.000	0.072	-0.289
-647.770	800.000	-0.156	-0.457
-646.755	-200.000	-0.046	-0.227
-645.741	-82.682	-0.154	0.051
-644.726	800.000	0.056	0.159
-643.711	192.463	0.138	0.213
-642.697	-200.000	-0.006	0.130
-641.682	-146.452	0.314	-0.028
-640.668	-105.606	-0.138	0.032
-639.653	-2.797	0.128	-0.091
-638.638	18.753	-0.120	0.097
-637.624	-200.000	0.013	0.265
-636.609	-10.859	-0.207	0.139
-635.595	291.750	0.087	-0.162
-634.580	146.828	0.056	0.076
-633.565	-129.870	0.061	-0.009
-632.551	94.831	-0.043	0.050
-631.536	157.249	-0.066	-0.093
-630.522	-170.664	-0.272	-0.010
-629.507	-114.353	0.427	0.084
-628.492	-200.000	-0.032	-0.173
-627.478	-149.317	0.287	0.023
-626.463	-101.470	-0.092	-0.023
-625.449	800.000	-0.100	-0.310
-624.434	-72.378	-0.087	0.033
-623.419	800.000	-0.026	0.094
-622.405	800.000	0.090	0.305
-621.390	-59.083	0.391	-0.172
-620.376	-54.857	0.145	-0.066
-619.361	-200.000	-0.000	-0.056
-618.346	800.000	0.070	0.228
-617.332	-200.000	0.079	-0.358
-616.317	84.469	-0.212	-0.236
-615.303	325.567	0.086	-0.168
-614.288	-116.553	-0.114	-0.021
-613.273	136.608	0.137	-0.182
-612.259	92.882	0.112	0.128
-611.244	-90.030	0.251	0.074
-610.230	800.000	0.065	0.212
-609.215	-86.996	0.236	-0.073
-608.201	-52.312	0.301	-0.142
-607.186	41.604	0.361	-0.332
-606.171	-29.571	-0.265	-0.154
-605.157	154.055	0.115	-0.160
-604.142	-161.186	-0.203	-0.011
-603.128	76.909	0.018	-0.020
-602.113	-91.869	-0.416	-0.120
-601.098	35.485	0.120	0.107
-600.084	19.170	-0.295	-0.240
-599.069	800.000	-0.073	0.269
-598.055	-12.247	-0.151	-0.100
-597.040	223.161	-0.092	-0.150
-596.025	416.849	-0.118	0.255
-595.011	-11.070	-0.235	0.157
-593.996	-117.560	0.162	-0.030
-592.982	-81.899	-0.148	0.049
-591.967	109.428	-0.140	-0.170
-590.952	723.572	0.053	-0.144
-589.938	-60.921	-0.376	0.161
-588.923	800.000	-0.012	-0.039
-587.909	-123.044	-0.120	0.020
-586.894	-200.000	0.010	0.066
-585.879	51.535	-0.159	0.154
-584.865	-97.315	0.173	0.046
-583.850	-178.401	-0.141	-0.003
-582.836	575.639	-0.064	0.158
-581.821	666.579	0.013	0.035
-580.806	-99.944	-0.217	-0.055
-579.792	-128.743	0.286	0.041
-578.777	-59.402	0.289	-0.126
-577.763	37.808	0.165	-0.148
-576.748	-200.000	0.009	-0.107
-575.733	800.000	-0.066	-0.286
-574.719	-100.680	0.296	0.074
-573.704	150.721	0.227	-0.313
-572.690	-200.000	0.034	0.253
-571.675	-84.487	0.153	-0.049
-570.661	-82.401	0.174	0.057
-569.646	140.530	-0.219	-0.294
-568.631	-6.752	0.163	-0.112
-567.617	800.000	-0.045	0.149
-566.602	-97.767	0.193	0.051
-565.588	-80.374	-0.466	0.158
-564.573	473.264	0.124	0.283
-563.558	482.343	-0.056	-0.129
-562.544	783.999	-0.017	-0.048
-561.529	-183.283	-0.221	-0.004
-560.515	-36.928	-0.145	0.079
-559.500	290.560	-0.031	-0.056
-558.485	53.443	-0.141	-0.137
-557.471	-200.000	-0.022	-0.253
-556.456	96.426	0.143	-0.166
-555.442	800.000	-0.050	-0.161
-554.427	-118.402	-0.271	0.049
-553.412	651.671	0.136	0.354
-552.398	-18.349	-0.095	0.060
-551.383	525.065	0.074	-0.176
-550.369	128.476	0.200	0.259
-549.354	443.745	0.016	-0.036
-548.339	787.915	0.023	0.064
-547.325	216.350	0.160	0.259
-546.310	6.121	-0.139	0.104
-545.296	-200.000	0.071	0.495
-544.281	-109.236	-0.238	-0.051
-543.266	81.029	-0.176	0.192
-542.252	44.863	-0.135	0.126
-541.237	14.405	0.194	-0.154
-540.223	-30.019	-0.141	-0.082
-539.208	-62.442	-0.232	-0.098
-538.193	111.842	0.115	0.141
-537.179	-56.642	0.225	0.101
-536.164	-99.426	-0.273	-0.070
-535.150	32.905	0.177	-0.155
-534.135	-135.056	-0.374	0.046
-533.121	800.000	0.030	-0.101
-532.106	477.442	0.221	-0.506
-531.091	-37.350	-0.452	-0.245
-530.077	800.000	0.054	0.215
-529.062	-200.000	-0.010	0.070
-528.048	-145.453	0.273	-0.025
-527.033	-24.867	0.088	-0.053
-526.018	800.000	-0.145	0.437
-525.004	-84.189	0.138	-0.044
-523.989	207.178	-0.118	0.187
-522.975	182.374	0.050	-0.075
-521.960	167.136	-0.152	-0.219
-520.945	102.541	-0.130	0.154
-519.931	800.000	0.065	-0.240
-518.916	67.507	-0.203	0.209
-517.902	-8.398	-0.219	0.149
-516.887	800.000	-0.034	-0.101
-515.872	30.001	0.143	0.123
-514.858	-152.254	-0.297	-0.022
-513.843	27.885	-0.234	-0.200
-512.829	-111.071	-0.321	-0.067
-511.814	-104.270	-0.176	-0.041
-510.799	77.871	0.248	0.268
-509.785	800.000	0.046	0.152
-508.770	3.816	-0.066	0.049
-507.756	-60.133	0.130	0.056
-506.741	-200.000	-0.007	-0.169
-505.726	-63.040	0.028	0.012
-504.712	-106.043	-0.126	0.029
-503.697	226.456	0.069	-0.113
-502.683	739.580	0.041	0.113
-501.668	-80.918	0.060	0.020
-500.653	-134.833	0.382	-0.047
-499.639	184.071	-0.234	0.351
-498.624	28.745	0.128	0.110
-497.610	-103.100	-0.148	-0.035
-496.595	-70.148	-0.249	0.096
-495.581	54.091	0.057	-0.055
-494.566	-200.000	-0.022	-0.408
-493.551	-71.659	-0.082	-0.031
-492.537	253.285	-0.145	-0.251
-491.522	-101.946	-0.074	-0.018
-490.508	506.437	-0.231	0.542
-489.493	-52.906	0.223	0.104
-488.478	800.000	0.098	-0.278
-487.464	-118.981	0.350	-0.062
-486.449	10.249	-0.202	-0.155
-485.435	-200.000	-0.015	-0.106
-484.420	119.463	-0.182	-0.227
-483.405	283.186	0.068	0.123
-482.391	-200.000	0.029	-0.469
-481.376	-200.000	0.012	-0.137
-480.362	-200.000	-0.045	-0.323
-479.347	60.275	0.237	-0.237
-478.332	-200.000	0.015	-0.335
-477.318	-16.659	0.157	-0.100
-476.303	-159.759	0.193	-0.011
-475.289	262.109	-0.158	-0.277
-474.274	126.641	-0.088	0.113
-473.259	-150.089	-0.099	-0.008
-472.245	800.000	0.048	-0.147
-471.230	-200.000	0.008	0.153
-470.216	273.555	0.154	-0.276
-469.201	-9.374	0.082	-0.056
-468.186	-95.898	-0.122	-0.033
-467.172	-48.426	-0.103	0.050
-466.157	722.911	-0.093	-0.251
-465.143	797.694	-0.086	-0.241
-464.128	-36.102	0.360	0.197
-463.113	-200.000	-0.004	0.198
-462.099	800.000	-0.120	0.419
-461.084	-90.962	-0.314	-0.091
-460.070	-4.615	0.190	0.133
-459.055	-55.454	0.188	-0.085
-458.040	-200.000	0.011	0.236
-457.026	386.559	-0.181	-0.378
-456.011	191.343	0.044	-0.067
-454.997	-69.669	0.153	-0.059
-453.982	-141.558	-0.123	0.013
-452.968	-123.620	0.266	-0.043
-451.953	17.789	0.255	0.205
-450.938	-62.694	-0.245	0.103
-449.924	-200.000	0.017	0.097
-448.909	-200.000	0.043	-0.388
-447.895	-200.000	-0.036	-0.164
-446.880	33.720	0.064	-0.056
-445.865	-71.606	0.260	-0.098
-444.851	33.984	0.212	-0.187
-443.836	199.076	0.153	0.237
-442.822	391.228	0.066	-0.138
-441.807	200.001	-0.232	0.360
-440.792	800.000	-0.018	0.077
-439.778	-104.479	-0.101	-0.024
-438.763	106.310	0.094	-0.112
-437.749	-6.157	-0.276	0.191
-436.734	-75.706	-0.184	0.066
-435.719	279.832	-0.199	0.359
-434.705	-200.000	0.085	0.384
-433.690	-39.006	0.213	-0.113
-432.676	-25.154	-0.238	-0.142
-431.661	-120.319	0.289	-0.050
-430.646	123.180	-0.062	0.079
-429.632	-5.027	0.118	-0.082
-428.617	-200.000	-0.008	-0.276
-427.603	-166.167	-0.276	-0.012
-426.588	-200.000	-0.013	0.461
-425.573	7.051	-0.124	0.093
-424.559	-171.263	-0.291	0.010
-423.544	68.301	0.138	0.142
-422.530	-131.641	-0.245	0.032
-421.515	2.504	0.072	0.053
-420.500	592.240	0.033	0.083
-419.486	-36.692	-0.109	0.059
-418.471	-146.034	0.311	0.028
-417.457	-57.678	0.269	-0.119
-416.442	204.694	0.096	0.150
-415.428	-132.862	-0.385	-0.050
-414.413	465.726	-0.034	-0.077
-413.398	326.111	-0.141	0.272
-412.384	-200.000	-0.001	-0.188
-411.369	479.692	-0.054	-0.124
-410.355	508.606	-0.083	0.194
-409.340	1.234	0.076	0.055
-408.325	313.473	-0.066	-0.125
-407.311	-12.813	0.065	-0.043
-406.296	-31.721	0.233	0.132
-405.282	-157.912	0.161	-0.010
-404.267	57.640	0.306	0.301
-403.252	-200.000	0.002	0.030
-402.238	159.663	0.073	-0.102
-401.223	-200.000	-0.068	-0.391
-400.209	-48.038	-0.273	0.133
-399.194	103.200	-0.034	-0.040
-398.179	74.086	-0.230	-0.244
-397.165	325.749	-0.132	-0.255
-396.150	800.000	-0.128	0.412
-395.136	-78.367	-0.334	-0.115
-394.121	-140.575	0.297	-0.031
-393.106	-200.000	0.015	0.066
-392.092	-38.518	0.182	0.097
-391.077	-200.000	0.033	-0.315
-390.063	-52.869	-0.457	0.212
-389.048	800.000	-0.069	-0.299
-388.033	800.000	-0.108	-0.367
-387.019	249.040	-0.143	0.244
-386.004	-1.434	0.198	0.141
-384.990	60.117	0.100	0.099
-383.975	33.709	-0.120	-0.105
-382.960	-135.683	0.238	0.028
-381.946	-63.811	-0.088	0.036
-380.931	244.458	0.103	0.175
-379.917	-200.000	-0.003	0.130
-378.902	-145.893	0.238	0.021
-377.888	382.866	-0.099	-0.206
-376.873	364.449	0.129	0.261
-375.858	-106.650	-0.131	-0.029
-374.844	-80.517	-0.441	0.148
-373.829	800.000	0.044	0.187
-372.815	120.957	0.196	0.246
-371.800	800.000	0.059	-0.181
-370.785	-44.844	-0.075	-0.038
-369.771	74.610	-0.036	-0.038
-368.756	22.009	0.061	0.050
-367.742	43.996	0.226	-0.208
-366.727	11.396	0.150	0.116
-365.712	800.000	-0.130	0.436
-364.698	-200.000	0.034	-0.184
-363.683	226.221	-0.128	0.210
-362.669	-42.905	0.251	0.129
-361.654	-200.000	0.058	0.260
-360.639	-144.209	0.124	0.012
-359.625	-37.823	-0.315	-0.169
-358.610	20.097	0.361	-0.293
-357.596	109.077	0.240	-0.289
-356.581	29.495	-0.026	0.022
-355.566	341.949	0.107	0.212
-354.552	-183.421	-0.182	-0.003
-353.537	364.936	-0.028	0.057
-352.523	-148.207	-0.242	0.020
-351.508	-200.000	-0.000	-0.124
-350.493	31.237	0.297	0.257
-349.479	-140.553	0.212	0.022
-348.464	800.000	-0.029	0.092
-347.450	64.379	-0.101	-0.103
-346.435	-200.000	-0.002	0.297
-345.420	700.599	0.124	-0.329
-344.406	-90.852	0.276	-0.080
-343.391	-98.541	-0.178	-0.046
-342.377	-77.423	0.125	-0.044
-341.362	-61.171	0.163	-0.069
-340.348	549.972	-0.095	0.228
-339.333	-62.487	-0.366	0.153
-338.318	-109.949	0.054	0.011
-337.304	-40.443	0.160	-0.083
-336.289	-200.000	-0.016	-0.188
-335.275	-200.000	-0.079	-0.387
-334.260	-20.205	-0.086	0.054
-333.245	-200.000	0.042	-0.225
-332.231	-8.766	-0.063	0.042
-331.216	-60.845	0.343	0.146
-330.202	-110.175	0.553	-0.116
-329.187	-200.000	-0.040	0.386
-328.172	154.973	0.098	0.135
-327.158	-73.018	-0.327	0.121
-326.143	307.289	-0.078	-0.146
-325.129	36.953	0.103	-0.092
-324.114	-136.873	-0.281	-0.032
-323.099	-109.314	-0.287	0.061
-322.085	10.114	0.193	0.147
-321.070	74.724	0.131	0.138
-320.056	38.451	-0.222	-0.198
-319.041	261.044	-0.035	0.061
-318.026	-112.303	0.118	0.024
-317.012	212.216	0.146	0.232
-315.997	-97.642	0.436	0.114
-314.983	49.035	-0.131	0.124
-313.968	-103.342	-0.454	0.108
-312.953	113.119	-0.103	0.125
-311.939	374.770	0.134	0.274
-310.924	-79.228	0.173	0.059
-309.910	-200.000	0.044	-0.204
-308.895	-192.950	0.419	-0.004
-307.880	-127.578	0.402	0.059
-306.866	41.917	0.129	-0.118
-305.851	-138.766	0.198	-0.022
-304.837	-37.983	-0.101	-0.054
-303.822	44.241	0.081	0.074
-302.807	9.763	-0.168	-0.128
-301.793	112.958	-0.023	0.028
-300.778	205.493	-0.192	-0.299
-299.764	-173.600	-0.185	0.006
-298.749	64.430	-0.129	0.130
-297.735	-97.839	0.140	0.036
-296.720	-26.000	0.074	0.044
-295.705	-18.259	0.064	-0.040
-294.691	-200.000	-0.029	-0.132
-293.676	800.000	0.060	-0.176
-292.662	20.317	0.123	0.100
-291.647	-89.942	-0.220	0.064
-290.632	4.242	-0.131	0.096
-289.618	232.202	0.204	0.336
-288.603	-100.986	0.160	-0.039
-287.589	279.637	-0.154	-0.276
-286.574	15.236	0.113	-0.089
-285.559	-25.389	-0.129	0.076
-284.545	52.657	-0.307	0.294
-283.530	170.395	-0.317	-0.456
-282.516	207.836	0.131	-0.205
-281.501	-200.000	0.378	-0.001
-280.486	3.402	-0.154	-0.112
-279.472	-92.010	-0.185	-0.053
-278.457	-72.184	-0.098	-0.037
-277.443	442.240	-0.119	-0.261
-276.428	-76.996	-0.176	-0.062
-275.413	-75.459	-0.148	-0.053
-274.399	220.974	-0.147	0.236
-273.384	-37.116	0.192	-0.103
-272.370	-58.982	0.217	0.094
-271.355	194.568	0.095	-0.145
-270.340	-146.227	-0.149	0.013
-269.326	-200.000	0.025	-0.266
-268.311	180.684	0.115	-0.169
-267.297	295.917	-0.043	-0.079
-266.282	212.419	-0.074	-0.117
-265.267	-109.202	-0.198	0.042
-264.253	90.888	0.105	0.118
-263.238	800.000	-0.012	0.042
-262.224	-200.000	0.026	0.189
-261.209	-139.014	-0.282	0.031
-260.195	-200.000	0.010	0.179
-259.180	17.378	0.236	0.188
-258.165	-24.650	-0.094	0.056
-257.151	-35.861	0.109	0.059
-256.136	18.061	0.107	0.085
-255.122	36.025	-0.050	0.044
-254.107	98.812	-0.367	0.425
-253.092	-200.000	0.020	0.161
-252.078	-71.830	-0.057	-0.021
-251.063	-200.000	-0.033	-0.351
-250.049	18.407	-0.252	0.202
-249.034	-200.000	0.006	-0.089
-248.019	-165.997	-0.196	-0.008
-247.005	13.867	0.202	0.157
-245.990	38.389	-0.244	-0.218
-244.976	800.000	0.113	-0.363
-243.961	-84.435	-0.234	-0.074
-242.946	-175.814	0.335	-0.009
-241.932	-2.564	0.027	0.019
-240.917	-200.000	0.021	0.185
-239.903	104.166	-0.057	-0.067
-238.888	-200.000	0.011	-0.146
-237.873	141.111	0.331	0.438
-236.859	71.506	0.326	0.339
-235.844	-159.967	-0.441	-0.024
-234.830	285.709	-0.151	0.273
-233.815	60.351	-0.098	0.097
-232.800	85.345	0.147	0.161
-231.786	-134.645	0.160	0.020
-230.771	479.697	-0.066	-0.151
-229.757	-200.000	0.007	0.257
-228.742	56.213	0.085	-0.083
-227.727	-200.000	0.038	-0.308
-226.713	-94.480	0.132	0.036
-225.698	800.000	-0.017	0.073
-224.684	748.425	0.091	-0.247
-223.669	93.001	0.062	-0.070
-222.655	-68.928	0.112	-0.043
-221.640	-61.247	-0.178	-0.075
-220.625	-81.460	-0.449	-0.148
-219.611	-8.709	-0.156	-0.105
-218.596	-104.702	-0.168	-0.039
-217.582	92.561	0.126	0.142
-216.567	121.065	0.117	0.146
-215.552	279.963	0.109	0.196
-214.538	-101.282	0.247	0.060
-213.523	28.411	-0.274	-0.232
-212.509	42.233	0.227	0.206
-211.494	17.856	-0.094	0.075
-210.479	-103.095	0.211	-0.050
-209.465	-200.000	-0.056	0.358
-208.450	185.253	-0.220	0.327
-207.436	236.519	-0.121	-0.201
-206.421	-46.928	0.250	-0.122
-205.406	197.552	-0.214	0.328
-204.392	-25.350	-0.197	0.116
-203.377	-34.612	-0.265	-0.145
-202.363	85.307	-0.083	-0.091
-201.348	-119.679	0.158	0.027
-200.333	-91.317	-0.171	-0.049
-199.319	202.295	0.162	0.250
-198.304	204.901	-0.175	-0.272
-197.290	212.307	0.166	-0.261
-196.275	407.458	-0.030	0.063
-195.260	-61.329	0.264	0.111
-194.246	-58.702	-0.086	0.037
-193.231	8.186	-0.215	0.161
-192.217	319.740	-0.092	0.174
-191.202	-200.000	-0.031	0.135
-190.187	-200.000	0.002	0.249
-189.173	58.304	-0.257	-0.252
-188.158	-8.914	0.110	-0.073
-187.144	-151.787	0.230	-0.017
-186.129	213.737	-0.079	-0.125
-185.114	294.026	-0.124	-0.227
-184.100	-153.933	-0.099	-0.007
-183.085	286.532	-0.066	0.120
-182.071	-99.315	-0.103	0.026
-181.056	-100.244	0.176	-0.044
-180.042	-19.227	-0.134	-0.083
-179.027	-140.119	0.610	0.064
-178.012	-14.262	-0.108	0.070
-176.998	-200.000	0.013	-0.104
-175.983	459.450	-0.046	0.103
-174.969	552.663	-0.033	-0.080
-173.954	-47.230	0.182	0.089
-172.939	215.125	0.110	-0.175
-171.925	148.837	0.158	0.213
-170.910	-102.175	0.037	-0.009
-169.896	800.000	-0.038	-0.124
-168.881	-200.000	0.070	-0.396
-167.866	276.357	0.199	0.353
-166.852	196.262	-0.110	-0.167
-165.837	-200.000	0.006	0.064
-164.823	-200.000	-0.006	0.279
-163.808	-135.503	0.316	-0.038
-162.793	-38.164	-0.236	-0.125
-161.779	800.000	0.077	0.292
-160.764	-136.035	0.280	0.033
-159.750	-5.786	0.112	-0.076
-158.735	-200.000	0.013	0.398
-157.720	-42.777	0.258	-0.131
-156.706	-116.532	-0.271	0.050
-155.691	162.886	0.155	-0.218
-154.677	-200.000	0.043	-0.345
-153.662	580.819	0.047	0.116
-152.647	-77.123	0.107	0.037
-151.633	28.861	0.020	-0.017
-150.618	-41.118	0.030	0.016
-149.604	-87.483	0.266	0.080
-148.589	6.822	-0.049	-0.036
-147.574	-26.028	0.194	-0.114
-146.560	-24.789	-0.067	0.040
-145.545	125.012	-0.188	0.237
-144.531	68.599	-0.287	0.294
-143.516	-58.199	0.065	-0.028
-142.502	-124.759	-0.177	-0.027
-141.487	-124.341	-0.255	0.040
-140.472	60.185	-0.292	0.288
-139.458	-74.941	0.391	-0.140
-138.443	-46.155	-0.165	-0.081
-137.429	800.000	-0.016	-0.061
-136.414	-35.167	0.081	0.044
-135.399	-71.673	0.237	-0.088
-134.385	-200.000	0.021	0.364
-133.370	235.971	-0.090	-0.148
-132.356	365.778	-0.082	-0.165
-131.341	-198.711	-0.146	-0.001
-130.326	-0.270	0.268	-0.190
-129.312	211.106	0.138	0.216
-128.297	-200.000	-0.014	-0.206
-127.283	-134.599	0.207	-0.025
-126.268	-60.567	0.322	0.136
-125.253	-60.082	-0.221	0.094
-124.239	63.605	0.316	0.316
-123.224	567.025	-0.014	0.035
-122.210	429.308	0.141	0.303
-121.195	158.957	-0.117	0.162
