DTS Sentinel unit serial number:	SN413079Multiplexer serial number:	ORYXHardware model number:	OX4-SRSoftware version number:	ORYX F/W v4.00 Oryx Data Collector v3.7.2.0data status	okinstallation	princeton_trtdifferential loss correction	single-endedforward channel	channel 1reverse channel	N/Adate	2019/09/18time	04:22:35forward acquisition time	60.00reverse acquisition time	0.00gamma	496.2192k internal	0.2339k external	0.2339temperature offset calibration	0.9979default loss term (dB/km)	0.3790temperature slope calibration	1.0000multiplexer offset coefficient	1.0000multiplexer slope coefficient	1.0000fibre end	0.00T internal ref (°C)	23.37T ext. ref 1 (°C)	0.18T ext. ref 2 (°C)	17.57length (m)	temperature (°C)	Stokes	anti-Stokes-747.200	146.486	-0.044	0.059
-746.185	-65.379	-0.179	-0.072
-745.171	76.788	0.227	0.242
-744.156	43.999	-0.125	0.115
-743.142	243.499	0.085	0.142
-742.127	262.757	-0.061	-0.106
-741.112	-100.739	-0.384	0.095
-740.098	-52.921	0.057	0.026
-739.083	-86.631	0.121	-0.037
-738.069	-65.282	-0.292	-0.118
-737.054	-200.000	-0.015	-0.075
-736.039	-57.991	-0.253	-0.111
-735.025	-139.121	0.249	-0.027
-734.010	-200.000	0.014	-0.195
-732.996	113.604	-0.205	0.250
-731.981	427.452	0.157	-0.339
-730.966	-200.000	-0.005	-0.369
-729.952	800.000	0.117	-0.357
-728.937	-61.021	-0.158	-0.067
-727.923	-200.000	-0.017	0.193
-726.908	-200.000	0.058	-0.381
-725.894	-200.000	0.005	-0.434
-724.879	800.000	0.101	0.319
-723.864	69.091	-0.144	0.148
-722.850	-25.040	0.082	-0.049
-721.835	-74.478	-0.328	-0.119
-720.821	57.332	0.137	-0.134
-719.806	40.335	-0.153	-0.138
-718.791	38.115	-0.273	-0.243
-717.777	341.860	0.058	-0.113
-716.762	118.620	-0.372	-0.461
-715.748	588.481	-0.236	-0.581
-714.733	-200.000	0.023	-0.134
-713.718	607.153	0.091	0.227
-712.704	800.000	-0.061	-0.176
-711.689	170.491	-0.167	-0.239
-710.675	321.019	0.066	-0.126
-709.660	10.840	-0.006	0.005
-708.645	-81.010	0.493	-0.164
-707.631	-132.622	0.291	0.037
-706.616	800.000	-0.131	-0.417
-705.602	-103.306	-0.068	0.016
-704.587	-95.890	0.197	-0.052
-703.572	-30.936	0.348	0.197
-702.558	-102.364	0.140	0.034
-701.543	-22.926	0.168	0.102
-700.529	-71.298	0.269	-0.101
-699.514	586.023	0.099	0.244
-698.499	-82.180	0.232	0.076
-697.485	9.591	-0.134	0.102
-696.470	340.492	0.125	-0.245
-695.456	69.242	0.100	-0.103
-694.441	516.606	-0.053	-0.124
-693.426	-200.000	-0.007	-0.226
-692.412	766.508	-0.087	-0.237
-691.397	240.973	0.035	0.058
-690.383	-38.027	0.087	0.046
-689.368	800.000	0.066	-0.190
-688.354	800.000	-0.064	-0.219
-687.339	333.799	0.152	-0.295
-686.324	800.000	0.018	0.071
-685.310	-21.329	-0.195	0.119
-684.295	-200.000	-0.009	-0.163
-683.281	54.801	0.148	0.143
-682.266	-27.102	-0.080	0.047
-681.251	-200.000	0.062	-0.312
-680.237	-111.145	0.222	0.045
-679.222	13.053	-0.151	-0.117
-678.208	-142.029	0.286	-0.028
-677.193	800.000	0.065	-0.185
-676.178	-200.000	-0.012	-0.180
-675.164	-200.000	-0.025	0.149
-674.149	-21.790	0.155	-0.094
-673.135	-87.776	-0.233	0.070
-672.120	8.224	0.205	0.154
-671.105	493.833	-0.063	0.144
-670.091	-200.000	0.004	-0.383
-669.076	-178.738	0.394	-0.009
-668.062	161.148	-0.220	-0.308
-667.047	-200.000	-0.053	0.270
-666.032	74.781	-0.103	-0.109
-665.018	475.597	-0.177	-0.400
-664.003	107.648	-0.212	0.253
-662.989	-120.973	0.122	-0.020
-661.974	-200.000	-0.044	-0.277
-660.959	323.168	-0.127	-0.242
-659.945	-73.837	-0.185	-0.067
-658.930	-19.600	-0.239	0.148
-657.916	800.000	-0.053	0.195
-656.901	-40.321	-0.177	-0.092
-655.886	-31.582	0.124	-0.070
-654.872	129.642	-0.120	0.154
-653.857	800.000	0.050	0.209
-652.843	25.370	0.117	-0.098
-651.828	-54.763	-0.111	-0.050
-650.814	606.106	0.094	0.234
-649.799	-106.450	-0.165	-0.037
-648.784	104.943	-0.222	-0.261
-647.770	254.609	0.161	0.275
-646.755	131.999	-0.144	-0.186
-645.741	30.940	-0.287	0.245
-644.726	-1.816	-0.208	-0.146
-643.711	44.838	-0.076	-0.070
-642.697	-25.255	-0.148	0.088
-641.682	36.704	0.193	-0.170
-640.668	-200.000	-0.015	-0.329
-639.653	-137.876	0.124	-0.014
-638.638	800.000	0.084	-0.247
-637.624	800.000	-0.060	0.200
-636.609	-47.179	-0.150	0.073
-635.595	100.250	-0.055	-0.063
-634.580	261.287	0.095	0.164
-633.565	-118.378	0.462	0.082
-632.551	37.803	0.107	-0.094
-631.536	70.149	0.084	0.086
-630.522	-112.511	0.403	-0.080
-629.507	800.000	0.083	-0.243
-628.492	-57.735	0.053	0.023
-627.478	169.277	0.220	0.314
-626.463	-147.614	0.269	0.023
-625.449	635.315	-0.035	0.090
-624.434	-120.708	0.525	0.089
-623.419	18.760	-0.354	0.283
-622.405	800.000	-0.100	0.310
-621.390	-91.591	-0.316	-0.090
-620.376	-136.840	0.239	-0.027
-619.361	-75.612	-0.310	0.110
-618.346	-103.417	0.244	0.057
-617.332	19.922	-0.138	0.111
-616.317	637.475	-0.020	-0.051
-615.303	348.387	0.083	-0.163
-614.288	800.000	0.077	-0.227
-613.273	177.138	-0.051	0.074
-612.259	279.493	-0.051	0.091
-611.244	627.738	0.105	0.264
-610.230	-174.307	-0.276	-0.008
-609.215	190.295	-0.092	-0.137
-608.201	-76.737	0.304	0.106
-607.186	-91.787	0.088	-0.025
-606.171	-71.877	-0.198	0.074
-605.157	32.104	-0.166	0.143
-604.142	-137.031	0.383	0.044
-603.128	-88.268	-0.349	-0.104
-602.113	-28.744	0.209	-0.120
-601.098	-200.000	-0.024	-0.158
-600.084	-40.627	0.184	-0.095
-599.069	19.105	0.299	-0.239
-598.055	-200.000	0.010	-0.196
-597.040	-200.000	-0.004	0.143
-596.025	-18.534	0.096	-0.060
-595.011	3.422	0.301	-0.219
-593.996	-71.223	0.080	-0.030
-592.982	381.561	0.024	0.049
-591.967	-62.147	0.333	-0.138
-590.952	800.000	-0.054	-0.165
-589.938	800.000	-0.055	-0.165
-588.923	32.488	0.301	0.259
-587.909	-200.000	-0.014	0.366
-586.894	-18.339	-0.334	-0.208
-585.879	73.043	0.162	0.169
-584.865	51.875	-0.159	0.151
-583.850	598.622	0.090	0.223
-582.836	800.000	0.049	-0.155
-581.821	-200.000	-0.030	-0.481
-580.806	800.000	0.034	0.130
-579.792	423.791	0.123	-0.264
-578.777	-183.603	-0.127	-0.002
-577.763	-105.642	-0.383	0.087
-576.748	553.937	0.071	-0.171
-575.733	-103.403	-0.119	0.028
-574.719	-71.277	-0.195	-0.073
-573.704	-142.165	-0.205	-0.020
-572.690	-112.013	-0.095	-0.019
-571.675	-3.607	-0.083	0.057
-570.661	-174.259	-0.081	-0.002
-569.646	-200.000	0.000	0.030
-568.631	-146.133	0.296	0.026
-567.617	552.835	-0.109	0.262
-566.602	7.738	-0.118	0.088
-565.588	800.000	0.010	0.035
-564.573	-24.115	0.194	-0.116
-563.558	31.799	0.250	0.214
-562.544	-77.198	-0.165	-0.057
-561.529	709.028	0.090	-0.238
-560.515	-87.038	-0.255	-0.077
-559.500	-4.019	0.249	-0.172
-558.485	51.017	0.139	0.131
-557.471	-146.491	-0.130	-0.011
-556.456	800.000	-0.077	0.215
-555.442	-54.518	0.301	0.136
-554.427	-174.251	-0.096	-0.003
-553.412	-118.041	-0.268	-0.048
-552.398	-32.000	-0.395	-0.220
-551.383	58.498	-0.156	-0.153
-550.369	-39.708	0.154	-0.080
-549.354	116.900	0.061	0.075
-548.339	-26.194	-0.426	0.249
-547.325	171.798	-0.041	0.059
-546.310	-41.467	0.115	0.059
-545.296	800.000	0.051	-0.197
-544.281	-92.736	0.192	0.054
-543.266	-200.000	-0.005	-0.102
-542.252	519.800	0.056	-0.130
-541.237	63.929	-0.041	0.041
-540.223	-83.103	-0.363	0.116
-539.208	-200.000	-0.072	-0.372
-538.193	-71.501	0.386	0.144
-537.179	112.767	0.099	0.119
-536.164	-109.787	-0.403	0.084
-535.150	-90.625	0.049	0.014
-534.135	-127.972	0.226	-0.032
-533.121	-102.679	-0.459	0.109
-532.106	-162.643	-0.400	-0.020
-531.091	21.527	-0.125	-0.101
-530.077	-19.610	0.217	0.134
-529.062	-68.523	-0.133	-0.051
-528.048	-33.516	0.181	0.100
-527.033	62.215	0.201	0.200
-526.018	-176.174	-0.087	0.002
-525.004	800.000	-0.090	0.334
-523.989	-190.262	0.145	-0.002
-522.975	-200.000	0.022	0.215
-521.960	-13.580	-0.223	0.144
-520.945	-131.892	0.397	-0.052
-519.931	381.619	-0.105	-0.214
-518.916	133.816	-0.097	0.125
-517.902	-200.000	0.050	-0.275
-516.887	-39.863	-0.285	0.148
-515.872	-90.739	-0.223	-0.064
-514.858	-200.000	-0.001	0.204
-513.843	-200.000	-0.023	0.253
-512.829	260.738	0.131	0.225
-511.814	-77.636	0.116	-0.040
-510.799	80.962	-0.076	0.081
-509.785	-28.217	0.137	0.079
-508.770	-200.000	0.037	-0.207
-507.756	800.000	0.074	-0.208
-506.741	-64.781	0.278	-0.112
-505.726	800.000	0.042	-0.179
-504.712	-11.308	0.128	0.084
-503.697	-200.000	0.012	0.136
-502.683	59.918	-0.090	-0.089
-501.668	800.000	-0.086	0.374
-500.653	141.112	0.109	-0.143
-499.639	170.687	0.080	0.114
-498.624	25.556	-0.216	-0.178
-497.610	-98.788	0.039	-0.010
-496.595	-200.000	0.065	0.298
-495.581	-70.095	-0.200	-0.075
-494.566	-18.978	-0.063	0.039
-493.551	631.160	-0.062	-0.156
-492.537	-31.742	-0.052	-0.029
-491.522	587.273	-0.098	-0.239
-490.508	179.843	0.122	0.177
-489.493	-58.547	-0.363	0.157
-488.478	-19.748	-0.117	0.072
-487.464	-200.000	-0.021	0.313
-486.449	-41.610	0.092	0.047
-485.435	800.000	-0.113	0.415
-484.420	-172.017	0.181	0.006
-483.405	-200.000	-0.047	-0.257
-482.391	-13.532	0.208	-0.134
-481.376	-41.388	-0.214	-0.109
-480.362	-157.983	-0.121	-0.007
-479.347	-55.116	0.240	0.107
-478.332	737.380	0.065	0.172
-477.318	353.630	-0.083	-0.164
-476.303	-101.825	0.312	0.075
-475.289	-200.000	-0.019	-0.086
-474.274	54.882	-0.263	-0.252
-473.259	77.095	0.142	-0.149
-472.245	187.684	-0.024	-0.035
-471.230	265.199	0.165	0.285
-470.216	800.000	-0.023	-0.072
-469.201	-200.000	0.004	-0.218
-468.186	116.140	0.363	-0.441
-467.172	-30.063	-0.203	0.115
-466.157	-50.369	0.126	0.059
-465.143	-176.704	0.306	0.008
-464.128	-43.412	-0.306	-0.153
-463.113	-26.864	0.319	-0.185
-462.099	-200.000	-0.022	0.302
-461.084	-35.774	-0.120	-0.064
-460.070	-127.482	-0.464	-0.067
-459.055	70.327	0.203	-0.208
-458.040	427.964	0.084	0.179
-457.026	-200.000	-0.069	-0.485
-456.011	12.454	0.291	0.222
-454.997	-39.252	0.174	-0.090
-453.982	-36.366	-0.260	-0.139
-452.968	-60.147	-0.339	0.143
-451.953	8.806	0.332	0.248
-450.938	30.391	0.355	-0.301
-449.924	-67.568	-0.171	0.067
-448.909	46.356	0.241	-0.221
-447.895	38.324	0.162	-0.143
-446.880	10.465	-0.141	-0.106
-445.865	321.053	0.113	0.214
-444.851	800.000	-0.015	-0.044
-443.836	-200.000	0.023	-0.187
-442.822	-176.724	0.063	-0.002
-441.807	-119.536	-0.177	0.030
-440.792	-200.000	0.050	-0.220
-439.778	-114.148	0.455	-0.087
-438.763	99.587	-0.129	0.148
-437.749	157.807	-0.130	-0.178
-436.734	800.000	-0.111	-0.349
-435.719	-127.440	-0.079	0.011
-434.705	381.525	-0.100	-0.204
-433.690	238.683	0.062	0.103
-432.676	34.903	-0.315	-0.273
-431.661	800.000	0.023	0.092
-430.646	23.451	0.235	0.191
-429.632	-49.429	-0.276	0.130
-428.617	118.061	0.113	0.138
-427.603	-200.000	-0.041	0.194
-426.588	-32.205	0.070	-0.039
-425.573	-84.082	-0.129	-0.040
-424.559	-137.878	0.119	-0.013
-423.544	-200.000	0.055	0.327
-422.530	800.000	0.220	-0.656
-421.515	13.795	0.082	0.063
-420.500	-16.993	-0.344	-0.215
-419.486	70.081	0.107	-0.109
-418.471	290.092	-0.055	-0.098
-417.457	800.000	-0.116	-0.339
-416.442	87.757	0.050	0.055
-415.428	800.000	-0.098	0.295
-414.413	-159.201	0.226	-0.013
-413.398	173.339	-0.110	0.157
-412.384	-100.983	0.422	-0.102
-411.369	58.974	-0.106	0.103
-410.355	-28.581	0.188	-0.107
-409.340	800.000	-0.064	0.199
-408.325	13.584	-0.150	0.116
-407.311	415.450	0.088	-0.186
-406.296	-91.973	-0.186	0.052
-405.282	-46.690	0.060	-0.029
-404.267	73.888	0.116	0.120
-403.252	800.000	-0.078	-0.235
-402.238	-200.000	0.101	0.585
-401.223	-19.424	0.234	-0.144
-400.209	-167.036	-0.142	-0.006
-399.194	-200.000	-0.001	0.142
-398.179	32.260	-0.122	0.104
-397.165	-70.328	-0.271	-0.102
-396.150	-102.203	0.595	0.141
-395.136	-13.924	-0.271	0.173
-394.121	586.834	0.049	0.119
-393.106	-200.000	-0.015	-0.083
-392.092	111.295	-0.059	0.070
-391.077	52.414	-0.108	0.102
-390.063	44.842	0.299	0.272
-389.048	-116.991	-0.174	-0.031
-388.033	-200.000	0.038	0.352
-387.019	-2.966	-0.312	-0.216
-386.004	-39.299	-0.179	-0.093
-384.990	184.649	0.154	-0.225
-383.975	800.000	-0.018	-0.064
-382.960	-66.710	-0.122	-0.048
-381.946	-91.504	-0.101	-0.029
-380.931	-53.046	-0.117	-0.053
-379.917	-200.000	0.013	0.075
-378.902	-4.783	-0.160	-0.109
-377.888	-41.317	-0.222	-0.113
-376.873	-200.000	0.011	0.096
-375.858	43.264	0.211	0.191
-374.844	3.177	-0.092	-0.066
-373.829	717.806	-0.076	0.201
-372.815	-200.000	-0.006	-0.181
-371.800	288.003	0.099	0.178
-370.785	-200.000	-0.029	0.169
-369.771	-200.000	-0.013	-0.097
-368.756	-7.578	0.131	-0.088
-367.742	800.000	0.023	-0.095
-366.727	-27.792	-0.061	-0.035
-365.712	29.217	0.241	0.202
-364.698	-81.066	-0.291	0.095
-363.683	-116.764	-0.149	-0.027
-362.669	-135.898	0.130	0.015
-361.654	-200.000	-0.071	0.374
-360.639	-8.245	0.288	-0.192
-359.625	24.335	0.148	-0.121
-358.610	-200.000	-0.027	-0.198
-357.596	147.955	0.054	-0.072
-356.581	-82.007	0.108	0.035
-355.566	-200.000	0.014	-0.566
-354.552	511.564	-0.119	0.274
-353.537	-135.905	0.124	0.014
-352.523	-120.440	-0.168	0.028
-351.508	-27.329	-0.256	-0.147
-350.493	-147.283	0.223	0.019
-349.479	800.000	0.058	0.244
-348.464	388.587	0.047	-0.097
-347.450	353.952	0.111	-0.217
-346.435	64.961	0.056	-0.055
-345.420	772.625	0.074	-0.198
-344.406	27.985	0.200	-0.167
-343.391	-200.000	0.037	-0.166
-342.377	800.000	-0.115	0.356
-341.362	126.370	0.091	0.114
-340.348	118.585	0.250	-0.305
-339.333	-190.537	0.269	0.003
-338.318	-200.000	-0.007	0.045
-337.304	-6.202	0.123	-0.083
-336.289	-88.820	-0.173	0.051
-335.275	-10.549	-0.058	-0.038
-334.260	-154.689	-0.081	-0.005
-333.245	-56.434	-0.102	0.045
-332.231	11.132	0.058	0.044
-331.216	-200.000	0.048	-0.273
-330.202	-200.000	-0.020	-0.151
-329.187	104.581	0.170	0.197
-328.172	-22.341	0.367	-0.219
-327.158	-200.000	-0.043	0.307
-326.143	800.000	-0.003	0.010
-325.129	800.000	-0.054	0.149
-324.114	115.257	0.240	-0.290
-323.099	203.604	0.056	0.086
-322.085	68.116	0.173	0.175
-321.070	64.261	0.054	0.054
-320.056	-20.600	-0.201	0.122
-319.041	-30.858	-0.167	-0.093
-318.026	-200.000	0.006	0.183
-317.012	-38.360	0.237	0.124
-315.997	151.876	-0.042	-0.056
-314.983	-115.196	0.142	0.026
-313.968	40.438	0.179	-0.159
-312.953	117.010	0.105	-0.127
-311.939	248.024	-0.185	0.308
-310.924	-158.115	-0.201	0.012
-309.910	109.325	-0.154	-0.182
-308.895	104.596	0.117	-0.135
-307.880	71.460	0.044	-0.045
-306.866	35.789	0.059	-0.051
-305.851	76.724	-0.005	-0.005
-304.837	461.520	0.101	-0.222
-303.822	800.000	-0.098	0.324
-302.807	800.000	-0.039	0.151
-301.793	472.739	0.126	0.280
-300.778	-175.505	-0.142	-0.004
-299.764	-47.716	0.122	-0.058
-298.749	-51.684	-0.131	-0.060
-297.735	-200.000	0.003	-0.384
-296.720	80.189	0.056	-0.060
-295.705	-200.000	0.010	-0.093
-294.691	800.000	0.028	0.102
-293.676	-200.000	-0.002	0.143
-292.662	113.129	-0.136	0.162
-291.647	86.988	0.066	0.072
-290.632	-200.000	0.026	0.395
-289.618	-200.000	0.007	0.115
-288.603	32.013	-0.144	0.123
-287.589	-96.481	-0.221	-0.058
-286.574	76.211	0.038	-0.039
-285.559	-42.664	-0.304	0.152
-284.545	-20.927	0.094	-0.056
-283.530	-24.087	-0.101	-0.059
-282.516	-112.260	-0.259	-0.051
-281.501	100.298	0.090	-0.103
-280.486	133.861	-0.052	0.067
-279.472	-33.672	0.092	0.050
-278.457	-62.478	-0.157	-0.064
-277.443	101.058	0.215	-0.246
-276.428	-44.504	0.151	0.074
-275.413	-121.098	0.066	0.011
-274.399	-121.579	-0.226	0.037
-273.384	133.297	-0.056	0.071
-272.370	655.525	0.109	0.275
-271.355	-67.995	0.038	0.015
-270.340	-164.981	0.140	0.006
-269.326	-51.048	0.113	0.052
-268.311	800.000	0.088	0.360
-267.297	-126.503	0.101	-0.015
-266.282	-95.748	-0.336	0.088
-265.267	800.000	0.083	0.297
-264.253	-57.469	-0.420	-0.182
-263.238	800.000	0.030	0.098
-262.224	52.942	-0.230	-0.216
-261.209	98.064	0.056	0.064
-260.195	-41.534	0.363	0.184
-259.180	-93.021	-0.328	-0.090
-258.165	137.416	0.117	0.150
-257.151	-89.621	-0.449	0.130
-256.136	-32.818	0.210	0.115
-255.122	27.560	0.164	-0.136
-254.107	-83.985	0.159	0.050
-253.092	800.000	-0.106	-0.383
-252.078	166.527	0.113	-0.158
-251.063	-48.065	-0.246	-0.117
-250.049	800.000	-0.005	-0.017
-249.034	-200.000	0.038	0.192
-248.019	-83.730	-0.191	-0.060
-247.005	800.000	-0.063	-0.198
-245.990	449.444	-0.162	-0.352
-244.976	-60.839	-0.300	-0.125
-243.961	285.359	0.134	0.237
-242.946	-140.200	0.202	0.021
-241.932	5.498	-0.372	0.270
-240.917	425.611	0.064	0.135
-239.903	800.000	-0.077	-0.235
-238.888	429.101	-0.051	-0.109
-237.873	-89.569	0.334	0.096
-236.859	-35.774	0.147	0.078
-235.844	-200.000	0.017	0.128
-234.830	64.069	0.209	0.207
-233.815	-43.200	-0.152	0.076
-232.800	-108.210	0.122	-0.026
-231.786	-36.794	0.120	0.063
-230.771	-134.631	0.426	-0.051
-229.757	512.899	0.053	0.122
-228.742	44.230	-0.105	-0.095
-227.727	-116.989	0.018	-0.003
-226.713	-103.264	-0.064	-0.015
-225.698	-108.116	0.148	-0.032
-224.684	-200.000	-0.044	-0.199
-223.669	220.183	0.198	0.311
-222.655	-200.000	-0.031	0.135
-221.640	-159.863	-0.109	-0.006
-220.625	800.000	0.020	-0.061
-219.611	31.043	-0.259	-0.219
-218.596	-90.423	-0.552	-0.157
-217.582	497.414	0.151	-0.342
-216.567	-101.353	-0.326	-0.078
-215.552	395.606	-0.165	0.337
-214.538	-200.000	-0.077	0.681
-213.523	800.000	-0.083	-0.338
-212.509	-137.729	0.189	0.021
-211.494	-83.470	0.276	-0.087
-210.479	-200.000	-0.020	0.216
-209.465	-200.000	-0.018	0.422
-208.450	361.164	0.123	0.241
-207.436	-200.000	0.031	-0.191
-206.421	-55.277	-0.288	-0.127
-205.406	-129.914	0.113	0.015
-204.392	800.000	0.083	-0.353
-203.377	800.000	-0.058	0.224
-202.363	-54.406	-0.192	-0.085
-201.348	-200.000	0.010	-0.101
-200.333	-200.000	0.019	0.171
-199.319	314.964	-0.190	0.352
-198.304	87.327	-0.086	-0.093
-197.290	-200.000	-0.081	-0.439
-196.275	-117.541	-0.094	0.017
-195.260	-125.167	-0.151	-0.023
-194.246	800.000	-0.078	-0.216
-193.231	-49.176	0.490	-0.230
-192.217	0.774	-0.542	0.381
-191.202	800.000	0.124	-0.385
-190.187	-26.265	0.366	0.211
-189.173	800.000	-0.094	-0.315
-188.158	138.677	0.130	0.168
-187.144	-163.179	0.134	-0.006
-186.129	-63.132	-0.107	-0.043
-185.114	800.000	-0.075	0.236
-184.100	228.060	-0.149	0.237
-183.085	3.612	-0.210	0.150
-182.071	31.185	0.054	-0.045
-181.056	275.635	-0.067	-0.116
-180.042	-200.000	0.022	-0.190
-179.027	75.478	0.146	-0.151
-178.012	57.699	-0.203	0.195
-176.998	630.297	0.124	-0.307
-175.983	-55.048	0.058	-0.025
-174.969	-200.000	0.024	0.195
-173.954	-26.067	0.377	-0.217
-172.939	-41.305	-0.222	-0.112
-171.925	531.848	-0.079	0.183
-170.910	-141.765	0.281	0.028
-169.896	397.042	-0.092	-0.188
-168.881	800.000	-0.124	-0.504
-167.866	-134.865	-0.018	-0.002
-166.852	-23.274	-0.179	-0.105
-165.837	-200.000	-0.417	-0.002
-164.823	-200.000	-0.008	0.073
-163.808	456.865	-0.091	0.197
-162.793	-33.180	-0.267	0.145
-161.779	-21.237	0.332	-0.199
-160.764	-124.013	0.416	-0.064
-159.750	-15.480	0.213	0.133
-158.735	111.300	-0.270	0.319
-157.720	800.000	-0.054	0.196
-156.706	-5.209	0.275	0.185
-155.691	232.612	0.322	-0.519
-154.677	-49.685	-0.172	0.080
-153.662	-148.787	-0.257	-0.020
-152.647	30.238	-0.185	-0.155
-151.633	-125.960	-0.072	0.011
-150.618	188.676	-0.054	0.080
-149.604	800.000	-0.107	0.334
-148.589	278.126	-0.069	0.121
-147.574	18.579	0.127	-0.099
-146.560	139.911	-0.202	0.261
-145.545	119.595	-0.078	0.095
-144.531	-16.298	-0.014	-0.008
-143.516	37.352	0.226	-0.197
-142.502	-200.000	0.013	0.097
-141.487	-200.000	-0.023	-0.181
-140.472	-133.443	0.317	-0.039
-139.458	-2.750	0.193	0.132
-138.443	-200.000	0.002	0.139
-137.429	82.191	-0.138	-0.146
-136.414	-50.662	0.083	-0.038
-135.399	-86.088	0.387	-0.117
-134.385	-200.000	-0.015	0.305
-133.370	-66.269	0.117	0.046
-132.356	194.299	-0.202	-0.299
-131.341	53.089	0.082	0.077
-130.326	-164.273	0.189	0.009
-129.312	-187.604	-0.209	0.003
-128.297	10.108	0.196	0.146
-127.283	-67.142	0.324	0.125
-126.268	90.322	-0.039	0.043
-125.253	-61.635	0.474	0.195
-124.239	232.338	-0.161	-0.258
-123.224	-9.021	0.304	0.199
-122.210	-200.000	0.019	-0.149
-121.195	-20.759	0.128	0.077
