DTS Sentinel unit serial number:	SN413079Multiplexer serial number:	ORYXHardware model number:	OX4-SRSoftware version number:	ORYX F/W v4.00 Oryx Data Collector v3.7.2.0data status	okinstallation	princeton_trtdifferential loss correction	single-endedforward channel	channel 1reverse channel	N/Adate	2019/09/18time	04:46:35forward acquisition time	60.00reverse acquisition time	0.00gamma	496.2192k internal	0.2339k external	0.2339temperature offset calibration	0.9971default loss term (dB/km)	0.3790temperature slope calibration	1.0000multiplexer offset coefficient	1.0000multiplexer slope coefficient	1.0000fibre end	0.00T internal ref (°C)	23.44T ext. ref 1 (°C)	0.18T ext. ref 2 (°C)	17.86length (m)	temperature (°C)	Stokes	anti-Stokes-747.200	63.989	0.294	0.297
-746.185	-110.233	-0.220	-0.046
-745.171	-91.104	0.449	0.129
-744.156	88.548	-0.055	-0.061
-743.142	267.940	-0.120	-0.211
-742.127	-2.821	-0.288	0.202
-741.112	163.482	0.255	0.359
-740.098	328.179	-0.101	0.195
-739.083	-43.676	-0.256	-0.129
-738.069	-124.247	0.264	0.041
-737.054	-200.000	-0.018	0.283
-736.039	91.604	0.206	0.232
-735.025	49.227	0.133	0.126
-734.010	-200.000	-0.033	0.197
-732.996	-56.630	-0.499	-0.221
-731.981	-169.230	0.170	0.006
-730.966	-121.527	0.160	0.027
-729.952	-100.148	-0.393	-0.098
-728.937	-59.518	0.327	-0.141
-727.923	-88.040	-0.141	-0.042
-726.908	644.894	-0.207	-0.528
-725.894	288.250	-0.195	-0.354
-724.879	-87.595	-0.216	0.066
-723.864	800.000	0.035	0.124
-722.850	-120.500	0.258	-0.044
-721.835	-98.842	-0.273	-0.070
-720.821	-15.699	-0.175	0.112
-719.806	-140.307	-0.364	0.038
-718.791	800.000	0.103	-0.319
-717.777	100.095	-0.154	-0.178
-716.762	401.108	0.119	0.251
-715.748	-103.866	0.222	-0.052
-714.733	447.676	-0.106	0.233
-713.718	-128.782	-0.369	-0.052
-712.704	100.404	0.258	0.300
-711.689	25.496	-0.309	0.257
-710.675	-162.125	0.202	-0.010
-709.660	-110.204	0.108	0.022
-708.645	-101.945	0.418	0.101
-707.631	-23.195	-0.189	-0.114
-706.616	598.449	-0.034	0.084
-705.602	-61.893	0.187	-0.078
-704.587	-13.498	0.250	-0.162
-703.572	385.878	-0.074	-0.153
-702.558	97.277	-0.082	-0.094
-701.543	-112.152	-0.294	-0.059
-700.529	12.620	-0.182	0.141
-699.514	-200.000	0.051	-0.237
-698.499	800.000	0.040	0.122
-697.485	401.444	0.058	-0.122
-696.470	800.000	-0.022	0.062
-695.456	-200.000	-0.025	0.137
-694.441	800.000	0.074	0.237
-693.426	-136.800	0.110	0.013
-692.412	-200.000	-0.078	-0.448
-691.397	-109.753	-0.341	-0.072
-690.383	-75.190	-0.184	0.066
-689.368	436.845	0.055	0.120
-688.354	-200.000	-0.044	0.457
-687.339	-179.714	-0.251	-0.005
-686.324	336.504	0.096	0.187
-685.310	83.668	0.100	0.109
-684.295	109.923	-0.115	-0.138
-683.281	800.000	0.029	0.112
-682.266	800.000	0.056	-0.176
-681.251	442.505	-0.061	0.134
-680.237	800.000	-0.139	0.396
-679.222	-157.317	-0.090	-0.005
-678.208	-200.000	-0.003	-0.147
-677.193	671.721	-0.034	-0.088
-676.178	-200.000	0.005	-0.177
-675.164	89.275	-0.235	-0.262
-674.149	46.230	0.139	0.129
-673.135	-200.000	0.052	0.251
-672.120	180.736	-0.143	0.210
-671.105	-39.308	0.080	0.042
-670.091	800.000	0.033	-0.098
-669.076	-200.000	-0.017	0.211
-668.062	-200.000	-0.030	0.203
-667.047	-128.263	-0.258	-0.037
-666.032	200.676	-0.113	-0.173
-665.018	800.000	0.032	-0.121
-664.003	-96.121	0.133	-0.035
-662.989	-76.673	-0.166	0.058
-661.974	144.853	0.239	0.320
-660.959	-144.333	-0.184	-0.017
-659.945	107.766	0.088	-0.105
-658.930	-155.518	0.264	-0.017
-657.916	35.763	0.199	0.175
-656.901	-200.000	-0.037	0.190
-655.886	91.484	-0.027	0.030
-654.872	130.869	0.086	0.111
-653.857	-122.084	-0.212	-0.035
-652.843	27.863	-0.085	-0.072
-651.828	6.953	0.045	0.033
-650.814	755.963	-0.045	0.121
-649.799	-39.686	-0.189	-0.099
-648.784	-74.805	-0.281	-0.101
-647.770	-200.000	0.059	-0.371
-646.755	800.000	-0.063	-0.205
-645.741	-200.000	0.019	-0.182
-644.726	-200.000	-0.002	-0.029
-643.711	-200.000	0.100	-0.511
-642.697	-199.185	-0.129	-0.001
-641.682	800.000	-0.030	-0.088
-640.668	63.426	-0.175	-0.175
-639.653	-4.609	0.170	-0.117
-638.638	-171.618	0.326	-0.011
-637.624	47.640	-0.046	-0.043
-636.609	-200.000	-0.059	-0.262
-635.595	-74.951	-0.357	0.128
-634.580	800.000	0.040	-0.111
-633.565	-78.651	-0.296	-0.101
-632.551	-111.115	-0.328	0.067
-631.536	-10.664	0.248	-0.164
-630.522	-117.318	-0.196	0.036
-629.507	-11.663	0.246	0.162
-628.492	800.000	0.117	-0.423
-627.478	375.341	-0.120	0.244
-626.463	760.126	-0.113	-0.305
-625.449	800.000	0.065	-0.246
-624.434	313.835	0.052	-0.098
-623.419	-200.000	0.013	-0.272
-622.405	800.000	0.017	0.047
-621.390	-200.000	-0.076	0.546
-620.376	-200.000	0.028	-0.154
-619.361	31.491	-0.162	-0.139
-618.346	-200.000	-0.020	-0.247
-617.332	-200.000	-0.029	0.281
-616.317	-117.653	-0.185	-0.033
-615.303	2.833	-0.347	0.251
-614.288	75.818	0.153	0.161
-613.273	-108.243	-0.283	-0.061
-612.259	-138.718	0.308	0.034
-611.244	-200.000	0.020	0.269
-610.230	-119.334	0.452	-0.078
-609.215	515.557	-0.199	-0.465
-608.201	-110.328	0.301	-0.063
-607.186	-200.000	0.044	0.386
-606.171	-200.000	0.055	-0.269
-605.157	-137.021	-0.172	0.020
-604.142	-52.884	-0.290	-0.133
-603.128	-200.000	-0.006	-0.053
-602.113	-32.346	-0.303	0.169
-601.098	99.428	-0.171	-0.197
-600.084	-178.781	0.102	-0.002
-599.069	800.000	0.073	0.209
-598.055	800.000	-0.090	0.374
-597.040	-58.169	0.420	0.183
-596.025	462.055	-0.117	-0.260
-595.011	297.745	-0.124	-0.228
-593.996	58.122	-0.057	0.056
-592.982	447.395	0.153	0.337
-591.967	-93.385	0.194	-0.054
-590.952	800.000	0.112	-0.404
-589.938	-15.618	-0.065	-0.042
-588.923	542.747	-0.060	-0.142
-587.909	-105.687	0.148	0.033
-586.894	422.704	0.070	-0.150
-585.879	-200.000	-0.039	0.205
-584.865	-124.120	0.245	0.038
-583.850	69.129	0.203	-0.208
-582.836	-34.023	-0.464	0.254
-581.821	-82.315	0.256	-0.083
-580.806	800.000	0.082	-0.325
-579.792	-200.000	0.022	0.219
-578.777	-200.000	-0.010	-0.267
-577.763	800.000	-0.006	-0.019
-576.748	505.576	-0.162	0.375
-575.733	-200.000	-0.005	0.094
-574.719	-200.000	-0.010	0.221
-573.704	160.458	-0.134	0.186
-572.690	-200.000	0.001	0.206
-571.675	-23.961	-0.420	0.250
-570.661	138.895	-0.121	0.158
-569.646	-25.433	0.201	0.118
-568.631	-86.027	-0.034	-0.011
-567.617	296.163	0.146	-0.267
-566.602	-200.000	-0.033	0.305
-565.588	-77.346	0.232	-0.080
-564.573	622.843	0.077	-0.194
-563.558	-40.406	-0.148	-0.077
-562.544	68.488	0.168	-0.172
-561.529	800.000	-0.054	-0.154
-560.515	-53.939	0.320	0.145
-559.500	-2.838	-0.134	-0.094
-558.485	-200.000	-0.005	-0.293
-557.471	49.571	0.198	0.186
-556.456	800.000	-0.065	0.220
-555.442	77.030	0.220	0.233
-554.427	-200.000	-0.079	0.453
-553.412	728.229	0.067	-0.179
-552.398	-38.925	0.104	0.054
-551.383	-33.916	-0.296	-0.162
-550.369	157.859	-0.060	-0.082
-549.354	-98.695	0.338	-0.086
-548.339	-200.000	-0.026	-0.376
-547.325	78.494	-0.157	0.167
-546.310	19.895	0.116	-0.093
-545.296	-18.872	-0.168	-0.104
-544.281	-200.000	-0.028	-0.471
-543.266	-200.000	0.038	-0.185
-542.252	298.434	-0.087	0.159
-541.237	621.515	-0.062	-0.155
-540.223	-200.000	0.009	0.296
-539.208	-95.439	-0.188	0.050
-538.193	0.588	-0.189	-0.135
-537.179	14.195	-0.160	-0.124
-536.164	375.988	0.175	0.355
-535.150	151.891	-0.130	0.176
-534.135	800.000	0.056	-0.229
-533.121	242.695	0.042	0.070
-532.106	153.120	0.078	-0.106
-531.091	95.672	0.162	0.184
-530.077	-200.000	0.014	-0.221
-529.062	-200.000	-0.050	0.407
-528.048	-200.000	0.048	0.257
-527.033	-42.509	-0.272	-0.138
-526.018	800.000	0.053	-0.171
-525.004	65.878	-0.224	-0.226
-523.989	-14.515	-0.098	-0.062
-522.975	323.854	-0.188	-0.357
-521.960	134.564	0.259	-0.334
-520.945	-90.269	-0.067	0.019
-519.931	12.560	-0.161	-0.124
-518.916	12.710	0.219	0.168
-517.902	-144.372	0.213	0.020
-516.887	-200.000	-0.043	-0.347
-515.872	296.258	-0.016	0.030
-514.858	-51.159	-0.247	0.115
-513.843	164.022	0.199	0.279
-512.829	-80.786	0.120	0.040
-511.814	127.409	0.107	0.135
-510.799	508.656	-0.064	0.149
-509.785	-9.565	-0.245	-0.162
-508.770	-67.975	0.268	-0.104
-507.756	-136.767	0.342	-0.039
-506.741	156.080	-0.217	0.297
-505.726	-42.269	0.090	-0.046
-504.712	177.457	-0.068	0.098
-503.697	800.000	0.077	0.240
-502.683	800.000	-0.056	-0.162
-501.668	-52.633	-0.311	-0.143
-500.653	-83.692	-0.221	0.070
-499.639	-131.087	0.440	-0.058
-498.624	-106.218	-0.076	-0.017
-497.610	800.000	0.133	0.436
-496.595	122.186	0.127	-0.157
-495.581	-200.000	-0.138	0.000
-494.566	79.734	0.313	0.334
-493.551	-168.462	-0.081	0.003
-492.537	-200.000	0.043	0.514
-491.522	-200.000	0.026	0.242
-490.508	114.633	-0.089	-0.108
-489.493	800.000	-0.090	-0.335
-488.478	-79.929	0.217	0.072
-487.464	215.838	0.200	0.316
-486.449	59.289	-0.248	0.242
-485.435	-200.000	0.030	-0.146
-484.420	-22.577	0.363	0.218
-483.405	761.121	0.138	0.372
-482.391	-200.000	0.017	-0.219
-481.376	-200.000	-0.024	0.119
-480.362	352.235	0.040	-0.080
-479.347	402.238	-0.089	0.185
-478.332	102.148	0.194	-0.224
-477.318	61.739	0.148	0.147
-476.303	-200.000	-0.075	-0.340
-475.289	-200.000	-0.046	-0.314
-474.274	-200.000	0.070	-0.317
-473.259	800.000	-0.040	0.140
-472.245	-109.469	-0.237	-0.050
-471.230	403.790	0.118	0.247
-470.216	800.000	-0.075	-0.245
-469.201	-39.766	0.096	-0.050
-468.186	-177.348	-0.311	0.008
-467.172	-65.342	0.231	0.092
-466.157	-200.000	0.025	0.158
-465.143	629.350	-0.047	0.119
-464.128	227.941	-0.014	0.023
-463.113	37.252	0.151	0.133
-462.099	-200.000	-0.006	0.544
-461.084	426.843	0.129	0.276
-460.070	330.195	-0.050	-0.096
-459.055	-8.188	-0.102	-0.068
-458.040	-21.207	-0.172	-0.104
-457.026	800.000	-0.067	0.285
-456.011	800.000	0.050	0.144
-454.997	49.471	0.108	0.101
-453.982	800.000	0.005	0.016
-452.968	47.256	-0.196	-0.181
-451.953	-75.263	-0.345	0.122
-450.938	800.000	-0.019	0.080
-449.924	-36.482	-0.066	-0.035
-448.909	-108.698	-0.250	0.053
-447.895	-114.394	-0.179	-0.034
-446.880	-200.000	0.037	0.240
-445.865	16.795	0.148	0.116
-444.851	-200.000	0.015	0.245
-443.836	-139.153	-0.186	0.020
-442.822	-200.000	0.054	-0.470
-441.807	-3.550	0.289	0.199
-440.792	-200.000	0.016	-0.088
-439.778	-200.000	-0.032	0.310
-438.763	-37.095	-0.416	0.221
-437.749	462.880	0.108	-0.239
-436.734	-65.659	-0.280	-0.111
-435.719	104.154	0.189	-0.220
-434.705	153.681	-0.054	0.074
-433.690	800.000	0.068	-0.187
-432.676	-90.996	0.438	0.125
-431.661	800.000	0.049	-0.165
-430.646	110.965	0.107	-0.127
-429.632	-66.491	0.354	-0.139
-428.617	-200.000	-0.032	-0.141
-427.603	-69.299	-0.270	-0.103
-426.588	-57.167	0.302	-0.132
-425.573	-18.896	-0.144	0.089
-424.559	-65.405	0.190	0.076
-423.544	93.850	-0.121	-0.136
-422.530	-200.000	0.011	0.133
-421.515	191.588	-0.168	-0.251
-420.500	800.000	-0.015	-0.044
-419.486	87.561	-0.173	0.189
-418.471	-200.000	0.024	-0.344
-417.457	-24.648	0.211	0.124
-416.442	-86.632	0.061	0.019
-415.428	-200.000	-0.052	0.250
-414.413	-35.999	-0.199	0.107
-413.398	-200.000	-0.024	-0.373
-412.384	21.789	-0.119	0.096
-411.369	-131.654	-0.368	-0.048
-410.355	-200.000	-0.038	0.459
-409.340	550.685	0.104	0.247
-408.325	-79.168	-0.369	0.124
-407.311	311.540	-0.146	0.270
-406.296	11.296	-0.290	0.220
-405.282	800.000	0.083	0.269
-404.267	98.098	0.258	0.294
-403.252	800.000	-0.055	-0.225
-402.238	-200.000	-0.015	-0.353
-401.223	22.129	0.083	0.067
-400.209	800.000	0.012	0.047
-399.194	-200.000	-0.048	0.345
-398.179	37.385	-0.182	-0.159
-397.165	339.116	0.154	-0.297
-396.150	800.000	0.029	-0.091
-395.136	-53.163	-0.072	0.033
-394.121	800.000	-0.063	-0.225
-393.106	-1.246	-0.236	-0.165
-392.092	-57.199	0.072	0.032
-391.077	-136.864	0.344	0.039
-390.063	-116.425	-0.268	0.049
-389.048	-52.692	0.266	-0.122
-388.033	-77.947	0.024	0.008
-387.019	800.000	0.044	-0.139
-386.004	-99.490	0.238	0.059
-384.990	363.379	-0.091	-0.181
-383.975	443.202	-0.104	-0.225
-382.960	460.442	-0.172	-0.379
-381.946	8.402	0.053	-0.039
-380.931	-77.934	-0.248	-0.085
-379.917	-200.000	0.005	-0.218
-378.902	30.985	0.207	-0.176
-377.888	18.569	-0.193	-0.153
-376.873	800.000	-0.031	-0.090
-375.858	-200.000	0.082	0.381
-374.844	800.000	0.021	0.080
-373.829	-144.412	-0.104	-0.010
-372.815	-121.051	0.152	-0.025
-371.800	-111.786	0.193	0.039
-370.785	369.441	-0.204	-0.408
-369.771	-54.435	0.131	-0.059
-368.756	-16.884	-0.189	-0.118
-367.742	-200.000	0.051	-0.334
-366.727	-42.271	-0.116	0.059
-365.712	-200.000	-0.044	-0.323
-364.698	-200.000	-0.000	0.337
-363.683	279.649	-0.237	0.417
-362.669	-180.609	-0.268	-0.005
-361.654	-200.000	-0.052	-0.336
-360.639	86.236	0.177	0.193
-359.625	800.000	0.090	0.266
-358.610	-200.000	0.021	-0.134
-357.596	-87.834	0.236	0.070
-356.581	63.206	-0.083	-0.082
-355.566	-89.833	0.354	-0.102
-354.552	143.049	-0.169	0.222
-353.537	-16.540	0.156	-0.098
-352.523	-200.000	-0.000	-0.087
-351.508	-115.556	0.367	-0.068
-350.493	800.000	-0.059	0.176
-349.479	163.596	0.065	-0.090
-348.464	64.775	0.091	-0.091
-347.450	361.674	0.056	-0.112
-346.435	-76.345	0.139	-0.048
-345.420	-86.226	-0.154	0.047
-344.406	-200.000	0.018	-0.201
-343.391	-16.345	-0.153	0.096
-342.377	-200.000	-0.022	0.100
-341.362	169.482	-0.131	-0.185
-340.348	-58.960	-0.074	-0.031
-339.333	-103.802	0.137	0.032
-338.318	800.000	0.050	0.139
-337.304	386.708	-0.016	-0.032
-336.289	27.274	0.241	-0.200
-335.275	-67.160	-0.130	0.050
-334.260	53.825	-0.020	0.019
-333.245	800.000	0.085	0.349
-332.231	-53.249	0.360	0.163
-331.216	61.981	-0.500	0.492
-330.202	328.658	-0.074	-0.140
-329.187	189.342	-0.201	0.297
-328.172	242.166	0.136	-0.225
-327.158	66.592	-0.173	0.173
-326.143	82.372	0.201	-0.215
-325.129	800.000	-0.034	0.126
-324.114	-85.114	0.153	-0.047
-323.099	104.331	0.183	-0.213
-322.085	27.702	0.224	0.186
-321.070	-144.415	0.407	-0.037
-320.056	91.949	-0.228	-0.253
-319.041	-200.000	-0.019	-0.191
-318.026	177.459	0.184	-0.264
-317.012	800.000	0.027	0.114
-315.997	-94.034	0.182	-0.049
-314.983	364.891	0.231	-0.459
-313.968	476.612	0.079	0.176
-312.953	367.258	-0.065	-0.130
-311.939	-14.061	-0.052	-0.033
-310.924	-178.791	-0.071	0.002
-309.910	10.884	-0.107	0.080
-308.895	33.104	0.156	-0.134
-307.880	-200.000	0.003	-0.171
-306.866	-200.000	0.028	-0.326
-305.851	-98.174	-0.056	0.014
-304.837	6.083	-0.355	-0.260
-303.822	-19.893	0.125	0.076
-302.807	-200.000	0.010	-0.113
-301.793	-15.647	0.238	0.150
-300.778	-200.000	-0.033	-0.150
-299.764	273.797	0.210	-0.366
-298.749	-61.481	0.221	0.091
-297.735	-37.086	-0.359	0.190
-296.720	-116.085	-0.275	-0.050
-295.705	800.000	-0.086	-0.348
-294.691	-200.000	0.003	0.413
-293.676	-124.948	0.023	-0.004
-292.662	-1.049	-0.232	-0.162
-291.647	148.877	-0.092	-0.123
-290.632	-200.000	-0.008	-0.282
-289.618	-74.018	-0.256	0.091
-288.603	-176.066	-0.332	-0.009
-287.589	-200.000	0.007	-0.245
-286.574	-185.729	-0.148	0.002
-285.559	-65.910	0.276	0.109
-284.545	-48.921	0.173	0.082
-283.530	-23.430	-0.340	0.201
-282.516	-170.260	0.242	0.008
-281.501	-0.025	-0.089	0.062
-280.486	-158.229	-0.112	-0.006
-279.472	-158.798	0.230	0.013
-278.457	-121.967	0.086	0.014
-277.443	800.000	0.183	0.571
-276.428	242.542	0.119	0.197
-275.413	-67.295	0.032	0.013
-274.399	-200.000	0.010	-0.046
-273.384	20.775	0.195	0.156
-272.370	800.000	-0.026	-0.099
-271.355	-200.000	-0.043	0.229
-270.340	-1.837	-0.150	0.104
-269.326	73.283	0.137	0.141
-268.311	-20.499	-0.193	-0.117
-267.297	44.123	0.236	0.213
-266.282	-89.125	0.193	0.056
-265.267	-85.666	0.241	0.074
-264.253	-143.651	0.330	0.031
-263.238	-107.630	0.056	-0.012
-262.224	-41.196	-0.353	-0.179
-261.209	479.174	0.006	-0.014
-260.195	-103.303	0.036	-0.008
-259.180	69.525	-0.236	-0.240
-258.165	-200.000	0.012	0.129
-257.151	346.222	0.036	-0.071
-256.136	288.232	0.083	-0.148
-255.122	210.428	0.219	0.338
-254.107	-200.000	0.018	-0.091
-253.092	20.570	0.095	-0.075
-252.078	-200.000	-0.067	0.406
-251.063	596.845	-0.068	-0.166
-250.049	282.962	0.093	-0.164
-249.034	-128.437	-0.304	-0.043
-248.019	-200.000	0.004	0.035
-247.005	6.691	0.369	0.270
-245.990	366.519	-0.055	-0.110
-244.976	-114.542	-0.241	-0.045
-243.961	544.494	-0.072	-0.169
-242.946	-113.595	0.436	-0.084
-241.932	-110.721	-0.327	-0.067
-240.917	-101.631	-0.309	-0.074
-239.903	-94.955	-0.243	0.065
-238.888	-200.000	0.060	0.299
-237.873	-200.000	0.003	0.147
-236.859	-200.000	-0.075	0.510
-235.844	-116.179	0.092	0.017
-234.830	-200.000	0.020	0.196
-233.815	-78.665	-0.160	-0.054
-232.800	-200.000	0.081	-0.399
-231.786	185.211	0.197	0.287
-230.771	-13.789	-0.055	-0.035
-229.757	-200.000	0.029	0.392
-228.742	-64.994	-0.371	0.148
-227.727	-1.207	-0.204	0.142
-226.713	-200.000	0.065	0.389
-225.698	-20.968	0.125	-0.075
-224.684	-38.454	0.131	0.068
-223.669	800.000	0.058	-0.217
-222.655	800.000	0.036	-0.132
-221.640	242.377	0.162	0.267
-220.625	179.734	0.056	0.080
-219.611	-65.535	0.221	0.087
-218.596	-52.473	0.271	-0.123
-217.582	800.000	0.125	0.451
-216.567	-71.841	-0.104	0.038
-215.552	-13.697	-0.186	0.118
-214.538	60.154	0.173	0.168
-213.523	-200.000	-0.002	-0.102
-212.509	509.553	0.090	-0.205
-211.494	-200.000	0.063	0.314
-210.479	-200.000	0.027	0.251
-209.465	331.561	0.113	0.213
-208.450	-95.810	0.163	0.043
-207.436	461.190	0.104	-0.229
-206.421	-32.208	0.103	0.057
-205.406	-110.094	-0.131	-0.027
-204.392	-93.205	-0.230	-0.063
-203.377	800.000	0.045	-0.124
-202.363	242.618	0.065	0.107
-201.348	-1.457	-0.142	-0.098
-200.333	69.275	0.171	0.172
-199.319	184.015	-0.049	-0.072
-198.304	96.326	-0.148	-0.166
-197.290	228.603	0.113	-0.181
-196.275	-147.610	-0.348	-0.029
-195.260	1.169	-0.097	0.069
-194.246	30.692	-0.043	-0.036
-193.231	-151.653	0.136	-0.010
-192.217	238.690	0.119	-0.194
-191.202	-46.315	0.719	-0.347
-190.187	-68.838	-0.016	-0.006
-189.173	-146.832	-0.249	-0.021
-188.158	-200.000	-0.036	0.408
-187.144	-44.594	0.177	-0.087
-186.129	-100.336	-0.451	-0.110
-185.114	26.086	-0.031	-0.026
-184.100	4.471	-0.142	-0.102
-183.085	-200.000	0.009	-0.052
-182.071	291.041	-0.124	-0.222
-181.056	8.860	0.273	-0.202
-180.042	800.000	0.111	0.357
-179.027	57.445	-0.147	-0.141
-178.012	207.890	-0.098	-0.151
-176.998	-64.545	-0.522	-0.208
-175.983	-200.000	-0.073	0.431
-174.969	107.557	-0.129	-0.151
-173.954	-8.178	0.347	-0.229
-172.939	800.000	0.069	-0.190
-171.925	68.864	0.239	0.241
-170.910	76.960	-0.143	0.149
-169.896	-119.026	0.075	0.013
-168.881	96.679	0.029	0.033
-167.866	-61.684	-0.248	0.102
-166.852	-76.628	-0.136	-0.047
-165.837	800.000	0.091	0.269
-164.823	461.971	-0.092	0.202
-163.808	-5.693	0.202	0.136
-162.793	-153.196	0.213	0.015
-161.779	145.161	0.106	-0.139
-160.764	1.448	-0.200	0.141
-159.750	-200.000	0.148	-0.001
-158.735	-105.120	0.137	0.031
-157.720	-88.612	0.204	0.059
-156.706	247.445	0.154	-0.256
-155.691	-187.542	-0.379	0.005
-154.677	-96.351	-0.345	-0.089
-153.662	-200.000	-0.003	0.093
-152.647	178.781	0.149	-0.213
-151.633	233.091	-0.166	0.268
-150.618	125.304	-0.113	-0.140
-149.604	800.000	0.032	0.110
-148.589	740.250	-0.103	-0.272
-147.574	-200.000	0.041	0.190
-146.560	800.000	0.036	-0.134
-145.545	-79.045	0.500	-0.166
-144.531	-200.000	0.032	-0.155
-143.516	-200.000	-0.007	0.213
-142.502	-200.000	-0.008	-0.075
-141.487	82.901	-0.135	0.143
-140.472	800.000	-0.064	0.253
-139.458	-128.525	-0.120	-0.017
-138.443	21.096	-0.073	0.058
-137.429	201.063	-0.058	-0.087
-136.414	141.534	-0.082	-0.107
-135.399	663.372	0.091	-0.231
-134.385	-149.058	-0.133	0.010
-133.370	113.063	0.287	0.341
-132.356	-33.749	-0.050	-0.027
-131.341	-76.916	-0.377	-0.129
-130.326	32.715	0.108	0.092
-129.312	55.202	0.196	0.185
-128.297	79.114	0.126	0.132
-127.283	-112.961	0.130	-0.025
-126.268	369.138	0.059	-0.117
-125.253	-11.590	0.073	0.047
-124.239	-94.804	-0.236	-0.063
-123.224	47.102	0.062	-0.056
-122.210	218.959	0.065	-0.101
