DTS Sentinel unit serial number:	SN413079Multiplexer serial number:	ORYXHardware model number:	OX4-SRSoftware version number:	ORYX F/W v4.00 Oryx Data Collector v3.7.2.0data status	okinstallation	princeton_trtdifferential loss correction	single-endedforward channel	channel 1reverse channel	N/Adate	2019/09/18time	16:10:35forward acquisition time	60.00reverse acquisition time	0.00gamma	496.2192k internal	0.2292k external	0.2292temperature offset calibration	0.9994default loss term (dB/km)	0.3790temperature slope calibration	1.0000multiplexer offset coefficient	1.0000multiplexer slope coefficient	1.0000fibre end	0.00T internal ref (°C)	38.06T ext. ref 1 (°C)	0.81T ext. ref 2 (°C)	36.90length (m)	temperature (°C)	Stokes	anti-Stokes-747.200	-200.000	0.024	0.282
-746.185	-200.000	-0.069	0.511
-745.171	209.232	-0.326	0.523
-744.156	-151.962	0.118	-0.009
-743.142	-200.000	-0.038	0.332
-742.127	-200.000	-0.114	0.566
-741.112	-44.418	-0.072	0.037
-740.098	-200.000	-0.010	-0.093
-739.083	800.000	0.017	-0.054
-738.069	412.673	-0.106	0.231
-737.054	-170.003	0.200	0.007
-736.039	133.090	0.130	0.172
-735.025	-200.000	0.002	0.155
-734.010	-74.080	-0.065	-0.024
-732.996	-200.000	-0.022	0.202
-731.981	-89.393	0.051	-0.015
-730.966	-129.163	-0.406	0.058
-729.952	7.598	-0.054	0.042
-728.937	800.000	-0.030	0.120
-727.923	364.658	0.190	0.392
-726.908	409.485	-0.105	0.228
-725.894	91.135	0.165	-0.190
-724.879	4.071	-0.245	-0.183
-723.864	32.084	-0.169	0.149
-722.850	-136.495	-0.179	0.021
-721.835	-132.260	-0.199	-0.026
-720.821	146.415	0.212	-0.292
-719.806	275.605	0.043	0.077
-718.791	800.000	0.123	-0.460
-717.777	-63.624	0.124	0.052
-716.762	-166.705	-0.141	0.006
-715.748	492.760	0.037	-0.086
-714.733	-50.709	0.269	0.130
-713.718	800.000	0.028	-0.091
-712.704	800.000	-0.117	-0.508
-711.689	6.396	-0.305	-0.232
-710.675	-200.000	0.007	0.059
-709.660	-200.000	-0.032	0.185
-708.645	-177.905	-0.325	-0.008
-707.631	-200.000	-0.240	0.001
-706.616	-107.937	-0.157	-0.035
-705.602	-106.383	0.213	0.049
-704.587	193.330	-0.247	-0.382
-703.572	682.383	-0.106	0.284
-702.558	-134.403	-0.209	0.026
-701.543	800.000	-0.140	0.420
-700.529	-75.881	0.257	0.093
-699.514	-200.000	-0.060	0.397
-698.499	417.531	-0.125	0.273
-697.485	800.000	0.077	-0.252
-696.470	700.149	-0.012	-0.031
-695.456	-6.868	-0.230	-0.160
-694.441	-180.524	-0.131	-0.003
-693.426	149.806	-0.054	0.075
-692.412	-44.188	0.204	0.104
-691.397	-118.545	-0.317	-0.057
-690.383	-30.517	0.142	0.082
-689.368	800.000	-0.075	-0.303
-688.354	203.593	0.147	-0.233
-687.339	-28.205	0.298	-0.176
-686.324	7.272	0.157	-0.120
-685.310	11.451	0.093	0.073
-684.295	-46.366	-0.282	-0.142
-683.281	71.972	0.121	-0.129
-682.266	-94.342	-0.100	0.028
-681.251	515.248	-0.073	-0.175
-680.237	-52.837	0.191	-0.090
-679.222	-127.339	-0.054	0.008
-678.208	-116.743	-0.172	0.032
-677.193	100.284	-0.337	0.399
-676.178	-200.000	-0.035	0.167
-675.164	-120.526	-0.097	0.017
-674.149	-200.000	0.039	-0.262
-673.135	-200.000	0.022	0.215
-672.120	-200.000	0.025	0.239
-671.105	22.282	-0.201	-0.168
-670.091	-144.112	-0.193	0.018
-669.076	-98.310	0.147	0.038
-668.062	36.958	-0.141	0.127
-667.047	-141.253	0.248	-0.026
-666.032	98.345	0.089	0.105
-665.018	800.000	-0.023	-0.065
-664.003	193.453	-0.123	-0.190
-662.989	800.000	-0.068	-0.275
-661.974	210.403	-0.020	-0.032
-660.959	-200.000	-0.062	-0.350
-659.945	624.369	-0.091	-0.234
-658.930	263.304	0.160	0.284
-657.916	302.433	0.098	0.185
-656.901	-200.000	0.000	-0.043
-655.886	82.623	-0.054	-0.059
-654.872	-49.325	-0.042	0.020
-653.857	-200.000	0.000	0.035
-652.843	800.000	-0.087	0.268
-651.828	-128.562	0.118	0.017
-650.814	-89.222	0.246	-0.074
-649.799	17.976	0.140	0.114
-648.784	800.000	-0.034	-0.122
-647.770	20.607	0.157	0.130
-646.755	-200.000	0.032	0.216
-645.741	146.699	0.169	0.232
-644.726	78.101	-0.110	-0.119
-643.711	-200.000	-0.014	-0.170
-642.697	800.000	0.020	0.078
-641.682	209.649	-0.186	0.297
-640.668	-107.109	0.203	0.046
-639.653	-26.936	0.237	0.141
-638.638	-200.000	-0.007	0.069
-637.624	-89.315	0.166	-0.050
-636.609	231.937	-0.082	0.137
-635.595	-102.575	0.098	0.024
-634.580	-18.783	0.143	-0.091
-633.565	140.220	-0.033	0.045
-632.551	-55.666	0.242	0.110
-631.536	800.000	0.048	0.200
-630.522	800.000	0.006	0.025
-629.507	51.905	0.213	-0.206
-628.492	-200.000	0.023	-0.137
-627.478	-200.000	-0.021	-0.209
-626.463	116.300	-0.153	-0.191
-625.449	94.906	0.074	0.086
-624.434	63.344	-0.075	-0.077
-623.419	-200.000	-0.009	-0.089
-622.405	800.000	0.098	0.400
-621.390	-106.861	0.148	-0.033
-620.376	-200.000	-0.001	-0.200
-619.361	-200.000	-0.033	-0.189
-618.346	-133.544	0.127	-0.016
-617.332	-163.839	-0.242	-0.012
-616.317	240.139	-0.116	-0.197
-615.303	-95.829	-0.182	-0.049
-614.288	594.913	0.048	0.121
-613.273	-200.000	-0.050	-0.350
-612.259	-200.000	-0.008	0.184
-611.244	-53.260	-0.055	-0.026
-610.230	321.817	-0.011	0.021
-609.215	-22.957	0.124	-0.076
-608.201	800.000	0.017	0.057
-607.186	-200.000	0.003	-0.160
-606.171	-200.000	0.006	-0.095
-605.157	800.000	-0.087	-0.383
-604.142	-58.254	-0.311	0.138
-603.128	-139.497	-0.056	0.006
-602.113	800.000	-0.008	0.033
-601.098	-122.028	0.244	-0.041
-600.084	73.043	0.196	0.208
-599.069	212.249	0.102	0.163
-598.055	-84.500	-0.099	-0.032
-597.040	800.000	0.063	-0.200
-596.025	-200.000	-0.004	0.053
-595.011	-200.000	0.022	0.163
-593.996	-200.000	-0.031	-0.159
-592.982	694.937	-0.040	-0.106
-591.967	-150.451	0.223	0.017
-590.952	-200.000	-0.009	-0.070
-589.938	-106.686	-0.432	-0.098
-588.923	370.281	-0.136	-0.280
-587.909	-137.957	-0.400	-0.045
-586.894	-136.008	-0.148	-0.018
-585.879	21.519	-0.131	0.109
-584.865	736.600	0.073	-0.199
-583.850	800.000	-0.096	-0.309
-582.836	-200.000	-0.026	-0.256
-581.821	36.259	-0.225	-0.202
-580.806	17.436	-0.249	-0.202
-579.792	127.570	-0.058	-0.075
-578.777	338.165	-0.091	0.180
-577.763	800.000	-0.037	-0.126
-576.748	-64.876	-0.077	0.032
-575.733	-83.891	-0.056	0.018
-574.719	-64.256	-0.250	-0.104
-573.704	-137.786	-0.256	-0.029
-572.690	800.000	-0.066	0.256
-571.675	239.058	-0.179	-0.303
-570.661	-10.198	0.091	-0.061
-569.646	-200.000	-0.122	0.641
-568.631	-114.529	-0.012	0.002
-567.617	800.000	-0.069	0.202
-566.602	-168.016	-0.185	-0.007
-565.588	687.175	-0.041	0.110
-564.573	-200.000	0.042	0.435
-563.558	82.720	0.153	0.169
-562.544	42.274	0.201	-0.186
-561.529	-124.637	0.224	0.035
-560.515	120.667	-0.160	-0.202
-559.500	-61.011	-0.067	0.029
-558.485	672.037	0.099	0.260
-557.471	-139.985	-0.197	0.021
-556.456	15.426	-0.190	-0.151
-555.442	24.384	-0.190	-0.160
-554.427	45.257	-0.155	-0.145
-553.412	106.741	-0.107	0.129
-552.398	236.399	-0.123	0.207
-551.383	-85.441	-0.088	0.028
-550.369	-49.915	-0.287	-0.138
-549.354	85.961	-0.150	0.168
-548.339	275.844	-0.144	-0.260
-547.325	-64.528	-0.370	-0.153
-546.310	-141.364	-0.167	0.017
-545.296	800.000	0.053	0.180
-544.281	112.252	-0.111	0.136
-543.266	-97.432	0.252	0.067
-542.252	-47.124	-0.036	-0.018
-541.237	-107.498	0.318	0.071
-540.223	10.844	-0.190	0.147
-539.208	-84.324	-0.195	-0.063
-538.193	-132.669	-0.244	0.032
-537.179	0.901	-0.119	-0.086
-536.164	-200.000	0.018	-0.203
-535.150	12.203	0.292	-0.228
-534.135	74.297	-0.288	-0.307
-533.121	3.794	0.135	0.100
-532.106	-105.296	-0.074	-0.017
-531.091	-23.936	-0.371	-0.226
-530.077	18.586	-0.074	0.060
-529.062	83.118	0.184	-0.203
-528.048	-99.145	-0.066	-0.017
-527.033	-144.355	-0.200	0.019
-526.018	-200.000	0.007	-0.164
-525.004	-36.822	-0.055	-0.030
-523.989	-200.000	-0.003	0.022
-522.975	583.112	-0.052	0.129
-521.960	20.007	0.138	-0.113
-520.945	240.449	0.074	-0.125
-519.931	-137.273	0.159	0.018
-518.916	247.605	0.145	-0.248
-517.902	115.857	0.080	-0.099
-516.887	-76.245	-0.288	-0.103
-515.872	59.327	0.171	-0.171
-514.858	-42.564	-0.317	0.164
-513.843	-110.159	-0.074	0.016
-512.829	800.000	-0.015	0.044
-511.814	-21.691	-0.038	-0.023
-510.799	16.574	-0.120	0.096
-509.785	-200.000	-0.034	0.331
-508.770	-155.706	0.143	0.009
-507.756	34.662	0.176	-0.156
-506.741	-8.155	0.181	-0.124
-505.726	-113.590	-0.120	-0.024
-504.712	1.904	0.185	0.135
-503.697	800.000	-0.064	-0.188
-502.683	31.689	0.252	-0.220
-501.668	-200.000	-0.045	-0.367
-500.653	-200.000	0.003	-0.325
-499.639	-2.260	0.046	-0.032
-498.624	-68.729	-0.228	-0.089
-497.610	-37.731	0.186	-0.101
-496.595	-7.378	0.081	0.056
-495.581	-87.579	-0.122	0.037
-494.566	-200.000	-0.044	0.255
-493.551	537.857	-0.081	-0.195
-492.537	-92.496	0.068	-0.019
-491.522	289.935	0.171	0.314
-490.508	-28.192	-0.271	-0.159
-489.493	800.000	0.045	0.181
-488.478	-56.626	0.259	0.116
-487.464	27.802	-0.103	0.088
-486.449	273.748	0.040	0.072
-485.435	552.664	-0.093	-0.226
-484.420	-200.000	0.031	-0.150
-483.405	-174.347	0.002	0.000
-482.391	479.665	0.124	-0.284
-481.376	140.357	0.164	-0.220
-480.362	-200.000	0.028	0.353
-479.347	-44.395	0.297	-0.150
-478.332	52.614	-0.284	0.275
-477.318	54.499	0.125	0.122
-476.303	26.496	0.284	-0.240
-475.289	800.000	-0.064	0.248
-474.274	147.999	0.046	-0.063
-473.259	554.391	0.118	-0.286
-472.245	-74.186	0.048	-0.017
-471.230	238.096	-0.105	-0.177
-470.216	-90.649	-0.261	0.076
-469.201	-148.258	-0.033	-0.003
-468.186	-200.000	0.030	0.169
-467.172	-15.606	-0.323	0.209
-466.157	-200.000	0.007	-0.336
-465.143	800.000	-0.025	0.098
-464.128	-41.097	-0.154	-0.081
-463.113	82.543	-0.076	0.083
-462.099	-110.640	0.117	-0.024
-461.084	-179.179	-0.162	-0.004
-460.070	-6.240	0.130	-0.090
-459.055	105.651	0.103	-0.123
-458.040	-37.072	-0.212	-0.115
-457.026	-28.555	-0.259	-0.151
-456.011	222.924	-0.132	-0.215
-454.997	333.248	-0.080	-0.157
-453.982	570.167	0.036	-0.090
-452.968	800.000	-0.049	0.217
-451.953	-28.193	0.211	0.123
-450.938	220.786	-0.036	-0.058
-449.924	-85.601	-0.093	-0.029
-448.909	-103.882	-0.243	0.057
-447.895	-3.196	0.257	0.181
-446.880	-63.773	0.339	0.140
-445.865	-164.603	0.160	-0.007
-444.851	77.668	-0.128	-0.138
-443.836	38.769	0.153	0.138
-442.822	-183.390	-0.449	0.008
-441.807	-113.564	-0.281	0.056
-440.792	-200.000	0.029	-0.257
-439.778	-200.000	-0.026	-0.266
-438.763	105.068	-0.087	-0.104
-437.749	323.417	-0.028	0.054
-436.734	-15.210	-0.090	0.058
-435.719	-73.717	0.424	0.156
-434.705	-200.000	-0.038	0.000
-433.690	34.098	0.097	0.086
-432.676	-152.603	-0.354	0.026
-431.661	-53.882	-0.172	-0.079
-430.646	800.000	-0.038	-0.111
-429.632	325.034	-0.147	-0.284
-428.617	-71.220	0.145	-0.055
-427.603	-133.021	0.308	-0.040
-426.588	-90.367	0.175	-0.051
-425.573	36.706	-0.358	-0.320
-424.559	624.214	-0.065	-0.167
-423.544	-172.157	0.025	-0.001
-422.530	-108.850	0.137	0.030
-421.515	-117.620	-0.276	-0.050
-420.500	-165.478	0.189	0.008
-419.486	742.111	0.111	0.301
-418.471	-74.215	0.167	-0.061
-417.457	598.235	-0.073	0.184
-416.442	129.192	0.193	-0.250
-415.428	-200.000	0.003	0.111
-414.413	90.956	-0.170	0.193
-413.398	-111.158	0.342	-0.071
-412.384	2.959	0.202	-0.148
-411.369	389.603	-0.073	-0.154
-410.355	-200.000	-0.022	0.139
-409.340	651.415	-0.136	0.351
-408.325	278.217	-0.112	0.201
-407.311	166.733	0.104	-0.149
-406.296	43.327	0.226	-0.209
-405.282	91.052	0.097	0.110
-404.267	-154.493	0.137	0.009
-403.252	-131.718	-0.292	-0.039
-402.238	150.200	0.047	-0.064
-401.223	-200.000	0.017	0.374
-400.209	6.210	-0.019	0.014
-399.194	800.000	-0.073	0.221
-398.179	-147.467	-0.143	0.012
-397.165	-74.833	-0.112	-0.041
-396.150	-172.431	-0.140	0.004
-395.136	27.918	-0.093	-0.079
-394.121	-13.727	0.207	0.135
-393.106	284.887	0.049	-0.088
-392.092	314.812	0.119	-0.226
-391.077	-119.608	0.370	0.065
-390.063	-79.053	0.074	0.025
-389.048	-73.807	0.188	0.069
-388.033	344.556	-0.286	0.566
-387.019	154.072	-0.161	-0.223
-386.004	-48.784	0.081	-0.039
-384.990	739.727	0.006	-0.017
-383.975	-1.548	0.260	0.185
-382.960	-200.000	0.043	-0.284
-381.946	800.000	-0.061	0.266
-380.931	346.308	-0.044	-0.088
-379.917	399.159	0.104	0.219
-378.902	39.348	0.158	0.143
-377.888	83.963	0.058	0.064
-376.873	-200.000	-0.008	-0.050
-375.858	-115.248	-0.319	-0.061
-374.844	-127.349	0.034	-0.005
-373.829	800.000	0.047	0.188
-372.815	265.794	0.233	-0.410
-371.800	137.386	-0.122	-0.162
-370.785	182.025	0.045	-0.067
-369.771	40.466	-0.081	0.074
-368.756	-200.000	-0.048	0.569
-367.742	87.373	-0.206	0.230
-366.727	-200.000	0.031	0.338
-365.712	800.000	-0.054	0.166
-364.698	5.081	0.084	-0.063
-363.683	-46.502	-0.062	-0.031
-362.669	-200.000	-0.042	0.245
-361.654	-200.000	-0.007	-0.141
-360.639	-21.570	0.164	0.101
-359.625	-86.668	0.097	-0.030
-358.610	-80.811	-0.163	-0.055
-357.596	103.024	0.033	0.039
-356.581	27.651	0.176	-0.149
-355.566	800.000	-0.060	-0.221
-354.552	167.147	-0.134	0.192
-353.537	135.428	-0.122	-0.160
-352.523	159.847	-0.076	-0.107
-351.508	-60.151	0.299	-0.129
-350.493	-101.409	-0.087	0.021
-349.479	-94.491	0.429	0.118
-348.464	-200.000	0.009	0.046
-347.450	199.758	-0.133	-0.206
-346.435	25.252	-0.107	0.090
-345.420	384.973	0.083	0.173
-344.406	-168.401	-0.324	-0.013
-343.391	-200.000	0.035	0.164
-342.377	-68.069	-0.439	0.173
-341.362	800.000	-0.090	0.296
-340.348	-19.268	0.249	0.156
-339.333	-200.000	-0.011	-0.061
-338.318	439.742	0.043	0.095
-337.304	23.904	0.127	-0.105
-336.289	222.498	0.219	0.355
-335.275	-51.938	0.227	0.106
-334.260	30.613	0.214	-0.184
-333.245	-2.317	-0.001	-0.001
-332.231	16.565	-0.114	0.091
-331.216	-200.000	-0.024	0.209
-330.202	-70.541	-0.192	0.073
-329.187	352.186	-0.066	0.131
-328.172	-11.476	-0.344	0.228
-327.158	-200.000	-0.006	0.036
-326.143	800.000	0.062	-0.253
-325.129	800.000	-0.064	-0.283
-324.114	-200.000	-0.002	-0.161
-323.099	175.324	0.115	0.168
-322.085	388.552	0.029	-0.060
-321.070	-152.530	-0.095	0.007
-320.056	390.139	0.070	-0.146
-319.041	-36.893	0.130	0.070
-318.026	163.932	-0.187	-0.265
-317.012	80.808	0.134	-0.145
-315.997	-200.000	0.006	-0.245
-314.983	-200.000	-0.021	0.151
-313.968	-146.237	-0.244	-0.022
-312.953	800.000	0.020	-0.069
-311.939	-123.951	0.299	-0.047
-310.924	20.436	0.067	-0.055
-309.910	-193.768	0.184	0.002
-308.895	74.895	0.186	0.197
-307.880	594.210	-0.010	-0.025
-306.866	-200.000	0.005	0.230
-305.851	-92.494	-0.207	-0.059
-304.837	800.000	0.050	-0.182
-303.822	-200.000	-0.059	-0.283
-302.807	353.574	-0.136	-0.271
-301.793	-75.252	-0.148	0.053
-300.778	109.183	-0.188	-0.226
-299.764	-50.535	-0.062	0.029
-298.749	-12.873	0.359	-0.235
-297.735	307.751	0.180	0.337
-296.720	209.619	0.056	-0.088
-295.705	-51.517	0.104	0.049
-294.691	-58.136	0.214	0.094
-293.676	-200.000	0.027	-0.257
-292.662	-70.879	-0.044	-0.017
-291.647	-167.476	0.304	-0.012
-290.632	337.465	0.110	0.216
-289.618	-72.194	0.301	0.112
-288.603	800.000	-0.089	0.314
-287.589	-200.000	0.495	0.002
-286.574	-105.166	0.131	-0.030
-285.559	-12.842	-0.128	-0.084
-284.545	679.581	0.088	-0.231
-283.530	24.197	0.142	-0.118
-282.516	9.141	0.033	-0.025
-281.501	793.613	0.044	-0.121
-280.486	96.505	0.081	-0.093
-279.472	205.074	0.232	-0.363
-278.457	676.540	-0.095	0.247
-277.443	-200.000	-0.038	-0.204
-276.428	-200.000	0.018	-0.141
-275.413	-88.800	-0.364	-0.109
-274.399	-15.599	0.161	0.103
-273.384	-200.000	-0.057	-0.276
-272.370	464.370	-0.117	0.263
-271.355	456.413	0.133	-0.297
-270.340	-10.103	0.128	0.085
-269.326	32.345	-0.072	-0.062
-268.311	-78.636	0.077	-0.026
-267.297	289.985	0.074	0.134
-266.282	696.428	0.096	-0.253
-265.267	-200.000	0.018	0.082
-264.253	8.956	0.145	-0.110
-263.238	9.050	0.239	0.181
-262.224	-6.373	-0.181	-0.124
-261.209	-84.624	-0.174	0.055
-260.195	631.039	-0.011	-0.028
-259.180	-5.629	-0.168	0.116
-258.165	-200.000	0.005	0.311
-257.151	34.440	-0.148	-0.130
-256.136	-138.984	0.194	0.021
-255.122	122.338	-0.220	-0.276
-254.107	368.959	0.111	0.225
-253.092	77.601	0.212	-0.227
-252.078	-88.247	-0.230	0.069
-251.063	46.185	0.215	-0.200
-250.049	800.000	0.030	-0.118
-249.034	332.887	0.159	-0.309
-248.019	-67.090	-0.474	0.188
-247.005	-2.053	-0.278	-0.196
-245.990	800.000	0.018	-0.059
-244.976	-200.000	-0.054	0.331
-243.961	-200.000	-0.017	-0.296
-242.946	800.000	-0.062	-0.197
-241.932	-200.000	-0.031	0.249
-240.917	526.940	0.050	0.118
-239.903	-200.000	0.055	0.316
-238.888	800.000	-0.011	0.036
-237.873	-200.000	0.008	0.061
-236.859	-200.000	0.019	0.210
-235.844	-170.984	0.266	0.009
-234.830	-115.597	-0.137	-0.026
-233.815	321.568	0.023	0.045
-232.800	109.718	-0.080	0.096
-231.786	238.211	0.061	0.101
-230.771	210.999	0.237	-0.374
-229.757	698.784	-0.080	0.210
-228.742	-200.000	-0.061	0.344
-227.727	-200.000	0.010	-0.138
-226.713	-57.224	0.253	0.112
-225.698	55.732	0.250	0.243
-224.684	800.000	0.056	0.232
-223.669	-105.857	-0.240	-0.054
-222.655	63.075	0.067	0.067
-221.640	-25.651	-0.226	-0.134
-220.625	-200.000	-0.003	-0.021
-219.611	153.277	-0.068	-0.093
-218.596	-200.000	0.001	0.278
-217.582	-175.214	-0.271	-0.008
-216.567	-56.176	-0.336	-0.150
-215.552	232.822	0.086	-0.142
-214.538	-81.499	0.182	0.060
-213.523	297.492	0.083	-0.153
-212.509	555.424	0.067	0.162
-211.494	-200.000	-0.006	0.052
-210.479	48.809	-0.030	-0.028
-209.465	-4.383	0.211	0.146
-208.450	-21.564	0.137	0.084
-207.436	-200.000	0.033	0.254
-206.421	-200.000	0.065	0.331
-205.406	800.000	0.067	0.257
-204.392	-56.466	-0.065	0.029
-203.377	-107.094	0.160	0.035
-202.363	125.141	0.157	-0.199
-201.348	-109.827	0.188	-0.040
-200.333	-38.652	-0.116	0.061
-199.319	-179.787	-0.071	0.002
-198.304	-86.555	0.380	0.117
-197.290	391.698	0.056	0.116
-196.275	-99.624	0.155	-0.039
-195.260	687.173	0.008	-0.022
-194.246	154.347	0.195	0.268
-193.231	-157.842	0.147	-0.009
-192.217	-200.000	0.007	0.074
-191.202	-72.173	0.480	0.178
-190.187	-39.619	-0.365	0.192
-189.173	27.832	-0.234	-0.197
-188.158	-18.603	0.221	-0.138
-187.144	4.729	0.204	0.150
-186.129	335.921	-0.090	0.174
-185.114	-200.000	0.011	-0.300
-184.100	-200.000	-0.270	0.000
-183.085	-200.000	0.037	-0.263
-182.071	253.635	0.090	-0.154
-181.056	113.690	-0.205	0.249
-180.042	-200.000	-0.020	-0.264
-179.027	-83.463	-0.147	-0.047
-178.012	-92.182	-0.195	-0.055
-176.998	-12.473	-0.139	0.091
-175.983	800.000	0.017	-0.049
-174.969	-87.316	-0.308	-0.094
-173.954	84.124	0.434	0.474
-172.939	-97.328	0.008	-0.002
-171.925	-12.380	0.144	-0.094
-170.910	-200.000	-0.014	0.070
-169.896	7.090	0.130	0.097
-168.881	103.860	-0.143	0.168
-167.866	41.795	0.227	0.206
-166.852	29.631	0.137	0.117
-165.837	-200.000	-0.117	-0.517
-164.823	76.078	-0.063	-0.067
-163.808	3.816	-0.272	0.199
-162.793	-200.000	-0.060	0.300
-161.779	173.538	-0.120	-0.174
-160.764	-200.000	0.013	0.103
-159.750	372.250	0.127	0.259
-158.735	5.779	0.129	0.095
-157.720	-90.239	-0.024	0.007
-156.706	-83.619	-0.147	-0.047
-155.691	-183.442	-0.073	0.001
-154.677	-91.120	0.342	0.098
-153.662	372.126	0.088	0.179
-152.647	800.000	-0.038	0.162
-151.633	-4.443	0.258	0.178
-150.618	85.843	0.022	0.024
-149.604	-187.416	0.139	0.002
-148.589	-200.000	0.044	0.307
-147.574	330.634	-0.140	-0.270
-146.560	122.791	0.100	0.126
-145.545	-200.000	-0.070	0.336
-144.531	-31.635	0.205	-0.115
-143.516	-157.595	0.083	-0.005
-142.502	-34.553	-0.360	0.197
-141.487	443.595	0.099	-0.217
-140.472	177.083	-0.083	0.120
-139.458	117.444	0.266	0.327
-138.443	-200.000	-0.011	-0.299
-137.429	-98.097	0.534	0.137
-136.414	-122.523	0.190	0.031
-135.399	680.334	-0.064	-0.166
-134.385	74.179	0.048	0.050
-133.370	198.727	0.077	-0.119
-132.356	-19.490	0.116	-0.072
-131.341	-200.000	-0.024	0.239
-130.326	-127.683	0.106	-0.015
-129.312	-74.229	-0.065	0.024
-128.297	46.661	0.391	0.362
-127.283	492.863	0.135	0.310
-126.268	-97.056	0.064	0.017
-125.253	-200.000	-0.018	-0.348
-124.239	-49.182	-0.272	-0.130
-123.224	-200.000	-0.061	0.413
-122.210	-172.653	-0.035	0.001
-121.195	-200.000	0.018	0.332
