DTS Sentinel unit serial number:	SN413079Multiplexer serial number:	ORYXHardware model number:	OX4-SRSoftware version number:	ORYX F/W v4.00 Oryx Data Collector v3.7.2.0data status	okinstallation	princeton_trtdifferential loss correction	single-endedforward channel	channel 1reverse channel	N/Adate	2019/09/11time	05:40:11forward acquisition time	60.00reverse acquisition time	0.00gamma	496.2192k internal	0.2331k external	0.2331temperature offset calibration	0.9925default loss term (dB/km)	0.3790temperature slope calibration	1.0000multiplexer offset coefficient	1.0000multiplexer slope coefficient	1.0000fibre end	0.00T internal ref (°C)	29.41T ext. ref 1 (°C)	-0.23T ext. ref 2 (°C)	23.33length (m)	temperature (°C)	Stokes	anti-Stokes-747.200	-154.573	0.257	0.017
-746.185	-71.220	-0.044	0.017
-745.171	42.556	0.101	-0.092
-744.156	-75.836	-0.119	0.042
-743.142	-95.184	0.147	-0.040
-742.127	568.394	-0.067	-0.165
-741.112	642.743	-0.060	-0.155
-740.098	-200.000	-0.057	0.297
-739.083	-200.000	0.000	0.080
-738.069	800.000	0.068	0.228
-737.054	-135.029	0.157	-0.019
-736.039	250.234	-0.154	0.263
-735.025	-9.224	0.122	-0.082
-734.010	-200.000	0.000	0.172
-732.996	73.454	-0.212	0.223
-731.981	-97.381	-0.148	-0.039
-730.966	-200.000	-0.011	0.121
-729.952	6.145	0.315	-0.235
-728.937	332.109	-0.110	0.214
-727.923	328.324	-0.015	0.030
-726.908	485.226	0.175	-0.400
-725.894	800.000	-0.098	-0.286
-724.879	800.000	-0.183	0.557
-723.864	-33.509	0.444	-0.247
-722.850	-200.000	-0.325	-0.001
-721.835	-155.655	0.244	0.016
-720.821	66.619	-0.190	-0.194
-719.806	225.728	-0.119	0.195
-718.791	16.548	0.268	0.213
-717.777	-47.796	-0.215	-0.105
-716.762	-103.090	-0.125	-0.030
-715.748	-119.903	0.205	-0.035
-714.733	800.000	0.033	-0.106
-713.718	-133.964	-0.148	0.018
-712.704	427.506	-0.024	-0.053
-711.689	-145.534	0.323	0.029
-710.675	9.886	0.260	-0.199
-709.660	39.108	0.043	-0.039
-708.645	-111.418	-0.095	-0.020
-707.631	251.321	0.213	-0.365
-706.616	134.444	0.043	0.056
-705.602	-200.000	-0.006	0.355
-704.587	49.228	0.099	-0.094
-703.572	516.077	-0.107	-0.251
-702.558	38.037	-0.172	-0.153
-701.543	16.719	-0.181	0.144
-700.529	800.000	0.082	-0.334
-699.514	-200.000	0.004	0.231
-698.499	253.963	0.124	-0.213
-697.485	-45.276	-0.193	-0.096
-696.470	-185.366	0.177	0.003
-695.456	-112.765	-0.215	0.043
-694.441	-126.600	0.301	-0.045
-693.426	-200.000	0.025	-0.144
-692.412	-200.000	0.025	-0.150
-691.397	-84.283	-0.416	-0.132
-690.383	515.357	0.081	-0.190
-689.368	202.313	-0.123	-0.191
-688.354	-10.283	-0.160	-0.106
-687.339	640.672	-0.063	-0.162
-686.324	-200.000	-0.008	0.289
-685.310	149.920	0.163	0.222
-684.295	800.000	0.030	0.086
-683.281	800.000	-0.024	0.089
-682.266	-156.370	-0.240	-0.015
-681.251	215.153	-0.126	0.200
-680.237	800.000	0.046	-0.158
-679.222	-82.630	-0.135	0.044
-678.208	74.852	-0.161	0.171
-677.193	800.000	-0.045	-0.160
-676.178	428.013	-0.087	-0.190
-675.164	187.880	0.123	-0.185
-674.149	-96.561	0.459	-0.122
-673.135	-40.296	0.014	0.007
-672.120	-134.206	-0.223	0.028
-671.105	562.664	0.118	-0.286
-670.091	287.883	0.244	-0.443
-669.076	53.185	0.046	0.045
-668.062	-200.000	0.020	-0.112
-667.047	-200.000	-0.221	0.001
-666.032	26.688	-0.120	-0.101
-665.018	286.411	-0.232	-0.421
-664.003	76.468	0.339	0.361
-662.989	142.774	-0.002	0.003
-661.974	-200.000	0.012	0.125
-660.959	-47.875	0.113	-0.055
-659.945	-158.874	-0.357	-0.020
-658.930	372.323	-0.183	-0.373
-657.916	-141.999	-0.201	-0.020
-656.901	-150.758	-0.124	-0.009
-655.886	-39.757	0.045	-0.023
-654.872	-97.668	-0.095	-0.025
-653.857	527.754	-0.207	-0.489
-652.843	308.871	-0.107	0.200
-651.828	69.662	-0.298	0.308
-650.814	62.952	-0.405	0.406
-649.799	14.743	-0.016	-0.013
-648.784	-4.876	-0.174	-0.121
-647.770	-37.053	0.357	0.192
-646.755	-161.967	-0.215	0.011
-645.741	-99.400	0.082	-0.021
-644.726	569.660	-0.054	-0.131
-643.711	56.341	-0.132	-0.129
-642.697	800.000	0.137	-0.386
-641.682	-200.000	-0.024	0.134
-640.668	-148.172	0.178	0.015
-639.653	583.147	0.031	-0.077
-638.638	-144.415	-0.169	0.016
-637.624	-105.026	0.121	0.028
-636.609	-200.000	0.062	-0.404
-635.595	-88.330	-0.485	0.145
-634.580	800.000	0.110	-0.327
-633.565	-200.000	0.037	-0.434
-632.551	-79.689	0.246	-0.083
-631.536	595.650	-0.158	-0.392
-630.522	768.831	0.070	0.190
-629.507	99.140	-0.077	-0.089
-628.492	71.110	0.124	-0.129
-627.478	280.877	-0.101	-0.181
-626.463	252.421	0.050	-0.086
-625.449	-111.479	0.200	-0.041
-624.434	30.090	-0.111	0.095
-623.419	-200.000	-0.009	-0.067
-622.405	800.000	-0.060	-0.224
-621.390	145.560	0.123	0.165
-620.376	7.131	-0.203	0.152
-619.361	150.313	0.067	-0.091
-618.346	-69.977	-0.067	0.025
-617.332	-23.391	-0.029	0.017
-616.317	614.352	-0.045	-0.112
-615.303	-200.000	0.045	0.261
-614.288	65.955	0.179	0.182
-613.273	64.470	0.148	-0.149
-612.259	72.081	-0.069	0.072
-611.244	-74.104	0.344	-0.125
-610.230	262.186	-0.201	-0.349
-609.215	-115.606	-0.222	-0.042
-608.201	-173.817	-0.196	0.006
-607.186	-200.000	-0.036	0.332
-606.171	-200.000	0.065	0.321
-605.157	127.646	0.127	-0.162
-604.142	-140.518	-0.163	0.017
-603.128	-200.000	0.006	0.131
-602.113	281.217	0.117	-0.209
-601.098	173.907	-0.285	-0.412
-600.084	-84.384	-0.371	-0.117
-599.069	-144.600	-0.285	-0.026
-598.055	116.833	-0.094	0.115
-597.040	666.441	-0.116	0.301
-596.025	-78.457	-0.239	-0.082
-595.011	-145.941	-0.399	-0.035
-593.996	26.220	-0.078	-0.066
-592.982	800.000	0.023	-0.074
-591.967	534.254	0.085	0.203
-590.952	-40.652	0.082	-0.042
-589.938	166.037	-0.112	-0.159
-588.923	-200.000	0.017	-0.222
-587.909	-200.000	-0.040	0.177
-586.894	225.188	-0.090	0.146
-585.879	130.212	-0.162	-0.208
-584.865	75.747	0.138	-0.146
-583.850	-180.606	0.218	0.004
-582.836	139.662	0.023	-0.030
-581.821	-200.000	-0.010	-0.220
-580.806	-81.440	0.040	0.013
-579.792	22.564	-0.265	-0.217
-578.777	378.917	-0.147	-0.301
-577.763	694.439	0.087	0.230
-576.748	-100.661	0.135	0.033
-575.733	172.738	0.061	0.088
-574.719	-43.122	-0.231	-0.117
-573.704	-133.385	-0.329	0.041
-572.690	800.000	-0.060	-0.261
-571.675	800.000	0.009	0.034
-570.661	-200.000	-0.015	-0.170
-569.646	-12.199	0.244	0.160
-568.631	-153.408	-0.469	-0.033
-567.617	-164.321	-0.258	-0.012
-566.602	229.338	0.129	-0.211
-565.588	203.544	-0.069	0.107
-564.573	-200.000	0.038	0.230
-563.558	101.688	-0.081	0.095
-562.544	6.223	0.069	-0.051
-561.529	-128.566	0.300	0.042
-560.515	-9.943	-0.172	-0.114
-559.500	19.610	0.294	-0.236
-558.485	-200.000	-0.007	0.129
-557.471	397.660	-0.129	-0.269
-556.456	-200.000	0.074	-0.426
-555.442	14.785	-0.158	0.123
-554.427	-200.000	0.024	0.553
-553.412	-200.000	-0.018	-0.096
-552.398	-200.000	0.047	-0.219
-551.383	167.417	-0.052	0.074
-550.369	71.350	0.146	0.151
-549.354	431.485	-0.074	0.160
-548.339	-200.000	-0.055	0.276
-547.325	-37.533	0.039	0.021
-546.310	-103.327	-0.206	-0.048
-545.296	-76.983	-0.291	-0.102
-544.281	294.812	0.035	-0.063
-543.266	800.000	-0.085	-0.246
-542.252	176.585	0.093	-0.135
-541.237	189.625	-0.151	-0.227
-540.223	396.981	-0.120	-0.250
-539.208	-0.959	-0.332	0.234
-538.193	-135.162	-0.182	0.022
-537.179	-200.000	-0.008	-0.060
-536.164	575.971	0.036	-0.087
-535.150	-135.859	0.252	0.030
-534.135	22.478	-0.156	0.127
-533.121	42.093	-0.138	-0.125
-532.106	-200.000	-0.054	-0.240
-531.091	33.905	-0.154	-0.134
-530.077	63.142	-0.176	0.176
-529.062	113.099	0.137	0.166
-528.048	-4.633	-0.218	0.150
-527.033	2.036	-0.263	0.190
-526.018	-117.383	-0.502	0.091
-525.004	-200.000	-0.057	0.350
-523.989	-83.515	0.120	-0.038
-522.975	-200.000	0.038	0.381
-521.960	233.812	0.106	-0.174
-520.945	7.196	0.167	0.125
-519.931	-63.486	0.222	-0.091
-518.916	-200.000	-0.009	0.152
-517.902	-133.767	-0.126	-0.016
-516.887	404.455	0.164	-0.344
-515.872	7.286	0.095	0.071
-514.858	486.096	0.074	0.167
-513.843	-67.130	0.370	0.145
-512.829	-200.000	-0.065	-0.299
-511.814	117.357	0.146	-0.179
-510.799	35.101	0.053	0.046
-509.785	156.588	-0.211	-0.291
-508.770	-200.000	0.054	0.263
-507.756	285.298	-0.098	-0.176
-506.741	-200.000	0.002	-0.324
-505.726	-27.652	-0.158	-0.091
-504.712	27.730	0.201	-0.169
-503.697	-200.000	0.021	-0.171
-502.683	-91.972	0.271	0.076
-501.668	288.278	0.190	0.343
-500.653	-105.828	-0.067	0.015
-499.639	142.739	0.209	-0.277
-498.624	-28.383	-0.128	-0.074
-497.610	800.000	-0.085	-0.347
-496.595	-200.000	0.023	0.306
-495.581	-63.176	-0.159	-0.065
-494.566	-200.000	0.030	-0.151
-493.551	-38.255	0.089	-0.047
-492.537	94.720	0.085	-0.096
-491.522	-200.000	0.008	-0.151
-490.508	55.064	-0.090	0.086
-489.493	-0.564	-0.051	-0.036
-488.478	800.000	0.052	0.222
-487.464	-200.000	0.036	-0.369
-486.449	63.567	-0.155	-0.155
-485.435	-12.595	0.064	-0.041
-484.420	311.996	-0.152	0.283
-483.405	89.089	0.213	0.236
-482.391	-56.980	-0.197	-0.087
-481.376	-200.000	-0.014	-0.182
-480.362	-109.942	-0.359	-0.075
-479.347	-200.000	-0.026	-0.319
-478.332	-200.000	0.022	-0.138
-477.318	403.203	-0.197	-0.413
-476.303	-140.840	0.274	0.028
-475.289	111.388	0.141	-0.169
-474.274	141.173	-0.088	-0.116
-473.259	81.177	-0.126	0.135
-472.245	590.177	0.084	-0.207
-471.230	89.776	-0.120	-0.133
-470.216	51.255	0.244	0.230
-469.201	51.197	0.132	-0.124
-468.186	-80.449	0.341	0.113
-467.172	733.130	0.098	-0.262
-466.157	153.496	-0.028	0.038
-465.143	73.434	-0.166	-0.173
-464.128	-81.314	-0.141	-0.046
-463.113	219.042	-0.125	0.199
-462.099	-179.513	0.097	0.002
-461.084	99.356	-0.225	-0.259
-460.070	-75.697	-0.274	0.097
-459.055	800.000	-0.151	0.419
-458.040	-48.586	0.186	-0.089
-457.026	231.873	0.144	0.235
-456.011	610.882	0.109	0.272
-454.997	-44.181	0.039	-0.020
-453.982	-200.000	0.059	-0.525
-452.968	733.906	0.126	0.336
-451.953	800.000	-0.039	0.134
-450.938	33.792	0.106	-0.092
-449.924	9.953	-0.421	-0.318
-448.909	-200.000	0.040	-0.189
-447.895	678.458	-0.041	0.105
-446.880	244.580	-0.139	0.232
-445.865	204.314	0.153	0.236
-444.851	48.808	0.156	-0.145
-443.836	-17.371	-0.089	0.056
-442.822	-109.906	0.276	0.058
-441.807	-1.033	0.323	-0.228
-440.792	119.317	0.128	0.157
-439.778	169.462	0.162	0.230
-438.763	-9.315	-0.135	-0.090
-437.749	371.569	-0.088	0.178
-436.734	-45.658	-0.242	-0.119
-435.719	-200.000	-0.080	-0.422
-434.705	660.880	-0.158	0.405
-433.690	139.519	-0.111	-0.145
-432.676	800.000	0.050	0.192
-431.661	-124.634	-0.351	-0.054
-430.646	-107.169	0.010	-0.002
-429.632	521.708	-0.033	0.078
-428.617	35.955	-0.069	0.060
-427.603	86.252	0.120	0.131
-426.588	-40.972	-0.164	-0.084
-425.573	-200.000	-0.038	0.286
-424.559	-200.000	-0.009	0.137
-423.544	-68.555	-0.049	0.019
-422.530	-28.268	-0.163	0.093
-421.515	112.058	0.128	0.153
-420.500	168.983	0.239	0.339
-419.486	392.212	0.016	-0.033
-418.471	481.334	-0.095	0.214
-417.457	0.075	0.265	-0.188
-416.442	-200.000	-0.115	-0.553
-415.428	616.730	0.074	-0.184
-414.413	-152.277	0.485	-0.035
-413.398	-38.965	0.135	0.071
-412.384	440.105	0.109	-0.236
-411.369	-200.000	0.023	0.536
-410.355	-200.000	-0.022	-0.239
-409.340	-128.674	0.166	0.023
-408.325	-88.246	0.272	-0.081
-407.311	186.207	0.174	-0.258
-406.296	-1.736	0.017	0.012
-405.282	-200.000	-0.050	0.560
-404.267	-200.000	-0.035	0.303
-403.252	187.498	0.129	-0.191
-402.238	461.464	-0.139	-0.308
-401.223	116.661	-0.121	0.148
-400.209	27.923	-0.208	-0.174
-399.194	15.850	-0.177	0.138
-398.179	-54.035	0.379	0.171
-397.165	800.000	0.053	-0.210
-396.150	-8.118	-0.200	0.134
-395.136	-200.000	-0.019	-0.252
-394.121	-138.697	0.089	0.010
-393.106	434.898	0.189	-0.409
-392.092	-200.000	0.020	-0.125
-391.077	-200.000	0.004	0.043
-390.063	-125.677	-0.230	0.035
-389.048	-200.000	0.047	0.366
-388.033	800.000	-0.134	0.450
-387.019	-200.000	0.001	0.081
-386.004	139.805	0.064	0.083
-384.990	-40.018	-0.211	-0.109
-383.975	464.822	0.066	-0.146
-382.960	-108.056	0.381	-0.082
-381.946	175.891	-0.041	0.060
-380.931	125.009	-0.097	-0.121
-379.917	-200.000	-0.062	-0.300
-378.902	9.916	-0.152	-0.115
-377.888	435.525	0.158	0.340
-376.873	-141.894	0.270	0.027
-375.858	133.105	-0.102	0.130
-374.844	103.154	-0.088	-0.102
-373.829	-200.000	-0.020	0.093
-372.815	-200.000	-0.058	-0.290
-371.800	293.743	-0.209	-0.378
-370.785	-6.527	-0.076	-0.051
-369.771	-47.699	0.284	-0.137
-368.756	-139.522	0.192	-0.020
-367.742	-49.081	0.154	0.073
-366.727	-64.510	-0.206	0.083
-365.712	800.000	0.065	-0.278
-364.698	61.760	-0.171	0.169
-363.683	-132.458	-0.163	0.021
-362.669	325.477	0.020	-0.038
-361.654	800.000	0.073	-0.223
-360.639	-200.000	0.006	-0.207
-359.625	-200.000	0.018	0.132
-358.610	-113.325	-0.163	-0.032
-357.596	763.369	0.033	-0.088
-356.581	-26.101	-0.054	-0.031
-355.566	-101.354	0.370	0.089
-354.552	-32.969	-0.100	-0.055
-353.537	17.211	-0.115	0.090
-352.523	-51.057	-0.283	0.131
-351.508	201.137	-0.074	0.113
-350.493	119.903	-0.065	-0.080
-349.479	585.476	0.037	-0.090
-348.464	105.104	-0.138	0.161
-347.450	800.000	0.047	0.183
-346.435	-47.130	0.239	-0.115
-345.420	-15.302	-0.131	-0.083
-344.406	71.956	-0.135	-0.140
-343.391	-34.683	0.320	-0.173
-342.377	-200.000	0.054	0.383
-341.362	61.891	-0.253	-0.249
-340.348	231.734	-0.136	0.221
-339.333	-11.644	0.062	0.040
-338.318	-77.909	0.181	-0.062
-337.304	-41.467	0.172	-0.088
-336.289	-87.027	0.178	0.054
-335.275	800.000	0.024	-0.087
-334.260	-68.261	-0.129	0.050
-333.245	-75.630	-0.181	0.064
-332.231	203.670	0.107	0.164
-331.216	800.000	-0.082	0.310
-330.202	-87.775	-0.133	0.040
-329.187	800.000	0.108	0.371
-328.172	800.000	-0.113	0.446
-327.158	-200.000	0.005	0.347
-326.143	194.433	0.200	0.300
-325.129	-179.980	0.145	-0.003
-324.114	-143.793	0.196	-0.018
-323.099	197.529	0.214	-0.324
-322.085	-200.000	0.039	0.311
-321.070	-200.000	0.014	-0.132
-320.056	203.431	0.077	-0.118
-319.041	280.294	-0.121	-0.213
-318.026	320.963	0.173	0.326
-317.012	2.721	-0.238	0.171
-315.997	259.830	-0.114	0.195
-314.983	-38.604	-0.213	0.111
-313.968	35.213	0.228	-0.198
-312.953	44.237	0.229	-0.208
-311.939	276.442	-0.177	-0.311
-310.924	112.888	0.355	0.425
-309.910	411.308	0.087	0.182
-308.895	156.947	0.104	0.142
-307.880	-7.543	0.109	0.073
-306.866	-200.000	-0.029	0.158
-305.851	-100.930	0.328	0.080
-304.837	800.000	-0.023	0.086
-303.822	800.000	-0.098	-0.410
-302.807	-45.171	-0.103	0.051
-301.793	4.692	-0.052	-0.038
-300.778	-200.000	-0.037	0.420
-299.764	-200.000	-0.045	-0.328
-298.749	107.543	0.118	-0.139
-297.735	330.681	-0.152	0.290
-296.720	31.381	0.099	0.084
-295.705	642.661	0.226	-0.569
-294.691	-167.361	0.196	0.008
-293.676	-30.893	0.083	0.047
-292.662	-142.383	0.386	0.038
-291.647	-50.399	-0.366	-0.171
-290.632	-120.938	0.211	-0.035
-289.618	81.185	0.190	0.203
-288.603	780.961	-0.055	-0.148
-287.589	-200.000	0.007	-0.150
-286.574	-50.844	-0.119	-0.055
-285.559	-114.094	0.203	-0.039
-284.545	-3.797	-0.037	-0.026
-283.530	-147.007	-0.181	0.015
-282.516	-51.623	0.179	0.082
-281.501	-42.604	0.249	0.125
-280.486	756.104	-0.129	0.346
-279.472	800.000	-0.033	0.100
-278.457	-200.000	-0.038	0.282
-277.443	161.617	0.153	-0.212
-276.428	-24.612	-0.115	-0.068
-275.413	-200.000	-0.030	0.211
-274.399	493.290	0.130	0.295
-273.384	318.551	0.031	0.057
-272.370	-96.345	-0.199	-0.052
-271.355	-123.675	0.099	-0.016
-270.340	-0.693	0.035	0.025
-269.326	-138.719	0.148	-0.016
-268.311	80.191	-0.118	0.125
-267.297	-108.198	0.077	-0.016
-266.282	59.975	-0.085	-0.083
-265.267	-132.145	0.336	0.043
-264.253	38.380	-0.263	0.231
-263.238	426.843	0.090	0.191
-262.224	-200.000	0.006	0.118
-261.209	19.413	-0.303	-0.240
-260.195	-200.000	0.063	0.380
-259.180	-19.033	0.374	0.230
-258.165	800.000	0.115	0.320
-257.151	800.000	0.051	0.142
-256.136	78.841	0.047	0.049
-255.122	-172.625	-0.114	-0.004
-254.107	775.924	-0.080	-0.215
-253.092	74.615	0.264	-0.274
-252.078	-24.990	0.277	0.162
-251.063	-110.369	-0.401	-0.082
-250.049	-186.073	0.127	0.002
-249.034	-149.535	0.250	-0.020
-248.019	-60.271	0.205	0.086
-247.005	-33.625	0.369	-0.201
-245.990	800.000	0.059	-0.204
-244.976	27.620	0.208	-0.173
-243.961	231.888	-0.149	0.242
-242.946	106.176	0.256	0.299
-241.932	-19.991	-0.226	0.137
-240.917	800.000	-0.095	-0.289
-239.903	800.000	0.092	-0.341
-238.888	-133.726	0.055	0.007
-237.873	-113.340	0.227	0.044
-236.859	-37.994	-0.138	0.072
-235.844	-16.272	0.241	0.151
-234.830	162.909	-0.083	0.114
-233.815	411.582	0.152	-0.318
-232.800	-149.384	-0.053	0.004
-231.786	-15.897	0.077	-0.049
-230.771	-84.852	-0.260	-0.081
-229.757	-200.000	-0.016	-0.094
-228.742	147.421	0.280	0.372
-227.727	118.669	0.218	0.266
-226.713	800.000	-0.091	-0.274
-225.698	-200.000	0.104	0.468
-224.684	-46.639	0.163	-0.079
-223.669	95.679	0.106	0.120
-222.655	36.418	0.071	0.062
-221.640	25.725	-0.195	0.160
-220.625	7.197	-0.298	-0.219
-219.611	-11.046	-0.204	-0.133
-218.596	-200.000	0.010	-0.061
-217.582	-59.134	0.197	0.084
-216.567	-103.550	0.363	0.084
-215.552	-110.862	-0.221	-0.045
-214.538	-122.455	-0.329	0.053
-213.523	-200.000	0.025	-0.112
-212.509	637.265	0.149	-0.374
-211.494	127.153	-0.136	0.170
-210.479	-12.080	0.048	-0.031
-209.465	403.927	-0.017	-0.036
-208.450	-119.583	0.332	0.057
-207.436	800.000	-0.043	-0.165
-206.421	-46.194	-0.263	-0.128
-205.406	580.494	0.054	-0.129
-204.392	-58.934	-0.245	-0.104
-203.377	203.867	-0.193	-0.294
-202.363	-113.783	-0.305	0.059
-201.348	-200.000	0.021	0.260
-200.333	-137.099	-0.464	-0.052
-199.319	-85.559	-0.172	0.053
-198.304	-14.287	-0.225	0.143
-197.290	-20.070	-0.088	-0.054
-196.275	-77.822	0.372	0.127
-195.260	-84.130	-0.264	-0.083
-194.246	800.000	-0.042	0.169
-193.231	800.000	-0.083	0.306
-192.217	-96.287	-0.129	0.034
-191.202	56.428	-0.084	0.081
-190.187	-81.551	0.258	0.083
-189.173	588.570	-0.070	0.169
-188.158	-45.251	-0.253	0.124
-187.144	-200.000	0.001	0.008
-186.129	17.582	0.082	-0.065
-185.114	-80.866	0.493	-0.161
-184.100	-4.109	0.123	-0.084
-183.085	800.000	-0.026	-0.105
-182.071	-200.000	-0.014	0.325
-181.056	-105.025	-0.045	0.010
-180.042	69.179	-0.074	-0.074
-179.027	-4.446	0.376	0.256
-178.012	27.650	0.093	0.077
-176.998	-200.000	-0.004	0.301
-175.983	-96.524	-0.050	0.013
-174.969	-31.008	-0.342	0.190
-173.954	-200.000	-0.023	0.107
-172.939	6.456	-0.104	-0.076
-171.925	-174.043	0.390	-0.011
-170.910	800.000	-0.066	0.275
-169.896	314.512	-0.132	0.244
-168.881	221.324	-0.218	-0.344
-167.866	79.389	0.163	0.173
-166.852	29.683	-0.237	-0.198
-165.837	-200.000	-0.016	0.244
-164.823	515.478	-0.008	0.019
-163.808	142.769	-0.190	-0.249
-162.793	-142.197	-0.078	0.008
-161.779	-124.500	0.254	0.039
-160.764	316.854	0.079	-0.148
-159.750	-55.498	-0.224	-0.099
-158.735	-137.278	-0.092	-0.010
-157.720	42.077	0.127	-0.113
-156.706	-76.407	0.332	-0.115
-155.691	20.876	-0.077	0.061
-154.677	800.000	0.102	0.299
-153.662	800.000	0.055	-0.168
-152.647	74.557	0.294	0.305
-151.633	690.228	-0.124	0.319
-150.618	-200.000	-0.014	0.087
-149.604	12.702	0.108	-0.082
-148.589	312.718	-0.023	-0.042
-147.574	-87.322	-0.402	0.120
-146.560	-117.838	0.111	-0.020
-145.545	-200.000	-0.083	-0.457
-144.531	20.681	-0.255	0.203
-143.516	22.150	0.255	0.205
-142.502	-200.000	0.021	-0.172
-141.487	134.926	0.146	0.186
-140.472	-82.670	-0.249	-0.079
-139.458	-200.000	0.036	0.198
-138.443	-35.007	-0.222	-0.119
-137.429	-200.000	0.004	-0.150
-136.414	339.031	-0.039	0.075
-135.399	-123.844	0.111	-0.017
-134.385	-156.563	-0.262	-0.016
-133.370	-25.474	0.098	0.057
-132.356	104.322	-0.159	0.184
-131.341	12.239	-0.177	0.134
-130.326	22.479	0.147	0.118
-129.312	-185.937	0.114	0.002
-128.297	-61.757	0.143	0.059
-127.283	788.417	-0.123	0.331
-126.268	24.335	0.131	-0.106
-125.253	-200.000	0.003	-0.038
-124.239	-143.573	-0.037	0.003
-123.224	-200.000	0.046	0.280
-122.210	-26.947	0.107	0.062
-121.195	-200.000	0.019	-0.184
