DTS Sentinel unit serial number:	SN413079Multiplexer serial number:	ORYXHardware model number:	OX4-SRSoftware version number:	ORYX F/W v4.00 Oryx Data Collector v3.7.2.0data status	okinstallation	princeton_trtdifferential loss correction	single-endedforward channel	channel 1reverse channel	N/Adate	2019/09/17time	00:54:35forward acquisition time	60.00reverse acquisition time	0.00gamma	496.2192k internal	0.2324k external	0.2324temperature offset calibration	0.9960default loss term (dB/km)	0.3790temperature slope calibration	1.0000multiplexer offset coefficient	1.0000multiplexer slope coefficient	1.0000fibre end	0.00T internal ref (°C)	29.44T ext. ref 1 (°C)	0.11T ext. ref 2 (°C)	24.08length (m)	temperature (°C)	Stokes	anti-Stokes-747.200	-89.782	0.365	0.108
-746.185	-200.000	-0.026	0.139
-745.171	36.160	-0.171	0.152
-744.156	800.000	0.112	0.331
-743.142	800.000	-0.115	0.328
-742.127	-85.769	-0.190	0.059
-741.112	-143.072	-0.399	-0.039
-740.098	-89.496	-0.237	0.070
-739.083	-15.615	-0.333	0.214
-738.069	129.860	-0.356	0.459
-737.054	-117.125	0.362	0.067
-736.039	-109.661	-0.268	0.057
-735.025	-95.331	0.260	0.071
-734.010	-24.136	0.177	-0.107
-732.996	800.000	0.184	-0.534
-731.981	800.000	-0.085	-0.276
-730.966	-200.000	-0.049	-0.325
-729.952	-56.555	-0.097	0.043
-728.937	97.250	0.122	-0.141
-727.923	12.464	0.097	-0.075
-726.908	-18.462	-0.190	-0.120
-725.894	178.798	0.099	0.145
-724.879	-6.275	-0.102	-0.070
-723.864	-98.697	-0.130	0.033
-722.850	55.250	0.095	0.093
-721.835	-9.011	-0.096	0.065
-720.821	-26.541	-0.285	0.168
-719.806	-98.875	0.154	0.040
-718.791	800.000	-0.029	-0.109
-717.777	-148.987	-0.105	-0.009
-716.762	71.355	0.109	0.114
-715.748	-200.000	-0.062	-0.512
-714.733	-150.562	0.424	-0.033
-713.718	-107.352	0.172	0.038
-712.704	156.560	0.045	0.063
-711.689	-87.158	-0.166	-0.051
-710.675	-109.085	-0.177	-0.038
-709.660	184.417	0.220	-0.328
-708.645	-200.000	0.015	0.142
-707.631	179.824	0.121	-0.179
-706.616	-200.000	-0.007	-0.048
-705.602	-8.917	0.123	0.083
-704.587	-21.180	-0.246	0.152
-703.572	109.036	-0.170	0.204
-702.558	-200.000	-0.010	-0.174
-701.543	800.000	0.037	-0.118
-700.529	104.152	0.126	-0.149
-699.514	62.686	0.158	0.159
-698.499	322.589	0.192	0.368
-697.485	-200.000	-0.023	-0.334
-696.470	800.000	-0.021	0.065
-695.456	-114.679	-0.061	0.012
-694.441	-200.000	-0.068	-0.394
-693.426	48.632	-0.265	0.251
-692.412	32.964	-0.127	-0.111
-691.397	514.885	0.103	-0.241
-690.383	-62.337	-0.198	-0.083
-689.368	-41.662	0.286	-0.148
-688.354	748.511	-0.113	-0.307
-687.339	69.911	-0.205	0.213
-686.324	-19.893	0.248	-0.154
-685.310	-200.000	-0.043	-0.213
-684.295	11.594	-0.133	-0.103
-683.281	225.623	-0.132	0.216
-682.266	375.222	0.125	0.257
-681.251	-200.000	-0.023	0.167
-680.237	-2.620	0.289	0.204
-679.222	800.000	0.098	0.382
-678.208	75.946	-0.100	0.107
-677.193	800.000	0.028	-0.080
-676.178	-27.212	0.241	-0.142
-675.164	-200.000	0.032	0.380
-674.149	-70.553	0.226	-0.086
-673.135	-120.935	0.101	0.017
-672.120	-93.395	-0.079	0.022
-671.105	14.314	0.304	0.238
-670.091	-100.855	-0.350	-0.087
-669.076	369.708	0.077	0.157
-668.062	-8.240	0.308	-0.208
-667.047	95.608	-0.146	0.168
-666.032	-200.000	-0.037	-0.170
-665.018	13.400	0.102	0.080
-664.003	-200.000	-0.036	0.425
-662.989	23.760	-0.042	0.035
-661.974	253.136	-0.223	0.382
-660.959	-79.686	-0.078	-0.027
-659.945	669.771	0.050	-0.131
-658.930	374.574	0.033	-0.069
-657.916	160.280	0.096	-0.135
-656.901	-200.000	-0.062	-0.351
-655.886	800.000	0.053	0.212
-654.872	-103.086	0.334	-0.080
-653.857	800.000	-0.061	0.194
-652.843	-200.000	-0.031	0.284
-651.828	-86.021	0.122	-0.038
-650.814	-47.972	0.229	0.111
-649.799	800.000	0.034	0.122
-648.784	-110.354	-0.184	-0.039
-647.770	-51.157	0.124	0.059
-646.755	-200.000	0.032	0.156
-645.741	800.000	-0.073	0.280
-644.726	-178.798	-0.190	0.004
-643.711	-28.232	0.095	0.055
-642.697	-144.313	0.244	-0.023
-641.682	800.000	0.085	0.320
-640.668	-58.423	0.209	0.091
-639.653	431.950	0.206	0.448
-638.638	383.103	0.188	-0.389
-637.624	-175.151	-0.171	-0.005
-636.609	-101.792	-0.124	-0.030
-635.595	-200.000	0.056	-0.254
-634.580	-35.692	-0.157	0.086
-633.565	-175.005	-0.472	-0.013
-632.551	95.828	0.091	-0.104
-631.536	226.806	-0.062	-0.100
-630.522	-111.394	-0.280	0.057
-629.507	800.000	-0.063	-0.276
-628.492	158.987	0.185	0.259
-627.478	16.582	0.126	0.100
-626.463	800.000	0.094	-0.343
-625.449	115.525	0.074	-0.091
-624.434	-80.216	0.379	-0.127
-623.419	-29.001	0.283	-0.163
-622.405	800.000	0.033	-0.141
-621.390	-134.065	0.197	-0.025
-620.376	79.008	0.075	0.080
-619.361	-74.417	-0.303	-0.110
-618.346	-200.000	-0.027	-0.143
-617.332	-133.787	0.342	0.043
-616.317	-85.930	0.247	-0.077
-615.303	-6.500	-0.034	0.024
-614.288	183.088	0.062	0.092
-613.273	92.229	0.124	0.141
-612.259	800.000	0.021	-0.071
-611.244	-146.416	-0.415	-0.036
-610.230	-71.976	-0.143	-0.054
-609.215	473.878	-0.031	0.069
-608.201	584.925	-0.050	0.124
-607.186	-200.000	0.001	0.223
-606.171	-186.631	0.237	-0.003
-605.157	0.607	0.138	0.099
-604.142	-200.000	0.048	-0.445
-603.128	30.933	-0.137	-0.118
-602.113	400.758	0.074	0.155
-601.098	4.936	-0.101	-0.075
-600.084	95.252	0.230	-0.263
-599.069	237.877	-0.217	-0.361
-598.055	72.972	0.287	0.301
-597.040	140.144	0.170	-0.226
-596.025	-80.951	0.084	0.028
-595.011	393.764	-0.114	-0.238
-593.996	-200.000	-0.047	-0.265
-592.982	126.964	0.298	-0.379
-591.967	261.467	0.187	0.325
-590.952	90.070	-0.200	-0.225
-589.938	301.531	0.151	0.280
-588.923	-200.000	-0.007	0.458
-587.909	375.160	0.043	-0.088
-586.894	419.302	0.078	-0.168
-585.879	-68.690	-0.167	0.065
-584.865	-138.466	-0.087	0.010
-583.850	800.000	-0.031	0.106
-582.836	-43.632	-0.324	0.164
-581.821	61.604	-0.192	0.192
-580.806	163.702	0.140	-0.198
-579.792	-129.172	-0.300	-0.042
-578.777	-17.768	0.397	0.250
-577.763	-53.944	-0.356	0.163
-576.748	800.000	-0.068	0.252
-575.733	-70.142	0.112	-0.043
-574.719	156.067	-0.112	0.155
-573.704	-70.264	0.379	-0.144
-572.690	31.953	-0.188	0.163
-571.675	-171.287	0.443	0.015
-570.661	364.015	-0.132	0.266
-569.646	580.656	-0.154	0.379
-568.631	800.000	0.085	0.293
-567.617	-200.000	-0.054	0.305
-566.602	800.000	-0.069	0.299
-565.588	-139.695	0.135	-0.014
-564.573	-200.000	0.004	-0.237
-563.558	-3.790	-0.072	0.050
-562.544	-1.660	0.136	0.096
-561.529	168.678	-0.176	-0.252
-560.515	-200.000	0.035	-0.187
-559.500	-135.574	-0.215	-0.026
-558.485	-71.044	0.401	0.151
-557.471	-200.000	-0.030	0.293
-556.456	-200.000	-0.015	-0.136
-555.442	20.108	0.211	-0.170
-554.427	408.235	0.048	0.101
-553.412	247.158	-0.163	-0.276
-552.398	155.912	0.193	0.266
-551.383	-123.514	-0.103	0.016
-550.369	-108.718	-0.160	-0.034
-549.354	330.933	0.127	0.244
-548.339	21.024	-0.216	0.175
-547.325	-114.455	0.125	0.024
-546.310	258.258	-0.144	-0.248
-545.296	-41.447	-0.158	0.081
-544.281	-18.211	0.187	0.117
-543.266	800.000	0.031	-0.135
-542.252	-136.650	0.187	0.022
-541.237	361.732	-0.069	0.140
-540.223	-20.913	-0.397	0.244
-539.208	770.928	-0.062	0.168
-538.193	246.600	-0.149	0.251
-537.179	0.917	-0.330	0.237
-536.164	109.739	-0.086	0.104
-535.150	-46.470	-0.369	-0.181
-534.135	-169.207	0.265	-0.010
-533.121	-200.000	0.012	0.308
-532.106	-93.932	0.190	0.052
-531.091	-200.000	0.037	0.199
-530.077	-113.705	0.199	0.039
-529.062	9.166	-0.340	0.257
-528.048	227.542	0.113	0.184
-527.033	-67.297	0.119	-0.047
-526.018	-94.593	-0.100	-0.027
-525.004	59.054	0.423	-0.417
-523.989	208.724	0.044	-0.068
-522.975	12.191	-0.175	-0.135
-521.960	53.730	0.250	0.240
-520.945	-21.926	0.169	-0.103
-519.931	-46.821	-0.172	0.084
-518.916	-134.497	0.326	0.040
-517.902	800.000	-0.103	0.368
-516.887	-151.880	0.045	0.003
-515.872	-11.420	-0.258	-0.170
-514.858	-163.539	-0.328	-0.016
-513.843	128.719	0.017	0.022
-512.829	-22.077	0.130	-0.079
-511.814	-148.595	-0.151	-0.012
-510.799	-39.917	-0.208	0.109
-509.785	-92.896	0.211	0.059
-508.770	-200.000	0.055	0.330
-507.756	634.321	0.036	0.092
-506.741	188.366	0.098	0.147
-505.726	800.000	0.055	0.174
-504.712	-200.000	0.032	-0.201
-503.697	0.992	0.204	-0.146
-502.683	-45.737	0.209	-0.103
-501.668	256.626	-0.043	-0.074
-500.653	-18.474	-0.204	-0.127
-499.639	85.932	0.103	0.113
-498.624	-200.000	0.016	0.250
-497.610	-154.801	-0.261	-0.017
-496.595	800.000	-0.122	0.382
-495.581	-127.120	0.110	-0.016
-494.566	-69.008	-0.050	0.019
-493.551	800.000	-0.089	-0.283
-492.537	800.000	-0.114	-0.351
-491.522	-140.517	0.292	0.030
-490.508	37.474	-0.044	0.039
-489.493	800.000	-0.048	-0.151
-488.478	37.706	-0.163	0.144
-487.464	-128.096	-0.103	-0.015
-486.449	754.597	0.037	-0.101
-485.435	-18.018	-0.107	0.067
-484.420	436.666	0.212	-0.460
-483.405	800.000	0.197	-0.606
-482.391	43.833	-0.143	-0.131
-481.376	465.918	0.063	-0.141
-480.362	46.413	-0.198	-0.184
-479.347	61.518	-0.078	0.078
-478.332	-200.000	0.167	0.000
-477.318	-24.973	0.150	0.089
-476.303	-200.000	-0.053	-0.439
-475.289	154.935	0.226	-0.310
-474.274	383.969	-0.163	-0.334
-473.259	-60.545	-0.139	-0.059
-472.245	33.218	0.039	0.034
-471.230	224.799	-0.159	0.257
-470.216	-200.000	-0.054	0.283
-469.201	209.937	0.147	0.230
-468.186	-21.323	-0.205	0.125
-467.172	113.381	0.121	0.147
-466.157	17.407	0.189	-0.150
-465.143	-200.000	-0.015	-0.141
-464.128	98.234	-0.189	-0.217
-463.113	800.000	0.010	-0.031
-462.099	-200.000	-0.055	-0.337
-461.084	76.428	-0.102	-0.108
-460.070	125.765	0.041	0.052
-459.055	-29.935	0.179	0.102
-458.040	-143.780	-0.147	-0.014
-457.026	69.884	-0.140	0.144
-456.011	-53.647	-0.073	-0.034
-454.997	800.000	-0.056	0.218
-453.982	62.935	-0.210	0.210
-452.968	230.542	-0.142	0.232
-451.953	-200.000	-0.006	0.253
-450.938	-65.952	-0.086	0.034
-449.924	-200.000	-0.038	-0.358
-448.909	-108.076	-0.437	-0.095
-447.895	-199.104	-0.121	0.001
-446.880	-200.000	-0.058	-0.335
-445.865	197.144	0.131	0.199
-444.851	124.013	0.168	0.211
-443.836	-28.826	-0.244	-0.140
-442.822	-200.000	0.019	-0.120
-441.807	-57.661	-0.086	0.038
-440.792	599.262	-0.100	-0.248
-439.778	-200.000	0.245	0.001
-438.763	67.628	-0.217	0.221
-437.749	-200.000	0.016	-0.082
-436.734	-101.678	0.231	0.056
-435.719	101.523	-0.112	0.130
-434.705	250.576	-0.156	-0.265
-433.690	103.880	-0.137	-0.161
-432.676	-200.000	-0.010	-0.050
-431.661	-83.233	0.277	-0.089
-430.646	-108.076	0.119	0.026
-429.632	41.851	-0.418	0.378
-428.617	290.967	-0.062	0.113
-427.603	91.576	-0.076	0.085
-426.588	-12.955	0.134	-0.087
-425.573	-37.194	-0.262	-0.140
-424.559	48.138	0.305	0.284
-423.544	198.329	-0.056	0.085
-422.530	-152.218	-0.113	-0.008
-421.515	-86.211	0.092	-0.028
-420.500	17.984	0.320	-0.254
-419.486	74.934	-0.133	0.140
-418.471	-200.000	-0.112	-0.624
-417.457	-86.710	-0.257	-0.078
-416.442	152.162	0.039	-0.053
-415.428	193.525	0.150	0.226
-414.413	-13.844	-0.110	0.071
-413.398	264.880	0.076	0.132
-412.384	-163.494	-0.280	-0.013
-411.369	-27.010	-0.164	-0.095
-410.355	-71.400	-0.332	-0.124
-409.340	-151.462	0.262	0.019
-408.325	96.578	0.076	-0.087
-407.311	244.679	-0.126	0.211
-406.296	800.000	-0.087	-0.297
-405.282	-200.000	0.025	-0.259
-404.267	-94.110	0.378	0.103
-403.252	-200.000	0.060	0.292
-402.238	25.035	-0.109	0.090
-401.223	800.000	-0.052	0.182
-400.209	-200.000	0.006	-0.201
-399.194	16.373	-0.359	0.283
-398.179	95.603	-0.118	0.134
-397.165	800.000	0.030	0.094
-396.150	-64.652	0.147	0.060
-395.136	-16.213	0.311	0.197
-394.121	-120.887	-0.432	0.072
-393.106	-66.724	-0.091	0.036
-392.092	800.000	-0.056	0.172
-391.077	-0.970	-0.187	-0.132
-390.063	-103.086	-0.219	-0.052
-389.048	-37.300	0.255	-0.136
-388.033	-200.000	0.018	-0.144
-387.019	280.469	0.002	-0.004
-386.004	-49.645	0.065	0.031
-384.990	448.433	0.021	0.047
-383.975	800.000	0.033	0.136
-382.960	-0.466	-0.150	0.106
-381.946	124.390	0.129	0.162
-380.931	-135.152	-0.307	-0.037
-379.917	800.000	0.070	-0.214
-378.902	-76.837	-0.218	-0.076
-377.888	-122.455	0.197	-0.032
-376.873	800.000	-0.079	0.274
-375.858	800.000	-0.099	0.354
-374.844	-200.000	-0.076	0.378
-373.829	-79.099	-0.060	0.020
-372.815	339.892	0.050	-0.096
-371.800	-31.394	-0.478	0.268
-370.785	-200.000	0.015	-0.196
-369.771	14.041	-0.163	0.126
-368.756	-12.199	-0.215	0.140
-367.742	-93.062	-0.116	0.032
-366.727	800.000	-0.039	-0.133
-365.712	-200.000	-0.037	-0.161
-364.698	270.017	0.082	0.143
-363.683	83.266	0.077	0.084
-362.669	524.179	0.140	0.328
-361.654	155.963	-0.118	0.162
-360.639	122.674	0.096	-0.119
-359.625	691.934	-0.073	-0.191
-358.610	-200.000	0.009	-0.525
-357.596	-200.000	0.041	-0.294
-356.581	-11.293	0.188	-0.123
-355.566	-13.851	-0.153	-0.099
-354.552	109.761	-0.121	-0.144
-353.537	27.843	-0.282	-0.236
-352.523	-80.748	0.120	0.040
-351.508	-166.573	-0.064	0.003
-350.493	-162.325	0.304	0.015
-349.479	-110.494	0.116	0.024
-348.464	-35.489	0.083	0.045
-347.450	-113.246	0.251	-0.049
-346.435	800.000	-0.049	-0.165
-345.420	800.000	0.092	0.291
-344.406	85.718	0.224	-0.244
-343.391	-26.324	0.127	0.074
-342.377	15.965	-0.141	-0.110
-341.362	-146.393	0.178	0.015
-340.348	171.321	0.104	-0.149
-339.333	135.304	0.083	0.107
-338.318	-200.000	0.017	-0.089
-337.304	47.838	0.059	-0.055
-336.289	-200.000	0.004	-0.101
-335.275	-200.000	-0.055	-0.278
-334.260	800.000	0.153	0.579
-333.245	-200.000	0.013	-0.063
-332.231	-66.536	0.227	-0.089
-331.216	-200.000	0.087	-0.391
-330.202	-151.507	0.167	-0.012
-329.187	-200.000	-0.055	-0.281
-328.172	-63.149	-0.220	-0.090
-327.158	800.000	0.031	-0.086
-326.143	-101.227	0.142	-0.034
-325.129	-34.092	-0.297	-0.162
-324.114	173.458	-0.147	0.210
-323.099	120.920	-0.364	-0.449
-322.085	-106.048	-0.050	-0.011
-321.070	-149.851	0.101	0.008
-320.056	-172.001	0.389	0.013
-319.041	-149.408	0.317	-0.025
-318.026	34.209	-0.145	0.126
-317.012	187.833	-0.104	-0.154
-315.997	-90.224	0.384	-0.111
-314.983	-2.544	-0.119	0.083
-313.968	-27.619	0.091	-0.053
-312.953	700.603	-0.039	-0.102
-311.939	-65.362	0.055	-0.022
-310.924	125.468	0.051	-0.064
-309.910	-200.000	0.019	0.169
-308.895	2.416	0.130	-0.093
-307.880	39.222	-0.085	0.076
-306.866	342.599	-0.042	-0.082
-305.851	593.378	0.134	-0.329
-304.837	432.026	0.119	-0.257
-303.822	549.315	-0.123	-0.292
-302.807	-200.000	0.005	-0.258
-301.793	800.000	0.088	0.299
-300.778	-200.000	-0.003	0.210
-299.764	315.635	0.033	0.061
-298.749	-200.000	0.032	-0.206
-297.735	800.000	0.017	-0.053
-296.720	472.691	-0.124	-0.277
-295.705	10.939	-0.145	0.110
-294.691	800.000	0.060	0.219
-293.676	800.000	-0.023	0.070
-292.662	-200.000	-0.001	-0.104
-291.647	774.198	0.218	-0.589
-290.632	48.309	-0.096	0.089
-289.618	62.400	-0.205	0.203
-288.603	-200.000	-0.021	0.286
-287.589	-82.495	0.152	0.049
-286.574	-12.193	-0.343	0.223
-285.559	800.000	0.067	-0.249
-284.545	59.421	0.108	-0.106
-283.530	312.166	0.186	0.346
-282.516	71.813	0.093	-0.096
-281.501	127.268	-0.158	0.198
-280.486	13.319	-0.244	-0.187
-279.472	66.184	0.119	0.119
-278.457	44.595	0.117	-0.106
-277.443	-200.000	-0.004	0.066
-276.428	-200.000	-0.033	-0.275
-275.413	76.045	-0.146	0.153
-274.399	-46.216	0.186	0.091
-273.384	-118.511	-0.139	-0.024
-272.370	-80.355	0.087	0.029
-271.355	58.682	0.243	-0.237
-270.340	-184.224	-0.190	0.003
-269.326	-62.733	-0.406	-0.167
-268.311	457.307	0.145	0.319
-267.297	800.000	0.022	-0.074
-266.282	-124.794	-0.379	-0.058
-265.267	800.000	-0.110	0.353
-264.253	499.289	-0.109	-0.250
-263.238	128.264	-0.146	-0.184
-262.224	-120.037	0.279	0.047
-261.209	-132.921	0.263	0.033
-260.195	608.076	-0.042	0.104
-259.180	-117.035	0.234	0.042
-258.165	-131.324	-0.249	0.033
-257.151	-156.272	0.059	-0.004
-256.136	800.000	0.072	-0.237
-255.122	469.048	0.078	0.173
-254.107	420.185	-0.127	-0.269
-253.092	-200.000	0.014	0.104
-252.078	-163.711	-0.176	-0.008
-251.063	6.753	0.263	0.193
-250.049	264.434	0.081	-0.139
-249.034	550.636	0.098	0.233
-248.019	77.530	0.149	0.157
-247.005	-139.627	-0.274	-0.029
-245.990	-200.000	0.065	-0.559
-244.976	15.112	0.155	-0.120
-243.961	800.000	0.056	0.209
-242.946	-200.000	0.041	-0.274
-241.932	638.196	0.070	-0.176
-240.917	414.420	0.043	-0.091
-239.903	-110.120	-0.096	0.020
-238.888	-76.750	0.308	0.107
-237.873	-29.776	0.146	-0.082
-236.859	800.000	0.098	0.298
-235.844	-154.053	0.055	-0.004
-234.830	-114.202	-0.109	-0.021
-233.815	16.368	-0.005	0.004
-232.800	-200.000	-0.046	0.254
-231.786	-34.937	0.201	-0.109
-230.771	-5.894	-0.093	-0.063
-229.757	173.136	0.166	0.237
-228.742	376.606	-0.105	0.211
-227.727	9.362	0.225	0.169
-226.713	-89.908	-0.156	-0.045
-225.698	-1.062	-0.162	-0.113
-224.684	-108.951	0.043	-0.009
-223.669	-200.000	-0.025	0.121
-222.655	-200.000	0.030	-0.403
-221.640	38.533	-0.065	0.057
-220.625	228.098	-0.053	-0.086
-219.611	447.978	0.020	-0.045
-218.596	93.939	-0.083	-0.093
-217.582	-62.604	-0.140	0.058
-216.567	123.411	0.065	-0.080
-215.552	-200.000	-0.065	0.295
-214.538	43.062	0.250	-0.225
-213.523	148.180	-0.055	0.073
-212.509	-111.570	0.151	0.030
-211.494	-118.549	-0.092	0.016
-210.479	800.000	0.091	0.251
-209.465	172.626	0.075	-0.106
-208.450	-109.357	0.211	0.044
-207.436	526.659	-0.174	-0.405
-206.421	-200.000	0.011	-0.089
-205.406	-200.000	-0.000	0.265
-204.392	-68.639	0.347	0.133
-203.377	684.844	0.069	0.177
-202.363	14.466	-0.230	0.178
-201.348	264.245	0.286	0.491
-200.333	-200.000	-0.031	0.164
-199.319	305.249	0.124	-0.227
-198.304	-200.000	0.044	-0.374
-197.290	283.521	-0.098	0.174
-196.275	-9.781	-0.206	-0.136
-195.260	-166.404	0.265	-0.011
-194.246	-14.168	-0.181	-0.115
-193.231	-200.000	0.003	0.077
-192.217	-97.099	-0.194	0.050
-191.202	800.000	-0.032	0.114
-190.187	303.936	0.037	-0.068
-189.173	800.000	-0.096	0.324
-188.158	-95.410	-0.152	-0.040
-187.144	-47.135	0.116	-0.056
-186.129	-145.138	-0.253	-0.023
-185.114	-128.288	-0.223	0.031
-184.100	-103.113	-0.230	0.054
-183.085	104.373	-0.122	-0.142
-182.071	-107.619	0.158	0.034
-181.056	-144.617	0.178	0.016
-180.042	-85.362	-0.291	0.089
-179.027	800.000	0.105	0.313
-178.012	7.438	0.128	-0.094
-176.998	-185.069	0.441	0.007
-175.983	39.008	-0.070	-0.061
-174.969	-200.000	0.001	-0.093
-173.954	-200.000	0.008	-0.365
-172.939	-36.569	-0.213	-0.113
-171.925	800.000	0.113	-0.382
-170.910	800.000	0.064	0.221
-169.896	-200.000	0.006	-0.090
-168.881	-200.000	0.030	0.293
-167.866	11.603	-0.207	0.157
-166.852	-200.000	-0.022	0.107
-165.837	217.826	-0.143	0.226
-164.823	266.398	0.061	0.104
-163.808	86.248	-0.135	-0.146
-162.793	-134.614	0.238	0.029
-161.779	46.053	0.302	-0.276
-160.764	800.000	-0.013	-0.049
-159.750	-200.000	0.001	-0.209
-158.735	-106.660	-0.048	0.011
-157.720	553.455	0.154	0.365
-156.706	-102.758	0.321	0.075
-155.691	-200.000	-0.037	-0.194
-154.677	800.000	-0.056	-0.230
-153.662	6.969	0.101	0.074
-152.647	-200.000	0.017	-0.100
-151.633	800.000	-0.023	0.064
-150.618	-127.993	0.056	-0.008
-149.604	-200.000	-0.049	0.281
-148.589	-200.000	-0.013	-0.239
-147.574	32.943	0.187	-0.160
-146.560	-200.000	-0.003	0.228
-145.545	329.848	0.023	-0.044
-144.531	-12.293	0.072	0.046
-143.516	-35.758	-0.141	0.075
-142.502	-200.000	0.028	0.161
-141.487	186.278	-0.053	0.077
-140.472	38.182	0.123	-0.108
-139.458	-80.660	0.262	0.086
-138.443	183.293	0.081	0.118
-137.429	-42.477	-0.263	0.132
-136.414	243.062	0.189	0.313
-135.399	664.007	-0.050	0.126
-134.385	800.000	0.080	0.226
-133.370	-72.123	0.319	-0.117
-132.356	-29.665	0.048	-0.027
-131.341	126.475	0.240	0.300
-130.326	201.880	-0.159	0.242
-129.312	98.048	0.343	0.389
-128.297	-107.039	0.048	0.011
-127.283	-143.480	0.141	0.013
-126.268	684.437	0.078	0.200
-125.253	-77.534	-0.354	-0.121
-124.239	90.937	-0.188	0.208
-123.224	-83.835	-0.250	-0.078
-122.210	107.064	-0.079	0.093
-121.195	28.305	-0.158	-0.131
-120.180	800.000	0.064	-0.191
