DTS Sentinel unit serial number:	SN413079Multiplexer serial number:	ORYXHardware model number:	OX4-SRSoftware version number:	ORYX F/W v4.00 Oryx Data Collector v3.7.2.0data status	okinstallation	princeton_trtdifferential loss correction	single-endedforward channel	channel 1reverse channel	N/Adate	2019/09/10time	23:32:11forward acquisition time	60.00reverse acquisition time	0.00gamma	496.2192k internal	0.2331k external	0.2331temperature offset calibration	0.9936default loss term (dB/km)	0.3790temperature slope calibration	1.0000multiplexer offset coefficient	1.0000multiplexer slope coefficient	1.0000fibre end	0.00T internal ref (°C)	29.69T ext. ref 1 (°C)	-0.32T ext. ref 2 (°C)	23.13length (m)	temperature (°C)	Stokes	anti-Stokes-747.200	120.954	-0.244	-0.306
-746.185	-41.622	-0.131	-0.068
-745.171	442.695	0.067	-0.148
-744.156	-200.000	0.045	0.270
-743.142	222.516	0.089	-0.144
-742.127	-20.065	0.047	-0.029
-741.112	800.000	0.091	-0.333
-740.098	159.807	0.038	0.053
-739.083	800.000	0.021	-0.060
-738.069	-20.212	0.132	0.082
-737.054	800.000	-0.056	-0.177
-736.039	-153.352	-0.307	0.022
-735.025	-200.000	0.034	0.181
-734.010	-86.610	-0.082	-0.025
-732.996	-132.179	-0.319	-0.042
-731.981	-200.000	-0.026	-0.148
-730.966	131.670	-0.259	0.335
-729.952	-99.267	0.068	0.017
-728.937	-60.516	-0.320	-0.137
-727.923	714.638	-0.051	0.135
-726.908	489.856	-0.084	0.193
-725.894	-176.845	0.321	-0.008
-724.879	57.131	0.178	-0.174
-723.864	114.318	0.260	-0.319
-722.850	694.504	-0.098	-0.258
-721.835	-72.167	0.275	-0.103
-720.821	-200.000	0.023	-0.419
-719.806	-200.000	-0.011	0.349
-718.791	-38.821	0.259	-0.137
-717.777	-200.000	-0.001	0.037
-716.762	395.125	-0.130	-0.272
-715.748	744.119	-0.097	0.262
-714.733	-173.016	-0.296	-0.009
-713.718	800.000	0.128	-0.422
-712.704	-134.209	0.138	0.017
-711.689	337.093	0.129	-0.253
-710.675	-123.805	0.170	0.027
-709.660	12.361	0.184	0.142
-708.645	23.593	0.152	0.125
-707.631	-54.308	-0.124	-0.057
-706.616	-200.000	-0.038	0.241
-705.602	800.000	-0.051	0.160
-704.587	-34.894	0.185	0.101
-703.572	-87.451	-0.557	-0.170
-702.558	-200.000	0.026	0.317
-701.543	-130.817	0.045	0.006
-700.529	-39.006	0.064	-0.034
-699.514	-173.131	-0.087	-0.003
-698.499	76.972	0.206	0.219
-697.485	103.355	-0.072	0.084
-696.470	122.886	0.277	-0.348
-695.456	-151.077	0.248	-0.019
-694.441	380.802	0.086	-0.178
-693.426	-132.906	-0.088	0.011
-692.412	61.316	-0.082	0.082
-691.397	-12.424	-0.296	-0.194
-690.383	-7.826	-0.330	-0.224
-689.368	-200.000	-0.022	0.367
-688.354	85.055	-0.073	0.081
-687.339	23.163	0.148	-0.122
-686.324	-105.843	-0.287	0.065
-685.310	258.341	0.125	-0.216
-684.295	220.280	-0.219	-0.353
-683.281	-200.000	-0.016	0.214
-682.266	270.894	-0.092	0.163
-681.251	-200.000	0.002	0.073
-680.237	499.664	0.197	-0.455
-679.222	-157.330	-0.120	-0.007
-678.208	-200.000	-0.047	-0.238
-677.193	-19.005	0.257	0.160
-676.178	-173.484	-0.058	-0.002
-675.164	75.451	0.208	-0.220
-674.149	56.006	-0.253	-0.246
-673.135	-104.230	-0.137	0.032
-672.120	24.190	-0.010	-0.008
-671.105	-200.000	-0.015	0.249
-670.091	-35.939	-0.334	-0.181
-669.076	-85.408	-0.155	-0.049
-668.062	38.936	0.052	-0.046
-667.047	-56.352	-0.099	-0.044
-666.032	800.000	0.032	0.119
-665.018	205.874	-0.069	0.108
-664.003	-108.175	0.035	-0.008
-662.989	-12.557	0.089	-0.059
-661.974	183.900	0.045	-0.067
-660.959	386.749	0.012	-0.026
-659.945	296.186	0.134	0.245
-658.930	92.484	-0.257	0.291
-657.916	-156.815	-0.412	0.025
-656.901	62.091	-0.165	-0.165
-655.886	-147.033	0.302	-0.026
-654.872	259.286	0.132	-0.228
-653.857	-25.230	-0.267	-0.159
-652.843	-200.000	0.003	0.145
-651.828	-173.155	-0.103	0.003
-650.814	56.246	-0.136	-0.133
-649.799	-62.357	0.106	0.044
-648.784	-140.870	0.147	-0.015
-647.770	140.838	0.131	0.174
-646.755	-200.000	0.001	-0.096
-645.741	-36.484	-0.092	-0.050
-644.726	-132.348	0.130	-0.017
-643.711	39.784	0.068	-0.061
-642.697	146.692	0.146	0.197
-641.682	-29.398	-0.389	-0.223
-640.668	51.568	-0.132	0.126
-639.653	749.610	-0.069	0.188
-638.638	38.490	-0.057	0.051
-637.624	-37.859	-0.176	-0.094
-636.609	24.469	-0.368	0.305
-635.595	-200.000	-0.021	0.195
-634.580	-200.000	-0.005	-0.381
-633.565	126.087	0.080	-0.102
-632.551	800.000	-0.038	-0.131
-631.536	157.131	0.159	-0.221
-630.522	-8.559	0.168	-0.113
-629.507	-132.545	-0.093	0.012
-628.492	-83.754	-0.434	0.139
-627.478	-157.743	0.291	-0.017
-626.463	89.753	0.321	0.359
-625.449	-200.000	-0.051	0.321
-624.434	722.240	0.066	0.175
-623.419	336.707	-0.130	-0.252
-622.405	-200.000	0.017	0.144
-621.390	-73.400	0.263	-0.096
-620.376	83.811	-0.259	0.283
-619.361	-138.241	0.359	-0.040
-618.346	111.864	-0.119	-0.144
-617.332	371.869	-0.066	0.134
-616.317	249.883	-0.193	0.327
-615.303	199.103	-0.086	0.132
-614.288	80.093	-0.294	0.317
-613.273	-200.000	0.000	0.040
-612.259	800.000	0.051	0.143
-611.244	-118.913	0.024	0.004
-610.230	800.000	0.003	0.008
-609.215	-49.551	-0.309	-0.147
-608.201	85.470	0.024	-0.026
-607.186	574.911	-0.103	0.252
-606.171	-200.000	0.025	0.321
-605.157	-57.405	0.157	-0.069
-604.142	384.807	-0.023	0.048
-603.128	-73.348	-0.071	-0.026
-602.113	132.060	0.067	0.087
-601.098	-9.182	-0.315	0.211
-600.084	268.542	-0.179	-0.315
-599.069	-200.000	-0.043	0.305
-598.055	-31.803	0.082	0.046
-597.040	-148.840	0.103	0.008
-596.025	209.149	0.116	-0.181
-595.011	66.203	0.033	0.034
-593.996	-200.000	0.036	0.223
-592.982	800.000	-0.008	0.029
-591.967	-80.389	0.101	0.034
-590.952	-92.542	0.187	-0.052
-589.938	4.234	0.198	0.145
-588.923	-119.028	0.375	-0.066
-587.909	306.314	-0.113	-0.211
-586.894	327.432	-0.132	-0.254
-585.879	139.285	-0.148	-0.194
-584.865	-61.292	-0.352	-0.148
-583.850	-84.600	-0.152	-0.048
-582.836	-128.912	-0.067	0.009
-581.821	77.862	-0.101	0.108
-580.806	41.735	-0.251	-0.228
-579.792	-52.563	0.114	0.053
-578.777	-195.104	-0.210	-0.002
-577.763	94.212	-0.222	-0.252
-576.748	-200.000	-0.014	0.205
-575.733	152.898	0.100	0.136
-574.719	-200.000	-0.011	-0.340
-573.704	-175.879	0.021	0.001
-572.690	-40.874	-0.247	-0.128
-571.675	456.753	-0.070	0.156
-570.661	297.511	0.171	-0.313
-569.646	-105.925	-0.305	-0.069
-568.631	-200.000	-0.010	-0.358
-567.617	-148.674	0.109	0.009
-566.602	-200.000	0.010	0.051
-565.588	612.692	-0.081	0.202
-564.573	125.800	-0.077	-0.098
-563.558	65.924	0.112	-0.114
-562.544	576.903	0.073	0.179
-561.529	65.459	-0.131	0.132
-560.515	-79.445	0.148	-0.050
-559.500	681.777	0.058	-0.151
-558.485	743.281	0.133	0.358
-557.471	-102.318	0.161	-0.038
-556.456	-2.513	-0.332	-0.232
-555.442	-192.786	-0.166	-0.002
-554.427	800.000	0.026	0.110
-553.412	-87.834	-0.205	-0.062
-552.398	800.000	0.053	0.158
-551.383	-33.267	-0.217	0.120
-550.369	88.498	-0.094	-0.104
-549.354	-15.069	0.060	-0.038
-548.339	-200.000	0.034	-0.688
-547.325	362.765	-0.007	-0.015
-546.310	-80.956	0.072	-0.024
-545.296	42.980	0.070	0.064
-544.281	-115.825	0.192	-0.036
-543.266	-133.895	0.237	-0.029
-542.252	313.996	0.140	-0.262
-541.237	-47.897	0.279	-0.135
-540.223	-105.156	-0.304	-0.069
-539.208	-96.446	0.089	0.024
-538.193	50.834	-0.191	0.181
-537.179	419.417	0.188	0.402
-536.164	30.974	-0.120	0.103
-535.150	-200.000	0.040	-0.252
-534.135	106.144	-0.195	0.230
-533.121	-67.498	-0.070	0.027
-532.106	-62.393	-0.300	0.125
-531.091	81.502	-0.037	0.040
-530.077	-135.876	-0.026	-0.003
-529.062	-200.000	0.015	-0.129
-528.048	-112.253	-0.324	-0.065
-527.033	-200.000	-0.007	0.137
-526.018	-43.362	-0.203	-0.102
-525.004	-43.022	0.174	-0.088
-523.989	800.000	-0.096	-0.336
-522.975	29.182	0.239	-0.202
-521.960	219.518	-0.127	-0.202
-520.945	28.142	0.229	-0.193
-519.931	249.893	-0.057	-0.096
-518.916	-200.000	0.031	-0.336
-517.902	17.905	-0.308	-0.244
-516.887	256.515	0.048	0.082
-515.872	32.101	0.068	0.059
-514.858	171.285	0.269	0.385
-513.843	-200.000	-0.001	0.321
-512.829	89.913	-0.056	-0.063
-511.814	79.542	-0.124	-0.133
-510.799	115.806	0.235	-0.287
-509.785	171.071	0.042	0.060
-508.770	148.621	-0.134	0.181
-507.756	800.000	0.197	0.643
-506.741	-200.000	0.034	0.464
-505.726	-88.731	0.132	0.039
-504.712	14.876	-0.226	0.176
-503.697	142.911	-0.161	-0.214
-502.683	-200.000	-0.001	-0.244
-501.668	-182.462	-0.245	0.004
-500.653	-93.746	0.218	-0.060
-499.639	58.170	-0.167	0.163
-498.624	73.743	-0.073	0.076
-497.610	-93.814	0.372	0.102
-496.595	-9.394	0.399	-0.265
-495.581	-63.909	0.105	0.043
-494.566	217.056	-0.053	0.084
-493.551	-91.226	-0.109	-0.031
-492.537	-23.748	-0.286	-0.171
-491.522	-32.974	-0.195	-0.108
-490.508	-200.000	-0.041	0.457
-489.493	70.748	0.225	0.232
-488.478	800.000	0.043	-0.173
-487.464	509.135	-0.117	0.270
-486.449	129.812	-0.195	-0.249
-485.435	418.343	0.114	-0.242
-484.420	-42.115	0.064	-0.033
-483.405	464.085	0.033	0.073
-482.391	-26.192	0.130	0.076
-481.376	-102.163	0.060	-0.014
-480.362	-200.000	0.022	0.206
-479.347	-200.000	-0.004	-0.136
-478.332	487.172	-0.087	0.197
-477.318	-200.000	-0.011	-0.445
-476.303	237.941	-0.079	0.130
-475.289	53.546	0.220	-0.210
-474.274	281.013	-0.116	-0.206
-473.259	-200.000	0.487	-0.002
-472.245	-183.890	0.152	-0.003
-471.230	22.793	-0.263	-0.215
-470.216	-40.259	0.243	-0.126
-469.201	354.421	0.101	-0.201
-468.186	-183.843	-0.169	-0.003
-467.172	-34.241	-0.343	-0.188
-466.157	574.960	-0.118	-0.287
-465.143	-200.000	-0.020	0.117
-464.128	285.424	0.061	0.109
-463.113	-34.550	-0.388	-0.211
-462.099	-77.708	0.088	-0.030
-461.084	-200.000	-0.067	-0.334
-460.070	-200.000	-0.010	-0.077
-459.055	-78.285	-0.228	0.078
-458.040	-60.609	-0.195	0.082
-457.026	29.357	-0.112	-0.095
-456.011	179.068	0.379	-0.551
-454.997	-43.040	0.222	0.112
-453.982	-125.301	-0.018	0.003
-452.968	-200.000	0.000	0.079
-451.953	454.283	0.079	-0.175
-450.938	-92.578	-0.286	-0.080
-449.924	-200.000	0.030	-0.211
-448.909	-76.271	0.039	-0.014
-447.895	29.507	0.248	-0.209
-446.880	-62.961	-0.390	-0.161
-445.865	-52.276	0.363	-0.167
-444.851	-159.172	0.148	-0.008
-443.836	-131.111	-0.184	0.024
-442.822	85.714	0.050	0.055
-441.807	-6.926	-0.178	0.120
-440.792	220.387	0.151	0.240
-439.778	-7.334	0.198	-0.134
-438.763	-200.000	0.342	0.002
-437.749	-200.000	0.025	0.251
-436.734	362.321	0.121	-0.242
-435.719	61.572	-0.140	0.139
-434.705	139.653	-0.167	0.218
-433.690	-102.709	0.259	0.061
-432.676	-200.000	-0.052	0.235
-431.661	-123.793	-0.098	0.015
-430.646	-141.617	0.369	-0.037
-429.632	-120.577	-0.272	0.046
-428.617	800.000	-0.089	-0.312
-427.603	-19.332	0.193	-0.119
-426.588	-200.000	-0.018	-0.164
-425.573	-93.053	-0.114	0.031
-424.559	31.266	0.011	-0.009
-423.544	-200.000	-0.011	-0.093
-422.530	-200.000	-0.008	-0.239
-421.515	242.627	0.132	-0.220
-420.500	-101.554	0.258	-0.062
-419.486	-76.436	-0.226	-0.079
-418.471	358.331	0.087	0.172
-417.457	710.779	-0.110	0.289
-416.442	18.228	-0.119	-0.094
-415.428	-95.195	-0.095	0.025
-414.413	277.174	0.090	-0.160
-413.398	353.419	-0.068	0.135
-412.384	-48.483	0.218	-0.104
-411.369	-13.756	-0.281	0.180
-410.355	-35.217	0.129	-0.070
-409.340	-131.958	-0.231	-0.030
-408.325	271.409	0.111	0.194
-407.311	19.482	0.246	0.196
-406.296	-200.000	-0.069	0.399
-405.282	-136.306	0.254	0.029
-404.267	3.757	0.343	-0.248
-403.252	287.123	-0.070	-0.126
-402.238	-22.524	-0.262	-0.157
-401.223	800.000	0.030	-0.103
-400.209	-61.377	-0.289	0.121
-399.194	-2.765	-0.127	0.088
-398.179	800.000	0.063	0.193
-397.165	-74.274	-0.013	0.005
-396.150	305.167	-0.059	0.110
-395.136	-100.081	-0.383	0.095
-394.121	-200.000	0.006	0.204
-393.106	-200.000	0.055	0.271
-392.092	32.371	0.135	-0.116
-391.077	-99.158	-0.230	-0.058
-390.063	184.142	-0.129	0.190
-389.048	-200.000	-0.010	0.324
-388.033	800.000	0.054	-0.207
-387.019	800.000	0.063	0.198
-386.004	-200.000	-0.004	0.122
-384.990	41.140	-0.232	-0.208
-383.975	59.510	-0.062	0.060
-382.960	116.484	0.240	-0.292
-381.946	12.539	0.125	-0.095
-380.931	775.178	-0.064	-0.175
-379.917	-200.000	-0.025	-0.199
-378.902	-91.179	0.096	-0.027
-377.888	-200.000	0.021	-0.201
-376.873	308.234	0.053	-0.098
-375.858	-150.810	0.149	0.011
-374.844	44.580	0.153	0.140
-373.829	-52.161	-0.158	-0.073
-372.815	47.770	-0.217	0.201
-371.800	800.000	-0.081	0.315
-370.785	485.412	-0.081	-0.183
-369.771	96.624	0.106	0.120
-368.756	-102.913	-0.160	-0.038
-367.742	107.732	-0.172	-0.203
-366.727	800.000	0.110	0.330
-365.712	150.467	-0.112	-0.151
-364.698	-106.474	-0.293	0.065
-363.683	123.700	0.248	-0.308
-362.669	177.180	0.090	0.130
-361.654	-62.582	0.318	0.131
-360.639	-121.705	0.262	0.043
-359.625	-104.578	0.150	0.034
-358.610	80.217	-0.239	0.254
-357.596	600.077	0.130	0.320
-356.581	426.149	-0.083	-0.178
-355.566	-178.623	-0.210	0.005
-354.552	506.784	-0.046	-0.105
-353.537	45.806	0.050	-0.046
-352.523	35.229	0.448	-0.389
-351.508	-44.276	-0.063	-0.031
-350.493	104.389	0.223	0.260
-349.479	-127.708	0.061	0.009
-348.464	-94.633	0.251	0.068
-347.450	800.000	0.045	0.169
-346.435	-93.780	0.124	-0.034
-345.420	-97.458	0.283	0.073
-344.406	-122.223	-0.075	0.012
-343.391	-148.817	0.222	-0.018
-342.377	-108.538	-0.234	0.050
-341.362	-200.000	-0.015	0.143
-340.348	-156.813	-0.203	-0.012
-339.333	800.000	0.055	0.187
-338.318	800.000	-0.038	-0.105
-337.304	-23.848	0.195	0.115
-336.289	175.592	-0.149	-0.213
-335.275	-139.181	-0.206	0.022
-334.260	-200.000	0.023	-0.369
-333.245	-151.299	0.445	0.033
-332.231	317.491	0.146	0.274
-331.216	384.547	-0.071	-0.144
-330.202	-13.600	-0.145	-0.093
-329.187	-33.990	0.023	-0.012
-328.172	-21.211	0.164	0.099
-327.158	-55.265	-0.199	0.089
-326.143	112.689	0.078	0.094
-325.129	-138.848	0.295	-0.032
-324.114	-200.000	-0.048	-0.260
-323.099	26.105	0.112	-0.093
-322.085	168.726	0.061	-0.086
-321.070	-200.000	-0.012	-0.073
-320.056	565.616	-0.042	-0.101
-319.041	-200.000	-0.022	0.129
-318.026	-156.704	0.136	0.008
-317.012	107.808	0.088	0.104
-315.997	133.647	0.300	0.384
-314.983	-200.000	0.008	0.072
-313.968	278.081	-0.097	0.171
-312.953	800.000	-0.054	0.191
-311.939	18.848	-0.058	0.046
-310.924	-200.000	-0.042	-0.188
-309.910	-72.149	-0.253	-0.093
-308.895	386.009	0.077	0.157
-307.880	273.091	-0.176	-0.307
-306.866	-128.360	-0.164	-0.023
-305.851	-109.072	0.452	-0.095
-304.837	-200.000	-0.044	0.513
-303.822	134.076	0.062	-0.079
-302.807	-88.745	-0.197	0.058
-301.793	127.079	0.231	0.289
-300.778	265.214	0.096	-0.166
-299.764	800.000	-0.085	-0.342
-298.749	-3.121	-0.103	0.071
-297.735	80.241	0.067	0.071
-296.720	67.939	-0.257	0.260
-295.705	-200.000	-0.048	0.317
-294.691	-116.201	0.070	-0.013
-293.676	-200.000	0.032	0.418
-292.662	694.359	-0.127	0.330
-291.647	800.000	-0.063	-0.209
-290.632	-36.390	-0.053	0.028
-289.618	800.000	-0.067	-0.253
-288.603	800.000	-0.025	0.104
-287.589	-126.595	-0.159	-0.023
-286.574	-49.985	0.136	0.064
-285.559	122.874	0.182	0.225
-284.545	703.299	0.135	0.352
-283.530	-76.392	0.194	-0.067
-282.516	-55.994	-0.353	0.156
-281.501	73.097	0.044	0.045
-280.486	11.790	-0.196	-0.149
-279.472	-11.802	-0.314	0.204
-278.457	243.022	-0.080	0.132
-277.443	-140.808	-0.249	0.025
-276.428	-55.533	0.088	-0.039
-275.413	25.852	-0.404	-0.333
-274.399	-187.995	-0.143	0.002
-273.384	6.370	0.211	0.155
-272.370	-2.476	0.166	0.115
-271.355	59.238	-0.197	0.192
-270.340	-114.411	0.390	0.074
-269.326	-4.551	0.128	0.087
-268.311	335.949	0.101	-0.193
-267.297	-154.544	-0.160	0.011
-266.282	800.000	0.060	-0.235
-265.267	800.000	-0.019	0.062
-264.253	800.000	0.033	-0.141
-263.238	16.332	-0.248	-0.194
-262.224	-91.680	0.287	-0.081
-261.209	478.200	-0.115	0.258
-260.195	-79.138	0.552	-0.185
-259.180	-115.344	0.309	-0.058
-258.165	-48.471	0.250	-0.119
-257.151	800.000	-0.072	0.310
-256.136	-138.845	-0.407	-0.044
-255.122	-13.368	0.119	-0.076
-254.107	-68.894	0.324	-0.124
-253.092	-200.000	-0.015	0.117
-252.078	-134.874	-0.280	0.033
-251.063	15.690	0.174	0.135
-250.049	800.000	0.046	-0.168
-249.034	-109.372	0.201	-0.042
-248.019	115.665	0.134	-0.161
-247.005	-71.202	0.174	-0.064
-245.990	-8.350	-0.059	-0.039
-244.976	40.357	-0.218	0.194
-243.961	-24.276	-0.213	-0.125
-242.946	-147.566	0.481	-0.040
-241.932	-200.000	-0.127	0.000
-240.917	-200.000	0.054	0.293
-239.903	-176.218	-0.220	0.006
-238.888	261.731	0.135	-0.231
-237.873	800.000	0.088	0.347
-236.859	800.000	-0.061	0.235
-235.844	800.000	-0.104	0.294
-234.830	795.767	0.144	-0.391
-233.815	418.957	0.126	-0.265
-232.800	-98.601	-0.117	-0.029
-231.786	219.854	0.033	0.052
-230.771	-23.349	0.298	-0.176
-229.757	-200.000	-0.066	0.425
-228.742	301.390	-0.104	0.189
-227.727	-200.000	-0.015	-0.146
-226.713	631.094	0.116	-0.289
-225.698	132.087	-0.185	0.235
-224.684	267.825	-0.116	-0.201
-223.669	-31.181	-0.227	-0.126
-222.655	-200.000	-0.022	-0.187
-221.640	72.175	0.031	0.032
-220.625	800.000	0.052	-0.224
-219.611	80.599	-0.212	0.225
-218.596	112.559	0.068	-0.082
-217.582	-192.834	0.269	0.002
-216.567	169.160	0.128	0.180
-215.552	-19.428	-0.111	-0.068
-214.538	30.949	-0.362	-0.306
-213.523	444.574	0.088	-0.190
-212.509	-114.136	0.193	-0.037
-211.494	45.786	0.069	-0.063
-210.479	334.140	0.104	-0.199
-209.465	-81.182	-0.087	0.028
-208.450	30.218	-0.101	-0.085
-207.436	-200.000	0.001	-0.083
-206.421	-48.559	0.178	0.084
-205.406	308.784	-0.092	0.170
-204.392	-107.770	-0.214	-0.046
-203.377	656.405	0.033	-0.083
-202.363	800.000	-0.079	-0.263
-201.348	-200.000	-0.000	-0.231
-200.333	-134.431	0.246	0.030
-199.319	131.053	0.072	-0.091
-198.304	800.000	-0.065	0.192
-197.290	-168.208	0.246	0.009
-196.275	-135.212	0.216	-0.026
-195.260	800.000	-0.120	0.422
-194.246	28.978	-0.346	0.289
-193.231	-200.000	-0.038	0.215
-192.217	-76.712	-0.166	-0.057
-191.202	800.000	0.148	0.636
-190.187	-154.735	0.278	-0.018
-189.173	262.777	0.076	-0.130
-188.158	26.193	-0.253	0.208
-187.144	-133.472	0.291	-0.036
-186.129	-81.952	-0.276	-0.089
-185.114	-96.708	0.172	0.045
-184.100	3.353	-0.331	-0.237
-183.085	-129.443	0.132	-0.018
-182.071	-22.354	0.153	-0.091
-181.056	318.501	-0.122	-0.227
-180.042	64.318	0.141	0.139
-179.027	-200.000	0.065	-0.302
-178.012	800.000	0.066	-0.239
-176.998	-138.680	-0.200	-0.022
-175.983	-200.000	0.023	-0.489
-174.969	-121.957	0.148	0.024
-173.954	-34.449	0.071	0.038
-172.939	-200.000	-0.012	-0.141
-171.925	324.824	0.119	-0.224
-170.910	109.460	-0.158	-0.186
-169.896	254.063	-0.114	-0.192
-168.881	-9.662	0.055	-0.036
-167.866	-171.007	-0.165	-0.006
-166.852	-32.560	0.241	-0.132
-165.837	66.493	0.109	-0.110
-164.823	686.626	-0.140	0.361
-163.808	1.870	-0.114	0.081
-162.793	-200.000	-0.010	0.299
-161.779	-32.822	0.047	-0.025
-160.764	30.239	0.100	0.084
-159.750	354.531	-0.082	-0.159
-158.735	180.663	-0.129	0.186
-157.720	387.241	-0.185	0.377
-156.706	-122.110	-0.114	-0.018
-155.691	-200.000	0.047	0.251
-154.677	406.459	0.122	0.254
-153.662	-200.000	0.006	-0.109
-152.647	218.258	0.091	-0.143
-151.633	-37.415	-0.126	-0.066
-150.618	-200.000	0.013	-0.257
-149.604	-200.000	-0.009	-0.059
-148.589	800.000	0.087	-0.356
-147.574	-4.264	-0.067	0.046
-146.560	69.715	-0.180	0.182
-145.545	-68.012	-0.016	-0.006
-144.531	-114.603	0.229	-0.043
-143.516	-48.492	-0.136	0.064
-142.502	-200.000	-0.031	-0.166
-141.487	-200.000	-0.046	-0.239
-140.472	800.000	-0.013	-0.044
-139.458	26.074	0.189	0.155
-138.443	-200.000	-0.027	-0.222
-137.429	65.212	0.158	-0.157
-136.414	170.406	0.129	0.181
-135.399	360.582	0.084	0.166
-134.385	-125.597	-0.049	0.007
-133.370	800.000	-0.035	-0.129
-132.356	165.789	-0.145	0.202
-131.341	-200.000	-0.045	0.218
-130.326	-200.000	-0.010	-0.066
-129.312	-5.702	0.094	0.063
-128.297	29.017	0.166	0.138
-127.283	-200.000	0.015	0.162
-126.268	413.184	0.009	-0.019
-125.253	-135.396	0.253	0.030
-124.239	156.423	-0.107	0.145
-123.224	462.945	-0.064	-0.140
-122.210	-45.142	0.236	-0.115
