DTS Sentinel unit serial number:	SN413079Multiplexer serial number:	ORYXHardware model number:	OX4-SRSoftware version number:	ORYX F/W v4.00 Oryx Data Collector v3.7.2.0data status	okinstallation	princeton_trtdifferential loss correction	single-endedforward channel	channel 1reverse channel	N/Adate	2019/09/17time	04:02:35forward acquisition time	60.00reverse acquisition time	0.00gamma	496.2192k internal	0.2323k external	0.2323temperature offset calibration	0.9965default loss term (dB/km)	0.3790temperature slope calibration	1.0000multiplexer offset coefficient	1.0000multiplexer slope coefficient	1.0000fibre end	0.00T internal ref (°C)	29.87T ext. ref 1 (°C)	0.14T ext. ref 2 (°C)	24.40length (m)	temperature (°C)	Stokes	anti-Stokes-747.200	24.212	0.114	0.095
-746.185	-70.281	-0.512	0.196
-745.171	6.508	0.128	0.096
-744.156	26.610	-0.325	0.274
-743.142	181.392	-0.063	-0.094
-742.127	57.856	-0.203	0.201
-741.112	62.483	0.181	0.183
-740.098	161.503	-0.132	0.186
-739.083	-127.203	-0.332	0.049
-738.069	193.496	0.155	-0.237
-737.054	-5.018	-0.131	0.091
-736.039	268.186	0.035	0.062
-735.025	326.474	-0.025	-0.048
-734.010	800.000	0.008	0.025
-732.996	50.077	-0.146	-0.139
-731.981	-125.773	-0.451	-0.069
-730.966	-7.362	-0.367	0.251
-729.952	17.604	-0.128	-0.103
-728.937	-200.000	-0.061	0.340
-727.923	800.000	0.003	-0.011
-726.908	16.403	-0.360	-0.287
-725.894	75.167	-0.178	0.190
-724.879	68.969	0.318	0.330
-723.864	113.622	0.054	0.066
-722.850	-28.852	-0.269	-0.156
-721.835	-74.766	-0.159	0.058
-720.821	-110.425	-0.474	0.099
-719.806	50.510	-0.017	0.017
-718.791	266.853	-0.163	-0.287
-717.777	800.000	0.102	-0.327
-716.762	-15.478	-0.189	-0.122
-715.748	-133.463	0.276	-0.035
-714.733	-118.169	-0.318	0.057
-713.718	-200.000	-0.043	-0.209
-712.704	-14.906	-0.156	0.101
-711.689	42.350	-0.245	0.225
-710.675	98.464	0.137	0.159
-709.660	-114.131	-0.168	-0.033
-708.645	208.154	-0.147	-0.232
-707.631	-200.000	0.022	-0.305
-706.616	151.047	0.025	0.034
-705.602	-70.442	0.136	-0.052
-704.587	800.000	-0.052	-0.175
-703.572	5.165	0.062	0.046
-702.558	800.000	0.051	-0.154
-701.543	-125.445	0.067	-0.010
-700.529	169.023	0.088	0.126
-699.514	54.854	0.152	-0.148
-698.499	161.510	-0.078	0.109
-697.485	580.331	0.061	0.151
-696.470	-126.921	-0.355	-0.053
-695.456	-200.000	-0.044	-0.338
-694.441	151.092	-0.076	-0.104
-693.426	-142.272	-0.103	0.010
-692.412	800.000	-0.118	-0.346
-691.397	74.133	0.171	-0.180
-690.383	108.962	-0.365	-0.440
-689.368	35.348	-0.284	0.251
-688.354	-15.669	-0.263	-0.169
-687.339	-131.365	0.081	-0.011
-686.324	-29.858	-0.194	-0.111
-685.310	-200.000	-0.014	0.185
-684.295	-65.473	0.136	-0.055
-683.281	464.195	-0.092	-0.208
-682.266	-54.127	0.044	-0.020
-681.251	-200.000	-0.011	0.125
-680.237	78.899	0.055	-0.059
-679.222	-108.997	0.077	-0.017
-678.208	-64.105	-0.252	0.104
-677.193	-69.087	-0.363	-0.141
-676.178	-2.060	0.015	0.011
-675.164	-81.897	0.295	0.097
-674.149	7.025	-0.284	-0.213
-673.135	17.832	0.246	-0.197
-672.120	800.000	0.084	0.365
-671.105	800.000	-0.032	-0.116
-670.091	-105.639	-0.035	0.008
-669.076	400.642	-0.142	0.300
-668.062	1.959	-0.092	-0.067
-667.047	663.416	-0.111	-0.287
-666.032	-200.000	0.046	0.232
-665.018	61.096	0.172	-0.172
-664.003	345.865	-0.130	0.257
-662.989	573.855	-0.043	-0.104
-661.974	500.052	-0.103	0.240
-660.959	-200.000	0.021	-0.277
-659.945	-140.412	-0.114	0.012
-658.930	212.855	0.164	0.260
-657.916	-105.508	-0.293	-0.067
-656.901	-156.992	0.316	0.019
-655.886	92.313	0.151	-0.171
-654.872	-9.636	-0.163	-0.110
-653.857	240.009	-0.199	-0.333
-652.843	165.381	-0.066	-0.093
-651.828	800.000	0.057	0.241
-650.814	-130.268	0.421	0.058
-649.799	-5.063	0.412	0.286
-648.784	163.777	0.189	-0.267
-647.770	800.000	-0.083	0.273
-646.755	-200.000	-0.063	-0.306
-645.741	-200.000	-0.014	0.103
-644.726	529.312	0.074	-0.175
-643.711	-8.743	0.069	-0.047
-642.697	800.000	-0.056	0.220
-641.682	246.496	0.051	-0.087
-640.668	-176.181	0.310	-0.008
-639.653	-173.725	0.259	-0.008
-638.638	415.648	-0.072	0.153
-637.624	26.796	0.263	0.221
-636.609	-10.749	0.233	0.155
-635.595	800.000	-0.069	-0.207
-634.580	-155.529	-0.252	0.016
-633.565	302.445	-0.160	0.298
-632.551	-82.721	-0.051	-0.017
-631.536	800.000	0.057	0.217
-630.522	161.202	0.082	-0.115
-629.507	7.654	-0.272	-0.205
-628.492	-200.000	0.057	0.319
-627.478	194.796	0.149	0.228
-626.463	-24.683	0.236	-0.141
-625.449	7.406	0.071	-0.053
-624.434	-200.000	-0.028	-0.144
-623.419	-200.000	-0.008	0.251
-622.405	-200.000	0.013	0.225
-621.390	-122.964	0.109	0.018
-620.376	-175.432	-0.130	-0.004
-619.361	800.000	0.043	0.160
-618.346	-131.930	-0.144	0.019
-617.332	-200.000	-0.028	0.356
-616.317	-45.643	-0.241	0.120
-615.303	-27.236	-0.199	-0.117
-614.288	146.446	-0.080	-0.108
-613.273	800.000	0.042	-0.169
-612.259	139.718	-0.086	0.114
-611.244	-200.000	-0.022	-0.161
-610.230	-95.056	-0.214	-0.058
-609.215	162.348	0.086	-0.121
-608.201	157.174	-0.009	-0.013
-607.186	104.760	-0.101	-0.120
-606.171	58.728	-0.104	0.103
-605.157	-99.324	0.229	-0.058
-604.142	-200.000	-0.007	0.071
-603.128	224.735	0.033	-0.054
-602.113	189.477	0.211	0.318
-601.098	111.953	-0.126	-0.153
-600.084	199.791	0.093	0.143
-599.069	-101.338	-0.145	0.035
-598.055	-200.000	0.007	-0.236
-597.040	108.995	0.056	0.067
-596.025	80.789	0.297	0.322
-595.011	268.821	0.046	0.081
-593.996	6.221	0.081	-0.060
-592.982	72.857	0.025	-0.026
-591.967	-72.457	0.364	-0.135
-590.952	349.845	0.152	-0.301
-589.938	-200.000	0.020	-0.193
-588.923	-83.810	-0.222	-0.071
-587.909	-104.075	-0.135	-0.031
-586.894	800.000	0.032	-0.132
-585.879	-165.665	0.079	0.003
-584.865	426.696	0.112	0.242
-583.850	452.976	-0.067	-0.149
-582.836	-157.341	-0.397	0.024
-581.821	-95.125	0.203	-0.055
-580.806	-175.655	-0.273	0.007
-579.792	-62.144	0.224	-0.094
-578.777	10.443	-0.363	-0.277
-577.763	-200.000	0.021	0.204
-576.748	-69.139	-0.221	-0.085
-575.733	235.691	0.099	-0.164
-574.719	132.482	0.224	-0.290
-573.704	-21.702	-0.102	-0.062
-572.690	-200.000	-0.029	0.297
-571.675	-30.942	0.166	0.094
-570.661	-200.000	0.017	-0.232
-569.646	36.123	-0.109	0.096
-568.631	-200.000	-0.004	0.032
-567.617	17.837	-0.167	0.133
-566.602	-56.772	-0.155	0.069
-565.588	-200.000	0.014	-0.168
-564.573	-50.463	-0.256	-0.121
-563.558	341.215	0.131	0.257
-562.544	733.364	0.090	0.242
-561.529	288.839	-0.051	0.092
-560.515	-200.000	0.002	0.362
-559.500	-1.375	-0.038	0.027
-558.485	-81.908	0.162	-0.053
-557.471	55.068	0.027	0.026
-556.456	-105.545	-0.169	-0.039
-555.442	45.215	0.033	0.030
-554.427	800.000	-0.025	-0.071
-553.412	32.334	-0.181	0.157
-552.398	271.765	0.101	-0.179
-551.383	173.890	-0.049	0.071
-550.369	130.082	-0.176	-0.226
-549.354	-200.000	0.021	-0.127
-548.339	800.000	-0.029	0.118
-547.325	-123.700	0.054	-0.009
-546.310	113.860	-0.072	0.087
-545.296	270.709	0.203	0.357
-544.281	42.219	-0.150	0.137
-543.266	800.000	0.125	-0.482
-542.252	-126.244	-0.275	0.041
-541.237	-200.000	0.005	0.186
-540.223	357.232	-0.241	0.482
-539.208	-48.389	-0.206	0.100
-538.193	-200.000	-0.070	-0.358
-537.179	-200.000	-0.010	0.334
-536.164	50.751	0.122	0.116
-535.150	-200.000	-0.041	-0.393
-534.135	-57.381	-0.279	0.123
-533.121	-200.000	0.049	-0.223
-532.106	113.287	-0.138	-0.167
-531.091	462.968	-0.155	-0.347
-530.077	312.584	0.057	0.107
-529.062	132.943	0.169	-0.219
-528.048	382.345	0.087	-0.178
-527.033	63.652	-0.239	0.241
-526.018	800.000	-0.158	-0.568
-525.004	-200.000	0.007	-0.127
-523.989	-111.442	-0.072	-0.015
-522.975	12.320	-0.163	-0.125
-521.960	279.738	-0.103	-0.184
-520.945	172.850	-0.033	-0.048
-519.931	-46.113	0.316	-0.156
-518.916	199.457	-0.179	-0.275
-517.902	40.393	-0.190	0.172
-516.887	17.834	-0.148	0.118
-515.872	-200.000	0.074	0.369
-514.858	-200.000	0.013	-0.201
-513.843	-200.000	0.034	-0.189
-512.829	800.000	-0.126	0.400
-511.814	-120.507	0.142	0.024
-510.799	-184.109	-0.151	0.003
-509.785	-200.000	-0.002	-0.194
-508.770	-200.000	0.024	0.295
-507.756	126.317	0.221	0.279
-506.741	312.125	0.149	0.279
-505.726	155.803	0.095	-0.131
-504.712	83.105	-0.263	0.286
-503.697	8.005	-0.171	-0.128
-502.683	-200.000	-0.049	-0.225
-501.668	-17.281	0.049	0.031
-500.653	-77.269	0.150	-0.052
-499.639	800.000	-0.005	0.020
-498.624	-52.480	-0.304	-0.140
-497.610	-127.956	0.291	-0.042
-496.595	454.714	0.115	0.254
-495.581	117.908	0.168	0.207
-494.566	-141.095	0.182	-0.019
-493.551	-32.817	0.127	-0.070
-492.537	-9.114	-0.116	-0.078
-491.522	285.069	-0.045	-0.081
-490.508	-130.797	0.353	-0.047
-489.493	-19.284	-0.239	-0.148
-488.478	-48.453	-0.073	0.035
-487.464	-200.000	0.067	-0.309
-486.449	585.682	0.104	0.257
-485.435	227.681	-0.128	-0.209
-484.420	196.321	-0.128	0.195
-483.405	800.000	0.096	0.376
-482.391	2.915	-0.077	-0.056
-481.376	201.550	0.076	0.118
-480.362	-200.000	0.067	0.399
-479.347	204.904	0.100	0.156
-478.332	364.781	-0.210	-0.422
-477.318	24.895	0.152	-0.126
-476.303	800.000	-0.097	0.295
-475.289	-200.000	-0.009	-0.129
-474.274	-97.141	0.278	0.072
-473.259	-51.192	0.081	-0.038
-472.245	-99.515	-0.344	0.086
-471.230	78.000	0.099	0.105
-470.216	-61.146	-0.056	-0.024
-469.201	756.951	0.047	-0.128
-468.186	-127.718	0.264	0.038
-467.172	-71.286	-0.099	0.037
-466.157	-7.901	-0.137	-0.092
-465.143	767.815	0.011	0.030
-464.128	-200.000	0.037	-0.277
-463.113	-200.000	0.021	-0.131
-462.099	10.429	-0.106	-0.080
-461.084	-88.695	0.253	-0.075
-460.070	89.134	0.128	0.142
-459.055	186.776	0.061	-0.091
-458.040	-2.841	0.132	-0.092
-457.026	-48.603	-0.198	0.095
-456.011	-130.739	-0.395	0.053
-454.997	-200.000	-0.017	-0.082
-453.982	800.000	0.033	0.121
-452.968	-119.260	0.190	-0.033
-451.953	-123.522	0.339	0.054
-450.938	72.092	0.139	0.144
-449.924	-79.047	0.393	-0.133
-448.909	-200.000	0.034	-0.169
-447.895	800.000	-0.128	0.383
-446.880	800.000	0.034	-0.131
-445.865	-30.502	-0.076	-0.043
-444.851	-56.124	0.064	0.028
-443.836	-170.119	-0.118	-0.004
-442.822	-141.709	-0.052	0.005
-441.807	347.127	0.018	0.036
-440.792	19.191	0.246	0.197
-439.778	-136.111	-0.188	-0.022
-438.763	253.525	0.047	-0.080
-437.749	121.296	0.065	-0.081
-436.734	123.758	0.097	0.121
-435.719	-200.000	-0.034	0.149
-434.705	50.294	-0.131	-0.123
-433.690	265.437	-0.130	-0.227
-432.676	-200.000	-0.017	0.157
-431.661	-70.495	0.325	-0.123
-430.646	4.131	-0.225	0.164
-429.632	5.786	0.097	-0.071
-428.617	675.662	-0.042	-0.108
-427.603	-159.829	-0.041	0.002
-426.588	-57.130	-0.460	-0.202
-425.573	194.623	-0.217	-0.328
-424.559	-34.528	-0.215	0.118
-423.544	603.910	0.125	0.310
-422.530	70.780	-0.085	-0.088
-421.515	124.375	0.237	-0.297
-420.500	-200.000	0.011	-0.228
-419.486	101.317	-0.315	0.366
-418.471	61.907	0.272	-0.270
-417.457	-200.000	-0.011	-0.105
-416.442	-17.915	0.324	0.203
-415.428	-122.999	-0.197	0.032
-414.413	317.716	-0.093	-0.175
-413.398	-200.000	0.022	0.159
-412.384	12.088	0.065	0.050
-411.369	63.212	-0.051	0.051
-410.355	800.000	0.044	-0.153
-409.340	-200.000	-0.023	0.135
-408.325	-83.936	0.119	0.038
-407.311	5.987	-0.265	0.196
-406.296	-91.595	-0.125	-0.036
-405.282	-97.124	-0.229	-0.060
-404.267	-200.000	-0.023	-0.210
-403.252	800.000	0.081	-0.243
-402.238	800.000	0.074	0.220
-401.223	-200.000	0.057	0.295
-400.209	-18.202	0.319	-0.199
-399.194	190.712	0.157	0.235
-398.179	800.000	-0.030	0.088
-397.165	-29.900	-0.290	0.164
-396.150	-200.000	-0.034	0.467
-395.136	100.275	0.134	0.155
-394.121	204.646	0.228	0.353
-393.106	-25.358	-0.271	0.159
-392.092	116.559	0.089	0.109
-391.077	280.627	0.066	0.118
-390.063	62.188	-0.161	0.160
-389.048	-200.000	0.001	0.076
-388.033	78.698	-0.189	-0.201
-387.019	800.000	-0.020	0.057
-386.004	231.973	0.281	0.459
-384.990	-35.160	0.218	0.118
-383.975	800.000	-0.098	-0.289
-382.960	-120.202	-0.056	-0.010
-381.946	-200.000	-0.013	0.072
-380.931	-35.805	-0.104	0.056
-379.917	-200.000	-0.002	-0.053
-378.902	182.015	0.193	0.283
-377.888	53.887	-0.229	0.219
-376.873	-200.000	0.008	-0.328
-375.858	-156.143	-0.202	-0.013
-374.844	207.076	-0.320	0.496
-373.829	-127.155	0.113	0.016
-372.815	307.641	0.188	-0.348
-371.800	-84.768	-0.449	0.141
-370.785	-148.439	-0.189	-0.015
-369.771	-11.084	-0.281	0.184
-368.756	-71.994	-0.148	0.055
-367.742	-200.000	0.057	-0.273
-366.727	151.679	-0.076	0.103
-365.712	-20.008	0.086	-0.053
-364.698	-60.191	-0.128	-0.054
-363.683	-75.294	-0.244	0.087
-362.669	-104.597	0.061	-0.014
-361.654	488.857	-0.067	-0.153
-360.639	246.685	-0.150	-0.252
-359.625	-42.521	0.111	0.056
-358.610	556.883	0.058	0.139
-357.596	58.662	0.192	-0.188
-356.581	-41.321	-0.099	-0.051
-355.566	272.649	0.069	0.120
-354.552	-25.975	0.275	0.161
-353.537	800.000	-0.091	0.284
-352.523	438.751	-0.087	0.188
-351.508	534.982	0.165	0.388
-350.493	279.307	-0.187	-0.332
-349.479	-109.785	0.012	0.002
-348.464	67.214	-0.061	-0.062
-347.450	650.076	-0.041	0.104
-346.435	-9.529	0.160	0.106
-345.420	800.000	0.058	0.184
-344.406	-94.445	0.176	0.048
-343.391	300.183	0.121	-0.222
-342.377	-16.682	-0.145	-0.091
-341.362	117.713	-0.170	0.208
-340.348	-200.000	0.013	0.208
-339.333	105.143	-0.098	-0.115
-338.318	800.000	0.109	-0.417
-337.304	58.653	0.102	0.100
-336.289	800.000	0.037	-0.146
-335.275	-136.867	0.080	-0.009
-334.260	-200.000	-0.010	0.052
-333.245	-151.224	-0.052	-0.004
-332.231	-200.000	-0.040	0.227
-331.216	-200.000	0.035	0.210
-330.202	116.367	0.181	-0.220
-329.187	800.000	-0.070	-0.289
-328.172	-200.000	-0.013	0.322
-327.158	800.000	-0.067	-0.239
-326.143	-146.928	0.160	-0.014
-325.129	637.211	-0.063	0.158
-324.114	287.666	-0.124	-0.223
-323.099	-200.000	0.032	-0.528
-322.085	64.009	-0.182	0.182
-321.070	-200.000	0.029	0.501
-320.056	-200.000	0.011	-0.140
-319.041	-145.538	-0.211	0.019
-318.026	32.051	-0.219	-0.188
-317.012	-77.554	-0.146	-0.050
-315.997	-121.314	0.194	0.032
-314.983	-92.953	-0.103	-0.029
-313.968	-200.000	0.019	0.124
-312.953	-120.850	-0.063	-0.011
-311.939	800.000	-0.049	0.189
-310.924	-200.000	0.094	0.000
-309.910	71.130	0.271	-0.279
-308.895	-125.564	0.216	-0.033
-307.880	434.889	0.112	0.241
-306.866	661.292	0.192	0.490
-305.851	8.083	0.257	0.192
-304.837	-200.000	0.000	0.012
-303.822	24.901	0.047	-0.039
-302.807	-59.626	0.194	0.082
-301.793	-44.604	0.193	-0.096
-300.778	-200.000	0.068	0.307
-299.764	-89.087	-0.414	0.121
-298.749	-200.000	-0.046	0.207
-297.735	-200.000	-0.037	-0.206
-296.720	-46.979	0.294	0.142
-295.705	-80.567	0.187	-0.062
-294.691	800.000	0.078	0.318
-293.676	208.539	0.055	-0.085
-292.662	56.535	-0.057	-0.055
-291.647	-164.239	0.205	0.009
-290.632	-200.000	0.016	0.097
-289.618	-102.502	-0.247	0.059
-288.603	-74.327	0.215	-0.077
-287.589	82.483	-0.141	-0.151
-286.574	44.173	0.112	-0.102
-285.559	800.000	-0.127	0.388
-284.545	800.000	-0.069	-0.251
-283.530	16.769	0.161	0.126
-282.516	800.000	-0.052	-0.187
-281.501	-54.226	-0.162	-0.073
-280.486	-69.946	-0.161	-0.061
-279.472	-142.329	0.288	-0.028
-278.457	-140.759	-0.521	0.053
-277.443	-200.000	0.020	-0.183
-276.428	-76.164	0.192	0.067
-275.413	12.753	-0.291	0.223
-274.399	52.229	0.153	0.145
-273.384	-99.607	-0.463	0.115
-272.370	250.642	0.037	0.062
-271.355	244.231	-0.181	-0.301
-270.340	5.019	0.136	0.099
-269.326	-200.000	0.009	0.067
-268.311	-61.444	0.299	0.125
-267.297	-171.312	-0.250	0.008
-266.282	800.000	-0.103	0.416
-265.267	-200.000	0.052	0.306
-264.253	-98.007	0.148	-0.038
-263.238	800.000	0.067	-0.184
-262.224	475.158	-0.146	-0.326
-261.209	-200.000	0.058	-0.276
-260.195	-200.000	-0.013	0.085
-259.180	-83.644	0.131	-0.042
-258.165	45.894	-0.286	0.262
-257.151	-129.641	0.083	0.011
-256.136	545.663	0.040	-0.094
-255.122	119.608	-0.145	-0.178
-254.107	-19.095	0.124	0.076
-253.092	280.616	-0.135	0.239
-252.078	-117.317	0.122	0.022
-251.063	21.587	0.173	-0.139
-250.049	28.773	0.207	-0.173
-249.034	-24.058	0.151	0.090
-248.019	-200.000	0.084	-0.000
-247.005	348.719	-0.179	-0.350
-245.990	-45.042	-0.115	0.057
-244.976	-200.000	-0.045	0.313
-243.961	327.025	-0.101	-0.191
-242.946	-200.000	0.009	-0.553
-241.932	434.457	0.106	-0.227
-240.917	317.304	-0.087	0.163
-239.903	180.300	0.050	-0.073
-238.888	-200.000	0.052	-0.291
-237.873	-200.000	-0.004	-0.256
-236.859	-200.000	0.033	-0.204
-235.844	-28.259	0.210	0.120
-234.830	-27.008	-0.186	-0.108
-233.815	-163.885	-0.317	0.015
-232.800	-33.190	0.265	-0.145
-231.786	70.963	0.085	0.087
-230.771	-97.769	0.217	-0.056
-229.757	-40.846	-0.102	-0.052
-228.742	68.095	0.246	-0.249
-227.727	800.000	0.049	-0.162
-226.713	-16.259	0.172	0.108
-225.698	-122.713	0.086	0.014
-224.684	-180.129	0.142	0.003
-223.669	99.939	0.180	0.206
-222.655	-94.045	0.161	-0.044
-221.640	-82.139	-0.146	0.047
-220.625	78.070	-0.080	-0.084
-219.611	-177.354	0.160	-0.004
-218.596	800.000	-0.022	-0.081
-217.582	-149.266	0.174	-0.014
-216.567	-125.662	-0.099	-0.015
-215.552	16.682	-0.044	0.034
-214.538	542.777	0.051	-0.121
-213.523	-61.174	0.093	0.039
-212.509	-163.685	-0.303	-0.014
-211.494	-200.000	0.060	-0.558
-210.479	-48.595	0.310	-0.148
-209.465	-99.447	0.190	-0.047
-208.450	0.029	0.059	-0.041
-207.436	-15.845	-0.237	-0.149
-206.421	210.821	0.234	-0.364
-205.406	-155.753	0.381	-0.024
-204.392	-32.266	0.092	-0.051
-203.377	129.203	0.018	0.023
-202.363	72.392	-0.116	0.119
-201.348	-98.120	-0.191	-0.048
-200.333	53.020	0.205	-0.194
-199.319	43.717	0.305	-0.276
-198.304	28.127	0.278	-0.232
-197.290	-200.000	0.106	-0.459
-196.275	-127.859	-0.370	-0.053
-195.260	-130.843	-0.035	-0.005
-194.246	800.000	0.068	-0.201
-193.231	-83.258	-0.151	0.048
-192.217	20.419	0.266	-0.213
-191.202	800.000	-0.082	0.284
-190.187	-71.740	-0.158	0.058
-189.173	800.000	0.051	0.141
-188.158	-200.000	-0.029	0.230
-187.144	70.406	0.123	0.125
-186.129	75.490	-0.082	-0.085
-185.114	49.106	-0.061	-0.057
-184.100	425.974	0.027	-0.058
-183.085	-41.287	0.204	0.104
-182.071	128.297	-0.296	-0.372
-181.056	-200.000	-0.007	0.044
-180.042	783.899	-0.092	0.249
-179.027	-170.166	-0.328	-0.011
-178.012	-200.000	-0.020	0.114
-176.998	800.000	-0.066	-0.182
-175.983	-200.000	0.015	0.068
-174.969	-155.785	-0.087	0.005
-173.954	5.150	-0.139	0.101
-172.939	88.561	-0.349	0.383
-171.925	-189.135	0.152	-0.002
-170.910	-6.604	-0.259	0.174
-169.896	135.348	-0.113	0.145
-168.881	177.287	-0.115	-0.166
-167.866	-157.416	0.072	0.004
-166.852	-200.000	0.002	-0.311
-165.837	-191.788	0.107	0.001
-164.823	-200.000	-0.034	-0.285
-163.808	-169.248	0.155	-0.006
-162.793	241.981	-0.175	-0.289
-161.779	258.231	-0.124	0.211
-160.764	-120.470	-0.071	0.012
-159.750	683.761	0.076	-0.197
-158.735	-200.000	0.007	-0.466
-157.720	800.000	-0.047	0.192
-156.706	60.447	-0.081	-0.079
-155.691	-200.000	0.025	0.181
-154.677	83.892	-0.041	-0.045
-153.662	6.683	0.265	-0.194
-152.647	-34.209	0.158	0.086
-151.633	800.000	0.035	-0.138
-150.618	-26.276	-0.279	0.162
-149.604	417.982	0.008	0.016
-148.589	-127.070	0.162	0.023
-147.574	-131.250	0.220	0.029
-146.560	11.081	-0.113	0.085
-145.545	-8.146	-0.265	0.176
-144.531	-200.000	-0.048	-0.283
-143.516	-46.388	0.046	-0.022
-142.502	-3.069	-0.102	-0.070
-141.487	-200.000	0.028	0.305
-140.472	-187.047	-0.079	-0.001
-139.458	-145.507	0.279	-0.025
-138.443	-200.000	0.058	0.323
-137.429	-114.067	0.078	0.015
-136.414	158.937	0.026	0.035
-135.399	-200.000	0.089	-0.425
-134.385	19.085	0.194	0.154
-133.370	68.660	0.184	0.186
-132.356	54.002	-0.088	0.084
-131.341	800.000	-0.060	0.167
-130.326	-71.143	-0.257	-0.095
-129.312	73.041	0.145	0.149
-128.297	-200.000	-0.021	0.243
-127.283	-165.266	0.154	0.007
-126.268	426.477	-0.060	0.127
-125.253	56.412	-0.186	0.178
-124.239	-64.545	0.227	0.091
-123.224	41.858	-0.139	-0.124
-122.210	194.322	-0.068	0.102
-121.195	-136.048	0.589	-0.068
