DTS Sentinel unit serial number:	SN413079Multiplexer serial number:	ORYXHardware model number:	OX4-SRSoftware version number:	ORYX F/W v4.00 Oryx Data Collector v3.7.2.0data status	okinstallation	princeton_trtdifferential loss correction	single-endedforward channel	channel 1reverse channel	N/Adate	2019/09/13time	09:54:35forward acquisition time	60.00reverse acquisition time	0.00gamma	496.2192k internal	0.2325k external	0.2325temperature offset calibration	1.0157default loss term (dB/km)	0.3790temperature slope calibration	1.0000multiplexer offset coefficient	1.0000multiplexer slope coefficient	1.0000fibre end	0.00T internal ref (°C)	30.06T ext. ref 1 (°C)	4.45T ext. ref 2 (°C)	26.94length (m)	temperature (°C)	Stokes	anti-Stokes-747.200	114.903	-0.098	0.121
-746.185	-88.289	-0.095	-0.029
-745.171	-154.536	-0.204	0.014
-744.156	-200.000	-0.069	0.375
-743.142	800.000	-0.085	-0.319
-742.127	122.218	-0.102	0.128
-741.112	-60.747	-0.145	-0.062
-740.098	-200.000	0.004	0.270
-739.083	800.000	-0.057	-0.192
-738.069	800.000	0.071	0.270
-737.054	56.193	-0.017	-0.017
-736.039	-54.459	-0.326	0.149
-735.025	-152.679	0.305	0.022
-734.010	-17.718	0.105	-0.066
-732.996	-113.650	-0.300	0.059
-731.981	543.746	-0.054	-0.130
-730.966	107.081	-0.096	0.115
-729.952	-71.012	0.238	-0.090
-728.937	-88.910	-0.264	-0.079
-727.923	-37.564	-0.131	0.070
-726.908	143.236	-0.131	-0.175
-725.894	3.434	-0.176	0.129
-724.879	-120.520	-0.220	-0.038
-723.864	800.000	0.030	-0.126
-722.850	-64.308	-0.361	0.148
-721.835	-200.000	-0.006	-0.117
-720.821	-92.537	-0.488	0.138
-719.806	-91.911	0.070	0.020
-718.791	92.249	-0.117	0.132
-717.777	-200.000	0.014	-0.163
-716.762	800.000	0.018	-0.070
-715.748	44.014	0.228	-0.211
-714.733	114.699	0.238	-0.293
-713.718	-132.407	-0.021	-0.003
-712.704	179.000	0.154	-0.228
-711.689	-26.196	0.261	-0.154
-710.675	24.889	-0.096	-0.080
-709.660	-54.799	0.189	0.086
-708.645	-128.677	-0.412	0.059
-707.631	-31.839	-0.266	-0.150
-706.616	30.969	0.253	-0.218
-705.602	-104.527	-0.165	-0.038
-704.587	-200.000	0.057	0.288
-703.572	-25.030	0.238	0.142
-702.558	8.276	-0.240	-0.181
-701.543	-200.000	0.016	-0.307
-700.529	691.093	-0.069	0.181
-699.514	104.875	-0.122	0.145
-698.499	177.095	0.035	-0.052
-697.485	-93.349	-0.220	-0.062
-696.470	185.022	-0.093	-0.140
-695.456	-117.795	-0.115	-0.021
-694.441	800.000	0.049	-0.172
-693.426	-72.131	-0.318	-0.119
-692.412	303.207	0.088	0.164
-691.397	-200.000	-0.013	-0.311
-690.383	-37.431	0.301	-0.162
-689.368	-144.482	0.167	-0.016
-688.354	-111.581	0.024	-0.005
-687.339	-134.786	0.562	-0.069
-686.324	89.818	0.100	0.112
-685.310	-97.951	0.300	-0.078
-684.295	-70.620	-0.431	0.164
-683.281	-93.279	-0.245	0.069
-682.266	-144.480	0.272	-0.025
-681.251	-96.752	0.213	-0.056
-680.237	-54.564	-0.297	-0.135
-679.222	297.536	0.159	-0.294
-678.208	800.000	-0.054	0.201
-677.193	-194.710	-0.073	0.001
-676.178	-7.478	-0.219	0.149
-675.164	-29.216	0.186	0.108
-674.149	-200.000	0.032	0.161
-673.135	-200.000	0.027	-0.201
-672.120	60.436	0.242	-0.241
-671.105	-200.000	0.024	-0.352
-670.091	35.382	0.137	0.121
-669.076	-200.000	-0.008	0.343
-668.062	800.000	0.070	-0.212
-667.047	-25.261	0.110	0.065
-666.032	-34.941	-0.321	-0.176
-665.018	68.116	-0.209	-0.215
-664.003	800.000	-0.032	-0.135
-662.989	26.377	0.127	-0.107
-661.974	378.869	0.054	-0.111
-660.959	-90.462	-0.224	-0.065
-659.945	-200.000	-0.001	0.078
-658.930	-144.353	0.110	-0.010
-657.916	110.546	-0.054	-0.066
-656.901	-200.000	0.020	-0.124
-655.886	127.632	0.145	0.185
-654.872	-90.175	-0.242	-0.071
-653.857	73.607	-0.066	-0.070
-652.843	328.207	0.053	0.102
-651.828	101.671	-0.145	-0.170
-650.814	800.000	-0.050	-0.189
-649.799	800.000	0.033	-0.141
-648.784	-9.187	-0.175	-0.117
-647.770	-200.000	0.006	0.051
-646.755	487.738	-0.080	-0.184
-645.741	-200.000	0.002	-0.215
-644.726	159.022	0.091	0.127
-643.711	144.982	0.186	0.250
-642.697	-166.811	0.118	0.005
-641.682	565.965	-0.090	-0.218
-640.668	335.118	0.124	0.242
-639.653	-59.296	0.134	0.058
-638.638	-104.263	0.033	0.008
-637.624	96.024	0.081	0.093
-636.609	31.350	0.188	-0.162
-635.595	800.000	-0.048	-0.170
-634.580	13.175	-0.055	0.043
-633.565	-200.000	-0.072	0.000
-632.551	89.074	-0.092	-0.103
-631.536	-4.781	-0.184	-0.127
-630.522	17.430	-0.194	0.155
-629.507	800.000	0.054	0.164
-628.492	-112.635	0.088	0.018
-627.478	-172.837	0.202	-0.006
-626.463	65.315	-0.232	-0.235
-625.449	10.698	0.183	-0.140
-624.434	146.929	0.078	0.106
-623.419	447.810	0.084	0.186
-622.405	-83.709	-0.127	0.041
-621.390	-200.000	0.009	0.169
-620.376	-82.509	0.269	0.088
-619.361	-165.488	-0.083	-0.004
-618.346	-88.136	-0.193	0.058
-617.332	-200.000	0.011	-0.219
-616.317	-161.040	-0.067	0.004
-615.303	-200.000	-0.026	-0.335
-614.288	300.467	0.042	-0.077
-613.273	265.639	-0.164	0.288
-612.259	800.000	-0.091	0.339
-611.244	-23.119	-0.227	0.137
-610.230	37.967	0.166	-0.148
-609.215	631.963	0.065	-0.166
-608.201	-200.000	-0.001	-0.033
-607.186	164.000	-0.095	0.134
-606.171	-105.361	0.231	0.053
-605.157	173.307	-0.050	0.072
-604.142	-112.226	-0.325	0.065
-603.128	-115.087	-0.299	0.057
-602.113	-200.000	-0.013	-0.088
-601.098	-98.511	-0.196	-0.050
-600.084	800.000	-0.042	0.182
-599.069	-200.000	-0.058	0.441
-598.055	-88.897	-0.077	-0.023
-597.040	-200.000	-0.005	0.095
-596.025	498.982	-0.148	0.341
-595.011	-112.974	0.125	0.025
-593.996	-89.728	0.203	-0.060
-592.982	-76.744	-0.253	-0.089
-591.967	-88.945	0.108	0.032
-590.952	-11.981	0.152	0.100
-589.938	-200.000	0.005	-0.228
-588.923	108.092	-0.194	-0.232
-587.909	104.075	-0.099	-0.117
-586.894	-200.000	0.045	-0.322
-585.879	51.499	-0.304	0.290
-584.865	-124.516	0.253	-0.039
-583.850	-84.893	0.110	-0.034
-582.836	-9.845	-0.151	-0.101
-581.821	67.716	0.166	0.170
-580.806	567.406	0.055	-0.133
-579.792	753.453	0.035	-0.096
-578.777	239.096	0.113	-0.189
-577.763	-128.574	0.125	-0.018
-576.748	-200.000	0.003	0.059
-575.733	456.853	0.070	-0.156
-574.719	-93.686	-0.354	0.098
-573.704	-24.823	-0.109	-0.065
-572.690	284.179	0.145	-0.261
-571.675	800.000	0.047	-0.149
-570.661	244.370	-0.096	-0.162
-569.646	800.000	0.103	-0.323
-568.631	-157.551	0.167	0.010
-567.617	-152.782	0.055	-0.004
-566.602	-144.420	0.202	0.019
-565.588	-121.878	-0.206	-0.034
-564.573	-111.159	0.153	-0.031
-563.558	29.253	0.229	0.195
-562.544	178.431	0.093	0.135
-561.529	-200.000	0.009	0.123
-560.515	-68.170	-0.084	0.033
-559.500	58.513	0.040	0.039
-558.485	800.000	0.056	0.162
-557.471	11.712	0.161	-0.124
-556.456	-164.281	-0.273	0.013
-555.442	-200.000	0.031	-0.184
-554.427	-79.908	0.189	0.063
-553.412	16.943	-0.248	0.197
-552.398	-64.238	0.312	0.127
-551.383	-123.011	0.399	0.064
-550.369	217.473	0.077	-0.122
-549.354	-197.827	0.348	-0.002
-548.339	131.928	-0.244	-0.315
-547.325	-101.231	-0.196	-0.048
-546.310	176.481	0.086	-0.125
-545.296	-96.957	-0.122	0.032
-544.281	123.676	-0.144	-0.180
-543.266	143.232	0.118	0.158
-542.252	-165.003	-0.418	0.019
-541.237	-15.203	0.206	-0.132
-540.223	-49.434	-0.300	-0.143
-539.208	800.000	0.075	-0.229
-538.193	-19.531	-0.238	-0.148
-537.179	-155.758	-0.285	0.018
-536.164	48.510	0.066	-0.061
-535.150	800.000	0.176	0.558
-534.135	-200.000	0.026	-0.144
-533.121	-99.701	-0.385	-0.097
-532.106	-60.468	0.247	0.105
-531.091	-110.201	0.079	0.016
-530.077	-137.744	0.236	-0.027
-529.062	-82.242	-0.271	0.088
-528.048	-61.952	-0.337	-0.141
-527.033	20.139	-0.087	-0.071
-526.018	118.662	-0.133	0.164
-525.004	710.426	0.095	0.252
-523.989	-138.912	0.370	-0.040
-522.975	40.924	0.106	0.096
-521.960	-200.000	0.007	0.159
-520.945	-115.062	-0.256	0.049
-519.931	-28.996	-0.321	-0.184
-518.916	178.523	-0.136	0.198
-517.902	-142.486	-0.311	-0.031
-516.887	137.390	-0.231	-0.302
-515.872	-24.009	0.084	0.050
-514.858	-76.797	0.250	-0.087
-513.843	139.980	-0.097	-0.128
-512.829	595.763	-0.084	-0.209
-511.814	-108.026	-0.207	0.045
-510.799	181.222	-0.224	-0.330
-509.785	-136.797	0.140	-0.016
-508.770	-10.765	0.054	0.036
-507.756	-42.514	-0.433	0.221
-506.741	800.000	-0.049	0.188
-505.726	-53.361	0.193	-0.088
-504.712	32.810	-0.111	-0.096
-503.697	-200.000	-0.025	0.292
-502.683	705.046	-0.050	0.131
-501.668	366.217	0.072	-0.145
-500.653	-123.628	0.245	-0.039
-499.639	-113.237	0.083	-0.016
-498.624	-42.777	-0.090	-0.046
-497.610	78.373	0.235	-0.251
-496.595	174.844	0.052	-0.076
-495.581	-200.000	0.000	0.200
-494.566	-119.853	-0.241	0.041
-493.551	-60.343	0.312	0.133
-492.537	-37.334	0.221	0.118
-491.522	-64.546	-0.211	-0.085
-490.508	-111.000	-0.511	-0.105
-489.493	-81.267	0.252	0.083
-488.478	-39.748	0.168	0.088
-487.464	298.499	-0.096	0.177
-486.449	-163.767	0.231	0.011
-485.435	-200.000	-0.002	0.102
-484.420	181.939	0.160	-0.235
-483.405	31.210	0.068	0.058
-482.391	106.605	-0.132	-0.157
-481.376	-200.000	-0.005	-0.104
-480.362	800.000	0.032	0.099
-479.347	-200.000	-0.009	0.181
-478.332	20.791	-0.361	-0.292
-477.318	-180.498	0.255	0.005
-476.303	-27.508	-0.179	-0.104
-475.289	106.117	0.243	0.287
-474.274	-159.300	0.451	0.025
-473.259	100.770	0.137	-0.159
-472.245	365.476	0.085	-0.170
-471.230	-117.721	-0.048	-0.009
-470.216	-200.000	0.050	0.371
-469.201	-92.732	-0.145	0.040
-468.186	-86.820	-0.098	-0.030
-467.172	-174.397	-0.395	-0.011
-466.157	-151.174	0.096	-0.007
-465.143	-134.398	0.289	0.035
-464.128	-145.468	0.204	-0.018
-463.113	-200.000	-0.005	0.080
-462.099	-65.508	0.160	-0.064
-461.084	-200.000	-0.008	0.417
-460.070	192.204	0.175	-0.263
-459.055	-200.000	-0.028	0.339
-458.040	-47.755	0.307	0.148
-457.026	-51.769	-0.231	-0.107
-456.011	-106.623	0.064	-0.014
-454.997	-54.182	-0.092	0.042
-453.982	-43.950	0.185	-0.093
-452.968	800.000	0.056	-0.183
-451.953	-71.527	-0.546	-0.203
-450.938	800.000	-0.024	-0.088
-449.924	-200.000	-0.006	0.137
-448.909	-36.650	-0.278	0.149
-447.895	-40.235	0.257	-0.133
-446.880	-200.000	0.114	-0.001
-445.865	-113.302	0.312	0.061
-444.851	-92.636	-0.183	0.051
-443.836	-170.973	0.280	-0.010
-442.822	42.001	0.208	-0.189
-441.807	73.677	0.105	-0.110
-440.792	-78.643	-0.104	0.035
-439.778	267.161	-0.092	0.160
-438.763	269.465	-0.069	-0.121
-437.749	-152.609	-0.075	-0.005
-436.734	67.527	0.178	-0.181
-435.719	364.541	-0.075	-0.151
-434.705	-103.268	-0.121	-0.028
-433.690	2.941	-0.175	-0.127
-432.676	-200.000	-0.033	-0.219
-431.661	-200.000	-0.008	0.074
-430.646	325.596	0.079	-0.150
-429.632	164.174	0.243	-0.341
-428.617	-64.447	-0.214	0.087
-427.603	-75.751	-0.358	-0.127
-426.588	143.842	0.174	-0.231
-425.573	800.000	-0.137	-0.398
-424.559	800.000	0.053	0.196
-423.544	384.309	-0.096	-0.198
-422.530	-100.172	0.309	-0.077
-421.515	94.968	-0.085	0.096
-420.500	184.263	-0.086	-0.127
-419.486	-128.910	-0.453	-0.063
-418.471	-35.271	0.033	0.018
-417.457	110.618	0.039	-0.047
-416.442	800.000	-0.083	-0.229
-415.428	163.141	-0.074	-0.104
-414.413	-62.831	-0.373	0.154
-413.398	-200.000	-0.036	0.176
-412.384	800.000	0.057	0.167
-411.369	158.821	-0.044	-0.060
-410.355	-4.401	-0.199	-0.137
-409.340	-72.400	-0.308	-0.113
-408.325	31.750	-0.255	-0.218
-407.311	146.105	-0.025	0.034
-406.296	-21.471	-0.349	-0.212
-405.282	-26.769	0.348	0.203
-404.267	-200.000	0.044	-0.192
-403.252	-200.000	-0.002	-0.008
-402.238	-25.662	-0.184	0.108
-401.223	336.700	0.031	-0.059
-400.209	57.222	-0.028	-0.027
-399.194	-200.000	-0.021	-0.255
-398.179	-139.467	-0.239	-0.025
-397.165	-200.000	-0.003	0.120
-396.150	42.453	-0.098	-0.088
-395.136	5.023	-0.224	0.164
-394.121	75.517	0.221	-0.232
-393.106	-104.844	-0.148	-0.034
-392.092	-190.309	0.088	0.001
-391.077	792.850	0.100	-0.274
-390.063	8.766	0.186	-0.140
-389.048	317.159	-0.097	-0.183
-388.033	800.000	-0.012	0.043
-387.019	20.841	-0.204	0.165
-386.004	-200.000	0.003	0.199
-384.990	209.714	0.203	0.316
-383.975	121.696	0.274	0.340
-382.960	-200.000	0.001	0.122
-381.946	-200.000	-0.007	-0.143
-380.931	523.373	0.077	0.181
-379.917	235.577	0.011	0.018
-378.902	-15.133	0.226	0.144
-377.888	-74.756	-0.142	0.051
-376.873	-51.451	-0.057	0.026
-375.858	-50.831	-0.101	0.047
-374.844	-97.872	0.293	-0.075
-373.829	-124.884	0.166	0.025
-372.815	-115.633	-0.110	0.020
-371.800	148.233	0.276	-0.371
-370.785	252.880	-0.199	-0.337
-369.771	100.055	-0.062	-0.071
-368.756	-28.911	-0.263	0.150
-367.742	122.035	0.212	-0.263
-366.727	193.337	0.085	-0.128
-365.712	178.972	-0.059	-0.085
-364.698	-200.000	-0.011	-0.072
-363.683	-26.534	0.203	-0.118
-362.669	169.627	0.075	-0.107
-361.654	8.945	0.244	-0.183
-360.639	-123.102	0.118	0.019
-359.625	226.632	-0.102	0.164
-358.610	-200.000	-0.004	0.097
-357.596	62.278	0.030	0.029
-356.581	166.461	-0.149	-0.210
-355.566	111.286	-0.014	0.017
-354.552	-200.000	0.013	0.358
-353.537	800.000	-0.050	-0.138
-352.523	-200.000	0.004	-0.279
-351.508	213.289	-0.161	0.253
-350.493	175.655	0.244	0.352
-349.479	-126.098	-0.161	-0.024
-348.464	-114.119	0.326	0.063
-347.450	-99.563	-0.101	0.025
-346.435	-16.977	-0.138	-0.087
-345.420	-55.418	0.283	0.126
-344.406	-123.135	0.148	0.024
-343.391	90.169	-0.221	0.246
-342.377	101.775	0.132	0.153
-341.362	21.034	-0.166	-0.134
-340.348	-200.000	-0.096	-0.000
-339.333	-200.000	0.030	-0.201
-338.318	-65.269	0.123	0.049
-337.304	-200.000	0.033	0.170
-336.289	171.913	-0.056	-0.080
-335.275	-58.592	0.051	0.022
-334.260	800.000	0.067	0.238
-333.245	800.000	-0.050	0.198
-332.231	-200.000	0.001	0.091
-331.216	-146.305	0.177	-0.015
-330.202	636.078	0.074	-0.187
-329.187	-116.344	0.236	0.043
-328.172	-200.000	0.021	-0.222
-327.158	800.000	-0.136	0.378
-326.143	-200.000	0.023	-0.122
-325.129	800.000	0.092	-0.304
-324.114	65.893	0.034	0.034
-323.099	-174.460	-0.498	0.014
-322.085	226.852	-0.175	0.283
-321.070	16.280	0.143	0.112
-320.056	33.819	-0.274	0.236
-319.041	-48.475	-0.189	-0.090
-318.026	-200.000	-0.012	-0.168
-317.012	-96.692	-0.160	-0.042
-315.997	47.759	0.128	0.118
-314.983	-113.027	-0.234	-0.046
-313.968	-131.139	-0.266	-0.035
-312.953	156.665	0.167	0.228
-311.939	-42.525	-0.205	0.104
-310.924	-139.979	-0.116	-0.012
-309.910	311.665	0.087	-0.162
-308.895	-67.443	-0.178	-0.069
-307.880	-111.543	0.216	0.043
-306.866	-200.000	-0.006	-0.042
-305.851	-87.210	0.272	0.082
-304.837	150.302	0.158	0.213
-303.822	-200.000	-0.057	-0.319
-302.807	-200.000	0.045	-0.225
-301.793	-28.258	0.132	-0.075
-300.778	-200.000	0.052	0.278
-299.764	50.322	-0.345	-0.323
-298.749	-124.692	-0.279	-0.043
-297.735	28.641	0.223	0.187
-296.720	-149.908	0.279	-0.022
-295.705	-31.901	0.078	-0.043
-294.691	-200.000	-0.007	0.067
-293.676	215.454	0.150	-0.236
-292.662	-118.007	0.213	0.038
-291.647	50.294	-0.081	-0.075
-290.632	-200.000	-0.056	-0.388
-289.618	211.561	0.129	0.201
-288.603	-200.000	-0.040	0.413
-287.589	-84.347	0.245	0.077
-286.574	800.000	0.049	0.181
-285.559	-194.681	0.093	0.001
-284.545	-200.000	0.004	0.245
-283.530	92.715	0.283	0.316
-282.516	15.862	-0.064	0.050
-281.501	7.612	-0.182	-0.135
-280.486	-200.000	0.023	-0.170
-279.472	-200.000	-0.018	0.154
-278.457	-200.000	-0.016	-0.170
-277.443	65.842	-0.185	0.186
-276.428	-78.014	0.282	-0.096
-275.413	-85.161	-0.367	-0.114
-274.399	-172.727	-0.132	-0.004
-273.384	-9.908	0.105	-0.069
-272.370	42.572	-0.213	0.192
-271.355	-136.977	-0.340	-0.039
-270.340	-49.632	-0.132	0.062
-269.326	337.620	-0.028	-0.054
-268.311	105.619	-0.177	-0.207
-267.297	-180.474	0.397	0.008
-266.282	-200.000	0.010	0.051
-265.267	-49.922	-0.190	-0.089
-264.253	35.833	0.021	0.019
-263.238	-44.180	-0.303	-0.150
-262.224	105.577	-0.079	0.092
-261.209	800.000	0.107	0.351
-260.195	-159.797	0.184	-0.010
-259.180	565.809	0.167	0.400
-258.165	791.825	-0.089	0.242
-257.151	-200.000	-0.023	0.165
-256.136	-15.756	0.410	-0.259
-255.122	481.467	0.126	-0.284
-254.107	-200.000	-0.040	0.233
-253.092	84.126	-0.129	-0.139
-252.078	-200.000	-0.054	-0.251
-251.063	209.188	-0.224	-0.347
-250.049	-200.000	0.027	0.233
-249.034	-99.234	0.234	0.058
-248.019	-80.996	0.084	-0.028
-247.005	-200.000	-0.013	0.096
-245.990	35.276	0.382	0.331
-244.976	-11.422	-0.160	0.104
-243.961	-200.000	0.029	0.190
-242.946	185.994	0.255	0.375
-241.932	75.613	0.021	0.022
-240.917	9.524	0.159	-0.119
-239.903	-105.889	0.069	-0.015
-238.888	-200.000	-0.013	-0.184
-237.873	205.257	-0.196	-0.301
-236.859	202.457	0.240	0.367
-235.844	106.205	-0.155	-0.182
-234.830	-114.504	-0.269	-0.051
-233.815	23.202	0.122	0.099
-232.800	28.220	0.025	-0.021
-231.786	-160.802	-0.115	-0.006
-230.771	-108.113	0.166	0.036
-229.757	-200.000	0.022	0.180
-228.742	-200.000	0.012	0.121
-227.727	388.374	-0.150	0.307
-226.713	-111.159	-0.141	0.029
-225.698	-42.145	0.171	0.087
-224.684	-81.460	0.118	0.038
-223.669	-80.883	0.327	0.107
-222.655	331.477	-0.102	0.194
-221.640	286.380	-0.119	0.212
-220.625	506.273	-0.148	0.339
-219.611	231.810	0.189	-0.306
-218.596	52.007	-0.072	-0.068
-217.582	101.585	0.046	-0.053
-216.567	-105.174	-0.278	-0.063
-215.552	80.961	0.265	0.282
-214.538	167.839	-0.188	0.264
-213.523	-79.583	0.318	0.106
-212.509	-59.783	0.230	0.097
-211.494	800.000	-0.068	0.213
-210.479	-78.664	-0.326	-0.110
-209.465	42.248	0.072	0.065
-208.450	533.169	0.094	0.219
-207.436	-97.524	0.161	0.041
-206.421	-89.417	0.295	-0.086
-205.406	-81.118	0.280	0.091
-204.392	-79.537	-0.146	-0.049
-203.377	-200.000	0.003	0.038
-202.363	-200.000	0.069	-0.498
-201.348	426.377	-0.038	0.080
-200.333	-101.877	-0.116	0.028
-199.319	205.340	-0.107	0.164
-198.304	-91.249	0.377	0.107
-197.290	290.968	-0.187	-0.335
-196.275	-33.958	-0.278	0.151
-195.260	371.490	0.014	-0.027
-194.246	-77.722	-0.301	-0.103
-193.231	800.000	0.037	-0.125
-192.217	-105.088	-0.199	0.045
-191.202	244.911	0.075	0.125
-190.187	137.464	-0.078	-0.100
-189.173	800.000	-0.062	0.208
-188.158	-188.994	0.423	0.005
-187.144	800.000	-0.039	0.153
-186.129	-200.000	0.024	-0.224
-185.114	412.367	0.059	0.123
-184.100	-200.000	0.008	-0.109
-183.085	24.191	-0.272	0.222
-182.071	-200.000	-0.007	-0.124
-181.056	-200.000	-0.018	-0.307
-180.042	-67.315	0.241	0.093
-179.027	-200.000	-0.012	0.362
-178.012	21.303	0.047	0.038
-176.998	-12.726	0.086	-0.055
-175.983	-51.878	-0.073	-0.034
-174.969	-23.496	0.160	0.095
-173.954	45.640	-0.248	0.226
-172.939	800.000	0.132	-0.418
-171.925	338.240	-0.104	-0.199
-170.910	-56.914	0.145	-0.063
-169.896	459.193	-0.129	0.283
-168.881	800.000	0.023	0.066
-167.866	-96.531	0.262	0.068
-166.852	-177.373	-0.278	-0.007
-165.837	800.000	-0.089	0.351
-164.823	-200.000	0.004	0.049
-163.808	-18.264	0.402	-0.248
-162.793	-200.000	0.044	-0.268
-161.779	-200.000	-0.003	-0.018
-160.764	-148.496	0.249	0.020
-159.750	-110.836	-0.339	-0.069
-158.735	800.000	-0.064	-0.234
-157.720	69.155	0.155	0.157
-156.706	-200.000	0.087	-0.386
-155.691	247.696	0.189	-0.315
-154.677	-80.799	0.148	0.048
-153.662	315.211	-0.068	0.125
-152.647	-200.000	-0.016	-0.141
-151.633	-200.000	-0.031	0.172
-150.618	220.114	-0.069	0.110
-149.604	303.465	0.103	-0.187
-148.589	172.919	-0.151	0.214
-147.574	-200.000	0.005	0.171
-146.560	-200.000	0.056	0.452
-145.545	-132.978	-0.167	-0.021
-144.531	-119.307	0.242	-0.042
-143.516	-49.343	-0.223	-0.105
-142.502	61.822	0.109	-0.107
-141.487	-200.000	-0.026	-0.343
-140.472	180.804	-0.243	0.351
-139.458	-156.653	0.361	-0.022
-138.443	-21.937	-0.267	-0.160
-137.429	-74.943	0.266	0.094
-136.414	-169.909	0.436	-0.015
-135.399	-45.373	-0.133	-0.065
-134.385	-123.588	0.152	-0.024
-133.370	-95.409	0.272	0.072
-132.356	58.022	-0.039	-0.038
-131.341	-82.862	-0.156	-0.050
-130.326	211.612	0.114	0.177
-129.312	-7.975	-0.098	-0.065
-128.297	713.638	0.115	-0.299
-127.283	168.086	0.203	0.285
-126.268	6.019	0.164	0.120
-125.253	-137.704	0.145	-0.016
-124.239	311.491	-0.110	-0.202
-123.224	177.729	-0.084	-0.121
