DTS Sentinel unit serial number:	SN413079Multiplexer serial number:	ORYXHardware model number:	OX4-SRSoftware version number:	ORYX F/W v4.00 Oryx Data Collector v3.7.2.0data status	okinstallation	princeton_trtdifferential loss correction	single-endedforward channel	channel 1reverse channel	N/Adate	2019/09/13time	16:46:35forward acquisition time	60.00reverse acquisition time	0.00gamma	496.2192k internal	0.2306k external	0.2306temperature offset calibration	1.0160default loss term (dB/km)	0.3790temperature slope calibration	1.0000multiplexer offset coefficient	1.0000multiplexer slope coefficient	1.0000fibre end	0.00T internal ref (°C)	34.94T ext. ref 1 (°C)	4.91T ext. ref 2 (°C)	29.86length (m)	temperature (°C)	Stokes	anti-Stokes-747.200	-61.164	0.277	-0.119
-746.185	-200.000	-0.024	0.262
-745.171	99.577	-0.173	0.204
-744.156	4.452	0.255	0.190
-743.142	267.619	-0.193	-0.343
-742.127	187.858	0.048	0.073
-741.112	356.570	0.099	-0.201
-740.098	-200.000	-0.002	-0.118
-739.083	-67.184	0.122	0.049
-738.069	-17.916	-0.200	0.127
-737.054	800.000	-0.038	-0.122
-736.039	-85.713	-0.261	0.082
-735.025	-12.900	0.128	-0.084
-734.010	800.000	-0.085	-0.310
-732.996	49.305	-0.286	-0.274
-731.981	58.951	0.334	-0.334
-730.966	-76.052	-0.066	0.024
-729.952	109.297	-0.212	-0.258
-728.937	-147.136	-0.126	0.011
-727.923	-200.000	-0.030	-0.226
-726.908	80.185	-0.190	0.208
-725.894	48.330	0.169	0.161
-724.879	-143.424	-0.228	0.022
-723.864	452.231	0.069	-0.156
-722.850	-161.074	-0.077	-0.004
-721.835	38.337	0.258	0.234
-720.821	170.071	-0.105	0.153
-719.806	-15.211	0.274	-0.178
-718.791	265.383	-0.137	-0.242
-717.777	-58.590	0.070	0.031
-716.762	127.640	-0.329	-0.425
-715.748	-200.000	0.027	-0.203
-714.733	-200.000	0.017	0.368
-713.718	206.014	0.071	0.112
-712.704	-22.265	-0.190	0.117
-711.689	-200.000	0.007	-0.093
-710.675	440.694	0.117	-0.261
-709.660	800.000	-0.022	-0.096
-708.645	30.633	-0.219	-0.190
-707.631	-200.000	0.444	0.001
-706.616	130.373	-0.113	0.147
-705.602	37.008	-0.043	-0.038
-704.587	-200.000	-0.000	-0.097
-703.572	-118.829	-0.309	-0.055
-702.558	800.000	-0.036	0.131
-701.543	800.000	-0.067	-0.224
-700.529	-85.651	-0.247	-0.078
-699.514	-10.534	-0.146	-0.098
-698.499	-200.000	0.025	0.141
-697.485	-95.101	-0.249	0.068
-696.470	28.227	-0.276	0.237
-695.456	-69.394	-0.113	0.044
-694.441	-60.874	-0.250	-0.108
-693.426	-161.177	0.149	-0.008
-692.412	-48.340	-0.086	-0.042
-691.397	-2.740	-0.073	0.052
-690.383	529.567	0.040	-0.096
-689.368	800.000	0.045	-0.179
-688.354	-185.081	-0.452	0.007
-687.339	-200.000	-0.023	0.338
-686.324	-200.000	-0.061	0.438
-685.310	800.000	-0.090	0.378
-684.295	-104.681	-0.266	0.062
-683.281	-55.017	0.043	0.020
-682.266	-200.000	-0.002	-0.166
-681.251	186.447	0.051	0.078
-680.237	144.652	0.226	-0.306
-679.222	-200.000	0.060	-0.289
-678.208	522.984	-0.151	-0.361
-677.193	-157.653	0.162	0.010
-676.178	-85.193	0.150	0.047
-675.164	11.548	0.222	-0.173
-674.149	-135.192	-0.071	0.009
-673.135	51.852	-0.028	0.027
-672.120	153.342	0.044	0.061
-671.105	27.448	0.099	-0.084
-670.091	293.377	0.029	0.054
-669.076	346.028	-0.019	0.037
-668.062	43.100	-0.102	0.094
-667.047	-71.836	-0.313	-0.118
-666.032	-171.535	-0.156	0.005
-665.018	-200.000	0.026	0.164
-664.003	-63.657	0.203	0.085
-662.989	-157.674	-0.098	0.006
-661.974	113.845	-0.016	-0.020
-660.959	-108.251	0.114	0.025
-659.945	-109.259	-0.056	0.012
-658.930	800.000	-0.035	-0.106
-657.916	-83.920	0.388	-0.125
-656.901	-169.621	0.161	0.006
-655.886	-75.780	-0.214	-0.077
-654.872	240.841	0.054	-0.092
-653.857	166.827	0.162	-0.233
-652.843	527.836	0.132	0.315
-651.828	-200.000	-0.073	-0.362
-650.814	800.000	-0.021	0.066
-649.799	668.744	-0.088	-0.232
-648.784	-81.566	-0.268	0.089
-647.770	556.472	-0.022	0.053
-646.755	-100.199	0.249	-0.063
-645.741	-90.633	-0.163	-0.048
-644.726	209.225	-0.073	-0.116
-643.711	-90.025	0.244	0.072
-642.697	-90.307	0.290	0.085
-641.682	81.904	0.241	0.265
-640.668	-0.239	0.198	-0.142
-639.653	81.265	-0.072	-0.079
-638.638	-200.000	-0.061	0.348
-637.624	-200.000	0.001	-0.118
-636.609	-17.221	-0.277	-0.177
-635.595	71.214	-0.181	0.190
-634.580	-70.000	-0.129	0.050
-633.565	800.000	0.078	-0.254
-632.551	170.803	-0.151	0.219
-631.536	263.512	0.027	-0.047
-630.522	-200.000	-0.050	-0.254
-629.507	-167.282	-0.227	-0.009
-628.492	-139.137	-0.073	0.008
-627.478	125.303	0.018	-0.023
-626.463	-200.000	0.035	-0.260
-625.449	-129.304	-0.136	-0.019
-624.434	652.038	0.039	-0.102
-623.419	416.306	-0.029	-0.062
-622.405	800.000	-0.055	-0.179
-621.390	103.361	0.158	-0.188
-620.376	800.000	0.063	0.253
-619.361	-52.651	-0.158	-0.074
-618.346	-15.326	0.234	-0.152
-617.332	-130.781	0.106	0.014
-616.317	-42.697	0.091	-0.047
-615.303	-200.000	-0.064	-0.418
-614.288	800.000	-0.075	-0.317
-613.273	-200.000	0.000	-0.216
-612.259	-200.000	0.002	-0.254
-611.244	114.689	0.251	-0.310
-610.230	-200.000	0.010	0.333
-609.215	-152.375	-0.123	-0.009
-608.201	46.660	-0.161	0.152
-607.186	-86.655	0.281	0.087
-606.171	-114.984	-0.165	0.032
-605.157	734.356	0.082	-0.222
-604.142	-200.000	0.003	0.125
-603.128	24.973	0.265	-0.223
-602.113	557.320	0.050	0.122
-601.098	-200.000	0.048	0.216
-600.084	-34.425	-0.039	-0.022
-599.069	-109.609	0.266	-0.057
-598.055	399.688	-0.140	-0.297
-597.040	552.816	-0.035	0.086
-596.025	110.093	0.070	0.085
-595.011	396.840	-0.154	-0.326
-593.996	88.017	-0.146	-0.164
-592.982	739.474	-0.120	-0.326
-591.967	-80.140	0.166	-0.056
-590.952	312.769	0.074	0.141
-589.938	-83.520	-0.369	-0.119
-588.923	19.258	-0.165	0.134
-587.909	-96.743	0.106	-0.028
-586.894	165.899	0.211	-0.302
-585.879	800.000	-0.067	0.226
-584.865	107.975	-0.154	-0.186
-583.850	402.310	-0.143	-0.304
-582.836	33.191	-0.123	0.108
-581.821	800.000	0.039	-0.133
-580.806	-200.000	0.015	-0.236
-579.792	-12.250	0.019	-0.013
-578.777	800.000	0.043	0.134
-577.763	-7.606	-0.078	-0.054
-576.748	156.144	0.174	0.243
-575.733	303.095	0.079	-0.149
-574.719	-115.276	-0.545	0.104
-573.704	273.286	0.118	0.212
-572.690	54.263	-0.076	-0.073
-571.675	-122.184	0.376	-0.062
-570.661	-117.183	-0.281	-0.052
-569.646	-64.072	-0.108	0.045
-568.631	-100.925	0.328	-0.081
-567.617	800.000	0.031	-0.114
-566.602	-52.951	-0.197	0.091
-565.588	800.000	0.052	-0.180
-564.573	800.000	0.072	-0.248
-563.558	34.112	0.147	0.129
-562.544	-94.778	0.035	0.010
-561.529	-149.858	0.199	-0.016
-560.515	-200.000	0.020	0.091
-559.500	-200.000	-0.056	0.274
-558.485	-200.000	0.027	0.174
-557.471	-200.000	0.019	-0.183
-556.456	800.000	0.047	0.194
-555.442	-23.610	-0.402	0.244
-554.427	210.195	-0.091	-0.144
-553.412	-61.310	0.367	-0.156
-552.398	-200.000	0.022	-0.289
-551.383	-91.925	-0.410	0.117
-550.369	-200.000	-0.055	-0.281
-549.354	284.694	0.249	-0.453
-548.339	-39.986	0.296	-0.156
-547.325	422.612	0.035	-0.076
-546.310	800.000	-0.015	-0.048
-545.296	164.227	0.166	0.236
-544.281	-200.000	-0.041	-0.210
-543.266	288.811	-0.100	-0.184
-542.252	-200.000	0.001	-0.147
-541.237	56.925	-0.274	-0.270
-540.223	68.788	-0.165	-0.171
-539.208	18.500	-0.132	-0.107
-538.193	277.808	0.157	0.283
-537.179	-115.854	0.089	-0.017
-536.164	-176.888	-0.322	0.008
-535.150	-38.380	0.093	0.050
-534.135	458.351	0.076	0.170
-533.121	111.086	0.146	-0.178
-532.106	-200.000	-0.019	-0.164
-531.091	-200.000	0.080	-0.364
-530.077	470.173	-0.057	0.129
-529.062	-200.000	-0.061	0.456
-528.048	345.793	-0.115	-0.228
-527.033	43.312	-0.128	0.118
-526.018	-59.560	0.100	-0.043
-525.004	496.731	-0.029	-0.066
-523.989	413.871	0.072	0.155
-522.975	-200.000	0.001	0.043
-521.960	800.000	-0.076	-0.328
-520.945	-34.689	0.194	0.107
-519.931	409.880	-0.124	0.265
-518.916	703.024	-0.046	-0.122
-517.902	800.000	-0.047	-0.153
-516.887	51.750	0.194	0.186
-515.872	-200.000	-0.284	-0.001
-514.858	-114.917	0.180	0.035
-513.843	178.314	0.155	0.228
-512.829	-75.683	0.162	0.058
-511.814	-78.195	-0.373	0.129
-510.799	64.148	0.133	0.135
-509.785	-200.000	-0.032	0.279
-508.770	-52.775	0.195	-0.091
-507.756	800.000	0.040	0.118
-506.741	-67.665	-0.091	-0.036
-505.726	401.601	-0.089	-0.188
-504.712	156.637	-0.124	0.173
-503.697	-24.968	-0.156	0.093
-502.683	-51.982	0.163	0.076
-501.668	800.000	-0.158	0.529
-500.653	-107.507	-0.122	-0.027
-499.639	-77.327	-0.103	-0.036
-498.624	65.060	0.173	0.176
-497.610	226.053	0.153	-0.251
-496.595	-38.798	0.319	0.170
-495.581	-0.060	0.188	0.135
-494.566	460.501	0.112	0.251
-493.551	-200.000	0.020	0.117
-492.537	-150.119	-0.260	-0.020
-491.522	-101.121	-0.113	-0.028
-490.508	-200.000	0.006	0.056
-489.493	106.403	0.235	0.281
-488.478	-117.767	-0.359	-0.065
-487.464	51.903	0.116	-0.112
-486.449	180.186	-0.118	0.174
-485.435	149.588	0.159	0.217
-484.420	-83.114	-0.074	0.024
-483.405	-132.600	0.112	0.014
-482.391	-91.605	-0.318	-0.091
-481.376	-12.745	0.202	0.133
-480.362	134.942	0.154	-0.201
-479.347	-43.363	-0.096	-0.049
-478.332	-12.043	-0.249	-0.164
-477.318	-84.278	0.284	-0.091
-476.303	-121.441	-0.043	-0.007
-475.289	-72.133	-0.282	-0.106
-474.274	13.823	0.094	0.074
-473.259	-67.371	-0.142	-0.056
-472.245	140.586	-0.231	-0.307
-471.230	691.765	0.215	0.567
-470.216	-200.000	0.029	-0.335
-469.201	104.659	0.294	0.349
-468.186	476.620	-0.140	0.318
-467.172	-200.000	-0.041	0.252
-466.157	-25.587	0.049	-0.029
-465.143	800.000	-0.128	0.356
-464.128	-147.255	0.413	0.035
-463.113	-137.031	-0.231	0.027
-462.099	461.966	-0.198	-0.446
-461.084	123.991	-0.109	0.137
-460.070	106.877	-0.085	-0.102
-459.055	-114.196	-0.197	-0.038
-458.040	-6.670	0.182	-0.124
-457.026	272.799	-0.141	-0.250
-456.011	-43.946	-0.182	0.092
-454.997	-200.000	0.024	-0.368
-453.982	-4.157	0.097	-0.067
-452.968	88.879	0.356	0.398
-451.953	-60.140	0.075	-0.032
-450.938	-142.573	-0.180	0.018
-449.924	-9.484	0.274	0.184
-448.909	800.000	0.020	0.071
-447.895	-48.009	-0.267	-0.130
-446.880	209.823	-0.072	-0.114
-445.865	159.971	-0.101	-0.141
-444.851	478.286	-0.113	-0.256
-443.836	27.721	0.230	-0.195
-442.822	249.264	-0.075	-0.128
-441.807	-5.352	-0.245	0.169
-440.792	-42.396	0.292	0.150
-439.778	-155.531	0.236	-0.015
-438.763	-200.000	0.024	0.244
-437.749	-200.000	-0.003	0.103
-436.734	-200.000	-0.000	0.027
-435.719	278.387	0.094	-0.169
-434.705	184.679	0.059	-0.088
-433.690	271.219	-0.122	0.216
-432.676	294.484	-0.115	0.211
-431.661	-39.007	-0.109	0.057
-430.646	-200.000	-0.003	-0.165
-429.632	23.997	0.180	-0.150
-428.617	800.000	0.074	0.286
-427.603	118.589	-0.080	0.099
-426.588	115.333	-0.163	-0.200
-425.573	-15.847	0.045	-0.029
-424.559	-200.000	0.017	-0.096
-423.544	-200.000	-0.020	0.148
-422.530	800.000	0.108	0.449
-421.515	-38.117	0.521	0.278
-420.500	-200.000	-0.012	-0.069
-419.486	-126.560	0.160	0.024
-418.471	-200.000	-0.027	0.222
-417.457	800.000	0.020	-0.071
-416.442	-200.000	-0.008	-0.203
-415.428	-57.973	-0.085	-0.037
-414.413	676.398	0.076	-0.197
-413.398	-200.000	-0.051	-0.396
-412.384	254.008	-0.134	0.231
-411.369	298.875	-0.266	0.492
-410.355	528.858	-0.125	0.297
-409.340	18.589	-0.005	-0.004
-408.325	456.738	-0.196	0.437
-407.311	411.995	0.054	0.116
-406.296	101.458	0.164	-0.192
-405.282	-68.194	0.204	0.080
-404.267	-55.743	-0.204	0.092
-403.252	-85.256	-0.246	0.077
-402.238	-75.286	0.268	-0.096
-401.223	-32.501	-0.226	-0.126
-400.209	-200.000	0.023	0.116
-399.194	280.580	-0.222	-0.398
-398.179	-120.157	0.197	0.034
-397.165	-35.272	-0.071	0.039
-396.150	-6.068	0.318	0.218
-395.136	515.397	-0.109	0.256
-394.121	-36.182	-0.311	-0.168
-393.106	-200.000	-0.049	0.386
-392.092	214.524	0.056	-0.088
-391.077	62.955	-0.123	-0.124
-390.063	-200.000	-0.047	0.299
-389.048	-200.000	-0.047	-0.205
-388.033	-25.246	0.090	-0.054
-387.019	-120.279	-0.223	-0.038
-386.004	485.227	-0.135	0.309
-384.990	-49.825	0.234	0.112
-383.975	231.828	0.043	-0.072
-382.960	-200.000	-0.047	-0.250
-381.946	-200.000	-0.006	-0.136
-380.931	-94.832	-0.073	0.020
-379.917	682.605	-0.059	0.155
-378.902	-30.777	0.151	-0.085
-377.888	-181.894	0.238	-0.005
-376.873	9.300	-0.199	0.151
-375.858	-200.000	-0.047	-0.365
-374.844	-200.000	0.012	0.066
-373.829	-200.000	0.027	0.178
-372.815	-166.382	0.430	0.018
-371.800	19.439	-0.118	0.095
-370.785	-151.614	0.094	0.007
-369.771	800.000	-0.040	0.129
-368.756	18.016	-0.144	0.115
-367.742	-86.814	0.270	-0.083
-366.727	-158.799	-0.392	-0.022
-365.712	259.433	-0.030	-0.053
-364.698	-200.000	0.002	-0.111
-363.683	37.702	-0.165	-0.147
-362.669	-106.204	0.186	0.042
-361.654	191.599	-0.193	-0.291
-360.639	-80.587	-0.110	-0.037
-359.625	113.266	-0.114	-0.139
-358.610	0.425	0.028	-0.020
-357.596	-68.474	0.096	-0.038
-356.581	-153.834	0.290	-0.020
-355.566	65.576	-0.053	-0.053
-354.552	-30.512	0.348	-0.197
-353.537	341.967	-0.011	-0.023
-352.523	800.000	0.078	0.235
-351.508	235.936	-0.046	0.077
-350.493	-133.694	-0.184	-0.023
-349.479	-200.000	-0.012	0.163
-348.464	-36.391	0.146	0.079
-347.450	1.215	-0.328	-0.236
-346.435	800.000	0.068	0.225
-345.420	-43.938	0.287	-0.144
-344.406	-129.184	0.309	0.043
-343.391	800.000	-0.086	-0.266
-342.377	800.000	-0.119	0.516
-341.362	-70.643	-0.359	0.136
-340.348	-69.751	-0.029	0.011
-339.333	-104.190	-0.032	-0.008
-338.318	156.343	0.126	0.174
-337.304	124.787	-0.170	-0.215
-336.289	800.000	-0.059	-0.184
-335.275	576.339	-0.086	0.211
-334.260	36.952	0.401	-0.355
-333.245	-115.591	0.184	-0.035
-332.231	108.610	-0.110	0.132
-331.216	9.243	0.364	0.276
-330.202	-194.385	0.353	-0.003
-329.187	221.518	-0.068	-0.110
-328.172	-21.193	-0.306	0.188
-327.158	632.677	0.011	0.029
-326.143	-67.426	0.255	-0.100
-325.129	3.552	0.235	-0.172
-324.114	614.232	-0.035	0.087
-323.099	-200.000	0.015	-0.180
-322.085	800.000	-0.065	0.236
-321.070	-39.889	-0.219	0.114
-320.056	-103.143	-0.258	-0.061
-319.041	-67.397	-0.234	-0.092
-318.026	-16.843	-0.106	-0.067
-317.012	-200.000	-0.011	-0.072
-315.997	187.590	0.028	0.041
-314.983	18.476	-0.127	0.101
-313.968	471.420	-0.083	-0.187
-312.953	186.299	-0.113	0.169
-311.939	800.000	0.045	0.149
-310.924	179.770	-0.207	-0.304
-309.910	-72.523	-0.319	-0.118
-308.895	-200.000	-0.039	-0.314
-307.880	-54.763	0.234	0.106
-306.866	-121.708	-0.101	0.017
-305.851	-200.000	0.010	-0.082
-304.837	162.099	0.146	0.205
-303.822	800.000	0.063	-0.218
-302.807	210.368	0.044	0.069
-301.793	48.005	-0.130	0.122
-300.778	-122.568	0.145	-0.024
-299.764	-23.075	-0.156	0.094
-298.749	-149.796	-0.338	0.026
-297.735	25.744	0.085	0.071
-296.720	162.061	0.080	0.111
-295.705	-152.557	-0.152	-0.011
-294.691	800.000	0.010	0.036
-293.676	-182.026	-0.290	0.005
-292.662	348.959	0.032	0.064
-291.647	219.719	0.258	0.413
-290.632	681.926	-0.019	-0.050
-289.618	800.000	-0.027	-0.091
-288.603	742.146	-0.075	-0.200
-287.589	-156.891	0.215	0.013
-286.574	-200.000	0.038	0.271
-285.559	-200.000	0.036	-0.312
-284.545	-15.580	0.046	0.030
-283.530	395.636	0.111	0.231
-282.516	-55.914	-0.305	0.136
-281.501	96.750	0.153	-0.175
-280.486	-81.898	0.139	-0.046
-279.472	-200.000	0.100	0.498
-278.457	-173.967	-0.133	0.004
-277.443	-200.000	-0.015	0.200
-276.428	100.800	0.065	-0.076
-275.413	-200.000	0.000	0.422
-274.399	21.049	0.138	-0.112
-273.384	202.837	0.124	-0.191
-272.370	-164.458	0.624	0.028
-271.355	260.270	0.206	-0.356
-270.340	36.214	0.062	-0.055
-269.326	306.738	-0.134	0.250
-268.311	-4.234	-0.133	0.092
-267.297	-200.000	0.032	0.272
-266.282	-43.846	-0.136	-0.068
-265.267	95.121	0.191	-0.217
-264.253	-102.057	-0.064	-0.015
-263.238	800.000	0.095	0.288
-262.224	-72.973	-0.171	0.063
-261.209	800.000	0.085	-0.244
-260.195	800.000	-0.048	0.142
-259.180	58.170	-0.207	-0.203
-258.165	-200.000	0.004	-0.050
-257.151	3.949	0.336	0.245
-256.136	180.908	0.159	-0.233
-255.122	24.937	-0.437	-0.361
-254.107	-69.314	-0.012	0.005
-253.092	-200.000	0.027	0.330
-252.078	800.000	-0.046	-0.130
-251.063	-194.835	0.093	0.001
-250.049	800.000	0.038	-0.136
-249.034	303.977	0.083	-0.154
-248.019	462.758	-0.140	-0.312
-247.005	284.863	-0.106	-0.191
-245.990	153.340	0.138	-0.189
-244.976	43.091	-0.238	0.217
-243.961	-158.230	-0.271	0.016
-242.946	171.061	-0.053	-0.076
-241.932	-127.455	0.207	-0.030
-240.917	-160.827	0.226	-0.012
-239.903	-43.972	-0.122	0.061
-238.888	23.235	0.132	0.108
-237.873	522.780	-0.083	0.195
-236.859	-49.787	0.134	0.064
-235.844	-163.367	0.229	0.011
-234.830	-103.125	-0.053	0.012
-233.815	-135.868	-0.094	0.011
-232.800	800.000	0.095	-0.281
-231.786	-200.000	-0.038	-0.225
-230.771	124.380	-0.055	-0.069
-229.757	800.000	0.044	-0.190
-228.742	-112.182	0.067	0.013
-227.727	-178.159	0.313	-0.007
-226.713	-70.512	0.289	0.109
-225.698	-118.775	0.454	0.080
-224.684	-115.034	-0.272	0.052
-223.669	121.422	0.169	0.209
-222.655	800.000	-0.066	0.206
-221.640	126.933	0.171	0.216
-220.625	55.824	-0.175	0.169
-219.611	-64.108	0.278	-0.113
-218.596	49.396	-0.218	0.205
-217.582	164.231	0.048	-0.068
-216.567	-167.592	-0.086	0.003
-215.552	-164.951	0.425	0.019
-214.538	-119.004	0.277	-0.048
-213.523	102.960	-0.227	0.265
-212.509	-45.798	-0.063	0.031
-211.494	110.589	0.270	0.324
-210.479	-4.074	0.168	0.116
-209.465	190.779	0.091	0.136
-208.450	116.495	-0.245	-0.299
-207.436	-70.842	0.337	-0.126
-206.421	-67.026	0.371	-0.146
-205.406	-200.000	-0.063	-0.389
-204.392	-88.515	-0.340	-0.101
-203.377	-93.314	-0.268	0.074
-202.363	106.401	-0.071	-0.084
-201.348	-200.000	-0.018	0.092
-200.333	648.359	-0.134	0.341
-199.319	-7.273	-0.202	0.136
-198.304	-47.981	-0.155	-0.075
-197.290	416.291	-0.056	0.118
-196.275	-82.392	0.134	0.043
-195.260	-140.013	0.337	0.035
-194.246	-200.000	-0.035	-0.345
-193.231	-5.228	-0.043	0.029
-192.217	50.977	0.033	-0.032
-191.202	79.826	0.158	-0.169
-190.187	-64.404	0.323	0.131
-189.173	32.865	0.139	-0.120
-188.158	-200.000	-0.028	-0.228
-187.144	249.863	-0.070	-0.119
-186.129	-131.837	0.036	0.005
-185.114	-180.532	-0.149	-0.003
-184.100	-166.122	-0.190	-0.008
-183.085	-200.000	-0.049	0.260
-182.071	-200.000	-0.002	-0.189
-181.056	56.361	-0.136	0.132
-180.042	143.515	-0.163	-0.216
-179.027	64.455	-0.012	-0.012
-178.012	-162.382	0.057	0.003
-176.998	114.833	-0.173	-0.210
-175.983	149.481	-0.087	0.118
-174.969	-142.830	-0.209	0.020
-173.954	198.443	-0.073	0.111
-172.939	62.238	0.026	0.026
-171.925	-56.031	-0.093	0.041
-170.910	-200.000	-0.007	0.299
-169.896	327.332	0.233	-0.444
-168.881	16.246	-0.079	0.062
-167.866	-200.000	-0.014	0.070
-166.852	155.830	0.053	-0.072
-165.837	127.793	-0.130	-0.164
-164.823	73.160	0.133	-0.139
-163.808	695.169	-0.085	0.221
-162.793	-200.000	0.042	0.324
-161.779	-92.176	-0.186	0.052
-160.764	127.111	0.204	-0.258
-159.750	277.170	-0.114	0.202
-158.735	-32.370	-0.075	0.042
-157.720	220.396	-0.125	0.199
-156.706	-200.000	0.028	0.124
-155.691	45.500	-0.109	-0.100
-154.677	-16.069	0.093	-0.059
-153.662	-126.615	-0.143	-0.021
-152.647	17.273	-0.134	0.106
-151.633	-3.659	0.075	-0.052
-150.618	-55.421	0.306	-0.136
-149.604	-22.628	-0.206	-0.124
-148.589	-142.706	0.211	-0.020
-147.574	-134.402	0.188	0.023
-146.560	-55.204	-0.364	-0.163
-145.545	-161.168	0.382	-0.020
-144.531	302.326	-0.131	0.241
-143.516	-106.185	0.095	0.021
-142.502	800.000	0.091	-0.350
-141.487	-68.427	-0.218	-0.084
-140.472	-200.000	0.036	0.261
-139.458	279.267	-0.137	0.244
-138.443	-28.458	-0.128	-0.073
-137.429	-72.514	0.127	-0.047
-136.414	-39.168	-0.105	0.055
-135.399	-200.000	-0.044	0.212
-134.385	94.185	0.169	-0.190
-133.370	-47.898	0.162	-0.078
-132.356	-200.000	0.019	0.256
-131.341	13.052	-0.209	0.161
-130.326	41.324	0.178	-0.160
-129.312	-121.231	-0.197	0.033
-128.297	-200.000	0.037	0.170
-127.283	156.006	0.138	0.189
-126.268	-66.131	-0.153	0.061
-125.253	-200.000	0.005	-0.229
-124.239	135.949	0.167	0.216
-123.224	-23.303	0.184	-0.110
-122.210	-1.643	0.298	-0.208
