DTS Sentinel unit serial number:	SN413079Multiplexer serial number:	ORYXHardware model number:	OX4-SRSoftware version number:	ORYX F/W v4.00 Oryx Data Collector v3.7.2.0data status	okinstallation	princeton_trtdifferential loss correction	single-endedforward channel	channel 1reverse channel	N/Adate	2019/09/13time	05:06:35forward acquisition time	60.00reverse acquisition time	0.00gamma	496.2192k internal	0.2335k external	0.2335temperature offset calibration	1.0162default loss term (dB/km)	0.3790temperature slope calibration	1.0000multiplexer offset coefficient	1.0000multiplexer slope coefficient	1.0000fibre end	0.00T internal ref (°C)	26.42T ext. ref 1 (°C)	4.05T ext. ref 2 (°C)	20.90length (m)	temperature (°C)	Stokes	anti-Stokes-747.200	800.000	0.099	-0.294
-746.185	-138.861	-0.183	0.020
-745.171	-16.258	-0.188	0.120
-744.156	-122.116	-0.337	0.055
-743.142	28.343	0.309	0.263
-742.127	-200.000	-0.314	0.001
-741.112	800.000	-0.069	-0.256
-740.098	251.007	0.148	-0.253
-739.083	-200.000	-0.031	0.338
-738.069	-95.019	0.078	0.021
-737.054	98.436	-0.143	-0.166
-736.039	800.000	-0.084	-0.256
-735.025	40.592	0.206	-0.186
-734.010	-85.571	-0.209	0.065
-732.996	-182.086	-0.172	0.003
-731.981	-200.000	-0.003	-0.140
-730.966	405.196	0.051	-0.107
-729.952	800.000	0.028	-0.087
-728.937	12.188	-0.201	0.155
-727.923	-23.887	-0.188	0.113
-726.908	-173.255	-0.272	-0.008
-725.894	44.996	0.193	0.178
-724.879	-123.357	0.254	-0.041
-723.864	-32.581	-0.026	-0.015
-722.850	737.284	-0.133	-0.357
-721.835	-60.946	0.092	-0.039
-720.821	-39.242	0.127	-0.067
-719.806	78.807	-0.157	-0.169
-718.791	204.793	0.069	-0.108
-717.777	-104.652	0.178	-0.041
-716.762	-10.539	0.281	-0.187
-715.748	-55.488	0.158	-0.071
-714.733	193.600	-0.127	-0.193
-713.718	426.648	-0.068	0.148
-712.704	737.261	0.083	0.223
-711.689	538.360	-0.089	-0.211
-710.675	133.882	-0.217	-0.283
-709.660	-89.439	0.212	-0.063
-708.645	-15.173	-0.277	-0.178
-707.631	-100.340	-0.288	-0.072
-706.616	-5.069	-0.206	0.142
-705.602	-124.562	0.109	0.017
-704.587	82.940	-0.195	-0.212
-703.572	143.045	-0.105	-0.141
-702.558	-140.750	-0.112	-0.012
-701.543	-105.775	-0.191	0.043
-700.529	-52.723	-0.136	-0.063
-699.514	3.816	-0.102	0.075
-698.499	67.572	-0.111	0.114
-697.485	98.148	0.231	-0.267
-696.470	-122.844	0.155	-0.025
-695.456	422.845	0.109	0.235
-694.441	131.058	0.040	-0.051
-693.426	-122.465	-0.403	-0.066
-692.412	-200.000	-0.001	0.086
-691.397	800.000	-0.063	-0.229
-690.383	-122.151	-0.337	-0.055
-689.368	800.000	-0.056	-0.182
-688.354	-200.000	0.004	-0.327
-687.339	7.334	0.082	-0.061
-686.324	-200.000	-0.043	-0.229
-685.310	13.594	-0.335	0.260
-684.295	41.206	0.360	-0.326
-683.281	-200.000	0.000	-0.141
-682.266	36.425	0.075	-0.066
-681.251	800.000	0.085	-0.251
-680.237	379.578	0.047	0.097
-679.222	611.389	0.096	0.241
-678.208	11.358	-0.190	-0.146
-677.193	-92.780	-0.258	0.072
-676.178	134.028	0.089	0.115
-675.164	-68.438	0.041	0.016
-674.149	265.698	0.034	0.059
-673.135	-7.864	-0.118	-0.080
-672.120	201.029	-0.105	0.162
-671.105	104.521	-0.281	0.331
-670.091	25.252	0.147	0.122
-669.076	-200.000	-0.020	-0.303
-668.062	-117.632	0.215	-0.039
-667.047	800.000	-0.052	-0.220
-666.032	-200.000	0.019	-0.223
-665.018	-107.380	-0.228	0.050
-664.003	81.287	0.160	-0.173
-662.989	-54.239	-0.129	-0.059
-661.974	301.430	0.098	-0.182
-660.959	800.000	0.064	0.217
-659.945	154.203	0.181	-0.248
-658.930	-200.000	-0.034	-0.202
-657.916	-7.745	-0.185	-0.125
-656.901	112.627	-0.122	-0.148
-655.886	44.570	-0.184	-0.169
-654.872	9.643	0.213	0.162
-653.857	-55.623	-0.160	0.072
-652.843	-200.000	0.015	0.244
-651.828	4.164	-0.247	-0.181
-650.814	23.467	0.174	0.144
-649.799	-14.366	-0.017	0.011
-648.784	328.647	0.026	0.050
-647.770	-148.308	0.454	0.037
-646.755	-71.064	-0.159	0.060
-645.741	365.795	-0.109	0.219
-644.726	800.000	0.124	0.486
-643.711	239.766	-0.212	0.353
-642.697	-200.000	0.213	0.000
-641.682	-60.140	-0.166	0.071
-640.668	137.157	-0.047	-0.062
-639.653	800.000	0.070	0.290
-638.638	231.879	-0.126	-0.206
-637.624	-82.357	0.214	-0.070
-636.609	44.919	0.105	-0.097
-635.595	-200.000	-0.071	-0.422
-634.580	34.886	-0.233	0.204
-633.565	18.876	-0.085	0.068
-632.551	-200.000	-0.033	-0.530
-631.536	39.611	0.350	-0.314
-630.522	-200.000	-0.061	-0.397
-629.507	229.162	-0.176	-0.288
-628.492	-98.550	0.334	0.085
-627.478	-19.392	-0.094	-0.058
-626.463	-200.000	-0.007	0.119
-625.449	120.510	-0.092	-0.114
-624.434	190.943	-0.085	0.128
-623.419	-100.391	-0.157	0.039
-622.405	-200.000	-0.003	0.157
-621.390	-151.924	-0.217	0.016
-620.376	133.044	-0.141	-0.182
-619.361	-130.539	-0.321	0.043
-618.346	309.749	0.109	-0.205
-617.332	-7.920	-0.149	-0.101
-616.317	400.993	0.118	0.248
-615.303	378.131	-0.076	-0.155
-614.288	-66.690	-0.052	-0.020
-613.273	137.657	-0.080	0.105
-612.259	707.815	0.058	-0.154
-611.244	25.822	0.174	0.145
-610.230	709.576	-0.156	-0.414
-609.215	41.091	0.460	-0.415
-608.201	-40.739	-0.296	0.153
-607.186	-138.488	0.234	-0.026
-606.171	362.470	-0.013	0.026
-605.157	91.914	-0.181	0.204
-604.142	-65.122	-0.087	-0.035
-603.128	404.821	-0.075	0.158
-602.113	436.692	-0.046	0.100
-601.098	-22.182	0.086	-0.052
-600.084	-120.475	-0.383	-0.065
-599.069	-20.750	-0.065	-0.040
-598.055	190.963	0.178	0.268
-597.040	-65.642	0.179	0.072
-596.025	-200.000	-0.014	-0.171
-595.011	-67.929	0.214	-0.083
-593.996	17.182	-0.443	0.351
-592.982	74.483	0.069	0.073
-591.967	32.079	-0.225	0.194
-590.952	582.573	0.180	-0.442
-589.938	-200.000	0.007	-0.086
-588.923	142.978	0.163	0.217
-587.909	63.473	-0.109	0.109
-586.894	152.168	-0.246	-0.335
-585.879	-45.669	0.221	0.109
-584.865	-22.410	-0.330	0.199
-583.850	1.417	0.079	0.057
-582.836	95.178	0.221	-0.251
-581.821	-135.779	0.203	-0.024
-580.806	252.924	-0.174	-0.296
-579.792	-121.058	0.129	0.022
-578.777	800.000	-0.137	-0.425
-577.763	-200.000	-0.010	0.357
-576.748	-10.322	-0.114	0.076
-575.733	526.274	-0.094	-0.220
-574.719	-69.372	0.133	-0.051
-573.704	352.332	-0.114	-0.226
-572.690	191.786	-0.197	-0.296
-571.675	-13.732	-0.089	0.057
-570.661	161.360	-0.228	-0.318
-569.646	37.845	-0.235	0.209
-568.631	-140.933	0.075	0.008
-567.617	-3.864	0.280	0.194
-566.602	31.759	0.079	0.068
-565.588	-104.577	0.263	-0.060
-564.573	-200.000	-0.024	-0.209
-563.558	-54.089	-0.126	-0.057
-562.544	104.175	-0.034	-0.040
-561.529	313.799	-0.155	-0.292
-560.515	99.160	0.140	0.162
-559.500	-67.292	0.086	-0.034
-558.485	-120.859	-0.349	0.059
-557.471	800.000	0.092	0.347
-556.456	-135.586	-0.194	0.023
-555.442	-27.175	0.470	0.273
-554.427	-130.515	-0.129	-0.017
-553.412	314.194	-0.079	0.149
-552.398	800.000	-0.082	-0.241
-551.383	-27.785	-0.077	-0.044
-550.369	780.918	0.113	0.307
-549.354	-168.594	-0.413	0.016
-548.339	-200.000	-0.045	-0.247
-547.325	-88.034	-0.268	-0.080
-546.310	27.422	-0.176	-0.147
-545.296	800.000	-0.063	-0.190
-544.281	63.547	-0.105	-0.105
-543.266	-23.716	-0.148	0.089
-542.252	-67.159	0.208	-0.082
-541.237	30.736	-0.216	-0.185
-540.223	-200.000	-0.005	0.171
-539.208	-200.000	-0.008	-0.054
-538.193	71.205	0.305	0.315
-537.179	-200.000	-0.040	-0.317
-536.164	-63.450	-0.199	0.081
-535.150	-58.415	0.343	0.149
-534.135	270.357	-0.104	-0.182
-533.121	495.417	0.058	0.133
-532.106	225.918	-0.095	0.154
-531.091	162.873	-0.091	0.127
-530.077	-38.500	0.258	0.136
-529.062	-144.871	0.387	0.035
-528.048	-101.906	-0.338	0.081
-527.033	-200.000	0.010	0.101
-526.018	48.133	-0.206	0.192
-525.004	26.491	-0.241	0.201
-523.989	-24.323	0.195	-0.116
-522.975	436.870	0.053	0.115
-521.960	-95.943	-0.209	-0.056
-520.945	-64.216	-0.134	-0.055
-519.931	-159.333	0.067	-0.004
-518.916	302.025	-0.142	0.262
-517.902	-200.000	0.388	-0.001
-516.887	-84.909	0.175	0.055
-515.872	-49.116	0.178	0.085
-514.858	64.653	-0.254	0.255
-513.843	800.000	0.100	0.314
-512.829	302.909	-0.076	0.139
-511.814	224.351	-0.022	-0.035
-510.799	-15.078	0.325	-0.207
-509.785	-8.121	0.139	0.093
-508.770	261.335	0.147	-0.253
-507.756	289.267	0.085	0.154
-506.741	-200.000	0.006	0.186
-505.726	-200.000	0.032	0.216
-504.712	109.759	-0.070	-0.084
-503.697	-200.000	-0.003	0.234
-502.683	800.000	-0.077	-0.245
-501.668	-107.854	0.134	0.029
-500.653	-93.600	0.195	0.054
-499.639	383.626	0.150	-0.307
-498.624	95.253	-0.186	0.210
-497.610	14.756	-0.112	0.087
-496.595	-116.135	-0.146	-0.027
-495.581	800.000	0.013	-0.053
-494.566	-13.723	-0.408	-0.263
-493.551	800.000	0.033	-0.111
-492.537	-200.000	-0.007	0.070
-491.522	-75.407	0.050	0.018
-490.508	-125.116	0.392	-0.060
-489.493	800.000	0.043	-0.147
-488.478	800.000	0.082	-0.262
-487.464	-141.986	-0.463	-0.046
-486.449	-128.423	0.129	0.018
-485.435	136.981	-0.107	-0.139
-484.420	73.071	0.099	-0.103
-483.405	800.000	-0.045	-0.170
-482.391	-200.000	-0.019	0.183
-481.376	-53.416	-0.098	0.045
-480.362	800.000	0.132	-0.411
-479.347	-74.936	0.307	-0.110
-478.332	-200.000	-0.014	-0.196
-477.318	38.476	-0.256	-0.227
-476.303	-147.342	0.321	-0.027
-475.289	648.371	-0.007	0.018
-474.274	-30.125	0.407	-0.230
-473.259	-2.815	-0.072	-0.050
-472.245	800.000	0.101	0.353
-471.230	-98.734	-0.248	-0.063
-470.216	-200.000	-0.008	0.070
-469.201	-114.828	0.137	0.026
-468.186	163.587	0.115	0.161
-467.172	-200.000	-0.041	-0.263
-466.157	44.059	0.141	0.129
-465.143	-19.551	-0.210	-0.129
-464.128	45.422	0.094	-0.087
-463.113	-200.000	0.024	-0.235
-462.099	209.142	-0.014	-0.022
-461.084	-88.969	-0.351	0.103
-460.070	-160.333	-0.356	0.019
-459.055	87.000	-0.163	-0.179
-458.040	-96.336	-0.175	-0.046
-457.026	-81.713	-0.281	0.091
-456.011	712.551	-0.015	0.039
-454.997	65.276	-0.202	-0.203
-453.982	14.622	0.208	-0.161
-452.968	-200.000	-0.082	-0.503
-451.953	-74.482	0.224	-0.080
-450.938	-15.937	-0.270	0.171
-449.924	800.000	0.057	-0.203
-448.909	-66.689	0.271	0.107
-447.895	-133.754	0.148	-0.018
-446.880	528.304	0.075	-0.175
-445.865	-200.000	0.061	-0.272
-444.851	-139.810	0.395	-0.042
-443.836	35.363	-0.057	0.050
-442.822	-23.407	-0.242	0.144
-441.807	-145.153	0.227	0.020
-440.792	-141.925	-0.254	0.025
-439.778	-200.000	-0.005	0.048
-438.763	-54.327	0.167	-0.075
-437.749	-134.176	-0.191	0.023
-436.734	-71.333	-0.300	-0.112
-435.719	-200.000	0.036	0.202
-434.705	800.000	-0.070	0.197
-433.690	-200.000	-0.006	0.069
-432.676	-200.000	-0.015	0.107
-431.661	-79.060	0.065	-0.022
-430.646	753.317	0.032	0.087
-429.632	171.343	0.262	0.373
-428.617	-18.086	0.199	-0.124
-427.603	281.152	-0.164	0.292
-426.588	-30.563	0.078	0.044
-425.573	472.398	-0.103	-0.231
-424.559	256.906	0.028	0.047
-423.544	-200.000	-0.043	-0.327
-422.530	-200.000	-0.024	-0.286
-421.515	-63.659	-0.050	0.020
-420.500	800.000	-0.062	-0.243
-419.486	-69.070	-0.177	0.068
-418.471	10.603	-0.440	0.333
-417.457	30.518	-0.182	0.155
-416.442	535.041	-0.202	0.476
-415.428	506.684	0.114	-0.263
-414.413	-2.889	-0.213	0.148
-413.398	96.415	-0.128	-0.145
-412.384	57.704	0.205	-0.199
-411.369	800.000	0.009	-0.027
-410.355	214.020	0.099	-0.156
-409.340	177.917	0.139	0.200
-408.325	-200.000	0.033	0.316
-407.311	-15.566	0.073	-0.046
-406.296	26.655	0.256	-0.212
-405.282	-3.508	-0.212	0.146
-404.267	156.708	0.062	0.086
-403.252	-200.000	-0.067	0.417
-402.238	-80.197	-0.207	0.069
-401.223	800.000	0.041	0.116
-400.209	-9.217	-0.095	0.063
-399.194	195.022	0.112	-0.169
-398.179	-15.948	-0.154	0.097
-397.165	334.077	-0.118	-0.226
-396.150	-200.000	0.033	0.365
-395.136	-60.376	-0.244	-0.103
-394.121	153.863	0.278	0.378
-393.106	-200.000	-0.023	-0.155
-392.092	-51.365	0.188	-0.087
-391.077	-49.492	0.333	-0.157
-390.063	638.563	0.018	-0.046
-389.048	-200.000	0.007	0.266
-388.033	141.772	-0.095	0.124
-387.019	-200.000	0.004	-0.166
-386.004	-136.860	-0.177	0.020
-384.990	-3.887	-0.112	-0.077
-383.975	-200.000	-0.000	-0.131
-382.960	-200.000	0.036	0.160
-381.946	800.000	-0.098	-0.312
-380.931	533.040	0.125	-0.293
-379.917	800.000	-0.056	-0.194
-378.902	484.688	0.097	-0.220
-377.888	-134.593	-0.295	0.036
-376.873	374.509	-0.063	-0.128
-375.858	-200.000	0.025	-0.153
-374.844	800.000	0.034	0.097
-373.829	-200.000	-0.036	0.252
-372.815	-200.000	-0.012	-0.349
-371.800	245.106	-0.278	0.463
-370.785	-17.825	0.293	-0.182
-369.771	55.917	-0.062	-0.060
-368.756	-57.178	-0.331	0.144
-367.742	800.000	-0.067	-0.244
-366.727	-200.000	0.028	-0.189
-365.712	252.140	0.077	0.130
-364.698	482.105	-0.048	-0.108
-363.683	-155.934	-0.361	0.023
-362.669	-66.000	-0.221	-0.088
-361.654	-200.000	0.002	0.196
-360.639	-104.144	0.155	0.036
-359.625	96.006	-0.120	-0.135
-358.610	800.000	-0.048	0.186
-357.596	36.225	0.304	0.265
-356.581	6.268	-0.136	-0.100
-355.566	800.000	0.028	0.094
-354.552	438.145	0.136	-0.294
-353.537	251.455	0.096	0.161
-352.523	391.011	-0.075	-0.154
-351.508	43.653	0.097	0.087
-350.493	310.909	-0.128	-0.237
-349.479	-29.846	-0.238	0.134
-348.464	-83.761	-0.275	0.087
-347.450	310.455	-0.067	-0.125
-346.435	-200.000	-0.037	-0.410
-345.420	-11.645	0.101	0.066
-344.406	800.000	-0.063	-0.180
-343.391	-114.273	0.203	-0.039
-342.377	-67.124	0.132	-0.051
-341.362	800.000	0.041	0.113
-340.348	800.000	-0.133	0.466
-339.333	-200.000	-0.024	0.247
-338.318	-200.000	0.043	0.272
-337.304	800.000	0.025	0.088
-336.289	411.176	0.106	0.223
-335.275	233.135	-0.102	-0.166
-334.260	-57.856	0.084	0.036
-333.245	4.254	0.252	0.183
-332.231	-155.893	-0.471	0.030
-331.216	67.215	0.261	-0.263
-330.202	485.296	-0.176	0.396
-329.187	-191.163	0.030	-0.000
-328.172	43.555	-0.352	0.319
-327.158	17.422	0.073	0.057
-326.143	-39.027	-0.290	0.151
-325.129	49.031	0.321	0.298
-324.114	-64.916	0.169	-0.067
-323.099	34.482	0.292	-0.252
-322.085	-51.040	0.133	0.062
-321.070	-126.661	0.188	0.027
-320.056	-94.478	-0.239	0.065
-319.041	-103.796	0.268	0.062
-318.026	-36.475	-0.273	-0.145
-317.012	424.357	-0.064	-0.135
-315.997	-67.879	-0.317	-0.122
-314.983	-200.000	0.004	0.142
-313.968	71.698	0.064	0.066
-312.953	800.000	-0.080	-0.239
-311.939	78.385	0.275	0.290
-310.924	11.907	-0.039	-0.029
-309.910	-60.258	-0.175	-0.074
-308.895	-75.854	0.263	-0.092
-307.880	33.956	-0.183	0.158
-306.866	155.085	-0.290	-0.393
-305.851	130.523	0.075	0.094
-304.837	172.547	-0.162	0.230
-303.822	-144.017	0.505	-0.047
-302.807	-68.224	0.314	0.121
-301.793	800.000	0.062	0.198
-300.778	-130.256	0.359	-0.048
-299.764	-159.469	0.444	0.024
-298.749	-125.456	-0.281	-0.042
-297.735	800.000	0.058	0.191
-296.720	54.221	-0.175	-0.166
-295.705	285.989	-0.155	-0.276
-294.691	-104.021	0.334	-0.077
-293.676	375.607	-0.182	-0.366
-292.662	-81.015	0.265	-0.087
-291.647	168.187	0.090	-0.127
-290.632	-154.964	-0.263	-0.017
-289.618	-102.824	-0.447	-0.105
-288.603	800.000	-0.022	0.060
-287.589	800.000	0.086	0.280
-286.574	78.565	0.125	0.132
-285.559	19.373	0.143	-0.113
-284.545	210.107	-0.084	-0.131
-283.530	406.610	0.024	-0.050
-282.516	800.000	0.054	0.193
-281.501	-200.000	0.014	-0.209
-280.486	154.576	0.222	0.302
-279.472	800.000	0.020	-0.069
-278.457	263.069	-0.093	-0.159
-277.443	80.660	0.239	-0.255
-276.428	-200.000	0.027	0.201
-275.413	-91.161	0.045	-0.013
-274.399	100.261	-0.133	0.152
-273.384	-127.287	0.358	-0.052
-272.370	14.940	-0.119	0.092
-271.355	-91.236	0.094	0.027
-270.340	-186.632	0.320	-0.004
-269.326	39.744	0.120	-0.106
-268.311	323.959	0.228	-0.428
-267.297	195.239	-0.171	-0.256
-266.282	110.990	-0.228	-0.271
-265.267	-5.648	-0.112	-0.075
-264.253	3.600	-0.104	-0.075
-263.238	-32.571	0.241	-0.132
-262.224	-200.000	-0.012	0.178
-261.209	-200.000	0.015	-0.092
-260.195	72.996	-0.159	0.163
-259.180	-24.000	-0.212	0.125
-258.165	-47.345	0.242	0.116
-257.151	-169.797	0.186	0.007
-256.136	-42.978	0.114	0.057
-255.122	-141.081	-0.098	0.010
-254.107	-122.139	-0.257	0.042
-253.092	7.552	0.305	0.225
-252.078	-145.323	0.245	0.022
-251.063	150.576	0.110	0.148
-250.049	204.709	-0.126	0.193
-249.034	-148.426	0.500	-0.040
-248.019	402.673	-0.057	0.118
-247.005	37.268	-0.135	-0.118
-245.990	295.676	0.075	-0.136
-244.976	-18.182	-0.093	-0.057
-243.961	259.068	0.210	0.356
-242.946	-27.058	-0.224	-0.129
-241.932	78.383	0.217	-0.228
-240.917	-66.812	0.208	-0.081
-239.903	-18.056	0.267	0.165
-238.888	239.560	0.045	0.074
-237.873	687.286	-0.085	0.219
-236.859	2.512	0.050	-0.036
-235.844	8.638	0.159	0.118
-234.830	-152.077	-0.196	0.014
-233.815	-113.572	0.137	-0.026
-232.800	49.415	0.155	0.144
-231.786	-156.399	0.104	0.006
-230.771	115.872	-0.046	-0.055
-229.757	108.886	-0.066	-0.077
-228.742	-176.116	0.249	0.006
-227.727	800.000	0.103	0.340
-226.713	195.251	0.212	0.318
-225.698	-43.197	-0.132	-0.066
-224.684	64.143	0.204	-0.202
-223.669	93.628	-0.216	0.241
-222.655	109.351	0.083	0.098
-221.640	-200.000	-0.024	-0.113
-220.625	63.833	-0.148	-0.146
-219.611	-78.446	0.209	-0.071
-218.596	-49.529	-0.088	0.041
-217.582	-40.079	0.133	0.068
-216.567	-145.203	-0.231	0.021
-215.552	800.000	0.075	-0.320
-214.538	-34.182	-0.023	-0.013
-213.523	-200.000	-0.006	-0.190
-212.509	-54.890	-0.285	-0.127
-211.494	-116.698	0.246	-0.045
-210.479	-145.401	-0.276	0.024
-209.465	93.286	0.191	-0.213
-208.450	-90.096	-0.241	0.069
-207.436	-78.697	0.134	0.045
-206.421	-70.751	-0.180	-0.067
-205.406	-52.369	0.248	0.113
-204.392	140.057	0.024	0.031
-203.377	-121.126	0.132	0.022
-202.363	9.423	0.101	0.075
-201.348	-185.823	0.213	-0.003
-200.333	-97.561	0.250	0.064
-199.319	-184.478	-0.056	-0.001
-198.304	121.656	0.074	-0.091
-197.290	165.402	0.196	-0.273
-196.275	-48.706	0.121	0.057
-195.260	-110.233	-0.288	0.059
-194.246	-128.523	-0.285	0.040
-193.231	-200.000	0.004	0.283
-192.217	63.274	-0.027	-0.027
-191.202	-34.735	-0.254	-0.136
-190.187	197.704	0.118	0.177
-189.173	139.350	-0.017	0.022
-188.158	-200.000	0.022	-0.177
-187.144	186.512	0.157	0.229
-186.129	800.000	0.049	0.161
-185.114	800.000	-0.056	-0.182
-184.100	-3.374	0.178	-0.122
-183.085	-138.678	-0.414	0.045
-182.071	-82.006	0.071	0.023
-181.056	-200.000	-0.028	0.131
-180.042	27.216	-0.216	-0.178
-179.027	800.000	-0.042	-0.132
-178.012	123.846	0.063	-0.078
-176.998	154.730	0.108	-0.146
-175.983	-200.000	-0.006	-0.062
-174.969	193.833	-0.096	-0.143
-173.954	-200.000	-0.037	-0.191
-172.939	-200.000	-0.002	0.083
-171.925	288.618	-0.101	-0.180
-170.910	-45.721	-0.154	-0.075
-169.896	90.666	0.080	0.089
-168.881	288.661	-0.042	0.075
-167.866	56.451	0.068	0.065
-166.852	461.773	0.120	-0.262
-165.837	25.241	-0.180	-0.147
-164.823	776.259	0.103	0.275
-163.808	-200.000	-0.046	0.208
-162.793	264.817	0.088	0.151
-161.779	800.000	0.060	0.194
-160.764	-200.000	-0.035	-0.356
-159.750	4.337	0.281	0.202
-158.735	-91.218	0.173	0.049
-157.720	-200.000	-0.078	0.439
-156.706	2.809	-0.232	0.166
-155.691	96.142	0.231	0.259
-154.677	-200.000	0.004	0.148
-153.662	-200.000	-0.018	0.105
-152.647	-200.000	-0.038	0.411
-151.633	51.699	0.185	0.173
-150.618	-33.918	0.160	-0.087
-149.604	271.732	0.125	0.216
-148.589	382.120	-0.111	-0.224
-147.574	585.114	-0.108	-0.262
-146.560	-12.845	-0.234	0.150
-145.545	-200.000	0.008	-0.400
-144.531	77.006	-0.065	-0.067
-143.516	-169.306	-0.421	0.015
-142.502	15.395	0.265	0.204
-141.487	436.985	0.110	0.236
-140.472	-90.566	-0.398	-0.113
-139.458	800.000	-0.036	0.127
-138.443	-13.210	0.349	0.222
-137.429	800.000	-0.051	0.204
-136.414	35.370	0.085	-0.073
-135.399	265.579	0.205	0.350
-134.385	-200.000	0.026	-0.345
-133.370	-131.503	-0.082	-0.011
-132.356	52.259	-0.188	0.176
-131.341	784.943	0.064	0.173
-130.326	589.376	-0.108	0.261
-129.312	-200.000	-0.049	0.226
-128.297	-200.000	-0.028	-0.182
-127.283	-17.130	0.106	0.065
-126.268	-46.983	0.105	0.050
-125.253	-53.698	-0.221	0.099
-124.239	440.330	-0.114	0.245
-123.224	102.842	0.277	0.318
-122.210	-93.804	0.126	0.034
-121.195	-10.407	-0.099	0.065
-120.180	113.647	-0.279	-0.332
