DTS Sentinel unit serial number:	SN413079Multiplexer serial number:	ORYXHardware model number:	OX4-SRSoftware version number:	ORYX F/W v4.00 Oryx Data Collector v3.7.2.0data status	okinstallation	princeton_trtdifferential loss correction	single-endedforward channel	channel 1reverse channel	N/Adate	2019/09/14time	21:34:35forward acquisition time	60.00reverse acquisition time	0.00gamma	496.2192k internal	0.2318k external	0.2318temperature offset calibration	1.0011default loss term (dB/km)	0.3790temperature slope calibration	1.0000multiplexer offset coefficient	1.0000multiplexer slope coefficient	1.0000fibre end	0.00T internal ref (°C)	32.83T ext. ref 1 (°C)	4.75T ext. ref 2 (°C)	27.71length (m)	temperature (°C)	Stokes	anti-Stokes-747.200	-80.911	0.053	0.018
-746.185	338.863	-0.021	-0.042
-745.171	74.439	0.101	0.108
-744.156	-32.778	-0.096	-0.054
-743.142	10.100	-0.188	0.145
-742.127	327.155	0.134	0.260
-741.112	741.749	-0.077	-0.208
-740.098	-128.483	0.079	0.011
-739.083	320.763	0.096	0.184
-738.069	-121.130	0.223	0.038
-737.054	-94.086	0.078	0.022
-736.039	87.132	-0.168	-0.188
-735.025	800.000	-0.132	-0.416
-734.010	214.006	-0.176	-0.282
-732.996	277.484	-0.027	-0.048
-731.981	-171.163	0.142	-0.005
-730.966	-200.000	-0.007	0.312
-729.952	-58.997	0.132	0.058
-728.937	-200.000	0.013	-0.225
-727.923	-200.000	-0.023	0.141
-726.908	-154.450	-0.429	-0.029
-725.894	-200.000	-0.057	-0.292
-724.879	62.312	0.163	0.165
-723.864	8.197	0.177	-0.135
-722.850	800.000	-0.133	-0.474
-721.835	-57.704	-0.303	-0.134
-720.821	371.214	-0.089	-0.183
-719.806	-16.694	-0.165	0.105
-718.791	-18.982	-0.098	-0.062
-717.777	-200.000	-0.038	-0.260
-716.762	67.955	0.202	-0.209
-715.748	-39.076	0.270	-0.143
-714.733	-200.000	0.003	-0.084
-713.718	-102.489	0.238	0.057
-712.704	120.401	-0.176	0.221
-711.689	116.917	0.175	-0.217
-710.675	146.100	-0.198	-0.268
-709.660	91.580	-0.088	-0.100
-708.645	800.000	-0.155	-0.465
-707.631	23.022	-0.253	-0.210
-706.616	153.984	-0.054	0.075
-705.602	24.846	-0.233	0.195
-704.587	-54.262	-0.138	0.063
-703.572	203.293	-0.147	-0.229
-702.558	-21.172	-0.255	-0.157
-701.543	800.000	-0.110	-0.412
-700.529	-41.133	0.195	-0.102
-699.514	-200.000	-0.062	0.308
-698.499	36.564	-0.024	0.022
-697.485	272.600	0.158	-0.281
-696.470	299.818	0.172	0.320
-695.456	-200.000	0.023	-0.334
-694.441	-55.606	0.152	0.069
-693.426	-200.000	0.001	0.045
-692.412	-5.711	-0.225	-0.156
-691.397	330.479	0.068	0.131
-690.383	-35.143	-0.354	-0.195
-689.368	-56.283	0.183	-0.082
-688.354	-200.000	-0.002	-0.206
-687.339	-24.650	0.242	0.145
-686.324	-64.972	0.193	-0.079
-685.310	800.000	0.097	0.306
-684.295	285.057	-0.089	-0.161
-683.281	-4.046	-0.428	-0.300
-682.266	9.866	0.061	-0.047
-681.251	-127.947	-0.116	-0.017
-680.237	57.373	0.255	0.252
-679.222	-200.000	-0.010	-0.044
-678.208	-200.000	-0.005	-0.180
-677.193	119.172	-0.229	-0.285
-676.178	510.336	0.044	-0.104
-675.164	-14.280	-0.076	0.050
-674.149	142.321	-0.109	-0.146
-673.135	5.472	-0.254	-0.189
-672.120	800.000	0.014	0.042
-671.105	-109.329	-0.277	0.059
-670.091	-142.394	0.157	-0.016
-669.076	46.014	0.033	0.031
-668.062	-113.015	0.333	-0.066
-667.047	-98.215	-0.250	-0.065
-666.032	-163.516	0.251	-0.012
-665.018	63.896	-0.035	0.036
-664.003	800.000	-0.028	0.115
-662.989	-200.000	0.049	-0.273
-661.974	176.645	-0.147	0.215
-660.959	-200.000	0.003	-0.073
-659.945	661.103	-0.083	0.215
-658.930	-53.694	0.305	0.141
-657.916	26.180	0.266	-0.224
-656.901	8.529	0.255	0.194
-655.886	-200.000	0.003	-0.121
-654.872	-200.000	-0.021	0.232
-653.857	102.750	0.110	-0.130
-652.843	-200.000	-0.030	0.150
-651.828	1.077	-0.111	-0.081
-650.814	307.270	-0.132	-0.247
-649.799	190.438	-0.101	-0.153
-648.784	800.000	0.043	0.176
-647.770	194.941	0.148	-0.226
-646.755	-200.000	0.022	0.290
-645.741	19.733	-0.250	0.203
-644.726	173.599	-0.273	-0.397
-643.711	-200.000	0.027	0.315
-642.697	-200.000	-0.005	0.152
-641.682	-67.195	-0.255	-0.101
-640.668	66.589	0.154	0.158
-639.653	13.088	-0.098	-0.076
-638.638	-83.180	0.155	-0.050
-637.624	-36.827	-0.159	-0.086
-636.609	95.948	-0.300	-0.345
-635.595	313.280	-0.116	-0.219
-634.580	67.830	0.379	-0.391
-633.565	441.337	-0.048	0.105
-632.551	68.542	-0.199	-0.206
-631.536	-53.279	-0.178	-0.082
-630.522	156.963	0.142	0.198
-629.507	-121.171	0.148	-0.025
-628.492	-20.045	-0.077	0.048
-627.478	-81.019	0.117	-0.039
-626.463	642.239	0.127	-0.326
-625.449	-72.641	-0.125	0.046
-624.434	249.241	0.116	0.198
-623.419	68.560	0.070	-0.072
-622.405	-65.980	-0.224	0.090
-621.390	-114.874	-0.411	-0.079
-620.376	-151.484	0.092	0.007
-619.361	-200.000	0.014	0.073
-618.346	-200.000	0.002	-0.198
-617.332	-200.000	-0.018	-0.120
-616.317	800.000	0.061	-0.190
-615.303	800.000	-0.056	-0.215
-614.288	-200.000	-0.065	0.349
-613.273	582.858	0.065	-0.160
-612.259	-200.000	0.024	0.285
-611.244	-31.864	0.179	-0.101
-610.230	13.232	-0.018	-0.014
-609.215	-200.000	0.015	-0.210
-608.201	330.699	-0.146	0.283
-607.186	800.000	0.105	0.353
-606.171	800.000	0.021	0.084
-605.157	186.827	-0.166	0.250
-604.142	131.930	0.024	-0.031
-603.128	114.854	0.174	0.214
-602.113	-200.000	0.037	-0.181
-601.098	-157.184	-0.340	0.021
-600.084	580.611	0.066	0.162
-599.069	37.564	0.157	-0.140
-598.055	619.108	0.143	-0.362
-597.040	800.000	0.037	0.103
-596.025	800.000	0.131	-0.556
-595.011	85.628	-0.131	-0.145
-593.996	800.000	0.039	0.133
-592.982	800.000	-0.055	-0.237
-591.967	79.586	0.117	-0.126
-590.952	316.919	0.015	0.028
-589.938	-168.932	-0.172	-0.006
-588.923	-9.586	-0.204	-0.137
-587.909	591.127	-0.135	0.334
-586.894	102.650	0.092	-0.108
-585.879	-200.000	0.005	-0.129
-584.865	-138.014	-0.362	-0.041
-583.850	56.554	0.033	0.033
-582.836	28.264	0.044	0.037
-581.821	742.619	0.104	0.282
-580.806	257.046	-0.121	-0.210
-579.792	-200.000	-0.012	-0.065
-578.777	-200.000	-0.031	0.145
-577.763	800.000	0.036	0.140
-576.748	-88.708	0.266	0.079
-575.733	-167.177	0.256	0.010
-574.719	800.000	-0.079	0.243
-573.704	211.824	0.072	-0.114
-572.690	26.180	0.176	0.148
-571.675	-102.483	0.032	0.008
-570.661	85.051	-0.131	-0.145
-569.646	33.741	-0.154	-0.134
-568.631	169.530	-0.137	0.197
-567.617	11.657	0.053	-0.041
-566.602	146.098	-0.144	-0.194
-565.588	800.000	-0.015	-0.053
-564.573	48.892	0.148	0.139
-563.558	-0.648	-0.118	-0.084
-562.544	-50.000	0.292	0.139
-561.529	376.758	-0.108	-0.222
-560.515	-200.000	0.008	0.065
-559.500	-200.000	-0.028	0.255
-558.485	41.452	-0.112	-0.102
-557.471	368.618	-0.111	-0.226
-556.456	-199.176	-0.304	-0.002
-555.442	-200.000	0.040	0.242
-554.427	-29.423	-0.168	-0.097
-553.412	-200.000	0.039	0.233
-552.398	119.167	-0.168	0.209
-551.383	-90.370	-0.238	-0.069
-550.369	26.656	0.237	-0.200
-549.354	-53.543	0.334	-0.154
-548.339	-200.000	-0.032	0.187
-547.325	-55.162	-0.081	0.036
-546.310	-106.253	-0.182	-0.041
-545.296	-19.892	-0.147	-0.091
-544.281	64.777	0.162	0.164
-543.266	259.159	-0.147	-0.254
-542.252	-107.081	-0.262	0.058
-541.237	-200.000	-0.001	-0.145
-540.223	-1.442	0.029	-0.020
-539.208	-92.134	-0.147	0.042
-538.193	-200.000	0.006	0.322
-537.179	-13.058	0.312	0.204
-536.164	299.264	0.141	-0.261
-535.150	206.231	-0.137	-0.214
-534.135	-110.132	-0.259	-0.054
-533.121	-75.406	-0.315	0.113
-532.106	758.908	-0.039	0.106
-531.091	-193.723	-0.135	-0.001
-530.077	6.763	-0.060	0.045
-529.062	278.546	0.109	0.195
-528.048	-132.341	-0.253	0.033
-527.033	-9.898	0.349	-0.233
-526.018	-200.000	0.020	-0.449
-525.004	-111.420	-0.337	-0.069
-523.989	109.157	-0.162	-0.194
-522.975	-74.752	-0.093	0.033
-521.960	121.769	0.123	0.153
-520.945	549.461	0.030	0.073
-519.931	-136.063	-0.171	0.020
-518.916	-78.285	0.294	-0.101
-517.902	711.259	0.107	0.284
-516.887	587.747	0.052	0.128
-515.872	-96.948	0.076	-0.020
-514.858	278.811	-0.117	-0.209
-513.843	800.000	-0.040	0.165
-512.829	-200.000	-0.014	-0.098
-511.814	17.812	-0.235	-0.187
-510.799	775.870	0.193	0.528
-509.785	-47.584	-0.060	-0.029
-508.770	-18.199	0.185	0.116
-507.756	66.274	0.158	-0.160
-506.741	26.922	-0.344	-0.289
-505.726	800.000	0.085	-0.264
-504.712	-5.100	-0.208	0.144
-503.697	-111.328	-0.036	-0.007
-502.683	-65.925	-0.410	0.164
-501.668	-150.466	0.116	0.009
-500.653	229.960	0.100	-0.164
-499.639	-8.827	-0.319	0.215
-498.624	-30.441	0.284	-0.161
-497.610	-200.000	0.004	0.101
-496.595	800.000	-0.026	0.101
-495.581	-139.180	0.199	0.022
-494.566	800.000	-0.136	-0.446
-493.551	-180.996	0.148	-0.003
-492.537	-200.000	0.030	-0.189
-491.522	-200.000	-0.013	-0.062
-490.508	-200.000	-0.015	-0.096
-489.493	800.000	0.025	0.080
-488.478	338.702	0.202	-0.395
-487.464	-102.013	0.217	0.052
-486.449	-200.000	0.006	0.328
-485.435	-70.578	-0.112	0.042
-484.420	-28.437	0.200	0.115
-483.405	43.100	-0.070	0.064
-482.391	-77.776	-0.295	0.102
-481.376	304.432	0.123	0.229
-480.362	158.030	-0.161	-0.223
-479.347	-200.000	0.002	0.272
-478.332	84.182	0.145	0.158
-477.318	-53.581	-0.066	0.030
-476.303	-162.398	0.177	0.009
-475.289	-100.188	-0.308	0.077
-474.274	800.000	0.113	0.416
-473.259	189.257	0.294	-0.441
-472.245	-6.869	-0.226	0.154
-471.230	-200.000	-0.023	0.267
-470.216	41.664	-0.288	-0.261
-469.201	190.402	-0.058	0.087
-468.186	-53.879	-0.133	0.061
-467.172	49.274	0.173	-0.163
-466.157	76.086	0.240	0.254
-465.143	440.777	0.057	-0.124
-464.128	80.556	-0.198	-0.214
-463.113	-200.000	-0.001	0.145
-462.099	541.810	0.031	-0.073
-461.084	389.851	-0.162	0.336
-460.070	11.336	-0.299	-0.230
-459.055	-50.399	0.311	-0.147
-458.040	-74.132	-0.201	0.073
-457.026	351.551	-0.187	0.370
-456.011	-200.000	0.008	0.242
-454.997	800.000	0.028	0.088
-453.982	264.953	0.092	-0.160
-452.968	-200.000	-0.004	-0.198
-451.953	-13.587	-0.298	0.193
-450.938	408.341	0.051	0.108
-449.924	28.155	-0.139	0.117
-448.909	154.602	0.116	0.160
-447.895	-28.936	-0.215	-0.124
-446.880	145.953	0.224	-0.301
-445.865	800.000	0.018	0.063
-444.851	64.329	-0.149	-0.150
-443.836	-167.082	-0.221	-0.009
-442.822	146.650	-0.055	-0.074
-441.807	-106.850	-0.255	0.056
-440.792	-161.662	-0.267	0.014
-439.778	6.908	0.340	0.254
-438.763	784.238	0.176	-0.482
-437.749	-35.887	0.028	0.015
-436.734	-125.042	-0.113	-0.017
-435.719	39.351	-0.257	-0.230
-434.705	-40.876	0.156	-0.081
-433.690	177.581	-0.225	0.328
-432.676	-28.655	0.277	0.160
-431.661	514.586	0.055	0.128
-430.646	191.728	0.087	0.131
-429.632	129.199	-0.171	-0.218
-428.617	-200.000	-0.003	0.148
-427.603	610.443	0.112	0.281
-426.588	800.000	-0.092	-0.281
-425.573	-65.124	-0.046	-0.018
-424.559	-73.610	0.265	-0.096
-423.544	-200.000	-0.003	-0.194
-422.530	180.599	-0.250	-0.366
-421.515	-99.502	0.076	-0.019
-420.500	70.883	0.383	0.397
-419.486	-132.685	0.179	-0.023
-418.471	-175.907	-0.468	0.012
-417.457	-200.000	-0.009	0.507
-416.442	-47.430	0.250	0.122
-415.428	153.106	0.125	0.170
-414.413	800.000	-0.141	-0.459
-413.398	800.000	-0.050	-0.207
-412.384	-172.125	-0.368	0.012
-411.369	-200.000	0.006	-0.052
-410.355	800.000	-0.076	-0.277
-409.340	-200.000	-0.012	-0.122
-408.325	192.908	-0.130	0.197
-407.311	-99.215	-0.185	0.047
-406.296	-75.219	0.200	-0.071
-405.282	50.239	-0.189	-0.179
-404.267	-96.800	-0.093	0.024
-403.252	800.000	0.057	-0.164
-402.238	800.000	0.025	-0.102
-401.223	-72.178	-0.226	0.084
-400.209	-200.000	0.024	0.357
-399.194	164.037	0.225	0.316
-398.179	-27.099	0.076	0.044
-397.165	800.000	0.079	0.288
-396.150	79.683	-0.129	0.138
-395.136	-200.000	0.022	0.249
-394.121	-182.472	0.137	0.003
-393.106	2.838	0.250	-0.181
-392.092	-102.416	0.117	-0.028
-391.077	-200.000	0.052	0.268
-390.063	-98.819	-0.148	-0.038
-389.048	800.000	-0.038	0.104
-388.033	-200.000	0.033	0.198
-387.019	-200.000	-0.004	0.262
-386.004	3.927	0.300	-0.219
-384.990	-200.000	0.049	0.255
-383.975	46.998	0.148	0.137
-382.960	357.986	0.110	0.218
-381.946	134.209	-0.058	0.076
-380.931	800.000	0.010	0.029
-379.917	800.000	0.034	0.100
-378.902	-106.010	0.110	-0.025
-377.888	-200.000	-0.015	-0.237
-376.873	49.808	-0.109	0.102
-375.858	-48.833	0.164	0.079
-374.844	531.703	0.116	-0.273
-373.829	-29.752	-0.284	0.162
-372.815	641.899	-0.139	0.352
-371.800	-200.000	0.029	0.133
-370.785	22.070	-0.090	-0.073
-369.771	220.992	0.159	0.255
-368.756	-131.776	0.256	0.033
-367.742	454.230	-0.056	-0.124
-366.727	-45.727	-0.175	-0.086
-365.712	94.933	-0.094	-0.107
-364.698	38.235	0.366	-0.325
-363.683	800.000	-0.114	-0.431
-362.669	-200.000	-0.018	0.128
-361.654	-96.026	-0.125	0.033
-360.639	-143.732	0.095	-0.009
-359.625	-200.000	-0.030	0.172
-358.610	800.000	-0.094	0.357
-357.596	-200.000	0.054	0.279
-356.581	259.580	-0.081	0.139
-355.566	142.787	0.242	0.321
-354.552	-110.895	-0.037	0.008
-353.537	256.826	-0.121	0.208
-352.523	532.010	-0.132	-0.311
-351.508	22.444	-0.091	-0.074
-350.493	65.710	0.208	-0.210
-349.479	64.803	-0.090	-0.090
-348.464	226.814	-0.036	-0.059
-347.450	800.000	0.030	-0.123
-346.435	-83.139	-0.198	0.064
-345.420	-124.607	0.210	-0.033
-344.406	138.431	0.147	-0.192
-343.391	141.488	-0.165	-0.218
-342.377	64.324	-0.037	-0.037
-341.362	800.000	0.100	-0.377
-340.348	79.535	0.049	-0.052
-339.333	-95.416	0.082	-0.022
-338.318	728.511	-0.059	0.157
-337.304	-200.000	0.005	0.071
-336.289	-76.903	-0.253	0.088
-335.275	-65.574	-0.410	0.164
-334.260	-200.000	0.025	0.231
-333.245	-14.013	-0.117	-0.076
-332.231	162.857	-0.104	0.145
-331.216	-200.000	0.008	0.142
-330.202	-23.680	-0.133	0.079
-329.187	33.607	-0.112	0.097
-328.172	800.000	-0.057	-0.162
-327.158	60.561	0.092	0.090
-326.143	663.336	0.075	0.193
-325.129	117.461	0.247	-0.302
-324.114	800.000	0.051	-0.182
-323.099	133.827	0.293	0.378
-322.085	80.288	-0.118	-0.127
-321.070	-49.397	0.051	-0.024
-320.056	-47.888	0.056	-0.027
-319.041	406.160	0.099	-0.207
-318.026	-117.883	-0.329	-0.059
-317.012	385.604	-0.039	0.079
-315.997	-68.569	-0.330	0.127
-314.983	0.579	-0.227	0.162
-313.968	-122.557	0.244	-0.039
-312.953	-104.500	0.305	0.070
-311.939	-28.494	0.082	-0.047
-310.924	349.950	-0.027	-0.053
-309.910	-61.525	0.106	-0.044
-308.895	21.845	-0.194	-0.157
-307.880	-41.943	0.246	-0.125
-306.866	-84.344	0.009	0.003
-305.851	60.350	-0.083	0.082
-304.837	-61.840	0.158	-0.066
-303.822	-65.394	0.127	0.051
-302.807	-19.585	0.071	-0.044
-301.793	156.647	0.118	-0.162
-300.778	-200.000	0.057	-0.298
-299.764	-200.000	0.014	-0.199
-298.749	800.000	0.039	-0.124
-297.735	-200.000	-0.057	-0.351
-296.720	-108.215	-0.074	-0.016
-295.705	-66.851	-0.474	0.186
-294.691	33.271	0.171	0.148
-293.676	-37.817	-0.234	-0.124
-292.662	-200.000	0.014	0.118
-291.647	70.435	0.081	0.083
-290.632	-69.441	0.545	-0.208
-289.618	93.092	0.181	0.204
-288.603	480.163	0.123	0.276
-287.589	-200.000	0.073	0.361
-286.574	-200.000	-0.035	-0.285
-285.559	738.556	0.113	-0.302
-284.545	46.865	0.085	0.078
-283.530	779.789	0.056	0.152
-282.516	739.704	0.123	0.328
-281.501	43.428	-0.036	-0.033
-280.486	296.109	-0.067	-0.121
-279.472	800.000	-0.055	0.228
-278.457	252.009	-0.264	0.447
-277.443	-39.362	-0.165	0.086
-276.428	-36.306	-0.378	-0.203
-275.413	332.867	-0.124	-0.239
-274.399	-200.000	-0.039	-0.369
-273.384	90.786	0.029	0.032
-272.370	-107.159	0.318	0.070
-271.355	102.300	0.260	-0.302
-270.340	293.071	0.082	0.149
-269.326	-200.000	-0.007	-0.094
-268.311	800.000	-0.129	0.486
-267.297	-41.282	-0.311	0.159
-266.282	305.689	-0.199	-0.367
-265.267	34.708	-0.231	0.200
-264.253	800.000	0.067	-0.235
-263.238	-144.855	0.194	-0.018
-262.224	774.555	0.140	0.381
-261.209	-140.726	0.188	-0.019
-260.195	-103.942	0.154	0.036
-259.180	-168.974	0.341	0.013
-258.165	100.853	0.047	-0.054
-257.151	-82.949	0.170	-0.055
-256.136	-107.809	0.093	0.020
-255.122	26.849	-0.233	-0.194
-254.107	-5.039	0.206	-0.141
-253.092	-32.678	0.184	-0.102
-252.078	-139.956	-0.197	0.021
-251.063	-70.003	0.157	-0.059
-250.049	273.215	0.028	-0.049
-249.034	800.000	-0.038	-0.105
-248.019	-200.000	0.009	-0.301
-247.005	2.728	0.266	0.192
-245.990	197.636	0.073	0.111
-244.976	55.285	0.251	0.241
-243.961	-98.492	0.319	-0.081
-242.946	-73.924	-0.368	-0.132
-241.932	-200.000	-0.022	0.107
-240.917	356.612	-0.066	-0.131
-239.903	-200.000	0.070	0.406
-238.888	-67.357	-0.051	-0.020
-237.873	-200.000	0.024	-0.132
-236.859	6.596	-0.165	-0.122
-235.844	-26.622	0.289	-0.168
-234.830	3.063	-0.051	0.037
-233.815	-69.966	-0.295	-0.111
-232.800	49.605	0.142	0.133
-231.786	80.904	-0.098	-0.105
-230.771	-64.372	0.452	-0.183
-229.757	217.256	-0.208	-0.328
-228.742	11.800	0.204	0.156
-227.727	800.000	-0.082	-0.228
-226.713	-46.391	-0.066	0.032
-225.698	-169.752	-0.406	-0.015
-224.684	-59.726	0.128	-0.054
-223.669	-147.911	0.014	0.001
-222.655	12.657	0.183	0.140
-221.640	-80.250	-0.300	0.100
-220.625	800.000	-0.059	-0.179
-219.611	-200.000	0.000	0.246
-218.596	106.900	-0.233	-0.274
-217.582	132.760	0.063	-0.081
-216.567	-115.915	-0.026	-0.005
-215.552	-97.387	0.277	0.072
-214.538	800.000	0.092	0.271
-213.523	108.150	-0.104	0.123
-212.509	41.460	-0.161	0.144
-211.494	-200.000	0.064	-0.322
-210.479	-93.100	-0.300	-0.083
-209.465	45.968	0.246	0.226
-208.450	-200.000	-0.017	0.210
-207.436	-72.059	0.189	0.070
-206.421	-171.827	0.168	-0.005
-205.406	-131.209	-0.109	0.014
-204.392	35.522	-0.243	-0.212
-203.377	-93.648	0.390	-0.107
-202.363	-133.168	0.313	0.039
-201.348	91.021	0.045	-0.050
-200.333	37.183	-0.301	0.264
-199.319	199.770	0.141	0.215
-198.304	-110.116	0.393	0.081
-197.290	251.297	0.010	0.017
-196.275	44.935	-0.237	-0.216
-195.260	-200.000	0.014	0.349
-194.246	-200.000	0.027	-0.199
-193.231	140.817	-0.220	0.288
-192.217	-95.031	0.372	0.099
-191.202	638.211	-0.097	-0.245
-190.187	-200.000	0.030	-0.132
-189.173	-200.000	-0.008	0.450
-188.158	-32.420	0.164	-0.090
-187.144	5.980	0.074	-0.054
-186.129	800.000	0.084	-0.357
-185.114	-200.000	0.042	-0.220
-184.100	224.367	-0.174	-0.278
-183.085	800.000	0.176	0.492
-182.071	40.394	0.235	0.209
-181.056	83.392	-0.165	-0.178
-180.042	-20.157	-0.063	0.038
-179.027	-20.881	-0.159	0.097
-178.012	-72.053	0.307	0.113
-176.998	237.293	0.109	-0.179
-175.983	82.860	0.044	-0.047
-174.969	-26.770	0.287	-0.166
-173.954	408.068	0.015	-0.032
-172.939	-113.266	0.113	-0.022
-171.925	537.610	0.069	-0.163
-170.910	-161.212	0.236	-0.012
-169.896	-200.000	-0.005	0.184
-168.881	800.000	-0.056	-0.178
-167.866	223.521	-0.107	-0.170
-166.852	21.398	-0.235	-0.189
-165.837	-87.757	-0.141	-0.042
-164.823	800.000	-0.058	-0.178
-163.808	-90.546	0.455	0.130
-162.793	33.856	0.142	0.122
-161.779	-200.000	0.014	-0.165
-160.764	-200.000	0.215	-0.001
-159.750	-139.642	0.054	0.006
-158.735	-5.002	0.161	-0.110
-157.720	-92.016	0.248	-0.070
-156.706	207.688	0.013	-0.020
-155.691	-139.884	0.093	-0.010
-154.677	-51.545	0.125	0.058
-153.662	-52.987	-0.451	0.205
-152.647	-108.420	-0.405	-0.086
-151.633	34.797	0.249	-0.215
-150.618	697.944	0.086	0.223
-149.604	-67.120	-0.082	0.032
-148.589	132.045	0.091	-0.116
-147.574	182.119	-0.072	0.105
-146.560	607.297	0.094	0.231
-145.545	-149.976	-0.156	0.012
-144.531	-155.392	0.350	-0.022
-143.516	89.544	-0.224	0.247
-142.502	30.700	0.137	0.116
-141.487	-78.935	-0.185	0.062
-140.472	-200.000	-0.066	0.361
-139.458	800.000	-0.091	-0.249
-138.443	56.005	0.245	-0.235
-137.429	68.366	0.030	-0.031
-136.414	800.000	0.023	0.086
-135.399	380.455	0.100	0.203
-134.385	568.250	0.121	-0.292
-133.370	-200.000	0.011	-0.211
-132.356	-119.367	-0.298	0.051
-131.341	-98.045	0.146	-0.037
-130.326	800.000	-0.127	0.420
-129.312	157.642	0.133	-0.182
-128.297	800.000	0.081	0.256
-127.283	168.105	-0.059	0.083
-126.268	-77.307	0.060	0.021
-125.253	-200.000	-0.023	-0.275
-124.239	453.525	-0.125	0.273
-123.224	800.000	0.121	-0.476
-122.210	25.230	0.169	-0.139
-121.195	-200.000	-0.032	-0.185
-120.180	-181.514	-0.123	0.002
