DTS Sentinel unit serial number:	SN413079Multiplexer serial number:	ORYXHardware model number:	OX4-SRSoftware version number:	ORYX F/W v4.00 Oryx Data Collector v3.7.2.0data status	okinstallation	princeton_trtdifferential loss correction	single-endedforward channel	channel 1reverse channel	N/Adate	2019/09/15time	20:14:35forward acquisition time	60.00reverse acquisition time	0.00gamma	496.2192k internal	0.2318k external	0.2318temperature offset calibration	0.9960default loss term (dB/km)	0.3790temperature slope calibration	1.0000multiplexer offset coefficient	1.0000multiplexer slope coefficient	1.0000fibre end	0.00T internal ref (°C)	34.53T ext. ref 1 (°C)	7.68T ext. ref 2 (°C)	25.63length (m)	temperature (°C)	Stokes	anti-Stokes-747.200	-124.617	-0.394	0.062
-746.185	800.000	-0.027	-0.112
-745.171	-97.010	0.313	-0.083
-744.156	-200.000	0.045	0.264
-743.142	-14.455	-0.193	0.126
-742.127	800.000	-0.050	0.190
-741.112	435.363	0.037	0.082
-740.098	14.531	-0.069	0.055
-739.083	554.334	0.073	0.177
-738.069	182.009	0.092	0.137
-737.054	58.298	0.156	-0.154
-736.039	-150.170	-0.145	0.011
-735.025	491.857	0.167	0.387
-734.010	-112.512	-0.137	-0.028
-732.996	102.119	0.141	-0.167
-731.981	-31.353	-0.259	-0.147
-730.966	-200.000	0.034	-0.165
-729.952	-23.989	-0.264	0.160
-728.937	497.101	-0.143	-0.333
-727.923	262.250	0.107	0.187
-726.908	272.169	-0.092	0.164
-725.894	106.872	-0.040	0.048
-724.879	-121.420	-0.184	0.031
-723.864	-63.047	-0.146	-0.061
-722.850	462.067	-0.169	-0.382
-721.835	-59.359	0.222	-0.096
-720.821	59.338	0.245	0.244
-719.806	56.198	-0.112	-0.110
-718.791	623.435	0.072	-0.183
-717.777	406.154	0.064	-0.137
-716.762	28.214	0.002	-0.002
-715.748	119.394	0.131	-0.164
-714.733	800.000	-0.065	0.201
-713.718	340.312	0.035	0.070
-712.704	-56.802	-0.198	-0.089
-711.689	53.554	0.185	-0.180
-710.675	-128.536	-0.378	0.054
-709.660	10.396	0.224	-0.172
-708.645	-200.000	0.037	-0.374
-707.631	800.000	0.054	0.206
-706.616	391.972	0.112	0.236
-705.602	162.042	-0.058	0.083
-704.587	-133.124	0.041	-0.005
-703.572	26.957	0.254	-0.216
-702.558	154.777	0.158	0.219
-701.543	110.554	-0.055	-0.067
-700.529	38.910	0.215	-0.194
-699.514	-200.000	0.000	-0.055
-698.499	-81.819	-0.317	-0.105
-697.485	787.937	0.076	0.211
-696.470	-200.000	-0.008	-0.075
-695.456	-200.000	0.016	-0.256
-694.441	15.086	0.278	0.220
-693.426	800.000	-0.059	0.258
-692.412	152.168	-0.222	-0.306
-691.397	-114.710	0.157	-0.030
-690.383	-17.568	0.164	-0.104
-689.368	800.000	0.036	0.109
-688.354	-200.000	-0.039	0.337
-687.339	120.852	0.151	-0.190
-686.324	13.917	0.327	-0.257
-685.310	152.641	0.051	-0.070
-684.295	-36.574	-0.127	0.069
-683.281	111.990	0.149	-0.181
-682.266	420.881	-0.020	-0.044
-681.251	-200.000	-0.005	-0.340
-680.237	-200.000	0.015	0.236
-679.222	800.000	0.030	-0.114
-678.208	-136.016	-0.203	0.024
-677.193	138.386	-0.216	-0.287
-676.178	-84.646	-0.051	0.016
-675.164	-200.000	-0.036	-0.183
-674.149	-187.041	0.177	-0.002
-673.135	135.581	0.051	-0.067
-672.120	228.525	-0.052	0.086
-671.105	-200.000	0.008	0.041
-670.091	-3.085	0.063	-0.045
-669.076	495.317	-0.128	-0.297
-668.062	800.000	0.042	-0.185
-667.047	-200.000	-0.026	-0.170
-666.032	800.000	0.123	-0.459
-665.018	187.087	0.207	-0.312
-664.003	-200.000	0.036	-0.356
-662.989	-76.860	-0.168	0.059
-661.974	-200.000	0.022	-0.368
-660.959	-43.464	-0.120	0.061
-659.945	247.525	0.107	-0.182
-658.930	-200.000	0.010	0.139
-657.916	800.000	-0.083	-0.293
-656.901	-89.277	0.109	-0.032
-655.886	10.089	-0.065	-0.050
-654.872	83.411	-0.110	-0.121
-653.857	800.000	0.035	0.107
-652.843	733.014	0.168	0.454
-651.828	-131.372	0.072	0.010
-650.814	-56.379	-0.275	-0.123
-649.799	155.850	0.084	-0.117
-648.784	-7.057	-0.070	0.048
-647.770	-114.990	-0.107	0.021
-646.755	-200.000	0.018	-0.106
-645.741	452.558	0.072	-0.161
-644.726	293.741	0.108	-0.199
-643.711	-200.000	0.014	0.166
-642.697	-200.000	0.093	-0.495
-641.682	-1.342	-0.164	-0.117
-640.668	40.368	0.289	0.262
-639.653	-115.182	-0.457	0.087
-638.638	43.367	-0.222	0.204
-637.624	-162.149	-0.239	-0.012
-636.609	-1.227	0.238	-0.170
-635.595	-37.937	-0.154	-0.083
-634.580	800.000	0.085	-0.261
-633.565	8.831	-0.156	0.119
-632.551	-80.629	-0.050	-0.017
-631.536	-76.314	0.162	-0.058
-630.522	198.159	-0.082	0.126
-629.507	61.600	0.267	-0.268
-628.492	-61.839	-0.180	0.076
-627.478	164.269	0.291	-0.414
-626.463	-152.128	0.220	-0.016
-625.449	-104.146	0.144	0.034
-624.434	-200.000	-0.027	-0.221
-623.419	-104.863	-0.376	0.087
-622.405	-55.818	-0.183	0.082
-621.390	455.455	-0.068	0.152
-620.376	-75.312	0.186	0.067
-619.361	-133.975	-0.271	0.034
-618.346	-200.000	-0.034	0.511
-617.332	-200.000	0.032	-0.199
-616.317	-166.747	0.398	0.017
-615.303	800.000	0.033	-0.106
-614.288	-200.000	-0.044	-0.451
-613.273	-200.000	0.069	-0.356
-612.259	98.495	0.054	-0.062
-611.244	-32.310	-0.128	-0.072
-610.230	33.721	0.140	0.123
-609.215	269.842	-0.207	0.366
-608.201	-101.523	-0.263	-0.064
-607.186	42.294	-0.081	0.074
-606.171	-147.938	-0.025	-0.002
-605.157	39.601	-0.111	0.100
-604.142	-61.132	0.230	0.098
-603.128	-200.000	-0.062	-0.334
-602.113	271.782	0.154	0.273
-601.098	-105.583	-0.351	0.080
-600.084	-115.200	-0.381	-0.073
-599.069	666.836	-0.057	0.148
-598.055	-200.000	-0.029	0.421
-597.040	555.714	-0.019	-0.045
-596.025	-200.000	0.019	-0.312
-595.011	86.985	-0.039	-0.044
-593.996	-96.878	0.223	0.059
-592.982	-200.000	-0.007	0.230
-591.967	-163.117	-0.436	0.021
-590.952	-28.651	-0.209	0.121
-589.938	-123.848	0.258	0.041
-588.923	478.105	-0.200	0.456
-587.909	800.000	-0.055	0.195
-586.894	-1.357	0.276	0.196
-585.879	-200.000	0.085	0.381
-584.865	457.040	-0.141	0.315
-583.850	-200.000	-0.045	-0.259
-582.836	-83.226	0.210	-0.068
-581.821	-200.000	-0.001	-0.092
-580.806	165.278	-0.156	0.222
-579.792	11.861	0.271	-0.209
-578.777	36.434	-0.405	0.359
-577.763	219.571	0.132	-0.213
-576.748	68.135	-0.038	-0.039
-575.733	-200.000	0.006	0.177
-574.719	-200.000	-0.030	-0.240
-573.704	453.053	-0.109	-0.243
-572.690	800.000	-0.019	-0.071
-571.675	-120.950	0.144	-0.024
-570.661	-149.508	0.148	0.012
-569.646	79.766	0.178	0.192
-568.631	-171.795	0.061	-0.002
-567.617	-192.881	-0.119	-0.001
-566.602	33.344	0.140	0.122
-565.588	-101.605	0.231	-0.056
-564.573	334.997	0.139	0.271
-563.558	6.424	-0.061	0.045
-562.544	-30.462	-0.170	-0.097
-561.529	84.389	0.235	0.258
-560.515	-80.520	-0.385	-0.129
-559.500	77.091	0.109	0.116
-558.485	745.827	0.105	0.285
-557.471	214.945	-0.068	-0.108
-556.456	97.054	0.047	0.055
-555.442	177.797	-0.044	-0.065
-554.427	75.728	-0.054	-0.057
-553.412	-200.000	-0.055	0.344
-552.398	161.217	0.121	-0.170
-551.383	55.903	0.143	-0.139
-550.369	-200.000	-0.003	-0.289
-549.354	236.576	0.089	0.148
-548.339	384.292	-0.220	0.455
-547.325	461.938	0.083	0.186
-546.310	276.753	0.112	-0.200
-545.296	-8.473	-0.103	0.070
-544.281	-145.543	-0.348	0.031
-543.266	-200.000	0.026	-0.128
-542.252	399.893	0.214	0.451
-541.237	10.415	0.198	-0.152
-540.223	283.203	-0.101	-0.183
-539.208	-185.556	-0.256	-0.004
-538.193	-61.126	-0.396	0.168
-537.179	-141.080	-0.167	-0.017
-536.164	379.126	-0.105	-0.216
-535.150	-103.003	0.323	-0.077
-534.135	143.819	0.140	-0.187
-533.121	-200.000	0.029	0.235
-532.106	32.401	0.195	-0.169
-531.091	800.000	0.052	-0.169
-530.077	-106.813	-0.072	-0.016
-529.062	-61.110	-0.315	-0.134
-528.048	-31.073	0.192	-0.109
-527.033	-200.000	-0.021	0.133
-526.018	-95.553	0.141	-0.038
-525.004	-80.902	0.097	0.032
-523.989	-69.852	-0.224	0.086
-522.975	-18.800	-0.175	-0.109
-521.960	15.569	0.264	-0.208
-520.945	30.921	0.232	-0.200
-519.931	158.882	-0.194	-0.270
-518.916	-138.351	-0.304	0.034
-517.902	-127.264	-0.157	0.023
-516.887	-65.538	0.354	0.143
-515.872	-200.000	0.007	-0.260
-514.858	800.000	0.011	-0.035
-513.843	306.897	0.151	0.282
-512.829	-62.553	0.034	0.014
-511.814	548.245	-0.024	-0.059
-510.799	-83.714	-0.388	-0.124
-509.785	-200.000	0.016	0.175
-508.770	-97.362	-0.373	-0.098
-507.756	-200.000	0.033	-0.275
-506.741	-84.890	0.222	0.070
-505.726	594.965	0.097	-0.240
-504.712	257.988	0.178	0.307
-503.697	-90.708	-0.330	0.095
-502.683	-90.859	-0.212	-0.061
-501.668	800.000	0.071	-0.226
-500.653	800.000	-0.076	-0.230
-499.639	219.485	0.129	0.207
-498.624	-99.419	-0.141	-0.035
-497.610	138.752	0.059	-0.078
-496.595	-171.863	-0.264	-0.009
-495.581	-83.680	-0.363	-0.116
-494.566	-36.080	-0.237	0.128
-493.551	-200.000	-0.042	-0.185
-492.537	-68.371	0.271	-0.106
-491.522	200.071	-0.237	0.364
-490.508	174.032	0.008	-0.012
-489.493	59.782	-0.035	-0.034
-488.478	288.195	0.018	0.033
-487.464	20.094	-0.048	-0.039
-486.449	-200.000	-0.013	0.097
-485.435	800.000	0.050	-0.144
-484.420	-200.000	0.006	-0.274
-483.405	-111.006	-0.396	-0.082
-482.391	92.294	0.183	-0.207
-481.376	-29.620	0.015	0.009
-480.362	-160.245	0.629	0.034
-479.347	-200.000	-0.048	0.290
-478.332	-137.445	-0.293	0.033
-477.318	-200.000	-0.023	-0.287
-476.303	-47.497	-0.070	0.034
-475.289	28.299	-0.081	-0.069
-474.274	-42.249	-0.175	0.090
-473.259	304.169	-0.063	-0.117
-472.245	-163.003	0.062	-0.003
-471.230	-200.000	0.007	-0.103
-470.216	-41.781	-0.175	0.090
-469.201	51.753	0.252	0.240
-468.186	9.536	-0.310	0.235
-467.172	455.152	-0.054	-0.121
-466.157	45.870	0.119	0.110
-465.143	-200.000	0.035	-0.223
-464.128	42.047	-0.066	-0.060
-463.113	11.688	0.094	0.072
-462.099	-160.110	0.228	0.012
-461.084	-200.000	0.038	0.243
-460.070	-65.551	-0.202	-0.081
-459.055	-140.573	0.298	-0.031
-458.040	-200.000	-0.029	0.134
-457.026	800.000	-0.085	-0.317
-456.011	2.957	-0.273	-0.198
-454.997	-138.847	-0.425	0.046
-453.982	-5.746	-0.153	0.105
-452.968	-200.000	-0.004	0.145
-451.953	-4.449	-0.135	0.094
-450.938	537.348	-0.154	0.367
-449.924	-31.703	-0.285	-0.160
-448.909	265.303	-0.126	-0.219
-447.895	86.926	-0.117	-0.129
-446.880	-7.007	0.045	0.031
-445.865	-73.485	0.090	0.033
-444.851	-200.000	0.035	0.262
-443.836	-84.717	-0.214	-0.067
-442.822	-153.147	-0.124	-0.009
-441.807	89.862	-0.199	0.222
-440.792	-85.911	0.190	0.059
-439.778	800.000	0.051	0.203
-438.763	-128.247	0.115	0.016
-437.749	94.758	0.252	-0.286
-436.734	-149.948	0.269	0.021
-435.719	-83.707	0.364	0.116
-434.705	-134.859	0.448	0.054
-433.690	-169.889	-0.110	0.004
-432.676	-60.053	0.142	0.061
-431.661	-37.103	-0.214	-0.115
-430.646	213.527	0.135	-0.214
-429.632	597.593	0.040	0.100
-428.617	-93.704	0.149	-0.041
-427.603	32.112	0.243	-0.209
-426.588	-139.170	0.336	-0.036
-425.573	243.260	-0.167	0.280
-424.559	19.423	-0.227	0.183
-423.544	-200.000	-0.076	0.393
-422.530	-200.000	0.011	0.089
-421.515	10.186	-0.301	-0.229
-420.500	800.000	0.080	0.296
-419.486	-68.111	0.185	0.072
-418.471	-91.457	0.306	0.087
-417.457	-43.248	0.171	0.087
-416.442	-59.758	-0.146	-0.063
-415.428	283.730	-0.041	0.073
-414.413	438.949	0.122	-0.266
-413.398	-109.357	-0.194	-0.041
-412.384	81.130	0.191	-0.207
-411.369	-150.296	0.335	-0.026
-410.355	-200.000	0.000	0.018
-409.340	141.121	-0.234	0.309
-408.325	121.103	-0.108	0.134
-407.311	167.802	-0.210	0.298
-406.296	118.892	0.052	-0.065
-405.282	-121.817	0.110	-0.018
-404.267	-63.713	-0.515	-0.211
-403.252	21.700	0.084	-0.068
-402.238	-118.717	-0.236	0.042
-401.223	-133.572	0.236	-0.030
-400.209	800.000	-0.089	0.258
-399.194	-200.000	-0.038	0.196
-398.179	169.224	0.184	0.262
-397.165	800.000	0.047	-0.158
-396.150	-200.000	-0.049	0.231
-395.136	800.000	-0.037	0.148
-394.121	-50.700	0.086	-0.040
-393.106	405.470	-0.137	-0.289
-392.092	800.000	-0.021	-0.060
-391.077	162.944	0.097	-0.136
-390.063	800.000	-0.047	-0.144
-389.048	118.169	0.310	-0.381
-388.033	-60.646	0.330	0.140
-387.019	800.000	0.027	0.093
-386.004	-121.101	0.233	0.039
-384.990	800.000	-0.094	-0.290
-383.975	29.289	0.184	0.156
-382.960	162.647	-0.045	-0.064
-381.946	-11.181	-0.088	0.058
-380.931	54.930	0.096	-0.093
-379.917	800.000	0.067	0.248
-378.902	54.328	-0.194	-0.187
-377.888	42.639	0.183	-0.166
-376.873	-200.000	-0.033	0.194
-375.858	-169.005	0.643	0.024
-374.844	800.000	0.041	-0.132
-373.829	-26.742	0.089	-0.052
-372.815	272.391	0.066	0.117
-371.800	172.658	-0.147	-0.211
-370.785	111.911	0.166	0.200
-369.771	-76.405	-0.068	0.024
-368.756	-141.461	-0.118	-0.012
-367.742	61.289	0.024	0.024
-366.727	475.376	-0.238	0.536
-365.712	-40.653	0.254	-0.131
-364.698	-148.598	0.202	0.016
-363.683	-200.000	-0.009	-0.046
-362.669	71.890	0.177	-0.184
-361.654	-200.000	0.003	-0.132
-360.639	800.000	-0.054	-0.158
-359.625	19.353	-0.117	-0.093
-358.610	528.662	0.096	-0.226
-357.596	800.000	0.058	-0.199
-356.581	-200.000	0.006	-0.242
-355.566	-84.994	-0.139	-0.043
-354.552	-189.520	-0.389	-0.004
-353.537	-57.641	0.138	-0.060
-352.523	152.824	-0.072	0.099
-351.508	-81.257	-0.167	0.055
-350.493	-200.000	0.005	0.074
-349.479	-111.912	-0.043	-0.009
-348.464	-133.034	0.152	0.019
-347.450	93.272	0.151	0.170
-346.435	-200.000	0.078	0.371
-345.420	60.013	0.167	0.165
-344.406	-200.000	-0.009	-0.268
-343.391	-116.662	0.348	-0.064
-342.377	-54.637	0.314	-0.142
-341.362	-160.750	-0.204	-0.011
-340.348	374.123	0.103	0.210
-339.333	800.000	0.035	-0.118
-338.318	276.870	0.083	-0.148
-337.304	-200.000	0.039	0.240
-336.289	800.000	-0.058	0.242
-335.275	314.766	-0.073	-0.137
-334.260	309.413	-0.089	0.166
-333.245	-183.234	-0.123	-0.002
-332.231	-80.839	0.412	-0.136
-331.216	-200.000	-0.054	-0.378
-330.202	-36.693	0.277	0.148
-329.187	40.250	-0.116	0.104
-328.172	540.977	0.049	-0.116
-327.158	253.603	-0.110	-0.188
-326.143	26.987	-0.078	-0.065
-325.129	176.597	0.105	0.152
-324.114	160.006	-0.225	-0.312
-323.099	800.000	0.057	0.172
-322.085	232.836	0.083	0.136
-321.070	-30.249	0.221	-0.125
-320.056	-200.000	-0.005	-0.131
-319.041	-2.898	-0.276	0.192
-318.026	439.434	-0.158	-0.343
-317.012	113.743	-0.250	0.303
-315.997	261.228	0.135	-0.233
-314.983	178.406	-0.058	0.084
-313.968	-200.000	-0.024	-0.317
-312.953	-146.533	0.104	0.009
-311.939	23.294	0.106	0.087
-310.924	-131.117	-0.221	0.029
-309.910	211.665	-0.177	0.277
-308.895	-141.778	0.353	-0.035
-307.880	274.622	-0.043	-0.076
-306.866	329.813	0.101	0.193
-305.851	-82.732	0.151	-0.049
-304.837	800.000	0.022	0.065
-303.822	249.188	0.149	0.251
-302.807	-96.064	0.381	0.101
-301.793	205.541	0.117	0.180
-300.778	126.186	-0.183	0.230
-299.764	109.406	-0.050	0.060
-298.749	-42.685	0.159	0.080
-297.735	156.736	0.079	-0.108
-296.720	40.204	0.183	0.164
-295.705	20.167	-0.291	0.234
-294.691	-180.153	-0.201	0.004
-293.676	249.917	-0.159	0.269
-292.662	-200.000	-0.018	-0.436
-291.647	-28.693	-0.448	-0.257
-290.632	251.337	-0.063	0.107
-289.618	13.939	0.189	-0.146
-288.603	-200.000	-0.001	-0.019
-287.589	-10.817	0.423	-0.278
-286.574	351.936	0.185	0.365
-285.559	800.000	-0.045	0.175
-284.545	310.832	-0.087	-0.162
-283.530	-200.000	0.006	0.046
-282.516	-49.776	-0.119	0.056
-281.501	113.692	-0.232	0.280
-280.486	296.548	0.106	0.194
-279.472	800.000	0.039	-0.109
-278.457	-200.000	-0.083	-0.489
-277.443	31.572	-0.040	-0.034
-276.428	-41.197	-0.239	0.123
-275.413	62.118	0.223	0.221
-274.399	-116.469	-0.275	0.050
-273.384	5.900	-0.300	-0.220
-272.370	188.359	-0.120	0.179
-271.355	338.657	0.124	0.239
-270.340	800.000	0.011	0.045
-269.326	54.235	0.100	0.095
-268.311	85.269	0.177	-0.193
-267.297	0.151	-0.348	-0.247
-266.282	600.032	0.100	-0.246
-265.267	-73.718	-0.172	0.062
-264.253	-200.000	-0.053	0.292
-263.238	16.610	-0.114	-0.089
-262.224	209.604	0.182	-0.283
-261.209	-200.000	-0.010	-0.050
-260.195	-103.738	-0.070	-0.016
-259.180	800.000	0.055	-0.200
-258.165	90.200	-0.216	-0.239
-257.151	458.209	0.064	-0.142
-256.136	-110.504	-0.267	-0.055
-255.122	249.777	-0.102	-0.172
-254.107	-92.256	-0.030	0.009
-253.092	-200.000	0.024	0.237
-252.078	61.475	-0.229	-0.226
-251.063	84.391	0.135	-0.147
-250.049	800.000	-0.047	-0.176
-249.034	213.111	-0.191	0.300
-248.019	-159.942	0.083	-0.005
-247.005	191.236	-0.062	-0.092
-245.990	-65.642	0.140	0.056
-244.976	749.446	-0.087	0.232
-243.961	18.684	0.024	-0.019
-242.946	-200.000	0.048	0.258
-241.932	198.949	-0.065	0.099
-240.917	236.601	0.223	0.366
-239.903	-80.531	-0.205	0.068
-238.888	-144.076	0.186	0.017
-237.873	7.581	-0.111	-0.083
-236.859	-174.442	0.049	-0.001
-235.844	288.977	-0.113	0.203
-234.830	-37.392	0.264	0.140
-233.815	-96.075	-0.030	-0.008
-232.800	-40.861	-0.249	-0.128
-231.786	-1.586	0.239	-0.167
-230.771	127.574	-0.123	-0.155
-229.757	800.000	0.073	-0.226
-228.742	29.334	0.386	-0.325
-227.727	-54.318	0.285	0.128
-226.713	87.327	-0.154	-0.168
-225.698	-200.000	-0.021	-0.091
-224.684	-123.883	-0.402	-0.063
-223.669	-22.671	-0.188	-0.112
-222.655	-126.679	0.465	-0.068
-221.640	-200.000	0.025	0.135
-220.625	-45.033	0.107	-0.053
-219.611	-200.000	-0.010	0.119
-218.596	-194.435	-0.267	-0.002
-217.582	-138.877	-0.230	0.025
-216.567	-200.000	0.032	0.382
-215.552	-133.263	0.263	0.033
-214.538	-164.897	0.220	0.010
-213.523	-35.980	0.237	0.127
-212.509	215.957	-0.044	0.070
-211.494	178.306	-0.058	-0.083
-210.479	-110.730	0.259	0.053
-209.465	464.699	-0.056	-0.125
-208.450	-85.888	0.179	-0.055
-207.436	-200.000	0.008	0.286
-206.421	-152.936	-0.423	0.030
-205.406	-156.139	0.158	-0.010
-204.392	-98.450	0.369	0.094
-203.377	800.000	0.066	-0.285
-202.363	-200.000	-0.021	0.207
-201.348	683.877	0.020	0.053
-200.333	-48.876	-0.203	0.097
-199.319	-124.155	0.210	0.033
-198.304	273.229	-0.038	0.066
-197.290	-4.180	0.286	-0.196
-196.275	-200.000	0.017	0.124
-195.260	-140.127	-0.033	0.003
-194.246	-107.585	-0.113	0.024
-193.231	119.509	0.230	-0.283
-192.217	-200.000	0.035	-0.310
-191.202	-78.475	-0.145	0.049
-190.187	428.936	-0.120	-0.257
-189.173	4.502	-0.290	0.211
-188.158	12.281	-0.140	0.106
-187.144	218.799	-0.154	-0.243
-186.129	-55.676	0.235	0.104
-185.114	-111.158	0.128	-0.026
-184.100	-175.904	-0.154	-0.004
-183.085	-200.000	0.004	0.274
-182.071	16.840	-0.149	-0.117
-181.056	-30.328	-0.146	-0.082
-180.042	315.617	0.054	0.101
-179.027	-94.166	-0.086	-0.023
-178.012	800.000	0.071	-0.261
-176.998	-200.000	0.032	0.169
-175.983	4.917	-0.120	0.087
-174.969	-24.774	0.117	0.069
-173.954	438.124	-0.177	-0.383
-172.939	-37.948	0.066	0.035
-171.925	64.817	-0.070	-0.070
-170.910	-190.700	0.289	-0.003
-169.896	-200.000	-0.016	-0.296
-168.881	49.109	0.294	-0.273
-167.866	-6.735	0.172	0.116
-166.852	-200.000	-0.005	-0.073
-165.837	21.350	0.207	0.166
-164.823	-145.188	0.381	-0.034
-163.808	-4.565	-0.102	0.070
-162.793	401.177	-0.045	-0.094
-161.779	-69.144	-0.123	-0.047
-160.764	-200.000	0.020	0.151
-159.750	449.158	-0.042	0.091
-158.735	-152.895	-0.254	-0.018
-157.720	58.351	0.022	0.021
-156.706	-143.913	0.334	-0.031
-155.691	-122.357	-0.328	0.053
-154.677	-200.000	-0.011	0.119
-153.662	-60.346	-0.088	0.037
-152.647	-180.210	0.274	0.006
-151.633	-200.000	0.030	-0.326
-150.618	800.000	0.012	0.038
-149.604	155.132	-0.045	0.062
-148.589	140.140	0.058	0.075
-147.574	-179.857	0.373	-0.008
-146.560	421.657	-0.112	0.237
-145.545	-54.474	0.161	0.072
-144.531	-200.000	0.000	0.314
-143.516	-97.188	0.137	-0.035
-142.502	-23.700	0.166	-0.098
-141.487	147.740	-0.073	-0.097
-140.472	-183.398	-0.195	-0.003
-139.458	49.433	-0.119	0.111
-138.443	-163.281	0.114	0.005
-137.429	51.277	0.267	0.251
-136.414	-200.000	-0.086	0.419
-135.399	-126.710	-0.146	0.021
-134.385	800.000	0.090	-0.373
-133.370	-101.794	0.237	-0.057
-132.356	739.290	0.098	0.260
-131.341	-43.374	0.070	-0.035
-130.326	-126.644	0.061	0.009
-129.312	-27.914	0.078	0.045
-128.297	140.637	-0.127	0.166
-127.283	-51.920	-0.176	-0.081
-126.268	41.731	0.202	-0.180
-125.253	-200.000	-0.065	-0.519
-124.239	-88.447	0.287	0.085
-123.224	800.000	-0.027	0.098
-122.210	-200.000	0.009	-0.109
