DTS Sentinel unit serial number:	SN413079Multiplexer serial number:	ORYXHardware model number:	OX4-SRSoftware version number:	ORYX F/W v4.00 Oryx Data Collector v3.7.2.0data status	okinstallation	princeton_trtdifferential loss correction	single-endedforward channel	channel 1reverse channel	N/Adate	2019/09/12time	22:10:35forward acquisition time	60.00reverse acquisition time	0.00gamma	496.2192k internal	0.2326k external	0.2326temperature offset calibration	1.0150default loss term (dB/km)	0.3790temperature slope calibration	1.0000multiplexer offset coefficient	1.0000multiplexer slope coefficient	1.0000fibre end	0.00T internal ref (°C)	29.94T ext. ref 1 (°C)	3.75T ext. ref 2 (°C)	24.43length (m)	temperature (°C)	Stokes	anti-Stokes-747.200	-199.393	0.162	-0.001
-746.185	175.019	-0.163	0.237
-745.171	692.476	0.022	0.058
-744.156	-200.000	-0.007	0.108
-743.142	-76.325	-0.105	-0.037
-742.127	800.000	0.083	-0.244
-741.112	800.000	0.096	0.359
-740.098	800.000	-0.053	-0.226
-739.083	-200.000	0.020	-0.194
-738.069	-92.474	0.332	-0.094
-737.054	-200.000	-0.016	-0.264
-736.039	-57.615	-0.199	0.088
-735.025	800.000	-0.110	0.379
-734.010	88.032	-0.242	0.271
-732.996	-95.477	-0.186	-0.050
-731.981	-132.606	0.060	-0.008
-730.966	99.434	-0.041	0.048
-729.952	-200.000	-0.019	0.243
-728.937	-139.379	-0.223	-0.024
-727.923	-73.288	-0.173	-0.064
-726.908	-64.299	0.068	-0.028
-725.894	800.000	0.065	-0.260
-724.879	-81.284	0.339	0.113
-723.864	-46.158	0.110	0.055
-722.850	-59.018	-0.356	-0.155
-721.835	419.601	-0.155	-0.335
-720.821	-88.079	0.243	0.074
-719.806	185.946	-0.043	-0.065
-718.791	-127.967	-0.210	-0.030
-717.777	800.000	-0.121	-0.405
-716.762	-200.000	-0.021	-0.394
-715.748	-146.892	-0.381	0.033
-714.733	800.000	0.029	0.101
-713.718	157.018	-0.155	-0.216
-712.704	87.587	0.187	-0.209
-711.689	-159.461	-0.270	-0.015
-710.675	-200.000	-0.013	-0.060
-709.660	-85.419	-0.234	0.073
-708.645	292.932	0.130	-0.238
-707.631	-200.000	0.009	0.060
-706.616	800.000	0.020	0.080
-705.602	108.827	-0.222	-0.268
-704.587	525.317	-0.125	-0.295
-703.572	265.856	0.107	-0.188
-702.558	200.055	-0.258	0.399
-701.543	800.000	-0.048	0.169
-700.529	105.167	-0.006	0.007
-699.514	-167.602	-0.265	0.011
-698.499	-200.000	-0.043	0.238
-697.485	-200.000	0.036	-0.416
-696.470	197.197	-0.103	-0.158
-695.456	4.264	-0.273	-0.201
-694.441	800.000	-0.041	0.145
-693.426	651.314	0.046	-0.119
-692.412	54.109	0.238	0.230
-691.397	114.025	-0.129	-0.157
-690.383	-200.000	0.007	-0.120
-689.368	-62.285	-0.414	0.173
-688.354	779.631	-0.151	0.415
-687.339	-122.939	-0.147	-0.024
-686.324	616.014	-0.053	0.135
-685.310	-66.084	0.152	0.061
-684.295	-112.987	0.293	0.058
-683.281	-175.097	0.068	0.002
-682.266	800.000	0.037	0.119
-681.251	-179.639	-0.426	0.009
-680.237	-200.000	0.074	-0.347
-679.222	6.964	0.228	0.171
-678.208	125.523	-0.176	-0.224
-677.193	-118.244	-0.225	-0.040
-676.178	-71.216	0.189	0.072
-675.164	79.046	-0.296	-0.319
-674.149	-200.000	0.000	-0.121
-673.135	-200.000	0.040	0.202
-672.120	506.471	0.042	0.099
-671.105	37.710	0.461	0.412
-670.091	-200.000	-0.003	0.502
-669.076	272.527	0.212	0.376
-668.062	-118.726	0.172	-0.031
-667.047	-120.890	0.267	-0.045
-666.032	-35.589	0.139	0.076
-665.018	-130.278	0.264	-0.036
-664.003	198.720	0.101	-0.155
-662.989	-18.076	-0.154	-0.097
-661.974	85.209	0.156	-0.172
-660.959	-105.396	-0.212	-0.049
-659.945	-58.401	0.170	-0.074
-658.930	-50.717	0.246	0.116
-657.916	-101.499	0.303	0.074
-656.901	18.783	0.080	-0.064
-655.886	-200.000	-0.056	0.394
-654.872	-67.918	-0.288	0.113
-653.857	-8.072	0.047	-0.032
-652.843	-200.000	0.028	-0.148
-651.828	-69.341	0.237	-0.092
-650.814	-63.118	-0.218	0.090
-649.799	-200.000	0.060	-0.385
-648.784	-200.000	0.020	-0.255
-647.770	316.058	0.098	-0.186
-646.755	-129.475	-0.205	-0.029
-645.741	-200.000	0.010	-0.196
-644.726	65.395	-0.192	-0.195
-643.711	800.000	0.080	0.275
-642.697	-162.237	0.169	-0.008
-641.682	111.805	-0.172	0.209
-640.668	-200.000	-0.015	-0.342
-639.653	146.009	-0.139	0.187
-638.638	-200.000	0.024	-0.204
-637.624	800.000	0.049	-0.137
-636.609	-136.232	0.272	-0.032
-635.595	18.109	0.288	-0.231
-634.580	328.656	-0.044	0.085
-633.565	350.692	0.065	0.129
-632.551	-38.890	-0.157	0.083
-631.536	-75.858	0.323	0.115
-630.522	17.891	-0.168	-0.134
-629.507	193.662	-0.097	-0.148
-628.492	210.023	0.138	0.217
-627.478	-91.769	-0.300	-0.086
-626.463	525.773	-0.056	-0.132
-625.449	351.962	0.040	0.080
-624.434	789.971	-0.059	0.164
-623.419	285.119	-0.116	-0.210
-622.405	-200.000	0.034	0.163
-621.390	-173.642	-0.448	-0.013
-620.376	-200.000	0.015	0.314
-619.361	-14.205	-0.081	0.053
-618.346	-200.000	-0.003	0.055
-617.332	73.014	0.145	-0.152
-616.317	67.308	-0.186	0.190
-615.303	-146.007	0.053	-0.005
-614.288	-80.998	-0.348	0.116
-613.273	108.913	0.093	-0.111
-612.259	-105.442	-0.369	0.084
-611.244	800.000	0.064	-0.226
-610.230	19.162	0.197	-0.159
-609.215	-27.696	-0.267	-0.155
-608.201	-55.566	0.224	-0.100
-607.186	-200.000	0.035	-0.372
-606.171	-117.624	-0.396	-0.072
-605.157	499.762	-0.061	-0.140
-604.142	-200.000	0.018	-0.153
-603.128	61.401	0.072	-0.072
-602.113	-24.703	0.064	0.038
-601.098	-26.255	0.015	-0.009
-600.084	48.733	-0.239	-0.225
-599.069	800.000	0.092	-0.277
-598.055	-200.000	-0.037	0.231
-597.040	317.950	0.169	0.320
-596.025	315.198	-0.121	0.228
-595.011	-13.631	0.102	-0.066
-593.996	167.005	0.215	-0.305
-592.982	-200.000	-0.007	-0.175
-591.967	-200.000	0.010	0.151
-590.952	-10.015	0.145	0.097
-589.938	4.626	0.174	0.128
-588.923	23.181	0.080	-0.066
-587.909	-136.517	0.145	0.017
-586.894	175.658	0.050	0.072
-585.879	321.832	0.102	0.194
-584.865	175.084	-0.169	-0.245
-583.850	-120.296	-0.202	-0.035
-582.836	800.000	0.072	0.218
-581.821	-200.000	-0.032	-0.325
-580.806	800.000	0.061	-0.181
-579.792	127.275	-0.045	0.058
-578.777	-200.000	-0.011	-0.371
-577.763	-111.499	-0.225	-0.046
-576.748	-56.002	0.279	-0.125
-575.733	-40.604	0.317	-0.165
-574.719	-116.170	0.194	0.036
-573.704	-19.150	0.352	-0.219
-572.690	344.714	-0.157	0.309
-571.675	-138.909	-0.175	0.019
-570.661	800.000	-0.106	-0.297
-569.646	440.920	0.015	0.033
-568.631	-29.306	0.069	0.039
-567.617	-200.000	0.004	0.149
-566.602	800.000	-0.129	-0.448
-565.588	-145.703	-0.332	-0.030
-564.573	-200.000	-0.023	0.357
-563.558	4.985	-0.082	-0.060
-562.544	800.000	0.077	-0.226
-561.529	432.433	0.126	0.275
-560.515	-158.601	-0.047	0.003
-559.500	75.766	-0.165	0.175
-558.485	-161.881	0.042	0.002
-557.471	-134.015	-0.289	0.036
-556.456	800.000	0.067	-0.188
-555.442	45.847	0.068	-0.063
-554.427	415.470	-0.129	0.275
-553.412	-28.724	-0.117	-0.067
-552.398	168.458	-0.150	-0.214
-551.383	81.459	0.155	-0.168
-550.369	234.017	0.033	0.054
-549.354	-113.767	0.162	0.032
-548.339	-144.862	-0.259	0.024
-547.325	-148.639	-0.076	0.006
-546.310	197.770	-0.013	-0.019
-545.296	110.449	-0.075	-0.090
-544.281	-31.485	-0.253	-0.142
-543.266	17.946	-0.110	0.088
-542.252	-129.643	-0.216	0.030
-541.237	-145.572	-0.219	-0.020
-540.223	-200.000	0.032	-0.283
-539.208	-200.000	0.048	-0.220
-538.193	-200.000	0.002	-0.062
-537.179	-200.000	0.001	0.186
-536.164	176.668	-0.103	-0.150
-535.150	-104.352	0.379	-0.088
-534.135	-116.303	0.254	0.047
-533.121	-94.449	-0.065	0.018
-532.106	-115.233	0.241	0.046
-531.091	-69.060	0.046	0.018
-530.077	48.399	0.061	0.057
-529.062	-107.134	0.365	-0.080
-528.048	-9.983	-0.150	0.100
-527.033	-37.542	0.177	-0.094
-526.018	13.352	-0.222	0.172
-525.004	258.410	0.184	0.317
-523.989	-192.074	-0.182	-0.002
-522.975	-191.382	0.048	-0.000
-521.960	800.000	-0.074	0.295
-520.945	14.000	0.309	-0.240
-519.931	-107.324	0.304	-0.067
-518.916	42.628	-0.350	0.319
-517.902	137.187	-0.187	0.244
-516.887	-187.247	-0.112	-0.002
-515.872	-29.234	-0.175	0.100
-514.858	161.271	0.031	-0.043
-513.843	-59.596	-0.202	-0.086
-512.829	-117.140	-0.091	-0.017
-511.814	-10.187	0.143	-0.095
-510.799	-66.422	-0.313	0.124
-509.785	798.255	0.074	0.204
-508.770	-177.821	-0.415	-0.010
-507.756	47.379	0.110	0.102
-506.741	800.000	-0.064	-0.262
-505.726	-91.453	-0.297	-0.085
-504.712	-142.251	0.416	-0.041
-503.697	800.000	-0.074	-0.313
-502.683	-52.431	-0.178	-0.082
-501.668	221.386	-0.100	-0.160
-500.653	-67.547	0.209	-0.082
-499.639	-89.725	-0.183	-0.054
-498.624	-82.276	0.407	0.132
-497.610	-126.224	0.395	-0.059
-496.595	800.000	0.073	0.245
-495.581	87.835	0.243	0.269
-494.566	-71.906	-0.180	-0.067
-493.551	-24.186	-0.470	-0.280
-492.537	-200.000	0.024	0.335
-491.522	-127.606	-0.287	-0.041
-490.508	332.160	-0.024	-0.045
-489.493	-98.740	0.205	-0.052
-488.478	605.653	-0.060	0.150
-487.464	34.120	-0.121	-0.106
-486.449	-200.000	-0.014	0.096
-485.435	22.253	-0.304	0.248
-484.420	800.000	0.046	-0.155
-483.405	188.479	0.097	0.144
-482.391	228.761	-0.108	0.176
-481.376	-63.513	0.128	0.053
-480.362	-200.000	-0.032	-0.199
-479.347	-200.000	-0.005	0.029
-478.332	5.083	-0.195	-0.143
-477.318	7.661	-0.192	0.143
-476.303	250.007	0.078	-0.133
-475.289	308.884	-0.117	0.217
-474.274	297.567	-0.104	-0.191
-473.259	392.502	0.097	0.201
-472.245	190.212	0.196	0.293
-471.230	99.414	-0.170	-0.196
-470.216	-78.445	-0.348	0.119
-469.201	-132.857	0.371	0.047
-468.186	800.000	-0.052	-0.149
-467.172	244.449	-0.104	-0.174
-466.157	-200.000	0.076	0.339
-465.143	-200.000	-0.029	-0.182
-464.128	800.000	-0.078	0.224
-463.113	-200.000	-0.012	-0.105
-462.099	23.472	0.280	-0.230
-461.084	3.066	0.339	-0.246
-460.070	373.186	-0.068	0.138
-459.055	-200.000	0.027	0.180
-458.040	397.493	0.055	0.114
-457.026	-80.621	0.253	-0.084
-456.011	-43.102	-0.090	-0.046
-454.997	602.140	-0.049	0.122
-453.982	780.465	0.104	0.283
-452.968	-133.009	-0.261	-0.033
-451.953	-200.000	0.027	-0.218
-450.938	-121.327	-0.327	0.054
-449.924	-200.000	0.017	-0.257
-448.909	-15.087	-0.101	0.064
-447.895	-22.756	-0.042	0.025
-446.880	800.000	0.056	0.231
-445.865	235.908	-0.163	-0.269
-444.851	-200.000	0.017	-0.162
-443.836	19.834	-0.364	-0.292
-442.822	-170.159	-0.268	-0.009
-441.807	-196.267	0.092	-0.001
-440.792	-200.000	0.019	0.305
-439.778	218.508	-0.128	-0.204
-438.763	-121.178	-0.195	-0.032
-437.749	-119.021	-0.256	-0.045
-436.734	-67.821	0.313	0.122
-435.719	28.267	0.186	-0.157
-434.705	-95.777	0.236	0.063
-433.690	-168.876	0.207	-0.008
-432.676	-97.435	0.088	0.023
-431.661	-200.000	-0.017	-0.111
-430.646	81.332	0.077	-0.083
-429.632	373.526	-0.114	-0.231
-428.617	0.791	0.167	-0.119
-427.603	435.223	0.040	0.086
-426.588	800.000	0.035	0.119
-425.573	319.912	-0.056	0.105
-424.559	119.177	0.185	-0.228
-423.544	-106.097	0.334	-0.075
-422.530	-150.833	0.129	-0.010
-421.515	129.431	0.137	-0.175
-420.500	401.276	-0.035	0.073
-419.486	-88.357	0.169	0.050
-418.471	-80.935	0.058	-0.019
-417.457	126.731	-0.098	0.124
-416.442	124.074	-0.050	0.063
-415.428	800.000	0.039	-0.171
-414.413	62.478	0.275	0.273
-413.398	-24.573	0.366	0.217
-412.384	112.763	-0.130	0.157
-411.369	121.842	0.193	0.240
-410.355	-93.179	-0.104	0.029
-409.340	-0.933	0.088	-0.062
-408.325	-119.266	0.110	0.019
-407.311	800.000	-0.055	0.201
-406.296	-26.007	0.212	0.124
-405.282	-97.629	-0.507	0.131
-404.267	-35.619	0.188	0.102
-403.252	-10.338	0.262	0.173
-402.238	800.000	-0.058	-0.162
-401.223	-200.000	0.026	0.356
-400.209	-200.000	0.053	0.317
-399.194	800.000	-0.102	-0.391
-398.179	297.477	0.120	0.220
-397.165	21.113	-0.116	0.093
-396.150	-200.000	0.004	0.134
-395.136	-200.000	0.014	0.289
-394.121	-181.047	0.106	0.002
-393.106	-40.190	0.323	-0.167
-392.092	800.000	-0.043	-0.179
-391.077	800.000	-0.068	-0.191
-390.063	502.109	0.030	-0.069
-389.048	409.003	0.086	0.182
-388.033	213.443	0.094	0.148
-387.019	-83.789	0.384	0.122
-386.004	800.000	0.023	0.092
-384.990	227.876	-0.141	0.229
-383.975	-12.061	-0.150	-0.098
-382.960	-200.000	-0.004	-0.316
-381.946	-10.217	-0.183	-0.121
-380.931	-65.506	0.118	0.047
-379.917	-200.000	0.011	-0.142
-378.902	-53.095	0.099	-0.045
-377.888	800.000	0.121	-0.364
-376.873	220.370	-0.158	0.252
-375.858	402.201	-0.087	0.182
-374.844	-64.868	0.305	0.123
-373.829	225.508	0.135	-0.218
-372.815	-102.327	0.229	-0.055
-371.800	209.292	-0.155	-0.242
-370.785	136.272	0.030	-0.039
-369.771	145.386	0.093	0.124
-368.756	-38.135	0.224	0.118
-367.742	-30.009	-0.251	0.142
-366.727	192.911	-0.128	0.192
-365.712	800.000	-0.061	0.239
-364.698	-20.091	0.290	0.178
-363.683	-175.293	0.091	-0.002
-362.669	-200.000	0.041	-0.270
-361.654	-200.000	0.064	-0.292
-360.639	-200.000	0.007	0.058
-359.625	-73.079	0.218	0.080
-358.610	800.000	-0.078	0.270
-357.596	-83.933	-0.265	0.084
-356.581	-45.538	0.387	0.190
-355.566	121.597	-0.224	0.278
-354.552	401.859	-0.150	0.314
-353.537	-161.401	0.257	-0.013
-352.523	3.952	0.058	0.042
-351.508	27.864	-0.381	0.319
-350.493	82.325	-0.077	-0.083
-349.479	61.040	-0.049	0.048
-348.464	800.000	-0.026	-0.103
-347.450	203.670	-0.234	-0.360
-346.435	420.244	-0.159	-0.339
-345.420	413.081	-0.095	-0.200
-344.406	-38.778	-0.218	0.114
-343.391	-29.643	0.256	0.145
-342.377	-200.000	-0.034	0.162
-341.362	334.541	0.105	0.203
-340.348	-46.644	0.328	0.159
-339.333	-63.025	-0.259	0.106
-338.318	800.000	-0.028	0.107
-337.304	664.677	-0.065	0.167
-336.289	27.396	0.336	-0.280
-335.275	-48.520	0.363	0.173
-334.260	-200.000	0.044	0.288
-333.245	-23.990	-0.303	-0.180
-332.231	-54.260	-0.133	-0.060
-331.216	800.000	-0.104	0.344
-330.202	-200.000	-0.004	-0.031
-329.187	-185.133	-0.142	-0.002
-328.172	-200.000	-0.012	-0.136
-327.158	-77.318	-0.270	0.093
-326.143	-89.990	0.115	-0.033
-325.129	7.498	0.099	0.073
-324.114	-200.000	-0.020	-0.163
-323.099	800.000	0.071	-0.236
-322.085	220.178	-0.110	0.174
-321.070	204.241	0.040	-0.062
-320.056	-200.000	-0.011	-0.168
-319.041	90.462	-0.088	0.097
-318.026	-2.469	0.386	0.268
-317.012	-200.000	0.018	-0.205
-315.997	285.870	-0.095	-0.170
-314.983	67.436	0.080	-0.081
-313.968	800.000	-0.076	-0.236
-312.953	-200.000	-0.093	-0.552
-311.939	-146.548	-0.281	-0.024
-310.924	-200.000	-0.035	-0.160
-309.910	-65.973	-0.018	-0.007
-308.895	-149.283	-0.238	-0.019
-307.880	537.447	-0.007	0.016
-306.866	-170.466	0.284	0.010
-305.851	-43.743	-0.207	0.103
-304.837	-5.753	-0.137	-0.093
-303.822	-95.442	-0.133	-0.035
-302.807	232.835	0.104	0.169
-301.793	-72.768	0.080	0.029
-300.778	-168.757	0.292	-0.011
-299.764	235.170	0.038	0.062
-298.749	467.016	0.076	0.168
-297.735	800.000	-0.015	-0.043
-296.720	-25.989	0.310	-0.181
-295.705	-70.163	0.182	0.069
-294.691	-200.000	0.019	-0.139
-293.676	541.907	-0.027	0.065
-292.662	-78.246	-0.227	-0.077
-291.647	27.451	0.236	-0.197
-290.632	-112.051	-0.236	-0.047
-289.618	-76.576	-0.256	-0.089
-288.603	14.690	0.051	-0.040
-287.589	40.518	0.138	0.124
-286.574	34.113	-0.132	0.114
-285.559	-128.200	0.223	0.032
-284.545	46.826	0.187	-0.172
-283.530	594.729	-0.106	-0.259
-282.516	381.733	-0.041	0.083
-281.501	-96.563	-0.036	0.009
-280.486	-137.244	-0.181	0.020
-279.472	413.747	0.069	-0.146
-278.457	-200.000	-0.340	0.001
-277.443	-38.173	-0.131	0.069
-276.428	-13.747	0.221	-0.141
-275.413	145.902	-0.168	-0.223
-274.399	-200.000	0.018	0.133
-273.384	-167.855	-0.372	0.014
-272.370	-130.917	0.177	0.023
-271.355	39.274	-0.072	0.064
-270.340	-54.235	0.241	0.108
-269.326	-200.000	-0.021	-0.129
-268.311	9.501	0.315	-0.236
-267.297	35.851	-0.036	0.031
-266.282	800.000	0.070	0.224
-265.267	-200.000	-0.022	0.333
-264.253	-93.584	-0.299	0.082
-263.238	312.795	0.047	-0.088
-262.224	57.708	-0.188	0.182
-261.209	80.800	-0.131	-0.140
-260.195	800.000	-0.118	0.380
-259.180	800.000	0.021	-0.080
-258.165	244.255	0.175	0.291
-257.151	596.344	-0.121	0.297
-256.136	225.059	-0.077	-0.124
-255.122	-12.939	0.229	0.147
-254.107	37.140	0.280	-0.246
-253.092	585.481	-0.164	-0.400
-252.078	-200.000	-0.037	0.255
-251.063	178.367	-0.211	-0.305
-250.049	331.287	-0.078	-0.150
-249.034	-60.228	-0.077	0.032
-248.019	-86.042	0.179	0.055
-247.005	-200.000	-0.077	-0.443
-245.990	-107.296	0.321	-0.070
-244.976	99.655	-0.039	0.044
-243.961	230.273	-0.120	0.194
-242.946	-200.000	-0.012	-0.131
-241.932	-200.000	-0.029	0.297
-240.917	-0.707	0.116	-0.081
-239.903	800.000	0.086	-0.250
-238.888	49.737	0.098	-0.091
-237.873	522.480	-0.035	-0.081
-236.859	717.761	0.029	0.076
-235.844	657.652	0.086	0.218
-234.830	335.955	-0.142	0.272
-233.815	40.720	0.033	-0.030
-232.800	411.041	-0.106	-0.222
-231.786	-57.523	-0.061	-0.026
-230.771	-200.000	0.011	-0.205
-229.757	-24.411	-0.026	0.015
-228.742	67.442	-0.130	0.131
-227.727	800.000	0.047	-0.166
-226.713	800.000	0.035	-0.111
-225.698	-30.264	-0.117	0.065
-224.684	800.000	0.090	0.371
-223.669	258.112	-0.062	0.106
-222.655	-19.166	0.181	0.111
-221.640	-7.152	-0.252	0.169
-220.625	-85.892	0.215	0.066
-219.611	81.803	0.232	0.248
-218.596	263.614	-0.070	-0.120
-217.582	-76.361	0.156	0.054
-216.567	560.148	0.045	-0.106
-215.552	-188.145	0.444	-0.006
-214.538	-110.437	0.377	0.077
-213.523	56.021	-0.334	-0.320
-212.509	75.367	-0.194	-0.203
-211.494	197.760	0.191	0.288
-210.479	-59.076	-0.105	-0.045
-209.465	94.860	-0.366	-0.412
-208.450	-56.043	-0.097	-0.043
-207.436	-0.973	-0.220	0.154
-206.421	800.000	-0.050	0.203
-205.406	800.000	-0.050	-0.146
-204.392	800.000	0.088	-0.295
-203.377	181.255	0.101	-0.147
-202.363	83.361	0.121	0.130
-201.348	-200.000	-0.000	0.206
-200.333	-169.262	-0.013	-0.000
-199.319	159.628	0.198	-0.272
-198.304	10.873	0.177	-0.133
-197.290	-96.874	0.073	-0.019
-196.275	800.000	0.065	0.218
-195.260	-106.573	-0.143	-0.031
-194.246	284.136	-0.186	0.330
-193.231	386.394	0.128	0.261
-192.217	24.942	0.071	0.058
-191.202	70.516	0.134	-0.137
-190.187	-99.644	-0.349	-0.086
-189.173	800.000	0.010	0.038
-188.158	132.954	0.100	-0.128
-187.144	-65.499	-0.218	-0.087
-186.129	-124.329	0.328	-0.050
-185.114	735.740	-0.029	0.078
-184.100	-21.527	-0.155	0.093
-183.085	19.719	0.165	-0.131
-182.071	25.259	0.208	-0.170
-181.056	534.533	-0.178	0.415
-180.042	-200.000	-0.094	0.446
-179.027	-177.253	0.302	-0.007
-178.012	-188.502	0.220	-0.003
-176.998	5.496	-0.172	-0.125
-175.983	43.518	0.159	-0.143
-174.969	212.635	0.132	-0.206
-173.954	-200.000	-0.018	-0.088
-172.939	800.000	-0.058	0.179
-171.925	344.372	0.098	-0.189
-170.910	370.637	-0.218	-0.436
-169.896	282.723	-0.026	-0.046
-168.881	53.056	0.256	0.242
-167.866	-200.000	0.003	0.204
-166.852	125.450	0.132	-0.164
-165.837	-16.646	-0.185	-0.116
-164.823	198.485	-0.229	0.345
-163.808	16.232	-0.116	-0.090
-162.793	-200.000	-0.068	0.370
-161.779	102.785	-0.294	0.339
-160.764	343.864	0.075	0.145
-159.750	-61.060	-0.248	0.103
-158.735	-200.000	-0.036	0.227
-157.720	15.797	0.125	-0.097
-156.706	-0.308	0.106	-0.074
-155.691	66.806	-0.017	-0.018
-154.677	122.114	0.291	0.358
-153.662	800.000	0.088	0.252
-152.647	8.775	-0.133	-0.099
-151.633	433.034	-0.106	-0.228
-150.618	87.703	-0.221	0.241
-149.604	-200.000	-0.016	-0.152
-148.589	-200.000	-0.027	-0.304
-147.574	176.689	0.204	0.292
-146.560	695.163	-0.040	0.102
-145.545	49.594	0.278	0.258
-144.531	-171.527	-0.074	0.002
-143.516	206.986	0.088	-0.134
-142.502	-7.771	-0.200	0.133
-141.487	-20.638	0.207	0.125
-140.472	209.681	-0.060	-0.093
-139.458	300.506	-0.178	0.323
-138.443	-142.893	-0.067	0.006
-137.429	-200.000	0.019	-0.308
-136.414	-68.635	-0.287	0.109
-135.399	44.395	-0.152	0.138
-134.385	100.421	0.268	0.307
-133.370	-17.356	-0.245	-0.152
-132.356	-148.169	-0.040	0.003
-131.341	362.057	0.151	-0.299
-130.326	-106.465	-0.326	-0.072
-129.312	-99.125	-0.131	-0.033
-128.297	-2.933	0.344	-0.237
-127.283	-87.879	-0.420	0.124
-126.268	-114.760	-0.148	0.028
-125.253	40.103	-0.097	-0.086
-124.239	108.391	-0.186	0.219
-123.224	-200.000	0.020	0.180
-122.210	-158.424	-0.127	-0.007
