DTS Sentinel unit serial number:	SN413079Multiplexer serial number:	ORYXHardware model number:	OX4-SRSoftware version number:	ORYX F/W v4.00 Oryx Data Collector v3.7.2.0data status	okinstallation	princeton_trtdifferential loss correction	single-endedforward channel	channel 1reverse channel	N/Adate	2019/09/13time	17:46:35forward acquisition time	60.00reverse acquisition time	0.00gamma	496.2192k internal	0.2303k external	0.2303temperature offset calibration	1.0160default loss term (dB/km)	0.3790temperature slope calibration	1.0000multiplexer offset coefficient	1.0000multiplexer slope coefficient	1.0000fibre end	0.00T internal ref (°C)	35.62T ext. ref 1 (°C)	5.17T ext. ref 2 (°C)	29.17length (m)	temperature (°C)	Stokes	anti-Stokes-747.200	32.302	0.169	-0.149
-746.185	-9.296	-0.105	-0.071
-745.171	-200.000	-0.001	-0.212
-744.156	58.881	-0.114	0.114
-743.142	-200.000	-0.017	0.425
-742.127	192.155	-0.094	0.144
-741.112	-10.449	0.065	-0.044
-740.098	545.448	-0.033	0.081
-739.083	-200.000	-0.048	-0.253
-738.069	-200.000	-0.044	0.201
-737.054	40.569	0.242	-0.222
-736.039	-40.481	0.083	-0.044
-735.025	-138.034	0.231	-0.026
-734.010	21.469	-0.140	0.116
-732.996	147.064	-0.143	-0.196
-731.981	-200.000	0.016	-0.197
-730.966	125.282	0.215	0.275
-729.952	-178.806	-0.125	-0.003
-728.937	264.584	0.068	-0.121
-727.923	-68.927	-0.245	0.096
-726.908	-50.909	-0.072	-0.035
-725.894	301.325	-0.065	0.122
-724.879	79.564	0.152	0.166
-723.864	151.864	-0.109	-0.152
-722.850	36.744	-0.146	-0.131
-721.835	6.952	-0.104	-0.079
-720.821	3.415	0.120	-0.089
-719.806	4.838	-0.328	0.246
-718.791	91.086	0.137	-0.156
-717.777	-13.967	0.079	-0.052
-716.762	-172.440	-0.071	0.002
-715.748	76.858	-0.137	0.148
-714.733	-127.539	-0.118	-0.017
-713.718	147.643	-0.165	-0.227
-712.704	-11.047	-0.265	-0.178
-711.689	-17.724	0.160	0.103
-710.675	5.112	0.162	0.121
-709.660	4.849	0.135	0.101
-708.645	81.864	0.109	-0.120
-707.631	9.235	-0.026	0.020
-706.616	227.712	0.072	0.120
-705.602	800.000	-0.012	-0.047
-704.587	-95.775	-0.138	0.037
-703.572	445.490	0.039	-0.086
-702.558	-97.592	-0.212	0.056
-701.543	48.836	0.062	-0.060
-700.529	677.326	-0.125	-0.332
-699.514	510.805	-0.028	0.065
-698.499	-110.963	0.156	0.033
-697.485	-200.000	-0.004	0.437
-696.470	-72.543	0.165	-0.062
-695.456	61.962	-0.266	-0.270
-694.441	-114.600	0.205	0.040
-693.426	-13.971	0.139	-0.091
-692.412	43.073	0.243	-0.225
-691.397	-121.999	-0.146	0.024
-690.383	-200.000	0.014	0.090
-689.368	-38.384	0.045	-0.024
-688.354	-153.545	-0.064	0.005
-687.339	20.959	-0.269	0.222
-686.324	800.000	0.055	-0.243
-685.310	-200.000	-0.014	-0.398
-684.295	196.625	0.212	0.329
-683.281	-17.549	-0.146	0.093
-682.266	189.853	0.162	0.247
-681.251	334.500	0.027	-0.054
-680.237	129.260	0.176	-0.229
-679.222	800.000	-0.012	0.033
-678.208	22.970	0.184	0.153
-677.193	800.000	-0.085	-0.280
-676.178	-119.669	0.226	-0.040
-675.164	-37.079	0.233	0.127
-674.149	0.655	0.171	0.125
-673.135	141.906	-0.126	0.170
-672.120	-200.000	-0.040	0.344
-671.105	-200.000	0.006	0.089
-670.091	52.912	-0.187	0.182
-669.076	56.484	0.039	0.038
-668.062	587.364	-0.076	-0.190
-667.047	128.406	-0.164	-0.211
-666.032	43.585	0.193	-0.179
-665.018	-14.728	-0.108	-0.070
-664.003	800.000	-0.064	0.187
-662.989	513.127	0.168	0.398
-661.974	-109.696	-0.177	0.038
-660.959	-84.647	0.267	0.085
-659.945	-118.213	-0.075	-0.014
-658.930	684.104	-0.017	0.045
-657.916	-200.000	-0.036	-0.206
-656.901	-69.141	-0.463	-0.181
-655.886	-200.000	0.002	-0.355
-654.872	165.911	-0.087	0.125
-653.857	800.000	-0.152	0.431
-652.843	49.879	0.143	-0.137
-651.828	-35.920	-0.241	0.132
-650.814	138.826	-0.182	-0.243
-649.799	800.000	-0.013	0.042
-648.784	-9.202	0.108	-0.073
-647.770	9.513	0.272	0.209
-646.755	800.000	0.146	-0.418
-645.741	-200.000	-0.102	-0.471
-644.726	-64.403	0.126	0.052
-643.711	-125.924	0.215	0.033
-642.697	105.316	-0.154	-0.185
-641.682	201.474	-0.047	-0.073
-640.668	-200.000	0.021	0.113
-639.653	477.452	-0.019	-0.043
-638.638	-61.199	0.244	-0.104
-637.624	-90.838	0.097	-0.028
-636.609	-200.000	0.009	0.082
-635.595	150.389	0.155	0.213
-634.580	-11.775	0.049	0.033
-633.565	-101.692	0.146	-0.036
-632.551	707.549	-0.019	-0.050
-631.536	23.405	0.188	0.157
-630.522	419.519	-0.073	0.158
-629.507	507.214	0.022	-0.051
-628.492	-13.284	-0.006	0.004
-627.478	-116.182	-0.204	-0.038
-626.463	800.000	0.054	0.164
-625.449	-2.462	0.183	-0.130
-624.434	-200.000	-0.009	-0.216
-623.419	13.987	-0.337	0.266
-622.405	318.077	-0.114	0.219
-621.390	-60.331	0.209	-0.090
-620.376	-21.530	-0.043	-0.027
-619.361	-56.529	-0.277	-0.124
-618.346	800.000	-0.067	-0.229
-617.332	-113.858	0.119	0.023
-616.317	800.000	0.025	-0.090
-615.303	-110.311	-0.235	-0.050
-614.288	626.754	0.052	-0.134
-613.273	-53.408	0.303	-0.141
-612.259	95.752	-0.227	-0.263
-611.244	105.252	0.179	-0.215
-610.230	-200.000	0.043	0.251
-609.215	-19.353	-0.151	-0.095
-608.201	-193.801	0.234	-0.002
-607.186	800.000	-0.016	0.052
-606.171	291.075	-0.116	0.214
-605.157	800.000	-0.114	-0.380
-604.142	-36.584	-0.130	-0.071
-603.128	800.000	0.080	-0.224
-602.113	-200.000	0.029	-0.191
-601.098	800.000	0.072	-0.247
-600.084	-8.977	-0.344	0.234
-599.069	389.003	0.100	0.209
-598.055	59.839	-0.167	-0.167
-597.040	-104.009	-0.161	0.038
-596.025	-59.113	-0.132	0.058
-595.011	-200.000	-0.036	0.168
-593.996	45.072	0.180	0.168
-592.982	-67.123	0.016	0.006
-591.967	800.000	0.103	-0.293
-590.952	-159.735	0.179	0.010
-589.938	75.789	-0.123	-0.131
-588.923	-82.552	0.133	-0.044
-587.909	800.000	-0.017	0.056
-586.894	-200.000	-0.057	0.325
-585.879	103.208	0.099	0.118
-584.865	-26.429	-0.146	0.087
-583.850	800.000	-0.091	0.328
-582.836	-64.913	0.088	0.036
-581.821	-127.009	-0.124	0.018
-580.806	-0.510	-0.133	0.096
-579.792	155.325	-0.119	-0.166
-578.777	-63.082	-0.122	-0.051
-577.763	-47.795	-0.158	-0.078
-576.748	-107.617	-0.061	-0.013
-575.733	-184.151	-0.102	0.002
-574.719	-200.000	-0.003	-0.113
-573.704	83.785	-0.057	-0.063
-572.690	3.256	0.155	-0.114
-571.675	-9.672	-0.180	-0.121
-570.661	69.074	0.332	0.345
-569.646	101.101	0.159	-0.187
-568.631	-37.117	0.114	0.062
-567.617	-93.631	0.101	-0.028
-566.602	-55.573	-0.084	0.038
-565.588	-106.233	0.203	-0.046
-564.573	-28.998	-0.153	0.089
-563.558	-200.000	0.046	-0.336
-562.544	-146.967	-0.283	-0.025
-561.529	689.209	0.077	-0.203
-560.515	133.997	-0.140	-0.184
-559.500	121.860	-0.170	-0.214
-558.485	-105.673	-0.182	0.042
-557.471	-47.461	-0.431	0.212
-556.456	-106.990	-0.320	-0.071
-555.442	35.717	0.023	-0.020
-554.427	23.489	-0.017	0.014
-553.412	-200.000	-0.011	-0.124
-552.398	-200.000	0.040	-0.450
-551.383	43.010	-0.381	-0.352
-550.369	405.563	-0.085	0.182
-549.354	-112.000	-0.113	0.023
-548.339	500.258	-0.187	-0.436
-547.325	17.657	-0.095	-0.076
-546.310	-131.404	0.136	-0.018
-545.296	-54.191	0.587	0.270
-544.281	-137.214	0.034	0.004
-543.266	-200.000	-0.024	-0.136
-542.252	166.416	0.106	0.152
-541.237	-84.719	-0.344	0.109
-540.223	-128.370	-0.441	-0.063
-539.208	234.120	-0.120	0.199
-538.193	-24.025	0.051	-0.031
-537.179	330.924	-0.077	-0.149
-536.164	-200.000	-0.019	-0.140
-535.150	-52.701	0.186	0.087
-534.135	37.981	0.169	-0.152
-533.121	-200.000	-0.001	0.266
-532.106	-200.000	-0.019	-0.187
-531.091	141.866	0.310	-0.415
-530.077	-194.016	-0.097	0.001
-529.062	452.349	0.030	0.067
-528.048	403.277	-0.181	0.385
-527.033	-200.000	-0.035	0.255
-526.018	225.624	0.174	-0.285
-525.004	-104.500	-0.283	-0.066
-523.989	-23.492	-0.271	0.164
-522.975	-200.000	-0.040	-0.461
-521.960	22.549	0.166	-0.137
-520.945	-119.249	-0.215	0.038
-519.931	180.042	-0.143	0.211
-518.916	237.374	0.181	0.303
-517.902	334.026	0.030	0.059
-516.887	-200.000	0.009	0.210
-515.872	-98.940	-0.203	0.052
-514.858	-54.638	-0.107	-0.049
-513.843	800.000	-0.046	0.188
-512.829	374.901	0.065	-0.134
-511.814	-87.405	0.141	-0.043
-510.799	120.145	-0.034	-0.042
-509.785	140.221	-0.191	0.255
-508.770	-170.634	-0.329	-0.012
-507.756	-123.774	-0.208	0.033
-506.741	124.904	-0.188	0.239
-505.726	-73.597	0.176	-0.065
-504.712	-200.000	0.001	0.089
-503.697	-200.000	0.025	0.178
-502.683	-58.500	-0.125	0.055
-501.668	-200.000	-0.045	-0.265
-500.653	131.576	-0.114	0.148
-499.639	-51.716	0.115	0.054
-498.624	16.833	-0.205	-0.164
-497.610	-64.471	0.144	0.059
-496.595	167.674	0.223	0.320
-495.581	714.558	-0.134	-0.358
-494.566	-92.315	0.388	-0.110
-493.551	800.000	-0.033	0.107
-492.537	652.817	-0.067	0.174
-491.522	-117.596	-0.296	0.054
-490.508	800.000	-0.098	0.329
-489.493	-98.732	-0.308	0.079
-488.478	-200.000	-0.009	0.060
-487.464	-39.304	-0.363	0.192
-486.449	-62.130	-0.157	0.066
-485.435	-92.141	0.051	-0.015
-484.420	-200.000	0.003	-0.050
-483.405	800.000	-0.112	0.329
-482.391	87.253	0.126	0.141
-481.376	-14.217	0.203	-0.132
-480.362	800.000	-0.091	-0.324
-479.347	-5.413	-0.218	0.151
-478.332	-80.042	-0.173	-0.058
-477.318	106.632	0.157	0.188
-476.303	-172.165	0.085	-0.003
-475.289	-141.988	0.383	-0.039
-474.274	208.898	0.192	-0.304
-473.259	-200.000	0.024	0.110
-472.245	-43.828	-0.357	-0.181
-471.230	611.832	0.094	0.237
-470.216	691.377	-0.081	-0.213
-469.201	219.643	-0.139	-0.224
-468.186	59.147	0.133	0.132
-467.172	144.792	-0.119	-0.160
-466.157	-61.014	0.169	-0.072
-465.143	-49.486	0.296	-0.142
-464.128	146.330	0.170	0.230
-463.113	262.759	0.094	0.165
-462.099	0.990	-0.245	-0.177
-461.084	-200.000	-0.017	0.102
-460.070	82.647	-0.291	0.319
-459.055	22.491	0.197	-0.162
-458.040	78.183	0.156	0.167
-457.026	-76.882	-0.040	0.014
-456.011	-19.134	-0.357	0.224
-454.997	-200.000	0.056	0.327
-453.982	800.000	0.017	0.067
-452.968	92.212	0.222	0.252
-451.953	-132.864	0.257	-0.033
-450.938	79.008	0.085	-0.091
-449.924	135.627	-0.092	-0.120
-448.909	-35.878	0.107	-0.059
-447.895	-200.000	-0.003	0.104
-446.880	462.798	0.063	0.141
-445.865	183.841	-0.187	-0.278
-444.851	787.960	-0.078	-0.215
-443.836	-82.640	-0.309	-0.101
-442.822	-108.461	-0.274	0.059
-441.807	196.259	0.149	-0.228
-440.792	74.996	-0.221	0.234
-439.778	-1.504	0.210	-0.149
-438.763	-14.502	-0.142	-0.092
-437.749	-200.000	-0.075	-0.342
-436.734	-104.478	-0.143	0.033
-435.719	-101.841	0.387	-0.094
-434.705	16.991	0.119	0.095
-433.690	81.105	-0.105	-0.114
-432.676	97.029	-0.125	0.145
-431.661	-200.000	-0.027	-0.137
-430.646	124.656	-0.221	-0.280
-429.632	-26.115	0.136	-0.081
-428.617	-71.422	0.337	0.127
-427.603	800.000	0.044	0.182
-426.588	58.236	0.134	-0.132
-425.573	-90.442	-0.097	0.028
-424.559	23.835	0.177	0.147
-423.544	800.000	-0.038	-0.110
-422.530	374.053	0.111	0.227
-421.515	-133.987	0.146	-0.018
-420.500	30.078	0.136	0.117
-419.486	113.261	-0.037	-0.045
-418.471	-120.134	0.484	-0.083
-417.457	69.578	0.205	0.213
-416.442	25.671	0.161	-0.135
-415.428	48.648	-0.194	0.183
-414.413	177.493	0.101	-0.149
-413.398	-19.269	-0.051	0.032
-412.384	22.005	0.178	-0.146
-411.369	-84.685	0.282	0.089
-410.355	-200.000	-0.015	0.391
-409.340	-63.195	0.324	-0.134
-408.325	800.000	0.132	-0.396
-407.311	-110.665	-0.194	-0.040
-406.296	-23.618	-0.149	-0.090
-405.282	243.098	0.074	0.125
-404.267	60.466	-0.183	0.182
-403.252	-200.000	-0.009	0.084
-402.238	-137.106	0.208	-0.024
-401.223	-123.353	-0.069	-0.011
-400.209	293.838	-0.127	0.234
-399.194	-200.000	-0.096	0.465
-398.179	558.576	0.042	-0.101
-397.165	-91.259	0.168	0.048
-396.150	-44.994	0.053	-0.027
-395.136	290.493	0.189	0.345
-394.121	119.587	0.178	0.221
-393.106	-95.852	-0.426	-0.114
-392.092	-141.380	0.090	-0.009
-391.077	385.708	0.085	0.177
-390.063	-123.671	0.200	0.032
-389.048	545.205	-0.024	-0.059
-388.033	61.576	0.135	-0.135
-387.019	585.440	-0.100	-0.247
-386.004	-200.000	0.028	-0.445
-384.990	310.049	0.167	0.313
-383.975	-27.205	-0.161	-0.094
-382.960	161.490	0.060	0.085
-381.946	177.818	0.196	0.287
-380.931	-63.888	-0.318	-0.131
-379.917	125.594	0.170	-0.215
-378.902	-28.148	0.299	0.173
-377.888	32.078	0.194	0.168
-376.873	-200.000	-0.003	-0.029
-375.858	800.000	0.024	0.105
-374.844	-138.757	0.244	0.027
-373.829	-200.000	0.013	-0.406
-372.815	177.202	0.130	-0.191
-371.800	95.365	-0.100	-0.115
-370.785	-178.684	-0.016	0.000
-369.771	707.435	-0.115	0.306
-368.756	-13.177	-0.398	0.259
-367.742	-49.652	0.083	0.040
-366.727	161.072	-0.054	-0.076
-365.712	37.655	-0.088	-0.078
-364.698	108.682	0.207	-0.248
-363.683	-115.933	-0.142	0.027
-362.669	-200.000	0.010	-0.065
-361.654	-200.000	-0.044	-0.203
-360.639	-4.128	-0.176	-0.123
-359.625	242.244	-0.055	0.092
-358.610	-45.468	-0.094	-0.047
-357.596	76.718	0.075	-0.080
-356.581	106.843	0.088	-0.104
-355.566	800.000	0.052	-0.165
-354.552	800.000	-0.024	-0.066
-353.537	372.958	-0.121	-0.247
-352.523	63.401	0.066	-0.066
-351.508	-99.334	0.162	-0.041
-350.493	-101.554	0.070	0.017
-349.479	120.477	-0.178	0.222
-348.464	800.000	0.102	0.295
-347.450	-39.783	0.068	0.035
-346.435	283.380	-0.223	-0.401
-345.420	-24.303	-0.216	0.130
-344.406	-200.000	-0.000	-0.173
-343.391	83.132	-0.232	0.254
-342.377	642.219	-0.129	0.330
-341.362	-200.000	0.031	0.222
-340.348	221.699	-0.249	-0.402
-339.333	-93.550	0.312	-0.086
-338.318	-200.000	-0.023	0.119
-337.304	-75.666	-0.257	0.092
-336.289	238.440	0.082	0.137
-335.275	-6.839	-0.160	-0.109
-334.260	-43.223	0.160	0.081
-333.245	800.000	-0.063	0.246
-332.231	25.205	0.178	-0.149
-331.216	26.721	-0.052	0.043
-330.202	194.335	0.190	0.289
-329.187	-49.884	-0.206	0.098
-328.172	143.270	-0.095	-0.126
-327.158	-200.000	-0.040	-0.228
-326.143	-147.594	0.279	0.024
-325.129	-200.000	0.041	-0.287
-324.114	-200.000	-0.036	0.183
-323.099	77.279	0.117	-0.125
-322.085	800.000	0.040	-0.120
-321.070	137.782	-0.200	-0.262
-320.056	26.705	-0.079	0.066
-319.041	-45.194	-0.177	-0.088
-318.026	-119.164	0.183	0.032
-317.012	-151.047	-0.283	-0.021
-315.997	-64.039	-0.312	0.127
-314.983	150.963	0.097	0.132
-313.968	-193.601	-0.130	0.001
-312.953	800.000	-0.019	-0.070
-311.939	69.397	-0.183	0.189
-310.924	-100.109	0.110	-0.028
-309.910	-136.511	-0.053	0.006
-308.895	-111.872	-0.090	0.018
-307.880	74.015	0.101	-0.107
-306.866	-11.798	0.210	-0.138
-305.851	87.276	0.288	0.319
-304.837	101.595	-0.212	0.248
-303.822	216.947	-0.228	0.363
-302.807	800.000	0.050	0.220
-301.793	61.087	-0.045	0.045
-300.778	37.581	0.281	0.250
-299.764	60.136	0.207	0.205
-298.749	-73.650	-0.260	-0.095
-297.735	-46.523	-0.229	0.112
-296.720	-200.000	0.038	-0.266
-295.705	57.831	0.110	0.108
-294.691	-60.821	0.056	-0.024
-293.676	-200.000	-0.025	-0.134
-292.662	-200.000	0.027	-0.261
-291.647	-40.972	0.154	-0.080
-290.632	296.266	0.184	-0.338
-289.618	-200.000	-0.004	-0.054
-288.603	122.550	-0.209	-0.261
-287.589	211.402	0.095	0.150
-286.574	-83.124	-0.046	-0.015
-285.559	800.000	-0.029	0.097
-284.545	18.499	0.120	-0.096
-283.530	-104.485	0.301	-0.070
-282.516	-120.502	0.161	0.027
-281.501	41.681	0.053	0.048
-280.486	65.946	-0.226	0.229
-279.472	-122.187	-0.062	0.010
-278.457	-143.694	-0.187	0.018
-277.443	91.693	0.068	-0.076
-276.428	-20.865	0.266	0.163
-275.413	-14.374	0.125	0.080
-274.399	-56.850	0.029	0.013
-273.384	-131.541	0.418	-0.055
-272.370	551.687	0.116	0.279
-271.355	229.032	-0.063	-0.103
-270.340	-200.000	0.024	-0.122
-269.326	-115.987	-0.056	0.010
-268.311	-200.000	-0.037	0.270
-267.297	-23.900	-0.196	0.117
-266.282	40.301	-0.128	-0.115
-265.267	800.000	0.079	0.262
-264.253	23.444	-0.147	0.121
-263.238	19.535	0.244	0.196
-262.224	-86.107	0.237	0.073
-261.209	-200.000	0.030	-0.242
-260.195	-37.756	-0.108	0.058
-259.180	77.942	-0.391	0.417
-258.165	800.000	0.039	-0.115
-257.151	-8.692	-0.205	0.138
-256.136	-122.720	-0.128	0.021
-255.122	93.717	0.105	0.119
-254.107	28.179	0.187	-0.158
-253.092	-94.123	0.138	-0.038
-252.078	-24.088	0.051	-0.030
-251.063	800.000	0.137	0.385
-250.049	420.888	-0.230	0.493
-249.034	-123.854	0.051	0.008
-248.019	-15.058	0.180	0.115
-247.005	-200.000	0.060	-0.293
-245.990	-29.724	0.069	0.039
-244.976	-200.000	0.043	-0.321
-243.961	152.368	0.234	-0.319
-242.946	84.580	-0.191	-0.209
-241.932	-54.231	0.250	-0.113
-240.917	173.882	-0.135	0.195
-239.903	112.057	0.157	0.190
-238.888	295.451	-0.134	0.246
-237.873	-200.000	-0.019	0.123
-236.859	395.249	0.111	0.232
-235.844	-200.000	-0.005	0.150
-234.830	659.438	-0.064	-0.164
-233.815	651.112	-0.066	-0.168
-232.800	-29.748	-0.344	-0.196
-231.786	-200.000	-0.001	0.209
-230.771	-200.000	-0.054	0.326
-229.757	-37.284	0.320	-0.171
-228.742	-47.285	0.516	0.251
-227.727	417.140	-0.087	0.185
-226.713	113.172	0.247	0.299
-225.698	-0.059	-0.266	-0.189
-224.684	-200.000	0.013	-0.111
-223.669	-200.000	0.009	-0.175
-222.655	625.152	0.019	-0.048
-221.640	249.436	-0.023	-0.039
-220.625	388.129	-0.057	0.117
-219.611	-18.220	-0.260	-0.162
-218.596	124.681	0.150	-0.188
-217.582	-87.058	0.080	0.024
-216.567	76.910	-0.142	-0.151
-215.552	-66.574	0.357	-0.141
-214.538	-45.065	0.036	-0.018
-213.523	-200.000	0.002	0.256
-212.509	-100.523	0.122	0.030
-211.494	-31.578	0.272	0.153
-210.479	460.133	0.071	-0.158
-209.465	17.552	-0.089	-0.071
-208.450	22.315	0.246	-0.200
-207.436	800.000	-0.090	-0.320
-206.421	-13.112	0.108	-0.070
-205.406	-109.019	0.317	0.067
-204.392	-102.576	0.078	0.019
-203.377	-66.765	-0.199	0.079
-202.363	-58.532	0.472	-0.204
-201.348	-18.224	-0.076	-0.047
-200.333	-0.641	0.049	0.035
-199.319	-196.152	-0.482	-0.003
-198.304	-200.000	0.019	0.335
-197.290	-48.332	-0.143	0.069
-196.275	-108.339	0.300	-0.065
-195.260	28.273	-0.119	0.100
-194.246	702.541	0.028	-0.073
-193.231	311.249	0.023	-0.043
-192.217	89.337	0.217	-0.241
-191.202	-122.562	-0.160	-0.026
-190.187	-98.829	-0.383	-0.097
-189.173	56.239	0.072	-0.070
-188.158	50.392	0.078	-0.073
-187.144	-14.148	0.159	-0.102
-186.129	-37.026	-0.159	0.085
-185.114	-126.805	-0.163	-0.024
-184.100	179.782	0.134	-0.196
-183.085	-30.154	-0.238	0.135
-182.071	-142.510	-0.231	-0.023
-181.056	29.827	0.176	-0.150
-180.042	-45.261	0.169	-0.084
-179.027	103.509	-0.069	0.080
-178.012	320.264	-0.036	-0.068
-176.998	800.000	0.030	0.118
-175.983	-103.840	-0.144	-0.034
-174.969	0.365	-0.299	-0.213
-173.954	-200.000	0.002	-0.021
-172.939	-44.002	0.223	0.112
-171.925	-129.900	0.179	-0.024
-170.910	30.091	0.127	0.108
-169.896	-200.000	0.025	0.227
-168.881	-200.000	0.015	0.190
-167.866	-56.663	-0.066	0.029
-166.852	78.244	0.091	-0.097
-165.837	-200.000	0.055	-0.272
-164.823	-87.119	-0.089	0.027
-163.808	238.062	-0.202	-0.333
-162.793	610.261	0.090	-0.224
-161.779	33.192	-0.064	0.055
-160.764	-138.380	-0.080	-0.009
-159.750	-78.224	0.291	0.100
-158.735	-80.701	-0.033	-0.011
-157.720	-117.260	-0.169	0.031
-156.706	115.109	0.135	-0.164
-155.691	6.895	0.093	0.069
-154.677	-200.000	-0.025	0.290
-153.662	13.143	-0.307	0.237
-152.647	186.775	-0.102	0.151
-151.633	-200.000	0.070	-0.359
-150.618	-200.000	-0.030	-0.251
-149.604	80.289	0.118	0.127
-148.589	29.449	-0.196	0.165
-147.574	-200.000	0.053	-0.257
-146.560	-79.602	-0.307	-0.103
-145.545	-104.609	0.079	0.018
-144.531	735.648	-0.077	-0.206
-143.516	-200.000	-0.006	-0.150
-142.502	-9.983	0.121	0.080
-141.487	-133.133	0.326	0.041
-140.472	117.890	-0.075	0.091
-139.458	14.103	0.054	-0.041
-138.443	-190.064	0.193	0.002
-137.429	298.982	0.032	-0.058
-136.414	-200.000	-0.032	-0.217
-135.399	-101.623	0.069	-0.017
-134.385	-200.000	0.048	0.266
-133.370	-57.409	-0.153	0.067
-132.356	-200.000	0.015	0.263
-131.341	76.491	0.112	-0.118
-130.326	-189.410	0.288	-0.003
-129.312	37.468	0.069	0.061
-128.297	-76.123	0.072	-0.025
-127.283	-92.783	-0.143	-0.040
-126.268	61.212	-0.106	0.105
-125.253	-174.349	0.101	-0.003
-124.239	512.030	0.099	0.228
-123.224	144.241	0.205	-0.272
-122.210	403.051	0.097	0.203
-121.195	166.208	0.159	-0.224
-120.180	-200.000	0.040	0.182
