DTS Sentinel unit serial number:	SN413079Multiplexer serial number:	ORYXHardware model number:	OX4-SRSoftware version number:	ORYX F/W v4.00 Oryx Data Collector v3.7.2.0data status	okinstallation	princeton_trtdifferential loss correction	single-endedforward channel	channel 1reverse channel	N/Adate	2019/09/16time	08:50:35forward acquisition time	60.00reverse acquisition time	0.00gamma	496.2192k internal	0.2325k external	0.2325temperature offset calibration	0.9978default loss term (dB/km)	0.3790temperature slope calibration	1.0000multiplexer offset coefficient	1.0000multiplexer slope coefficient	1.0000fibre end	0.00T internal ref (°C)	30.02T ext. ref 1 (°C)	12.00T ext. ref 2 (°C)	27.35length (m)	temperature (°C)	Stokes	anti-Stokes-747.200	303.311	-0.139	0.259
-746.185	-200.000	0.004	0.170
-745.171	-102.215	-0.128	-0.031
-744.156	44.504	-0.140	-0.130
-743.142	521.906	-0.053	0.126
-742.127	-200.000	-0.026	-0.237
-741.112	77.497	-0.177	0.191
-740.098	280.174	-0.173	-0.311
-739.083	-200.000	0.010	0.489
-738.069	121.518	-0.273	0.343
-737.054	-52.860	0.194	-0.090
-736.039	-124.088	-0.303	0.048
-735.025	-67.861	0.138	0.054
-734.010	-138.309	-0.295	-0.033
-732.996	800.000	-0.030	-0.131
-731.981	-29.667	0.209	-0.120
-730.966	-115.458	-0.104	0.020
-729.952	-56.183	0.146	-0.066
-728.937	-48.483	-0.321	-0.156
-727.923	-66.641	0.149	0.060
-726.908	-88.861	-0.124	0.037
-725.894	800.000	-0.107	-0.401
-724.879	800.000	0.045	-0.157
-723.864	-32.505	0.136	0.076
-722.850	229.358	-0.132	0.218
-721.835	-169.690	-0.233	-0.009
-720.821	0.143	-0.273	-0.196
-719.806	800.000	0.167	0.525
-718.791	121.870	-0.106	0.133
-717.777	-196.379	-0.077	0.001
-716.762	-8.507	-0.152	0.103
-715.748	-200.000	-0.017	-0.118
-714.733	800.000	-0.113	-0.356
-713.718	-66.557	-0.311	0.124
-712.704	-17.703	-0.566	-0.358
-711.689	112.793	-0.081	0.099
-710.675	-200.000	-0.100	-0.000
-709.660	-112.601	-0.268	-0.054
-708.645	25.464	-0.149	-0.124
-707.631	-138.626	-0.229	0.025
-706.616	-35.478	-0.282	-0.154
-705.602	-118.247	-0.044	0.008
-704.587	-41.051	0.084	0.044
-703.572	-39.500	0.219	0.116
-702.558	-200.000	-0.000	-0.033
-701.543	-200.000	0.004	-0.104
-700.529	446.747	0.016	-0.036
-699.514	800.000	-0.038	0.125
-698.499	43.944	0.036	0.034
-697.485	-82.871	0.253	-0.082
-696.470	359.838	0.266	0.537
-695.456	-138.950	-0.217	0.024
-694.441	-123.628	0.032	-0.005
-693.426	70.818	-0.164	-0.171
-692.412	800.000	-0.035	0.104
-691.397	135.381	0.234	0.307
-690.383	-152.653	0.035	0.003
-689.368	-200.000	0.065	-0.300
-688.354	-68.793	-0.177	0.069
-687.339	-200.000	-0.005	-0.262
-686.324	-131.960	0.076	-0.010
-685.310	800.000	0.100	-0.307
-684.295	800.000	0.043	-0.152
-683.281	-143.151	-0.180	0.017
-682.266	397.191	-0.071	-0.150
-681.251	160.000	-0.158	0.222
-680.237	103.951	-0.045	-0.053
-679.222	800.000	-0.160	-0.476
-678.208	-16.261	-0.036	0.023
-677.193	30.201	-0.211	0.181
-676.178	-74.555	0.434	-0.157
-675.164	-31.112	-0.355	0.201
-674.149	170.836	0.209	0.301
-673.135	-138.753	0.244	0.027
-672.120	-99.040	-0.153	0.039
-671.105	80.272	-0.074	-0.080
-670.091	-143.432	-0.159	0.015
-669.076	18.368	-0.332	-0.267
-668.062	-52.490	0.133	-0.062
-667.047	8.797	0.133	0.101
-666.032	6.729	-0.186	0.139
-665.018	-200.000	-0.002	0.162
-664.003	471.786	0.018	-0.040
-662.989	-200.000	0.016	0.164
-661.974	-56.041	0.091	0.041
-660.959	-9.661	0.174	-0.117
-659.945	8.554	0.277	0.209
-658.930	81.186	-0.090	0.098
-657.916	20.651	-0.427	0.347
-656.901	493.123	-0.024	-0.056
-655.886	800.000	-0.098	0.300
-654.872	448.858	-0.066	-0.146
-653.857	800.000	-0.078	-0.218
-652.843	-200.000	0.010	-0.157
-651.828	-6.286	0.150	-0.103
-650.814	-200.000	-0.082	-0.384
-649.799	322.383	-0.016	-0.030
-648.784	-34.428	0.260	-0.143
-647.770	-96.837	0.399	0.105
-646.755	297.534	0.035	-0.064
-645.741	-115.421	0.263	0.050
-644.726	-3.138	-0.136	-0.096
-643.711	-47.691	0.332	0.162
-642.697	-200.000	-0.025	0.126
-641.682	-21.821	0.262	-0.160
-640.668	-200.000	-0.010	0.318
-639.653	63.391	-0.173	0.174
-638.638	-108.852	-0.246	0.053
-637.624	62.310	0.392	0.394
-636.609	800.000	-0.050	-0.152
-635.595	-5.465	0.315	-0.217
-634.580	522.317	0.090	0.213
-633.565	686.814	0.078	-0.204
-632.551	141.092	0.157	-0.209
-631.536	800.000	-0.067	-0.187
-630.522	-121.021	-0.338	0.057
-629.507	-156.924	-0.147	-0.009
-628.492	-68.385	-0.061	-0.024
-627.478	800.000	-0.032	-0.131
-626.463	-200.000	-0.016	-0.139
-625.449	26.898	-0.118	0.099
-624.434	800.000	0.016	-0.049
-623.419	270.780	-0.108	0.190
-622.405	-200.000	-0.042	-0.284
-621.390	233.445	0.205	-0.339
-620.376	40.113	0.136	-0.123
-619.361	138.193	-0.058	0.076
-618.346	-44.706	0.358	-0.180
-617.332	513.813	0.128	-0.301
-616.317	800.000	0.091	0.398
-615.303	-91.221	0.231	-0.066
-614.288	-19.850	-0.163	-0.101
-613.273	800.000	-0.017	-0.069
-612.259	-169.324	0.178	-0.007
-611.244	-119.858	-0.418	-0.072
-610.230	12.880	-0.164	-0.127
-609.215	-96.078	0.213	0.057
-608.201	-135.539	0.104	0.012
-607.186	800.000	0.017	0.057
-606.171	123.288	0.179	0.225
-605.157	-60.062	0.126	0.054
-604.142	-2.209	-0.429	-0.302
-603.128	-200.000	-0.000	0.031
-602.113	89.232	0.174	-0.195
-601.098	-6.721	0.260	0.177
-600.084	136.241	0.149	0.195
-599.069	-126.269	0.192	0.029
-598.055	-200.000	0.056	-0.305
-597.040	-146.976	0.338	0.029
-596.025	-112.964	-0.256	-0.051
-595.011	83.334	-0.182	-0.199
-593.996	113.778	0.095	0.116
-592.982	-200.000	-0.015	-0.103
-591.967	409.969	0.092	-0.196
-590.952	207.092	0.080	0.126
-589.938	42.315	0.113	0.103
-588.923	-10.767	-0.310	0.206
-587.909	-98.872	-0.026	-0.007
-586.894	800.000	-0.089	-0.256
-585.879	-113.602	0.057	0.011
-584.865	-200.000	-0.023	0.371
-583.850	89.007	-0.207	0.231
-582.836	-130.415	0.295	0.040
-581.821	-48.471	0.166	-0.080
-580.806	-75.619	-0.305	-0.109
-579.792	800.000	0.060	-0.198
-578.777	12.231	0.224	0.173
-577.763	-142.932	0.202	0.020
-576.748	68.539	-0.185	-0.190
-575.733	-6.710	-0.097	0.066
-574.719	-138.210	-0.231	0.026
-573.704	-94.596	-0.231	-0.063
-572.690	-68.635	-0.335	-0.130
-571.675	-200.000	-0.455	-0.001
-570.661	-200.000	0.009	-0.062
-569.646	-31.459	0.130	-0.073
-568.631	-72.809	0.133	0.049
-567.617	221.843	-0.053	-0.085
-566.602	800.000	0.026	-0.100
-565.588	58.295	0.105	-0.103
-564.573	-200.000	0.004	-0.112
-563.558	113.369	0.073	-0.089
-562.544	221.901	-0.068	-0.109
-561.529	-34.312	-0.212	0.116
-560.515	-83.032	-0.110	-0.035
-559.500	800.000	-0.017	0.056
-558.485	-15.655	0.165	-0.106
-557.471	-188.396	0.290	0.004
-556.456	-80.082	-0.207	0.070
-555.442	264.830	-0.031	0.055
-554.427	-188.869	0.185	0.002
-553.412	-144.367	-0.286	-0.027
-552.398	-75.376	-0.196	-0.070
-551.383	33.071	-0.212	0.184
-550.369	117.621	0.053	-0.065
-549.354	172.180	-0.133	0.191
-548.339	-122.875	0.129	-0.021
-547.325	382.364	-0.149	0.306
-546.310	800.000	-0.049	-0.145
-545.296	-137.507	-0.154	-0.017
-544.281	-172.893	-0.134	0.004
-543.266	8.382	0.214	0.161
-542.252	-200.000	0.016	0.158
-541.237	9.427	-0.095	0.072
-540.223	21.589	-0.455	0.371
-539.208	-75.264	0.063	-0.022
-538.193	157.222	0.060	-0.083
-537.179	-135.666	0.279	-0.033
-536.164	365.458	-0.236	-0.476
-535.150	-200.000	-0.030	-0.147
-534.135	-92.052	-0.137	0.039
-533.121	746.902	0.125	0.336
-532.106	-200.000	0.015	-0.401
-531.091	800.000	-0.036	-0.109
-530.077	800.000	0.075	-0.235
-529.062	-162.150	-0.203	0.010
-528.048	-44.443	0.264	-0.132
-527.033	137.603	-0.126	-0.164
-526.018	-60.858	-0.248	-0.105
-525.004	116.799	-0.075	-0.092
-523.989	800.000	-0.053	-0.196
-522.975	-200.000	0.049	-0.227
-521.960	96.401	0.199	0.228
-520.945	86.675	-0.247	0.272
-519.931	490.422	-0.157	0.360
-518.916	3.369	0.100	0.073
-517.902	-120.408	-0.057	-0.010
-516.887	98.149	-0.171	-0.196
-515.872	-200.000	0.013	0.076
-514.858	-27.198	-0.094	-0.055
-513.843	-111.113	-0.067	-0.014
-512.829	-24.217	-0.334	0.199
-511.814	-168.423	0.235	-0.009
-510.799	751.854	0.178	0.482
-509.785	138.663	-0.198	-0.260
-508.770	-54.367	0.127	-0.058
-507.756	335.595	-0.145	0.281
-506.741	800.000	0.045	0.151
-505.726	-2.832	0.232	0.162
-504.712	-200.000	0.021	0.431
-503.697	800.000	0.053	-0.188
-502.683	217.919	-0.101	0.161
-501.668	247.682	0.080	0.135
-500.653	-106.734	0.113	0.025
-499.639	-200.000	-0.004	0.119
-498.624	6.821	0.086	-0.064
-497.610	-200.000	-0.005	-0.063
-496.595	-91.709	-0.033	0.009
-495.581	-200.000	0.019	-0.134
-494.566	-0.067	0.020	0.014
-493.551	151.262	0.110	0.150
-492.537	52.917	0.115	-0.110
-491.522	800.000	0.047	0.198
-490.508	800.000	-0.019	0.078
-489.493	34.900	-0.177	-0.155
-488.478	-153.604	0.382	0.026
-487.464	541.746	0.136	0.325
-486.449	159.146	-0.226	0.314
-485.435	-200.000	-0.041	-0.315
-484.420	152.983	0.048	0.066
-483.405	-36.025	-0.195	-0.105
-482.391	-200.000	0.029	-0.177
-481.376	50.844	-0.229	-0.217
-480.362	800.000	0.137	-0.569
-479.347	161.644	-0.324	-0.453
-478.332	-126.716	-0.144	0.021
-477.318	-86.330	0.211	-0.065
-476.303	-200.000	0.043	-0.480
-475.289	-200.000	0.066	-0.324
-474.274	-20.206	-0.157	0.097
-473.259	9.660	0.376	-0.284
-472.245	179.986	0.100	-0.147
-471.230	-61.931	-0.113	-0.047
-470.216	800.000	0.009	0.029
-469.201	-148.687	-0.194	0.016
-468.186	-160.047	-0.258	0.014
-467.172	-200.000	0.075	0.431
-466.157	-85.308	-0.278	0.087
-465.143	141.794	0.166	-0.219
-464.128	15.701	-0.262	0.206
-463.113	-108.369	-0.443	0.095
-462.099	21.728	0.166	-0.135
-461.084	126.053	0.023	-0.028
-460.070	-96.058	0.225	-0.060
-459.055	-73.366	-0.076	-0.028
-458.040	-148.921	-0.076	-0.006
-457.026	-21.686	0.165	0.100
-456.011	-95.988	-0.131	0.035
-454.997	-200.000	0.015	0.147
-453.982	-200.000	0.026	-0.417
-452.968	213.057	-0.086	0.136
-451.953	-97.904	-0.286	0.074
-450.938	149.387	-0.034	0.045
-449.924	-200.000	-0.015	-0.194
-448.909	188.210	0.150	-0.223
-447.895	-26.481	-0.061	-0.036
-446.880	87.308	0.127	0.140
-445.865	800.000	0.029	0.111
-444.851	-114.741	-0.400	0.076
-443.836	-44.680	-0.148	0.074
-442.822	156.938	-0.144	0.198
-441.807	-58.251	-0.113	0.049
-440.792	477.086	-0.112	0.254
-439.778	435.165	0.097	0.210
-438.763	800.000	0.033	0.126
-437.749	-200.000	0.014	0.184
-436.734	-35.280	-0.159	-0.086
-435.719	298.689	0.229	0.420
-434.705	-74.773	0.143	-0.051
-433.690	-126.515	0.170	-0.025
-432.676	-18.601	0.148	-0.092
-431.661	-92.615	-0.276	-0.077
-430.646	-64.892	0.321	0.130
-429.632	309.712	-0.252	0.470
-428.617	192.764	0.085	0.127
-427.603	-29.690	0.065	0.037
-426.588	-200.000	0.027	-0.156
-425.573	108.318	-0.148	0.176
-424.559	-200.000	-0.020	0.172
-423.544	85.823	0.077	-0.084
-422.530	228.516	-0.070	0.114
-421.515	41.084	0.021	0.019
-420.500	-54.633	0.173	-0.078
-419.486	160.174	-0.283	-0.393
-418.471	-130.542	-0.145	0.019
-417.457	-200.000	0.008	0.060
-416.442	-147.911	-0.202	-0.017
-415.428	48.177	-0.219	-0.204
-414.413	36.832	-0.006	0.005
-413.398	-157.449	0.125	0.008
-412.384	-140.497	0.034	-0.004
-411.369	-44.496	-0.085	0.042
-410.355	44.998	0.244	0.224
-409.340	40.324	-0.380	-0.341
-408.325	800.000	-0.070	-0.241
-407.311	492.762	0.196	-0.447
-406.296	762.176	0.056	0.152
-405.282	126.789	0.138	0.174
-404.267	734.074	0.053	0.142
-403.252	-19.276	-0.298	0.184
-402.238	-117.690	0.190	-0.034
-401.223	667.584	0.041	0.106
-400.209	-58.715	0.127	0.055
-399.194	44.452	-0.220	0.201
-398.179	-34.771	0.167	0.091
-397.165	-51.080	-0.239	-0.111
-396.150	-24.888	0.067	0.040
-395.136	800.000	0.156	-0.460
-394.121	249.228	0.030	-0.051
-393.106	-118.024	-0.060	-0.011
-392.092	264.605	0.127	-0.221
-391.077	-95.338	0.329	0.088
-390.063	800.000	0.109	0.381
-389.048	-31.852	0.226	0.126
-388.033	105.898	-0.179	0.211
-387.019	50.750	-0.138	-0.130
-386.004	248.799	0.236	-0.398
-384.990	-23.965	0.215	-0.128
-383.975	-164.521	-0.106	0.005
-382.960	-82.103	-0.068	-0.022
-381.946	-200.000	-0.014	-0.063
-380.931	313.125	-0.110	0.207
-379.917	107.273	-0.121	-0.143
-378.902	-121.635	0.177	0.029
-377.888	-200.000	0.058	0.385
-376.873	-110.790	-0.185	-0.038
-375.858	-200.000	0.034	0.267
-374.844	-200.000	-0.003	0.024
-373.829	143.526	-0.103	0.136
-372.815	3.142	0.098	-0.071
-371.800	-110.161	0.165	0.034
-370.785	-52.778	0.296	0.136
-369.771	58.068	-0.101	0.099
-368.756	-103.237	-0.083	0.020
-367.742	-110.864	0.161	0.033
-366.727	-200.000	-0.003	0.029
-365.712	800.000	-0.066	-0.268
-364.698	-35.261	0.240	0.130
-363.683	-164.288	0.088	0.004
-362.669	-63.784	-0.426	-0.174
-361.654	-144.892	-0.296	0.027
-360.639	85.056	0.281	-0.307
-359.625	141.783	0.149	0.197
-358.610	-200.000	0.003	-0.119
-357.596	-60.303	0.232	-0.098
-356.581	-200.000	0.039	-0.323
-355.566	416.043	-0.015	-0.031
-354.552	-101.740	0.085	-0.021
-353.537	-85.197	-0.154	0.048
-352.523	7.335	0.192	0.142
-351.508	-42.881	-0.266	-0.134
-350.493	-102.131	-0.067	-0.016
-349.479	800.000	-0.119	-0.469
-348.464	-125.721	-0.198	0.030
-347.450	-73.435	-0.063	-0.023
-346.435	-11.672	0.122	0.079
-345.420	-39.250	-0.234	0.122
-344.406	-40.350	0.117	-0.061
-343.391	-49.926	-0.244	-0.115
-342.377	-134.456	0.158	0.019
-341.362	-128.092	0.394	-0.056
-340.348	-82.990	-0.414	-0.133
-339.333	-200.000	-0.052	-0.261
-338.318	22.024	0.214	-0.173
-337.304	319.363	-0.105	0.198
-336.289	-94.430	-0.340	-0.092
-335.275	-159.878	0.286	-0.016
-334.260	5.647	-0.214	0.157
-333.245	-200.000	0.071	-0.355
-332.231	-173.652	-0.263	0.008
-331.216	800.000	-0.045	-0.130
-330.202	-109.980	0.363	0.075
-329.187	0.063	-0.374	-0.265
-328.172	800.000	-0.078	0.247
-327.158	-16.403	-0.138	0.087
-326.143	-200.000	-0.021	-0.173
-325.129	-41.623	0.194	0.099
-324.114	111.177	0.141	0.168
-323.099	-163.943	0.157	-0.007
-322.085	800.000	-0.042	0.130
-321.070	-200.000	0.042	-0.232
-320.056	800.000	-0.076	0.214
-319.041	253.560	-0.324	-0.549
-318.026	0.488	0.058	-0.041
-317.012	-43.259	0.145	0.073
-315.997	800.000	0.042	-0.151
-314.983	-97.489	-0.065	0.017
-313.968	800.000	-0.097	0.286
-312.953	-200.000	0.038	0.630
-311.939	5.754	0.250	0.184
-310.924	415.572	-0.095	0.200
-309.910	458.386	-0.103	-0.227
-308.895	594.218	0.077	0.190
-307.880	-25.876	0.376	-0.220
-306.866	108.196	-0.105	0.124
-305.851	-49.291	-0.208	0.099
-304.837	763.989	-0.055	0.149
-303.822	-85.488	0.013	-0.004
-302.807	800.000	-0.116	0.487
-301.793	-60.530	0.132	0.056
-300.778	433.021	0.109	0.235
-299.764	-21.980	0.217	0.131
-298.749	39.474	0.274	-0.244
-297.735	377.354	0.091	0.185
-296.720	800.000	-0.046	0.138
-295.705	-179.244	0.280	0.006
-294.691	-200.000	-0.022	0.435
-293.676	-26.706	0.274	-0.159
-292.662	-45.553	0.137	0.067
-291.647	-200.000	0.018	-0.137
-290.632	-113.304	0.104	0.020
-289.618	171.797	-0.025	-0.036
-288.603	-200.000	-0.005	0.092
-287.589	-85.980	-0.356	-0.109
-286.574	-200.000	0.029	0.184
-285.559	800.000	-0.060	0.236
-284.545	800.000	-0.043	-0.181
-283.530	800.000	0.019	0.065
-282.516	111.961	0.053	-0.063
-281.501	170.071	-0.169	-0.239
-280.486	-200.000	-0.068	0.381
-279.472	124.481	0.086	-0.107
-278.457	-200.000	0.107	0.502
-277.443	-200.000	-0.003	-0.092
-276.428	-60.952	-0.278	-0.116
-275.413	113.855	-0.176	0.212
-274.399	26.229	-0.217	0.179
-273.384	-46.342	0.265	-0.129
-272.370	-200.000	-0.035	-0.169
-271.355	-200.000	-0.016	-0.115
-270.340	74.698	-0.116	-0.120
-269.326	629.610	-0.025	-0.063
-268.311	-200.000	0.031	0.159
-267.297	11.373	-0.321	0.244
-266.282	-35.586	-0.369	-0.198
-265.267	800.000	-0.030	-0.118
-264.253	-94.749	-0.064	-0.017
-263.238	800.000	0.089	0.247
-262.224	-194.317	0.299	0.002
-261.209	-109.159	0.225	-0.047
-260.195	89.212	-0.127	0.140
-259.180	-1.106	0.123	0.086
-258.165	0.198	-0.373	-0.263
-257.151	-133.708	0.140	0.017
-256.136	3.291	-0.234	0.168
-255.122	11.203	0.061	-0.047
-254.107	800.000	-0.028	-0.097
-253.092	-60.301	0.104	0.044
-252.078	564.733	0.095	0.227
-251.063	88.689	-0.132	-0.145
-250.049	-9.915	0.057	-0.038
-249.034	3.880	0.398	0.288
-248.019	800.000	-0.046	0.150
-247.005	-96.964	0.174	-0.045
-245.990	121.816	0.109	-0.135
-244.976	-200.000	-0.005	-0.074
-243.961	337.590	0.099	0.191
-242.946	-17.622	-0.026	0.016
-241.932	48.148	-0.080	-0.074
-240.917	-106.233	-0.117	0.026
-239.903	-200.000	0.034	0.208
-238.888	800.000	-0.054	0.167
-237.873	-62.820	0.161	-0.066
-236.859	800.000	0.059	0.174
-235.844	-79.126	0.182	-0.061
-234.830	-123.040	0.103	0.016
-233.815	444.112	0.111	0.241
-232.800	100.948	0.120	0.138
-231.786	-28.438	-0.337	-0.192
-230.771	-200.000	0.024	0.179
-229.757	-80.686	-0.274	-0.090
-228.742	800.000	0.037	-0.144
-227.727	-92.771	-0.076	-0.021
-226.713	800.000	-0.046	0.182
-225.698	-64.575	0.060	0.024
-224.684	-200.000	0.044	-0.382
-223.669	41.767	-0.186	-0.167
-222.655	516.968	-0.029	-0.066
-221.640	-127.977	0.285	0.040
-220.625	651.136	-0.052	-0.132
-219.611	-100.138	-0.269	-0.066
-218.596	-54.841	0.172	-0.077
-217.582	-114.258	-0.095	-0.018
-216.567	-200.000	-0.011	0.221
-215.552	96.197	-0.152	-0.171
-214.538	147.948	0.237	0.316
-213.523	49.480	0.102	0.095
-212.509	-64.840	-0.166	-0.066
-211.494	-86.741	0.386	0.117
-210.479	3.098	-0.328	-0.235
-209.465	15.023	-0.241	0.187
-208.450	337.838	-0.046	-0.088
-207.436	-127.916	0.221	0.031
-206.421	277.616	-0.074	-0.131
-205.406	246.924	-0.133	-0.221
-204.392	800.000	-0.056	-0.189
-203.377	170.403	0.045	0.063
-202.363	-200.000	-0.012	0.382
-201.348	90.277	-0.067	0.074
-200.333	523.962	0.055	-0.128
-199.319	-120.530	0.292	0.049
-198.304	-179.698	0.413	0.009
-197.290	800.000	-0.188	-0.514
-196.275	-200.000	0.008	-0.186
-195.260	0.021	0.240	0.169
-194.246	7.069	0.180	-0.132
-193.231	-18.004	-0.139	0.086
-192.217	226.449	0.206	0.330
-191.202	-93.626	-0.106	0.029
-190.187	136.527	0.075	-0.097
-189.173	232.488	-0.120	-0.194
-188.158	391.975	-0.087	0.178
-187.144	-1.951	0.184	0.128
-186.129	721.618	0.145	-0.381
-185.114	-69.010	-0.345	-0.131
-184.100	309.409	0.065	-0.121
-183.085	-200.000	-0.018	-0.228
-182.071	-200.000	0.004	-0.046
-181.056	-146.990	0.339	0.029
-180.042	-13.579	-0.122	-0.078
-179.027	-120.394	-0.175	0.029
-178.012	87.580	0.179	0.196
-176.998	294.843	0.044	-0.080
-175.983	-42.404	-0.142	-0.071
-174.969	-200.000	0.061	-0.278
-173.954	280.660	0.117	0.206
-172.939	-43.014	0.181	0.091
-171.925	-200.000	-0.027	-0.195
-170.910	-200.000	0.004	-0.217
-169.896	-117.789	0.351	0.062
-168.881	28.925	-0.136	-0.114
-167.866	800.000	0.037	-0.123
-166.852	-23.063	-0.160	-0.095
-165.837	-4.035	-0.442	0.303
-164.823	79.203	0.099	0.105
-163.808	66.012	-0.079	0.079
-162.793	800.000	-0.062	0.247
-161.779	530.666	-0.053	-0.124
-160.764	800.000	0.083	-0.345
-159.750	124.279	0.099	-0.123
-158.735	291.696	0.136	0.244
-157.720	-141.021	-0.335	-0.034
-156.706	-32.574	0.212	-0.116
-155.691	202.584	-0.077	0.118
-154.677	59.629	0.092	0.089
-153.662	-62.701	0.238	-0.097
-152.647	41.484	-0.131	-0.117
-151.633	161.221	0.074	0.103
-150.618	57.870	0.105	0.101
-149.604	44.118	-0.230	-0.208
-148.589	270.801	0.243	0.422
-147.574	188.251	-0.021	0.031
-146.560	175.552	-0.146	0.209
-145.545	679.438	-0.148	0.379
-144.531	7.604	-0.315	0.233
-143.516	-128.115	-0.159	-0.022
-142.502	-200.000	0.019	0.100
-141.487	-108.512	-0.242	-0.051
-140.472	-200.000	-0.006	0.132
-139.458	-106.292	-0.192	0.042
-138.443	14.548	0.264	0.203
-137.429	-116.229	0.127	0.023
-136.414	671.059	0.112	-0.286
-135.399	81.534	-0.093	-0.099
-134.385	94.287	0.204	0.228
-133.370	800.000	0.020	-0.081
-132.356	645.456	0.056	-0.140
-131.341	800.000	-0.015	-0.057
-130.326	-83.174	0.118	0.037
-129.312	98.435	0.193	0.219
-128.297	689.405	-0.172	0.443
-127.283	49.376	0.073	0.068
-126.268	-53.779	0.110	0.049
-125.253	-67.487	-0.122	0.047
-124.239	-200.000	-0.046	-0.299
-123.224	254.452	-0.092	0.155
-122.210	67.718	-0.145	0.146
-121.195	-39.258	0.197	0.102
