DTS Sentinel unit serial number:	SN413079Multiplexer serial number:	ORYXHardware model number:	OX4-SRSoftware version number:	ORYX F/W v4.00 Oryx Data Collector v3.7.2.0data status	okinstallation	princeton_trtdifferential loss correction	single-endedforward channel	channel 1reverse channel	N/Adate	2019/09/16time	18:26:35forward acquisition time	60.00reverse acquisition time	0.00gamma	496.2192k internal	0.2305k external	0.2305temperature offset calibration	0.9972default loss term (dB/km)	0.3790temperature slope calibration	1.0000multiplexer offset coefficient	1.0000multiplexer slope coefficient	1.0000fibre end	0.00T internal ref (°C)	36.77T ext. ref 1 (°C)	15.80T ext. ref 2 (°C)	30.24length (m)	temperature (°C)	Stokes	anti-Stokes-747.200	800.000	-0.038	-0.169
-746.185	37.747	-0.232	0.210
-745.171	-200.000	-0.016	-0.093
-744.156	-184.336	-0.319	0.005
-743.142	-173.514	0.195	0.006
-742.127	396.998	-0.140	0.298
-741.112	-200.000	-0.017	-0.204
-740.098	800.000	-0.141	0.493
-739.083	457.092	-0.024	-0.054
-738.069	12.476	-0.051	0.040
-737.054	-58.524	-0.363	0.160
-736.039	-40.505	-0.123	0.065
-735.025	-200.000	-0.014	0.208
-734.010	96.912	-0.204	0.238
-732.996	-200.000	-0.019	-0.335
-731.981	-150.879	-0.356	0.027
-730.966	137.280	0.084	0.112
-729.952	-130.648	-0.088	0.012
-728.937	-16.789	-0.319	0.205
-727.923	62.172	-0.283	-0.287
-726.908	-176.482	0.142	0.004
-725.894	-123.765	0.152	0.024
-724.879	440.815	-0.178	-0.397
-723.864	-200.000	0.017	-0.125
-722.850	-20.263	-0.436	-0.273
-721.835	-200.000	0.008	0.199
-720.821	800.000	0.102	-0.435
-719.806	229.769	-0.159	-0.263
-718.791	681.214	-0.064	-0.170
-717.777	-53.853	-0.195	-0.091
-716.762	-83.604	-0.171	0.056
-715.748	48.640	-0.311	0.296
-714.733	-200.000	0.014	-0.289
-713.718	-54.222	-0.315	0.146
-712.704	-117.762	-0.370	-0.068
-711.689	-36.951	-0.113	0.062
-710.675	-113.605	0.183	-0.036
-709.660	747.628	0.116	0.318
-708.645	-139.781	-0.305	-0.033
-707.631	35.156	0.143	0.127
-706.616	-200.000	-0.012	-0.169
-705.602	-200.000	0.042	-0.297
-704.587	234.653	-0.077	-0.128
-703.572	800.000	-0.071	0.263
-702.558	95.510	0.223	0.258
-701.543	-194.729	-0.208	-0.002
-700.529	368.951	-0.089	0.183
-699.514	800.000	0.079	-0.223
-698.499	-98.156	-0.209	0.055
-697.485	-99.145	0.323	0.083
-696.470	-52.213	0.101	0.047
-695.456	165.917	0.181	-0.260
-694.441	-200.000	-0.022	-0.117
-693.426	678.084	-0.145	0.384
-692.412	622.999	-0.099	-0.252
-691.397	132.449	0.102	-0.134
-690.383	-31.580	0.164	-0.094
-689.368	603.198	-0.091	-0.229
-688.354	-85.205	0.125	0.040
-687.339	244.815	-0.155	-0.265
-686.324	-200.000	-0.017	0.127
-685.310	-70.669	0.296	0.114
-684.295	-200.000	-0.003	0.205
-683.281	-25.386	-0.070	0.042
-682.266	-200.000	0.010	0.281
-681.251	24.970	0.125	0.105
-680.237	-200.000	0.032	-0.358
-679.222	106.589	-0.242	-0.292
-678.208	800.000	0.014	0.055
-677.193	-104.434	-0.188	0.044
-676.178	-200.000	0.007	-0.135
-675.164	68.601	-0.101	-0.105
-674.149	13.496	-0.037	-0.030
-673.135	-101.148	-0.133	0.033
-672.120	-200.000	0.037	-0.174
-671.105	800.000	0.028	0.084
-670.091	3.238	0.392	-0.289
-669.076	125.136	-0.130	-0.166
-668.062	800.000	0.037	0.110
-667.047	-67.583	-0.153	-0.061
-666.032	-46.614	0.345	0.172
-665.018	130.756	-0.164	0.213
-664.003	181.385	0.145	-0.216
-662.989	319.902	-0.132	-0.253
-661.974	64.684	-0.387	0.396
-660.959	345.009	0.087	-0.174
-659.945	-82.200	0.202	-0.067
-658.930	-120.507	0.148	0.026
-657.916	169.727	0.111	-0.161
-656.901	472.041	-0.127	0.289
-655.886	-200.000	-0.000	0.130
-654.872	215.594	-0.051	-0.082
-653.857	-39.389	0.084	-0.045
-652.843	45.631	-0.266	-0.249
-651.828	114.796	0.142	0.176
-650.814	-200.000	-0.015	0.103
-649.799	-40.108	-0.191	-0.101
-648.784	73.323	-0.038	0.041
-647.770	-200.000	-0.086	-0.386
-646.755	800.000	-0.026	0.110
-645.741	-200.000	-0.079	-0.474
-644.726	800.000	-0.084	0.306
-643.711	106.286	-0.103	0.124
-642.697	75.121	0.169	0.180
-641.682	800.000	-0.066	-0.275
-640.668	739.555	-0.012	0.032
-639.653	-200.000	0.072	-0.525
-638.638	-59.031	0.250	0.109
-637.624	317.404	0.129	0.246
-636.609	-149.084	-0.102	-0.008
-635.595	36.915	-0.082	-0.074
-634.580	-200.000	0.034	-0.280
-633.565	800.000	0.101	-0.300
-632.551	-124.757	-0.245	-0.038
-631.536	800.000	-0.057	0.164
-630.522	41.016	-0.201	-0.184
-629.507	-118.670	0.187	0.033
-628.492	-104.792	-0.304	-0.071
-627.478	-100.895	-0.084	-0.021
-626.463	-47.729	-0.448	-0.220
-625.449	415.312	0.119	0.258
-624.434	146.170	-0.065	0.089
-623.419	280.780	0.181	0.328
-622.405	416.645	0.125	0.270
-621.390	800.000	0.151	-0.547
-620.376	21.455	0.208	-0.171
-619.361	-127.980	-0.232	-0.034
-618.346	410.878	0.166	-0.357
-617.332	-75.616	0.320	-0.115
-616.317	-50.899	-0.101	-0.048
-615.303	-133.107	-0.124	0.016
-614.288	295.637	-0.111	0.205
-613.273	-81.343	-0.114	0.038
-612.259	-11.199	-0.091	-0.061
-611.244	-57.797	0.189	-0.084
-610.230	215.042	-0.126	-0.202
-609.215	39.582	-0.047	0.043
-608.201	-109.407	0.348	-0.075
-607.186	377.258	-0.143	-0.296
-606.171	-73.446	0.069	-0.025
-605.157	-97.920	-0.156	0.041
-604.142	-200.000	0.077	-0.402
-603.128	33.685	0.073	-0.064
-602.113	-190.896	-0.253	-0.003
-601.098	-108.723	-0.098	-0.021
-600.084	800.000	-0.083	-0.252
-599.069	-27.321	0.117	-0.069
-598.055	-65.054	-0.197	-0.081
-597.040	-200.000	-0.017	0.222
-596.025	800.000	-0.034	-0.101
-595.011	800.000	-0.107	0.302
-593.996	96.212	0.312	-0.362
-592.982	-161.122	0.202	-0.011
-591.967	78.008	-0.289	0.312
-590.952	-152.053	0.195	-0.014
-589.938	158.002	0.077	-0.108
-588.923	-147.764	0.249	0.021
-587.909	495.045	0.025	0.059
-586.894	360.223	-0.074	0.150
-585.879	41.761	-0.162	-0.149
-584.865	113.310	-0.084	0.103
-583.850	-129.037	-0.053	-0.007
-582.836	-85.826	-0.368	-0.115
-581.821	107.265	-0.023	0.028
-580.806	-200.000	-0.012	-0.065
-579.792	434.193	0.100	-0.219
-578.777	-36.323	0.261	0.142
-577.763	-21.320	0.327	-0.202
-576.748	800.000	0.054	-0.229
-575.733	-2.442	-0.398	0.282
-574.719	-131.243	-0.440	0.059
-573.704	800.000	-0.108	-0.324
-572.690	-70.081	0.150	0.058
-571.675	172.265	-0.131	0.191
-570.661	800.000	-0.053	-0.169
-569.646	-17.195	-0.094	0.060
-568.631	-200.000	0.048	0.270
-567.617	-50.427	-0.263	-0.126
-566.602	-132.172	0.206	-0.027
-565.588	-167.113	0.380	-0.016
-564.573	-200.000	0.039	0.294
-563.558	166.008	0.265	-0.379
-562.544	800.000	0.072	0.245
-561.529	257.314	-0.119	-0.207
-560.515	800.000	0.024	0.099
-559.500	-200.000	-0.006	0.042
-558.485	-156.234	0.078	0.005
-557.471	-42.559	0.175	0.090
-556.456	-67.986	-0.286	0.113
-555.442	-200.000	0.008	0.221
-554.427	46.643	0.154	0.145
-553.412	96.275	-0.069	0.079
-552.398	17.913	-0.090	-0.073
-551.383	94.918	0.065	-0.074
-550.369	139.915	-0.032	-0.042
-549.354	153.457	-0.237	0.328
-548.339	-27.405	0.154	-0.091
-547.325	336.058	-0.112	0.219
-546.310	800.000	0.069	0.196
-545.296	-45.109	0.125	0.063
-544.281	387.690	-0.079	-0.165
-543.266	380.248	0.112	0.231
-542.252	-200.000	0.018	-0.152
-541.237	-200.000	-0.054	-0.377
-540.223	115.200	0.178	0.220
-539.208	153.069	-0.199	0.275
-538.193	-200.000	0.024	0.310
-537.179	-200.000	0.063	-0.327
-536.164	68.347	-0.131	-0.135
-535.150	430.661	0.114	0.248
-534.135	11.318	-0.451	-0.348
-533.121	-36.946	-0.190	-0.103
-532.106	-132.753	0.206	-0.027
-531.091	-11.450	-0.163	0.108
-530.077	264.642	-0.062	0.108
-529.062	-168.261	-0.159	0.006
-528.048	-200.000	-0.071	0.446
-527.033	-54.291	0.377	-0.173
-526.018	245.572	-0.053	0.090
-525.004	-63.951	-0.173	0.072
-523.989	-200.000	0.022	0.195
-522.975	9.251	0.259	0.197
-521.960	261.450	0.179	-0.313
-520.945	-97.267	0.495	-0.130
-519.931	800.000	-0.042	0.167
-518.916	800.000	0.185	0.554
-517.902	671.798	0.129	0.336
-516.887	-10.030	0.200	-0.134
-515.872	132.117	-0.064	0.083
-514.858	-188.994	0.356	-0.004
-513.843	-115.457	-0.165	-0.031
-512.829	753.310	-0.142	0.388
-511.814	-200.000	-0.013	0.147
-510.799	468.661	0.124	-0.281
-509.785	-60.560	0.288	0.123
-508.770	-153.627	0.084	-0.006
-507.756	-200.000	-0.082	-0.387
-506.741	183.859	0.184	0.274
-505.726	-200.000	0.013	-0.179
-504.712	411.910	-0.051	-0.108
-503.697	160.933	0.146	0.205
-502.683	64.982	0.059	-0.060
-501.668	28.998	-0.282	-0.241
-500.653	-200.000	-0.026	-0.315
-499.639	302.323	0.115	0.215
-498.624	-35.415	0.163	0.089
-497.610	30.020	-0.086	0.074
-496.595	-113.876	-0.264	-0.052
-495.581	-90.387	0.083	0.024
-494.566	800.000	-0.048	0.154
-493.551	491.285	-0.062	-0.144
-492.537	-42.069	0.303	-0.156
-491.522	166.288	-0.196	0.280
-490.508	-5.823	0.481	0.332
-489.493	323.769	-0.200	0.384
-488.478	-200.000	-0.015	0.223
-487.464	-129.119	-0.260	-0.037
-486.449	-59.099	0.353	-0.153
-485.435	-200.000	0.035	-0.343
-484.420	534.536	0.031	0.073
-483.405	-200.000	-0.038	-0.260
-482.391	-99.477	0.070	-0.018
-481.376	800.000	-0.158	-0.444
-480.362	800.000	-0.029	-0.109
-479.347	161.718	-0.209	0.295
-478.332	-166.287	-0.287	-0.012
-477.318	134.585	-0.223	-0.292
-476.303	604.540	-0.104	0.261
-475.289	122.003	0.101	-0.127
-474.274	-200.000	-0.011	0.067
-473.259	467.032	0.169	0.381
-472.245	540.498	-0.134	0.322
-471.230	-92.576	-0.155	0.044
-470.216	-200.000	-0.028	-0.232
-469.201	-200.000	-0.099	0.472
-468.186	48.210	-0.202	-0.190
-467.172	-27.853	-0.284	0.165
-466.157	800.000	-0.019	-0.082
-465.143	-191.299	-0.104	0.001
-464.128	-23.464	0.097	-0.059
-463.113	-39.122	0.107	-0.056
-462.099	-53.585	-0.112	-0.051
-461.084	-86.934	0.284	0.087
-460.070	-47.013	0.232	-0.114
-459.055	-198.931	-0.076	-0.000
-458.040	154.501	-0.143	-0.198
-457.026	178.670	-0.072	-0.106
-456.011	32.219	0.088	-0.076
-454.997	211.091	-0.091	0.144
-453.982	682.047	0.138	0.361
-452.968	-76.313	-0.066	-0.023
-451.953	153.144	-0.086	-0.118
-450.938	402.931	0.018	0.038
-449.924	-200.000	0.016	0.258
-448.909	-101.454	0.087	0.021
-447.895	-200.000	-0.015	-0.065
-446.880	45.692	-0.129	0.120
-445.865	-100.112	0.251	0.063
-444.851	14.817	0.199	0.156
-443.836	250.948	0.164	0.280
-442.822	800.000	-0.107	0.332
-441.807	-178.052	-0.411	-0.010
-440.792	-54.156	0.076	-0.035
-439.778	-124.790	0.180	0.028
-438.763	-137.960	0.340	-0.038
-437.749	-115.330	-0.109	0.021
-436.734	800.000	-0.081	-0.264
-435.719	142.531	0.131	-0.175
-434.705	-57.507	-0.308	-0.136
-433.690	800.000	-0.034	0.121
-432.676	-109.727	-0.267	-0.057
-431.661	800.000	0.222	-0.622
-430.646	267.041	0.055	-0.098
-429.632	94.261	0.148	-0.169
-428.617	193.548	0.049	-0.074
-427.603	-159.333	-0.029	-0.002
-426.588	159.218	0.131	-0.183
-425.573	-55.978	-0.090	-0.040
-424.559	-61.651	-0.245	0.103
-423.544	-108.202	-0.341	0.074
-422.530	800.000	-0.047	0.166
-421.515	-80.875	-0.233	0.078
-420.500	30.089	0.140	-0.120
-419.486	159.839	0.178	-0.250
-418.471	-64.704	-0.200	-0.082
-417.457	33.875	-0.186	-0.163
-416.442	255.645	-0.099	0.171
-415.428	61.065	-0.312	0.311
-414.413	97.855	0.147	0.169
-413.398	800.000	-0.090	-0.321
-412.384	800.000	0.018	0.058
-411.369	-31.468	-0.189	-0.107
-410.355	-200.000	-0.025	0.161
-409.340	-200.000	-0.056	0.299
-408.325	431.970	-0.076	0.166
-407.311	39.575	-0.125	-0.113
-406.296	-31.614	0.115	-0.065
-405.282	-200.000	-0.019	0.309
-404.267	142.253	0.169	-0.225
-403.252	134.718	-0.163	0.212
-402.238	-163.687	-0.114	0.005
-401.223	-200.000	0.027	-0.216
-400.209	-137.814	0.086	0.010
-399.194	800.000	0.085	-0.250
-398.179	800.000	-0.094	-0.395
-397.165	-86.240	0.112	-0.035
-396.150	-7.257	0.260	-0.177
-395.136	188.272	0.075	0.113
-394.121	14.345	0.237	-0.185
-393.106	-190.422	0.215	0.002
-392.092	156.647	-0.031	0.043
-391.077	800.000	0.025	0.085
-390.063	-200.000	-0.020	-0.163
-389.048	30.213	0.319	0.273
-388.033	-7.296	-0.218	-0.148
-387.019	-24.240	0.141	0.084
-386.004	-156.646	0.260	-0.016
-384.990	23.639	-0.233	0.193
-383.975	272.015	-0.127	-0.225
-382.960	-200.000	-0.000	-0.206
-381.946	-200.000	-0.033	-0.171
-380.931	-200.000	-0.003	0.475
-379.917	-41.706	-0.093	0.048
-378.902	342.304	-0.146	0.287
-377.888	-148.069	0.092	-0.008
-376.873	-2.343	-0.265	-0.186
-375.858	-200.000	-0.000	-0.016
-374.844	-145.279	-0.267	0.024
-373.829	-168.740	0.232	0.009
-372.815	52.220	-0.085	-0.081
-371.800	-200.000	-0.017	-0.256
-370.785	-82.797	0.295	0.096
-369.771	159.042	0.190	0.265
-368.756	177.373	-0.064	-0.094
-367.742	-86.615	-0.228	0.070
-366.727	-200.000	0.008	-0.175
-365.712	196.479	-0.154	0.235
-364.698	-200.000	-0.000	-0.270
-363.683	53.809	-0.285	-0.275
-362.669	-34.993	-0.045	0.025
-361.654	-81.182	0.315	0.104
-360.639	246.577	0.113	-0.192
-359.625	-99.145	0.168	-0.043
-358.610	-200.000	0.024	-0.321
-357.596	800.000	0.076	0.305
-356.581	55.137	-0.066	-0.064
-355.566	380.039	0.038	0.078
-354.552	-200.000	-0.012	-0.061
-353.537	-112.724	-0.132	0.026
-352.523	-67.814	-0.173	-0.068
-351.508	-7.037	-0.099	-0.067
-350.493	650.461	-0.045	0.116
-349.479	88.666	-0.071	0.079
-348.464	800.000	-0.129	-0.364
-347.450	800.000	-0.020	-0.068
-346.435	-191.571	0.368	0.004
-345.420	-35.066	0.115	0.063
-344.406	544.543	-0.071	0.171
-343.391	-161.243	0.076	-0.004
-342.377	-12.202	0.288	-0.189
-341.362	-30.907	0.070	-0.039
-340.348	229.895	0.132	0.216
-339.333	474.153	0.046	-0.103
-338.318	-151.035	-0.140	-0.011
-337.304	84.116	0.121	-0.133
-336.289	-21.977	-0.135	-0.082
-335.275	-110.123	-0.145	-0.030
-334.260	800.000	0.035	-0.107
-333.245	54.044	-0.031	-0.030
-332.231	26.870	-0.063	-0.053
-331.216	-60.186	0.057	0.024
-330.202	-13.555	-0.143	0.093
-329.187	364.046	-0.153	0.307
-328.172	-200.000	0.087	-0.448
-327.158	-142.256	-0.316	-0.031
-326.143	-158.681	-0.101	-0.006
-325.129	127.334	-0.134	-0.170
-324.114	-200.000	-0.005	0.116
-323.099	-46.982	0.393	0.192
-322.085	-96.176	-0.161	0.043
-321.070	288.468	-0.174	-0.315
-320.056	-25.619	-0.070	-0.041
-319.041	-127.712	0.128	0.018
-318.026	800.000	-0.124	-0.352
-317.012	-28.322	0.304	-0.176
-315.997	-200.000	-0.009	-0.217
-314.983	-200.000	-0.001	-0.088
-313.968	200.354	-0.187	-0.288
-312.953	800.000	-0.078	0.237
-311.939	-24.381	-0.135	-0.080
-310.924	800.000	-0.056	-0.244
-309.910	-3.782	0.217	-0.151
-308.895	-197.549	0.149	0.001
-307.880	800.000	-0.020	0.067
-306.866	-200.000	-0.009	0.289
-305.851	-157.525	-0.123	0.007
-304.837	800.000	-0.045	0.158
-303.822	-122.319	0.221	0.036
-302.807	18.384	-0.088	-0.070
-301.793	-200.000	0.010	-0.180
-300.778	-98.972	-0.251	-0.064
-299.764	-200.000	-0.015	0.114
-298.749	184.692	0.198	-0.293
-297.735	-66.904	0.196	0.078
-296.720	-83.310	0.125	0.040
-295.705	-140.470	0.274	0.028
-294.691	-52.560	0.206	0.095
-293.676	181.300	0.071	0.104
-292.662	-200.000	0.036	0.196
-291.647	-130.944	0.100	0.013
-290.632	676.905	-0.059	-0.153
-289.618	-79.204	0.038	-0.013
-288.603	20.564	0.110	-0.089
-287.589	-33.024	0.082	0.046
-286.574	59.658	-0.219	0.216
-285.559	40.913	0.262	0.236
-284.545	312.453	0.033	0.061
-283.530	96.881	-0.202	0.231
-282.516	125.463	-0.102	-0.129
-281.501	-8.889	-0.211	0.142
-280.486	3.011	-0.093	0.067
-279.472	595.856	-0.056	0.139
-278.457	800.000	0.057	-0.222
-277.443	800.000	0.067	-0.268
-276.428	571.893	0.143	0.347
-275.413	342.736	0.123	0.240
-274.399	-137.051	-0.290	0.033
-273.384	-200.000	0.002	-0.098
-272.370	42.593	0.258	0.235
-271.355	-165.329	0.143	-0.006
-270.340	121.045	-0.156	0.194
-269.326	9.009	0.103	0.078
-268.311	-48.382	0.171	-0.082
-267.297	-175.088	0.284	-0.008
-266.282	10.418	0.151	-0.115
-265.267	119.020	-0.236	-0.292
-264.253	5.460	0.066	-0.049
-263.238	-38.970	0.295	0.155
-262.224	-114.660	-0.109	0.021
-261.209	800.000	0.035	0.114
-260.195	800.000	0.065	0.213
-259.180	129.364	-0.024	-0.030
-258.165	-26.385	0.183	0.107
-257.151	-57.100	-0.007	-0.003
-256.136	-146.798	0.073	0.006
-255.122	800.000	0.017	0.049
-254.107	800.000	0.085	-0.322
-253.092	-61.916	-0.039	0.016
-252.078	180.718	0.190	-0.279
-251.063	-53.053	0.114	0.053
-250.049	340.281	-0.113	0.221
-249.034	191.631	-0.059	-0.089
-248.019	800.000	-0.015	0.057
-247.005	800.000	-0.061	0.259
-245.990	-200.000	0.010	0.078
-244.976	59.735	-0.121	0.119
-243.961	122.969	0.108	0.135
-242.946	364.549	0.035	0.069
-241.932	-114.122	-0.155	-0.030
-240.917	-200.000	-0.070	0.417
-239.903	40.024	-0.118	0.106
-238.888	-140.929	-0.249	-0.026
-237.873	-200.000	-0.011	-0.304
-236.859	-119.806	-0.164	-0.028
-235.844	193.227	0.290	-0.437
-234.830	1.587	-0.161	-0.115
-233.815	179.125	0.189	0.275
-232.800	84.828	-0.153	0.167
-231.786	-93.541	0.389	0.107
-230.771	-200.000	0.015	-0.072
-229.757	-200.000	-0.033	0.270
-228.742	-3.825	0.038	-0.026
-227.727	-200.000	-0.001	-0.060
-226.713	-200.000	0.025	-0.143
-225.698	-51.624	0.280	0.130
-224.684	152.657	0.145	0.198
-223.669	800.000	-0.025	-0.069
-222.655	-8.283	0.195	0.131
-221.640	800.000	0.070	0.274
-220.625	426.780	0.132	-0.283
-219.611	259.030	-0.099	0.171
-218.596	-200.000	0.046	0.401
-217.582	-175.635	-0.376	0.010
-216.567	326.170	0.110	-0.211
-215.552	-200.000	0.033	-0.166
-214.538	169.925	0.249	0.355
-213.523	-119.059	0.059	0.010
-212.509	-110.170	-0.148	-0.031
-211.494	139.052	-0.070	-0.092
-210.479	103.105	0.177	-0.207
-209.465	742.992	-0.026	-0.070
-208.450	-104.745	0.202	-0.046
-207.436	-124.090	0.228	-0.036
-206.421	-38.529	-0.292	-0.154
-205.406	188.183	0.122	0.182
-204.392	-115.125	0.395	0.075
-203.377	292.988	0.054	-0.098
-202.363	-112.987	0.420	0.083
-201.348	-118.699	-0.366	0.064
-200.333	-161.671	-0.064	0.003
-199.319	-200.000	0.017	0.131
-198.304	195.417	-0.136	0.206
-197.290	-30.876	-0.280	-0.157
-196.275	-4.254	0.023	-0.016
-195.260	-200.000	0.018	-0.208
-194.246	-93.950	-0.341	0.093
-193.231	96.501	0.205	0.234
-192.217	512.426	-0.074	0.171
-191.202	-200.000	-0.054	-0.345
-190.187	-125.911	0.416	0.062
-189.173	203.808	-0.171	-0.263
-188.158	51.304	0.155	-0.146
-187.144	33.667	0.148	0.128
-186.129	23.953	-0.185	-0.152
-185.114	800.000	-0.088	-0.260
-184.100	607.379	-0.063	-0.156
-183.085	76.085	-0.041	0.043
-182.071	-200.000	-0.001	0.394
-181.056	-22.471	-0.255	0.154
-180.042	323.450	0.047	0.089
-179.027	-200.000	-0.006	0.030
-178.012	-200.000	-0.008	0.132
-176.998	800.000	0.047	-0.174
-175.983	15.131	-0.031	0.024
-174.969	513.565	-0.103	0.240
-173.954	335.337	0.103	-0.198
-172.939	61.843	0.094	0.093
-171.925	-34.249	-0.155	0.084
-170.910	103.419	0.083	0.097
-169.896	196.744	0.108	-0.164
-168.881	800.000	-0.029	-0.120
-167.866	68.684	-0.223	0.228
-166.852	-34.860	-0.226	0.123
-165.837	96.407	0.037	-0.042
-164.823	190.651	-0.099	0.148
-163.808	-60.806	-0.478	0.201
-162.793	319.956	0.116	-0.219
-161.779	-200.000	0.031	-0.172
-160.764	-200.000	-0.012	-0.109
-159.750	237.931	-0.134	0.221
-158.735	-200.000	-0.008	0.310
-157.720	-78.283	-0.262	-0.089
-156.706	242.928	0.044	0.074
-155.691	-200.000	-0.047	0.310
-154.677	351.325	0.216	-0.425
-153.662	-200.000	-0.041	0.255
-152.647	310.915	0.093	-0.173
-151.633	411.946	-0.104	-0.219
-150.618	800.000	-0.042	0.179
-149.604	-30.173	0.107	0.060
-148.589	-97.009	-0.136	0.036
-147.574	-106.959	-0.257	0.057
-146.560	-90.446	0.341	0.098
-145.545	217.274	-0.050	0.079
-144.531	-111.090	0.103	-0.021
-143.516	-116.448	-0.184	0.034
-142.502	175.894	-0.151	-0.218
-141.487	-56.577	0.291	-0.128
-140.472	63.419	-0.167	0.167
-139.458	-49.754	-0.047	0.022
-138.443	-95.617	-0.050	-0.013
-137.429	-36.963	-0.116	-0.062
-136.414	196.312	-0.035	-0.054
-135.399	-168.420	-0.242	-0.009
-134.385	65.065	0.277	0.278
-133.370	47.345	-0.449	0.416
-132.356	-95.964	0.241	0.064
-131.341	119.492	0.123	-0.152
-130.326	294.183	-0.097	-0.177
-129.312	-77.785	0.304	0.104
-128.297	-91.517	-0.074	-0.021
-127.283	-79.497	-0.483	-0.162
-126.268	89.649	-0.288	0.319
-125.253	-109.682	0.231	0.048
-124.239	-200.000	0.002	0.168
-123.224	3.262	0.204	0.147
