DTS Sentinel unit serial number:	SN413079Multiplexer serial number:	ORYXHardware model number:	OX4-SRSoftware version number:	ORYX F/W v4.00 Oryx Data Collector v3.7.2.0data status	okinstallation	princeton_trtdifferential loss correction	single-endedforward channel	channel 1reverse channel	N/Adate	2019/09/14time	08:22:35forward acquisition time	60.00reverse acquisition time	0.00gamma	496.2192k internal	0.2328k external	0.2328temperature offset calibration	1.0071default loss term (dB/km)	0.3790temperature slope calibration	1.0000multiplexer offset coefficient	1.0000multiplexer slope coefficient	1.0000fibre end	0.00T internal ref (°C)	28.05T ext. ref 1 (°C)	3.62T ext. ref 2 (°C)	26.00length (m)	temperature (°C)	Stokes	anti-Stokes-747.200	67.735	0.138	-0.143
-746.185	800.000	-0.083	0.338
-745.171	-117.150	-0.321	0.059
-744.156	-200.000	0.065	0.337
-743.142	174.265	0.194	-0.283
-742.127	800.000	-0.045	0.190
-741.112	-64.350	-0.170	0.070
-740.098	81.078	-0.145	-0.158
-739.083	166.470	-0.198	-0.283
-738.069	-200.000	0.014	0.163
-737.054	-31.340	-0.099	-0.056
-736.039	10.217	-0.314	-0.241
-735.025	163.340	0.107	0.151
-734.010	41.379	0.211	0.193
-732.996	-78.575	0.204	-0.070
-731.981	-97.011	0.246	0.065
-730.966	110.563	0.153	0.185
-729.952	35.291	0.044	0.039
-728.937	-47.022	-0.148	-0.073
-727.923	-148.626	0.251	-0.021
-726.908	800.000	0.045	0.135
-725.894	-200.000	-0.041	0.185
-724.879	-200.000	0.016	-0.129
-723.864	-200.000	0.043	-0.247
-722.850	-200.000	-0.085	-0.416
-721.835	-64.448	-0.210	-0.086
-720.821	491.884	-0.049	-0.113
-719.806	12.360	0.061	-0.048
-718.791	-19.093	-0.313	-0.196
-717.777	-140.139	0.201	0.021
-716.762	-62.565	-0.256	-0.107
-715.748	-73.466	0.189	0.069
-714.733	-200.000	-0.007	-0.060
-713.718	800.000	-0.086	-0.278
-712.704	-104.743	-0.259	-0.060
-711.689	-140.405	-0.557	0.058
-710.675	-160.849	0.299	-0.016
-709.660	-5.773	-0.072	0.049
-708.645	143.660	0.222	-0.298
-707.631	-24.945	-0.230	0.137
-706.616	51.462	-0.110	0.106
-705.602	-200.000	0.026	0.204
-704.587	-200.000	-0.015	0.266
-703.572	211.741	-0.091	0.144
-702.558	-200.000	0.020	-0.116
-701.543	-200.000	0.031	-0.160
-700.529	-40.354	-0.256	0.134
-699.514	-114.945	0.226	0.043
-698.499	18.676	0.128	-0.103
-697.485	92.474	0.156	-0.177
-696.470	268.115	-0.147	-0.258
-695.456	207.264	0.057	-0.089
-694.441	-200.000	-0.022	0.181
-693.426	-200.000	0.019	-0.094
-692.412	203.257	0.189	-0.293
-691.397	-120.456	-0.267	-0.046
-690.383	-53.450	-0.076	-0.035
-689.368	-46.112	-0.423	-0.210
-688.354	-19.479	0.201	0.125
-687.339	-200.000	-0.004	-0.105
-686.324	-200.000	-0.006	-0.199
-685.310	-200.000	-0.045	0.323
-684.295	-11.522	-0.073	-0.048
-683.281	-149.798	0.086	-0.007
-682.266	226.021	-0.081	0.132
-681.251	-113.260	0.291	0.058
-680.237	-200.000	0.183	-0.001
-679.222	-62.624	-0.012	0.005
-678.208	174.584	-0.089	0.129
-677.193	-200.000	-0.015	0.089
-676.178	800.000	0.034	0.120
-675.164	-200.000	-0.001	-0.092
-674.149	800.000	-0.059	0.204
-673.135	-41.532	-0.189	-0.098
-672.120	-200.000	0.008	-0.126
-671.105	264.175	0.117	-0.205
-670.091	-5.027	0.162	-0.112
-669.076	123.530	0.148	-0.187
-668.062	-200.000	0.031	-0.276
-667.047	-132.248	-0.152	-0.020
-666.032	-2.199	-0.311	-0.219
-665.018	-61.031	-0.279	-0.119
-664.003	-24.166	-0.004	-0.002
-662.989	-31.836	-0.107	0.060
-661.974	800.000	-0.077	0.278
-660.959	-20.835	0.053	0.032
-659.945	-50.230	-0.166	0.079
-658.930	-200.000	0.003	0.092
-657.916	-129.866	-0.327	-0.045
-656.901	-75.748	0.272	-0.097
-655.886	-200.000	0.018	0.128
-654.872	73.938	-0.027	0.029
-653.857	15.126	-0.055	0.043
-652.843	800.000	0.087	0.272
-651.828	-9.606	-0.134	0.090
-650.814	65.016	0.267	0.271
-649.799	-128.150	0.068	-0.010
-648.784	333.899	-0.099	0.192
-647.770	-68.657	0.073	-0.028
-646.755	-200.000	-0.031	-0.228
-645.741	-27.517	0.297	-0.173
-644.726	405.321	0.078	0.166
-643.711	-140.837	-0.125	0.013
-642.697	-139.266	0.489	0.053
-641.682	-146.197	-0.121	-0.011
-640.668	159.278	-0.028	-0.039
-639.653	-110.616	0.142	0.030
-638.638	70.006	-0.359	0.372
-637.624	-200.000	-0.009	0.267
-636.609	646.903	-0.120	-0.307
-635.595	800.000	-0.026	0.106
-634.580	14.741	0.308	0.241
-633.565	-103.092	-0.129	0.031
-632.551	122.048	0.065	-0.081
-631.536	475.691	-0.116	0.263
-630.522	-69.198	-0.148	-0.057
-629.507	-200.000	0.025	0.167
-628.492	-127.709	-0.217	-0.031
-627.478	225.156	0.051	-0.083
-626.463	-112.406	0.159	-0.032
-625.449	-132.507	-0.175	-0.023
-624.434	119.389	0.135	0.167
-623.419	-15.791	0.268	-0.171
-622.405	800.000	0.046	0.188
-621.390	-200.000	-0.011	0.103
-620.376	-200.000	-0.026	-0.192
-619.361	272.890	0.124	0.220
-618.346	185.721	-0.101	-0.151
-617.332	-106.654	0.283	-0.063
-616.317	785.406	0.037	0.103
-615.303	-12.220	-0.246	0.162
-614.288	207.619	-0.080	-0.126
-613.273	-18.870	-0.100	-0.062
-612.259	199.524	0.256	-0.394
-611.244	-23.462	-0.136	-0.082
-610.230	42.558	-0.041	0.037
-609.215	323.102	-0.104	0.199
-608.201	-200.000	0.001	-0.201
-607.186	182.990	-0.104	0.153
-606.171	200.778	0.089	-0.138
-605.157	800.000	-0.066	0.185
-604.142	-200.000	-0.016	0.102
-603.128	-200.000	0.096	0.472
-602.113	220.606	0.191	-0.307
-601.098	-200.000	0.026	0.361
-600.084	213.805	0.120	-0.190
-599.069	18.922	-0.119	-0.095
-598.055	-19.633	-0.273	0.169
-597.040	5.189	0.271	-0.200
-596.025	-200.000	0.014	0.250
-595.011	320.302	0.102	-0.194
-593.996	618.271	-0.075	-0.189
-592.982	-200.000	-0.012	-0.153
-591.967	-200.000	-0.041	-0.374
-590.952	211.134	0.110	-0.173
-589.938	-60.972	-0.162	0.068
-588.923	23.991	0.094	-0.078
-587.909	-66.911	-0.255	0.101
-586.894	-62.346	-0.175	0.073
-585.879	-169.434	-0.182	0.007
-584.865	-74.256	-0.175	-0.063
-583.850	-200.000	-0.018	-0.105
-582.836	-167.682	-0.464	-0.018
-581.821	59.900	-0.189	-0.187
-580.806	-157.553	-0.222	0.013
-579.792	27.446	0.148	0.124
-578.777	-75.667	-0.285	0.101
-577.763	-200.000	-0.002	-0.065
-576.748	-200.000	-0.004	-0.154
-575.733	-129.918	0.262	0.036
-574.719	-3.276	0.379	-0.264
-573.704	3.478	0.085	0.062
-572.690	231.594	-0.027	0.044
-571.675	-200.000	0.062	-0.293
-570.661	-144.692	0.190	0.017
-569.646	-62.328	0.048	0.020
-568.631	-172.748	-0.247	-0.008
-567.617	-150.903	-0.119	-0.009
-566.602	-156.181	-0.249	0.016
-565.588	-200.000	0.029	-0.387
-564.573	69.191	0.128	-0.131
-563.558	586.809	-0.076	0.187
-562.544	-111.219	-0.323	-0.066
-561.529	-39.980	0.310	0.162
-560.515	800.000	0.072	0.316
-559.500	202.486	0.035	-0.054
-558.485	-145.477	0.122	0.011
-557.471	409.737	-0.079	0.168
-556.456	186.488	-0.137	0.205
-555.442	32.673	0.147	0.127
-554.427	149.770	-0.166	0.225
-553.412	260.255	0.207	0.357
-552.398	31.085	0.095	0.082
-551.383	121.410	-0.133	0.166
-550.369	-80.391	-0.171	0.057
-549.354	492.656	0.084	-0.193
-548.339	-11.066	-0.358	0.236
-547.325	-157.679	0.326	0.019
-546.310	10.540	0.131	0.100
-545.296	-200.000	0.047	-0.236
-544.281	800.000	-0.112	-0.417
-543.266	-62.891	-0.343	0.142
-542.252	-137.866	0.097	0.011
-541.237	-129.068	0.366	0.051
-540.223	-50.897	0.224	0.105
-539.208	-134.867	-0.338	0.041
-538.193	-65.464	0.117	0.047
-537.179	-87.748	0.092	0.028
-536.164	-150.434	-0.220	0.017
-535.150	-12.581	-0.303	0.198
-534.135	-15.272	0.081	-0.052
-533.121	-120.850	-0.201	0.034
-532.106	392.284	0.028	-0.059
-531.091	547.860	0.043	-0.104
-530.077	-200.000	-0.000	-0.024
-529.062	142.828	0.119	0.158
-528.048	-189.809	-0.143	0.002
-527.033	-46.739	0.190	-0.093
-526.018	177.603	0.146	0.212
-525.004	-100.193	-0.119	0.030
-523.989	105.284	-0.015	-0.018
-522.975	1.131	0.208	0.149
-521.960	-75.721	0.131	-0.046
-520.945	291.722	-0.061	0.110
-519.931	-37.104	0.224	-0.120
-518.916	-165.981	0.400	0.017
-517.902	-166.842	-0.061	0.003
-516.887	-200.000	-0.018	-0.093
-515.872	277.694	-0.130	-0.232
-514.858	-42.133	0.181	-0.093
-513.843	89.739	0.094	0.105
-512.829	118.694	0.085	0.105
-511.814	-200.000	-0.018	-0.110
-510.799	-45.861	-0.212	0.104
-509.785	659.357	-0.072	-0.184
-508.770	-200.000	0.198	0.000
-507.756	50.154	0.174	0.164
-506.741	45.217	0.279	0.257
-505.726	-43.314	0.115	0.058
-504.712	-191.195	0.216	-0.002
-503.697	484.913	0.147	0.333
-502.683	-26.483	-0.096	0.056
-501.668	-17.415	0.251	-0.158
-500.653	132.244	0.149	-0.192
-499.639	-200.000	0.033	0.199
-498.624	-126.646	0.455	-0.067
-497.610	35.623	-0.139	0.122
-496.595	420.482	-0.120	-0.256
-495.581	-91.552	0.444	0.126
-494.566	-81.746	0.309	0.101
-493.551	61.998	0.305	-0.304
-492.537	455.198	0.084	-0.185
-491.522	-63.399	0.232	0.095
-490.508	-71.531	0.100	-0.037
-489.493	142.217	0.122	0.162
-488.478	-200.000	-0.003	-0.387
-487.464	-153.261	-0.281	-0.020
-486.449	-200.000	0.024	0.123
-485.435	163.181	-0.164	-0.231
-484.420	143.285	0.016	0.021
-483.405	-146.555	0.021	-0.002
-482.391	-200.000	-0.267	0.001
-481.376	120.245	-0.163	-0.202
-480.362	9.810	-0.162	0.122
-479.347	101.909	0.173	-0.201
-478.332	69.439	0.225	-0.231
-477.318	-200.000	-0.028	0.165
-476.303	37.878	0.151	-0.134
-475.289	-200.000	-0.001	-0.129
-474.274	386.794	0.043	-0.089
-473.259	22.799	-0.393	-0.321
-472.245	522.138	-0.112	0.263
-471.230	-177.661	-0.405	-0.010
-470.216	-77.025	-0.372	-0.129
-469.201	33.431	-0.335	-0.290
-468.186	-10.446	0.110	-0.073
-467.172	-106.570	-0.342	-0.076
-466.157	-135.615	-0.352	-0.042
-465.143	38.203	-0.108	0.096
-464.128	-82.207	0.285	0.093
-463.113	184.325	-0.285	0.421
-462.099	800.000	0.133	0.528
-461.084	575.604	0.062	0.152
-460.070	-200.000	0.016	-0.273
-459.055	800.000	-0.060	-0.259
-458.040	514.236	-0.022	-0.051
-457.026	-200.000	-0.004	-0.141
-456.011	21.186	-0.270	0.218
-454.997	321.565	0.122	-0.231
-453.982	-200.000	0.013	-0.182
-452.968	-64.333	0.099	0.040
-451.953	-200.000	-0.016	0.151
-450.938	-0.345	0.148	0.105
-449.924	-200.000	-0.011	0.128
-448.909	74.626	0.186	-0.195
-447.895	-20.275	-0.172	-0.105
-446.880	283.712	0.129	0.231
-445.865	800.000	-0.031	-0.112
-444.851	-8.269	-0.243	-0.163
-443.836	800.000	-0.072	0.261
-442.822	-200.000	0.031	-0.182
-441.807	559.350	0.188	-0.452
-440.792	-200.000	0.008	-0.136
-439.778	-33.313	0.356	-0.196
-438.763	-200.000	0.056	0.251
-437.749	800.000	0.093	0.268
-436.734	58.077	-0.154	0.151
-435.719	78.390	-0.103	0.109
-434.705	94.094	-0.187	0.211
-433.690	-200.000	-0.043	-0.204
-432.676	-37.179	0.182	-0.097
-431.661	251.264	-0.078	-0.132
-430.646	-200.000	-0.045	0.358
-429.632	800.000	-0.050	0.178
-428.617	-36.858	0.113	-0.061
-427.603	-58.961	-0.056	0.024
-426.588	-200.000	-0.008	0.123
-425.573	-200.000	-0.010	0.170
-424.559	34.925	0.181	0.157
-423.544	67.965	-0.181	0.184
-422.530	-112.811	0.205	-0.041
-421.515	800.000	0.069	-0.229
-420.500	46.969	0.129	-0.119
-419.486	-56.718	0.190	-0.084
-418.471	-61.479	0.340	0.142
-417.457	-90.075	-0.172	0.050
-416.442	36.153	-0.339	-0.297
-415.428	-90.320	0.083	-0.024
-414.413	-200.000	-0.058	-0.388
-413.398	-200.000	-0.017	-0.115
-412.384	83.351	0.133	0.144
-411.369	-104.768	-0.174	-0.040
-410.355	441.438	0.026	-0.056
-409.340	-200.000	0.061	0.441
-408.325	21.559	0.272	0.220
-407.311	-27.963	-0.255	0.147
-406.296	-200.000	-0.006	0.364
-405.282	-155.766	0.350	-0.022
-404.267	8.188	0.223	0.167
-403.252	800.000	0.122	0.435
-402.238	-109.947	-0.075	0.016
-401.223	48.839	-0.034	0.031
-400.209	645.509	-0.076	0.193
-399.194	69.615	0.155	-0.159
-398.179	800.000	0.059	0.164
-397.165	20.901	-0.109	-0.088
-396.150	-200.000	0.022	0.346
-395.136	111.188	-0.079	-0.095
-394.121	-119.279	0.299	0.052
-393.106	678.899	-0.099	-0.256
-392.092	-124.877	-0.276	0.042
-391.077	-78.027	0.023	-0.008
-390.063	154.952	-0.039	0.053
-389.048	-83.810	-0.417	0.132
-388.033	611.283	0.081	0.201
-387.019	-40.931	0.172	-0.089
-386.004	-95.013	0.245	0.066
-384.990	-120.487	0.379	0.064
-383.975	-103.835	0.261	-0.061
-382.960	-167.411	0.309	0.012
-381.946	800.000	0.067	0.254
-380.931	-82.921	-0.098	-0.031
-379.917	213.524	-0.113	0.177
-378.902	301.618	-0.066	-0.122
-377.888	143.108	0.113	-0.149
-376.873	-200.000	-0.073	-0.329
-375.858	-133.604	-0.260	0.032
-374.844	800.000	-0.084	0.248
-373.829	-32.192	-0.182	0.101
-372.815	199.406	-0.083	-0.126
-371.800	800.000	-0.087	0.290
-370.785	386.967	-0.225	-0.462
-369.771	-156.937	-0.039	0.002
-368.756	-96.951	-0.207	-0.054
-367.742	-36.034	-0.300	0.161
-366.727	356.596	-0.167	0.331
-365.712	-200.000	0.023	0.263
-364.698	-33.321	0.079	0.043
-363.683	19.005	0.228	0.182
-362.669	-135.072	0.244	0.029
-361.654	800.000	-0.020	0.075
-360.639	69.286	0.199	0.203
-359.625	-33.204	0.330	-0.182
-358.610	30.119	-0.263	0.223
-357.596	210.771	-0.144	-0.225
-356.581	-200.000	0.002	0.049
-355.566	425.849	-0.111	-0.238
-354.552	800.000	0.014	0.045
-353.537	-43.000	0.239	-0.120
-352.523	-74.665	0.121	0.043
-351.508	-9.212	-0.155	-0.103
-350.493	108.702	-0.239	-0.283
-349.479	490.203	0.053	-0.120
-348.464	31.427	-0.102	-0.087
-347.450	-181.097	-0.068	-0.001
-346.435	230.555	-0.156	0.254
-345.420	112.420	-0.259	0.311
-344.406	198.995	-0.115	-0.175
-343.391	-9.882	-0.139	0.092
-342.377	-106.820	0.373	0.082
-341.362	-92.277	-0.276	-0.077
-340.348	-28.130	0.110	-0.063
-339.333	6.735	-0.070	0.052
-338.318	-200.000	-0.058	-0.341
-337.304	225.656	0.096	0.154
-336.289	-200.000	-0.030	0.363
-335.275	218.596	0.089	-0.141
-334.260	500.824	-0.071	-0.163
-333.245	624.917	-0.070	-0.175
-332.231	477.686	-0.058	-0.131
-331.216	-11.189	0.218	-0.143
-330.202	-77.590	0.420	-0.144
-329.187	85.446	-0.141	0.153
-328.172	307.544	0.067	0.124
-327.158	-22.017	-0.086	0.052
-326.143	62.655	0.356	0.353
-325.129	55.756	-0.180	-0.173
-324.114	-27.269	0.139	-0.080
-323.099	181.471	0.034	-0.050
-322.085	127.628	-0.126	-0.158
-321.070	196.511	0.156	0.235
-320.056	167.448	-0.117	0.165
-319.041	-108.166	-0.339	0.073
-318.026	-120.774	0.082	-0.014
-317.012	-161.529	0.233	-0.012
-315.997	-89.686	-0.136	-0.040
-314.983	119.747	-0.133	-0.163
-313.968	137.921	0.221	-0.287
-312.953	244.491	0.107	-0.178
-311.939	-200.000	-0.017	-0.111
-310.924	-115.529	-0.170	-0.032
-309.910	42.367	-0.138	0.124
-308.895	-107.086	-0.139	-0.030
-307.880	290.966	-0.069	0.124
-306.866	800.000	-0.052	-0.200
-305.851	-45.694	-0.162	-0.079
-304.837	-102.465	-0.353	0.084
-303.822	134.388	-0.267	0.342
-302.807	-49.351	0.060	-0.028
-301.793	-200.000	0.007	0.114
-300.778	183.039	-0.116	-0.170
-299.764	-200.000	0.051	0.323
-298.749	-98.459	-0.066	0.017
-297.735	219.729	0.164	0.260
-296.720	-13.863	0.150	-0.096
-295.705	-28.397	-0.324	-0.185
-294.691	-200.000	0.002	0.248
-293.676	199.944	-0.125	-0.190
-292.662	8.749	-0.132	-0.099
-291.647	157.355	-0.244	-0.334
-290.632	-122.647	0.193	0.031
-289.618	474.904	-0.093	0.209
-288.603	-120.299	0.251	-0.042
-287.589	67.947	-0.069	0.070
-286.574	44.445	-0.274	0.249
-285.559	-6.363	0.226	-0.152
-284.545	-200.000	0.023	0.106
-283.530	-19.248	-0.062	0.038
-282.516	239.267	0.124	0.205
-281.501	-200.000	0.014	0.217
-280.486	-200.000	0.074	0.357
-279.472	-103.285	0.315	-0.074
-278.457	-23.802	-0.270	0.160
-277.443	800.000	0.048	0.131
-276.428	-37.821	-0.223	0.117
-275.413	2.640	0.343	0.246
-274.399	800.000	0.111	0.446
-273.384	-200.000	0.067	0.310
-272.370	-200.000	-0.025	0.179
-271.355	-64.253	-0.320	0.129
-270.340	252.183	-0.042	0.071
-269.326	-50.479	-0.210	-0.098
-268.311	31.827	0.222	-0.189
-267.297	263.495	-0.040	-0.069
-266.282	424.614	0.135	0.288
-265.267	71.219	0.147	0.150
-264.253	70.540	0.155	0.159
-263.238	176.173	-0.121	0.174
-262.224	-132.404	0.106	-0.014
-261.209	-200.000	-0.030	0.180
-260.195	800.000	0.036	-0.152
-259.180	-139.527	0.128	0.014
-258.165	-102.205	-0.429	-0.102
-257.151	1.372	0.219	-0.155
-256.136	-113.332	0.355	-0.069
-255.122	16.010	0.260	-0.202
-254.107	672.091	-0.095	0.244
-253.092	-200.000	0.004	-0.037
-252.078	616.361	-0.052	-0.130
-251.063	-32.001	0.183	-0.101
-250.049	800.000	0.076	-0.279
-249.034	-112.905	-0.215	0.042
-248.019	256.591	0.253	-0.430
-247.005	-18.926	0.116	0.071
-245.990	14.822	-0.259	0.200
-244.976	58.940	0.025	0.024
-243.961	396.737	-0.036	-0.074
-242.946	-190.645	-0.308	-0.003
-241.932	111.116	0.122	-0.145
-240.917	-171.126	0.200	0.007
-239.903	33.962	-0.093	-0.080
-238.888	-200.000	0.018	-0.105
-237.873	21.264	-0.093	-0.074
-236.859	-148.269	-0.445	0.036
-235.844	180.387	0.179	-0.259
-234.830	64.559	-0.248	0.247
-233.815	800.000	0.041	0.115
-232.800	800.000	0.054	-0.176
-231.786	535.576	0.088	-0.205
-230.771	-122.550	-0.106	0.017
-229.757	800.000	-0.015	-0.045
-228.742	-97.745	-0.086	0.022
-227.727	733.874	-0.092	0.243
-226.713	-200.000	0.026	0.295
-225.698	39.176	0.094	-0.083
-224.684	800.000	0.071	0.298
-223.669	629.703	-0.088	-0.220
-222.655	13.455	0.211	0.161
-221.640	-62.724	0.252	-0.103
-220.625	-33.719	-0.212	0.115
-219.611	-55.264	-0.197	0.087
-218.596	96.241	-0.032	-0.036
-217.582	218.919	-0.142	-0.224
-216.567	-53.796	0.306	-0.138
-215.552	-200.000	-0.004	-0.276
-214.538	-200.000	-0.052	-0.483
-213.523	-200.000	0.055	0.243
-212.509	-77.667	0.295	-0.101
-211.494	-24.984	0.063	0.037
-210.479	238.341	0.061	0.101
-209.465	137.316	-0.066	-0.085
-208.450	-200.000	0.028	-0.132
-207.436	-200.000	0.003	-0.136
-206.421	91.279	-0.321	0.355
-205.406	645.600	0.056	-0.140
-204.392	-176.778	0.166	0.004
-203.377	800.000	0.116	-0.369
-202.363	64.164	-0.108	-0.107
-201.348	128.918	0.178	0.224
-200.333	48.019	0.235	-0.217
-199.319	-44.655	-0.080	0.039
-198.304	169.061	-0.160	-0.225
-197.290	800.000	0.115	-0.337
-196.275	-105.831	-0.308	0.069
-195.260	59.918	0.349	-0.340
-194.246	800.000	0.057	0.223
-193.231	-200.000	0.039	-0.315
-192.217	603.282	-0.097	0.239
-191.202	-200.000	0.046	0.305
-190.187	-200.000	0.011	-0.063
-189.173	-153.649	0.316	0.021
-188.158	360.761	0.033	-0.064
-187.144	-200.000	0.006	-0.047
-186.129	37.528	-0.122	-0.107
-185.114	-200.000	0.030	0.167
-184.100	-200.000	-0.002	0.153
-183.085	183.686	-0.050	0.073
-182.071	-46.043	-0.169	-0.082
-181.056	417.832	-0.086	-0.181
-180.042	-200.000	-0.018	-0.178
-179.027	306.119	0.163	-0.299
-178.012	-105.065	0.095	-0.022
-176.998	68.620	-0.221	-0.223
-175.983	-178.053	0.159	0.004
-174.969	19.967	-0.168	-0.133
-173.954	-160.865	-0.285	0.015
-172.939	-62.013	0.232	-0.095
-171.925	-200.000	-0.108	-0.509
-170.910	-81.513	0.093	0.030
-169.896	-36.298	-0.201	-0.107
-168.881	-200.000	-0.029	-0.158
-167.866	121.841	0.290	-0.357
-166.852	-200.000	0.063	-0.336
-165.837	-44.067	0.082	-0.041
-164.823	-51.198	-0.208	0.096
-163.808	-44.773	-0.302	0.149
-162.793	-19.784	-0.105	-0.064
-161.779	-154.098	-0.209	-0.014
-160.764	138.043	-0.127	-0.164
-159.750	5.827	-0.325	0.237
-158.735	-90.444	0.326	-0.093
-157.720	88.066	0.130	-0.143
-156.706	800.000	0.017	-0.070
-155.691	-34.021	-0.272	-0.147
-154.677	260.132	0.237	-0.403
-153.662	7.273	-0.095	-0.070
-152.647	-23.778	-0.151	-0.089
-151.633	474.929	-0.096	0.213
-150.618	29.461	0.211	0.177
-149.604	-41.803	0.376	0.190
-148.589	-21.111	-0.151	0.091
-147.574	-80.714	-0.221	0.072
-146.560	80.380	0.136	-0.144
-145.545	-51.767	-0.281	0.129
-144.531	-54.196	-0.387	0.173
-143.516	-153.274	-0.119	0.008
-142.502	-147.201	0.203	0.017
-141.487	-39.083	-0.071	0.037
-140.472	-46.209	0.151	-0.073
-139.458	-66.998	0.223	0.087
-138.443	-154.211	-0.049	0.003
-137.429	-46.960	0.283	-0.136
-136.414	-147.928	-0.188	-0.015
-135.399	-4.555	0.205	-0.139
-134.385	10.158	0.316	-0.236
-133.370	-71.274	-0.353	0.130
-132.356	643.134	0.066	-0.166
-131.341	-200.000	-0.021	-0.146
-130.326	-200.000	-0.019	0.104
-129.312	336.849	-0.115	0.220
-128.297	-200.000	0.028	0.170
-127.283	-200.000	-0.016	0.411
-126.268	800.000	0.083	0.231
-125.253	-108.438	0.307	0.065
-124.239	-200.000	0.005	-0.203
-123.224	48.255	0.224	-0.206
-122.210	-200.000	-0.005	-0.257
