DTS Sentinel unit serial number:	SN413079Multiplexer serial number:	ORYXHardware model number:	OX4-SRSoftware version number:	ORYX F/W v4.00 Oryx Data Collector v3.7.2.0data status	okinstallation	princeton_trtdifferential loss correction	single-endedforward channel	channel 1reverse channel	N/Adate	2019/09/14time	10:50:35forward acquisition time	60.00reverse acquisition time	0.00gamma	496.2192k internal	0.2301k external	0.2301temperature offset calibration	1.0078default loss term (dB/km)	0.3790temperature slope calibration	1.0000multiplexer offset coefficient	1.0000multiplexer slope coefficient	1.0000fibre end	0.00T internal ref (°C)	35.62T ext. ref 1 (°C)	4.32T ext. ref 2 (°C)	32.92length (m)	temperature (°C)	Stokes	anti-Stokes-747.200	-70.044	-0.152	0.059
-746.185	6.272	-0.095	0.072
-745.171	-81.189	0.383	0.129
-744.156	-103.991	0.103	-0.025
-743.142	-200.000	0.035	0.407
-742.127	81.476	-0.066	-0.073
-741.112	-132.548	0.322	-0.042
-740.098	16.925	0.226	-0.183
-739.083	787.308	-0.055	-0.154
-738.069	-106.078	-0.307	-0.070
-737.054	800.000	0.011	0.043
-736.039	19.045	0.151	0.123
-735.025	87.771	0.199	-0.225
-734.010	-200.000	-0.026	-0.365
-732.996	28.659	-0.131	0.113
-731.981	-25.951	0.182	0.109
-730.966	146.978	-0.114	-0.156
-729.952	-200.000	-0.017	0.354
-728.937	-10.748	-0.353	-0.238
-727.923	800.000	0.137	-0.563
-726.908	-200.000	0.042	-0.312
-725.894	-133.615	-0.326	0.042
-724.879	-64.813	0.152	-0.063
-723.864	-116.159	0.085	-0.016
-722.850	144.861	0.185	-0.252
-721.835	800.000	-0.053	0.217
-720.821	800.000	0.052	0.158
-719.806	200.459	0.055	-0.086
-718.791	-200.000	-0.037	0.179
-717.777	-115.184	0.171	-0.033
-716.762	-200.000	0.033	-0.151
-715.748	-13.898	-0.101	-0.067
-714.733	-106.945	-0.093	-0.021
-713.718	580.479	-0.104	-0.258
-712.704	-200.000	0.055	-0.460
-711.689	-200.000	0.025	-0.462
-710.675	30.310	0.152	-0.132
-709.660	-193.579	0.284	0.002
-708.645	800.000	0.070	0.202
-707.631	332.725	-0.067	-0.132
-706.616	77.249	-0.132	-0.143
-705.602	-101.229	0.290	-0.072
-704.587	-200.000	0.006	-0.050
-703.572	-31.458	-0.232	0.133
-702.558	-143.649	-0.256	-0.025
-701.543	63.153	0.212	0.216
-700.529	10.413	0.272	0.211
-699.514	161.220	0.189	-0.269
-698.499	-81.390	-0.195	0.066
-697.485	-36.737	0.249	-0.136
-696.470	68.869	0.125	0.130
-695.456	-12.416	-0.283	-0.188
-694.441	-111.967	0.124	-0.025
-693.426	110.872	0.228	0.279
-692.412	-200.000	0.048	-0.434
-691.397	-146.896	0.176	0.015
-690.383	-200.000	-0.029	-0.158
-689.368	800.000	0.057	0.171
-688.354	-200.000	-0.027	0.159
-687.339	-200.000	-0.044	-0.543
-686.324	463.972	0.041	-0.094
-685.310	798.065	-0.125	0.351
-684.295	-145.678	0.072	0.007
-683.281	-200.000	0.016	-0.198
-682.266	-3.155	0.081	-0.057
-681.251	170.844	-0.195	-0.284
-680.237	-81.605	0.269	0.090
-679.222	-157.004	-0.207	0.013
-678.208	-200.000	0.043	-0.229
-677.193	242.353	0.061	0.104
-676.178	-135.109	0.283	0.035
-675.164	-134.860	0.243	0.030
-674.149	541.553	0.088	-0.213
-673.135	353.030	0.206	-0.416
-672.120	28.068	-0.228	-0.195
-671.105	17.719	-0.294	-0.238
-670.091	159.455	0.048	-0.068
-669.076	-200.000	-0.011	-0.162
-668.062	260.438	0.089	-0.156
-667.047	-96.046	0.511	-0.138
-666.032	800.000	0.024	0.099
-665.018	-75.722	0.175	0.063
-664.003	-200.000	0.004	0.021
-662.989	327.341	0.041	0.079
-661.974	-86.870	-0.078	0.024
-660.959	-163.118	-0.474	-0.023
-659.945	-45.318	-0.084	-0.042
-658.930	142.796	-0.004	-0.005
-657.916	305.270	-0.201	0.379
-656.901	119.962	-0.131	0.165
-655.886	399.124	-0.068	-0.144
-654.872	-20.568	0.153	-0.095
-653.857	-200.000	0.010	0.216
-652.843	-14.327	-0.107	0.070
-651.828	800.000	-0.067	0.201
-650.814	-39.707	0.152	0.081
-649.799	380.773	-0.008	-0.016
-648.784	156.293	0.131	-0.184
-647.770	115.924	-0.149	-0.185
-646.755	-46.820	0.017	-0.009
-645.741	-155.342	-0.279	-0.018
-644.726	-198.161	0.207	-0.001
-643.711	800.000	-0.094	0.332
-642.697	193.761	-0.059	-0.090
-641.682	-158.400	-0.524	-0.031
-640.668	-48.579	-0.503	0.246
-639.653	-200.000	0.023	0.144
-638.638	36.342	0.114	-0.102
-637.624	539.095	-0.168	-0.406
-636.609	187.660	-0.051	-0.077
-635.595	800.000	0.100	-0.336
-634.580	800.000	0.099	0.316
-633.565	404.395	-0.043	-0.093
-632.551	308.433	-0.214	-0.405
-631.536	-107.064	-0.121	0.027
-630.522	450.191	0.120	-0.269
-629.507	16.995	0.209	-0.168
-628.492	-200.000	-0.021	0.217
-627.478	-200.000	0.033	0.211
-626.463	800.000	-0.136	0.407
-625.449	800.000	0.050	0.159
-624.434	20.466	0.131	-0.107
-623.419	298.474	-0.163	-0.304
-622.405	-180.941	-0.387	-0.008
-621.390	-200.000	-0.015	-0.220
-620.376	2.986	0.119	0.088
-619.361	-200.000	0.030	-0.423
-618.346	-165.928	0.129	0.006
-617.332	-130.381	-0.032	-0.004
-616.317	240.726	0.137	0.231
-615.303	-200.000	0.011	0.275
-614.288	101.743	0.096	0.114
-613.273	-121.008	0.131	-0.022
-612.259	-200.000	-0.002	0.027
-611.244	-126.423	-0.036	-0.005
-610.230	-59.245	-0.303	0.132
-609.215	-200.000	-0.019	-0.188
-608.201	-123.345	0.192	0.031
-607.186	-200.000	-0.021	0.123
-606.171	56.663	-0.183	0.180
-605.157	-150.464	0.278	-0.022
-604.142	-184.995	0.379	0.006
-603.128	-200.000	0.021	-0.135
-602.113	121.640	-0.136	-0.173
-601.098	511.614	0.100	0.237
-600.084	800.000	0.104	0.360
-599.069	-96.085	-0.096	-0.026
-598.055	-93.223	0.047	0.013
-597.040	130.544	-0.222	-0.289
-596.025	413.176	-0.142	0.305
-595.011	-141.943	0.185	0.019
-593.996	-72.365	-0.182	0.068
-592.982	-200.000	0.001	-0.194
-591.967	23.307	-0.023	-0.019
-590.952	119.488	0.035	-0.044
-589.938	118.180	0.124	-0.155
-588.923	-107.062	-0.401	-0.090
-587.909	-51.852	-0.377	-0.178
-586.894	44.997	0.222	-0.207
-585.879	-102.731	0.192	-0.046
-584.865	-200.000	0.001	0.112
-583.850	37.488	-0.055	-0.049
-582.836	-118.027	-0.213	0.039
-581.821	372.534	-0.147	-0.303
-580.806	-200.000	-0.021	-0.362
-579.792	96.014	0.144	0.166
-578.777	-200.000	-0.006	-0.029
-577.763	-200.000	0.046	-0.592
-576.748	197.850	0.160	-0.248
-575.733	297.749	-0.158	0.294
-574.719	93.800	-0.146	0.168
-573.704	422.791	-0.142	0.309
-572.690	800.000	0.027	0.081
-571.675	-200.000	-0.063	0.369
-570.661	2.706	0.142	-0.104
-569.646	-200.000	0.016	-0.119
-568.631	121.447	0.151	-0.191
-567.617	-200.000	-0.005	-0.096
-566.602	-145.923	-0.286	-0.026
-565.588	129.820	-0.076	0.098
-564.573	-200.000	0.018	0.225
-563.558	-31.824	-0.098	0.055
-562.544	102.935	-0.025	0.030
-561.529	-200.000	-0.046	0.312
-560.515	44.305	-0.126	-0.117
-559.500	467.075	0.073	-0.166
-558.485	142.048	-0.152	0.204
-557.471	379.607	0.022	0.046
-556.456	59.860	-0.124	0.124
-555.442	159.017	-0.207	0.291
-554.427	-11.394	-0.160	0.107
-553.412	-80.787	0.274	-0.092
-552.398	-200.000	0.077	-0.352
-551.383	554.101	-0.056	-0.136
-550.369	104.608	0.161	-0.191
-549.354	800.000	-0.106	-0.317
-548.339	-117.747	0.291	-0.053
-547.325	161.159	0.186	-0.263
-546.310	-85.103	-0.216	-0.068
-545.296	-80.488	0.217	0.073
-544.281	274.021	-0.036	-0.064
-543.266	42.913	0.234	0.216
-542.252	-200.000	0.034	0.506
-541.237	-200.000	0.028	-0.165
-540.223	235.362	-0.106	-0.177
-539.208	164.582	0.084	-0.120
-538.193	319.432	-0.028	0.053
-537.179	8.228	-0.335	0.254
-536.164	-55.348	-0.060	0.027
-535.150	207.477	-0.122	0.193
-534.135	-37.763	0.336	0.181
-533.121	122.391	-0.166	0.210
-532.106	-30.047	-0.148	-0.085
-531.091	44.015	0.154	0.142
-530.077	-200.000	0.029	0.145
-529.062	-31.146	0.147	0.084
-528.048	-51.682	-0.255	0.120
-527.033	-200.000	-0.000	0.138
-526.018	59.885	-0.044	0.044
-525.004	-5.432	0.165	-0.115
-523.989	31.605	0.022	-0.019
-522.975	588.770	-0.054	0.135
-521.960	-147.892	0.219	0.018
-520.945	-108.810	-0.305	-0.066
-519.931	-74.662	0.171	-0.062
-518.916	48.512	-0.104	-0.099
-517.902	-200.000	-0.068	0.320
-516.887	-11.969	-0.245	0.162
-515.872	9.071	0.186	0.142
-514.858	536.934	-0.131	-0.314
-513.843	-110.224	0.052	0.011
-512.829	-200.000	0.013	-0.104
-511.814	800.000	0.071	0.291
-510.799	800.000	0.082	0.261
-509.785	11.921	-0.121	-0.094
-508.770	-25.203	-0.113	-0.067
-507.756	800.000	-0.026	-0.076
-506.741	-200.000	0.011	0.333
-505.726	-115.591	-0.200	0.038
-504.712	-51.365	0.153	0.072
-503.697	800.000	0.042	-0.128
-502.683	800.000	0.066	-0.294
-501.668	-44.706	-0.069	-0.035
-500.653	266.072	-0.240	-0.422
-499.639	800.000	0.050	-0.193
-498.624	95.511	-0.069	-0.080
-497.610	-101.598	-0.196	0.048
-496.595	-83.704	-0.120	-0.039
-495.581	32.819	-0.136	0.119
-494.566	-200.000	0.008	0.075
-493.551	-104.326	-0.092	-0.022
-492.537	-200.000	-0.472	0.000
-491.522	-96.559	0.454	0.121
-490.508	-32.557	0.264	0.149
-489.493	15.151	-0.237	0.188
-488.478	57.743	0.188	-0.185
-487.464	444.432	0.072	-0.159
-486.449	-200.000	0.016	-0.242
-485.435	70.250	-0.081	-0.084
-484.420	-44.255	0.090	-0.046
-483.405	-63.471	-0.220	-0.091
-482.391	-200.000	0.058	0.286
-481.376	-90.133	0.301	-0.088
-480.362	-8.558	0.064	0.043
-479.347	10.224	-0.148	0.114
-478.332	150.092	-0.131	-0.180
-477.318	-16.899	0.302	-0.193
-476.303	284.011	-0.096	-0.174
-475.289	39.936	-0.194	0.176
-474.274	800.000	-0.011	-0.050
-473.259	27.344	0.096	-0.082
-472.245	-111.727	-0.148	0.030
-471.230	-5.129	0.309	-0.215
-470.216	-200.000	0.018	0.201
-469.201	-169.490	-0.116	-0.004
-468.186	-169.644	0.391	-0.014
-467.172	-109.082	-0.401	-0.086
-466.157	341.269	0.157	0.309
-465.143	-200.000	-0.008	0.056
-464.128	49.389	0.028	0.027
-463.113	-67.765	-0.137	0.054
-462.099	800.000	0.112	-0.335
-461.084	-106.880	0.485	-0.108
-460.070	800.000	-0.030	-0.106
-459.055	-200.000	0.021	-0.424
-458.040	-43.702	0.112	-0.057
-457.026	800.000	-0.024	-0.089
-456.011	171.829	0.048	-0.070
-454.997	749.151	0.079	0.215
-453.982	59.907	-0.080	-0.080
-452.968	26.540	0.203	0.171
-451.953	110.155	-0.065	0.079
-450.938	-68.951	-0.213	-0.083
-449.924	-34.536	-0.310	0.171
-448.909	-91.090	0.324	0.094
-447.895	-140.774	0.165	0.017
-446.880	-200.000	0.009	-0.082
-445.865	-36.660	0.095	0.051
-444.851	638.527	-0.115	0.294
-443.836	200.961	0.101	-0.157
-442.822	-29.925	-0.319	-0.183
-441.807	-38.547	0.384	-0.205
-440.792	-97.820	0.158	0.041
-439.778	-43.301	-0.136	0.069
-438.763	800.000	0.069	0.262
-437.749	119.373	-0.140	0.175
-436.734	152.338	0.096	-0.132
-435.719	-101.398	-0.165	0.041
-434.705	262.427	0.123	-0.215
-433.690	-121.282	-0.118	-0.020
-432.676	-12.412	-0.125	0.082
-431.661	-200.000	-0.013	0.095
-430.646	-122.361	0.129	-0.021
-429.632	-49.342	0.179	-0.086
-428.617	-200.000	-0.030	0.264
-427.603	-50.196	-0.077	0.037
-426.588	800.000	-0.084	-0.265
-425.573	-96.460	-0.214	-0.057
-424.559	-92.042	0.087	0.025
-423.544	209.252	0.152	-0.239
-422.530	86.786	0.165	-0.183
-421.515	-146.355	0.206	-0.018
-420.500	-89.732	0.020	0.006
-419.486	-101.159	0.296	-0.073
-418.471	-79.642	-0.279	0.095
-417.457	800.000	0.057	0.175
-416.442	87.383	0.109	-0.122
-415.428	65.507	-0.047	0.048
-414.413	267.050	-0.213	0.375
-413.398	800.000	0.041	0.171
-412.384	-120.564	0.448	0.076
-411.369	243.421	0.074	-0.125
-410.355	-147.151	0.247	-0.021
-409.340	23.335	-0.256	0.212
-408.325	800.000	-0.066	-0.195
-407.311	32.370	-0.162	-0.141
-406.296	-100.408	-0.304	-0.076
-405.282	-38.811	0.246	0.131
-404.267	580.437	0.185	0.457
-403.252	280.586	-0.142	-0.256
-402.238	-52.120	0.177	-0.083
-401.223	-4.224	-0.074	0.052
-400.209	800.000	0.082	-0.287
-399.194	-125.196	0.364	-0.056
-398.179	-200.000	0.052	0.295
-397.165	-81.570	-0.264	0.087
-396.150	-200.000	-0.027	0.227
-395.136	-13.301	0.235	0.153
-394.121	40.040	0.237	-0.214
-393.106	22.473	0.095	-0.078
-392.092	14.134	0.186	0.146
-391.077	-50.693	-0.127	0.060
-390.063	-113.510	0.379	-0.075
-389.048	-200.000	-0.019	0.119
-388.033	591.066	-0.082	-0.204
-387.019	-138.474	0.422	-0.047
-386.004	-25.043	-0.228	0.136
-384.990	31.267	-0.100	0.086
-383.975	45.944	0.120	0.111
-382.960	45.813	-0.135	0.126
-381.946	154.977	-0.078	0.108
-380.931	-161.273	0.152	-0.008
-379.917	-126.184	-0.221	0.033
-378.902	618.569	-0.082	0.206
-377.888	-87.811	-0.054	-0.016
-376.873	800.000	0.057	0.209
-375.858	-200.000	-0.033	0.351
-374.844	-23.211	-0.116	-0.070
-373.829	548.785	-0.015	0.035
-372.815	-200.000	0.005	-0.132
-371.800	-200.000	-0.036	-0.188
-370.785	140.850	-0.107	0.142
-369.771	-62.909	-0.140	0.058
-368.756	-53.769	-0.068	-0.031
-367.742	11.536	-0.109	0.084
-366.727	-200.000	-0.047	-0.284
-365.712	-200.000	-0.002	0.126
-364.698	-174.610	-0.105	-0.003
-363.683	12.089	-0.227	0.176
-362.669	-24.743	-0.138	-0.082
-361.654	87.589	0.032	-0.036
-360.639	51.237	0.118	-0.112
-359.625	177.882	-0.228	0.335
-358.610	52.183	0.217	-0.207
-357.596	800.000	-0.094	0.277
-356.581	-200.000	-0.076	0.357
-355.566	800.000	0.058	0.192
-354.552	21.269	-0.203	-0.166
-353.537	86.328	0.187	0.207
-352.523	-145.549	0.282	0.025
-351.508	79.457	-0.207	0.223
-350.493	-53.370	-0.149	0.069
-349.479	-149.252	-0.377	0.030
-348.464	-116.198	0.358	-0.067
-347.450	32.192	0.149	-0.129
-346.435	-200.000	-0.014	0.095
-345.420	-74.340	-0.392	0.142
-344.406	-20.649	-0.070	0.043
-343.391	22.564	0.157	0.129
-342.377	-130.856	0.295	-0.040
-341.362	411.883	0.116	-0.246
-340.348	800.000	0.046	-0.165
-339.333	2.294	0.194	0.140
-338.318	-19.609	-0.144	-0.089
-337.304	-200.000	0.018	-0.331
-336.289	-57.213	-0.045	0.020
-335.275	-200.000	-0.040	-0.608
-334.260	-76.332	0.272	0.096
-333.245	242.431	0.071	0.119
-332.231	800.000	-0.078	-0.292
-331.216	413.639	-0.142	-0.303
-330.202	51.493	0.250	0.238
-329.187	-164.298	0.181	0.008
-328.172	-63.662	-0.175	0.072
-327.158	-28.657	-0.164	-0.095
-326.143	64.343	0.165	0.166
-325.129	336.139	0.026	0.051
-324.114	-38.388	0.203	-0.108
-323.099	38.019	-0.113	0.101
-322.085	107.578	0.184	-0.220
-321.070	438.012	-0.162	-0.353
-320.056	6.327	0.103	-0.077
-319.041	-31.468	0.220	-0.124
-318.026	-134.627	-0.400	-0.049
-317.012	45.342	0.171	0.158
-315.997	-200.000	-0.060	-0.301
-314.983	18.299	-0.074	0.059
-313.968	-130.237	-0.220	0.030
-312.953	177.608	-0.100	-0.146
-311.939	18.240	-0.196	0.157
-310.924	-136.714	-0.084	0.010
-309.910	149.124	-0.173	0.235
-308.895	730.727	0.099	0.265
-307.880	444.571	0.043	-0.094
-306.866	-34.183	-0.070	-0.039
-305.851	-69.880	-0.201	-0.077
-304.837	-200.000	0.058	-0.308
-303.822	-200.000	0.076	0.472
-302.807	11.397	0.196	0.151
-301.793	25.931	0.223	0.186
-300.778	800.000	-0.020	0.074
-299.764	-4.381	-0.214	-0.148
-298.749	374.035	0.138	0.281
-297.735	44.178	-0.279	0.257
-296.720	-200.000	0.000	0.346
-295.705	37.746	-0.027	-0.024
-294.691	-60.976	0.178	0.076
-293.676	-118.775	-0.483	0.085
-292.662	800.000	-0.072	0.202
-291.647	-28.854	0.333	-0.192
-290.632	800.000	0.081	-0.236
-289.618	-51.511	0.362	0.169
-288.603	-93.960	0.152	-0.042
-287.589	124.596	-0.068	-0.085
-286.574	-51.237	-0.183	0.086
-285.559	79.963	0.108	0.116
-284.545	658.055	-0.104	-0.267
-283.530	-88.463	-0.212	0.063
-282.516	-85.068	0.372	0.117
-281.501	418.708	0.068	0.146
-280.486	52.683	-0.122	0.117
-279.472	237.368	0.192	-0.319
-278.457	-115.095	0.155	0.029
-277.443	18.206	0.208	-0.166
-276.428	-93.470	0.164	-0.045
-275.413	-73.244	-0.093	-0.034
-274.399	162.982	0.049	-0.069
-273.384	-128.529	-0.236	0.034
-272.370	658.252	-0.030	-0.078
-271.355	-200.000	0.027	0.143
-270.340	-6.315	0.195	0.133
-269.326	85.056	0.207	-0.228
-268.311	800.000	0.114	-0.351
-267.297	800.000	-0.018	0.054
-266.282	223.512	0.162	0.262
-265.267	-36.862	0.193	0.104
-264.253	800.000	0.091	0.385
-263.238	-35.864	-0.283	0.153
-262.224	-94.414	-0.102	0.028
-261.209	-61.954	-0.472	-0.197
-260.195	349.084	-0.103	-0.204
-259.180	800.000	-0.088	0.344
-258.165	-91.246	-0.194	0.055
-257.151	-91.879	0.139	0.039
-256.136	699.485	-0.048	-0.127
-255.122	488.840	-0.149	0.341
-254.107	30.996	-0.118	-0.101
-253.092	800.000	-0.047	0.172
-252.078	-112.612	0.202	0.040
-251.063	36.624	-0.114	0.101
-250.049	544.101	0.007	0.016
-249.034	-113.678	0.029	-0.006
-248.019	29.868	0.084	-0.071
-247.005	-131.981	-0.069	0.009
-245.990	-122.492	-0.232	-0.038
-244.976	349.349	0.094	-0.186
-243.961	-200.000	0.011	0.175
-242.946	-29.857	-0.224	-0.128
-241.932	-94.091	-0.235	-0.064
-240.917	-78.748	0.264	0.090
-239.903	-15.547	-0.010	0.006
-238.888	48.258	0.053	-0.050
-237.873	180.532	-0.180	0.264
-236.859	30.974	-0.059	0.051
-235.844	551.737	0.156	0.374
-234.830	800.000	0.067	0.189
-233.815	200.409	-0.167	-0.257
-232.800	2.634	0.285	-0.207
-231.786	542.460	-0.120	-0.286
-230.771	-28.526	-0.348	0.200
-229.757	-106.081	0.160	0.036
-228.742	-119.748	-0.187	-0.032
-227.727	-99.232	-0.265	-0.067
-226.713	43.874	0.154	0.141
-225.698	-200.000	-0.016	0.155
-224.684	-113.444	0.155	-0.030
-223.669	35.992	-0.116	0.102
-222.655	-200.000	-0.020	-0.132
-221.640	469.371	0.115	-0.259
-220.625	-200.000	-0.015	-0.229
-219.611	-200.000	-0.048	-0.257
-218.596	-200.000	-0.020	0.321
-217.582	204.012	0.165	0.255
-216.567	310.168	0.105	-0.196
-215.552	-65.584	0.222	-0.089
-214.538	283.843	0.140	-0.251
-213.523	278.436	0.199	0.355
-212.509	-38.239	-0.188	-0.099
-211.494	-66.776	0.207	0.082
-210.479	177.130	0.135	0.196
-209.465	-200.000	-0.026	0.290
-208.450	553.173	-0.069	0.165
-207.436	-200.000	-0.037	-0.337
-206.421	74.899	0.217	-0.228
-205.406	-59.752	0.161	-0.069
-204.392	144.956	0.169	-0.225
-203.377	-138.610	0.220	0.024
-202.363	-200.000	-0.039	-0.235
-201.348	-200.000	0.003	0.045
-200.333	358.984	0.029	0.057
-199.319	185.054	0.148	-0.219
-198.304	51.233	0.196	0.186
-197.290	-200.000	0.022	0.170
-196.275	-129.787	0.133	-0.018
-195.260	41.473	-0.055	-0.050
-194.246	800.000	0.231	-0.645
-193.231	44.597	-0.252	0.231
-192.217	-89.889	-0.205	0.060
-191.202	-137.682	0.273	0.031
-190.187	-200.000	-0.023	-0.107
-189.173	458.665	0.057	-0.127
-188.158	329.090	-0.035	0.068
-187.144	60.494	-0.141	0.139
-186.129	-178.581	-0.415	-0.010
-185.114	303.400	-0.102	-0.189
-184.100	-98.880	-0.284	-0.072
-183.085	90.468	-0.194	0.217
-182.071	381.854	-0.201	-0.411
-181.056	58.158	0.128	-0.125
-180.042	114.529	-0.202	-0.246
-179.027	94.643	0.232	0.263
-178.012	63.578	0.332	0.332
-176.998	53.923	0.411	0.394
-175.983	527.776	0.113	-0.266
-174.969	64.710	0.240	-0.241
-173.954	-108.973	0.122	0.026
-172.939	-161.317	0.140	-0.007
-171.925	560.312	-0.132	-0.317
-170.910	-27.928	-0.235	0.136
-169.896	-200.000	-0.060	-0.551
-168.881	80.618	0.157	-0.169
-167.866	-76.400	0.309	-0.109
-166.852	48.241	-0.112	-0.105
-165.837	-144.419	0.127	-0.012
-164.823	203.249	-0.082	0.126
-163.808	376.242	0.122	0.249
-162.793	172.498	0.092	-0.132
-161.779	-4.985	0.209	-0.144
-160.764	109.905	-0.174	0.208
-159.750	106.601	-0.047	0.056
-158.735	-111.517	-0.413	-0.084
-157.720	-200.000	0.072	0.382
-156.706	108.715	-0.198	-0.236
-155.691	183.684	-0.060	-0.088
-154.677	800.000	-0.069	-0.267
-153.662	-3.396	0.050	0.035
-152.647	313.708	-0.151	-0.282
-151.633	47.121	0.048	0.045
-150.618	-200.000	0.048	0.394
-149.604	172.900	-0.185	-0.266
-148.589	177.059	0.150	0.217
-147.574	-32.820	0.220	0.122
-146.560	-33.548	0.253	0.139
-145.545	-200.000	-0.038	-0.186
-144.531	800.000	0.035	0.110
-143.516	-21.678	-0.025	-0.015
-142.502	-200.000	-0.034	0.266
-141.487	44.238	0.344	0.314
-140.472	92.064	0.210	-0.235
-139.458	-105.764	-0.086	0.019
-138.443	464.562	0.147	0.326
-137.429	-2.350	-0.223	-0.155
-136.414	-26.687	0.162	0.094
-135.399	-57.405	-0.176	0.077
-134.385	-1.528	0.264	0.185
-133.370	800.000	-0.009	0.028
-132.356	800.000	0.079	0.261
-131.341	800.000	-0.013	0.046
-130.326	-46.770	-0.175	0.085
-129.312	-26.680	-0.131	0.076
-128.297	768.420	0.088	0.238
-127.283	800.000	-0.075	-0.211
-126.268	35.922	0.194	0.170
-125.253	-10.010	-0.139	0.092
-124.239	800.000	0.068	0.199
-123.224	-200.000	0.002	0.080
-122.210	-200.000	-0.063	0.377
-121.195	684.341	0.124	0.323
-120.180	-34.114	0.335	-0.183
