DTS Sentinel unit serial number:	SN413079Multiplexer serial number:	ORYXHardware model number:	OX4-SRSoftware version number:	ORYX F/W v4.00 Oryx Data Collector v3.7.2.0data status	okinstallation	princeton_trtdifferential loss correction	single-endedforward channel	channel 1reverse channel	N/Adate	2019/09/18time	09:58:35forward acquisition time	60.00reverse acquisition time	0.00gamma	496.2192k internal	0.2330k external	0.2330temperature offset calibration	0.9973default loss term (dB/km)	0.3790temperature slope calibration	1.0000multiplexer offset coefficient	1.0000multiplexer slope coefficient	1.0000fibre end	0.00T internal ref (°C)	27.39T ext. ref 1 (°C)	0.31T ext. ref 2 (°C)	24.04length (m)	temperature (°C)	Stokes	anti-Stokes-747.200	-200.000	-0.004	0.211
-746.185	800.000	-0.046	0.143
-745.171	-70.996	-0.287	0.109
-744.156	124.216	-0.095	0.120
-743.142	-21.768	0.147	0.090
-742.127	-191.615	0.099	0.001
-741.112	-46.986	0.265	-0.130
-740.098	-200.000	-0.013	0.193
-739.083	366.846	-0.055	0.111
-738.069	90.627	0.058	0.065
-737.054	-66.005	0.244	0.098
-736.039	-15.764	-0.182	-0.117
-735.025	-166.684	0.085	0.004
-734.010	800.000	0.090	-0.366
-732.996	-129.056	-0.351	0.049
-731.981	-35.851	-0.147	-0.080
-730.966	279.950	-0.085	0.152
-729.952	202.047	-0.119	0.185
-728.937	49.919	0.224	-0.213
-727.923	-188.529	0.174	0.002
-726.908	8.450	-0.253	0.192
-725.894	-64.248	-0.288	-0.118
-724.879	-37.807	0.321	-0.172
-723.864	-104.023	-0.176	-0.041
-722.850	108.712	0.080	0.096
-721.835	-95.212	-0.191	0.052
-720.821	-53.424	0.328	0.151
-719.806	-100.930	0.205	0.051
-718.791	800.000	0.023	-0.070
-717.777	-114.411	-0.227	-0.044
-716.762	-200.000	-0.030	-0.390
-715.748	800.000	0.071	-0.227
-714.733	586.156	0.103	-0.256
-713.718	-200.000	0.094	-0.429
-712.704	419.280	0.070	-0.151
-711.689	145.451	0.058	0.078
-710.675	800.000	-0.058	0.234
-709.660	800.000	-0.046	0.143
-708.645	37.078	-0.295	-0.263
-707.631	-200.000	0.043	0.239
-706.616	486.168	-0.094	0.216
-705.602	800.000	0.022	0.063
-704.587	800.000	0.052	0.147
-703.572	-2.085	0.138	0.098
-702.558	-16.590	0.051	-0.033
-701.543	150.722	-0.142	-0.195
-700.529	-117.458	0.141	0.026
-699.514	93.725	-0.175	0.199
-698.499	4.275	0.112	0.083
-697.485	-27.630	-0.048	0.028
-696.470	111.412	-0.190	-0.231
-695.456	32.475	0.202	-0.175
-694.441	-68.627	-0.136	0.053
-693.426	56.407	0.116	0.113
-692.412	-151.699	0.077	-0.006
-691.397	-200.000	-0.028	-0.279
-690.383	9.730	-0.126	-0.096
-689.368	-120.542	-0.099	-0.017
-688.354	-200.000	-0.010	0.445
-687.339	84.789	-0.271	-0.298
-686.324	-200.000	0.030	-0.184
-685.310	7.248	-0.236	-0.177
-684.295	21.884	0.156	-0.127
-683.281	30.175	-0.122	-0.105
-682.266	-55.425	0.280	0.126
-681.251	102.091	-0.126	-0.147
-680.237	800.000	0.067	0.246
-679.222	-200.000	-0.044	0.192
-678.208	130.521	0.211	-0.271
-677.193	147.494	0.225	-0.304
-676.178	-46.982	0.052	0.026
-675.164	-110.670	-0.339	-0.070
-674.149	-54.778	0.135	-0.061
-673.135	-15.410	0.242	-0.155
-672.120	-123.007	0.296	0.048
-671.105	-82.730	0.017	0.005
-670.091	229.260	-0.152	-0.249
-669.076	24.377	-0.169	0.140
-668.062	-200.000	0.057	0.470
-667.047	-88.373	0.123	0.037
-666.032	-14.874	-0.306	0.197
-665.018	-200.000	0.049	-0.236
-664.003	89.665	-0.129	-0.145
-662.989	74.372	-0.192	0.203
-661.974	233.982	0.110	-0.183
-660.959	30.906	0.178	-0.153
-659.945	-54.574	0.139	-0.063
-658.930	-47.935	0.157	0.076
-657.916	-105.598	-0.169	-0.038
-656.901	-200.000	-0.012	-0.348
-655.886	102.945	-0.097	-0.114
-654.872	-5.268	-0.091	0.062
-653.857	99.682	-0.124	-0.144
-652.843	575.116	0.131	0.320
-651.828	-54.999	0.321	-0.145
-650.814	135.541	-0.115	0.150
-649.799	-137.400	-0.339	0.039
-648.784	121.254	0.206	-0.257
-647.770	138.401	0.134	-0.176
-646.755	52.865	0.169	-0.162
-645.741	256.792	0.063	-0.109
-644.726	-145.061	-0.191	0.017
-643.711	800.000	0.061	0.184
-642.697	-55.942	0.070	0.031
-641.682	-19.994	-0.047	0.029
-640.668	-119.769	-0.207	0.036
-639.653	-126.850	-0.367	-0.054
-638.638	-200.000	0.010	-0.148
-637.624	-190.083	0.481	-0.005
-636.609	-92.738	-0.235	-0.066
-635.595	-110.947	0.202	0.042
-634.580	-151.231	0.102	0.008
-633.565	44.445	-0.093	0.086
-632.551	800.000	-0.085	0.270
-631.536	533.449	0.088	0.208
-630.522	2.233	-0.118	-0.085
-629.507	800.000	0.010	0.044
-628.492	-57.214	-0.251	-0.111
-627.478	197.567	-0.090	-0.137
-626.463	141.179	-0.182	-0.241
-625.449	236.152	-0.182	-0.301
-624.434	-7.778	-0.210	-0.142
-623.419	176.068	-0.124	-0.180
-622.405	-120.465	-0.319	0.054
-621.390	16.444	-0.100	-0.079
-620.376	224.129	-0.102	-0.165
-619.361	0.334	-0.100	0.071
-618.346	-96.286	0.242	0.064
-617.332	-32.661	-0.072	-0.040
-616.317	-200.000	-0.038	-0.248
-615.303	254.755	-0.090	0.155
-614.288	464.060	0.020	-0.044
-613.273	-9.224	0.166	0.111
-612.259	157.631	-0.120	-0.166
-611.244	-48.375	-0.426	-0.205
-610.230	800.000	-0.085	-0.344
-609.215	-121.348	0.163	-0.027
-608.201	-20.398	0.060	0.037
-607.186	-130.764	0.240	0.032
-606.171	769.006	-0.075	-0.203
-605.157	-183.747	-0.071	-0.001
-604.142	-16.794	0.127	0.080
-603.128	-200.000	0.059	-0.312
-602.113	200.349	-0.162	-0.250
-601.098	-142.350	-0.278	-0.027
-600.084	-93.273	0.371	0.103
-599.069	56.604	0.081	-0.079
-598.055	57.157	0.111	-0.108
-597.040	-33.846	0.211	0.116
-596.025	-116.591	0.096	0.018
-595.011	-96.397	-0.054	0.014
-593.996	106.037	0.164	-0.194
-592.982	46.105	-0.289	0.268
-591.967	-97.380	-0.039	-0.010
-590.952	-145.932	-0.128	0.011
-589.938	-200.000	-0.023	-0.121
-588.923	222.347	0.093	0.150
-587.909	271.069	0.187	0.329
-586.894	-74.007	-0.536	0.195
-585.879	-141.079	0.194	0.020
-584.865	582.295	0.171	0.419
-583.850	288.802	0.054	0.098
-582.836	-200.000	0.036	-0.193
-581.821	-200.000	0.024	0.131
-580.806	-107.387	0.131	0.029
-579.792	302.515	-0.105	-0.195
-578.777	800.000	-0.078	0.274
-577.763	-130.946	0.445	-0.060
-576.748	-123.074	0.139	-0.022
-575.733	62.813	-0.350	-0.351
-574.719	25.557	0.169	0.141
-573.704	63.902	-0.102	0.102
-572.690	-11.651	-0.029	-0.019
-571.675	-184.302	-0.178	0.003
-570.661	-114.702	-0.407	0.078
-569.646	398.983	-0.103	-0.216
-568.631	-104.126	-0.321	-0.075
-567.617	10.633	-0.311	0.237
-566.602	-36.497	-0.150	0.081
-565.588	730.700	-0.105	-0.282
-564.573	-34.628	0.306	-0.168
-563.558	800.000	0.084	0.240
-562.544	529.448	0.070	-0.166
-561.529	18.827	-0.141	-0.113
-560.515	142.248	-0.217	-0.287
-559.500	91.784	-0.165	0.186
-558.485	238.110	-0.050	-0.082
-557.471	16.555	0.261	-0.206
-556.456	224.930	-0.028	0.045
-555.442	-1.314	0.176	0.124
-554.427	-64.662	0.116	0.047
-553.412	800.000	-0.099	0.325
-552.398	-160.883	0.372	-0.020
-551.383	-20.075	-0.092	-0.057
-550.369	24.449	-0.078	0.065
-549.354	-175.440	0.187	-0.005
-548.339	-200.000	-0.096	0.000
-547.325	800.000	-0.042	0.142
-546.310	87.005	-0.258	0.285
-545.296	800.000	0.045	-0.182
-544.281	-200.000	0.005	-0.237
-543.266	222.397	-0.037	0.059
-542.252	300.142	-0.130	0.239
-541.237	-131.136	0.212	0.028
-540.223	-149.331	0.039	0.003
-539.208	227.294	-0.210	0.341
-538.193	-200.000	-0.001	0.134
-537.179	-176.250	-0.134	0.004
-536.164	-200.000	0.014	-0.094
-535.150	-28.918	-0.204	-0.117
-534.135	-47.074	-0.303	-0.148
-533.121	-122.240	0.196	0.032
-532.106	-72.407	-0.230	-0.085
-531.091	-31.628	-0.202	-0.113
-530.077	-101.772	0.034	-0.008
-529.062	-92.295	0.113	0.032
-528.048	-200.000	0.028	0.168
-527.033	-63.899	-0.201	0.082
-526.018	-104.874	-0.227	0.052
-525.004	800.000	-0.041	-0.127
-523.989	45.049	-0.108	-0.099
-522.975	-200.000	0.017	0.144
-521.960	-133.582	0.298	0.037
-520.945	287.963	0.114	-0.205
-519.931	-23.105	0.179	-0.108
-518.916	-7.242	-0.205	-0.139
-517.902	800.000	0.061	-0.206
-516.887	315.150	0.088	-0.165
-515.872	-142.588	-0.063	-0.006
-514.858	-112.501	-0.225	-0.045
-513.843	800.000	0.151	0.471
-512.829	775.773	-0.027	0.074
-511.814	-104.294	0.368	-0.085
-510.799	-122.902	0.454	0.073
-509.785	45.532	0.123	0.114
-508.770	-19.996	-0.110	-0.067
-507.756	-200.000	-0.022	0.598
-506.741	-112.863	0.352	-0.070
-505.726	-61.663	-0.100	0.042
-504.712	-200.000	0.017	0.298
-503.697	-0.580	-0.370	-0.262
-502.683	-36.588	-0.292	0.157
-501.668	167.131	0.079	0.111
-500.653	-72.488	-0.167	-0.062
-499.639	490.320	0.108	0.246
-498.624	-105.634	-0.238	0.054
-497.610	154.672	-0.243	-0.333
-496.595	-200.000	-0.009	-0.316
-495.581	217.314	-0.173	-0.274
-494.566	518.531	-0.112	-0.260
-493.551	735.556	0.114	0.305
-492.537	60.962	0.058	0.057
-491.522	527.834	-0.128	0.300
-490.508	-200.000	-0.021	-0.135
-489.493	128.677	0.037	-0.047
-488.478	-139.795	-0.129	0.014
-487.464	353.933	0.083	-0.163
-486.449	-200.000	0.031	0.226
-485.435	800.000	-0.031	-0.104
-484.420	70.622	-0.188	-0.194
-483.405	-43.200	-0.094	-0.047
-482.391	154.944	0.129	-0.177
-481.376	-200.000	0.022	0.113
-480.362	-103.157	-0.230	-0.054
-479.347	800.000	-0.095	-0.352
-478.332	11.821	-0.440	0.336
-477.318	-51.781	-0.231	0.107
-476.303	437.533	-0.077	0.166
-475.289	182.013	-0.198	-0.291
-474.274	-58.010	0.364	-0.158
-473.259	-200.000	0.044	0.275
-472.245	257.123	0.270	0.462
-471.230	-103.450	-0.101	0.024
-470.216	0.984	-0.082	0.059
-469.201	-17.458	0.066	-0.041
-468.186	-200.000	-0.006	-0.147
-467.172	-87.852	0.067	-0.020
-466.157	124.532	-0.323	0.405
-465.143	800.000	-0.057	0.164
-464.128	77.508	-0.130	-0.137
-463.113	800.000	-0.055	-0.216
-462.099	800.000	-0.048	-0.193
-461.084	-200.000	-0.006	0.397
-460.070	-200.000	-0.016	0.098
-459.055	557.433	0.145	0.348
-458.040	156.523	0.089	0.123
-457.026	46.608	-0.231	-0.214
-456.011	-200.000	-0.001	-0.046
-454.997	800.000	-0.042	-0.138
-453.982	-200.000	0.054	-0.430
-452.968	50.684	-0.046	0.043
-451.953	-156.669	-0.331	-0.020
-450.938	-39.268	-0.151	-0.079
-449.924	-17.062	0.101	0.063
-448.909	-183.669	-0.512	0.009
-447.895	102.843	0.052	0.060
-446.880	197.167	0.126	0.191
-445.865	-8.476	0.197	0.132
-444.851	303.651	-0.114	0.210
-443.836	-193.247	-0.311	-0.003
-442.822	800.000	0.095	0.354
-441.807	120.043	0.126	-0.155
-440.792	-200.000	-0.001	-0.313
-439.778	-124.866	0.388	-0.060
-438.763	57.649	0.049	-0.048
-437.749	-54.905	-0.121	-0.054
-436.734	-114.995	0.366	-0.069
-435.719	538.175	0.137	0.325
-434.705	-200.000	-0.002	0.200
-433.690	-47.380	0.090	0.044
-432.676	16.232	0.081	-0.063
-431.661	-151.805	0.384	0.028
-430.646	-104.986	0.275	0.063
-429.632	-200.000	0.002	-0.028
-428.617	-129.177	0.280	-0.039
-427.603	7.966	0.030	-0.022
-426.588	-88.262	0.114	-0.034
-425.573	-200.000	-0.011	0.054
-424.559	43.380	0.219	-0.199
-423.544	-76.796	0.085	0.029
-422.530	539.142	-0.096	-0.228
-421.515	40.859	-0.044	0.039
-420.500	800.000	-0.019	0.056
-419.486	-2.304	-0.039	-0.027
-418.471	-40.303	-0.178	-0.092
-417.457	58.114	0.058	0.056
-416.442	753.597	-0.052	0.140
-415.428	-58.162	0.273	0.118
-414.413	-135.608	-0.340	0.040
-413.398	800.000	0.028	-0.095
-412.384	-200.000	-0.045	0.329
-411.369	18.478	0.112	-0.089
-410.355	635.860	-0.054	0.137
-409.340	-200.000	0.036	0.208
-408.325	-200.000	0.006	-0.105
-407.311	294.386	0.178	-0.323
-406.296	630.676	0.178	-0.448
-405.282	6.142	-0.216	0.159
-404.267	16.140	0.435	0.341
-403.252	498.895	-0.111	0.253
-402.238	-113.094	0.233	-0.046
-401.223	-179.940	-0.191	-0.004
-400.209	23.139	0.200	-0.163
-399.194	-131.273	0.117	0.015
-398.179	-86.489	0.151	0.046
-397.165	310.893	-0.107	0.199
-396.150	568.825	0.069	-0.167
-395.136	484.478	-0.068	0.154
-394.121	-97.766	-0.220	-0.057
-393.106	72.272	0.249	0.258
-392.092	-102.073	-0.312	0.075
-391.077	242.859	-0.156	0.260
-390.063	-182.151	-0.118	0.002
-389.048	152.578	-0.043	-0.058
-388.033	5.875	0.183	-0.134
-387.019	7.444	-0.031	0.023
-386.004	-138.828	-0.172	-0.019
-384.990	-128.361	-0.098	0.014
-383.975	18.373	0.155	-0.123
-382.960	-113.373	-0.096	0.019
-381.946	105.555	-0.151	0.177
-380.931	-134.642	-0.320	-0.039
-379.917	27.540	-0.294	-0.246
-378.902	-42.139	0.310	0.157
-377.888	442.145	-0.047	-0.102
-376.873	106.600	-0.136	0.160
-375.858	-155.243	0.399	0.026
-374.844	-172.324	-0.175	-0.006
-373.829	-105.994	-0.084	0.019
-372.815	-2.812	0.216	-0.150
-371.800	-44.986	-0.187	-0.092
-370.785	180.959	-0.089	0.130
-369.771	-25.245	0.192	0.113
-368.756	-59.566	0.287	0.122
-367.742	690.026	-0.090	-0.234
-366.727	-56.179	0.164	-0.072
-365.712	25.850	0.299	0.248
-364.698	73.007	0.284	0.295
-363.683	800.000	0.024	-0.081
-362.669	-55.136	-0.290	-0.130
-361.654	800.000	-0.012	0.036
-360.639	-200.000	-0.060	0.323
-359.625	484.649	0.102	-0.231
-358.610	397.404	-0.165	-0.342
-357.596	67.331	0.177	-0.179
-356.581	-5.053	-0.321	-0.219
-355.566	-183.573	0.242	0.004
-354.552	192.771	-0.242	0.362
-353.537	363.859	0.066	0.131
-352.523	17.621	0.172	0.136
-351.508	9.622	0.127	0.095
-350.493	47.330	0.055	0.051
-349.479	-200.000	0.000	-0.075
-348.464	542.386	0.037	-0.087
-347.450	337.748	-0.052	0.101
-346.435	800.000	0.074	0.206
-345.420	-200.000	0.022	-0.148
-344.406	285.036	0.077	-0.137
-343.391	136.114	-0.123	0.158
-342.377	-41.224	0.377	0.193
-341.362	-105.449	0.161	0.036
-340.348	-129.611	-0.140	0.019
-339.333	150.233	0.117	-0.158
-338.318	269.986	0.135	0.235
-337.304	214.201	-0.283	0.444
-336.289	-126.280	-0.167	0.025
-335.275	-183.271	0.309	-0.005
-334.260	-159.400	-0.267	0.015
-333.245	-38.648	-0.161	0.084
-332.231	-132.513	0.075	-0.010
-331.216	800.000	-0.042	0.166
-330.202	-200.000	0.000	-0.080
-329.187	162.939	0.083	-0.116
-328.172	-94.446	-0.091	-0.025
-327.158	-70.858	0.168	0.063
-326.143	-144.703	-0.140	0.013
-325.129	-180.396	-0.102	-0.002
-324.114	800.000	0.048	-0.170
-323.099	800.000	-0.015	-0.063
-322.085	-110.258	0.297	0.061
-321.070	-31.044	-0.075	-0.042
-320.056	-52.817	0.101	-0.046
-319.041	502.436	0.128	0.292
-318.026	48.014	0.106	0.098
-317.012	147.642	-0.161	-0.215
-315.997	85.870	-0.244	-0.266
-314.983	-200.000	0.039	-0.242
-313.968	15.568	-0.117	0.091
-312.953	309.240	-0.065	-0.121
-311.939	-13.002	-0.359	0.231
-310.924	45.247	0.224	0.204
-309.910	800.000	0.016	0.055
-308.895	-105.023	0.337	0.076
-307.880	-156.950	0.331	-0.020
-306.866	189.988	-0.038	-0.056
-305.851	16.441	-0.064	0.050
-304.837	-46.666	-0.186	-0.090
-303.822	4.781	0.195	-0.141
-302.807	-39.168	0.071	0.037
-301.793	170.773	-0.044	-0.062
-300.778	-102.195	0.127	-0.030
-299.764	674.339	0.061	0.157
-298.749	-200.000	-0.019	0.150
-297.735	81.638	0.044	0.047
-296.720	274.675	0.166	-0.291
-295.705	-56.374	0.169	0.074
-294.691	41.666	0.097	0.086
-293.676	-115.201	0.293	0.055
-292.662	-116.785	-0.415	0.075
-291.647	-120.964	0.057	-0.010
-290.632	12.972	-0.205	-0.157
-289.618	-200.000	-0.010	-0.084
-288.603	800.000	-0.031	0.095
-287.589	-161.012	0.365	0.019
-286.574	-69.723	-0.132	-0.050
-285.559	-82.331	0.266	-0.086
-284.545	-131.562	-0.032	-0.004
-283.530	-164.996	0.235	0.010
-282.516	67.367	0.024	0.024
-281.501	-14.129	0.113	0.072
-280.486	-200.000	0.011	-0.154
-279.472	50.706	-0.218	0.204
-278.457	9.950	0.242	-0.182
-277.443	47.825	-0.119	-0.110
-276.428	492.120	0.158	0.357
-275.413	-145.583	-0.102	0.009
-274.399	-200.000	-0.005	-0.022
-273.384	53.286	0.205	0.194
-272.370	-23.490	0.161	-0.096
-271.355	-107.283	-0.226	0.049
-270.340	-126.416	0.301	-0.044
-269.326	800.000	-0.089	0.346
-268.311	-14.751	0.057	0.036
-267.297	29.630	-0.314	-0.264
-266.282	-200.000	-0.026	-0.141
-265.267	-200.000	-0.040	-0.195
-264.253	-48.716	0.260	0.124
-263.238	-145.398	0.316	-0.028
-262.224	123.431	-0.047	-0.058
-261.209	-81.166	0.172	-0.056
-260.195	-28.081	-0.200	-0.114
-259.180	-70.881	-0.047	0.017
-258.165	64.353	-0.272	-0.270
-257.151	-2.309	0.218	0.151
-256.136	-200.000	0.010	-0.158
-255.122	-77.191	0.131	-0.045
-254.107	370.141	0.014	0.029
-253.092	-45.909	-0.122	0.059
-252.078	-68.401	0.210	0.081
-251.063	-127.800	0.240	0.034
-250.049	-114.570	-0.182	0.035
-249.034	-162.669	0.371	-0.018
-248.019	53.916	0.065	0.062
-247.005	-47.052	0.366	-0.176
-245.990	416.057	-0.135	-0.284
-244.976	-115.586	-0.115	-0.021
-243.961	115.281	-0.037	0.044
-242.946	104.655	0.169	-0.196
-241.932	-120.085	0.199	0.034
-240.917	-200.000	0.025	-0.152
-239.903	-114.468	-0.059	-0.011
-238.888	56.244	-0.279	0.267
-237.873	-200.000	-0.041	0.405
-236.859	247.675	-0.156	0.260
-235.844	-91.906	0.342	0.096
-234.830	-197.993	-0.185	-0.001
-233.815	-166.401	0.244	-0.010
-232.800	28.612	-0.140	-0.117
-231.786	-55.608	0.293	-0.129
-230.771	800.000	0.075	-0.279
-229.757	34.026	0.122	-0.105
-228.742	-99.584	-0.184	-0.046
-227.727	-132.189	-0.220	0.028
-226.713	-200.000	-0.020	-0.177
-225.698	247.029	0.076	0.127
-224.684	-154.222	-0.251	0.017
-223.669	70.280	-0.121	-0.124
-222.655	226.861	0.163	-0.261
-221.640	-200.000	0.002	0.022
-220.625	54.605	-0.235	-0.223
-219.611	-58.133	0.088	0.038
-218.596	-87.943	-0.066	0.020
-217.582	800.000	0.074	-0.287
-216.567	-31.578	0.089	0.049
-215.552	-200.000	-0.045	0.354
-214.538	-200.000	0.027	-0.139
-213.523	-200.000	-0.018	0.154
-212.509	-142.899	-0.041	-0.004
-211.494	-118.531	0.055	0.010
-210.479	37.330	0.243	-0.212
-209.465	-200.000	0.008	0.111
-208.450	568.556	-0.205	0.490
-207.436	748.727	0.070	0.186
-206.421	-78.363	-0.072	-0.024
-205.406	-7.043	-0.041	0.027
-204.392	8.234	0.117	0.086
-203.377	67.404	0.224	-0.225
-202.363	-50.022	-0.119	-0.055
-201.348	43.485	-0.251	-0.226
-200.333	116.117	-0.192	0.232
-199.319	114.759	-0.200	-0.240
-198.304	800.000	-0.116	-0.364
-197.290	-101.042	-0.220	-0.053
-196.275	93.635	0.200	-0.223
-195.260	-200.000	0.016	0.148
-194.246	731.814	-0.073	0.191
-193.231	46.756	0.063	-0.058
-192.217	100.802	-0.188	-0.216
-191.202	800.000	-0.068	-0.273
-190.187	430.917	-0.085	0.182
-189.173	-117.267	0.410	-0.073
-188.158	274.214	0.060	0.104
-187.144	152.852	0.143	0.192
-186.129	458.617	0.118	-0.258
-185.114	800.000	-0.072	-0.305
-184.100	-115.760	0.237	0.044
-183.085	91.221	-0.234	-0.259
-182.071	-200.000	0.060	-0.327
-181.056	-176.742	-0.031	-0.001
-180.042	-200.000	-0.011	-0.154
-179.027	175.791	-0.051	0.073
-178.012	-182.570	0.414	-0.007
-176.998	-51.642	-0.184	0.084
-175.983	800.000	0.034	-0.107
-174.969	57.499	-0.155	0.149
-173.954	800.000	-0.019	-0.053
-172.939	-160.635	0.014	0.001
-171.925	-24.373	0.179	-0.105
-170.910	172.944	0.211	0.299
-169.896	14.594	0.159	0.123
-168.881	42.056	-0.097	0.087
-167.866	214.368	-0.004	-0.007
-166.852	-200.000	0.006	0.065
-165.837	-200.000	0.036	0.297
-164.823	800.000	-0.047	-0.132
-163.808	14.612	0.127	0.097
-162.793	-189.244	0.334	-0.004
-161.779	-60.988	-0.093	-0.039
-160.764	39.888	-0.193	-0.170
-159.750	-140.286	-0.253	-0.026
-158.735	-134.194	0.159	0.019
-157.720	800.000	0.039	0.116
-156.706	-200.000	-0.016	-0.113
-155.691	-93.233	-0.279	0.076
-154.677	-200.000	-0.010	0.064
-153.662	-108.998	0.231	-0.048
-152.647	-57.431	-0.133	-0.058
-151.633	-200.000	0.025	0.278
-150.618	-84.667	0.191	-0.059
-149.604	92.715	-0.145	0.161
-148.589	-66.728	0.213	0.083
-147.574	-118.451	-0.113	0.020
-146.560	6.207	0.054	-0.040
-145.545	-168.614	-0.261	0.010
-144.531	-89.746	-0.049	-0.014
-143.516	-27.744	0.213	-0.121
-142.502	-188.636	0.168	0.002
-141.487	-119.969	-0.103	0.017
-140.472	-84.536	-0.251	-0.078
-139.458	523.380	0.170	0.393
-138.443	-64.415	-0.046	0.018
-137.429	113.566	-0.151	0.181
-136.414	83.112	-0.168	0.180
-135.399	-165.070	-0.242	-0.011
-134.385	108.350	-0.254	-0.297
-133.370	-195.375	-0.190	-0.001
-132.356	119.441	-0.043	0.052
-131.341	800.000	-0.118	0.320
-130.326	188.851	-0.055	-0.081
-129.312	73.009	0.103	0.106
-128.297	-200.000	-0.006	0.320
-127.283	-200.000	-0.021	-0.129
-126.268	98.903	0.283	0.321
-125.253	-93.144	0.037	-0.010
-124.239	220.238	0.136	-0.215
-123.224	55.039	-0.177	-0.168
-122.210	423.759	-0.024	-0.050
-121.195	-122.974	0.340	0.054
