DTS Sentinel unit serial number:	SN413079Multiplexer serial number:	ORYXHardware model number:	OX4-SRSoftware version number:	ORYX F/W v4.00 Oryx Data Collector v3.7.2.0data status	okinstallation	princeton_trtdifferential loss correction	single-endedforward channel	channel 1reverse channel	N/Adate	2019/09/15time	16:38:35forward acquisition time	60.00reverse acquisition time	0.00gamma	496.2192k internal	0.2292k external	0.2292temperature offset calibration	0.9937default loss term (dB/km)	0.3790temperature slope calibration	1.0000multiplexer offset coefficient	1.0000multiplexer slope coefficient	1.0000fibre end	0.00T internal ref (°C)	44.11T ext. ref 1 (°C)	5.65T ext. ref 2 (°C)	40.26length (m)	temperature (°C)	Stokes	anti-Stokes-747.200	121.923	0.186	-0.238
-746.185	-200.000	-0.079	0.653
-745.171	-181.419	-0.238	0.005
-744.156	800.000	0.098	0.350
-743.142	-72.773	-0.049	-0.018
-742.127	87.704	0.155	0.176
-741.112	800.000	0.104	-0.322
-740.098	473.231	0.044	-0.102
-739.083	104.541	0.167	-0.201
-738.069	800.000	-0.088	0.338
-737.054	800.000	0.003	-0.010
-736.039	223.052	-0.012	0.019
-735.025	-5.130	0.379	0.267
-734.010	-200.000	0.005	-0.133
-732.996	-176.421	-0.410	0.011
-731.981	112.450	0.171	0.212
-730.966	-200.000	-0.085	-0.414
-729.952	-200.000	-0.080	-0.415
-728.937	-145.725	0.247	-0.023
-727.923	-84.176	-0.277	0.090
-726.908	115.007	-0.188	-0.234
-725.894	23.495	-0.316	-0.266
-724.879	-15.729	0.133	-0.087
-723.864	68.133	0.028	-0.029
-722.850	3.713	-0.252	0.188
-721.835	-177.376	0.182	0.005
-720.821	15.925	-0.048	-0.038
-719.806	41.254	0.199	-0.184
-718.791	243.068	-0.155	-0.266
-717.777	369.185	0.187	-0.386
-716.762	-83.976	0.049	-0.016
-715.748	358.371	0.002	-0.005
-714.733	-88.010	0.286	0.088
-713.718	105.691	-0.041	-0.049
-712.704	800.000	0.033	-0.106
-711.689	460.673	0.041	0.093
-710.675	-200.000	0.016	-0.182
-709.660	214.348	0.025	-0.041
-708.645	-36.578	-0.109	0.060
-707.631	-138.533	0.199	-0.022
-706.616	-151.139	-0.190	0.015
-705.602	143.309	-0.147	-0.199
-704.587	-81.107	-0.267	-0.090
-703.572	55.992	0.366	-0.363
-702.558	-97.874	0.167	-0.044
-701.543	256.335	0.157	0.275
-700.529	800.000	-0.028	0.091
-699.514	711.079	-0.078	0.211
-698.499	150.712	0.137	-0.190
-697.485	9.362	-0.208	0.161
-696.470	800.000	-0.084	0.268
-695.456	86.080	0.041	0.046
-694.441	282.644	-0.066	-0.121
-693.426	258.790	0.106	-0.186
-692.412	180.426	0.056	-0.084
-691.397	-200.000	-0.008	-0.155
-690.383	-200.000	-0.010	-0.165
-689.368	20.644	-0.121	0.100
-688.354	-103.301	-0.178	-0.043
-687.339	800.000	0.133	-0.502
-686.324	43.465	0.108	0.101
-685.310	-200.000	-0.023	0.119
-684.295	-200.000	0.015	-0.318
-683.281	24.933	0.138	0.117
-682.266	242.746	-0.107	-0.183
-681.251	-68.274	-0.284	-0.113
-680.237	-67.065	-0.103	0.041
-679.222	-112.290	-0.083	-0.017
-678.208	139.727	-0.089	-0.120
-677.193	75.838	-0.079	0.085
-676.178	-200.000	-0.106	0.000
-675.164	-54.881	-0.181	-0.083
-674.149	132.827	-0.106	0.139
-673.135	-79.890	0.138	-0.047
-672.120	100.090	-0.144	-0.170
-671.105	800.000	-0.050	-0.164
-670.091	-147.056	-0.175	-0.015
-669.076	-186.532	-0.070	0.001
-668.062	127.888	0.170	0.220
-667.047	503.867	-0.099	-0.235
-666.032	-200.000	-0.005	0.097
-665.018	210.261	0.122	-0.196
-664.003	-200.000	-0.002	-0.243
-662.989	-126.444	0.278	-0.042
-661.974	-110.959	-0.130	0.027
-660.959	-200.000	0.019	0.221
-659.945	800.000	0.087	0.275
-658.930	-48.367	0.205	0.101
-657.916	-28.511	0.250	0.147
-656.901	800.000	-0.070	0.207
-655.886	448.850	0.232	0.521
-654.872	-71.808	-0.223	0.085
-653.857	100.726	-0.285	-0.338
-652.843	159.273	-0.101	0.143
-651.828	-200.000	0.008	-0.056
-650.814	191.756	0.040	-0.061
-649.799	800.000	0.094	0.296
-648.784	5.771	-0.290	0.219
-647.770	-200.000	0.035	-0.318
-646.755	138.721	-0.048	0.065
-645.741	-174.852	-0.146	0.004
-644.726	-107.171	-0.235	-0.053
-643.711	-11.784	0.115	0.077
-642.697	38.378	-0.103	-0.094
-641.682	800.000	0.103	0.380
-640.668	800.000	0.067	0.216
-639.653	200.126	-0.105	-0.164
-638.638	139.264	0.131	0.175
-637.624	-80.195	-0.070	0.024
-636.609	-62.070	-0.257	0.109
-635.595	257.849	-0.233	0.408
-634.580	705.092	0.104	-0.280
-633.565	99.434	-0.174	0.205
-632.551	-145.625	0.298	-0.027
-631.536	8.784	-0.143	-0.110
-630.522	96.370	0.131	0.152
-629.507	16.382	0.274	0.221
-628.492	-60.189	0.094	0.041
-627.478	1.747	-0.071	-0.052
-626.463	-200.000	-0.000	-0.229
-625.449	-200.000	-0.036	-0.271
-624.434	-73.825	0.284	-0.105
-623.419	-179.920	0.240	0.005
-622.405	-60.613	0.124	-0.053
-621.390	-200.000	-0.018	0.084
-620.376	800.000	0.032	-0.136
-619.361	548.928	-0.166	-0.406
-618.346	72.232	0.146	0.155
-617.332	173.996	0.110	0.162
-616.317	-200.000	0.168	-0.000
-615.303	-105.156	0.414	0.096
-614.288	114.466	-0.112	-0.139
-613.273	1.613	-0.227	0.167
-612.259	-61.898	0.208	-0.088
-611.244	-200.000	-0.029	-0.261
-610.230	-117.777	-0.362	0.066
-609.215	-72.526	0.073	0.028
-608.201	648.603	-0.092	0.240
-607.186	-58.130	0.305	0.135
-606.171	-23.229	0.188	0.115
-605.157	-3.781	0.188	-0.133
-604.142	-200.000	0.001	0.062
-603.128	800.000	0.067	-0.283
-602.113	-200.000	-0.003	0.170
-601.098	-200.000	-0.033	0.151
-600.084	140.250	-0.142	0.190
-599.069	217.872	-0.076	-0.124
-598.055	-200.000	0.001	-0.159
-597.040	675.199	0.056	-0.149
-596.025	-183.552	-0.424	-0.007
-595.011	9.806	-0.076	-0.059
-593.996	-16.285	-0.124	-0.080
-592.982	385.568	-0.021	0.045
-591.967	-114.187	-0.027	-0.005
-590.952	-74.643	-0.541	0.198
-589.938	-200.000	0.085	0.431
-588.923	-80.211	0.271	0.092
-587.909	210.394	-0.061	0.097
-586.894	-200.000	-0.032	-0.164
-585.879	-84.324	0.176	0.057
-584.865	-38.529	0.168	-0.090
-583.850	-200.000	-0.006	0.044
-582.836	40.616	-0.180	0.165
-581.821	-200.000	-0.009	-0.106
-580.806	-115.061	-0.259	0.050
-579.792	-94.985	0.170	-0.047
-578.777	-200.000	0.006	0.171
-577.763	49.782	0.033	-0.031
-576.748	-12.625	0.096	-0.064
-575.733	-200.000	-0.008	0.174
-574.719	15.224	-0.182	0.145
-573.704	-200.000	0.046	0.277
-572.690	800.000	-0.057	0.203
-571.675	93.373	-0.172	0.198
-570.661	-10.454	0.260	-0.175
-569.646	317.753	0.107	-0.206
-568.631	-200.000	0.040	-0.242
-567.617	-99.169	-0.240	-0.062
-566.602	800.000	-0.045	-0.166
-565.588	-58.365	0.271	-0.120
-564.573	800.000	-0.067	-0.250
-563.558	-69.886	0.233	0.090
-562.544	-200.000	0.000	-0.381
-561.529	800.000	0.170	-0.543
-560.515	781.503	0.059	0.165
-559.500	-75.004	-0.067	-0.025
-558.485	258.995	-0.062	0.108
-557.471	138.072	-0.185	0.247
-556.456	456.420	0.010	-0.023
-555.442	-51.297	0.058	-0.027
-554.427	800.000	0.057	0.213
-553.412	-64.623	-0.125	0.052
-552.398	800.000	-0.062	0.264
-551.383	-152.225	-0.254	0.019
-550.369	306.501	0.055	-0.103
-549.354	-200.000	0.008	-0.071
-548.339	60.070	0.027	0.027
-547.325	-146.813	-0.227	-0.020
-546.310	-154.592	0.321	0.022
-545.296	-60.873	-0.128	-0.055
-544.281	-99.330	-0.071	-0.018
-543.266	22.215	0.113	0.094
-542.252	120.253	-0.178	0.225
-541.237	301.198	0.156	-0.293
-540.223	-102.214	0.167	0.041
-539.208	-74.736	0.049	-0.018
-538.193	169.292	0.164	0.238
-537.179	452.285	-0.116	0.261
-536.164	-200.000	-0.037	-0.245
-535.150	444.025	-0.055	0.122
-534.135	-138.483	0.503	0.056
-533.121	-87.191	-0.021	-0.006
-532.106	-14.223	-0.290	0.190
-531.091	800.000	0.084	0.267
-530.077	27.674	-0.269	-0.230
-529.062	17.935	-0.144	0.117
-528.048	-136.280	-0.258	-0.031
-527.033	36.789	-0.181	0.162
-526.018	203.514	0.148	0.233
-525.004	-200.000	0.028	-0.132
-523.989	178.107	0.217	0.322
-522.975	800.000	0.025	-0.073
-521.960	-65.273	-0.230	-0.094
-520.945	-141.309	-0.163	0.017
-519.931	800.000	0.009	0.032
-518.916	-54.427	0.152	0.070
-517.902	19.807	-0.081	0.066
-516.887	135.399	-0.204	-0.269
-515.872	175.777	-0.195	-0.287
-514.858	-56.491	0.169	-0.076
-513.843	-80.387	0.315	0.107
-512.829	582.619	0.188	-0.467
-511.814	-101.967	0.112	0.028
-510.799	-129.982	0.208	-0.029
-509.785	-17.387	0.238	0.152
-508.770	-64.649	0.235	-0.097
-507.756	-145.906	0.368	-0.033
-506.741	-95.765	-0.368	0.100
-505.726	-145.202	0.336	0.031
-504.712	725.862	0.029	-0.078
-503.697	-200.000	0.047	0.270
-502.683	310.047	0.059	0.111
-501.668	-155.006	0.215	0.014
-500.653	-126.140	0.327	0.050
-499.639	-127.032	-0.427	-0.064
-498.624	-127.406	-0.161	0.024
-497.610	800.000	0.031	-0.102
-496.595	800.000	-0.096	0.273
-495.581	-200.000	-0.018	0.248
-494.566	38.314	0.059	0.053
-493.551	-200.000	0.053	-0.298
-492.537	-200.000	-0.005	-0.207
-491.522	-149.946	-0.158	0.013
-490.508	-39.505	0.109	0.058
-489.493	800.000	0.016	0.058
-488.478	-127.203	0.278	-0.041
-487.464	-41.154	-0.419	-0.219
-486.449	-200.000	0.005	-0.156
-485.435	-87.531	-0.303	0.093
-484.420	263.260	-0.049	0.086
-483.405	800.000	-0.077	0.268
-482.391	-127.717	-0.281	0.041
-481.376	-52.455	-0.198	-0.093
-480.362	114.215	0.084	-0.103
-479.347	800.000	-0.058	-0.230
-478.332	800.000	-0.117	0.448
-477.318	-173.254	0.232	0.007
-476.303	-121.787	0.213	0.036
-475.289	20.490	-0.124	-0.102
-474.274	210.846	0.222	-0.354
-473.259	800.000	0.089	0.261
-472.245	-64.439	0.056	-0.023
-471.230	454.190	-0.022	0.050
-470.216	800.000	0.022	-0.065
-469.201	-200.000	-0.016	-0.214
-468.186	278.107	0.137	-0.247
-467.172	-82.141	-0.123	0.041
-466.157	233.829	-0.133	-0.222
-465.143	506.233	0.088	-0.206
-464.128	800.000	-0.048	-0.163
-463.113	21.687	-0.102	0.084
-462.099	-200.000	0.032	0.304
-461.084	-200.000	0.015	-0.084
-460.070	495.718	-0.046	-0.108
-459.055	166.704	0.167	-0.240
-458.040	363.771	-0.100	0.204
-457.026	238.134	-0.167	0.281
-456.011	-125.515	-0.238	0.037
-454.997	145.387	-0.115	0.155
-453.982	10.087	0.125	-0.096
-452.968	243.168	-0.094	0.160
-451.953	65.696	-0.226	0.232
-450.938	-200.000	0.037	-0.168
-449.924	-125.342	0.382	0.059
-448.909	50.178	0.071	0.068
-447.895	224.300	0.084	-0.137
-446.880	-200.000	0.042	-0.203
-445.865	800.000	0.071	-0.250
-444.851	-75.851	-0.066	0.023
-443.836	217.072	-0.051	0.083
-442.822	800.000	0.053	-0.212
-441.807	744.276	-0.071	0.192
-440.792	223.781	-0.074	-0.121
-439.778	-126.800	0.190	-0.028
-438.763	19.511	0.267	0.217
-437.749	-144.719	-0.241	-0.022
-436.734	-200.000	0.030	0.452
-435.719	115.413	0.224	0.277
-434.705	-39.830	-0.035	-0.018
-433.690	800.000	0.021	0.090
-432.676	32.535	0.157	0.137
-431.661	8.962	-0.411	-0.313
-430.646	499.186	-0.111	0.259
-429.632	-200.000	0.033	-0.355
-428.617	-47.152	0.073	-0.036
-427.603	164.331	-0.103	-0.146
-426.588	-200.000	-0.004	-0.114
-425.573	-61.515	0.123	-0.052
-424.559	36.070	-0.252	-0.224
-423.544	-49.841	0.130	-0.062
-422.530	-200.000	0.027	0.178
-421.515	-138.896	-0.230	0.025
-420.500	-63.660	0.051	0.021
-419.486	263.932	-0.069	0.121
-418.471	-200.000	0.040	-0.203
-417.457	-22.510	0.176	0.108
-416.442	218.562	0.051	-0.082
-415.428	133.067	0.078	-0.102
-414.413	-146.338	0.094	0.008
-413.398	4.624	-0.098	0.072
-412.384	-6.728	-0.107	0.074
-411.369	264.716	0.019	-0.033
-410.355	800.000	-0.047	-0.198
-409.340	420.410	0.113	-0.244
-408.325	-39.927	-0.164	-0.087
-407.311	-184.412	-0.262	-0.004
-406.296	-107.754	0.232	0.051
-405.282	227.158	0.015	0.024
-404.267	317.037	0.119	0.227
-403.252	222.001	-0.056	-0.090
-402.238	-100.366	-0.155	-0.039
-401.223	269.953	-0.131	-0.232
-400.209	17.524	0.211	0.169
-399.194	301.428	0.110	-0.205
-398.179	-126.069	0.470	-0.071
-397.165	-200.000	-0.001	-0.053
-396.150	800.000	-0.037	0.156
-395.136	-200.000	0.016	-0.249
-394.121	91.060	-0.111	-0.126
-393.106	-157.163	-0.164	0.010
-392.092	-162.220	0.265	0.013
-391.077	292.620	0.055	0.102
-390.063	800.000	-0.086	-0.330
-389.048	-200.000	-0.010	-0.074
-388.033	800.000	-0.026	-0.111
-387.019	-162.833	-0.109	-0.005
-386.004	-24.452	-0.105	-0.063
-384.990	-12.785	0.114	-0.075
-383.975	-200.000	-0.001	-0.192
-382.960	-200.000	0.026	-0.264
-381.946	169.295	0.330	-0.475
-380.931	13.110	0.475	0.371
-379.917	800.000	0.068	0.287
-378.902	-73.875	-0.158	-0.058
-377.888	-42.426	0.092	-0.047
-376.873	98.031	0.027	-0.031
-375.858	343.297	0.024	0.048
-374.844	337.397	-0.123	-0.241
-373.829	13.985	-0.271	0.213
-372.815	99.996	-0.061	0.071
-371.800	800.000	-0.063	0.233
-370.785	-61.682	0.064	-0.027
-369.771	-118.200	0.157	0.028
-368.756	340.015	0.021	0.041
-367.742	-1.112	-0.151	0.108
-366.727	43.295	0.324	-0.298
-365.712	356.478	-0.161	-0.324
-364.698	-10.260	-0.219	-0.146
-363.683	211.793	-0.074	-0.117
-362.669	755.793	-0.089	0.243
-361.654	502.187	-0.097	0.226
-360.639	-65.627	-0.152	-0.061
-359.625	-136.707	-0.229	0.027
-358.610	-163.528	-0.246	-0.012
-357.596	-37.006	-0.103	0.056
-356.581	157.262	0.174	-0.242
-355.566	258.806	-0.103	-0.179
-354.552	-164.938	-0.182	-0.008
-353.537	5.686	-0.039	-0.029
-352.523	-33.389	-0.063	-0.035
-351.508	-200.000	0.029	0.418
-350.493	-118.021	-0.223	-0.040
-349.479	169.211	-0.050	-0.072
-348.464	-200.000	0.006	-0.205
-347.450	-130.805	-0.144	0.019
-346.435	-109.649	-0.157	0.033
-345.420	12.605	-0.318	-0.248
-344.406	96.214	-0.093	0.107
-343.391	-200.000	-0.040	-0.397
-342.377	21.149	-0.195	-0.160
-341.362	635.736	0.052	-0.133
-340.348	-20.980	-0.195	-0.120
-339.333	215.168	-0.139	0.222
-338.318	17.606	0.080	-0.064
-337.304	-137.455	-0.219	0.025
-336.289	-38.834	0.113	-0.060
-335.275	3.675	0.189	-0.139
-334.260	-159.766	-0.367	-0.020
-333.245	-200.000	0.053	-0.257
-332.231	43.340	0.208	-0.191
-331.216	-200.000	-0.020	-0.334
-330.202	-1.530	-0.320	0.227
-329.187	239.777	0.197	-0.331
-328.172	-57.004	0.071	0.032
-327.158	36.613	-0.165	0.147
-326.143	320.467	-0.045	0.086
-325.129	-4.679	-0.304	0.211
-324.114	356.506	0.036	0.071
-323.099	455.730	0.043	0.097
-322.085	800.000	0.050	0.192
-321.070	800.000	-0.040	0.142
-320.056	-26.681	0.041	0.024
-319.041	4.220	-0.079	0.058
-318.026	678.156	-0.028	0.073
-317.012	473.990	0.036	-0.082
-315.997	89.392	0.019	0.021
-314.983	162.419	-0.080	0.113
-313.968	28.623	-0.281	-0.239
-312.953	-59.660	0.235	-0.101
-311.939	-200.000	0.014	-0.338
-310.924	800.000	-0.111	-0.354
-309.910	-200.000	0.027	0.238
-308.895	-200.000	0.049	0.232
-307.880	122.840	0.250	0.314
-306.866	63.463	-0.084	-0.085
-305.851	22.467	-0.038	0.032
-304.837	-97.647	0.188	-0.049
-303.822	800.000	0.093	0.314
-302.807	800.000	0.024	-0.092
-301.793	53.896	-0.084	0.081
-300.778	493.819	0.105	-0.242
-299.764	-200.000	0.000	-0.277
-298.749	199.970	0.255	-0.394
-297.735	-61.882	-0.056	-0.023
-296.720	228.019	-0.184	0.301
-295.705	7.568	-0.231	0.174
-294.691	-200.000	0.043	-0.266
-293.676	-200.000	0.092	0.477
-292.662	-200.000	0.044	0.244
-291.647	325.830	0.199	0.382
-290.632	-128.960	0.271	-0.038
-289.618	29.943	0.071	-0.061
-288.603	-95.453	-0.208	-0.056
-287.589	-185.743	-0.228	-0.003
-286.574	-200.000	0.040	-0.202
-285.559	-200.000	-0.018	-0.087
-284.545	103.963	-0.181	-0.214
-283.530	-57.782	-0.252	0.111
-282.516	-163.690	0.260	-0.012
-281.501	800.000	-0.043	0.139
-280.486	-64.846	0.129	0.052
-279.472	342.347	0.029	0.057
-278.457	-121.053	0.269	-0.045
-277.443	-11.045	0.176	0.117
-276.428	413.388	0.145	0.310
-275.413	376.390	-0.059	0.122
-274.399	-42.942	0.570	0.291
-273.384	63.172	-0.139	-0.140
-272.370	-19.750	-0.189	0.117
-271.355	-200.000	-0.076	0.479
-270.340	24.630	-0.355	0.295
-269.326	-200.000	0.024	0.115
-268.311	45.523	0.334	-0.310
-267.297	-3.442	0.218	-0.152
-266.282	57.300	-0.104	-0.102
-265.267	-127.178	-0.320	-0.047
-264.253	-38.654	0.076	0.040
-263.238	-196.783	0.115	-0.001
-262.224	-200.000	0.044	0.201
-261.209	-200.000	0.235	-0.001
-260.195	-157.830	0.246	-0.015
-259.180	27.732	0.179	-0.152
-258.165	-200.000	-0.031	0.203
-257.151	12.188	0.067	-0.052
-256.136	10.402	0.209	-0.159
-255.122	-41.074	0.274	0.142
-254.107	-32.119	0.230	-0.129
-253.092	-143.086	0.402	-0.039
-252.078	800.000	0.009	0.037
-251.063	-200.000	-0.037	-0.192
-250.049	-129.208	-0.133	-0.019
-249.034	-158.861	0.386	0.022
-248.019	-200.000	-0.000	-0.019
-247.005	6.623	0.322	-0.240
-245.990	-133.421	0.076	-0.010
-244.976	13.602	-0.097	0.075
-243.961	-117.096	0.425	0.078
-242.946	-200.000	0.005	0.144
-241.932	-200.000	-0.007	0.100
-240.917	800.000	-0.051	0.221
-239.903	-132.810	-0.197	-0.025
-238.888	-134.073	0.120	0.015
-237.873	-4.406	0.282	-0.196
-236.859	800.000	0.092	-0.270
-235.844	120.268	-0.161	-0.200
-234.830	-120.937	0.077	-0.013
-233.815	-200.000	-0.052	-0.422
-232.800	80.250	0.073	-0.078
-231.786	-165.474	-0.345	-0.015
-230.771	800.000	0.052	-0.165
-229.757	-178.551	0.444	0.010
-228.742	91.098	-0.202	-0.227
-227.727	-132.713	-0.212	0.027
-226.713	346.441	0.020	0.039
-225.698	-200.000	0.038	0.359
-224.684	54.396	-0.296	0.286
-223.669	-137.025	-0.247	0.028
-222.655	-200.000	0.010	0.156
-221.640	-145.205	0.380	-0.035
-220.625	800.000	-0.094	-0.277
-219.611	-200.000	-0.014	0.070
-218.596	-89.121	0.140	0.041
-217.582	-98.027	-0.202	0.052
-216.567	-200.000	0.073	0.350
-215.552	-12.174	-0.473	0.311
-214.538	113.396	0.151	-0.184
-213.523	135.203	-0.113	-0.148
-212.509	1.160	-0.304	-0.219
-211.494	-13.375	-0.089	-0.058
-210.479	372.056	-0.077	0.157
-209.465	436.893	-0.048	0.105
-208.450	-200.000	-0.029	-0.172
-207.436	-8.693	0.192	0.129
-206.421	431.761	-0.037	-0.080
-205.406	123.317	0.200	0.251
-204.392	37.976	0.040	0.036
-203.377	-200.000	-0.024	-0.236
-202.363	-200.000	0.044	-0.210
-201.348	47.220	0.122	0.114
-200.333	-69.434	0.256	0.098
-199.319	75.405	0.113	0.120
-198.304	-109.503	-0.194	0.041
-197.290	-200.000	-0.004	0.316
-196.275	299.255	0.075	-0.138
-195.260	-33.325	-0.140	-0.077
-194.246	800.000	-0.102	0.373
-193.231	-127.129	-0.187	-0.027
-192.217	-66.361	-0.153	-0.061
-191.202	-90.635	-0.220	-0.064
-190.187	-194.347	-0.274	0.002
-189.173	-87.649	-0.339	0.102
-188.158	212.699	0.047	-0.074
-187.144	-200.000	-0.006	-0.048
-186.129	761.414	-0.063	0.171
-185.114	28.610	0.278	0.235
-184.100	-134.060	0.128	0.016
-183.085	34.524	-0.366	-0.320
-182.071	-200.000	0.036	0.305
-181.056	-200.000	-0.030	0.170
-180.042	800.000	0.006	0.019
-179.027	-102.522	0.187	-0.045
-178.012	-200.000	0.017	-0.077
-176.998	756.118	0.090	0.243
-175.983	-46.902	-0.225	-0.110
-174.969	-94.319	-0.127	-0.035
-173.954	217.516	0.051	-0.082
-172.939	168.957	-0.183	0.261
-171.925	-105.622	-0.288	-0.065
-170.910	800.000	0.098	-0.338
-169.896	-200.000	0.014	0.095
-168.881	-107.750	-0.217	0.047
-167.866	-44.797	-0.160	0.080
-166.852	-102.817	-0.175	-0.042
-165.837	800.000	0.158	-0.473
-164.823	-80.435	0.255	-0.085
-163.808	800.000	-0.049	0.185
-162.793	-113.717	-0.092	0.018
-161.779	-200.000	0.013	-0.199
-160.764	-114.269	-0.057	-0.011
-159.750	398.750	0.021	0.044
-158.735	-139.132	-0.231	0.025
-157.720	-139.760	-0.003	0.000
-156.706	149.781	-0.132	-0.178
-155.691	-150.781	0.424	0.032
-154.677	478.761	-0.016	0.037
-153.662	-96.581	0.193	-0.051
-152.647	101.046	0.213	-0.248
-151.633	375.858	0.244	0.498
-150.618	145.816	-0.150	-0.201
-149.604	-31.698	0.103	-0.058
-148.589	-200.000	0.036	0.205
-147.574	-200.000	-0.004	-0.123
-146.560	-110.198	0.111	0.023
-145.545	-124.634	0.180	-0.028
-144.531	-107.188	0.359	0.079
-143.516	-171.819	0.149	0.005
-142.502	-154.699	-0.239	-0.016
-141.487	-200.000	-0.059	-0.312
-140.472	-73.763	-0.369	0.134
-139.458	800.000	0.006	-0.016
-138.443	-200.000	-0.007	-0.204
-137.429	-83.072	0.291	0.094
-136.414	331.014	-0.075	-0.144
-135.399	-52.770	-0.133	-0.062
-134.385	20.946	0.287	0.232
-133.370	-167.349	0.107	0.004
-132.356	800.000	0.054	0.201
-131.341	297.436	0.127	0.234
-130.326	62.443	-0.121	-0.121
-129.312	-200.000	0.061	0.420
-128.297	114.263	-0.106	0.128
-127.283	789.569	-0.038	-0.105
-126.268	187.430	0.125	0.186
-125.253	-131.423	-0.149	-0.020
-124.239	800.000	-0.165	-0.522
-123.224	135.572	-0.141	-0.184
-122.210	226.761	0.071	-0.116
