DTS Sentinel unit serial number:	SN413079Multiplexer serial number:	ORYXHardware model number:	OX4-SRSoftware version number:	ORYX F/W v4.00 Oryx Data Collector v3.7.2.0data status	okinstallation	princeton_trtdifferential loss correction	single-endedforward channel	channel 1reverse channel	N/Adate	2019/09/18time	19:30:35forward acquisition time	60.00reverse acquisition time	0.00gamma	496.2192k internal	0.2324k external	0.2324temperature offset calibration	1.0024default loss term (dB/km)	0.3790temperature slope calibration	1.0000multiplexer offset coefficient	1.0000multiplexer slope coefficient	1.0000fibre end	0.00T internal ref (°C)	32.87T ext. ref 1 (°C)	1.04T ext. ref 2 (°C)	22.73length (m)	temperature (°C)	Stokes	anti-Stokes-747.200	-200.000	0.359	0.000
-746.185	-200.000	0.100	0.465
-745.171	51.101	0.162	-0.155
-744.156	-200.000	-0.014	-0.324
-743.142	290.988	-0.146	-0.268
-742.127	-200.000	0.017	0.372
-741.112	203.528	0.099	0.155
-740.098	-200.000	0.035	0.247
-739.083	-183.678	0.204	0.004
-738.069	800.000	-0.115	0.336
-737.054	-20.231	-0.275	-0.171
-736.039	-162.066	-0.213	0.011
-735.025	25.038	0.132	0.111
-734.010	287.968	0.174	-0.317
-732.996	27.513	-0.132	-0.112
-731.981	-200.000	-0.017	-0.483
-730.966	-127.489	-0.133	0.020
-729.952	-55.431	-0.382	-0.173
-728.937	225.185	0.271	-0.443
-727.923	-73.502	-0.199	0.073
-726.908	-200.000	-0.026	0.130
-725.894	435.111	-0.037	0.081
-724.879	-200.000	0.073	-0.429
-723.864	168.950	-0.206	0.296
-722.850	415.108	-0.131	0.281
-721.835	394.882	-0.044	-0.092
-720.821	-200.000	-0.053	-0.276
-719.806	-93.718	0.166	-0.046
-718.791	67.904	0.117	-0.120
-717.777	800.000	0.060	-0.235
-716.762	80.919	0.176	-0.192
-715.748	23.186	0.120	0.099
-714.733	-200.000	-0.014	0.160
-713.718	-124.789	-0.055	-0.009
-712.704	-131.336	-0.371	-0.050
-711.689	704.057	-0.125	0.332
-710.675	-200.000	-0.018	-0.201
-709.660	10.826	0.170	-0.131
-708.645	-129.544	0.274	0.038
-707.631	4.424	0.083	0.061
-706.616	30.107	0.381	0.328
-705.602	-54.184	0.162	0.074
-704.587	-78.920	-0.113	0.039
-703.572	658.770	-0.081	0.209
-702.558	20.998	0.072	0.059
-701.543	-83.144	-0.045	-0.015
-700.529	800.000	-0.097	-0.330
-699.514	146.842	-0.201	-0.273
-698.499	-56.659	0.167	0.075
-697.485	-67.452	-0.283	-0.112
-696.470	-17.011	-0.174	-0.111
-695.456	26.723	-0.083	-0.070
-694.441	39.646	0.100	-0.091
-693.426	146.206	-0.054	0.073
-692.412	-138.942	-0.287	0.031
-691.397	178.621	-0.206	0.302
-690.383	-200.000	-0.014	0.221
-689.368	99.183	-0.231	0.269
-688.354	-200.000	0.012	0.232
-687.339	-166.154	-0.264	0.011
-686.324	800.000	0.067	0.200
-685.310	293.196	-0.225	0.414
-684.295	-101.469	0.152	0.037
-683.281	0.354	-0.246	0.177
-682.266	-114.050	-0.175	0.034
-681.251	-23.598	-0.107	0.064
-680.237	133.852	-0.165	0.215
-679.222	707.413	-0.118	0.315
-678.208	70.392	0.014	-0.014
-677.193	-192.246	-0.310	-0.003
-676.178	-61.262	-0.408	0.173
-675.164	-200.000	0.001	0.029
-674.149	377.072	-0.133	0.274
-673.135	129.840	-0.247	0.318
-672.120	732.780	-0.017	-0.046
-671.105	-192.119	0.123	-0.001
-670.091	-29.825	-0.224	-0.129
-669.076	-60.425	-0.079	0.034
-668.062	47.347	-0.205	-0.192
-667.047	-200.000	0.037	-0.184
-666.032	-66.965	-0.119	-0.047
-665.018	-60.773	0.085	0.036
-664.003	-70.838	0.202	0.077
-662.989	154.944	-0.049	-0.068
-661.974	-52.227	0.102	-0.048
-660.959	597.951	0.112	0.279
-659.945	-16.554	-0.157	0.100
-658.930	604.767	0.136	-0.341
-657.916	-88.048	-0.544	-0.164
-656.901	286.430	0.183	-0.332
-655.886	-187.489	-0.158	-0.002
-654.872	-26.731	-0.359	-0.212
-653.857	278.184	0.035	0.063
-652.843	-54.528	-0.044	0.020
-651.828	2.437	0.231	-0.169
-650.814	261.051	-0.135	-0.236
-649.799	47.439	0.036	-0.034
-648.784	-200.000	-0.067	0.360
-647.770	-70.561	-0.383	0.146
-646.755	-200.000	-0.011	0.282
-645.741	717.237	-0.065	0.174
-644.726	-200.000	0.030	-0.185
-643.711	-152.295	0.165	0.012
-642.697	154.147	-0.175	0.242
-641.682	-51.262	0.543	-0.255
-640.668	-200.000	0.060	-0.275
-639.653	25.906	-0.300	0.251
-638.638	-34.049	0.233	-0.129
-637.624	-89.616	0.202	-0.060
-636.609	-142.348	0.338	0.034
-635.595	800.000	0.075	0.309
-634.580	800.000	-0.066	0.276
-633.565	44.985	-0.266	-0.246
-632.551	-200.000	0.016	0.198
-631.536	-42.045	-0.266	0.137
-630.522	-166.605	0.415	-0.017
-629.507	-180.607	-0.041	0.001
-628.492	-72.971	0.140	-0.052
-627.478	-185.619	-0.540	-0.008
-626.463	132.893	0.063	-0.081
-625.449	-47.566	0.193	0.094
-624.434	100.040	0.159	-0.185
-623.419	800.000	0.026	-0.074
-622.405	265.094	0.039	0.068
-621.390	-2.859	0.251	0.176
-620.376	-39.825	-0.214	0.112
-619.361	-200.000	-0.012	-0.291
-618.346	206.985	-0.254	0.398
-617.332	-48.172	0.281	-0.136
-616.317	-200.000	0.012	-0.084
-615.303	58.832	0.318	-0.314
-614.288	115.292	0.185	0.227
-613.273	-53.584	0.241	0.110
-612.259	-61.234	0.302	-0.128
-611.244	157.361	-0.179	0.249
-610.230	-200.000	-0.035	0.293
-609.215	-200.000	-0.004	0.090
-608.201	81.303	-0.223	-0.242
-607.186	-135.206	-0.212	0.026
-606.171	-99.835	-0.180	-0.045
-605.157	167.796	-0.111	0.159
-604.142	-200.000	-0.004	-0.147
-603.128	58.121	-0.125	0.123
-602.113	-200.000	-0.027	-0.203
-601.098	87.535	-0.359	0.399
-600.084	800.000	0.070	0.267
-599.069	-133.782	-0.041	0.005
-598.055	-19.702	-0.393	-0.244
-597.040	-38.932	-0.218	-0.115
-596.025	-26.734	0.025	-0.015
-595.011	-100.358	0.283	-0.071
-593.996	422.440	-0.155	-0.333
-592.982	165.175	-0.157	-0.223
-591.967	-200.000	-0.002	-0.182
-590.952	-120.062	0.203	0.035
-589.938	198.278	-0.128	-0.197
-588.923	334.865	-0.166	-0.323
-587.909	-86.416	-0.466	-0.144
-586.894	-200.000	0.009	-0.312
-585.879	76.183	-0.207	0.220
-584.865	237.713	0.098	-0.164
-583.850	800.000	-0.050	0.178
-582.836	292.287	-0.146	-0.267
-581.821	716.724	0.199	-0.530
-580.806	800.000	0.064	-0.185
-579.792	-89.861	0.098	-0.029
-578.777	61.198	0.253	-0.252
-577.763	-56.668	0.041	0.018
-576.748	207.456	0.017	0.026
-575.733	6.333	0.047	0.035
-574.719	-121.713	-0.083	-0.014
-573.704	-49.624	0.025	-0.012
-572.690	398.041	0.130	0.272
-571.675	64.180	-0.123	0.124
-570.661	-45.212	-0.084	0.042
-569.646	-28.341	0.130	0.075
-568.631	82.596	-0.165	0.180
-567.617	219.025	0.167	0.268
-566.602	-131.409	0.379	-0.050
-565.588	12.206	-0.146	0.113
-564.573	-114.352	0.137	0.026
-563.558	-124.722	0.141	0.022
-562.544	-157.748	0.350	0.021
-561.529	72.576	-0.292	-0.306
-560.515	137.515	-0.184	-0.241
-559.500	25.563	-0.154	-0.128
-558.485	448.941	-0.118	-0.261
-557.471	-111.097	0.246	-0.051
-556.456	252.147	0.142	-0.243
-555.442	-50.726	-0.255	-0.120
-554.427	800.000	0.039	-0.131
-553.412	800.000	0.041	-0.146
-552.398	270.142	-0.036	-0.063
-551.383	96.913	0.113	0.130
-550.369	-200.000	-0.031	-0.339
-549.354	-64.537	-0.136	-0.055
-548.339	-200.000	0.006	-0.272
-547.325	181.160	-0.152	0.223
-546.310	96.873	-0.084	0.097
-545.296	-200.000	-0.004	0.033
-544.281	25.872	-0.236	0.197
-543.266	-121.694	-0.258	0.043
-542.252	288.197	-0.145	-0.263
-541.237	279.166	-0.032	-0.057
-540.223	-200.000	0.016	-0.459
-539.208	275.437	0.120	-0.213
-538.193	800.000	-0.082	-0.331
-537.179	-200.000	-0.023	0.186
-536.164	-74.473	0.106	0.038
-535.150	-49.897	-0.127	0.060
-534.135	-200.000	-0.020	0.220
-533.121	-102.724	-0.122	0.029
-532.106	-106.088	0.285	0.064
-531.091	-166.281	-0.278	-0.012
-530.077	-65.426	-0.204	-0.082
-529.062	-200.000	-0.037	-0.256
-528.048	-0.166	0.230	-0.164
-527.033	-34.149	-0.327	-0.180
-526.018	800.000	-0.137	-0.389
-525.004	436.549	-0.036	-0.078
-523.989	800.000	-0.084	0.282
-522.975	-200.000	-0.038	0.276
-521.960	-26.268	-0.048	-0.028
-520.945	76.518	0.420	0.445
-519.931	800.000	0.057	-0.204
-518.916	25.243	0.145	-0.120
-517.902	-27.424	0.074	-0.043
-516.887	-200.000	-0.001	-0.184
-515.872	-82.096	-0.120	-0.039
-514.858	800.000	-0.032	0.110
-513.843	152.928	0.323	0.441
-512.829	141.220	-0.058	0.077
-511.814	-88.561	-0.073	0.022
-510.799	-10.098	-0.278	-0.185
-509.785	51.890	0.268	-0.255
-508.770	-108.889	0.423	0.090
-507.756	-77.002	-0.170	0.059
-506.741	-59.528	-0.218	-0.094
-505.726	193.397	0.062	0.094
-504.712	796.636	-0.072	-0.199
-503.697	73.456	0.122	-0.128
-502.683	61.625	-0.104	-0.103
-501.668	128.689	0.023	0.029
-500.653	67.297	-0.175	-0.179
-499.639	34.334	-0.234	-0.204
-498.624	-34.574	0.105	-0.058
-497.610	3.204	0.357	0.260
-496.595	800.000	-0.124	-0.386
-495.581	-16.483	0.146	0.092
-494.566	800.000	0.008	0.024
-493.551	-53.374	-0.248	-0.113
-492.537	16.375	0.136	-0.107
-491.522	-167.372	0.176	0.007
-490.508	-175.528	-0.230	-0.006
-489.493	-86.562	-0.165	-0.051
-488.478	537.783	0.081	-0.192
-487.464	11.699	-0.283	0.217
-486.449	621.765	0.051	0.129
-485.435	120.313	-0.178	0.220
-484.420	-200.000	0.034	0.262
-483.405	575.826	0.115	0.282
-482.391	163.893	-0.037	0.053
-481.376	135.390	0.114	0.149
-480.362	1.623	0.131	-0.094
-479.347	-200.000	-0.011	-0.139
-478.332	-170.890	-0.182	-0.006
-477.318	-123.864	-0.349	0.055
-476.303	377.305	-0.102	0.208
-475.289	-200.000	0.013	-0.092
-474.274	127.391	-0.119	0.151
-473.259	-80.748	-0.237	-0.079
-472.245	11.244	-0.125	0.096
-471.230	-200.000	0.016	0.367
-470.216	-91.778	0.174	-0.049
-469.201	-128.464	-0.165	-0.023
-468.186	-143.953	0.213	-0.020
-467.172	-114.575	0.264	-0.050
-466.157	-52.005	0.175	-0.081
-465.143	695.073	-0.015	-0.039
-464.128	-69.520	-0.074	-0.028
-463.113	800.000	-0.069	0.277
-462.099	800.000	-0.057	-0.231
-461.084	258.816	-0.132	-0.227
-460.070	-45.463	0.152	-0.075
-459.055	-103.886	0.058	-0.014
-458.040	24.957	0.172	0.143
-457.026	-84.383	-0.416	0.131
-456.011	253.677	-0.121	-0.206
-454.997	129.633	0.106	0.135
-453.982	-125.195	0.162	-0.025
-452.968	89.969	0.182	0.203
-451.953	-200.000	-0.009	0.445
-450.938	47.978	-0.169	0.158
-449.924	563.071	-0.105	-0.255
-448.909	-89.083	-0.294	-0.087
-447.895	-77.536	-0.088	0.031
-446.880	-139.800	-0.288	0.031
-445.865	554.036	0.158	-0.379
-444.851	800.000	0.042	-0.164
-443.836	-94.611	-0.161	-0.044
-442.822	-52.946	-0.261	-0.120
-441.807	-8.839	-0.219	-0.147
-440.792	-200.000	0.015	0.168
-439.778	23.987	0.117	0.096
-438.763	-200.000	0.015	0.000
-437.749	21.045	-0.167	0.135
-436.734	-200.000	-0.016	0.253
-435.719	10.922	-0.206	-0.157
-434.705	-174.571	0.158	-0.004
-433.690	351.580	-0.140	-0.276
-432.676	-200.000	0.014	-0.296
-431.661	204.635	-0.086	0.132
-430.646	-133.484	-0.246	0.031
-429.632	-89.778	-0.098	-0.029
-428.617	277.253	-0.157	0.279
-427.603	-200.000	0.014	0.088
-426.588	-200.000	-0.024	0.108
-425.573	180.811	0.085	0.125
-424.559	-40.233	0.125	0.065
-423.544	-112.196	-0.094	0.019
-422.530	-12.303	0.060	0.039
-421.515	-47.627	-0.181	0.088
-420.500	-200.000	-0.006	-0.239
-419.486	800.000	0.030	0.095
-418.471	-112.772	-0.229	0.045
-417.457	800.000	0.134	-0.502
-416.442	-5.468	0.337	-0.230
-415.428	-200.000	0.015	0.110
-414.413	-200.000	0.008	-0.185
-413.398	-187.261	-0.461	0.006
-412.384	8.557	0.041	0.031
-411.369	72.695	-0.263	0.273
-410.355	252.660	0.363	-0.617
-409.340	-151.364	0.230	-0.017
-408.325	-200.000	0.044	-0.193
-407.311	38.510	-0.012	-0.011
-406.296	599.217	-0.167	-0.413
-405.282	-200.000	-0.005	0.197
-404.267	-200.000	-0.057	0.370
-403.252	-200.000	-0.072	0.386
-402.238	25.475	-0.157	-0.130
-401.223	463.942	0.109	-0.243
-400.209	73.957	0.192	0.201
-399.194	800.000	-0.050	-0.163
-398.179	800.000	0.076	-0.247
-397.165	151.093	0.054	-0.073
-396.150	-25.265	0.085	0.050
-395.136	-153.671	0.337	0.023
-394.121	476.613	0.180	-0.406
-393.106	275.505	0.081	-0.144
-392.092	800.000	0.016	-0.057
-391.077	-91.218	-0.317	0.090
-390.063	-137.439	-0.316	0.036
-389.048	800.000	-0.041	0.157
-388.033	-200.000	0.036	0.185
-387.019	-26.369	0.063	-0.037
-386.004	45.844	-0.203	0.187
-384.990	-200.000	0.002	-0.179
-383.975	-136.931	-0.002	-0.000
-382.960	-18.864	-0.307	-0.190
-381.946	-200.000	0.026	0.215
-380.931	570.930	-0.095	-0.229
-379.917	-200.000	0.030	0.151
-378.902	-61.422	0.347	0.145
-377.888	154.628	-0.038	0.053
-376.873	-200.000	0.006	0.214
-375.858	-200.000	-0.031	0.265
-374.844	-23.677	0.155	-0.092
-373.829	-200.000	0.004	0.241
-372.815	244.482	-0.024	-0.041
-371.800	-90.336	0.096	-0.028
-370.785	-200.000	0.014	0.230
-369.771	7.167	0.328	-0.243
-368.756	89.703	0.011	-0.012
-367.742	22.639	0.131	-0.107
-366.727	-94.551	0.353	0.096
-365.712	378.908	0.062	-0.127
-364.698	-48.722	0.171	0.082
-363.683	800.000	0.122	-0.380
-362.669	-101.329	-0.037	-0.009
-361.654	292.855	0.234	-0.424
-360.639	-183.202	-0.237	0.004
-359.625	-200.000	0.029	-0.164
-358.610	-25.275	0.140	-0.082
-357.596	-114.834	0.023	-0.004
-356.581	-200.000	-0.025	-0.170
-355.566	-200.000	0.010	0.113
-354.552	-174.506	0.125	-0.004
-353.537	-116.828	-0.060	0.011
-352.523	524.609	0.086	-0.200
-351.508	-10.207	0.140	0.092
-350.493	-160.750	-0.256	-0.014
-349.479	-50.198	0.025	0.012
-348.464	86.024	-0.129	-0.141
-347.450	-146.439	-0.159	0.014
-346.435	-64.887	0.129	-0.052
-345.420	195.312	-0.113	-0.171
-344.406	770.081	0.064	-0.174
-343.391	214.494	0.089	-0.140
-342.377	107.822	0.048	0.057
-341.362	538.452	-0.103	0.242
-340.348	800.000	0.085	-0.237
-339.333	-200.000	-0.024	0.247
-338.318	450.863	-0.131	0.287
-337.304	173.292	0.273	-0.391
-336.289	-62.382	0.031	-0.013
-335.275	11.857	0.214	-0.163
-334.260	800.000	0.090	-0.335
-333.245	56.587	-0.119	0.115
-332.231	800.000	-0.041	0.158
-331.216	-91.716	0.210	0.059
-330.202	-60.310	-0.183	0.077
-329.187	-200.000	-0.001	0.105
-328.172	-146.124	0.191	0.017
-327.158	397.827	-0.122	-0.253
-326.143	800.000	-0.017	0.054
-325.129	-200.000	0.004	-0.070
-324.114	800.000	0.091	0.294
-323.099	-200.000	-0.064	0.312
-322.085	-117.644	0.254	0.045
-321.070	-58.059	-0.195	0.085
-320.056	-129.472	0.197	0.027
-319.041	-195.987	0.142	0.001
-318.026	122.388	-0.018	-0.023
-317.012	-91.423	0.169	0.048
-315.997	800.000	-0.057	0.182
-314.983	281.491	-0.098	-0.174
-313.968	142.796	-0.192	-0.253
-312.953	165.682	0.192	-0.270
-311.939	-46.588	-0.196	-0.096
-310.924	800.000	-0.036	-0.106
-309.910	-90.625	0.426	0.122
-308.895	22.600	0.252	0.205
-307.880	800.000	0.064	-0.258
-306.866	414.004	-0.117	0.248
-305.851	800.000	0.031	0.125
-304.837	623.598	-0.075	-0.186
-303.822	-103.563	-0.185	0.043
-302.807	-159.039	0.167	-0.009
-301.793	-104.567	-0.064	-0.015
-300.778	73.541	-0.160	0.167
-299.764	-25.973	-0.063	-0.036
-298.749	-138.829	-0.089	0.010
-297.735	79.584	0.051	0.054
-296.720	310.424	0.141	-0.262
-295.705	52.333	0.292	-0.276
-294.691	-92.057	-0.024	-0.007
-293.676	249.839	-0.077	0.130
-292.662	-3.444	0.284	-0.196
-291.647	-200.000	0.026	0.245
-290.632	800.000	0.061	-0.193
-289.618	37.314	0.449	0.395
-288.603	-57.018	0.141	0.062
-287.589	106.680	0.204	-0.240
-286.574	800.000	-0.097	0.295
-285.559	-91.649	-0.238	0.067
-284.545	-200.000	0.071	-0.332
-283.530	-8.117	0.091	0.061
-282.516	121.602	0.098	0.121
-281.501	-200.000	0.011	0.103
-280.486	-98.053	0.172	-0.044
-279.472	-98.169	-0.142	0.036
-278.457	528.090	-0.058	0.136
-277.443	96.809	-0.038	-0.043
-276.428	39.656	0.316	-0.281
-275.413	-55.406	-0.112	-0.050
-274.399	17.065	0.222	-0.175
-273.384	-184.295	0.091	0.001
-272.370	422.686	-0.052	-0.112
-271.355	112.159	-0.142	-0.170
-270.340	-103.496	0.072	0.017
-269.326	70.087	-0.121	-0.124
-268.311	-52.272	-0.122	-0.056
-267.297	557.514	0.028	0.066
-266.282	-77.082	-0.241	0.083
-265.267	137.757	-0.171	0.222
-264.253	-200.000	0.028	0.263
-263.238	-61.208	-0.155	0.065
-262.224	800.000	-0.177	0.550
-261.209	-9.799	-0.047	0.031
-260.195	-200.000	0.003	-0.051
-259.180	-41.325	-0.253	0.129
-258.165	466.035	-0.119	0.264
-257.151	669.362	0.136	0.349
-256.136	800.000	0.041	0.172
-255.122	57.991	-0.100	0.097
-254.107	561.346	-0.075	0.180
-253.092	800.000	0.050	-0.200
-252.078	745.177	0.105	-0.279
-251.063	58.544	-0.060	-0.058
-250.049	24.148	-0.118	-0.096
-249.034	-200.000	0.024	0.148
-248.019	12.617	0.199	0.152
-247.005	306.616	0.049	-0.090
-245.990	-161.828	0.138	0.007
-244.976	450.001	-0.031	-0.068
-243.961	164.961	-0.193	-0.270
-242.946	-173.027	0.257	0.008
-241.932	-83.420	0.183	0.058
-240.917	-31.899	0.075	0.042
-239.903	-163.658	-0.303	-0.014
-238.888	148.522	-0.079	-0.105
-237.873	-146.034	-0.079	-0.007
-236.859	218.964	0.112	0.177
-235.844	-65.329	0.247	-0.098
-234.830	-133.256	-0.120	0.015
-233.815	-96.384	0.145	0.038
-232.800	-119.556	0.280	-0.048
-231.786	-148.466	0.168	0.014
-230.771	513.538	0.091	-0.209
-229.757	-200.000	-0.011	0.216
-228.742	-200.000	-0.002	-0.059
-227.727	-14.910	0.282	-0.179
-226.713	800.000	0.052	0.153
-225.698	174.160	0.284	0.406
-224.684	-200.000	-0.036	0.238
-223.669	271.949	-0.032	-0.055
-222.655	-122.787	-0.062	-0.010
-221.640	10.480	-0.226	0.170
-220.625	-200.000	0.015	0.066
-219.611	224.510	-0.061	0.098
-218.596	41.377	0.156	-0.139
-217.582	6.826	0.057	0.042
-216.567	-136.642	-0.221	-0.025
-215.552	-200.000	0.018	0.091
-214.538	-102.670	0.133	-0.031
-213.523	-123.389	-0.045	0.007
-212.509	800.000	0.029	-0.100
-211.494	-6.939	0.038	-0.025
-210.479	78.030	0.243	0.256
-209.465	33.598	-0.119	0.102
-208.450	-180.173	0.399	-0.008
-207.436	800.000	0.063	-0.181
-206.421	-97.364	0.206	-0.053
-205.406	-200.000	-0.022	-0.132
-204.392	256.139	0.067	0.113
-203.377	598.294	0.059	0.145
-202.363	276.001	0.221	-0.388
-201.348	336.347	0.029	-0.055
-200.333	-74.990	0.252	0.089
-199.319	-29.245	-0.153	0.087
-198.304	-200.000	0.004	0.192
-197.290	66.858	-0.344	0.346
-196.275	-142.134	0.301	0.030
-195.260	-104.949	-0.213	0.048
-194.246	-200.000	-0.042	-0.281
-193.231	38.794	0.046	-0.040
-192.217	800.000	0.028	-0.077
-191.202	-86.180	-0.300	0.091
-190.187	-39.061	0.099	-0.052
-189.173	650.261	-0.087	0.220
-188.158	-13.710	-0.061	-0.039
-187.144	-7.059	0.126	-0.085
-186.129	197.484	-0.279	0.421
-185.114	-200.000	-0.007	0.044
-184.100	81.962	0.244	0.261
-183.085	83.235	0.118	0.127
-182.071	755.099	-0.100	0.266
-181.056	-200.000	0.039	0.406
-180.042	85.326	-0.135	-0.147
-179.027	-22.987	-0.282	0.168
-178.012	267.335	0.126	-0.219
-176.998	463.232	0.180	0.396
-175.983	132.687	0.104	0.132
-174.969	-54.167	0.056	-0.025
-173.954	198.184	-0.101	-0.152
-172.939	-200.000	-0.028	0.234
-171.925	-200.000	0.049	0.472
-170.910	522.603	0.197	-0.456
-169.896	800.000	0.082	0.244
-168.881	221.260	-0.174	-0.276
-167.866	601.927	-0.061	-0.150
-166.852	-200.000	-0.003	0.513
-165.837	-200.000	0.022	-0.299
-164.823	-200.000	-0.053	0.288
-163.808	-129.738	0.167	0.023
-162.793	29.455	-0.179	-0.150
-161.779	-96.160	-0.358	0.094
-160.764	20.383	-0.026	-0.021
-159.750	139.698	0.307	0.399
-158.735	-200.000	-0.047	0.371
-157.720	334.883	-0.149	0.284
-156.706	48.778	-0.262	0.243
-155.691	150.330	-0.221	-0.296
-154.677	528.323	0.049	-0.113
-153.662	324.546	0.101	-0.189
-152.647	72.623	-0.086	-0.088
-151.633	-69.398	-0.253	-0.096
-150.618	159.464	0.142	-0.195
-149.604	-108.006	-0.181	0.039
-148.589	-200.000	-0.053	-0.331
-147.574	25.422	0.055	0.045
-146.560	800.000	-0.032	0.117
-145.545	179.397	-0.073	0.106
-144.531	-67.974	0.382	-0.147
-143.516	800.000	-0.047	0.173
-142.502	289.654	-0.078	0.140
-141.487	-40.095	-0.223	0.115
-140.472	-200.000	0.002	-0.292
-139.458	-34.902	0.047	0.025
-138.443	800.000	0.054	-0.180
-137.429	-94.102	0.185	0.050
-136.414	-56.541	0.225	0.098
-135.399	590.956	-0.051	0.125
-134.385	58.445	-0.243	0.235
-133.370	105.131	-0.055	0.064
-132.356	148.590	0.119	0.159
-131.341	-27.927	0.189	0.108
-130.326	265.486	-0.116	0.200
-129.312	-200.000	-0.033	-0.264
-128.297	-112.167	-0.294	0.058
-127.283	-78.412	0.391	0.132
-126.268	-31.629	-0.306	0.169
-125.253	-34.511	0.422	0.228
-124.239	56.220	0.132	-0.126
-123.224	-122.734	0.339	-0.054
-122.210	-200.000	0.041	-0.262
-121.195	-93.776	-0.419	0.114
