DTS Sentinel unit serial number:	SN413079Multiplexer serial number:	ORYXHardware model number:	OX4-SRSoftware version number:	ORYX F/W v4.00 Oryx Data Collector v3.7.2.0data status	okinstallation	princeton_trtdifferential loss correction	single-endedforward channel	channel 1reverse channel	N/Adate	2019/09/17time	07:30:35forward acquisition time	60.00reverse acquisition time	0.00gamma	496.2192k internal	0.2332k external	0.2332temperature offset calibration	0.9967default loss term (dB/km)	0.3790temperature slope calibration	1.0000multiplexer offset coefficient	1.0000multiplexer slope coefficient	1.0000fibre end	0.00T internal ref (°C)	27.19T ext. ref 1 (°C)	0.11T ext. ref 2 (°C)	21.68length (m)	temperature (°C)	Stokes	anti-Stokes-747.200	-200.000	-0.031	-0.226
-746.185	-137.385	-0.087	0.010
-745.171	114.144	0.137	-0.167
-744.156	-19.268	0.380	0.237
-743.142	-127.053	0.128	-0.019
-742.127	-34.051	-0.144	-0.080
-741.112	-124.791	-0.468	-0.073
-740.098	-2.057	0.278	0.196
-739.083	-45.539	0.183	-0.091
-738.069	121.851	0.198	0.248
-737.054	190.688	0.130	0.197
-736.039	483.694	-0.177	0.404
-735.025	24.284	0.144	-0.119
-734.010	-116.376	-0.328	-0.061
-732.996	-47.383	-0.105	-0.051
-731.981	-89.360	-0.159	-0.047
-730.966	651.078	-0.059	-0.153
-729.952	-97.275	-0.242	-0.063
-728.937	-67.149	0.085	-0.034
-727.923	800.000	0.041	-0.148
-726.908	-138.787	-0.112	0.012
-725.894	-200.000	-0.004	-0.148
-724.879	325.521	-0.073	0.140
-723.864	-104.476	-0.294	0.068
-722.850	-93.027	-0.301	-0.084
-721.835	82.872	0.268	-0.293
-720.821	49.783	-0.052	-0.049
-719.806	800.000	-0.011	0.041
-718.791	99.181	0.121	0.140
-717.777	800.000	-0.026	0.077
-716.762	-67.277	0.158	0.063
-715.748	-200.000	-0.040	0.176
-714.733	-98.051	-0.124	0.032
-713.718	-57.280	0.272	0.120
-712.704	-63.728	-0.203	-0.084
-711.689	115.867	0.323	-0.397
-710.675	-200.000	0.035	0.172
-709.660	154.042	0.206	-0.284
-708.645	119.843	0.121	-0.150
-707.631	-15.868	-0.118	-0.075
-706.616	270.494	0.063	-0.111
-705.602	-177.108	-0.075	0.002
-704.587	-47.443	-0.271	-0.132
-703.572	-107.624	0.289	-0.063
-702.558	35.236	-0.276	-0.243
-701.543	157.503	-0.132	-0.184
-700.529	-16.298	-0.047	0.030
-699.514	99.183	-0.213	-0.248
-698.499	-56.480	0.228	-0.102
-697.485	162.846	0.152	-0.214
-696.470	30.060	-0.111	-0.095
-695.456	132.508	-0.099	0.128
-694.441	800.000	-0.050	0.205
-693.426	-200.000	0.030	-0.456
-692.412	800.000	-0.100	-0.306
-691.397	2.750	-0.343	-0.249
-690.383	800.000	-0.071	0.241
-689.368	-57.670	-0.397	0.174
-688.354	800.000	-0.045	0.170
-687.339	-10.291	0.078	0.052
-686.324	-175.845	0.249	-0.007
-685.310	-200.000	0.026	-0.242
-684.295	800.000	-0.076	0.280
-683.281	-14.841	0.111	-0.071
-682.266	-200.000	-0.049	0.298
-681.251	-200.000	0.175	-0.000
-680.237	88.974	-0.283	-0.316
-679.222	-24.651	0.042	0.025
-678.208	-175.191	0.204	-0.006
-677.193	83.021	-0.100	0.109
-676.178	-102.528	0.237	-0.057
-675.164	710.077	-0.082	-0.217
-674.149	-147.985	-0.315	-0.026
-673.135	315.311	0.116	0.219
-672.120	82.001	0.144	-0.157
-671.105	-200.000	-0.005	-0.074
-670.091	50.452	0.224	-0.212
-669.076	543.933	-0.013	0.031
-668.062	-200.000	0.024	0.427
-667.047	437.974	-0.059	-0.129
-666.032	-128.558	-0.181	0.026
-665.018	-185.827	-0.082	-0.001
-664.003	-200.000	-0.006	0.133
-662.989	-200.000	0.014	-0.146
-661.974	-200.000	-0.030	-0.237
-660.959	-175.962	-0.277	0.007
-659.945	62.863	-0.207	-0.208
-658.930	-86.173	0.180	-0.056
-657.916	-109.025	-0.203	0.043
-656.901	173.009	-0.116	0.168
-655.886	291.578	0.123	0.225
-654.872	51.731	-0.236	0.225
-653.857	82.503	-0.104	-0.113
-652.843	495.666	-0.140	0.322
-651.828	-13.484	-0.079	0.051
-650.814	-14.005	0.274	-0.177
-649.799	388.345	-0.049	-0.101
-648.784	-10.991	-0.292	-0.193
-647.770	82.183	0.071	0.077
-646.755	-200.000	0.016	0.250
-645.741	-32.837	-0.293	-0.163
-644.726	-79.310	0.238	0.081
-643.711	358.822	0.037	0.075
-642.697	-102.709	0.159	0.038
-641.682	-200.000	0.003	-0.192
-640.668	-128.967	-0.327	-0.046
-639.653	-129.338	-0.291	0.041
-638.638	539.296	-0.100	0.237
-637.624	-45.004	-0.375	0.187
-636.609	-101.662	-0.130	-0.032
-635.595	800.000	-0.054	-0.157
-634.580	-200.000	-0.004	-0.483
-633.565	-51.443	0.376	-0.176
-632.551	182.308	-0.140	0.207
-631.536	-200.000	0.026	0.120
-630.522	800.000	0.112	0.387
-629.507	800.000	0.110	-0.412
-628.492	-200.000	0.019	0.317
-627.478	-200.000	-0.036	0.161
-626.463	-26.023	0.181	0.107
-625.449	-67.638	0.095	0.037
-624.434	529.563	-0.243	-0.575
-623.419	-25.172	0.068	-0.040
-622.405	-131.796	-0.211	0.028
-621.390	-200.000	-0.028	0.157
-620.376	135.692	-0.112	0.146
-619.361	-200.000	0.014	-0.124
-618.346	-7.102	0.220	-0.150
-617.332	-200.000	-0.031	0.143
-616.317	-69.822	0.049	0.019
-615.303	-102.195	0.445	-0.107
-614.288	-200.000	-0.024	-0.255
-613.273	-126.168	0.261	0.039
-612.259	-48.041	-0.380	0.184
-611.244	-17.255	-0.155	-0.098
-610.230	800.000	0.054	-0.172
-609.215	-200.000	-0.005	0.142
-608.201	15.716	0.130	-0.102
-607.186	-191.566	0.251	0.003
-606.171	47.164	-0.428	0.398
-605.157	-6.475	0.235	-0.160
-604.142	150.146	-0.219	-0.298
-603.128	-31.462	-0.091	-0.051
-602.113	533.314	0.103	-0.245
-601.098	-134.892	-0.270	0.033
-600.084	312.236	-0.083	0.155
-599.069	-90.364	-0.101	-0.029
-598.055	95.118	0.284	0.323
-597.040	-111.567	-0.109	-0.022
-596.025	184.339	-0.026	-0.038
-595.011	800.000	0.027	0.101
-593.996	85.003	-0.228	0.250
-592.982	188.431	-0.069	0.103
-591.967	95.186	-0.200	0.228
-590.952	-200.000	-0.020	-0.095
-589.938	-63.579	0.099	-0.041
-588.923	-47.008	-0.255	-0.124
-587.909	-200.000	-0.060	-0.283
-586.894	-12.555	-0.058	-0.038
-585.879	6.960	-0.174	-0.129
-584.865	-94.763	-0.312	0.085
-583.850	-200.000	-0.004	0.130
-582.836	-123.922	0.222	0.035
-581.821	-140.988	0.314	0.032
-580.806	169.448	0.062	0.088
-579.792	172.640	-0.087	-0.125
-578.777	-71.785	0.104	0.039
-577.763	-200.000	-0.043	0.282
-576.748	-104.524	0.250	-0.058
-575.733	-6.474	0.411	0.280
-574.719	800.000	-0.022	0.094
-573.704	-50.182	-0.197	-0.093
-572.690	-98.294	-0.171	0.044
-571.675	-10.895	0.241	0.159
-570.661	-83.185	0.118	0.038
-569.646	-200.000	-0.002	-0.202
-568.631	246.060	0.038	-0.063
-567.617	170.072	-0.120	-0.171
-566.602	101.766	0.186	-0.217
-565.588	-34.703	0.112	0.061
-564.573	-200.000	0.012	-0.463
-563.558	-34.543	0.129	0.071
-562.544	800.000	0.032	-0.119
-561.529	-116.698	-0.477	0.088
-560.515	800.000	-0.012	0.046
-559.500	40.589	-0.203	-0.183
-558.485	18.949	-0.203	-0.163
-557.471	-29.536	0.060	-0.034
-556.456	441.881	-0.052	-0.114
-555.442	800.000	-0.049	-0.206
-554.427	-141.881	-0.171	-0.017
-553.412	456.735	-0.108	-0.239
-552.398	472.577	0.098	0.219
-551.383	-122.884	0.118	-0.019
-550.369	86.469	0.096	-0.106
-549.354	-104.027	0.179	-0.042
-548.339	-111.836	0.551	0.111
-547.325	31.147	0.099	-0.085
-546.310	-22.340	0.142	-0.086
-545.296	39.347	-0.320	0.286
-544.281	272.216	-0.053	0.094
-543.266	-111.786	-0.184	0.037
-542.252	-180.875	-0.022	-0.000
-541.237	402.967	-0.014	0.028
-540.223	283.824	0.007	0.012
-539.208	87.480	-0.126	-0.139
-538.193	50.770	0.088	0.084
-537.179	800.000	-0.107	-0.376
-536.164	280.910	0.097	0.174
-535.150	141.545	0.083	-0.109
-534.135	800.000	0.080	0.342
-533.121	-200.000	0.004	-0.121
-532.106	-200.000	0.010	-0.270
-531.091	-91.350	-0.411	-0.117
-530.077	-117.156	-0.143	0.026
-529.062	77.460	0.329	-0.350
-528.048	-29.825	-0.306	0.174
-527.033	-4.700	-0.113	0.078
-526.018	-119.148	-0.225	-0.039
-525.004	-154.043	0.152	-0.010
-523.989	-200.000	0.024	0.285
-522.975	-200.000	0.017	0.243
-521.960	480.822	-0.060	0.136
-520.945	-122.353	0.181	-0.029
-519.931	299.121	0.021	0.039
-518.916	-141.585	-0.347	0.035
-517.902	-200.000	0.055	0.434
-516.887	301.639	0.150	0.276
-515.872	800.000	0.006	0.016
-514.858	800.000	0.121	0.503
-513.843	800.000	-0.112	-0.366
-512.829	-30.823	-0.295	0.166
-511.814	68.354	0.127	-0.129
-510.799	11.205	-0.342	-0.261
-509.785	-93.973	-0.043	-0.012
-508.770	-116.829	-0.099	-0.018
-507.756	108.101	-0.075	0.090
-506.741	-200.000	0.043	0.287
-505.726	-149.805	-0.247	0.019
-504.712	-200.000	-0.000	-0.325
-503.697	-17.988	-0.143	-0.089
-502.683	30.327	-0.365	-0.311
-501.668	-43.112	0.136	0.069
-500.653	390.676	-0.046	0.096
-499.639	800.000	0.038	-0.161
-498.624	48.203	0.295	0.275
-497.610	303.541	0.246	0.455
-496.595	-55.810	-0.406	-0.181
-495.581	-123.374	-0.259	-0.041
-494.566	-145.618	-0.033	0.003
-493.551	-152.344	-0.215	-0.015
-492.537	226.690	-0.309	0.500
-491.522	502.127	-0.073	-0.168
-490.508	-113.263	0.367	-0.072
-489.493	106.222	-0.220	0.260
-488.478	264.052	-0.206	0.357
-487.464	-14.064	-0.248	-0.160
-486.449	325.628	-0.015	-0.028
-485.435	134.179	0.106	0.137
-484.420	398.013	-0.110	-0.229
-483.405	-200.000	-0.008	-0.101
-482.391	49.447	0.062	-0.058
-481.376	-61.146	-0.311	0.131
-480.362	318.655	-0.138	0.261
-479.347	-182.293	0.105	-0.002
-478.332	-200.000	-0.024	0.118
-477.318	2.148	-0.265	-0.190
-476.303	527.849	0.043	0.101
-475.289	-182.624	0.066	-0.001
-474.274	413.400	-0.084	0.177
-473.259	-122.847	0.137	-0.022
-472.245	23.902	-0.192	0.157
-471.230	-35.967	0.099	0.053
-470.216	-18.940	-0.151	0.093
-469.201	800.000	0.106	-0.352
-468.186	-200.000	0.473	0.000
-467.172	-146.578	0.204	-0.018
-466.157	-51.854	-0.205	0.095
-465.143	800.000	0.109	0.302
-464.128	-52.048	-0.184	-0.085
-463.113	76.801	-0.158	-0.167
-462.099	234.362	-0.060	0.099
-461.084	-145.604	-0.052	0.005
-460.070	-57.257	0.187	0.082
-459.055	-99.468	0.106	0.027
-458.040	-68.896	-0.146	0.056
-457.026	-47.164	-0.120	-0.058
-456.011	800.000	-0.061	0.224
-454.997	-44.889	-0.181	0.090
-453.982	46.539	0.176	-0.163
-452.968	-200.000	-0.024	0.402
-451.953	-20.968	-0.086	0.053
-450.938	-23.483	0.145	-0.086
-449.924	800.000	-0.071	-0.199
-448.909	-94.679	-0.258	0.070
-447.895	-133.864	0.140	-0.017
-446.880	800.000	-0.067	0.236
-445.865	-102.047	-0.070	-0.017
-444.851	37.289	-0.161	0.142
-443.836	800.000	0.059	0.223
-442.822	-47.386	-0.179	-0.086
-441.807	56.516	0.267	-0.258
-440.792	-121.716	-0.208	0.034
-439.778	-139.789	-0.087	0.009
-438.763	-132.824	-0.192	0.024
-437.749	-132.013	0.185	-0.024
-436.734	530.601	0.083	-0.195
-435.719	-55.285	-0.358	0.160
-434.705	525.228	-0.113	0.265
-433.690	-200.000	0.004	-0.127
-432.676	-200.000	-0.034	0.362
-431.661	-200.000	-0.009	0.062
-430.646	-165.937	-0.464	-0.020
-429.632	154.943	-0.191	-0.260
-428.617	146.419	-0.224	0.298
-427.603	-158.314	0.251	0.015
-426.588	596.113	-0.072	0.177
-425.573	-8.462	0.148	-0.099
-424.559	269.178	0.076	0.132
-423.544	-200.000	-0.002	-0.169
-422.530	-12.877	0.260	-0.168
-421.515	-106.898	-0.190	0.042
-420.500	-100.652	-0.116	-0.028
-419.486	-200.000	-0.000	-0.348
-418.471	165.681	0.195	0.274
-417.457	269.084	0.081	-0.142
-416.442	730.572	0.104	0.276
-415.428	-137.743	0.370	0.041
-414.413	602.492	0.073	0.181
-413.398	194.372	-0.074	-0.112
-412.384	-60.338	0.142	-0.060
-411.369	730.141	-0.039	0.104
-410.355	-42.680	0.260	-0.131
-409.340	-65.235	-0.177	0.071
-408.325	-117.978	-0.238	0.042
-407.311	-146.483	-0.164	0.014
-406.296	-4.994	0.466	0.319
-405.282	446.393	-0.162	-0.354
-404.267	-41.274	-0.029	0.015
-403.252	-200.000	0.019	-0.315
-402.238	-162.082	-0.348	0.017
-401.223	105.294	0.076	-0.090
-400.209	-50.127	0.146	0.068
-399.194	-5.361	0.121	0.082
-398.179	-125.770	0.467	-0.070
-397.165	-145.052	-0.481	0.043
-396.150	-5.153	0.405	-0.276
-395.136	-69.815	0.256	-0.097
-394.121	-47.591	0.273	0.131
-393.106	-200.000	0.055	-0.294
-392.092	-9.594	-0.155	0.102
-391.077	-163.000	0.237	0.011
-390.063	651.463	0.059	0.151
-389.048	154.715	-0.229	0.312
-388.033	-93.849	0.245	0.067
-387.019	-73.059	-0.085	-0.031
-386.004	46.574	-0.285	-0.263
-384.990	-200.000	0.006	0.055
-383.975	100.809	0.214	-0.246
-382.960	800.000	0.060	0.181
-381.946	800.000	0.061	0.223
-380.931	398.061	0.139	0.289
-379.917	749.703	-0.043	-0.115
-378.902	-200.000	-0.004	-0.066
-377.888	111.470	0.035	-0.042
-376.873	-19.431	0.153	0.094
-375.858	-88.484	0.211	0.062
-374.844	91.554	-0.133	0.148
-373.829	409.545	0.096	-0.201
-372.815	26.762	0.225	0.187
-371.800	-121.346	0.024	-0.004
-370.785	603.220	0.081	-0.199
-369.771	-81.617	0.235	-0.076
-368.756	-38.970	-0.278	0.145
-367.742	458.884	0.150	-0.331
-366.727	394.371	0.052	-0.108
-365.712	-81.186	-0.315	-0.103
-364.698	-11.163	0.158	0.103
-363.683	-49.166	-0.322	-0.152
-362.669	80.095	0.170	-0.182
-361.654	-27.357	0.179	0.103
-360.639	706.528	0.047	-0.123
-359.625	337.721	-0.030	0.058
-358.610	33.580	0.311	-0.268
-357.596	-200.000	-0.001	-0.125
-356.581	87.422	0.316	0.346
-355.566	-50.913	0.285	-0.133
-354.552	527.851	-0.043	0.100
-353.537	-42.970	0.166	0.084
-352.523	-200.000	0.003	-0.045
-351.508	-16.062	-0.137	-0.086
-350.493	20.554	-0.162	0.130
-349.479	800.000	0.062	0.228
-348.464	-113.515	-0.251	0.049
-347.450	-200.000	-0.004	-0.053
-346.435	-200.000	-0.013	-0.086
-345.420	-200.000	0.011	-0.387
-344.406	-200.000	0.032	0.234
-343.391	-129.449	0.274	-0.038
-342.377	-56.850	0.257	-0.113
-341.362	-24.232	0.379	-0.224
-340.348	-25.308	0.205	-0.120
-339.333	119.904	-0.243	0.298
-338.318	800.000	0.033	0.144
-337.304	-200.000	0.012	0.418
-336.289	-200.000	-0.108	0.475
-335.275	800.000	0.049	0.167
-334.260	201.364	0.080	0.122
-333.245	487.320	-0.081	-0.182
-332.231	-200.000	-0.030	-0.162
-331.216	-8.155	0.292	-0.195
-330.202	-75.812	0.232	-0.081
-329.187	-200.000	0.030	-0.174
-328.172	-39.891	0.256	-0.132
-327.158	-33.930	0.205	0.112
-326.143	-141.238	0.130	-0.013
-325.129	122.329	0.151	0.186
-324.114	525.999	-0.090	0.211
-323.099	25.532	-0.126	0.104
-322.085	68.328	0.167	-0.169
-321.070	-95.539	-0.353	0.094
-320.056	800.000	0.074	-0.231
-319.041	-57.551	0.089	0.038
-318.026	-58.598	-0.084	0.036
-317.012	800.000	0.049	-0.190
-315.997	64.866	0.045	-0.045
-314.983	455.554	0.059	-0.131
-313.968	-152.159	0.426	0.031
-312.953	-197.424	0.170	-0.001
-311.939	800.000	-0.073	-0.213
-310.924	-24.947	-0.122	0.071
-309.910	32.224	0.085	0.073
-308.895	-126.958	-0.564	-0.082
-307.880	-45.239	-0.159	-0.078
-306.866	99.750	0.079	-0.091
-305.851	-200.000	-0.004	-0.255
-304.837	276.159	-0.144	0.253
-303.822	-126.541	-0.194	-0.029
-302.807	800.000	0.064	0.254
-301.793	88.082	0.052	0.057
-300.778	83.155	0.049	0.053
-299.764	112.055	-0.158	0.189
-298.749	800.000	0.106	0.294
-297.735	169.765	0.035	0.049
-296.720	-200.000	0.017	-0.082
-295.705	-200.000	-0.022	0.211
-294.691	10.738	0.226	0.171
-293.676	-78.340	-0.217	-0.074
-292.662	333.531	-0.139	0.265
-291.647	-200.000	0.006	-0.041
-290.632	124.686	-0.148	-0.184
-289.618	114.490	-0.081	0.098
-288.603	-138.100	0.236	0.026
-287.589	800.000	0.051	0.207
-286.574	-114.368	-0.328	-0.062
-285.559	-138.747	-0.179	0.019
-284.545	14.062	0.116	-0.089
-283.530	12.342	0.337	0.257
-282.516	-200.000	-0.010	0.146
-281.501	418.117	0.024	0.052
-280.486	-60.048	-0.045	0.019
-279.472	-200.000	-0.036	0.374
-278.457	183.163	0.051	-0.074
-277.443	8.048	-0.220	0.163
-276.428	465.219	0.063	-0.140
-275.413	146.666	-0.135	-0.179
-274.399	-33.549	-0.177	0.097
-273.384	28.389	0.206	0.172
-272.370	-113.631	-0.240	0.046
-271.355	-89.721	0.239	-0.069
-270.340	331.131	-0.067	-0.128
-269.326	-50.784	-0.194	-0.090
-268.311	-199.539	0.173	0.001
-267.297	-16.713	-0.216	0.135
-266.282	-200.000	0.004	-0.201
-265.267	370.910	0.062	-0.123
-264.253	-99.514	-0.242	-0.060
-263.238	114.934	0.058	0.070
-262.224	678.981	-0.067	0.173
-261.209	322.940	0.223	0.419
-260.195	-83.717	0.194	-0.061
-259.180	-200.000	-0.026	-0.253
-258.165	-200.000	-0.000	0.213
-257.151	-95.678	0.271	-0.071
-256.136	82.380	-0.148	-0.158
-255.122	174.909	0.132	0.189
-254.107	-84.292	0.369	-0.115
-253.092	89.344	0.127	-0.140
-252.078	-63.938	-0.262	-0.106
-251.063	24.570	0.279	0.227
-250.049	260.892	0.250	-0.427
-249.034	57.956	-0.149	-0.144
-248.019	79.043	-0.088	-0.093
-247.005	-200.000	-0.002	-0.108
-245.990	92.026	0.322	0.358
-244.976	94.426	-0.315	0.354
-243.961	-68.259	-0.365	0.140
-242.946	-123.672	0.333	-0.052
-241.932	-200.000	0.009	-0.420
-240.917	163.343	0.171	-0.237
-239.903	123.764	-0.219	-0.271
-238.888	-200.000	-0.007	-0.132
-237.873	17.790	-0.275	0.216
-236.859	95.836	-0.165	-0.185
-235.844	632.017	0.079	0.198
-234.830	800.000	0.058	-0.249
-233.815	125.699	-0.188	0.234
-232.800	-83.678	-0.281	-0.088
-231.786	13.343	0.146	0.112
-230.771	-200.000	-0.006	0.207
-229.757	221.074	-0.064	0.102
-228.742	-163.576	-0.236	-0.011
-227.727	-200.000	-0.010	-0.183
-226.713	-86.871	-0.198	0.060
-225.698	138.448	0.185	0.240
-224.684	-73.799	0.318	-0.114
-223.669	-24.178	-0.310	-0.182
-222.655	541.963	0.049	-0.115
-221.640	-66.108	-0.195	-0.077
-220.625	-200.000	0.037	-0.188
-219.611	-89.782	0.118	0.034
-218.596	44.226	0.151	-0.137
-217.582	682.026	0.057	-0.147
-216.567	-200.000	-0.041	0.200
-215.552	98.238	-0.101	-0.114
-214.538	26.668	-0.057	-0.047
-213.523	-104.103	-0.146	0.034
-212.509	-134.743	-0.382	0.046
-211.494	800.000	-0.050	0.139
-210.479	-76.076	0.232	-0.081
-209.465	8.417	0.202	0.150
-208.450	7.039	0.096	-0.070
-207.436	800.000	-0.099	0.271
-206.421	-96.141	0.292	-0.077
-205.406	382.268	-0.063	0.127
-204.392	162.569	-0.199	-0.275
-203.377	-118.492	0.082	-0.014
-202.363	-200.000	-0.054	0.242
-201.348	-121.497	-0.122	0.020
-200.333	68.906	0.039	0.040
-199.319	800.000	-0.040	-0.146
-198.304	-69.019	-0.147	0.056
-197.290	-200.000	0.014	-0.096
-196.275	73.797	0.136	-0.141
-195.260	8.026	0.312	-0.231
-194.246	-140.113	0.257	-0.027
-193.231	800.000	0.103	-0.351
-192.217	65.232	-0.230	-0.229
-191.202	112.848	0.083	0.099
-190.187	-122.621	0.319	0.051
-189.173	345.221	-0.041	-0.080
-188.158	61.915	0.104	-0.102
-187.144	356.615	-0.153	-0.300
-186.129	137.123	0.176	-0.227
-185.114	-151.158	-0.115	0.008
-184.100	-144.917	-0.135	0.012
-183.085	212.647	-0.042	-0.066
-182.071	-67.667	-0.155	0.060
-181.056	-22.166	0.136	0.081
-180.042	38.135	-0.040	0.035
-179.027	36.155	0.249	-0.216
-178.012	-121.451	0.218	0.036
-176.998	23.815	0.165	0.133
-175.983	-35.597	-0.044	-0.024
-174.969	800.000	-0.149	-0.501
-173.954	-92.874	0.406	-0.112
-172.939	-18.832	0.205	0.125
-171.925	125.195	-0.095	0.118
-170.910	-200.000	-0.013	-0.127
-169.896	-200.000	0.068	-0.483
-168.881	-200.000	-0.008	-0.234
-167.866	800.000	0.091	-0.337
-166.852	297.140	0.112	-0.203
-165.837	800.000	0.070	0.216
-164.823	637.359	-0.107	0.267
-163.808	-200.000	0.029	0.192
-162.793	800.000	0.026	0.093
-161.779	800.000	-0.127	0.452
-160.764	372.502	0.089	-0.178
-159.750	109.052	0.148	-0.174
-158.735	520.243	-0.167	-0.384
-157.720	-200.000	0.006	-0.323
-156.706	284.416	-0.045	0.080
-155.691	-146.912	-0.147	0.012
-154.677	510.830	-0.052	0.120
-153.662	-122.825	0.380	-0.060
-152.647	-90.972	0.040	0.011
-151.633	-82.643	0.255	-0.081
-150.618	117.620	-0.045	0.054
-149.604	220.744	0.219	0.345
-148.589	-70.957	-0.225	-0.083
-147.574	505.037	0.130	-0.295
-146.560	-154.095	0.169	-0.011
-145.545	-65.011	0.266	0.106
-144.531	202.917	0.217	0.330
-143.516	-200.000	-0.030	0.358
-142.502	77.809	0.049	-0.051
-141.487	800.000	0.065	-0.254
-140.472	-200.000	-0.021	-0.247
-139.458	-126.909	0.237	-0.034
-138.443	800.000	0.085	0.238
-137.429	-200.000	-0.019	-0.183
-136.414	-2.842	0.161	-0.111
-135.399	800.000	0.016	0.052
-134.385	-89.432	-0.180	-0.052
-133.370	-9.374	-0.138	-0.091
-132.356	-43.767	0.233	-0.115
-131.341	563.243	0.080	0.189
-130.326	-200.000	-0.007	0.034
-129.312	-84.854	0.268	0.083
-128.297	-151.545	0.169	0.012
-127.283	139.918	-0.215	-0.279
-126.268	554.737	0.059	0.139
-125.253	98.631	0.282	0.320
-124.239	476.773	0.148	-0.329
-123.224	-32.483	-0.237	0.130
-122.210	0.132	-0.122	0.085
