DTS Sentinel unit serial number:	SN413079Multiplexer serial number:	ORYXHardware model number:	OX4-SRSoftware version number:	ORYX F/W v4.00 Oryx Data Collector v3.7.2.0data status	okinstallation	princeton_trtdifferential loss correction	single-endedforward channel	channel 1reverse channel	N/Adate	2019/09/11time	01:32:11forward acquisition time	60.00reverse acquisition time	0.00gamma	496.2192k internal	0.2330k external	0.2330temperature offset calibration	0.9929default loss term (dB/km)	0.3790temperature slope calibration	1.0000multiplexer offset coefficient	1.0000multiplexer slope coefficient	1.0000fibre end	0.00T internal ref (°C)	29.12T ext. ref 1 (°C)	-0.30T ext. ref 2 (°C)	23.37length (m)	temperature (°C)	Stokes	anti-Stokes-747.200	800.000	0.031	0.136
-746.185	168.723	-0.083	0.120
-745.171	273.082	0.114	0.202
-744.156	800.000	0.076	0.249
-743.142	800.000	0.001	0.005
-742.127	-35.745	0.156	0.085
-741.112	-82.460	-0.085	0.028
-740.098	-131.684	0.345	0.046
-739.083	-108.410	-0.038	0.008
-738.069	-10.562	-0.220	0.147
-737.054	800.000	0.055	0.234
-736.039	130.095	-0.225	-0.290
-735.025	-107.345	0.473	0.105
-734.010	-176.606	-0.190	-0.005
-732.996	800.000	-0.073	-0.217
-731.981	-77.480	0.257	-0.090
-730.966	208.181	-0.070	-0.110
-729.952	-87.127	-0.175	0.053
-728.937	-87.023	-0.011	-0.003
-727.923	78.466	-0.272	-0.292
-726.908	-66.865	-0.188	0.075
-725.894	800.000	-0.087	0.281
-724.879	759.878	-0.129	-0.351
-723.864	253.980	-0.168	0.289
-722.850	90.675	-0.055	-0.062
-721.835	-200.000	0.010	-0.359
-720.821	168.317	-0.051	-0.073
-719.806	-108.313	0.044	-0.010
-718.791	390.759	-0.127	-0.266
-717.777	-162.734	-0.075	0.004
-716.762	98.845	0.077	0.089
-715.748	-140.951	-0.429	-0.044
-714.733	346.566	-0.078	-0.154
-713.718	-3.417	-0.137	-0.096
-712.704	-32.256	0.112	0.063
-711.689	571.043	-0.126	-0.309
-710.675	125.553	-0.273	0.347
-709.660	-72.632	0.185	0.069
-708.645	-188.560	0.151	-0.002
-707.631	70.699	-0.184	0.191
-706.616	-200.000	-0.018	-0.089
-705.602	452.360	-0.020	-0.044
-704.587	800.000	0.042	-0.158
-703.572	-92.122	-0.185	0.053
-702.558	82.282	0.181	0.198
-701.543	429.635	0.098	-0.213
-700.529	-134.029	-0.107	-0.013
-699.514	-86.389	0.220	0.068
-698.499	-75.332	-0.264	0.095
-697.485	-200.000	-0.398	0.001
-696.470	-120.541	0.249	-0.042
-695.456	71.152	0.194	0.202
-694.441	-80.235	-0.119	0.040
-693.426	-89.366	-0.161	-0.048
-692.412	158.876	-0.106	-0.148
-691.397	9.277	0.023	-0.017
-690.383	236.911	0.056	0.092
-689.368	216.180	0.024	-0.038
-688.354	-84.548	-0.130	0.041
-687.339	800.000	0.058	0.162
-686.324	-110.725	-0.187	-0.039
-685.310	-200.000	0.007	0.238
-684.295	369.631	-0.087	-0.177
-683.281	-200.000	-0.008	-0.074
-682.266	724.605	-0.140	0.374
-681.251	-21.418	-0.096	-0.059
-680.237	-200.000	-0.039	-0.255
-679.222	406.029	0.104	0.221
-678.208	37.008	0.135	-0.120
-677.193	81.856	-0.036	0.039
-676.178	162.187	0.218	-0.307
-675.164	-54.095	-0.349	-0.159
-674.149	800.000	-0.019	0.075
-673.135	-52.989	-0.278	0.129
-672.120	76.319	-0.220	-0.233
-671.105	265.321	-0.041	-0.072
-670.091	196.789	-0.130	0.199
-669.076	-19.745	-0.131	-0.081
-668.062	-42.148	-0.143	0.074
-667.047	800.000	0.095	-0.299
-666.032	163.126	-0.189	0.266
-665.018	-200.000	0.014	0.542
-664.003	6.288	-0.192	-0.143
-662.989	68.367	-0.246	0.253
-661.974	188.702	0.063	-0.095
-660.959	-77.439	0.287	-0.100
-659.945	19.616	-0.068	0.055
-658.930	55.181	0.030	-0.029
-657.916	12.711	-0.080	0.062
-656.901	-200.000	-0.038	-0.272
-655.886	669.665	-0.087	-0.227
-654.872	93.607	-0.288	0.327
-653.857	-24.500	-0.302	-0.180
-652.843	800.000	0.059	-0.192
-651.828	-106.869	0.213	-0.047
-650.814	50.222	0.314	-0.297
-649.799	49.149	-0.073	-0.069
-648.784	181.817	0.061	-0.090
-647.770	141.000	-0.211	-0.280
-646.755	-200.000	0.014	0.237
-645.741	-200.000	-0.006	-0.132
-644.726	-200.000	-0.025	-0.118
-643.711	486.703	-0.022	0.051
-642.697	491.623	0.005	-0.011
-641.682	800.000	-0.031	-0.098
-640.668	-29.271	-0.213	0.122
-639.653	-84.089	-0.268	-0.085
-638.638	800.000	0.070	-0.273
-637.624	-196.661	-0.074	0.000
-636.609	800.000	0.101	-0.282
-635.595	123.167	-0.074	-0.093
-634.580	-142.369	-0.530	-0.052
-633.565	178.845	-0.227	-0.333
-632.551	276.926	0.044	0.078
-631.536	-182.457	-0.380	0.007
-630.522	788.120	-0.046	-0.126
-629.507	-131.751	0.060	-0.008
-628.492	234.182	-0.048	-0.080
-627.478	-16.777	-0.293	0.185
-626.463	55.703	0.304	0.295
-625.449	-57.936	-0.221	0.097
-624.434	287.654	0.111	-0.201
-623.419	130.411	0.192	-0.246
-622.405	-179.453	-0.163	-0.004
-621.390	800.000	0.084	-0.255
-620.376	-130.040	0.211	0.029
-619.361	-200.000	0.006	-0.038
-618.346	-9.091	-0.229	0.153
-617.332	224.339	-0.032	-0.052
-616.317	0.950	-0.142	-0.102
-615.303	-156.071	-0.484	-0.031
-614.288	-200.000	-0.004	-0.091
-613.273	-19.724	0.108	-0.067
-612.259	-53.708	-0.200	-0.091
-611.244	-200.000	0.053	0.265
-610.230	46.305	-0.262	-0.244
-609.215	-133.813	0.173	0.022
-608.201	87.676	-0.287	-0.319
-607.186	-151.518	-0.311	0.023
-606.171	-32.611	-0.226	-0.126
-605.157	800.000	0.059	-0.200
-604.142	-164.568	-0.486	0.022
-603.128	-200.000	-0.035	-0.314
-602.113	217.592	0.192	0.307
-601.098	-92.715	-0.228	-0.064
-600.084	-133.234	0.312	0.039
-599.069	262.728	-0.086	0.149
-598.055	20.366	-0.242	0.196
-597.040	-13.422	0.257	-0.167
-596.025	-44.688	0.289	-0.144
-595.011	800.000	-0.039	0.145
-593.996	87.215	0.075	-0.083
-592.982	-105.776	0.377	-0.085
-591.967	-104.048	-0.232	-0.054
-590.952	616.300	0.033	-0.082
-589.938	-186.548	-0.051	0.001
-588.923	-200.000	0.097	-0.467
-587.909	239.705	-0.092	-0.153
-586.894	-200.000	0.028	0.134
-585.879	-43.979	-0.100	0.050
-584.865	17.310	0.212	-0.168
-583.850	660.536	0.004	0.010
-582.836	-134.231	-0.219	-0.027
-581.821	-157.287	0.235	0.014
-580.806	125.158	0.164	-0.206
-579.792	28.489	-0.109	-0.092
-578.777	-200.000	0.010	-0.063
-577.763	-200.000	0.016	0.193
-576.748	800.000	0.048	-0.177
-575.733	-200.000	-0.012	0.088
-574.719	-83.304	-0.346	0.111
-573.704	-70.512	0.149	0.057
-572.690	137.314	-0.137	0.179
-571.675	-200.000	-0.044	-0.201
-570.661	-14.031	-0.084	0.055
-569.646	59.956	-0.191	-0.189
-568.631	136.907	0.302	0.394
-567.617	83.817	0.213	0.233
-566.602	-62.165	0.202	-0.084
-565.588	227.684	-0.052	0.085
-564.573	-61.477	-0.373	-0.157
-563.558	-192.877	-0.329	-0.003
-562.544	423.558	0.200	0.430
-561.529	587.115	0.082	0.201
-560.515	459.096	0.150	-0.334
-559.500	229.233	0.178	0.290
-558.485	-52.862	0.110	-0.051
-557.471	-27.321	-0.213	0.124
-556.456	-200.000	-0.008	0.038
-555.442	-200.000	-0.028	0.349
-554.427	-38.337	0.236	0.125
-553.412	374.003	0.130	0.265
-552.398	-200.000	0.074	0.367
-551.383	399.227	-0.071	-0.148
-550.369	-200.000	-0.035	0.229
-549.354	-200.000	0.005	0.254
-548.339	-40.686	-0.068	-0.035
-547.325	-81.366	-0.383	-0.126
-546.310	-107.603	0.504	0.110
-545.296	-49.836	0.163	0.077
-544.281	-78.597	-0.072	0.025
-543.266	800.000	0.053	-0.227
-542.252	-200.000	0.002	0.234
-541.237	-18.703	0.153	0.095
-540.223	-77.810	0.152	0.052
-539.208	800.000	0.024	0.067
-538.193	-79.064	-0.180	-0.061
-537.179	688.471	-0.081	0.212
-536.164	800.000	-0.077	0.254
-535.150	26.161	-0.564	0.470
-534.135	-87.741	0.150	-0.045
-533.121	3.285	-0.259	0.188
-532.106	338.637	0.105	0.205
-531.091	324.999	0.050	-0.096
-530.077	-21.837	0.096	0.058
-529.062	-30.051	0.185	0.105
-528.048	131.634	0.317	0.407
-527.033	377.464	-0.168	-0.343
-526.018	108.169	0.038	0.046
-525.004	583.283	0.086	0.211
-523.989	-200.000	0.029	-0.279
-522.975	75.938	0.200	-0.212
-521.960	77.657	0.261	-0.278
-520.945	-83.847	-0.089	-0.028
-519.931	24.197	-0.201	-0.166
-518.916	-162.286	0.182	0.009
-517.902	-124.448	0.264	0.041
-516.887	50.892	0.253	-0.239
-515.872	82.871	-0.097	0.105
-514.858	-200.000	-0.002	-0.063
-513.843	-200.000	0.008	-0.116
-512.829	28.803	-0.250	-0.211
-511.814	710.894	0.108	-0.285
-510.799	44.885	0.309	-0.284
-509.785	-117.172	-0.116	0.021
-508.770	388.380	-0.107	-0.221
-507.756	-200.000	-0.039	0.396
-506.741	-200.000	-0.036	0.231
-505.726	-65.179	0.136	-0.055
-504.712	800.000	-0.081	0.224
-503.697	-179.538	-0.195	-0.004
-502.683	569.794	0.041	0.099
-501.668	-105.432	-0.275	-0.062
-500.653	17.225	0.178	0.141
-499.639	20.211	-0.087	0.070
-498.624	-4.495	0.374	-0.258
-497.610	-200.000	-0.042	-0.232
-496.595	318.441	0.088	0.167
-495.581	-95.515	0.092	0.025
-494.566	365.834	0.076	-0.154
-493.551	55.702	-0.211	-0.204
-492.537	171.457	-0.248	-0.355
-491.522	-93.097	-0.445	0.123
-490.508	-148.732	-0.108	0.009
-489.493	5.499	-0.121	0.089
-488.478	-200.000	0.015	0.208
-487.464	800.000	0.117	-0.397
-486.449	-200.000	0.059	-0.280
-485.435	800.000	0.040	-0.141
-484.420	68.869	0.385	0.394
-483.405	-200.000	-0.044	-0.357
-482.391	19.987	-0.052	-0.042
-481.376	-200.000	0.019	-0.190
-480.362	415.659	-0.089	0.188
-479.347	-39.323	0.176	-0.092
-478.332	26.220	0.126	0.105
-477.318	800.000	0.091	0.391
-476.303	4.731	-0.286	-0.209
-475.289	-140.837	0.358	0.037
-474.274	334.932	0.128	0.247
-473.259	160.100	0.192	0.267
-472.245	-130.324	-0.057	0.008
-471.230	302.153	-0.129	0.237
-470.216	150.679	-0.065	0.088
-469.201	158.834	-0.193	0.267
-468.186	-113.649	-0.268	0.052
-467.172	6.850	0.223	-0.165
-466.157	-57.944	-0.239	-0.104
-465.143	532.091	-0.076	0.179
-464.128	147.838	0.085	-0.115
-463.113	-123.564	0.262	-0.041
-462.099	30.352	0.284	-0.242
-461.084	-107.118	0.245	-0.054
-460.070	-97.420	0.305	0.079
-459.055	76.996	-0.097	0.102
-458.040	-97.623	-0.070	-0.018
-457.026	-200.000	-0.020	0.105
-456.011	135.185	-0.100	0.129
-454.997	800.000	-0.014	-0.041
-453.982	-153.748	0.324	-0.022
-452.968	31.567	-0.260	-0.222
-451.953	-200.000	0.033	-0.188
-450.938	-200.000	0.060	-0.325
-449.924	145.326	-0.261	0.348
-448.909	25.735	-0.135	0.112
-447.895	-200.000	-0.025	0.242
-446.880	-58.502	0.317	-0.137
-445.865	72.203	0.090	-0.093
-444.851	-200.000	0.016	-0.237
-443.836	800.000	-0.095	0.317
-442.822	-200.000	0.004	0.448
-441.807	800.000	0.045	-0.144
-440.792	30.093	-0.113	-0.096
-439.778	-56.240	-0.391	0.173
-438.763	-171.303	-0.313	0.010
-437.749	14.600	0.088	-0.068
-436.734	-7.414	-0.152	-0.102
-435.719	9.678	-0.045	-0.034
-434.705	249.604	-0.049	0.083
-433.690	-200.000	-0.068	0.324
-432.676	11.445	0.226	-0.172
-431.661	483.004	0.002	0.003
-430.646	-12.874	-0.186	-0.120
-429.632	6.708	0.143	-0.106
-428.617	-112.396	0.176	-0.035
-427.603	109.336	-0.021	-0.025
-426.588	800.000	0.047	-0.186
-425.573	191.916	-0.158	-0.236
-424.559	-144.077	0.167	-0.016
-423.544	-200.000	-0.016	-0.169
-422.530	3.219	-0.036	0.026
-421.515	251.508	-0.130	-0.220
-420.500	-48.564	0.317	-0.152
-419.486	-138.253	0.166	0.018
-418.471	142.676	-0.031	-0.041
-417.457	-97.890	-0.071	0.018
-416.442	74.144	0.043	-0.045
-415.428	91.339	0.093	-0.104
-414.413	-78.380	0.239	-0.081
-413.398	681.491	0.073	0.190
-412.384	351.385	0.203	0.398
-411.369	-122.366	-0.270	-0.044
-410.355	-121.829	-0.072	-0.012
-409.340	800.000	-0.047	0.135
-408.325	9.846	-0.200	0.151
-407.311	-200.000	-0.002	-0.081
-406.296	-200.000	0.002	0.197
-405.282	86.787	0.268	0.294
-404.267	167.498	-0.167	0.236
-403.252	164.614	-0.088	-0.124
-402.238	800.000	-0.047	0.152
-401.223	-79.998	0.069	-0.023
-400.209	-200.000	0.004	-0.052
-399.194	-42.777	-0.450	0.227
-398.179	-126.181	-0.142	0.021
-397.165	291.109	0.206	-0.372
-396.150	800.000	-0.025	0.093
-395.136	13.046	-0.239	0.184
-394.121	800.000	-0.063	0.268
-393.106	93.580	0.091	-0.102
-392.092	-200.000	-0.023	0.137
-391.077	-107.628	0.347	-0.075
-390.063	-200.000	0.012	-0.504
-389.048	30.957	-0.186	0.158
-388.033	-200.000	0.019	-0.111
-387.019	-88.556	0.101	-0.030
-386.004	122.879	-0.021	-0.026
-384.990	800.000	0.086	-0.267
-383.975	-129.092	0.109	0.015
-382.960	-200.000	-0.009	-0.201
-381.946	122.559	0.176	-0.218
-380.931	525.727	0.061	-0.143
-379.917	164.437	-0.243	0.340
-378.902	-29.332	0.526	-0.299
-377.888	-113.989	-0.246	0.047
-376.873	-24.756	-0.257	0.152
-375.858	61.860	0.165	0.163
-374.844	800.000	-0.061	-0.222
-373.829	-10.622	0.060	0.039
-372.815	122.280	-0.085	-0.105
-371.800	-200.000	-0.042	-0.235
-370.785	225.009	-0.154	-0.247
-369.771	-189.173	0.230	0.003
-368.756	-86.209	0.233	-0.071
-367.742	800.000	-0.118	-0.373
-366.727	800.000	-0.027	0.094
-365.712	-64.558	0.204	0.082
-364.698	-54.643	-0.246	0.110
-363.683	-173.861	0.158	0.005
-362.669	170.135	0.137	0.194
-361.654	-135.375	-0.550	0.065
-360.639	800.000	0.061	-0.260
-359.625	-138.749	-0.274	-0.030
-358.610	111.044	0.176	0.210
-357.596	20.223	-0.219	-0.175
-356.581	25.687	-0.230	-0.190
-355.566	62.666	-0.234	0.232
-354.552	-76.843	-0.139	0.048
-353.537	12.687	-0.096	0.074
-352.523	-51.562	-0.187	-0.086
-351.508	-60.929	0.285	-0.120
-350.493	776.283	-0.099	0.267
-349.479	-200.000	-0.001	0.244
-348.464	262.509	-0.067	0.116
-347.450	364.641	0.155	-0.310
-346.435	-200.000	-0.003	-0.253
-345.420	-157.938	0.494	-0.029
-344.406	5.837	0.124	0.091
-343.391	-13.574	-0.179	0.115
-342.377	92.272	0.151	-0.169
-341.362	159.064	-0.076	-0.105
-340.348	39.960	0.224	0.200
-339.333	800.000	0.088	0.334
-338.318	146.648	-0.159	-0.211
-337.304	-47.782	-0.227	-0.109
-336.289	7.815	0.088	-0.065
-335.275	-33.464	0.244	-0.133
-334.260	-107.257	0.383	0.083
-333.245	-87.346	-0.184	0.055
-332.231	263.458	-0.127	-0.218
-331.216	-200.000	-0.015	0.236
-330.202	-121.709	0.182	-0.030
-329.187	-200.000	-0.017	0.182
-328.172	32.045	-0.088	0.075
-327.158	800.000	0.012	-0.039
-326.143	-84.430	-0.135	-0.042
-325.129	-10.119	0.079	0.052
-324.114	20.902	0.267	0.214
-323.099	47.186	0.094	-0.086
-322.085	129.134	-0.153	-0.194
-321.070	-105.383	-0.049	-0.011
-320.056	178.703	-0.052	-0.076
-319.041	-200.000	-0.000	0.120
-318.026	800.000	0.147	0.497
-317.012	-140.561	0.079	-0.008
-315.997	-163.499	-0.398	-0.019
-314.983	-57.893	0.367	0.159
-313.968	-200.000	-0.003	0.020
-312.953	-106.628	0.278	-0.061
-311.939	166.106	0.168	0.235
-310.924	-70.108	-0.234	-0.088
-309.910	-3.110	0.199	0.137
-308.895	-54.625	0.263	0.118
-307.880	28.595	0.192	0.161
-306.866	181.009	0.088	-0.129
-305.851	800.000	0.110	0.419
-304.837	-28.386	0.087	0.050
-303.822	800.000	-0.070	-0.224
-302.807	86.879	-0.267	-0.292
-301.793	57.001	-0.083	-0.080
-300.778	-57.167	0.222	0.097
-299.764	448.831	0.127	0.276
-298.749	-200.000	-0.058	-0.470
-297.735	-175.265	0.093	-0.003
-296.720	-200.000	-0.001	-0.036
-295.705	80.874	-0.056	-0.060
-294.691	800.000	-0.091	0.367
-293.676	165.541	0.125	0.175
-292.662	95.119	-0.097	-0.109
-291.647	-200.000	0.032	-0.248
-290.632	285.355	-0.018	0.031
-289.618	-16.366	-0.199	-0.125
-288.603	800.000	0.058	-0.221
-287.589	-1.827	-0.216	-0.150
-286.574	34.377	-0.053	-0.046
-285.559	-116.246	-0.258	-0.047
-284.545	-70.998	0.236	0.088
-283.530	-63.551	0.263	0.107
-282.516	114.653	0.033	0.040
-281.501	-104.224	0.498	-0.114
-280.486	-126.321	0.254	0.037
-279.472	-196.559	0.114	-0.001
-278.457	703.194	0.028	-0.074
-277.443	-14.744	0.305	0.194
-276.428	65.296	-0.148	-0.148
-275.413	-179.641	0.270	-0.006
-274.399	310.174	-0.108	-0.200
-273.384	-200.000	-0.016	0.180
-272.370	-200.000	-0.022	-0.098
-271.355	-146.533	0.292	-0.025
-270.340	-37.293	-0.291	-0.153
-269.326	-49.496	0.238	0.112
-268.311	-31.212	-0.208	-0.116
-267.297	-69.891	0.186	0.070
-266.282	651.161	0.064	0.162
-265.267	-200.000	-0.007	0.143
-264.253	286.592	-0.103	0.184
-263.238	537.963	-0.124	0.291
-262.224	800.000	-0.043	0.137
-261.209	35.698	-0.055	-0.048
-260.195	-42.076	-0.049	0.025
-259.180	-25.762	0.190	-0.111
-258.165	259.805	0.198	0.338
-257.151	-75.189	0.348	0.123
-256.136	800.000	-0.054	-0.163
-255.122	111.995	0.197	-0.236
-254.107	404.745	0.079	0.165
-253.092	444.399	-0.012	0.025
-252.078	-179.396	-0.118	0.003
-251.063	-88.027	-0.251	-0.074
-250.049	-92.687	0.217	-0.060
-249.034	-75.522	-0.447	-0.157
-248.019	-48.333	0.101	-0.048
-247.005	-102.351	0.134	-0.032
-245.990	-39.609	0.037	-0.019
-244.976	540.594	0.185	0.434
-243.961	-200.000	0.033	-0.203
-242.946	-34.158	-0.584	-0.317
-241.932	162.994	-0.124	0.172
-240.917	-200.000	-0.002	-0.077
-239.903	-107.569	0.273	-0.059
-238.888	134.206	0.142	-0.182
-237.873	-200.000	0.017	-0.082
-236.859	800.000	-0.056	0.167
-235.844	-146.381	-0.215	-0.019
-234.830	-193.529	-0.313	0.003
-233.815	415.546	-0.033	0.070
-232.800	664.555	-0.104	-0.264
-231.786	800.000	0.014	0.056
-230.771	-50.063	0.053	0.025
-229.757	-69.525	0.432	0.163
-228.742	118.604	-0.127	0.154
-227.727	-138.851	-0.220	0.024
-226.713	61.613	-0.163	0.160
-225.698	-90.174	0.359	-0.103
-224.684	22.148	0.265	0.213
-223.669	584.424	-0.105	0.254
-222.655	107.083	0.184	-0.215
-221.640	-200.000	-0.005	-0.137
-220.625	726.991	0.046	-0.121
-219.611	-200.000	-0.004	0.092
-218.596	-200.000	0.026	-0.400
-217.582	-36.024	-0.201	0.107
-216.567	2.996	-0.186	0.133
-215.552	82.975	0.095	0.102
-214.538	-200.000	-0.032	0.164
-213.523	280.764	0.200	0.354
-212.509	-133.650	-0.340	0.042
-211.494	51.794	-0.234	-0.219
-210.479	-151.462	-0.242	-0.018
-209.465	-34.389	0.124	0.067
-208.450	-109.617	0.207	0.043
-207.436	-200.000	0.039	0.604
-206.421	61.185	-0.041	-0.040
-205.406	-200.000	0.023	0.176
-204.392	-200.000	0.033	-0.169
-203.377	97.086	0.169	0.191
-202.363	-152.811	-0.151	-0.011
-201.348	60.580	0.217	0.212
-200.333	-185.537	-0.159	-0.002
-199.319	235.051	-0.032	0.052
-198.304	275.476	0.091	-0.160
-197.290	39.414	-0.127	0.112
-196.275	-41.441	0.176	-0.089
-195.260	-107.346	-0.375	-0.081
-194.246	-41.264	0.326	-0.165
-193.231	-150.880	-0.499	-0.037
-192.217	-200.000	0.025	0.158
-191.202	-144.417	-0.269	-0.025
-190.187	0.346	-0.128	0.090
-189.173	-200.000	-0.037	0.166
-188.158	157.469	0.102	0.139
-187.144	-200.000	0.043	0.303
-186.129	-90.145	0.132	-0.038
-185.114	80.605	0.180	0.191
-184.100	-165.447	-0.231	-0.010
-183.085	-91.680	-0.297	-0.083
-182.071	-200.000	-0.018	0.086
-181.056	385.867	0.114	-0.231
-180.042	-33.998	0.185	-0.100
-179.027	170.175	-0.066	-0.092
-178.012	-200.000	0.012	-0.232
-176.998	203.067	0.110	-0.167
-175.983	-200.000	0.010	-0.367
-174.969	-59.141	0.189	-0.080
-173.954	799.982	0.069	-0.188
-172.939	537.382	-0.056	-0.131
-171.925	-113.385	0.064	-0.012
-170.910	-200.000	0.016	-0.267
-169.896	-186.489	0.231	0.003
-168.881	340.617	0.141	-0.270
-167.866	-113.564	-0.175	-0.034
-166.852	149.705	0.102	-0.136
-165.837	-200.000	0.004	0.381
-164.823	-135.432	0.156	-0.018
-163.808	15.494	0.243	0.187
-162.793	-125.508	-0.109	-0.016
-161.779	-113.367	-0.080	-0.015
-160.764	-153.271	0.208	0.014
-159.750	-200.000	0.013	0.060
-158.735	-80.854	-0.210	-0.069
-157.720	-161.118	0.164	0.008
-156.706	27.167	0.023	-0.019
-155.691	-200.000	0.007	-0.274
-154.677	155.768	-0.192	0.260
-153.662	-26.774	-0.314	0.181
-152.647	-59.675	-0.317	0.134
-151.633	-125.777	0.042	-0.006
-150.618	-100.828	-0.041	0.010
-149.604	101.263	-0.125	-0.143
-148.589	800.000	-0.083	-0.309
-147.574	219.276	-0.095	0.149
-146.560	286.150	0.062	0.111
-145.545	800.000	-0.018	-0.076
-144.531	289.386	-0.147	0.261
-143.516	343.656	0.087	0.167
-142.502	36.633	0.292	-0.254
-141.487	-142.383	-0.377	0.037
-140.472	247.054	-0.177	-0.294
-139.458	-200.000	-0.003	0.145
-138.443	318.393	0.113	0.210
-137.429	-16.461	0.173	-0.108
-136.414	-94.063	-0.198	0.053
-135.399	201.197	0.149	0.225
-134.385	244.050	-0.180	0.297
-133.370	-200.000	-0.049	-0.253
-132.356	21.672	0.375	-0.300
-131.341	-52.343	0.275	-0.125
-130.326	111.591	-0.101	0.120
-129.312	-92.815	-0.347	-0.095
-128.297	88.000	-0.110	-0.120
-127.283	-53.119	0.025	0.011
-126.268	-200.000	0.012	0.092
-125.253	121.752	0.091	-0.112
-124.239	352.204	0.049	-0.095
-123.224	-200.000	-0.029	-0.214
-122.210	-200.000	-0.015	-0.136
