DTS Sentinel unit serial number:	SN413079Multiplexer serial number:	ORYXHardware model number:	OX4-SRSoftware version number:	ORYX F/W v4.00 Oryx Data Collector v3.7.2.0data status	okinstallation	princeton_trtdifferential loss correction	single-endedforward channel	channel 1reverse channel	N/Adate	2019/09/15time	18:22:35forward acquisition time	60.00reverse acquisition time	0.00gamma	496.2192k internal	0.2291k external	0.2291temperature offset calibration	0.9935default loss term (dB/km)	0.3790temperature slope calibration	1.0000multiplexer offset coefficient	1.0000multiplexer slope coefficient	1.0000fibre end	0.00T internal ref (°C)	44.36T ext. ref 1 (°C)	6.66T ext. ref 2 (°C)	38.27length (m)	temperature (°C)	Stokes	anti-Stokes-747.200	342.773	0.078	-0.156
-746.185	-29.563	-0.156	-0.091
-745.171	347.569	-0.160	0.323
-744.156	800.000	-0.070	0.213
-743.142	-87.645	-0.141	-0.044
-742.127	-200.000	0.008	0.271
-741.112	800.000	0.072	0.236
-740.098	-200.000	-0.011	0.306
-739.083	139.423	-0.106	0.143
-738.069	129.213	0.173	0.226
-737.054	312.967	-0.078	-0.150
-736.039	800.000	-0.023	0.066
-735.025	-61.144	0.066	0.029
-734.010	-3.289	-0.483	-0.345
-732.996	22.821	-0.305	-0.255
-731.981	242.380	-0.209	-0.358
-730.966	86.584	-0.106	0.120
-729.952	-104.974	0.120	-0.028
-728.937	-159.317	-0.268	0.015
-727.923	-71.345	-0.014	-0.005
-726.908	-98.817	-0.286	0.075
-725.894	-108.627	-0.047	-0.010
-724.879	5.637	-0.145	0.109
-723.864	348.272	-0.196	0.396
-722.850	-200.000	0.015	0.093
-721.835	-106.096	0.269	0.062
-720.821	-97.961	-0.133	0.035
-719.806	77.766	-0.213	-0.233
-718.791	52.905	-0.011	0.011
-717.777	-40.186	0.174	-0.093
-716.762	-21.700	0.261	-0.163
-715.748	-56.762	0.147	-0.066
-714.733	-200.000	-0.006	0.074
-713.718	-200.000	0.014	0.174
-712.704	187.740	-0.091	-0.138
-711.689	-21.634	0.052	-0.032
-710.675	-127.666	-0.276	0.041
-709.660	-200.000	0.000	0.102
-708.645	-73.580	0.192	-0.072
-707.631	-83.563	-0.069	0.023
-706.616	-120.517	0.261	-0.045
-705.602	31.821	-0.235	-0.207
-704.587	360.876	-0.092	0.188
-703.572	95.244	-0.262	0.305
-702.558	-103.590	-0.087	-0.021
-701.543	800.000	-0.035	-0.115
-700.529	-161.484	-0.207	-0.011
-699.514	263.090	0.042	-0.075
-698.499	647.112	-0.026	0.069
-697.485	-40.612	-0.224	-0.119
-696.470	556.747	0.069	-0.171
-695.456	-49.000	0.215	0.105
-694.441	15.836	-0.088	0.071
-693.426	-17.343	-0.092	0.059
-692.412	-63.718	0.219	0.092
-691.397	23.769	-0.312	0.263
-690.383	-131.271	0.064	0.009
-689.368	-49.675	-0.282	-0.137
-688.354	-200.000	0.020	-0.190
-687.339	23.708	0.052	0.044
-686.324	17.256	0.379	0.307
-685.310	-100.937	-0.176	0.044
-684.295	361.494	-0.055	-0.113
-683.281	-186.288	0.054	0.001
-682.266	-114.835	-0.312	-0.061
-681.251	-78.922	0.118	-0.041
-680.237	-34.651	-0.035	-0.019
-679.222	247.897	-0.161	-0.279
-678.208	13.706	0.056	-0.045
-677.193	-200.000	-0.016	0.281
-676.178	-200.000	0.015	0.351
-675.164	-200.000	-0.013	-0.237
-674.149	412.492	-0.152	0.329
-673.135	-136.065	-0.116	-0.014
-672.120	92.671	-0.205	0.237
-671.105	685.879	0.177	-0.472
-670.091	191.706	-0.175	0.269
-669.076	4.433	-0.197	-0.147
-668.062	-200.000	-0.025	-0.196
-667.047	800.000	0.032	-0.132
-666.032	-109.947	0.059	-0.013
-665.018	-58.849	-0.270	-0.119
-664.003	-138.138	-0.275	0.031
-662.989	19.372	0.273	0.224
-661.974	-2.838	-0.236	-0.169
-660.959	-146.030	-0.150	0.014
-659.945	800.000	0.127	0.387
-658.930	302.212	0.049	0.092
-657.916	-70.177	-0.227	0.088
-656.901	-89.991	-0.302	-0.090
-655.886	-150.453	-0.211	-0.017
-654.872	52.067	-0.272	0.264
-653.857	-177.101	-0.043	-0.001
-652.843	494.907	-0.073	0.171
-651.828	28.797	-0.141	0.122
-650.814	800.000	-0.072	0.234
-649.799	-122.841	-0.332	-0.055
-648.784	-107.708	0.350	0.078
-647.770	800.000	-0.020	0.083
-646.755	150.413	0.247	-0.342
-645.741	-200.000	-0.023	-0.384
-644.726	104.381	-0.154	0.185
-643.711	-139.577	0.441	-0.048
-642.697	-22.296	0.223	-0.138
-641.682	692.940	0.033	0.088
-640.668	457.252	0.098	-0.223
-639.653	-91.091	0.372	0.109
-638.638	800.000	0.023	-0.070
-637.624	-200.000	0.016	0.274
-636.609	22.034	0.218	0.181
-635.595	-28.654	-0.219	0.129
-634.580	484.820	-0.179	-0.415
-633.565	-200.000	-0.044	0.314
-632.551	-88.141	-0.100	0.030
-631.536	-91.865	0.062	-0.018
-630.522	-200.000	-0.054	0.251
-629.507	521.782	0.049	0.116
-628.492	5.580	0.256	0.193
-627.478	-36.693	-0.179	-0.098
-626.463	169.008	0.160	0.233
-625.449	-200.000	0.032	-0.159
-624.434	130.721	0.176	0.230
-623.419	-200.000	-0.026	0.385
-622.405	-82.096	-0.194	0.065
-621.390	-200.000	-0.058	-0.280
-620.376	-127.531	0.262	0.039
-619.361	-101.760	-0.136	-0.034
-618.346	-95.184	-0.187	-0.051
-617.332	-35.337	-0.112	0.062
-616.317	800.000	0.073	0.271
-615.303	-25.417	0.147	0.089
-614.288	526.981	-0.073	0.174
-613.273	0.000	-0.196	0.142
-612.259	-200.000	-0.003	0.110
-611.244	255.316	0.078	-0.136
-610.230	-200.000	-0.048	-0.240
-609.215	-49.000	0.200	0.098
-608.201	800.000	0.045	0.181
-607.186	-200.000	0.016	0.351
-606.171	52.014	0.203	-0.197
-605.157	-200.000	0.006	0.066
-604.142	-24.696	0.226	-0.137
-603.128	136.373	-0.180	0.239
-602.113	435.791	0.058	0.129
-601.098	-158.711	0.012	0.001
-600.084	128.926	0.077	0.100
-599.069	800.000	0.038	0.120
-598.055	-31.498	-0.221	-0.127
-597.040	-200.000	-0.018	-0.178
-596.025	-200.000	0.000	-0.130
-595.011	282.466	-0.115	-0.209
-593.996	-35.719	-0.137	0.076
-592.982	-95.487	-0.100	-0.027
-591.967	364.220	-0.120	0.245
-590.952	102.316	0.029	0.035
-589.938	262.492	0.087	0.154
-588.923	141.564	0.058	0.078
-587.909	414.726	0.027	-0.058
-586.894	16.577	-0.124	0.100
-585.879	800.000	0.033	0.127
-584.865	-200.000	-0.050	0.273
-583.850	78.216	0.145	0.157
-582.836	34.419	0.165	0.147
-581.821	0.297	-0.184	-0.134
-580.806	800.000	0.050	-0.209
-579.792	-142.903	-0.097	0.010
-578.777	68.494	-0.121	-0.126
-577.763	-73.275	-0.033	-0.012
-576.748	-110.008	-0.155	0.033
-575.733	477.051	-0.053	0.122
-574.719	-1.191	-0.241	0.173
-573.704	-151.094	-0.251	-0.019
-572.690	-200.000	0.018	-0.157
-571.675	51.370	0.073	0.071
-570.661	-153.043	-0.235	0.017
-569.646	630.351	0.052	-0.133
-568.631	-109.392	-0.237	-0.051
-567.617	549.800	-0.096	-0.233
-566.602	-139.428	-0.096	0.010
-565.588	210.378	-0.036	-0.058
-564.573	-200.000	0.031	0.383
-563.558	-150.457	0.098	0.008
-562.544	-51.579	0.198	-0.094
-561.529	655.696	-0.036	-0.094
-560.515	-73.010	-0.128	0.048
-559.500	31.201	0.054	0.048
-558.485	284.356	-0.102	0.186
-557.471	593.755	-0.097	0.243
-556.456	-188.190	-0.121	0.002
-555.442	378.640	0.076	-0.158
-554.427	169.897	0.135	-0.196
-553.412	-29.856	-0.084	-0.049
-552.398	-22.860	-0.095	0.059
-551.383	80.772	-0.077	-0.084
-550.369	-27.587	-0.219	0.129
-549.354	1.070	-0.460	0.335
-548.339	-200.000	-0.017	-0.096
-547.325	-152.543	-0.254	-0.018
-546.310	396.669	0.140	0.297
-545.296	39.862	-0.129	-0.118
-544.281	-145.355	0.108	-0.010
-543.266	246.173	0.169	-0.290
-542.252	198.691	-0.222	-0.346
-541.237	800.000	0.038	0.110
-540.223	219.583	0.057	-0.093
-539.208	-55.699	0.357	-0.162
-538.193	95.361	-0.108	-0.125
-537.179	45.334	-0.031	-0.029
-536.164	745.120	-0.074	-0.203
-535.150	-84.344	-0.257	-0.083
-534.135	-77.611	0.173	0.061
-533.121	22.435	-0.026	0.021
-532.106	170.463	0.228	-0.331
-531.091	-200.000	0.011	-0.131
-530.077	-82.467	-0.161	0.053
-529.062	-200.000	0.017	0.226
-528.048	14.313	0.106	-0.084
-527.033	-200.000	0.030	-0.366
-526.018	-49.179	-0.107	0.052
-525.004	-99.739	-0.189	-0.048
-523.989	436.763	-0.109	-0.242
-522.975	89.020	0.115	0.130
-521.960	800.000	0.025	-0.078
-520.945	800.000	-0.012	-0.045
-519.931	660.745	0.077	-0.200
-518.916	-200.000	-0.019	0.089
-517.902	-63.237	-0.464	-0.194
-516.887	-200.000	0.064	-0.308
-515.872	93.523	0.223	-0.257
-514.858	-91.471	-0.221	-0.064
-513.843	-121.173	-0.263	0.045
-512.829	18.260	0.187	0.152
-511.814	410.753	0.067	-0.144
-510.799	73.840	-0.140	0.149
-509.785	18.545	0.081	-0.065
-508.770	28.288	0.132	0.113
-507.756	286.830	0.109	-0.199
-506.741	52.231	-0.244	-0.236
-505.726	-82.543	0.354	0.117
-504.712	-144.210	0.105	0.010
-503.697	186.719	-0.023	0.035
-502.683	15.676	-0.217	0.173
-501.668	56.954	0.242	-0.239
-500.653	-68.133	0.338	0.133
-499.639	-149.554	-0.193	-0.015
-498.624	152.297	-0.179	0.248
-497.610	412.359	-0.156	-0.336
-496.595	92.801	-0.102	0.116
-495.581	39.818	-0.074	-0.067
-494.566	-121.285	-0.246	0.042
-493.551	72.129	0.219	-0.231
-492.537	-200.000	-0.044	-0.349
-491.522	-200.000	-0.004	-0.384
-490.508	-90.909	0.254	-0.074
-489.493	25.673	0.223	-0.189
-488.478	-30.068	-0.261	-0.150
-487.464	202.721	0.206	0.323
-486.449	446.315	0.044	0.098
-485.435	800.000	-0.007	-0.024
-484.420	-97.776	0.218	-0.057
-483.405	-35.050	-0.109	-0.060
-482.391	345.800	-0.141	-0.281
-481.376	-75.280	0.562	-0.203
-480.362	-123.988	0.136	-0.022
-479.347	-200.000	0.057	-0.297
-478.332	800.000	-0.020	0.078
-477.318	316.523	-0.048	0.092
-476.303	69.476	-0.118	-0.124
-475.289	-123.073	-0.343	-0.056
-474.274	-200.000	0.053	-0.286
-473.259	-200.000	-0.029	-0.202
-472.245	6.062	-0.079	-0.060
-471.230	-200.000	0.066	0.370
-470.216	800.000	-0.030	-0.126
-469.201	10.295	-0.232	-0.179
-468.186	-200.000	0.019	-0.551
-467.172	-167.684	0.120	-0.005
-466.157	-200.000	0.002	-0.429
-465.143	98.423	0.064	0.075
-464.128	800.000	0.031	-0.095
-463.113	61.044	-0.007	-0.007
-462.099	-47.619	0.120	0.059
-461.084	216.449	-0.159	0.256
-460.070	-67.704	-0.344	-0.137
-459.055	108.663	-0.202	0.244
-458.040	439.473	-0.171	0.379
-457.026	363.760	-0.050	0.102
-456.011	-200.000	-0.015	-0.177
-454.997	186.219	0.086	0.130
-453.982	-148.338	-0.455	-0.038
-452.968	-118.520	-0.361	-0.065
-451.953	-163.235	0.044	0.002
-450.938	-21.346	-0.115	-0.071
-449.924	-18.965	-0.130	-0.082
-448.909	576.031	-0.041	-0.102
-447.895	87.155	-0.144	0.161
-446.880	-155.727	0.182	-0.012
-445.865	-102.197	0.156	0.038
-444.851	-40.072	0.154	0.081
-443.836	-166.545	0.469	0.020
-442.822	-200.000	0.033	-0.169
-441.807	800.000	-0.028	0.097
-440.792	-39.325	0.189	0.100
-439.778	76.297	0.044	0.047
-438.763	238.611	-0.140	-0.235
-437.749	-200.000	-0.044	-0.244
-436.734	-200.000	0.009	-0.298
-435.719	-200.000	0.053	-0.246
-434.705	-200.000	0.044	-0.233
-433.690	-67.573	0.218	-0.087
-432.676	-121.335	0.094	-0.016
-431.661	-56.112	-0.126	0.057
-430.646	94.681	0.115	-0.132
-429.632	75.116	-0.082	0.087
-428.617	144.187	-0.128	0.173
-427.603	-8.735	0.209	-0.142
-426.588	271.999	0.111	-0.198
-425.573	83.121	-0.222	-0.244
-424.559	33.398	-0.144	0.127
-423.544	108.066	0.209	0.252
-422.530	-108.007	-0.239	-0.053
-421.515	800.000	-0.048	-0.167
-420.500	32.051	0.212	0.185
-419.486	27.182	0.178	-0.152
-418.471	39.058	-0.071	0.064
-417.457	41.491	0.245	0.224
-416.442	-147.133	0.231	-0.020
-415.428	-20.250	-0.357	-0.222
-414.413	-71.966	0.127	-0.048
-413.398	173.385	0.074	0.108
-412.384	-200.000	-0.024	-0.164
-411.369	109.599	-0.141	-0.171
-410.355	131.679	0.115	-0.149
-409.340	-152.137	0.061	0.005
-408.325	43.053	0.058	-0.053
-407.311	77.630	-0.094	0.102
-406.296	316.513	0.093	0.178
-405.282	530.451	0.112	0.268
-404.267	-110.399	0.202	0.042
-403.252	443.599	0.047	-0.104
-402.238	69.267	-0.196	-0.204
-401.223	0.713	-0.253	-0.183
-400.209	-200.000	-0.066	-0.379
-399.194	-25.343	0.124	-0.074
-398.179	778.258	-0.082	0.227
-397.165	-96.562	-0.347	0.092
-396.150	18.565	0.213	-0.172
-395.136	108.767	0.138	-0.166
-394.121	-70.801	0.157	0.060
-393.106	97.427	0.235	-0.272
-392.092	-200.000	-0.027	-0.235
-391.077	258.616	-0.173	-0.301
-390.063	800.000	-0.039	0.150
-389.048	800.000	0.052	-0.205
-388.033	800.000	-0.022	0.069
-387.019	354.655	-0.110	0.220
-386.004	-60.076	-0.150	-0.065
-384.990	-200.000	-0.036	-0.171
-383.975	-11.311	-0.178	0.119
-382.960	419.786	-0.098	0.211
-381.946	-31.898	0.369	0.209
-380.931	42.815	0.083	-0.076
-379.917	81.690	-0.197	-0.215
-378.902	800.000	0.104	-0.401
-377.888	-8.094	-0.249	0.170
-376.873	-73.281	0.343	-0.127
-375.858	411.553	0.099	-0.213
-374.844	-200.000	0.020	0.128
-373.829	273.368	-0.073	0.130
-372.815	220.640	0.089	0.144
-371.800	-117.933	-0.254	-0.046
-370.785	-116.449	0.253	0.047
-369.771	700.816	-0.041	0.108
-368.756	-200.000	0.035	0.310
-367.742	-91.011	0.040	0.012
-366.727	800.000	-0.059	-0.220
-365.712	-120.232	0.269	0.046
-364.698	-48.359	0.167	-0.081
-363.683	-31.136	0.186	0.106
-362.669	6.187	0.195	-0.146
-361.654	-134.547	0.200	-0.025
-360.639	188.860	0.063	-0.095
-359.625	228.858	-0.100	-0.165
-358.610	231.818	0.103	-0.170
-357.596	-200.000	-0.014	-0.289
-356.581	-110.198	0.132	-0.028
-355.566	74.711	-0.078	0.083
-354.552	-93.926	0.104	-0.029
-353.537	-63.958	0.186	0.077
-352.523	-109.003	-0.285	-0.061
-351.508	371.664	0.021	-0.044
-350.493	800.000	0.015	0.056
-349.479	-131.366	-0.327	-0.044
-348.464	18.685	0.090	0.073
-347.450	-95.138	0.212	0.058
-346.435	112.656	-0.099	-0.121
-345.420	-200.000	-0.006	-0.052
-344.406	154.781	0.104	0.143
-343.391	-47.842	0.119	0.058
-342.377	585.621	-0.097	0.239
-341.362	-200.000	-0.017	-0.199
-340.348	-200.000	0.028	-0.156
-339.333	800.000	-0.115	0.344
-338.318	107.576	-0.135	-0.162
-337.304	-200.000	-0.095	0.548
-336.289	118.149	0.098	-0.122
-335.275	301.064	-0.092	0.171
-334.260	69.731	0.394	0.409
-333.245	-200.000	0.007	0.146
-332.231	354.483	0.065	-0.130
-331.216	-142.905	-0.378	0.037
-330.202	16.667	0.313	-0.249
-329.187	-34.262	-0.084	0.046
-328.172	46.025	-0.069	0.065
-327.158	-200.000	0.000	0.075
-326.143	-200.000	0.012	-0.172
-325.129	-104.160	-0.344	0.080
-324.114	240.499	0.081	-0.136
-323.099	-41.225	0.140	-0.073
-322.085	4.271	-0.108	-0.080
-321.070	-200.000	0.005	-0.246
-320.056	92.940	-0.086	-0.098
-319.041	-200.000	0.029	0.229
-318.026	-91.835	0.373	0.107
-317.012	31.677	0.174	-0.151
-315.997	518.279	-0.047	-0.110
-314.983	39.524	-0.252	0.228
-313.968	35.484	0.125	0.111
-312.953	-200.000	0.016	-0.149
-311.939	740.052	-0.050	0.134
-310.924	-10.461	0.062	-0.041
-309.910	-120.879	0.366	0.062
-308.895	-101.065	-0.392	0.097
-307.880	-200.000	0.003	0.013
-306.866	-176.776	0.217	0.006
-305.851	-200.000	0.065	0.461
-304.837	-9.129	-0.203	-0.137
-303.822	-58.819	0.108	-0.047
-302.807	0.682	0.291	-0.209
-301.793	249.823	-0.136	0.232
-300.778	408.385	-0.081	0.173
-299.764	-53.030	0.398	0.184
-298.749	55.470	-0.143	-0.139
-297.735	264.192	0.063	0.111
-296.720	-50.948	0.273	0.129
-295.705	-79.798	-0.269	0.091
-294.691	-200.000	0.024	-0.161
-293.676	800.000	-0.085	0.364
-292.662	-4.955	-0.223	0.154
-291.647	800.000	-0.044	0.139
-290.632	130.678	0.231	0.298
-289.618	-14.877	-0.139	0.090
-288.603	70.217	0.067	-0.069
-287.589	-134.315	-0.265	-0.033
-286.574	-86.990	0.284	0.087
-285.559	-100.063	-0.293	-0.073
-284.545	-178.637	-0.202	0.005
-283.530	-200.000	-0.063	0.361
-282.516	-200.000	-0.063	0.291
-281.501	-11.388	-0.148	-0.098
-280.486	51.049	0.075	-0.071
-279.472	-165.510	-0.103	0.005
-278.457	20.672	-0.272	0.221
-277.443	-200.000	-0.067	0.314
-276.428	142.296	0.120	-0.160
-275.413	-93.878	0.229	0.063
-274.399	385.087	-0.172	-0.357
-273.384	-23.533	0.072	-0.044
-272.370	-200.000	-0.018	-0.092
-271.355	-22.405	-0.131	0.080
-270.340	62.294	0.152	-0.153
-269.326	-65.604	0.258	0.104
-268.311	-132.045	0.301	0.039
-267.297	421.876	0.059	0.126
-266.282	800.000	-0.058	0.232
-265.267	-120.911	0.288	0.049
-264.253	-35.066	0.307	0.168
-263.238	-200.000	-0.031	0.139
-262.224	80.363	0.095	-0.103
-261.209	514.704	0.046	-0.109
-260.195	-200.000	0.016	0.112
-259.180	-39.886	-0.106	-0.056
-258.165	10.579	0.270	-0.207
-257.151	754.831	0.034	0.093
-256.136	676.729	0.053	0.137
-255.122	800.000	-0.081	-0.246
-254.107	800.000	-0.085	-0.289
-253.092	204.548	0.248	-0.386
-252.078	-200.000	0.017	0.173
-251.063	6.501	-0.276	0.206
-250.049	-95.522	0.180	0.049
-249.034	-75.732	0.098	0.035
-248.019	-56.497	-0.313	0.140
-247.005	92.221	0.114	0.129
-245.990	800.000	-0.071	-0.266
-244.976	-200.000	-0.026	0.254
-243.961	359.092	-0.101	0.203
-242.946	-200.000	-0.093	0.426
-241.932	-84.538	0.067	0.021
-240.917	405.323	0.143	0.302
-239.903	-43.463	-0.276	0.140
-238.888	718.231	-0.033	0.089
-237.873	610.256	0.092	0.230
-236.859	-200.000	0.013	0.085
-235.844	362.553	0.094	-0.189
-234.830	-200.000	-0.023	-0.191
-233.815	-200.000	0.019	0.128
-232.800	800.000	-0.049	-0.191
-231.786	-200.000	0.015	-0.342
-230.771	-30.866	0.103	0.058
-229.757	-10.581	0.288	-0.192
-228.742	119.768	-0.213	0.264
-227.727	-98.120	0.182	0.047
-226.713	-46.912	-0.063	0.031
-225.698	61.540	-0.070	-0.070
-224.684	-109.652	0.298	0.063
-223.669	181.515	0.108	0.159
-222.655	31.765	0.165	0.143
-221.640	271.573	0.196	0.347
-220.625	670.863	-0.036	-0.093
-219.611	-200.000	-0.014	0.266
-218.596	-200.000	-0.050	-0.261
-217.582	-16.902	0.084	-0.053
-216.567	-39.106	-0.138	-0.073
-215.552	-200.000	0.025	0.259
-214.538	565.545	-0.043	0.106
-213.523	-136.399	0.195	-0.023
-212.509	-94.635	-0.076	-0.021
-211.494	-70.398	0.031	0.012
-210.479	-150.274	-0.129	0.010
-209.465	152.266	0.148	0.202
-208.450	97.391	-0.120	0.138
-207.436	-178.950	-0.291	-0.007
-206.421	-200.000	0.017	-0.368
-205.406	-49.333	0.059	-0.028
-204.392	-200.000	-0.069	0.319
-203.377	89.257	-0.151	-0.168
-202.363	264.570	-0.051	-0.089
-201.348	-200.000	0.000	0.046
-200.333	-144.641	0.293	0.027
-199.319	-179.403	0.145	0.003
-198.304	800.000	-0.175	0.512
-197.290	-66.596	0.065	-0.026
-196.275	162.537	0.121	-0.171
-195.260	-158.254	0.313	-0.018
-194.246	-95.736	-0.146	0.039
-193.231	577.267	-0.081	-0.199
-192.217	-200.000	-0.005	0.176
-191.202	-45.550	-0.124	0.061
-190.187	-76.156	-0.108	0.038
-189.173	17.004	0.161	-0.128
-188.158	26.901	0.116	-0.097
-187.144	-21.719	-0.126	0.077
-186.129	-66.186	-0.442	-0.176
-185.114	800.000	0.075	-0.240
-184.100	157.975	-0.173	0.240
-183.085	70.358	-0.089	0.092
-182.071	800.000	-0.081	-0.227
-181.056	-93.293	0.071	-0.020
-180.042	186.386	-0.126	-0.189
-179.027	-200.000	-0.007	-0.056
-178.012	-139.032	0.062	0.007
-176.998	250.568	0.072	-0.123
-175.983	-200.000	-0.068	0.331
-174.969	442.700	-0.192	0.422
-173.954	276.033	-0.074	-0.131
-172.939	-145.943	0.168	0.015
-171.925	14.098	0.033	-0.026
-170.910	800.000	-0.111	0.331
-169.896	394.012	-0.214	0.446
-168.881	-86.674	-0.188	-0.058
-167.866	-15.877	-0.175	-0.112
-166.852	-200.000	0.004	0.064
-165.837	101.078	0.174	-0.203
-164.823	31.821	0.158	0.137
-163.808	120.146	-0.138	0.172
-162.793	94.299	0.116	-0.131
-161.779	800.000	-0.070	-0.205
-160.764	-142.945	-0.109	0.011
-159.750	692.116	0.015	-0.040
-158.735	-200.000	0.017	-0.080
-157.720	-144.956	-0.079	-0.007
-156.706	-38.344	-0.158	-0.084
-155.691	-101.069	-0.144	0.035
-154.677	-85.782	-0.259	0.080
-153.662	-79.963	0.012	-0.004
-152.647	-200.000	0.031	0.304
-151.633	-128.562	0.198	0.028
-150.618	285.624	0.074	0.134
-149.604	-1.335	-0.287	-0.203
-148.589	13.158	0.144	0.112
-147.574	-200.000	0.003	0.095
-146.560	800.000	-0.015	0.051
-145.545	-85.600	0.124	0.039
-144.531	379.043	0.122	0.251
-143.516	-124.553	0.155	-0.024
-142.502	140.410	0.218	-0.288
-141.487	-200.000	-0.027	-0.243
-140.472	-23.360	0.178	0.107
-139.458	-86.962	0.109	-0.033
-138.443	800.000	0.051	0.155
-137.429	47.760	0.274	0.256
-136.414	-200.000	0.033	0.160
-135.399	-126.635	-0.292	-0.043
-134.385	-200.000	0.001	0.034
-133.370	127.316	0.114	0.144
-132.356	-35.867	-0.323	0.175
-131.341	-200.000	-0.017	-0.319
-130.326	87.170	0.159	0.175
-129.312	9.694	-0.190	0.144
-128.297	800.000	-0.081	0.253
-127.283	0.234	0.150	0.107
-126.268	-200.000	0.010	-0.105
-125.253	800.000	0.132	-0.394
-124.239	6.043	-0.370	0.274
-123.224	-200.000	0.005	0.139
-122.210	-160.089	0.209	0.011
-121.195	171.510	0.109	0.156
-120.180	-200.000	-0.072	0.366
