DTS Sentinel unit serial number:	SN413079Multiplexer serial number:	ORYXHardware model number:	OX4-SRSoftware version number:	ORYX F/W v4.00 Oryx Data Collector v3.7.2.0data status	okinstallation	princeton_trtdifferential loss correction	single-endedforward channel	channel 1reverse channel	N/Adate	2019/09/16time	14:54:35forward acquisition time	60.00reverse acquisition time	0.00gamma	496.2192k internal	0.2293k external	0.2293temperature offset calibration	0.9954default loss term (dB/km)	0.3790temperature slope calibration	1.0000multiplexer offset coefficient	1.0000multiplexer slope coefficient	1.0000fibre end	0.00T internal ref (°C)	41.31T ext. ref 1 (°C)	14.43T ext. ref 2 (°C)	35.83length (m)	temperature (°C)	Stokes	anti-Stokes-747.200	453.690	0.057	0.129
-746.185	74.371	0.104	-0.111
-745.171	-163.767	-0.182	0.009
-744.156	-28.471	-0.438	0.259
-743.142	-85.923	0.316	0.100
-742.127	452.155	0.315	0.712
-741.112	94.419	0.242	-0.281
-740.098	221.028	-0.048	0.079
-739.083	800.000	-0.054	-0.177
-738.069	800.000	-0.046	0.153
-737.054	800.000	0.035	-0.131
-736.039	-200.000	0.013	0.092
-735.025	86.439	-0.101	0.114
-734.010	-200.000	0.040	-0.198
-732.996	-54.708	-0.236	-0.109
-731.981	43.821	-0.109	0.102
-730.966	8.893	0.219	-0.169
-729.952	125.079	-0.359	-0.462
-728.937	-74.192	-0.022	0.008
-727.923	-111.289	0.114	-0.024
-726.908	-130.978	-0.114	-0.016
-725.894	102.647	-0.147	-0.176
-724.879	-140.030	-0.089	-0.010
-723.864	-32.993	-0.659	0.374
-722.850	259.168	-0.075	0.132
-721.835	800.000	-0.017	0.066
-720.821	-63.128	0.262	0.111
-719.806	800.000	0.088	0.302
-718.791	-21.536	-0.230	-0.143
-717.777	-176.373	0.296	0.008
-716.762	800.000	-0.026	0.098
-715.748	-27.170	0.355	-0.212
-714.733	-20.765	0.284	0.178
-713.718	216.513	-0.105	-0.170
-712.704	156.289	-0.115	0.162
-711.689	800.000	-0.062	0.259
-710.675	-45.792	-0.227	-0.115
-709.660	190.569	0.057	-0.088
-708.645	148.476	0.193	0.267
-707.631	356.576	-0.123	0.251
-706.616	-105.965	0.162	0.037
-705.602	800.000	0.034	-0.148
-704.587	-131.269	0.233	0.032
-703.572	486.899	-0.106	0.246
-702.558	-200.000	-0.048	-0.332
-701.543	-200.000	0.007	0.328
-700.529	14.972	0.240	-0.192
-699.514	-200.000	-0.002	-0.230
-698.499	-61.675	-0.175	-0.075
-697.485	-18.594	0.344	-0.219
-696.470	800.000	0.147	0.444
-695.456	449.343	0.088	0.199
-694.441	-52.523	-0.130	-0.062
-693.426	708.534	0.080	0.217
-692.412	-132.501	-0.256	0.034
-691.397	32.250	0.143	-0.126
-690.383	15.900	-0.241	-0.194
-689.368	-12.610	-0.136	-0.091
-688.354	95.408	-0.268	-0.312
-687.339	-10.099	0.334	0.226
-686.324	-4.376	-0.132	-0.093
-685.310	-130.384	-0.188	-0.026
-684.295	800.000	-0.031	0.129
-683.281	453.520	0.017	-0.039
-682.266	76.839	-0.240	-0.260
-681.251	-200.000	0.019	-0.137
-680.237	172.807	-0.077	0.114
-679.222	800.000	-0.119	-0.369
-678.208	800.000	0.009	0.035
-677.193	-68.831	-0.120	-0.047
-676.178	-200.000	0.019	0.281
-675.164	-7.055	0.077	0.053
-674.149	174.784	0.205	0.303
-673.135	102.000	0.068	0.081
-672.120	103.770	0.124	0.149
-671.105	-185.191	-0.142	-0.002
-670.091	-200.000	0.043	-0.236
-669.076	37.520	0.139	0.126
-668.062	800.000	0.056	0.162
-667.047	-181.789	-0.305	-0.006
-666.032	-101.105	-0.474	0.118
-665.018	-144.313	0.113	-0.011
-664.003	584.821	0.061	-0.152
-662.989	578.724	-0.077	-0.192
-661.974	56.481	0.186	-0.185
-660.959	134.451	-0.067	0.089
-659.945	-200.000	0.012	-0.282
-658.930	77.170	-0.447	-0.485
-657.916	-90.497	-0.231	0.068
-656.901	800.000	0.011	-0.034
-655.886	-200.000	0.022	-0.171
-654.872	-148.111	0.086	0.007
-653.857	3.635	-0.095	-0.070
-652.843	-200.000	0.019	-0.226
-651.828	324.476	0.068	0.133
-650.814	595.754	-0.010	-0.025
-649.799	-200.000	-0.038	-0.412
-648.784	-41.819	-0.230	-0.120
-647.770	-97.799	0.203	0.053
-646.755	-200.000	-0.083	0.000
-645.741	198.718	-0.181	0.283
-644.726	292.200	0.142	0.264
-643.711	-146.452	-0.202	0.018
-642.697	-155.212	-0.436	0.029
-641.682	-146.807	-0.134	-0.012
-640.668	-26.005	-0.175	0.105
-639.653	-200.000	0.063	0.283
-638.638	52.638	-0.071	0.069
-637.624	800.000	-0.028	0.115
-636.609	13.221	0.270	-0.213
-635.595	420.529	-0.017	0.038
-634.580	-200.000	0.002	-0.019
-633.565	5.181	-0.208	0.156
-632.551	133.187	0.145	0.191
-631.536	-38.456	-0.227	0.122
-630.522	800.000	-0.037	0.146
-629.507	-200.000	-0.009	-0.262
-628.492	248.846	-0.081	-0.141
-627.478	-130.374	-0.330	0.046
-626.463	515.334	0.038	-0.090
-625.449	-200.000	0.040	-0.256
-624.434	137.728	0.125	0.166
-623.419	800.000	-0.045	0.129
-622.405	-7.694	0.212	-0.146
-621.390	-80.074	-0.228	0.078
-620.376	48.924	0.255	0.244
-619.361	-8.070	-0.102	-0.070
-618.346	501.102	-0.053	0.126
-617.332	-4.849	-0.219	-0.154
-616.317	-200.000	0.014	-0.149
-615.303	339.549	0.162	-0.322
-614.288	-91.700	-0.287	0.083
-613.273	371.672	0.064	-0.132
-612.259	75.462	-0.217	-0.233
-611.244	-101.496	-0.217	-0.054
-610.230	-130.554	-0.068	-0.009
-609.215	-11.817	0.201	-0.135
-608.201	-136.052	-0.194	-0.023
-607.186	800.000	-0.088	-0.327
-606.171	50.356	0.237	0.228
-605.157	86.195	0.102	-0.114
-604.142	-200.000	0.054	-0.270
-603.128	40.824	0.087	-0.080
-602.113	103.910	-0.053	0.063
-601.098	34.176	-0.150	-0.133
-600.084	-98.515	0.198	-0.052
-599.069	-131.671	-0.227	-0.030
-598.055	-44.909	-0.206	0.105
-597.040	-21.666	-0.128	0.079
-596.025	-92.649	0.048	0.014
-595.011	-37.523	-0.131	-0.071
-593.996	-189.079	0.172	-0.002
-592.982	29.705	0.059	-0.051
-591.967	-130.439	0.076	0.011
-590.952	153.643	-0.125	0.174
-589.938	-200.000	-0.003	-0.041
-588.923	-23.699	0.084	0.051
-587.909	-200.000	-0.020	-0.216
-586.894	122.417	0.188	0.239
-585.879	-117.034	-0.175	-0.032
-584.865	-200.000	0.005	-0.181
-583.850	-110.225	-0.249	0.053
-582.836	-59.143	-0.145	-0.063
-581.821	728.770	0.180	-0.488
-580.806	-2.907	-0.100	-0.071
-579.792	-200.000	0.039	-0.264
-578.777	-200.000	0.028	0.185
-577.763	369.914	0.239	-0.491
-576.748	-200.000	-0.014	0.234
-575.733	676.233	0.066	0.174
-574.719	-45.282	-0.347	0.175
-573.704	390.528	0.099	0.209
-572.690	-90.103	-0.254	-0.075
-571.675	31.220	-0.187	-0.163
-570.661	21.400	0.063	-0.052
-569.646	72.318	-0.062	0.065
-568.631	490.262	0.075	-0.175
-567.617	-200.000	-0.011	0.124
-566.602	280.428	0.224	-0.408
-565.588	89.621	-0.147	-0.167
-564.573	112.634	-0.191	-0.235
-563.558	-200.000	-0.005	0.043
-562.544	-7.866	0.230	-0.158
-561.529	-131.399	-0.323	0.043
-560.515	-200.000	0.036	-0.254
-559.500	-200.000	0.040	-0.238
-558.485	-113.452	0.027	0.005
-557.471	110.935	-0.150	0.184
-556.456	54.246	-0.249	-0.243
-555.442	-102.660	0.368	-0.089
-554.427	17.568	0.122	-0.099
-553.412	261.337	-0.079	-0.138
-552.398	-112.734	0.131	-0.026
-551.383	28.740	0.387	-0.333
-550.369	-40.407	-0.147	-0.078
-549.354	-71.549	-0.115	0.044
-548.339	421.415	-0.132	0.287
-547.325	125.151	0.109	0.140
-546.310	-181.101	-0.108	0.002
-545.296	-97.960	0.028	0.007
-544.281	-57.970	0.048	0.022
-543.266	-200.000	0.019	-0.427
-542.252	-200.000	0.038	-0.209
-541.237	-200.000	-0.062	0.382
-540.223	-88.729	0.256	0.077
-539.208	-105.805	0.253	-0.058
-538.193	-130.223	0.214	0.030
-537.179	140.678	-0.084	-0.113
-536.164	708.875	0.049	-0.132
-535.150	800.000	-0.071	-0.314
-534.135	-200.000	0.036	-0.371
-533.121	800.000	0.032	-0.124
-532.106	693.177	0.081	-0.217
-531.091	304.073	0.106	0.200
-530.077	800.000	-0.049	0.153
-529.062	169.116	-0.091	-0.132
-528.048	-200.000	0.046	0.253
-527.033	-170.333	-0.259	-0.009
-526.018	180.898	0.061	0.090
-525.004	-200.000	-0.010	-0.289
-523.989	88.075	-0.119	0.134
-522.975	-120.053	0.207	-0.036
-521.960	0.555	0.069	-0.050
-520.945	-23.790	0.519	0.315
-519.931	800.000	-0.095	-0.367
-518.916	-89.465	0.130	-0.039
-517.902	-45.172	-0.327	-0.165
-516.887	-5.701	-0.265	-0.184
-515.872	137.415	-0.173	0.229
-514.858	311.139	-0.093	0.176
-513.843	85.387	0.131	-0.146
-512.829	46.019	-0.296	-0.278
-511.814	800.000	-0.084	-0.253
-510.799	800.000	0.073	-0.245
-509.785	17.631	0.256	0.206
-508.770	195.998	-0.177	-0.274
-507.756	800.000	-0.047	-0.179
-506.741	-26.367	-0.188	0.112
-505.726	-200.000	0.031	-0.183
-504.712	800.000	0.129	-0.479
-503.697	125.336	0.107	0.137
-502.683	136.724	0.294	-0.389
-501.668	-43.741	-0.272	-0.139
-500.653	-200.000	0.026	0.116
-499.639	-193.233	-0.188	-0.002
-498.624	-93.993	0.271	-0.075
-497.610	-200.000	-0.003	-0.137
-496.595	800.000	-0.048	-0.172
-495.581	54.552	0.058	-0.057
-494.566	-63.306	-0.085	0.035
-493.551	-26.457	-0.250	-0.149
-492.537	800.000	-0.084	0.282
-491.522	164.993	0.042	0.059
-490.508	-200.000	0.033	-0.171
-489.493	-136.156	-0.274	0.032
-488.478	546.908	0.065	0.159
-487.464	-200.000	-0.063	0.286
-486.449	-53.678	0.290	-0.134
-485.435	189.593	0.111	0.168
-484.420	152.598	0.178	0.247
-483.405	238.463	0.137	0.230
-482.391	162.498	0.118	-0.168
-481.376	-126.879	-0.221	-0.033
-480.362	-200.000	0.042	0.318
-479.347	800.000	0.053	0.175
-478.332	-92.796	0.124	-0.035
-477.318	-66.157	-0.150	-0.060
-476.303	52.689	-0.172	0.167
-475.289	800.000	-0.056	0.168
-474.274	-39.061	0.181	-0.097
-473.259	800.000	0.021	-0.092
-472.245	354.210	-0.224	-0.450
-471.230	-200.000	0.025	-0.236
-470.216	-48.629	-0.103	0.050
-469.201	800.000	0.051	-0.155
-468.186	107.163	0.051	-0.061
-467.172	-138.322	0.138	0.015
-466.157	-200.000	-0.033	0.173
-465.143	769.627	0.073	0.200
-464.128	-68.509	-0.223	0.087
-463.113	150.651	0.063	-0.087
-462.099	547.624	-0.151	0.366
-461.084	435.232	-0.096	-0.212
-460.070	-71.830	0.150	0.056
-459.055	-117.584	-0.224	-0.041
-458.040	52.712	-0.314	0.303
-457.026	21.398	0.063	0.052
-456.011	800.000	0.075	0.279
-454.997	-161.584	0.188	0.010
-453.982	440.087	0.045	-0.100
-452.968	-52.471	-0.266	0.125
-451.953	75.796	0.160	-0.171
-450.938	800.000	0.053	-0.205
-449.924	-41.694	-0.146	0.076
-448.909	711.671	-0.060	0.159
-447.895	-93.954	-0.282	0.078
-446.880	415.323	0.044	-0.096
-445.865	44.573	0.111	0.103
-444.851	-200.000	0.010	-0.116
-443.836	718.169	-0.063	-0.169
-442.822	258.294	-0.082	-0.142
-441.807	-109.646	-0.036	0.008
-440.792	800.000	-0.047	0.181
-439.778	87.174	-0.220	-0.246
-438.763	76.637	0.365	-0.392
-437.749	-52.473	0.225	-0.105
-436.734	97.511	0.173	-0.201
-435.719	-200.000	0.009	0.134
-434.705	-132.498	0.373	-0.048
-433.690	309.269	0.124	-0.234
-432.676	192.458	-0.224	-0.342
-431.661	-119.044	-0.087	-0.015
-430.646	-111.201	-0.178	-0.037
-429.632	184.512	0.126	0.189
-428.617	-48.615	-0.074	0.036
-427.603	25.268	-0.308	-0.259
-426.588	-200.000	0.010	-0.254
-425.573	-200.000	-0.035	-0.157
-424.559	69.678	-0.294	-0.306
-423.544	392.866	0.029	0.060
-422.530	-200.000	-0.001	0.172
-421.515	-46.441	0.150	0.074
-420.500	-200.000	-0.029	-0.314
-419.486	-48.807	-0.208	0.101
-418.471	800.000	-0.041	-0.141
-417.457	107.001	-0.057	-0.068
-416.442	-96.011	0.167	-0.045
-415.428	-200.000	-0.015	0.109
-414.413	23.203	-0.096	0.079
-413.398	800.000	-0.133	0.456
-412.384	412.956	0.064	0.138
-411.369	289.878	0.143	-0.263
-410.355	-27.991	-0.222	-0.130
-409.340	-40.851	-0.106	0.055
-408.325	-28.653	-0.213	0.124
-407.311	399.105	-0.065	-0.137
-406.296	-200.000	-0.005	-0.198
-405.282	800.000	-0.024	-0.072
-404.267	29.921	0.089	0.077
-403.252	-194.878	-0.302	0.002
-402.238	-120.887	-0.316	0.054
-401.223	102.802	-0.106	0.125
-400.209	3.771	-0.261	0.192
-399.194	800.000	-0.070	-0.207
-398.179	309.160	-0.024	0.046
-397.165	63.550	0.051	-0.052
-396.150	800.000	0.012	-0.046
-395.136	-57.461	0.019	0.009
-394.121	371.004	-0.065	0.133
-393.106	-200.000	0.025	0.127
-392.092	226.917	0.166	0.272
-391.077	70.882	-0.077	0.080
-390.063	192.627	0.200	0.304
-389.048	800.000	0.040	-0.148
-388.033	19.574	0.068	0.056
-387.019	156.513	-0.103	0.144
-386.004	-93.014	-0.305	-0.086
-384.990	-127.309	-0.518	0.076
-383.975	-64.172	0.309	-0.127
-382.960	32.007	-0.163	-0.142
-381.946	800.000	0.097	0.374
-380.931	-89.658	0.309	-0.091
-379.917	84.519	0.269	0.297
-378.902	-189.423	-0.090	-0.001
-377.888	183.140	0.099	-0.148
-376.873	-158.269	-0.094	-0.006
-375.858	721.028	0.069	0.186
-374.844	-200.000	0.004	-0.087
-373.829	800.000	0.088	0.269
-372.815	800.000	-0.039	0.154
-371.800	800.000	0.059	0.204
-370.785	7.720	0.165	0.124
-369.771	-34.938	-0.344	0.189
-368.756	1.408	0.054	-0.039
-367.742	-81.468	0.346	0.115
-366.727	201.804	-0.167	0.259
-365.712	-200.000	0.019	0.285
-364.698	-9.718	-0.107	0.072
-363.683	-8.662	0.089	-0.060
-362.669	800.000	-0.079	0.314
-361.654	800.000	-0.052	0.189
-360.639	800.000	-0.084	0.286
-359.625	-186.935	0.503	-0.007
-358.610	-200.000	0.007	-0.156
-357.596	-175.704	0.336	-0.009
-356.581	-200.000	0.071	0.436
-355.566	-71.197	-0.255	-0.097
-354.552	688.388	-0.165	0.434
-353.537	118.782	-0.118	0.147
-352.523	16.518	0.140	0.111
-351.508	32.388	0.192	0.167
-350.493	-163.625	0.065	0.003
-349.479	51.502	-0.248	0.237
-348.464	-200.000	-0.001	0.090
-347.450	404.113	0.072	0.152
-346.435	-200.000	0.038	-0.233
-345.420	-99.896	0.162	-0.041
-344.406	-74.438	0.233	0.085
-343.391	-134.389	0.418	-0.052
-342.377	62.116	-0.077	0.078
-341.362	312.962	-0.095	0.180
-340.348	-39.474	-0.105	0.055
-339.333	-200.000	-0.039	0.174
-338.318	-47.773	0.328	-0.160
-337.304	-33.678	0.210	0.116
-336.289	-44.650	0.165	-0.083
-335.275	-10.858	0.220	0.146
-334.260	1.543	-0.275	-0.200
-333.245	-95.142	0.105	0.029
-332.231	-200.000	-0.045	-0.456
-331.216	549.827	-0.070	-0.170
-330.202	-200.000	0.029	0.221
-329.187	-126.029	0.259	-0.039
-328.172	-78.321	-0.195	-0.067
-327.158	35.372	-0.150	-0.133
-326.143	-33.385	0.096	-0.054
-325.129	-117.304	-0.259	0.047
-324.114	81.100	-0.155	0.168
-323.099	106.958	0.033	-0.040
-322.085	341.176	0.110	-0.217
-321.070	104.469	0.150	0.177
-320.056	40.995	0.186	-0.169
-319.041	-124.767	0.154	-0.024
-318.026	-94.471	0.174	-0.048
-317.012	-76.254	-0.130	-0.046
-315.997	281.997	0.029	-0.052
-314.983	177.480	-0.123	0.180
-313.968	-115.567	-0.136	-0.026
-312.953	491.104	-0.097	0.223
-311.939	-45.713	-0.355	-0.177
-310.924	104.273	0.151	0.178
-309.910	-114.135	0.214	0.042
-308.895	-200.000	-0.045	0.331
-307.880	-96.530	-0.065	-0.017
-306.866	-200.000	0.044	0.242
-305.851	538.131	-0.107	0.256
-304.837	77.509	0.207	0.222
-303.822	-63.663	-0.415	-0.171
-302.807	755.258	-0.135	-0.366
-301.793	-66.409	0.178	0.071
-300.778	-30.035	-0.197	-0.113
-299.764	513.370	-0.076	0.179
-298.749	-108.633	0.270	0.058
-297.735	-200.000	0.005	-0.165
-296.720	-200.000	0.023	-0.318
-295.705	301.621	0.142	0.263
-294.691	145.552	0.200	0.270
-293.676	433.051	-0.035	-0.075
-292.662	7.665	-0.307	0.231
-291.647	153.497	-0.034	0.047
-290.632	-200.000	0.032	-0.289
-289.618	800.000	0.031	-0.085
-288.603	-39.598	0.229	0.121
-287.589	513.681	0.140	0.328
-286.574	694.429	-0.023	-0.061
-285.559	-20.107	0.133	-0.082
-284.545	-108.263	-0.143	0.031
-283.530	0.511	0.227	-0.163
-282.516	-12.882	0.052	-0.034
-281.501	-200.000	0.014	0.270
-280.486	107.621	0.125	-0.149
-279.472	112.363	-0.024	0.030
-278.457	162.018	-0.056	-0.078
-277.443	46.909	0.244	-0.228
-276.428	263.159	-0.070	-0.122
-275.413	104.714	-0.160	0.190
-274.399	800.000	0.089	-0.260
-273.384	-48.252	-0.170	-0.082
-272.370	-200.000	-0.036	-0.247
-271.355	-153.129	-0.116	0.008
-270.340	622.575	0.151	-0.382
-269.326	-200.000	-0.045	-0.388
-268.311	224.574	-0.217	-0.352
-267.297	-200.000	-0.015	0.200
-266.282	-26.117	0.439	-0.259
-265.267	429.684	-0.121	0.263
-264.253	8.320	-0.340	0.257
-263.238	20.558	-0.411	0.334
-262.224	800.000	-0.020	0.075
-261.209	800.000	-0.082	0.298
-260.195	800.000	0.021	0.081
-259.180	349.934	-0.028	0.055
-258.165	86.232	0.149	0.165
-257.151	-64.782	0.314	0.128
-256.136	134.650	0.133	-0.173
-255.122	-88.811	0.251	-0.075
-254.107	110.054	-0.043	-0.051
-253.092	-200.000	0.121	0.587
-252.078	350.911	0.069	-0.137
-251.063	107.985	0.141	-0.169
-250.049	415.956	-0.158	0.339
-249.034	-146.226	-0.433	-0.038
-248.019	-200.000	0.001	-0.082
-247.005	150.827	0.152	-0.208
-245.990	-97.369	-0.199	-0.052
-244.976	-83.563	0.285	-0.091
-243.961	-16.014	-0.253	0.162
-242.946	242.935	-0.099	0.166
-241.932	800.000	0.040	-0.172
-240.917	98.278	0.239	0.276
-239.903	4.161	0.182	0.134
-238.888	-200.000	0.035	0.228
-237.873	-167.540	0.109	-0.004
-236.859	-78.587	0.299	-0.103
-235.844	-140.235	-0.229	0.024
-234.830	-56.971	-0.132	0.058
-233.815	-34.846	0.127	0.070
-232.800	-4.953	0.040	0.027
-231.786	0.749	0.142	0.102
-230.771	-110.785	0.121	0.025
-229.757	-138.438	0.273	0.030
-228.742	800.000	-0.062	-0.171
-227.727	-113.672	-0.186	0.036
-226.713	-17.969	0.032	0.020
-225.698	-200.000	-0.005	0.060
-224.684	656.711	0.162	-0.418
-223.669	154.471	0.178	0.245
-222.655	-200.000	0.004	0.022
-221.640	131.239	0.135	-0.173
-220.625	-200.000	-0.012	-0.224
-219.611	-109.944	-0.246	0.052
-218.596	171.238	0.095	-0.137
-217.582	-200.000	-0.039	0.244
-216.567	-200.000	0.024	0.367
-215.552	270.410	-0.073	-0.129
-214.538	-80.428	0.084	0.028
-213.523	-200.000	-0.016	0.112
-212.509	-200.000	-0.009	0.257
-211.494	-39.402	0.061	-0.032
-210.479	-200.000	0.001	0.215
-209.465	-200.000	-0.005	0.073
-208.450	-63.195	0.061	0.025
-207.436	-200.000	0.017	0.115
-206.421	-200.000	0.017	-0.095
-205.406	800.000	-0.062	-0.217
-204.392	-200.000	-0.366	0.002
-203.377	-93.465	0.091	0.025
-202.363	-92.762	-0.083	-0.023
-201.348	-70.308	0.287	-0.109
-200.333	-48.546	0.275	-0.133
-199.319	183.692	0.099	0.146
-198.304	-200.000	0.067	-0.336
-197.290	-125.388	-0.201	0.031
-196.275	-119.626	0.375	-0.065
-195.260	-111.997	0.112	-0.023
-194.246	86.732	0.206	0.228
-193.231	-119.306	-0.229	-0.040
-192.217	-200.000	0.006	-0.048
-191.202	-53.693	0.245	-0.112
-190.187	-138.861	-0.068	0.007
-189.173	-17.482	-0.116	0.073
-188.158	196.002	0.049	-0.075
-187.144	-3.000	0.310	0.217
-186.129	-172.942	0.138	0.004
-185.114	800.000	0.051	0.197
-184.100	-111.840	-0.203	-0.041
-183.085	-200.000	0.032	-0.523
-182.071	-83.800	-0.115	-0.037
-181.056	-87.801	-0.087	-0.026
-180.042	-69.840	0.110	-0.042
-179.027	800.000	-0.060	0.227
-178.012	-23.556	-0.309	-0.186
-176.998	470.781	-0.035	0.079
-175.983	-92.077	0.246	-0.070
-174.969	-200.000	-0.007	0.349
-173.954	10.516	-0.134	0.102
-172.939	-200.000	0.006	-0.114
-171.925	800.000	-0.089	0.369
-170.910	-153.529	0.215	-0.015
-169.896	800.000	0.028	0.103
-168.881	458.618	0.140	-0.312
-167.866	-85.864	-0.181	0.056
-166.852	-200.000	-0.014	0.390
-165.837	-132.044	0.227	0.030
-164.823	-200.000	0.021	0.253
-163.808	33.327	0.174	0.151
-162.793	23.905	-0.127	-0.104
-161.779	4.950	-0.163	-0.120
-160.764	800.000	0.041	-0.118
-159.750	48.629	-0.144	0.135
-158.735	30.250	-0.042	-0.036
-157.720	800.000	0.111	-0.346
-156.706	-21.142	0.337	0.206
-155.691	361.104	0.039	-0.078
-154.677	-140.878	-0.183	0.019
-153.662	259.110	0.112	0.194
-152.647	-200.000	0.060	0.297
-151.633	97.750	0.207	0.238
-150.618	65.551	-0.094	-0.095
-149.604	361.280	0.107	0.214
-148.589	6.297	0.144	0.107
-147.574	-66.306	0.179	-0.071
-146.560	-137.778	0.053	-0.006
-145.545	108.632	-0.243	0.290
-144.531	-86.841	-0.339	-0.103
-143.516	649.130	0.072	-0.184
-142.502	-200.000	0.007	0.118
-141.487	800.000	0.029	-0.114
-140.472	674.231	-0.103	-0.267
-139.458	-126.963	-0.189	-0.028
-138.443	-147.312	-0.232	-0.020
-137.429	-18.544	-0.120	-0.075
-136.414	-160.995	0.046	-0.002
-135.399	-200.000	0.024	0.323
-134.385	657.767	-0.049	0.126
-133.370	71.971	-0.129	0.135
-132.356	-59.168	0.140	0.060
-131.341	13.890	-0.040	-0.031
-130.326	-22.176	-0.204	0.124
-129.312	325.764	0.072	-0.138
-128.297	70.326	0.092	-0.095
-127.283	93.353	-0.190	-0.215
-126.268	93.886	-0.362	0.409
-125.253	-89.006	0.362	-0.107
-124.239	-132.111	-0.097	-0.013
-123.224	-135.849	0.261	0.031
-122.210	-3.969	0.102	0.071
-121.195	618.287	0.080	-0.200
