DTS Sentinel unit serial number:	SN413079Multiplexer serial number:	ORYXHardware model number:	OX4-SRSoftware version number:	ORYX F/W v4.00 Oryx Data Collector v3.7.2.0data status	okinstallation	princeton_trtdifferential loss correction	single-endedforward channel	channel 1reverse channel	N/Adate	2019/09/15time	05:58:36forward acquisition time	60.00reverse acquisition time	0.00gamma	496.2192k internal	0.2324k external	0.2324temperature offset calibration	0.9997default loss term (dB/km)	0.3790temperature slope calibration	1.0000multiplexer offset coefficient	1.0000multiplexer slope coefficient	1.0000fibre end	0.00T internal ref (°C)	30.62T ext. ref 1 (°C)	4.87T ext. ref 2 (°C)	25.25length (m)	temperature (°C)	Stokes	anti-Stokes-747.200	-200.000	-0.026	0.311
-746.185	-32.887	0.396	0.222
-745.171	-32.953	-0.216	-0.121
-744.156	-85.623	-0.202	0.063
-743.142	800.000	-0.069	-0.196
-742.127	-58.170	0.281	0.123
-741.112	230.980	-0.230	0.379
-740.098	-200.000	-0.015	0.082
-739.083	-35.173	-0.192	0.106
-738.069	131.273	-0.238	0.309
-737.054	800.000	-0.065	-0.227
-736.039	203.075	-0.290	-0.452
-735.025	1.420	0.177	-0.128
-734.010	-108.694	-0.400	-0.086
-732.996	-130.460	-0.213	-0.029
-731.981	253.777	-0.212	-0.365
-730.966	16.119	-0.263	-0.209
-729.952	77.854	0.175	0.188
-728.937	41.331	-0.257	0.235
-727.923	-35.709	-0.312	-0.170
-726.908	262.099	0.121	-0.211
-725.894	-131.704	-0.109	0.014
-724.879	-74.529	-0.422	-0.153
-723.864	-200.000	0.076	-0.342
-722.850	91.003	0.183	-0.206
-721.835	12.766	-0.274	-0.214
-720.821	-149.759	0.046	-0.004
-719.806	-77.024	-0.263	-0.092
-718.791	-117.781	-0.312	0.057
-717.777	419.451	-0.039	-0.085
-716.762	-200.000	0.006	-0.188
-715.748	-200.000	-0.095	0.463
-714.733	453.235	0.165	0.369
-713.718	-28.294	0.121	-0.070
-712.704	-105.383	-0.067	0.015
-711.689	-81.828	0.150	-0.050
-710.675	69.995	0.182	-0.190
-709.660	223.581	-0.163	0.265
-708.645	-25.112	0.124	-0.074
-707.631	800.000	0.142	-0.426
-706.616	238.196	0.077	0.129
-705.602	-65.899	0.077	0.031
-704.587	357.472	0.052	-0.105
-703.572	-200.000	0.026	-0.263
-702.558	-61.725	0.176	-0.074
-701.543	132.079	-0.097	0.125
-700.529	-151.523	-0.250	-0.019
-699.514	800.000	0.075	0.214
-698.499	-41.488	-0.210	-0.109
-697.485	-28.521	0.139	0.081
-696.470	208.241	0.097	0.152
-695.456	-170.386	0.317	-0.011
-694.441	-90.518	-0.312	-0.091
-693.426	-158.253	0.163	0.010
-692.412	123.912	0.090	-0.114
-691.397	739.904	0.076	-0.206
-690.383	194.626	0.083	0.127
-689.368	-111.347	0.122	0.025
-688.354	-200.000	0.006	-0.185
-687.339	130.330	-0.084	0.109
-686.324	555.064	0.106	0.257
-685.310	-157.452	0.163	0.010
-684.295	-200.000	-0.021	-0.169
-683.281	58.982	-0.143	0.141
-682.266	48.802	-0.107	0.101
-681.251	800.000	-0.174	-0.576
-680.237	-132.489	0.391	0.051
-679.222	-200.000	0.002	0.036
-678.208	176.576	-0.421	-0.615
-677.193	800.000	-0.030	-0.109
-676.178	-200.000	0.039	-0.339
-675.164	-81.562	0.273	-0.090
-674.149	800.000	-0.090	0.278
-673.135	388.803	-0.095	-0.198
-672.120	-90.397	-0.284	0.083
-671.105	-73.810	-0.320	-0.117
-670.091	-163.966	0.411	-0.019
-669.076	-200.000	0.306	0.000
-668.062	671.781	-0.127	-0.330
-667.047	108.022	-0.081	0.097
-666.032	178.887	0.222	0.326
-665.018	59.985	0.190	-0.188
-664.003	201.224	0.135	-0.209
-662.989	-84.048	0.331	-0.106
-661.974	-82.547	-0.481	0.157
-660.959	-200.000	0.028	0.140
-659.945	1.090	0.366	0.264
-658.930	-200.000	-0.005	0.059
-657.916	-53.595	-0.105	0.048
-656.901	88.883	-0.109	-0.122
-655.886	15.781	0.157	0.124
-654.872	4.252	0.128	0.095
-653.857	800.000	-0.117	-0.328
-652.843	303.397	-0.106	0.197
-651.828	800.000	0.023	0.097
-650.814	-200.000	0.028	0.402
-649.799	-90.592	-0.462	0.134
-648.784	-48.093	-0.298	-0.145
-647.770	-60.463	-0.273	0.116
-646.755	-200.000	0.014	-0.204
-645.741	-132.482	0.101	0.013
-644.726	-200.000	-0.384	-0.001
-643.711	191.200	-0.114	-0.173
-642.697	532.754	0.133	0.318
-641.682	198.325	0.073	-0.112
-640.668	-31.107	-0.152	-0.086
-639.653	-10.734	-0.249	-0.166
-638.638	-175.068	0.146	-0.004
-637.624	299.455	0.211	-0.391
-636.609	-139.921	-0.156	0.017
-635.595	309.716	-0.044	0.082
-634.580	224.098	-0.136	-0.220
-633.565	-129.590	0.100	-0.014
-632.551	-200.000	-0.022	0.158
-631.536	-24.258	-0.131	0.078
-630.522	166.778	-0.129	0.184
-629.507	-71.633	-0.090	-0.034
-628.492	195.958	-0.125	-0.192
-627.478	800.000	0.133	-0.382
-626.463	-125.597	0.116	0.018
-625.449	-23.084	0.203	0.123
-624.434	139.442	0.159	0.210
-623.419	-3.917	0.185	-0.129
-622.405	-126.322	0.140	0.021
-621.390	-144.103	0.157	0.015
-620.376	-11.687	0.216	0.142
-619.361	472.933	0.129	-0.291
-618.346	651.624	-0.063	-0.163
-617.332	39.389	0.054	-0.049
-616.317	-88.196	0.074	0.022
-615.303	-200.000	0.038	0.436
-614.288	-124.910	0.308	0.048
-613.273	32.825	-0.285	-0.247
-612.259	-193.052	0.108	0.001
-611.244	119.598	-0.101	-0.126
-610.230	800.000	-0.011	0.036
-609.215	-74.473	-0.323	-0.117
-608.201	-95.975	-0.337	0.090
-607.186	77.266	-0.306	0.327
-606.171	667.389	-0.110	0.287
-605.157	56.454	0.249	0.243
-604.142	-19.626	0.203	-0.126
-603.128	-200.000	0.007	-0.156
-602.113	-41.440	-0.032	0.017
-601.098	800.000	0.074	-0.319
-600.084	-200.000	-0.011	-0.115
-599.069	131.360	0.190	-0.245
-598.055	-86.775	0.287	-0.088
-597.040	-136.439	-0.430	-0.050
-596.025	-3.010	0.225	0.157
-595.011	110.000	0.222	0.267
-593.996	86.881	-0.284	-0.315
-592.982	193.168	0.137	0.208
-591.967	-94.633	0.090	0.024
-590.952	-200.000	0.009	0.090
-589.938	-200.000	0.004	-0.099
-588.923	-148.295	-0.460	-0.038
-587.909	800.000	-0.090	-0.284
-586.894	94.127	0.238	-0.270
-585.879	172.682	0.061	0.089
-584.865	-200.000	-0.019	0.112
-583.850	-126.790	0.285	-0.042
-582.836	226.648	-0.038	-0.061
-581.821	-200.000	0.013	-0.122
-580.806	-200.000	-0.049	-0.310
-579.792	-200.000	-0.007	0.141
-578.777	1.494	0.109	0.079
-577.763	-60.961	0.159	0.067
-576.748	-200.000	0.092	0.566
-575.733	-200.000	-0.308	-0.001
-574.719	-6.043	0.076	-0.052
-573.704	63.166	0.112	0.113
-572.690	-153.032	-0.382	-0.027
-571.675	-200.000	0.038	0.230
-570.661	88.266	0.124	-0.138
-569.646	-110.703	0.492	0.102
-568.631	-104.947	-0.199	0.046
-567.617	94.240	-0.323	0.367
-566.602	143.974	0.043	0.058
-565.588	-151.647	0.162	-0.012
-564.573	-59.369	0.129	-0.056
-563.558	-28.317	-0.098	0.057
-562.544	602.218	-0.128	0.319
-561.529	242.743	0.092	0.154
-560.515	65.291	0.164	0.166
-559.500	-139.462	0.232	-0.025
-558.485	-99.450	0.202	-0.051
-557.471	-154.438	-0.344	0.023
-556.456	123.284	-0.134	0.168
-555.442	-52.739	-0.393	-0.182
-554.427	-52.835	0.249	0.115
-553.412	101.057	-0.237	-0.276
-552.398	-200.000	-0.013	-0.155
-551.383	-119.762	-0.142	-0.025
-550.369	7.606	-0.356	0.267
-549.354	800.000	-0.065	0.201
-548.339	-177.232	-0.362	-0.009
-547.325	228.540	0.335	-0.546
-546.310	-13.730	0.138	0.089
-545.296	-200.000	0.020	-0.094
-544.281	-150.016	0.173	-0.013
-543.266	678.107	-0.042	0.111
-542.252	110.734	0.074	0.089
-541.237	8.529	0.290	0.219
-540.223	800.000	-0.138	0.405
-539.208	140.436	0.361	0.477
-538.193	-11.525	0.272	-0.179
-537.179	-200.000	0.014	-0.226
-536.164	245.032	-0.093	0.157
-535.150	800.000	0.060	0.210
-534.135	-42.181	-0.046	0.023
-533.121	800.000	0.027	-0.101
-532.106	90.853	0.319	-0.358
-531.091	-84.278	-0.277	-0.088
-530.077	170.704	-0.114	0.163
-529.062	32.323	0.064	-0.055
-528.048	800.000	-0.009	0.027
-527.033	233.914	-0.117	-0.192
-526.018	-112.300	0.120	0.024
-525.004	-96.380	-0.313	0.083
-523.989	-200.000	-0.008	-0.196
-522.975	-200.000	0.016	0.081
-521.960	102.348	-0.109	0.127
-520.945	-200.000	-0.040	-0.261
-519.931	-126.318	-0.196	0.029
-518.916	-200.000	-0.018	-0.224
-517.902	-107.325	0.369	0.081
-516.887	-200.000	0.001	-0.121
-515.872	-121.277	-0.312	0.052
-514.858	-200.000	-0.032	-0.374
-513.843	-200.000	-0.018	0.135
-512.829	-122.862	0.167	0.027
-511.814	245.542	-0.029	-0.048
-510.799	275.110	-0.049	0.087
-509.785	14.816	0.186	0.145
-508.770	376.906	0.092	0.189
-507.756	-165.652	-0.276	-0.012
-506.741	784.595	0.053	-0.146
-505.726	-71.034	0.098	0.037
-504.712	358.072	0.065	-0.129
-503.697	-200.000	-0.029	-0.341
-502.683	148.674	0.149	-0.201
-501.668	-112.315	0.121	0.024
-500.653	-172.588	-0.389	-0.012
-499.639	-60.477	-0.286	0.122
-498.624	-23.571	0.131	-0.078
-497.610	-145.691	-0.287	-0.026
-496.595	800.000	-0.067	-0.189
-495.581	-200.000	-0.001	-0.008
-494.566	-41.742	-0.092	-0.047
-493.551	-114.560	0.278	-0.053
-492.537	194.429	0.140	0.213
-491.522	83.493	0.032	-0.035
-490.508	674.617	-0.116	0.301
-489.493	9.843	-0.131	0.099
-488.478	-59.480	-0.190	0.081
-487.464	180.626	0.268	0.393
-486.449	-113.578	0.043	-0.008
-485.435	575.900	-0.050	0.123
-484.420	415.578	0.080	0.171
-483.405	-200.000	0.096	0.504
-482.391	70.155	0.078	0.080
-481.376	-30.279	-0.044	0.025
-480.362	-40.698	0.176	-0.091
-479.347	-200.000	0.015	-0.169
-478.332	170.960	0.237	0.340
-477.318	-17.283	0.098	-0.062
-476.303	86.816	0.169	0.186
-475.289	-137.328	-0.011	0.001
-474.274	-84.829	0.118	0.037
-473.259	618.071	-0.081	-0.203
-472.245	612.221	-0.100	-0.249
-471.230	-200.000	-0.011	-0.213
-470.216	-107.323	-0.118	-0.026
-469.201	207.706	-0.236	-0.368
-468.186	-150.124	-0.202	0.016
-467.172	800.000	0.075	0.206
-466.157	-1.316	-0.195	-0.137
-465.143	430.769	-0.080	0.174
-464.128	205.912	-0.107	0.165
-463.113	-134.545	-0.089	0.011
-462.099	-1.621	0.084	-0.059
-461.084	-169.092	0.255	-0.009
-460.070	181.197	-0.024	-0.036
-459.055	215.516	0.058	-0.092
-458.040	556.554	-0.038	0.092
-457.026	800.000	0.133	0.431
-456.011	76.214	-0.162	0.171
-454.997	33.007	-0.196	-0.170
-453.982	589.513	-0.043	0.106
-452.968	-106.374	-0.225	0.050
-451.953	-200.000	-0.020	-0.238
-450.938	-87.952	-0.116	-0.035
-449.924	-200.000	-0.028	0.339
-448.909	800.000	0.026	-0.091
-447.895	184.817	-0.052	0.077
-446.880	-31.620	0.254	-0.142
-445.865	74.967	-0.142	0.149
-444.851	-200.000	0.022	-0.192
-443.836	-200.000	-0.027	-0.213
-442.822	-47.302	-0.407	0.198
-441.807	190.431	0.064	-0.097
-440.792	-87.372	0.084	-0.025
-439.778	444.844	-0.076	0.166
-438.763	-200.000	0.016	-0.082
-437.749	297.789	0.030	-0.055
-436.734	-61.384	-0.142	-0.060
-435.719	-200.000	-0.065	-0.391
-434.705	316.005	-0.056	-0.105
-433.690	-141.791	-0.066	-0.007
-432.676	-149.885	-0.094	0.007
-431.661	-95.677	0.157	-0.042
-430.646	-174.932	0.161	0.005
-429.632	199.677	0.166	0.254
-428.617	9.591	-0.109	-0.082
-427.603	98.224	0.046	-0.053
-426.588	-13.734	0.264	0.170
-425.573	74.620	-0.072	0.076
-424.559	201.069	0.076	-0.117
-423.544	103.294	-0.179	0.209
-422.530	800.000	0.049	0.156
-421.515	143.576	-0.144	-0.192
-420.500	-200.000	0.025	-0.247
-419.486	-26.750	-0.198	0.116
-418.471	-17.924	0.208	-0.130
-417.457	196.401	-0.103	0.157
-416.442	-200.000	0.025	0.327
-415.428	800.000	0.016	-0.059
-414.413	800.000	0.071	0.211
-413.398	318.143	-0.247	0.465
-412.384	-200.000	0.008	0.268
-411.369	246.698	-0.087	0.145
-410.355	-200.000	0.024	-0.238
-409.340	-157.532	0.178	0.011
-408.325	-21.629	-0.036	0.022
-407.311	-200.000	0.036	-0.201
-406.296	24.569	0.276	0.228
-405.282	48.855	-0.130	0.122
-404.267	-98.956	-0.186	0.047
-403.252	-116.262	0.092	-0.017
-402.238	-200.000	-0.001	0.397
-401.223	352.079	0.065	-0.127
-400.209	-200.000	0.017	-0.183
-399.194	167.929	-0.127	-0.180
-398.179	-58.423	0.360	-0.156
-397.165	131.316	-0.238	0.304
-396.150	-43.557	0.298	-0.150
-395.136	3.056	0.130	-0.094
-394.121	16.036	0.206	-0.161
-393.106	630.495	-0.061	-0.154
-392.092	-113.663	-0.291	-0.057
-391.077	-70.243	0.027	-0.010
-390.063	-73.603	0.424	-0.154
-389.048	-200.000	-0.046	0.415
-388.033	800.000	0.058	0.221
-387.019	-7.217	0.092	-0.062
-386.004	-122.329	-0.213	0.035
-384.990	644.333	-0.192	-0.487
-383.975	-19.469	-0.240	0.148
-382.960	415.676	0.175	-0.371
-381.946	-200.000	0.007	0.041
-380.931	445.863	0.082	0.180
-379.917	44.109	0.205	-0.187
-378.902	-86.068	-0.092	-0.028
-377.888	605.947	0.030	-0.073
-376.873	311.938	0.129	-0.241
-375.858	-117.901	-0.262	-0.047
-374.844	-167.377	-0.098	-0.004
-373.829	-110.320	0.140	-0.029
-372.815	-48.266	0.231	0.111
-371.800	-2.724	-0.125	-0.087
-370.785	122.289	-0.131	0.163
-369.771	-109.138	-0.072	-0.015
-368.756	-49.252	-0.086	0.041
-367.742	-60.917	-0.164	0.069
-366.727	-87.542	0.112	-0.034
-365.712	102.710	0.165	-0.192
-364.698	800.000	-0.050	-0.189
-363.683	-200.000	-0.011	0.113
-362.669	-182.146	-0.275	0.005
-361.654	46.221	0.130	0.120
-360.639	-121.026	-0.235	0.039
-359.625	45.520	0.176	0.162
-358.610	324.102	-0.229	-0.434
-357.596	-54.972	-0.139	-0.062
-356.581	800.000	-0.062	-0.199
-355.566	-200.000	0.002	0.344
-354.552	84.436	-0.174	-0.190
-353.537	230.890	-0.172	-0.280
-352.523	143.484	-0.127	-0.168
-351.508	80.016	0.216	0.231
-350.493	4.307	-0.086	0.063
-349.479	49.201	-0.193	-0.180
-348.464	-73.875	0.103	-0.037
-347.450	-155.223	-0.255	0.017
-346.435	-200.000	0.044	0.192
-345.420	-200.000	-0.063	0.294
-344.406	94.360	0.139	0.157
-343.391	-36.111	-0.326	-0.175
-342.377	-109.787	-0.144	-0.030
-341.362	-200.000	0.009	0.263
-340.348	-200.000	0.029	0.138
-339.333	25.211	0.217	0.179
-338.318	-200.000	-0.016	0.409
-337.304	-85.476	-0.378	0.117
-336.289	64.597	0.144	0.144
-335.275	56.361	-0.110	-0.107
-334.260	-200.000	0.035	-0.268
-333.245	119.822	-0.277	-0.340
-332.231	800.000	0.063	-0.252
-331.216	0.794	0.235	-0.167
-330.202	192.154	-0.190	0.284
-329.187	351.491	-0.075	-0.148
-328.172	38.808	-0.170	-0.150
-327.158	800.000	-0.094	-0.265
-326.143	-114.572	0.255	-0.048
-325.129	164.680	-0.115	-0.161
-324.114	488.519	-0.137	-0.310
-323.099	-200.000	-0.048	-0.246
-322.085	-200.000	-0.012	0.085
-321.070	7.679	0.135	-0.100
-320.056	-37.892	-0.123	-0.065
-319.041	-134.413	-0.209	0.025
-318.026	-83.455	-0.108	-0.034
-317.012	-36.612	-0.390	-0.208
-315.997	64.225	0.091	0.091
-314.983	278.940	0.086	0.152
-313.968	80.383	0.135	0.145
-312.953	-84.475	0.148	0.046
-311.939	237.728	-0.195	-0.321
-310.924	-127.851	-0.092	-0.013
-309.910	-88.072	0.196	-0.058
-308.895	-200.000	-0.020	-0.118
-307.880	800.000	-0.053	0.200
-306.866	800.000	0.071	-0.286
-305.851	-138.388	0.109	0.012
-304.837	-87.996	-0.410	-0.122
-303.822	-55.701	0.228	-0.101
-302.807	118.053	0.055	-0.068
-301.793	-200.000	0.020	-0.285
-300.778	568.114	-0.122	0.294
-299.764	-200.000	0.014	0.575
-298.749	-200.000	-0.017	0.100
-297.735	173.869	-0.209	-0.300
-296.720	-200.000	-0.009	-0.355
-295.705	-200.000	-0.009	0.207
-294.691	-75.566	0.153	0.054
-293.676	-116.420	-0.107	0.020
-292.662	-124.192	-0.108	-0.017
-291.647	-0.608	-0.213	-0.150
-290.632	222.696	0.067	0.108
-289.618	-200.000	0.014	0.064
-288.603	147.004	-0.092	-0.123
-287.589	10.761	-0.132	-0.100
-286.574	-138.771	0.212	0.023
-285.559	190.562	0.067	0.100
-284.545	407.911	0.104	-0.219
-283.530	800.000	0.079	0.269
-282.516	214.580	0.187	-0.294
-281.501	-200.000	0.009	-0.077
-280.486	128.230	0.284	-0.358
-279.472	790.524	0.132	0.360
-278.457	-136.831	0.078	-0.009
-277.443	-200.000	-0.019	-0.197
-276.428	-200.000	-0.055	0.250
-275.413	-58.234	0.069	0.030
-274.399	-200.000	0.027	-0.153
-273.384	-200.000	-0.024	-0.222
-272.370	-200.000	-0.020	0.235
-271.355	-200.000	-0.010	0.099
-270.340	-200.000	-0.006	0.071
-269.326	-200.000	0.044	-0.192
-268.311	54.467	0.052	-0.049
-267.297	-86.692	0.228	-0.069
-266.282	-70.110	-0.206	-0.077
-265.267	-200.000	0.087	0.000
-264.253	149.125	-0.097	-0.129
-263.238	-200.000	0.005	-0.200
-262.224	-50.666	0.190	0.089
-261.209	61.110	-0.048	-0.048
-260.195	99.715	-0.214	0.246
-259.180	-27.656	0.018	-0.010
-258.165	74.208	0.156	0.162
-257.151	-200.000	-0.008	-0.175
-256.136	-200.000	0.034	-0.206
-255.122	-200.000	-0.046	0.257
-254.107	800.000	0.089	0.330
-253.092	218.605	0.103	0.163
-252.078	131.549	-0.036	0.046
-251.063	-200.000	-0.009	-0.143
-250.049	591.647	-0.018	-0.045
-249.034	-91.955	-0.135	-0.038
-248.019	800.000	-0.102	0.376
-247.005	800.000	-0.100	-0.375
-245.990	-184.688	-0.339	0.005
-244.976	107.360	-0.093	0.109
-243.961	-115.073	0.257	-0.048
-242.946	187.381	0.067	0.098
-241.932	177.447	0.121	-0.175
-240.917	172.290	-0.184	0.262
-239.903	-90.407	0.177	0.051
-238.888	-200.000	-0.038	0.255
-237.873	488.732	-0.148	0.334
-236.859	-200.000	0.024	0.203
-235.844	27.274	-0.070	0.059
-234.830	-111.464	0.255	-0.051
-233.815	167.832	0.115	0.162
-232.800	-52.039	-0.240	0.110
-231.786	49.799	-0.272	-0.254
-230.771	43.784	-0.139	-0.126
-229.757	-162.597	0.178	0.009
-228.742	140.353	0.242	-0.316
-227.727	-200.000	0.018	-0.195
-226.713	-200.000	-0.012	-0.113
-225.698	-200.000	0.000	-0.140
-224.684	47.918	0.042	-0.039
-223.669	-200.000	-0.012	0.086
-222.655	187.265	-0.014	-0.021
-221.640	-43.984	0.147	0.073
-220.625	310.901	-0.091	0.168
-219.611	-57.508	0.205	-0.089
-218.596	-97.739	-0.150	-0.038
-217.582	-112.744	0.134	-0.026
-216.567	-31.358	0.443	-0.247
-215.552	-51.854	-0.101	-0.046
-214.538	288.843	0.066	0.118
-213.523	-91.712	0.077	0.022
-212.509	800.000	-0.046	0.185
-211.494	95.113	0.020	0.022
-210.479	-29.798	-0.289	-0.163
-209.465	-200.000	-0.021	-0.311
-208.450	800.000	-0.073	0.223
-207.436	136.819	0.041	-0.053
-206.421	324.478	-0.049	-0.093
-205.406	350.397	0.115	0.224
-204.392	443.627	-0.062	-0.134
-203.377	-200.000	0.017	-0.152
-202.363	3.076	0.090	-0.065
-201.348	-102.932	0.202	-0.047
-200.333	-200.000	0.001	-0.231
-199.319	-79.033	0.377	-0.127
-198.304	4.964	0.224	0.163
-197.290	146.902	-0.067	0.089
-196.275	-59.851	0.138	0.058
-195.260	-62.087	-0.155	-0.064
-194.246	-91.109	0.214	-0.061
-193.231	322.592	-0.095	0.178
-192.217	-52.755	0.272	0.124
-191.202	4.848	0.169	0.123
-190.187	800.000	-0.064	-0.209
-189.173	-200.000	-0.008	0.425
-188.158	-58.764	-0.060	0.026
-187.144	-79.082	0.306	-0.103
-186.129	-132.565	-0.105	0.013
-185.114	-200.000	-0.011	-0.158
-184.100	800.000	-0.010	0.040
-183.085	32.653	0.158	-0.135
-182.071	332.063	0.098	0.188
-181.056	-73.036	-0.238	0.086
-180.042	-157.004	0.397	-0.024
-179.027	-200.000	-0.026	-0.145
-178.012	-200.000	0.026	0.389
-176.998	76.567	0.122	-0.127
-175.983	-100.380	0.051	-0.012
-174.969	53.479	-0.308	-0.292
-173.954	-112.148	0.080	0.016
-172.939	178.084	0.146	-0.210
-171.925	-200.000	-0.013	0.081
-170.910	-200.000	-0.022	0.106
-169.896	12.505	0.215	-0.164
-168.881	800.000	0.015	-0.044
-167.866	-96.172	0.321	0.084
-166.852	232.043	0.277	0.448
-165.837	-200.000	-0.038	0.206
-164.823	-73.998	0.120	0.043
-163.808	-7.261	-0.299	-0.200
-162.793	-36.709	0.107	0.056
-161.779	-20.613	0.207	-0.126
-160.764	104.278	0.255	0.296
-159.750	-200.000	-0.011	0.306
-158.735	464.636	-0.102	-0.225
-157.720	-178.851	0.269	0.006
-156.706	-200.000	0.030	0.215
-155.691	184.976	0.033	-0.048
-154.677	-76.441	0.005	-0.002
-153.662	-156.824	0.089	0.005
-152.647	-75.736	-0.351	0.123
-151.633	-69.136	0.244	-0.092
-150.618	-200.000	0.029	-0.127
-149.604	11.354	-0.139	0.105
-148.589	-117.953	-0.181	-0.032
-147.574	-32.934	0.208	0.114
-146.560	-200.000	0.020	0.321
-145.545	-144.095	0.089	0.008
-144.531	-200.000	0.066	-0.358
-143.516	54.975	0.067	-0.064
-142.502	-200.000	-0.005	-0.054
-141.487	35.359	-0.298	-0.258
-140.472	-200.000	-0.013	-0.369
-139.458	453.332	-0.070	0.153
-138.443	144.242	-0.172	-0.227
-137.429	207.666	0.177	0.272
-136.414	-113.141	0.397	-0.077
-135.399	26.978	0.233	0.193
-134.385	-19.759	-0.579	0.353
-133.370	-190.994	-0.151	-0.002
-132.356	245.215	0.125	-0.207
-131.341	-71.906	0.189	0.069
-130.326	93.337	0.048	-0.054
-129.312	165.494	0.208	-0.290
-128.297	-200.000	0.035	0.152
-127.283	129.730	-0.118	0.149
-126.268	-130.559	-0.252	0.033
-125.253	123.152	0.253	-0.312
-124.239	142.233	-0.256	0.334
-123.224	-93.107	0.268	-0.073
-122.210	800.000	-0.061	-0.186
