DTS Sentinel unit serial number:	SN413079Multiplexer serial number:	ORYXHardware model number:	OX4-SRSoftware version number:	ORYX F/W v4.00 Oryx Data Collector v3.7.2.0data status	okinstallation	princeton_trtdifferential loss correction	single-endedforward channel	channel 1reverse channel	N/Adate	2019/09/17time	18:26:35forward acquisition time	60.00reverse acquisition time	0.00gamma	496.2192k internal	0.2290k external	0.2290temperature offset calibration	0.9956default loss term (dB/km)	0.3790temperature slope calibration	1.0000multiplexer offset coefficient	1.0000multiplexer slope coefficient	1.0000fibre end	0.00T internal ref (°C)	43.12T ext. ref 1 (°C)	0.31T ext. ref 2 (°C)	36.28length (m)	temperature (°C)	Stokes	anti-Stokes-747.200	135.835	-0.154	0.205
-746.185	106.515	0.086	-0.104
-745.171	272.215	0.102	0.183
-744.156	401.748	0.148	0.318
-743.142	-200.000	0.034	0.200
-742.127	317.711	-0.083	0.160
-741.112	-0.278	0.256	0.187
-740.098	244.332	0.186	0.321
-739.083	32.099	-0.206	-0.182
-738.069	86.534	0.164	0.185
-737.054	-127.842	0.119	0.018
-736.039	115.369	-0.298	-0.373
-735.025	-122.507	0.209	0.035
-734.010	800.000	0.031	-0.123
-732.996	-200.000	0.022	0.117
-731.981	-200.000	-0.031	0.218
-730.966	-200.000	0.025	0.274
-729.952	500.983	-0.089	-0.211
-728.937	-76.519	-0.306	0.110
-727.923	-200.000	-0.043	-0.252
-726.908	496.524	0.099	-0.232
-725.894	96.013	-0.195	0.228
-724.879	800.000	-0.086	0.284
-723.864	-200.000	0.021	-0.157
-722.850	-200.000	0.026	-0.215
-721.835	-200.000	-0.003	-0.222
-720.821	-192.219	0.089	0.001
-719.806	111.546	0.152	-0.187
-718.791	32.442	-0.091	0.080
-717.777	-200.000	0.044	-0.232
-716.762	-114.001	0.029	-0.006
-715.748	-200.000	0.018	-0.250
-714.733	-172.056	0.140	-0.005
-713.718	-200.000	0.013	0.211
-712.704	-120.940	0.035	-0.006
-711.689	-178.739	-0.260	-0.006
-710.675	58.020	-0.044	-0.044
-709.660	506.711	0.013	0.030
-708.645	94.775	-0.187	-0.218
-707.631	26.016	-0.182	-0.156
-706.616	278.541	-0.150	-0.274
-705.602	-200.000	0.024	-0.142
-704.587	-85.961	0.073	0.023
-703.572	800.000	-0.073	-0.235
-702.558	-200.000	-0.022	0.109
-701.543	-37.554	0.041	-0.022
-700.529	-5.056	0.160	-0.113
-699.514	-79.415	0.249	0.086
-698.499	-154.994	0.038	-0.003
-697.485	152.770	-0.090	0.126
-696.470	-124.854	0.090	-0.014
-695.456	64.650	-0.155	-0.160
-694.441	800.000	-0.113	0.428
-693.426	-70.037	-0.072	0.028
-692.412	20.516	-0.103	0.085
-691.397	162.777	-0.269	0.386
-690.383	-16.249	0.080	-0.052
-689.368	800.000	-0.058	-0.204
-688.354	2.479	-0.326	0.241
-687.339	318.186	-0.107	-0.206
-686.324	207.966	-0.069	0.110
-685.310	9.654	0.258	-0.200
-684.295	0.488	-0.217	0.158
-683.281	22.593	-0.115	-0.097
-682.266	209.508	0.067	0.108
-681.251	-129.422	-0.135	-0.019
-680.237	-178.518	0.269	0.006
-679.222	535.440	0.178	-0.432
-678.208	-200.000	0.015	0.150
-677.193	-83.174	0.130	0.043
-676.178	74.279	-0.092	0.098
-675.164	800.000	-0.072	0.314
-674.149	-83.679	0.209	0.068
-673.135	-125.202	-0.210	0.033
-672.120	800.000	-0.078	0.244
-671.105	106.389	-0.093	-0.113
-670.091	197.908	-0.061	-0.096
-669.076	-74.544	-0.195	-0.072
-668.062	-31.606	-0.185	0.106
-667.047	-108.121	0.193	0.043
-666.032	-179.216	-0.123	0.003
-665.018	317.177	-0.044	0.085
-664.003	407.657	-0.175	-0.377
-662.989	-21.011	-0.088	-0.055
-661.974	39.245	0.104	0.095
-660.959	-91.596	-0.525	-0.153
-659.945	149.768	-0.106	-0.147
-658.930	-200.000	0.035	-0.234
-657.916	-59.755	-0.120	-0.052
-656.901	-49.484	-0.050	0.024
-655.886	800.000	0.072	-0.268
-654.872	422.440	0.152	0.333
-653.857	10.303	-0.218	0.169
-652.843	182.679	0.082	-0.124
-651.828	438.518	-0.108	-0.241
-650.814	193.127	-0.078	-0.120
-649.799	800.000	-0.128	0.471
-648.784	-55.951	0.052	0.024
-647.770	238.715	-0.192	0.325
-646.755	122.690	-0.114	-0.145
-645.741	39.893	-0.056	-0.051
-644.726	-200.000	0.008	-0.044
-643.711	-33.137	0.280	-0.158
-642.697	490.585	0.088	-0.206
-641.682	-200.000	0.047	0.271
-640.668	24.623	-0.088	0.074
-639.653	9.570	0.209	0.162
-638.638	-63.829	0.348	-0.146
-637.624	2.226	0.127	0.094
-636.609	-167.569	0.215	0.009
-635.595	522.661	-0.105	0.252
-634.580	-58.752	0.122	0.054
-633.565	-150.140	-0.252	-0.020
-632.551	36.214	0.277	-0.249
-631.536	2.904	-0.264	-0.195
-630.522	93.962	0.083	-0.096
-629.507	44.935	0.100	-0.094
-628.492	65.899	0.097	-0.100
-627.478	-39.793	0.064	0.034
-626.463	137.000	-0.226	-0.302
-625.449	697.814	-0.079	-0.212
-624.434	205.489	0.141	-0.224
-623.419	233.141	0.022	-0.037
-622.405	-41.015	0.282	-0.148
-621.390	800.000	0.048	-0.207
-620.376	-112.040	-0.069	-0.014
-619.361	17.938	0.119	-0.097
-618.346	584.625	-0.181	-0.454
-617.332	-149.559	-0.368	0.030
-616.317	-108.711	-0.114	0.025
-615.303	412.710	-0.071	0.154
-614.288	150.502	-0.204	0.282
-613.273	800.000	-0.010	-0.035
-612.259	-92.415	-0.183	-0.052
-611.244	3.239	-0.353	-0.262
-610.230	-107.891	0.327	0.073
-609.215	-200.000	-0.022	0.187
-608.201	99.511	-0.039	-0.047
-607.186	-166.727	-0.145	-0.006
-606.171	8.823	-0.077	-0.059
-605.157	800.000	-0.024	-0.070
-604.142	-200.000	-0.056	0.378
-603.128	104.350	0.123	-0.147
-602.113	-95.309	-0.194	0.053
-601.098	-200.000	0.002	-0.282
-600.084	18.463	-0.119	-0.097
-599.069	72.916	0.193	0.206
-598.055	-126.015	-0.377	0.058
-597.040	104.917	0.092	0.110
-596.025	173.370	-0.295	-0.434
-595.011	52.633	-0.119	0.116
-593.996	-200.000	-0.002	0.265
-592.982	-152.713	-0.361	-0.026
-591.967	-116.587	0.232	0.043
-590.952	-106.170	-0.349	-0.080
-589.938	120.486	0.040	-0.050
-588.923	-45.622	-0.204	-0.103
-587.909	-84.103	0.206	-0.066
-586.894	-170.281	-0.464	-0.017
-585.879	-6.565	-0.204	0.141
-584.865	2.343	-0.155	0.114
-583.850	286.974	-0.126	-0.232
-582.836	800.000	0.154	-0.446
-581.821	-200.000	0.009	0.093
-580.806	-81.342	-0.217	0.073
-579.792	196.971	-0.175	0.272
-578.777	-30.877	0.136	0.078
-577.763	90.099	0.250	-0.284
-576.748	-17.982	0.227	0.145
-575.733	-103.167	-0.449	-0.108
-574.719	-10.328	0.052	-0.035
-573.704	-64.692	0.163	0.067
-572.690	-16.526	0.180	-0.116
-571.675	-124.058	-0.232	0.037
-570.661	-12.372	0.154	-0.103
-569.646	-200.000	-0.048	-0.308
-568.631	-178.563	-0.235	-0.006
-567.617	32.839	0.343	-0.302
-566.602	-96.521	-0.079	0.021
-565.588	-89.560	0.336	-0.100
-564.573	272.398	-0.116	-0.208
-563.558	-29.263	0.274	-0.159
-562.544	751.004	-0.069	0.189
-561.529	434.303	0.021	0.046
-560.515	-147.781	0.108	0.009
-559.500	-88.065	-0.266	0.081
-558.485	-106.598	-0.206	0.047
-557.471	73.145	-0.339	0.361
-556.456	-79.911	0.259	-0.088
-555.442	-87.125	0.289	-0.089
-554.427	-200.000	0.005	0.158
-553.412	-13.652	0.111	-0.073
-552.398	-200.000	-0.005	0.041
-551.383	-41.717	0.125	-0.065
-550.369	-200.000	0.020	0.274
-549.354	126.094	-0.130	0.167
-548.339	558.973	0.079	0.194
-547.325	134.743	0.165	0.218
-546.310	6.944	-0.123	-0.093
-545.296	87.644	-0.102	0.115
-544.281	800.000	-0.087	-0.313
-543.266	-149.679	0.300	0.024
-542.252	-7.695	0.104	0.072
-541.237	97.574	0.071	-0.083
-540.223	800.000	0.097	-0.367
-539.208	20.655	-0.201	-0.165
-538.193	-200.000	0.008	-0.428
-537.179	-72.483	-0.060	0.022
-536.164	-42.081	-0.227	0.118
-535.150	-134.327	-0.349	-0.044
-534.135	-109.786	-0.141	-0.030
-533.121	800.000	-0.080	-0.234
-532.106	-200.000	0.026	-0.280
-531.091	-48.076	-0.075	0.037
-530.077	67.733	0.015	-0.015
-529.062	-118.220	0.329	0.059
-528.048	-179.062	0.188	0.004
-527.033	548.719	-0.039	-0.096
-526.018	98.231	0.169	-0.198
-525.004	-109.449	-0.095	-0.020
-523.989	-200.000	-0.021	0.204
-522.975	212.855	0.090	0.144
-521.960	51.044	-0.187	0.180
-520.945	-28.125	0.094	-0.055
-519.931	-61.175	-0.225	-0.096
-518.916	129.152	0.077	-0.100
-517.902	84.726	0.099	0.110
-516.887	24.270	0.141	0.119
-515.872	164.698	0.034	-0.049
-514.858	-200.000	-0.023	0.248
-513.843	-132.437	0.289	-0.038
-512.829	-152.266	-0.229	0.017
-511.814	36.674	0.328	0.294
-510.799	-126.741	0.329	0.049
-509.785	-77.357	-0.180	-0.064
-508.770	-200.000	0.052	0.330
-507.756	-83.909	-0.295	0.095
-506.741	34.450	-0.357	-0.317
-505.726	39.699	-0.090	-0.082
-504.712	800.000	0.016	0.047
-503.697	452.197	0.208	-0.468
-502.683	419.196	-0.128	0.277
-501.668	60.517	-0.196	-0.197
-500.653	129.798	0.120	-0.155
-499.639	123.826	-0.347	0.442
-498.624	-70.403	0.182	0.070
-497.610	-87.779	0.289	0.088
-496.595	34.067	0.140	-0.124
-495.581	10.811	0.194	0.151
-494.566	398.953	-0.063	0.133
-493.551	-200.000	-0.014	-0.293
-492.537	232.957	0.193	-0.321
-491.522	-200.000	-0.011	-0.067
-490.508	22.627	0.059	0.049
-489.493	-124.640	0.146	0.023
-488.478	-193.108	-0.215	0.002
-487.464	-11.749	-0.214	-0.142
-486.449	-113.090	0.118	0.024
-485.435	87.348	0.126	-0.142
-484.420	-71.343	-0.241	0.092
-483.405	-23.186	-0.090	0.055
-482.391	-200.000	-0.015	0.134
-481.376	-200.000	-0.001	0.025
-480.362	-76.597	0.286	-0.102
-479.347	199.026	-0.104	0.162
-478.332	254.085	-0.199	0.345
-477.318	-80.191	0.187	-0.064
-476.303	-110.640	0.074	-0.015
-475.289	-200.000	-0.012	0.211
-474.274	-123.557	0.322	0.052
-473.259	-121.482	0.262	-0.044
-472.245	14.109	0.334	-0.264
-471.230	-22.997	0.176	0.108
-470.216	-22.716	-0.185	0.113
-469.201	43.902	0.043	0.040
-468.186	800.000	0.015	0.068
-467.172	-200.000	0.110	-0.000
-466.157	-200.000	-0.041	-0.215
-465.143	6.059	-0.081	-0.061
-464.128	-62.771	-0.167	-0.070
-463.113	664.250	0.069	-0.179
-462.099	-200.000	0.018	0.109
-461.084	-200.000	-0.018	-0.359
-460.070	-45.464	0.154	0.077
-459.055	149.754	0.169	-0.232
-458.040	43.547	0.013	0.012
-457.026	687.397	-0.096	0.253
-456.011	454.548	0.069	0.155
-454.997	-51.446	-0.029	-0.014
-453.982	287.615	-0.245	-0.449
-452.968	696.078	-0.152	-0.405
-451.953	-16.995	-0.093	0.060
-450.938	-200.000	-0.016	-0.253
-449.924	-200.000	0.032	-0.233
-448.909	800.000	-0.060	0.182
-447.895	99.798	-0.193	0.226
-446.880	583.111	-0.131	-0.325
-445.865	-48.195	-0.213	-0.104
-444.851	-200.000	-0.010	0.439
-443.836	-12.856	-0.079	-0.052
-442.822	243.153	0.101	-0.171
-441.807	-142.156	-0.385	-0.039
-440.792	-66.273	-0.239	0.096
-439.778	-94.895	-0.222	-0.061
-438.763	-200.000	0.023	-0.240
-437.749	-83.849	-0.210	0.068
-436.734	115.882	-0.143	0.177
-435.719	-170.804	0.251	-0.009
-434.705	-200.000	-0.003	0.235
-433.690	-151.726	0.265	-0.020
-432.676	-43.474	0.319	-0.163
-431.661	33.053	-0.133	0.117
-430.646	215.855	-0.073	-0.117
-429.632	-38.383	0.052	-0.028
-428.617	-10.639	0.394	0.264
-427.603	-168.182	-0.401	0.016
-426.588	-105.053	-0.159	-0.037
-425.573	-200.000	-0.018	0.098
-424.559	-125.998	0.077	-0.012
-423.544	63.015	0.095	0.096
-422.530	-200.000	0.044	0.215
-421.515	-70.660	-0.093	-0.036
-420.500	63.423	-0.224	0.227
-419.486	-29.699	-0.131	0.076
-418.471	-200.000	-0.010	0.077
-417.457	-18.095	-0.054	0.034
-416.442	191.171	-0.171	0.260
-415.428	113.501	0.119	0.146
-414.413	-57.982	0.261	-0.115
-413.398	-92.349	-0.166	-0.047
-412.384	-71.304	0.161	-0.061
-411.369	65.566	-0.216	-0.221
-410.355	62.531	-0.022	-0.023
-409.340	137.662	-0.101	-0.134
-408.325	-45.252	0.463	0.233
-407.311	-200.000	0.033	0.160
-406.296	-200.000	-0.048	-0.217
-405.282	800.000	-0.053	-0.170
-404.267	-200.000	-0.009	-0.085
-403.252	800.000	0.034	-0.108
-402.238	262.674	0.097	0.170
-401.223	-200.000	0.038	-0.315
-400.209	-110.120	-0.199	-0.042
-399.194	-92.782	0.210	-0.059
-398.179	474.376	0.112	-0.255
-397.165	-119.988	-0.092	0.016
-396.150	121.976	-0.130	-0.164
-395.136	-45.805	-0.131	-0.065
-394.121	-7.465	0.316	0.216
-393.106	-111.589	0.054	0.011
-392.092	-200.000	-0.037	0.187
-391.077	-78.374	0.218	-0.075
-390.063	-10.453	-0.109	-0.073
-389.048	263.799	0.094	-0.165
-388.033	-200.000	0.012	-0.111
-387.019	66.797	-0.370	-0.381
-386.004	246.056	-0.072	0.122
-384.990	-142.022	-0.261	0.026
-383.975	-18.984	0.116	-0.073
-382.960	-77.038	0.079	0.028
-381.946	-37.183	0.241	-0.130
-380.931	4.840	-0.195	-0.145
-379.917	58.941	0.070	-0.070
-378.902	800.000	-0.098	0.276
-377.888	286.108	-0.041	-0.074
-376.873	-200.000	0.025	-0.120
-375.858	201.413	0.121	-0.189
-374.844	768.388	0.115	-0.317
-373.829	349.228	0.037	-0.073
-372.815	513.648	-0.057	0.134
-371.800	-200.000	0.029	0.137
-370.785	-124.663	-0.215	-0.034
-369.771	-102.665	-0.457	-0.110
-368.756	-81.392	0.373	0.124
-367.742	309.317	0.104	0.195
-366.727	305.282	-0.077	0.144
-365.712	78.908	-0.058	0.062
-364.698	-121.517	-0.378	-0.063
-363.683	-168.857	-0.219	-0.008
-362.669	42.933	-0.121	0.111
-361.654	424.269	-0.095	-0.207
-360.639	-85.794	-0.016	-0.005
-359.625	-199.968	0.113	0.001
-358.610	-78.000	-0.163	-0.057
-357.596	32.999	0.241	-0.211
-356.581	-125.151	0.283	-0.044
-355.566	800.000	-0.098	0.334
-354.552	-200.000	0.012	0.078
-353.537	154.400	-0.089	0.123
-352.523	-81.819	0.241	-0.080
-351.508	186.445	0.112	0.168
-350.493	426.561	-0.042	0.091
-349.479	-70.965	-0.319	-0.121
-348.464	800.000	-0.024	0.096
-347.450	121.968	-0.011	-0.014
-346.435	58.720	-0.084	0.083
-345.420	-115.826	-0.041	-0.008
-344.406	-32.756	-0.192	-0.108
-343.391	-115.564	0.237	0.045
-342.377	-200.000	-0.008	0.101
-341.362	32.918	0.140	-0.122
-340.348	-200.000	-0.004	-0.099
-339.333	72.271	-0.245	0.257
-338.318	-7.134	0.075	-0.051
-337.304	-92.438	0.166	-0.047
-336.289	-200.000	-0.010	0.272
-335.275	-62.490	0.064	-0.027
-334.260	1.823	-0.039	0.028
-333.245	-200.000	-0.006	0.000
-332.231	30.332	0.049	0.042
-331.216	-9.722	-0.075	0.050
-330.202	-54.149	-0.259	0.119
-329.187	-69.260	0.199	0.077
-328.172	278.065	-0.034	-0.062
-327.158	187.144	-0.182	-0.274
-326.143	-192.291	-0.154	-0.001
-325.129	-200.000	0.043	-0.230
-324.114	400.415	-0.080	0.170
-323.099	58.802	0.096	-0.095
-322.085	-123.453	-0.127	0.020
-321.070	800.000	0.059	0.184
-320.056	-34.171	-0.607	-0.336
-319.041	56.474	0.165	0.162
-318.026	-200.000	-0.012	0.162
-317.012	-17.110	-0.114	-0.073
-315.997	166.334	-0.016	-0.023
-314.983	-7.830	-0.155	0.106
-313.968	-9.406	0.107	0.072
-312.953	103.923	-0.023	0.027
-311.939	778.974	0.097	-0.268
-310.924	102.674	-0.124	-0.146
-309.910	88.994	0.064	0.072
-308.895	77.382	0.184	-0.198
-307.880	56.872	0.116	-0.114
-306.866	780.757	0.157	0.432
-305.851	-200.000	-0.007	-0.173
-304.837	-67.317	-0.173	-0.068
-303.822	-200.000	-0.028	0.219
-302.807	-57.338	0.239	-0.106
-301.793	-120.000	-0.370	-0.064
-300.778	-200.000	0.010	-0.071
-299.764	-200.000	-0.039	-0.224
-298.749	-62.881	0.428	-0.178
-297.735	-86.947	0.071	0.022
-296.720	28.636	0.409	0.349
-295.705	-72.873	0.190	0.070
-294.691	5.162	-0.093	-0.069
-293.676	-200.000	0.010	0.147
-292.662	-62.749	0.341	-0.142
-291.647	283.564	-0.117	0.212
-290.632	-156.988	-0.159	0.010
-289.618	800.000	0.013	0.036
-288.603	-200.000	0.046	0.244
-287.589	17.842	0.061	-0.049
-286.574	425.289	-0.068	-0.148
-285.559	516.414	0.047	-0.110
-284.545	-110.247	0.135	0.028
-283.530	384.304	-0.015	-0.031
-282.516	-200.000	0.050	0.334
-281.501	215.885	-0.119	0.190
-280.486	357.885	-0.106	0.212
-279.472	290.654	-0.063	-0.115
-278.457	116.675	0.291	0.359
-277.443	800.000	-0.025	0.109
-276.428	660.543	0.067	-0.173
-275.413	169.454	-0.155	0.222
-274.399	284.223	-0.038	0.068
-273.384	-34.557	-0.158	0.087
-272.370	-66.810	0.164	-0.065
-271.355	469.011	-0.081	-0.182
-270.340	-200.000	-0.020	0.156
-269.326	-112.995	0.154	-0.031
-268.311	-110.643	0.201	0.042
-267.297	-99.652	0.096	-0.024
-266.282	-200.000	0.006	-0.410
-265.267	221.667	-0.244	-0.394
-264.253	280.453	-0.171	-0.307
-263.238	-200.000	-0.000	-0.170
-262.224	-134.868	0.098	-0.012
-261.209	-133.049	0.280	-0.036
-260.195	-200.000	0.012	0.164
-259.180	-42.266	-0.165	0.085
-258.165	49.698	0.258	-0.245
-257.151	-153.130	0.473	0.033
-256.136	161.894	0.090	-0.126
-255.122	301.210	-0.104	-0.193
-254.107	464.960	-0.036	-0.081
-253.092	170.494	-0.080	-0.115
-252.078	-137.329	-0.117	-0.013
-251.063	-200.000	-0.019	0.117
-250.049	-195.455	0.217	0.002
-249.034	-21.243	0.150	0.092
-248.019	83.738	-0.300	0.329
-247.005	54.600	-0.261	0.253
-245.990	74.147	0.222	-0.234
-244.976	83.084	0.169	0.185
-243.961	6.322	0.304	0.227
-242.946	800.000	-0.053	0.210
-241.932	-86.995	-0.189	0.058
-240.917	-97.324	0.129	-0.034
-239.903	800.000	-0.054	0.167
-238.888	18.982	0.277	-0.223
-237.873	-71.493	0.055	-0.021
-236.859	699.126	-0.045	0.119
-235.844	800.000	-0.122	0.492
-234.830	-18.849	0.065	0.041
-233.815	-83.293	0.094	-0.030
-232.800	-81.975	0.019	-0.006
-231.786	136.585	-0.252	-0.330
-230.771	725.693	0.123	-0.329
-229.757	-45.418	0.173	-0.086
-228.742	-14.801	-0.199	0.128
-227.727	-200.000	-0.003	0.149
-226.713	-143.083	-0.125	-0.012
-225.698	-36.114	-0.165	-0.089
-224.684	255.198	0.114	-0.196
-223.669	439.920	-0.055	-0.121
-222.655	108.027	-0.195	0.234
-221.640	-189.817	-0.236	-0.003
-220.625	-124.788	0.245	0.038
-219.611	43.108	-0.179	0.164
-218.596	-200.000	0.012	0.273
-217.582	-200.000	-0.025	-0.239
-216.567	-47.806	0.358	0.174
-215.552	-99.197	0.211	0.054
-214.538	-6.161	0.055	0.037
-213.523	-200.000	-0.076	-0.387
-212.509	-200.000	-0.000	-0.218
-211.494	-8.258	-0.144	-0.097
-210.479	61.921	-0.123	0.123
-209.465	-113.651	-0.105	-0.021
-208.450	38.558	-0.203	-0.182
-207.436	800.000	-0.061	-0.258
-206.421	-135.628	0.139	-0.017
-205.406	-84.791	-0.135	0.043
-204.392	800.000	0.111	0.485
-203.377	-200.000	0.007	0.284
-202.363	-200.000	0.027	0.271
-201.348	-169.054	-0.206	0.008
-200.333	141.389	-0.154	-0.204
-199.319	-200.000	-0.010	0.202
-198.304	-132.248	-0.219	-0.028
-197.290	-84.851	0.200	-0.063
-196.275	-56.017	0.254	0.114
-195.260	800.000	-0.022	-0.093
-194.246	84.703	0.143	-0.157
-193.231	19.699	-0.084	0.067
-192.217	360.250	0.052	-0.105
-191.202	800.000	-0.086	0.246
-190.187	-68.746	0.183	0.071
-189.173	-200.000	0.030	-0.161
-188.158	-200.000	0.076	0.634
-187.144	-200.000	-0.003	0.134
-186.129	-126.583	-0.262	-0.039
-185.114	17.263	-0.316	0.251
-184.100	60.072	0.231	0.229
-183.085	-59.431	0.093	0.040
-182.071	-200.000	0.065	0.329
-181.056	-83.528	-0.047	-0.015
-180.042	-78.705	0.305	0.104
-179.027	382.681	0.139	-0.286
-178.012	-139.152	0.308	-0.033
-176.998	-61.213	0.218	-0.092
-175.983	-83.938	0.221	-0.070
-174.969	343.110	-0.051	-0.101
-173.954	123.398	-0.077	-0.097
-172.939	-200.000	0.009	-0.159
-171.925	-14.991	-0.078	-0.050
-170.910	800.000	-0.098	0.310
-169.896	-200.000	-0.008	0.231
-168.881	-61.452	-0.201	0.085
-167.866	-200.000	-0.006	0.287
-166.852	-200.000	0.011	0.100
-165.837	-92.830	0.193	0.054
-164.823	557.756	0.044	0.106
-163.808	182.761	0.068	-0.100
-162.793	-200.000	0.018	0.114
-161.779	-12.838	0.308	0.201
-160.764	-34.486	0.089	0.049
-159.750	225.043	0.224	0.363
-158.735	285.540	0.046	0.082
-157.720	-159.338	0.180	-0.010
-156.706	151.565	-0.310	0.423
-155.691	168.491	0.035	0.050
-154.677	-200.000	-0.005	-0.053
-153.662	-65.521	0.185	-0.074
-152.647	-9.676	0.094	-0.062
-151.633	294.819	0.093	-0.171
-150.618	-200.000	-0.014	-0.352
-149.604	-46.613	0.384	0.188
-148.589	9.478	0.103	-0.078
-147.574	128.868	0.119	0.152
-146.560	-53.107	0.084	0.039
-145.545	-27.264	-0.316	-0.184
-144.531	111.732	0.197	-0.239
-143.516	-102.127	0.289	-0.070
-142.502	800.000	0.140	-0.413
-141.487	96.765	0.131	-0.150
-140.472	311.779	-0.093	0.175
-139.458	-108.967	-0.147	-0.031
-138.443	-5.916	0.101	0.069
-137.429	-75.326	0.154	-0.055
-136.414	80.375	-0.105	-0.113
-135.399	800.000	0.047	-0.187
-134.385	135.934	0.160	-0.209
-133.370	-56.774	-0.282	-0.125
-132.356	-79.851	-0.224	-0.075
-131.341	720.707	-0.118	0.313
-130.326	107.095	-0.149	0.177
-129.312	227.990	-0.106	0.173
-128.297	26.410	-0.036	-0.030
-127.283	800.000	0.065	0.189
-126.268	800.000	0.061	0.235
-125.253	-116.680	-0.190	-0.035
-124.239	155.499	0.067	0.092
-123.224	199.208	-0.195	-0.299
-122.210	-107.201	-0.124	0.027
-121.195	-58.625	-0.119	0.052
