DTS Sentinel unit serial number:	SN413079Multiplexer serial number:	ORYXHardware model number:	OX4-SRSoftware version number:	ORYX F/W v4.00 Oryx Data Collector v3.7.2.0data status	okinstallation	princeton_trtdifferential loss correction	single-endedforward channel	channel 1reverse channel	N/Adate	2019/09/12time	14:00:11forward acquisition time	60.00reverse acquisition time	0.00gamma	496.2192k internal	0.2293k external	0.2293temperature offset calibration	1.0054default loss term (dB/km)	0.3790temperature slope calibration	1.0000multiplexer offset coefficient	1.0000multiplexer slope coefficient	1.0000fibre end	0.00T internal ref (°C)	40.58T ext. ref 1 (°C)	2.20T ext. ref 2 (°C)	34.06length (m)	temperature (°C)	Stokes	anti-Stokes-747.200	-144.275	0.151	0.014
-746.185	213.540	-0.241	0.390
-745.171	-28.737	0.284	-0.167
-744.156	200.620	0.109	0.172
-743.142	-200.000	-0.003	-0.072
-742.127	-101.568	-0.229	-0.057
-741.112	-122.586	-0.183	-0.030
-740.098	800.000	-0.171	-0.512
-739.083	-79.065	-0.087	0.030
-738.069	612.719	-0.215	0.551
-737.054	-200.000	-0.020	0.248
-736.039	-12.691	-0.344	-0.229
-735.025	-100.566	-0.308	-0.078
-734.010	273.488	-0.049	0.089
-732.996	800.000	0.085	-0.281
-731.981	259.100	-0.063	0.112
-730.966	589.357	0.105	-0.264
-729.952	46.784	-0.250	0.238
-728.937	-118.134	-0.230	-0.042
-727.923	318.022	-0.080	0.155
-726.908	-172.369	0.083	-0.003
-725.894	-200.000	0.006	-0.165
-724.879	-129.734	0.130	0.018
-723.864	-42.384	-0.146	0.076
-722.850	229.268	-0.040	-0.066
-721.835	486.725	0.109	0.255
-720.821	-90.019	-0.055	-0.016
-719.806	-163.672	0.229	-0.011
-718.791	-200.000	0.053	-0.350
-717.777	250.944	-0.042	0.073
-716.762	800.000	0.133	-0.400
-715.748	-31.999	-0.082	-0.047
-714.733	-200.000	0.013	0.186
-713.718	800.000	-0.077	-0.326
-712.704	-23.883	-0.107	0.066
-711.689	800.000	0.058	0.192
-710.675	-52.473	-0.036	-0.017
-709.660	-120.987	-0.219	0.038
-708.645	-1.641	0.068	0.049
-707.631	-200.000	0.063	0.328
-706.616	192.560	-0.279	0.430
-705.602	271.946	-0.072	0.129
-704.587	800.000	0.099	-0.364
-703.572	90.176	0.046	-0.052
-702.558	800.000	0.027	-0.100
-701.543	800.000	-0.035	0.104
-700.529	-79.557	-0.167	-0.058
-699.514	30.973	0.208	0.182
-698.499	-124.542	-0.198	-0.031
-697.485	-65.795	0.061	-0.025
-696.470	-75.035	0.097	0.035
-695.456	-38.250	0.311	-0.168
-694.441	33.905	-0.196	0.174
-693.426	-125.995	-0.182	0.028
-692.412	-200.000	0.041	0.218
-691.397	-91.781	-0.192	0.056
-690.383	800.000	-0.097	-0.347
-689.368	485.457	0.135	-0.314
-688.354	4.872	0.078	0.058
-687.339	-174.521	-0.334	0.010
-686.324	-105.294	-0.096	0.022
-685.310	800.000	0.024	-0.078
-684.295	219.270	-0.075	0.123
-683.281	-200.000	0.024	0.378
-682.266	-180.268	0.334	-0.007
-681.251	-133.020	0.161	0.021
-680.237	-200.000	0.027	0.221
-679.222	-21.599	-0.141	-0.088
-678.208	-134.506	0.202	-0.025
-677.193	27.649	0.248	-0.213
-676.178	-17.127	-0.031	0.020
-675.164	800.000	0.046	-0.148
-674.149	62.241	0.335	0.341
-673.135	176.246	0.217	0.322
-672.120	36.245	0.247	0.222
-671.105	469.148	-0.069	-0.158
-670.091	-200.000	-0.006	-0.176
-669.076	-158.251	-0.123	-0.007
-668.062	-51.285	0.168	0.080
-667.047	-175.881	-0.275	-0.007
-666.032	-60.724	-0.306	-0.132
-665.018	323.261	0.082	-0.159
-664.003	-200.000	0.018	-0.288
-662.989	167.675	0.185	0.268
-661.974	-138.850	0.125	-0.014
-660.959	-200.000	0.009	-0.184
-659.945	505.966	0.046	-0.109
-658.930	-80.134	0.093	0.032
-657.916	-46.011	-0.239	-0.120
-656.901	236.449	0.070	-0.118
-655.886	-153.309	-0.104	0.007
-654.872	-26.587	0.373	-0.222
-653.857	-95.008	-0.136	0.038
-652.843	635.541	-0.152	0.393
-651.828	-43.051	-0.148	-0.077
-650.814	-81.617	0.217	-0.073
-649.799	-33.827	-0.113	-0.063
-648.784	800.000	0.116	-0.362
-647.770	-200.000	-0.036	-0.162
-646.755	211.752	-0.191	-0.307
-645.741	-200.000	0.022	-0.105
-644.726	295.517	0.257	-0.479
-643.711	-157.789	-0.235	0.014
-642.697	-54.671	-0.222	-0.102
-641.682	528.712	-0.219	0.527
-640.668	800.000	0.090	0.380
-639.653	53.666	-0.133	0.130
-638.638	-110.898	-0.392	-0.082
-637.624	-68.331	0.036	0.014
-636.609	-67.722	-0.476	-0.190
-635.595	-200.000	0.019	0.168
-634.580	56.928	0.075	0.074
-633.565	-80.999	-0.196	0.066
-632.551	-153.667	-0.202	0.014
-631.536	-64.734	0.108	-0.045
-630.522	800.000	0.064	-0.192
-629.507	109.594	-0.141	-0.172
-628.492	800.000	-0.043	-0.121
-627.478	365.137	0.093	-0.190
-626.463	-200.000	0.004	0.321
-625.449	0.773	-0.183	-0.134
-624.434	427.612	-0.120	-0.264
-623.419	-58.292	-0.106	-0.047
-622.405	-200.000	-0.037	0.176
-621.390	-90.680	-0.069	0.020
-620.376	130.819	0.134	0.175
-619.361	-133.827	-0.405	0.051
-618.346	152.754	-0.151	0.210
-617.332	91.875	0.196	-0.225
-616.317	800.000	-0.061	-0.233
-615.303	-147.714	-0.266	0.023
-614.288	-200.000	-0.046	-0.226
-613.273	800.000	-0.051	0.205
-612.259	-140.976	0.013	-0.001
-611.244	22.541	0.213	0.177
-610.230	-200.000	0.017	0.147
-609.215	70.529	0.283	0.298
-608.201	218.477	0.081	-0.132
-607.186	-200.000	0.165	0.000
-606.171	-138.852	0.074	-0.008
-605.157	-46.046	-0.016	0.008
-604.142	2.426	-0.214	0.157
-603.128	-200.000	0.027	0.332
-602.113	-200.000	-0.056	-0.514
-601.098	63.666	0.295	0.302
-600.084	-200.000	-0.054	0.299
-599.069	501.986	0.153	-0.359
-598.055	-142.254	0.046	-0.005
-597.040	800.000	-0.064	-0.268
-596.025	72.172	-0.342	-0.363
-595.011	800.000	-0.024	-0.108
-593.996	-133.985	-0.178	-0.022
-592.982	-120.717	0.318	-0.055
-591.967	-24.647	-0.162	-0.098
-590.952	-105.184	0.130	-0.030
-589.938	221.446	0.107	0.175
-588.923	-93.772	-0.353	-0.099
-587.909	-200.000	-0.027	-0.136
-586.894	800.000	0.085	-0.277
-585.879	-106.404	-0.163	0.037
-584.865	-53.740	-0.342	-0.159
-583.850	-200.000	0.009	0.415
-582.836	475.298	-0.062	-0.143
-581.821	-200.000	-0.029	0.143
-580.806	176.865	0.115	-0.169
-579.792	-68.593	0.326	-0.128
-578.777	800.000	0.053	0.203
-577.763	-200.000	0.018	-0.080
-576.748	304.903	0.176	-0.332
-575.733	112.147	0.218	-0.267
-574.719	-48.415	-0.111	0.054
-573.704	431.389	0.089	-0.195
-572.690	102.333	-0.165	-0.196
-571.675	195.823	0.257	-0.398
-570.661	-200.000	-0.034	0.337
-569.646	61.242	-0.231	0.233
-568.631	-106.176	0.270	-0.062
-567.617	-51.555	0.191	0.091
-566.602	-33.558	-0.213	0.119
-565.588	14.213	0.236	0.187
-564.573	374.044	0.093	0.192
-563.558	-200.000	0.073	0.386
-562.544	-200.000	-0.028	0.223
-561.529	-200.000	-0.034	0.380
-560.515	406.691	-0.216	-0.463
-559.500	-75.931	0.079	0.028
-558.485	142.611	0.155	-0.209
-557.471	166.488	0.066	-0.094
-556.456	-200.000	-0.061	0.426
-555.442	364.452	-0.027	-0.055
-554.427	-200.000	0.041	0.316
-553.412	-200.000	-0.060	0.279
-552.398	-200.000	-0.006	-0.344
-551.383	800.000	0.077	0.224
-550.369	-56.197	0.247	-0.112
-549.354	-88.789	0.223	-0.067
-548.339	-72.396	-0.109	-0.041
-547.325	-92.138	0.329	0.094
-546.310	-73.301	-0.095	-0.035
-545.296	85.784	-0.228	0.255
-544.281	-45.060	-0.165	0.083
-543.266	49.335	0.048	0.046
-542.252	56.119	0.179	-0.177
-541.237	-75.061	-0.310	0.113
-540.223	40.552	0.157	-0.144
-539.208	-58.062	0.101	0.045
-538.193	45.400	0.180	0.169
-537.179	113.284	0.089	-0.109
-536.164	-200.000	-0.026	-0.134
-535.150	-108.425	0.258	-0.056
-534.135	110.800	0.159	0.194
-533.121	317.739	-0.090	0.174
-532.106	18.356	-0.181	0.147
-531.091	800.000	-0.073	-0.236
-530.077	-200.000	0.102	-0.516
-529.062	-34.862	0.404	0.224
-528.048	-61.966	-0.224	0.095
-527.033	-60.057	-0.193	-0.084
-526.018	-180.565	0.122	-0.003
-525.004	-82.278	-0.091	-0.030
-523.989	169.053	-0.073	-0.106
-522.975	-200.000	0.036	0.167
-521.960	-124.952	0.538	-0.084
-520.945	138.292	0.076	-0.102
-519.931	347.479	0.159	0.318
-518.916	-14.958	0.062	-0.041
-517.902	40.770	0.113	0.103
-516.887	800.000	0.045	-0.129
-515.872	-200.000	-0.029	0.200
-514.858	-49.516	-0.239	0.115
-513.843	18.369	-0.144	-0.117
-512.829	180.456	0.156	-0.231
-511.814	-71.271	0.238	-0.090
-510.799	800.000	-0.026	-0.114
-509.785	199.560	0.094	-0.146
-508.770	-200.000	0.034	0.282
-507.756	-157.087	0.214	0.013
-506.741	16.364	0.198	-0.159
-505.726	-200.000	-0.014	-0.156
-504.712	-140.743	0.130	-0.014
-503.697	-200.000	0.022	0.301
-502.683	425.610	-0.140	0.305
-501.668	-61.196	0.214	-0.091
-500.653	-22.045	0.100	0.062
-499.639	-77.233	-0.120	0.042
-498.624	119.746	-0.136	0.171
-497.610	-77.359	-0.387	-0.136
-496.595	-158.570	-0.067	-0.004
-495.581	114.455	-0.177	-0.219
-494.566	186.291	-0.129	0.194
-493.551	-115.299	-0.146	0.028
-492.537	-200.000	-0.041	-0.281
-491.522	-84.758	-0.016	0.005
-490.508	-200.000	-0.019	0.259
-489.493	-11.199	0.057	-0.038
-488.478	-94.175	-0.389	-0.108
-487.464	-103.538	0.171	-0.041
-486.449	483.269	-0.121	-0.279
-485.435	-85.448	-0.370	-0.117
-484.420	-168.280	0.100	-0.004
-483.405	188.908	0.105	0.159
-482.391	-70.601	0.210	0.080
-481.376	800.000	0.010	-0.041
-480.362	-200.000	0.047	0.250
-479.347	-20.624	-0.202	-0.125
-478.332	-127.311	-0.057	0.008
-477.318	-73.010	0.258	-0.096
-476.303	714.845	0.129	0.346
-475.289	-61.821	0.281	0.119
-474.274	-177.041	-0.090	-0.002
-473.259	-183.494	-0.298	-0.005
-472.245	1.144	0.170	0.124
-471.230	-169.139	0.020	-0.001
-470.216	-60.873	0.173	0.074
-469.201	-200.000	-0.050	0.266
-468.186	800.000	0.039	-0.124
-467.172	-162.794	-0.081	0.004
-466.157	-142.110	-0.475	0.048
-465.143	311.961	0.193	0.367
-464.128	31.289	0.114	-0.099
-463.113	14.382	0.199	-0.157
-462.099	-63.532	-0.368	0.153
-461.084	151.036	0.057	0.078
-460.070	800.000	-0.074	-0.272
-459.055	-200.000	-0.257	0.001
-458.040	-200.000	0.025	0.378
-457.026	800.000	-0.063	0.230
-456.011	-8.302	-0.170	-0.116
-454.997	-99.271	0.054	-0.014
-453.982	-19.795	-0.224	-0.140
-452.968	-48.058	0.069	-0.034
-451.953	-121.668	0.381	0.064
-450.938	-200.000	0.004	0.232
-449.924	328.528	-0.055	-0.106
-448.909	93.261	0.039	-0.044
-447.895	-116.718	-0.063	-0.012
-446.880	-200.000	-0.020	-0.104
-445.865	-3.470	0.091	-0.064
-444.851	-192.649	0.464	-0.004
-443.836	118.800	-0.112	-0.140
-442.822	8.264	0.048	0.037
-441.807	241.053	0.145	0.245
-440.792	-200.000	-0.139	-0.001
-439.778	-90.311	-0.017	0.005
-438.763	-200.000	-0.030	-0.198
-437.749	-200.000	0.025	-0.251
-436.734	526.015	0.047	-0.112
-435.719	-80.643	-0.197	0.066
-434.705	145.059	0.194	-0.263
-433.690	455.250	0.131	0.293
-432.676	780.521	-0.134	0.370
-431.661	60.300	0.157	-0.157
-430.646	-152.571	-0.121	0.009
-429.632	126.520	-0.101	0.129
-428.617	204.094	0.107	0.168
-427.603	-25.127	0.147	0.088
-426.588	-200.000	0.009	-0.097
-425.573	800.000	0.104	0.356
-424.559	-200.000	-0.013	-0.090
-423.544	800.000	0.039	-0.150
-422.530	-200.000	-0.039	-0.219
-421.515	-99.433	-0.056	-0.014
-420.500	18.301	-0.179	-0.145
-419.486	-6.029	-0.273	0.188
-418.471	101.929	-0.084	-0.100
-417.457	373.887	0.153	-0.315
-416.442	-151.934	-0.286	-0.021
-415.428	-1.269	-0.028	-0.020
-414.413	-100.486	0.157	0.039
-413.398	-200.000	-0.033	0.196
-412.384	-46.445	-0.470	-0.233
-411.369	403.099	0.035	-0.075
-410.355	-113.348	-0.259	-0.051
-409.340	-27.690	-0.191	0.112
-408.325	-142.752	0.070	-0.007
-407.311	-58.065	0.368	-0.162
-406.296	-26.373	-0.116	0.069
-405.282	-68.257	-0.039	-0.015
-404.267	-80.571	-0.264	-0.089
-403.252	-16.206	-0.089	0.057
-402.238	115.912	0.045	-0.056
-401.223	354.167	0.081	0.162
-400.209	-200.000	0.006	-0.276
-399.194	319.404	0.042	-0.081
-398.179	224.322	-0.168	0.275
-397.165	-200.000	-0.035	0.228
-396.150	-200.000	-0.004	0.173
-395.136	-0.416	-0.129	0.092
-394.121	56.866	0.172	-0.169
-393.106	-1.147	-0.066	0.047
-392.092	-200.000	0.036	0.318
-391.077	-200.000	-0.001	-0.157
-390.063	-200.000	-0.004	-0.053
-389.048	-121.153	0.182	0.031
-388.033	-56.216	-0.108	0.049
-387.019	-200.000	0.038	-0.290
-386.004	179.473	-0.129	-0.191
-384.990	-122.618	-0.063	-0.010
-383.975	-105.336	-0.062	-0.014
-382.960	-172.292	-0.333	-0.011
-381.946	272.785	-0.072	-0.129
-380.931	-28.729	-0.101	-0.058
-379.917	-79.129	-0.206	0.071
-378.902	-200.000	-0.008	-0.200
-377.888	33.228	0.391	-0.342
-376.873	360.863	-0.111	0.224
-375.858	413.992	-0.125	0.268
-374.844	-57.646	0.157	0.069
-373.829	-34.932	-0.168	-0.092
-372.815	-200.000	0.048	-0.331
-371.800	-152.205	-0.278	0.020
-370.785	58.206	-0.093	-0.092
-369.771	195.239	0.209	0.320
-368.756	4.119	-0.066	-0.049
-367.742	-145.351	0.191	0.017
-366.727	27.729	0.093	-0.079
-365.712	434.607	0.050	-0.110
-364.698	-180.878	-0.274	0.006
-363.683	-200.000	0.001	0.257
-362.669	-197.389	-0.227	0.001
-361.654	-41.423	-0.215	-0.112
-360.639	-62.002	-0.095	0.040
-359.625	-200.000	-0.008	0.318
-358.610	28.232	-0.165	-0.140
-357.596	-200.000	0.010	0.109
-356.581	229.818	-0.153	0.251
-355.566	340.225	-0.110	0.216
-354.552	144.838	-0.087	0.118
-353.537	485.289	-0.178	0.409
-352.523	-33.480	0.412	-0.229
-351.508	215.143	-0.099	-0.157
-350.493	89.377	-0.018	0.020
-349.479	-114.119	0.205	0.040
-348.464	-129.613	0.223	-0.031
-347.450	-200.000	0.002	-0.157
-346.435	-200.000	0.001	0.034
-345.420	-110.792	0.245	0.051
-344.406	-61.842	0.292	0.123
-343.391	-200.000	0.075	0.000
-342.377	-173.647	0.338	0.010
-341.362	254.210	0.100	0.173
-340.348	399.750	0.107	0.226
-339.333	-200.000	-0.102	-0.456
-338.318	800.000	0.054	-0.195
-337.304	-82.929	0.141	0.046
-336.289	-68.657	-0.160	0.062
-335.275	221.650	0.074	-0.119
-334.260	-52.485	0.207	0.096
-333.245	-42.647	0.307	-0.157
-332.231	800.000	-0.056	-0.180
-331.216	800.000	0.054	-0.158
-330.202	-36.124	-0.183	0.099
-329.187	143.098	0.214	-0.286
-328.172	800.000	-0.087	0.286
-327.158	-200.000	-0.028	0.151
-326.143	-102.476	0.135	-0.032
-325.129	-13.880	-0.047	-0.031
-324.114	423.631	-0.055	-0.120
-323.099	-41.346	0.073	0.038
-322.085	-200.000	0.047	-0.422
-321.070	-62.622	-0.349	-0.146
-320.056	-200.000	-0.009	-0.126
-319.041	-200.000	0.019	-0.345
-318.026	-200.000	-0.013	0.349
-317.012	-17.285	0.072	0.046
-315.997	25.134	0.320	0.267
-314.983	-200.000	-0.006	-0.154
-313.968	622.957	0.136	-0.344
-312.953	13.858	0.202	-0.158
-311.939	-64.732	0.198	0.081
-310.924	-25.556	0.111	-0.066
-309.910	-200.000	0.009	-0.085
-308.895	259.025	-0.091	-0.158
-307.880	-72.352	0.256	0.095
-306.866	96.274	-0.153	-0.176
-305.851	-9.293	0.040	0.027
-304.837	263.129	0.193	0.337
-303.822	287.578	0.090	-0.163
-302.807	-20.485	-0.157	-0.097
-301.793	800.000	0.095	-0.271
-300.778	-28.903	0.348	0.201
-299.764	456.032	-0.171	0.382
-298.749	800.000	0.073	0.226
-297.735	270.865	0.057	-0.101
-296.720	-100.335	-0.062	0.016
-295.705	-190.809	0.228	-0.002
-294.691	150.437	0.115	-0.157
-293.676	-15.521	0.057	-0.037
-292.662	800.000	0.054	-0.168
-291.647	800.000	-0.125	0.398
-290.632	363.519	0.080	-0.162
-289.618	-200.000	0.066	0.487
-288.603	-93.153	0.074	0.021
-287.589	-200.000	-0.027	0.331
-286.574	-95.125	-0.422	0.114
-285.559	274.514	-0.151	0.268
-284.545	60.157	0.110	0.110
-283.530	-146.899	-0.116	0.010
-282.516	-5.256	-0.199	0.137
-281.501	-3.316	-0.280	-0.196
-280.486	757.614	0.091	0.247
-279.472	4.793	0.224	0.165
-278.457	24.152	-0.214	-0.178
-277.443	259.704	0.173	-0.299
-276.428	-25.862	0.174	-0.103
-275.413	606.845	-0.052	-0.131
-274.399	-200.000	0.021	0.193
-273.384	-200.000	-0.019	0.219
-272.370	-60.713	-0.264	-0.112
-271.355	-20.847	0.261	-0.161
-270.340	255.317	-0.193	0.332
-269.326	-2.312	0.097	-0.069
-268.311	-87.010	-0.170	-0.052
-267.297	13.418	0.383	0.298
-266.282	337.578	-0.046	-0.090
-265.267	-200.000	-0.046	-0.367
-264.253	-118.986	-0.124	0.022
-263.238	-48.139	-0.236	-0.115
-262.224	78.986	0.266	0.286
-261.209	556.708	0.017	-0.040
-260.195	-158.998	-0.386	0.022
-259.180	-57.931	0.307	-0.134
-258.165	800.000	0.080	-0.249
-257.151	-55.652	-0.145	0.065
-256.136	-200.000	0.053	0.233
-255.122	-151.099	-0.188	-0.014
-254.107	-106.678	0.423	0.094
-253.092	97.508	-0.134	0.154
-252.078	-200.000	0.057	0.269
-251.063	1.804	0.161	-0.116
-250.049	-200.000	0.001	0.043
-249.034	800.000	0.018	-0.059
-248.019	304.175	-0.161	0.299
-247.005	377.086	-0.015	-0.030
-245.990	-115.553	-0.197	0.037
-244.976	42.599	-0.293	-0.268
-243.961	800.000	-0.010	-0.033
-242.946	-74.615	0.205	-0.074
-241.932	800.000	-0.054	0.180
-240.917	-11.719	-0.171	0.113
-239.903	-136.486	0.218	-0.025
-238.888	144.632	0.048	-0.064
-237.873	486.818	0.124	0.283
-236.859	35.062	-0.172	-0.151
-235.844	-76.697	-0.302	-0.106
-234.830	72.170	0.254	-0.265
-233.815	-31.755	-0.032	0.018
-232.800	-200.000	0.004	0.233
-231.786	-200.000	-0.059	0.306
-230.771	-200.000	0.008	-0.109
-229.757	186.124	0.171	-0.255
-228.742	566.355	-0.037	-0.091
-227.727	240.997	0.235	-0.394
-226.713	52.650	-0.174	-0.167
-225.698	403.784	0.102	-0.215
-224.684	138.410	-0.318	0.419
-223.669	-117.376	-0.228	-0.041
-222.655	-85.922	-0.351	-0.109
-221.640	8.791	-0.190	0.144
-220.625	-200.000	-0.021	-0.132
-219.611	-200.000	-0.018	-0.311
-218.596	231.387	-0.098	0.160
-217.582	-200.000	-0.008	0.131
-216.567	-117.624	-0.131	-0.024
-215.552	233.584	0.174	-0.287
-214.538	-107.964	0.191	-0.042
-213.523	-200.000	-0.073	-0.326
-212.509	778.660	0.100	-0.274
-211.494	800.000	0.075	0.237
-210.479	231.538	0.151	0.248
-209.465	-16.043	-0.369	0.235
-208.450	-101.062	-0.440	-0.108
-207.436	-200.000	-0.046	0.308
-206.421	800.000	0.115	0.425
-205.406	800.000	-0.035	-0.129
-204.392	-200.000	0.060	-0.328
-203.377	-93.330	0.369	0.103
-202.363	382.280	0.142	0.292
-201.348	126.907	0.216	0.274
-200.333	43.964	-0.057	-0.052
-199.319	-23.481	-0.177	-0.106
-198.304	27.856	0.026	0.022
-197.290	-150.902	-0.080	0.006
-196.275	117.880	0.118	-0.146
-195.260	-200.000	-0.018	-0.174
-194.246	-189.273	0.372	0.004
-193.231	-47.522	-0.202	0.098
-192.217	-200.000	-0.034	-0.293
-191.202	29.672	0.149	-0.127
-190.187	-113.226	0.200	-0.039
-189.173	-84.024	-0.153	0.049
-188.158	789.599	0.022	0.061
-187.144	800.000	0.030	0.106
-186.129	159.868	-0.144	0.201
-185.114	-200.000	-0.082	0.361
-184.100	-200.000	0.055	-0.259
-183.085	-143.320	0.418	-0.040
-182.071	18.993	0.051	0.041
-181.056	67.297	0.207	0.211
-180.042	-8.411	-0.115	0.078
-179.027	-53.264	0.049	0.022
-178.012	788.904	0.041	0.112
-176.998	122.826	-0.118	0.148
-175.983	-200.000	0.007	-0.229
-174.969	-178.091	0.514	-0.012
-173.954	-200.000	-0.027	-0.159
-172.939	800.000	0.045	-0.157
-171.925	800.000	-0.044	0.143
-170.910	-4.666	0.175	0.121
-169.896	193.283	-0.073	-0.110
-168.881	121.759	0.171	-0.213
-167.866	-110.740	-0.380	-0.078
-166.852	-93.095	-0.017	0.005
-165.837	-106.460	0.217	0.048
-164.823	-11.649	0.274	-0.180
-163.808	-18.841	0.310	0.193
-162.793	-178.308	0.178	-0.004
-161.779	27.895	0.060	-0.050
-160.764	40.882	-0.168	0.152
-159.750	800.000	-0.036	-0.135
-158.735	-200.000	0.013	-0.125
-157.720	19.112	-0.187	0.150
-156.706	47.592	-0.156	0.145
-155.691	-200.000	0.013	-0.107
-154.677	-11.763	-0.265	-0.174
-153.662	800.000	0.083	-0.304
-152.647	-52.564	-0.125	-0.058
-151.633	-155.100	-0.169	0.011
-150.618	116.933	-0.152	0.186
-149.604	-200.000	-0.009	0.298
-148.589	41.107	-0.207	-0.187
-147.574	-200.000	-0.006	0.097
-146.560	-146.796	0.143	-0.012
-145.545	-200.000	0.051	-0.387
-144.531	-85.145	0.576	0.180
-143.516	100.553	0.233	0.271
-142.502	-84.158	-0.336	0.107
-141.487	-200.000	-0.018	0.231
-140.472	-200.000	-0.004	0.380
-139.458	-64.114	0.561	-0.229
-138.443	-49.685	-0.069	-0.033
-137.429	-75.157	-0.055	0.020
-136.414	-91.864	-0.074	-0.021
-135.399	-166.139	-0.271	-0.011
-134.385	10.842	-0.161	0.122
-133.370	-187.135	-0.047	-0.001
-132.356	-7.042	-0.114	-0.077
-131.341	-29.974	-0.245	0.139
-130.326	443.778	0.096	0.211
-129.312	-126.746	0.120	-0.018
-128.297	43.914	0.117	0.107
-127.283	-90.768	-0.318	0.092
-126.268	459.423	0.088	0.195
-125.253	800.000	0.109	-0.307
-124.239	234.733	0.027	-0.044
-123.224	-100.660	-0.249	0.061
