DTS Sentinel unit serial number:	SN413079Multiplexer serial number:	ORYXHardware model number:	OX4-SRSoftware version number:	ORYX F/W v4.00 Oryx Data Collector v3.7.2.0data status	okinstallation	princeton_trtdifferential loss correction	single-endedforward channel	channel 1reverse channel	N/Adate	2019/09/12time	17:12:11forward acquisition time	60.00reverse acquisition time	0.00gamma	496.2192k internal	0.2314k external	0.2314temperature offset calibration	1.0098default loss term (dB/km)	0.3790temperature slope calibration	1.0000multiplexer offset coefficient	1.0000multiplexer slope coefficient	1.0000fibre end	0.00T internal ref (°C)	35.25T ext. ref 1 (°C)	2.82T ext. ref 2 (°C)	28.81length (m)	temperature (°C)	Stokes	anti-Stokes-747.200	-142.196	0.289	-0.029
-746.185	-8.967	-0.259	0.176
-745.171	53.414	0.322	0.313
-744.156	84.471	-0.187	0.207
-743.142	40.320	0.338	0.308
-742.127	88.282	-0.255	0.287
-741.112	590.492	0.075	0.188
-740.098	-200.000	-0.008	0.230
-739.083	-5.955	0.167	-0.116
-738.069	-182.075	-0.225	-0.004
-737.054	77.074	0.239	0.257
-736.039	36.800	-0.210	0.188
-735.025	-200.000	-0.014	0.404
-734.010	-144.417	-0.131	0.012
-732.996	58.149	-0.278	-0.276
-731.981	1.344	-0.143	-0.104
-730.966	-172.221	0.121	-0.004
-729.952	-148.349	-0.301	-0.025
-728.937	-62.185	-0.310	0.131
-727.923	22.544	-0.163	-0.135
-726.908	-200.000	0.004	-0.309
-725.894	188.912	-0.107	-0.162
-724.879	6.678	-0.033	0.025
-723.864	800.000	0.016	0.061
-722.850	49.815	-0.049	-0.047
-721.835	582.375	0.071	-0.176
-720.821	63.981	0.046	0.047
-719.806	186.094	-0.143	0.216
-718.791	-200.000	-0.039	-0.308
-717.777	-106.273	-0.360	0.082
-716.762	-22.342	-0.125	0.077
-715.748	-127.347	-0.373	-0.055
-714.733	-110.838	-0.232	0.048
-713.718	-105.287	0.351	0.081
-712.704	-200.000	-0.007	0.428
-711.689	-132.698	0.198	-0.026
-710.675	-71.216	-0.260	-0.099
-709.660	352.348	-0.088	0.176
-708.645	-200.000	-0.001	-0.162
-707.631	-38.374	0.162	0.087
-706.616	-200.000	0.008	-0.073
-705.602	-42.547	0.109	-0.056
-704.587	50.343	-0.151	0.145
-703.572	-128.385	0.172	0.025
-702.558	-13.511	-0.251	0.165
-701.543	-98.693	-0.162	-0.042
-700.529	35.807	-0.084	-0.074
-699.514	-101.938	-0.134	-0.033
-698.499	46.479	-0.270	-0.254
-697.485	68.641	-0.067	-0.070
-696.470	428.879	-0.055	-0.121
-695.456	-121.676	-0.202	0.034
-694.441	174.782	0.247	-0.362
-693.426	-53.995	-0.108	0.050
-692.412	-98.873	-0.270	0.069
-691.397	-22.386	0.304	0.186
-690.383	-200.000	-0.040	-0.240
-689.368	-200.000	-0.024	0.255
-688.354	-143.593	-0.175	0.017
-687.339	477.645	0.205	-0.470
-686.324	800.000	0.050	-0.206
-685.310	-2.030	-0.066	0.047
-684.295	140.796	0.086	0.114
-683.281	-200.000	-0.006	-0.147
-682.266	-70.850	-0.316	-0.120
-681.251	800.000	-0.079	-0.261
-680.237	800.000	0.039	-0.120
-679.222	49.075	0.257	0.245
-678.208	-39.005	-0.220	-0.117
-677.193	-5.439	-0.304	-0.211
-676.178	-60.448	-0.225	-0.097
-675.164	-200.000	-0.006	-0.351
-674.149	-40.985	0.126	-0.066
-673.135	800.000	-0.020	-0.060
-672.120	31.397	0.199	-0.173
-671.105	-200.000	0.022	0.127
-670.091	125.144	0.122	0.156
-669.076	-142.693	-0.193	0.019
-668.062	-200.000	0.059	-0.281
-667.047	14.956	0.171	-0.135
-666.032	-200.000	-0.016	0.210
-665.018	-200.000	-0.023	-0.191
-664.003	-88.096	0.019	-0.006
-662.989	-200.000	-0.069	0.330
-661.974	668.879	-0.030	0.079
-660.959	74.608	-0.114	-0.121
-659.945	-4.324	0.184	0.129
-658.930	-61.010	-0.270	0.115
-657.916	-200.000	-0.010	-0.222
-656.901	-81.774	0.231	-0.077
-655.886	800.000	-0.031	0.127
-654.872	61.692	-0.167	0.168
-653.857	91.433	-0.125	0.142
-652.843	800.000	0.087	0.274
-651.828	-200.000	0.013	-0.243
-650.814	-200.000	-0.005	-0.247
-649.799	-41.410	0.321	0.167
-648.784	-200.000	0.065	-0.454
-647.770	-69.551	0.154	0.060
-646.755	12.728	-0.087	0.068
-645.741	-10.056	-0.252	0.169
-644.726	-159.550	0.098	0.006
-643.711	-99.758	-0.152	0.038
-642.697	-125.698	0.116	-0.018
-641.682	8.629	0.221	0.168
-640.668	622.423	0.086	0.219
-639.653	206.800	-0.197	0.311
-638.638	-141.045	0.198	0.021
-637.624	-26.074	-0.136	0.081
-636.609	-200.000	-0.027	-0.126
-635.595	-172.490	0.034	0.001
-634.580	-140.915	0.211	0.022
-633.565	115.574	0.155	-0.191
-632.551	800.000	-0.088	-0.335
-631.536	40.051	0.229	0.208
-630.522	545.986	0.134	0.323
-629.507	92.289	-0.252	0.287
-628.492	-70.861	-0.315	-0.120
-627.478	709.066	0.054	-0.145
-626.463	452.805	-0.179	-0.401
-625.449	60.202	0.158	-0.157
-624.434	8.340	0.085	-0.065
-623.419	185.827	0.255	0.383
-622.405	-146.356	0.434	-0.038
-621.390	-109.612	-0.099	0.021
-620.376	61.396	-0.121	0.121
-619.361	363.968	-0.110	0.223
-618.346	-55.437	0.300	-0.136
-617.332	120.364	0.271	-0.339
-616.317	46.653	0.088	-0.083
-615.303	-200.000	0.030	-0.261
-614.288	136.483	-0.237	-0.312
-613.273	-81.460	-0.299	-0.099
-612.259	-95.382	-0.290	-0.079
-611.244	25.618	-0.259	-0.218
-610.230	389.835	0.132	0.277
-609.215	-200.000	-0.046	0.211
-608.201	16.658	0.191	-0.152
-607.186	800.000	-0.103	0.404
-606.171	800.000	0.035	0.108
-605.157	-200.000	-0.051	-0.378
-604.142	281.295	-0.086	-0.156
-603.128	-99.637	0.142	-0.036
-602.113	800.000	0.062	-0.183
-601.098	107.352	-0.163	0.196
-600.084	-159.240	-0.189	0.011
-599.069	-200.000	-0.004	0.069
-598.055	442.589	-0.054	0.118
-597.040	13.543	-0.068	-0.053
-596.025	101.544	-0.106	0.124
-595.011	-69.164	0.199	0.077
-593.996	-2.931	-0.336	0.236
-592.982	800.000	0.063	0.245
-591.967	-94.862	0.159	0.043
-590.952	492.017	-0.058	-0.133
-589.938	309.578	-0.130	0.245
-588.923	-44.046	-0.111	0.056
-587.909	163.301	0.219	-0.310
-586.894	162.681	-0.175	0.247
-585.879	-34.287	-0.328	-0.181
-584.865	-132.285	-0.123	-0.016
-583.850	50.549	-0.192	-0.183
-582.836	-101.613	-0.266	-0.065
-581.821	800.000	-0.058	-0.233
-580.806	-25.716	0.050	-0.030
-579.792	231.846	0.120	0.199
-578.777	6.076	-0.083	0.062
-577.763	-200.000	-0.076	-0.371
-576.748	402.996	0.105	0.223
-575.733	-128.335	-0.389	-0.056
-574.719	-112.152	-0.254	0.051
-573.704	-200.000	-0.001	0.254
-572.690	-35.323	-0.098	-0.053
-571.675	-159.621	0.090	-0.005
-570.661	800.000	-0.044	0.179
-569.646	21.241	-0.169	0.138
-568.631	78.733	0.094	-0.102
-567.617	110.232	-0.075	-0.090
-566.602	-119.043	-0.326	0.058
-565.588	0.122	0.051	-0.037
-564.573	-60.796	-0.197	0.084
-563.558	136.205	-0.044	0.058
-562.544	26.659	0.268	-0.226
-561.529	8.961	-0.141	-0.107
-560.515	-168.189	0.253	0.010
-559.500	-60.738	0.099	-0.042
-558.485	-153.723	0.276	-0.019
-557.471	800.000	-0.063	-0.196
-556.456	-43.907	0.160	-0.081
-555.442	-29.865	0.228	-0.131
-554.427	62.782	0.110	-0.110
-553.412	-200.000	0.004	-0.040
-552.398	-110.824	0.074	0.015
-551.383	18.409	-0.116	0.093
-550.369	-67.887	0.052	-0.021
-549.354	-15.614	-0.223	0.143
-548.339	-83.719	-0.086	0.028
-547.325	-32.520	0.215	0.121
-546.310	535.674	-0.095	0.227
-545.296	-200.000	0.006	-0.117
-544.281	182.792	0.036	-0.054
-543.266	-94.429	-0.310	-0.085
-542.252	-3.361	-0.180	0.126
-541.237	131.852	0.085	-0.110
-540.223	34.069	-0.321	-0.281
-539.208	-117.683	0.306	-0.055
-538.193	79.931	-0.158	0.170
-537.179	641.099	0.037	0.095
-536.164	406.261	0.113	-0.240
-535.150	-200.000	-0.079	-0.365
-534.135	401.050	-0.143	-0.302
-533.121	-140.140	0.237	-0.025
-532.106	-200.000	-0.017	-0.124
-531.091	-18.678	0.257	0.161
-530.077	-200.000	0.003	0.148
-529.062	-200.000	-0.062	0.282
-528.048	-121.009	0.147	-0.025
-527.033	-136.656	-0.178	-0.021
-526.018	250.056	-0.109	0.185
-525.004	60.250	-0.175	-0.174
-523.989	-200.000	-0.021	-0.225
-522.975	-200.000	0.032	-0.235
-521.960	1.840	0.307	-0.223
-520.945	-165.451	0.264	0.012
-519.931	-200.000	-0.005	-0.303
-518.916	-200.000	-0.025	-0.163
-517.902	-200.000	-0.061	-0.272
-516.887	177.209	-0.093	0.136
-515.872	253.901	0.077	0.133
-514.858	2.409	-0.152	0.111
-513.843	20.459	-0.132	-0.107
-512.829	55.199	0.127	0.123
-511.814	482.623	-0.072	-0.164
-510.799	-200.000	0.024	-0.324
-509.785	35.393	-0.110	-0.097
-508.770	-78.913	-0.125	-0.043
-507.756	-74.256	-0.069	0.025
-506.741	-67.617	-0.195	-0.077
-505.726	-200.000	0.014	-0.171
-504.712	-200.000	0.016	-0.229
-503.697	-159.156	0.146	-0.008
-502.683	-200.000	-0.029	-0.181
-501.668	7.959	0.136	0.103
-500.653	172.568	-0.028	0.040
-499.639	110.485	0.093	0.112
-498.624	-29.553	0.100	0.058
-497.610	-130.260	-0.099	-0.013
-496.595	-16.808	0.099	-0.063
-495.581	126.163	0.021	-0.027
-494.566	-174.235	-0.184	0.005
-493.551	26.375	0.044	0.037
-492.537	23.140	0.105	-0.086
-491.522	12.556	0.181	0.140
-490.508	506.386	-0.084	-0.195
-489.493	568.346	-0.163	-0.397
-488.478	-200.000	-0.008	-0.296
-487.464	-130.438	-0.242	-0.033
-486.449	215.365	-0.104	0.166
-485.435	-200.000	-0.017	-0.167
-484.420	-53.798	0.253	0.116
-483.405	293.245	0.046	-0.085
-482.391	458.706	-0.098	-0.220
-481.376	-77.326	0.137	-0.048
-480.362	-190.843	0.125	-0.001
-479.347	800.000	0.028	-0.088
-478.332	28.557	-0.170	-0.144
-477.318	-127.731	0.342	-0.050
-476.303	800.000	-0.106	0.351
-475.289	-200.000	-0.047	0.310
-474.274	-110.775	0.200	-0.041
-473.259	110.369	0.041	0.050
-472.245	-200.000	0.016	-0.105
-471.230	-60.256	0.050	0.021
-470.216	800.000	0.083	0.237
-469.201	510.104	-0.066	0.155
-468.186	15.367	-0.144	0.113
-467.172	800.000	0.072	0.254
-466.157	143.153	0.190	0.253
-465.143	369.109	-0.139	0.281
-464.128	385.522	-0.026	-0.053
-463.113	800.000	-0.061	-0.190
-462.099	-200.000	0.018	-0.087
-461.084	-53.194	0.393	0.181
-460.070	76.031	0.011	-0.011
-459.055	-200.000	0.003	0.108
-458.040	69.091	-0.235	0.243
-457.026	46.402	-0.048	-0.045
-456.011	-30.430	0.168	0.096
-454.997	-4.506	-0.232	-0.160
-453.982	73.808	0.068	-0.071
-452.968	536.203	0.101	-0.240
-451.953	-200.000	-0.006	-0.361
-450.938	-78.159	-0.325	0.112
-449.924	138.439	-0.101	-0.132
-448.909	-40.793	0.075	0.039
-447.895	-61.959	-0.285	0.120
-446.880	-72.356	0.162	-0.060
-445.865	97.366	0.009	0.011
-444.851	66.998	-0.340	-0.348
-443.836	-129.352	0.222	-0.031
-442.822	-78.512	-0.228	0.078
-441.807	-119.942	0.447	0.077
-440.792	-29.237	0.091	0.053
-439.778	-54.923	-0.128	-0.058
-438.763	593.217	0.043	0.108
-437.749	-34.380	-0.181	0.100
-436.734	-141.733	-0.112	-0.011
-435.719	-87.514	-0.110	0.033
-434.705	55.060	-0.212	-0.205
-433.690	-200.000	-0.008	-0.096
-432.676	0.060	-0.379	-0.270
-431.661	15.709	-0.135	-0.107
-430.646	115.572	-0.050	0.062
-429.632	-37.558	0.206	0.110
-428.617	461.325	-0.029	0.065
-427.603	67.791	0.103	0.106
-426.588	-16.374	0.168	0.106
-425.573	800.000	-0.142	0.441
-424.559	-77.931	-0.096	-0.033
-423.544	800.000	0.086	0.367
-422.530	-15.710	0.173	0.111
-421.515	6.324	-0.108	-0.080
-420.500	-31.655	-0.347	-0.195
-419.486	-200.000	-0.053	0.270
-418.471	-182.698	-0.126	0.002
-417.457	-69.429	-0.086	0.033
-416.442	-200.000	0.010	0.260
-415.428	211.889	-0.169	-0.266
-414.413	-105.643	0.150	-0.034
-413.398	-56.713	0.024	0.011
-412.384	-130.316	0.342	0.046
-411.369	-59.078	-0.307	0.132
-410.355	484.899	0.121	-0.276
-409.340	307.702	-0.271	0.506
-408.325	-200.000	-0.001	0.130
-407.311	488.637	-0.166	-0.379
-406.296	59.137	0.307	0.302
-405.282	-72.978	0.069	0.025
-404.267	68.195	-0.042	0.043
-403.252	800.000	0.082	0.250
-402.238	-200.000	-0.020	0.184
-401.223	-200.000	-0.001	-0.283
-400.209	143.586	0.108	-0.143
-399.194	125.169	0.178	0.225
-398.179	800.000	-0.048	-0.199
-397.165	800.000	0.009	-0.034
-396.150	-29.944	-0.398	0.227
-395.136	-3.548	0.278	-0.193
-394.121	27.566	-0.253	0.213
-393.106	-99.264	-0.130	0.033
-392.092	-200.000	-0.007	0.156
-391.077	-200.000	0.001	0.067
-390.063	800.000	0.054	-0.156
-389.048	800.000	0.043	0.174
-388.033	-200.000	0.008	-0.078
-387.019	-77.362	0.281	-0.098
-386.004	-187.561	0.208	-0.003
-384.990	-15.428	0.167	0.107
-383.975	800.000	0.020	-0.085
-382.960	800.000	-0.032	0.089
-381.946	-200.000	0.049	0.449
-380.931	-71.606	0.030	-0.011
-379.917	-200.000	-0.025	-0.163
-378.902	75.755	-0.052	0.055
-377.888	759.874	-0.046	-0.124
-376.873	-200.000	-0.024	-0.212
-375.858	800.000	-0.044	-0.140
-374.844	60.682	0.101	0.100
-373.829	-161.468	-0.108	0.006
-372.815	77.858	0.293	0.312
-371.800	309.037	-0.115	0.214
-370.785	-200.000	-0.063	0.297
-369.771	800.000	-0.037	0.113
-368.756	-200.000	0.017	-0.197
-367.742	109.582	0.172	-0.206
-366.727	800.000	0.098	-0.364
-365.712	64.574	0.140	0.141
-364.698	-200.000	-0.009	0.218
-363.683	800.000	-0.044	-0.155
-362.669	-200.000	0.045	-0.339
-361.654	-200.000	-0.074	-0.369
-360.639	-73.173	0.094	-0.034
-359.625	800.000	-0.070	0.228
-358.610	-184.421	0.117	-0.002
-357.596	-11.279	-0.139	0.092
-356.581	438.243	0.061	-0.134
-355.566	-200.000	0.025	-0.266
-354.552	-91.970	0.269	-0.076
-353.537	-114.740	0.335	-0.064
-352.523	800.000	-0.035	0.111
-351.508	-35.403	-0.231	-0.125
-350.493	-26.749	0.217	-0.127
-349.479	379.062	-0.032	0.065
-348.464	218.740	-0.191	0.304
-347.450	0.820	0.035	-0.025
-346.435	800.000	0.044	0.149
-345.420	138.818	0.147	-0.193
-344.406	286.800	-0.079	-0.142
-343.391	-55.199	-0.319	0.143
-342.377	-139.623	0.068	-0.007
-341.362	800.000	0.016	-0.054
-340.348	-108.977	0.221	-0.047
-339.333	200.899	0.190	0.291
-338.318	-200.000	-0.027	0.140
-337.304	383.169	0.063	-0.129
-336.289	-51.142	0.228	-0.107
-335.275	800.000	0.094	-0.319
-334.260	-40.758	-0.266	-0.137
-333.245	-16.771	-0.141	-0.089
-332.231	-51.297	-0.268	0.125
-331.216	336.849	0.088	-0.170
-330.202	166.476	-0.026	0.037
-329.187	147.021	-0.075	-0.101
-328.172	-200.000	0.011	0.066
-327.158	108.325	0.251	-0.298
-326.143	-14.410	0.153	-0.098
-325.129	268.217	0.140	0.245
-324.114	-18.596	-0.062	-0.038
-323.099	36.101	-0.213	0.187
-322.085	-200.000	-0.040	-0.209
-321.070	7.869	0.061	0.046
-320.056	46.765	0.171	0.158
-319.041	-176.292	0.357	-0.009
-318.026	177.150	-0.096	-0.140
-317.012	-200.000	-0.048	0.424
-315.997	110.683	0.217	0.261
-314.983	66.896	0.116	-0.118
-313.968	5.708	0.162	-0.119
-312.953	-200.000	-0.001	-0.140
-311.939	-79.720	-0.255	-0.086
-310.924	-200.000	-0.014	0.179
-309.910	-200.000	0.002	0.223
-308.895	120.705	0.161	0.200
-307.880	-200.000	0.024	-0.179
-306.866	-200.000	-0.002	-0.034
-305.851	24.405	0.190	0.157
-304.837	58.256	-0.188	0.184
-303.822	-52.455	-0.140	0.064
-302.807	-200.000	0.028	0.233
-301.793	-200.000	0.004	-0.100
-300.778	614.442	-0.065	-0.161
-299.764	-5.952	0.376	0.257
-298.749	-200.000	-0.013	0.247
-297.735	241.367	0.136	0.226
-296.720	23.153	0.140	-0.114
-295.705	-169.852	-0.308	0.011
-294.691	-145.526	0.192	0.017
-293.676	-200.000	0.014	-0.066
-292.662	582.854	-0.160	-0.392
-291.647	-91.836	0.107	-0.030
-290.632	387.488	-0.161	0.332
-289.618	788.115	-0.033	-0.090
-288.603	-31.927	-0.255	-0.142
-287.589	36.379	0.099	0.087
-286.574	-151.686	-0.145	-0.011
-285.559	-200.000	-0.016	-0.254
-284.545	800.000	0.012	-0.045
-283.530	-110.389	-0.327	0.068
-282.516	179.168	0.069	0.100
-281.501	-200.000	-0.020	0.200
-280.486	-200.000	-0.036	0.251
-279.472	757.205	-0.044	0.119
-278.457	376.647	-0.085	-0.172
-277.443	-24.816	-0.202	0.119
-276.428	0.588	-0.269	0.192
-275.413	156.188	0.096	-0.132
-274.399	-92.193	0.188	0.053
-273.384	5.710	-0.244	0.179
-272.370	365.875	0.057	-0.113
-271.355	-22.761	0.210	0.126
-270.340	-139.741	0.198	-0.021
-269.326	318.544	0.089	0.168
-268.311	40.493	0.050	-0.045
-267.297	-65.316	0.284	-0.114
-266.282	-200.000	0.014	-0.237
-265.267	-64.838	0.332	0.134
-264.253	-97.990	-0.290	0.074
-263.238	-200.000	-0.003	0.062
-262.224	-163.245	0.144	0.007
-261.209	42.768	0.126	0.114
-260.195	385.037	0.082	0.168
-259.180	269.911	-0.103	0.180
-258.165	-67.687	0.259	0.101
-257.151	-129.232	-0.369	0.051
-256.136	455.794	0.118	0.261
-255.122	-33.487	-0.132	-0.072
-254.107	-200.000	0.025	0.399
-253.092	488.226	-0.075	0.171
-252.078	-141.966	-0.176	0.017
-251.063	4.770	-0.101	0.074
-250.049	-61.152	0.214	-0.090
-249.034	-8.941	0.149	-0.100
-248.019	-164.060	-0.131	-0.006
-247.005	645.962	0.051	-0.129
-245.990	4.700	-0.293	-0.214
-244.976	-12.833	0.176	0.114
-243.961	35.211	0.048	0.042
-242.946	-200.000	-0.027	-0.249
-241.932	800.000	-0.056	-0.167
-240.917	-149.894	0.275	0.021
-239.903	21.034	0.110	0.089
-238.888	-200.000	0.003	-0.379
-237.873	309.520	0.115	-0.214
-236.859	800.000	0.056	-0.222
-235.844	-30.896	-0.112	-0.063
-234.830	19.212	-0.115	-0.092
-233.815	48.515	0.041	0.039
-232.800	-200.000	-0.020	0.368
-231.786	-64.401	-0.092	-0.037
-230.771	653.666	-0.037	-0.094
-229.757	117.161	0.265	0.324
-228.742	-200.000	-0.036	0.183
-227.727	800.000	-0.049	0.182
-226.713	800.000	-0.125	0.384
-225.698	191.656	-0.127	-0.190
-224.684	578.799	0.015	-0.037
-223.669	160.555	-0.146	-0.203
-222.655	-167.749	-0.151	-0.006
-221.640	-68.473	0.116	-0.045
-220.625	35.850	-0.204	0.178
-219.611	309.586	-0.168	-0.313
-218.596	6.765	-0.101	-0.074
-217.582	119.640	-0.089	-0.110
-216.567	-5.074	0.189	-0.129
-215.552	-122.506	0.139	0.022
-214.538	20.223	0.198	0.158
-213.523	294.999	0.136	0.247
-212.509	-88.596	-0.089	-0.026
-211.494	135.308	-0.473	-0.611
-210.479	-159.155	0.197	0.011
-209.465	-106.764	0.246	-0.054
-208.450	800.000	0.043	-0.156
-207.436	563.404	0.073	-0.176
-206.421	-34.595	-0.092	0.050
-205.406	-160.383	0.183	-0.010
-204.392	-68.356	0.240	-0.092
-203.377	460.227	0.131	-0.290
-202.363	-35.236	-0.087	-0.047
-201.348	425.010	-0.102	0.217
-200.333	800.000	-0.050	-0.178
-199.319	111.674	-0.219	-0.262
-198.304	172.354	-0.081	0.116
-197.290	135.105	-0.168	-0.217
-196.275	-9.511	-0.214	0.142
-195.260	6.594	-0.190	-0.140
-194.246	11.864	-0.152	0.116
-193.231	-200.000	0.010	-0.170
-192.217	155.181	-0.179	-0.244
-191.202	800.000	-0.137	-0.383
-190.187	35.479	0.161	0.140
-189.173	310.112	-0.025	-0.047
-188.158	-200.000	-0.010	-0.242
-187.144	91.729	0.167	-0.186
-186.129	800.000	0.032	0.111
-185.114	-200.000	0.007	0.080
-184.100	-8.562	-0.082	0.054
-183.085	-42.152	0.526	0.267
-182.071	800.000	0.054	0.170
-181.056	126.864	0.093	0.117
-180.042	800.000	-0.046	-0.152
-179.027	-200.000	0.060	-0.296
-178.012	-44.901	-0.208	0.103
-176.998	0.469	0.196	0.139
-175.983	76.949	0.054	-0.057
-174.969	-200.000	0.009	0.325
-173.954	524.290	-0.117	0.274
-172.939	-52.384	0.023	0.011
-171.925	540.876	-0.078	-0.183
-170.910	-42.336	0.354	0.179
-169.896	-26.097	0.259	0.151
-168.881	800.000	-0.047	0.143
-167.866	800.000	0.042	0.144
-166.852	-200.000	-0.047	0.479
-165.837	-111.766	-0.131	-0.026
-164.823	-117.051	0.268	-0.048
-163.808	695.150	0.044	-0.114
-162.793	224.077	0.074	0.118
-161.779	10.512	-0.237	-0.179
-160.764	-148.011	0.118	-0.010
-159.750	-107.317	0.236	0.051
-158.735	35.683	-0.134	-0.117
-157.720	152.558	-0.166	-0.224
-156.706	800.000	0.048	-0.160
-155.691	338.175	0.184	0.355
-154.677	800.000	0.045	0.189
-153.662	20.098	-0.208	0.167
-152.647	800.000	-0.074	0.282
-151.633	-200.000	-0.017	-0.088
-150.618	-112.523	0.402	0.080
-149.604	529.225	-0.001	0.001
-148.589	-7.567	-0.144	-0.097
-147.574	-80.745	-0.202	-0.067
-146.560	-39.745	0.068	0.035
-145.545	78.967	-0.151	-0.160
-144.531	72.494	0.104	-0.108
-143.516	797.143	0.032	-0.087
-142.502	-200.000	-0.013	0.145
-141.487	-37.844	0.146	0.077
-140.472	-45.967	-0.233	-0.114
-139.458	60.653	0.164	-0.161
-138.443	800.000	0.101	0.320
-137.429	-200.000	0.011	-0.360
-136.414	-35.632	0.109	-0.059
-135.399	2.333	-0.119	-0.085
-134.385	-200.000	0.009	0.153
-133.370	-97.160	-0.214	0.055
-132.356	-200.000	0.040	-0.207
-131.341	98.634	-0.106	0.122
-130.326	-28.982	-0.055	0.031
-129.312	367.895	0.058	0.116
-128.297	-78.635	0.365	0.124
-127.283	-200.000	0.072	-0.391
-126.268	-200.000	-0.055	-0.318
-125.253	800.000	-0.063	0.207
-124.239	288.714	-0.098	-0.175
-123.224	285.715	-0.124	0.221
-122.210	38.069	-0.265	0.233
-121.195	-83.712	0.317	-0.100
