DTS Sentinel unit serial number:	SN413079Multiplexer serial number:	ORYXHardware model number:	OX4-SRSoftware version number:	ORYX F/W v4.00 Oryx Data Collector v3.7.2.0data status	okinstallation	princeton_trtdifferential loss correction	single-endedforward channel	channel 1reverse channel	N/Adate	2019/09/13time	14:14:35forward acquisition time	60.00reverse acquisition time	0.00gamma	496.2192k internal	0.2303k external	0.2303temperature offset calibration	1.0162default loss term (dB/km)	0.3790temperature slope calibration	1.0000multiplexer offset coefficient	1.0000multiplexer slope coefficient	1.0000fibre end	0.00T internal ref (°C)	35.25T ext. ref 1 (°C)	4.61T ext. ref 2 (°C)	30.85length (m)	temperature (°C)	Stokes	anti-Stokes-747.200	45.971	-0.053	0.050
-746.185	-10.361	0.186	0.126
-745.171	-61.152	-0.322	0.138
-744.156	-133.335	0.315	0.040
-743.142	-18.669	-0.026	-0.016
-742.127	-100.278	-0.323	0.082
-741.112	2.396	0.157	0.116
-740.098	-49.561	-0.309	0.150
-739.083	-200.000	0.008	0.061
-738.069	-117.206	0.018	0.003
-737.054	-61.411	-0.062	-0.027
-736.039	-200.000	-0.029	0.222
-735.025	-116.124	0.536	-0.101
-734.010	-117.403	-0.462	-0.085
-732.996	82.861	-0.034	0.038
-731.981	416.811	0.069	-0.150
-730.966	800.000	0.052	-0.212
-729.952	250.689	0.126	-0.217
-728.937	-12.690	0.153	0.102
-727.923	296.276	-0.210	-0.392
-726.908	-43.516	0.068	-0.035
-725.894	-37.231	-0.224	-0.122
-724.879	158.563	-0.066	0.093
-723.864	397.804	-0.100	-0.213
-722.850	7.898	-0.064	0.048
-721.835	264.637	-0.169	-0.300
-720.821	-200.000	-0.051	-0.261
-719.806	188.444	-0.115	0.174
-718.791	4.520	0.211	0.157
-717.777	-53.617	-0.119	0.056
-716.762	129.324	0.045	0.059
-715.748	-95.429	-0.186	0.051
-714.733	800.000	0.126	-0.385
-713.718	-79.425	0.054	-0.019
-712.704	-80.928	-0.264	-0.089
-711.689	800.000	0.065	0.192
-710.675	-15.123	-0.215	-0.140
-709.660	18.979	0.310	-0.253
-708.645	-200.000	-0.032	0.299
-707.631	190.188	0.163	0.249
-706.616	185.361	0.197	0.298
-705.602	-0.806	0.210	0.151
-704.587	266.376	-0.093	-0.166
-703.572	-200.000	0.070	-0.403
-702.558	-168.019	0.532	-0.021
-701.543	-60.645	-0.181	-0.078
-700.529	9.997	0.059	-0.045
-699.514	800.000	-0.092	-0.319
-698.499	800.000	0.014	0.053
-697.485	-52.335	-0.284	-0.134
-696.470	-54.593	0.253	0.117
-695.456	214.262	0.091	-0.147
-694.441	46.266	-0.277	-0.261
-693.426	-101.403	-0.101	0.025
-692.412	15.301	0.216	0.172
-691.397	800.000	-0.036	0.140
-690.383	800.000	-0.100	0.300
-689.368	19.364	-0.180	-0.147
-688.354	-200.000	0.003	-0.255
-687.339	-200.000	-0.009	0.257
-686.324	800.000	-0.029	-0.128
-685.310	-30.300	-0.165	0.095
-684.295	-87.024	0.212	0.066
-683.281	-85.877	-0.133	0.042
-682.266	800.000	-0.069	-0.218
-681.251	-200.000	-0.004	0.053
-680.237	-93.852	0.132	0.037
-679.222	21.944	-0.108	0.090
-678.208	-32.351	-0.027	-0.015
-677.193	-200.000	0.024	-0.196
-676.178	-50.418	-0.319	-0.153
-675.164	228.935	-0.091	0.151
-674.149	-79.269	0.208	0.072
-673.135	-200.000	-0.030	-0.150
-672.120	-200.000	0.014	-0.108
-671.105	-77.684	0.062	0.022
-670.091	48.718	-0.215	-0.205
-669.076	68.556	-0.220	-0.230
-668.062	-200.000	-0.016	-0.278
-667.047	-61.168	0.135	-0.058
-666.032	108.848	0.301	-0.366
-665.018	-114.732	-0.171	0.033
-664.003	117.794	-0.125	-0.156
-662.989	-95.670	-0.142	-0.039
-661.974	-49.591	-0.044	0.021
-660.959	800.000	-0.066	0.188
-659.945	-200.000	-0.032	0.155
-658.930	-90.138	0.352	0.104
-657.916	-200.000	-0.036	0.259
-656.901	143.748	-0.061	-0.083
-655.886	-105.128	0.247	-0.057
-654.872	-190.074	-0.236	0.003
-653.857	762.041	0.088	-0.241
-652.843	-19.996	-0.340	-0.213
-651.828	482.177	-0.034	0.078
-650.814	-200.000	0.016	-0.117
-649.799	-200.000	0.020	-0.254
-648.784	-128.966	-0.181	0.026
-647.770	-100.239	-0.199	-0.050
-646.755	81.822	0.108	0.118
-645.741	46.686	0.226	0.213
-644.726	-143.366	0.180	0.018
-643.711	612.677	-0.035	0.089
-642.697	639.976	-0.091	-0.234
-641.682	93.957	0.305	-0.351
-640.668	800.000	0.073	0.272
-639.653	-103.425	-0.422	-0.101
-638.638	59.770	0.091	-0.091
-637.624	98.498	0.113	-0.132
-636.609	-111.177	0.339	0.070
-635.595	484.176	-0.038	-0.087
-634.580	75.798	0.226	0.242
-633.565	164.467	0.095	0.136
-632.551	167.100	0.086	-0.123
-631.536	-6.487	0.083	-0.057
-630.522	-42.492	0.204	-0.106
-629.507	180.042	0.144	-0.214
-628.492	-83.184	0.281	-0.092
-627.478	-179.059	-0.082	0.002
-626.463	12.692	-0.274	0.214
-625.449	-142.977	-0.338	0.033
-624.434	800.000	-0.126	0.537
-623.419	217.237	0.139	-0.224
-622.405	-200.000	0.036	-0.167
-621.390	-200.000	-0.022	0.306
-620.376	470.136	-0.113	0.257
-619.361	110.636	0.194	0.236
-618.346	52.402	-0.251	-0.243
-617.332	-36.641	0.204	0.111
-616.317	-33.173	-0.190	-0.107
-615.303	303.827	0.008	-0.016
-614.288	-200.000	-0.062	0.344
-613.273	58.253	0.107	0.107
-612.259	226.673	0.117	0.193
-611.244	-148.223	0.132	-0.011
-610.230	-42.458	-0.341	-0.176
-609.215	167.130	-0.319	-0.458
-608.201	-86.453	0.164	0.051
-607.186	-50.934	-0.275	0.131
-606.171	9.452	0.208	0.159
-605.157	-54.558	0.187	-0.086
-604.142	272.901	0.056	-0.100
-603.128	-100.981	0.083	0.021
-602.113	87.709	-0.142	-0.159
-601.098	13.087	-0.258	-0.203
-600.084	-91.127	-0.079	-0.023
-599.069	79.750	0.250	0.273
-598.055	-41.930	0.400	0.208
-597.040	47.255	-0.127	0.119
-596.025	131.391	-0.172	0.224
-595.011	-200.000	-0.047	-0.211
-593.996	626.280	-0.057	-0.147
-592.982	-200.000	0.024	-0.146
-591.967	81.846	0.179	0.197
-590.952	-200.000	-0.011	-0.434
-589.938	-140.378	-0.204	0.022
-588.923	-200.000	-0.007	-0.096
-587.909	25.793	0.148	0.125
-586.894	-159.411	-0.245	-0.014
-585.879	43.675	0.233	0.216
-584.865	62.557	0.144	0.145
-583.850	-78.941	0.271	0.093
-582.836	-55.241	-0.124	-0.056
-581.821	552.232	-0.054	-0.131
-580.806	34.392	-0.215	-0.190
-579.792	69.492	-0.179	-0.187
-578.777	226.686	0.060	0.098
-577.763	1.986	-0.372	-0.272
-576.748	20.143	-0.252	-0.206
-575.733	-38.731	0.403	0.215
-574.719	223.608	0.104	-0.170
-573.704	-60.886	-0.080	-0.034
-572.690	-151.469	-0.183	0.014
-571.675	215.966	-0.175	-0.282
-570.661	-135.590	0.151	-0.018
-569.646	-200.000	-0.035	0.157
-568.631	-155.441	-0.357	0.023
-567.617	-126.341	-0.118	0.018
-566.602	16.106	-0.057	0.045
-565.588	428.974	-0.136	0.298
-564.573	-200.000	0.010	-0.056
-563.558	-33.069	0.106	-0.059
-562.544	-61.873	-0.369	-0.156
-561.529	223.377	0.105	-0.172
-560.515	-13.919	0.299	-0.195
-559.500	800.000	0.017	-0.061
-558.485	168.508	0.125	-0.180
-557.471	274.933	0.079	-0.142
-556.456	-57.335	0.231	-0.103
-555.442	-14.735	0.145	-0.094
-554.427	-91.288	-0.189	0.055
-553.412	209.275	0.150	-0.237
-552.398	-0.981	-0.052	0.037
-551.383	-200.000	-0.041	-0.184
-550.369	-83.217	-0.155	0.050
-549.354	-85.633	0.282	0.089
-548.339	800.000	0.045	0.138
-547.325	40.005	-0.261	-0.237
-546.310	301.990	0.069	-0.129
-545.296	-112.537	-0.254	-0.051
-544.281	16.469	-0.025	-0.020
-543.266	-140.704	-0.128	0.013
-542.252	48.957	0.220	-0.209
-541.237	153.013	-0.149	0.206
-540.223	-200.000	0.031	-0.209
-539.208	-89.065	0.344	0.103
-538.193	-16.317	0.202	-0.130
-537.179	-200.000	-0.032	-0.235
-536.164	-200.000	-0.006	0.065
-535.150	-177.495	-0.144	-0.004
-534.135	40.559	0.082	0.075
-533.121	36.633	0.093	0.083
-532.106	-140.358	-0.082	0.009
-531.091	-43.422	-0.212	-0.108
-530.077	-92.734	0.297	0.084
-529.062	11.983	-0.152	-0.118
-528.048	-74.120	0.186	-0.068
-527.033	513.582	-0.101	-0.237
-526.018	-96.641	0.259	-0.069
-525.004	95.391	-0.190	-0.219
-523.989	111.461	-0.056	-0.068
-522.975	24.643	-0.140	0.117
-521.960	12.116	0.192	0.149
-520.945	39.754	0.081	0.073
-519.931	-74.982	0.062	0.022
-518.916	0.744	0.258	-0.187
-517.902	-67.440	0.060	-0.024
-516.887	324.799	-0.122	-0.235
-515.872	393.683	0.122	0.257
-514.858	800.000	0.033	-0.121
-513.843	-57.750	0.220	0.097
-512.829	477.472	-0.182	0.417
-511.814	-200.000	0.100	0.446
-510.799	3.015	-0.218	-0.160
-509.785	-142.723	-0.023	-0.002
-508.770	105.074	-0.129	-0.154
-507.756	111.094	-0.062	-0.075
-506.741	11.381	-0.318	0.246
-505.726	-200.000	-0.005	0.029
-504.712	198.452	0.284	0.439
-503.697	800.000	-0.034	-0.104
-502.683	270.314	0.094	0.166
-501.668	-142.542	-0.301	-0.030
-500.653	10.316	0.074	-0.057
-499.639	20.754	0.360	0.294
-498.624	150.311	-0.114	-0.157
-497.610	343.899	0.157	-0.310
-496.595	360.896	-0.098	-0.199
-495.581	34.486	0.112	0.099
-494.566	18.049	-0.213	0.171
-493.551	175.696	0.055	0.081
-492.537	-45.216	0.364	0.182
-491.522	-73.626	-0.302	0.111
-490.508	561.604	0.083	0.202
-489.493	-52.206	0.251	0.118
-488.478	-94.027	0.294	0.081
-487.464	-97.556	0.191	0.050
-486.449	-27.622	-0.093	0.054
-485.435	268.295	-0.168	0.297
-484.420	674.465	0.120	-0.314
-483.405	393.053	0.177	-0.372
-482.391	27.829	0.228	-0.194
-481.376	128.918	-0.144	-0.185
-480.362	800.000	0.055	0.211
-479.347	-153.133	-0.203	0.014
-478.332	-21.052	-0.224	0.138
-477.318	-14.001	0.101	-0.066
-476.303	56.357	0.281	-0.276
-475.289	-142.291	-0.251	0.025
-474.274	-79.604	0.223	0.076
-473.259	-32.734	0.126	-0.070
-472.245	64.392	0.047	0.048
-471.230	758.576	-0.055	-0.151
-470.216	20.497	0.157	-0.128
-469.201	-51.502	-0.081	-0.038
-468.186	586.191	-0.073	-0.180
-467.172	800.000	-0.020	-0.077
-466.157	26.233	-0.113	0.095
-465.143	-19.899	0.129	0.080
-464.128	-98.715	0.383	-0.098
-463.113	97.353	-0.086	-0.099
-462.099	78.319	-0.340	0.366
-461.084	-92.269	-0.457	0.130
-460.070	-12.795	-0.062	-0.041
-459.055	320.386	0.070	-0.134
-458.040	-21.143	0.331	-0.204
-457.026	-119.000	0.226	0.040
-456.011	-200.000	-0.036	0.411
-454.997	-58.333	-0.270	0.118
-453.982	-101.651	0.390	-0.095
-452.968	-134.367	-0.504	-0.062
-451.953	-78.866	0.145	-0.050
-450.938	-200.000	-0.035	-0.434
-449.924	-184.785	-0.240	-0.004
-448.909	18.991	-0.215	0.173
-447.895	-155.594	0.218	0.014
-446.880	-200.000	-0.007	0.123
-445.865	800.000	-0.100	-0.413
-444.851	800.000	-0.101	-0.386
-443.836	-26.553	0.270	0.159
-442.822	-200.000	-0.004	-0.175
-441.807	800.000	-0.105	-0.355
-440.792	800.000	-0.091	-0.355
-439.778	-2.186	-0.041	0.029
-438.763	-123.047	0.024	0.004
-437.749	354.044	0.076	-0.151
-436.734	-128.378	-0.387	-0.055
-435.719	800.000	0.073	0.219
-434.705	800.000	-0.040	0.148
-433.690	-43.271	-0.136	-0.069
-432.676	-82.860	-0.326	-0.106
-431.661	-87.813	0.191	0.058
-430.646	-65.975	0.097	0.039
-429.632	-100.813	-0.128	0.032
-428.617	-129.279	0.077	-0.011
-427.603	-94.602	-0.031	-0.009
-426.588	102.925	0.159	-0.188
-425.573	119.609	-0.057	0.071
-424.559	371.131	0.161	0.328
-423.544	501.666	0.019	0.045
-422.530	-200.000	0.001	0.241
-421.515	182.367	-0.227	-0.337
-420.500	-200.000	0.028	-0.185
-419.486	-200.000	-0.246	-0.001
-418.471	-200.000	0.013	0.218
-417.457	-148.884	-0.139	0.011
-416.442	-94.050	0.118	-0.033
-415.428	-70.163	0.012	-0.005
-414.413	5.073	-0.094	-0.070
-413.398	3.802	-0.277	-0.204
-412.384	-84.510	0.140	-0.044
-411.369	113.637	-0.075	-0.092
-410.355	14.454	0.197	0.155
-409.340	-25.783	-0.175	-0.103
-408.325	-83.021	-0.269	-0.087
-407.311	3.373	0.177	0.130
-406.296	-26.058	-0.142	-0.084
-405.282	-125.340	-0.268	0.041
-404.267	397.151	0.122	0.257
-403.252	-96.432	-0.215	0.057
-402.238	84.591	0.174	-0.191
-401.223	24.328	-0.198	-0.165
-400.209	48.613	0.102	-0.096
-399.194	-59.736	-0.168	0.072
-398.179	1.441	-0.080	0.058
-397.165	-200.000	0.012	-0.118
-396.150	-11.693	0.140	0.092
-395.136	-133.483	-0.197	0.025
-394.121	-36.557	-0.287	-0.155
-393.106	132.763	-0.245	-0.317
-392.092	317.404	-0.154	-0.293
-391.077	50.824	0.429	-0.408
-390.063	50.327	-0.122	0.116
-389.048	-8.402	0.170	-0.115
-388.033	38.725	0.096	0.086
-387.019	-3.637	-0.320	0.224
-386.004	-64.597	0.164	0.067
-384.990	407.554	-0.092	-0.194
-383.975	-200.000	-0.043	0.400
-382.960	11.062	-0.048	0.037
-381.946	-136.973	-0.149	0.017
-380.931	-200.000	0.040	-0.396
-379.917	-200.000	-0.051	0.238
-378.902	325.881	0.056	-0.107
-377.888	140.124	-0.131	-0.174
-376.873	-48.520	-0.190	-0.092
-375.858	409.601	0.195	0.415
-374.844	800.000	0.049	0.192
-373.829	35.013	-0.061	0.053
-372.815	-58.855	0.228	-0.099
-371.800	800.000	0.031	-0.093
-370.785	642.425	-0.083	0.212
-369.771	-108.779	0.507	-0.109
-368.756	23.272	-0.042	0.035
-367.742	187.839	0.041	-0.061
-366.727	800.000	0.040	0.143
-365.712	-200.000	0.010	0.147
-364.698	-200.000	-0.003	-0.085
-363.683	-79.998	-0.270	0.091
-362.669	-38.488	-0.097	-0.051
-361.654	-56.449	-0.126	-0.056
-360.639	165.006	0.094	0.134
-359.625	-200.000	-0.009	-0.045
-358.610	800.000	-0.122	-0.502
-357.596	800.000	-0.123	0.366
-356.581	1.032	0.165	0.119
-355.566	96.828	0.057	0.065
-354.552	-143.069	0.193	-0.019
-353.537	-200.000	0.016	-0.092
-352.523	-200.000	-0.017	-0.249
-351.508	-97.213	-0.306	0.080
-350.493	-200.000	-0.021	-0.150
-349.479	84.832	0.027	-0.030
-348.464	-133.404	0.221	0.028
-347.450	-89.123	-0.072	-0.021
-346.435	800.000	-0.035	0.139
-345.420	-33.998	-0.232	-0.128
-344.406	-129.950	0.320	-0.044
-343.391	689.736	0.080	0.210
-342.377	141.161	-0.102	0.135
-341.362	213.388	0.105	-0.166
-340.348	344.783	-0.150	0.295
-339.333	800.000	0.123	-0.440
-338.318	-66.911	0.119	-0.047
-337.304	16.745	0.317	-0.251
-336.289	64.231	0.156	0.158
-335.275	-173.045	0.329	-0.010
-334.260	158.513	-0.112	0.156
-333.245	-200.000	-0.134	-0.000
-332.231	146.675	0.177	-0.238
-331.216	23.157	-0.213	0.175
-330.202	424.795	0.038	-0.083
-329.187	565.209	-0.063	-0.154
-328.172	119.560	0.253	-0.314
-327.158	271.170	-0.182	-0.320
-326.143	-200.000	-0.000	0.196
-325.129	-145.620	0.191	-0.017
-324.114	125.505	-0.214	0.270
-323.099	186.071	0.181	0.269
-322.085	136.003	-0.129	0.168
-321.070	42.428	-0.042	0.039
-320.056	-56.755	-0.314	-0.139
-319.041	-135.972	-0.117	0.014
-318.026	-136.492	0.264	-0.031
-317.012	173.847	0.086	-0.124
-315.997	12.469	-0.317	0.245
-314.983	-86.548	0.069	0.021
-313.968	147.342	0.076	-0.102
-312.953	15.366	0.112	-0.088
-311.939	415.084	-0.067	-0.142
-310.924	-200.000	-0.048	-0.233
-309.910	-85.902	0.238	-0.074
-308.895	-138.948	0.552	0.060
-307.880	-106.217	0.110	0.025
-306.866	-41.666	-0.170	0.088
-305.851	-200.000	0.029	0.189
-304.837	275.090	0.173	0.307
-303.822	72.789	-0.017	0.017
-302.807	800.000	0.057	0.179
-301.793	-112.906	0.178	-0.035
-300.778	800.000	-0.069	0.237
-299.764	-200.000	0.035	-0.295
-298.749	-200.000	0.055	0.359
-297.735	-200.000	-0.033	0.309
-296.720	-68.083	-0.219	-0.085
-295.705	-100.578	0.382	-0.095
-294.691	-16.698	-0.208	0.132
-293.676	61.847	-0.208	-0.208
-292.662	-23.213	-0.134	-0.081
-291.647	359.409	-0.018	0.035
-290.632	800.000	-0.030	0.107
-289.618	39.182	0.131	0.117
-288.603	648.231	0.012	-0.030
-287.589	50.945	0.090	-0.085
-286.574	800.000	-0.068	0.192
-285.559	86.503	0.097	0.107
-284.545	-47.244	0.220	0.107
-283.530	119.836	-0.160	0.199
-282.516	75.039	0.067	-0.070
-281.501	31.092	-0.355	-0.304
-280.486	-45.004	0.039	0.019
-279.472	85.023	-0.063	0.069
-278.457	-18.288	0.227	0.142
-277.443	-2.132	-0.507	-0.356
-276.428	146.199	-0.120	0.160
-275.413	44.525	0.351	0.323
-274.399	104.416	0.040	0.047
-273.384	199.121	0.102	-0.156
-272.370	-120.892	-0.254	-0.043
-271.355	800.000	-0.060	0.179
-270.340	-113.326	-0.246	0.048
-269.326	-107.141	-0.298	0.066
-268.311	793.858	0.096	0.265
-267.297	-93.181	0.215	0.060
-266.282	148.203	-0.091	-0.123
-265.267	-134.000	-0.271	-0.034
-264.253	-78.907	0.417	0.142
-263.238	800.000	0.048	0.147
-262.224	-49.521	0.029	-0.014
-261.209	86.946	0.055	-0.061
-260.195	16.655	0.113	-0.089
-259.180	-98.474	0.064	0.016
-258.165	-110.696	-0.239	-0.049
-257.151	138.340	0.067	0.087
-256.136	-200.000	0.022	0.234
-255.122	-123.736	-0.320	0.051
-254.107	-111.639	-0.351	-0.071
-253.092	800.000	0.060	0.184
-252.078	761.298	0.022	-0.060
-251.063	800.000	-0.055	-0.158
-250.049	-200.000	0.006	-0.205
-249.034	524.800	-0.041	-0.097
-248.019	761.991	-0.073	0.198
-247.005	57.102	-0.098	0.096
-245.990	50.601	-0.398	0.377
-244.976	-101.647	0.243	0.059
-243.961	-98.671	0.188	0.048
-242.946	-200.000	-0.048	0.226
-241.932	55.539	0.194	-0.187
-240.917	-120.379	0.212	-0.036
-239.903	204.067	0.015	0.024
-238.888	353.452	0.113	0.224
-237.873	800.000	-0.080	-0.330
-236.859	-125.388	-0.169	0.026
-235.844	-1.907	0.175	0.123
-234.830	34.875	-0.142	0.124
-233.815	-127.733	0.301	0.043
-232.800	10.774	-0.208	0.159
-231.786	-200.000	0.007	-0.156
-230.771	-4.463	0.246	-0.170
-229.757	800.000	-0.055	-0.207
-228.742	610.464	-0.100	-0.250
-227.727	62.201	0.065	-0.065
-226.713	306.256	-0.096	-0.178
-225.698	-152.300	0.155	-0.011
-224.684	-72.776	0.114	-0.042
-223.669	-62.597	0.502	-0.208
-222.655	420.367	0.029	0.061
-221.640	-132.772	0.154	0.020
-220.625	-1.430	-0.207	0.146
-219.611	247.751	0.124	0.209
-218.596	-200.000	0.012	0.076
-217.582	-29.141	-0.128	0.073
-216.567	-37.134	0.039	-0.021
-215.552	130.507	0.138	0.176
-214.538	22.660	-0.231	-0.189
-213.523	-200.000	0.037	0.380
-212.509	-6.758	0.362	0.246
-211.494	40.990	-0.312	0.281
-210.479	28.590	-0.381	0.322
-209.465	47.608	0.106	0.099
-208.450	-10.125	0.189	-0.125
-207.436	-40.067	-0.112	0.058
-206.421	-13.570	-0.111	0.072
-205.406	405.631	-0.037	0.077
-204.392	70.312	0.067	-0.069
-203.377	192.969	-0.125	0.188
-202.363	-200.000	0.041	0.340
-201.348	737.012	-0.023	0.061
-200.333	-53.412	0.294	0.135
-199.319	46.206	-0.110	-0.102
-198.304	-51.548	-0.192	-0.089
-197.290	-75.003	0.063	0.023
-196.275	800.000	0.138	-0.427
-195.260	-68.772	-0.102	0.039
-194.246	800.000	-0.111	0.397
-193.231	703.893	0.055	-0.144
-192.217	-153.773	-0.115	-0.008
-191.202	-138.449	0.101	0.011
-190.187	-200.000	-0.022	0.212
-189.173	417.961	0.055	0.117
-188.158	-104.528	-0.203	-0.047
-187.144	-121.962	0.022	-0.004
-186.129	-3.149	-0.236	0.164
-185.114	-134.710	-0.179	0.022
-184.100	-200.000	0.011	-0.088
-183.085	95.954	0.117	-0.133
-182.071	84.730	0.196	-0.214
-181.056	-20.260	0.184	0.113
-180.042	141.307	-0.101	-0.133
-179.027	-200.000	0.009	-0.241
-178.012	-168.762	0.256	-0.010
-176.998	-200.000	-0.045	-0.318
-175.983	115.678	0.191	-0.233
-174.969	74.103	-0.070	-0.073
-173.954	800.000	-0.137	-0.457
-172.939	-108.584	-0.181	0.039
-171.925	-106.904	0.213	-0.047
-170.910	-143.049	-0.146	0.014
-169.896	-163.554	-0.120	-0.006
-168.881	-200.000	0.025	-0.213
-167.866	0.219	-0.194	0.138
-166.852	96.003	-0.138	0.157
-165.837	12.098	0.290	0.222
-164.823	-200.000	0.077	0.550
-163.808	800.000	-0.073	-0.214
-162.793	-108.353	0.133	0.029
-161.779	-200.000	0.013	0.194
-160.764	214.798	0.065	-0.103
-159.750	-18.675	0.114	0.071
-158.735	60.420	0.193	0.190
-157.720	551.451	-0.097	0.232
-156.706	334.123	-0.176	-0.339
-155.691	-100.160	0.297	0.074
-154.677	-200.000	-0.030	0.205
-153.662	800.000	0.074	0.209
-152.647	-108.252	-0.280	-0.060
-151.633	199.093	-0.083	0.127
-150.618	47.255	-0.060	0.055
-149.604	-200.000	0.006	0.124
-148.589	115.828	-0.099	0.120
-147.574	515.924	0.017	0.040
-146.560	800.000	-0.050	0.140
-145.545	-200.000	0.072	0.395
-144.531	-172.767	0.203	0.006
-143.516	36.713	-0.056	0.050
-142.502	144.407	-0.148	0.197
-141.487	271.414	-0.171	0.299
-140.472	-89.172	0.174	0.051
-139.458	-121.320	0.265	0.044
-138.443	41.579	-0.387	0.349
-137.429	800.000	0.071	0.207
-136.414	-200.000	0.034	-0.223
-135.399	84.994	0.155	-0.170
-134.385	-200.000	0.017	-0.096
-133.370	5.454	0.102	0.075
-132.356	-45.534	0.031	0.015
-131.341	419.492	-0.084	-0.179
-130.326	-200.000	-0.008	0.049
-129.312	549.694	0.146	-0.349
-128.297	-93.298	0.476	-0.131
-127.283	-160.497	-0.190	0.010
-126.268	-7.574	-0.253	-0.170
-125.253	48.204	0.183	-0.171
-124.239	-52.322	0.240	-0.110
-123.224	78.314	-0.164	0.174
-122.210	-121.227	0.266	0.044
-121.195	181.561	-0.144	0.210
-120.180	212.403	0.086	0.135
-119.166	78.925	-0.250	0.266
