DTS Sentinel unit serial number:	SN413079Multiplexer serial number:	ORYXHardware model number:	OX4-SRSoftware version number:	ORYX F/W v4.00 Oryx Data Collector v3.7.2.0data status	okinstallation	princeton_trtdifferential loss correction	single-endedforward channel	channel 1reverse channel	N/Adate	2019/09/15time	07:06:35forward acquisition time	60.00reverse acquisition time	0.00gamma	496.2192k internal	0.2325k external	0.2325temperature offset calibration	0.9991default loss term (dB/km)	0.3790temperature slope calibration	1.0000multiplexer offset coefficient	1.0000multiplexer slope coefficient	1.0000fibre end	0.00T internal ref (°C)	30.50T ext. ref 1 (°C)	4.87T ext. ref 2 (°C)	25.65length (m)	temperature (°C)	Stokes	anti-Stokes-747.200	-23.850	0.140	0.084
-746.185	-106.854	0.329	-0.074
-745.171	-200.000	-0.016	-0.110
-744.156	-37.968	-0.093	-0.050
-743.142	-142.828	-0.292	-0.029
-742.127	132.827	0.134	-0.175
-741.112	75.277	-0.171	0.182
-740.098	-14.596	0.191	0.124
-739.083	-40.370	0.026	0.013
-738.069	-65.097	-0.413	-0.168
-737.054	800.000	0.006	-0.019
-736.039	-51.604	-0.326	0.153
-735.025	-156.599	0.155	0.010
-734.010	89.456	-0.194	-0.218
-732.996	-47.583	-0.243	0.119
-731.981	-129.652	-0.080	0.011
-730.966	59.489	0.078	-0.077
-729.952	56.480	-0.158	-0.155
-728.937	305.920	0.136	-0.254
-727.923	89.708	0.142	-0.160
-726.908	-148.119	-0.205	-0.017
-725.894	800.000	-0.091	0.387
-724.879	381.359	0.100	0.208
-723.864	42.887	-0.420	0.386
-722.850	-200.000	0.005	-0.227
-721.835	-73.150	-0.149	-0.055
-720.821	-200.000	0.001	-0.143
-719.806	-2.972	0.116	-0.081
-718.791	25.731	0.220	-0.185
-717.777	800.000	0.022	-0.094
-716.762	627.466	0.099	-0.253
-715.748	66.714	-0.121	0.124
-714.733	-191.284	-0.310	-0.003
-713.718	472.300	-0.100	-0.226
-712.704	-68.221	-0.224	-0.088
-711.689	199.475	0.208	0.322
-710.675	800.000	-0.006	-0.023
-709.660	24.335	-0.207	-0.173
-708.645	126.960	0.119	-0.152
-707.631	800.000	0.047	-0.197
-706.616	97.432	-0.193	-0.224
-705.602	-189.300	0.497	-0.006
-704.587	-37.987	0.172	0.092
-703.572	-144.455	0.096	0.009
-702.558	-71.890	-0.207	0.078
-701.543	-105.563	-0.220	0.050
-700.529	367.452	-0.080	-0.163
-699.514	-200.000	0.051	0.276
-698.499	-96.897	0.165	-0.044
-697.485	-41.234	0.346	0.180
-696.470	-200.000	0.059	0.288
-695.456	-49.170	0.293	-0.141
-694.441	-101.463	-0.211	-0.052
-693.426	72.584	0.150	-0.158
-692.412	-82.845	-0.209	-0.068
-691.397	-200.000	-0.020	0.135
-690.383	800.000	-0.085	-0.358
-689.368	-13.107	-0.184	-0.121
-688.354	-118.492	-0.271	-0.048
-687.339	213.074	0.225	0.357
-686.324	-200.000	-0.018	0.118
-685.310	0.206	-0.092	-0.066
-684.295	308.556	0.043	0.080
-683.281	8.320	0.078	0.059
-682.266	800.000	0.007	0.025
-681.251	-200.000	0.002	0.297
-680.237	-70.053	-0.242	-0.093
-679.222	105.430	-0.170	-0.202
-678.208	19.054	-0.103	-0.083
-677.193	-80.473	-0.130	0.044
-676.178	-189.147	0.068	0.001
-675.164	783.151	0.040	-0.111
-674.149	8.584	-0.256	-0.194
-673.135	144.575	-0.119	0.160
-672.120	-91.367	0.103	0.030
-671.105	-200.000	-0.021	-0.178
-670.091	-144.432	-0.110	0.010
-669.076	-98.243	-0.273	0.071
-668.062	-30.300	0.344	0.196
-667.047	155.267	0.025	0.035
-666.032	-34.561	-0.186	-0.103
-665.018	-113.969	0.132	0.026
-664.003	-137.656	-0.098	-0.011
-662.989	-184.381	0.317	0.005
-661.974	185.742	0.149	0.223
-660.959	108.192	-0.169	-0.203
-659.945	27.870	0.156	-0.132
-658.930	800.000	0.063	-0.221
-657.916	442.849	-0.062	0.136
-656.901	103.017	-0.121	-0.143
-655.886	7.686	-0.087	-0.065
-654.872	14.160	0.119	0.093
-653.857	-23.103	-0.118	-0.071
-652.843	-200.000	0.003	0.130
-651.828	5.560	0.305	-0.227
-650.814	-17.937	0.293	0.185
-649.799	-109.298	-0.354	-0.075
-648.784	168.567	0.139	-0.199
-647.770	309.864	0.103	-0.193
-646.755	57.017	-0.157	0.153
-645.741	-127.119	-0.182	0.027
-644.726	-80.329	0.415	-0.140
-643.711	-46.272	-0.162	-0.080
-642.697	-20.293	-0.175	0.108
-641.682	-75.288	0.226	0.081
-640.668	800.000	-0.054	-0.222
-639.653	181.416	0.253	-0.374
-638.638	-200.000	0.026	0.155
-637.624	-90.894	0.328	0.095
-636.609	-30.569	0.242	-0.138
-635.595	-200.000	-0.070	-0.325
-634.580	-200.000	-0.040	-0.375
-633.565	-69.939	0.207	0.079
-632.551	-200.000	-0.041	-0.361
-631.536	-155.713	-0.381	0.025
-630.522	124.882	0.039	-0.049
-629.507	-63.234	-0.033	-0.014
-628.492	-200.000	-0.113	-0.000
-627.478	-102.708	0.171	0.041
-626.463	-200.000	-0.042	0.370
-625.449	800.000	0.082	-0.265
-624.434	207.787	-0.045	-0.071
-623.419	800.000	0.108	0.412
-622.405	-145.483	0.069	0.006
-621.390	-34.607	-0.233	-0.128
-620.376	107.010	-0.176	-0.210
-619.361	-133.115	0.339	0.043
-618.346	-155.778	-0.521	0.033
-617.332	528.831	-0.094	-0.223
-616.317	-200.000	-0.017	0.324
-615.303	-200.000	-0.021	0.267
-614.288	8.256	-0.026	-0.020
-613.273	-71.681	-0.152	0.057
-612.259	-155.849	0.327	0.021
-611.244	-200.000	-0.067	0.306
-610.230	800.000	-0.064	0.209
-609.215	-200.000	0.024	-0.291
-608.201	-200.000	0.007	0.156
-607.186	-200.000	0.012	-0.304
-606.171	-200.000	0.040	-0.390
-605.157	-3.747	-0.380	-0.265
-604.142	630.437	-0.039	0.099
-603.128	330.692	-0.119	0.230
-602.113	-49.582	-0.123	0.059
-601.098	-45.807	-0.267	0.132
-600.084	-19.890	0.119	-0.074
-599.069	-152.714	0.171	-0.012
-598.055	-77.567	-0.193	0.067
-597.040	-156.701	0.051	0.003
-596.025	248.605	0.032	0.054
-595.011	-22.975	-0.044	0.026
-593.996	-109.520	0.354	0.075
-592.982	-200.000	0.009	-0.113
-591.967	12.489	0.349	-0.270
-590.952	443.115	0.045	0.099
-589.938	190.740	0.014	0.021
-588.923	-87.378	0.320	-0.097
-587.909	-0.653	0.133	-0.095
-586.894	-200.000	-0.014	-0.110
-585.879	-94.580	-0.110	-0.030
-584.865	-107.884	-0.220	0.048
-583.850	780.310	-0.011	-0.029
-582.836	-29.640	0.115	0.066
-581.821	-73.450	-0.236	-0.087
-580.806	10.484	0.097	0.074
-579.792	-81.933	-0.100	-0.033
-578.777	800.000	-0.047	0.140
-577.763	229.571	0.131	0.215
-576.748	41.666	-0.095	0.087
-575.733	217.847	0.077	-0.123
-574.719	378.405	-0.054	-0.111
-573.704	-200.000	-0.037	0.403
-572.690	11.707	0.394	0.303
-571.675	-84.223	0.230	0.073
-570.661	-200.000	-0.040	-0.336
-569.646	-200.000	-0.005	-0.324
-568.631	800.000	0.060	0.228
-567.617	-15.096	0.094	-0.060
-566.602	-23.357	0.102	-0.061
-565.588	31.264	-0.292	-0.252
-564.573	-29.860	-0.233	0.133
-563.558	778.771	0.045	0.124
-562.544	122.925	-0.172	-0.216
-561.529	22.996	0.032	0.026
-560.515	74.109	-0.121	-0.127
-559.500	202.736	-0.093	0.144
-558.485	-16.796	0.035	0.022
-557.471	265.567	-0.203	0.354
-556.456	235.330	0.091	-0.151
-555.442	242.022	0.137	0.230
-554.427	-178.644	-0.222	0.005
-553.412	73.262	-0.064	-0.067
-552.398	-200.000	-0.027	0.209
-551.383	-27.326	-0.101	0.059
-550.369	10.977	-0.077	-0.059
-549.354	-26.887	0.097	0.057
-548.339	-173.923	0.138	0.004
-547.325	800.000	-0.083	-0.295
-546.310	-34.683	-0.129	-0.070
-545.296	19.906	-0.191	0.154
-544.281	154.592	0.210	0.288
-543.266	800.000	-0.051	0.155
-542.252	198.726	-0.158	-0.242
-541.237	-200.000	0.004	0.352
-540.223	85.432	0.234	0.258
-539.208	-38.691	-0.348	-0.184
-538.193	-94.127	-0.161	-0.044
-537.179	349.731	-0.058	-0.116
-536.164	-197.234	0.175	-0.001
-535.150	3.440	-0.252	-0.184
-534.135	-200.000	0.064	0.284
-533.121	-53.052	-0.238	-0.109
-532.106	573.339	-0.035	-0.085
-531.091	-200.000	0.016	0.103
-530.077	452.156	0.097	-0.214
-529.062	800.000	-0.153	-0.435
-528.048	-21.688	-0.082	0.050
-527.033	-25.370	-0.166	0.098
-526.018	-46.625	-0.211	-0.103
-525.004	-200.000	0.031	-0.208
-523.989	-34.695	0.174	-0.095
-522.975	26.148	-0.133	-0.111
-521.960	800.000	-0.056	-0.181
-520.945	800.000	-0.005	0.016
-519.931	45.969	0.172	0.159
-518.916	112.119	0.335	0.405
-517.902	-37.080	0.165	0.089
-516.887	-127.847	0.244	-0.035
-515.872	-180.885	-0.077	0.002
-514.858	-200.000	0.015	-0.067
-513.843	-119.993	-0.072	0.012
-512.829	701.723	0.195	0.513
-511.814	800.000	0.041	-0.129
-510.799	-190.666	0.058	0.001
-509.785	236.228	0.152	-0.251
-508.770	-66.299	-0.122	-0.048
-507.756	114.430	-0.045	-0.055
-506.741	800.000	0.070	0.210
-505.726	-200.000	-0.035	-0.233
-504.712	-122.126	-0.281	-0.046
-503.697	268.719	0.263	-0.462
-502.683	-54.125	-0.194	0.088
-501.668	231.116	-0.092	-0.150
-500.653	-27.667	-0.051	-0.030
-499.639	255.151	-0.201	-0.344
-498.624	-200.000	0.592	0.003
-497.610	212.653	-0.172	-0.270
-496.595	-22.463	-0.174	0.105
-495.581	-160.969	0.357	0.019
-494.566	19.421	0.267	-0.215
-493.551	39.370	-0.155	-0.139
-492.537	800.000	0.124	0.431
-491.522	-80.270	0.113	0.038
-490.508	800.000	0.047	-0.162
-489.493	-99.144	0.258	0.065
-488.478	-94.041	0.284	0.078
-487.464	-29.232	-0.232	0.133
-486.449	-5.433	-0.136	-0.093
-485.435	93.192	-0.113	-0.128
-484.420	450.771	-0.028	0.061
-483.405	113.983	-0.308	-0.374
-482.391	-3.716	0.211	0.147
-481.376	800.000	-0.058	-0.249
-480.362	-72.166	-0.053	-0.020
-479.347	424.277	0.181	-0.388
-478.332	-200.000	0.033	-0.213
-477.318	-185.848	0.274	0.004
-476.303	45.916	-0.208	-0.192
-475.289	-56.106	-0.162	-0.072
-474.274	113.028	0.214	0.259
-473.259	-92.500	0.237	0.067
-472.245	17.072	0.095	0.075
-471.230	7.959	-0.067	-0.050
-470.216	-200.000	-0.014	0.135
-469.201	-112.495	-0.247	-0.049
-468.186	43.726	0.245	-0.224
-467.172	63.604	0.137	0.137
-466.157	-157.178	0.335	-0.020
-465.143	-200.000	-0.050	0.256
-464.128	-155.489	-0.175	0.011
-463.113	500.209	-0.031	-0.072
-462.099	67.198	-0.290	-0.295
-461.084	-200.000	0.017	0.128
-460.070	626.118	-0.080	-0.202
-459.055	-200.000	0.024	-0.183
-458.040	-78.332	-0.278	-0.095
-457.026	173.364	0.240	0.346
-456.011	-83.077	-0.294	0.095
-454.997	-22.025	-0.020	0.012
-453.982	-153.948	-0.329	-0.022
-452.968	-200.000	0.006	-0.129
-451.953	448.364	-0.094	0.207
-450.938	-122.992	0.309	-0.050
-449.924	-85.663	0.499	-0.155
-448.909	-200.000	-0.007	0.245
-447.895	-44.567	-0.147	-0.074
-446.880	12.948	-0.025	0.020
-445.865	236.978	0.067	0.110
-444.851	-168.890	0.259	0.010
-443.836	-90.248	-0.182	0.053
-442.822	-78.497	-0.110	-0.038
-441.807	652.356	0.095	0.244
-440.792	-168.882	-0.295	0.011
-439.778	800.000	-0.080	-0.247
-438.763	-200.000	0.003	0.138
-437.749	-200.000	0.020	0.245
-436.734	-25.795	0.089	0.052
-435.719	18.404	-0.030	-0.024
-434.705	-200.000	0.016	-0.128
-433.690	-200.000	-0.060	0.310
-432.676	-151.548	0.065	-0.005
-431.661	-147.714	-0.330	-0.028
-430.646	56.706	-0.090	0.087
-429.632	-200.000	0.022	0.168
-428.617	88.833	0.121	-0.134
-427.603	67.947	0.134	0.136
-426.588	-200.000	-0.038	0.241
-425.573	18.264	0.248	-0.197
-424.559	14.224	-0.112	-0.087
-423.544	-200.000	-0.005	-0.083
-422.530	132.887	-0.117	-0.151
-421.515	82.093	0.173	-0.186
-420.500	-33.189	0.033	-0.018
-419.486	-200.000	-0.047	0.275
-418.471	-26.956	-0.053	-0.031
-417.457	-40.031	0.167	-0.087
-416.442	94.348	0.141	-0.160
-415.428	-51.899	-0.559	-0.259
-414.413	-87.775	-0.173	0.052
-413.398	330.109	-0.131	-0.251
-412.384	800.000	-0.056	0.177
-411.369	123.738	0.013	-0.016
-410.355	-200.000	0.002	0.044
-409.340	189.549	0.038	0.057
-408.325	800.000	-0.066	-0.269
-407.311	-69.074	-0.148	-0.057
-406.296	-26.861	0.283	-0.165
-405.282	291.773	0.152	0.276
-404.267	-125.694	-0.110	0.017
-403.252	-200.000	0.009	0.221
-402.238	-39.643	-0.245	0.128
-401.223	-69.918	-0.209	-0.079
-400.209	686.929	0.093	0.241
-399.194	-69.947	-0.335	0.127
-398.179	82.793	0.222	0.241
-397.165	800.000	0.060	-0.225
-396.150	104.464	0.156	0.183
-395.136	-62.820	-0.165	0.068
-394.121	-200.000	0.054	-0.272
-393.106	-8.391	0.355	-0.237
-392.092	800.000	-0.045	-0.160
-391.077	140.336	0.092	-0.121
-390.063	-62.844	0.075	0.031
-389.048	1.207	-0.191	0.136
-388.033	208.423	-0.180	-0.279
-387.019	140.310	-0.237	-0.311
-386.004	-72.252	-0.159	-0.059
-384.990	-200.000	0.018	0.189
-383.975	-200.000	0.009	0.045
-382.960	6.250	0.050	0.037
-381.946	128.419	0.141	0.178
-380.931	-78.937	0.053	-0.018
-379.917	-47.241	-0.128	-0.062
-378.902	-108.217	0.247	-0.053
-377.888	-141.986	0.043	-0.004
-376.873	-188.216	0.214	0.003
-375.858	800.000	0.037	-0.113
-374.844	39.624	-0.318	0.284
-373.829	-108.227	-0.051	-0.011
-372.815	-200.000	-0.025	-0.220
-371.800	-103.660	0.297	0.069
-370.785	-200.000	0.030	-0.159
-369.771	152.219	-0.066	0.090
-368.756	46.672	-0.164	-0.151
-367.742	-114.844	-0.248	0.047
-366.727	76.921	0.014	-0.015
-365.712	42.728	0.162	-0.146
-364.698	-200.000	0.013	0.171
-363.683	800.000	0.099	-0.314
-362.669	199.626	-0.096	-0.147
-361.654	159.759	-0.146	-0.202
-360.639	56.955	0.035	0.034
-359.625	109.834	-0.229	0.272
-358.610	-140.617	-0.321	0.033
-357.596	-200.000	-0.039	0.465
-356.581	-67.464	-0.244	-0.095
-355.566	-37.916	-0.201	0.106
-354.552	93.300	0.050	0.056
-353.537	-200.000	-0.033	0.195
-352.523	-142.365	0.173	0.017
-351.508	365.356	0.220	-0.440
-350.493	170.227	-0.153	-0.218
-349.479	-200.000	0.028	-0.160
-348.464	-160.409	-0.375	-0.020
-347.450	133.561	0.209	0.269
-346.435	798.603	-0.045	0.123
-345.420	-200.000	-0.045	-0.250
-344.406	-200.000	0.026	0.217
-343.391	199.134	-0.042	-0.064
-342.377	-200.000	0.001	-0.068
-341.362	189.314	-0.246	-0.367
-340.348	800.000	0.025	-0.104
-339.333	-135.172	-0.520	0.062
-338.318	95.670	0.193	0.219
-337.304	109.204	0.397	0.472
-336.289	107.731	-0.086	-0.101
-335.275	596.863	-0.115	0.284
-334.260	375.058	-0.141	0.285
-333.245	103.625	-0.200	-0.233
-332.231	40.208	-0.358	0.320
-331.216	133.195	0.056	-0.071
-330.202	359.196	0.069	0.137
-329.187	-200.000	-0.076	0.374
-328.172	-200.000	0.016	0.160
-327.158	-172.720	-0.298	-0.009
-326.143	-200.000	-0.055	0.280
-325.129	-100.757	0.065	-0.016
-324.114	-200.000	0.003	0.053
-323.099	-6.574	-0.124	-0.084
-322.085	3.956	-0.325	-0.236
-321.070	39.467	-0.216	0.192
-320.056	666.199	-0.129	0.331
-319.041	-115.390	0.545	-0.102
-318.026	800.000	0.080	0.326
-317.012	293.787	0.141	-0.256
-315.997	85.752	-0.240	-0.262
-314.983	14.084	0.228	0.176
-313.968	-158.996	0.266	-0.015
-312.953	-200.000	0.006	0.205
-311.939	-13.529	0.085	-0.055
-310.924	10.835	-0.013	0.010
-309.910	82.890	0.069	0.074
-308.895	-2.483	-0.160	-0.111
-307.880	-88.202	0.350	0.104
-306.866	324.740	-0.050	-0.095
-305.851	542.938	0.146	0.346
-304.837	-133.296	-0.151	-0.019
-303.822	164.155	-0.028	0.039
-302.807	-76.418	-0.516	0.180
-301.793	-94.525	-0.187	0.050
-300.778	-42.884	-0.032	-0.016
-299.764	23.382	0.063	-0.052
-298.749	-77.774	0.373	-0.128
-297.735	-200.000	-0.031	-0.143
-296.720	-200.000	0.040	0.284
-295.705	-12.349	0.252	0.163
-294.691	62.815	0.184	-0.183
-293.676	-58.781	0.096	-0.041
-292.662	-112.501	-0.197	0.039
-291.647	-184.202	0.116	-0.002
-290.632	288.865	-0.147	-0.264
-289.618	34.259	-0.223	0.192
-288.603	-59.515	-0.395	0.168
-287.589	800.000	-0.069	0.217
-286.574	-97.674	0.333	-0.086
-285.559	800.000	0.164	-0.509
-284.545	-102.157	-0.101	-0.024
-283.530	800.000	-0.089	0.274
-282.516	-200.000	0.026	0.274
-281.501	800.000	0.088	0.273
-280.486	-200.000	0.013	0.353
-279.472	-164.049	0.172	0.008
-278.457	486.592	-0.062	0.140
-277.443	-59.719	-0.203	0.086
-276.428	-47.203	-0.270	-0.131
-275.413	-51.262	-0.080	-0.037
-274.399	-84.618	0.408	-0.127
-273.384	-23.669	0.058	0.035
-272.370	9.772	-0.293	-0.220
-271.355	-59.452	-0.093	0.039
-270.340	717.947	0.082	0.217
-269.326	800.000	0.057	-0.189
-268.311	-200.000	-0.006	0.042
-267.297	41.932	0.143	-0.128
-266.282	-166.935	-0.236	0.010
-265.267	-10.361	0.074	-0.048
-264.253	478.325	-0.024	-0.053
-263.238	-200.000	-0.017	-0.092
-262.224	-200.000	-0.018	0.488
-261.209	82.801	-0.088	-0.095
-260.195	-98.820	-0.072	-0.018
-259.180	116.074	0.106	-0.128
-258.165	117.384	-0.072	-0.088
-257.151	46.539	-0.153	-0.140
-256.136	-133.655	-0.148	-0.018
-255.122	800.000	-0.064	0.198
-254.107	-90.475	-0.135	-0.039
-253.092	481.409	-0.066	-0.148
-252.078	-36.347	-0.054	-0.029
-251.063	288.819	0.026	-0.047
-250.049	800.000	-0.036	0.106
-249.034	-15.849	-0.164	-0.103
-248.019	-51.966	-0.274	0.126
-247.005	-124.089	0.337	-0.052
-245.990	800.000	-0.113	0.312
-244.976	-46.283	-0.237	-0.115
-243.961	-84.481	0.318	-0.099
-242.946	-200.000	-0.011	0.066
-241.932	-200.000	-0.030	0.153
-240.917	76.791	0.183	0.192
-239.903	291.750	0.138	0.248
-238.888	-82.371	-0.012	0.004
-237.873	-89.920	0.383	-0.111
-236.859	800.000	0.058	-0.241
-235.844	27.592	-0.094	0.078
-234.830	-2.073	-0.176	-0.122
-233.815	-51.652	0.152	-0.070
-232.800	-108.672	-0.185	0.039
-231.786	1.770	-0.346	0.246
-230.771	800.000	-0.087	-0.306
-229.757	210.887	0.131	-0.204
-228.742	-118.568	0.046	-0.008
-227.727	119.371	0.082	-0.100
-226.713	3.611	0.343	-0.248
-225.698	-141.800	-0.191	0.019
-224.684	-90.046	-0.190	-0.055
-223.669	-200.000	0.048	-0.212
-222.655	-143.332	0.209	0.020
-221.640	-110.347	0.031	0.006
-220.625	-200.000	0.005	-0.260
-219.611	176.359	0.122	-0.175
-218.596	-50.611	0.031	-0.014
-217.582	800.000	0.082	-0.331
-216.567	-200.000	-0.015	0.228
-215.552	113.972	0.242	-0.291
-214.538	-200.000	-0.017	0.149
-213.523	-36.502	0.249	0.133
-212.509	149.346	-0.136	-0.182
-211.494	202.053	0.158	0.241
-210.479	451.216	-0.242	-0.528
-209.465	651.248	0.072	0.181
-208.450	-55.887	0.117	0.052
-207.436	-191.897	0.146	-0.001
-206.421	340.785	0.189	0.365
-205.406	720.286	0.075	-0.197
-204.392	-74.054	0.305	-0.109
-203.377	16.773	0.178	-0.139
-202.363	-200.000	-0.052	0.306
-201.348	-200.000	0.023	0.206
-200.333	800.000	0.071	-0.206
-199.319	-51.240	-0.306	0.142
-198.304	-72.921	0.237	-0.086
-197.290	-200.000	-0.012	0.148
-196.275	-150.914	-0.151	0.011
-195.260	-138.681	-0.123	-0.013
-194.246	-133.937	0.187	0.023
-193.231	-200.000	-0.012	0.224
-192.217	420.893	-0.115	0.243
-191.202	-67.367	0.268	0.104
-190.187	-56.244	0.089	0.039
-189.173	41.407	0.100	-0.090
-188.158	523.578	-0.123	-0.286
-187.144	-134.527	0.372	-0.045
-186.129	-99.256	0.308	-0.077
-185.114	-79.503	-0.218	-0.073
-184.100	71.183	0.101	-0.103
-183.085	508.464	0.105	0.240
-182.071	-115.646	0.192	0.036
-181.056	-72.049	0.321	0.118
-180.042	15.159	-0.135	-0.105
-179.027	42.157	-0.169	0.151
-178.012	-137.546	0.280	0.031
-176.998	-66.647	-0.079	0.031
-175.983	410.543	0.062	-0.129
-174.969	800.000	-0.054	0.170
-173.954	321.779	0.095	0.178
-172.939	800.000	0.023	-0.094
-171.925	-33.694	-0.084	0.046
-170.910	-200.000	-0.089	-0.000
-169.896	800.000	0.045	-0.134
-168.881	-68.505	0.182	0.069
-167.866	-176.289	0.108	-0.003
-166.852	0.118	0.127	-0.090
-165.837	88.681	-0.062	-0.068
-164.823	98.664	0.107	0.122
-163.808	49.143	0.092	0.085
-162.793	560.388	-0.012	-0.029
-161.779	-200.000	0.017	-0.159
-160.764	-200.000	0.002	0.053
-159.750	-171.127	0.379	0.013
-158.735	55.827	-0.315	0.301
-157.720	142.334	0.073	0.095
-156.706	-200.000	-0.013	0.250
-155.691	8.921	0.251	-0.187
-154.677	-200.000	-0.033	0.449
-153.662	24.129	0.133	0.108
-152.647	-200.000	0.048	-0.218
-151.633	-63.853	0.176	0.071
-150.618	-118.039	0.192	-0.034
-149.604	-101.285	-0.277	-0.067
-148.589	800.000	0.099	0.341
-147.574	800.000	0.103	0.298
-146.560	-185.978	0.178	-0.003
-145.545	-20.364	-0.212	-0.128
-144.531	800.000	-0.063	-0.182
-143.516	378.841	-0.021	0.042
-142.502	-22.066	-0.133	-0.080
-141.487	-94.107	-0.271	0.073
-140.472	-200.000	0.018	-0.137
-139.458	637.012	-0.039	-0.097
-138.443	-65.734	-0.188	0.074
-137.429	12.497	0.415	0.315
-136.414	72.214	-0.283	0.290
-135.399	145.152	0.189	-0.249
-134.385	-93.943	-0.047	-0.013
-133.370	-200.000	0.007	0.187
-132.356	-105.390	-0.158	-0.036
-131.341	35.986	-0.142	0.123
-130.326	33.216	0.230	-0.197
-129.312	-1.198	-0.197	-0.137
-128.297	-200.000	0.001	0.025
-127.283	-127.567	0.049	-0.007
-126.268	-96.969	0.316	-0.082
-125.253	-53.134	0.086	-0.039
-124.239	-200.000	-0.012	0.101
-123.224	800.000	-0.110	-0.317
-122.210	-133.470	-0.293	0.036
