DTS Sentinel unit serial number:	SN413079Multiplexer serial number:	ORYXHardware model number:	OX4-SRSoftware version number:	ORYX F/W v4.00 Oryx Data Collector v3.7.2.0data status	okinstallation	princeton_trtdifferential loss correction	single-endedforward channel	channel 1reverse channel	N/Adate	2019/09/15time	22:54:35forward acquisition time	60.00reverse acquisition time	0.00gamma	496.2192k internal	0.2331k external	0.2331temperature offset calibration	0.9966default loss term (dB/km)	0.3790temperature slope calibration	1.0000multiplexer offset coefficient	1.0000multiplexer slope coefficient	1.0000fibre end	0.00T internal ref (°C)	28.69T ext. ref 1 (°C)	8.92T ext. ref 2 (°C)	22.25length (m)	temperature (°C)	Stokes	anti-Stokes-747.200	123.175	0.071	0.090
-746.185	-200.000	0.001	-0.193
-745.171	183.634	-0.013	-0.020
-744.156	342.867	0.098	0.194
-743.142	66.732	-0.085	0.087
-742.127	-200.000	-0.017	0.310
-741.112	71.023	-0.124	0.130
-740.098	800.000	0.025	0.087
-739.083	-200.000	0.037	0.274
-738.069	288.248	0.213	0.387
-737.054	43.822	0.074	0.068
-736.039	-79.369	-0.150	0.051
-735.025	-170.005	0.400	-0.014
-734.010	81.145	-0.249	-0.270
-732.996	83.769	-0.322	-0.353
-731.981	-200.000	-0.037	-0.241
-730.966	44.783	0.103	-0.095
-729.952	-59.570	0.070	0.030
-728.937	-200.000	-0.006	-0.076
-727.923	-83.265	0.128	-0.041
-726.908	-200.000	-0.012	0.056
-725.894	-200.000	-0.020	-0.215
-724.879	-200.000	-0.058	-0.325
-723.864	-200.000	0.023	0.135
-722.850	239.372	-0.103	-0.172
-721.835	-54.983	-0.066	-0.030
-720.821	41.643	-0.211	-0.192
-719.806	189.260	-0.083	-0.125
-718.791	347.271	-0.046	-0.092
-717.777	142.374	-0.201	-0.269
-716.762	95.995	0.092	0.106
-715.748	800.000	0.099	-0.334
-714.733	-98.610	-0.206	-0.053
-713.718	142.001	-0.050	-0.066
-712.704	67.463	-0.224	-0.230
-711.689	225.794	-0.111	-0.180
-710.675	-181.590	0.188	-0.004
-709.660	-102.028	-0.194	-0.047
-708.645	71.760	0.087	-0.091
-707.631	-124.327	-0.284	-0.045
-706.616	-200.000	-0.001	-0.129
-705.602	188.989	0.157	-0.237
-704.587	-124.249	-0.101	0.016
-703.572	288.715	-0.056	-0.101
-702.558	-8.829	0.211	-0.142
-701.543	-200.000	0.003	0.162
-700.529	-26.447	0.132	0.078
-699.514	-125.981	-0.235	-0.036
-698.499	107.304	0.167	0.200
-697.485	-61.225	-0.106	-0.045
-696.470	95.550	-0.148	-0.170
-695.456	325.334	0.169	-0.325
-694.441	294.930	0.114	-0.210
-693.426	-69.443	-0.097	-0.037
-692.412	29.929	0.191	0.163
-691.397	40.175	-0.242	0.218
-690.383	800.000	-0.055	0.232
-689.368	-200.000	0.054	-0.353
-688.354	-74.116	0.194	-0.071
-687.339	-200.000	-0.016	-0.137
-686.324	-101.735	-0.080	0.020
-685.310	800.000	0.049	0.196
-684.295	485.133	-0.072	-0.166
-683.281	754.363	0.101	-0.274
-682.266	-147.946	-0.257	-0.021
-681.251	-75.172	-0.183	-0.066
-680.237	-128.741	0.287	-0.041
-679.222	85.233	0.272	0.299
-678.208	20.939	-0.419	-0.341
-677.193	2.444	0.127	0.093
-676.178	-106.117	-0.187	-0.042
-675.164	297.669	0.076	0.139
-674.149	-200.000	-0.044	-0.332
-673.135	-200.000	-0.027	0.132
-672.120	91.174	-0.081	0.091
-671.105	38.017	0.124	-0.111
-670.091	-200.000	-0.016	-0.192
-669.076	-200.000	0.091	-0.401
-668.062	-65.053	-0.250	0.101
-667.047	77.402	-0.194	0.207
-666.032	102.564	-0.109	0.128
-665.018	136.604	-0.038	0.050
-664.003	31.154	0.056	0.048
-662.989	-76.437	-0.106	0.038
-661.974	433.093	0.064	-0.139
-660.959	438.652	-0.085	0.187
-659.945	-74.856	0.197	0.071
-658.930	-62.268	0.082	-0.034
-657.916	-102.807	0.284	-0.068
-656.901	800.000	0.065	-0.222
-655.886	800.000	-0.093	-0.336
-654.872	-200.000	-0.037	-0.164
-653.857	-54.676	0.161	0.073
-652.843	123.059	-0.068	0.085
-651.828	119.340	0.083	-0.103
-650.814	35.282	0.249	0.219
-649.799	154.241	-0.157	0.216
-648.784	-200.000	-0.079	0.495
-647.770	194.955	0.208	-0.316
-646.755	-200.000	0.005	-0.134
-645.741	-200.000	0.001	-0.056
-644.726	-17.758	-0.149	-0.093
-643.711	121.594	-0.041	0.051
-642.697	800.000	-0.059	-0.185
-641.682	-200.000	0.028	0.171
-640.668	239.891	-0.031	0.052
-639.653	15.471	0.053	-0.042
-638.638	31.839	0.060	0.052
-637.624	4.627	0.045	0.033
-636.609	68.278	0.325	-0.333
-635.595	800.000	-0.089	0.338
-634.580	-42.049	-0.205	-0.105
-633.565	84.006	-0.100	0.110
-632.551	17.245	-0.477	-0.379
-631.536	34.740	-0.063	0.055
-630.522	-102.509	0.071	0.017
-629.507	40.045	-0.142	0.128
-628.492	-200.000	-0.041	0.313
-627.478	-179.785	-0.349	-0.008
-626.463	221.510	-0.081	0.130
-625.449	764.526	-0.039	0.106
-624.434	-13.685	-0.269	0.175
-623.419	-8.929	-0.197	-0.132
-622.405	180.301	-0.072	-0.106
-621.390	-153.028	-0.030	0.002
-620.376	-171.325	0.128	0.004
-619.361	-45.721	0.074	0.037
-618.346	-147.036	0.225	-0.019
-617.332	176.683	-0.189	0.275
-616.317	-91.566	0.081	-0.023
-615.303	451.200	0.072	-0.158
-614.288	73.212	-0.155	0.162
-613.273	-39.233	-0.230	-0.121
-612.259	66.895	0.304	-0.310
-611.244	-56.960	-0.259	0.115
-610.230	71.550	-0.150	0.156
-609.215	-200.000	0.001	-0.138
-608.201	467.419	-0.053	-0.118
-607.186	-100.628	-0.134	0.033
-606.171	-200.000	-0.031	0.191
-605.157	352.259	-0.196	0.389
-604.142	88.944	-0.155	0.173
-603.128	637.357	0.160	0.408
-602.113	239.164	-0.032	-0.053
-601.098	-2.861	-0.129	-0.090
-600.084	-200.000	-0.009	-0.425
-599.069	-36.177	0.405	0.219
-598.055	-125.516	-0.148	-0.022
-597.040	-61.211	-0.117	-0.049
-596.025	-145.635	-0.235	0.021
-595.011	-113.237	0.162	0.032
-593.996	-92.724	0.395	-0.111
-592.982	800.000	0.174	-0.499
-591.967	-72.731	-0.189	0.070
-590.952	-54.023	-0.093	-0.042
-589.938	-200.000	-0.036	-0.276
-588.923	39.896	-0.242	0.218
-587.909	800.000	-0.040	-0.167
-586.894	368.779	0.099	0.201
-585.879	284.420	-0.079	-0.142
-584.865	63.003	-0.083	0.083
-583.850	466.530	-0.029	0.064
-582.836	-75.056	0.152	0.054
-581.821	-200.000	0.028	0.134
-580.806	386.888	0.115	-0.237
-579.792	800.000	-0.063	-0.223
-578.777	-200.000	-0.024	0.199
-577.763	544.897	0.092	0.219
-576.748	-136.383	0.311	-0.036
-575.733	155.568	0.142	0.196
-574.719	-126.463	-0.150	0.022
-573.704	7.750	-0.516	-0.387
-572.690	-184.100	-0.345	-0.006
-571.675	67.857	-0.117	-0.120
-570.661	-200.000	0.012	-0.080
-569.646	800.000	-0.040	0.161
-568.631	-62.870	0.218	-0.090
-567.617	-29.554	-0.131	0.075
-566.602	-23.279	-0.115	-0.069
-565.588	-42.071	-0.091	0.046
-564.573	-76.260	-0.203	0.071
-563.558	-61.156	-0.311	0.131
-562.544	-24.657	0.172	-0.102
-561.529	21.233	-0.190	-0.154
-560.515	-200.000	-0.027	-0.132
-559.500	800.000	0.075	0.291
-558.485	-200.000	-0.004	0.136
-557.471	-55.859	-0.266	0.119
-556.456	800.000	-0.016	-0.063
-555.442	-48.049	0.193	0.093
-554.427	402.359	0.063	0.133
-553.412	252.590	0.045	0.077
-552.398	-78.955	0.231	-0.078
-551.383	56.217	-0.187	-0.181
-550.369	46.767	0.082	-0.076
-549.354	-121.291	-0.135	-0.022
-548.339	245.428	-0.167	0.280
-547.325	108.958	-0.138	0.165
-546.310	-175.398	0.431	0.012
-545.296	800.000	-0.010	-0.044
-544.281	137.459	-0.036	0.047
-543.266	-66.362	0.365	-0.145
-542.252	-73.746	0.095	0.035
-541.237	113.846	0.099	-0.121
-540.223	-73.836	0.192	0.070
-539.208	9.458	-0.179	-0.135
-538.193	166.330	0.172	-0.244
-537.179	151.222	0.121	-0.165
-536.164	31.517	-0.166	-0.143
-535.150	800.000	-0.066	-0.220
-534.135	-93.574	0.259	-0.071
-533.121	115.614	-0.193	0.235
-532.106	77.921	0.132	0.140
-531.091	-20.198	-0.183	-0.112
-530.077	-65.957	-0.419	0.167
-529.062	-200.000	-0.011	0.144
-528.048	-61.317	0.109	-0.046
-527.033	-65.804	-0.255	-0.102
-526.018	-200.000	-0.027	0.177
-525.004	173.273	-0.065	-0.094
-523.989	-200.000	0.016	-0.077
-522.975	-200.000	0.040	0.268
-521.960	-11.648	-0.188	-0.123
-520.945	-87.245	-0.274	-0.083
-519.931	-200.000	0.036	0.185
-518.916	-200.000	-0.043	0.244
-517.902	-23.215	-0.157	-0.094
-516.887	37.037	-0.109	0.096
-515.872	-35.802	0.242	-0.131
-514.858	-68.359	0.143	-0.055
-513.843	105.607	0.121	-0.143
-512.829	4.465	-0.171	-0.125
-511.814	7.222	-0.150	-0.112
-510.799	308.189	-0.059	-0.110
-509.785	95.061	-0.113	-0.129
-508.770	47.012	0.242	-0.224
-507.756	111.263	-0.098	0.118
-506.741	-153.885	0.203	-0.014
-505.726	270.769	-0.046	0.080
-504.712	22.971	0.046	0.038
-503.697	12.333	0.090	0.069
-502.683	-165.223	-0.202	0.009
-501.668	-158.951	-0.300	0.017
-500.653	-154.987	-0.343	-0.022
-499.639	-200.000	-0.001	0.213
-498.624	-48.053	-0.183	0.088
-497.610	148.573	-0.159	-0.214
-496.595	-69.773	0.056	0.021
-495.581	127.920	-0.364	-0.462
-494.566	-113.942	0.186	0.036
-493.551	-200.000	0.017	-0.121
-492.537	-45.092	0.066	-0.033
-491.522	-148.805	0.316	-0.026
-490.508	172.056	0.125	0.179
-489.493	-145.385	0.289	-0.026
-488.478	-200.000	0.029	-0.136
-487.464	-37.165	-0.262	-0.140
-486.449	800.000	0.027	-0.110
-485.435	-200.000	0.020	-0.150
-484.420	367.758	0.128	-0.258
-483.405	24.109	0.239	0.197
-482.391	-200.000	-0.006	0.070
-481.376	-200.000	-0.065	0.441
-480.362	-200.000	-0.024	0.138
-479.347	103.056	-0.195	0.227
-478.332	122.662	0.204	0.254
-477.318	-200.000	0.038	0.239
-476.303	-200.000	-0.029	-0.186
-475.289	-67.360	-0.322	-0.126
-474.274	-200.000	-0.007	-0.481
-473.259	158.995	0.176	-0.243
-472.245	-24.149	0.261	-0.155
-471.230	-200.000	-0.019	-0.132
-470.216	-57.572	0.171	-0.075
-469.201	-45.728	-0.370	-0.182
-468.186	-200.000	-0.003	-0.412
-467.172	-166.658	-0.107	-0.004
-466.157	-200.000	0.059	0.473
-465.143	-24.319	0.245	0.145
-464.128	75.405	0.226	0.237
-463.113	-116.384	0.104	0.019
-462.099	800.000	-0.068	0.272
-461.084	-200.000	-0.012	0.158
-460.070	184.720	0.206	-0.303
-459.055	-200.000	-0.021	-0.258
-458.040	800.000	-0.065	0.190
-457.026	221.276	-0.162	0.259
-456.011	353.562	0.118	0.232
-454.997	-93.297	0.096	0.026
-453.982	-45.540	0.170	0.084
-452.968	318.960	-0.059	0.112
-451.953	-191.218	-0.434	0.004
-450.938	91.057	-0.027	-0.030
-449.924	-87.518	0.059	0.018
-448.909	-4.254	0.122	0.084
-447.895	326.486	-0.153	0.292
-446.880	-200.000	0.019	0.182
-445.865	-200.000	0.043	0.216
-444.851	-200.000	-0.004	-0.075
-443.836	-31.662	-0.149	-0.083
-442.822	-96.759	0.156	-0.041
-441.807	-94.996	-0.162	0.044
-440.792	-200.000	-0.029	0.327
-439.778	-15.242	-0.111	0.070
-438.763	49.853	0.105	0.099
-437.749	-128.303	0.263	0.037
-436.734	644.015	0.201	-0.511
-435.719	800.000	-0.060	0.231
-434.705	93.612	0.088	-0.099
-433.690	428.509	0.126	-0.272
-432.676	800.000	0.061	0.168
-431.661	416.063	0.138	0.292
-430.646	-200.000	0.003	0.129
-429.632	-103.568	0.192	-0.045
-428.617	53.298	-0.201	0.191
-427.603	642.210	0.062	-0.157
-426.588	-31.804	0.206	-0.115
-425.573	65.561	0.133	0.134
-424.559	33.791	-0.231	-0.200
-423.544	696.415	0.084	-0.220
-422.530	204.907	-0.061	-0.095
-421.515	41.125	0.112	0.101
-420.500	-80.074	0.116	-0.039
-419.486	-163.948	0.232	-0.011
-418.471	196.636	0.134	0.203
-417.457	-12.738	0.192	0.124
-416.442	449.559	-0.076	0.167
-415.428	49.705	-0.131	-0.123
-414.413	430.763	-0.169	-0.363
-413.398	105.357	0.073	0.085
-412.384	21.517	-0.252	-0.204
-411.369	-200.000	-0.016	-0.210
-410.355	21.316	-0.266	0.214
-409.340	800.000	-0.150	0.411
-408.325	-158.614	0.177	0.010
-407.311	800.000	-0.040	0.160
-406.296	85.315	0.117	0.127
-405.282	-200.000	-0.005	-0.165
-404.267	-125.262	0.174	-0.026
-403.252	-68.457	-0.147	-0.056
-402.238	-200.000	-0.049	0.267
-401.223	-200.000	0.086	-0.375
-400.209	-200.000	0.085	-0.405
-399.194	494.566	-0.150	0.342
-398.179	-71.845	-0.140	0.052
-397.165	-50.573	0.229	0.107
-396.150	674.175	0.021	0.053
-395.136	-200.000	0.012	-0.213
-394.121	800.000	0.019	-0.059
-393.106	-200.000	0.065	-0.296
-392.092	800.000	-0.109	0.391
-391.077	-200.000	-0.036	-0.439
-390.063	-103.292	-0.345	0.081
-389.048	-200.000	-0.016	0.112
-388.033	800.000	-0.067	-0.211
-387.019	-200.000	-0.004	0.051
-386.004	-0.711	0.038	-0.027
-384.990	301.522	0.092	0.168
-383.975	131.169	-0.157	-0.200
-382.960	-44.653	-0.336	0.166
-381.946	788.641	0.068	-0.186
-380.931	169.275	0.139	0.197
-379.917	-85.257	-0.104	-0.032
-378.902	586.372	0.027	0.065
-377.888	301.370	-0.157	0.287
-376.873	-142.714	0.265	0.026
-375.858	65.345	-0.121	0.122
-374.844	-200.000	0.024	-0.188
-373.829	47.017	-0.168	-0.155
-372.815	-89.123	-0.125	0.037
-371.800	-6.086	0.094	-0.064
-370.785	-52.984	-0.194	0.088
-369.771	87.384	-0.219	-0.240
-368.756	-103.222	0.108	-0.025
-367.742	-200.000	0.061	0.344
-366.727	141.192	-0.189	0.248
-365.712	-0.641	0.234	0.164
-364.698	-200.000	-0.005	-0.077
-363.683	538.161	0.100	-0.235
-362.669	443.915	-0.118	0.256
-361.654	-51.616	-0.103	0.048
-360.639	-200.000	0.358	0.001
-359.625	-87.643	0.100	0.030
-358.610	-51.569	0.121	-0.056
-357.596	-47.198	-0.202	0.098
-356.581	-53.704	0.116	-0.052
-355.566	800.000	-0.050	-0.176
-354.552	-79.972	0.158	0.053
-353.537	-101.399	0.159	0.039
-352.523	-99.269	0.181	0.045
-351.508	39.653	-0.066	0.058
-350.493	263.430	0.166	-0.287
-349.479	-24.961	0.163	0.096
-348.464	289.698	0.033	-0.060
-347.450	138.749	-0.134	-0.174
-346.435	34.175	0.111	0.095
-345.420	364.740	-0.223	0.445
-344.406	216.570	0.115	0.182
-343.391	-57.892	-0.202	0.087
-342.377	53.926	-0.126	-0.120
-341.362	800.000	0.040	0.111
-340.348	-9.418	-0.275	-0.182
-339.333	-200.000	-0.003	0.036
-338.318	634.248	0.026	-0.065
-337.304	11.246	-0.384	-0.291
-336.289	-2.229	0.156	0.108
-335.275	17.508	-0.212	-0.167
-334.260	289.781	-0.052	-0.094
-333.245	-151.911	-0.209	-0.015
-332.231	126.858	-0.087	0.109
-331.216	-116.974	0.325	0.059
-330.202	118.167	0.046	-0.057
-329.187	-200.000	-0.045	-0.497
-328.172	32.116	0.185	-0.158
-327.158	111.367	-0.122	-0.146
-326.143	16.839	0.146	-0.114
-325.129	-13.533	0.199	0.127
-324.114	783.077	0.126	0.340
-323.099	-132.720	0.059	-0.008
-322.085	-102.669	0.197	0.047
-321.070	-147.475	0.047	-0.004
-320.056	-200.000	0.004	0.033
-319.041	4.126	-0.197	0.143
-318.026	-47.540	0.104	-0.050
-317.012	-72.226	0.075	-0.027
-315.997	110.630	0.142	-0.169
-314.983	-200.000	0.002	0.049
-313.968	643.467	-0.044	0.112
-312.953	15.422	0.133	-0.103
-311.939	187.387	0.180	0.265
-310.924	800.000	0.020	0.070
-309.910	200.986	-0.141	-0.214
-308.895	-118.146	0.323	-0.057
-307.880	-49.707	-0.174	-0.082
-306.866	210.661	0.062	-0.096
-305.851	-200.000	-0.008	-0.041
-304.837	3.764	-0.145	-0.105
-303.822	767.047	0.046	-0.124
-302.807	800.000	0.045	0.127
-301.793	800.000	-0.137	0.414
-300.778	9.131	0.318	-0.237
-299.764	800.000	-0.065	-0.183
-298.749	255.151	-0.214	-0.362
-297.735	-200.000	-0.021	0.205
-296.720	-193.204	-0.148	-0.001
-295.705	-34.635	-0.177	-0.096
-294.691	130.489	0.161	-0.205
-293.676	-200.000	-0.016	-0.105
-292.662	-179.649	0.185	-0.004
-291.647	66.704	-0.210	-0.211
-290.632	66.594	-0.087	-0.088
-289.618	169.904	-0.093	-0.131
-288.603	-159.495	0.161	-0.009
-287.589	-200.000	0.012	-0.173
-286.574	234.029	0.147	-0.239
-285.559	-200.000	0.007	0.124
-284.545	-116.397	-0.316	-0.058
-283.530	-200.000	-0.054	-0.279
-282.516	30.257	0.114	0.096
-281.501	800.000	-0.076	0.254
-280.486	-195.271	0.467	0.003
-279.472	-12.127	-0.080	0.052
-278.457	-42.869	0.159	0.080
-277.443	591.211	-0.056	-0.137
-276.428	103.542	0.125	0.145
-275.413	300.292	0.124	-0.226
-274.399	2.839	-0.034	-0.024
-273.384	-52.292	0.641	0.293
-272.370	800.000	0.051	-0.176
-271.355	434.347	0.042	0.090
-270.340	589.929	0.113	-0.276
-269.326	325.287	-0.100	0.188
-268.311	-48.684	0.224	-0.106
-267.297	-200.000	-0.003	0.234
-266.282	399.900	0.164	-0.340
-265.267	-200.000	-0.018	-0.135
-264.253	61.855	0.080	-0.079
-263.238	-7.947	0.203	0.135
-262.224	234.301	0.170	0.276
-261.209	800.000	0.028	-0.093
-260.195	469.752	-0.064	-0.141
-259.180	800.000	0.090	-0.335
-258.165	-42.334	-0.241	0.121
-257.151	-200.000	0.102	0.548
-256.136	-87.261	0.215	0.064
-255.122	-200.000	0.036	0.258
-254.107	-153.645	0.292	-0.020
-253.092	-102.006	0.065	0.016
-252.078	118.427	-0.175	-0.213
-251.063	-102.372	0.105	0.025
-250.049	-72.702	-0.079	0.029
-249.034	59.488	0.154	-0.150
-248.019	78.358	0.091	-0.096
-247.005	371.384	-0.139	0.278
-245.990	-46.152	0.047	0.023
-244.976	-18.343	0.261	0.161
-243.961	-133.365	-0.363	0.045
-242.946	-74.897	0.112	0.039
-241.932	149.019	-0.226	-0.301
-240.917	-174.101	-0.226	0.007
-239.903	468.458	-0.058	-0.128
-238.888	55.515	0.015	0.014
-237.873	-140.116	0.163	-0.017
-236.859	-169.887	0.316	-0.011
-235.844	-110.160	0.306	-0.063
-234.830	-94.998	-0.080	-0.021
-233.815	-200.000	0.049	-0.235
-232.800	-186.891	-0.110	-0.002
-231.786	295.742	-0.120	0.218
-230.771	-80.834	0.331	0.108
-229.757	-200.000	0.009	0.279
-228.742	-121.672	-0.386	0.063
-227.727	98.899	0.157	-0.179
-226.713	-89.778	0.185	0.053
-225.698	25.927	-0.137	-0.113
-224.684	69.676	0.378	-0.384
-223.669	253.903	-0.083	0.141
-222.655	-79.844	-0.300	0.100
-221.640	-141.333	-0.134	0.013
-220.625	-113.233	-0.064	-0.013
-219.611	51.202	0.099	0.093
-218.596	-68.644	0.293	0.112
-217.582	16.390	0.079	0.061
-216.567	57.506	-0.096	0.093
-215.552	800.000	-0.078	0.256
-214.538	247.088	0.210	0.350
-213.523	-161.762	0.238	0.012
-212.509	800.000	0.084	-0.313
-211.494	-49.628	0.105	0.049
-210.479	-89.584	-0.324	0.094
-209.465	46.263	-0.037	-0.034
-208.450	-200.000	-0.035	-0.208
-207.436	-124.418	-0.195	-0.030
-206.421	-27.703	-0.190	-0.109
-205.406	640.009	-0.059	0.148
-204.392	122.861	-0.183	-0.226
-203.377	98.408	-0.231	0.262
-202.363	-200.000	-0.026	0.178
-201.348	-200.000	-0.028	-0.142
-200.333	-100.656	-0.191	0.046
-199.319	65.890	0.147	0.147
-198.304	72.181	-0.031	-0.032
-197.290	800.000	0.069	0.277
-196.275	-36.780	0.209	-0.110
-195.260	698.936	0.155	-0.401
-194.246	800.000	0.106	-0.370
-193.231	-129.702	0.174	0.024
-192.217	-200.000	-0.086	0.503
-191.202	-200.000	0.035	0.264
-190.187	-200.000	-0.010	-0.182
-189.173	57.875	-0.236	-0.228
-188.158	-95.612	-0.065	-0.017
-187.144	-200.000	0.051	-0.256
-186.129	416.581	-0.188	-0.394
-185.114	-200.000	0.009	0.189
-184.100	-36.783	-0.187	0.099
-183.085	-80.429	0.484	0.159
-182.071	196.041	-0.035	-0.053
-181.056	66.072	-0.108	-0.108
-180.042	-101.793	-0.154	0.037
-179.027	88.711	-0.182	0.199
-178.012	-49.831	-0.227	-0.106
-176.998	50.775	0.192	-0.179
-175.983	31.936	0.146	0.124
-174.969	-82.014	-0.136	-0.044
-173.954	-200.000	-0.007	-0.067
-172.939	-200.000	0.001	0.152
-171.925	-200.000	-0.006	0.186
-170.910	-92.155	0.273	-0.076
-169.896	-3.858	0.214	0.146
-168.881	-142.141	0.165	-0.016
-167.866	-112.238	0.232	-0.046
-166.852	-196.747	-0.075	0.000
-165.837	-200.000	0.015	-0.525
-164.823	-37.264	0.169	0.089
-163.808	-148.886	0.415	-0.033
-162.793	451.700	-0.120	0.261
-161.779	-200.000	0.088	0.389
-160.764	-16.345	-0.128	-0.080
-159.750	-54.128	-0.153	-0.068
-158.735	-41.014	-0.144	0.073
-157.720	-133.963	-0.160	-0.019
-156.706	-63.724	0.182	-0.073
-155.691	-63.300	-0.199	-0.081
-154.677	-13.186	0.268	-0.171
-153.662	-87.636	-0.072	0.022
-152.647	800.000	-0.054	0.230
-151.633	116.953	0.057	-0.069
-150.618	166.344	0.244	0.340
-149.604	23.252	-0.141	0.114
-148.589	67.166	-0.140	-0.141
-147.574	65.473	-0.146	0.145
-146.560	76.223	-0.177	0.185
-145.545	-120.377	-0.344	0.058
-144.531	-200.000	0.002	0.374
-143.516	-20.206	-0.302	0.183
-142.502	-72.001	0.565	-0.206
-141.487	-48.282	-0.568	0.269
-140.472	-15.428	0.223	-0.140
-139.458	-200.000	-0.004	-0.354
-138.443	-88.000	0.203	0.060
-137.429	-120.304	-0.091	-0.015
-136.414	161.523	0.247	0.339
-135.399	800.000	-0.031	0.106
-134.385	334.062	0.078	0.148
-133.370	-200.000	0.001	0.132
-132.356	138.772	-0.057	-0.073
-131.341	-167.667	0.125	0.005
-130.326	-149.955	-0.314	0.024
-129.312	192.957	-0.095	-0.142
-128.297	800.000	0.139	-0.395
-127.283	-23.667	-0.402	-0.237
-126.268	-6.102	0.237	0.159
-125.253	-133.948	0.131	0.016
-124.239	800.000	0.052	0.186
-123.224	-52.957	-0.152	-0.069
-122.210	-113.860	0.249	-0.047
