DTS Sentinel unit serial number:	SN413079Multiplexer serial number:	ORYXHardware model number:	OX4-SRSoftware version number:	ORYX F/W v4.00 Oryx Data Collector v3.7.2.0data status	okinstallation	princeton_trtdifferential loss correction	single-endedforward channel	channel 1reverse channel	N/Adate	2019/09/14time	19:38:35forward acquisition time	60.00reverse acquisition time	0.00gamma	496.2192k internal	0.2313k external	0.2313temperature offset calibration	1.0022default loss term (dB/km)	0.3790temperature slope calibration	1.0000multiplexer offset coefficient	1.0000multiplexer slope coefficient	1.0000fibre end	0.00T internal ref (°C)	34.56T ext. ref 1 (°C)	4.87T ext. ref 2 (°C)	28.80length (m)	temperature (°C)	Stokes	anti-Stokes-747.200	-125.432	0.076	-0.012
-746.185	605.339	-0.136	0.344
-745.171	-200.000	-0.261	-0.001
-744.156	26.436	-0.067	0.056
-743.142	34.577	0.011	0.010
-742.127	408.803	-0.139	0.299
-741.112	63.043	-0.045	0.046
-740.098	-11.687	0.331	-0.220
-739.083	-200.000	0.008	-0.345
-738.069	-52.633	-0.152	0.071
-737.054	4.232	0.241	0.179
-736.039	192.994	-0.205	-0.314
-735.025	472.738	0.137	0.314
-734.010	-124.692	0.069	-0.011
-732.996	-200.000	0.028	-0.263
-731.981	-86.986	-0.174	-0.054
-730.966	-159.329	0.245	-0.014
-729.952	800.000	0.081	-0.288
-728.937	-89.475	-0.084	-0.025
-727.923	-107.069	-0.467	-0.104
-726.908	-64.546	-0.143	0.059
-725.894	40.393	0.035	-0.032
-724.879	-54.752	0.390	-0.179
-723.864	-7.271	-0.360	0.247
-722.850	-73.733	0.181	0.067
-721.835	52.956	-0.082	-0.080
-720.821	-116.911	-0.235	-0.044
-719.806	19.880	0.080	0.065
-718.791	-152.372	-0.126	0.009
-717.777	644.420	-0.148	-0.383
-716.762	23.572	0.393	-0.328
-715.748	-52.051	-0.105	-0.049
-714.733	260.663	-0.067	-0.117
-713.718	353.601	-0.122	-0.245
-712.704	-37.262	0.320	0.174
-711.689	-46.941	-0.171	-0.085
-710.675	-56.726	-0.099	0.044
-709.660	-88.139	-0.444	0.135
-708.645	443.910	0.110	-0.245
-707.631	-200.000	-0.036	-0.395
-706.616	103.832	-0.122	0.145
-705.602	-78.996	0.051	-0.018
-704.587	800.000	0.104	-0.336
-703.572	349.156	-0.169	0.339
-702.558	463.218	0.042	-0.094
-701.543	800.000	0.059	-0.208
-700.529	685.633	-0.110	-0.291
-699.514	-148.022	0.425	-0.036
-698.499	177.075	-0.068	-0.100
-697.485	800.000	-0.054	-0.193
-696.470	-35.217	-0.214	-0.118
-695.456	-55.393	-0.290	-0.132
-694.441	19.798	-0.173	-0.141
-693.426	377.420	-0.052	-0.108
-692.412	90.564	0.166	0.188
-691.397	-10.341	0.093	-0.063
-690.383	-122.186	0.050	0.008
-689.368	800.000	0.066	-0.265
-688.354	409.916	-0.031	-0.066
-687.339	-127.793	-0.170	0.025
-686.324	-191.947	0.198	0.002
-685.310	326.207	-0.090	-0.174
-684.295	-94.915	-0.375	-0.103
-683.281	27.713	-0.166	-0.142
-682.266	-200.000	0.029	-0.409
-681.251	-200.000	0.013	0.271
-680.237	-142.215	-0.138	0.014
-679.222	-200.000	-0.003	0.135
-678.208	381.979	0.033	-0.070
-677.193	-108.278	-0.061	0.013
-676.178	72.340	-0.191	0.202
-675.164	-167.159	-0.293	-0.012
-674.149	-9.302	-0.119	-0.080
-673.135	-133.907	-0.205	-0.026
-672.120	-200.000	0.033	-0.395
-671.105	219.654	0.174	-0.282
-670.091	-79.285	-0.312	0.107
-669.076	12.049	-0.067	0.052
-668.062	-200.000	-0.026	0.177
-667.047	33.362	-0.250	0.220
-666.032	240.178	0.116	0.195
-665.018	80.799	0.228	0.249
-664.003	61.464	0.176	0.177
-662.989	-132.598	-0.192	-0.025
-661.974	538.586	0.095	-0.228
-660.959	-98.362	-0.026	0.007
-659.945	800.000	0.061	0.242
-658.930	662.613	-0.110	0.286
-657.916	-133.642	0.172	-0.022
-656.901	800.000	-0.017	0.047
-655.886	288.439	0.175	0.320
-654.872	-24.454	-0.201	-0.121
-653.857	-183.430	-0.168	-0.003
-652.843	618.955	0.070	-0.177
-651.828	-91.909	-0.157	0.045
-650.814	-113.367	0.056	-0.011
-649.799	-165.044	0.333	-0.015
-648.784	262.980	0.176	-0.308
-647.770	162.160	-0.264	0.374
-646.755	140.992	0.152	-0.203
-645.741	-46.686	0.200	-0.099
-644.726	800.000	-0.103	-0.296
-643.711	-64.117	-0.089	-0.037
-642.697	17.271	-0.116	-0.093
-641.682	-123.203	-0.271	-0.044
-640.668	52.849	0.134	-0.130
-639.653	313.819	-0.123	-0.235
-638.638	-200.000	0.023	0.178
-637.624	-8.320	-0.271	0.184
-636.609	-200.000	-0.028	0.125
-635.595	-79.566	-0.246	0.084
-634.580	84.102	-0.139	0.153
-633.565	307.668	0.091	0.172
-632.551	230.777	-0.085	-0.141
-631.536	164.627	-0.089	0.127
-630.522	-106.771	0.166	0.037
-629.507	-132.016	-0.156	0.020
-628.492	-200.000	0.019	-0.208
-627.478	-115.034	0.192	0.037
-626.463	-56.607	-0.334	0.149
-625.449	499.477	0.097	0.225
-624.434	148.329	-0.049	-0.067
-623.419	-115.445	0.209	0.040
-622.405	-79.269	-0.194	-0.066
-621.390	29.985	-0.287	-0.247
-620.376	-200.000	-0.021	-0.242
-619.361	-42.208	0.221	-0.114
-618.346	800.000	0.024	0.080
-617.332	-78.609	0.119	-0.041
-616.317	-200.000	-0.184	-0.000
-615.303	-29.343	0.132	-0.076
-614.288	75.150	-0.130	0.138
-613.273	-200.000	0.006	0.068
-612.259	-41.381	0.225	0.117
-611.244	800.000	0.090	0.282
-610.230	211.764	0.067	0.107
-609.215	765.929	-0.046	0.126
-608.201	-14.324	0.328	-0.213
-607.186	-58.338	-0.060	0.026
-606.171	-35.991	-0.240	-0.131
-605.157	32.689	-0.034	-0.030
-604.142	245.743	-0.106	-0.180
-603.128	-200.000	0.021	0.163
-602.113	-200.000	0.025	0.344
-601.098	-56.993	0.134	0.060
-600.084	-102.473	-0.259	-0.063
-599.069	181.899	0.168	-0.250
-598.055	-4.008	0.212	-0.149
-597.040	-14.493	0.282	0.183
-596.025	-200.000	0.001	0.053
-595.011	618.085	-0.049	-0.123
-593.996	8.784	-0.089	0.068
-592.982	226.536	-0.098	0.160
-591.967	-89.506	-0.233	-0.069
-590.952	-200.000	0.091	0.408
-589.938	-89.229	0.118	-0.035
-588.923	-200.000	0.003	0.279
-587.909	-58.416	0.068	-0.030
-586.894	40.852	0.255	0.232
-585.879	800.000	-0.027	-0.082
-584.865	800.000	-0.046	0.194
-583.850	-200.000	-0.013	-0.182
-582.836	-200.000	-0.016	-0.130
-581.821	473.005	0.010	0.024
-580.806	424.354	0.034	0.074
-579.792	-199.968	-0.330	-0.002
-578.777	1.638	-0.316	0.229
-577.763	278.674	-0.078	0.140
-576.748	-115.223	-0.197	-0.038
-575.733	-200.000	0.116	0.001
-574.719	-106.531	-0.199	0.045
-573.704	151.198	-0.149	-0.204
-572.690	4.685	-0.338	-0.250
-571.675	-45.516	0.327	0.163
-570.661	-200.000	-0.002	0.245
-569.646	-66.934	0.099	-0.039
-568.631	359.902	0.054	-0.110
-567.617	-150.766	0.271	0.021
-566.602	-55.676	-0.159	-0.071
-565.588	107.481	-0.125	0.149
-564.573	-157.053	0.244	0.015
-563.558	-17.694	-0.330	0.209
-562.544	184.415	-0.148	-0.221
-561.529	91.499	-0.198	0.224
-560.515	600.823	-0.028	0.069
-559.500	70.281	-0.170	-0.177
-558.485	800.000	0.072	-0.204
-557.471	39.263	0.192	0.173
-556.456	-200.000	-0.003	0.108
-555.442	-5.947	0.335	-0.231
-554.427	237.113	-0.157	0.261
-553.412	-81.320	-0.240	-0.080
-552.398	386.898	-0.064	0.133
-551.383	-127.258	-0.312	-0.046
-550.369	-147.288	-0.222	0.019
-549.354	800.000	0.093	0.367
-548.339	-163.451	-0.447	0.021
-547.325	31.100	0.208	-0.180
-546.310	-200.000	-0.047	0.228
-545.296	131.034	0.130	-0.168
-544.281	-23.420	0.194	0.117
-543.266	369.425	-0.051	0.104
-542.252	-200.000	0.002	-0.388
-541.237	123.158	0.134	-0.169
-540.223	800.000	0.051	0.183
-539.208	-78.357	-0.094	-0.033
-538.193	19.728	0.164	0.133
-537.179	-28.778	0.119	-0.069
-536.164	-110.412	-0.339	0.071
-535.150	-200.000	-0.024	-0.266
-534.135	-200.000	0.049	-0.341
-533.121	-31.234	-0.226	0.128
-532.106	800.000	-0.077	-0.214
-531.091	176.708	0.022	0.032
-530.077	72.676	0.169	0.178
-529.062	-200.000	-0.030	0.135
-528.048	-149.819	0.143	-0.011
-527.033	800.000	0.043	0.134
-526.018	547.981	0.100	0.240
-525.004	747.287	0.103	0.279
-523.989	10.220	0.142	0.109
-522.975	-37.709	-0.342	-0.183
-521.960	-137.343	0.454	0.052
-520.945	-72.677	-0.124	-0.046
-519.931	258.367	0.190	0.329
-518.916	78.488	0.262	0.281
-517.902	771.370	0.107	0.292
-516.887	-200.000	0.018	0.278
-515.872	122.778	0.184	-0.232
-514.858	-71.248	-0.235	-0.089
-513.843	302.105	0.137	0.254
-512.829	-50.975	0.149	0.070
-511.814	800.000	0.036	0.105
-510.799	292.174	0.187	-0.343
-509.785	180.756	-0.269	0.397
-508.770	-71.756	-0.100	0.037
-507.756	-88.776	-0.098	0.029
-506.741	-200.000	-0.009	0.131
-505.726	611.978	0.048	-0.122
-504.712	-4.133	-0.198	0.138
-503.697	-84.792	0.207	-0.065
-502.683	399.622	0.121	0.255
-501.668	-126.929	-0.250	-0.037
-500.653	197.807	-0.103	0.159
-499.639	-88.192	0.260	0.078
-498.624	172.165	-0.309	-0.446
-497.610	65.632	0.156	-0.159
-496.595	-6.833	-0.300	0.205
-495.581	31.396	0.084	-0.073
-494.566	-148.760	0.313	0.025
-493.551	21.812	0.041	-0.033
-492.537	114.380	-0.020	0.025
-491.522	600.260	-0.077	-0.192
-490.508	-200.000	0.006	-0.102
-489.493	342.702	-0.077	-0.152
-488.478	-135.169	-0.187	-0.023
-487.464	165.496	-0.137	0.195
-486.449	751.169	-0.089	-0.240
-485.435	69.053	0.108	-0.112
-484.420	-115.226	0.460	-0.087
-483.405	-34.000	0.278	-0.154
-482.391	-200.000	-0.035	0.271
-481.376	-200.000	-0.045	0.387
-480.362	143.941	-0.147	0.197
-479.347	7.502	0.359	-0.270
-478.332	-137.598	0.280	-0.032
-477.318	800.000	-0.104	-0.355
-476.303	-66.570	0.217	0.086
-475.289	2.216	0.191	-0.138
-474.274	-81.547	-0.271	-0.089
-473.259	-200.000	0.006	-0.399
-472.245	-200.000	-0.022	0.250
-471.230	-108.788	-0.291	-0.063
-470.216	289.315	-0.073	-0.133
-469.201	367.967	-0.033	-0.067
-468.186	-200.000	-0.005	-0.057
-467.172	-123.279	-0.258	0.041
-466.157	-76.857	-0.060	0.021
-465.143	-112.614	-0.309	-0.062
-464.128	-99.034	-0.266	-0.068
-463.113	15.394	0.100	0.079
-462.099	-38.968	0.239	0.126
-461.084	273.180	-0.068	0.121
-460.070	-125.068	-0.296	-0.046
-459.055	-14.793	0.221	0.142
-458.040	237.267	-0.188	-0.313
-457.026	199.415	-0.177	0.273
-456.011	-109.368	0.166	0.035
-454.997	164.579	0.052	0.074
-453.982	-200.000	0.037	0.229
-452.968	420.526	0.150	0.321
-451.953	207.669	0.071	0.112
-450.938	-200.000	-0.054	-0.256
-449.924	-47.029	-0.179	0.087
-448.909	-148.097	0.137	-0.011
-447.895	58.323	0.133	0.130
-446.880	-200.000	0.027	0.333
-445.865	129.535	-0.193	-0.248
-444.851	-200.000	0.013	-0.159
-443.836	-44.115	-0.060	0.030
-442.822	-200.000	-0.055	-0.355
-441.807	325.591	0.023	-0.044
-440.792	173.465	-0.050	0.073
-439.778	-72.406	-0.102	0.038
-438.763	-59.604	-0.218	-0.094
-437.749	5.080	0.108	-0.080
-436.734	146.044	0.238	-0.320
-435.719	-200.000	0.024	0.122
-434.705	-68.565	0.379	-0.147
-433.690	10.134	-0.239	0.182
-432.676	-147.532	-0.177	0.015
-431.661	-49.205	-0.086	-0.041
-430.646	194.272	0.150	0.228
-429.632	-200.000	0.032	-0.219
-428.617	-66.657	0.086	-0.034
-427.603	305.659	-0.139	-0.259
-426.588	-50.032	0.300	-0.142
-425.573	800.000	0.066	0.234
-424.559	-64.411	-0.076	0.031
-423.544	124.275	-0.065	0.082
-422.530	-75.650	0.088	0.031
-421.515	-6.658	-0.100	-0.068
-420.500	70.129	-0.344	0.356
-419.486	-34.481	0.182	0.100
-418.471	-89.587	-0.298	-0.088
-417.457	800.000	-0.068	-0.274
-416.442	281.934	-0.115	-0.207
-415.428	85.644	-0.026	0.029
-414.413	-140.215	-0.385	0.040
-413.398	164.536	-0.122	0.173
-412.384	15.143	0.165	-0.129
-411.369	220.713	0.067	0.108
-410.355	7.284	0.277	0.207
-409.340	-99.350	0.113	0.029
-408.325	800.000	-0.014	0.055
-407.311	-53.140	0.255	0.117
-406.296	-99.575	-0.131	-0.033
-405.282	800.000	0.120	0.406
-404.267	-200.000	0.022	-0.143
-403.252	145.094	-0.084	-0.112
-402.238	-94.025	-0.123	0.034
-401.223	-200.000	-0.077	-0.344
-400.209	800.000	-0.032	-0.135
-399.194	324.872	0.086	0.165
-398.179	305.912	0.127	0.236
-397.165	-200.000	-0.049	-0.253
-396.150	-79.029	-0.443	-0.151
-395.136	-99.161	0.186	0.047
-394.121	53.665	-0.391	-0.375
-393.106	530.036	-0.078	-0.184
-392.092	800.000	-0.105	-0.305
-391.077	325.317	-0.140	0.268
-390.063	-106.465	-0.173	0.039
-389.048	-200.000	-0.011	0.068
-388.033	36.023	-0.169	-0.149
-387.019	800.000	-0.065	-0.257
-386.004	-200.000	0.061	-0.272
-384.990	-106.668	-0.107	-0.024
-383.975	-134.010	-0.292	0.036
-382.960	4.145	-0.057	0.042
-381.946	-43.725	0.158	-0.079
-380.931	148.696	-0.136	0.184
-379.917	196.903	0.142	-0.217
-378.902	25.786	-0.104	0.087
-377.888	-49.602	-0.442	-0.210
-376.873	-154.433	-0.095	0.006
-375.858	-200.000	0.057	-0.395
-374.844	29.940	0.254	0.216
-373.829	6.465	0.082	-0.061
-372.815	-55.561	-0.255	-0.114
-371.800	-172.119	-0.258	0.008
-370.785	186.434	0.049	0.073
-369.771	13.810	-0.120	-0.093
-368.756	-60.121	-0.268	-0.114
-367.742	606.022	-0.036	0.090
-366.727	-141.466	0.182	-0.018
-365.712	-55.047	-0.225	-0.101
-364.698	44.428	0.152	0.139
-363.683	-62.808	-0.122	0.051
-362.669	-109.842	0.381	-0.080
-361.654	-134.739	0.092	0.011
-360.639	-35.579	-0.162	-0.088
-359.625	88.765	0.229	-0.254
-358.610	-174.481	-0.265	-0.008
-357.596	118.792	-0.106	-0.131
-356.581	-139.770	0.060	0.006
-355.566	-132.570	-0.122	-0.016
-354.552	-86.012	0.111	0.034
-353.537	55.182	0.187	0.181
-352.523	-3.530	-0.212	0.147
-351.508	-48.748	0.193	0.092
-350.493	-200.000	-0.017	0.083
-349.479	594.162	-0.091	0.226
-348.464	721.803	0.101	0.269
-347.450	-7.495	0.057	-0.038
-346.435	-97.438	-0.250	-0.065
-345.420	-200.000	0.003	-0.222
-344.406	-139.352	0.367	-0.039
-343.391	-159.621	-0.110	0.006
-342.377	91.493	0.345	-0.387
-341.362	-97.443	-0.150	0.039
-340.348	-200.000	0.018	-0.135
-339.333	-127.537	0.262	-0.038
-338.318	52.692	0.125	-0.119
-337.304	190.668	-0.098	-0.147
-336.289	-104.617	-0.184	-0.042
-335.275	27.747	0.171	0.144
-334.260	365.714	-0.088	0.177
-333.245	-45.575	0.338	-0.167
-332.231	-200.000	0.056	-0.342
-331.216	-57.400	-0.146	-0.064
-330.202	-15.991	0.259	-0.165
-329.187	-200.000	0.019	-0.307
-328.172	652.349	0.098	0.250
-327.158	290.505	-0.165	0.298
-326.143	-200.000	-0.041	-0.294
-325.129	-127.490	-0.250	0.036
-324.114	153.521	0.221	0.303
-323.099	62.189	-0.016	-0.016
-322.085	-107.534	-0.160	-0.035
-321.070	800.000	-0.171	0.544
-320.056	-200.000	0.001	0.057
-319.041	-200.000	-0.037	-0.272
-318.026	-45.145	-0.228	-0.113
-317.012	-200.000	0.011	-0.053
-315.997	800.000	0.102	-0.415
-314.983	-44.191	-0.197	0.099
-313.968	-200.000	0.027	-0.184
-312.953	-195.528	0.266	0.002
-311.939	-63.794	0.143	0.058
-310.924	427.679	-0.032	-0.069
-309.910	59.064	0.155	-0.152
-308.895	-2.521	-0.150	-0.105
-307.880	-33.139	-0.175	0.097
-306.866	-200.000	0.006	-0.404
-305.851	-120.291	-0.140	-0.024
-304.837	-8.354	-0.276	-0.185
-303.822	314.238	-0.026	-0.050
-302.807	-85.980	-0.189	-0.058
-301.793	-156.046	0.090	-0.006
-300.778	-200.000	-0.002	-0.209
-299.764	-62.220	-0.280	0.116
-298.749	-0.434	-0.109	-0.077
-297.735	291.582	-0.049	0.089
-296.720	800.000	-0.071	0.234
-295.705	-170.406	0.456	-0.016
-294.691	-200.000	0.053	0.312
-293.676	137.146	-0.056	0.073
-292.662	-124.473	0.140	-0.022
-291.647	136.285	-0.122	-0.158
-290.632	-200.000	-0.001	0.150
-289.618	-75.942	0.186	0.066
-288.603	-166.644	-0.226	-0.009
-287.589	414.447	-0.103	-0.218
-286.574	338.493	0.150	-0.291
-285.559	-81.578	-0.221	0.072
-284.545	-200.000	-0.014	0.232
-283.530	-76.060	0.134	-0.047
-282.516	-97.380	0.333	0.086
-281.501	320.997	0.086	-0.162
-280.486	-75.639	-0.254	-0.090
-279.472	-66.789	0.080	-0.032
-278.457	-24.982	0.274	-0.162
-277.443	138.011	-0.148	0.193
-276.428	87.145	0.081	-0.090
-275.413	404.160	0.107	0.224
-274.399	487.792	-0.112	0.254
-273.384	-200.000	0.016	0.167
-272.370	-33.811	0.226	0.124
-271.355	215.915	-0.163	0.258
-270.340	384.991	0.050	-0.102
-269.326	638.499	0.028	0.072
-268.311	-200.000	0.013	-0.078
-267.297	-108.228	0.256	-0.055
-266.282	120.729	0.108	-0.133
-265.267	158.603	-0.104	0.144
-264.253	493.572	0.013	-0.031
-263.238	551.866	-0.168	-0.401
-262.224	59.276	-0.266	-0.260
-261.209	-17.619	0.222	-0.139
-260.195	-1.644	0.111	-0.078
-259.180	374.916	0.069	0.141
-258.165	-22.788	0.062	0.037
-257.151	800.000	-0.030	0.124
-256.136	104.146	0.075	-0.088
-255.122	319.191	0.058	0.109
-254.107	-76.225	0.358	0.126
-253.092	61.768	0.275	0.272
-252.078	218.243	0.216	0.343
-251.063	-4.078	-0.081	0.056
-250.049	59.014	-0.017	-0.017
-249.034	-200.000	-0.008	0.035
-248.019	5.364	0.340	0.249
-247.005	-53.888	-0.198	0.090
-245.990	-65.456	-0.109	0.043
-244.976	7.732	0.044	-0.033
-243.961	-200.000	-0.008	-0.090
-242.946	-143.534	0.168	-0.016
-241.932	44.011	-0.279	-0.254
-240.917	346.187	0.119	-0.233
-239.903	37.537	-0.106	0.094
-238.888	-104.196	-0.252	0.058
-237.873	-200.000	-0.023	-0.281
-236.859	-57.995	0.238	-0.103
-235.844	147.070	0.109	-0.146
-234.830	466.634	-0.055	0.122
-233.815	96.997	0.147	0.167
-232.800	263.075	0.075	0.129
-231.786	438.344	-0.124	0.270
-230.771	24.185	0.073	-0.060
-229.757	-181.754	0.364	-0.007
-228.742	-136.816	-0.134	-0.015
-227.727	-142.501	-0.207	0.020
-226.713	-16.603	-0.043	0.027
-225.698	557.957	-0.070	0.167
-224.684	-105.755	-0.178	-0.040
-223.669	4.956	-0.035	0.026
-222.655	687.387	-0.019	0.048
-221.640	95.722	0.036	-0.040
-220.625	-200.000	0.019	-0.452
-219.611	230.987	-0.094	-0.153
-218.596	800.000	0.073	-0.258
-217.582	282.364	0.052	0.093
-216.567	127.904	0.162	0.205
-215.552	-200.000	0.007	0.052
-214.538	-100.980	0.254	-0.062
-213.523	27.588	-0.036	0.030
-212.509	-54.820	0.443	0.199
-211.494	625.715	0.089	0.224
-210.479	-105.523	-0.373	0.084
-209.465	133.110	0.072	-0.093
-208.450	450.687	-0.196	0.430
-207.436	-91.340	0.253	0.072
-206.421	24.561	0.278	-0.228
-205.406	-200.000	0.002	-0.127
-204.392	-200.000	-0.024	-0.215
-203.377	-200.000	-0.027	0.170
-202.363	-127.961	0.111	0.016
-201.348	205.619	0.128	0.197
-200.333	-200.000	0.008	0.153
-199.319	214.472	0.184	-0.290
-198.304	800.000	-0.006	0.023
-197.290	160.382	0.142	0.197
-196.275	-104.296	-0.202	0.047
-195.260	-73.202	-0.199	0.072
-194.246	289.442	0.049	0.088
-193.231	45.302	0.194	0.178
-192.217	-149.465	0.460	0.036
-191.202	-142.326	-0.106	-0.010
-190.187	748.437	-0.073	0.195
-189.173	-83.494	0.377	-0.120
-188.158	-18.968	0.320	0.197
-187.144	34.587	-0.189	-0.164
-186.129	768.200	0.129	0.350
-185.114	155.234	0.017	0.023
-184.100	-141.818	0.176	-0.018
-183.085	-2.623	0.275	-0.191
-182.071	-200.000	0.038	-0.183
-181.056	-135.963	-0.148	0.017
-180.042	-29.540	-0.234	0.133
-179.027	-200.000	-0.038	-0.262
-178.012	-200.000	0.023	-0.208
-176.998	-200.000	0.003	-0.208
-175.983	-23.275	-0.355	0.212
-174.969	-200.000	-0.012	-0.222
-173.954	159.833	0.196	-0.270
-172.939	-41.755	0.240	-0.122
-171.925	-0.754	0.031	-0.022
-170.910	249.659	-0.160	-0.270
-169.896	349.982	-0.126	0.247
-168.881	800.000	0.103	0.325
-167.866	-80.471	0.278	-0.092
-166.852	2.723	0.018	-0.013
-165.837	281.294	-0.159	-0.282
-164.823	-200.000	-0.034	0.228
-163.808	139.442	-0.125	0.163
-162.793	-200.000	-0.041	0.274
-161.779	-200.000	0.039	-0.213
-160.764	59.593	-0.035	0.034
-159.750	-33.844	0.282	-0.154
-158.735	298.199	0.160	0.292
-157.720	-110.984	-0.193	-0.039
-156.706	-186.052	-0.307	0.004
-155.691	800.000	-0.021	-0.064
-154.677	-126.398	0.230	0.034
-153.662	290.486	0.082	-0.147
-152.647	48.111	0.113	-0.104
-151.633	-185.632	0.137	0.002
-150.618	-86.552	-0.064	0.019
-149.604	10.734	0.058	0.044
-148.589	800.000	-0.121	0.509
-147.574	-101.447	0.024	0.006
-146.560	269.796	-0.127	0.222
-145.545	-140.016	0.456	-0.048
-144.531	193.548	-0.108	-0.162
-143.516	797.490	0.119	-0.324
-142.502	-88.451	-0.133	-0.039
-141.487	187.809	0.105	-0.155
-140.472	5.759	-0.446	-0.326
-139.458	800.000	-0.031	0.088
-138.443	157.637	0.151	0.207
-137.429	178.511	-0.229	-0.331
-136.414	272.599	-0.159	-0.278
-135.399	-200.000	0.035	0.578
-134.385	91.418	-0.233	0.259
-133.370	130.450	0.046	0.059
-132.356	-111.160	0.138	0.028
-131.341	712.245	-0.071	-0.186
-130.326	183.747	0.172	0.252
-129.312	-200.000	-0.004	-0.137
-128.297	-22.592	-0.289	-0.173
-127.283	447.005	-0.113	-0.245
-126.268	693.707	0.080	-0.207
-125.253	-110.156	0.235	0.049
-124.239	-186.661	0.169	-0.002
-123.224	356.174	0.078	0.154
-122.210	41.503	0.158	-0.141
-121.195	60.952	0.233	0.229
