DTS Sentinel unit serial number:	SN413079Multiplexer serial number:	ORYXHardware model number:	OX4-SRSoftware version number:	ORYX F/W v4.00 Oryx Data Collector v3.7.2.0data status	okinstallation	princeton_trtdifferential loss correction	single-endedforward channel	channel 1reverse channel	N/Adate	2019/09/18time	17:06:35forward acquisition time	60.00reverse acquisition time	0.00gamma	496.2192k internal	0.2295k external	0.2295temperature offset calibration	1.0006default loss term (dB/km)	0.3790temperature slope calibration	1.0000multiplexer offset coefficient	1.0000multiplexer slope coefficient	1.0000fibre end	0.00T internal ref (°C)	39.94T ext. ref 1 (°C)	0.87T ext. ref 2 (°C)	32.79length (m)	temperature (°C)	Stokes	anti-Stokes-747.200	800.000	-0.054	0.162
-746.185	-200.000	-0.004	0.403
-745.171	-81.825	0.164	-0.055
-744.156	223.062	0.109	0.179
-743.142	414.710	-0.146	-0.318
-742.127	-74.634	-0.032	0.012
-741.112	-58.072	-0.060	-0.027
-740.098	181.679	0.114	0.171
-739.083	-40.262	0.370	0.197
-738.069	-30.945	0.087	-0.050
-737.054	-65.776	-0.033	0.013
-736.039	-55.991	-0.235	-0.107
-735.025	-17.271	-0.145	-0.094
-734.010	16.261	0.060	0.048
-732.996	-127.612	-0.312	-0.046
-731.981	7.598	-0.313	0.239
-730.966	-200.000	-0.016	0.296
-729.952	-200.000	0.020	-0.191
-728.937	-200.000	-0.001	-0.213
-727.923	409.482	0.101	0.218
-726.908	-22.608	0.447	-0.276
-725.894	204.786	-0.090	-0.143
-724.879	800.000	-0.126	0.360
-723.864	-86.259	0.235	-0.074
-722.850	316.643	-0.174	0.336
-721.835	36.564	0.050	0.045
-720.821	-200.000	-0.343	0.001
-719.806	-146.340	-0.209	-0.019
-718.791	-200.000	0.041	-0.227
-717.777	-146.583	-0.256	0.023
-716.762	-200.000	-0.013	-0.338
-715.748	349.789	0.119	-0.240
-714.733	-200.000	0.031	-0.297
-713.718	-114.252	-0.098	-0.019
-712.704	377.540	0.202	0.421
-711.689	326.617	0.115	-0.224
-710.675	800.000	-0.039	-0.126
-709.660	-53.440	0.021	0.010
-708.645	10.244	-0.152	-0.118
-707.631	46.938	0.156	-0.148
-706.616	3.574	-0.252	0.188
-705.602	304.677	-0.031	0.060
-704.587	-200.000	-0.053	-0.287
-703.572	166.829	0.085	-0.123
-702.558	-72.188	0.170	-0.064
-701.543	-200.000	-0.056	-0.278
-700.529	-91.947	0.216	0.062
-699.514	-200.000	0.024	0.410
-698.499	196.123	-0.191	-0.297
-697.485	73.259	0.164	-0.175
-696.470	800.000	0.052	-0.196
-695.456	800.000	-0.140	0.479
-694.441	800.000	-0.131	0.537
-693.426	-121.347	0.299	0.051
-692.412	76.837	0.190	-0.206
-691.397	0.610	-0.161	-0.118
-690.383	30.206	0.213	0.186
-689.368	-11.202	-0.188	0.127
-688.354	63.959	-0.159	0.164
-687.339	117.035	-0.163	-0.205
-686.324	-103.783	0.506	0.121
-685.310	-200.000	-0.035	0.395
-684.295	-200.000	0.004	-0.226
-683.281	84.363	0.127	0.142
-682.266	-200.000	0.219	0.001
-681.251	-146.891	-0.504	0.044
-680.237	-200.000	0.014	-0.130
-679.222	25.057	-0.203	0.172
-678.208	-132.892	-0.082	0.011
-677.193	-162.709	0.223	0.011
-676.178	-99.359	-0.190	0.049
-675.164	-114.824	-0.183	-0.036
-674.149	-90.076	-0.136	-0.040
-673.135	-175.555	-0.225	-0.006
-672.120	800.000	-0.022	-0.099
-671.105	585.464	0.151	-0.378
-670.091	-0.747	0.172	0.124
-669.076	209.182	0.030	-0.048
-668.062	-112.961	-0.181	-0.037
-667.047	-200.000	0.038	-0.231
-666.032	-200.000	0.014	-0.269
-665.018	-40.732	-0.310	-0.164
-664.003	-32.924	-0.225	0.127
-662.989	-66.580	-0.186	-0.075
-661.974	5.966	-0.123	0.093
-660.959	193.981	0.174	0.268
-659.945	19.821	-0.159	0.130
-658.930	-171.003	0.518	0.018
-657.916	254.919	0.098	-0.171
-656.901	788.370	-0.052	0.145
-655.886	291.354	-0.129	0.239
-654.872	-200.000	-0.012	-0.121
-653.857	-102.256	-0.312	-0.076
-652.843	95.646	-0.182	0.212
-651.828	545.020	0.059	-0.144
-650.814	-79.891	-0.068	0.023
-649.799	-112.342	-0.017	-0.003
-648.784	217.407	0.104	-0.168
-647.770	41.917	0.109	-0.100
-646.755	-61.032	-0.393	-0.169
-645.741	179.114	0.018	-0.027
-644.726	-91.847	-0.122	0.035
-643.711	-200.000	0.014	0.063
-642.697	242.737	-0.225	-0.384
-641.682	304.137	0.138	-0.260
-640.668	-89.769	0.068	0.020
-639.653	218.806	-0.101	0.165
-638.638	800.000	0.052	-0.216
-637.624	-166.711	0.273	-0.011
-636.609	532.719	0.103	-0.249
-635.595	-22.903	0.270	0.166
-634.580	-200.000	-0.022	0.213
-633.565	-113.837	0.436	0.086
-632.551	-186.698	0.104	0.001
-631.536	800.000	-0.093	-0.322
-630.522	-60.713	-0.056	0.024
-629.507	-91.193	-0.064	0.019
-628.492	-200.000	0.006	0.053
-627.478	168.080	0.222	0.321
-626.463	282.477	0.113	0.206
-625.449	-82.036	-0.134	-0.045
-624.434	249.069	-0.125	0.215
-623.419	800.000	-0.020	-0.076
-622.405	-200.000	0.031	-0.209
-621.390	58.888	0.131	-0.131
-620.376	-170.323	0.224	0.008
-619.361	12.327	0.254	0.199
-618.346	116.467	-0.192	-0.239
-617.332	-95.785	0.205	-0.056
-616.317	-151.778	0.183	-0.014
-615.303	476.585	0.035	0.081
-614.288	800.000	0.088	0.268
-613.273	7.856	-0.143	0.109
-612.259	-200.000	-0.009	0.185
-611.244	-96.691	-0.145	0.039
-610.230	-200.000	-0.065	-0.316
-609.215	-109.422	-0.200	0.043
-608.201	800.000	0.019	0.075
-607.186	-200.000	0.012	0.154
-606.171	-200.000	-0.050	0.309
-605.157	486.375	-0.059	-0.137
-604.142	360.836	0.081	0.166
-603.128	25.565	-0.238	0.201
-602.113	-125.653	0.121	-0.019
-601.098	401.353	0.104	0.222
-600.084	-200.000	-0.003	-0.208
-599.069	-56.935	-0.343	-0.154
-598.055	-124.948	0.070	-0.011
-597.040	-200.000	-0.021	0.200
-596.025	-21.865	0.243	0.150
-595.011	35.513	-0.386	-0.344
-593.996	-172.139	0.313	-0.010
-592.982	-4.578	0.329	0.231
-591.967	82.375	0.150	0.165
-590.952	-98.203	0.336	-0.088
-589.938	386.237	0.053	-0.112
-588.923	-200.000	0.028	0.237
-587.909	-200.000	-0.009	0.174
-586.894	800.000	-0.039	0.163
-585.879	-19.320	0.117	-0.074
-584.865	-121.376	0.183	-0.031
-583.850	-42.303	0.341	-0.177
-582.836	643.829	-0.087	-0.224
-581.821	-140.861	-0.016	0.002
-580.806	-148.150	-0.305	-0.026
-579.792	-200.000	-0.007	-0.071
-578.777	186.557	0.160	0.242
-577.763	24.514	-0.307	0.258
-576.748	-28.816	0.225	-0.131
-575.733	238.751	0.087	-0.147
-574.719	-167.414	-0.093	-0.004
-573.704	86.766	0.247	-0.277
-572.690	-49.748	0.289	-0.140
-571.675	-167.141	0.111	-0.005
-570.661	-7.939	-0.130	-0.089
-569.646	-10.260	-0.260	-0.175
-568.631	-0.073	-0.075	0.054
-567.617	-172.186	0.273	0.009
-566.602	74.669	0.079	0.085
-565.588	-84.372	0.479	0.154
-564.573	306.244	0.167	0.316
-563.558	-76.374	0.379	-0.135
-562.544	-78.743	-0.277	-0.096
-561.529	-105.551	-0.188	-0.043
-560.515	34.821	-0.184	-0.163
-559.500	-200.000	-0.034	0.409
-558.485	461.829	-0.109	-0.248
-557.471	766.238	0.088	-0.242
-556.456	-13.355	-0.316	0.208
-555.442	-102.040	0.169	0.041
-554.427	-55.649	-0.228	0.104
-553.412	-95.418	-0.127	-0.035
-552.398	-66.175	-0.057	-0.023
-551.383	35.270	0.141	0.125
-550.369	-145.488	-0.069	0.006
-549.354	307.253	-0.158	0.299
-548.339	39.357	-0.127	-0.116
-547.325	-79.816	0.140	0.048
-546.310	486.819	0.117	0.272
-545.296	-162.895	0.415	-0.020
-544.281	-151.059	0.073	0.006
-543.266	-200.000	0.043	-0.388
-542.252	16.922	-0.209	-0.168
-541.237	-85.203	-0.258	-0.082
-540.223	-28.198	0.244	0.143
-539.208	-97.688	-0.300	-0.079
-538.193	77.517	0.234	0.253
-537.179	-105.433	-0.198	0.046
-536.164	-4.773	0.162	0.114
-535.150	-200.000	0.018	-0.319
-534.135	64.119	-0.172	-0.176
-533.121	20.421	-0.104	0.085
-532.106	-4.890	-0.190	-0.133
-531.091	-200.000	-0.112	-0.573
-530.077	125.275	0.270	-0.345
-529.062	-103.502	0.090	0.022
-528.048	182.436	0.163	-0.244
-527.033	-126.297	0.229	-0.035
-526.018	-27.750	0.154	-0.091
-525.004	-78.287	0.305	-0.106
-523.989	-110.400	-0.130	-0.027
-522.975	-49.103	-0.307	0.149
-521.960	255.065	-0.245	-0.426
-520.945	126.100	0.029	-0.038
-519.931	164.067	0.041	-0.059
-518.916	800.000	0.052	-0.159
-517.902	155.571	-0.210	-0.293
-516.887	582.533	-0.098	0.243
-515.872	-170.454	0.182	-0.006
-514.858	-93.884	-0.246	-0.068
-513.843	-200.000	-0.017	-0.175
-512.829	-115.602	-0.552	-0.105
-511.814	800.000	0.002	0.007
-510.799	5.202	-0.109	-0.082
-509.785	800.000	0.046	0.178
-508.770	-160.101	-0.439	-0.024
-507.756	-31.990	-0.134	0.076
-506.741	183.194	0.183	-0.274
-505.726	556.488	-0.141	0.345
-504.712	50.622	-0.274	0.263
-503.697	271.717	0.166	0.297
-502.683	-131.534	-0.346	-0.046
-501.668	-134.594	0.135	-0.017
-500.653	9.257	-0.181	0.139
-499.639	-71.881	0.284	0.107
-498.624	-200.000	-0.043	0.224
-497.610	-11.867	-0.029	-0.020
-496.595	595.644	-0.025	0.062
-495.581	546.940	0.049	0.119
-494.566	800.000	0.014	0.047
-493.551	56.133	-0.074	-0.073
-492.537	237.075	0.107	0.180
-491.522	800.000	-0.131	-0.437
-490.508	-124.443	-0.144	0.023
-489.493	-122.050	0.040	0.007
-488.478	-95.832	0.159	-0.043
-487.464	390.836	0.120	0.252
-486.449	-135.876	0.291	-0.035
-485.435	-84.688	-0.082	0.026
-484.420	-200.000	-0.020	0.451
-483.405	-133.397	0.254	-0.032
-482.391	336.165	0.106	0.209
-481.376	-70.962	-0.305	0.116
-480.362	-56.585	0.182	0.082
-479.347	-200.000	-0.002	0.247
-478.332	170.316	-0.164	0.238
-477.318	354.845	0.091	-0.183
-476.303	-200.000	0.035	-0.170
-475.289	69.111	0.120	0.125
-474.274	22.457	0.093	0.077
-473.259	-112.099	-0.283	-0.058
-472.245	76.711	0.160	0.171
-471.230	800.000	-0.010	0.039
-470.216	-29.697	-0.158	0.091
-469.201	61.345	0.202	-0.203
-468.186	25.159	-0.016	0.014
-467.172	42.353	0.222	0.204
-466.157	-16.596	0.125	-0.080
-465.143	18.724	-0.081	-0.065
-464.128	278.736	-0.079	-0.142
-463.113	33.925	-0.233	-0.205
-462.099	-24.694	0.193	-0.116
-461.084	34.187	-0.224	0.197
-460.070	525.746	0.065	0.155
-459.055	-89.611	0.141	0.042
-458.040	63.767	0.194	-0.197
-457.026	-200.000	-0.033	-0.154
-456.011	-200.000	-0.003	0.224
-454.997	800.000	0.023	0.085
-453.982	-25.619	0.199	-0.119
-452.968	482.162	0.109	0.251
-451.953	-200.000	0.060	0.292
-450.938	800.000	-0.009	0.034
-449.924	278.409	0.081	-0.146
-448.909	-98.737	0.266	0.068
-447.895	179.504	0.117	0.173
-446.880	14.929	0.214	-0.169
-445.865	438.606	-0.117	-0.258
-444.851	-130.062	-0.261	-0.036
-443.836	-125.048	0.344	-0.053
-442.822	47.849	-0.083	-0.078
-441.807	-68.784	-0.183	-0.071
-440.792	-83.409	-0.055	-0.018
-439.778	3.062	-0.147	-0.108
-438.763	-66.735	0.234	-0.094
-437.749	211.620	0.026	-0.041
-436.734	-76.992	-0.037	-0.013
-435.719	-90.549	0.351	-0.102
-434.705	-16.000	0.194	-0.124
-433.690	280.225	-0.146	-0.263
-432.676	-135.476	0.144	0.017
-431.661	-180.250	-0.133	0.003
-430.646	-170.435	-0.128	-0.005
-429.632	-50.365	0.024	-0.012
-428.617	-6.540	-0.238	-0.164
-427.603	-200.000	0.008	-0.047
-426.588	-200.000	-0.018	-0.195
-425.573	-14.156	-0.082	-0.053
-424.559	250.318	-0.031	-0.053
-423.544	53.078	0.140	-0.135
-422.530	-170.014	0.241	-0.009
-421.515	800.000	-0.027	-0.114
-420.500	107.736	-0.061	0.074
-419.486	133.462	0.042	-0.055
-418.471	399.299	0.053	0.113
-417.457	-97.863	-0.200	-0.052
-416.442	204.519	-0.191	-0.298
-415.428	-200.000	0.042	-0.219
-414.413	102.447	0.110	0.130
-413.398	19.479	-0.126	-0.103
-412.384	197.646	0.084	0.130
-411.369	767.070	0.070	-0.192
-410.355	-200.000	0.016	0.135
-409.340	119.458	0.100	0.125
-408.325	-200.000	0.062	-0.334
-407.311	122.372	0.278	-0.351
-406.296	800.000	0.093	0.393
-405.282	-200.000	-0.027	-0.186
-404.267	-61.426	-0.417	0.177
-403.252	-41.607	0.372	0.193
-402.238	-200.000	-0.000	-0.209
-401.223	-65.906	-0.424	-0.171
-400.209	800.000	-0.066	-0.218
-399.194	800.000	0.061	-0.201
-398.179	-133.035	0.063	-0.008
-397.165	-119.380	-0.367	0.064
-396.150	-66.068	0.097	-0.039
-395.136	-200.000	-0.024	-0.178
-394.121	370.985	-0.173	-0.353
-393.106	-200.000	0.011	0.084
-392.092	8.951	0.172	0.131
-391.077	-200.000	-0.054	0.256
-390.063	35.131	-0.383	-0.338
-389.048	-170.254	0.150	-0.005
-388.033	-122.801	-0.172	-0.028
-387.019	-125.712	0.194	0.030
-386.004	107.099	0.144	0.172
-384.990	-123.306	0.109	-0.018
-383.975	-200.000	0.006	-0.043
-382.960	-200.000	-0.048	-0.361
-381.946	800.000	0.028	-0.086
-380.931	-113.691	0.322	-0.063
-379.917	-131.807	0.162	0.021
-378.902	-121.258	0.048	-0.008
-377.888	-99.667	-0.110	0.028
-376.873	-113.110	-0.021	-0.004
-375.858	800.000	-0.088	-0.303
-374.844	-200.000	-0.009	0.222
-373.829	-70.042	-0.167	0.064
-372.815	-87.014	-0.156	-0.048
-371.800	734.083	-0.055	-0.147
-370.785	-110.901	0.038	-0.008
-369.771	120.391	-0.172	-0.215
-368.756	17.142	0.165	-0.132
-367.742	-200.000	-0.042	0.221
-366.727	70.477	-0.219	-0.228
-365.712	242.646	-0.170	-0.287
-364.698	231.667	-0.123	-0.203
-363.683	-49.442	-0.195	0.093
-362.669	-7.165	0.024	-0.016
-361.654	-180.950	0.135	-0.003
-360.639	-84.854	0.110	-0.035
-359.625	-200.000	0.024	0.127
-358.610	-104.932	-0.087	0.020
-357.596	-78.230	0.139	0.048
-356.581	-121.656	-0.234	-0.039
-355.566	-200.000	0.024	0.225
-354.552	-59.620	-0.113	-0.049
-353.537	-200.000	0.064	-0.371
-352.523	-81.365	-0.292	-0.097
-351.508	-20.797	0.106	0.066
-350.493	-128.519	-0.170	-0.024
-349.479	302.089	-0.176	-0.327
-348.464	800.000	-0.113	-0.369
-347.450	800.000	0.075	-0.306
-346.435	-200.000	-0.023	0.137
-345.420	-85.021	0.169	-0.053
-344.406	68.415	0.101	-0.104
-343.391	-75.758	-0.325	0.116
-342.377	356.136	0.109	0.219
-341.362	-87.099	0.389	0.119
-340.348	800.000	-0.096	-0.320
-339.333	-33.411	-0.315	-0.175
-338.318	596.418	-0.102	0.253
-337.304	254.753	-0.134	0.231
-336.289	-126.711	-0.171	-0.025
-335.275	-43.341	-0.086	0.044
-334.260	81.644	-0.186	-0.203
-333.245	214.955	0.101	-0.161
-332.231	-85.047	0.074	0.023
-331.216	8.153	0.248	0.187
-330.202	-27.052	0.076	-0.044
-329.187	-103.560	0.283	-0.067
-328.172	-200.000	0.025	-0.380
-327.158	68.284	0.124	-0.127
-326.143	-138.156	-0.096	-0.011
-325.129	27.695	0.080	0.068
-324.114	20.749	0.007	0.006
-323.099	216.730	0.176	0.282
-322.085	30.860	-0.270	0.232
-321.070	-61.170	0.234	0.099
-320.056	-124.642	-0.253	-0.039
-319.041	-102.889	0.168	0.040
-318.026	-150.087	-0.338	0.026
-317.012	-130.448	0.072	-0.010
-315.997	106.045	-0.189	0.225
-314.983	348.269	0.209	-0.415
-313.968	-200.000	0.053	0.376
-312.953	-36.653	-0.208	0.112
-311.939	-144.413	-0.162	0.015
-310.924	196.366	0.052	-0.079
-309.910	-76.562	-0.125	-0.044
-308.895	-200.000	-0.013	-0.105
-307.880	31.349	-0.025	-0.021
-306.866	-200.000	-0.045	0.234
-305.851	-49.313	0.273	0.131
-304.837	465.643	-0.067	0.151
-303.822	644.114	0.081	0.207
-302.807	88.095	-0.173	-0.193
-301.793	-162.908	0.146	0.007
-300.778	56.033	-0.247	0.241
-299.764	-200.000	0.029	0.247
-298.749	800.000	-0.076	0.229
-297.735	57.278	0.225	0.220
-296.720	-44.826	-0.227	-0.114
-295.705	-18.039	-0.316	0.199
-294.691	95.806	-0.119	0.136
-293.676	215.831	-0.017	0.028
-292.662	48.646	-0.128	0.121
-291.647	-117.581	-0.310	0.056
-290.632	-200.000	0.039	0.303
-289.618	43.523	0.015	-0.014
-288.603	800.000	-0.095	0.361
-287.589	-12.984	0.127	-0.083
-286.574	201.833	0.089	0.138
-285.559	453.177	0.093	-0.207
-284.545	-20.860	0.307	-0.189
-283.530	-200.000	-0.020	0.136
-282.516	-200.000	0.056	0.316
-281.501	-119.048	-0.464	0.082
-280.486	192.239	0.204	-0.310
-279.472	-30.584	0.207	-0.118
-278.457	-200.000	0.099	0.505
-277.443	800.000	0.103	-0.415
-276.428	238.543	-0.117	-0.195
-275.413	132.361	-0.171	-0.221
-274.399	-169.507	-0.314	0.012
-273.384	-200.000	-0.022	-0.434
-272.370	-137.263	0.109	-0.012
-271.355	130.143	-0.084	0.108
-270.340	228.580	-0.092	0.151
-269.326	-200.000	0.049	-0.329
-268.311	226.759	-0.068	0.111
-267.297	-93.798	0.099	0.027
-266.282	199.947	-0.158	-0.244
-265.267	-110.594	-0.335	0.070
-264.253	-153.634	0.368	0.025
-263.238	-103.662	-0.184	-0.043
-262.224	44.477	-0.253	-0.233
-261.209	-200.000	-0.053	0.264
-260.195	55.918	-0.239	0.233
-259.180	-108.056	-0.203	-0.044
-258.165	800.000	0.114	-0.461
-257.151	-76.711	0.399	-0.140
-256.136	800.000	0.020	-0.059
-255.122	33.174	0.297	0.258
-254.107	564.850	-0.123	0.299
-253.092	-2.176	0.380	-0.267
-252.078	-138.661	0.049	0.005
-251.063	-200.000	-0.002	0.226
-250.049	317.962	-0.086	-0.164
-249.034	800.000	-0.072	0.263
-248.019	800.000	-0.049	0.187
-247.005	800.000	-0.063	0.216
-245.990	-200.000	0.027	-0.195
-244.976	335.063	0.161	-0.313
-243.961	-200.000	-0.008	-0.111
-242.946	-137.690	-0.156	0.018
-241.932	430.276	0.041	0.090
-240.917	-114.220	0.267	0.052
-239.903	-6.426	-0.222	-0.152
-238.888	-24.864	-0.274	0.163
-237.873	296.160	0.061	-0.112
-236.859	-36.829	0.312	0.168
-235.844	-73.719	-0.291	0.106
-234.830	162.249	0.150	-0.211
-233.815	-200.000	0.023	-0.132
-232.800	46.152	-0.297	0.276
-231.786	79.318	-0.053	0.057
-230.771	-32.473	0.098	0.055
-229.757	-59.474	0.095	-0.041
-228.742	361.258	-0.051	0.102
-227.727	-107.589	-0.156	0.034
-226.713	-60.035	-0.317	-0.135
-225.698	5.502	0.159	0.118
-224.684	-16.666	-0.178	0.113
-223.669	273.768	-0.120	0.212
-222.655	311.987	-0.043	0.082
-221.640	-158.924	0.220	0.013
-220.625	107.245	-0.119	-0.142
-219.611	-78.995	0.031	0.010
-218.596	-35.705	-0.172	-0.093
-217.582	-3.356	-0.253	0.177
-216.567	-134.656	-0.167	0.020
-215.552	356.420	-0.130	0.259
-214.538	-137.882	-0.188	0.021
-213.523	-200.000	0.022	0.159
-212.509	613.894	0.115	0.289
-211.494	-79.743	0.222	0.075
-210.479	-29.167	0.407	0.234
-209.465	-200.000	-0.008	-0.046
-208.450	361.716	0.022	-0.045
-207.436	110.402	0.169	-0.203
-206.421	475.338	0.054	-0.121
-205.406	-30.221	-0.104	0.059
-204.392	-61.843	-0.108	0.045
-203.377	-138.192	0.128	0.014
-202.363	107.560	0.181	0.215
-201.348	273.695	0.105	0.186
-200.333	-95.125	-0.267	0.072
-199.319	-27.778	0.282	-0.164
-198.304	-200.000	0.033	-0.188
-197.290	412.298	-0.077	0.165
-196.275	-200.000	0.011	-0.440
-195.260	-200.000	-0.032	-0.193
-194.246	129.037	0.159	0.203
-193.231	-27.845	-0.128	-0.074
-192.217	222.824	-0.180	0.291
-191.202	-99.349	0.139	-0.035
-190.187	-163.924	-0.296	0.014
-189.173	55.950	-0.219	-0.213
-188.158	432.333	-0.034	-0.074
-187.144	-149.367	0.242	0.019
-186.129	549.162	-0.088	0.211
-185.114	-128.261	-0.365	-0.052
-184.100	-200.000	-0.029	0.190
-183.085	-74.328	-0.104	0.038
-182.071	29.464	0.196	0.166
-181.056	17.069	-0.088	-0.070
-180.042	-122.667	-0.333	0.054
-179.027	91.354	-0.176	0.197
-178.012	342.873	0.095	0.185
-176.998	-133.865	0.199	-0.025
-175.983	-200.000	0.011	0.053
-174.969	-45.950	-0.121	-0.060
-173.954	800.000	-0.072	0.233
-172.939	-9.872	0.092	0.061
-171.925	-30.379	0.111	0.063
-170.910	110.778	0.212	-0.255
-169.896	-200.000	-0.008	0.048
-168.881	-120.124	-0.238	0.041
-167.866	-105.903	0.571	0.129
-166.852	-81.609	0.158	-0.052
-165.837	-91.169	0.063	0.018
-164.823	800.000	0.042	0.139
-163.808	135.811	0.197	0.256
-162.793	145.512	-0.143	0.191
-161.779	800.000	0.133	-0.392
-160.764	40.243	0.320	-0.287
-159.750	-102.393	0.087	-0.021
-158.735	328.075	-0.071	0.136
-157.720	-200.000	0.004	0.356
-156.706	-44.266	0.168	0.084
-155.691	-60.842	-0.053	-0.022
-154.677	-7.808	0.106	-0.071
-153.662	160.048	0.295	0.411
-152.647	-149.293	-0.277	0.022
-151.633	-200.000	-0.014	0.198
-150.618	-200.000	0.000	0.063
-149.604	800.000	0.054	0.225
-148.589	-200.000	-0.010	-0.305
-147.574	-138.356	-0.114	-0.013
-146.560	-200.000	0.018	-0.129
-145.545	-200.000	-0.025	-0.208
-144.531	96.144	0.154	-0.176
-143.516	197.001	0.168	0.255
-142.502	150.857	0.035	0.048
-141.487	64.990	0.252	-0.254
-140.472	-23.509	0.082	0.049
-139.458	-200.000	-0.031	-0.152
-138.443	-200.000	-0.013	0.153
-137.429	-200.000	-0.011	0.133
-136.414	29.899	-0.128	-0.109
-135.399	-200.000	-0.006	-0.413
-134.385	-159.379	0.249	-0.014
-133.370	-200.000	-0.030	0.289
-132.356	-132.814	-0.020	0.003
-131.341	-18.170	0.147	-0.092
-130.326	-162.044	0.525	0.026
-129.312	136.639	0.102	-0.133
-128.297	-99.201	0.172	-0.043
-127.283	-200.000	-0.023	0.158
-126.268	31.337	0.180	0.155
-125.253	800.000	-0.042	-0.116
-124.239	-106.480	0.098	0.022
-123.224	-200.000	-0.031	0.241
-122.210	-200.000	-0.019	-0.181
