DTS Sentinel unit serial number:	SN413079Multiplexer serial number:	ORYXHardware model number:	OX4-SRSoftware version number:	ORYX F/W v4.00 Oryx Data Collector v3.7.2.0data status	okinstallation	princeton_trtdifferential loss correction	single-endedforward channel	channel 1reverse channel	N/Adate	2019/09/18time	18:02:35forward acquisition time	60.00reverse acquisition time	0.00gamma	496.2192k internal	0.2295k external	0.2295temperature offset calibration	1.0015default loss term (dB/km)	0.3790temperature slope calibration	1.0000multiplexer offset coefficient	1.0000multiplexer slope coefficient	1.0000fibre end	0.00T internal ref (°C)	39.52T ext. ref 1 (°C)	0.92T ext. ref 2 (°C)	31.55length (m)	temperature (°C)	Stokes	anti-Stokes-747.200	-49.437	-0.182	-0.089
-746.185	-8.119	-0.211	0.145
-745.171	-200.000	0.057	-0.288
-744.156	800.000	0.137	0.434
-743.142	-200.000	0.003	0.257
-742.127	-106.737	-0.187	-0.042
-741.112	392.931	0.048	0.103
-740.098	52.983	-0.238	-0.233
-739.083	-200.000	0.073	0.350
-738.069	-37.084	-0.184	0.101
-737.054	-85.509	-0.252	-0.080
-736.039	-200.000	-0.010	-0.205
-735.025	105.441	-0.153	-0.185
-734.010	-42.852	-0.283	-0.147
-732.996	800.000	-0.042	-0.178
-731.981	54.759	0.130	-0.128
-730.966	-136.145	0.216	0.026
-729.952	-200.000	0.049	-0.248
-728.937	45.923	-0.121	0.114
-727.923	-73.789	-0.178	-0.066
-726.908	0.951	-0.094	-0.069
-725.894	-142.314	-0.099	-0.010
-724.879	10.721	0.139	0.108
-723.864	-34.782	-0.068	0.038
-722.850	-115.711	-0.222	-0.042
-721.835	-200.000	-0.093	-0.478
-720.821	321.374	0.083	-0.162
-719.806	-49.646	-0.132	-0.064
-718.791	-114.427	-0.232	0.046
-717.777	-85.287	-0.346	0.110
-716.762	800.000	0.049	0.161
-715.748	-200.000	-0.054	0.368
-714.733	-200.000	0.042	-0.267
-713.718	21.764	0.297	-0.247
-712.704	-200.000	0.027	0.344
-711.689	800.000	-0.078	0.257
-710.675	-30.898	-0.133	-0.076
-709.660	78.950	0.194	0.212
-708.645	180.554	-0.145	-0.217
-707.631	405.601	-0.120	-0.259
-706.616	-146.944	-0.189	0.017
-705.602	-200.000	0.020	-0.095
-704.587	-54.111	-0.186	-0.086
-703.572	-116.823	0.109	-0.020
-702.558	800.000	0.057	-0.160
-701.543	-200.000	-0.014	0.249
-700.529	-86.968	-0.021	-0.007
-699.514	383.817	-0.084	0.176
-698.499	-200.000	0.008	-0.076
-697.485	-83.814	-0.127	-0.041
-696.470	183.617	0.214	-0.322
-695.456	-92.085	0.041	-0.012
-694.441	-147.094	0.133	-0.012
-693.426	-12.610	-0.240	-0.160
-692.412	-200.000	-0.002	-0.157
-691.397	-88.180	-0.088	0.027
-690.383	-85.297	-0.148	-0.047
-689.368	-200.000	0.008	-0.114
-688.354	78.554	-0.077	-0.084
-687.339	77.791	0.125	0.136
-686.324	339.155	0.157	-0.312
-685.310	-35.452	-0.172	-0.095
-684.295	138.748	-0.139	-0.187
-683.281	-200.000	-0.051	0.423
-682.266	34.760	0.188	0.168
-681.251	-1.177	0.209	0.150
-680.237	29.178	0.214	0.186
-679.222	-107.302	-0.320	0.072
-678.208	-200.000	-0.030	0.229
-677.193	-58.789	0.123	-0.054
-676.178	-29.313	0.064	-0.038
-675.164	-5.210	-0.159	-0.112
-674.149	-41.305	-0.223	-0.117
-673.135	279.701	-0.146	-0.266
-672.120	-200.000	0.010	-0.199
-671.105	-61.893	0.153	0.065
-670.091	176.821	0.128	-0.189
-669.076	800.000	-0.093	-0.300
-668.062	80.492	-0.198	0.217
-667.047	-200.000	-0.015	-0.216
-666.032	-38.541	0.333	0.180
-665.018	252.835	0.144	0.251
-664.003	-22.049	-0.088	0.055
-662.989	-84.119	0.320	-0.103
-661.974	-1.016	-0.370	-0.267
-660.959	-122.597	-0.463	0.077
-659.945	254.923	0.141	-0.247
-658.930	-84.195	0.288	-0.093
-657.916	-85.641	0.142	-0.045
-656.901	-60.191	0.114	-0.050
-655.886	-0.607	-0.088	0.064
-654.872	4.005	0.182	0.136
-653.857	-180.597	0.267	0.006
-652.843	360.292	0.067	0.136
-651.828	-65.248	-0.326	-0.134
-650.814	-200.000	0.016	-0.185
-649.799	531.563	-0.041	0.099
-648.784	221.586	0.061	0.099
-647.770	-116.372	0.114	-0.021
-646.755	126.591	-0.112	0.145
-645.741	-88.646	-0.291	0.088
-644.726	-143.773	-0.325	-0.031
-643.711	164.224	-0.202	0.289
-642.697	-41.599	0.032	0.017
-641.682	170.055	-0.150	0.218
-640.668	-200.000	0.043	0.316
-639.653	554.549	-0.092	0.225
-638.638	-103.402	0.378	-0.091
-637.624	-200.000	0.036	0.190
-636.609	-200.000	-0.079	-0.462
-635.595	-107.718	-0.063	-0.014
-634.580	-21.210	0.392	0.244
-633.565	48.599	-0.261	-0.249
-632.551	304.322	0.104	0.197
-631.536	-146.782	-0.141	-0.012
-630.522	-115.243	-0.089	-0.017
-629.507	-142.688	0.082	0.008
-628.492	800.000	-0.080	0.329
-627.478	-111.997	-0.189	0.039
-626.463	-68.353	-0.342	0.135
-625.449	113.331	-0.249	-0.308
-624.434	-200.000	-0.017	-0.192
-623.419	-169.225	0.098	0.004
-622.405	25.122	0.096	0.081
-621.390	4.278	-0.187	-0.139
-620.376	-151.821	0.078	-0.006
-619.361	-200.000	0.067	-0.347
-618.346	-55.349	0.142	0.065
-617.332	-59.009	-0.292	0.128
-616.317	140.412	-0.254	0.341
-615.303	41.010	0.064	0.059
-614.288	537.731	-0.070	0.169
-613.273	330.521	0.097	0.190
-612.259	-200.000	0.004	0.256
-611.244	-67.692	0.143	0.057
-610.230	43.163	-0.184	-0.171
-609.215	21.736	-0.252	0.209
-608.201	-30.207	0.266	0.154
-607.186	-82.065	0.274	0.091
-606.171	-114.043	0.142	-0.028
-605.157	-99.297	0.444	-0.114
-604.142	-200.000	0.020	-0.263
-603.128	800.000	-0.092	-0.378
-602.113	287.177	0.055	-0.101
-601.098	-74.624	0.118	0.043
-600.084	-200.000	-0.020	-0.446
-599.069	-84.198	0.242	-0.078
-598.055	731.970	-0.102	0.277
-597.040	3.898	0.172	-0.128
-596.025	13.608	0.152	-0.120
-595.011	-186.025	0.042	-0.001
-593.996	-200.000	-0.048	-0.338
-592.982	4.449	0.043	0.032
-591.967	-36.147	-0.174	-0.095
-590.952	-85.337	0.277	-0.088
-589.938	-200.000	0.009	0.096
-588.923	-200.000	-0.008	0.112
-587.909	-120.750	0.071	0.012
-586.894	-82.484	-0.211	0.069
-585.879	45.720	-0.114	0.107
-584.865	-58.502	0.410	0.181
-583.850	-200.000	0.009	-0.168
-582.836	126.722	-0.115	0.148
-581.821	87.195	-0.194	-0.218
-580.806	-135.152	0.153	-0.019
-579.792	800.000	-0.064	-0.206
-578.777	-44.657	-0.217	-0.110
-577.763	-33.127	0.328	-0.185
-576.748	800.000	0.071	-0.215
-575.733	23.980	-0.230	-0.192
-574.719	-38.381	-0.088	-0.047
-573.704	-124.035	-0.083	0.013
-572.690	-57.689	-0.223	0.099
-571.675	800.000	-0.036	-0.118
-570.661	-200.000	0.041	-0.207
-569.646	-13.914	0.254	-0.167
-568.631	-181.803	-0.151	0.003
-567.617	-129.896	-0.183	-0.025
-566.602	800.000	0.061	0.250
-565.588	-134.806	0.329	-0.041
-564.573	-65.880	0.257	0.104
-563.558	-18.384	-0.175	0.111
-562.544	102.704	-0.029	-0.035
-561.529	-29.240	-0.266	0.155
-560.515	-104.705	-0.518	-0.121
-559.500	-76.191	0.110	-0.040
-558.485	102.994	0.316	-0.376
-557.471	390.150	-0.133	-0.279
-556.456	1.693	0.122	0.089
-555.442	466.567	-0.115	0.260
-554.427	99.069	0.044	0.051
-553.412	-116.991	0.043	-0.008
-552.398	40.840	-0.141	0.129
-551.383	175.048	0.148	0.218
-550.369	-46.860	0.102	-0.050
-549.354	200.586	0.086	0.134
-548.339	53.344	0.210	0.204
-547.325	-36.216	0.282	-0.154
-546.310	-31.181	0.186	0.106
-545.296	358.494	0.112	0.226
-544.281	-24.245	-0.328	0.198
-543.266	0.401	-0.533	0.386
-542.252	-200.000	0.002	-0.297
-541.237	-121.007	-0.053	-0.009
-540.223	65.006	-0.213	-0.219
-539.208	90.542	-0.282	-0.321
-538.193	-59.569	0.092	0.040
-537.179	199.623	0.028	-0.043
-536.164	-138.210	0.189	-0.021
-535.150	727.394	-0.036	-0.097
-534.135	132.736	0.024	0.031
-533.121	258.772	-0.069	-0.120
-532.106	-147.012	-0.137	-0.012
-531.091	-200.000	-0.013	0.157
-530.077	-200.000	-0.257	0.000
-529.062	497.505	-0.056	-0.130
-528.048	800.000	-0.048	0.188
-527.033	75.183	-0.246	-0.263
-526.018	800.000	-0.055	-0.218
-525.004	-168.334	0.155	0.006
-523.989	800.000	0.107	-0.393
-522.975	800.000	0.057	0.219
-521.960	9.225	-0.098	0.075
-520.945	-112.073	0.252	-0.051
-519.931	406.319	0.111	-0.237
-518.916	115.650	0.044	0.054
-517.902	43.917	0.036	-0.034
-516.887	-59.267	-0.281	0.122
-515.872	252.997	-0.099	0.171
-514.858	-134.746	0.423	0.052
-513.843	67.843	0.202	0.210
-512.829	-177.922	-0.231	0.006
-511.814	-111.929	0.260	0.053
-510.799	-135.047	-0.256	-0.031
-509.785	800.000	-0.148	-0.432
-508.770	800.000	-0.077	-0.292
-507.756	-200.000	0.009	0.379
-506.741	-200.000	-0.008	-0.052
-505.726	-64.318	-0.306	-0.126
-504.712	88.864	-0.126	0.142
-503.697	54.458	0.275	0.269
-502.683	758.034	-0.032	0.088
-501.668	-165.137	0.267	0.012
-500.653	-113.360	0.110	-0.022
-499.639	-126.277	-0.054	-0.008
-498.624	-70.181	0.259	0.100
-497.610	-179.175	-0.054	-0.001
-496.595	-200.000	-0.001	-0.108
-495.581	40.292	0.078	0.071
-494.566	97.755	-0.077	0.090
-493.551	-107.127	-0.081	0.018
-492.537	170.126	-0.163	-0.235
-491.522	100.909	0.128	0.151
-490.508	800.000	0.063	0.177
-489.493	-140.972	-0.174	0.018
-488.478	-77.551	0.057	-0.020
-487.464	-70.559	-0.326	0.125
-486.449	32.561	0.080	0.070
-485.435	-200.000	-0.034	-0.155
-484.420	-93.490	0.176	-0.049
-483.405	-200.000	0.026	-0.140
-482.391	-200.000	0.033	-0.279
-481.376	-132.411	-0.186	-0.024
-480.362	800.000	0.015	0.047
-479.347	-162.553	0.227	-0.011
-478.332	800.000	0.035	0.152
-477.318	21.954	-0.155	0.128
-476.303	-92.017	0.179	-0.051
-475.289	561.127	0.013	-0.032
-474.274	-200.000	-0.019	0.246
-473.259	123.349	0.074	-0.094
-472.245	-24.951	0.142	0.085
-471.230	210.378	-0.072	0.115
-470.216	89.594	0.041	-0.046
-469.201	-96.759	0.159	-0.042
-468.186	-200.000	-0.005	-0.047
-467.172	105.021	-0.049	0.058
-466.157	-5.675	-0.045	-0.031
-465.143	414.346	-0.128	0.275
-464.128	-200.000	-0.037	-0.441
-463.113	-200.000	-0.065	-0.411
-462.099	313.902	-0.159	-0.303
-461.084	800.000	-0.026	-0.104
-460.070	67.236	-0.214	-0.221
-459.055	270.074	-0.009	0.016
-458.040	-146.229	-0.210	0.019
-457.026	800.000	-0.041	0.127
-456.011	168.586	-0.159	0.229
-454.997	-200.000	-0.018	-0.329
-453.982	-118.565	-0.185	0.033
-452.968	137.329	-0.130	0.172
-451.953	-58.407	0.274	-0.120
-450.938	46.317	-0.154	0.144
-449.924	-35.110	0.101	-0.056
-448.909	-200.000	0.046	0.259
-447.895	-200.000	-0.021	-0.185
-446.880	-41.386	0.247	-0.128
-445.865	-123.042	0.116	-0.019
-444.851	-200.000	0.080	0.403
-443.836	-75.812	0.162	-0.058
-442.822	800.000	0.034	-0.116
-441.807	800.000	-0.017	0.073
-440.792	-28.597	-0.029	0.017
-439.778	-45.737	0.351	0.175
-438.763	171.958	0.066	-0.096
-437.749	291.291	-0.151	0.277
-436.734	800.000	-0.055	-0.221
-435.719	-21.341	0.170	-0.105
-434.705	-105.502	-0.248	0.057
-433.690	6.916	-0.257	0.193
-432.676	800.000	-0.088	0.346
-431.661	-25.997	0.180	0.107
-430.646	-126.819	-0.337	-0.050
-429.632	-200.000	0.042	0.330
-428.617	211.326	0.071	-0.113
-427.603	-90.405	-0.095	-0.028
-426.588	30.671	0.139	-0.120
-425.573	-200.000	0.006	0.072
-424.559	-167.443	-0.166	-0.007
-423.544	-200.000	0.005	-0.127
-422.530	800.000	0.081	0.237
-421.515	151.372	0.118	0.163
-420.500	-1.768	0.423	0.301
-419.486	2.264	0.183	0.134
-418.471	-200.000	-0.013	-0.456
-417.457	32.547	-0.012	0.011
-416.442	277.002	0.278	-0.499
-415.428	-86.797	0.024	-0.007
-414.413	-136.555	-0.173	-0.020
-413.398	26.625	-0.109	-0.092
-412.384	104.086	-0.145	0.172
-411.369	-200.000	-0.003	0.196
-410.355	-200.000	-0.002	0.138
-409.340	800.000	-0.057	0.180
-408.325	-200.000	0.025	-0.383
-407.311	-65.456	-0.139	-0.056
-406.296	-200.000	-0.011	0.272
-405.282	-69.955	0.260	-0.100
-404.267	-200.000	-0.016	-0.172
-403.252	800.000	0.046	-0.173
-402.238	800.000	-0.106	-0.344
-401.223	-200.000	0.043	-0.337
-400.209	71.247	0.181	-0.190
-399.194	800.000	-0.034	-0.130
-398.179	-200.000	0.010	0.574
-397.165	-200.000	0.004	0.144
-396.150	231.357	-0.200	-0.331
-395.136	-114.640	-0.207	-0.040
-394.121	-96.343	0.393	-0.105
-393.106	800.000	0.086	-0.277
-392.092	-76.713	0.148	-0.052
-391.077	95.020	0.195	0.224
-390.063	29.042	0.136	0.117
-389.048	33.482	0.180	0.158
-388.033	-14.732	-0.196	0.127
-387.019	-71.696	-0.274	-0.103
-386.004	-113.093	0.378	-0.075
-384.990	-0.926	0.306	0.218
-383.975	181.747	0.082	0.121
-382.960	800.000	-0.045	0.154
-381.946	-57.814	0.276	0.122
-380.931	-51.929	-0.121	0.057
-379.917	-200.000	-0.036	-0.268
-378.902	78.426	0.132	0.142
-377.888	-94.496	-0.187	-0.051
-376.873	124.692	-0.328	-0.416
-375.858	44.328	-0.153	0.142
-374.844	158.792	-0.096	0.134
-373.829	-52.051	-0.145	-0.068
-372.815	-28.675	-0.369	-0.214
-371.800	-96.494	-0.034	-0.009
-370.785	216.029	-0.179	-0.287
-369.771	-200.000	-0.003	-0.176
-368.756	624.394	-0.084	0.212
-367.742	-127.969	0.115	-0.017
-366.727	47.655	0.016	-0.015
-365.712	-12.994	0.212	-0.139
-364.698	-85.094	0.242	-0.076
-363.683	10.951	-0.163	0.125
-362.669	800.000	-0.078	0.314
-361.654	-96.867	-0.299	-0.079
-360.639	-15.190	-0.198	-0.127
-359.625	149.544	-0.232	0.317
-358.610	-110.097	-0.145	0.030
-357.596	-153.660	0.145	0.010
-356.581	-66.963	0.127	0.050
-355.566	-34.483	0.244	-0.135
-354.552	360.620	-0.112	-0.227
-353.537	-4.493	0.177	0.123
-352.523	-200.000	-0.025	-0.241
-351.508	-73.628	-0.076	-0.028
-350.493	-104.288	0.035	0.008
-349.479	271.332	-0.102	0.182
-348.464	-127.466	-0.056	0.008
-347.450	-101.009	-0.147	-0.036
-346.435	-78.822	0.257	-0.088
-345.420	122.380	-0.177	0.223
-344.406	800.000	-0.045	-0.189
-343.391	259.218	-0.025	-0.044
-342.377	-200.000	0.006	0.079
-341.362	-139.596	0.313	-0.034
-340.348	153.922	0.137	0.189
-339.333	130.268	0.115	0.148
-338.318	110.394	0.136	0.164
-337.304	28.871	0.010	-0.008
-336.289	-6.289	-0.121	-0.083
-335.275	-33.225	0.099	-0.055
-334.260	508.964	-0.129	0.302
-333.245	5.973	0.092	0.069
-332.231	72.339	-0.106	0.111
-331.216	-141.450	0.241	-0.025
-330.202	451.762	-0.044	-0.097
-329.187	800.000	-0.105	0.322
-328.172	-18.235	0.375	-0.236
-327.158	-11.126	0.265	0.176
-326.143	-194.401	-0.225	-0.002
-325.129	-179.537	-0.312	-0.007
-324.114	614.091	-0.089	0.223
-323.099	-118.058	-0.316	-0.057
-322.085	-101.383	-0.277	0.068
-321.070	-200.000	-0.002	-0.156
-320.056	751.256	0.119	-0.322
-319.041	-200.000	0.248	0.000
-318.026	-112.482	0.168	0.034
-317.012	-69.976	0.087	-0.033
-315.997	800.000	0.048	0.150
-314.983	70.989	-0.006	0.006
-313.968	-120.252	0.312	-0.053
-312.953	800.000	0.102	0.288
-311.939	-200.000	-0.017	-0.282
-310.924	800.000	0.032	-0.121
-309.910	233.339	0.272	0.450
-308.895	-200.000	-0.040	0.197
-307.880	800.000	0.010	0.030
-306.866	-55.966	-0.305	-0.137
-305.851	-200.000	-0.009	-0.081
-304.837	-119.853	-0.398	0.069
-303.822	185.778	0.169	0.252
-302.807	101.101	0.126	-0.147
-301.793	-131.166	0.118	0.016
-300.778	626.077	0.125	0.317
-299.764	-65.469	0.039	0.016
-298.749	98.214	-0.110	0.127
-297.735	149.535	-0.084	0.114
-296.720	186.588	-0.177	-0.265
-295.705	39.291	-0.214	-0.192
-294.691	-112.294	-0.172	0.035
-293.676	627.053	0.088	0.222
-292.662	632.700	-0.095	-0.243
-291.647	-200.000	-0.007	-0.393
-290.632	87.125	0.019	0.021
-289.618	-96.911	-0.327	-0.086
-288.603	-5.367	-0.138	-0.095
-287.589	-200.000	-0.011	-0.213
-286.574	-83.383	-0.374	0.121
-285.559	-68.921	0.109	-0.042
-284.545	13.788	-0.192	0.150
-283.530	306.989	0.027	-0.051
-282.516	-200.000	-0.024	0.511
-281.501	-102.371	0.086	-0.021
-280.486	-89.396	-0.109	-0.032
-279.472	186.482	-0.049	0.073
-278.457	-113.080	0.273	0.054
-277.443	60.695	0.068	-0.068
-276.428	-5.814	0.083	0.057
-275.413	-165.446	-0.106	-0.005
-274.399	800.000	0.104	-0.300
-273.384	-148.745	0.389	-0.032
-272.370	22.417	0.277	-0.227
-271.355	-73.515	-0.095	0.035
-270.340	202.241	-0.147	0.228
-269.326	46.343	0.107	-0.100
-268.311	800.000	0.065	-0.189
-267.297	-80.720	0.150	0.050
-266.282	800.000	0.106	-0.330
-265.267	-15.414	0.098	-0.063
-264.253	-181.553	0.257	0.005
-263.238	279.264	0.215	-0.385
-262.224	374.958	0.207	-0.424
-261.209	-25.807	-0.433	0.256
-260.195	-15.404	0.266	-0.171
-259.180	-8.819	-0.191	0.128
-258.165	-135.723	-0.294	-0.035
-257.151	637.517	0.152	0.388
-256.136	292.405	0.186	-0.340
-255.122	-200.000	0.005	-0.133
-254.107	-166.427	-0.114	-0.005
-253.092	18.310	-0.142	-0.114
-252.078	421.759	0.138	0.298
-251.063	800.000	0.021	-0.071
-250.049	21.929	0.179	0.146
-249.034	391.623	0.102	0.212
-248.019	-125.342	-0.177	0.027
-247.005	386.601	0.138	0.285
-245.990	-136.375	0.262	0.031
-244.976	-51.507	0.164	-0.077
-243.961	484.713	-0.024	0.056
-242.946	-200.000	-0.006	0.080
-241.932	252.852	0.143	0.245
-240.917	-115.182	0.353	-0.067
-239.903	800.000	-0.044	-0.157
-238.888	-40.924	0.222	-0.115
-237.873	272.530	-0.143	0.253
-236.859	-112.617	0.201	0.040
-235.844	239.763	-0.106	-0.177
-234.830	-8.099	-0.291	-0.197
-233.815	178.058	0.144	-0.211
-232.800	30.971	-0.187	-0.161
-231.786	-13.639	0.141	-0.091
-230.771	98.606	-0.117	0.135
-229.757	-54.584	0.126	0.057
-228.742	47.796	-0.114	0.107
-227.727	-10.455	0.165	0.110
-226.713	172.862	0.115	0.165
-225.698	406.620	0.082	-0.173
-224.684	800.000	-0.004	0.015
-223.669	800.000	-0.077	-0.261
-222.655	-19.930	0.073	0.045
-221.640	18.286	0.150	-0.120
-220.625	63.611	-0.129	-0.130
-219.611	800.000	0.040	-0.139
-218.596	-144.779	-0.144	-0.013
-217.582	279.935	0.216	0.386
-216.567	191.080	-0.367	0.553
-215.552	49.572	-0.160	0.151
-214.538	80.502	0.075	-0.081
-213.523	112.424	-0.055	-0.066
-212.509	-74.824	0.250	0.090
-211.494	-195.082	-0.288	0.002
-210.479	-200.000	-0.011	-0.227
-209.465	-42.231	0.159	-0.081
-208.450	641.416	0.062	0.159
-207.436	-70.704	-0.321	0.121
-206.421	616.322	-0.023	-0.058
-205.406	-83.331	-0.462	-0.148
-204.392	566.897	-0.105	-0.255
-203.377	200.142	0.014	-0.022
-202.363	39.374	-0.108	0.097
-201.348	-133.288	-0.178	0.023
-200.333	274.459	0.195	-0.345
-199.319	-200.000	0.050	0.534
-198.304	78.478	0.133	0.143
-197.290	-200.000	0.017	-0.224
-196.275	-200.000	0.001	0.005
-195.260	-200.000	-0.017	-0.124
-194.246	-57.177	0.199	0.088
-193.231	101.027	-0.294	0.342
-192.217	-0.077	0.470	-0.335
-191.202	46.081	0.111	0.103
-190.187	-134.085	-0.193	0.024
-189.173	-12.433	0.140	0.091
-188.158	-105.512	0.158	0.036
-187.144	120.388	-0.103	-0.128
-186.129	-15.707	-0.035	-0.022
-185.114	-200.000	-0.058	-0.384
-184.100	-188.517	-0.146	-0.002
-183.085	-200.000	-0.022	0.131
-182.071	225.851	0.034	0.055
-181.056	544.658	0.119	0.284
-180.042	-92.753	-0.224	-0.063
-179.027	-200.000	-0.062	0.298
-178.012	16.978	0.262	-0.207
-176.998	263.170	-0.012	-0.022
-175.983	537.663	0.097	0.232
-174.969	125.902	-0.078	0.099
-173.954	-95.258	-0.206	0.055
-172.939	405.858	0.142	-0.300
-171.925	-134.263	-0.373	-0.046
-170.910	800.000	-0.096	-0.420
-169.896	-200.000	0.056	-0.329
-168.881	311.549	-0.198	0.372
-167.866	23.585	0.309	0.254
-166.852	-29.381	0.269	-0.154
-165.837	-200.000	-0.013	0.160
-164.823	25.139	0.037	-0.031
-163.808	15.625	-0.382	0.300
-162.793	800.000	0.086	-0.283
-161.779	21.631	0.149	0.121
-160.764	-159.186	0.158	0.009
-159.750	431.088	-0.037	0.080
-158.735	-111.571	0.088	0.018
-157.720	-124.200	-0.380	0.059
-156.706	55.839	-0.104	-0.101
-155.691	-43.961	-0.202	0.101
-154.677	200.840	0.090	0.138
-153.662	-200.000	-0.005	0.072
-152.647	-155.359	0.210	0.014
-151.633	-200.000	-0.001	-0.348
-150.618	-90.882	-0.280	0.081
-149.604	82.588	-0.108	-0.117
-148.589	-63.188	-0.066	0.027
-147.574	-200.000	-0.036	0.364
-146.560	-200.000	-0.028	0.299
-145.545	-6.709	0.216	0.147
-144.531	-200.000	0.006	-0.064
-143.516	800.000	-0.123	-0.423
-142.502	800.000	0.039	0.163
-141.487	163.350	0.162	-0.227
-140.472	-200.000	0.003	-0.049
-139.458	43.196	0.173	-0.158
-138.443	-200.000	-0.002	-0.200
-137.429	-200.000	0.050	0.335
-136.414	142.027	-0.302	-0.399
-135.399	559.335	0.018	-0.045
-134.385	-101.418	-0.159	-0.039
-133.370	-97.726	0.442	0.114
-132.356	-19.840	0.235	-0.145
-131.341	800.000	-0.020	-0.077
-130.326	-200.000	0.469	0.002
-129.312	-44.575	0.071	-0.036
-128.297	-33.720	0.116	0.064
-127.283	-200.000	0.008	0.198
-126.268	-200.000	0.009	0.096
-125.253	-130.049	0.105	-0.014
-124.239	425.641	-0.148	-0.318
-123.224	-61.010	0.199	-0.084
-122.210	-29.342	0.391	-0.223
