DTS Sentinel unit serial number:	SN413079Multiplexer serial number:	ORYXHardware model number:	OX4-SRSoftware version number:	ORYX F/W v4.00 Oryx Data Collector v3.7.2.0data status	okinstallation	princeton_trtdifferential loss correction	single-endedforward channel	channel 1reverse channel	N/Adate	2019/09/17time	09:30:35forward acquisition time	60.00reverse acquisition time	0.00gamma	496.2192k internal	0.2324k external	0.2324temperature offset calibration	0.9957default loss term (dB/km)	0.3790temperature slope calibration	1.0000multiplexer offset coefficient	1.0000multiplexer slope coefficient	1.0000fibre end	0.00T internal ref (°C)	29.00T ext. ref 1 (°C)	0.14T ext. ref 2 (°C)	25.49length (m)	temperature (°C)	Stokes	anti-Stokes-747.200	-200.000	-0.023	0.156
-746.185	-139.724	0.240	-0.026
-745.171	108.392	0.147	-0.177
-744.156	-200.000	-0.071	0.450
-743.142	-128.088	-0.549	0.079
-742.127	800.000	-0.152	0.445
-741.112	-200.000	0.002	0.448
-740.098	131.415	0.048	0.062
-739.083	-66.090	0.059	0.024
-738.069	-130.469	-0.102	0.014
-737.054	296.246	-0.070	0.130
-736.039	247.413	-0.035	-0.060
-735.025	800.000	-0.107	-0.331
-734.010	277.350	-0.058	0.103
-732.996	288.328	-0.207	-0.377
-731.981	-118.336	-0.171	-0.031
-730.966	-87.709	-0.166	0.051
-729.952	342.849	-0.150	-0.296
-728.937	-13.383	0.081	-0.053
-727.923	-200.000	0.012	0.102
-726.908	-29.599	-0.423	0.244
-725.894	34.317	0.171	-0.151
-724.879	-135.344	-0.080	0.010
-723.864	-80.783	-0.247	0.083
-722.850	-79.766	-0.170	0.058
-721.835	-122.913	0.065	0.011
-720.821	800.000	0.061	-0.243
-719.806	-116.821	-0.250	-0.046
-718.791	-50.881	0.171	-0.081
-717.777	-18.600	-0.211	0.133
-716.762	380.164	-0.157	0.325
-715.748	-200.000	0.001	0.066
-714.733	21.243	-0.310	0.254
-713.718	-200.000	0.025	-0.120
-712.704	-200.000	0.018	-0.103
-711.689	-10.058	0.314	-0.210
-710.675	-46.817	-0.273	-0.135
-709.660	-66.587	-0.258	-0.103
-708.645	335.083	-0.064	0.124
-707.631	-18.780	0.023	0.015
-706.616	-146.852	0.060	0.005
-705.602	-200.000	0.027	-0.179
-704.587	207.292	0.225	-0.354
-703.572	-172.552	-0.246	-0.008
-702.558	-15.084	0.369	-0.238
-701.543	-200.000	0.022	-0.414
-700.529	-85.507	-0.155	0.049
-699.514	-47.877	-0.256	0.125
-698.499	-67.304	0.150	0.059
-697.485	800.000	0.040	-0.134
-696.470	-106.489	0.455	-0.102
-695.456	266.493	0.122	-0.215
-694.441	207.377	-0.112	-0.177
-693.426	110.857	-0.280	0.339
-692.412	372.407	0.075	0.154
-691.397	-138.044	0.160	0.018
-690.383	22.939	-0.180	-0.149
-689.368	-124.873	-0.131	0.020
-688.354	39.830	-0.047	-0.042
-687.339	-55.856	-0.155	0.070
-686.324	47.385	0.059	0.056
-685.310	222.458	0.171	0.278
-684.295	-65.687	0.067	0.027
-683.281	32.518	0.346	-0.301
-682.266	412.174	-0.211	-0.452
-681.251	800.000	-0.083	-0.315
-680.237	61.968	-0.045	0.045
-679.222	97.118	-0.113	0.130
-678.208	218.087	-0.203	-0.327
-677.193	158.829	0.110	-0.153
-676.178	7.239	0.075	0.056
-675.164	365.848	0.148	-0.301
-674.149	-95.021	-0.090	0.025
-673.135	183.562	0.123	0.183
-672.120	85.583	0.167	-0.184
-671.105	132.685	-0.252	0.327
-670.091	385.325	-0.070	-0.145
-669.076	-58.628	-0.199	-0.087
-668.062	723.847	-0.053	-0.141
-667.047	800.000	0.049	0.172
-666.032	800.000	0.077	-0.298
-665.018	7.795	0.211	-0.159
-664.003	4.583	0.295	-0.218
-662.989	-94.007	0.141	-0.039
-661.974	-93.553	-0.048	0.013
-660.959	80.249	0.250	0.270
-659.945	22.312	-0.105	-0.086
-658.930	170.888	-0.118	-0.171
-657.916	-107.805	-0.140	0.031
-656.901	-20.715	-0.090	-0.055
-655.886	-145.893	-0.216	0.019
-654.872	293.751	-0.048	0.088
-653.857	-29.197	0.206	-0.119
-652.843	-159.186	-0.488	0.028
-651.828	129.403	0.091	-0.117
-650.814	381.726	0.027	-0.055
-649.799	571.395	0.100	-0.246
-648.784	-10.417	0.067	0.045
-647.770	-200.000	0.042	0.306
-646.755	-115.852	0.301	-0.057
-645.741	-71.820	-0.378	0.142
-644.726	-21.189	-0.265	-0.163
-643.711	143.834	0.088	-0.118
-642.697	-107.991	-0.428	-0.093
-641.682	-152.724	-0.085	-0.006
-640.668	385.396	0.196	-0.406
-639.653	-41.130	-0.013	0.007
-638.638	800.000	0.047	0.196
-637.624	-147.554	0.384	0.033
-636.609	-85.640	0.304	-0.095
-635.595	-70.346	-0.244	0.093
-634.580	-45.059	-0.186	-0.093
-633.565	-14.196	0.255	0.165
-632.551	-24.038	0.259	-0.156
-631.536	-200.000	0.011	-0.099
-630.522	638.650	0.009	0.024
-629.507	296.878	0.093	-0.171
-628.492	211.479	0.191	-0.302
-627.478	-200.000	-0.012	0.266
-626.463	-116.950	-0.205	0.038
-625.449	800.000	0.125	0.485
-624.434	-14.258	0.240	0.155
-623.419	-82.617	-0.136	0.044
-622.405	80.021	-0.103	-0.111
-621.390	-153.057	0.158	0.011
-620.376	49.995	-0.252	-0.238
-619.361	160.430	0.149	-0.208
-618.346	-200.000	0.012	0.075
-617.332	-65.352	0.143	-0.058
-616.317	-63.809	0.074	-0.030
-615.303	21.493	-0.213	-0.174
-614.288	-114.377	-0.410	0.079
-613.273	18.143	-0.242	-0.194
-612.259	11.586	-0.101	-0.077
-611.244	800.000	-0.065	0.192
-610.230	-200.000	-0.003	0.110
-609.215	-50.625	-0.246	-0.116
-608.201	-200.000	-0.037	-0.206
-607.186	17.832	-0.052	-0.042
-606.171	489.924	-0.194	-0.446
-605.157	-110.760	0.216	0.045
-604.142	6.906	0.142	-0.106
-603.128	800.000	0.107	0.307
-602.113	75.909	0.141	-0.150
-601.098	-96.002	-0.204	-0.055
-600.084	-200.000	0.072	0.336
-599.069	-93.036	0.204	-0.057
-598.055	-132.323	-0.243	-0.032
-597.040	90.478	0.020	0.022
-596.025	-146.286	0.280	0.025
-595.011	100.248	0.182	-0.212
-593.996	29.403	-0.222	0.189
-592.982	-135.627	0.375	0.045
-591.967	-139.210	-0.234	-0.025
-590.952	-200.000	-0.039	0.171
-589.938	145.319	-0.211	0.283
-588.923	800.000	-0.090	0.358
-587.909	-200.000	-0.014	-0.133
-586.894	-200.000	0.005	-0.266
-585.879	-200.000	0.097	-0.481
-584.865	95.018	-0.139	0.159
-583.850	800.000	-0.062	-0.193
-582.836	-122.891	0.283	-0.046
-581.821	-200.000	0.009	0.247
-580.806	-4.255	0.088	-0.061
-579.792	-200.000	0.078	-0.415
-578.777	-124.816	-0.283	-0.044
-577.763	142.196	-0.062	-0.083
-576.748	195.024	0.140	-0.213
-575.733	207.179	-0.180	-0.281
-574.719	-99.514	-0.230	-0.058
-573.704	-47.425	-0.155	-0.076
-572.690	26.384	-0.202	-0.169
-571.675	-123.328	0.128	-0.020
-570.661	-200.000	0.021	-0.097
-569.646	-200.000	-0.011	0.065
-568.631	-60.459	-0.244	0.104
-567.617	-92.770	-0.228	0.064
-566.602	-200.000	-0.051	-0.253
-565.588	-123.617	-0.116	-0.019
-564.573	51.367	0.025	-0.024
-563.558	-200.000	-0.022	-0.148
-562.544	-99.707	-0.138	0.035
-561.529	56.950	0.182	-0.178
-560.515	52.865	-0.054	-0.052
-559.500	-81.333	0.315	0.104
-558.485	-0.131	-0.426	-0.304
-557.471	-60.046	-0.204	0.087
-556.456	79.788	-0.105	0.113
-555.442	-21.878	0.177	-0.108
-554.427	-200.000	-0.016	0.102
-553.412	-51.031	-0.094	-0.044
-552.398	-200.000	-0.051	0.319
-551.383	-46.332	-0.116	0.057
-550.369	22.353	-0.371	0.303
-549.354	-61.984	0.060	-0.025
-548.339	800.000	0.069	0.215
-547.325	-200.000	-0.020	0.375
-546.310	-45.131	0.488	0.243
-545.296	273.588	-0.182	0.321
-544.281	17.626	-0.239	-0.191
-543.266	-146.116	0.104	-0.009
-542.252	-200.000	-0.036	0.366
-541.237	-200.000	-0.016	-0.129
-540.223	-50.228	0.237	-0.112
-539.208	-66.589	0.135	-0.054
-538.193	49.247	0.153	0.144
-537.179	-115.005	0.250	-0.048
-536.164	-5.486	0.191	-0.131
-535.150	-84.360	0.124	0.039
-534.135	-1.317	0.299	-0.211
-533.121	128.729	0.058	0.074
-532.106	297.242	0.120	-0.220
-531.091	1.455	-0.237	0.171
-530.077	-200.000	0.022	-0.148
-529.062	-200.000	-0.013	0.179
-528.048	-112.639	-0.089	0.018
-527.033	-200.000	0.000	0.025
-526.018	-86.391	-0.232	0.071
-525.004	800.000	-0.007	-0.024
-523.989	94.879	0.016	-0.018
-522.975	-200.000	-0.003	-0.246
-521.960	-129.363	-0.322	-0.045
-520.945	228.105	0.140	-0.228
-519.931	-128.552	-0.207	0.029
-518.916	-200.000	0.024	-0.296
-517.902	-182.988	0.334	0.006
-516.887	218.142	-0.150	-0.240
-515.872	394.366	-0.065	0.136
-514.858	-200.000	0.004	-0.220
-513.843	-66.606	0.192	0.076
-512.829	-33.539	0.150	-0.083
-511.814	31.026	0.232	-0.199
-510.799	-200.000	-0.000	-0.080
-509.785	-4.380	-0.336	-0.232
-508.770	-81.091	0.143	-0.047
-507.756	263.503	0.139	0.241
-506.741	-46.357	-0.274	0.135
-505.726	-200.000	0.029	0.527
-504.712	255.207	0.204	0.349
-503.697	12.491	0.184	-0.142
-502.683	-35.867	-0.191	-0.103
-501.668	-200.000	-0.014	-0.489
-500.653	268.195	0.155	0.271
-499.639	132.196	0.165	0.213
-498.624	78.660	-0.131	0.140
-497.610	46.205	-0.201	0.186
-496.595	-151.400	0.260	0.019
-495.581	66.359	-0.132	-0.134
-494.566	-114.277	-0.152	0.029
-493.551	800.000	-0.038	0.147
-492.537	800.000	0.078	-0.302
-491.522	-200.000	-0.027	-0.186
-490.508	-73.455	-0.174	-0.063
-489.493	800.000	0.070	-0.210
-488.478	-200.000	-0.014	0.116
-487.464	-104.016	-0.150	0.035
-486.449	800.000	0.075	0.270
-485.435	-200.000	0.016	0.120
-484.420	27.312	-0.085	0.072
-483.405	613.724	-0.052	-0.129
-482.391	61.484	-0.029	0.028
-481.376	174.196	-0.035	-0.051
-480.362	-88.048	0.324	-0.097
-479.347	57.979	0.153	0.150
-478.332	-200.000	-0.004	-0.179
-477.318	-200.000	-0.004	0.139
-476.303	-68.035	0.057	-0.022
-475.289	800.000	-0.053	0.218
-474.274	-56.431	-0.290	0.129
-473.259	-20.577	0.097	0.060
-472.245	-105.197	-0.115	0.026
-471.230	-147.533	-0.122	0.010
-470.216	13.091	0.082	0.063
-469.201	800.000	0.013	0.048
-468.186	-78.000	-0.146	-0.050
-467.172	-32.894	-0.154	0.085
-466.157	-111.029	-0.167	0.034
-465.143	634.325	0.070	0.176
-464.128	-159.539	-0.172	0.010
-463.113	141.746	-0.116	0.153
-462.099	-15.688	-0.107	0.068
-461.084	-200.000	-0.002	0.202
-460.070	61.928	0.105	-0.104
-459.055	-85.199	-0.201	-0.063
-458.040	-86.884	-0.319	0.097
-457.026	142.066	-0.131	-0.174
-456.011	57.090	-0.104	-0.101
-454.997	-100.392	-0.248	-0.061
-453.982	-126.693	0.407	0.060
-452.968	-103.347	0.262	0.062
-451.953	-200.000	0.019	0.290
-450.938	18.872	0.154	0.123
-449.924	-53.855	-0.170	-0.077
-448.909	-98.770	-0.254	-0.065
-447.895	11.024	0.025	0.019
-446.880	-164.611	0.529	0.024
-445.865	-28.062	-0.227	-0.131
-444.851	-200.000	-0.035	-0.239
-443.836	800.000	0.029	0.126
-442.822	800.000	0.142	0.447
-441.807	-86.672	-0.066	-0.020
-440.792	128.436	-0.252	0.320
-439.778	-14.746	0.032	-0.020
-438.763	66.807	-0.108	0.110
-437.749	800.000	-0.073	0.266
-436.734	134.946	-0.100	-0.129
-435.719	-110.210	-0.144	-0.030
-434.705	-41.856	0.187	0.096
-433.690	-200.000	-0.056	0.257
-432.676	6.481	0.081	0.060
-431.661	-154.362	-0.106	-0.007
-430.646	24.254	0.209	0.172
-429.632	-200.000	-0.020	0.164
-428.617	-200.000	0.008	0.084
-427.603	-40.036	0.312	0.162
-426.588	30.906	0.146	0.125
-425.573	-15.565	0.328	0.209
-424.559	453.699	-0.121	-0.267
-423.544	-200.000	-0.032	0.467
-422.530	-153.726	0.210	-0.014
-421.515	800.000	-0.100	0.373
-420.500	278.256	-0.030	-0.053
-419.486	-16.175	0.251	0.159
-418.471	-32.236	0.329	0.183
-417.457	800.000	0.027	0.098
-416.442	800.000	-0.030	-0.115
-415.428	800.000	0.129	-0.369
-414.413	-200.000	0.048	-0.310
-413.398	16.109	-0.337	0.265
-412.384	-200.000	0.038	-0.269
-411.369	-72.618	0.131	-0.048
-410.355	-200.000	-0.030	-0.297
-409.340	-200.000	-0.051	0.407
-408.325	48.342	0.057	0.053
-407.311	-40.410	0.266	0.138
-406.296	-152.543	-0.152	0.011
-405.282	188.890	-0.058	-0.086
-404.267	-200.000	-0.019	0.094
-403.252	31.826	0.071	-0.061
-402.238	-149.503	-0.392	0.031
-401.223	800.000	-0.006	0.023
-400.209	-65.610	0.205	0.082
-399.194	-200.000	-0.010	0.165
-398.179	-82.554	-0.012	0.004
-397.165	-53.010	0.154	-0.070
-396.150	-127.012	-0.224	-0.033
-395.136	-44.718	0.073	-0.036
-394.121	198.660	0.196	-0.299
-393.106	-63.530	0.279	-0.114
-392.092	-21.832	-0.143	-0.087
-391.077	-16.302	-0.289	0.182
-390.063	800.000	-0.040	0.132
-389.048	229.837	-0.216	0.351
-388.033	338.906	-0.155	0.300
-387.019	66.020	0.149	0.151
-386.004	-127.572	-0.400	0.058
-384.990	77.105	0.158	-0.167
-383.975	-48.498	0.307	-0.147
-382.960	-200.000	0.008	0.038
-381.946	-200.000	0.076	0.370
-380.931	162.922	0.298	0.416
-379.917	-200.000	0.004	0.285
-378.902	-37.695	-0.211	-0.112
-377.888	-200.000	0.013	-0.104
-376.873	83.086	-0.088	0.095
-375.858	-24.398	-0.244	0.144
-374.844	449.450	0.073	-0.159
-373.829	-45.730	-0.265	-0.130
-372.815	336.096	-0.114	0.221
-371.800	-200.000	0.007	0.082
-370.785	-81.030	-0.273	-0.090
-369.771	-58.140	0.213	0.092
-368.756	102.860	-0.056	0.065
-367.742	-177.562	0.246	0.006
-366.727	454.412	-0.136	-0.301
-365.712	-200.000	0.024	-0.253
-364.698	-200.000	-0.021	-0.159
-363.683	-200.000	-0.035	0.179
-362.669	529.590	-0.038	0.089
-361.654	671.476	-0.123	-0.318
-360.639	422.570	0.044	-0.093
-359.625	-146.332	-0.402	-0.035
-358.610	-156.652	-0.112	0.007
-357.596	800.000	-0.103	0.395
-356.581	10.363	0.124	0.094
-355.566	-156.401	-0.371	0.023
-354.552	547.240	-0.083	-0.196
-353.537	252.354	0.069	0.116
-352.523	-65.208	0.326	-0.131
-351.508	-200.000	0.063	-0.295
-350.493	175.627	0.078	-0.113
-349.479	-200.000	0.007	0.079
-348.464	800.000	0.098	-0.290
-347.450	-39.318	-0.311	0.162
-346.435	10.632	-0.090	0.068
-345.420	39.385	0.037	0.033
-344.406	123.351	-0.185	-0.231
-343.391	-200.000	-0.005	-0.142
-342.377	715.609	-0.050	-0.133
-341.362	-200.000	-0.021	0.126
-340.348	46.293	0.157	-0.145
-339.333	-166.995	-0.202	0.008
-338.318	550.225	0.110	-0.263
-337.304	800.000	0.099	-0.285
-336.289	-200.000	-0.003	0.313
-335.275	35.570	-0.071	0.062
-334.260	-125.447	0.316	-0.048
-333.245	800.000	0.032	-0.141
-332.231	59.199	-0.165	-0.161
-331.216	102.636	0.197	0.229
-330.202	80.207	0.250	-0.267
-329.187	800.000	0.015	0.045
-328.172	85.334	-0.046	0.050
-327.158	-109.691	0.410	-0.086
-326.143	-118.590	-0.325	-0.057
-325.129	-96.407	0.019	-0.005
-324.114	289.107	0.137	-0.247
-323.099	50.248	0.234	-0.219
-322.085	-102.007	0.199	-0.048
-321.070	-200.000	-0.002	-0.055
-320.056	-31.823	0.110	-0.061
-319.041	-200.000	-0.013	0.061
-318.026	800.000	0.077	0.251
-317.012	123.452	0.171	-0.213
-315.997	-89.893	-0.110	-0.032
-314.983	5.343	0.139	-0.102
-313.968	-148.834	-0.420	0.034
-312.953	153.815	-0.214	-0.291
-311.939	653.636	0.111	0.282
-310.924	-169.084	0.250	0.009
-309.910	556.737	0.029	0.070
-308.895	-165.115	0.350	-0.015
-307.880	208.515	0.153	-0.238
-306.866	-200.000	0.009	-0.121
-305.851	18.455	-0.230	0.182
-304.837	-14.467	-0.148	-0.095
-303.822	-151.517	0.239	0.018
-302.807	673.867	0.102	-0.262
-301.793	36.012	0.183	-0.160
-300.778	107.505	0.145	0.171
-299.764	-200.000	-0.043	-0.237
-298.749	333.454	0.014	0.026
-297.735	-123.427	-0.151	0.024
-296.720	268.165	0.050	-0.087
-295.705	-192.152	0.395	0.004
-294.691	-150.214	0.311	-0.024
-293.676	-147.445	-0.197	0.017
-292.662	20.411	0.116	-0.093
-291.647	-133.012	-0.108	-0.014
-290.632	-108.754	0.186	-0.039
-289.618	800.000	0.064	0.211
-288.603	55.896	-0.262	0.252
-287.589	-3.597	-0.258	0.178
-286.574	-200.000	-0.002	-0.229
-285.559	7.241	0.155	-0.115
-284.545	-79.932	-0.105	0.035
-283.530	403.991	0.215	0.448
-282.516	-81.552	0.208	-0.068
-281.501	4.055	-0.193	-0.140
-280.486	-200.000	0.012	0.132
-279.472	-127.687	0.205	0.029
-278.457	-10.968	0.089	0.058
-277.443	-116.202	0.097	-0.018
-276.428	-200.000	0.072	0.583
-275.413	223.312	-0.113	-0.180
-274.399	-200.000	0.006	-0.082
-273.384	-200.000	0.021	0.111
-272.370	-126.099	-0.327	0.049
-271.355	-13.205	0.216	-0.139
-270.340	-78.025	-0.337	-0.115
-269.326	16.354	-0.110	0.086
-268.311	-102.245	0.240	-0.057
-267.297	800.000	0.070	0.305
-266.282	-35.422	0.273	-0.147
-265.267	144.141	0.076	0.101
-264.253	24.651	0.128	0.105
-263.238	-52.590	0.208	-0.095
-262.224	621.670	0.047	-0.117
-261.209	-47.248	0.114	-0.055
-260.195	-200.000	0.051	-0.282
-259.180	-72.522	0.175	-0.064
-258.165	632.983	-0.176	-0.441
-257.151	-200.000	-0.019	0.145
-256.136	-81.444	-0.139	-0.045
-255.122	45.417	-0.414	0.378
-254.107	74.593	-0.115	0.120
-253.092	145.890	0.070	0.092
-252.078	-4.312	-0.068	0.047
-251.063	-40.224	0.204	0.105
-250.049	-51.385	-0.281	-0.130
-249.034	-53.946	-0.364	0.164
-248.019	63.944	0.209	0.208
-247.005	-200.000	-0.037	0.234
-245.990	-68.378	-0.375	0.144
-244.976	198.435	0.120	0.182
-243.961	800.000	0.069	-0.250
-242.946	-101.430	-0.185	0.045
-241.932	23.907	0.273	-0.223
-240.917	-83.903	-0.461	0.145
-239.903	-16.217	-0.167	0.105
-238.888	-43.152	0.231	-0.116
-237.873	-26.099	-0.069	0.040
-236.859	-106.242	-0.326	-0.072
-235.844	52.247	-0.220	0.208
-234.830	240.739	-0.128	0.212
-233.815	490.903	0.090	0.204
-232.800	363.880	-0.099	-0.197
-231.786	321.152	-0.057	0.108
-230.771	-75.496	-0.194	0.068
-229.757	-200.000	0.025	-0.109
-228.742	-58.104	0.131	-0.056
-227.727	10.444	0.277	-0.209
-226.713	-137.332	-0.252	-0.028
-225.698	-140.451	-0.328	-0.034
-224.684	-145.256	-0.451	-0.040
-223.669	63.786	0.140	-0.139
-222.655	-21.883	-0.161	-0.097
-221.640	-167.712	-0.071	-0.003
-220.625	-200.000	0.028	0.298
-219.611	-53.551	-0.228	0.103
-218.596	-3.134	0.178	0.123
-217.582	404.421	0.122	-0.254
-216.567	49.507	-0.149	-0.139
-215.552	-121.755	0.353	0.058
-214.538	-161.944	0.123	0.006
-213.523	-200.000	0.053	-0.244
-212.509	78.946	-0.281	-0.298
-211.494	172.421	-0.205	-0.291
-210.479	-93.986	0.351	-0.095
-209.465	-22.031	0.194	0.117
-208.450	286.944	0.024	-0.044
-207.436	-151.842	-0.209	0.015
-206.421	-116.578	0.321	0.058
-205.406	-168.022	0.262	0.010
-204.392	434.156	0.121	-0.260
-203.377	503.258	0.077	-0.175
-202.363	-48.573	-0.251	0.119
-201.348	-50.770	0.098	-0.045
-200.333	-39.711	0.329	0.170
-199.319	-109.368	-0.312	0.065
-198.304	-200.000	0.012	-0.251
-197.290	360.148	0.163	-0.322
-196.275	-200.000	0.003	-0.069
-195.260	72.683	0.170	0.175
-194.246	176.516	0.054	-0.078
-193.231	79.843	-0.327	-0.347
-192.217	-116.587	-0.250	-0.046
-191.202	800.000	0.045	0.129
-190.187	-60.198	0.085	-0.036
-189.173	-145.736	-0.292	0.026
-188.158	-96.333	0.319	-0.083
-187.144	800.000	0.023	-0.087
-186.129	-4.052	0.231	0.158
-185.114	493.220	-0.086	-0.195
-184.100	-149.068	0.331	-0.026
-183.085	-110.584	-0.264	-0.054
-182.071	-200.000	-0.059	0.370
-181.056	-61.152	-0.343	0.143
-180.042	286.682	-0.275	-0.490
-179.027	-200.000	0.005	0.138
-178.012	-102.481	0.163	0.038
-176.998	260.186	0.082	0.140
-175.983	67.510	-0.232	-0.234
-174.969	-118.739	0.243	-0.042
-173.954	21.723	-0.038	-0.030
-172.939	-19.870	0.214	-0.130
-171.925	15.815	0.314	0.244
-170.910	200.306	-0.060	0.091
-169.896	-76.022	0.128	0.045
-168.881	-63.997	-0.084	-0.034
-167.866	60.988	0.091	-0.089
-166.852	120.590	0.243	0.298
-165.837	-200.000	0.000	-0.357
-164.823	395.767	-0.175	-0.361
-163.808	-88.029	-0.241	0.071
-162.793	-95.811	0.173	-0.046
-161.779	90.135	-0.271	0.299
-160.764	591.882	0.041	-0.100
-159.750	-46.315	0.226	-0.110
-158.735	-75.503	0.222	0.078
-157.720	800.000	-0.051	0.217
-156.706	800.000	-0.102	0.341
-155.691	120.667	0.193	-0.236
-154.677	46.085	-0.047	-0.043
-153.662	114.962	0.131	0.157
-152.647	117.140	0.192	0.233
-151.633	45.203	0.199	-0.181
-150.618	253.076	0.037	0.062
-149.604	-116.400	0.293	0.053
-148.589	-126.434	-0.238	0.035
-147.574	-200.000	-0.133	0.000
-146.560	800.000	-0.061	-0.252
-145.545	-73.512	-0.207	-0.075
-144.531	-200.000	-0.017	0.342
-143.516	-200.000	0.002	-0.446
-142.502	800.000	0.066	-0.210
-141.487	321.298	0.162	0.303
-140.472	-200.000	0.015	-0.206
-139.458	4.880	0.140	-0.101
-138.443	9.642	-0.398	0.297
-137.429	-200.000	0.036	0.211
-136.414	162.095	-0.062	0.086
-135.399	316.361	-0.229	0.427
-134.385	460.285	0.061	0.134
-133.370	112.980	-0.142	0.169
-132.356	-200.000	0.034	0.277
-131.341	93.223	-0.050	-0.055
-130.326	68.336	-0.135	-0.137
-129.312	-93.444	-0.139	-0.038
-128.297	-114.830	-0.287	-0.054
-127.283	-42.186	-0.246	-0.124
-126.268	800.000	0.102	-0.338
-125.253	800.000	0.106	-0.342
-124.239	107.398	0.270	-0.316
-123.224	238.853	-0.175	-0.287
-122.210	-128.160	-0.329	-0.046
-121.195	9.614	-0.136	-0.102
