DTS Sentinel unit serial number:	SN413079Multiplexer serial number:	ORYXHardware model number:	OX4-SRSoftware version number:	ORYX F/W v4.00 Oryx Data Collector v3.7.2.0data status	okinstallation	princeton_trtdifferential loss correction	single-endedforward channel	channel 1reverse channel	N/Adate	2019/09/14time	07:02:35forward acquisition time	60.00reverse acquisition time	0.00gamma	496.2192k internal	0.2336k external	0.2336temperature offset calibration	1.0083default loss term (dB/km)	0.3790temperature slope calibration	1.0000multiplexer offset coefficient	1.0000multiplexer slope coefficient	1.0000fibre end	0.00T internal ref (°C)	26.19T ext. ref 1 (°C)	3.44T ext. ref 2 (°C)	20.95length (m)	temperature (°C)	Stokes	anti-Stokes-747.200	800.000	0.084	0.278
-746.185	-150.260	-0.202	0.016
-745.171	-8.936	0.235	-0.158
-744.156	800.000	-0.042	0.182
-743.142	-200.000	-0.082	0.366
-742.127	-200.000	-0.010	0.164
-741.112	236.210	0.105	0.174
-740.098	-82.263	-0.307	0.100
-739.083	800.000	-0.104	0.408
-738.069	800.000	0.107	-0.425
-737.054	224.557	0.052	0.084
-736.039	-132.123	-0.233	0.030
-735.025	678.897	0.145	0.379
-734.010	800.000	-0.153	-0.550
-732.996	-193.734	-0.380	-0.003
-731.981	-17.927	0.348	0.219
-730.966	800.000	0.114	0.321
-729.952	-86.434	0.259	-0.080
-728.937	-1.465	-0.072	0.051
-727.923	-92.511	-0.038	0.011
-726.908	205.245	-0.075	-0.118
-725.894	-200.000	-0.008	-0.207
-724.879	-200.000	-0.054	-0.315
-723.864	-146.756	0.321	0.028
-722.850	800.000	0.117	-0.393
-721.835	-44.326	-0.069	-0.035
-720.821	-77.809	-0.159	0.055
-719.806	658.177	-0.150	0.386
-718.791	4.796	-0.123	-0.091
-717.777	326.548	-0.096	0.184
-716.762	41.312	0.257	-0.234
-715.748	-43.644	-0.135	-0.068
-714.733	439.691	-0.184	-0.403
-713.718	-200.000	-0.000	-0.008
-712.704	-48.692	0.200	-0.096
-711.689	13.883	-0.171	-0.134
-710.675	446.558	0.043	0.095
-709.660	800.000	0.052	-0.189
-708.645	-72.729	0.423	0.156
-707.631	-51.592	0.204	0.096
-706.616	-158.853	-0.114	-0.006
-705.602	131.440	-0.128	-0.165
-704.587	-8.286	0.018	0.012
-703.572	3.966	0.163	-0.120
-702.558	-3.334	-0.085	-0.059
-701.543	-34.380	0.083	-0.046
-700.529	143.635	0.111	-0.149
-699.514	-200.000	-0.018	-0.232
-698.499	340.917	-0.031	0.061
-697.485	-200.000	-0.066	0.447
-696.470	-200.000	0.018	0.131
-695.456	-200.000	0.035	-0.202
-694.441	44.071	0.123	-0.113
-693.426	-106.343	0.166	-0.037
-692.412	384.128	-0.080	-0.166
-691.397	-130.486	0.501	-0.068
-690.383	-153.897	0.204	0.014
-689.368	-4.314	0.292	-0.203
-688.354	32.669	0.257	-0.223
-687.339	-200.000	-0.018	0.124
-686.324	-200.000	-0.019	-0.203
-685.310	-63.238	-0.325	-0.134
-684.295	144.096	-0.098	-0.131
-683.281	66.466	0.156	-0.159
-682.266	65.766	-0.080	0.082
-681.251	-149.159	-0.166	0.013
-680.237	-176.042	-0.209	0.006
-679.222	106.776	-0.119	0.141
-678.208	-200.000	0.041	0.212
-677.193	-143.303	-0.350	0.034
-676.178	3.879	0.243	-0.178
-675.164	511.380	0.094	-0.218
-674.149	-182.686	-0.390	-0.007
-673.135	19.591	0.027	-0.021
-672.120	151.347	0.079	-0.108
-671.105	-200.000	-0.002	0.129
-670.091	-56.659	-0.278	0.123
-669.076	-69.118	0.344	-0.133
-668.062	-200.000	-0.061	-0.418
-667.047	573.630	-0.125	0.305
-666.032	36.049	0.212	0.187
-665.018	43.271	0.119	0.109
-664.003	113.796	0.201	0.245
-662.989	162.330	-0.119	-0.167
-661.974	-200.000	0.010	-0.095
-660.959	82.989	-0.187	-0.204
-659.945	684.668	0.135	-0.353
-658.930	-126.908	-0.080	-0.012
-657.916	26.918	-0.114	-0.095
-656.901	-148.753	-0.107	-0.009
-655.886	-88.630	0.346	0.103
-654.872	-106.704	0.143	0.032
-653.857	92.788	0.232	0.262
-652.843	-86.645	-0.184	0.056
-651.828	800.000	-0.014	-0.059
-650.814	-198.932	-0.149	-0.001
-649.799	-141.341	-0.416	-0.042
-648.784	22.193	-0.163	-0.133
-647.770	560.991	-0.135	-0.325
-646.755	-0.113	0.363	-0.259
-645.741	-33.170	-0.442	0.245
-644.726	-73.543	0.148	-0.054
-643.711	-187.785	0.122	-0.002
-642.697	-109.139	-0.143	-0.030
-641.682	800.000	0.065	-0.213
-640.668	-200.000	-0.014	0.089
-639.653	13.028	-0.228	-0.176
-638.638	-200.000	-0.380	-0.001
-637.624	800.000	-0.082	-0.299
-636.609	-36.772	-0.202	0.108
-635.595	800.000	-0.097	0.289
-634.580	598.056	-0.103	0.256
-633.565	-132.170	-0.617	-0.080
-632.551	-200.000	-0.024	0.156
-631.536	41.507	0.043	0.039
-630.522	-200.000	-0.035	0.262
-629.507	-13.071	0.065	0.042
-628.492	-142.474	0.230	-0.023
-627.478	-101.521	-0.000	-0.000
-626.463	115.867	-0.201	0.246
-625.449	94.075	-0.173	-0.196
-624.434	219.339	-0.129	-0.206
-623.419	-91.761	0.177	-0.050
-622.405	-155.710	-0.101	-0.006
-621.390	-200.000	0.009	-0.373
-620.376	137.583	-0.082	-0.107
-619.361	174.769	-0.053	0.077
-618.346	396.798	0.091	-0.190
-617.332	-10.345	-0.169	-0.112
-616.317	94.341	0.343	-0.390
-615.303	-200.000	-0.025	-0.263
-614.288	-27.882	-0.058	-0.033
-613.273	800.000	0.016	0.065
-612.259	67.500	-0.239	-0.243
-611.244	-92.580	0.322	-0.090
-610.230	77.687	0.084	-0.089
-609.215	-82.039	-0.006	-0.002
-608.201	-200.000	0.000	0.071
-607.186	800.000	0.101	-0.393
-606.171	-109.690	-0.424	-0.089
-605.157	-166.782	0.095	0.004
-604.142	-173.056	-0.065	0.002
-603.128	-77.014	-0.116	0.040
-602.113	0.304	0.130	0.092
-601.098	408.655	0.078	0.165
-600.084	-61.384	-0.175	0.074
-599.069	-200.000	-0.013	-0.182
-598.055	405.346	-0.047	-0.099
-597.040	800.000	-0.037	-0.147
-596.025	84.227	-0.212	-0.231
-595.011	-38.706	-0.192	-0.101
-593.996	300.873	0.130	-0.239
-592.982	-176.813	0.195	0.005
-591.967	800.000	-0.067	0.215
-590.952	-200.000	0.011	-0.180
-589.938	-200.000	0.019	0.286
-588.923	709.904	-0.162	0.426
-587.909	-200.000	0.026	-0.183
-586.894	800.000	0.088	-0.343
-585.879	-200.000	-0.047	0.319
-584.865	-164.945	-0.051	0.002
-583.850	441.758	-0.072	-0.157
-582.836	268.322	-0.067	0.118
-581.821	-200.000	-0.013	0.105
-580.806	64.734	0.167	0.168
-579.792	-200.000	0.050	-0.267
-578.777	293.077	0.063	-0.114
-577.763	-44.556	-0.147	-0.073
-576.748	171.303	-0.035	-0.051
-575.733	-145.749	0.243	-0.022
-574.719	566.813	-0.222	0.538
-573.704	-200.000	0.002	0.028
-572.690	-106.977	-0.066	-0.015
-571.675	128.303	-0.012	-0.015
-570.661	-200.000	-0.028	-0.240
-569.646	261.341	-0.080	-0.139
-568.631	-88.036	0.253	-0.076
-567.617	-200.000	0.054	0.307
-566.602	30.146	0.110	0.094
-565.588	183.143	0.128	-0.188
-564.573	171.475	-0.057	0.081
-563.558	-75.327	0.096	-0.034
-562.544	714.950	0.045	-0.120
-561.529	45.889	0.332	-0.306
-560.515	25.731	-0.288	-0.239
-559.500	-171.150	-0.086	0.003
-558.485	-63.615	0.090	0.037
-557.471	-100.889	-0.265	-0.065
-556.456	6.013	0.136	0.100
-555.442	-105.320	0.248	-0.056
-554.427	315.033	-0.052	-0.097
-553.412	-116.698	0.102	-0.019
-552.398	-74.400	-0.265	0.095
-551.383	-40.535	-0.140	-0.072
-550.369	800.000	0.010	-0.042
-549.354	-137.094	0.087	-0.010
-548.339	148.001	0.124	-0.167
-547.325	-128.533	0.179	-0.025
-546.310	-200.000	0.010	0.149
-545.296	95.159	-0.011	-0.012
-544.281	-69.231	0.147	-0.056
-543.266	2.102	-0.304	-0.219
-542.252	-200.000	-0.011	0.141
-541.237	-124.598	0.218	-0.034
-540.223	-131.852	-0.339	-0.044
-539.208	123.878	0.056	-0.070
-538.193	289.293	0.167	-0.302
-537.179	800.000	-0.120	0.414
-536.164	1.634	0.046	0.033
-535.150	-0.576	0.231	0.163
-534.135	-105.407	-0.054	0.012
-533.121	-200.000	0.015	0.121
-532.106	-10.460	0.305	0.201
-531.091	-123.118	0.133	-0.021
-530.077	-151.352	-0.136	-0.010
-529.062	-200.000	-0.002	0.098
-528.048	427.690	-0.125	0.268
-527.033	-200.000	0.092	0.427
-526.018	161.910	0.235	0.328
-525.004	134.355	-0.173	-0.223
-523.989	-200.000	0.012	-0.320
-522.975	397.306	-0.067	0.139
-521.960	6.519	0.363	-0.269
-520.945	-72.795	0.148	0.054
-519.931	-200.000	0.114	-0.001
-518.916	-18.052	0.227	0.142
-517.902	-22.292	0.220	-0.133
-516.887	-136.323	-0.198	0.023
-515.872	-200.000	0.061	0.372
-514.858	93.755	-0.126	0.142
-513.843	-94.257	0.072	0.020
-512.829	36.111	-0.130	-0.114
-511.814	-35.794	-0.253	-0.136
-510.799	-37.105	-0.258	-0.137
-509.785	175.466	-0.133	-0.193
-508.770	133.808	0.258	-0.332
-507.756	800.000	-0.063	0.211
-506.741	-200.000	0.001	0.084
-505.726	-55.477	0.237	-0.106
-504.712	800.000	-0.112	-0.404
-503.697	-200.000	-0.059	0.367
-502.683	800.000	-0.030	0.120
-501.668	29.502	-0.144	-0.122
-500.653	24.473	-0.230	-0.189
-499.639	-122.078	0.132	-0.021
-498.624	-118.987	-0.370	0.065
-497.610	145.140	0.208	0.277
-496.595	-41.553	0.352	-0.180
-495.581	791.535	0.085	0.233
-494.566	92.065	0.163	-0.182
-493.551	-200.000	-0.009	0.200
-492.537	40.692	0.185	-0.165
-491.522	-200.000	-0.008	-0.153
-490.508	-4.897	0.064	0.044
-489.493	165.000	0.074	0.104
-488.478	85.987	-0.174	0.190
-487.464	-129.570	0.306	0.042
-486.449	758.162	-0.070	-0.188
-485.435	-200.000	0.015	0.066
-484.420	30.901	-0.247	-0.210
-483.405	-45.378	-0.133	-0.066
-482.391	34.486	0.254	-0.220
-481.376	-65.075	0.066	0.027
-480.362	-124.055	-0.255	0.040
-479.347	-127.486	-0.235	0.034
-478.332	436.781	0.124	0.269
-477.318	-18.840	0.107	0.066
-476.303	82.577	-0.184	-0.198
-475.289	-154.741	-0.555	0.037
-474.274	-99.534	-0.257	-0.064
-473.259	-200.000	0.044	-0.231
-472.245	-18.257	-0.318	0.198
-471.230	-40.266	-0.120	0.062
-470.216	800.000	0.118	-0.350
-469.201	137.351	0.277	0.360
-468.186	-39.457	-0.278	0.145
-467.172	-200.000	-0.026	0.135
-466.157	220.280	0.103	0.164
-465.143	800.000	-0.075	0.295
-464.128	-69.318	-0.198	0.075
-463.113	314.485	-0.158	-0.296
-462.099	-36.046	0.264	-0.142
-461.084	386.968	-0.156	-0.321
-460.070	-174.568	0.107	-0.003
-459.055	-83.679	0.042	-0.013
-458.040	296.330	-0.090	0.163
-457.026	-200.000	-0.033	-0.295
-456.011	-47.463	-0.439	-0.212
-454.997	-200.000	-0.022	-0.104
-453.982	-64.275	-0.077	0.031
-452.968	169.930	0.124	-0.175
-451.953	84.103	-0.135	-0.147
-450.938	-200.000	-0.063	0.348
-449.924	-200.000	-0.030	0.195
-448.909	-200.000	0.028	-0.153
-447.895	-47.945	0.148	-0.071
-446.880	-127.232	0.203	0.029
-445.865	-46.326	0.106	0.052
-444.851	-200.000	0.056	0.286
-443.836	-200.000	-0.038	0.236
-442.822	60.119	0.099	0.097
-441.807	800.000	-0.010	0.044
-440.792	-20.002	0.046	-0.028
-439.778	-134.386	0.248	0.030
-438.763	431.459	-0.069	0.149
-437.749	-58.241	-0.162	-0.070
-436.734	-35.783	0.305	-0.164
-435.719	111.862	-0.259	-0.311
-434.705	-200.000	-0.000	-0.193
-433.690	-61.809	0.135	0.056
-432.676	-56.834	0.152	-0.067
-431.661	800.000	0.031	-0.131
-430.646	-200.000	-0.021	0.183
-429.632	275.425	-0.143	-0.251
-428.617	800.000	0.052	-0.190
-427.603	-200.000	-0.041	0.215
-426.588	-90.688	0.226	0.065
-425.573	-83.340	0.133	-0.042
-424.559	19.545	-0.199	0.159
-423.544	5.751	-0.157	-0.115
-422.530	-178.413	-0.124	0.003
-421.515	78.806	-0.259	0.274
-420.500	239.261	0.176	-0.291
-419.486	-200.000	0.014	0.165
-418.471	-23.076	-0.074	0.044
-417.457	118.263	-0.135	0.165
-416.442	91.280	0.198	-0.221
-415.428	-113.212	0.423	-0.082
-414.413	-88.343	0.156	0.046
-413.398	800.000	0.032	-0.100
-412.384	-200.000	-0.057	0.536
-411.369	-35.917	-0.360	-0.193
-410.355	-99.795	0.153	0.038
-409.340	27.861	-0.095	-0.079
-408.325	-200.000	0.075	0.500
-407.311	-195.030	0.245	0.002
-406.296	-67.731	0.242	0.094
-405.282	135.297	-0.098	0.126
-404.267	-200.000	0.075	-0.366
-403.252	183.935	-0.067	-0.099
-402.238	81.950	0.216	-0.232
-401.223	800.000	-0.148	-0.424
-400.209	-200.000	-0.041	0.253
-399.194	-63.141	0.300	-0.123
-398.179	-113.383	0.228	-0.044
-397.165	800.000	0.061	-0.175
-396.150	-76.492	0.082	-0.028
-395.136	-101.213	-0.173	0.042
-394.121	78.552	-0.161	-0.171
-393.106	-12.579	-0.159	-0.103
-392.092	800.000	-0.141	0.396
-391.077	800.000	0.093	0.399
-390.063	-61.556	-0.272	0.113
-389.048	800.000	0.061	0.179
-388.033	800.000	-0.110	-0.332
-387.019	800.000	-0.044	0.138
-386.004	270.631	0.212	-0.369
-384.990	95.001	0.130	0.146
-383.975	3.792	0.202	-0.146
-382.960	-147.189	0.157	-0.013
-381.946	-77.602	0.175	0.060
-380.931	112.320	-0.075	0.090
-379.917	-137.747	-0.176	-0.020
-378.902	-74.112	0.490	-0.176
-377.888	-200.000	0.005	-0.131
-376.873	119.950	-0.208	0.255
-375.858	337.132	-0.113	-0.217
-374.844	800.000	0.034	0.124
-373.829	-122.650	0.199	-0.032
-372.815	-200.000	-0.004	-0.102
-371.800	42.356	0.198	-0.178
-370.785	66.261	0.123	0.124
-369.771	138.684	-0.191	0.248
-368.756	800.000	0.037	0.107
-367.742	255.636	-0.101	0.172
-366.727	556.734	-0.076	-0.180
-365.712	-56.998	-0.181	0.079
-364.698	-110.297	0.227	0.047
-363.683	21.302	-0.272	-0.219
-362.669	588.812	0.045	-0.110
-361.654	128.693	-0.196	-0.247
-360.639	800.000	0.109	-0.310
-359.625	800.000	0.089	0.297
-358.610	50.483	-0.106	-0.099
-357.596	-200.000	-0.029	0.305
-356.581	400.426	-0.025	0.051
-355.566	116.036	0.189	0.229
-354.552	-21.118	0.097	0.059
-353.537	-176.453	-0.112	0.003
-352.523	-200.000	0.016	-0.298
-351.508	800.000	-0.057	0.226
-350.493	800.000	-0.038	-0.125
-349.479	740.946	-0.143	-0.381
-348.464	174.358	-0.105	0.150
-347.450	800.000	0.061	-0.260
-346.435	800.000	0.071	0.197
-345.420	487.728	0.058	0.130
-344.406	-87.907	0.337	0.100
-343.391	163.993	-0.215	0.299
-342.377	800.000	-0.060	-0.243
-341.362	599.599	-0.165	0.404
-340.348	-14.801	-0.270	-0.171
-339.333	-200.000	-0.041	-0.190
-338.318	-200.000	0.007	0.257
-337.304	100.206	0.121	0.139
-336.289	-200.000	0.004	-0.099
-335.275	740.029	-0.024	-0.063
-334.260	235.037	-0.069	-0.113
-333.245	-143.707	0.355	-0.033
-332.231	-42.641	0.244	-0.123
-331.216	48.543	-0.201	-0.186
-330.202	-35.522	-0.284	0.153
-329.187	-8.050	-0.064	-0.043
-328.172	79.814	-0.097	-0.103
-327.158	59.979	-0.107	-0.104
-326.143	-5.226	-0.279	0.190
-325.129	-102.997	0.373	-0.087
-324.114	238.328	-0.037	0.060
-323.099	101.696	0.201	-0.232
-322.085	74.141	0.073	-0.076
-321.070	800.000	0.042	0.138
-320.056	244.605	0.079	-0.132
-319.041	-35.129	0.152	0.082
-318.026	3.042	0.384	-0.276
-317.012	-165.286	0.260	0.011
-315.997	-79.790	0.250	0.083
-314.983	-98.723	-0.046	0.011
-313.968	-164.321	-0.130	-0.006
-312.953	356.625	-0.123	0.241
-311.939	-200.000	-0.088	0.421
-310.924	181.680	0.207	-0.300
-309.910	243.161	0.131	-0.217
-308.895	159.983	0.110	-0.151
-307.880	-200.000	0.003	-0.071
-306.866	86.361	0.039	0.043
-305.851	-47.495	0.264	0.127
-304.837	-200.000	-0.002	0.168
-303.822	-200.000	0.025	-0.367
-302.807	-22.990	-0.134	0.080
-301.793	-105.942	0.217	-0.048
-300.778	702.406	0.122	-0.318
-299.764	85.575	0.353	0.383
-298.749	8.764	0.181	-0.135
-297.735	-25.108	0.138	-0.081
-296.720	270.737	0.113	-0.196
-295.705	35.756	-0.281	-0.244
-294.691	3.838	0.130	0.094
-293.676	-81.316	0.242	0.079
-292.662	-146.589	-0.366	0.031
-291.647	14.257	-0.020	0.015
-290.632	197.488	-0.115	0.174
-289.618	-88.920	-0.237	0.069
-288.603	-32.031	-0.328	-0.181
-287.589	800.000	-0.075	0.208
-286.574	-200.000	0.010	0.219
-285.559	153.087	0.113	-0.153
-284.545	-200.000	-0.027	0.292
-283.530	48.661	-0.138	-0.127
-282.516	-200.000	0.026	0.189
-281.501	515.796	-0.031	0.071
-280.486	13.460	0.095	0.073
-279.472	-10.552	0.138	-0.090
-278.457	-62.218	-0.447	0.184
-277.443	-87.914	-0.140	-0.041
-276.428	-200.000	0.001	-0.019
-275.413	-38.975	0.135	-0.070
-274.399	309.962	-0.084	0.155
-273.384	75.723	0.247	0.257
-272.370	380.566	0.010	0.020
-271.355	-107.181	0.341	0.074
-270.340	585.098	-0.139	0.336
-269.326	32.681	0.132	-0.112
-268.311	800.000	0.084	-0.264
-267.297	-154.719	0.321	-0.021
-266.282	25.209	-0.096	0.079
-265.267	800.000	-0.043	0.146
-264.253	183.033	0.060	-0.087
-263.238	-110.318	-0.208	-0.043
-262.224	39.538	0.189	0.167
-261.209	-38.418	0.350	-0.183
-260.195	765.606	0.133	-0.356
-259.180	-200.000	-0.048	0.365
-258.165	6.431	-0.108	-0.079
-257.151	117.957	0.093	-0.113
-256.136	-47.494	-0.198	0.095
-255.122	53.056	-0.245	0.231
-254.107	344.043	0.130	-0.252
-253.092	-200.000	0.002	-0.060
-252.078	-104.639	-0.101	-0.023
-251.063	60.875	0.102	0.100
-250.049	-121.824	-0.182	-0.030
-249.034	-66.393	0.026	0.010
-248.019	-170.720	-0.191	-0.006
-247.005	88.206	-0.137	0.150
-245.990	-89.416	0.205	0.059
-244.976	691.450	-0.051	-0.130
-243.961	-139.058	-0.161	0.017
-242.946	-78.401	0.096	-0.032
-241.932	-104.836	-0.189	-0.043
-240.917	1.015	-0.081	0.057
-239.903	-200.000	0.034	-0.223
-238.888	-200.000	-0.011	-0.188
-237.873	203.653	-0.134	0.204
-236.859	-86.742	0.093	-0.028
-235.844	65.515	0.130	-0.130
-234.830	-200.000	-0.019	-0.104
-233.815	23.554	0.038	0.031
-232.800	800.000	0.042	0.132
-231.786	-200.000	0.026	0.266
-230.771	38.169	-0.202	0.177
-229.757	271.427	0.030	-0.052
-228.742	-200.000	-0.003	0.254
-227.727	-200.000	-0.001	0.214
-226.713	-200.000	0.003	-0.081
-225.698	-200.000	0.052	0.228
-224.684	146.887	-0.113	0.150
-223.669	-176.171	-0.228	-0.006
-222.655	-117.985	0.099	-0.017
-221.640	197.505	-0.124	0.186
-220.625	98.761	-0.169	0.192
-219.611	-200.000	0.012	0.259
-218.596	-200.000	-0.002	0.179
-217.582	-100.007	0.127	0.031
-216.567	-73.415	-0.190	-0.068
-215.552	-1.914	0.267	0.185
-214.538	-106.354	-0.293	0.064
-213.523	17.061	0.187	-0.145
-212.509	-49.201	0.110	-0.052
-211.494	353.085	-0.078	0.153
-210.479	136.836	0.150	0.192
-209.465	-200.000	-0.010	0.294
-208.450	-200.000	0.017	0.153
-207.436	-50.821	-0.072	-0.033
-206.421	-42.115	-0.036	0.018
-205.406	145.275	-0.080	-0.105
-204.392	293.379	-0.170	0.305
-203.377	133.255	-0.141	-0.179
-202.363	-125.875	-0.209	0.031
-201.348	-154.975	-0.254	-0.016
-200.333	301.087	0.126	-0.229
-199.319	-200.000	-0.002	0.091
-198.304	151.687	0.065	0.087
-197.290	-69.818	-0.169	0.063
-196.275	169.204	0.308	0.432
-195.260	-200.000	-0.045	-0.263
-194.246	112.067	-0.188	0.223
-193.231	-137.616	-0.159	-0.018
-192.217	13.476	-0.280	-0.213
-191.202	-59.439	0.298	0.126
-190.187	-28.291	-0.057	-0.032
-189.173	-63.490	-0.056	0.023
-188.158	-3.238	0.144	0.099
-187.144	-106.105	0.143	-0.032
-186.129	-200.000	-0.004	-0.319
-185.114	-152.535	0.052	-0.004
-184.100	266.523	0.094	0.162
-183.085	-124.231	0.471	-0.072
-182.071	-17.815	-0.159	-0.098
-181.056	-200.000	-0.024	-0.321
-180.042	-64.511	-0.187	-0.075
-179.027	156.247	0.023	0.031
-178.012	800.000	-0.106	0.324
-176.998	225.790	0.153	0.243
-175.983	-116.848	0.252	-0.045
-174.969	-200.000	-0.063	-0.316
-173.954	95.700	-0.141	0.158
-172.939	398.509	-0.063	-0.130
-171.925	-200.000	0.031	0.267
-170.910	-51.319	-0.047	-0.021
-169.896	-104.622	-0.158	0.036
-168.881	-83.921	-0.073	-0.023
-167.866	57.193	0.411	-0.393
-166.852	-6.972	0.228	-0.152
-165.837	792.399	-0.083	0.225
-164.823	-200.000	-0.038	0.348
-163.808	-35.588	0.143	-0.076
-162.793	800.000	-0.055	0.179
-161.779	-97.048	0.068	-0.017
-160.764	-17.921	0.338	-0.208
-159.750	-30.360	0.300	0.167
-158.735	-200.000	0.025	-0.000
-157.720	26.892	0.192	-0.158
-156.706	-143.794	-0.236	0.022
-155.691	-200.000	-0.007	0.218
-154.677	-110.018	-0.167	-0.034
-153.662	232.831	0.068	-0.110
-152.647	800.000	0.025	-0.095
-151.633	728.936	0.097	0.255
-150.618	-50.019	0.181	0.084
-149.604	21.659	0.064	-0.051
-148.589	-79.971	0.146	-0.048
-147.574	-119.437	0.193	0.033
-146.560	222.277	-0.216	0.340
-145.545	12.037	0.143	0.108
-144.531	21.694	-0.209	0.167
-143.516	-160.255	0.041	0.002
-142.502	115.092	0.207	-0.248
-141.487	-34.174	-0.263	-0.142
-140.472	-138.138	0.275	-0.030
-139.458	-114.182	0.219	-0.041
-138.443	-57.126	0.107	-0.046
-137.429	30.517	-0.212	0.178
-136.414	127.245	-0.047	0.058
-135.399	-200.000	-0.041	0.288
-134.385	-37.799	-0.255	-0.133
-133.370	800.000	-0.038	-0.154
-132.356	-34.968	-0.112	0.060
-131.341	644.810	-0.003	-0.008
-130.326	336.779	-0.022	0.041
-129.312	433.580	0.152	0.324
-128.297	-155.427	0.209	0.013
-127.283	325.426	-0.204	0.383
-126.268	-157.435	0.256	-0.015
-125.253	454.808	0.064	0.138
-124.239	-200.000	0.009	-0.175
-123.224	-90.259	0.236	-0.067
-122.210	-200.000	-0.005	0.059
