DTS Sentinel unit serial number:	SN413079Multiplexer serial number:	ORYXHardware model number:	OX4-SRSoftware version number:	ORYX F/W v4.00 Oryx Data Collector v3.7.2.0data status	okinstallation	princeton_trtdifferential loss correction	single-endedforward channel	channel 1reverse channel	N/Adate	2019/09/13time	22:50:35forward acquisition time	60.00reverse acquisition time	0.00gamma	496.2192k internal	0.2334k external	0.2334temperature offset calibration	1.0087default loss term (dB/km)	0.3790temperature slope calibration	1.0000multiplexer offset coefficient	1.0000multiplexer slope coefficient	1.0000fibre end	0.00T internal ref (°C)	27.50T ext. ref 1 (°C)	3.21T ext. ref 2 (°C)	21.55length (m)	temperature (°C)	Stokes	anti-Stokes-747.200	82.249	-0.068	-0.074
-746.185	494.759	-0.144	0.332
-745.171	-200.000	-0.062	-0.286
-744.156	0.927	-0.417	0.300
-743.142	-200.000	-0.069	0.388
-742.127	21.373	-0.269	0.219
-741.112	-200.000	-0.024	0.247
-740.098	-200.000	-0.020	0.255
-739.083	-134.386	-0.294	0.036
-738.069	-200.000	0.026	0.258
-737.054	439.200	-0.110	0.242
-736.039	7.803	-0.079	-0.059
-735.025	54.497	0.059	0.057
-734.010	-123.366	-0.283	0.045
-732.996	-104.537	0.314	0.073
-731.981	-63.735	-0.160	-0.066
-730.966	-13.263	0.097	-0.063
-729.952	4.963	-0.453	-0.335
-728.937	-200.000	0.035	-0.167
-727.923	-40.522	-0.012	-0.006
-726.908	65.766	0.251	0.255
-725.894	-60.504	-0.145	0.062
-724.879	30.920	-0.158	-0.136
-723.864	-200.000	-0.022	0.215
-722.850	-14.974	0.181	-0.116
-721.835	147.046	-0.090	0.122
-720.821	-3.061	-0.222	-0.156
-719.806	67.863	-0.178	-0.183
-718.791	122.740	-0.172	0.216
-717.777	-44.890	-0.149	0.075
-716.762	121.458	-0.171	-0.214
-715.748	800.000	0.067	-0.204
-714.733	648.607	-0.081	-0.207
-713.718	-12.928	0.082	0.054
-712.704	55.508	0.043	-0.042
-711.689	-109.226	-0.297	0.063
-710.675	-52.846	0.059	-0.027
-709.660	41.106	0.115	0.105
-708.645	190.637	-0.096	-0.145
-707.631	-110.697	0.034	-0.007
-706.616	133.772	0.230	0.298
-705.602	15.521	-0.064	0.050
-704.587	-137.799	-0.087	0.010
-703.572	275.187	-0.101	0.181
-702.558	413.261	0.140	-0.299
-701.543	46.591	-0.401	0.374
-700.529	22.311	0.277	-0.227
-699.514	-200.000	-0.011	0.106
-698.499	800.000	-0.042	-0.164
-697.485	-200.000	0.059	0.268
-696.470	96.914	0.084	-0.097
-695.456	800.000	-0.198	-0.661
-694.441	-134.420	0.146	0.018
-693.426	34.073	-0.126	-0.110
-692.412	-200.000	0.025	-0.276
-691.397	-200.000	0.002	-0.047
-690.383	800.000	-0.019	-0.069
-689.368	-73.389	-0.226	-0.083
-688.354	-55.825	-0.043	-0.019
-687.339	-122.615	-0.309	0.050
-686.324	-69.340	-0.280	0.108
-685.310	-60.176	0.165	-0.071
-684.295	60.724	-0.124	0.123
-683.281	-128.176	0.080	-0.011
-682.266	-157.898	0.572	-0.034
-681.251	-46.154	-0.450	0.222
-680.237	-25.029	-0.147	0.087
-679.222	-122.313	-0.384	0.063
-678.208	-44.748	-0.175	-0.088
-677.193	110.366	-0.304	-0.367
-676.178	-79.046	-0.355	0.121
-675.164	267.734	0.123	0.216
-674.149	572.608	0.084	-0.204
-673.135	-163.083	-0.257	0.012
-672.120	-200.000	0.013	-0.106
-671.105	-62.317	-0.425	0.178
-670.091	-200.000	0.066	-0.336
-669.076	124.935	0.069	0.087
-668.062	149.153	-0.093	-0.126
-667.047	-101.611	-0.108	-0.026
-666.032	800.000	-0.064	-0.203
-665.018	-59.945	-0.223	-0.096
-664.003	134.303	-0.056	-0.073
-662.989	-118.922	0.150	0.026
-661.974	-107.571	-0.113	-0.025
-660.959	284.939	0.119	-0.214
-659.945	412.529	0.088	0.186
-658.930	-63.090	-0.187	0.078
-657.916	35.755	0.146	-0.128
-656.901	-20.154	0.051	-0.032
-655.886	170.110	0.103	-0.147
-654.872	-30.506	0.244	0.138
-653.857	-13.512	-0.269	0.175
-652.843	62.783	0.125	0.125
-651.828	-78.876	0.253	-0.086
-650.814	-124.322	-0.041	-0.006
-649.799	49.203	-0.265	-0.249
-648.784	737.232	0.106	-0.283
-647.770	-44.017	-0.135	0.068
-646.755	-30.770	-0.307	-0.174
-645.741	-30.612	0.262	-0.149
-644.726	-47.837	0.082	0.040
-643.711	97.759	-0.154	-0.177
-642.697	-38.157	-0.081	0.043
-641.682	180.313	-0.125	-0.183
-640.668	21.507	-0.383	-0.312
-639.653	-121.531	0.115	-0.019
-638.638	-112.317	-0.050	-0.010
-637.624	-84.727	-0.112	0.035
-636.609	395.075	0.010	-0.021
-635.595	-126.012	0.340	0.051
-634.580	-132.398	-0.072	0.009
-633.565	-200.000	-0.003	0.059
-632.551	-47.647	-0.179	-0.087
-631.536	-141.758	-0.026	-0.003
-630.522	-47.758	0.474	-0.230
-629.507	-16.346	0.284	0.180
-628.492	-19.287	0.147	0.091
-627.478	-200.000	-0.032	-0.210
-626.463	239.074	0.286	0.476
-625.449	-168.885	0.173	0.007
-624.434	-130.924	0.147	-0.020
-623.419	-106.954	0.191	-0.042
-622.405	69.248	0.199	-0.205
-621.390	192.026	-0.143	-0.216
-620.376	-108.430	-0.234	0.050
-619.361	444.308	-0.074	0.163
-618.346	-200.000	-0.038	-0.224
-617.332	-109.750	0.262	-0.055
-616.317	-52.138	0.440	0.204
-615.303	-47.221	-0.260	0.127
-614.288	286.787	-0.109	0.197
-613.273	553.343	0.074	-0.177
-612.259	-200.000	-0.019	0.191
-611.244	-146.954	0.323	0.028
-610.230	14.394	-0.240	-0.188
-609.215	800.000	0.037	0.113
-608.201	-20.691	0.079	0.049
-607.186	44.292	-0.087	-0.080
-606.171	69.819	0.192	-0.198
-605.157	140.100	-0.145	0.191
-604.142	-23.323	0.088	-0.053
-603.128	-200.000	0.030	-0.220
-602.113	383.619	0.015	-0.031
-601.098	-200.000	-0.353	0.000
-600.084	800.000	0.086	0.265
-599.069	87.300	-0.065	0.072
-598.055	800.000	-0.074	0.214
-597.040	78.632	-0.358	0.382
-596.025	140.118	-0.165	-0.218
-595.011	-83.777	0.063	-0.020
-593.996	-96.679	0.422	-0.111
-592.982	11.687	0.162	0.124
-591.967	-98.398	-0.216	0.055
-590.952	63.822	-0.147	0.148
-589.938	-200.000	-0.020	-0.138
-588.923	73.816	0.136	0.142
-587.909	35.452	0.167	-0.146
-586.894	-53.581	0.124	-0.056
-585.879	-81.948	-0.114	0.037
-584.865	-200.000	0.019	-0.240
-583.850	113.622	-0.171	0.208
-582.836	109.258	0.103	-0.123
-581.821	88.932	-0.129	0.144
-580.806	-84.308	-0.241	0.076
-579.792	800.000	-0.121	-0.338
-578.777	138.479	0.112	-0.147
-577.763	-74.770	0.427	-0.153
-576.748	186.417	-0.080	-0.118
-575.733	-36.668	-0.137	0.074
-574.719	-195.717	-0.046	-0.000
-573.704	58.971	0.119	0.117
-572.690	800.000	-0.032	0.120
-571.675	670.029	0.052	-0.134
-570.661	-114.005	-0.138	0.027
-569.646	-38.926	0.141	-0.074
-568.631	103.833	-0.004	0.004
-567.617	32.584	-0.308	0.266
-566.602	-120.230	-0.272	-0.046
-565.588	721.551	-0.075	0.198
-564.573	-8.846	-0.472	-0.316
-563.558	-200.000	-0.035	-0.284
-562.544	-55.583	0.409	0.183
-561.529	415.920	-0.058	0.124
-560.515	-48.382	-0.292	-0.140
-559.500	-87.190	0.036	0.011
-558.485	-74.494	0.164	-0.059
-557.471	144.803	0.059	-0.079
-556.456	-138.561	-0.165	0.018
-555.442	-64.754	-0.354	-0.143
-554.427	-105.055	-0.219	-0.050
-553.412	-92.446	0.384	0.108
-552.398	719.578	0.045	0.120
-551.383	-153.003	-0.131	0.009
-550.369	130.534	0.298	0.381
-549.354	486.451	0.007	-0.017
-548.339	-107.009	-0.445	0.098
-547.325	3.402	0.148	-0.107
-546.310	81.976	-0.233	-0.252
-545.296	171.911	-0.134	0.193
-544.281	148.069	-0.020	-0.028
-543.266	-200.000	0.001	0.202
-542.252	-21.500	0.255	-0.155
-541.237	155.420	0.106	0.146
-540.223	-33.573	-0.203	0.112
-539.208	104.356	-0.228	-0.267
-538.193	800.000	-0.052	-0.196
-537.179	115.418	0.283	0.345
-536.164	248.126	-0.025	0.042
-535.150	501.372	-0.116	-0.268
-534.135	19.838	0.092	-0.074
-533.121	51.932	0.126	-0.120
-532.106	553.623	0.126	-0.301
-531.091	28.290	-0.242	0.204
-530.077	-59.216	-0.124	0.053
-529.062	-155.262	-0.238	-0.015
-528.048	184.387	-0.049	0.072
-527.033	-200.000	-0.046	0.208
-526.018	36.574	-0.172	-0.152
-525.004	800.000	0.060	0.240
-523.989	-187.681	-0.206	-0.003
-522.975	282.873	0.192	-0.344
-521.960	7.633	-0.178	-0.133
-520.945	-46.114	0.327	0.161
-519.931	25.004	0.119	-0.099
-518.916	464.672	-0.039	-0.088
-517.902	309.000	0.114	0.212
-516.887	-181.168	0.548	-0.011
-515.872	-18.106	0.156	-0.097
-514.858	800.000	-0.058	-0.219
-513.843	-75.271	-0.418	0.149
-512.829	-124.298	-0.134	0.021
-511.814	-200.000	0.015	0.243
-510.799	-91.628	-0.067	-0.019
-509.785	257.725	-0.147	-0.252
-508.770	800.000	0.068	0.241
-507.756	134.348	-0.211	0.272
-506.741	-200.000	0.019	-0.109
-505.726	291.806	-0.077	0.139
-504.712	22.494	-0.231	0.188
-503.697	-200.000	-0.017	-0.123
-502.683	-69.902	0.252	-0.096
-501.668	800.000	-0.020	-0.073
-500.653	53.993	-0.072	-0.069
-499.639	800.000	-0.074	0.302
-498.624	27.028	0.246	0.205
-497.610	-3.582	-0.071	0.049
-496.595	-49.441	0.208	-0.099
-495.581	800.000	-0.116	0.471
-494.566	800.000	0.022	0.062
-493.551	-20.096	0.131	0.080
-492.537	170.031	0.093	-0.132
-491.522	143.690	0.148	0.196
-490.508	-15.792	0.168	-0.106
-489.493	-200.000	0.002	0.152
-488.478	-200.000	0.051	-0.238
-487.464	87.198	-0.147	-0.162
-486.449	800.000	0.104	0.428
-485.435	-50.652	-0.179	-0.084
-484.420	-116.424	0.387	-0.071
-483.405	176.260	0.123	0.178
-482.391	485.039	-0.140	0.318
-481.376	-1.064	0.192	0.135
-480.362	800.000	-0.048	0.177
-479.347	111.213	0.167	-0.200
-478.332	-0.782	-0.226	0.159
-477.318	800.000	-0.098	0.407
-476.303	-56.930	-0.081	0.035
-475.289	-172.327	0.200	0.006
-474.274	131.808	-0.041	0.053
-473.259	-155.316	-0.264	0.017
-472.245	251.961	-0.048	-0.081
-471.230	63.434	-0.256	0.255
-470.216	800.000	0.060	-0.214
-469.201	-128.100	-0.374	-0.053
-468.186	401.429	0.078	0.164
-467.172	-85.056	-0.213	-0.066
-466.157	-92.095	-0.212	0.060
-465.143	776.999	-0.054	-0.148
-464.128	-40.222	-0.159	-0.082
-463.113	96.806	0.083	-0.095
-462.099	-200.000	-0.034	-0.296
-461.084	-66.010	-0.122	0.048
-460.070	-44.009	0.259	0.130
-459.055	17.957	0.296	0.234
-458.040	-3.117	0.315	0.219
-457.026	-30.447	0.093	-0.053
-456.011	-118.732	0.060	-0.011
-454.997	441.584	-0.032	0.069
-453.982	316.565	0.055	0.104
-452.968	56.052	0.286	-0.276
-451.953	-103.127	-0.184	-0.043
-450.938	245.839	-0.167	0.279
-449.924	-10.044	-0.041	-0.027
-448.909	-200.000	0.010	0.054
-447.895	-200.000	0.010	0.307
-446.880	-119.128	-0.205	-0.036
-445.865	-101.670	-0.222	0.053
-444.851	-105.675	0.190	0.043
-443.836	800.000	-0.103	0.383
-442.822	37.503	0.061	-0.054
-441.807	-44.560	0.231	0.115
-440.792	450.931	0.053	-0.115
-439.778	23.599	-0.264	-0.216
-438.763	623.736	0.072	0.180
-437.749	-69.772	0.328	-0.125
-436.734	-115.531	-0.154	-0.029
-435.719	800.000	-0.082	0.275
-434.705	-63.240	0.313	-0.128
-433.690	-39.366	-0.261	0.136
-432.676	-147.007	0.216	0.018
-431.661	275.346	-0.047	0.083
-430.646	-122.476	-0.112	0.018
-429.632	-114.991	0.273	0.052
-428.617	-17.955	0.056	-0.035
-427.603	-3.024	-0.139	0.096
-426.588	180.005	0.052	0.076
-425.573	800.000	-0.091	0.291
-424.559	93.462	-0.250	-0.281
-423.544	-22.649	0.136	-0.082
-422.530	152.084	-0.281	-0.380
-421.515	13.751	-0.156	0.120
-420.500	-200.000	-0.008	-0.321
-419.486	60.030	0.062	-0.061
-418.471	-52.442	0.413	-0.189
-417.457	-70.160	-0.339	0.128
-416.442	-200.000	0.048	-0.513
-415.428	642.485	0.012	0.031
-414.413	800.000	-0.052	0.177
-413.398	306.922	0.090	-0.167
-412.384	-200.000	0.026	-0.137
-411.369	-200.000	-0.047	-0.215
-410.355	225.127	-0.136	0.218
-409.340	-56.370	0.041	-0.018
-408.325	53.391	0.298	-0.284
-407.311	2.760	0.174	0.125
-406.296	344.709	-0.062	-0.121
-405.282	132.476	-0.198	0.253
-404.267	176.918	0.176	0.254
-403.252	800.000	-0.098	-0.397
-402.238	248.736	-0.141	-0.236
-401.223	547.574	0.100	-0.236
-400.209	393.556	-0.088	0.182
-399.194	-200.000	0.038	-0.195
-398.179	-23.327	-0.069	-0.041
-397.165	169.580	0.240	-0.340
-396.150	-44.064	0.110	-0.055
-395.136	-176.486	0.436	-0.011
-394.121	-78.862	0.298	-0.101
-393.106	-200.000	-0.022	-0.267
-392.092	-47.157	-0.162	0.078
-391.077	-56.394	-0.114	-0.050
-390.063	-95.305	0.114	-0.030
-389.048	800.000	0.069	0.210
-388.033	-45.391	-0.412	-0.203
-387.019	-87.199	-0.204	0.061
-386.004	-31.059	-0.046	0.026
-384.990	-117.523	-0.381	-0.068
-383.975	-49.254	0.053	0.025
-382.960	325.403	-0.175	0.331
-381.946	298.967	-0.158	0.288
-380.931	38.521	-0.321	-0.284
-379.917	-62.438	-0.144	0.059
-378.902	-61.176	-0.200	-0.083
-377.888	-200.000	0.037	-0.199
-376.873	800.000	0.083	0.271
-375.858	101.911	-0.240	0.277
-374.844	800.000	-0.069	0.194
-373.829	-131.667	-0.102	0.013
-372.815	-2.274	-0.248	0.172
-371.800	-50.123	0.200	-0.094
-370.785	-200.000	0.051	-0.388
-369.771	45.101	0.165	0.150
-368.756	800.000	0.130	0.414
-367.742	-24.599	-0.320	0.189
-366.727	39.393	0.129	0.115
-365.712	180.712	-0.069	-0.101
-364.698	-200.000	0.011	-0.304
-363.683	15.736	0.117	-0.091
-362.669	314.958	0.047	0.088
-361.654	148.591	0.080	-0.106
-360.639	-149.378	-0.239	0.019
-359.625	800.000	-0.023	0.070
-358.610	-200.000	0.037	0.169
-357.596	99.483	-0.073	-0.084
-356.581	-200.000	0.033	0.182
-355.566	12.948	-0.054	0.042
-354.552	800.000	0.113	-0.340
-353.537	-200.000	-0.011	-0.181
-352.523	800.000	0.008	-0.023
-351.508	-24.566	-0.180	-0.106
-350.493	-200.000	-0.023	0.154
-349.479	-200.000	-0.028	0.153
-348.464	-128.977	-0.183	0.025
-347.450	-66.392	0.247	-0.097
-346.435	-156.283	0.067	-0.004
-345.420	-111.141	-0.147	-0.030
-344.406	-29.531	-0.253	0.143
-343.391	67.549	0.223	-0.226
-342.377	-131.578	-0.248	-0.032
-341.362	622.840	-0.120	0.298
-340.348	-200.000	0.009	0.195
-339.333	-200.000	-0.004	0.308
-338.318	-11.669	0.124	-0.081
-337.304	-200.000	-0.008	-0.109
-336.289	138.783	0.134	-0.175
-335.275	696.969	-0.136	0.353
-334.260	-100.804	-0.105	0.026
-333.245	10.777	0.277	0.209
-332.231	-36.956	-0.269	0.143
-331.216	-181.131	-0.156	0.003
-330.202	-172.080	0.270	-0.009
-329.187	94.183	0.239	0.269
-328.172	82.437	0.145	-0.156
-327.158	-200.000	0.006	-0.051
-326.143	800.000	-0.056	-0.197
-325.129	-71.407	0.231	-0.085
-324.114	69.057	-0.212	-0.216
-323.099	-149.768	0.234	-0.018
-322.085	800.000	-0.045	-0.189
-321.070	-125.905	-0.130	0.019
-320.056	-200.000	0.008	-0.397
-319.041	73.930	-0.087	-0.090
-318.026	-36.804	-0.262	-0.139
-317.012	-116.779	-0.226	0.041
-315.997	1.962	-0.256	0.182
-314.983	-34.029	0.270	-0.147
-313.968	24.843	-0.201	0.164
-312.953	-12.402	0.307	0.198
-311.939	-151.383	-0.129	0.009
-310.924	168.149	0.077	0.108
-309.910	-200.000	-0.017	0.175
-308.895	800.000	0.038	-0.130
-307.880	-12.567	-0.262	0.169
-306.866	-43.392	0.118	0.059
-305.851	232.847	-0.120	0.195
-304.837	-200.000	0.021	0.171
-303.822	-9.588	0.246	-0.162
-302.807	31.606	0.125	0.106
-301.793	56.873	-0.087	0.084
-300.778	-98.402	-0.287	-0.073
-299.764	-75.839	-0.324	-0.114
-298.749	800.000	0.041	0.154
-297.735	-116.837	-0.278	-0.050
-296.720	-143.252	0.396	0.038
-295.705	-10.179	0.334	-0.219
-294.691	153.991	-0.157	-0.213
-293.676	800.000	-0.057	0.170
-292.662	800.000	-0.121	-0.375
-291.647	-39.958	0.471	-0.243
-290.632	800.000	0.027	0.088
-289.618	-70.782	-0.269	-0.100
-288.603	-55.817	0.172	-0.076
-287.589	-153.949	0.275	0.019
-286.574	-60.864	-0.321	0.134
-285.559	-63.574	0.332	0.135
-284.545	-78.996	0.185	-0.062
-283.530	50.070	-0.237	-0.221
-282.516	3.522	0.327	0.236
-281.501	-100.641	0.192	-0.047
-280.486	344.451	-0.073	-0.142
-279.472	800.000	-0.048	0.201
-278.457	-56.629	0.138	0.060
-277.443	800.000	-0.039	-0.121
-276.428	314.590	0.111	-0.207
-275.413	397.698	-0.027	-0.055
-274.399	-114.157	0.185	0.035
-273.384	215.449	0.184	-0.288
-272.370	482.502	-0.108	-0.242
-271.355	25.266	-0.156	0.128
-270.340	32.747	0.264	-0.226
-269.326	-80.127	0.180	-0.060
-268.311	800.000	-0.076	-0.241
-267.297	-41.827	-0.386	-0.195
-266.282	-46.813	-0.146	0.071
-265.267	238.797	0.114	-0.187
-264.253	-200.000	-0.041	-0.227
-263.238	-56.439	0.148	0.065
-262.224	-73.295	0.198	-0.072
-261.209	419.961	0.083	-0.175
-260.195	-200.000	0.003	0.058
-259.180	800.000	-0.063	0.232
-258.165	-120.424	0.379	0.064
-257.151	800.000	-0.043	0.146
-256.136	425.283	0.050	-0.106
-255.122	-128.188	0.101	0.014
-254.107	319.080	-0.190	0.354
-253.092	-157.629	-0.085	0.005
-252.078	-147.102	-0.385	-0.032
-251.063	-76.813	0.296	-0.102
-250.049	-33.480	-0.036	-0.020
-249.034	29.415	0.302	-0.253
-248.019	606.796	-0.060	0.147
-247.005	800.000	0.056	-0.214
-245.990	-193.550	0.267	-0.002
-244.976	176.181	-0.082	0.118
-243.961	-21.628	0.083	0.050
-242.946	-62.965	-0.179	-0.073
-241.932	365.882	0.039	-0.077
-240.917	-30.618	-0.274	-0.153
-239.903	-140.997	-0.052	-0.005
-238.888	-200.000	-0.013	0.331
-237.873	-149.972	0.049	-0.004
-236.859	-101.292	-0.215	0.052
-235.844	-200.000	0.003	0.088
-234.830	-45.420	-0.127	-0.062
-233.815	66.217	-0.162	-0.162
-232.800	100.765	0.095	0.109
-231.786	143.468	0.251	0.330
-230.771	193.557	0.162	0.241
-229.757	-200.000	-0.008	-0.255
-228.742	31.918	-0.158	-0.134
-227.727	65.105	-0.096	0.095
-226.713	799.393	0.090	0.246
-225.698	800.000	-0.023	0.080
-224.684	156.927	-0.030	0.041
-223.669	92.465	-0.144	-0.160
-222.655	-70.953	0.182	-0.068
-221.640	-200.000	-0.065	0.347
-220.625	-98.659	-0.024	-0.006
-219.611	-54.503	0.109	0.048
-218.596	68.271	-0.056	-0.057
-217.582	-150.812	0.178	0.013
-216.567	139.503	0.105	-0.136
-215.552	-200.000	0.015	-0.073
-214.538	24.379	-0.188	-0.153
-213.523	-32.860	0.030	-0.017
-212.509	-200.000	0.033	0.157
-211.494	293.504	-0.159	-0.286
-210.479	-123.525	0.166	0.026
-209.465	-180.910	0.136	-0.003
-208.450	-22.692	0.142	-0.084
-207.436	107.846	-0.053	0.063
-206.421	-187.718	-0.231	-0.003
-205.406	-101.199	0.025	-0.006
-204.392	-200.000	0.040	-0.249
-203.377	-200.000	0.014	0.064
-202.363	-182.930	0.338	-0.006
-201.348	39.740	-0.143	0.127
-200.333	-36.916	-0.183	-0.097
-199.319	-200.000	0.028	0.196
-198.304	-37.152	0.094	0.049
-197.290	-133.994	-0.129	0.016
-196.275	4.936	-0.217	-0.157
-195.260	-200.000	0.002	-0.178
-194.246	-15.338	0.299	0.188
-193.231	-62.847	0.202	0.082
-192.217	-76.719	-0.256	0.088
-191.202	-200.000	-0.085	-0.386
-190.187	-61.707	-0.026	0.011
-189.173	-25.536	0.149	0.086
-188.158	-200.000	-0.068	0.325
-187.144	-48.676	0.110	0.052
-186.129	-19.570	-0.225	0.137
-185.114	471.676	0.066	0.146
-184.100	-200.000	0.006	0.409
-183.085	120.762	0.165	0.202
-182.071	-200.000	-0.004	-0.099
-181.056	7.484	-0.126	-0.093
-180.042	168.537	0.077	-0.107
-179.027	792.631	0.024	-0.064
-178.012	140.667	0.071	-0.092
-176.998	-52.831	-0.051	-0.023
-175.983	800.000	0.077	0.220
-174.969	-76.266	-0.281	0.097
-173.954	210.968	0.073	-0.113
-172.939	-76.790	0.236	-0.081
-171.925	800.000	0.072	-0.246
-170.910	81.655	-0.089	0.095
-169.896	32.959	0.041	0.035
-168.881	-22.836	-0.268	0.159
-167.866	-50.953	0.275	0.127
-166.852	475.410	0.203	0.451
-165.837	-105.830	0.033	0.007
-164.823	800.000	0.096	-0.263
-163.808	800.000	0.100	-0.374
-162.793	127.786	0.094	-0.117
-161.779	-44.853	0.189	-0.093
-160.764	800.000	0.028	-0.109
-159.750	17.248	0.223	-0.174
-158.735	-119.933	0.299	-0.051
-157.720	397.010	0.184	0.377
-156.706	-93.625	0.280	0.076
-155.691	380.253	-0.107	0.215
-154.677	800.000	-0.054	-0.209
-153.662	-147.320	-0.150	-0.013
-152.647	-49.770	0.241	0.113
-151.633	130.475	-0.305	-0.383
-150.618	11.225	0.022	-0.016
-149.604	43.519	-0.170	0.153
-148.589	-35.892	-0.089	-0.047
-147.574	-200.000	0.047	-0.241
-146.560	-134.506	0.102	0.012
-145.545	50.042	0.093	-0.086
-144.531	43.039	0.154	-0.138
-143.516	-35.263	0.144	0.077
-142.502	800.000	0.063	0.236
-141.487	276.691	-0.029	-0.051
-140.472	-200.000	-0.210	-0.001
-139.458	800.000	-0.045	-0.140
-138.443	-200.000	-0.035	0.395
-137.429	-200.000	0.002	-0.132
-136.414	84.409	-0.129	0.139
-135.399	105.239	0.288	-0.334
-134.385	-35.808	-0.134	-0.071
-133.370	210.285	-0.151	0.233
-132.356	-69.735	-0.032	0.012
-131.341	-200.000	-0.029	-0.229
-130.326	378.385	0.125	-0.251
-129.312	308.627	-0.117	0.214
-128.297	800.000	0.064	-0.211
-127.283	800.000	-0.057	0.208
-126.268	15.065	-0.262	-0.201
-125.253	-200.000	-0.433	-0.001
-124.239	353.662	0.043	0.083
-123.224	800.000	0.162	0.581
-122.210	96.070	0.214	-0.240
-121.195	-96.236	-0.152	0.040
