DTS Sentinel unit serial number:	SN413079Multiplexer serial number:	ORYXHardware model number:	OX4-SRSoftware version number:	ORYX F/W v4.00 Oryx Data Collector v3.7.2.0data status	okinstallation	princeton_trtdifferential loss correction	single-endedforward channel	channel 1reverse channel	N/Adate	2019/09/12time	02:08:11forward acquisition time	60.00reverse acquisition time	0.00gamma	496.2192k internal	0.2320k external	0.2320temperature offset calibration	1.0082default loss term (dB/km)	0.3790temperature slope calibration	1.0000multiplexer offset coefficient	1.0000multiplexer slope coefficient	1.0000fibre end	0.00T internal ref (°C)	32.69T ext. ref 1 (°C)	2.07T ext. ref 2 (°C)	27.36length (m)	temperature (°C)	Stokes	anti-Stokes-747.200	-39.246	0.259	-0.138
-746.185	192.218	-0.084	0.127
-745.171	800.000	-0.032	-0.141
-744.156	-83.961	0.316	0.102
-743.142	-144.525	0.155	0.015
-742.127	800.000	-0.032	0.129
-741.112	-181.636	-0.352	-0.007
-740.098	321.445	-0.095	-0.182
-739.083	-24.686	-0.534	0.321
-738.069	66.469	0.107	0.110
-737.054	228.085	-0.052	-0.086
-736.039	-121.541	-0.221	0.037
-735.025	-39.699	0.353	0.187
-734.010	800.000	-0.098	-0.316
-732.996	-109.249	0.136	-0.029
-731.981	800.000	-0.118	0.396
-730.966	244.618	-0.274	-0.465
-729.952	286.716	-0.077	-0.141
-728.937	119.509	-0.112	0.140
-727.923	-112.126	0.334	0.068
-726.908	-200.000	-0.035	-0.204
-725.894	-200.000	0.005	-0.323
-724.879	92.022	0.184	-0.209
-723.864	199.739	0.248	0.384
-722.850	324.293	0.085	-0.163
-721.835	-23.948	0.249	-0.151
-720.821	-138.632	0.261	0.029
-719.806	246.755	-0.152	-0.259
-718.791	22.912	0.179	-0.148
-717.777	792.707	-0.014	0.040
-716.762	-200.000	-0.003	0.207
-715.748	-98.833	0.071	-0.018
-714.733	-147.803	0.130	0.011
-713.718	212.766	-0.131	0.209
-712.704	-58.653	0.072	-0.032
-711.689	773.259	-0.151	-0.417
-710.675	150.100	0.052	-0.071
-709.660	800.000	-0.082	-0.257
-708.645	28.893	0.182	0.156
-707.631	154.666	-0.136	-0.189
-706.616	-9.246	0.300	0.203
-705.602	18.994	-0.116	0.094
-704.587	-167.280	0.147	-0.006
-703.572	-200.000	0.017	0.179
-702.558	800.000	-0.046	0.170
-701.543	-83.872	0.167	0.054
-700.529	800.000	0.105	0.328
-699.514	50.435	-0.125	0.119
-698.499	-141.108	-0.139	-0.014
-697.485	191.432	-0.030	-0.046
-696.470	629.146	0.017	0.043
-695.456	-117.675	-0.150	0.027
-694.441	509.853	-0.138	-0.324
-693.426	-3.952	0.158	0.110
-692.412	292.980	-0.076	0.140
-691.397	800.000	0.040	0.151
-690.383	147.691	0.054	0.073
-689.368	800.000	0.076	0.307
-688.354	-200.000	-0.006	-0.137
-687.339	152.256	0.141	-0.195
-686.324	-117.563	0.132	-0.024
-685.310	113.238	0.105	-0.129
-684.295	-159.377	-0.425	-0.024
-683.281	-84.020	-0.209	-0.067
-682.266	-200.000	0.049	-0.309
-681.251	9.668	-0.154	0.117
-680.237	157.617	-0.230	0.321
-679.222	137.723	0.134	0.177
-678.208	-87.660	0.184	0.056
-677.193	-32.088	-0.224	-0.126
-676.178	800.000	0.088	-0.321
-675.164	319.744	0.039	-0.075
-674.149	-200.000	0.022	-0.296
-673.135	373.365	-0.179	0.367
-672.120	-141.263	-0.277	-0.028
-671.105	-73.695	0.182	0.067
-670.091	-174.890	0.318	0.009
-669.076	-200.000	0.028	-0.212
-668.062	222.150	0.061	-0.098
-667.047	-200.000	0.058	0.429
-666.032	-200.000	0.071	-0.367
-665.018	-200.000	-0.025	0.357
-664.003	-2.521	0.067	-0.047
-662.989	-193.799	0.260	-0.002
-661.974	-8.267	0.307	0.209
-660.959	-5.759	-0.501	0.346
-659.945	16.578	0.150	-0.119
-658.930	27.653	-0.097	-0.082
-657.916	104.969	-0.174	-0.207
-656.901	647.537	0.187	-0.481
-655.886	131.856	-0.114	-0.148
-654.872	76.923	-0.081	-0.087
-653.857	293.896	0.025	-0.047
-652.843	49.802	0.134	-0.128
-651.828	-24.941	0.135	0.081
-650.814	-156.889	-0.173	0.011
-649.799	800.000	-0.038	0.144
-648.784	-200.000	-0.027	0.188
-647.770	544.056	0.038	0.091
-646.755	-72.045	-0.093	-0.035
-645.741	-102.550	0.409	-0.098
-644.726	800.000	-0.008	0.023
-643.711	-82.944	0.043	0.014
-642.697	327.910	-0.153	-0.295
-641.682	-200.000	-0.015	-0.366
-640.668	-67.483	-0.271	-0.107
-639.653	349.011	-0.139	-0.277
-638.638	-200.000	0.003	0.050
-637.624	26.601	-0.207	0.174
-636.609	134.450	-0.070	-0.091
-635.595	88.142	0.084	-0.093
-634.580	21.310	-0.118	-0.097
-633.565	17.965	0.178	0.143
-632.551	-79.995	0.272	-0.092
-631.536	-132.937	-0.348	-0.045
-630.522	-200.000	0.047	0.225
-629.507	739.478	-0.048	0.129
-628.492	-26.082	0.116	-0.069
-627.478	-32.549	0.100	0.056
-626.463	-46.245	0.160	-0.079
-625.449	-41.642	-0.243	0.126
-624.434	800.000	0.055	0.163
-623.419	62.639	-0.117	-0.118
-622.405	-19.372	-0.089	-0.055
-621.390	-65.796	-0.058	-0.023
-620.376	112.464	0.070	0.085
-619.361	-200.000	0.049	-0.251
-618.346	43.853	-0.136	-0.125
-617.332	180.656	0.180	0.266
-616.317	165.709	-0.090	0.128
-615.303	413.976	0.120	-0.256
-614.288	-171.132	-0.590	0.020
-613.273	-11.771	-0.118	-0.078
-612.259	-71.257	0.148	0.056
-611.244	121.207	0.182	0.228
-610.230	84.748	0.255	-0.281
-609.215	390.714	0.093	-0.195
-608.201	800.000	0.048	0.171
-607.186	128.960	0.065	-0.084
-606.171	186.378	0.076	-0.113
-605.157	-111.093	-0.082	-0.017
-604.142	12.919	0.121	-0.094
-603.128	-200.000	-0.015	0.227
-602.113	-200.000	0.003	-0.100
-601.098	-176.512	0.307	0.008
-600.084	198.931	-0.042	0.065
-599.069	52.096	0.117	-0.112
-598.055	107.004	-0.132	-0.157
-597.040	-200.000	0.030	0.273
-596.025	800.000	0.079	-0.291
-595.011	13.083	-0.128	0.100
-593.996	51.250	-0.114	0.109
-592.982	48.351	0.097	0.091
-591.967	-64.567	-0.154	0.063
-590.952	-200.000	0.004	0.036
-589.938	-124.175	0.235	-0.037
-588.923	8.137	-0.078	-0.059
-587.909	-1.509	-0.090	0.064
-586.894	146.624	-0.250	-0.337
-585.879	-110.700	0.150	0.031
-584.865	56.657	-0.022	-0.022
-583.850	298.427	-0.239	-0.442
-582.836	-46.062	-0.287	-0.142
-581.821	-68.220	0.134	0.052
-580.806	-148.725	-0.119	-0.010
-579.792	-51.758	0.155	-0.072
-578.777	-124.829	-0.044	-0.007
-577.763	386.553	0.096	0.200
-576.748	81.605	0.371	0.403
-575.733	-17.494	-0.169	0.107
-574.719	583.834	0.100	-0.246
-573.704	-150.851	-0.310	-0.024
-572.690	65.968	-0.125	-0.128
-571.675	-200.000	-0.015	0.206
-570.661	502.968	0.032	-0.075
-569.646	85.271	0.046	-0.050
-568.631	-86.328	0.133	-0.041
-567.617	-56.416	0.384	-0.171
-566.602	-22.327	-0.309	0.188
-565.588	800.000	0.059	-0.176
-564.573	-139.429	0.179	0.019
-563.558	-200.000	0.046	0.272
-562.544	108.743	-0.145	-0.174
-561.529	-61.419	0.177	0.075
-560.515	-27.236	0.050	0.029
-559.500	-135.236	-0.043	-0.005
-558.485	26.294	-0.279	-0.234
-557.471	117.275	-0.022	-0.027
-556.456	800.000	0.081	0.225
-555.442	264.112	-0.152	-0.265
-554.427	124.425	0.208	-0.262
-553.412	35.425	-0.218	0.192
-552.398	-200.000	0.002	-0.166
-551.383	-158.269	-0.078	-0.005
-550.369	-82.587	-0.298	0.097
-549.354	175.743	-0.167	-0.243
-548.339	-200.000	-0.013	-0.084
-547.325	-200.000	-0.021	0.452
-546.310	-70.858	-0.159	0.060
-545.296	-200.000	-0.054	-0.486
-544.281	-137.611	-0.187	-0.021
-543.266	76.758	0.195	0.208
-542.252	-179.537	0.219	-0.005
-541.237	27.175	-0.189	-0.159
-540.223	800.000	-0.027	-0.104
-539.208	800.000	-0.138	-0.405
-538.193	-29.451	0.125	-0.072
-537.179	68.958	0.115	-0.119
-536.164	-111.185	-0.322	-0.066
-535.150	-21.573	0.393	-0.240
-534.135	64.461	0.198	-0.200
-533.121	264.027	-0.070	-0.123
-532.106	-99.255	-0.345	0.087
-531.091	-160.980	0.440	-0.023
-530.077	-58.714	0.494	-0.214
-529.062	19.761	0.180	0.145
-528.048	160.279	0.172	0.240
-527.033	-106.120	-0.211	-0.048
-526.018	-9.029	-0.211	0.142
-525.004	-109.617	0.060	-0.013
-523.989	-25.333	-0.222	-0.132
-522.975	-200.000	0.016	0.108
-521.960	376.483	-0.020	-0.040
-520.945	-146.262	0.255	-0.022
-519.931	800.000	0.010	-0.040
-518.916	-200.000	0.016	0.308
-517.902	583.119	-0.110	0.271
-516.887	396.103	-0.082	-0.171
-515.872	135.166	-0.068	-0.089
-514.858	197.705	-0.040	0.062
-513.843	-172.728	0.191	-0.006
-512.829	-57.537	0.313	0.138
-511.814	-33.843	-0.181	-0.100
-510.799	-163.545	-0.350	-0.017
-509.785	-39.264	-0.096	0.051
-508.770	41.692	-0.183	-0.166
-507.756	-10.382	0.093	-0.062
-506.741	800.000	0.014	0.061
-505.726	-106.176	0.308	-0.069
-504.712	99.327	-0.075	-0.087
-503.697	-200.000	0.016	-0.333
-502.683	-200.000	-0.027	-0.147
-501.668	189.185	-0.129	0.193
-500.653	-12.911	0.048	-0.031
-499.639	291.107	0.071	0.129
-498.624	-77.919	0.074	-0.026
-497.610	-122.624	0.193	-0.031
-496.595	1.583	0.022	0.016
-495.581	78.759	0.078	0.084
-494.566	1.905	-0.059	-0.043
-493.551	-93.284	-0.462	0.128
-492.537	-27.431	-0.152	0.089
-491.522	-77.244	0.107	-0.037
-490.508	-14.805	-0.244	0.157
-489.493	664.452	-0.092	0.239
-488.478	92.464	-0.163	0.184
-487.464	-162.004	0.205	0.010
-486.449	800.000	-0.080	0.286
-485.435	381.054	-0.133	0.274
-484.420	403.191	0.227	0.478
-483.405	92.893	0.035	-0.040
-482.391	17.801	-0.266	-0.212
-481.376	14.283	0.225	0.175
-480.362	-38.748	0.032	0.017
-479.347	-140.057	-0.047	0.005
-478.332	238.534	0.281	-0.467
-477.318	-36.395	-0.169	-0.091
-476.303	-126.080	0.351	-0.053
-475.289	-96.522	0.315	0.083
-474.274	-40.097	-0.131	0.068
-473.259	-144.100	0.183	-0.017
-472.245	650.537	-0.088	-0.225
-471.230	209.818	-0.142	-0.223
-470.216	58.849	0.064	0.063
-469.201	-164.680	-0.364	0.016
-468.186	-200.000	-0.111	0.630
-467.172	-185.484	-0.240	0.004
-466.157	23.324	0.065	0.054
-465.143	-200.000	-0.053	-0.412
-464.128	-200.000	0.018	-0.298
-463.113	-200.000	-0.038	-0.174
-462.099	-149.786	-0.286	-0.022
-461.084	-200.000	0.066	0.371
-460.070	40.098	-0.110	-0.098
-459.055	37.219	-0.183	0.162
-458.040	-182.039	0.211	-0.004
-457.026	-200.000	0.027	-0.365
-456.011	385.775	-0.044	-0.091
-454.997	114.658	0.209	-0.254
-453.982	538.737	0.055	-0.131
-452.968	-11.051	-0.335	-0.221
-451.953	-154.093	-0.245	-0.017
-450.938	-103.540	0.186	0.044
-449.924	418.391	0.050	-0.107
-448.909	249.304	0.122	0.206
-447.895	-200.000	-0.012	-0.310
-446.880	-200.000	0.001	-0.226
-445.865	107.559	0.143	0.171
-444.851	51.235	0.152	0.144
-443.836	318.914	0.010	-0.018
-442.822	-156.827	-0.247	-0.015
-441.807	183.443	-0.172	-0.254
-440.792	57.825	0.091	0.088
-439.778	59.854	0.171	-0.168
-438.763	-52.799	0.108	-0.050
-437.749	747.838	0.145	0.390
-436.734	-106.015	-0.068	-0.015
-435.719	800.000	0.066	-0.204
-434.705	-64.575	-0.186	0.076
-433.690	163.821	-0.142	-0.200
-432.676	326.357	0.145	-0.278
-431.661	-70.086	0.397	-0.151
-430.646	-50.246	-0.460	0.217
-429.632	-35.965	-0.081	0.044
-428.617	-109.651	-0.269	0.057
-427.603	-139.697	-0.208	-0.022
-426.588	515.112	0.016	-0.036
-425.573	389.720	0.105	0.218
-424.559	-83.797	0.308	0.098
-423.544	-148.882	-0.066	-0.005
-422.530	646.423	-0.055	0.140
-421.515	-126.082	0.324	0.049
-420.500	-31.162	0.240	0.135
-419.486	92.455	0.156	0.175
-418.471	-23.011	0.191	-0.115
-417.457	-200.000	-0.007	-0.311
-416.442	207.097	-0.191	-0.297
-415.428	-56.576	0.200	0.088
-414.413	-200.000	0.032	0.165
-413.398	27.165	0.223	-0.187
-412.384	-200.000	-0.041	-0.209
-411.369	-44.053	0.280	0.141
-410.355	50.293	0.338	-0.319
-409.340	-9.575	-0.231	0.153
-408.325	-116.363	-0.265	0.049
-407.311	52.103	0.104	0.099
-406.296	800.000	0.081	0.273
-405.282	-7.563	-0.178	-0.120
-404.267	-100.639	0.200	-0.049
-403.252	-13.363	-0.152	-0.098
-402.238	97.644	0.236	-0.271
-401.223	662.028	-0.054	-0.139
-400.209	415.092	0.102	0.216
-399.194	-144.680	0.218	-0.020
-398.179	12.612	-0.153	-0.117
-397.165	-200.000	0.012	0.157
-396.150	-70.574	0.369	-0.139
-395.136	-188.475	0.249	-0.003
-394.121	55.118	0.090	-0.087
-393.106	5.372	0.036	-0.026
-392.092	-181.391	-0.422	0.008
-391.077	51.667	-0.016	0.015
-390.063	-114.661	0.155	0.030
-389.048	-200.000	0.032	0.267
-388.033	-86.619	-0.051	0.016
-387.019	-25.647	-0.077	-0.046
-386.004	67.216	-0.081	0.082
-384.990	-52.070	-0.083	0.038
-383.975	-49.315	-0.189	0.090
-382.960	49.201	0.327	-0.306
-381.946	0.490	-0.137	0.098
-380.931	-200.000	-0.001	-0.037
-379.917	-118.072	0.288	-0.051
-378.902	800.000	0.055	-0.231
-377.888	-164.482	0.169	0.008
-376.873	262.601	0.095	0.164
-375.858	-58.077	0.161	-0.070
-374.844	-74.998	-0.311	-0.111
-373.829	-77.913	0.065	0.022
-372.815	75.828	-0.085	0.090
-371.800	27.009	-0.099	0.082
-370.785	-200.000	0.033	-0.196
-369.771	-182.044	-0.271	-0.005
-368.756	386.980	-0.175	0.360
-367.742	-113.689	-0.227	0.044
-366.727	-73.779	0.163	-0.059
-365.712	621.029	0.057	0.142
-364.698	-112.007	0.202	-0.041
-363.683	-200.000	-0.009	-0.150
-362.669	-200.000	0.055	-0.346
-361.654	-100.921	0.197	-0.048
-360.639	-2.612	0.220	0.154
-359.625	-97.794	-0.341	-0.088
-358.610	341.099	0.075	0.147
-357.596	182.809	0.112	0.164
-356.581	32.498	0.307	0.264
-355.566	64.747	0.296	0.298
-354.552	-200.000	0.002	-0.218
-353.537	800.000	-0.012	0.044
-352.523	-200.000	-0.005	0.153
-351.508	0.246	-0.270	-0.192
-350.493	-83.852	0.349	0.111
-349.479	-45.926	0.229	0.112
-348.464	800.000	0.069	0.236
-347.450	109.153	0.143	-0.170
-346.435	61.967	-0.160	0.159
-345.420	-161.064	-0.189	-0.010
-344.406	-200.000	0.034	-0.441
-343.391	-89.176	0.180	-0.053
-342.377	-7.782	0.232	-0.156
-341.362	460.047	-0.117	0.259
-340.348	-200.000	-0.053	-0.364
-339.333	-0.963	-0.389	0.274
-338.318	-200.000	-0.021	-0.361
-337.304	-200.000	-0.013	0.121
-336.289	800.000	0.025	-0.088
-335.275	-111.032	-0.495	0.101
-334.260	10.010	-0.141	0.106
-333.245	58.399	0.085	0.083
-332.231	-124.915	-0.293	0.045
-331.216	-200.000	-0.001	0.115
-330.202	-138.832	-0.282	-0.031
-329.187	-200.000	0.010	-0.170
-328.172	516.674	-0.084	-0.195
-327.158	41.530	0.175	-0.157
-326.143	171.464	0.152	-0.217
-325.129	-52.855	-0.169	-0.077
-324.114	800.000	0.035	0.101
-323.099	-159.780	0.210	-0.011
-322.085	79.267	0.049	0.052
-321.070	-105.824	0.179	-0.040
-320.056	12.332	0.063	-0.048
-319.041	104.815	-0.091	-0.107
-318.026	-200.000	-0.016	0.186
-317.012	166.432	0.132	0.186
-315.997	-200.000	0.003	-0.261
-314.983	24.274	-0.063	-0.051
-313.968	-51.247	-0.172	-0.080
-312.953	800.000	0.118	0.387
-311.939	-196.316	-0.351	0.002
-310.924	-88.780	0.340	-0.100
-309.910	63.991	-0.162	0.161
-308.895	267.857	-0.137	-0.239
-307.880	336.646	-0.062	-0.120
-306.866	89.354	-0.032	0.035
-305.851	-109.939	0.267	-0.056
-304.837	333.966	-0.098	-0.189
-303.822	800.000	-0.025	-0.070
-302.807	137.647	0.110	0.143
-301.793	41.549	-0.146	0.131
-300.778	-164.774	0.373	-0.017
-299.764	168.884	-0.161	0.228
-298.749	-163.467	-0.171	-0.008
-297.735	-101.154	-0.174	0.042
-296.720	795.120	0.049	-0.133
-295.705	240.140	0.212	0.351
-294.691	-27.207	0.160	-0.093
-293.676	4.815	0.065	-0.048
-292.662	-161.001	0.115	-0.006
-291.647	-75.501	-0.329	0.116
-290.632	75.292	-0.053	0.056
-289.618	-17.597	0.242	-0.151
-288.603	-200.000	0.006	0.202
-287.589	800.000	0.055	0.199
-286.574	-200.000	-0.029	0.235
-285.559	-200.000	0.023	-0.108
-284.545	1.911	-0.135	-0.097
-283.530	41.818	-0.112	0.101
-282.516	-200.000	0.007	0.184
-281.501	-106.699	-0.033	0.007
-280.486	-200.000	-0.033	-0.173
-279.472	71.295	0.098	0.100
-278.457	7.552	0.183	0.136
-277.443	9.981	-0.158	0.119
-276.428	33.959	-0.216	-0.187
-275.413	-200.000	-0.006	0.067
-274.399	-67.876	-0.262	0.102
-273.384	-200.000	-0.048	-0.219
-272.370	800.000	0.116	0.434
-271.355	-54.684	-0.144	0.064
-270.340	-21.938	0.297	-0.179
-269.326	65.685	0.096	-0.096
-268.311	800.000	0.021	-0.062
-267.297	252.636	-0.147	0.248
-266.282	-83.809	-0.138	0.044
-265.267	116.323	0.217	0.264
-264.253	-112.339	0.219	-0.043
-263.238	0.267	-0.156	0.110
-262.224	-200.000	-0.022	-0.129
-261.209	502.565	0.111	-0.254
-260.195	70.158	0.158	-0.162
-259.180	178.946	-0.176	0.255
-258.165	-10.855	-0.367	0.241
-257.151	-200.000	-0.013	0.117
-256.136	700.767	0.055	-0.144
-255.122	48.703	-0.092	0.086
-254.107	465.761	-0.088	-0.196
-253.092	232.247	-0.137	-0.224
-252.078	-51.971	-0.147	0.068
-251.063	-142.907	0.111	0.011
-250.049	6.731	0.091	0.067
-249.034	383.252	0.175	0.356
-248.019	179.016	-0.106	0.154
-247.005	-109.356	-0.258	0.054
-245.990	-200.000	0.031	-0.279
-244.976	-200.000	-0.095	-0.412
-243.961	-56.519	-0.170	0.075
-242.946	-200.000	0.017	0.077
-241.932	-34.336	-0.356	-0.193
-240.917	-103.537	0.277	-0.064
-239.903	-200.000	-0.003	0.029
-238.888	-140.185	0.189	0.020
-237.873	-200.000	-0.067	0.294
-236.859	800.000	0.093	0.316
-235.844	-13.263	0.220	-0.141
-234.830	-94.320	-0.228	0.062
-233.815	800.000	0.054	-0.157
-232.800	800.000	0.057	-0.191
-231.786	123.279	-0.064	-0.079
-230.771	-49.466	0.013	-0.006
-229.757	-123.203	0.338	-0.054
-228.742	-122.420	0.172	0.028
-227.727	516.446	-0.083	-0.193
-226.713	30.484	0.116	0.098
-225.698	-159.506	-0.373	-0.021
-224.684	99.363	0.027	0.031
-223.669	-109.948	0.163	-0.034
-222.655	418.132	0.154	0.325
-221.640	800.000	0.085	0.318
-220.625	-200.000	0.002	0.124
-219.611	-45.290	-0.047	0.023
-218.596	-200.000	-0.012	0.178
-217.582	-16.687	0.117	0.073
-216.567	800.000	0.039	0.158
-215.552	-101.651	-0.213	-0.051
-214.538	-79.243	-0.159	0.053
-213.523	150.846	0.060	0.080
-212.509	-131.607	-0.107	0.014
-211.494	2.733	0.085	-0.061
-210.479	154.178	0.059	0.080
-209.465	129.115	0.105	-0.133
-208.450	800.000	0.051	-0.155
-207.436	81.084	-0.045	0.049
-206.421	78.337	-0.216	-0.229
-205.406	800.000	0.036	0.123
-204.392	484.827	0.076	-0.170
-203.377	329.415	0.084	-0.160
-202.363	-165.632	-0.449	-0.019
-201.348	-130.228	0.142	0.019
-200.333	229.906	-0.076	0.122
-199.319	800.000	-0.065	0.248
-198.304	800.000	-0.106	0.344
-197.290	31.151	0.111	0.094
-196.275	-16.405	-0.119	-0.075
-195.260	-34.084	-0.156	0.085
-194.246	-67.027	-0.017	0.007
-193.231	-200.000	-0.006	-0.251
-192.217	225.203	-0.028	-0.044
-191.202	-33.669	0.268	0.147
-190.187	-200.000	0.072	-0.463
-189.173	7.980	-0.219	0.163
-188.158	133.707	-0.086	-0.109
-187.144	366.252	-0.142	-0.283
-186.129	215.839	-0.180	0.283
-185.114	800.000	0.042	0.138
-184.100	-104.053	-0.178	0.041
-183.085	778.109	-0.093	-0.252
-182.071	20.108	0.283	-0.226
-181.056	99.034	-0.126	-0.144
-180.042	-102.432	-0.246	0.058
-179.027	61.691	0.035	0.035
-178.012	46.174	0.291	0.266
-176.998	-70.785	0.153	-0.057
-175.983	-8.178	0.360	-0.240
-174.969	800.000	0.083	-0.301
-173.954	-200.000	-0.001	0.121
-172.939	-188.682	0.321	-0.004
-171.925	-40.399	0.050	-0.026
-170.910	-87.500	-0.189	0.057
-169.896	-200.000	-0.018	0.135
-168.881	37.207	0.144	0.126
-167.866	-200.000	-0.061	0.360
-166.852	-102.112	-0.183	0.043
-165.837	-97.896	0.186	-0.047
-164.823	48.829	-0.147	0.136
-163.808	-176.989	-0.125	-0.003
-162.793	208.843	0.234	0.362
-161.779	-95.979	-0.255	-0.067
-160.764	366.325	-0.075	0.150
-159.750	187.456	-0.035	-0.051
-158.735	-200.000	-0.015	0.366
-157.720	3.619	0.068	0.049
-156.706	91.572	0.080	0.088
-155.691	441.215	-0.197	0.426
-154.677	338.544	-0.149	0.286
-153.662	800.000	-0.054	0.203
-152.647	-117.417	0.409	-0.073
-151.633	226.801	0.058	0.093
-150.618	316.744	0.129	0.241
-149.604	-111.726	0.322	0.064
-148.589	-9.072	-0.292	0.193
-147.574	-200.000	-0.060	0.476
-146.560	-153.141	0.102	0.007
-145.545	-185.565	-0.150	0.002
-144.531	-44.513	-0.174	0.086
-143.516	-6.985	-0.223	0.150
-142.502	11.816	0.209	0.158
-141.487	-78.723	0.095	-0.032
-140.472	-200.000	-0.056	0.269
-139.458	160.897	-0.042	0.058
-138.443	-44.393	-0.188	0.093
-137.429	-200.000	0.007	-0.257
-136.414	-156.068	0.225	0.014
-135.399	-200.000	0.037	0.314
-134.385	93.606	-0.341	0.381
-133.370	-81.399	-0.312	0.101
-132.356	800.000	-0.007	-0.022
-131.341	-2.674	-0.195	-0.135
-130.326	23.779	-0.207	0.168
-129.312	-64.410	0.234	0.094
-128.297	166.466	-0.233	0.326
-127.283	643.563	-0.077	0.193
-126.268	7.395	0.112	-0.083
-125.253	-92.970	-0.108	-0.030
-124.239	-32.156	-0.168	0.093
-123.224	-146.156	0.140	-0.012
-122.210	-132.405	-0.239	-0.030
-121.195	38.034	0.396	0.347
-120.180	800.000	0.041	-0.150
