DTS Sentinel unit serial number:	SN413079Multiplexer serial number:	ORYXHardware model number:	OX4-SRSoftware version number:	ORYX F/W v4.00 Oryx Data Collector v3.7.2.0data status	okinstallation	princeton_trtdifferential loss correction	single-endedforward channel	channel 1reverse channel	N/Adate	2019/09/17time	01:38:35forward acquisition time	60.00reverse acquisition time	0.00gamma	496.2192k internal	0.2324k external	0.2324temperature offset calibration	0.9955default loss term (dB/km)	0.3790temperature slope calibration	1.0000multiplexer offset coefficient	1.0000multiplexer slope coefficient	1.0000fibre end	0.00T internal ref (°C)	29.56T ext. ref 1 (°C)	0.12T ext. ref 2 (°C)	24.52length (m)	temperature (°C)	Stokes	anti-Stokes-747.200	800.000	0.075	0.215
-746.185	96.262	-0.065	0.075
-745.171	-200.000	-0.020	0.620
-744.156	327.763	-0.209	0.405
-743.142	-31.091	0.148	0.084
-742.127	46.751	-0.078	0.073
-741.112	277.245	0.204	0.366
-740.098	63.357	-0.189	0.191
-739.083	-58.660	-0.049	-0.021
-738.069	224.468	-0.139	0.227
-737.054	109.157	0.065	-0.078
-736.039	-200.000	-0.014	0.134
-735.025	-13.974	0.250	0.163
-734.010	-55.474	-0.111	-0.050
-732.996	-113.450	-0.405	0.080
-731.981	800.000	-0.078	-0.222
-730.966	-200.000	-0.351	-0.002
-729.952	235.352	-0.162	-0.270
-728.937	-150.973	-0.235	0.018
-727.923	323.647	0.037	-0.072
-726.908	-16.796	-0.248	0.158
-725.894	116.166	0.245	0.303
-724.879	775.491	0.032	0.089
-723.864	-31.026	-0.369	0.210
-722.850	59.511	0.249	0.247
-721.835	-172.370	-0.147	0.005
-720.821	-30.361	-0.103	0.059
-719.806	-200.000	0.055	-0.254
-718.791	-109.668	-0.200	0.042
-717.777	19.512	0.048	0.039
-716.762	386.229	-0.263	0.548
-715.748	-121.469	-0.157	0.026
-714.733	155.842	-0.009	-0.012
-713.718	193.099	-0.079	0.120
-712.704	-115.736	0.152	-0.029
-711.689	800.000	-0.058	-0.182
-710.675	787.169	0.058	-0.160
-709.660	298.445	0.161	-0.298
-708.645	-5.757	-0.097	-0.067
-707.631	183.752	-0.078	0.116
-706.616	-54.938	-0.218	-0.099
-705.602	475.760	0.119	-0.271
-704.587	-135.661	0.231	-0.028
-703.572	-81.601	-0.282	-0.093
-702.558	-200.000	-0.003	0.181
-701.543	800.000	-0.118	-0.332
-700.529	-142.920	-0.318	0.031
-699.514	-127.941	0.203	-0.029
-698.499	-53.361	-0.565	-0.261
-697.485	-57.782	0.152	0.067
-696.470	-89.934	-0.151	0.044
-695.456	148.914	-0.054	0.074
-694.441	-34.668	-0.342	0.188
-693.426	32.636	0.071	0.062
-692.412	42.406	-0.192	-0.175
-691.397	218.770	-0.185	-0.298
-690.383	-110.000	0.261	-0.055
-689.368	-68.312	-0.163	-0.064
-688.354	80.993	-0.262	-0.285
-687.339	-6.355	0.166	-0.114
-686.324	771.158	0.191	-0.525
-685.310	-200.000	0.007	-0.143
-684.295	-158.677	-0.173	-0.010
-683.281	800.000	-0.068	-0.268
-682.266	342.755	-0.090	-0.177
-681.251	229.906	0.036	-0.059
-680.237	-103.073	-0.150	0.036
-679.222	-200.000	-0.050	-0.248
-678.208	-200.000	0.052	0.300
-677.193	-60.522	-0.452	-0.193
-676.178	-37.529	-0.236	0.127
-675.164	-49.996	-0.353	-0.169
-674.149	169.163	-0.146	-0.209
-673.135	141.809	-0.131	0.175
-672.120	-18.243	-0.119	0.075
-671.105	-200.000	0.036	-0.257
-670.091	800.000	0.044	0.153
-669.076	-120.877	-0.169	0.029
-668.062	381.238	-0.135	-0.278
-667.047	-136.250	0.237	0.028
-666.032	103.017	0.246	-0.290
-665.018	-200.000	-0.002	0.034
-664.003	87.926	0.314	0.350
-662.989	-200.000	-0.004	0.085
-661.974	-120.243	0.255	0.044
-660.959	7.941	0.285	-0.215
-659.945	-200.000	-0.033	0.266
-658.930	-200.000	0.025	-0.197
-657.916	-53.780	-0.099	0.046
-656.901	-159.582	-0.231	0.013
-655.886	-137.605	-0.153	0.017
-654.872	-200.000	-0.008	-0.127
-653.857	-84.785	0.423	-0.134
-652.843	-200.000	0.038	-0.237
-651.828	-28.598	0.119	-0.069
-650.814	-104.830	0.195	0.045
-649.799	396.692	-0.114	-0.240
-648.784	-200.000	0.036	0.640
-647.770	800.000	-0.041	0.141
-646.755	598.564	0.121	0.301
-645.741	354.964	-0.053	0.107
-644.726	727.902	-0.038	0.103
-643.711	-154.726	0.228	-0.015
-642.697	-117.590	-0.399	-0.072
-641.682	800.000	0.086	0.262
-640.668	-5.359	0.069	-0.048
-639.653	261.328	-0.189	-0.329
-638.638	-200.000	0.018	-0.174
-637.624	171.657	-0.060	-0.087
-636.609	321.539	0.190	0.363
-635.595	239.757	-0.051	0.086
-634.580	149.055	-0.143	-0.195
-633.565	358.977	-0.014	0.029
-632.551	800.000	0.063	0.210
-631.536	46.732	0.273	0.255
-630.522	233.398	-0.082	-0.136
-629.507	-27.097	0.134	-0.079
-628.492	800.000	-0.119	-0.334
-627.478	-118.958	-0.462	0.081
-626.463	272.987	-0.128	-0.227
-625.449	166.463	-0.179	0.255
-624.434	-200.000	-0.010	0.063
-623.419	26.242	-0.145	0.122
-622.405	4.569	0.143	-0.106
-621.390	68.945	-0.142	-0.146
-620.376	1.593	0.411	-0.297
-619.361	130.436	-0.124	-0.160
-618.346	-91.825	-0.195	0.056
-617.332	800.000	-0.041	0.137
-616.317	-200.000	-0.049	-0.259
-615.303	787.171	0.071	-0.194
-614.288	-200.000	0.032	0.269
-613.273	-64.652	-0.066	0.027
-612.259	9.024	0.160	-0.122
-611.244	-33.174	0.171	-0.095
-610.230	-41.003	-0.142	0.074
-609.215	-142.594	-0.188	0.018
-608.201	-200.000	0.016	-0.149
-607.186	229.954	0.135	0.221
-606.171	79.095	0.100	-0.107
-605.157	-200.000	0.078	0.407
-604.142	82.374	-0.056	-0.061
-603.128	-37.234	-0.345	-0.185
-602.113	-200.000	-0.005	0.322
-601.098	137.789	-0.090	0.118
-600.084	365.110	-0.042	0.085
-599.069	-200.000	0.004	0.172
-598.055	-9.012	-0.043	0.029
-597.040	230.183	-0.223	0.365
-596.025	498.352	0.098	-0.226
-595.011	-150.515	0.190	0.015
-593.996	-200.000	0.011	-0.228
-592.982	-200.000	-0.014	0.092
-591.967	95.096	0.028	-0.032
-590.952	258.937	-0.122	-0.212
-589.938	-25.059	-0.245	0.146
-588.923	-39.583	-0.171	0.090
-587.909	-200.000	0.048	-0.265
-586.894	191.800	-0.200	-0.303
-585.879	250.858	-0.047	0.080
-584.865	15.002	-0.127	0.100
-583.850	84.291	-0.042	0.046
-582.836	-123.220	0.285	0.046
-581.821	106.212	-0.081	-0.096
-580.806	14.814	0.029	-0.023
-579.792	-96.273	-0.319	0.085
-578.777	142.080	-0.281	-0.373
-577.763	-194.087	-0.255	-0.002
-576.748	-68.530	0.354	-0.137
-575.733	76.049	-0.140	0.148
-574.719	780.981	0.134	-0.369
-573.704	-96.011	-0.098	-0.026
-572.690	-26.493	0.157	0.092
-571.675	-103.536	0.273	-0.064
-570.661	-128.760	0.170	-0.024
-569.646	-33.001	0.146	0.081
-568.631	-200.000	0.006	0.231
-567.617	38.886	-0.147	-0.131
-566.602	-79.813	0.089	-0.030
-565.588	158.202	-0.105	0.146
-564.573	-177.514	0.185	0.005
-563.558	101.592	0.084	0.098
-562.544	550.204	-0.045	-0.108
-561.529	141.588	-0.134	0.178
-560.515	-13.146	-0.139	-0.091
-559.500	-101.274	-0.138	-0.034
-558.485	90.761	0.232	-0.261
-557.471	-151.001	0.127	0.010
-556.456	347.146	-0.155	-0.305
-555.442	35.960	-0.244	-0.215
-554.427	-148.423	-0.283	0.023
-553.412	198.844	0.179	-0.275
-552.398	800.000	-0.058	-0.166
-551.383	-200.000	-0.039	-0.386
-550.369	148.375	-0.187	-0.253
-549.354	-8.314	-0.213	0.143
-548.339	800.000	-0.046	-0.154
-547.325	318.616	-0.106	0.201
-546.310	781.216	0.115	0.314
-545.296	-200.000	0.003	-0.132
-544.281	-51.747	-0.193	0.090
-543.266	-4.793	0.128	0.089
-542.252	-200.000	-0.001	0.128
-541.237	223.786	0.086	0.140
-540.223	-99.966	-0.196	-0.049
-539.208	-200.000	0.032	-0.400
-538.193	757.964	0.129	0.350
-537.179	54.805	0.249	0.241
-536.164	84.281	-0.119	-0.130
-535.150	15.796	-0.181	0.143
-534.135	-174.268	0.324	-0.009
-533.121	63.176	0.267	-0.268
-532.106	-56.384	-0.127	0.056
-531.091	96.559	0.066	-0.075
-530.077	-39.377	-0.264	0.139
-529.062	239.654	-0.100	-0.167
-528.048	259.331	-0.079	0.136
-527.033	-200.000	-0.005	-0.068
-526.018	800.000	0.130	0.471
-525.004	229.101	0.053	-0.086
-523.989	2.958	0.145	-0.106
-522.975	-200.000	-0.013	0.119
-521.960	177.835	0.124	-0.181
-520.945	-200.000	0.007	0.102
-519.931	-200.000	-0.015	0.171
-518.916	-200.000	-0.015	0.081
-517.902	-137.672	-0.325	0.037
-516.887	486.152	0.081	-0.185
-515.872	-200.000	0.056	-0.321
-514.858	347.138	0.142	-0.279
-513.843	748.521	-0.083	0.224
-512.829	800.000	0.064	-0.187
-511.814	-35.743	0.420	0.228
-510.799	-100.386	-0.316	-0.078
-509.785	-12.881	0.153	-0.100
-508.770	-129.976	-0.157	0.021
-507.756	43.843	-0.184	0.169
-506.741	222.323	-0.219	-0.352
-505.726	-112.446	0.174	-0.035
-504.712	-200.000	-0.024	0.193
-503.697	-70.993	0.096	-0.036
-502.683	800.000	-0.083	0.280
-501.668	-126.879	-0.263	0.039
-500.653	47.537	0.146	-0.136
-499.639	-200.000	0.011	0.246
-498.624	8.949	0.246	-0.185
-497.610	763.541	-0.115	-0.312
-496.595	62.546	0.247	0.247
-495.581	-200.000	0.001	-0.148
-494.566	-200.000	-0.018	-0.387
-493.551	-82.990	0.042	0.013
-492.537	134.936	-0.141	-0.183
-491.522	68.721	0.101	0.103
-490.508	-200.000	-0.001	0.392
-489.493	-73.455	-0.231	-0.084
-488.478	-200.000	-0.017	0.221
-487.464	-122.392	0.154	-0.025
-486.449	-75.594	-0.148	-0.052
-485.435	-200.000	0.044	0.279
-484.420	-199.159	0.077	0.000
-483.405	-49.019	-0.124	-0.059
-482.391	-200.000	-0.002	-0.374
-481.376	94.930	-0.080	-0.091
-480.362	-128.948	-0.287	-0.040
-479.347	-200.000	0.023	0.112
-478.332	-200.000	-0.003	-0.128
-477.318	-12.330	0.076	-0.050
-476.303	233.679	-0.223	-0.367
-475.289	-172.693	-0.087	-0.003
-474.274	-49.257	-0.482	0.230
-473.259	-200.000	-0.019	0.153
-472.245	800.000	0.060	-0.183
-471.230	481.131	-0.029	-0.065
-470.216	295.885	0.117	-0.215
-469.201	-105.001	0.227	0.052
-468.186	-200.000	0.009	-0.194
-467.172	-163.989	-0.194	0.009
-466.157	151.011	0.265	0.359
-465.143	203.081	-0.088	-0.136
-464.128	-75.222	-0.350	-0.125
-463.113	-74.647	-0.129	-0.046
-462.099	-179.360	0.409	0.009
-461.084	-54.182	-0.160	-0.073
-460.070	-200.000	-0.078	-0.384
-459.055	10.944	0.122	-0.093
-458.040	42.843	0.278	-0.253
-457.026	-79.076	0.375	-0.127
-456.011	26.618	-0.212	0.177
-454.997	12.519	0.115	-0.088
-453.982	20.689	-0.197	0.159
-452.968	800.000	0.044	0.137
-451.953	101.769	-0.182	0.212
-450.938	88.568	-0.268	-0.297
-449.924	2.572	0.104	-0.075
-448.909	-189.219	0.095	0.001
-447.895	-200.000	0.070	0.449
-446.880	-51.230	-0.136	-0.064
-445.865	35.585	-0.100	0.088
-444.851	353.689	-0.024	0.048
-443.836	30.364	-0.130	-0.111
-442.822	-200.000	-0.002	-0.089
-441.807	177.178	-0.128	0.186
-440.792	21.419	-0.160	0.129
-439.778	-132.808	0.101	0.013
-438.763	351.963	-0.101	-0.199
-437.749	-117.726	0.290	-0.052
-436.734	-63.841	-0.091	0.037
-435.719	-151.447	0.313	-0.023
-434.705	-200.000	-0.002	-0.278
-433.690	-48.648	-0.150	-0.072
-432.676	-51.421	-0.103	-0.048
-431.661	112.129	-0.147	0.177
-430.646	44.851	-0.264	0.242
-429.632	83.842	-0.042	-0.045
-428.617	-156.347	0.170	-0.011
-427.603	120.852	-0.120	0.148
-426.588	-200.000	-0.035	-0.259
-425.573	-175.534	0.059	0.002
-424.559	-39.052	-0.053	0.028
-423.544	800.000	-0.115	-0.332
-422.530	-27.707	-0.075	0.043
-421.515	-37.363	-0.044	-0.023
-420.500	274.092	-0.042	0.073
-419.486	-128.052	-0.077	-0.011
-418.471	-128.098	0.177	-0.025
-417.457	-51.943	-0.093	0.043
-416.442	182.697	-0.241	-0.354
-415.428	6.494	0.259	-0.192
-414.413	24.668	-0.233	0.192
-413.398	-200.000	-0.012	0.115
-412.384	-43.352	-0.201	0.101
-411.369	3.987	0.131	0.095
-410.355	-66.190	-0.192	-0.076
-409.340	-84.403	-0.199	0.063
-408.325	251.727	-0.095	0.162
-407.311	-143.049	-0.325	0.031
-406.296	-23.290	0.226	-0.135
-405.282	124.840	0.239	-0.300
-404.267	-200.000	0.024	-0.304
-403.252	-200.000	-0.007	0.418
-402.238	-89.160	0.230	-0.068
-401.223	191.126	0.066	0.099
-400.209	-180.459	-0.132	-0.003
-399.194	81.249	0.043	0.047
-398.179	-106.894	-0.198	0.044
-397.165	583.925	-0.165	0.404
-396.150	-79.610	-0.138	-0.047
-395.136	-123.021	0.389	0.062
-394.121	210.713	-0.182	-0.285
-393.106	331.720	0.107	0.206
-392.092	-116.093	0.343	0.063
-391.077	800.000	0.146	-0.602
-390.063	-49.684	0.400	0.189
-389.048	197.235	-0.064	-0.097
-388.033	-12.164	0.414	-0.270
-387.019	360.620	-0.158	0.315
-386.004	-200.000	0.034	-0.254
-384.990	800.000	-0.053	-0.183
-383.975	477.679	-0.015	-0.034
-382.960	800.000	-0.075	-0.305
-381.946	-156.614	0.391	0.024
-380.931	-200.000	-0.002	-0.127
-379.917	564.151	0.040	0.097
-378.902	-109.015	0.197	-0.042
-377.888	-200.000	-0.057	0.254
-376.873	-117.860	0.436	0.078
-375.858	120.137	0.189	-0.233
-374.844	46.815	-0.162	-0.149
-373.829	-200.000	-0.032	-0.520
-372.815	800.000	0.124	0.381
-371.800	158.852	0.208	-0.287
-370.785	-89.398	-0.128	-0.037
-369.771	-73.677	-0.350	-0.127
-368.756	50.586	-0.116	-0.110
-367.742	-200.000	-0.020	-0.399
-366.727	288.910	0.151	0.273
-365.712	-200.000	0.021	-0.269
-364.698	-200.000	0.005	-0.036
-363.683	-22.636	-0.137	0.082
-362.669	217.329	0.229	0.362
-361.654	154.490	-0.056	0.076
-360.639	-151.366	-0.131	-0.010
-359.625	800.000	-0.073	0.210
-358.610	-114.553	0.066	-0.012
-357.596	202.796	-0.094	0.145
-356.581	368.414	-0.059	0.118
-355.566	800.000	-0.042	0.169
-354.552	225.214	-0.205	0.330
-353.537	44.435	0.202	0.185
-352.523	-200.000	0.029	0.136
-351.508	-148.591	-0.186	-0.015
-350.493	-28.691	0.104	0.059
-349.479	340.848	-0.061	-0.119
-348.464	800.000	0.061	0.172
-347.450	-30.866	0.166	0.093
-346.435	121.604	0.123	0.152
-345.420	-28.500	0.315	-0.181
-344.406	-80.754	-0.254	0.084
-343.391	-67.252	0.292	-0.114
-342.377	676.954	0.097	0.250
-341.362	-200.000	0.076	0.538
-340.348	124.916	-0.137	-0.171
-339.333	-200.000	-0.000	0.104
-338.318	-200.000	0.051	0.339
-337.304	800.000	-0.033	-0.143
-336.289	-90.318	-0.138	0.040
-335.275	166.954	0.171	0.241
-334.260	102.630	0.029	0.034
-333.245	213.941	-0.339	0.533
-332.231	-200.000	0.052	0.417
-331.216	795.941	-0.039	-0.108
-330.202	512.692	-0.113	0.262
-329.187	-65.171	-0.256	0.102
-328.172	221.169	0.066	0.105
-327.158	-177.400	0.174	0.004
-326.143	-200.000	-0.001	0.084
-325.129	-66.400	-0.020	-0.008
-324.114	-34.768	0.144	0.078
-323.099	-200.000	-0.038	0.243
-322.085	800.000	-0.091	-0.278
-321.070	-136.027	-0.208	-0.024
-320.056	-58.120	-0.087	0.038
-319.041	53.472	-0.196	0.187
-318.026	-54.288	0.095	-0.043
-317.012	-78.547	0.279	0.095
-315.997	23.848	-0.066	-0.054
-314.983	-62.970	0.222	0.091
-313.968	-200.000	0.006	-0.140
-312.953	-4.900	-0.142	-0.097
-311.939	-200.000	0.013	-0.334
-310.924	-74.161	0.258	-0.093
-309.910	-200.000	0.073	-0.417
-308.895	-200.000	0.054	0.238
-307.880	89.938	0.168	-0.186
-306.866	-64.080	-0.267	-0.108
-305.851	-74.285	-0.186	0.067
-304.837	291.710	0.187	0.338
-303.822	718.902	-0.047	-0.123
-302.807	-81.218	0.099	0.032
-301.793	800.000	0.038	-0.133
-300.778	-200.000	0.025	-0.287
-299.764	-200.000	0.069	0.310
-298.749	24.272	-0.179	0.146
-297.735	-57.989	-0.244	-0.106
-296.720	-200.000	-0.045	-0.480
-295.705	-114.709	0.185	-0.035
-294.691	-39.354	0.423	0.220
-293.676	675.347	0.068	-0.176
-292.662	-200.000	0.047	-0.232
-291.647	-200.000	0.009	0.052
-290.632	-86.658	0.168	-0.051
-289.618	-200.000	-0.023	-0.226
-288.603	232.678	0.107	0.175
-287.589	-200.000	-0.029	0.144
-286.574	-95.661	-0.244	0.065
-285.559	609.437	0.116	-0.286
-284.545	-22.524	0.221	-0.132
-283.530	-78.449	0.188	-0.064
-282.516	-200.000	0.040	-0.268
-281.501	-76.122	0.051	-0.018
-280.486	-112.700	-0.152	-0.030
-279.472	237.506	-0.117	0.192
-278.457	-200.000	0.019	0.324
-277.443	786.333	0.087	0.237
-276.428	-200.000	0.042	0.214
-275.413	422.701	0.119	0.253
-274.399	56.810	-0.338	0.326
-273.384	800.000	0.102	-0.375
-272.370	89.440	-0.197	-0.218
-271.355	-16.559	-0.130	0.082
-270.340	-37.663	-0.305	0.161
-269.326	417.803	0.077	0.163
-268.311	-136.020	-0.243	0.028
-267.297	32.422	0.107	0.091
-266.282	-146.554	0.512	-0.044
-265.267	-47.759	-0.146	0.070
-264.253	-178.375	0.113	0.003
-263.238	212.700	-0.058	-0.091
-262.224	33.560	-0.116	-0.099
-261.209	-200.000	0.024	-0.307
-260.195	70.226	0.073	-0.075
-259.180	-178.175	-0.122	-0.003
-258.165	-4.831	0.058	-0.040
-257.151	208.400	0.108	-0.167
-256.136	20.975	-0.143	0.115
-255.122	153.731	0.307	-0.416
-254.107	341.286	0.115	0.223
-253.092	45.634	-0.200	0.183
-252.078	-79.213	0.062	-0.021
-251.063	63.785	-0.204	-0.203
-250.049	-133.187	0.214	-0.027
-249.034	57.851	-0.067	-0.065
-248.019	172.037	-0.120	-0.171
-247.005	-125.719	0.183	0.027
-245.990	-51.740	-0.278	-0.128
-244.976	22.577	0.150	-0.122
-243.961	177.392	0.222	-0.320
-242.946	-6.841	-0.332	-0.223
-241.932	-200.000	-0.059	-0.386
-240.917	800.000	0.033	0.126
-239.903	-15.452	0.131	0.083
-238.888	-200.000	0.022	0.232
-237.873	729.704	0.081	-0.215
-236.859	199.552	-0.215	-0.326
-235.844	-111.270	-0.164	-0.033
-234.830	-148.886	0.260	0.021
-233.815	195.658	0.197	-0.296
-232.800	800.000	0.012	0.033
-231.786	348.538	0.152	0.296
-230.771	800.000	0.039	0.112
-229.757	185.665	-0.166	0.244
-228.742	-26.926	-0.247	0.142
-227.727	-184.624	-0.136	0.002
-226.713	-44.235	0.134	-0.066
-225.698	131.751	0.168	-0.214
-224.684	-200.000	0.003	-0.122
-223.669	-104.446	0.260	-0.059
-222.655	-74.590	0.076	0.027
-221.640	-200.000	-0.000	0.147
-220.625	443.724	-0.070	0.151
-219.611	800.000	-0.047	0.163
-218.596	-23.070	0.122	-0.073
-217.582	-4.676	-0.088	0.060
-216.567	4.580	-0.075	0.054
-215.552	800.000	-0.067	0.269
-214.538	-200.000	0.000	0.183
-213.523	487.736	-0.121	0.273
-212.509	-129.313	-0.239	-0.033
-211.494	-200.000	0.015	0.196
-210.479	-6.873	0.165	-0.111
-209.465	800.000	-0.032	0.123
-208.450	225.108	0.148	-0.236
-207.436	800.000	-0.040	-0.112
-206.421	17.128	-0.218	0.171
-205.406	-200.000	-0.019	0.162
-204.392	53.801	0.251	0.238
-203.377	-200.000	0.032	0.299
-202.363	46.422	-0.072	0.066
-201.348	-27.350	0.223	-0.128
-200.333	-167.820	0.233	-0.009
-199.319	14.900	0.240	0.185
-198.304	-51.594	-0.116	0.053
-197.290	800.000	-0.088	-0.350
-196.275	-200.000	-0.001	0.162
-195.260	-106.496	0.365	0.080
-194.246	-45.916	0.227	-0.110
-193.231	-148.665	0.223	0.018
-192.217	186.485	-0.130	0.191
-191.202	222.210	-0.059	-0.094
-190.187	-103.889	-0.185	0.043
-189.173	-68.734	-0.138	-0.053
-188.158	33.797	0.164	0.141
-187.144	-200.000	0.048	-0.328
-186.129	-200.000	-0.011	0.167
-185.114	-132.501	0.246	-0.031
-184.100	-200.000	0.021	-0.148
-183.085	-15.555	-0.519	-0.327
-182.071	-200.000	0.063	0.283
-181.056	-143.810	0.294	0.027
-180.042	-127.237	-0.092	0.013
-179.027	429.839	-0.279	0.595
-178.012	696.477	0.059	-0.154
-176.998	-94.731	0.279	-0.075
-175.983	-84.879	-0.089	-0.027
-174.969	42.410	0.169	-0.152
-173.954	63.817	0.117	-0.116
-172.939	118.037	0.212	0.257
-171.925	-12.351	0.259	-0.167
-170.910	-200.000	0.037	0.183
-169.896	800.000	0.027	0.110
-168.881	-75.458	-0.195	-0.069
-167.866	37.264	-0.196	0.171
-166.852	268.123	-0.105	0.181
-165.837	-200.000	-0.054	0.293
-164.823	800.000	-0.039	0.137
-163.808	-200.000	-0.037	-0.251
-162.793	-200.000	0.002	-0.233
-161.779	42.491	-0.112	0.101
-160.764	-37.665	0.339	-0.178
-159.750	-98.304	0.536	-0.136
-158.735	36.175	0.105	-0.091
-157.720	105.173	0.146	0.170
-156.706	-71.783	-0.398	-0.146
-155.691	207.124	0.085	0.131
-154.677	-157.434	0.271	-0.016
-153.662	-87.309	0.077	0.023
-152.647	-200.000	-0.011	0.290
-151.633	-85.019	-0.078	0.024
-150.618	-139.744	-0.185	-0.019
-149.604	-5.445	-0.114	-0.077
-148.589	-20.667	0.229	0.139
-147.574	-200.000	0.019	0.298
-146.560	117.519	-0.047	-0.057
-145.545	97.852	0.115	-0.130
-144.531	-93.425	-0.275	-0.075
-143.516	-128.415	0.241	0.034
-142.502	-200.000	-0.002	-0.100
-141.487	-149.885	0.279	0.021
-140.472	-200.000	-0.012	-0.128
-139.458	109.353	0.084	0.099
-138.443	-200.000	0.016	0.120
-137.429	16.567	0.107	0.083
-136.414	-27.557	0.287	-0.164
-135.399	800.000	-0.027	-0.098
-134.385	-200.000	-0.006	-0.136
-133.370	-15.422	0.257	0.162
-132.356	306.408	-0.104	-0.191
-131.341	800.000	0.029	-0.104
-130.326	-200.000	-0.009	0.109
-129.312	551.969	0.036	0.086
-128.297	244.065	-0.113	0.187
-127.283	-200.000	-0.016	0.284
-126.268	162.087	-0.066	-0.091
-125.253	-200.000	-0.045	0.412
-124.239	-200.000	-0.029	0.156
-123.224	612.002	0.041	-0.100
