DTS Sentinel unit serial number:	SN413079Multiplexer serial number:	ORYXHardware model number:	OX4-SRSoftware version number:	ORYX F/W v4.00 Oryx Data Collector v3.7.2.0data status	okinstallation	princeton_trtdifferential loss correction	single-endedforward channel	channel 1reverse channel	N/Adate	2019/09/12time	02:44:11forward acquisition time	60.00reverse acquisition time	0.00gamma	496.2192k internal	0.2322k external	0.2322temperature offset calibration	1.0081default loss term (dB/km)	0.3790temperature slope calibration	1.0000multiplexer offset coefficient	1.0000multiplexer slope coefficient	1.0000fibre end	0.00T internal ref (°C)	32.37T ext. ref 1 (°C)	2.09T ext. ref 2 (°C)	26.97length (m)	temperature (°C)	Stokes	anti-Stokes-747.200	54.486	-0.344	0.335
-746.185	754.201	0.045	0.124
-745.171	-25.726	0.116	-0.069
-744.156	76.248	0.134	0.143
-743.142	-84.282	0.221	-0.071
-742.127	-1.682	0.209	-0.149
-741.112	-81.099	-0.114	0.038
-740.098	247.696	-0.088	-0.150
-739.083	-105.919	-0.435	-0.099
-738.069	65.486	-0.166	-0.170
-737.054	118.768	-0.104	-0.130
-736.039	-200.000	-0.018	-0.251
-735.025	29.879	-0.231	0.199
-734.010	237.863	-0.195	-0.327
-732.996	-139.715	-0.290	0.031
-731.981	-200.000	-0.012	-0.164
-730.966	-69.929	-0.382	0.147
-729.952	-2.794	-0.235	-0.166
-728.937	-139.609	-0.224	-0.024
-727.923	-200.000	0.005	-0.080
-726.908	800.000	-0.040	0.166
-725.894	-200.000	-0.022	0.146
-724.879	800.000	0.055	0.207
-723.864	57.537	-0.089	0.088
-722.850	800.000	0.069	0.287
-721.835	-200.000	-0.026	0.342
-720.821	248.897	0.024	-0.041
-719.806	-83.505	-0.224	0.072
-718.791	-43.753	0.070	-0.036
-717.777	-128.221	0.330	-0.048
-716.762	-150.603	-0.163	0.013
-715.748	-81.795	0.061	0.020
-714.733	-52.775	-0.241	-0.112
-713.718	-200.000	0.002	-0.220
-712.704	268.483	-0.101	-0.178
-711.689	800.000	-0.045	0.160
-710.675	-148.321	0.145	0.012
-709.660	339.163	-0.194	-0.382
-708.645	-200.000	-0.018	0.165
-707.631	800.000	0.096	-0.344
-706.616	-40.768	0.180	0.094
-705.602	-47.575	-0.248	0.121
-704.587	283.584	0.111	-0.202
-703.572	-88.936	0.199	0.059
-702.558	346.248	-0.235	0.465
-701.543	800.000	-0.050	0.155
-700.529	76.114	-0.185	0.198
-699.514	-84.887	-0.220	-0.070
-698.499	194.654	-0.138	0.211
-697.485	-103.431	0.272	-0.065
-696.470	79.857	-0.054	-0.059
-695.456	-152.825	-0.099	-0.007
-694.441	-93.583	0.165	0.046
-693.426	602.728	-0.143	0.359
-692.412	-20.383	-0.168	-0.104
-691.397	-28.353	-0.050	0.029
-690.383	800.000	0.033	0.124
-689.368	-136.445	-0.324	-0.038
-688.354	-122.783	-0.248	0.040
-687.339	-129.253	0.286	-0.040
-686.324	-200.000	0.026	-0.138
-685.310	-94.900	0.008	0.002
-684.295	611.383	0.054	-0.137
-683.281	243.233	0.191	-0.324
-682.266	800.000	0.021	-0.064
-681.251	800.000	0.028	-0.102
-680.237	-68.225	-0.076	0.030
-679.222	68.522	-0.284	-0.294
-678.208	17.418	0.038	-0.030
-677.193	-99.931	-0.390	-0.098
-676.178	191.061	-0.106	-0.161
-675.164	14.298	0.310	0.244
-674.149	-128.756	0.169	-0.024
-673.135	410.767	0.078	-0.166
-672.120	-41.757	-0.189	-0.098
-671.105	-71.599	-0.081	-0.030
-670.091	-200.000	-0.047	-0.222
-669.076	-72.419	0.123	-0.046
-668.062	-59.146	0.196	-0.085
-667.047	-96.809	-0.161	-0.043
-666.032	-15.147	0.160	-0.103
-665.018	-4.343	-0.262	0.183
-664.003	-8.426	0.216	-0.146
-662.989	13.416	0.105	0.082
-661.974	330.876	-0.079	0.154
-660.959	-17.704	-0.190	-0.120
-659.945	-20.589	-0.034	-0.021
-658.930	-164.795	-0.209	-0.009
-657.916	-200.000	0.043	0.231
-656.901	54.766	0.162	0.157
-655.886	88.514	0.241	-0.270
-654.872	120.646	0.112	-0.140
-653.857	800.000	0.076	-0.308
-652.843	-200.000	-0.029	-0.159
-651.828	-105.735	-0.220	-0.050
-650.814	131.090	-0.148	-0.192
-649.799	-144.739	-0.263	-0.024
-648.784	-200.000	0.003	-0.622
-647.770	105.732	-0.120	-0.143
-646.755	738.436	0.025	-0.067
-645.741	-200.000	-0.028	-0.145
-644.726	61.382	-0.288	-0.288
-643.711	-200.000	-0.031	0.357
-642.697	-200.000	-0.036	0.231
-641.682	-200.000	0.024	-0.342
-640.668	17.457	-0.064	-0.051
-639.653	-20.521	-0.271	-0.168
-638.638	23.195	0.210	-0.174
-637.624	121.303	-0.178	-0.223
-636.609	800.000	0.130	0.375
-635.595	-126.226	0.194	0.029
-634.580	27.866	-0.078	-0.066
-633.565	62.547	-0.208	-0.209
-632.551	-200.000	0.004	0.125
-631.536	781.275	-0.027	0.075
-630.522	-72.321	0.201	0.075
-629.507	-200.000	0.018	-0.216
-628.492	127.673	-0.198	-0.253
-627.478	146.192	-0.086	-0.116
-626.463	-200.000	0.067	0.399
-625.449	651.320	0.050	0.129
-624.434	-129.960	0.102	0.014
-623.419	-200.000	0.048	0.424
-622.405	800.000	-0.151	0.623
-621.390	800.000	0.082	0.237
-620.376	-200.000	-0.035	-0.421
-619.361	113.064	-0.136	0.165
-618.346	-115.641	0.222	-0.042
-617.332	-45.821	-0.325	0.161
-616.317	-135.765	0.269	-0.032
-615.303	-200.000	0.039	0.235
-614.288	-79.174	0.220	0.075
-613.273	-51.977	-0.239	-0.112
-612.259	45.730	-0.147	-0.136
-611.244	381.504	0.092	-0.190
-610.230	-3.818	-0.105	-0.073
-609.215	282.484	-0.037	0.067
-608.201	-115.568	-0.636	0.120
-607.186	-0.937	-0.213	-0.152
-606.171	722.476	-0.119	0.318
-605.157	-55.798	-0.123	-0.055
-604.142	800.000	0.091	-0.346
-603.128	203.493	-0.231	-0.360
-602.113	-66.690	-0.047	-0.019
-601.098	-22.835	0.221	0.134
-600.084	-93.781	0.122	-0.034
-599.069	154.181	0.190	-0.261
-598.055	-108.778	0.293	0.063
-597.040	800.000	-0.061	0.235
-596.025	-128.021	0.228	0.033
-595.011	-200.000	-0.016	-0.417
-593.996	33.074	0.123	0.107
-592.982	-182.849	0.437	-0.008
-591.967	-129.800	-0.185	0.026
-590.952	-82.154	-0.170	0.056
-589.938	-64.252	0.228	0.093
-588.923	-140.798	0.033	-0.003
-587.909	-200.000	0.012	0.630
-586.894	206.148	-0.108	-0.169
-585.879	11.331	-0.025	-0.019
-584.865	-120.596	-0.408	-0.069
-583.850	434.690	0.041	0.090
-582.836	45.549	-0.247	0.229
-581.821	307.679	-0.131	-0.245
-580.806	-90.940	-0.276	-0.080
-579.792	800.000	0.089	0.297
-578.777	-200.000	-0.051	0.270
-577.763	-138.596	0.464	-0.051
-576.748	26.361	0.221	-0.185
-575.733	-81.573	-0.385	-0.127
-574.719	-200.000	0.006	0.056
-573.704	-34.350	-0.472	0.260
-572.690	189.847	0.077	0.116
-571.675	-200.000	0.029	0.173
-570.661	800.000	0.020	-0.080
-569.646	800.000	-0.062	0.243
-568.631	80.224	0.202	0.219
-567.617	18.995	0.211	0.170
-566.602	-111.506	-0.035	-0.007
-565.588	-100.790	-0.354	-0.087
-564.573	-156.825	0.086	0.005
-563.558	-200.000	0.006	0.044
-562.544	103.648	0.148	-0.174
-561.529	67.221	-0.064	0.065
-560.515	-3.150	-0.249	-0.175
-559.500	-172.565	-0.331	-0.010
-558.485	-1.354	-0.283	-0.201
-557.471	413.191	0.175	0.373
-556.456	-42.479	-0.420	0.215
-555.442	-131.651	-0.331	-0.044
-554.427	-200.000	-0.002	-0.329
-553.412	-99.861	0.300	0.075
-552.398	-174.088	-0.283	0.008
-551.383	-79.171	-0.331	0.113
-550.369	92.126	-0.052	0.058
-549.354	-149.210	0.155	0.012
-548.339	-14.317	-0.167	0.108
-547.325	-200.000	0.004	0.046
-546.310	206.828	-0.038	-0.060
-545.296	-200.000	-0.041	-0.254
-544.281	80.914	-0.051	0.055
-543.266	33.230	0.119	-0.104
-542.252	-163.366	0.307	0.015
-541.237	-107.467	-0.258	0.057
-540.223	-49.846	0.235	-0.112
-539.208	470.429	0.212	-0.478
-538.193	-200.000	0.243	-0.000
-537.179	14.338	0.079	0.062
-536.164	462.056	-0.046	0.102
-535.150	315.161	0.132	-0.249
-534.135	-43.712	0.297	-0.150
-533.121	-66.241	0.209	0.083
-532.106	-179.215	-0.241	-0.005
-531.091	-37.280	-0.312	-0.167
-530.077	-67.933	0.142	0.055
-529.062	100.979	-0.058	-0.068
-528.048	195.326	-0.195	-0.297
-527.033	-200.000	0.011	-0.092
-526.018	230.059	-0.038	-0.062
-525.004	-16.860	-0.119	0.076
-523.989	-200.000	0.037	0.268
-522.975	2.326	0.274	0.198
-521.960	-16.325	0.062	0.039
-520.945	-200.000	-0.011	-0.259
-519.931	-85.597	0.176	-0.055
-518.916	-138.704	0.288	-0.032
-517.902	-72.020	-0.021	0.008
-516.887	174.376	-0.090	-0.131
-515.872	-81.280	-0.091	-0.030
-514.858	-117.680	0.121	0.022
-513.843	71.326	-0.066	-0.069
-512.829	-138.712	-0.221	-0.024
-511.814	-145.614	-0.043	0.004
-510.799	153.804	-0.059	-0.082
-509.785	-200.000	0.009	-0.252
-508.770	-107.296	-0.320	-0.070
-507.756	800.000	0.096	0.344
-506.741	48.188	-0.082	0.077
-505.726	-72.894	-0.263	-0.097
-504.712	222.357	0.067	-0.107
-503.697	-113.988	0.054	-0.010
-502.683	316.880	0.192	-0.363
-501.668	-79.627	-0.146	-0.049
-500.653	-7.369	0.103	0.070
-499.639	-178.013	-0.492	0.012
-498.624	-136.109	-0.113	-0.013
-497.610	-85.141	-0.113	0.035
-496.595	-12.893	-0.159	0.103
-495.581	-158.806	-0.109	-0.006
-494.566	105.198	-0.079	0.093
-493.551	-92.544	0.287	0.081
-492.537	98.015	-0.203	-0.234
-491.522	-100.390	0.124	-0.031
-490.508	-80.804	-0.099	0.033
-489.493	162.206	0.123	-0.172
-488.478	429.678	-0.049	-0.105
-487.464	-200.000	0.053	0.235
-486.449	23.752	0.105	-0.087
-485.435	255.067	-0.049	-0.084
-484.420	-35.778	0.233	0.126
-483.405	706.916	0.202	-0.533
-482.391	763.408	-0.061	0.164
-481.376	-168.869	-0.537	0.020
-480.362	-189.534	-0.353	-0.004
-479.347	80.315	0.206	0.221
-478.332	32.720	-0.185	-0.160
-477.318	-200.000	-0.018	0.162
-476.303	-51.702	0.475	-0.221
-475.289	3.816	-0.129	-0.094
-474.274	334.408	-0.145	0.280
-473.259	100.861	-0.039	0.046
-472.245	-200.000	0.010	0.048
-471.230	-59.653	0.030	-0.013
-470.216	63.751	-0.145	-0.146
-469.201	-51.076	-0.035	-0.016
-468.186	-39.895	0.253	0.132
-467.172	222.355	0.090	-0.144
-466.157	387.798	-0.061	0.125
-465.143	800.000	0.035	-0.135
-464.128	-42.857	0.210	-0.107
-463.113	472.581	-0.187	-0.420
-462.099	-27.625	0.265	0.154
-461.084	800.000	-0.035	0.126
-460.070	14.164	-0.200	0.156
-459.055	-101.025	0.118	-0.029
-458.040	800.000	0.115	-0.452
-457.026	-106.325	0.140	-0.031
-456.011	484.827	0.193	0.440
-454.997	20.999	0.212	-0.172
-453.982	21.152	-0.131	-0.106
-452.968	-6.830	-0.221	-0.150
-451.953	-46.866	-0.143	-0.070
-450.938	-1.746	0.398	0.280
-449.924	800.000	0.044	0.140
-448.909	-9.729	-0.291	-0.194
-447.895	-95.534	0.257	-0.069
-446.880	59.801	-0.188	0.185
-445.865	-74.315	-0.163	-0.059
-444.851	-57.209	-0.136	-0.060
-443.836	-200.000	-0.006	-0.049
-442.822	-200.000	0.008	0.211
-441.807	-200.000	0.010	0.303
-440.792	-96.404	0.318	-0.084
-439.778	-9.223	-0.077	0.051
-438.763	-9.612	-0.265	0.177
-437.749	800.000	-0.095	-0.271
-436.734	-200.000	-0.018	-0.143
-435.719	601.613	-0.075	0.186
-434.705	105.563	-0.159	-0.187
-433.690	-200.000	-0.002	-0.053
-432.676	-37.083	-0.076	-0.041
-431.661	-17.747	-0.157	-0.099
-430.646	-59.329	-0.063	-0.027
-429.632	-44.568	-0.353	-0.176
-428.617	-200.000	-0.038	0.174
-427.603	-98.843	-0.226	-0.057
-426.588	190.303	-0.148	0.222
-425.573	800.000	0.063	0.183
-424.559	-98.845	0.123	0.031
-423.544	-200.000	-0.024	-0.112
-422.530	26.289	0.087	0.072
-421.515	-94.856	0.171	-0.046
-420.500	-95.348	0.301	-0.081
-419.486	-200.000	-0.001	-0.044
-418.471	-70.916	-0.133	0.050
-417.457	-200.000	0.067	0.568
-416.442	208.762	-0.101	0.157
-415.428	-60.059	0.173	0.074
-414.413	800.000	0.005	0.014
-413.398	-76.247	-0.200	0.070
-412.384	-200.000	0.029	-0.131
-411.369	228.243	0.067	-0.109
-410.355	219.407	0.146	-0.232
-409.340	-117.995	-0.198	-0.035
-408.325	-27.186	-0.248	0.144
-407.311	-18.164	-0.186	0.116
-406.296	-74.895	0.229	-0.082
-405.282	-120.161	-0.284	-0.048
-404.267	21.322	0.294	-0.238
-403.252	72.463	0.324	-0.337
-402.238	-170.210	0.300	-0.011
-401.223	114.363	0.107	-0.130
-400.209	-57.970	-0.147	-0.064
-399.194	714.391	0.055	0.145
-398.179	-53.376	0.396	0.181
-397.165	74.769	-0.176	-0.184
-396.150	2.934	0.030	-0.022
-395.136	410.476	0.175	-0.370
-394.121	139.611	-0.176	0.231
-393.106	-33.747	-0.094	-0.052
-392.092	-105.254	-0.239	0.054
-391.077	-171.614	-0.413	-0.014
-390.063	-176.142	-0.175	0.005
-389.048	-26.829	-0.047	-0.027
-388.033	-88.032	-0.080	0.024
-387.019	-126.847	0.165	-0.024
-386.004	-8.283	0.269	-0.180
-384.990	-200.000	0.000	0.020
-383.975	-200.000	-0.018	-0.314
-382.960	-77.230	-0.137	-0.048
-381.946	-200.000	0.001	-0.393
-380.931	-200.000	0.023	-0.123
-379.917	229.365	0.144	0.234
-378.902	-76.837	0.390	-0.136
-377.888	-200.000	-0.023	-0.121
-376.873	-132.573	-0.229	0.029
-375.858	-162.682	0.142	0.007
-374.844	-80.570	0.101	0.033
-373.829	4.624	0.127	-0.093
-372.815	800.000	-0.044	0.192
-371.800	-92.374	0.109	-0.031
-370.785	548.207	-0.242	0.578
-369.771	321.200	-0.173	0.328
-368.756	-17.548	0.126	-0.079
-367.742	800.000	0.100	0.339
-366.727	187.182	0.184	0.273
-365.712	190.134	-0.110	-0.164
-364.698	19.968	0.141	-0.113
-363.683	-200.000	0.025	0.149
-362.669	-200.000	0.001	-0.095
-361.654	227.610	-0.049	-0.080
-360.639	800.000	0.026	0.090
-359.625	-37.908	0.314	-0.166
-358.610	-200.000	-0.001	0.171
-357.596	-35.321	-0.041	0.022
-356.581	-131.436	0.379	-0.050
-355.566	608.033	-0.141	-0.350
-354.552	-13.515	0.262	-0.169
-353.537	-2.202	0.300	0.209
-352.523	136.972	-0.089	-0.115
-351.508	-117.665	0.430	-0.077
-350.493	61.274	-0.132	0.130
-349.479	224.869	0.148	0.238
-348.464	-152.322	0.144	0.010
-347.450	800.000	-0.047	0.129
-346.435	380.427	-0.031	0.063
-345.420	91.389	0.213	0.238
-344.406	115.425	0.154	0.188
-343.391	-153.312	-0.216	0.015
-342.377	-200.000	-0.004	0.064
-341.362	-65.487	-0.184	0.073
-340.348	-26.864	0.250	0.145
-339.333	-200.000	0.031	0.196
-338.318	-15.486	0.363	0.231
-337.304	-200.000	0.007	-0.416
-336.289	11.562	-0.097	-0.074
-335.275	36.497	0.186	-0.163
-334.260	1.779	0.213	-0.152
-333.245	-200.000	0.006	0.096
-332.231	132.707	0.117	0.150
-331.216	244.640	-0.218	0.364
-330.202	-115.173	0.320	-0.060
-329.187	-131.800	0.388	-0.051
-328.172	76.357	0.112	-0.118
-327.158	-200.000	0.047	0.375
-326.143	-30.461	-0.181	0.102
-325.129	-65.673	-0.293	-0.117
-324.114	-200.000	0.004	-0.084
-323.099	-35.155	-0.049	0.026
-322.085	47.304	0.114	-0.105
-321.070	54.716	0.163	0.156
-320.056	-154.524	0.202	0.013
-319.041	-75.218	-0.105	-0.037
-318.026	118.268	0.080	-0.099
-317.012	800.000	-0.064	0.221
-315.997	-98.634	-0.140	0.035
-314.983	-119.852	0.270	-0.046
-313.968	-131.285	0.035	0.005
-312.953	323.318	-0.119	-0.225
-311.939	98.232	-0.139	0.159
-310.924	40.064	-0.124	0.111
-309.910	-6.799	-0.398	0.269
-308.895	59.466	0.109	0.107
-307.880	-68.549	0.166	0.064
-306.866	29.969	0.155	0.132
-305.851	-52.141	0.280	-0.129
-304.837	-88.583	0.259	0.077
-303.822	-94.693	-0.296	-0.080
-302.807	-8.917	0.107	0.071
-301.793	800.000	0.082	0.342
-300.778	14.894	-0.028	0.022
-299.764	107.518	-0.105	0.124
-298.749	329.283	0.142	0.270
-297.735	-140.696	-0.173	-0.018
-296.720	-57.602	-0.480	-0.209
-295.705	284.262	0.026	0.047
-294.691	148.035	0.148	-0.198
-293.676	245.767	-0.177	-0.295
-292.662	30.322	0.072	-0.061
-291.647	251.025	-0.227	0.383
-290.632	313.252	0.076	0.142
-289.618	-71.276	-0.280	-0.104
-288.603	14.429	-0.091	0.071
-287.589	800.000	-0.085	-0.240
-286.574	36.430	-0.076	0.067
-285.559	-61.400	-0.150	-0.062
-284.545	358.128	-0.225	-0.445
-283.530	-200.000	-0.057	-0.277
-282.516	780.804	0.073	0.198
-281.501	502.852	0.200	0.460
-280.486	12.686	-0.187	-0.143
-279.472	800.000	0.051	-0.141
-278.457	-86.895	-0.214	0.065
-277.443	-81.025	-0.166	0.054
-276.428	-125.324	-0.087	0.013
-275.413	-200.000	0.002	0.204
-274.399	-77.373	0.311	-0.107
-273.384	-200.000	0.004	0.096
-272.370	-200.000	-0.006	-0.190
-271.355	171.290	-0.134	0.190
-270.340	-200.000	-0.027	0.448
-269.326	358.574	0.154	0.305
-268.311	326.555	0.108	0.204
-267.297	-200.000	0.017	-0.356
-266.282	90.386	-0.157	0.174
-265.267	50.089	0.072	0.067
-264.253	715.886	-0.017	-0.046
-263.238	800.000	0.057	-0.166
-262.224	26.162	-0.103	-0.085
-261.209	-111.362	0.230	-0.046
-260.195	-16.880	0.197	0.124
-259.180	800.000	-0.172	0.509
-258.165	800.000	-0.096	0.400
-257.151	-16.223	0.126	-0.079
-256.136	124.943	0.116	-0.145
-255.122	205.578	0.175	0.270
-254.107	139.826	-0.030	0.039
-253.092	-92.872	-0.089	-0.025
-252.078	800.000	0.139	-0.409
-251.063	65.710	0.112	-0.113
-250.049	-109.068	0.184	0.039
-249.034	-200.000	0.068	-0.348
-248.019	100.662	0.078	0.090
-247.005	-200.000	-0.004	-0.062
-245.990	267.884	0.008	0.014
-244.976	-200.000	-0.044	0.219
-243.961	145.133	0.311	-0.413
-242.946	-200.000	-0.019	-0.413
-241.932	-186.820	0.192	0.003
-240.917	192.520	0.021	-0.032
-239.903	98.085	0.147	-0.168
-238.888	-200.000	0.020	0.161
-237.873	36.739	0.024	0.021
-236.859	66.732	0.129	0.130
-235.844	-62.111	-0.252	-0.104
-234.830	-200.000	0.013	-0.211
-233.815	800.000	0.136	-0.391
-232.800	-11.583	-0.111	-0.072
-231.786	-200.000	0.002	0.247
-230.771	-143.942	0.158	0.015
-229.757	-14.264	0.161	0.103
-228.742	-200.000	-0.032	0.213
-227.727	-159.860	-0.169	0.009
-226.713	-200.000	0.007	-0.119
-225.698	-85.875	0.216	0.066
-224.684	493.369	0.062	0.140
-223.669	54.041	-0.076	-0.072
-222.655	203.262	-0.086	-0.132
-221.640	-43.613	0.272	0.136
-220.625	166.996	0.202	-0.284
-219.611	493.446	-0.158	0.360
-218.596	-200.000	0.048	-0.351
-217.582	93.281	0.203	-0.228
-216.567	39.825	0.082	-0.073
-215.552	800.000	-0.071	0.226
-214.538	-147.101	-0.334	0.028
-213.523	100.619	0.127	0.146
-212.509	800.000	0.076	-0.254
-211.494	-200.000	0.002	0.198
-210.479	27.732	-0.130	0.108
-209.465	-200.000	-0.047	0.265
-208.450	-200.000	0.293	0.000
-207.436	800.000	0.025	0.091
-206.421	47.810	-0.179	-0.165
-205.406	587.928	-0.100	0.243
-204.392	93.981	-0.122	0.137
-203.377	800.000	-0.111	-0.416
-202.363	-82.793	0.148	-0.047
-201.348	33.754	-0.093	-0.080
-200.333	-28.345	0.124	0.071
-199.319	-200.000	0.014	0.141
-198.304	800.000	0.085	-0.283
-197.290	-42.077	-0.141	-0.071
-196.275	73.061	-0.265	0.274
-195.260	67.496	0.195	0.197
-194.246	200.913	0.104	-0.158
-193.231	22.036	-0.100	0.080
-192.217	-150.685	0.375	0.028
-191.202	251.597	-0.156	0.262
-190.187	335.905	-0.137	-0.262
-189.173	293.564	0.137	0.248
-188.158	-127.548	0.176	-0.025
-187.144	-200.000	-0.001	0.123
-186.129	88.430	-0.182	0.199
-185.114	13.204	0.277	0.212
-184.100	63.456	0.052	-0.051
-183.085	13.846	-0.106	0.082
-182.071	-200.000	0.016	-0.184
-181.056	-200.000	-0.004	-0.165
-180.042	-112.528	0.101	-0.020
-179.027	76.032	-0.223	-0.233
-178.012	800.000	0.048	-0.175
-176.998	373.366	-0.021	0.042
-175.983	-11.303	-0.341	-0.222
-174.969	57.276	0.084	-0.081
-173.954	-200.000	-0.009	0.151
-172.939	299.349	-0.023	-0.041
-171.925	-169.103	-0.228	0.008
-170.910	-44.264	-0.110	0.054
-169.896	800.000	-0.084	0.238
-168.881	-200.000	0.015	-0.077
-167.866	800.000	0.041	-0.139
-166.852	800.000	-0.065	-0.262
-165.837	-158.508	0.384	-0.022
-164.823	297.854	0.146	-0.264
-163.808	-71.467	-0.142	0.052
-162.793	-113.412	0.229	-0.044
-161.779	-117.786	-0.291	-0.052
-160.764	-162.287	0.028	-0.001
-159.750	-168.690	0.196	0.007
-158.735	-97.314	0.328	0.084
-157.720	765.921	-0.028	-0.074
-156.706	-70.511	0.137	-0.051
-155.691	-200.000	-0.007	-0.102
-154.677	201.578	-0.097	0.147
-153.662	518.760	-0.011	-0.026
-152.647	-161.823	-0.088	0.004
-151.633	-115.624	-0.090	0.017
-150.618	-200.000	0.007	0.034
-149.604	31.374	-0.353	-0.300
-148.589	-23.469	0.051	0.030
-147.574	800.000	0.032	-0.130
-146.560	-2.472	-0.233	-0.161
-145.545	-14.915	0.093	-0.059
-144.531	-44.930	-0.027	0.013
-143.516	-44.097	-0.094	0.047
-142.502	-200.000	0.005	0.346
-141.487	6.957	0.053	0.039
-140.472	-87.347	-0.221	0.066
-139.458	800.000	-0.141	-0.607
-138.443	-74.663	-0.101	0.036
-137.429	800.000	0.043	0.122
-136.414	41.868	0.113	-0.101
-135.399	344.840	-0.008	-0.016
-134.385	-134.861	0.613	-0.073
-133.370	-200.000	-0.011	-0.073
-132.356	566.960	0.024	-0.057
-131.341	-200.000	-0.024	0.177
-130.326	-31.977	0.325	0.179
-129.312	100.583	0.123	-0.141
-128.297	-108.284	0.512	-0.109
-127.283	-136.487	-0.099	0.011
-126.268	54.998	0.364	0.347
-125.253	221.768	-0.126	-0.199
-124.239	361.990	0.018	0.036
-123.224	16.170	-0.114	0.088
-122.210	-135.291	-0.140	-0.017
