DTS Sentinel unit serial number:	SN413079Multiplexer serial number:	ORYXHardware model number:	OX4-SRSoftware version number:	ORYX F/W v4.00 Oryx Data Collector v3.7.2.0data status	okinstallation	princeton_trtdifferential loss correction	single-endedforward channel	channel 1reverse channel	N/Adate	2019/09/14time	17:42:35forward acquisition time	60.00reverse acquisition time	0.00gamma	496.2192k internal	0.2297k external	0.2297temperature offset calibration	1.0050default loss term (dB/km)	0.3790temperature slope calibration	1.0000multiplexer offset coefficient	1.0000multiplexer slope coefficient	1.0000fibre end	0.00T internal ref (°C)	37.52T ext. ref 1 (°C)	5.03T ext. ref 2 (°C)	32.82length (m)	temperature (°C)	Stokes	anti-Stokes-747.200	224.027	0.034	-0.056
-746.185	-199.557	-0.204	0.001
-745.171	800.000	0.057	0.165
-744.156	-200.000	-0.016	0.209
-743.142	-41.973	0.278	-0.145
-742.127	-200.000	0.005	-0.334
-741.112	-200.000	-0.002	-0.037
-740.098	-200.000	-0.008	-0.060
-739.083	721.503	-0.116	0.316
-738.069	246.507	-0.102	0.176
-737.054	459.487	0.059	-0.134
-736.039	165.482	-0.101	-0.146
-735.025	13.439	0.136	0.108
-734.010	96.304	0.129	-0.151
-732.996	-18.883	0.137	-0.087
-731.981	-48.721	-0.301	-0.148
-730.966	-122.325	-0.292	-0.049
-729.952	13.660	-0.006	0.004
-728.937	-98.752	-0.255	-0.066
-727.923	-108.967	-0.110	-0.024
-726.908	53.452	-0.056	-0.055
-725.894	685.208	-0.104	-0.278
-724.879	-159.041	0.201	-0.012
-723.864	-99.632	-0.349	0.089
-722.850	-52.107	-0.175	-0.083
-721.835	-100.161	0.153	-0.039
-720.821	-23.994	-0.268	-0.163
-719.806	359.986	0.156	-0.319
-718.791	227.296	0.077	0.128
-717.777	157.873	-0.134	0.189
-716.762	800.000	-0.038	-0.154
-715.748	-40.708	-0.319	-0.169
-714.733	-200.000	0.009	-0.105
-713.718	265.003	-0.067	0.119
-712.704	97.941	0.178	0.209
-711.689	-17.207	-0.126	-0.081
-710.675	-135.262	-0.063	0.008
-709.660	-21.032	-0.245	-0.153
-708.645	-13.300	-0.233	0.154
-707.631	34.826	0.145	-0.129
-706.616	800.000	0.055	0.220
-705.602	129.963	0.088	0.115
-704.587	-200.000	-0.014	-0.293
-703.572	400.003	-0.141	0.301
-702.558	800.000	0.061	0.199
-701.543	-200.000	0.007	-0.345
-700.529	-109.876	-0.636	-0.136
-699.514	-30.482	-0.183	-0.106
-698.499	-6.667	0.143	0.099
-697.485	32.633	-0.093	0.082
-696.470	-200.000	0.024	-0.159
-695.456	-153.292	0.211	0.015
-694.441	-174.223	-0.111	-0.003
-693.426	10.584	-0.236	0.183
-692.412	77.534	0.219	-0.238
-691.397	-65.253	-0.145	-0.060
-690.383	25.687	-0.063	0.054
-689.368	-106.621	0.103	-0.023
-688.354	-57.636	-0.179	-0.080
-687.339	-50.988	0.067	-0.032
-686.324	221.793	0.059	0.096
-685.310	-200.000	-0.020	0.091
-684.295	-38.062	0.226	-0.122
-683.281	59.832	-0.126	0.127
-682.266	-200.000	-0.011	0.049
-681.251	171.634	0.132	-0.194
-680.237	-60.550	-0.209	0.090
-679.222	419.279	0.139	-0.302
-678.208	316.166	-0.219	-0.421
-677.193	267.551	-0.236	-0.420
-676.178	-52.479	-0.078	0.037
-675.164	662.845	0.168	-0.441
-674.149	-200.000	0.009	-0.226
-673.135	-200.000	0.030	0.285
-672.120	-146.290	-0.082	-0.007
-671.105	323.908	0.116	-0.225
-670.091	-161.956	0.242	0.012
-669.076	119.348	-0.198	-0.249
-668.062	-200.000	-0.049	-0.362
-667.047	103.838	-0.248	-0.297
-666.032	-85.755	0.180	-0.057
-665.018	66.385	0.231	-0.239
-664.003	-33.338	-0.166	0.093
-662.989	-77.066	0.169	-0.060
-661.974	167.245	0.198	0.286
-660.959	-29.643	0.043	-0.025
-659.945	-200.000	-0.013	-0.076
-658.930	-135.625	0.297	-0.036
-657.916	500.630	0.053	-0.126
-656.901	77.711	0.251	0.272
-655.886	-42.746	-0.150	0.078
-654.872	-132.528	-0.313	-0.041
-653.857	800.000	0.049	-0.146
-652.843	-200.000	0.073	-0.336
-651.828	800.000	-0.026	-0.095
-650.814	-38.644	0.168	-0.090
-649.799	-135.728	-0.311	-0.037
-648.784	8.538	-0.174	-0.133
-647.770	197.587	-0.134	-0.207
-646.755	367.783	0.177	-0.363
-645.741	65.895	0.077	-0.079
-644.726	-5.498	0.099	0.069
-643.711	305.542	-0.063	0.120
-642.697	-54.889	-0.115	-0.053
-641.682	-105.968	0.166	0.038
-640.668	-132.772	0.035	0.004
-639.653	800.000	-0.062	-0.207
-638.638	800.000	-0.045	-0.162
-637.624	-130.026	-0.159	-0.022
-636.609	355.641	-0.094	-0.191
-635.595	-170.981	0.415	0.014
-634.580	-200.000	0.002	0.035
-633.565	84.064	-0.169	-0.187
-632.551	233.329	0.022	0.036
-631.536	-126.433	-0.184	-0.028
-630.522	-78.804	0.378	-0.131
-629.507	57.206	0.106	-0.105
-628.492	358.638	-0.088	-0.178
-627.478	-200.000	-0.183	-0.001
-626.463	-200.000	0.011	0.341
-625.449	29.271	0.099	-0.085
-624.434	-76.810	0.307	0.109
-623.419	-147.636	-0.036	0.003
-622.405	-200.000	-0.025	-0.120
-621.390	239.685	0.195	0.330
-620.376	-200.000	-0.003	0.061
-619.361	-112.656	-0.237	0.048
-618.346	800.000	-0.039	-0.127
-617.332	-114.325	0.356	0.070
-616.317	-75.071	-0.349	0.127
-615.303	-24.673	0.163	-0.099
-614.288	-124.683	0.293	0.046
-613.273	-102.736	0.053	0.013
-612.259	-55.534	-0.187	-0.085
-611.244	125.565	-0.225	-0.289
-610.230	-83.936	0.153	0.049
-609.215	-200.000	-0.047	0.360
-608.201	-129.593	-0.115	0.016
-607.186	-9.263	0.128	-0.087
-606.171	235.768	0.174	-0.293
-605.157	-50.260	-0.182	-0.087
-604.142	93.582	0.190	-0.218
-603.128	14.767	-0.223	0.177
-602.113	-64.583	0.441	0.182
-601.098	-53.769	-0.221	0.102
-600.084	23.848	0.248	0.207
-599.069	-200.000	0.051	-0.563
-598.055	-9.474	0.164	-0.111
-597.040	-71.610	-0.339	0.129
-596.025	153.000	0.229	-0.318
-595.011	-3.185	-0.094	0.066
-593.996	135.363	-0.165	0.219
-592.982	228.899	0.099	-0.163
-591.967	70.379	0.141	-0.148
-590.952	42.214	-0.140	-0.129
-589.938	-174.685	-0.321	0.009
-588.923	-200.000	-0.002	0.478
-587.909	-88.241	0.179	-0.054
-586.894	32.469	0.288	-0.253
-585.879	-94.425	0.315	-0.087
-584.865	105.889	0.155	0.186
-583.850	-114.006	-0.381	-0.075
-582.836	-10.045	-0.126	-0.085
-581.821	800.000	-0.055	0.205
-580.806	-200.000	0.007	0.061
-579.792	198.899	0.051	0.079
-578.777	-178.348	0.277	-0.007
-577.763	266.011	-0.064	-0.113
-576.748	800.000	0.099	-0.387
-575.733	-22.243	0.189	-0.116
-574.719	256.218	0.127	-0.221
-573.704	33.942	-0.106	0.093
-572.690	-10.868	-0.017	0.011
-571.675	427.505	-0.009	-0.020
-570.661	32.104	0.135	0.118
-569.646	61.698	-0.129	-0.130
-568.631	-32.408	-0.060	-0.034
-567.617	182.838	-0.122	0.183
-566.602	657.594	-0.038	0.098
-565.588	681.555	-0.002	-0.006
-564.573	129.660	0.090	-0.116
-563.558	759.236	0.058	-0.160
-562.544	800.000	0.025	0.079
-561.529	-117.803	0.319	0.058
-560.515	684.993	0.183	-0.485
-559.500	453.336	-0.066	0.149
-558.485	-63.501	0.159	0.066
-557.471	-27.502	0.217	-0.128
-556.456	-54.795	0.308	0.141
-555.442	-180.773	-0.207	-0.004
-554.427	-169.950	-0.335	0.012
-553.412	-24.431	-0.157	0.095
-552.398	-57.031	-0.034	-0.015
-551.383	-140.877	0.282	0.029
-550.369	255.760	-0.062	-0.108
-549.354	-131.688	-0.207	0.028
-548.339	-164.743	-0.191	0.009
-547.325	-58.956	-0.169	0.074
-546.310	-75.082	-0.148	-0.053
-545.296	28.428	-0.101	-0.087
-544.281	712.913	0.066	-0.177
-543.266	22.873	-0.142	-0.118
-542.252	-32.730	0.006	-0.004
-541.237	353.756	-0.161	0.323
-540.223	800.000	0.041	0.119
-539.208	-21.457	0.158	0.098
-538.193	2.726	0.185	0.136
-537.179	-193.364	-0.324	0.003
-536.164	-137.046	0.012	-0.001
-535.150	-145.090	-0.460	0.042
-534.135	-61.938	-0.359	-0.152
-533.121	-30.286	-0.233	-0.134
-532.106	800.000	0.017	-0.072
-531.091	-79.980	-0.147	-0.050
-530.077	66.220	0.221	-0.227
-529.062	-200.000	-0.073	-0.350
-528.048	22.692	-0.142	-0.118
-527.033	800.000	-0.038	-0.122
-526.018	-200.000	-0.054	0.387
-525.004	-81.277	-0.307	-0.103
-523.989	53.132	-0.191	-0.185
-522.975	-42.169	-0.089	-0.046
-521.960	-90.125	-0.329	-0.097
-520.945	-200.000	-0.019	0.155
-519.931	800.000	-0.019	-0.055
-518.916	-187.766	0.137	0.002
-517.902	11.757	0.181	-0.141
-516.887	-116.660	0.142	-0.026
-515.872	32.615	-0.119	-0.104
-514.858	-97.360	-0.035	-0.009
-513.843	83.201	0.060	0.066
-512.829	-20.437	-0.155	-0.096
-511.814	800.000	0.020	0.061
-510.799	-51.126	0.202	0.096
-509.785	52.690	0.239	0.231
-508.770	355.207	0.137	-0.276
-507.756	-7.417	-0.102	0.070
-506.741	-17.596	-0.197	0.125
-505.726	644.910	0.038	0.097
-504.712	511.228	0.066	0.155
-503.697	-65.235	0.160	-0.065
-502.683	89.911	0.157	0.177
-501.668	800.000	-0.032	0.092
-500.653	222.365	-0.036	-0.058
-499.639	-49.400	0.349	0.168
-498.624	-89.563	-0.269	0.080
-497.610	-153.930	0.051	0.004
-496.595	-98.606	0.195	-0.050
-495.581	594.392	-0.142	0.356
-494.566	-147.870	-0.092	0.008
-493.551	-200.000	-0.004	-0.043
-492.537	-67.730	0.380	-0.150
-491.522	214.845	-0.011	-0.018
-490.508	605.487	-0.041	-0.104
-489.493	-45.949	-0.190	-0.095
-488.478	-90.052	0.125	-0.037
-487.464	247.345	0.064	-0.110
-486.449	-154.493	-0.372	0.025
-485.435	25.575	-0.246	0.207
-484.420	33.914	0.200	-0.176
-483.405	-200.000	0.035	0.179
-482.391	-119.796	-0.513	0.089
-481.376	-99.941	-0.293	0.074
-480.362	11.660	-0.046	0.035
-479.347	-149.361	0.236	0.019
-478.332	0.211	0.031	-0.023
-477.318	-200.000	-0.022	-0.408
-476.303	74.810	-0.187	-0.199
-475.289	-55.762	-0.070	0.032
-474.274	178.296	-0.099	-0.146
-473.259	476.931	-0.036	0.082
-472.245	47.340	-0.139	0.131
-471.230	-57.106	0.179	0.080
-470.216	21.377	-0.072	0.059
-469.201	115.861	-0.113	0.140
-468.186	-200.000	0.008	0.199
-467.172	247.276	-0.108	-0.185
-466.157	-138.993	0.240	-0.026
-465.143	34.398	-0.201	0.178
-464.128	-200.000	0.003	-0.042
-463.113	6.376	0.091	-0.068
-462.099	-46.406	-0.129	-0.064
-461.084	87.896	-0.172	-0.193
-460.070	-200.000	-0.007	0.054
-459.055	-82.340	0.169	-0.055
-458.040	-148.230	-0.312	0.026
-457.026	-174.980	0.427	-0.012
-456.011	-101.436	-0.167	0.041
-454.997	-200.000	-0.012	-0.198
-453.982	-91.013	0.173	-0.050
-452.968	-27.160	0.358	-0.211
-451.953	-200.000	0.026	-0.207
-450.938	800.000	0.056	0.201
-449.924	359.948	-0.047	-0.094
-448.909	284.049	-0.088	0.160
-447.895	364.326	-0.107	-0.217
-446.880	-76.979	-0.315	0.111
-445.865	57.569	0.112	-0.110
-444.851	-65.098	-0.082	-0.034
-443.836	-200.000	0.037	0.427
-442.822	-186.320	-0.287	-0.004
-441.807	-154.051	0.161	0.011
-440.792	49.626	0.062	-0.059
-439.778	130.113	0.169	-0.218
-438.763	-2.173	0.110	0.078
-437.749	-94.466	-0.238	0.065
-436.734	800.000	-0.075	-0.222
-435.719	-39.353	0.249	0.132
-434.705	-164.867	0.145	-0.007
-433.690	-56.117	-0.083	0.037
-432.676	-71.952	0.304	0.114
-431.661	-200.000	-0.007	-0.231
-430.646	-74.355	0.257	0.094
-429.632	20.627	-0.166	0.135
-428.617	-141.049	-0.338	-0.035
-427.603	711.248	-0.070	-0.187
-426.588	-164.627	0.357	0.016
-425.573	3.098	0.195	0.143
-424.559	5.430	-0.133	-0.099
-423.544	-38.589	-0.369	0.197
-422.530	39.108	-0.104	0.093
-421.515	-134.523	-0.194	-0.024
-420.500	87.375	-0.184	0.206
-419.486	-48.953	0.195	-0.094
-418.471	-137.926	0.180	-0.020
-417.457	-46.115	0.208	-0.103
-416.442	800.000	-0.079	0.236
-415.428	244.530	0.095	0.161
-414.413	47.474	-0.322	0.303
-413.398	-70.002	0.350	0.135
-412.384	-104.234	0.148	0.035
-411.369	-84.541	-0.088	-0.028
-410.355	-26.791	0.108	-0.064
-409.340	670.067	0.112	-0.291
-408.325	-110.901	-0.302	-0.063
-407.311	493.565	0.075	0.173
-406.296	181.724	0.123	-0.182
-405.282	542.743	-0.069	0.166
-404.267	169.278	-0.175	0.252
-403.252	-200.000	0.018	0.097
-402.238	140.832	-0.144	-0.191
-401.223	-23.319	-0.082	-0.049
-400.209	8.159	0.235	-0.178
-399.194	-106.714	-0.183	0.041
-398.179	0.446	0.390	0.281
-397.165	-200.000	-0.064	0.325
-396.150	-200.000	0.039	0.350
-395.136	-65.672	-0.201	0.081
-394.121	-200.000	-0.015	-0.190
-393.106	-25.514	-0.432	-0.257
-392.092	-112.218	-0.375	-0.076
-391.077	-10.324	0.139	0.093
-390.063	170.297	-0.059	-0.085
-389.048	-170.068	-0.264	-0.009
-388.033	800.000	-0.058	0.172
-387.019	800.000	-0.112	0.315
-386.004	800.000	-0.048	0.156
-384.990	196.982	-0.349	0.536
-383.975	-200.000	0.006	0.198
-382.960	-112.548	-0.184	0.037
-381.946	620.086	-0.109	-0.275
-380.931	-200.000	-0.031	0.234
-379.917	-140.646	0.273	0.028
-378.902	-31.608	-0.144	-0.082
-377.888	225.755	0.137	-0.223
-376.873	68.411	0.065	-0.067
-375.858	297.725	-0.041	-0.075
-374.844	-115.298	-0.190	-0.036
-373.829	-200.000	-0.021	-0.185
-372.815	-200.000	-0.019	-0.228
-371.800	-53.337	0.245	0.113
-370.785	-200.000	0.005	0.148
-369.771	680.727	-0.068	0.178
-368.756	-77.766	-0.364	-0.126
-367.742	240.835	-0.091	-0.153
-366.727	656.679	-0.101	-0.262
-365.712	504.598	-0.134	0.311
-364.698	-176.728	0.450	-0.012
-363.683	74.207	-0.078	-0.083
-362.669	-200.000	-0.062	0.440
-361.654	-21.211	-0.086	0.053
-360.639	405.801	0.189	0.402
-359.625	-109.210	0.184	-0.039
-358.610	-15.407	0.182	-0.117
-357.596	453.469	0.032	0.070
-356.581	101.864	0.020	-0.023
-355.566	147.471	-0.290	0.393
-354.552	800.000	0.005	-0.016
-353.537	-131.204	0.198	-0.026
-352.523	-126.700	0.164	0.024
-351.508	65.536	0.230	-0.235
-350.493	249.464	-0.018	-0.031
-349.479	-200.000	-0.011	-0.150
-348.464	-24.439	0.126	0.076
-347.450	10.677	-0.212	-0.162
-346.435	800.000	0.074	0.251
-345.420	800.000	0.101	0.357
-344.406	194.499	-0.030	0.046
-343.391	235.422	-0.013	-0.021
-342.377	31.957	0.185	0.160
-341.362	-120.221	0.130	0.022
-340.348	44.991	-0.098	0.091
-339.333	-178.293	0.251	0.006
-338.318	549.517	-0.092	0.223
-337.304	-69.756	0.104	-0.040
-336.289	-154.503	0.163	-0.011
-335.275	203.006	-0.228	0.355
-334.260	55.619	-0.081	-0.079
-333.245	-113.302	0.114	0.023
-332.231	490.851	0.162	-0.372
-331.216	367.772	-0.131	-0.266
-330.202	-50.450	-0.288	0.137
-329.187	-145.860	0.118	0.011
-328.172	-200.000	0.029	-0.327
-327.158	149.179	-0.102	-0.139
-326.143	141.453	0.066	-0.088
-325.129	-200.000	0.005	-0.082
-324.114	800.000	0.097	0.269
-323.099	-37.543	-0.062	-0.033
-322.085	411.742	0.080	-0.172
-321.070	31.022	-0.118	0.102
-320.056	800.000	0.148	-0.425
-319.041	750.867	-0.132	-0.359
-318.026	5.651	0.192	-0.143
-317.012	221.529	0.238	0.385
-315.997	-200.000	-0.001	-0.195
-314.983	800.000	-0.078	-0.245
-313.968	800.000	0.110	0.349
-312.953	800.000	0.111	0.318
-311.939	-185.512	0.139	0.002
-310.924	-19.489	-0.116	0.072
-309.910	338.060	-0.084	0.163
-308.895	-200.000	0.047	-0.298
-307.880	375.144	-0.174	-0.356
-306.866	112.072	-0.043	0.052
-305.851	37.998	0.175	0.157
-304.837	-4.652	0.225	-0.156
-303.822	-200.000	-0.003	0.386
-302.807	254.605	-0.029	0.049
-301.793	312.764	-0.162	-0.306
-300.778	-111.555	0.226	0.046
-299.764	136.993	-0.113	-0.148
-298.749	252.133	0.083	-0.141
-297.735	-178.763	0.342	-0.008
-296.720	63.327	-0.086	0.087
-295.705	81.093	-0.207	-0.225
-294.691	458.584	0.110	0.246
-293.676	380.091	0.013	-0.027
-292.662	-10.653	-0.093	-0.062
-291.647	84.281	0.106	0.117
-290.632	31.124	0.137	-0.118
-289.618	140.786	-0.124	0.164
-288.603	800.000	-0.102	0.419
-287.589	-116.418	-0.063	0.012
-286.574	-116.058	0.208	-0.039
-285.559	-66.261	0.112	0.045
-284.545	32.386	0.384	0.333
-283.530	639.864	0.078	0.200
-282.516	21.141	-0.094	0.076
-281.501	-68.266	0.362	0.141
-280.486	800.000	0.088	0.275
-279.472	578.333	0.057	-0.141
-278.457	800.000	0.062	0.234
-277.443	333.243	0.083	0.161
-276.428	-200.000	0.049	0.294
-275.413	-105.933	-0.361	-0.081
-274.399	205.089	-0.117	-0.183
-273.384	-119.490	-0.438	-0.076
-272.370	-141.750	-0.059	0.006
-271.355	-86.951	-0.280	-0.086
-270.340	201.125	0.143	-0.220
-269.326	-16.275	0.192	0.122
-268.311	-78.313	-0.199	-0.068
-267.297	298.939	0.091	-0.168
-266.282	-142.739	-0.103	0.010
-265.267	-200.000	-0.013	0.074
-264.253	4.064	-0.220	0.161
-263.238	-200.000	0.014	-0.153
-262.224	-58.288	0.447	0.195
-261.209	800.000	0.165	0.487
-260.195	400.826	0.165	0.346
-259.180	-200.000	-0.001	-0.171
-258.165	350.315	-0.136	-0.269
-257.151	-17.758	0.256	-0.161
-256.136	-70.399	0.212	-0.081
-255.122	254.292	0.142	0.243
-254.107	25.024	0.215	0.178
-253.092	800.000	0.082	-0.291
-252.078	-109.777	-0.226	0.048
-251.063	-162.730	-0.134	0.007
-250.049	397.349	-0.021	0.045
-249.034	-8.032	0.100	-0.067
-248.019	-119.780	-0.146	-0.025
-247.005	-200.000	-0.007	0.060
-245.990	-200.000	0.017	-0.168
-244.976	800.000	-0.006	-0.021
-243.961	-5.648	0.183	-0.126
-242.946	115.270	0.199	0.244
-241.932	97.348	0.078	-0.089
-240.917	224.939	0.039	-0.064
-239.903	-130.053	0.296	-0.041
-238.888	-43.052	-0.175	-0.089
-237.873	-79.932	0.206	0.069
-236.859	268.232	-0.149	0.262
-235.844	-94.481	0.387	0.106
-234.830	-7.577	0.087	-0.059
-233.815	800.000	0.061	-0.263
-232.800	-2.980	0.270	-0.189
-231.786	82.080	-0.186	0.202
-230.771	38.654	0.046	-0.041
-229.757	362.738	0.064	0.128
-228.742	-65.640	0.131	-0.053
-227.727	-47.275	0.184	0.090
-226.713	589.491	0.092	0.227
-225.698	800.000	0.082	-0.329
-224.684	-121.320	-0.205	0.034
-223.669	-200.000	-0.042	0.282
-222.655	186.346	-0.138	-0.206
-221.640	1.208	-0.254	-0.182
-220.625	37.922	-0.109	0.097
-219.611	84.639	0.041	-0.045
-218.596	-200.000	-0.006	0.151
-217.582	-200.000	-0.009	0.084
-216.567	-200.000	0.005	-0.111
-215.552	-141.235	-0.251	-0.026
-214.538	124.742	0.097	-0.122
-213.523	210.708	-0.095	0.150
-212.509	154.543	0.165	0.226
-211.494	800.000	-0.075	-0.233
-210.479	107.572	0.322	0.384
-209.465	251.061	0.114	-0.194
-208.450	88.311	0.124	-0.137
-207.436	-200.000	-0.013	0.090
-206.421	-200.000	0.006	0.131
-205.406	-165.493	0.166	0.007
-204.392	-200.000	-0.022	-0.120
-203.377	-200.000	0.004	0.021
-202.363	-79.570	-0.101	0.034
-201.348	-114.285	0.331	0.064
-200.333	3.237	0.171	-0.125
-199.319	-148.517	-0.402	-0.033
-198.304	-147.942	-0.190	-0.016
-197.290	110.963	-0.177	-0.213
-196.275	-78.263	-0.104	-0.036
-195.260	16.311	-0.078	0.062
-194.246	577.967	-0.149	-0.364
-193.231	-7.462	-0.344	-0.232
-192.217	-69.594	0.253	0.097
-191.202	800.000	0.080	-0.352
-190.187	111.633	0.177	-0.214
-189.173	-200.000	-0.001	-0.115
-188.158	-113.231	-0.232	0.046
-187.144	119.550	-0.295	0.365
-186.129	-70.128	-0.428	0.163
-185.114	-29.923	0.275	-0.157
-184.100	-89.624	0.235	0.069
-183.085	-31.135	-0.105	-0.059
-182.071	800.000	-0.012	0.037
-181.056	-47.202	-0.042	0.021
-180.042	-200.000	0.031	0.328
-179.027	-200.000	0.009	-0.092
-178.012	12.892	0.171	0.132
-176.998	800.000	0.101	0.303
-175.983	-138.384	0.056	-0.006
-174.969	-16.660	0.081	-0.051
-173.954	13.322	0.298	0.231
-172.939	-7.590	-0.152	-0.103
-171.925	298.243	0.011	-0.020
-170.910	253.374	-0.118	0.201
-169.896	-89.127	0.152	-0.045
-168.881	250.314	0.038	0.065
-167.866	-190.045	0.316	-0.004
-166.852	113.809	-0.268	0.325
-165.837	258.510	-0.088	0.152
-164.823	25.185	-0.254	-0.210
-163.808	105.426	0.134	-0.158
-162.793	-142.271	-0.251	-0.025
-161.779	-60.553	-0.134	0.057
-160.764	-200.000	0.009	-0.244
-159.750	800.000	-0.016	-0.047
-158.735	-44.295	-0.565	-0.283
-157.720	158.661	0.186	-0.257
-156.706	-24.006	0.189	0.113
-155.691	68.641	0.077	0.079
-154.677	-106.840	0.135	-0.030
-153.662	-155.088	-0.047	-0.003
-152.647	800.000	0.055	-0.214
-151.633	35.445	-0.382	-0.335
-150.618	16.026	-0.118	-0.093
-149.604	-14.153	-0.070	0.045
-148.589	-200.000	0.021	0.575
-147.574	57.456	-0.333	0.325
-146.560	-20.729	-0.282	-0.173
-145.545	-200.000	0.001	-0.086
-144.531	670.746	-0.023	0.059
-143.516	-144.292	0.120	0.011
-142.502	42.232	0.212	0.192
-141.487	204.558	-0.040	-0.061
-140.472	405.005	0.111	-0.233
-139.458	-92.164	0.120	-0.034
-138.443	211.833	0.136	0.214
-137.429	-79.377	0.362	0.122
-136.414	242.092	0.052	0.087
-135.399	134.893	0.254	0.329
-134.385	-93.575	-0.147	-0.040
-133.370	-114.121	-0.111	-0.021
-132.356	54.015	-0.239	0.229
-131.341	-51.408	-0.140	-0.065
-130.326	144.307	0.075	0.100
-129.312	587.179	0.062	-0.153
-128.297	-101.731	0.108	0.026
-127.283	161.254	0.069	-0.097
-126.268	-35.132	0.275	0.150
-125.253	241.894	0.231	0.385
-124.239	67.184	-0.241	0.245
-123.224	-32.435	0.260	-0.144
-122.210	-170.541	-0.069	-0.002
