DTS Sentinel unit serial number:	SN413079Multiplexer serial number:	ORYXHardware model number:	OX4-SRSoftware version number:	ORYX F/W v4.00 Oryx Data Collector v3.7.2.0data status	okinstallation	princeton_trtdifferential loss correction	single-endedforward channel	channel 1reverse channel	N/Adate	2019/09/16time	12:10:36forward acquisition time	60.00reverse acquisition time	0.00gamma	496.2192k internal	0.2296k external	0.2296temperature offset calibration	0.9963default loss term (dB/km)	0.3790temperature slope calibration	1.0000multiplexer offset coefficient	1.0000multiplexer slope coefficient	1.0000fibre end	0.00T internal ref (°C)	38.95T ext. ref 1 (°C)	13.23T ext. ref 2 (°C)	36.31length (m)	temperature (°C)	Stokes	anti-Stokes-747.200	-74.026	0.417	0.154
-746.185	800.000	-0.080	0.248
-745.171	-144.606	0.104	-0.010
-744.156	88.381	0.221	0.251
-743.142	800.000	0.101	0.329
-742.127	-200.000	-0.043	0.592
-741.112	7.177	-0.161	0.123
-740.098	-117.795	0.070	-0.013
-739.083	715.021	0.089	-0.242
-738.069	133.833	0.130	0.172
-737.054	12.133	0.218	0.171
-736.039	-200.000	-0.039	-0.570
-735.025	-39.560	0.111	0.059
-734.010	321.335	0.184	-0.357
-732.996	-95.551	0.266	-0.073
-731.981	15.552	-0.236	-0.190
-730.966	223.107	-0.128	0.212
-729.952	69.546	-0.098	-0.103
-728.937	-200.000	0.016	0.184
-727.923	-95.102	0.067	0.018
-726.908	-123.694	-0.070	-0.011
-725.894	-76.002	-0.305	0.110
-724.879	-4.868	-0.252	0.177
-723.864	-40.482	0.280	-0.148
-722.850	189.204	-0.160	-0.244
-721.835	-200.000	-0.054	-0.280
-720.821	-34.868	-0.204	-0.114
-719.806	-200.000	0.048	-0.274
-718.791	-117.503	-0.133	0.025
-717.777	-17.009	-0.172	-0.111
-716.762	34.987	-0.210	-0.187
-715.748	-41.829	0.103	-0.054
-714.733	-121.854	-0.213	0.036
-713.718	-200.000	0.039	0.199
-712.704	36.200	0.101	0.091
-711.689	-107.255	-0.169	0.038
-710.675	-200.000	-0.107	-0.492
-709.660	550.233	-0.103	0.252
-708.645	25.034	-0.208	-0.176
-707.631	-200.000	0.051	0.373
-706.616	800.000	-0.055	-0.234
-705.602	28.641	-0.236	-0.204
-704.587	393.445	0.066	-0.141
-703.572	260.885	0.127	-0.225
-702.558	459.381	-0.115	-0.261
-701.543	-58.356	-0.091	-0.040
-700.529	-34.162	0.343	-0.192
-699.514	743.197	0.137	0.377
-698.499	-66.331	-0.083	0.034
-697.485	373.432	-0.069	-0.143
-696.470	-74.381	0.198	-0.073
-695.456	-200.000	-0.040	-0.212
-694.441	124.919	0.167	-0.214
-693.426	72.731	-0.088	-0.094
-692.412	-52.988	0.180	-0.085
-691.397	-190.988	0.062	0.001
-690.383	-105.699	-0.386	0.089
-689.368	-86.189	0.158	-0.050
-688.354	-27.199	-0.111	-0.066
-687.339	-11.199	-0.155	0.104
-686.324	63.180	-0.202	0.207
-685.310	431.724	-0.086	-0.189
-684.295	-81.171	-0.103	-0.035
-683.281	-91.581	0.199	0.058
-682.266	127.921	-0.209	0.271
-681.251	670.493	0.024	0.062
-680.237	611.251	-0.039	-0.099
-679.222	413.571	-0.183	0.396
-678.208	-200.000	0.062	0.449
-677.193	28.868	-0.144	0.124
-676.178	392.014	-0.057	-0.121
-675.164	690.284	-0.048	-0.129
-674.149	3.163	0.168	0.125
-673.135	223.555	0.079	-0.129
-672.120	800.000	0.038	-0.169
-671.105	-29.658	-0.088	0.051
-670.091	800.000	-0.073	-0.234
-669.076	328.709	0.141	-0.275
-668.062	-46.956	0.223	0.111
-667.047	278.865	-0.021	-0.037
-666.032	-200.000	0.004	0.209
-665.018	-87.606	0.354	0.109
-664.003	-200.000	-0.041	0.239
-662.989	800.000	0.051	-0.155
-661.974	315.828	0.083	-0.160
-660.959	-97.367	-0.238	0.063
-659.945	127.454	0.045	0.058
-658.930	-136.949	0.027	-0.003
-657.916	-106.071	-0.444	-0.102
-656.901	72.806	-0.172	-0.183
-655.886	800.000	-0.063	0.232
-654.872	-200.000	-0.047	-0.350
-653.857	84.208	0.131	-0.146
-652.843	142.833	0.187	0.254
-651.828	-133.840	-0.076	0.010
-650.814	-34.891	0.179	-0.100
-649.799	-81.816	-0.510	-0.170
-648.784	446.766	-0.113	0.254
-647.770	-73.208	-0.114	-0.043
-646.755	671.697	0.073	-0.192
-645.741	-38.490	-0.101	0.054
-644.726	432.084	-0.094	-0.207
-643.711	-98.621	0.082	0.021
-642.697	-78.395	0.133	0.046
-641.682	-2.031	-0.089	-0.063
-640.668	92.300	-0.092	0.105
-639.653	129.870	-0.144	-0.187
-638.638	-200.000	-0.007	-0.433
-637.624	-200.000	0.013	-0.070
-636.609	-200.000	0.031	-0.228
-635.595	-92.598	-0.136	0.039
-634.580	421.756	0.065	-0.143
-633.565	253.466	-0.112	-0.194
-632.551	119.162	-0.237	0.298
-631.536	-138.521	-0.083	0.009
-630.522	16.651	0.302	-0.243
-629.507	-157.953	0.107	-0.006
-628.492	-78.839	0.033	0.011
-627.478	17.716	0.134	0.108
-626.463	-98.034	-0.206	-0.054
-625.449	-119.534	-0.272	0.048
-624.434	114.724	-0.121	0.150
-623.419	78.651	0.079	0.085
-622.405	361.564	0.201	-0.409
-621.390	800.000	-0.051	-0.167
-620.376	18.668	0.101	0.082
-619.361	51.228	-0.215	0.207
-618.346	199.734	-0.080	-0.125
-617.332	-46.705	0.141	0.070
-616.317	-49.901	-0.045	0.022
-615.303	-27.417	0.282	0.167
-614.288	628.360	-0.099	-0.255
-613.273	-200.000	-0.022	-0.256
-612.259	800.000	-0.063	-0.215
-611.244	213.496	0.153	0.246
-610.230	800.000	-0.063	0.200
-609.215	88.258	-0.236	-0.266
-608.201	-93.153	-0.162	0.046
-607.186	-11.752	-0.084	-0.056
-606.171	-161.374	-0.083	0.004
-605.157	-200.000	0.009	-0.284
-604.142	-200.000	-0.010	-0.178
-603.128	-200.000	-0.020	-0.227
-602.113	-200.000	0.034	0.292
-601.098	-178.222	0.210	0.005
-600.084	-136.909	0.323	0.038
-599.069	-74.473	-0.112	-0.041
-598.055	-55.518	0.119	0.054
-597.040	-73.483	0.140	-0.052
-596.025	-94.775	0.133	-0.037
-595.011	255.410	-0.140	0.244
-593.996	-53.479	0.299	-0.139
-592.982	-200.000	-0.001	0.009
-591.967	-147.133	-0.417	-0.036
-590.952	-58.941	-0.198	0.087
-589.938	73.123	0.347	-0.368
-588.923	-30.039	-0.169	-0.097
-587.909	208.559	-0.140	-0.222
-586.894	-102.539	0.023	0.006
-585.879	279.712	-0.259	-0.469
-584.865	-200.000	-0.020	-0.227
-583.850	-105.845	0.467	-0.107
-582.836	280.363	-0.124	-0.225
-581.821	-197.779	-0.156	0.001
-580.806	113.527	-0.050	-0.062
-579.792	-136.129	-0.125	0.015
-578.777	757.789	-0.033	-0.091
-577.763	228.140	0.127	0.210
-576.748	267.294	0.171	-0.303
-575.733	101.250	-0.138	-0.163
-574.719	-96.518	-0.130	0.035
-573.704	24.778	-0.134	-0.113
-572.690	38.407	-0.153	0.139
-571.675	178.118	-0.179	-0.265
-570.661	30.506	-0.111	-0.097
-569.646	65.903	-0.154	-0.159
-568.631	-35.552	-0.057	0.031
-567.617	800.000	0.094	-0.275
-566.602	138.946	0.140	-0.187
-565.588	221.889	0.157	0.256
-564.573	-71.930	-0.174	-0.066
-563.558	800.000	0.043	-0.182
-562.544	800.000	-0.084	-0.304
-561.529	90.026	0.178	0.201
-560.515	-0.878	0.170	0.122
-559.500	-200.000	-0.016	-0.111
-558.485	-200.000	0.044	-0.341
-557.471	-200.000	-0.037	0.278
-556.456	-76.498	-0.038	0.014
-555.442	383.321	0.061	0.126
-554.427	-12.646	-0.158	0.104
-553.412	325.750	0.139	0.269
-552.398	-172.066	0.420	0.014
-551.383	78.257	0.142	-0.154
-550.369	66.263	0.201	0.206
-549.354	-132.282	0.184	0.024
-548.339	-200.000	0.011	0.182
-547.325	95.773	-0.203	-0.235
-546.310	213.407	-0.281	0.451
-545.296	190.733	-0.156	-0.237
-544.281	-200.000	0.060	-0.494
-543.266	-6.609	-0.131	-0.091
-542.252	129.426	0.167	-0.216
-541.237	254.942	-0.093	-0.161
-540.223	-57.569	0.254	0.113
-539.208	-200.000	0.010	0.072
-538.193	-200.000	-0.042	-0.369
-537.179	-86.752	0.131	-0.041
-536.164	162.922	-0.124	-0.177
-535.150	-6.703	0.139	-0.096
-534.135	-20.905	-0.052	-0.032
-533.121	800.000	-0.058	-0.235
-532.106	-22.225	0.578	0.355
-531.091	-200.000	0.016	-0.113
-530.077	800.000	0.091	-0.347
-529.062	26.653	-0.156	-0.133
-528.048	-200.000	0.016	0.666
-527.033	99.346	0.128	0.150
-526.018	181.710	0.232	-0.347
-525.004	-200.000	-0.010	-0.153
-523.989	-200.000	0.004	0.235
-522.975	-200.000	-0.049	-0.296
-521.960	-200.000	-0.041	-0.275
-520.945	-4.948	-0.102	-0.071
-519.931	-41.712	-0.093	-0.048
-518.916	-48.903	-0.089	-0.043
-517.902	429.951	-0.073	0.160
-516.887	-98.449	0.250	-0.065
-515.872	-200.000	0.060	0.346
-514.858	-200.000	0.043	0.201
-513.843	-200.000	0.073	-0.326
-512.829	-76.050	0.360	-0.129
-511.814	110.725	-0.212	-0.259
-510.799	287.855	-0.195	0.356
-509.785	66.137	0.055	0.057
-508.770	-6.526	-0.117	-0.081
-507.756	266.664	-0.167	0.296
-506.741	107.408	0.194	-0.233
-505.726	800.000	0.033	-0.117
-504.712	-200.000	-0.007	-0.189
-503.697	800.000	0.192	0.574
-502.683	800.000	-0.062	0.197
-501.668	441.583	-0.080	-0.178
-500.653	706.653	-0.052	-0.138
-499.639	-200.000	-0.025	0.324
-498.624	387.031	0.064	0.134
-497.610	45.492	-0.077	-0.072
-496.595	800.000	-0.097	-0.320
-495.581	42.958	-0.295	0.272
-494.566	-167.528	-0.340	0.014
-493.551	-200.000	-0.004	-0.298
-492.537	-19.729	0.089	0.056
-491.522	276.706	-0.088	0.159
-490.508	34.271	0.097	-0.086
-489.493	379.704	-0.086	-0.179
-488.478	-132.182	0.240	0.032
-487.464	2.634	-0.074	-0.054
-486.449	800.000	-0.115	0.349
-485.435	-200.000	0.006	-0.111
-484.420	800.000	-0.073	-0.272
-483.405	-116.177	0.211	0.040
-482.391	800.000	0.061	0.170
-481.376	209.026	0.096	-0.152
-480.362	-117.494	-0.205	-0.037
-479.347	-200.000	-0.013	0.092
-478.332	-200.000	0.047	-0.316
-477.318	-200.000	-0.040	0.216
-476.303	44.248	-0.185	0.172
-475.289	800.000	0.112	-0.335
-474.274	-65.524	0.274	-0.111
-473.259	800.000	0.076	-0.252
-472.245	-83.749	0.205	-0.066
-471.230	570.605	-0.172	0.423
-470.216	800.000	0.157	0.453
-469.201	28.446	-0.137	0.117
-468.186	-123.462	-0.044	-0.007
-467.172	-200.000	0.002	0.035
-466.157	-200.000	0.002	0.185
-465.143	219.365	0.114	0.184
-464.128	179.610	0.131	-0.194
-463.113	-65.355	0.203	0.083
-462.099	559.811	0.198	0.482
-461.084	85.282	0.286	-0.317
-460.070	-74.516	0.116	0.042
-459.055	-200.000	-0.110	0.508
-458.040	1.316	0.119	0.086
-457.026	72.869	0.195	0.205
-456.011	173.641	0.086	-0.125
-454.997	800.000	0.080	0.337
-453.982	334.433	-0.177	0.346
-452.968	-130.405	0.174	0.024
-451.953	-72.160	0.197	-0.074
-450.938	-72.623	-0.294	0.110
-449.924	108.822	0.157	0.189
-448.909	-121.395	0.095	-0.016
-447.895	-87.208	-0.011	-0.003
-446.880	-121.975	-0.221	-0.037
-445.865	-96.141	0.476	0.128
-444.851	-65.548	0.240	-0.097
-443.836	-43.488	-0.177	-0.090
-442.822	-6.549	0.174	-0.120
-441.807	-95.704	-0.313	-0.085
-440.792	87.535	0.142	-0.159
-439.778	436.817	-0.138	0.304
-438.763	795.083	-0.120	0.333
-437.749	-200.000	0.025	0.178
-436.734	-200.000	0.001	0.376
-435.719	4.541	0.038	-0.028
-434.705	-200.000	0.066	-0.324
-433.690	-34.654	0.132	-0.073
-432.676	281.525	-0.061	-0.110
-431.661	-200.000	-0.021	-0.226
-430.646	697.387	0.031	0.081
-429.632	-111.059	-0.361	0.075
-428.617	-200.000	0.012	0.116
-427.603	177.473	0.058	-0.086
-426.588	131.524	-0.288	0.373
-425.573	-200.000	0.011	0.253
-424.559	-72.458	-0.060	0.022
-423.544	-68.377	0.176	-0.069
-422.530	-13.059	0.134	0.088
-421.515	40.091	0.061	-0.055
-420.500	-72.728	-0.212	-0.079
-419.486	-72.545	-0.490	0.182
-418.471	199.401	-0.121	-0.187
-417.457	800.000	-0.151	-0.499
-416.442	129.307	-0.032	-0.041
-415.428	-126.278	0.167	0.025
-414.413	30.263	-0.172	-0.149
-413.398	145.313	-0.115	-0.155
-412.384	-108.220	-0.172	-0.037
-411.369	-200.000	-0.011	0.159
-410.355	18.210	-0.131	0.106
-409.340	-112.043	0.211	0.043
-408.325	175.050	0.277	-0.404
-407.311	208.816	-0.196	0.310
-406.296	-200.000	-0.055	-0.295
-405.282	-109.613	-0.181	-0.038
-404.267	160.758	-0.099	-0.139
-403.252	-200.000	-0.051	-0.241
-402.238	14.748	-0.075	0.059
-401.223	-200.000	0.002	-0.100
-400.209	-57.690	0.052	0.023
-399.194	-43.457	-0.263	-0.134
-398.179	266.172	0.120	-0.211
-397.165	554.220	-0.121	0.294
-396.150	438.066	0.143	0.314
-395.136	65.642	0.114	-0.117
-394.121	-53.304	-0.351	-0.162
-393.106	-183.949	0.259	-0.004
-392.092	211.873	-0.155	0.246
-391.077	-31.974	0.213	0.120
-390.063	390.146	-0.044	0.093
-389.048	-141.009	-0.497	0.051
-388.033	-68.966	0.114	-0.044
-387.019	-200.000	0.005	-0.130
-386.004	-64.638	-0.135	-0.055
-384.990	15.605	-0.070	0.055
-383.975	-101.229	0.172	0.042
-382.960	19.376	0.252	0.204
-381.946	-118.681	0.552	-0.098
-380.931	60.117	0.245	-0.244
-379.917	800.000	-0.016	-0.065
-378.902	548.279	-0.022	-0.054
-377.888	-200.000	-0.021	0.309
-376.873	-86.569	0.311	0.096
-375.858	-14.416	0.035	0.022
-374.844	-200.000	0.025	0.444
-373.829	-161.544	0.131	0.007
-372.815	800.000	0.152	-0.476
-371.800	238.645	0.075	-0.126
-370.785	800.000	-0.016	0.048
-369.771	-33.058	0.155	-0.086
-368.756	-200.000	0.035	0.351
-367.742	800.000	0.077	0.309
-366.727	-0.441	0.302	0.216
-365.712	71.433	-0.088	-0.092
-364.698	-200.000	-0.042	0.193
-363.683	-32.115	-0.207	-0.116
-362.669	293.858	-0.018	0.033
-361.654	23.483	0.196	-0.162
-360.639	-42.909	0.279	-0.143
-359.625	-200.000	0.011	-0.052
-358.610	15.090	-0.072	-0.057
-357.596	-138.151	-0.216	-0.024
-356.581	-117.366	0.092	0.017
-355.566	-87.901	0.093	0.028
-354.552	-200.000	0.029	0.408
-353.537	36.946	-0.176	-0.156
-352.523	72.629	-0.024	-0.025
-351.508	-200.000	-0.059	0.348
-350.493	13.220	-0.412	-0.321
-349.479	-77.122	-0.350	0.123
-348.464	-197.014	0.172	-0.001
-347.450	-101.879	-0.106	-0.026
-346.435	-20.319	0.184	-0.114
-345.420	-77.250	0.073	0.026
-344.406	-200.000	-0.051	0.229
-343.391	49.969	0.258	0.245
-342.377	156.388	-0.148	0.205
-341.362	800.000	0.046	-0.163
-340.348	8.451	-0.179	0.135
-339.333	-32.917	0.169	0.094
-338.318	375.808	0.111	0.229
-337.304	225.525	-0.150	-0.245
-336.289	800.000	0.050	-0.179
-335.275	376.673	0.142	0.292
-334.260	620.724	-0.063	0.160
-333.245	-173.456	0.336	0.010
-332.231	454.779	0.160	0.357
-331.216	-193.212	0.280	0.002
-330.202	-114.400	0.098	-0.019
-329.187	-93.139	0.084	0.024
-328.172	-138.932	0.266	-0.029
-327.158	451.825	-0.072	0.159
-326.143	800.000	-0.046	0.138
-325.129	-200.000	0.009	0.230
-324.114	-200.000	-0.025	-0.160
-323.099	-131.850	-0.256	0.034
-322.085	-66.819	0.116	0.046
-321.070	-6.840	-0.139	0.095
-320.056	-31.892	0.091	-0.051
-319.041	-200.000	0.004	-0.319
-318.026	-21.747	0.210	0.129
-317.012	328.798	-0.014	-0.028
-315.997	40.034	-0.273	0.247
-314.983	99.748	-0.231	0.269
-313.968	-79.614	-0.133	-0.045
-312.953	382.891	-0.032	-0.066
-311.939	50.358	-0.038	0.036
-310.924	-150.967	0.174	0.013
-309.910	800.000	0.180	0.559
-308.895	-168.133	-0.071	0.003
-307.880	634.797	-0.078	0.199
-306.866	104.739	0.200	0.236
-305.851	-102.180	-0.287	-0.069
-304.837	-169.164	0.240	-0.009
-303.822	800.000	-0.021	-0.077
-302.807	66.249	0.028	-0.028
-301.793	800.000	-0.063	0.179
-300.778	725.955	-0.152	0.408
-299.764	391.509	-0.144	-0.300
-298.749	319.402	0.167	-0.318
-297.735	-88.926	0.422	-0.126
-296.720	39.714	0.248	0.223
-295.705	800.000	-0.064	-0.232
-294.691	-87.340	-0.270	-0.082
-293.676	-104.924	0.084	-0.019
-292.662	308.824	-0.178	-0.333
-291.647	-200.000	-0.013	-0.308
-290.632	29.996	0.118	-0.101
-289.618	-87.846	0.108	-0.033
-288.603	-132.433	0.404	0.052
-287.589	-127.291	-0.290	-0.043
-286.574	-12.489	0.256	0.168
-285.559	800.000	0.088	0.356
-284.545	-200.000	0.024	0.147
-283.530	800.000	0.074	0.309
-282.516	-40.315	-0.092	0.048
-281.501	-200.000	-0.028	0.209
-280.486	-20.325	0.039	0.024
-279.472	-155.479	-0.210	-0.014
-278.457	-46.168	-0.121	0.060
-277.443	174.028	0.175	-0.253
-276.428	-28.957	0.023	0.013
-275.413	102.050	0.055	0.064
-274.399	40.075	-0.161	0.145
-273.384	-200.000	-0.009	0.275
-272.370	142.904	-0.153	0.204
-271.355	-200.000	0.006	-0.259
-270.340	-90.440	0.207	-0.060
-269.326	-78.586	0.160	-0.055
-268.311	-128.559	0.311	-0.044
-267.297	375.550	-0.055	0.112
-266.282	800.000	-0.044	0.152
-265.267	-200.000	-0.032	-0.218
-264.253	-50.920	-0.095	0.045
-263.238	342.196	0.175	-0.344
-262.224	-49.843	0.149	0.071
-261.209	165.720	-0.172	0.244
-260.195	26.513	-0.084	0.071
-259.180	800.000	0.096	-0.297
-258.165	800.000	0.055	-0.184
-257.151	129.293	0.224	0.287
-256.136	-200.000	0.008	0.165
-255.122	800.000	-0.027	0.102
-254.107	800.000	0.091	0.332
-253.092	114.292	-0.245	-0.299
-252.078	234.474	-0.081	-0.134
-251.063	246.440	-0.110	-0.186
-250.049	800.000	-0.060	-0.195
-249.034	-59.930	-0.263	0.113
-248.019	-180.307	-0.278	-0.006
-247.005	-40.683	-0.247	0.128
-245.990	-200.000	-0.051	-0.345
-244.976	-156.535	-0.101	0.006
-243.961	-34.197	0.106	0.058
-242.946	48.259	0.162	0.152
-241.932	176.301	0.050	0.073
-240.917	-131.023	-0.222	-0.030
-239.903	142.124	-0.072	0.096
-238.888	800.000	0.086	-0.279
-237.873	91.398	0.152	0.171
-236.859	-199.851	-0.281	-0.001
-235.844	-200.000	0.008	0.160
-234.830	207.673	-0.087	-0.136
-233.815	-102.656	0.445	-0.106
-232.800	63.015	0.261	0.262
-231.786	2.866	0.181	-0.132
-230.771	-93.886	-0.244	0.067
-229.757	-11.693	-0.119	0.078
-228.742	800.000	-0.010	0.037
-227.727	712.908	-0.047	0.124
-226.713	-73.829	0.349	0.127
-225.698	-150.761	0.239	-0.018
-224.684	-3.529	-0.296	-0.206
-223.669	426.043	-0.097	-0.208
-222.655	800.000	-0.037	0.148
-221.640	-200.000	-0.015	0.330
-220.625	200.019	-0.163	-0.250
-219.611	80.263	-0.116	0.125
-218.596	-44.455	-0.298	0.149
-217.582	-38.444	-0.184	-0.097
-216.567	491.455	-0.070	0.160
-215.552	273.848	0.155	0.275
-214.538	51.682	-0.188	-0.179
-213.523	107.363	-0.119	-0.142
-212.509	800.000	-0.007	-0.022
-211.494	370.692	0.053	-0.107
-210.479	432.157	-0.164	0.356
-209.465	656.026	0.103	0.263
-208.450	-177.509	0.100	0.002
-207.436	453.440	0.008	0.018
-206.421	42.998	-0.178	0.162
-205.406	-120.026	-0.177	0.030
-204.392	-167.397	-0.164	0.007
-203.377	-50.327	0.128	0.061
-202.363	29.378	-0.134	-0.114
-201.348	60.859	0.155	-0.154
-200.333	-200.000	-0.063	-0.289
-199.319	-200.000	-0.035	-0.244
-198.304	799.895	0.158	-0.437
-197.290	-200.000	-0.045	-0.299
-196.275	274.154	-0.027	0.048
-195.260	-74.463	-0.371	-0.134
-194.246	-46.225	0.245	-0.120
-193.231	-56.680	0.240	-0.106
-192.217	289.537	-0.213	0.385
-191.202	-148.793	-0.174	0.014
-190.187	-100.522	-0.208	-0.051
-189.173	60.484	-0.092	-0.091
-188.158	155.106	-0.243	-0.334
-187.144	-129.810	-0.038	-0.005
-186.129	286.821	-0.008	-0.014
-185.114	110.452	-0.052	-0.063
-184.100	192.248	0.217	0.327
-183.085	49.061	0.115	-0.108
-182.071	124.937	0.196	0.247
-181.056	-45.058	-0.162	-0.081
-180.042	-82.791	0.264	-0.085
-179.027	-121.907	-0.144	0.024
-178.012	800.000	-0.042	-0.125
-176.998	-128.270	-0.420	-0.060
-175.983	-173.900	-0.178	0.005
-174.969	560.680	-0.045	0.109
-173.954	800.000	-0.129	0.374
-172.939	-16.409	0.285	0.180
-171.925	-135.164	0.301	0.036
-170.910	-200.000	0.010	-0.216
-169.896	-200.000	-0.008	0.305
-168.881	-51.377	-0.233	-0.109
-167.866	189.845	-0.134	-0.201
-166.852	-27.238	0.222	0.129
-165.837	-168.531	0.115	0.004
-164.823	79.739	-0.175	-0.188
-163.808	-62.365	0.170	-0.071
-162.793	-22.566	0.107	-0.065
-161.779	800.000	0.095	0.293
-160.764	88.399	-0.109	0.121
-159.750	14.488	0.069	-0.054
-158.735	-200.000	0.006	-0.239
-157.720	72.386	-0.088	0.091
-156.706	-18.404	0.011	-0.007
-155.691	-1.046	0.446	0.315
-154.677	800.000	0.058	-0.221
-153.662	-117.204	-0.467	-0.085
-152.647	-117.942	0.116	0.021
-151.633	-200.000	-0.020	0.125
-150.618	-86.443	0.453	0.139
-149.604	-200.000	0.024	0.294
-148.589	-69.974	0.071	-0.027
-147.574	-108.279	-0.135	-0.029
-146.560	224.413	0.148	-0.239
-145.545	-50.764	-0.201	-0.095
-144.531	22.311	-0.192	0.157
-143.516	-22.671	0.226	0.137
-142.502	-200.000	0.006	0.211
-141.487	-200.000	0.001	-0.301
-140.472	-47.261	0.245	0.119
-139.458	-136.019	0.041	-0.005
-138.443	135.760	-0.112	0.146
-137.429	800.000	-0.059	-0.164
-136.414	-200.000	0.052	0.367
-135.399	602.028	-0.104	0.257
-134.385	-200.000	0.010	0.267
-133.370	-200.000	-0.017	-0.295
-132.356	-94.050	0.055	-0.015
-131.341	248.819	-0.156	-0.264
-130.326	234.406	-0.151	-0.248
-129.312	-200.000	-0.015	-0.070
-128.297	-6.896	0.285	0.193
-127.283	-200.000	-0.045	0.218
-126.268	308.442	0.102	0.191
-125.253	261.879	0.100	0.173
-124.239	766.259	0.011	0.030
-123.224	-40.595	-0.084	-0.044
-122.210	28.182	0.113	-0.095
