DTS Sentinel unit serial number:	SN413079Multiplexer serial number:	ORYXHardware model number:	OX4-SRSoftware version number:	ORYX F/W v4.00 Oryx Data Collector v3.7.2.0data status	okinstallation	princeton_trtdifferential loss correction	single-endedforward channel	channel 1reverse channel	N/Adate	2019/09/11time	10:52:11forward acquisition time	60.00reverse acquisition time	0.00gamma	496.2192k internal	0.2297k external	0.2297temperature offset calibration	0.9952default loss term (dB/km)	0.3790temperature slope calibration	1.0000multiplexer offset coefficient	1.0000multiplexer slope coefficient	1.0000fibre end	0.00T internal ref (°C)	36.97T ext. ref 1 (°C)	0.16T ext. ref 2 (°C)	33.88length (m)	temperature (°C)	Stokes	anti-Stokes-747.200	36.148	-0.058	-0.052
-746.185	-117.090	0.217	-0.040
-745.171	0.252	-0.148	-0.108
-744.156	-200.000	-0.034	0.218
-743.142	-37.916	-0.053	-0.029
-742.127	-200.000	-0.062	0.369
-741.112	-124.712	-0.266	-0.042
-740.098	86.542	0.102	-0.114
-739.083	36.528	-0.155	-0.140
-738.069	452.935	0.091	0.206
-737.054	-123.770	0.175	-0.028
-736.039	-76.914	-0.290	0.103
-735.025	101.843	-0.082	-0.098
-734.010	-200.000	-0.049	0.360
-732.996	-154.997	0.155	-0.010
-731.981	-112.027	0.096	0.020
-730.966	-101.980	-0.292	-0.072
-729.952	-93.492	-0.291	0.082
-728.937	105.024	0.010	0.011
-727.923	-99.035	-0.070	0.018
-726.908	-91.015	0.084	0.025
-725.894	-157.665	-0.308	-0.019
-724.879	409.237	-0.051	0.110
-723.864	101.867	-0.092	-0.110
-722.850	-184.499	-0.530	0.009
-721.835	-137.182	0.314	-0.037
-720.821	-174.020	-0.090	0.003
-719.806	-52.675	-0.505	0.238
-718.791	-200.000	0.031	-0.206
-717.777	800.000	0.085	-0.345
-716.762	-30.919	-0.259	0.149
-715.748	-200.000	-0.069	0.367
-714.733	-36.564	-0.211	-0.116
-713.718	-200.000	-0.029	-0.191
-712.704	-200.000	-0.000	-0.066
-711.689	123.193	0.140	-0.179
-710.675	329.391	0.116	0.227
-709.660	800.000	0.041	0.144
-708.645	109.981	-0.151	-0.185
-707.631	295.813	0.121	-0.226
-706.616	9.077	-0.255	-0.196
-705.602	31.262	-0.178	-0.156
-704.587	-200.000	-0.016	-0.400
-703.572	800.000	0.043	0.140
-702.558	-13.797	0.320	-0.211
-701.543	136.060	0.061	-0.081
-700.529	800.000	-0.017	-0.074
-699.514	208.235	-0.046	-0.073
-698.499	701.344	-0.109	0.293
-697.485	-94.719	0.157	0.043
-696.470	-150.405	-0.093	0.007
-695.456	-48.863	-0.324	0.159
-694.441	-200.000	0.015	0.166
-693.426	-200.000	0.269	-0.001
-692.412	-200.000	-0.013	0.214
-691.397	95.235	0.180	-0.209
-690.383	8.020	0.196	-0.150
-689.368	-112.071	0.388	-0.080
-688.354	-157.573	0.195	0.012
-687.339	-49.931	-0.324	0.157
-686.324	-25.236	-0.375	-0.226
-685.310	393.321	-0.079	-0.167
-684.295	39.583	-0.208	-0.190
-683.281	-158.715	-0.275	-0.016
-682.266	252.424	0.115	-0.200
-681.251	-97.634	-0.124	0.033
-680.237	-117.935	0.471	0.086
-679.222	-46.384	0.204	0.102
-678.208	105.702	0.028	0.033
-677.193	-200.000	0.001	-0.084
-676.178	-70.090	0.262	0.102
-675.164	101.264	-0.310	0.368
-674.149	29.387	-0.069	-0.059
-673.135	155.911	-0.228	-0.319
-672.120	-84.027	0.361	-0.117
-671.105	-3.425	0.075	-0.053
-670.091	800.000	0.050	-0.185
-669.076	-70.090	-0.117	-0.045
-668.062	110.030	-0.229	0.280
-667.047	-10.641	-0.060	0.040
-666.032	8.197	0.380	-0.291
-665.018	208.800	-0.120	0.191
-664.003	230.351	-0.103	-0.171
-662.989	509.030	0.050	-0.119
-661.974	-88.491	-0.197	-0.060
-660.959	214.921	0.149	-0.240
-659.945	106.536	0.091	0.110
-658.930	-200.000	0.062	-0.400
-657.916	-50.758	-0.133	0.064
-656.901	-77.294	0.032	-0.011
-655.886	800.000	-0.055	0.196
-654.872	-107.049	0.192	-0.043
-653.857	659.587	0.100	-0.262
-652.843	84.445	-0.152	-0.170
-651.828	-168.270	0.101	-0.004
-650.814	-137.829	0.142	-0.016
-649.799	-200.000	0.008	-0.130
-648.784	800.000	-0.049	-0.209
-647.770	-104.395	0.355	-0.084
-646.755	800.000	-0.040	-0.145
-645.741	354.432	-0.076	0.154
-644.726	116.348	0.392	0.489
-643.711	800.000	-0.029	-0.111
-642.697	56.167	-0.143	-0.142
-641.682	-71.252	-0.271	0.103
-640.668	-200.000	0.016	0.217
-639.653	-200.000	-0.030	-0.272
-638.638	-140.892	-0.222	0.023
-637.624	-200.000	-0.033	-0.201
-636.609	-200.000	0.014	-0.139
-635.595	-1.148	-0.306	-0.220
-634.580	5.141	-0.122	-0.092
-633.565	654.724	-0.124	-0.323
-632.551	800.000	0.072	-0.207
-631.536	175.912	-0.086	-0.127
-630.522	407.791	-0.062	-0.132
-629.507	163.564	0.219	0.313
-628.492	71.191	-0.171	0.180
-627.478	-147.995	0.232	-0.020
-626.463	-200.000	-0.015	-0.132
-625.449	40.608	-0.121	-0.110
-624.434	-108.342	0.471	0.103
-623.419	225.738	-0.055	0.090
-622.405	-104.769	-0.362	0.085
-621.390	-200.000	-0.027	0.300
-620.376	78.522	0.058	-0.063
-619.361	-71.871	-0.187	-0.071
-618.346	-200.000	-0.018	0.146
-617.332	0.905	-0.158	0.115
-616.317	310.263	0.054	-0.102
-615.303	-200.000	0.039	0.348
-614.288	-118.993	-0.270	0.048
-613.273	-48.404	0.167	0.082
-612.259	-168.579	-0.382	0.015
-611.244	-200.000	-0.005	-0.114
-610.230	-13.315	-0.260	-0.171
-609.215	77.539	-0.220	-0.238
-608.201	-85.623	-0.188	-0.059
-607.186	434.516	0.147	0.325
-606.171	-200.000	0.026	-0.167
-605.157	800.000	0.175	-0.545
-604.142	48.103	-0.032	-0.030
-603.128	194.705	0.203	0.312
-602.113	-79.622	0.288	-0.099
-601.098	333.763	0.086	-0.168
-600.084	490.536	-0.019	0.044
-599.069	-179.722	-0.258	0.006
-598.055	-13.975	0.142	0.093
-597.040	-200.000	0.025	-0.299
-596.025	-18.590	-0.161	-0.102
-595.011	-200.000	-0.010	0.237
-593.996	194.820	-0.124	-0.192
-592.982	48.539	-0.121	0.115
-591.967	-20.870	-0.093	0.058
-590.952	64.913	-0.078	0.080
-589.938	-100.953	0.179	-0.045
-588.923	4.752	-0.131	0.098
-587.909	63.295	-0.153	-0.156
-586.894	800.000	-0.031	-0.121
-585.879	-3.190	0.016	-0.011
-584.865	42.239	0.309	-0.285
-583.850	50.394	-0.273	0.262
-582.836	93.429	-0.158	-0.181
-581.821	-78.055	-0.363	0.127
-580.806	204.079	0.200	0.314
-579.792	296.579	-0.028	0.053
-578.777	9.839	0.080	-0.062
-577.763	-200.000	0.044	0.271
-576.748	-200.000	0.069	0.405
-575.733	30.222	0.133	0.116
-574.719	-65.434	-0.545	-0.222
-573.704	-200.000	-0.023	-0.117
-572.690	40.086	-0.049	-0.045
-571.675	-200.000	-0.020	-0.137
-570.661	-96.607	-0.165	0.044
-569.646	500.175	-0.071	0.165
-568.631	800.000	0.055	0.197
-567.617	204.442	0.164	-0.257
-566.602	-78.334	0.062	0.022
-565.588	29.102	-0.222	-0.191
-564.573	19.110	-0.106	-0.086
-563.558	352.977	-0.069	0.139
-562.544	-161.518	-0.256	-0.013
-561.529	239.291	-0.083	0.140
-560.515	-90.119	-0.261	-0.077
-559.500	-98.858	-0.227	-0.058
-558.485	800.000	-0.067	-0.196
-557.471	-69.953	0.153	0.059
-556.456	89.373	0.205	-0.232
-555.442	494.562	0.020	-0.047
-554.427	-89.604	0.093	-0.028
-553.412	31.305	-0.366	-0.319
-552.398	-155.131	-0.170	-0.011
-551.383	110.009	0.233	-0.283
-550.369	-3.534	-0.418	-0.295
-549.354	-23.368	0.181	-0.110
-548.339	29.768	0.289	0.250
-547.325	66.109	-0.027	-0.028
-546.310	-80.222	-0.233	-0.079
-545.296	341.720	-0.110	-0.217
-544.281	-133.183	-0.363	-0.047
-543.266	700.228	-0.040	0.107
-542.252	66.223	0.113	0.117
-541.237	-200.000	0.038	0.221
-540.223	-200.000	-0.021	0.286
-539.208	-147.467	-0.141	0.012
-538.193	-31.076	-0.170	0.097
-537.179	800.000	0.035	0.135
-536.164	-120.831	-0.259	-0.044
-535.150	-15.932	-0.175	-0.113
-534.135	472.256	0.065	-0.149
-533.121	8.145	0.150	-0.114
-532.106	199.766	0.187	-0.290
-531.091	269.899	-0.151	0.268
-530.077	800.000	-0.116	0.330
-529.062	83.295	0.064	0.071
-528.048	84.084	0.083	-0.092
-527.033	113.523	-0.090	0.110
-526.018	82.364	0.199	-0.219
-525.004	-200.000	-0.023	-0.136
-523.989	-70.303	-0.137	-0.053
-522.975	305.329	0.062	-0.117
-521.960	47.541	-0.220	0.208
-520.945	126.242	0.024	-0.031
-519.931	167.528	0.169	-0.243
-518.916	8.652	0.236	0.180
-517.902	144.589	-0.064	-0.087
-516.887	-73.240	-0.069	-0.026
-515.872	-110.897	-0.096	0.020
-514.858	800.000	-0.059	-0.235
-513.843	-75.884	0.219	-0.079
-512.829	-133.146	-0.119	-0.015
-511.814	-45.872	-0.143	0.071
-510.799	-60.968	-0.312	0.134
-509.785	124.345	0.129	0.164
-508.770	-163.036	0.405	0.020
-507.756	596.621	-0.066	0.165
-506.741	-40.386	-0.063	0.033
-505.726	49.681	0.188	-0.179
-504.712	-161.718	0.209	0.011
-503.697	88.794	-0.031	0.035
-502.683	86.334	-0.185	0.207
-501.668	-86.710	-0.091	0.028
-500.653	800.000	-0.061	0.183
-499.639	204.836	0.094	0.147
-498.624	-127.093	0.119	-0.018
-497.610	-1.323	0.147	-0.105
-496.595	-125.825	0.178	-0.027
-495.581	-78.468	-0.104	0.036
-494.566	60.277	0.176	0.176
-493.551	800.000	-0.085	0.318
-492.537	-200.000	0.059	-0.432
-491.522	215.868	0.304	0.488
-490.508	-44.754	-0.172	-0.087
-489.493	60.981	0.033	-0.033
-488.478	800.000	-0.050	0.155
-487.464	800.000	0.012	-0.047
-486.449	221.480	0.165	0.267
-485.435	800.000	-0.083	-0.261
-484.420	-28.968	-0.247	-0.143
-483.405	698.957	-0.045	0.120
-482.391	138.584	-0.037	0.048
-481.376	800.000	-0.047	0.169
-480.362	560.512	0.051	-0.126
-479.347	-23.227	-0.137	0.084
-478.332	-40.588	-0.255	-0.133
-477.318	-188.679	-0.034	-0.000
-476.303	-134.320	0.241	-0.030
-475.289	-54.702	0.175	0.080
-474.274	-170.937	0.278	0.010
-473.259	-59.953	-0.191	-0.083
-472.245	-34.647	-0.308	0.170
-471.230	-200.000	0.011	-0.144
-470.216	123.960	0.066	-0.084
-469.201	-200.000	-0.004	-0.439
-468.186	-90.716	-0.187	-0.055
-467.172	155.088	0.142	0.197
-466.157	-62.139	0.160	0.068
-465.143	-69.708	-0.141	-0.054
-464.128	148.480	-0.080	0.110
-463.113	-200.000	0.048	-0.366
-462.099	-49.994	-0.218	0.105
-461.084	238.265	0.190	0.319
-460.070	47.992	-0.370	-0.349
-459.055	65.806	-0.114	0.117
-458.040	159.051	0.109	-0.153
-457.026	386.412	0.083	-0.173
-456.011	28.913	0.170	-0.145
-454.997	281.836	-0.172	0.312
-453.982	75.346	0.199	0.212
-452.968	168.539	0.101	-0.145
-451.953	-92.142	0.308	-0.088
-450.938	-200.000	0.021	-0.111
-449.924	-200.000	0.071	-0.438
-448.909	255.750	0.087	0.150
-447.895	64.656	-0.190	-0.193
-446.880	-156.705	0.197	-0.012
-445.865	-63.330	0.150	-0.063
-444.851	90.231	-0.151	-0.170
-443.836	-174.745	0.251	-0.007
-442.822	65.163	-0.089	0.091
-441.807	-157.159	0.255	-0.016
-440.792	39.367	0.135	-0.122
-439.778	-48.148	0.119	-0.058
-438.763	-75.939	0.312	0.111
-437.749	-200.000	0.013	0.168
-436.734	-169.073	0.221	-0.008
-435.719	64.746	-0.062	0.063
-434.705	8.237	-0.164	-0.124
-433.690	21.634	0.102	0.084
-432.676	-57.899	-0.253	-0.111
-431.661	-200.000	0.001	0.199
-430.646	-61.513	-0.121	0.051
-429.632	-56.896	-0.243	-0.108
-428.617	-200.000	-0.010	-0.332
-427.603	197.215	0.075	0.115
-426.588	-66.397	0.204	0.082
-425.573	-114.549	-0.145	0.028
-424.559	-108.035	-0.125	-0.027
-423.544	-200.000	0.051	-0.381
-422.530	-1.979	-0.091	0.064
-421.515	-28.017	0.376	-0.219
-420.500	-31.396	0.330	-0.187
-419.486	5.601	-0.254	-0.189
-418.471	209.769	0.122	-0.192
-417.457	134.767	-0.062	-0.081
-416.442	-98.856	-0.291	0.075
-415.428	-125.223	-0.164	-0.025
-414.413	-116.271	-0.122	0.023
-413.398	652.752	0.089	-0.231
-412.384	116.595	-0.151	-0.187
-411.369	277.387	-0.069	-0.124
-410.355	543.941	-0.085	-0.205
-409.340	79.882	0.037	-0.040
-408.325	68.414	-0.058	-0.060
-407.311	-142.157	-0.349	-0.035
-406.296	312.042	0.130	0.246
-405.282	-161.247	0.154	-0.008
-404.267	-192.256	0.122	-0.001
-403.252	-48.282	-0.318	0.155
-402.238	-200.000	-0.025	-0.329
-401.223	-200.000	-0.002	0.016
-400.209	-200.000	-0.039	-0.288
-399.194	-84.699	-0.249	-0.079
-398.179	225.890	0.116	-0.189
-397.165	-79.778	0.204	-0.069
-396.150	149.514	-0.269	0.367
-395.136	-64.051	-0.218	-0.090
-394.121	800.000	-0.106	0.351
-393.106	191.776	0.110	-0.167
-392.092	-109.246	0.223	0.048
-391.077	-22.040	-0.105	-0.064
-390.063	800.000	0.089	-0.279
-389.048	-200.000	0.008	0.144
-388.033	800.000	-0.018	-0.054
-387.019	-200.000	-0.021	0.096
-386.004	223.610	-0.046	-0.074
-384.990	-102.657	-0.235	-0.056
-383.975	-31.763	0.130	0.073
-382.960	88.259	0.283	0.316
-381.946	-77.306	-0.105	-0.037
-380.931	81.884	-0.170	0.185
-379.917	218.154	0.210	0.338
-378.902	-96.832	0.222	0.059
-377.888	-200.000	-0.008	-0.167
-376.873	125.999	-0.309	-0.394
-375.858	-91.195	0.278	-0.080
-374.844	101.328	-0.150	-0.176
-373.829	405.136	-0.113	-0.239
-372.815	-200.000	-0.011	-0.059
-371.800	-42.325	-0.114	0.059
-370.785	401.406	0.006	-0.013
-369.771	227.760	-0.193	-0.317
-368.756	148.576	-0.123	-0.168
-367.742	25.511	0.255	0.214
-366.727	128.126	-0.077	-0.098
-365.712	-99.950	-0.218	-0.055
-364.698	-200.000	-0.001	0.180
-363.683	7.692	-0.306	0.230
-362.669	-200.000	-0.050	0.326
-361.654	268.067	-0.124	0.219
-360.639	-155.551	-0.155	0.010
-359.625	271.683	0.056	0.100
-358.610	-25.796	-0.200	-0.119
-357.596	-161.379	-0.077	0.004
-356.581	-200.000	0.063	0.345
-355.566	-87.350	0.198	-0.061
-354.552	-200.000	0.008	-0.120
-353.537	665.038	-0.086	0.224
-352.523	-96.071	0.449	0.120
-351.508	800.000	-0.129	0.399
-350.493	395.696	0.034	0.072
-349.479	-61.210	-0.209	0.089
-348.464	83.562	0.344	0.378
-347.450	800.000	0.090	-0.254
-346.435	-160.034	-0.110	0.006
-345.420	613.316	0.060	0.150
-344.406	270.279	0.118	0.208
-343.391	-186.578	0.186	-0.003
-342.377	800.000	-0.047	0.141
-341.362	800.000	-0.030	0.097
-340.348	800.000	0.068	0.277
-339.333	265.498	0.055	-0.096
-338.318	116.216	0.091	0.112
-337.304	-200.000	0.017	-0.378
-336.289	-200.000	0.020	-0.161
-335.275	17.194	0.173	0.138
-334.260	-148.016	-0.411	-0.034
-333.245	-142.286	0.145	-0.014
-332.231	800.000	-0.084	0.262
-331.216	-69.704	0.247	0.095
-330.202	-52.092	0.210	0.098
-329.187	136.376	-0.124	0.162
-328.172	-200.000	-0.053	0.353
-327.158	-200.000	0.024	0.246
-326.143	-121.097	-0.290	0.049
-325.129	800.000	0.083	0.361
-324.114	-169.961	0.448	-0.016
-323.099	60.749	-0.114	-0.114
-322.085	-60.425	-0.178	0.076
-321.070	-61.806	0.197	-0.083
-320.056	16.986	-0.126	-0.100
-319.041	-94.784	0.161	0.044
-318.026	-200.000	-0.008	-0.162
-317.012	-79.914	-0.254	-0.086
-315.997	233.035	0.168	-0.278
-314.983	264.300	0.074	0.130
-313.968	24.502	-0.021	-0.017
-312.953	-200.000	0.017	-0.344
-311.939	-173.951	0.178	-0.005
-310.924	-9.001	0.142	-0.095
-309.910	73.210	0.203	0.214
-308.895	63.213	-0.162	-0.163
-307.880	-92.501	-0.039	-0.011
-306.866	253.414	0.139	0.238
-305.851	-25.372	0.046	0.027
-304.837	-15.353	-0.190	-0.122
-303.822	800.000	-0.107	-0.329
-302.807	170.662	0.134	0.193
-301.793	-7.940	0.075	0.051
-300.778	800.000	0.027	0.084
-299.764	-56.978	-0.043	-0.019
-298.749	343.400	0.098	0.192
-297.735	-40.496	0.143	-0.075
-296.720	-91.923	0.229	0.065
-295.705	-60.499	0.418	0.178
-294.691	-200.000	-0.005	0.115
-293.676	693.519	0.096	0.252
-292.662	539.935	0.222	-0.530
-291.647	-14.108	-0.057	-0.037
-290.632	-33.879	-0.251	0.139
-289.618	-200.000	-0.035	0.282
-288.603	-200.000	-0.015	0.101
-287.589	-90.421	-0.371	0.108
-286.574	373.750	-0.044	0.090
-285.559	-200.000	0.004	0.243
-284.545	62.969	-0.387	0.389
-283.530	-91.195	0.401	0.115
-282.516	-93.631	0.066	-0.018
-281.501	-99.513	0.240	-0.060
-280.486	-200.000	-0.033	0.216
-279.472	-31.481	-0.382	-0.215
-278.457	-91.668	0.071	0.020
-277.443	-200.000	-0.037	-0.396
-276.428	234.968	-0.051	-0.084
-275.413	-127.259	0.193	-0.028
-274.399	-57.098	0.309	-0.136
-273.384	-46.357	0.415	0.204
-272.370	-200.000	0.014	-0.134
-271.355	125.177	0.358	0.453
-270.340	339.203	-0.163	-0.319
-269.326	151.064	0.166	0.226
-268.311	789.991	0.039	-0.107
-267.297	-164.143	0.162	0.008
-266.282	-200.000	-0.011	-0.197
-265.267	-200.000	-0.002	0.154
-264.253	-81.026	-0.217	-0.072
-263.238	363.631	-0.075	0.151
-262.224	235.184	0.217	0.359
-261.209	-116.405	-0.133	0.025
-260.195	73.050	-0.151	0.158
-259.180	-54.736	0.292	0.132
-258.165	-51.524	0.310	0.145
-257.151	-200.000	0.004	-0.129
-256.136	-35.599	-0.367	-0.199
-255.122	124.902	0.186	0.234
-254.107	-122.845	0.697	-0.113
-253.092	-160.978	-0.159	-0.008
-252.078	11.718	-0.091	0.070
-251.063	-80.746	0.007	0.002
-250.049	-58.447	-0.183	0.080
-249.034	20.092	-0.165	-0.134
-248.019	-84.108	-0.275	-0.088
-247.005	52.427	0.241	0.230
-245.990	267.142	-0.102	0.178
-244.976	-200.000	0.002	0.050
-243.961	-65.561	0.100	0.040
-242.946	44.656	0.147	-0.136
-241.932	60.272	0.127	0.125
-240.917	20.691	-0.104	-0.084
-239.903	126.032	-0.170	0.216
-238.888	686.500	0.130	0.340
-237.873	411.270	-0.068	-0.144
-236.859	-200.000	-0.063	-0.306
-235.844	-90.307	0.188	-0.055
-234.830	-119.087	0.244	-0.043
-233.815	-36.228	-0.095	0.051
-232.800	159.468	-0.097	0.135
-231.786	134.440	-0.204	-0.265
-230.771	-200.000	-0.029	-0.363
-229.757	800.000	0.050	0.202
-228.742	498.299	0.098	-0.225
-227.727	202.750	-0.065	0.101
-226.713	-150.138	-0.297	-0.023
-225.698	221.682	-0.045	0.072
-224.684	14.330	0.183	0.143
-223.669	-200.000	-0.007	-0.075
-222.655	-200.000	-0.022	-0.135
-221.640	-131.422	0.154	0.020
-220.625	117.766	-0.014	-0.018
-219.611	45.987	0.337	0.312
-218.596	-49.236	-0.236	0.113
-217.582	-78.633	-0.181	0.062
-216.567	-137.648	0.366	-0.041
-215.552	-200.000	0.000	-0.247
-214.538	800.000	-0.122	-0.342
-213.523	264.041	0.015	0.026
-212.509	463.646	-0.203	-0.453
-211.494	-150.332	0.306	-0.024
-210.479	-200.000	0.005	-0.084
-209.465	800.000	0.040	-0.154
-208.450	-123.729	0.435	0.069
-207.436	800.000	-0.033	-0.107
-206.421	800.000	0.099	-0.293
-205.406	7.937	-0.122	-0.091
-204.392	64.745	0.140	-0.142
-203.377	124.344	0.120	-0.151
-202.363	-200.000	0.026	-0.135
-201.348	149.790	-0.125	0.169
-200.333	236.467	-0.048	0.079
-199.319	93.244	0.218	-0.246
-198.304	299.019	-0.140	0.258
-197.290	-101.474	0.216	-0.053
-196.275	-90.580	0.141	-0.041
-195.260	222.229	-0.030	-0.048
-194.246	-22.472	0.178	0.108
-193.231	4.329	0.317	0.232
-192.217	-82.658	-0.179	-0.058
-191.202	-140.757	-0.253	0.026
-190.187	-141.128	0.079	0.008
-189.173	542.798	0.091	-0.217
-188.158	410.237	0.114	0.241
-187.144	-90.669	0.424	0.122
-186.129	800.000	-0.067	0.203
-185.114	-18.098	0.048	0.030
-184.100	-106.848	0.102	0.023
-183.085	6.080	-0.305	-0.226
-182.071	-200.000	-0.058	-0.330
-181.056	84.808	-0.162	-0.177
-180.042	63.870	0.123	-0.124
-179.027	-200.000	-0.040	-0.224
-178.012	-21.002	-0.385	-0.236
-176.998	616.529	-0.071	0.177
-175.983	361.274	-0.103	0.207
-174.969	-71.998	-0.197	0.073
-173.954	-73.914	-0.197	0.071
-172.939	-58.730	0.328	0.142
-171.925	740.748	-0.086	-0.229
-170.910	-28.642	-0.112	-0.065
-169.896	800.000	0.038	0.148
-168.881	-200.000	-0.067	0.357
-167.866	-124.493	0.128	-0.020
-166.852	-171.078	0.088	0.003
-165.837	-57.594	0.264	0.116
-164.823	113.887	0.295	-0.358
-163.808	159.030	-0.028	0.039
-162.793	800.000	0.025	-0.086
-161.779	114.028	-0.232	0.281
-160.764	187.577	0.198	0.295
-159.750	-33.220	0.129	-0.071
-158.735	-58.772	0.142	0.061
-157.720	-144.208	0.396	0.037
-156.706	207.268	0.210	0.327
-155.691	-130.147	-0.162	0.022
-154.677	-27.690	-0.186	0.108
-153.662	57.376	-0.131	0.127
-152.647	49.129	-0.052	0.049
-151.633	532.955	-0.110	0.260
-150.618	-64.206	-0.046	-0.019
-149.604	800.000	-0.085	0.362
-148.589	7.943	-0.282	-0.211
-147.574	800.000	0.064	0.265
-146.560	302.492	0.033	0.061
-145.545	-13.870	0.184	0.119
-144.531	-137.871	0.430	0.048
-143.516	-22.178	-0.135	0.082
-142.502	-35.242	-0.179	0.097
-141.487	-200.000	0.031	-0.296
-140.472	-97.398	-0.206	0.054
-139.458	-140.719	0.260	0.027
-138.443	-87.642	-0.159	0.048
-137.429	800.000	0.049	-0.152
-136.414	-200.000	-0.027	0.386
-135.399	-170.481	0.334	-0.012
-134.385	3.549	0.130	-0.094
-133.370	-131.192	-0.398	0.053
-132.356	-120.235	-0.029	-0.005
-131.341	83.885	0.160	-0.174
-130.326	113.433	0.047	0.056
-129.312	167.836	-0.145	-0.206
-128.297	-39.527	0.287	0.150
-127.283	131.015	0.245	-0.314
-126.268	208.223	0.291	-0.454
-125.253	257.903	-0.111	-0.191
-124.239	77.161	-0.070	-0.074
-123.224	-30.932	0.241	-0.136
-122.210	-27.658	0.302	0.175
