DTS Sentinel unit serial number:	SN413079Multiplexer serial number:	ORYXHardware model number:	OX4-SRSoftware version number:	ORYX F/W v4.00 Oryx Data Collector v3.7.2.0data status	okinstallation	princeton_trtdifferential loss correction	single-endedforward channel	channel 1reverse channel	N/Adate	2019/09/18time	16:22:35forward acquisition time	60.00reverse acquisition time	0.00gamma	496.2192k internal	0.2293k external	0.2293temperature offset calibration	0.9996default loss term (dB/km)	0.3790temperature slope calibration	1.0000multiplexer offset coefficient	1.0000multiplexer slope coefficient	1.0000fibre end	0.00T internal ref (°C)	38.81T ext. ref 1 (°C)	0.83T ext. ref 2 (°C)	35.58length (m)	temperature (°C)	Stokes	anti-Stokes-747.200	50.414	0.083	-0.081
-746.185	800.000	0.056	0.227
-745.171	128.227	-0.126	0.163
-744.156	-105.765	-0.468	0.108
-743.142	217.407	0.107	0.175
-742.127	-63.473	-0.104	-0.044
-741.112	-31.647	-0.103	0.059
-740.098	-24.121	0.154	0.094
-739.083	48.335	-0.162	0.155
-738.069	106.231	-0.211	0.256
-737.054	-200.000	-0.020	-0.342
-736.039	800.000	-0.027	0.097
-735.025	-200.000	-0.031	0.378
-734.010	-200.000	-0.015	-0.132
-732.996	800.000	0.071	-0.211
-731.981	800.000	0.100	-0.349
-730.966	-200.000	0.009	-0.122
-729.952	86.488	0.097	0.110
-728.937	-57.271	0.063	0.028
-727.923	-20.317	-0.147	-0.092
-726.908	-33.362	-0.146	0.082
-725.894	-95.672	-0.046	0.013
-724.879	164.388	-0.126	-0.181
-723.864	-119.131	-0.114	0.020
-722.850	20.217	0.081	0.067
-721.835	800.000	-0.073	0.307
-720.821	207.226	-0.101	0.161
-719.806	418.684	-0.114	0.250
-718.791	800.000	-0.096	-0.284
-717.777	21.962	-0.070	-0.058
-716.762	107.340	0.076	-0.092
-715.748	-200.000	0.038	0.218
-714.733	222.821	-0.054	0.089
-713.718	-200.000	0.033	-0.322
-712.704	34.175	-0.075	-0.067
-711.689	128.320	0.065	0.085
-710.675	129.595	0.207	-0.270
-709.660	218.620	0.208	-0.339
-708.645	28.916	-0.136	0.117
-707.631	291.213	0.058	0.107
-706.616	-83.189	-0.308	-0.101
-705.602	21.651	0.077	0.064
-704.587	-143.697	0.203	-0.020
-703.572	-200.000	0.017	-0.137
-702.558	-103.308	0.061	0.015
-701.543	-97.136	-0.006	-0.002
-700.529	-92.416	-0.282	0.081
-699.514	-57.579	-0.093	-0.042
-698.499	800.000	-0.140	0.587
-697.485	182.610	-0.068	-0.103
-696.470	-79.260	0.150	0.052
-695.456	108.872	0.253	-0.309
-694.441	-200.000	-0.060	-0.356
-693.426	309.664	-0.156	0.297
-692.412	800.000	0.038	0.114
-691.397	204.705	-0.021	0.033
-690.383	278.973	0.123	-0.224
-689.368	-61.534	0.270	-0.116
-688.354	72.872	0.123	-0.131
-687.339	91.382	0.264	-0.303
-686.324	150.355	0.301	0.417
-685.310	-92.498	0.247	-0.071
-684.295	-200.000	0.016	0.237
-683.281	-31.628	-0.401	-0.230
-682.266	-121.537	-0.154	-0.026
-681.251	206.250	0.137	-0.217
-680.237	-145.755	-0.274	-0.025
-679.222	800.000	0.067	-0.199
-678.208	93.118	-0.260	-0.300
-677.193	5.213	0.074	-0.056
-676.178	-138.943	-0.364	-0.040
-675.164	-72.860	0.205	-0.077
-674.149	-200.000	0.005	0.121
-673.135	30.688	-0.316	-0.276
-672.120	-7.201	-0.349	0.242
-671.105	124.483	-0.160	-0.205
-670.091	94.287	-0.168	0.194
-669.076	-45.625	0.194	0.098
-668.062	800.000	-0.056	0.221
-667.047	42.520	0.098	-0.091
-666.032	800.000	0.020	0.084
-665.018	-20.959	-0.062	0.038
-664.003	-200.000	-0.018	0.425
-662.989	-66.953	-0.213	-0.086
-661.974	787.272	-0.110	0.307
-660.959	-79.421	0.286	-0.099
-659.945	297.825	0.134	-0.252
-658.930	225.116	-0.190	-0.314
-657.916	50.893	-0.046	0.045
-656.901	-92.648	0.118	-0.034
-655.886	213.091	-0.059	-0.094
-654.872	-43.561	0.261	-0.134
-653.857	82.553	0.077	0.085
-652.843	800.000	0.084	-0.270
-651.828	-200.000	0.035	-0.178
-650.814	184.733	-0.063	0.095
-649.799	13.792	0.165	-0.130
-648.784	-200.000	-0.040	-0.311
-647.770	-200.000	0.015	0.183
-646.755	-131.054	0.186	-0.025
-645.741	-193.790	-0.064	-0.001
-644.726	-156.785	-0.302	0.019
-643.711	-200.000	-0.057	-0.313
-642.697	-89.264	-0.192	-0.058
-641.682	239.586	0.054	-0.092
-640.668	-117.462	-0.310	0.057
-639.653	441.228	-0.040	-0.090
-638.638	-200.000	0.012	-0.140
-637.624	158.969	0.179	-0.253
-636.609	66.998	0.332	-0.345
-635.595	-17.948	-0.322	-0.205
-634.580	-134.136	-0.099	0.012
-633.565	519.554	0.145	0.346
-632.551	-93.887	0.052	0.015
-631.536	-200.000	-0.012	-0.118
-630.522	-111.136	-0.330	0.069
-629.507	-200.000	0.036	-0.271
-628.492	-100.521	-0.362	0.091
-627.478	800.000	0.085	-0.314
-626.463	-200.000	0.049	0.238
-625.449	31.779	0.181	0.159
-624.434	800.000	0.040	-0.116
-623.419	-200.000	0.002	0.389
-622.405	99.448	-0.127	0.150
-621.390	22.487	-0.345	0.288
-620.376	486.962	-0.043	0.100
-619.361	-112.071	-0.168	0.034
-618.346	-9.017	0.181	-0.123
-617.332	-200.000	-0.039	0.291
-616.317	-199.203	-0.193	-0.001
-615.303	277.990	0.048	-0.087
-614.288	-115.850	-0.180	-0.034
-613.273	-114.050	-0.138	0.027
-612.259	-133.395	-0.143	-0.018
-611.244	-200.000	-0.001	-0.428
-610.230	171.717	0.064	-0.094
-609.215	226.046	0.061	-0.101
-608.201	41.909	0.250	0.230
-607.186	100.053	-0.004	-0.005
-606.171	800.000	0.022	-0.090
-605.157	-86.062	-0.223	0.070
-604.142	-200.000	0.153	-0.000
-603.128	-17.388	0.218	0.140
-602.113	45.875	0.092	0.087
-601.098	-200.000	0.036	-0.205
-600.084	-113.394	-0.144	-0.029
-599.069	23.215	-0.034	-0.029
-598.055	-30.999	0.243	-0.139
-597.040	-147.972	0.122	0.010
-596.025	-200.000	-0.015	-0.201
-595.011	-152.359	0.088	0.006
-593.996	255.091	0.090	-0.157
-592.982	30.814	0.325	0.283
-591.967	-66.023	0.132	-0.054
-590.952	-90.463	0.125	-0.037
-589.938	-200.000	-0.026	0.184
-588.923	151.876	-0.126	-0.175
-587.909	-200.000	0.063	-0.625
-586.894	-73.110	0.204	-0.076
-585.879	-200.000	0.065	0.290
-584.865	-200.000	-0.053	-0.373
-583.850	78.234	-0.156	0.169
-582.836	8.471	0.072	0.055
-581.821	-141.141	-0.239	-0.025
-580.806	-139.705	-0.257	0.028
-579.792	-188.002	0.284	-0.004
-578.777	-200.000	-0.021	0.104
-577.763	570.487	0.098	0.242
-576.748	23.972	-0.075	-0.063
-575.733	-200.000	0.039	0.273
-574.719	-200.000	-0.016	-0.245
-573.704	137.601	0.076	-0.101
-572.690	-82.779	-0.214	-0.070
-571.675	354.482	-0.070	-0.140
-570.661	800.000	-0.035	-0.117
-569.646	695.623	-0.046	0.123
-568.631	-120.251	-0.132	0.023
-567.617	-132.075	0.199	-0.026
-566.602	396.159	0.057	0.120
-565.588	-200.000	0.028	-0.197
-564.573	-49.703	0.305	-0.147
-563.558	-200.000	0.012	0.170
-562.544	-200.000	-0.007	0.106
-561.529	-129.894	-0.319	-0.044
-560.515	54.066	-0.244	-0.238
-559.500	252.852	-0.034	-0.060
-558.485	162.180	-0.109	-0.155
-557.471	197.233	-0.044	-0.069
-556.456	-139.544	0.168	-0.018
-555.442	-80.857	-0.262	0.088
-554.427	-153.537	-0.514	0.036
-553.412	-105.552	-0.353	0.081
-552.398	451.045	-0.165	-0.371
-551.383	-37.060	0.184	-0.100
-550.369	192.836	-0.185	0.284
-549.354	145.506	-0.118	0.160
-548.339	-200.000	0.005	0.220
-547.325	93.826	0.213	0.245
-546.310	147.967	-0.224	-0.307
-545.296	378.369	-0.124	-0.258
-544.281	-5.665	0.093	-0.065
-543.266	285.923	0.187	0.342
-542.252	-200.000	0.030	0.191
-541.237	155.738	-0.050	0.070
-540.223	800.000	0.023	-0.079
-539.208	242.645	0.095	0.162
-538.193	-91.482	-0.254	-0.074
-537.179	-200.000	0.006	0.149
-536.164	-200.000	0.005	-0.156
-535.150	-26.624	-0.287	-0.171
-534.135	80.129	-0.135	-0.147
-533.121	325.988	0.140	-0.272
-532.106	-200.000	0.004	-0.035
-531.091	234.646	-0.084	-0.140
-530.077	114.272	0.143	0.177
-529.062	800.000	0.057	0.161
-528.048	35.583	-0.121	-0.108
-527.033	-92.556	0.302	-0.086
-526.018	1.985	-0.227	-0.166
-525.004	145.266	-0.048	-0.065
-523.989	-95.813	0.443	-0.120
-522.975	800.000	-0.065	-0.227
-521.960	68.928	0.166	-0.173
-520.945	-200.000	0.002	0.059
-519.931	533.231	0.115	-0.277
-518.916	153.934	-0.067	-0.093
-517.902	-2.216	0.044	0.031
-516.887	-55.128	-0.245	0.112
-515.872	249.079	-0.021	-0.036
-514.858	3.240	0.203	-0.150
-513.843	-65.972	-0.371	0.150
-512.829	3.250	0.061	-0.045
-511.814	-200.000	0.013	0.263
-510.799	432.456	0.037	-0.082
-509.785	-200.000	-0.017	0.131
-508.770	-200.000	0.075	-0.342
-507.756	-200.000	0.022	0.277
-506.741	-135.526	-0.120	0.015
-505.726	389.611	-0.174	0.365
-504.712	-10.723	0.039	0.026
-503.697	82.116	0.186	0.204
-502.683	-200.000	-0.035	-0.309
-501.668	-112.320	0.104	0.021
-500.653	800.000	0.071	-0.279
-499.639	27.200	0.043	-0.037
-498.624	-200.000	-0.059	0.266
-497.610	-46.149	0.223	0.111
-496.595	383.462	0.117	0.244
-495.581	326.186	0.103	0.200
-494.566	5.471	-0.082	0.061
-493.551	199.658	-0.134	-0.209
-492.537	-32.234	-0.249	0.141
-491.522	-90.042	0.324	-0.096
-490.508	-200.000	-0.047	0.284
-489.493	-80.097	0.271	-0.092
-488.478	-132.756	-0.049	0.006
-487.464	800.000	0.043	-0.161
-486.449	327.648	0.171	-0.332
-485.435	800.000	0.120	-0.360
-484.420	-143.856	0.059	-0.006
-483.405	145.836	0.064	0.087
-482.391	-181.696	-0.191	-0.004
-481.376	98.068	-0.122	-0.142
-480.362	115.997	-0.106	-0.132
-479.347	-200.000	0.029	0.192
-478.332	60.941	-0.147	0.147
-477.318	-200.000	0.029	0.180
-476.303	-43.765	0.389	-0.198
-475.289	-123.321	-0.252	0.041
-474.274	261.964	0.122	0.214
-473.259	310.024	-0.174	0.330
-472.245	-200.000	-0.009	0.173
-471.230	-132.890	-0.257	-0.033
-470.216	685.387	-0.119	-0.313
-469.201	-56.176	0.329	-0.148
-468.186	-20.264	-0.321	0.200
-467.172	-200.000	0.001	0.334
-466.157	-200.000	0.004	-0.099
-465.143	51.151	-0.193	-0.185
-464.128	-57.528	-0.174	0.077
-463.113	15.290	0.263	0.209
-462.099	67.015	-0.065	-0.067
-461.084	8.568	-0.141	-0.108
-460.070	452.954	0.112	-0.251
-459.055	-89.916	0.189	0.056
-458.040	222.647	0.054	-0.089
-457.026	466.936	0.087	-0.197
-456.011	109.717	-0.025	0.030
-454.997	-200.000	0.000	-0.006
-453.982	15.473	0.301	0.239
-452.968	15.869	0.118	0.094
-451.953	-200.000	0.027	0.227
-450.938	-111.006	0.360	0.075
-449.924	197.423	-0.086	-0.133
-448.909	-34.623	-0.154	0.085
-447.895	353.653	0.138	0.277
-446.880	390.346	0.116	0.243
-445.865	8.414	-0.179	0.136
-444.851	-200.000	-0.011	-0.109
-443.836	800.000	0.063	-0.193
-442.822	249.476	0.139	0.238
-441.807	-200.000	-0.324	0.002
-440.792	800.000	0.040	-0.133
-439.778	800.000	-0.015	0.059
-438.763	199.646	-0.088	0.136
-437.749	-101.825	-0.211	0.052
-436.734	20.246	-0.042	0.035
-435.719	169.130	0.156	0.225
-434.705	14.433	-0.271	0.214
-433.690	800.000	0.119	-0.368
-432.676	556.460	-0.098	-0.238
-431.661	-43.012	-0.251	-0.129
-430.646	646.065	-0.044	-0.114
-429.632	-91.680	0.212	-0.061
-428.617	800.000	0.032	0.093
-427.603	44.273	-0.101	-0.094
-426.588	-200.000	0.013	0.182
-425.573	-106.788	-0.261	-0.058
-424.559	-11.284	0.168	-0.112
-423.544	436.436	-0.094	-0.206
-422.530	800.000	-0.039	-0.136
-421.515	-117.861	0.258	-0.047
-420.500	79.594	-0.134	-0.145
-419.486	271.865	0.084	0.149
-418.471	-69.467	-0.211	-0.082
-417.457	660.357	-0.081	0.209
-416.442	-47.338	-0.064	0.031
-415.428	800.000	-0.106	0.356
-414.413	-200.000	0.022	-0.429
-413.398	-200.000	-0.009	-0.203
-412.384	424.692	0.030	-0.064
-411.369	-157.780	0.215	0.013
-410.355	684.720	0.116	0.305
-409.340	-22.842	-0.153	0.093
-408.325	-200.000	-0.047	-0.555
-407.311	-200.000	-0.004	0.107
-406.296	-200.000	-0.008	-0.155
-405.282	2.751	-0.111	-0.081
-404.267	75.147	0.114	0.121
-403.252	-200.000	0.029	0.291
-402.238	40.026	-0.185	-0.168
-401.223	51.027	-0.184	-0.176
-400.209	220.670	0.177	-0.287
-399.194	436.893	-0.140	0.307
-398.179	-19.852	-0.158	0.098
-397.165	210.545	-0.029	-0.046
-396.150	-200.000	-0.003	-0.164
-395.136	70.952	0.061	-0.064
-394.121	800.000	-0.025	-0.071
-393.106	41.546	0.089	0.081
-392.092	574.419	-0.136	-0.335
-391.077	-86.791	-0.162	0.050
-390.063	-200.000	-0.026	0.290
-389.048	800.000	0.105	0.318
-388.033	-100.163	-0.200	0.050
-387.019	-56.508	-0.057	0.026
-386.004	207.916	0.094	-0.149
-384.990	800.000	-0.087	-0.345
-383.975	118.581	0.185	-0.230
-382.960	-173.254	-0.222	0.007
-381.946	-98.422	0.285	0.074
-380.931	-35.611	-0.152	-0.083
-379.917	24.805	0.119	0.099
-378.902	-198.684	0.265	-0.001
-377.888	-142.279	-0.314	-0.031
-376.873	-87.364	-0.356	0.109
-375.858	-80.087	-0.149	-0.050
-374.844	-49.726	-0.142	-0.068
-373.829	-161.148	0.133	0.007
-372.815	784.939	-0.046	0.126
-371.800	672.333	-0.055	-0.143
-370.785	23.987	0.192	0.159
-369.771	-47.786	0.050	-0.024
-368.756	-200.000	0.001	-0.143
-367.742	37.212	-0.180	-0.161
-366.727	-139.324	0.399	0.043
-365.712	800.000	0.067	0.273
-364.698	121.671	0.190	0.239
-363.683	15.971	-0.094	0.075
-362.669	-200.000	0.035	-0.222
-361.654	-0.276	0.155	0.111
-360.639	-82.206	-0.082	-0.027
-359.625	24.733	0.047	-0.039
-358.610	-178.739	-0.123	-0.003
-357.596	146.069	-0.271	0.366
-356.581	-93.228	0.317	0.089
-355.566	14.372	-0.120	-0.094
-354.552	-104.683	-0.279	0.065
-353.537	-63.393	-0.187	0.077
-352.523	86.500	-0.204	0.227
-351.508	-116.071	0.214	-0.040
-350.493	91.639	-0.042	-0.048
-349.479	-143.096	-0.063	0.006
-348.464	696.207	0.072	0.190
-347.450	-186.002	0.177	-0.003
-346.435	305.039	-0.049	0.093
-345.420	-130.594	0.148	0.020
-344.406	4.768	0.146	-0.108
-343.391	-172.763	-0.143	0.004
-342.377	-200.000	0.005	-0.134
-341.362	800.000	-0.036	-0.138
-340.348	-96.243	-0.072	-0.019
-339.333	-58.287	-0.180	0.079
-338.318	61.458	-0.165	0.165
-337.304	137.772	0.266	0.350
-336.289	110.721	-0.328	-0.397
-335.275	23.117	0.098	0.081
-334.260	97.621	0.089	-0.102
-333.245	-51.574	0.220	0.103
-332.231	52.942	0.159	0.153
-331.216	800.000	0.008	-0.037
-330.202	245.216	0.111	-0.188
-329.187	163.113	-0.239	-0.338
-328.172	-52.576	-0.037	-0.017
-327.158	97.148	0.166	-0.191
-326.143	-49.280	0.281	0.135
-325.129	387.788	0.091	0.190
-324.114	-200.000	-0.002	-0.145
-323.099	-200.000	-0.020	-0.151
-322.085	136.817	0.180	-0.237
-321.070	150.704	0.058	-0.079
-320.056	-16.523	-0.084	0.053
-319.041	187.610	0.148	0.222
-318.026	550.144	-0.062	-0.148
-317.012	-200.000	0.002	0.081
-315.997	-200.000	0.007	-0.325
-314.983	342.914	-0.154	0.303
-313.968	-200.000	-0.081	0.360
-312.953	30.233	0.029	-0.025
-311.939	345.754	-0.051	-0.100
-310.924	635.617	-0.079	-0.201
-309.910	-47.833	0.345	0.168
-308.895	-200.000	0.042	0.214
-307.880	800.000	-0.115	0.433
-306.866	-52.060	0.105	0.049
-305.851	-140.383	-0.334	0.035
-304.837	-144.420	-0.317	0.030
-303.822	-120.165	0.188	0.032
-302.807	-92.811	-0.191	-0.054
-301.793	192.606	0.162	0.246
-300.778	-116.130	0.065	0.012
-299.764	-191.054	-0.285	-0.003
-298.749	143.912	-0.033	-0.044
-297.735	800.000	0.141	-0.469
-296.720	-200.000	-0.031	-0.194
-295.705	800.000	-0.119	0.424
-294.691	-156.955	0.186	0.011
-293.676	-71.157	0.075	-0.028
-292.662	800.000	0.081	0.323
-291.647	-200.000	0.008	0.172
-290.632	95.822	0.172	0.198
-289.618	709.221	0.137	-0.365
-288.603	186.536	-0.094	0.141
-287.589	204.127	0.148	0.231
-286.574	-200.000	0.011	0.228
-285.559	-66.008	0.264	-0.106
-284.545	597.297	0.057	0.141
-283.530	-62.137	0.340	-0.142
-282.516	117.032	0.281	-0.347
-281.501	-132.575	-0.292	-0.038
-280.486	-58.824	-0.194	0.084
-279.472	-139.176	-0.312	0.034
-278.457	18.097	-0.174	-0.139
-277.443	800.000	-0.101	0.375
-276.428	-169.800	-0.077	-0.003
-275.413	-200.000	-0.042	0.243
-274.399	-176.974	-0.137	0.003
-273.384	-200.000	0.024	-0.186
-272.370	15.283	0.187	0.147
-271.355	-33.056	-0.192	-0.107
-270.340	-56.520	0.200	0.089
-269.326	80.545	0.255	-0.276
-268.311	236.102	-0.066	-0.110
-267.297	-143.545	-0.130	0.012
-266.282	-200.000	-0.011	0.066
-265.267	51.623	-0.014	-0.014
-264.253	-52.540	0.053	-0.025
-263.238	151.874	0.150	-0.206
-262.224	-104.003	-0.195	-0.046
-261.209	256.996	0.102	0.176
-260.195	782.235	0.166	0.457
-259.180	-74.497	-0.129	0.047
-258.165	77.614	-0.208	0.223
-257.151	-18.267	-0.099	-0.062
-256.136	76.633	0.262	-0.279
-255.122	-57.776	-0.098	0.043
-254.107	-26.728	0.123	-0.072
-253.092	569.983	0.156	0.382
-252.078	800.000	-0.046	-0.137
-251.063	403.104	-0.051	-0.108
-250.049	6.463	0.109	-0.081
-249.034	23.039	-0.214	-0.176
-248.019	-91.018	-0.314	-0.090
-247.005	800.000	0.141	-0.452
-245.990	104.769	0.226	-0.267
-244.976	-200.000	-0.055	-0.248
-243.961	800.000	-0.104	0.372
-242.946	256.607	0.257	-0.443
-241.932	-169.010	0.332	-0.012
-240.917	48.321	-0.047	-0.044
-239.903	-26.289	-0.024	0.014
-238.888	288.086	0.094	0.171
-237.873	269.286	-0.183	0.322
-236.859	-200.000	0.021	0.100
-235.844	41.592	-0.230	-0.209
-234.830	-65.995	0.029	-0.012
-233.815	800.000	-0.078	-0.285
-232.800	52.005	0.242	-0.232
-231.786	170.481	0.261	0.375
-230.771	440.452	-0.039	0.086
-229.757	800.000	0.074	0.270
-228.742	-143.788	0.282	-0.027
-227.727	-10.685	-0.194	-0.129
-226.713	505.989	0.149	-0.347
-225.698	-200.000	-0.053	0.292
-224.684	-121.868	0.087	0.014
-223.669	158.616	0.073	-0.101
-222.655	-200.000	0.036	0.216
-221.640	-85.824	-0.132	-0.041
-220.625	10.459	0.222	-0.169
-219.611	-101.431	0.308	0.075
-218.596	-64.603	0.182	0.074
-217.582	2.823	0.079	-0.058
-216.567	110.728	-0.085	0.102
-215.552	330.722	0.048	-0.093
-214.538	549.948	0.076	-0.182
-213.523	-102.167	-0.149	-0.036
-212.509	-200.000	-0.008	-0.039
-211.494	57.585	-0.144	-0.141
-210.479	-109.716	0.171	0.036
-209.465	1.739	0.068	-0.049
-208.450	-51.516	-0.068	-0.032
-207.436	100.051	0.017	-0.020
-206.421	12.779	0.200	-0.155
-205.406	172.651	0.258	0.372
-204.392	-200.000	0.008	-0.317
-203.377	-108.806	-0.234	-0.050
-202.363	-41.758	0.288	0.148
-201.348	-176.023	0.379	-0.010
-200.333	-79.168	0.112	-0.038
-199.319	-81.095	-0.231	-0.077
-198.304	-52.072	-0.043	-0.020
-197.290	800.000	-0.176	-0.517
-196.275	-200.000	0.005	0.160
-195.260	-200.000	-0.014	-0.093
-194.246	60.967	0.055	-0.054
-193.231	13.840	0.274	0.213
-192.217	-200.000	0.005	0.120
-191.202	-180.613	0.185	-0.004
-190.187	162.961	-0.117	0.165
-189.173	237.072	-0.104	0.173
-188.158	-142.335	0.101	0.010
-187.144	11.998	-0.285	0.219
-186.129	-200.000	-0.018	-0.097
-185.114	800.000	0.110	0.374
-184.100	576.438	-0.082	0.201
-183.085	-0.822	-0.084	0.060
-182.071	800.000	0.056	-0.161
-181.056	17.197	0.167	0.132
-180.042	528.588	-0.182	0.430
-179.027	362.933	-0.149	0.299
-178.012	-200.000	-0.022	0.105
-176.998	144.685	0.091	-0.122
-175.983	56.770	0.015	0.014
-174.969	171.169	0.091	0.130
-173.954	-200.000	-0.014	-0.183
-172.939	21.210	0.155	-0.126
-171.925	68.145	0.157	0.160
-170.910	257.014	-0.103	0.177
-169.896	-87.093	0.376	0.114
-168.881	202.448	-0.067	-0.104
-167.866	-200.000	0.023	0.169
-166.852	26.198	0.151	0.126
-165.837	-200.000	0.064	0.297
-164.823	-53.574	-0.108	0.049
-163.808	-48.902	-0.132	0.063
-162.793	-92.584	0.055	0.015
-161.779	377.326	-0.189	0.386
-160.764	393.619	0.228	-0.475
-159.750	56.876	0.339	-0.331
-158.735	-200.000	-0.040	0.240
-157.720	81.995	-0.081	0.088
-156.706	-82.744	-0.059	0.019
-155.691	800.000	-0.057	-0.203
-154.677	-17.035	-0.176	0.111
-153.662	-46.968	-0.118	0.058
-152.647	-66.179	-0.284	-0.113
-151.633	800.000	-0.030	0.127
-150.618	51.754	-0.088	-0.084
-149.604	75.290	0.218	0.229
-148.589	676.050	0.134	0.348
-147.574	-177.164	-0.340	-0.008
-146.560	-15.438	0.055	0.035
-145.545	-74.908	-0.152	-0.054
-144.531	-96.477	0.135	-0.036
-143.516	662.596	-0.120	-0.310
-142.502	79.524	-0.141	0.151
-141.487	-200.000	-0.038	0.233
-140.472	54.895	0.175	0.169
-139.458	553.459	0.099	-0.238
-138.443	800.000	-0.004	-0.016
-137.429	251.071	-0.165	0.279
-136.414	182.750	0.279	-0.411
-135.399	-157.958	-0.259	0.015
-134.385	800.000	0.115	0.386
-133.370	39.673	0.213	0.191
-132.356	297.879	0.068	0.126
-131.341	-102.463	0.258	-0.062
-130.326	-35.357	0.315	0.171
-129.312	102.484	0.119	-0.139
-128.297	754.795	-0.050	-0.136
-127.283	7.254	0.018	-0.013
-126.268	-128.062	-0.277	0.040
-125.253	-200.000	0.006	-0.196
-124.239	115.832	-0.092	-0.113
-123.224	-9.524	0.206	-0.137
-122.210	102.053	-0.141	-0.164
-121.195	-49.776	-0.198	-0.094
