DTS Sentinel unit serial number:	SN413079Multiplexer serial number:	ORYXHardware model number:	OX4-SRSoftware version number:	ORYX F/W v4.00 Oryx Data Collector v3.7.2.0data status	okinstallation	princeton_trtdifferential loss correction	single-endedforward channel	channel 1reverse channel	N/Adate	2019/09/10time	20:16:11forward acquisition time	60.00reverse acquisition time	0.00gamma	496.2192k internal	0.2326k external	0.2326temperature offset calibration	0.9934default loss term (dB/km)	0.3790temperature slope calibration	1.0000multiplexer offset coefficient	1.0000multiplexer slope coefficient	1.0000fibre end	0.00T internal ref (°C)	32.28T ext. ref 1 (°C)	-0.31T ext. ref 2 (°C)	25.34length (m)	temperature (°C)	Stokes	anti-Stokes-747.200	631.281	-0.052	0.133
-746.185	36.050	0.267	0.237
-745.171	21.382	0.250	-0.205
-744.156	800.000	-0.053	0.179
-743.142	71.362	-0.121	-0.126
-742.127	-200.000	-0.009	-0.074
-741.112	-118.334	-0.448	-0.080
-740.098	-53.305	-0.168	0.078
-739.083	371.672	0.079	-0.162
-738.069	-118.754	0.149	0.026
-737.054	281.770	0.184	0.332
-736.039	-76.477	-0.317	0.112
-735.025	-200.000	0.009	0.185
-734.010	-150.632	-0.117	0.009
-732.996	-200.000	0.082	-0.405
-731.981	-159.978	-0.366	0.020
-730.966	431.824	-0.091	-0.199
-729.952	132.925	-0.143	-0.186
-728.937	-64.330	-0.106	-0.044
-727.923	-153.838	-0.165	0.011
-726.908	438.269	-0.085	-0.188
-725.894	-107.793	-0.317	-0.070
-724.879	-151.636	0.087	-0.006
-723.864	-53.586	0.261	-0.120
-722.850	-130.177	-0.070	-0.010
-721.835	433.162	-0.075	-0.164
-720.821	-3.616	-0.036	0.025
-719.806	-146.512	-0.312	0.027
-718.791	-200.000	0.001	-0.198
-717.777	-7.098	0.251	-0.172
-716.762	-200.000	-0.024	-0.242
-715.748	756.853	-0.054	0.148
-714.733	68.618	0.267	-0.276
-713.718	-200.000	0.013	-0.119
-712.704	148.309	-0.064	-0.087
-711.689	-60.906	-0.176	0.075
-710.675	-91.312	0.310	0.089
-709.660	-88.795	-0.172	-0.051
-708.645	-48.931	0.182	0.088
-707.631	-30.964	-0.241	-0.137
-706.616	3.269	0.180	0.132
-705.602	-76.111	-0.197	-0.070
-704.587	518.684	-0.085	-0.201
-703.572	-13.339	-0.190	0.124
-702.558	644.063	0.082	0.211
-701.543	800.000	0.072	-0.209
-700.529	-26.820	-0.365	0.215
-699.514	-84.290	-0.127	-0.040
-698.499	788.083	0.068	0.189
-697.485	325.417	-0.144	-0.277
-696.470	-59.161	0.244	-0.106
-695.456	-37.479	0.126	-0.068
-694.441	76.055	0.146	0.155
-693.426	-46.193	0.178	-0.088
-692.412	-30.659	-0.071	-0.040
-691.397	-106.544	-0.223	-0.050
-690.383	12.435	0.211	0.163
-689.368	610.202	-0.032	0.081
-688.354	-101.253	-0.101	-0.025
-687.339	-200.000	0.002	0.040
-686.324	-50.979	0.371	0.175
-685.310	306.548	0.129	-0.242
-684.295	93.526	0.066	0.075
-683.281	-200.000	-0.005	-0.105
-682.266	-101.832	0.321	-0.078
-681.251	-117.045	-0.232	0.043
-680.237	-124.680	0.160	-0.025
-679.222	-200.000	0.021	0.124
-678.208	-95.673	-0.221	0.059
-677.193	-84.899	-0.181	-0.057
-676.178	-200.000	-0.035	-0.246
-675.164	-174.609	0.258	0.007
-674.149	-81.258	0.302	0.100
-673.135	-42.231	-0.424	-0.218
-672.120	-144.855	-0.180	-0.017
-671.105	-200.000	-0.040	-0.191
-670.091	-62.351	-0.285	-0.120
-669.076	-158.893	-0.041	0.002
-668.062	-92.750	-0.229	0.065
-667.047	161.227	-0.112	-0.158
-666.032	260.860	-0.040	-0.069
-665.018	304.538	-0.061	-0.114
-664.003	-52.115	-0.107	0.050
-662.989	-71.087	0.188	-0.071
-661.974	253.332	-0.093	-0.160
-660.959	226.001	-0.020	-0.033
-659.945	-200.000	0.028	-0.455
-658.930	62.022	-0.168	-0.169
-657.916	-200.000	-0.059	-0.304
-656.901	6.538	-0.106	-0.080
-655.886	22.526	0.134	-0.110
-654.872	605.737	-0.054	-0.135
-653.857	-92.609	0.098	-0.028
-652.843	-200.000	0.031	-0.345
-651.828	-200.000	-0.060	-0.298
-650.814	72.234	-0.185	0.193
-649.799	-141.637	-0.133	-0.013
-648.784	-200.000	-0.015	0.099
-647.770	151.602	-0.236	0.323
-646.755	80.933	-0.234	-0.253
-645.741	65.798	-0.097	-0.099
-644.726	435.620	-0.067	0.147
-643.711	44.459	0.283	0.261
-642.697	121.797	-0.183	-0.229
-641.682	0.652	-0.281	0.202
-640.668	-15.370	0.197	0.127
-639.653	-163.216	0.451	-0.022
-638.638	-200.000	0.032	0.189
-637.624	-155.580	0.128	-0.008
-636.609	-33.868	-0.312	-0.172
-635.595	172.369	-0.155	-0.225
-634.580	269.251	0.085	-0.150
-633.565	800.000	-0.021	-0.062
-632.551	175.881	0.105	0.152
-631.536	-130.898	-0.246	0.033
-630.522	715.577	-0.080	-0.212
-629.507	-76.713	-0.375	-0.132
-628.492	-141.229	-0.240	-0.024
-627.478	125.607	-0.066	0.084
-626.463	135.179	-0.068	0.089
-625.449	800.000	0.068	-0.288
-624.434	13.794	-0.108	0.084
-623.419	800.000	0.063	0.243
-622.405	77.918	0.023	-0.024
-621.390	800.000	0.058	0.207
-620.376	800.000	-0.059	0.236
-619.361	800.000	0.031	-0.133
-618.346	6.994	-0.091	0.068
-617.332	-50.626	-0.477	-0.226
-616.317	116.463	-0.250	-0.308
-615.303	-63.946	-0.312	-0.128
-614.288	-105.404	0.059	-0.014
-613.273	-200.000	-0.000	0.166
-612.259	-162.699	0.171	0.008
-611.244	800.000	-0.080	-0.335
-610.230	36.835	-0.308	-0.273
-609.215	181.176	-0.162	0.239
-608.201	-18.393	-0.271	0.170
-607.186	0.784	0.036	0.026
-606.171	440.343	0.178	-0.391
-605.157	-66.993	0.255	-0.101
-604.142	64.055	-0.271	-0.274
-603.128	70.157	-0.120	-0.125
-602.113	-152.319	0.098	0.007
-601.098	-97.318	0.124	-0.032
-600.084	800.000	-0.014	0.039
-599.069	-200.000	-0.015	0.146
-598.055	77.910	-0.155	0.166
-597.040	82.354	0.069	-0.076
-596.025	-46.904	0.181	-0.089
-595.011	364.410	-0.121	-0.245
-593.996	1.234	-0.094	-0.067
-592.982	800.000	-0.020	0.077
-591.967	-200.000	0.122	0.537
-590.952	531.213	-0.042	0.100
-589.938	800.000	0.045	0.142
-588.923	-21.415	0.365	0.223
-587.909	35.201	-0.267	-0.235
-586.894	-109.972	0.020	-0.004
-585.879	-46.487	0.346	0.170
-584.865	-87.583	-0.284	0.086
-583.850	733.229	-0.178	0.477
-582.836	0.164	-0.253	-0.181
-581.821	-200.000	0.015	0.079
-580.806	60.196	-0.183	-0.181
-579.792	800.000	0.073	-0.245
-578.777	-85.944	0.272	0.084
-577.763	-112.142	0.433	-0.087
-576.748	-8.099	0.089	0.060
-575.733	-119.047	0.186	0.033
-574.719	-133.307	0.080	0.010
-573.704	-3.038	-0.260	-0.182
-572.690	-71.939	-0.172	-0.064
-571.675	800.000	0.028	-0.090
-570.661	-200.000	-0.003	-0.133
-569.646	0.531	-0.114	-0.082
-568.631	101.873	-0.090	0.106
-567.617	29.908	0.163	0.139
-566.602	-25.719	-0.492	0.291
-565.588	592.455	0.148	-0.367
-564.573	115.915	-0.142	-0.174
-563.558	-36.548	-0.336	0.181
-562.544	131.540	-0.262	-0.337
-561.529	85.741	-0.060	0.067
-560.515	8.774	-0.074	0.056
-559.500	-41.806	-0.109	0.056
-558.485	83.404	0.392	0.427
-557.471	440.791	0.056	-0.123
-556.456	-120.182	-0.053	0.009
-555.442	-101.834	0.062	0.015
-554.427	-167.327	0.447	-0.018
-553.412	-141.274	0.489	0.050
-552.398	-66.708	-0.287	-0.114
-551.383	-147.992	0.237	0.020
-550.369	126.976	0.161	0.204
-549.354	235.116	-0.061	0.100
-548.339	-175.852	-0.120	-0.003
-547.325	74.484	0.196	-0.206
-546.310	-126.422	-0.202	-0.030
-545.296	31.238	-0.342	0.294
-544.281	177.782	-0.141	-0.205
-543.266	-85.526	-0.188	0.058
-542.252	-200.000	-0.033	0.276
-541.237	-1.451	-0.175	0.124
-540.223	-200.000	-0.022	-0.162
-539.208	583.662	-0.070	-0.173
-538.193	2.459	0.115	-0.083
-537.179	-200.000	0.025	0.125
-536.164	-200.000	-0.068	-0.300
-535.150	-89.398	-0.060	-0.018
-534.135	103.539	-0.056	0.066
-533.121	21.632	0.162	-0.132
-532.106	-86.091	0.180	-0.056
-531.091	-158.020	-0.174	-0.010
-530.077	624.846	-0.063	0.158
-529.062	800.000	-0.037	0.105
-528.048	-196.971	0.334	-0.002
-527.033	-115.518	0.217	-0.041
-526.018	293.083	-0.173	-0.316
-525.004	800.000	-0.121	0.426
-523.989	-18.074	0.091	0.057
-522.975	65.730	0.156	-0.158
-521.960	-158.019	-0.233	0.014
-520.945	-200.000	0.045	-0.212
-519.931	-200.000	0.017	-0.263
-518.916	205.925	0.201	0.312
-517.902	-160.578	0.232	-0.012
-516.887	-200.000	-0.013	-0.391
-515.872	433.096	0.095	0.206
-514.858	-88.450	0.110	-0.033
-513.843	455.756	-0.040	-0.088
-512.829	-18.977	0.050	0.031
-511.814	-111.945	0.082	0.017
-510.799	-145.462	0.139	-0.012
-509.785	351.571	-0.068	-0.134
-508.770	-53.720	-0.061	0.028
-507.756	-158.681	-0.325	-0.019
-506.741	-58.630	0.235	0.102
-505.726	-200.000	-0.002	0.098
-504.712	-200.000	-0.011	-0.114
-503.697	350.785	-0.138	0.273
-502.683	-200.000	-0.011	-0.162
-501.668	-32.182	0.034	-0.019
-500.653	-176.437	0.156	-0.004
-499.639	76.463	0.157	0.166
-498.624	562.774	0.059	0.144
-497.610	484.953	0.121	-0.275
-496.595	300.777	0.107	-0.197
-495.581	-145.038	-0.211	-0.019
-494.566	-43.089	0.288	0.146
-493.551	727.221	-0.084	0.225
-492.537	-147.265	0.052	0.004
-491.522	-200.000	-0.024	-0.124
-490.508	-116.868	-0.286	0.052
-489.493	-103.837	-0.263	0.061
-488.478	174.785	-0.156	-0.226
-487.464	-97.306	-0.169	0.044
-486.449	-107.613	-0.110	-0.024
-485.435	23.310	0.190	-0.156
-484.420	299.854	-0.190	-0.350
-483.405	102.621	0.023	-0.027
-482.391	191.523	0.178	0.268
-481.376	799.563	-0.082	-0.227
-480.362	109.630	-0.060	-0.072
-479.347	118.879	0.079	0.098
-478.332	-41.736	0.371	-0.190
-477.318	-130.806	-0.335	-0.045
-476.303	800.000	0.030	0.089
-475.289	800.000	-0.046	0.197
-474.274	800.000	0.058	-0.255
-473.259	-200.000	0.008	-0.073
-472.245	-78.511	0.275	-0.094
-471.230	-200.000	0.048	0.240
-470.216	-89.436	-0.416	-0.122
-469.201	-103.989	0.318	0.074
-468.186	89.314	-0.101	-0.113
-467.172	-92.908	0.228	-0.064
-466.157	-73.500	0.402	0.146
-465.143	800.000	0.045	-0.133
-464.128	425.539	-0.043	0.093
-463.113	-24.367	0.115	0.068
-462.099	66.833	-0.107	0.108
-461.084	800.000	-0.031	0.115
-460.070	-58.821	-0.107	-0.046
-459.055	10.028	0.094	0.071
-458.040	800.000	0.070	-0.208
-457.026	-148.030	0.401	-0.033
-456.011	-200.000	-0.012	-0.122
-454.997	707.881	0.110	0.291
-453.982	-200.000	0.011	-0.110
-452.968	-28.035	0.329	0.190
-451.953	-200.000	0.055	0.360
-450.938	-62.955	-0.119	-0.049
-449.924	-122.755	-0.190	-0.031
-448.909	36.991	-0.144	0.127
-447.895	-87.657	0.250	0.075
-446.880	800.000	0.049	-0.176
-445.865	-200.000	-0.070	-0.470
-444.851	-62.847	0.166	-0.068
-443.836	220.280	0.237	-0.379
-442.822	182.599	-0.134	-0.197
-441.807	800.000	-0.066	0.242
-440.792	-88.561	0.112	-0.033
-439.778	37.736	0.109	0.097
-438.763	46.242	-0.169	-0.156
-437.749	800.000	0.014	0.054
-436.734	-113.505	-0.077	0.015
-435.719	-200.000	0.038	0.329
-434.705	800.000	0.067	0.239
-433.690	-111.267	-0.266	0.054
-432.676	5.683	0.120	0.088
-431.661	426.920	-0.129	-0.278
-430.646	7.957	-0.175	-0.131
-429.632	-49.162	-0.261	-0.124
-428.617	108.728	-0.114	0.135
-427.603	103.999	0.184	0.216
-426.588	99.152	0.257	-0.296
-425.573	-134.509	-0.292	0.036
-424.559	-74.377	0.180	-0.065
-423.544	-117.435	-0.295	-0.053
-422.530	-200.000	-0.071	-0.344
-421.515	-42.213	-0.083	0.042
-420.500	223.043	-0.094	0.151
-419.486	42.409	0.111	0.100
-418.471	-64.948	-0.067	0.027
-417.457	-106.086	0.198	0.044
-416.442	-98.666	0.077	-0.020
-415.428	-159.350	-0.221	0.012
-414.413	-186.982	0.069	0.001
-413.398	800.000	-0.120	-0.351
-412.384	-174.613	0.071	-0.002
-411.369	-96.237	0.316	-0.084
-410.355	-200.000	-0.001	-0.207
-409.340	93.394	-0.082	0.093
-408.325	-57.424	0.200	0.088
-407.311	448.746	0.091	0.201
-406.296	-200.000	-0.005	0.027
-405.282	192.142	-0.079	-0.118
-404.267	-36.183	0.172	0.092
-403.252	-42.825	-0.078	0.039
-402.238	58.157	-0.161	-0.157
-401.223	-117.952	0.256	0.046
-400.209	-200.000	-0.010	0.184
-399.194	183.987	-0.126	-0.186
-398.179	800.000	0.087	0.241
-397.165	-23.679	-0.168	0.100
-396.150	112.089	-0.078	-0.093
-395.136	-118.999	-0.130	0.023
-394.121	-58.876	-0.230	0.099
-393.106	-0.602	-0.206	-0.145
-392.092	-11.851	-0.253	0.165
-391.077	565.001	0.068	-0.164
-390.063	425.736	0.101	-0.216
-389.048	-200.000	0.008	-0.123
-388.033	-200.000	0.028	-0.200
-387.019	800.000	0.071	-0.209
-386.004	800.000	0.063	-0.251
-384.990	-8.855	0.143	-0.095
-383.975	142.403	-0.037	-0.048
-382.960	-200.000	0.052	0.394
-381.946	-82.546	-0.104	-0.034
-380.931	-200.000	-0.047	0.212
-379.917	259.915	-0.072	0.123
-378.902	191.574	0.152	-0.228
-377.888	55.752	-0.188	-0.181
-376.873	-88.610	-0.184	-0.055
-375.858	84.207	0.069	0.075
-374.844	-33.273	-0.063	0.035
-373.829	-77.986	-0.231	0.079
-372.815	-7.361	0.265	0.179
-371.800	84.406	0.390	-0.424
-370.785	-103.293	0.288	0.068
-369.771	62.381	-0.119	-0.118
-368.756	130.171	0.138	0.176
-367.742	-66.958	0.128	-0.050
-366.727	15.697	0.312	-0.243
-365.712	-123.526	0.094	0.015
-364.698	-200.000	-0.002	0.059
-363.683	35.321	0.301	-0.262
-362.669	-200.000	0.399	0.002
-361.654	-1.673	-0.200	-0.140
-360.639	311.302	0.096	0.179
-359.625	110.183	-0.097	0.116
-358.610	-200.000	-0.003	-0.046
-357.596	-200.000	-0.010	-0.094
-356.581	566.517	0.023	0.056
-355.566	-168.603	0.253	0.010
-354.552	497.109	-0.121	0.276
-353.537	434.346	-0.058	-0.126
-352.523	-71.090	-0.176	0.066
-351.508	139.255	0.184	-0.240
-350.493	0.468	-0.153	-0.109
-349.479	-152.878	-0.267	-0.019
-348.464	-200.000	0.076	-0.366
-347.450	81.813	0.075	0.081
-346.435	-64.649	0.115	0.046
-345.420	-126.424	-0.378	0.056
-344.406	-121.971	0.261	0.043
-343.391	800.000	-0.080	0.334
-342.377	440.671	0.116	0.253
-341.362	-200.000	0.001	0.080
-340.348	203.030	0.267	0.410
-339.333	57.090	-0.145	0.141
-338.318	-45.872	-0.122	-0.060
-337.304	-105.192	0.441	0.100
-336.289	-96.093	-0.166	0.044
-335.275	-142.132	-0.250	0.025
-334.260	140.580	-0.145	0.190
-333.245	-87.823	0.154	0.046
-332.231	-102.301	-0.237	0.056
-331.216	37.928	-0.217	0.191
-330.202	36.795	-0.145	0.127
-329.187	178.111	-0.137	0.198
-328.172	-106.630	-0.215	0.048
-327.158	800.000	0.020	-0.066
-326.143	-26.280	-0.085	0.049
-325.129	-77.024	0.128	-0.044
-324.114	-200.000	0.033	-0.148
-323.099	158.953	-0.194	-0.268
-322.085	34.656	-0.062	-0.054
-321.070	103.503	0.067	-0.078
-320.056	373.059	-0.184	-0.370
-319.041	-172.694	0.113	-0.004
-318.026	-141.503	0.121	0.012
-317.012	551.780	-0.011	-0.025
-315.997	-7.012	0.158	-0.106
-314.983	-162.533	-0.044	-0.002
-313.968	-73.927	-0.272	-0.098
-312.953	135.253	-0.145	-0.186
-311.939	196.762	-0.217	0.328
-310.924	800.000	0.043	0.122
-309.910	-113.271	0.197	0.038
-308.895	375.719	-0.027	0.055
-307.880	-200.000	-0.002	0.101
-306.866	-99.138	-0.494	0.124
-305.851	-91.935	-0.306	-0.086
-304.837	28.741	0.054	0.045
-303.822	204.856	0.039	-0.061
-302.807	-94.411	0.268	-0.072
-301.793	-76.291	-0.251	-0.088
-300.778	-69.808	-0.108	-0.041
-299.764	90.476	-0.143	-0.158
-298.749	157.986	0.047	0.065
-297.735	57.679	-0.215	0.209
-296.720	-18.588	-0.180	0.111
-295.705	-117.097	0.123	-0.022
-294.691	184.276	0.074	0.108
-293.676	-33.035	0.384	-0.211
-292.662	21.972	-0.254	0.205
-291.647	-120.504	0.089	-0.015
-290.632	-200.000	-0.010	0.080
-289.618	62.091	-0.256	-0.253
-288.603	-83.686	-0.221	-0.070
-287.589	-90.912	0.138	0.039
-286.574	-17.208	0.076	0.047
-285.559	504.263	0.062	0.142
-284.545	-86.660	-0.189	0.057
-283.530	-73.205	-0.169	-0.061
-282.516	-200.000	0.019	0.108
-281.501	-22.946	0.216	0.129
-280.486	3.320	0.216	-0.156
-279.472	66.322	-0.174	0.175
-278.457	-95.659	0.139	-0.037
-277.443	-10.319	0.122	-0.080
-276.428	-45.975	0.110	-0.053
-275.413	-88.127	0.080	0.024
-274.399	602.907	0.083	0.205
-273.384	800.000	0.040	0.144
-272.370	750.471	-0.007	-0.018
-271.355	-94.789	-0.041	0.011
-270.340	-17.439	0.249	-0.155
-269.326	-85.517	0.196	-0.060
-268.311	-117.872	0.153	-0.027
-267.297	-200.000	-0.028	0.295
-266.282	-200.000	0.003	0.025
-265.267	-35.218	0.357	-0.192
-264.253	-90.613	0.031	-0.009
-263.238	800.000	-0.065	-0.221
-262.224	-94.277	0.304	-0.082
-261.209	-113.173	0.096	0.019
-260.195	-149.012	0.250	0.020
-259.180	800.000	0.069	0.209
-258.165	-67.531	-0.204	0.079
-257.151	800.000	-0.030	-0.088
-256.136	-28.399	-0.078	0.044
-255.122	103.400	0.068	0.079
-254.107	-79.154	0.172	0.058
-253.092	576.961	-0.109	0.263
-252.078	-170.922	0.205	-0.007
-251.063	39.096	0.237	0.210
-250.049	58.492	-0.097	-0.094
-249.034	-99.513	0.365	0.091
-248.019	137.125	0.061	0.079
-247.005	40.206	-0.078	0.069
-245.990	800.000	0.102	0.373
-244.976	-91.626	0.196	0.055
-243.961	34.597	0.186	0.160
-242.946	-200.000	-0.026	0.182
-241.932	-134.746	-0.133	0.016
-240.917	-22.138	-0.143	-0.086
-239.903	188.083	-0.060	0.089
-238.888	45.144	-0.279	-0.254
-237.873	49.976	0.079	-0.074
-236.859	466.478	-0.105	0.232
-235.844	800.000	0.063	0.206
-234.830	50.213	-0.122	-0.114
-233.815	357.034	0.007	0.014
-232.800	-109.802	-0.010	0.002
-231.786	231.698	0.036	-0.058
-230.771	-121.081	-0.157	-0.026
-229.757	-0.185	-0.107	-0.076
-228.742	-200.000	0.029	-0.226
-227.727	-104.505	-0.334	-0.076
-226.713	-5.639	0.361	-0.244
-225.698	116.325	0.152	0.185
-224.684	72.589	-0.070	-0.072
-223.669	578.066	-0.016	0.038
-222.655	800.000	-0.057	0.187
-221.640	251.815	-0.117	-0.197
-220.625	-34.453	0.047	0.025
-219.611	-79.582	0.207	0.069
-218.596	-121.113	-0.126	0.021
-217.582	232.186	0.081	0.131
-216.567	-101.947	0.243	-0.058
-215.552	145.517	-0.154	0.204
-214.538	-90.770	-0.169	-0.048
-213.523	32.460	0.091	-0.078
-212.509	108.189	-0.162	-0.191
-211.494	-200.000	0.021	0.192
-210.479	-200.000	0.008	0.231
-209.465	-42.418	0.114	-0.058
-208.450	-114.302	-0.027	-0.005
-207.436	165.386	0.266	0.371
-206.421	800.000	-0.075	0.296
-205.406	-11.070	0.097	-0.063
-204.392	-200.000	0.012	0.100
-203.377	-26.848	0.083	-0.048
-202.363	-200.000	-0.005	0.234
-201.348	800.000	-0.079	0.279
-200.333	9.581	-0.325	0.243
-199.319	-162.761	-0.509	-0.025
-198.304	-160.143	0.095	-0.005
-197.290	-121.972	0.137	-0.022
-196.275	-200.000	0.011	-0.234
-195.260	539.712	-0.098	-0.230
-194.246	379.104	0.094	-0.190
-193.231	25.258	-0.217	0.178
-192.217	-200.000	0.003	-0.034
-191.202	-43.815	0.075	-0.037
-190.187	-45.215	-0.141	-0.069
-189.173	-73.289	-0.353	-0.127
-188.158	164.868	-0.106	0.148
-187.144	-178.036	0.211	0.005
-186.129	-13.634	0.182	0.116
-185.114	11.954	-0.141	-0.107
-184.100	-200.000	0.054	0.369
-183.085	-86.931	-0.243	-0.073
-182.071	313.957	-0.084	-0.156
-181.056	-145.284	0.360	-0.032
-180.042	-88.142	-0.138	0.041
-179.027	-36.758	0.071	0.037
-178.012	-58.739	-0.033	0.014
-176.998	-127.819	0.096	-0.014
-175.983	547.576	-0.032	-0.074
-174.969	-108.321	0.410	-0.087
-173.954	-66.889	-0.171	-0.066
-172.939	-200.000	0.008	0.097
-171.925	-101.041	-0.159	-0.038
-170.910	-19.178	0.309	0.189
-169.896	16.001	-0.088	-0.068
-168.881	349.507	0.133	-0.259
-167.866	-36.787	0.204	-0.108
-166.852	800.000	0.025	-0.072
-165.837	-52.713	-0.076	0.034
-164.823	177.524	0.187	-0.269
-163.808	25.631	0.096	0.078
-162.793	-200.000	-0.025	0.162
-161.779	800.000	-0.040	-0.158
-160.764	425.486	0.102	-0.217
-159.750	-40.190	0.158	0.081
-158.735	-200.000	-0.004	-0.120
-157.720	77.907	-0.028	-0.029
-156.706	369.940	0.057	0.114
-155.691	7.020	0.106	-0.078
-154.677	-83.642	0.090	-0.028
-153.662	-16.368	0.274	0.171
-152.647	490.364	0.043	-0.097
-151.633	366.389	0.137	-0.273
-150.618	-200.000	0.043	-0.399
-149.604	-140.021	-0.237	0.025
-148.589	-200.000	-0.041	-0.212
-147.574	-78.499	-0.121	0.041
-146.560	58.944	0.056	-0.054
-145.545	472.739	0.100	-0.223
-144.531	-200.000	-0.015	-0.078
-143.516	584.763	-0.056	0.135
-142.502	23.343	0.177	0.143
-141.487	59.864	-0.226	-0.220
-140.472	-65.098	0.196	0.078
-139.458	82.618	0.123	-0.131
-138.443	-160.502	-0.103	-0.005
-137.429	-30.607	-0.093	-0.052
-136.414	47.713	-0.166	0.152
-135.399	0.434	-0.120	0.084
-134.385	-200.000	0.010	-0.049
-133.370	105.760	-0.139	-0.162
-132.356	-125.979	-0.129	0.019
-131.341	-200.000	-0.049	0.248
-130.326	49.162	0.238	0.221
-129.312	-100.395	0.255	0.062
-128.297	-143.650	-0.090	-0.008
-127.283	52.382	-0.102	0.096
-126.268	41.683	-0.252	0.224
-125.253	-200.000	0.033	0.299
-124.239	-7.970	0.365	-0.242
-123.224	-200.000	0.007	-0.054
-122.210	-200.000	0.028	-0.364
