DTS Sentinel unit serial number:	SN413079Multiplexer serial number:	ORYXHardware model number:	OX4-SRSoftware version number:	ORYX F/W v4.00 Oryx Data Collector v3.7.2.0data status	okinstallation	princeton_trtdifferential loss correction	single-endedforward channel	channel 1reverse channel	N/Adate	2019/09/18time	21:50:36forward acquisition time	60.00reverse acquisition time	0.00gamma	496.2192k internal	0.2341k external	0.2341temperature offset calibration	1.0017default loss term (dB/km)	0.3790temperature slope calibration	1.0000multiplexer offset coefficient	1.0000multiplexer slope coefficient	1.0000fibre end	0.00T internal ref (°C)	24.75T ext. ref 1 (°C)	0.81T ext. ref 2 (°C)	18.32length (m)	temperature (°C)	Stokes	anti-Stokes-747.200	387.003	0.186	0.386
-746.185	-82.817	-0.312	-0.101
-745.171	-13.072	0.173	0.113
-744.156	-37.092	0.203	0.109
-743.142	-200.000	-0.014	0.246
-742.127	312.064	-0.046	0.087
-741.112	175.503	-0.166	-0.241
-740.098	800.000	-0.059	0.174
-739.083	-144.620	0.336	-0.031
-738.069	-3.296	-0.371	0.259
-737.054	76.072	0.224	-0.238
-736.039	-148.693	-0.358	-0.029
-735.025	156.022	-0.074	0.102
-734.010	-72.970	-0.202	-0.074
-732.996	-143.470	-0.334	0.032
-731.981	-44.821	-0.177	0.088
-730.966	-19.725	0.325	0.201
-729.952	-38.764	-0.337	-0.178
-728.937	-22.639	-0.105	0.063
-727.923	659.673	0.182	-0.468
-726.908	-143.075	0.097	-0.009
-725.894	-11.744	-0.493	-0.324
-724.879	-151.983	-0.283	-0.021
-723.864	0.752	-0.368	0.264
-722.850	-200.000	0.027	-0.129
-721.835	-39.048	0.164	-0.086
-720.821	165.921	-0.027	0.038
-719.806	-68.902	0.125	0.048
-718.791	-28.035	-0.031	0.018
-717.777	96.510	0.144	0.166
-716.762	58.619	-0.192	0.189
-715.748	38.801	-0.260	-0.233
-714.733	800.000	-0.092	0.339
-713.718	88.249	-0.092	0.102
-712.704	-30.018	0.125	-0.071
-711.689	307.543	-0.077	0.143
-710.675	-182.635	-0.151	-0.003
-709.660	800.000	0.066	-0.186
-708.645	555.840	0.083	0.201
-707.631	4.415	-0.132	-0.097
-706.616	69.296	-0.106	-0.109
-705.602	-105.368	-0.444	-0.101
-704.587	-200.000	0.006	-0.123
-703.572	349.525	0.113	0.224
-702.558	-7.650	0.276	0.187
-701.543	-38.011	-0.201	0.107
-700.529	244.110	0.162	-0.271
-699.514	34.241	0.262	0.228
-698.499	162.823	-0.090	0.126
-697.485	101.448	-0.216	-0.252
-696.470	-27.085	-0.155	-0.091
-695.456	-14.325	0.292	0.188
-694.441	278.780	-0.087	-0.156
-693.426	57.365	-0.159	-0.155
-692.412	-110.491	0.316	0.066
-691.397	446.721	-0.195	0.430
-690.383	453.969	-0.091	-0.202
-689.368	-200.000	0.079	0.465
-688.354	16.837	-0.219	-0.174
-687.339	692.111	-0.095	-0.250
-686.324	-200.000	-0.081	-0.409
-685.310	-171.122	0.121	-0.004
-684.295	-55.854	0.098	-0.044
-683.281	-134.716	0.042	0.005
-682.266	-86.602	-0.039	0.012
-681.251	-117.076	-0.201	0.037
-680.237	-161.639	0.260	-0.013
-679.222	-200.000	0.028	0.205
-678.208	122.721	0.341	0.426
-677.193	-78.152	-0.374	0.129
-676.178	228.150	0.229	-0.372
-675.164	53.363	0.059	-0.056
-674.149	299.324	0.124	0.227
-673.135	-200.000	-0.009	-0.484
-672.120	188.273	0.144	-0.215
-671.105	-103.637	-0.086	-0.020
-670.091	271.228	-0.019	-0.034
-669.076	684.404	0.085	-0.221
-668.062	-14.862	-0.165	0.106
-667.047	444.095	0.053	-0.116
-666.032	-200.000	-0.042	-0.370
-665.018	-134.690	-0.261	-0.032
-664.003	-200.000	0.000	-0.096
-662.989	188.041	0.074	-0.110
-661.974	-45.490	0.171	-0.085
-660.959	-200.000	0.000	-0.079
-659.945	-135.226	-0.381	0.046
-658.930	-119.524	0.121	0.021
-657.916	109.315	-0.193	-0.230
-656.901	-17.332	0.147	0.092
-655.886	360.730	0.107	0.215
-654.872	36.457	0.094	0.082
-653.857	96.432	0.071	0.081
-652.843	-103.641	0.200	0.047
-651.828	91.003	0.114	0.127
-650.814	-10.264	-0.153	0.101
-649.799	800.000	-0.006	-0.020
-648.784	-200.000	-0.028	-0.272
-647.770	221.546	0.025	0.040
-646.755	217.365	0.213	0.339
-645.741	136.925	-0.151	0.197
-644.726	-72.130	0.264	-0.098
-643.711	-116.368	0.145	-0.027
-642.697	-55.287	-0.074	0.033
-641.682	-200.000	0.006	0.099
-640.668	-102.010	-0.274	-0.066
-639.653	-200.000	0.022	-0.242
-638.638	141.202	0.372	0.491
-637.624	-172.781	0.155	0.005
-636.609	308.915	-0.103	-0.191
-635.595	-57.166	-0.084	-0.037
-634.580	-178.803	-0.100	0.002
-633.565	-123.138	-0.455	0.073
-632.551	-200.000	0.012	-0.311
-631.536	-78.434	-0.098	0.034
-630.522	-126.750	-0.311	0.046
-629.507	27.174	0.035	-0.029
-628.492	-200.000	-0.004	0.029
-627.478	532.659	-0.082	-0.194
-626.463	-125.565	0.366	0.055
-625.449	-36.154	-0.124	0.067
-624.434	-115.532	0.297	-0.056
-623.419	151.795	0.064	-0.088
-622.405	-138.085	0.279	0.031
-621.390	21.504	-0.275	-0.223
-620.376	-84.966	-0.226	0.071
-619.361	-146.689	0.229	0.020
-618.346	27.087	-0.030	-0.025
-617.332	-200.000	-0.034	-0.202
-616.317	126.294	0.014	-0.018
-615.303	692.734	0.036	0.094
-614.288	150.453	0.057	0.077
-613.273	401.258	-0.084	0.175
-612.259	-110.053	0.527	-0.110
-611.244	103.162	-0.027	-0.032
-610.230	-200.000	0.041	-0.206
-609.215	-200.000	-0.011	0.137
-608.201	62.608	0.231	-0.230
-607.186	-200.000	-0.030	-0.400
-606.171	-100.978	-0.205	0.050
-605.157	-6.703	0.048	0.033
-604.142	119.729	-0.129	-0.160
-603.128	466.190	-0.168	0.375
-602.113	62.057	0.213	0.212
-601.098	51.875	0.139	0.132
-600.084	158.395	0.255	0.352
-599.069	127.712	-0.171	0.216
-598.055	64.370	-0.116	-0.117
-597.040	360.916	-0.094	0.187
-596.025	651.719	0.068	0.173
-595.011	20.981	0.154	-0.124
-593.996	-200.000	-0.008	-0.264
-592.982	-130.035	0.042	0.006
-591.967	34.480	0.122	-0.106
-590.952	800.000	0.092	0.287
-589.938	-31.378	-0.171	0.096
-588.923	-35.023	-0.150	0.082
-587.909	214.434	-0.114	-0.180
-586.894	-59.827	0.521	-0.222
-585.879	194.422	-0.230	0.347
-584.865	800.000	-0.044	-0.184
-583.850	157.386	-0.030	-0.041
-582.836	-200.000	-0.008	0.369
-581.821	22.170	0.117	-0.095
-580.806	-200.000	-0.062	-0.382
-579.792	-200.000	-0.051	0.247
-578.777	-5.741	-0.309	-0.211
-577.763	-110.206	0.247	-0.051
-576.748	50.721	0.153	0.144
-575.733	-200.000	-0.008	-0.179
-574.719	800.000	-0.092	-0.317
-573.704	84.299	0.272	0.296
-572.690	-200.000	-0.032	0.185
-571.675	-162.454	-0.074	-0.004
-570.661	-98.204	0.087	-0.022
-569.646	-128.720	0.098	0.014
-568.631	432.483	0.012	0.025
-567.617	551.326	-0.131	-0.314
-566.602	-11.237	-0.302	0.198
-565.588	-25.234	-0.198	-0.117
-564.573	31.367	0.108	0.093
-563.558	-200.000	-0.027	-0.171
-562.544	427.671	-0.073	-0.157
-561.529	486.277	0.078	-0.176
-560.515	-142.250	-0.185	0.018
-559.500	-20.779	-0.027	0.016
-558.485	-21.276	0.123	0.075
-557.471	-200.000	-0.005	-0.084
-556.456	-25.691	-0.067	-0.039
-555.442	-200.000	-0.001	-0.158
-554.427	-200.000	0.040	-0.253
-553.412	0.130	-0.033	-0.024
-552.398	279.227	0.148	-0.263
-551.383	-129.494	-0.132	0.018
-550.369	-40.045	0.305	0.158
-549.354	48.082	-0.186	-0.173
-548.339	800.000	-0.065	-0.259
-547.325	246.030	0.160	-0.267
-546.310	128.138	-0.181	-0.229
-545.296	800.000	-0.023	-0.069
-544.281	110.898	-0.202	-0.242
-543.266	-200.000	-0.027	-0.269
-542.252	-200.000	-0.074	0.431
-541.237	501.573	0.070	0.161
-540.223	-72.820	-0.052	0.019
-539.208	-200.000	-0.043	0.189
-538.193	74.383	-0.133	-0.139
-537.179	2.834	0.074	0.053
-536.164	787.691	-0.046	-0.125
-535.150	345.851	-0.096	-0.188
-534.135	74.741	-0.213	0.223
-533.121	-63.741	0.106	0.043
-532.106	-103.876	0.258	0.060
-531.091	-135.065	-0.373	-0.045
-530.077	22.346	-0.206	0.168
-529.062	335.521	0.057	0.110
-528.048	-85.257	0.251	-0.078
-527.033	-33.237	0.319	0.175
-526.018	-200.000	-0.004	-0.283
-525.004	-94.625	0.202	0.055
-523.989	-134.457	0.135	-0.016
-522.975	-200.000	0.014	-0.077
-521.960	58.881	0.217	-0.212
-520.945	305.469	-0.057	0.106
-519.931	-113.339	0.383	-0.075
-518.916	156.400	-0.181	0.248
-517.902	-37.877	-0.307	0.162
-516.887	-200.000	0.016	0.125
-515.872	167.382	-0.201	-0.284
-514.858	627.560	0.046	0.116
-513.843	800.000	-0.037	-0.111
-512.829	6.570	0.200	-0.148
-511.814	114.332	-0.139	0.168
-510.799	800.000	-0.064	-0.259
-509.785	-200.000	-0.011	0.173
-508.770	800.000	0.041	0.157
-507.756	-39.449	0.041	0.021
-506.741	-42.248	0.175	-0.089
-505.726	-89.644	0.249	0.073
-504.712	-76.162	-0.108	-0.038
-503.697	-200.000	0.241	0.001
-502.683	108.108	-0.168	-0.199
-501.668	279.702	-0.098	-0.173
-500.653	-200.000	0.024	0.611
-499.639	-52.115	-0.114	-0.053
-498.624	96.238	0.157	0.178
-497.610	-200.000	0.015	-0.190
-496.595	-200.000	0.077	-0.355
-495.581	-117.329	0.127	0.023
-494.566	407.652	-0.134	0.282
-493.551	15.239	0.143	0.111
-492.537	-19.368	0.142	0.088
-491.522	-100.537	0.270	0.066
-490.508	-200.000	-0.000	0.099
-489.493	-89.958	-0.191	0.055
-488.478	28.493	-0.240	0.202
-487.464	-48.224	0.156	-0.075
-486.449	-200.000	-0.019	0.388
-485.435	80.851	-0.125	0.134
-484.420	674.101	-0.093	-0.240
-483.405	-140.253	-0.086	-0.009
-482.391	81.179	0.092	0.098
-481.376	-36.513	0.470	0.251
-480.362	467.891	-0.104	0.232
-479.347	-153.826	-0.025	-0.002
-478.332	-39.885	-0.364	-0.188
-477.318	-86.263	0.218	0.067
-476.303	119.123	-0.065	-0.080
-475.289	-200.000	0.023	-0.181
-474.274	-200.000	-0.016	-0.144
-473.259	-200.000	0.028	-0.262
-472.245	-145.072	-0.306	0.028
-471.230	-200.000	0.048	0.243
-470.216	454.743	-0.083	0.183
-469.201	800.000	-0.087	-0.316
-468.186	-200.000	0.085	-0.388
-467.172	-200.000	0.009	0.278
-466.157	148.864	-0.211	0.283
-465.143	-107.635	-0.135	0.029
-464.128	91.095	-0.172	-0.191
-463.113	72.816	0.174	0.180
-462.099	101.940	-0.179	0.208
-461.084	-94.748	-0.021	-0.006
-460.070	-153.218	-0.410	0.028
-459.055	-200.000	-0.002	0.086
-458.040	258.558	0.076	-0.129
-457.026	-140.091	-0.089	0.009
-456.011	800.000	0.066	0.246
-454.997	-22.979	-0.122	-0.073
-453.982	32.725	-0.210	-0.180
-452.968	-87.121	0.034	-0.010
-451.953	352.850	0.037	-0.074
-450.938	-66.943	0.023	0.009
-449.924	734.725	0.181	-0.479
-448.909	45.985	-0.278	-0.255
-447.895	138.072	-0.158	-0.206
-446.880	-200.000	-0.010	-0.129
-445.865	-200.000	-0.025	0.452
-444.851	-141.761	0.328	0.033
-443.836	-87.293	-0.349	0.105
-442.822	-12.207	-0.211	-0.137
-441.807	7.725	0.209	-0.155
-440.792	81.930	0.124	-0.133
-439.778	121.567	0.224	0.276
-438.763	15.908	-0.124	-0.097
-437.749	-69.509	-0.616	-0.234
-436.734	-136.750	0.288	0.033
-435.719	-27.803	0.537	-0.308
-434.705	84.700	0.114	0.124
-433.690	-30.147	-0.201	-0.113
-432.676	-110.708	0.138	0.028
-431.661	-200.000	-0.018	-0.115
-430.646	-102.782	-0.201	-0.047
-429.632	800.000	0.044	-0.161
-428.617	-200.000	0.027	0.163
-427.603	-200.000	-0.036	-0.291
-426.588	-48.391	-0.207	0.098
-425.573	306.174	-0.083	0.152
-424.559	-200.000	0.005	0.110
-423.544	-83.264	-0.258	0.082
-422.530	800.000	0.101	-0.291
-421.515	-48.227	0.326	0.155
-420.500	201.502	0.083	-0.127
-419.486	-23.182	-0.147	-0.088
-418.471	800.000	0.020	0.082
-417.457	81.970	-0.275	0.295
-416.442	151.855	-0.270	0.364
-415.428	112.206	0.145	0.174
-414.413	-200.000	0.052	0.263
-413.398	212.792	-0.063	0.099
-412.384	180.755	-0.082	-0.119
-411.369	-81.815	-0.206	-0.067
-410.355	800.000	-0.124	-0.525
-409.340	-85.637	-0.268	-0.082
-408.325	228.650	-0.190	-0.306
-407.311	8.339	-0.080	0.060
-406.296	-109.592	0.180	0.037
-405.282	184.869	0.137	-0.200
-404.267	-40.908	0.048	-0.024
-403.252	-200.000	-0.021	0.222
-402.238	133.818	0.136	-0.174
-401.223	37.924	-0.153	-0.135
-400.209	-200.000	0.055	-0.295
-399.194	-51.923	-0.017	-0.008
-398.179	800.000	-0.052	0.213
-397.165	149.579	0.089	0.120
-396.150	-24.056	0.259	-0.153
-395.136	-200.000	-0.013	0.082
-394.121	121.876	0.105	-0.129
-393.106	-81.825	0.084	0.027
-392.092	315.546	-0.116	0.217
-391.077	-150.806	0.216	0.016
-390.063	133.642	-0.167	-0.214
-389.048	-200.000	0.037	-0.249
-388.033	-104.722	0.414	0.094
-387.019	-200.000	-0.020	-0.162
-386.004	-200.000	-0.072	-0.498
-384.990	800.000	-0.033	-0.109
-383.975	-129.429	0.324	0.044
-382.960	-200.000	0.027	-0.254
-381.946	-34.540	-0.090	-0.048
-380.931	-141.493	0.205	-0.020
-379.917	133.188	0.234	0.299
-378.902	139.874	-0.090	0.117
-377.888	368.800	0.060	-0.120
-376.873	341.282	-0.070	-0.135
-375.858	-132.407	-0.408	-0.052
-374.844	-9.543	0.092	-0.060
-373.829	-184.518	-0.208	-0.003
-372.815	-79.374	-0.319	-0.107
-371.800	-39.789	0.300	-0.155
-370.785	800.000	-0.042	0.124
-369.771	683.456	0.196	-0.505
-368.756	571.245	0.078	-0.186
-367.742	-154.262	-0.177	0.012
-366.727	430.971	-0.129	0.277
-365.712	-200.000	0.022	0.137
-364.698	-111.185	0.270	-0.055
-363.683	-96.913	0.278	-0.072
-362.669	45.058	0.217	0.197
-361.654	110.897	0.146	-0.173
-360.639	22.789	0.189	0.153
-359.625	97.035	0.056	0.063
-358.610	-19.870	-0.149	0.091
-357.596	-8.912	0.213	0.141
-356.581	201.682	-0.169	-0.257
-355.566	319.474	0.079	0.147
-354.552	-35.484	0.052	-0.028
-353.537	-200.000	0.016	-0.209
-352.523	121.746	0.088	-0.109
-351.508	-28.582	0.072	-0.041
-350.493	567.114	-0.081	-0.193
-349.479	-200.000	-0.044	0.381
-348.464	51.367	0.217	0.203
-347.450	-49.277	-0.231	0.109
-346.435	16.294	-0.179	0.140
-345.420	-123.748	0.135	-0.021
-344.406	-47.963	0.221	0.106
-343.391	-200.000	-0.021	-0.309
-342.377	69.243	-0.277	0.281
-341.362	99.006	-0.098	0.112
-340.348	-200.000	0.006	-0.050
-339.333	800.000	-0.082	-0.282
-338.318	-53.422	0.169	-0.076
-337.304	-200.000	0.005	-0.181
-336.289	800.000	0.018	-0.071
-335.275	-44.262	-0.380	-0.188
-334.260	-200.000	-0.007	0.170
-333.245	88.805	0.118	-0.129
-332.231	460.319	0.084	0.185
-331.216	800.000	0.051	-0.184
-330.202	132.391	0.178	0.226
-329.187	85.909	-0.123	-0.133
-328.172	-31.908	0.074	0.041
-327.158	30.031	0.199	-0.167
-326.143	732.818	0.045	-0.118
-325.129	-96.794	-0.121	-0.031
-324.114	614.230	0.158	-0.390
-323.099	-200.000	-0.037	0.230
-322.085	237.961	0.118	0.194
-321.070	-82.930	-0.181	-0.058
-320.056	-102.347	0.083	-0.020
-319.041	-4.175	0.395	0.270
-318.026	800.000	0.034	-0.136
-317.012	458.636	-0.086	0.189
-315.997	280.061	0.114	-0.201
-314.983	-102.867	0.285	0.067
-313.968	-57.723	-0.169	0.073
-312.953	-36.860	0.076	0.040
-311.939	-84.878	0.077	-0.024
-310.924	-90.293	0.139	0.040
-309.910	-14.798	0.277	-0.175
-308.895	548.888	0.059	-0.138
-307.880	800.000	0.059	0.225
-306.866	-80.064	-0.100	-0.033
-305.851	-17.853	-0.361	0.223
-304.837	32.765	-0.240	0.205
-303.822	-127.194	0.079	-0.011
-302.807	610.308	0.123	0.302
-301.793	-200.000	-0.008	0.262
-300.778	-82.149	0.184	-0.059
-299.764	675.213	0.061	0.156
-298.749	-149.552	0.176	0.014
-297.735	800.000	0.033	0.116
-296.720	-175.396	-0.124	-0.003
-295.705	68.113	-0.220	-0.221
-294.691	159.965	-0.178	0.245
-293.676	121.364	0.027	0.033
-292.662	125.444	0.078	-0.097
-291.647	-146.584	-0.433	-0.037
-290.632	-200.000	-0.092	0.400
-289.618	2.558	-0.222	-0.158
-288.603	-109.070	0.373	0.078
-287.589	-200.000	0.084	-0.433
-286.574	18.007	0.131	0.103
-285.559	75.225	0.215	0.223
-284.545	385.387	0.159	0.322
-283.530	800.000	0.055	-0.174
-282.516	-108.646	-0.371	0.078
-281.501	-14.686	0.104	-0.066
-280.486	-97.569	-0.173	0.044
-279.472	-86.328	-0.225	-0.068
-278.457	-155.351	-0.445	0.028
-277.443	-65.075	0.146	0.058
-276.428	10.062	-0.245	0.183
-275.413	-6.630	0.129	-0.086
-274.399	-13.603	-0.179	-0.114
-273.384	-115.896	-0.163	-0.030
-272.370	-101.690	-0.089	-0.021
-271.355	292.177	-0.031	0.055
-270.340	-200.000	-0.111	0.000
-269.326	800.000	0.072	-0.216
-268.311	122.834	-0.071	-0.087
-267.297	-155.537	0.109	-0.007
-266.282	-200.000	0.000	-0.237
-265.267	-177.912	0.103	0.002
-264.253	331.010	0.250	0.473
-263.238	506.398	-0.082	-0.187
-262.224	778.563	0.036	0.096
-261.209	-13.518	0.225	-0.143
-260.195	800.000	0.112	0.319
-259.180	-200.000	-0.008	-0.068
-258.165	12.124	-0.321	0.243
-257.151	195.545	0.139	0.208
-256.136	508.118	-0.081	-0.184
-255.122	-147.899	0.128	-0.010
-254.107	-200.000	-0.058	0.273
-253.092	800.000	0.046	0.147
-252.078	683.186	-0.185	-0.474
-251.063	-74.090	-0.161	0.057
-250.049	612.744	-0.045	0.110
-249.034	800.000	0.087	0.351
-248.019	-102.821	0.174	-0.041
-247.005	166.771	0.151	0.210
-245.990	252.053	0.128	0.215
-244.976	102.864	0.121	0.139
-243.961	105.020	0.174	-0.202
-242.946	84.370	-0.218	0.234
-241.932	-200.000	-0.021	0.180
-240.917	-200.000	0.021	0.171
-239.903	-200.000	-0.022	-0.098
-238.888	-69.202	-0.376	-0.142
-237.873	28.163	0.145	0.121
-236.859	-200.000	-0.006	0.050
-235.844	47.240	-0.143	-0.131
-234.830	-200.000	-0.025	0.192
-233.815	55.762	0.149	-0.142
-232.800	2.448	0.311	0.221
-231.786	-200.000	-0.004	-0.291
-230.771	-46.527	0.241	-0.116
-229.757	-200.000	-0.007	-0.153
-228.742	193.552	-0.145	-0.215
-227.727	-12.639	-0.130	-0.083
-226.713	21.489	-0.082	-0.065
-225.698	-200.000	0.048	0.218
-224.684	-83.935	0.171	-0.054
-223.669	-200.000	-0.005	0.105
-222.655	593.086	-0.048	-0.116
-221.640	288.295	0.055	0.097
-220.625	-1.626	0.160	-0.111
-219.611	529.528	-0.191	0.444
-218.596	163.572	0.088	-0.122
-217.582	-129.997	-0.436	-0.059
-216.567	307.151	-0.141	0.258
-215.552	-200.000	0.005	0.025
-214.538	-45.711	-0.528	0.256
-213.523	800.000	-0.033	0.135
-212.509	393.397	-0.152	0.310
-211.494	652.254	0.109	-0.273
-210.479	502.074	0.102	0.231
-209.465	-200.000	0.052	-0.374
-208.450	228.442	0.169	-0.270
-207.436	742.656	0.032	-0.084
-206.421	154.230	-0.150	0.202
-205.406	32.358	-0.049	-0.042
-204.392	-144.006	-0.165	0.015
-203.377	-200.000	0.076	0.389
-202.363	-32.246	0.296	0.162
-201.348	475.707	0.068	-0.151
-200.333	319.681	0.058	-0.107
-199.319	-200.000	0.003	-0.216
-198.304	-78.413	0.265	0.089
-197.290	-10.137	-0.227	-0.148
-196.275	-61.654	0.031	-0.013
-195.260	-45.002	-0.497	-0.243
-194.246	800.000	0.174	-0.491
-193.231	-200.000	-0.030	0.138
-192.217	94.697	-0.025	0.028
-191.202	-200.000	-0.040	0.189
-190.187	-75.114	0.213	-0.075
-189.173	-46.926	-0.212	-0.102
-188.158	-36.509	-0.213	0.113
-187.144	-86.969	0.272	0.081
-186.129	800.000	-0.124	-0.435
-185.114	-153.519	-0.347	-0.024
-184.100	-200.000	0.010	-0.130
-183.085	208.436	0.086	-0.131
-182.071	-18.022	0.172	0.106
-181.056	-64.482	-0.186	0.074
-180.042	-200.000	-0.020	-0.225
-179.027	-135.126	-0.177	-0.021
-178.012	-170.447	-0.588	-0.020
-176.998	800.000	-0.021	0.073
-175.983	-81.736	-0.049	0.016
-174.969	800.000	-0.025	-0.068
-173.954	-29.145	-0.135	-0.076
-172.939	800.000	-0.097	0.285
-171.925	800.000	-0.145	0.402
-170.910	-200.000	0.028	0.135
-169.896	-200.000	0.012	0.344
-168.881	98.846	0.260	0.294
-167.866	26.257	-0.182	0.149
-166.852	48.806	0.204	0.188
-165.837	-200.000	-0.005	-0.225
-164.823	-140.868	0.594	-0.060
-163.808	-138.481	0.252	-0.027
-162.793	224.240	0.061	0.097
-161.779	800.000	0.078	0.236
-160.764	800.000	-0.118	0.346
-159.750	57.015	0.375	0.358
-158.735	258.233	-0.050	-0.084
-157.720	-12.827	-0.154	-0.098
-156.706	-146.494	0.189	-0.016
-155.691	-200.000	-0.011	-0.160
-154.677	424.217	0.141	0.298
-153.662	217.508	0.188	-0.293
-152.647	434.028	-0.058	0.123
-151.633	229.483	-0.156	-0.249
-150.618	-23.846	-0.224	0.131
-149.604	118.522	0.104	0.126
-148.589	445.353	0.124	0.266
-147.574	-87.702	0.021	0.006
-146.560	-111.740	-0.191	0.038
-145.545	35.887	-0.123	-0.106
-144.531	-200.000	-0.049	-0.213
-143.516	199.302	0.217	-0.326
-142.502	-5.678	-0.136	0.091
-141.487	-20.031	-0.078	-0.047
-140.472	-47.459	-0.093	-0.044
-139.458	68.384	0.214	-0.215
-138.443	-88.655	-0.149	-0.043
-137.429	23.289	-0.214	0.172
-136.414	85.044	0.034	-0.037
-135.399	268.842	0.050	0.086
-134.385	-151.360	-0.097	0.007
-133.370	527.823	0.075	0.172
-132.356	79.241	0.064	-0.067
-131.341	141.844	-0.229	0.297
-130.326	-123.976	0.318	0.049
-129.312	-148.188	-0.126	-0.010
-128.297	-39.521	-0.069	-0.035
-127.283	150.382	0.255	0.339
-126.268	-144.383	0.104	0.009
-125.253	154.854	0.079	0.107
-124.239	-154.763	0.205	0.013
-123.224	800.000	-0.044	0.142
-122.210	-200.000	-0.073	0.511
