DTS Sentinel unit serial number:	SN413079Multiplexer serial number:	ORYXHardware model number:	OX4-SRSoftware version number:	ORYX F/W v4.00 Oryx Data Collector v3.7.2.0data status	okinstallation	princeton_trtdifferential loss correction	single-endedforward channel	channel 1reverse channel	N/Adate	2019/09/12time	18:07:34forward acquisition time	15.00reverse acquisition time	0.00gamma	496.2192k internal	0.2317k external	0.2317temperature offset calibration	1.0113default loss term (dB/km)	0.3790temperature slope calibration	1.0000multiplexer offset coefficient	1.0000multiplexer slope coefficient	1.0000fibre end	0.00T internal ref (°C)	33.69T ext. ref 1 (°C)	3.02T ext. ref 2 (°C)	28.17length (m)	temperature (°C)	Stokes	anti-Stokes-747.200	-26.971	0.701	0.414
-746.185	46.044	-0.459	0.430
-745.171	-116.018	0.369	0.070
-744.156	-81.501	0.793	0.264
-743.142	133.904	0.086	0.113
-742.127	-17.947	0.797	-0.506
-741.112	800.000	-0.064	-0.190
-740.098	86.094	-0.503	0.560
-739.083	-150.341	0.506	0.039
-738.069	-200.000	-0.242	-1.261
-737.054	-200.000	0.003	-1.038
-736.039	-200.000	-0.028	0.444
-735.025	-22.745	1.411	0.863
-734.010	16.034	0.172	0.137
-732.996	-135.527	-0.422	-0.051
-731.981	59.708	-0.212	0.212
-730.966	-73.169	-0.260	0.097
-729.952	-48.784	-0.549	-0.267
-728.937	800.000	0.180	0.591
-727.923	347.722	0.214	-0.426
-726.908	50.625	0.398	-0.381
-725.894	163.265	-0.147	0.209
-724.879	152.255	-0.284	0.393
-723.864	800.000	-0.195	-0.717
-722.850	-65.933	0.484	0.196
-721.835	-200.000	0.050	-0.516
-720.821	-200.000	0.005	-0.312
-719.806	184.164	-0.206	-0.308
-718.791	-25.386	-0.235	0.140
-717.777	16.946	-0.487	-0.390
-716.762	800.000	-0.279	-0.968
-715.748	-73.574	-0.475	-0.175
-714.733	-5.543	-0.373	-0.259
-713.718	-100.490	0.791	-0.198
-712.704	-200.000	-0.106	-0.511
-711.689	378.870	0.092	0.191
-710.675	-200.000	0.054	-0.324
-709.660	147.533	0.337	-0.459
-708.645	-171.471	0.375	-0.013
-707.631	-120.882	0.740	-0.126
-706.616	-8.233	0.691	0.470
-705.602	-93.775	0.787	0.219
-704.587	-101.572	-0.355	0.087
-703.572	133.372	-0.357	0.467
-702.558	-154.365	-0.694	0.047
-701.543	-64.629	-0.190	-0.078
-700.529	-162.618	0.731	-0.036
-699.514	-13.632	-0.530	-0.347
-698.499	63.496	-0.134	0.136
-697.485	100.118	0.138	0.161
-696.470	-61.355	-0.337	-0.143
-695.456	-89.873	0.600	-0.177
-694.441	399.928	0.157	-0.333
-693.426	-84.163	0.291	-0.093
-692.412	40.787	-0.182	0.166
-691.397	-100.806	-0.452	-0.112
-690.383	-105.747	0.665	0.152
-689.368	-140.003	0.773	0.082
-688.354	211.498	-0.104	-0.165
-687.339	-136.019	0.299	-0.036
-686.324	-100.154	0.364	-0.091
-685.310	162.316	0.321	0.455
-684.295	-149.520	-0.460	0.037
-683.281	800.000	0.385	1.137
-682.266	3.397	0.437	0.321
-681.251	-128.811	0.499	-0.071
-680.237	71.095	0.400	0.419
-679.222	800.000	-0.112	0.457
-678.208	408.385	0.081	0.174
-677.193	-82.829	0.523	-0.171
-676.178	403.283	-0.293	-0.622
-675.164	205.843	0.285	0.447
-674.149	800.000	-0.083	-0.264
-673.135	-150.359	-0.411	-0.032
-672.120	247.420	0.449	0.766
-671.105	-200.000	-0.008	-0.203
-670.091	-20.712	-0.489	-0.303
-669.076	527.598	0.162	-0.385
-668.062	566.276	0.150	-0.367
-667.047	800.000	0.199	-0.780
-666.032	-36.166	0.374	0.204
-665.018	96.345	-0.148	-0.170
-664.003	140.356	0.132	-0.175
-662.989	16.992	-0.317	-0.254
-661.974	-4.921	-0.898	-0.624
-660.959	548.605	-0.270	0.653
-659.945	595.474	0.078	0.195
-658.930	-200.000	-0.012	0.357
-657.916	185.428	-0.122	0.182
-656.901	96.392	-0.200	0.230
-655.886	-116.775	-0.317	-0.059
-654.872	-195.845	0.696	0.005
-653.857	46.796	-0.555	0.520
-652.843	-118.576	-0.527	0.094
-651.828	800.000	0.078	0.271
-650.814	0.208	-0.022	-0.016
-649.799	68.577	0.309	0.320
-648.784	-141.068	0.331	0.034
-647.770	-74.064	-0.409	0.149
-646.755	336.061	0.228	-0.446
-645.741	-104.843	0.199	0.046
-644.726	30.541	-0.353	0.304
-643.711	-2.249	0.480	0.339
-642.697	90.713	-0.292	-0.330
-641.682	-170.233	-0.501	0.018
-640.668	228.427	-0.202	-0.333
-639.653	391.814	0.174	-0.364
-638.638	84.614	0.129	-0.142
-637.624	-6.888	-0.205	0.141
-636.609	403.606	-0.093	0.196
-635.595	-30.672	-0.184	-0.105
-634.580	19.604	-0.580	0.470
-633.565	689.712	0.112	-0.297
-632.551	-63.048	0.394	-0.164
-631.536	-37.031	0.685	0.370
-630.522	285.908	0.233	-0.423
-629.507	-200.000	0.018	-0.740
-628.492	464.616	0.048	0.109
-627.478	-114.727	-1.199	-0.231
-626.463	-1.934	-0.358	0.254
-625.449	-46.349	-0.622	0.308
-624.434	544.627	-0.124	0.298
-623.419	-128.071	-0.344	0.050
-622.405	8.720	0.513	0.389
-621.390	-56.552	-0.198	0.088
-620.376	60.854	-0.567	-0.567
-619.361	-200.000	0.042	-0.518
-618.346	-139.941	0.531	0.057
-617.332	800.000	-0.034	-0.118
-616.317	-137.088	-0.612	-0.070
-615.303	-80.676	-0.159	-0.053
-614.288	23.196	-0.405	0.335
-613.273	-3.192	0.665	-0.467
-612.259	800.000	0.057	-0.165
-611.244	-200.000	0.114	0.718
-610.230	-3.622	0.663	0.464
-609.215	800.000	0.317	-1.068
-608.201	800.000	0.106	0.426
-607.186	222.308	-0.193	-0.313
-606.171	-123.370	0.418	0.067
-605.157	73.523	-0.559	0.589
-604.142	346.066	-0.262	0.518
-603.128	291.176	0.426	0.780
-602.113	-160.826	0.941	-0.050
-601.098	-106.527	0.526	0.118
-600.084	-200.000	0.065	0.000
-599.069	269.190	0.081	0.143
-598.055	184.329	0.332	0.495
-597.040	-122.686	0.649	0.106
-596.025	-135.742	-0.235	-0.028
-595.011	-53.478	-0.886	0.408
-593.996	-144.384	-0.881	0.082
-592.982	83.461	0.292	-0.321
-591.967	-86.114	0.569	0.177
-590.952	-29.831	0.319	0.183
-589.938	441.440	-0.087	-0.191
-588.923	-40.191	-0.696	0.365
-587.909	110.969	0.562	0.681
-586.894	800.000	-0.091	-0.372
-585.879	157.576	-0.182	0.253
-584.865	-128.826	-0.710	-0.101
-583.850	-124.790	0.486	0.076
-582.836	154.114	0.281	0.388
-581.821	320.068	-0.251	-0.478
-580.806	-163.196	0.340	-0.016
-579.792	-79.495	-0.507	0.173
-578.777	113.682	0.382	0.467
-577.763	171.551	0.292	0.421
-576.748	172.878	-0.264	0.383
-575.733	-135.534	-0.990	0.119
-574.719	-21.161	-0.899	-0.553
-573.704	-17.517	-0.137	-0.087
-572.690	-200.000	0.056	-0.566
-571.675	52.382	-0.511	-0.490
-570.661	-29.947	-0.440	0.252
-569.646	-200.000	0.005	0.606
-568.631	800.000	-0.182	0.588
-567.617	-104.266	-0.936	0.218
-566.602	-141.392	-0.367	0.037
-565.588	-117.521	0.470	-0.085
-564.573	209.920	-0.489	0.772
-563.558	74.179	-0.555	-0.586
-562.544	-68.860	0.491	0.190
-561.529	800.000	-0.165	-0.707
-560.515	13.765	0.097	-0.076
-559.500	-2.951	-0.571	0.401
-558.485	-57.188	0.593	0.262
-557.471	-93.857	-0.648	0.179
-556.456	-126.215	-0.798	-0.120
-555.442	-28.090	0.402	0.234
-554.427	-167.392	0.570	-0.023
-553.412	-1.774	-0.695	-0.491
-552.398	276.741	-0.483	-0.863
-551.383	594.968	0.107	-0.266
-550.369	205.011	0.117	0.182
-549.354	-4.476	0.249	-0.173
-548.339	800.000	-0.152	-0.601
-547.325	755.860	0.278	0.757
-546.310	-67.104	-0.322	-0.128
-545.296	6.275	-0.508	-0.378
-544.281	50.492	-0.103	0.098
-543.266	-104.847	-1.422	0.328
-542.252	-40.975	-0.384	0.199
-541.237	360.300	0.165	-0.332
-540.223	-200.000	-0.148	0.000
-539.208	207.393	0.296	-0.464
-538.193	-102.916	0.220	-0.053
-537.179	123.942	-0.456	0.575
-536.164	96.014	-0.407	0.467
-535.150	-116.320	-0.270	0.050
-534.135	-200.000	0.036	0.566
-533.121	800.000	0.097	0.388
-532.106	-141.737	0.973	0.098
-531.091	48.045	-0.513	-0.481
-530.077	-29.436	-0.765	-0.440
-529.062	433.806	0.135	-0.294
-528.048	800.000	0.109	-0.441
-527.033	3.072	0.325	-0.237
-526.018	30.114	0.658	-0.564
-525.004	-119.419	-0.294	0.051
-523.989	800.000	0.117	0.349
-522.975	-200.000	-0.004	0.331
-521.960	184.202	0.245	-0.364
-520.945	-7.179	-0.476	-0.324
-519.931	-127.385	-0.414	0.061
-518.916	284.526	-0.172	-0.311
-517.902	391.504	0.169	0.352
-516.887	-200.000	-0.084	-0.416
-515.872	-131.890	0.113	0.015
-514.858	76.695	0.176	-0.188
-513.843	-200.000	-0.012	-0.635
-512.829	-200.000	0.025	0.183
-511.814	-93.242	0.243	-0.068
-510.799	800.000	0.235	0.867
-509.785	-173.885	0.473	0.014
-508.770	16.370	0.620	0.491
-507.756	-36.273	-0.737	-0.399
-506.741	-200.000	-0.045	0.746
-505.726	-72.379	0.744	0.276
-504.712	107.803	-0.288	-0.344
-503.697	189.802	0.176	0.265
-502.683	-5.121	-0.369	-0.255
-501.668	17.618	-0.291	0.232
-500.653	-111.049	0.951	0.196
-499.639	82.386	0.216	0.236
-498.624	-6.784	-0.574	-0.392
-497.610	-164.761	0.398	-0.018
-496.595	253.788	0.294	0.503
-495.581	-99.073	0.658	-0.167
-494.566	-66.091	-0.425	-0.170
-493.551	68.880	0.165	0.170
-492.537	-157.204	-0.374	-0.023
-491.522	38.971	-0.500	-0.448
-490.508	-169.964	-0.184	0.007
-489.493	-200.000	-0.024	-0.388
-488.478	-142.696	0.374	0.037
-487.464	52.445	0.577	-0.552
-486.449	-39.873	0.263	-0.137
-485.435	265.847	-0.224	-0.392
-484.420	69.077	-0.314	-0.324
-483.405	-26.504	-0.513	0.301
-482.391	-56.063	1.192	0.532
-481.376	-200.000	-0.002	-0.397
-480.362	-200.000	0.014	-0.257
-479.347	116.898	0.285	0.350
-478.332	-49.221	0.323	-0.154
-477.318	412.578	0.243	-0.517
-476.303	-18.594	-0.219	-0.137
-475.289	-200.000	-0.161	0.894
-474.274	654.810	0.424	1.090
-473.259	-102.260	0.999	-0.240
-472.245	800.000	0.184	0.565
-471.230	247.227	0.332	0.562
-470.216	-200.000	0.114	-0.585
-469.201	800.000	0.222	-0.789
-468.186	166.195	-0.213	0.302
-467.172	-200.000	-0.140	0.904
-466.157	-151.121	-0.403	0.030
-465.143	49.955	0.140	-0.132
-464.128	411.681	0.340	0.724
-463.113	133.512	-0.786	1.018
-462.099	-145.375	0.520	-0.047
-461.084	-53.859	0.991	0.452
-460.070	415.957	0.228	0.487
-459.055	-120.871	0.221	0.037
-458.040	-14.303	0.448	0.289
-457.026	433.433	-0.085	0.185
-456.011	122.954	0.301	0.377
-454.997	-200.000	-0.131	1.331
-453.982	-54.756	-0.383	-0.173
-452.968	160.305	0.064	-0.089
-451.953	-200.000	-0.052	-0.288
-450.938	75.414	-0.149	0.157
-449.924	-200.000	0.019	-0.347
-448.909	-8.298	-0.852	-0.574
-447.895	6.651	-0.614	0.457
-446.880	29.240	-0.516	0.438
-445.865	-200.000	-0.056	-0.472
-444.851	15.964	0.117	-0.092
-443.836	-84.258	0.295	-0.093
-442.822	-19.676	0.735	0.455
-441.807	-97.298	-0.168	-0.044
-440.792	-103.569	-0.420	-0.099
-439.778	229.221	0.443	0.723
-438.763	-21.912	0.292	-0.177
-437.749	778.162	-0.179	0.490
-436.734	-200.000	0.081	0.466
-435.719	800.000	0.134	0.399
-434.705	-25.515	-0.118	-0.070
-433.690	-48.065	-0.391	0.189
-432.676	800.000	0.129	0.388
-431.661	-97.750	-0.119	0.031
-430.646	-200.000	0.181	0.986
-429.632	389.944	0.110	-0.228
-428.617	-200.000	-0.223	1.028
-427.603	323.135	0.329	-0.628
-426.588	577.330	0.212	-0.518
-425.573	276.342	-0.461	0.819
-424.559	127.031	-0.117	-0.148
-423.544	-200.000	-0.002	0.324
-422.530	-200.000	-0.018	-0.877
-421.515	-31.103	0.311	-0.175
-420.500	340.995	-0.332	0.649
-419.486	98.551	0.683	-0.788
-418.471	-13.503	0.287	-0.186
-417.457	332.877	-0.005	0.010
-416.442	800.000	0.269	-1.034
-415.428	93.790	-0.155	0.176
-414.413	33.026	-0.662	0.573
-413.398	-101.041	0.121	0.030
-412.384	-22.592	-0.733	-0.443
-411.369	-169.880	0.719	-0.026
-410.355	15.693	-0.535	0.420
-409.340	132.479	0.512	0.660
-408.325	325.628	0.388	0.742
-407.311	-43.573	-0.518	-0.261
-406.296	307.466	0.311	-0.579
-405.282	158.496	0.321	-0.445
-404.267	800.000	0.105	0.459
-403.252	103.365	-0.635	-0.744
-402.238	-200.000	-0.031	-0.347
-401.223	800.000	0.125	-0.370
-400.209	800.000	-0.302	-0.912
-399.194	15.658	-0.943	0.741
-398.179	-99.163	-0.455	-0.115
-397.165	57.610	0.669	-0.653
-396.150	526.609	0.110	0.259
-395.136	-200.000	0.003	0.022
-394.121	-103.624	0.403	-0.094
-393.106	-134.880	-1.317	-0.159
-392.092	61.544	0.345	-0.342
-391.077	-45.636	0.553	-0.273
-390.063	-200.000	-0.098	0.637
-389.048	-88.810	-0.663	-0.196
-388.033	800.000	-0.076	0.292
-387.019	-200.000	-0.038	0.376
-386.004	800.000	0.310	0.887
-384.990	-129.714	0.920	0.127
-383.975	119.388	0.266	-0.328
-382.960	689.576	0.128	-0.335
-381.946	124.255	0.369	-0.463
-380.931	193.919	-0.043	-0.066
-379.917	-7.937	0.503	0.339
-378.902	55.066	0.686	-0.662
-377.888	30.470	-0.923	-0.788
-376.873	88.580	0.220	0.244
-375.858	-100.111	-0.208	0.052
-374.844	205.736	-0.713	-1.106
-373.829	800.000	-0.162	-0.515
-372.815	-200.000	0.023	-0.257
-371.800	364.461	0.459	0.922
-370.785	-24.821	-0.743	-0.440
-369.771	-200.000	0.112	-0.558
-368.756	425.405	0.077	-0.165
-367.742	-58.654	0.406	-0.176
-366.727	-139.349	1.169	0.125
-365.712	-47.088	0.731	0.356
-364.698	43.016	-0.503	-0.458
-363.683	-200.000	0.354	0.001
-362.669	0.312	0.153	-0.109
-361.654	176.411	0.477	0.691
-360.639	-200.000	-0.009	0.260
-359.625	-200.000	-0.181	0.971
-358.610	-77.733	0.639	-0.220
-357.596	-107.608	0.864	0.188
-356.581	167.976	0.647	0.918
-355.566	-79.015	-0.404	0.137
-354.552	-97.223	0.141	0.037
-353.537	-200.000	0.018	-0.264
-352.523	-200.000	0.002	-0.154
-351.508	111.517	-0.264	-0.318
-350.493	26.334	0.298	-0.249
-349.479	-200.000	0.076	0.719
-348.464	-84.267	0.353	0.111
-347.450	716.478	-0.156	0.414
-346.435	-58.375	-0.388	-0.168
-345.420	-25.176	-0.177	0.105
-344.406	800.000	-0.159	0.537
-343.391	175.640	0.162	-0.234
-342.377	-93.088	0.429	0.119
-341.362	-200.000	-0.040	-0.597
-340.348	17.428	0.175	0.139
-339.333	-43.206	-0.551	0.278
-338.318	-200.000	0.078	-0.343
-337.304	78.831	-0.190	-0.202
-336.289	800.000	-0.304	-0.970
-335.275	508.854	0.043	-0.100
-334.260	-123.133	-0.533	0.085
-333.245	-200.000	0.034	0.205
-332.231	96.579	0.246	-0.280
-331.216	290.632	-0.274	0.496
-330.202	246.067	-0.282	0.474
-329.187	334.224	-0.300	-0.578
-328.172	42.607	0.735	-0.666
-327.158	-136.578	1.373	-0.158
-326.143	120.084	0.141	-0.174
-325.129	85.410	-0.480	-0.525
-324.114	30.162	-0.706	-0.600
-323.099	-151.458	-0.325	0.024
-322.085	-8.442	-0.393	-0.263
-321.070	-200.000	0.159	0.845
-320.056	-200.000	0.070	-0.414
-319.041	-42.204	-0.233	0.119
-318.026	43.356	-0.490	-0.446
-317.012	313.545	0.268	0.502
-315.997	116.463	-0.138	-0.169
-314.983	-45.714	0.147	-0.073
-313.968	-52.258	0.787	-0.363
-312.953	58.047	0.408	-0.398
-311.939	56.292	0.490	-0.474
-310.924	-5.086	-0.402	0.275
-309.910	-51.388	0.640	0.298
-308.895	800.000	-0.074	0.231
-307.880	-200.000	0.067	0.531
-306.866	-21.923	-0.177	-0.107
-305.851	11.517	-1.038	0.792
-304.837	-123.801	0.546	0.086
-303.822	589.556	0.256	-0.628
-302.807	428.508	-0.339	-0.729
-301.793	-22.434	-0.132	0.079
-300.778	-34.770	0.414	0.225
-299.764	-13.437	0.466	-0.300
-298.749	-6.065	-0.317	0.215
-297.735	-160.229	0.454	-0.024
-296.720	-200.000	-0.093	-0.741
-295.705	-150.993	-0.934	-0.070
-294.691	-160.626	1.104	-0.059
-293.676	-200.000	0.030	-0.317
-292.662	800.000	0.148	-0.594
-291.647	88.532	0.241	-0.266
-290.632	88.233	0.188	-0.208
-289.618	150.844	0.358	-0.485
-288.603	-33.944	-0.707	-0.387
-287.589	6.100	0.526	0.388
-286.574	468.195	-0.181	-0.405
-285.559	154.908	0.184	-0.251
-284.545	96.837	-0.374	0.427
-283.530	84.528	-0.019	-0.020
-282.516	131.200	0.288	-0.368
-281.501	-60.379	0.164	-0.070
-280.486	-200.000	0.041	-0.406
-279.472	303.797	-0.121	0.223
-278.457	-2.286	-0.245	0.171
-277.443	800.000	0.144	0.581
-276.428	611.428	0.102	-0.253
-275.413	-178.537	-0.883	-0.020
-274.399	-179.365	-1.038	0.023
-273.384	207.510	0.466	-0.723
-272.370	-124.031	0.290	-0.045
-271.355	593.940	-0.305	0.750
-270.340	-62.477	0.349	-0.144
-269.326	719.042	-0.201	-0.530
-268.311	58.063	0.758	-0.738
-267.297	74.468	-0.626	-0.654
-266.282	79.224	0.475	0.506
-265.267	22.052	0.362	0.294
-264.253	-200.000	0.111	-0.482
-263.238	800.000	-0.148	0.633
-262.224	-200.000	-0.058	-0.662
-261.209	-86.468	0.275	-0.084
-260.195	-200.000	0.040	-0.222
-259.180	-90.794	-0.392	-0.112
-258.165	182.955	-0.223	0.327
-257.151	-200.000	-0.036	-0.316
-256.136	-200.000	0.034	0.465
-255.122	427.641	-0.278	-0.596
-254.107	515.852	-0.208	0.482
-253.092	-22.065	0.390	-0.235
-252.078	-171.379	-0.521	0.017
-251.063	11.105	-0.209	0.159
-250.049	-68.624	-0.658	0.253
-249.034	-43.836	1.224	-0.612
-248.019	-5.541	-0.185	-0.126
-247.005	330.605	0.325	0.622
-245.990	-109.350	0.257	-0.054
-244.976	-71.027	-0.615	-0.230
-243.961	-45.677	-0.415	-0.204
-242.946	-100.781	0.360	-0.088
-241.932	-200.000	0.046	0.567
-240.917	288.719	0.279	-0.501
-239.903	-200.000	0.086	-0.866
-238.888	786.787	-0.148	0.402
-237.873	-200.000	0.071	0.370
-236.859	91.604	0.062	0.069
-235.844	-105.589	-0.350	0.079
-234.830	-200.000	0.024	0.210
-233.815	197.556	-0.198	0.300
-232.800	26.381	-0.307	0.255
-231.786	73.322	-0.462	-0.480
-230.771	104.804	0.334	0.390
-229.757	203.324	0.045	0.069
-228.742	800.000	0.108	-0.466
-227.727	263.038	-0.023	0.040
-226.713	-200.000	0.035	0.216
-225.698	87.070	0.091	0.100
-224.684	99.939	0.377	-0.434
-223.669	-200.000	0.138	-0.660
-222.655	31.276	0.301	-0.257
-221.640	475.672	0.251	-0.562
-220.625	46.009	-0.148	-0.136
-219.611	57.471	-0.390	0.378
-218.596	800.000	-0.068	-0.229
-217.582	-200.000	0.050	-0.345
-216.567	427.998	-0.090	0.193
-215.552	-39.705	-0.280	0.145
-214.538	133.202	-0.388	-0.497
-213.523	204.583	-0.166	-0.255
-212.509	-200.000	0.040	0.919
-211.494	43.814	0.533	0.484
-210.479	-112.471	0.316	-0.062
-209.465	276.040	0.260	-0.457
-208.450	32.600	0.230	0.197
-207.436	216.411	-0.410	-0.647
-206.421	-142.380	-0.535	-0.052
-205.406	513.908	-0.282	-0.652
-204.392	-3.478	0.226	-0.156
-203.377	475.095	-0.226	-0.505
-202.363	800.000	0.024	-0.075
-201.348	101.223	-0.224	-0.258
-200.333	-83.299	-0.340	0.108
-199.319	-200.000	0.027	0.540
-198.304	399.180	0.217	0.452
-197.290	-200.000	0.013	0.666
-196.275	-41.806	-0.253	-0.129
-195.260	800.000	0.123	0.528
-194.246	-184.490	-0.286	-0.005
-193.231	-200.000	0.042	1.154
-192.217	-200.000	-0.042	1.109
-191.202	-147.539	-0.285	0.024
-190.187	293.489	-0.258	0.466
-189.173	-200.000	-0.052	-0.395
-188.158	-4.644	-0.112	0.076
-187.144	85.443	0.442	-0.481
-186.129	-200.000	-0.047	0.898
-185.114	181.941	0.310	0.452
-184.100	-87.488	-1.224	-0.367
-183.085	169.109	0.299	-0.422
-182.071	14.615	0.769	0.595
-181.056	-61.211	0.451	-0.188
-180.042	-100.976	-0.082	0.020
-179.027	233.208	-0.322	0.525
-178.012	221.500	-0.384	-0.611
-176.998	422.542	-0.490	-1.042
-175.983	10.284	0.151	0.114
-174.969	67.723	-0.443	-0.449
-173.954	-26.254	0.536	-0.312
-172.939	800.000	0.291	0.928
-171.925	-200.000	-0.089	0.430
-170.910	187.845	-0.194	0.286
-169.896	800.000	0.157	0.645
-168.881	-200.000	0.032	0.173
-167.866	800.000	-0.167	0.493
-166.852	-94.185	0.200	0.054
-165.837	-200.000	0.010	-0.515
-164.823	22.561	-0.412	-0.333
-163.808	-89.498	0.637	-0.185
-162.793	55.355	0.435	-0.416
-161.779	98.556	0.100	-0.115
-160.764	800.000	0.099	-0.332
-159.750	-43.497	0.565	0.282
-158.735	122.213	0.347	0.429
-157.720	-1.628	-0.520	-0.362
-156.706	-2.773	0.793	-0.548
-155.691	-73.759	0.622	-0.224
-154.677	2.481	-0.818	-0.586
-153.662	-200.000	-0.192	0.996
-152.647	378.498	-0.289	-0.586
-151.633	8.999	-0.924	-0.690
-150.618	-200.000	-0.050	-0.425
-149.604	215.033	0.237	-0.372
-148.589	-200.000	-0.031	0.601
-147.574	-22.430	-0.802	-0.480
-146.560	678.505	0.160	-0.411
-145.545	-75.381	0.348	-0.123
-144.531	294.189	0.453	0.819
-143.516	-176.924	0.371	0.009
-142.502	128.380	-0.547	0.689
-141.487	-149.452	1.182	-0.093
-140.472	361.612	0.299	0.592
-139.458	-5.356	-0.919	0.624
-138.443	800.000	0.179	-0.502
-137.429	204.837	-0.308	-0.473
-136.414	-200.000	0.091	-0.485
-135.399	-200.000	-0.127	0.738
-134.385	800.000	0.041	0.158
-133.370	430.754	0.439	-0.940
-132.356	-200.000	0.039	-0.637
-131.341	-2.951	0.275	-0.190
-130.326	800.000	0.069	-0.215
-129.312	-135.937	0.181	-0.021
-128.297	198.976	0.059	0.090
-127.283	-7.579	0.258	-0.173
-126.268	213.363	0.264	-0.412
-125.253	-42.212	-0.411	0.207
-124.239	-200.000	-0.093	0.465
-123.224	51.356	0.066	-0.062
-122.210	-200.000	-0.151	-0.955
-121.195	-118.782	0.525	-0.091
-120.180	-115.293	-0.717	0.134
