DTS Sentinel unit serial number:	SN413079Multiplexer serial number:	ORYXHardware model number:	OX4-SRSoftware version number:	ORYX F/W v4.00 Oryx Data Collector v3.7.2.0data status	okinstallation	princeton_trtdifferential loss correction	single-endedforward channel	channel 1reverse channel	N/Adate	2019/09/19time	12:58:35forward acquisition time	60.00reverse acquisition time	0.00gamma	496.2192k internal	0.2328k external	0.2328temperature offset calibration	1.0014default loss term (dB/km)	0.3790temperature slope calibration	1.0000multiplexer offset coefficient	1.0000multiplexer slope coefficient	1.0000fibre end	0.00T internal ref (°C)	28.52T ext. ref 1 (°C)	0.91T ext. ref 2 (°C)	26.76length (m)	temperature (°C)	Stokes	anti-Stokes-747.200	-9.671	-0.216	0.145
-746.185	-146.832	-0.217	0.019
-745.171	800.000	-0.070	-0.224
-744.156	-136.042	-0.403	-0.048
-743.142	468.415	0.153	-0.347
-742.127	-200.000	-0.022	0.247
-741.112	-29.990	0.113	0.065
-740.098	61.912	0.119	0.119
-739.083	-32.050	0.093	-0.052
-738.069	673.162	-0.210	0.549
-737.054	-150.272	-0.495	-0.039
-736.039	16.284	-0.195	-0.155
-735.025	-97.316	0.086	-0.023
-734.010	5.581	-0.031	0.023
-732.996	350.837	-0.241	0.480
-731.981	-200.000	0.067	-0.332
-730.966	-182.152	-0.419	-0.008
-729.952	41.659	0.085	-0.078
-728.937	310.754	-0.129	-0.244
-727.923	-57.596	-0.194	-0.086
-726.908	335.487	-0.059	-0.115
-725.894	800.000	-0.036	0.119
-724.879	346.315	0.114	0.225
-723.864	-109.088	-0.414	-0.089
-722.850	1.638	0.197	-0.143
-721.835	-200.000	0.011	0.419
-720.821	238.555	0.219	-0.365
-719.806	-145.985	-0.355	0.032
-718.791	-200.000	-0.423	0.000
-717.777	-30.852	0.238	0.136
-716.762	-145.814	0.171	-0.015
-715.748	30.330	-0.183	0.157
-714.733	-172.926	-0.025	-0.001
-713.718	736.848	-0.152	-0.410
-712.704	-3.693	-0.173	-0.121
-711.689	305.947	0.106	-0.198
-710.675	-77.345	-0.037	0.013
-709.660	800.000	-0.016	0.071
-708.645	-165.755	0.276	0.012
-707.631	204.742	-0.167	-0.261
-706.616	-27.242	-0.214	0.125
-705.602	-135.867	0.279	0.033
-704.587	-107.992	-0.143	0.031
-703.572	104.992	0.086	-0.102
-702.558	763.610	-0.118	0.322
-701.543	800.000	0.157	0.442
-700.529	19.058	-0.326	-0.263
-699.514	-200.000	-0.031	0.230
-698.499	-27.710	-0.116	-0.068
-697.485	240.722	-0.132	-0.221
-696.470	-171.126	0.088	-0.003
-695.456	-33.413	-0.194	-0.108
-694.441	116.147	-0.064	-0.078
-693.426	-200.000	-0.009	-0.192
-692.412	-58.901	-0.071	-0.031
-691.397	15.788	0.282	-0.223
-690.383	-35.311	-0.096	-0.052
-689.368	-200.000	-0.049	-0.373
-688.354	-33.682	-0.389	0.216
-687.339	-200.000	0.007	-0.235
-686.324	-74.405	0.124	-0.045
-685.310	800.000	0.061	-0.211
-684.295	84.237	-0.112	-0.123
-683.281	-200.000	-0.029	-0.382
-682.266	408.971	0.110	-0.233
-681.251	-82.426	-0.279	0.091
-680.237	149.289	0.179	-0.243
-679.222	-17.659	-0.138	0.087
-678.208	-40.101	0.105	0.055
-677.193	-92.350	-0.302	-0.085
-676.178	-8.770	-0.171	0.115
-675.164	-200.000	0.013	-0.074
-674.149	357.136	-0.249	-0.499
-673.135	104.794	0.081	0.096
-672.120	-102.584	-0.257	0.062
-671.105	800.000	0.061	0.229
-670.091	138.889	-0.026	0.035
-669.076	143.951	-0.086	0.115
-668.062	-200.000	-0.024	-0.111
-667.047	41.439	-0.034	0.031
-666.032	-149.853	0.177	0.014
-665.018	-102.676	-0.387	-0.093
-664.003	172.821	-0.179	0.259
-662.989	286.721	0.086	-0.156
-661.974	-200.000	-0.031	-0.140
-660.959	-129.802	-0.068	-0.009
-659.945	800.000	0.081	-0.262
-658.930	289.613	0.055	-0.099
-657.916	91.334	0.071	-0.080
-656.901	-15.308	0.201	0.129
-655.886	-200.000	0.019	0.392
-654.872	-147.805	-0.095	-0.008
-653.857	-52.740	0.105	0.049
-652.843	456.341	0.062	-0.139
-651.828	190.531	0.229	-0.345
-650.814	-126.800	0.381	-0.056
-649.799	-73.523	-0.172	-0.063
-648.784	143.290	-0.145	0.194
-647.770	-29.794	0.073	0.042
-646.755	114.000	-0.072	0.088
-645.741	-113.364	0.238	-0.047
-644.726	-35.925	-0.096	-0.052
-643.711	-151.499	0.543	-0.040
-642.697	-155.137	-0.202	0.013
-641.682	-5.442	-0.117	-0.081
-640.668	245.064	-0.014	-0.023
-639.653	-200.000	0.004	-0.255
-638.638	800.000	0.022	-0.093
-637.624	-26.900	0.234	-0.137
-636.609	320.251	-0.204	-0.388
-635.595	105.972	-0.187	0.223
-634.580	-123.765	-0.111	-0.018
-633.565	20.727	-0.212	-0.172
-632.551	-75.945	0.069	-0.025
-631.536	9.384	-0.238	-0.181
-630.522	-39.976	-0.180	0.094
-629.507	45.213	-0.075	-0.069
-628.492	-46.551	-0.040	-0.019
-627.478	217.859	0.187	0.299
-626.463	-136.776	0.425	0.049
-625.449	-163.918	0.101	0.005
-624.434	65.763	-0.148	0.151
-623.419	352.239	0.078	-0.156
-622.405	-78.437	0.170	-0.059
-621.390	712.520	0.047	0.125
-620.376	-109.041	-0.323	-0.069
-619.361	-125.223	-0.202	-0.031
-618.346	-200.000	-0.007	0.324
-617.332	138.572	0.248	0.327
-616.317	-132.276	-0.049	0.006
-615.303	800.000	-0.049	-0.146
-614.288	240.777	0.125	-0.210
-613.273	125.801	0.106	-0.134
-612.259	-76.852	0.250	0.088
-611.244	40.566	-0.203	0.183
-610.230	326.995	-0.212	0.408
-609.215	-124.565	0.111	0.017
-608.201	-147.592	0.174	-0.015
-607.186	-63.634	0.195	-0.080
-606.171	-200.000	0.004	-0.090
-605.157	-78.651	0.432	0.148
-604.142	-0.968	-0.259	-0.184
-603.128	-29.746	-0.091	0.052
-602.113	268.525	0.125	0.220
-601.098	2.353	0.056	-0.041
-600.084	625.847	-0.120	-0.303
-599.069	-200.000	0.079	0.376
-598.055	103.025	0.145	-0.170
-597.040	54.162	0.030	0.028
-596.025	-188.191	0.119	0.002
-595.011	-171.244	0.158	0.005
-593.996	-79.738	-0.213	-0.072
-592.982	-200.000	-0.019	0.153
-591.967	-23.062	-0.202	-0.122
-590.952	800.000	-0.132	0.379
-589.938	-68.676	0.213	-0.083
-588.923	-134.382	0.179	0.022
-587.909	-200.000	-0.002	0.126
-586.894	-167.205	-0.157	0.006
-585.879	-200.000	-0.016	0.088
-584.865	104.124	-0.235	-0.277
-583.850	-200.000	-0.050	0.354
-582.836	-1.145	-0.342	-0.242
-581.821	-133.324	-0.200	0.025
-580.806	800.000	0.022	0.088
-579.792	1.803	-0.163	0.117
-578.777	264.025	-0.156	-0.271
-577.763	193.425	0.172	0.260
-576.748	-200.000	0.004	0.151
-575.733	-22.407	0.086	-0.052
-574.719	57.603	-0.026	-0.026
-573.704	-200.000	-0.031	-0.332
-572.690	-30.591	-0.232	0.132
-571.675	91.711	0.101	-0.114
-570.661	-124.153	0.191	0.030
-569.646	-200.000	-0.008	-0.145
-568.631	-41.165	-0.133	0.069
-567.617	-135.180	-0.355	0.043
-566.602	-29.955	0.291	0.166
-565.588	-25.070	0.023	0.014
-564.573	-177.353	0.203	0.005
-563.558	42.779	0.127	0.116
-562.544	174.942	-0.257	-0.373
-561.529	22.139	-0.079	-0.065
-560.515	-16.131	-0.238	-0.151
-559.500	-85.547	-0.171	0.053
-558.485	-26.771	0.098	0.058
-557.471	-126.903	0.395	-0.058
-556.456	-153.183	0.171	0.012
-555.442	-170.454	-0.089	-0.003
-554.427	84.702	-0.053	0.058
-553.412	512.399	-0.073	-0.170
-552.398	-148.812	-0.286	0.023
-551.383	563.236	-0.168	0.408
-550.369	-35.760	-0.006	-0.003
-549.354	-200.000	-0.033	0.166
-548.339	-200.000	0.027	0.204
-547.325	-200.000	-0.007	0.160
-546.310	-200.000	-0.035	-0.549
-545.296	-38.600	-0.126	-0.067
-544.281	222.791	0.182	0.294
-543.266	-78.285	0.377	-0.129
-542.252	-41.880	0.260	-0.133
-541.237	-65.513	0.230	-0.092
-540.223	-200.000	-0.001	0.054
-539.208	-29.956	0.117	0.067
-538.193	-47.359	-0.249	0.121
-537.179	800.000	-0.033	0.139
-536.164	156.593	-0.099	-0.137
-535.150	580.577	-0.070	-0.170
-534.135	261.722	-0.039	-0.068
-533.121	-189.023	-0.089	0.001
-532.106	68.606	-0.075	0.077
-531.091	114.286	-0.070	-0.085
-530.077	295.436	-0.037	0.067
-529.062	-200.000	-0.039	-0.358
-528.048	-159.757	-0.056	0.003
-527.033	185.751	0.150	0.222
-526.018	-200.000	-0.042	0.417
-525.004	800.000	0.051	-0.149
-523.989	-140.758	0.259	0.027
-522.975	-49.214	-0.217	-0.104
-521.960	-147.087	0.160	0.014
-520.945	78.501	-0.107	0.114
-519.931	-15.591	-0.052	0.033
-518.916	-200.000	0.009	0.184
-517.902	326.262	0.158	0.302
-516.887	55.962	0.111	-0.108
-515.872	-152.806	0.082	-0.006
-514.858	-52.813	0.163	-0.075
-513.843	-26.121	-0.192	-0.112
-512.829	-200.000	0.005	0.069
-511.814	-95.132	-0.099	-0.027
-510.799	-200.000	-0.041	-0.288
-509.785	-170.293	-0.054	0.002
-508.770	78.455	0.231	-0.247
-507.756	618.739	0.142	0.356
-506.741	800.000	0.100	0.303
-505.726	-18.733	-0.197	-0.122
-504.712	521.374	-0.074	0.172
-503.697	-200.000	-0.026	-0.291
-502.683	7.279	0.068	0.050
-501.668	-62.952	0.204	0.084
-500.653	-200.000	-0.011	-0.092
-499.639	-171.931	-0.436	-0.014
-498.624	-31.672	0.162	0.091
-497.610	-121.510	-0.358	-0.059
-496.595	-92.987	-0.198	-0.055
-495.581	27.630	0.131	-0.110
-494.566	455.652	-0.119	-0.262
-493.551	-200.000	-0.045	0.373
-492.537	-148.842	-0.333	-0.027
-491.522	431.751	-0.120	0.259
-490.508	9.048	-0.063	-0.047
-489.493	-73.945	-0.193	-0.070
-488.478	766.229	0.073	-0.199
-487.464	-29.079	0.189	0.108
-486.449	-64.838	0.160	0.065
-485.435	-200.000	0.017	0.116
-484.420	172.194	0.132	-0.189
-483.405	189.657	-0.168	-0.251
-482.391	198.229	0.051	-0.078
-481.376	-38.894	0.384	0.202
-480.362	-46.197	0.447	-0.219
-479.347	-99.677	0.027	0.007
-478.332	-139.070	-0.164	-0.018
-477.318	245.252	-0.047	-0.080
-476.303	7.949	-0.161	0.121
-475.289	313.523	-0.035	0.065
-474.274	624.552	-0.098	0.246
-473.259	-122.257	-0.245	0.040
-472.245	-200.000	0.002	0.312
-471.230	-200.000	-0.008	0.088
-470.216	-109.093	-0.171	0.036
-469.201	141.894	-0.074	0.098
-468.186	60.248	-0.282	0.278
-467.172	-71.271	0.212	-0.079
-466.157	800.000	0.033	-0.123
-465.143	-64.916	0.339	0.137
-464.128	34.751	0.243	0.211
-463.113	64.630	0.219	-0.220
-462.099	-200.000	0.005	-0.236
-461.084	800.000	-0.036	-0.100
-460.070	-200.000	-0.024	0.386
-459.055	21.580	0.087	-0.070
-458.040	-136.377	-0.174	-0.020
-457.026	184.148	-0.130	0.191
-456.011	70.697	-0.279	0.287
-454.997	-200.000	-0.020	0.209
-453.982	51.144	0.211	0.199
-452.968	800.000	0.086	-0.267
-451.953	295.470	-0.021	-0.038
-450.938	390.396	0.133	-0.275
-449.924	800.000	0.124	-0.484
-448.909	-200.000	0.053	0.323
-447.895	800.000	-0.016	-0.064
-446.880	-55.167	0.136	0.061
-445.865	-200.000	-0.023	-0.193
-444.851	13.015	0.049	0.038
-443.836	-200.000	0.009	0.071
-442.822	800.000	-0.064	0.212
-441.807	159.001	-0.128	-0.177
-440.792	-200.000	0.031	-0.173
-439.778	-90.689	0.155	0.045
-438.763	-26.289	0.323	0.189
-437.749	-147.603	0.182	-0.015
-436.734	-134.942	0.191	0.023
-435.719	360.868	0.113	-0.225
-434.705	-84.469	0.070	0.022
-433.690	-200.000	-0.017	-0.178
-432.676	-153.780	-0.194	-0.013
-431.661	331.393	-0.180	0.345
-430.646	800.000	0.205	-0.576
-429.632	800.000	0.052	-0.164
-428.617	-200.000	-0.043	-0.270
-427.603	-78.121	-0.352	-0.120
-426.588	-103.606	-0.077	-0.018
-425.573	257.296	0.066	-0.113
-424.559	25.270	0.101	0.084
-423.544	83.941	0.098	0.107
-422.530	-120.217	-0.509	-0.086
-421.515	-200.000	0.023	0.159
-420.500	800.000	0.051	-0.159
-419.486	119.107	0.166	-0.205
-418.471	-156.052	-0.388	-0.024
-417.457	751.857	-0.036	-0.097
-416.442	800.000	0.083	-0.266
-415.428	-26.119	0.049	0.029
-414.413	-52.913	0.040	-0.018
-413.398	108.948	0.185	-0.220
-412.384	-163.845	0.154	-0.007
-411.369	800.000	0.044	0.167
-410.355	20.732	0.239	-0.192
-409.340	-200.000	0.011	-0.221
-408.325	96.201	-0.102	0.116
-407.311	-65.691	-0.212	-0.084
-406.296	8.419	0.118	-0.088
-405.282	291.673	0.138	-0.249
-404.267	81.004	0.268	0.287
-403.252	82.114	0.189	0.204
-402.238	-10.117	0.104	-0.069
-401.223	81.797	0.076	0.082
-400.209	320.560	-0.152	0.288
-399.194	-172.171	0.163	0.005
-398.179	-24.560	-0.272	0.161
-397.165	-71.454	-0.276	0.103
-396.150	-51.654	0.223	-0.103
-395.136	-200.000	0.003	-0.167
-394.121	-142.848	-0.372	-0.036
-393.106	-119.017	0.173	0.030
-392.092	50.539	0.103	-0.097
-391.077	-120.867	0.229	-0.038
-390.063	-118.079	-0.159	0.028
-389.048	154.433	-0.053	0.072
-388.033	-33.198	0.289	-0.159
-387.019	514.164	-0.074	0.173
-386.004	136.974	-0.037	0.048
-384.990	-200.000	-0.014	-0.153
-383.975	168.797	0.221	-0.312
-382.960	-200.000	0.058	0.261
-381.946	289.699	0.212	0.383
-380.931	-41.907	-0.193	-0.098
-379.917	213.898	-0.189	-0.297
-378.902	86.731	-0.272	0.298
-377.888	-200.000	-0.082	-0.435
-376.873	800.000	0.094	-0.279
-375.858	308.281	0.084	0.156
-374.844	362.825	0.062	-0.123
-373.829	-200.000	-0.003	-0.275
-372.815	-22.689	-0.111	0.067
-371.800	-82.876	0.279	0.090
-370.785	-149.905	-0.126	-0.010
-369.771	36.418	-0.194	0.170
-368.756	75.371	-0.046	-0.049
-367.742	-200.000	0.023	-0.134
-366.727	7.025	0.200	-0.148
-365.712	-200.000	0.028	-0.137
-364.698	537.192	0.086	-0.203
-363.683	-200.000	0.005	0.179
-362.669	-127.519	-0.254	-0.037
-361.654	-15.862	-0.189	-0.119
-360.639	-155.365	-0.326	0.021
-359.625	28.222	0.349	-0.293
-358.610	-161.520	-0.334	-0.017
-357.596	-200.000	-0.036	0.219
-356.581	-200.000	0.037	0.207
-355.566	-200.000	0.015	-0.189
-354.552	247.369	0.059	0.098
-353.537	251.185	-0.204	-0.344
-352.523	800.000	0.008	0.026
-351.508	800.000	0.103	-0.287
-350.493	-179.802	-0.242	-0.005
-349.479	-200.000	0.029	-0.155
-348.464	800.000	-0.038	0.154
-347.450	-200.000	-0.015	-0.122
-346.435	63.250	0.103	0.102
-345.420	-59.610	-0.059	-0.025
-344.406	-187.327	0.364	-0.005
-343.391	702.911	-0.098	-0.256
-342.377	-85.828	0.264	-0.081
-341.362	-200.000	-0.013	0.203
-340.348	-200.000	-0.003	0.171
-339.333	241.027	-0.089	0.147
-338.318	-152.870	-0.081	0.006
-337.304	-98.553	0.267	0.068
-336.289	267.979	0.172	-0.299
-335.275	258.173	-0.058	0.099
-334.260	-148.231	0.267	0.022
-333.245	-20.858	0.341	-0.207
-332.231	-200.000	-0.056	-0.305
-331.216	-0.240	-0.265	-0.187
-330.202	800.000	-0.072	0.252
-329.187	-119.149	-0.306	-0.053
-328.172	226.649	-0.159	0.256
-327.158	-200.000	0.046	0.341
-326.143	-200.000	0.068	0.448
-325.129	62.781	0.178	0.176
-324.114	279.383	-0.071	0.125
-323.099	506.612	-0.109	0.250
-322.085	-158.247	0.161	-0.009
-321.070	-39.348	0.091	-0.047
-320.056	-200.000	0.017	-0.280
-319.041	76.167	-0.201	-0.211
-318.026	26.148	0.104	-0.086
-317.012	-40.742	0.153	-0.079
-315.997	-112.139	0.212	-0.042
-314.983	800.000	0.095	0.286
-313.968	104.745	-0.246	-0.287
-312.953	800.000	-0.052	-0.171
-311.939	-96.081	-0.258	0.068
-310.924	-14.487	0.087	0.056
-309.910	269.290	0.191	-0.332
-308.895	-200.000	-0.045	-0.256
-307.880	651.299	-0.099	0.251
-306.866	800.000	0.009	-0.027
-305.851	-200.000	0.007	-0.074
-304.837	-22.043	-0.248	0.149
-303.822	-114.040	-0.135	-0.026
-302.807	-88.191	-0.204	0.060
-301.793	470.507	0.112	0.250
-300.778	800.000	-0.072	-0.208
-299.764	82.065	0.060	-0.065
-298.749	147.903	-0.230	-0.307
-297.735	178.886	-0.047	-0.068
-296.720	40.031	0.163	0.145
-295.705	-159.722	-0.218	0.012
-294.691	-87.193	-0.227	0.068
-293.676	-200.000	0.007	0.132
-292.662	-108.195	0.392	-0.084
-291.647	-75.239	-0.159	-0.056
-290.632	-124.119	-0.149	-0.023
-289.618	800.000	0.021	0.058
-288.603	-200.000	0.017	-0.141
-287.589	-200.000	-0.011	-0.098
-286.574	-52.474	-0.398	0.182
-285.559	-112.259	0.271	-0.054
-284.545	800.000	-0.094	-0.306
-283.530	800.000	0.033	0.123
-282.516	-93.104	-0.454	-0.125
-281.501	-200.000	0.011	-0.270
-280.486	-116.017	0.134	-0.025
-279.472	-200.000	0.118	-0.525
-278.457	572.794	0.055	-0.132
-277.443	-112.114	-0.199	0.040
-276.428	-3.355	-0.085	0.058
-275.413	-98.591	-0.430	0.109
-274.399	-200.000	-0.014	0.191
-273.384	-82.217	0.177	0.057
-272.370	31.038	-0.208	-0.177
-271.355	151.144	-0.154	-0.208
-270.340	327.447	0.026	0.050
-269.326	-30.563	0.171	0.096
-268.311	-200.000	0.003	0.025
-267.297	666.946	-0.017	0.043
-266.282	-27.151	0.156	-0.090
-265.267	-161.702	0.314	-0.016
-264.253	-68.130	-0.148	-0.057
-263.238	192.599	-0.067	0.100
-262.224	-108.004	-0.140	-0.030
-261.209	21.784	0.245	-0.197
-260.195	-67.243	-0.139	-0.054
-259.180	-94.604	0.291	0.078
-258.165	400.145	-0.088	-0.182
-257.151	41.109	0.114	0.102
-256.136	-200.000	-0.019	0.336
-255.122	109.415	-0.113	-0.134
-254.107	153.242	0.232	0.314
-253.092	800.000	-0.058	0.199
-252.078	50.776	0.358	0.335
-251.063	-200.000	-0.039	0.322
-250.049	-159.106	-0.167	0.009
-249.034	145.990	0.037	-0.049
-248.019	800.000	-0.066	-0.228
-247.005	800.000	-0.077	0.253
-245.990	800.000	0.071	0.235
-244.976	-94.146	-0.167	-0.045
-243.961	-29.358	-0.262	0.148
-242.946	-0.482	0.243	0.171
-241.932	298.340	-0.062	-0.112
-240.917	194.440	0.058	-0.087
-239.903	177.093	0.135	-0.195
-238.888	-171.072	-0.101	-0.003
-237.873	-83.171	-0.113	0.036
-236.859	244.376	-0.007	-0.012
-235.844	61.863	-0.119	-0.117
-234.830	461.981	-0.016	0.034
-233.815	232.612	0.165	0.268
-232.800	-153.070	0.094	-0.007
-231.786	10.284	-0.178	-0.134
-230.771	-200.000	-0.057	0.336
-229.757	334.140	0.040	0.077
-228.742	-142.612	0.112	0.011
-227.727	104.443	-0.096	-0.112
-226.713	-200.000	-0.034	0.200
-225.698	-200.000	0.000	-0.003
-224.684	-200.000	0.020	0.162
-223.669	-156.042	0.093	-0.006
-222.655	-87.074	-0.167	0.050
-221.640	800.000	0.178	0.507
-220.625	-109.673	-0.238	0.049
-219.611	-148.319	-0.205	-0.017
-218.596	-200.000	0.011	-0.306
-217.582	-106.184	0.142	-0.031
-216.567	-93.330	0.117	-0.032
-215.552	800.000	0.099	0.357
-214.538	318.909	-0.174	-0.326
-213.523	800.000	-0.180	-0.611
-212.509	20.234	0.096	0.077
-211.494	295.251	-0.094	0.171
-210.479	57.425	0.159	0.153
-209.465	-87.847	0.230	-0.068
-208.450	1.548	0.081	0.058
-207.436	-83.364	-0.073	0.023
-206.421	-200.000	0.039	-0.262
-205.406	-188.244	0.145	-0.002
-204.392	-133.984	0.051	0.006
-203.377	-9.825	0.211	0.138
-202.363	800.000	-0.054	0.190
-201.348	-200.000	0.004	0.272
-200.333	-148.172	-0.359	-0.029
-199.319	-1.168	0.120	-0.084
-198.304	-70.613	-0.370	0.138
-197.290	141.141	-0.127	0.166
-196.275	164.844	0.158	-0.220
-195.260	-161.194	0.517	0.027
-194.246	-120.321	0.514	0.086
-193.231	591.883	-0.073	-0.177
-192.217	-157.269	-0.316	-0.019
-191.202	-63.105	-0.050	0.020
-190.187	373.973	-0.140	0.281
-189.173	469.125	0.050	0.110
-188.158	-136.801	0.185	0.021
-187.144	325.458	0.105	-0.197
-186.129	587.376	-0.109	-0.265
-185.114	49.041	0.106	-0.098
-184.100	-200.000	0.001	0.302
-183.085	710.541	-0.030	0.078
-182.071	190.931	-0.107	-0.158
-181.056	107.107	-0.133	0.155
-180.042	149.710	0.047	0.062
-179.027	53.797	0.278	-0.263
-178.012	-141.793	0.285	0.028
-176.998	-200.000	0.035	0.266
-175.983	-200.000	0.023	-0.192
-174.969	47.639	-0.223	0.205
-173.954	-141.828	-0.068	0.007
-172.939	-130.333	0.117	-0.016
-171.925	130.046	-0.070	-0.088
-170.910	514.389	0.107	0.247
-169.896	272.956	0.066	0.115
-168.881	-24.625	-0.310	0.182
-167.866	-200.000	0.007	0.312
-166.852	-200.000	-0.062	-0.386
-165.837	-106.962	0.227	-0.049
-164.823	800.000	0.035	0.141
-163.808	140.817	0.081	0.105
-162.793	-145.813	0.228	-0.020
-161.779	-93.528	0.148	0.040
-160.764	-36.128	-0.101	0.054
-159.750	115.961	-0.155	-0.187
-158.735	-200.000	0.010	0.199
-157.720	90.851	0.069	0.076
-156.706	213.601	-0.146	0.227
-155.691	-87.779	0.219	-0.065
-154.677	-171.505	-0.299	0.010
-153.662	45.636	-0.117	-0.106
-152.647	-200.000	0.058	-0.263
-151.633	-138.970	0.169	-0.018
-150.618	-142.472	0.122	-0.012
-149.604	-172.930	-0.257	-0.008
-148.589	-200.000	-0.002	0.063
-147.574	-200.000	0.032	-0.193
-146.560	-200.000	-0.036	-0.191
-145.545	182.219	0.370	-0.536
-144.531	-59.508	0.388	0.164
-143.516	63.948	0.131	-0.130
-142.502	-118.858	-0.320	0.055
-141.487	84.774	0.014	0.015
-140.472	800.000	0.131	0.542
-139.458	228.146	0.105	0.168
-138.443	-200.000	-0.023	-0.301
-137.429	347.459	0.073	-0.141
-136.414	54.263	0.207	-0.196
-135.399	245.276	-0.127	0.210
-134.385	-93.927	0.368	0.100
-133.370	272.059	0.025	-0.044
-132.356	571.394	0.082	-0.197
-131.341	800.000	-0.065	-0.188
-130.326	-200.000	-0.021	0.113
-129.312	800.000	-0.087	0.366
-128.297	12.354	0.286	0.217
-127.283	-16.566	-0.300	0.187
-126.268	800.000	-0.018	-0.067
-125.253	-3.529	-0.096	-0.065
-124.239	193.311	0.113	-0.168
-123.224	-200.000	-0.007	0.100
