DTS Sentinel unit serial number:	SN413079Multiplexer serial number:	ORYXHardware model number:	OX4-SRSoftware version number:	ORYX F/W v4.00 Oryx Data Collector v3.7.2.0data status	okinstallation	princeton_trtdifferential loss correction	single-endedforward channel	channel 1reverse channel	N/Adate	2019/09/18time	19:22:35forward acquisition time	60.00reverse acquisition time	0.00gamma	496.2192k internal	0.2320k external	0.2320temperature offset calibration	1.0033default loss term (dB/km)	0.3790temperature slope calibration	1.0000multiplexer offset coefficient	1.0000multiplexer slope coefficient	1.0000fibre end	0.00T internal ref (°C)	33.66T ext. ref 1 (°C)	1.10T ext. ref 2 (°C)	23.05length (m)	temperature (°C)	Stokes	anti-Stokes-747.200	64.344	0.093	-0.095
-746.185	-75.140	-0.558	0.202
-745.171	-1.415	0.134	-0.096
-744.156	-56.214	-0.248	-0.112
-743.142	68.147	0.074	-0.077
-742.127	-72.460	-0.142	0.053
-741.112	41.667	-0.238	0.218
-740.098	136.559	0.116	-0.153
-739.083	7.270	-0.160	0.121
-738.069	120.835	0.067	0.084
-737.054	-85.889	-0.273	-0.085
-736.039	72.773	-0.235	0.248
-735.025	-62.579	0.244	0.102
-734.010	-200.000	0.053	-0.252
-732.996	800.000	-0.034	0.110
-731.981	-200.000	-0.016	0.292
-730.966	-14.289	0.073	0.048
-729.952	-58.357	-0.364	-0.160
-728.937	270.151	0.107	-0.190
-727.923	-131.965	0.279	0.037
-726.908	33.259	-0.163	0.143
-725.894	-40.618	-0.199	-0.104
-724.879	-29.380	0.008	0.005
-723.864	618.989	0.101	-0.257
-722.850	-109.838	-0.360	0.076
-721.835	200.073	0.118	0.183
-720.821	-104.727	0.193	-0.045
-719.806	453.820	-0.039	0.088
-718.791	658.221	-0.040	-0.104
-717.777	19.800	-0.222	0.181
-716.762	34.453	0.203	0.179
-715.748	800.000	-0.030	-0.096
-714.733	95.666	0.082	0.095
-713.718	153.414	0.137	-0.189
-712.704	800.000	-0.100	-0.299
-711.689	-200.000	0.008	-0.172
-710.675	-157.650	-0.242	0.015
-709.660	600.023	-0.068	0.170
-708.645	-200.000	0.000	0.047
-707.631	-200.000	0.005	0.032
-706.616	800.000	0.003	0.009
-705.602	-200.000	-0.028	0.186
-704.587	28.513	0.236	-0.202
-703.572	800.000	-0.054	0.166
-702.558	-78.976	0.180	-0.062
-701.543	800.000	0.049	0.157
-700.529	-200.000	-0.022	-0.281
-699.514	-69.674	-0.358	-0.138
-698.499	-154.234	0.450	-0.031
-697.485	11.599	-0.302	-0.234
-696.470	-200.000	-0.021	0.291
-695.456	99.482	0.109	-0.127
-694.441	-51.140	-0.179	-0.085
-693.426	41.110	0.121	-0.110
-692.412	-80.449	0.174	-0.059
-691.397	-96.715	-0.300	-0.080
-690.383	-4.540	-0.214	-0.149
-689.368	-134.366	-0.011	0.001
-688.354	800.000	0.071	-0.206
-687.339	-116.458	-0.201	0.037
-686.324	-132.425	-0.143	-0.019
-685.310	131.216	-0.090	-0.116
-684.295	-200.000	-0.052	-0.309
-683.281	-72.200	0.149	-0.056
-682.266	-39.304	-0.197	-0.104
-681.251	800.000	0.015	0.048
-680.237	-200.000	0.048	-0.315
-679.222	232.688	-0.103	-0.170
-678.208	-131.201	-0.148	0.020
-677.193	800.000	0.084	0.248
-676.178	-200.000	0.021	-0.108
-675.164	19.720	0.057	0.046
-674.149	-200.000	-0.005	-0.088
-673.135	800.000	-0.058	-0.208
-672.120	8.275	-0.251	0.190
-671.105	280.321	0.075	-0.135
-670.091	-60.927	0.177	-0.076
-669.076	-95.098	0.278	-0.076
-668.062	-78.727	0.033	0.011
-667.047	-200.000	-0.027	-0.411
-666.032	-72.410	-0.199	0.074
-665.018	-200.000	-0.032	0.326
-664.003	-68.651	-0.124	-0.048
-662.989	800.000	0.033	-0.127
-661.974	800.000	-0.067	0.279
-660.959	-96.275	-0.084	0.022
-659.945	-200.000	-0.005	0.069
-658.930	11.870	-0.113	-0.088
-657.916	-200.000	0.243	0.000
-656.901	118.030	-0.065	-0.081
-655.886	34.365	-0.115	0.101
-654.872	108.595	-0.156	0.188
-653.857	800.000	-0.126	0.359
-652.843	-49.395	-0.186	-0.089
-651.828	-60.489	-0.310	-0.133
-650.814	-100.457	0.193	-0.048
-649.799	676.598	-0.122	0.318
-648.784	-10.068	0.217	-0.145
-647.770	-146.484	0.113	-0.010
-646.755	-200.000	0.012	0.109
-645.741	32.070	0.281	-0.244
-644.726	52.385	0.042	0.040
-643.711	-40.370	0.186	-0.098
-642.697	108.252	-0.130	-0.157
-641.682	-159.639	-0.276	-0.015
-640.668	-6.349	0.295	0.202
-639.653	-136.473	-0.239	-0.028
-638.638	-104.026	0.251	0.059
-637.624	800.000	0.008	0.034
-636.609	-200.000	0.026	0.225
-635.595	-200.000	-0.152	0.000
-634.580	116.761	-0.211	-0.261
-633.565	20.032	-0.025	-0.020
-632.551	-154.942	-0.111	0.007
-631.536	-133.250	-0.309	-0.039
-630.522	-55.596	0.301	0.136
-629.507	-163.684	0.087	-0.004
-628.492	269.938	0.181	0.320
-627.478	-162.442	0.258	-0.013
-626.463	35.887	0.377	-0.334
-625.449	-147.423	0.184	-0.016
-624.434	462.791	-0.078	-0.176
-623.419	-49.391	-0.081	-0.039
-622.405	224.599	-0.054	-0.087
-621.390	-102.981	0.140	-0.033
-620.376	-136.554	0.259	-0.030
-619.361	44.145	0.096	0.088
-618.346	-39.123	-0.070	-0.037
-617.332	265.964	0.121	0.212
-616.317	349.543	-0.102	-0.203
-615.303	-72.580	0.262	-0.097
-614.288	197.626	0.081	0.125
-613.273	800.000	-0.051	-0.181
-612.259	-20.082	-0.295	0.183
-611.244	-200.000	-0.006	0.042
-610.230	-70.992	-0.199	-0.075
-609.215	32.639	0.123	0.107
-608.201	-149.481	0.243	0.019
-607.186	213.305	0.122	-0.194
-606.171	288.015	-0.044	-0.079
-605.157	250.538	-0.189	-0.322
-604.142	-200.000	-0.056	-0.463
-603.128	49.427	-0.255	-0.242
-602.113	-200.000	-0.028	-0.220
-601.098	101.601	0.174	-0.204
-600.084	-129.798	-0.140	-0.019
-599.069	83.734	0.108	-0.119
-598.055	150.840	0.143	0.195
-597.040	-200.000	-0.001	0.224
-596.025	66.157	-0.050	-0.051
-595.011	111.776	-0.030	-0.037
-593.996	58.662	-0.294	-0.291
-592.982	64.396	0.160	-0.162
-591.967	-200.000	0.003	-0.206
-590.952	2.890	0.151	0.110
-589.938	800.000	-0.063	0.257
-588.923	-200.000	-0.059	-0.287
-587.909	-21.545	0.158	0.097
-586.894	-142.397	-0.155	0.015
-585.879	-90.650	0.087	0.025
-584.865	800.000	-0.112	-0.331
-583.850	-137.623	-0.526	-0.059
-582.836	461.349	0.135	0.302
-581.821	67.466	0.190	0.195
-580.806	-9.647	0.277	-0.186
-579.792	248.936	-0.064	-0.108
-578.777	-24.647	0.293	-0.175
-577.763	200.033	-0.116	0.179
-576.748	-55.157	-0.336	-0.152
-575.733	-88.372	-0.012	-0.004
-574.719	-98.118	0.055	0.014
-573.704	-177.571	-0.422	-0.010
-572.690	8.178	-0.243	0.183
-571.675	-12.998	0.379	0.248
-570.661	800.000	-0.054	-0.202
-569.646	-181.251	-0.191	-0.004
-568.631	53.251	-0.139	-0.134
-567.617	-37.237	0.168	-0.090
-566.602	800.000	-0.002	-0.010
-565.588	-6.745	-0.137	0.094
-564.573	-200.000	-0.014	0.075
-563.558	451.050	0.195	-0.433
-562.544	11.830	-0.044	-0.034
-561.529	800.000	0.036	-0.131
-560.515	169.275	0.055	-0.079
-559.500	106.514	0.066	0.078
-558.485	-95.182	-0.256	0.069
-557.471	-24.542	-0.236	0.141
-556.456	-200.000	0.013	-0.262
-555.442	-162.640	-0.194	0.010
-554.427	-130.088	-0.232	-0.032
-553.412	-200.000	-0.051	0.253
-552.398	100.098	-0.206	0.240
-551.383	17.466	0.092	-0.073
-550.369	39.286	0.185	-0.166
-549.354	-200.000	-0.004	-0.189
-548.339	97.119	-0.125	0.144
-547.325	-1.215	0.158	-0.112
-546.310	67.844	-0.162	0.166
-545.296	-185.759	-0.125	-0.002
-544.281	-200.000	-0.010	-0.101
-543.266	-168.355	-0.317	0.012
-542.252	800.000	-0.100	-0.327
-541.237	-15.243	-0.261	-0.167
-540.223	-54.330	0.236	0.107
-539.208	43.781	-0.061	0.056
-538.193	411.020	0.188	-0.401
-537.179	9.670	-0.274	-0.209
-536.164	-73.413	0.082	-0.030
-535.150	437.427	0.054	0.118
-534.135	-200.000	0.035	0.391
-533.121	98.538	0.141	-0.163
-532.106	140.135	0.102	-0.135
-531.091	69.481	0.087	0.090
-530.077	-133.576	-0.335	-0.042
-529.062	194.621	-0.173	-0.263
-528.048	-35.175	0.351	0.192
-527.033	-200.000	-0.041	-0.211
-526.018	-81.308	0.111	0.037
-525.004	-25.592	-0.364	0.216
-523.989	-93.123	0.231	0.064
-522.975	-46.347	-0.253	0.125
-521.960	181.888	0.273	-0.403
-520.945	-15.521	-0.139	-0.089
-519.931	153.978	0.065	0.090
-518.916	-31.132	-0.179	0.101
-517.902	-28.382	0.048	-0.028
-516.887	366.298	-0.076	0.154
-515.872	60.406	0.049	0.048
-514.858	-31.678	-0.191	0.108
-513.843	800.000	-0.028	0.109
-512.829	800.000	-0.020	-0.080
-511.814	31.172	-0.058	0.050
-510.799	-98.450	-0.103	0.026
-509.785	-45.407	-0.233	-0.116
-508.770	72.094	-0.220	0.229
-507.756	-35.087	-0.305	-0.167
-506.741	-55.304	-0.207	-0.093
-505.726	200.382	-0.048	0.074
-504.712	218.772	0.135	-0.216
-503.697	-200.000	-0.021	-0.191
-502.683	-200.000	0.014	-0.261
-501.668	-178.620	0.191	-0.004
-500.653	72.281	-0.092	-0.096
-499.639	-89.324	0.224	-0.066
-498.624	23.621	0.280	-0.231
-497.610	301.643	-0.164	-0.303
-496.595	33.454	-0.175	0.152
-495.581	66.268	0.221	0.225
-494.566	-64.207	0.233	0.095
-493.551	800.000	0.086	0.297
-492.537	-37.475	-0.277	0.148
-491.522	800.000	-0.020	0.078
-490.508	411.182	0.093	-0.198
-489.493	118.086	0.080	0.099
-488.478	-32.951	0.104	0.058
-487.464	76.105	0.166	0.176
-486.449	-98.753	0.024	-0.006
-485.435	11.930	0.162	-0.124
-484.420	-108.933	0.284	-0.061
-483.405	287.250	-0.065	0.118
-482.391	-82.067	-0.331	-0.108
-481.376	-200.000	-0.008	-0.076
-480.362	204.397	0.278	0.431
-479.347	65.304	-0.186	0.189
-478.332	165.059	0.023	-0.032
-477.318	800.000	0.092	-0.284
-476.303	791.357	0.078	-0.215
-475.289	-200.000	-0.032	0.175
-474.274	119.033	-0.225	0.279
-473.259	-55.904	-0.408	0.182
-472.245	341.224	0.086	0.168
-471.230	-144.786	0.132	0.012
-470.216	-149.926	-0.251	0.020
-469.201	-17.846	0.238	0.150
-468.186	800.000	-0.062	-0.213
-467.172	-73.002	-0.145	-0.053
-466.157	-101.148	0.307	0.075
-465.143	800.000	-0.112	-0.333
-464.128	-200.000	-0.034	0.150
-463.113	10.981	0.223	-0.170
-462.099	357.721	0.209	-0.418
-461.084	98.983	-0.227	0.263
-460.070	279.927	-0.083	-0.148
-459.055	332.181	-0.110	-0.212
-458.040	86.870	0.297	-0.328
-457.026	-200.000	-0.011	-0.360
-456.011	83.675	0.186	-0.203
-454.997	190.994	0.025	-0.038
-453.982	-39.741	-0.052	0.027
-452.968	-95.996	0.188	0.050
-451.953	88.458	0.220	-0.245
-450.938	-33.779	0.137	-0.076
-449.924	-91.143	0.101	-0.029
-448.909	-66.518	-0.128	-0.051
-447.895	-66.426	0.166	0.066
-446.880	-82.966	-0.301	0.097
-445.865	649.055	-0.045	-0.115
-444.851	418.516	0.176	0.376
-443.836	127.199	-0.037	-0.047
-442.822	289.259	-0.170	-0.309
-441.807	14.031	-0.232	0.180
-440.792	-179.034	-0.339	0.008
-439.778	-200.000	-0.079	0.486
-438.763	-124.142	0.278	-0.044
-437.749	424.810	-0.094	-0.202
-436.734	-200.000	-0.041	0.190
-435.719	-47.112	-0.276	0.135
-434.705	800.000	-0.074	0.215
-433.690	186.286	-0.016	-0.024
-432.676	-100.198	0.150	-0.037
-431.661	-30.892	-0.308	0.174
-430.646	800.000	0.075	0.269
-429.632	-136.510	0.226	-0.026
-428.617	-200.000	-0.093	-0.430
-427.603	134.953	0.067	0.087
-426.588	255.846	0.209	0.358
-425.573	69.072	0.191	0.196
-424.559	12.966	-0.224	-0.173
-423.544	-1.104	0.231	0.163
-422.530	151.954	-0.167	0.228
-421.515	107.361	0.055	0.065
-420.500	341.135	-0.065	0.127
-419.486	280.132	-0.193	0.344
-418.471	8.458	-0.115	-0.087
-417.457	-5.387	-0.116	-0.079
-416.442	-166.766	0.208	-0.009
-415.428	-50.839	-0.148	0.069
-414.413	-113.289	-0.086	-0.017
-413.398	-200.000	0.001	-0.076
-412.384	800.000	-0.068	-0.215
-411.369	-186.244	0.119	-0.002
-410.355	182.707	-0.253	0.373
-409.340	167.879	-0.077	0.109
-408.325	158.718	0.119	0.165
-407.311	166.798	-0.087	0.124
-406.296	142.844	0.094	-0.125
-405.282	260.089	-0.025	-0.043
-404.267	-200.000	0.013	-0.241
-403.252	-136.483	-0.261	0.030
-402.238	51.590	-0.112	0.106
-401.223	800.000	0.070	0.278
-400.209	-141.423	-0.170	-0.017
-399.194	-171.202	-0.174	0.006
-398.179	321.382	-0.068	0.128
-397.165	-120.931	-0.076	0.013
-396.150	271.513	-0.098	0.173
-395.136	-200.000	-0.015	0.184
-394.121	-58.492	-0.179	0.078
-393.106	88.180	-0.086	0.095
-392.092	122.889	-0.065	0.082
-391.077	-56.376	-0.226	0.100
-390.063	414.653	-0.072	0.153
-389.048	91.827	-0.122	-0.136
-388.033	2.964	0.231	0.167
-387.019	-57.180	0.200	-0.088
-386.004	-50.991	0.180	0.084
-384.990	-53.061	-0.149	-0.068
-383.975	-200.000	0.013	-0.211
-382.960	-31.640	0.240	0.134
-381.946	55.486	-0.049	-0.047
-380.931	800.000	0.036	-0.132
-379.917	-115.549	0.022	0.004
-378.902	47.921	-0.134	-0.125
-377.888	8.701	-0.121	-0.091
-376.873	-200.000	-0.030	0.234
-375.858	48.228	-0.192	-0.179
-374.844	-200.000	0.045	-0.334
-373.829	-200.000	0.019	-0.286
-372.815	187.933	-0.124	-0.184
-371.800	-22.991	-0.159	-0.095
-370.785	77.021	-0.159	-0.169
-369.771	140.572	-0.175	-0.230
-368.756	268.952	-0.071	-0.124
-367.742	-26.627	-0.335	-0.195
-366.727	522.726	0.054	-0.127
-365.712	242.381	-0.048	-0.079
-364.698	-41.153	0.394	0.203
-363.683	74.083	-0.206	0.215
-362.669	-9.587	-0.178	-0.118
-361.654	59.306	-0.201	-0.197
-360.639	143.734	-0.049	0.065
-359.625	-200.000	-0.037	0.214
-358.610	-23.971	0.026	-0.016
-357.596	-131.052	0.151	0.020
-356.581	-181.398	0.217	-0.004
-355.566	-200.000	0.025	-0.118
-354.552	800.000	-0.025	-0.078
-353.537	-48.838	0.238	-0.114
-352.523	259.144	-0.053	-0.090
-351.508	-120.581	0.279	-0.047
-350.493	800.000	-0.018	-0.062
-349.479	-37.722	0.085	0.045
-348.464	142.593	0.110	0.146
-347.450	-13.153	-0.267	-0.173
-346.435	97.882	-0.110	-0.126
-345.420	175.112	0.083	0.120
-344.406	-2.069	0.279	0.195
-343.391	-200.000	-0.007	0.030
-342.377	-141.865	0.389	-0.039
-341.362	-200.000	-0.015	-0.139
-340.348	800.000	0.006	-0.023
-339.333	-200.000	-0.002	0.106
-338.318	-72.004	-0.436	0.161
-337.304	-200.000	-0.021	0.125
-336.289	-104.135	0.194	0.045
-335.275	-177.843	-0.046	0.001
-334.260	-36.263	0.299	-0.160
-333.245	-200.000	-0.001	0.043
-332.231	102.640	-0.108	0.126
-331.216	39.369	0.348	-0.310
-330.202	-9.979	0.143	-0.095
-329.187	800.000	0.036	-0.138
-328.172	116.018	-0.061	-0.074
-327.158	-87.990	-0.210	0.063
-326.143	146.382	-0.068	0.090
-325.129	44.645	0.125	0.114
-324.114	12.100	-0.242	-0.186
-323.099	-74.396	-0.449	-0.161
-322.085	-112.505	0.327	-0.065
-321.070	143.166	-0.114	0.151
-320.056	-129.126	-0.121	0.017
-319.041	-123.922	-0.276	0.043
-318.026	-108.056	0.443	0.096
-317.012	-200.000	-0.007	-0.092
-315.997	-69.200	-0.204	0.078
-314.983	628.117	-0.087	0.218
-313.968	105.845	0.135	0.158
-312.953	-200.000	-0.008	0.165
-311.939	-200.000	0.079	0.373
-310.924	6.847	-0.115	0.085
-309.910	90.251	-0.173	0.193
-308.895	-7.364	-0.057	-0.039
-307.880	-200.000	0.043	0.243
-306.866	781.576	0.134	-0.364
-305.851	211.499	-0.059	0.093
-304.837	13.797	0.099	0.077
-303.822	421.470	0.089	0.189
-302.807	-47.813	-0.371	0.179
-301.793	255.290	0.091	-0.155
-300.778	-15.871	0.163	-0.103
-299.764	238.450	-0.043	-0.071
-298.749	-151.709	0.255	-0.019
-297.735	121.267	0.059	-0.073
-296.720	138.595	-0.254	0.331
-295.705	105.292	-0.240	-0.281
-294.691	800.000	0.016	0.059
-293.676	167.836	-0.146	-0.206
-292.662	215.656	-0.145	0.229
-291.647	800.000	-0.070	0.224
-290.632	-200.000	0.020	0.298
-289.618	-18.916	0.162	0.100
-288.603	-3.393	0.254	0.176
-287.589	-86.912	0.107	-0.032
-286.574	411.416	-0.072	0.151
-285.559	-138.372	-0.177	0.019
-284.545	95.035	-0.198	0.224
-283.530	119.878	0.079	-0.097
-282.516	77.912	-0.092	-0.098
-281.501	800.000	-0.077	0.216
-280.486	-96.687	-0.170	0.044
-279.472	-10.415	-0.097	-0.064
-278.457	-19.242	0.264	-0.162
-277.443	36.304	-0.232	-0.203
-276.428	134.804	-0.318	0.410
-275.413	-200.000	-0.010	0.200
-274.399	-87.668	-0.069	0.021
-273.384	-123.397	0.303	-0.048
-272.370	-53.568	0.167	-0.076
-271.355	155.782	0.123	-0.168
-270.340	-91.013	0.069	-0.020
-269.326	-176.227	0.426	-0.011
-268.311	183.863	-0.086	0.126
-267.297	800.000	-0.030	-0.092
-266.282	-32.140	0.076	-0.042
-265.267	7.965	-0.004	-0.003
-264.253	-70.963	-0.139	-0.052
-263.238	-48.504	0.261	-0.125
-262.224	-128.551	-0.201	0.028
-261.209	-200.000	-0.073	-0.347
-260.195	-86.276	-0.092	0.028
-259.180	-38.767	0.159	-0.083
-258.165	-145.317	0.209	0.019
-257.151	50.957	-0.056	0.052
-256.136	92.282	-0.103	0.116
-255.122	573.514	-0.100	0.242
-254.107	-200.000	0.000	0.201
-253.092	275.703	0.109	-0.193
-252.078	48.893	0.175	-0.163
-251.063	800.000	0.053	0.159
-250.049	800.000	0.014	-0.049
-249.034	43.681	0.135	0.122
-248.019	-3.951	0.128	-0.088
-247.005	-132.540	-0.145	0.018
-245.990	93.256	0.031	-0.035
-244.976	-112.801	0.311	0.061
-243.961	800.000	-0.143	-0.398
-242.946	-83.114	-0.292	-0.093
-241.932	267.064	0.098	0.170
-240.917	800.000	0.078	0.243
-239.903	-82.291	0.451	0.146
-238.888	-150.421	0.478	-0.036
-237.873	53.186	0.102	0.097
-236.859	-133.614	-0.125	-0.016
-235.844	324.004	-0.158	-0.298
-234.830	73.155	-0.243	0.252
-233.815	-72.351	0.495	0.182
-232.800	-200.000	-0.003	0.110
-231.786	-47.939	-0.052	0.025
-230.771	800.000	0.059	-0.225
-229.757	-8.750	0.075	0.050
-228.742	-104.827	-0.212	0.048
-227.727	-200.000	-0.012	0.138
-226.713	-114.671	0.373	0.071
-225.698	-157.795	0.128	-0.008
-224.684	-200.000	-0.006	-0.407
-223.669	-200.000	0.015	-0.116
-222.655	42.516	-0.260	0.234
-221.640	33.613	0.045	-0.039
-220.625	-80.967	0.288	-0.095
-219.611	-93.145	0.130	-0.036
-218.596	-110.416	-0.334	-0.069
-217.582	201.431	-0.035	-0.054
-216.567	-1.763	0.250	-0.175
-215.552	-200.000	-0.000	-0.376
-214.538	106.397	0.160	0.188
-213.523	561.434	-0.032	0.077
-212.509	-111.691	-0.232	0.047
-211.494	-200.000	0.043	0.192
-210.479	138.378	0.028	0.036
-209.465	16.181	0.163	0.127
-208.450	-19.973	-0.193	-0.118
-207.436	-100.431	0.185	0.045
-206.421	93.528	0.302	-0.339
-205.406	800.000	-0.031	-0.110
-204.392	46.272	0.175	0.160
-203.377	-200.000	0.041	-0.197
-202.363	-200.000	0.051	0.271
-201.348	-172.679	0.241	0.007
-200.333	264.748	-0.044	-0.076
-199.319	-200.000	-0.021	0.240
-198.304	381.827	0.048	0.098
-197.290	800.000	-0.056	-0.182
-196.275	800.000	-0.075	0.278
-195.260	46.829	0.131	0.120
-194.246	-120.870	0.263	-0.044
-193.231	-88.681	0.183	0.054
-192.217	-165.321	0.076	0.003
-191.202	179.872	0.156	0.227
-190.187	-200.000	0.022	-0.404
-189.173	-57.424	-0.110	0.048
-188.158	-200.000	-0.043	0.279
-187.144	-45.455	0.044	-0.022
-186.129	488.262	-0.088	0.198
-185.114	-200.000	0.033	0.239
-184.100	78.561	-0.126	-0.134
-183.085	-83.825	-0.096	0.030
-182.071	480.270	0.018	0.039
-181.056	176.555	-0.034	-0.050
-180.042	97.949	0.090	-0.102
-179.027	800.000	-0.070	0.222
-178.012	27.492	0.175	0.145
-176.998	-35.032	0.068	0.036
-175.983	-94.089	-0.279	-0.076
-174.969	-5.732	0.155	0.105
-173.954	-58.471	0.331	-0.142
-172.939	-200.000	0.028	0.268
-171.925	231.184	0.143	0.232
-170.910	6.877	-0.194	-0.143
-169.896	800.000	0.059	0.189
-168.881	32.086	0.143	-0.122
-167.866	-90.259	0.237	0.068
-166.852	-25.792	-0.100	0.058
-165.837	599.365	0.113	0.277
-164.823	81.533	-0.141	-0.150
-163.808	329.997	-0.207	-0.394
-162.793	-155.214	0.105	-0.007
-161.779	-76.311	-0.212	0.074
-160.764	-62.508	-0.041	0.017
-159.750	-200.000	0.005	-0.177
-158.735	-96.722	-0.131	-0.034
-157.720	20.834	0.161	-0.129
-156.706	-200.000	-0.003	0.160
-155.691	-200.000	0.033	0.298
-154.677	69.585	0.144	0.147
-153.662	7.771	0.160	0.118
-152.647	-59.122	0.213	-0.091
-151.633	-118.514	-0.427	-0.075
-150.618	800.000	0.059	-0.181
-149.604	-200.000	-0.047	0.314
-148.589	31.848	0.197	0.167
-147.574	-137.882	-0.103	-0.011
-146.560	-122.479	0.435	0.070
-145.545	800.000	-0.033	0.098
-144.531	195.171	-0.237	0.356
-143.516	-56.114	-0.081	0.036
-142.502	-106.358	0.311	0.069
-141.487	440.563	-0.133	-0.286
-140.472	51.291	0.203	-0.190
-139.458	-45.418	0.097	0.048
-138.443	-200.000	-0.060	-0.262
-137.429	-147.293	-0.268	0.022
-136.414	-200.000	0.030	0.142
-135.399	-129.399	-0.192	-0.026
-134.385	-65.626	-0.054	0.021
-133.370	-160.488	-0.108	0.006
-132.356	-200.000	0.013	0.201
-131.341	-11.813	-0.153	0.099
-130.326	503.837	-0.183	-0.418
-129.312	-128.469	-0.213	-0.030
-128.297	-79.150	0.171	0.057
-127.283	-58.295	-0.271	-0.116
-126.268	266.756	0.188	-0.324
-125.253	-42.628	-0.120	0.060
-124.239	-75.760	-0.183	-0.064
-123.224	30.057	-0.059	-0.050
-122.210	800.000	-0.022	0.074
-121.195	8.071	-0.145	0.107
