DTS Sentinel unit serial number:	SN413079Multiplexer serial number:	ORYXHardware model number:	OX4-SRSoftware version number:	ORYX F/W v4.00 Oryx Data Collector v3.7.2.0data status	okinstallation	princeton_trtdifferential loss correction	single-endedforward channel	channel 1reverse channel	N/Adate	2019/09/11time	15:20:12forward acquisition time	60.00reverse acquisition time	0.00gamma	496.2192k internal	0.2291k external	0.2291temperature offset calibration	0.9996default loss term (dB/km)	0.3790temperature slope calibration	1.0000multiplexer offset coefficient	1.0000multiplexer slope coefficient	1.0000fibre end	0.00T internal ref (°C)	42.87T ext. ref 1 (°C)	0.98T ext. ref 2 (°C)	35.40length (m)	temperature (°C)	Stokes	anti-Stokes-747.200	648.979	0.183	-0.479
-746.185	-24.685	0.078	0.047
-745.171	-200.000	-0.040	0.320
-744.156	-61.003	0.263	0.114
-743.142	-11.828	0.159	-0.107
-742.127	172.383	-0.230	0.339
-741.112	-164.490	0.172	-0.008
-740.098	475.163	0.127	0.293
-739.083	-54.990	0.139	-0.064
-738.069	137.399	0.034	-0.045
-737.054	-69.553	-0.518	0.203
-736.039	-106.770	-0.344	-0.078
-735.025	170.355	-0.152	-0.223
-734.010	169.260	0.083	-0.121
-732.996	-22.156	-0.314	-0.195
-731.981	-6.037	-0.227	0.159
-730.966	-141.371	0.200	0.021
-729.952	800.000	-0.073	-0.281
-728.937	-108.076	-0.251	0.056
-727.923	-143.699	-0.268	0.026
-726.908	45.950	-0.377	-0.357
-725.894	-200.000	0.004	-0.188
-724.879	58.386	0.152	0.153
-723.864	741.971	-0.109	-0.300
-722.850	-200.000	-0.018	-0.402
-721.835	-84.299	0.201	-0.065
-720.821	111.794	0.210	-0.259
-719.806	81.345	0.044	0.049
-718.791	-4.195	0.136	-0.096
-717.777	-75.123	-0.327	-0.120
-716.762	-200.000	-0.007	-0.213
-715.748	-41.222	-0.311	0.164
-714.733	75.844	-0.188	0.204
-713.718	-200.000	-0.027	0.179
-712.704	125.956	0.063	0.081
-711.689	-200.000	-0.030	-0.166
-710.675	800.000	0.048	-0.165
-709.660	134.759	-0.162	-0.215
-708.645	88.085	-0.092	0.104
-707.631	479.650	0.036	-0.084
-706.616	60.200	-0.161	0.163
-705.602	385.308	-0.030	0.064
-704.587	-171.175	-0.202	-0.007
-703.572	20.827	-0.096	-0.079
-702.558	9.957	0.060	0.046
-701.543	89.605	-0.095	0.109
-700.529	-69.114	-0.371	-0.146
-699.514	17.099	-0.343	0.278
-698.499	-74.422	0.237	0.087
-697.485	-77.695	0.249	0.088
-696.470	-71.063	-0.377	-0.145
-695.456	-54.157	-0.358	-0.166
-694.441	-92.361	0.261	0.075
-693.426	-185.100	0.078	0.001
-692.412	800.000	0.068	-0.219
-691.397	574.406	-0.018	-0.044
-690.383	1.886	-0.142	0.104
-689.368	-7.921	-0.168	-0.116
-688.354	313.493	0.203	-0.390
-687.339	-54.399	-0.299	-0.139
-686.324	-200.000	0.025	-0.462
-685.310	-200.000	-0.013	-0.094
-684.295	-111.950	-0.235	-0.048
-683.281	119.274	-0.118	-0.149
-682.266	518.258	-0.096	0.230
-681.251	36.616	-0.131	0.118
-680.237	800.000	-0.071	0.228
-679.222	-62.750	-0.372	-0.158
-678.208	-139.489	0.235	-0.026
-677.193	15.323	-0.172	-0.138
-676.178	-170.386	-0.087	-0.003
-675.164	-200.000	0.010	0.055
-674.149	-46.316	-0.192	-0.096
-673.135	291.404	-0.086	-0.160
-672.120	-69.102	0.167	0.066
-671.105	-159.703	0.180	-0.010
-670.091	269.150	-0.001	-0.002
-669.076	-3.734	-0.221	-0.157
-668.062	7.608	-0.429	-0.327
-667.047	-51.094	0.265	-0.127
-666.032	224.027	0.014	-0.023
-665.018	278.446	0.201	-0.365
-664.003	143.933	0.139	-0.189
-662.989	-106.144	-0.217	-0.050
-661.974	132.650	-0.162	0.213
-660.959	-62.442	-0.143	0.061
-659.945	-27.428	-0.281	-0.167
-658.930	12.945	-0.166	-0.131
-657.916	43.142	0.039	0.037
-656.901	-17.356	0.116	-0.074
-655.886	-101.219	0.083	-0.021
-654.872	-77.251	-0.208	-0.074
-653.857	73.651	-0.110	0.118
-652.843	-40.812	0.127	-0.067
-651.828	-59.746	0.091	0.040
-650.814	306.298	0.093	-0.176
-649.799	-58.780	0.174	-0.077
-648.784	-126.937	-0.231	0.035
-647.770	800.000	-0.111	0.345
-646.755	329.031	0.039	-0.076
-645.741	-154.431	-0.230	0.016
-644.726	-124.972	0.211	-0.033
-643.711	800.000	0.027	0.084
-642.697	307.532	0.208	-0.396
-641.682	-11.655	-0.035	-0.023
-640.668	-24.741	0.325	0.197
-639.653	-5.395	0.110	-0.077
-638.638	800.000	0.104	0.308
-637.624	547.024	0.172	0.419
-636.609	170.031	0.121	0.176
-635.595	221.880	-0.125	-0.205
-634.580	-200.000	0.024	0.530
-633.565	800.000	-0.061	-0.266
-632.551	399.728	0.086	-0.185
-631.536	-139.398	0.208	-0.023
-630.522	-135.810	0.039	-0.005
-629.507	-60.392	-0.402	0.174
-628.492	160.708	-0.143	0.204
-627.478	131.555	-0.207	-0.272
-626.463	18.841	0.052	0.043
-625.449	-200.000	-0.005	0.201
-624.434	421.876	-0.108	0.236
-623.419	84.443	0.237	-0.265
-622.405	19.392	-0.034	0.028
-621.390	109.740	-0.201	0.245
-620.376	-200.000	-0.043	0.219
-619.361	-200.000	-0.001	-0.468
-618.346	800.000	-0.059	-0.185
-617.332	-84.845	0.372	-0.119
-616.317	414.944	-0.072	-0.155
-615.303	-143.120	-0.050	-0.005
-614.288	752.706	-0.030	-0.082
-613.273	95.472	0.097	-0.113
-612.259	-99.095	-0.268	0.069
-611.244	-200.000	0.054	-0.283
-610.230	-66.897	0.180	0.073
-609.215	88.230	-0.117	0.132
-608.201	-142.331	0.241	-0.024
-607.186	80.349	0.084	0.092
-606.171	-54.143	-0.279	-0.129
-605.157	-55.058	-0.192	-0.088
-604.142	96.615	0.040	-0.047
-603.128	88.517	0.127	0.144
-602.113	4.356	0.097	-0.072
-601.098	-200.000	-0.011	-0.265
-600.084	18.085	0.343	-0.278
-599.069	800.000	-0.172	0.514
-598.055	-68.683	0.222	-0.088
-597.040	-200.000	-0.019	-0.141
-596.025	-149.954	0.148	0.012
-595.011	13.755	-0.099	0.078
-593.996	243.327	0.091	-0.155
-592.982	-73.273	0.286	0.107
-591.967	-61.195	0.091	0.039
-590.952	-174.286	-0.075	0.002
-589.938	-113.078	0.156	-0.031
-588.923	375.768	0.025	0.051
-587.909	-118.699	0.194	-0.035
-586.894	-63.515	-0.163	-0.068
-585.879	-15.666	-0.315	0.204
-584.865	-200.000	-0.016	0.201
-583.850	-171.197	0.054	0.002
-582.836	-83.060	-0.440	0.144
-581.821	608.299	0.016	0.041
-580.806	-200.000	-0.043	-0.471
-579.792	38.122	0.057	0.052
-578.777	-137.485	-0.120	0.014
-577.763	-45.956	-0.438	-0.220
-576.748	303.987	-0.106	-0.199
-575.733	-200.000	-0.017	-0.218
-574.719	23.463	-0.112	0.094
-573.704	-91.312	-0.130	-0.038
-572.690	-123.923	-0.282	-0.045
-571.675	86.081	0.121	0.135
-570.661	-34.400	0.243	0.135
-569.646	-76.424	-0.224	-0.080
-568.631	-200.000	0.071	-0.356
-567.617	-160.645	0.341	-0.018
-566.602	203.061	-0.058	0.092
-565.588	672.179	-0.123	-0.325
-564.573	-160.102	-0.327	-0.018
-563.558	47.385	-0.092	-0.087
-562.544	143.348	0.207	-0.280
-561.529	164.716	-0.209	0.299
-560.515	-128.390	-0.272	-0.039
-559.500	-200.000	0.073	0.345
-558.485	71.498	0.154	-0.163
-557.471	32.055	0.129	0.113
-556.456	-91.453	-0.210	0.061
-555.442	800.000	-0.052	-0.198
-554.427	74.019	0.267	-0.285
-553.412	-200.000	-0.008	-0.053
-552.398	-200.000	-0.042	0.279
-551.383	-200.000	0.015	-0.083
-550.369	509.514	0.083	0.197
-549.354	-130.497	0.062	-0.009
-548.339	-195.368	-0.354	-0.003
-547.325	-200.000	-0.035	-0.273
-546.310	-149.737	-0.074	-0.006
-545.296	800.000	-0.065	-0.235
-544.281	55.508	0.029	0.028
-543.266	41.173	0.245	-0.225
-542.252	-102.431	-0.082	0.020
-541.237	53.400	0.162	-0.158
-540.223	733.880	0.058	-0.159
-539.208	36.623	-0.240	-0.215
-538.193	-200.000	0.011	0.120
-537.179	76.420	0.227	0.244
-536.164	186.384	-0.080	-0.121
-535.150	35.213	-0.221	0.197
-534.135	-200.000	-0.017	-0.128
-533.121	-45.310	0.073	0.037
-532.106	226.468	-0.024	0.040
-531.091	-200.000	0.059	-0.549
-530.077	-100.010	-0.025	-0.006
-529.062	158.762	-0.294	0.415
-528.048	-14.430	0.077	0.050
-527.033	-75.137	0.164	0.060
-526.018	151.957	-0.111	0.153
-525.004	41.357	-0.159	0.146
-523.989	-152.548	0.196	-0.014
-522.975	-74.732	-0.300	0.110
-521.960	65.586	-0.197	-0.203
-520.945	93.482	0.145	-0.167
-519.931	-111.127	0.255	0.053
-518.916	74.115	-0.189	0.201
-517.902	523.121	0.048	-0.114
-516.887	580.307	0.106	-0.263
-515.872	800.000	0.043	0.127
-514.858	-23.337	0.190	0.116
-513.843	-49.146	0.192	-0.093
-512.829	-200.000	0.001	0.165
-511.814	33.700	-0.147	0.130
-510.799	430.751	0.128	-0.281
-509.785	272.174	-0.131	-0.234
-508.770	-122.791	-0.085	0.014
-507.756	44.028	-0.076	-0.071
-506.741	-200.000	0.030	0.238
-505.726	-200.000	-0.040	-0.316
-504.712	800.000	0.149	-0.501
-503.697	486.236	0.074	-0.172
-502.683	706.112	0.109	-0.292
-501.668	-200.000	0.009	0.271
-500.653	-103.065	0.153	0.037
-499.639	196.655	-0.235	0.364
-498.624	800.000	-0.071	0.271
-497.610	-163.058	0.121	0.006
-496.595	-56.435	-0.228	0.103
-495.581	86.777	-0.246	0.276
-494.566	-190.570	-0.116	-0.001
-493.551	-86.822	-0.101	0.031
-492.537	246.447	0.169	0.289
-491.522	338.934	0.074	-0.145
-490.508	132.730	-0.261	0.341
-489.493	800.000	0.079	0.222
-488.478	297.040	0.210	-0.391
-487.464	-0.464	-0.139	-0.100
-486.449	-40.213	0.164	-0.086
-485.435	-22.089	0.320	0.197
-484.420	800.000	-0.091	-0.360
-483.405	7.184	0.083	-0.063
-482.391	-200.000	0.043	-0.293
-481.376	4.448	-0.008	0.006
-480.362	741.600	-0.189	0.514
-479.347	133.957	0.196	0.258
-478.332	-14.263	0.242	-0.158
-477.318	-9.753	0.250	0.169
-476.303	58.971	-0.069	-0.069
-475.289	-32.679	-0.037	0.021
-474.274	-165.542	0.294	0.013
-473.259	109.237	-0.298	-0.361
-472.245	265.351	0.170	-0.300
-471.230	-111.149	-0.167	0.035
-470.216	-132.499	0.093	0.012
-469.201	3.228	-0.186	0.137
-468.186	-139.469	-0.118	-0.013
-467.172	-19.877	0.185	-0.116
-466.157	-108.965	-0.391	0.084
-465.143	38.213	0.352	-0.318
-464.128	109.956	-0.377	-0.458
-463.113	-200.000	0.018	0.193
-462.099	276.577	-0.079	-0.142
-461.084	-200.000	0.020	-0.310
-460.070	221.718	-0.066	-0.108
-459.055	-139.186	-0.202	0.022
-458.040	-200.000	0.024	-0.123
-457.026	-145.251	-0.168	0.015
-456.011	-114.275	0.301	-0.059
-454.997	-200.000	-0.061	0.324
-453.982	-117.015	-0.106	-0.020
-452.968	800.000	0.071	-0.290
-451.953	5.843	0.034	0.025
-450.938	-154.339	0.303	-0.021
-449.924	60.209	-0.055	-0.055
-448.909	186.247	0.079	0.119
-447.895	-84.297	0.555	-0.178
-446.880	-51.448	0.234	0.111
-445.865	135.641	-0.252	0.332
-444.851	-95.411	-0.071	-0.019
-443.836	-200.000	-0.020	0.289
-442.822	-108.797	0.252	0.055
-441.807	-53.794	0.124	-0.057
-440.792	83.819	-0.100	0.110
-439.778	-180.398	0.179	0.004
-438.763	-200.000	-0.011	-0.117
-437.749	360.257	-0.013	0.026
-436.734	51.971	0.233	0.224
-435.719	99.782	-0.207	0.242
-434.705	385.692	-0.045	-0.093
-433.690	58.418	0.087	0.087
-432.676	-115.799	-0.312	0.059
-431.661	197.963	0.130	-0.201
-430.646	279.686	-0.045	-0.081
-429.632	-48.178	0.044	0.022
-428.617	-200.000	0.030	-0.177
-427.603	166.652	0.093	-0.133
-426.588	-48.244	-0.079	0.038
-425.573	-200.000	-0.004	-0.030
-424.559	-200.000	0.039	0.246
-423.544	-52.094	-0.066	0.031
-422.530	-200.000	0.012	0.137
-421.515	-31.855	-0.034	-0.020
-420.500	336.577	-0.144	0.284
-419.486	-200.000	0.029	-0.168
-418.471	17.020	0.081	0.065
-417.457	140.806	-0.206	-0.276
-416.442	-174.250	-0.324	0.009
-415.428	-135.702	0.190	0.023
-414.413	59.334	0.256	-0.255
-413.398	800.000	-0.067	-0.249
-412.384	-200.000	-0.021	0.111
-411.369	32.574	0.147	-0.129
-410.355	-114.028	-0.429	-0.084
-409.340	24.253	-0.079	0.066
-408.325	633.007	0.038	-0.097
-407.311	-60.744	-0.313	-0.134
-406.296	-143.726	-0.188	-0.018
-405.282	-49.946	-0.159	0.076
-404.267	49.337	0.195	0.185
-403.252	-138.754	-0.189	0.021
-402.238	18.013	-0.187	-0.150
-401.223	-200.000	-0.080	0.506
-400.209	-107.250	-0.238	0.053
-399.194	172.066	-0.066	0.096
-398.179	-200.000	0.016	-0.168
-397.165	691.174	0.070	-0.185
-396.150	800.000	-0.058	-0.171
-395.136	-27.062	0.128	0.075
-394.121	-171.606	-0.164	-0.005
-393.106	205.947	-0.063	0.099
-392.092	-87.459	0.052	-0.016
-391.077	-200.000	-0.050	-0.276
-390.063	334.177	-0.058	-0.113
-389.048	-200.000	0.010	0.064
-388.033	-123.697	-0.205	-0.033
-387.019	-50.639	0.177	0.084
-386.004	-133.560	0.298	0.038
-384.990	-168.685	-0.087	-0.003
-383.975	493.010	0.095	-0.221
-382.960	-191.122	-0.264	-0.003
-381.946	58.191	0.186	-0.184
-380.931	424.493	-0.018	0.040
-379.917	-200.000	-0.007	-0.091
-378.902	-159.673	-0.134	0.007
-377.888	19.409	0.038	-0.031
-376.873	-200.000	0.026	-0.199
-375.858	311.587	0.084	-0.158
-374.844	635.648	0.047	0.122
-373.829	1.134	-0.216	0.157
-372.815	-148.137	0.036	0.003
-371.800	-112.683	-0.127	0.026
-370.785	-200.000	0.047	-0.228
-369.771	-132.199	0.092	0.012
-368.756	-109.266	-0.145	-0.031
-367.742	-162.065	0.348	-0.018
-366.727	-93.192	-0.198	0.055
-365.712	-172.091	-0.496	-0.016
-364.698	-117.890	-0.243	-0.044
-363.683	766.082	0.083	-0.227
-362.669	-128.960	-0.278	-0.039
-361.654	41.720	-0.119	0.109
-360.639	324.785	0.201	-0.388
-359.625	213.165	0.125	0.200
-358.610	167.349	-0.141	0.202
-357.596	-200.000	0.002	0.081
-356.581	-143.552	0.050	-0.005
-355.566	-133.074	0.383	-0.049
-354.552	178.060	0.067	0.098
-353.537	285.193	-0.103	-0.187
-352.523	27.661	0.270	-0.230
-351.508	-118.147	-0.233	-0.042
-350.493	-28.687	0.108	0.063
-349.479	85.356	0.107	-0.118
-348.464	-200.000	-0.041	0.197
-347.450	35.165	-0.221	0.196
-346.435	800.000	-0.041	-0.163
-345.420	-200.000	-0.000	0.181
-344.406	-49.196	-0.208	-0.100
-343.391	419.355	0.112	-0.241
-342.377	-200.000	-0.014	-0.131
-341.362	32.723	0.224	-0.195
-340.348	-127.752	0.122	0.018
-339.333	29.162	0.131	0.112
-338.318	483.495	-0.101	-0.232
-337.304	-115.298	-0.124	-0.024
-336.289	-200.000	0.003	0.072
-335.275	58.610	0.286	-0.283
-334.260	229.395	0.182	-0.299
-333.245	3.132	0.119	0.088
-332.231	689.466	0.107	0.282
-331.216	-113.079	0.274	-0.054
-330.202	-102.512	-0.181	-0.044
-329.187	135.763	0.186	0.244
-328.172	64.043	0.073	0.074
-327.158	-131.501	-0.036	-0.005
-326.143	-200.000	-0.027	-0.147
-325.129	-145.420	0.146	-0.013
-324.114	-200.000	-0.029	-0.193
-323.099	210.115	-0.089	-0.140
-322.085	-69.270	-0.152	-0.059
-321.070	-52.364	0.238	0.111
-320.056	204.603	-0.162	-0.254
-319.041	28.876	0.123	0.105
-318.026	-40.868	0.176	-0.092
-317.012	147.001	-0.126	0.170
-315.997	-136.295	0.220	0.026
-314.983	-200.000	0.012	-0.316
-313.968	-160.502	-0.255	-0.014
-312.953	45.870	-0.255	0.237
-311.939	-64.587	0.258	-0.105
-310.924	-200.000	0.000	0.105
-309.910	800.000	-0.065	0.256
-308.895	800.000	0.056	0.207
-307.880	564.133	-0.071	0.173
-306.866	272.311	0.082	-0.146
-305.851	800.000	-0.092	-0.276
-304.837	249.830	-0.209	-0.358
-303.822	-56.489	0.222	-0.099
-302.807	-30.382	0.295	0.168
-301.793	83.304	0.012	0.013
-300.778	3.281	-0.122	-0.089
-299.764	209.828	-0.191	-0.301
-298.749	-68.183	-0.292	-0.115
-297.735	338.503	0.081	0.158
-296.720	23.414	-0.070	0.058
-295.705	-55.173	-0.310	0.140
-294.691	800.000	0.051	0.176
-293.676	-120.366	0.330	0.056
-292.662	-30.731	-0.197	-0.112
-291.647	159.995	0.132	-0.185
-290.632	23.848	0.213	-0.177
-289.618	633.877	0.099	0.253
-288.603	-46.342	0.266	-0.131
-287.589	-85.619	0.106	-0.033
-286.574	60.213	0.204	-0.203
-285.559	-17.209	0.215	0.136
-284.545	-36.933	-0.168	0.091
-283.530	585.192	0.102	0.252
-282.516	272.687	0.035	0.061
-281.501	150.086	0.182	-0.249
-280.486	4.870	-0.235	-0.173
-279.472	119.771	-0.116	0.144
-278.457	-200.000	0.040	0.244
-277.443	-88.411	-0.240	-0.072
-276.428	-200.000	-0.066	-0.529
-275.413	654.322	0.048	0.123
-274.399	-22.845	-0.117	-0.071
-273.384	-156.137	-0.228	-0.014
-272.370	800.000	0.038	0.127
-271.355	-200.000	-0.020	-0.395
-270.340	-58.636	0.122	0.053
-269.326	-179.183	-0.195	0.004
-268.311	-119.559	0.313	0.054
-267.297	-116.621	-0.158	0.029
-266.282	103.999	0.305	0.360
-265.267	-44.434	-0.122	-0.062
-264.253	800.000	0.055	-0.188
-263.238	-200.000	0.008	0.104
-262.224	-110.189	-0.149	-0.031
-261.209	800.000	0.083	0.325
-260.195	-116.236	0.174	0.032
-259.180	133.177	0.155	0.201
-258.165	800.000	-0.103	0.400
-257.151	382.183	0.091	0.188
-256.136	-110.705	-0.060	-0.012
-255.122	-44.531	-0.340	0.171
-254.107	-4.534	0.445	0.309
-253.092	621.738	0.078	0.197
-252.078	143.057	0.152	0.203
-251.063	128.366	0.115	0.147
-250.049	717.624	0.051	-0.136
-249.034	-200.000	0.020	0.211
-248.019	-33.670	-0.237	-0.131
-247.005	-49.822	0.177	0.085
-245.990	-63.767	0.054	-0.022
-244.976	2.467	0.131	0.095
-243.961	58.930	0.226	-0.223
-242.946	-107.129	-0.168	-0.037
-241.932	369.212	0.063	0.128
-240.917	214.912	0.173	0.276
-239.903	-171.924	0.086	-0.003
-238.888	-23.887	0.220	0.132
-237.873	-132.218	-0.117	0.015
-236.859	-186.797	-0.195	0.003
-235.844	82.037	-0.124	0.134
-234.830	-143.282	-0.406	0.039
-233.815	-14.065	-0.054	0.035
-232.800	41.583	0.074	0.067
-231.786	384.933	0.038	0.078
-230.771	-103.234	0.261	-0.062
-229.757	36.371	0.036	-0.032
-228.742	-45.100	0.419	0.209
-227.727	6.918	0.104	-0.078
-226.713	120.780	0.184	0.229
-225.698	-97.698	0.104	0.027
-224.684	-200.000	0.008	0.244
-223.669	608.799	-0.077	-0.194
-222.655	-56.320	-0.121	-0.054
-221.640	58.910	0.156	0.153
-220.625	-110.926	-0.225	0.046
-219.611	184.823	0.165	-0.245
-218.596	-96.671	0.209	0.055
-217.582	364.964	-0.138	-0.280
-216.567	158.222	0.035	-0.049
-215.552	800.000	-0.020	-0.059
-214.538	-200.000	-0.025	0.283
-213.523	-119.737	0.301	0.052
-212.509	159.243	-0.041	-0.057
-211.494	-200.000	-0.005	0.047
-210.479	25.955	0.036	0.030
-209.465	243.941	-0.021	-0.035
-208.450	114.075	-0.179	-0.218
-207.436	800.000	-0.036	-0.120
-206.421	-200.000	-0.031	0.332
-205.406	-200.000	0.016	0.214
-204.392	-200.000	0.022	0.215
-203.377	32.809	0.085	0.074
-202.363	-52.564	0.290	0.134
-201.348	534.666	-0.087	0.207
-200.333	-137.148	-0.291	-0.033
-199.319	405.060	-0.130	-0.275
-198.304	-73.259	-0.199	0.073
-197.290	-7.094	0.166	-0.113
-196.275	550.952	-0.116	-0.279
-195.260	800.000	-0.053	0.161
-194.246	79.965	-0.154	-0.166
-193.231	-37.222	-0.188	-0.101
-192.217	-200.000	0.000	-0.177
-191.202	104.685	-0.187	-0.221
-190.187	118.906	0.135	-0.167
-189.173	87.418	0.189	-0.210
-188.158	-200.000	-0.060	0.395
-187.144	245.266	0.143	0.241
-186.129	-10.056	-0.326	-0.217
-185.114	800.000	-0.181	0.610
-184.100	27.211	0.178	0.150
-183.085	-200.000	0.013	0.102
-182.071	120.674	-0.071	-0.089
-181.056	290.396	0.069	-0.125
-180.042	206.569	-0.081	-0.127
-179.027	284.707	-0.043	0.078
-178.012	164.782	0.123	0.174
-176.998	800.000	-0.142	0.562
-175.983	534.144	0.207	0.491
-174.969	-2.750	0.032	0.022
-173.954	13.318	-0.116	-0.090
-172.939	121.692	0.026	-0.033
-171.925	86.574	0.180	0.199
-170.910	-89.341	0.134	0.040
-169.896	-44.505	0.114	-0.057
-168.881	241.211	-0.075	0.126
-167.866	102.479	-0.180	-0.211
-166.852	-200.000	-0.012	0.392
-165.837	-4.500	0.265	0.184
-164.823	-159.941	0.190	0.010
-163.808	-53.128	-0.448	0.206
-162.793	93.254	-0.203	0.230
-161.779	34.601	-0.368	0.321
-160.764	800.000	-0.039	-0.117
-159.750	104.223	-0.083	-0.098
-158.735	152.720	-0.262	-0.358
-157.720	105.910	0.079	0.094
-156.706	-39.582	0.086	-0.045
-155.691	-200.000	0.046	-0.270
-154.677	-200.000	-0.029	0.253
-153.662	-76.988	-0.085	-0.030
-152.647	118.468	-0.059	0.073
-151.633	-28.683	0.219	-0.126
-150.618	-54.352	0.254	-0.115
-149.604	-200.000	0.019	-0.192
-148.589	-84.997	-0.095	-0.030
-147.574	169.542	0.184	-0.263
-146.560	-183.926	0.414	0.007
-145.545	228.783	-0.053	0.086
-144.531	-81.900	-0.162	-0.053
-143.516	102.022	0.062	0.073
-142.502	25.483	0.177	-0.147
-141.487	800.000	0.041	-0.118
-140.472	-40.658	-0.413	-0.214
-139.458	-48.023	-0.347	-0.168
-138.443	360.257	0.211	0.422
-137.429	-55.291	-0.171	-0.077
-136.414	-87.930	-0.098	0.030
-135.399	-200.000	-0.002	0.391
-134.385	6.351	0.185	-0.137
-133.370	-200.000	-0.009	-0.052
-132.356	162.515	-0.111	0.155
-131.341	189.451	0.186	-0.279
-130.326	-83.607	0.248	-0.079
-129.312	-95.328	0.267	0.072
-128.297	-200.000	-0.020	0.380
-127.283	-160.463	-0.364	0.020
-126.268	-113.465	0.236	-0.046
-125.253	177.661	-0.035	0.051
-124.239	-135.283	0.181	0.022
-123.224	-99.575	0.167	0.042
-122.210	-65.748	-0.297	0.119
-121.195	24.908	-0.255	0.211
