DTS Sentinel unit serial number:	SN413079Multiplexer serial number:	ORYXHardware model number:	OX4-SRSoftware version number:	ORYX F/W v4.00 Oryx Data Collector v3.7.2.0data status	okinstallation	princeton_trtdifferential loss correction	single-endedforward channel	channel 1reverse channel	N/Adate	2019/09/18time	15:18:35forward acquisition time	60.00reverse acquisition time	0.00gamma	496.2192k internal	0.2302k external	0.2302temperature offset calibration	0.9992default loss term (dB/km)	0.3790temperature slope calibration	1.0000multiplexer offset coefficient	1.0000multiplexer slope coefficient	1.0000fibre end	0.00T internal ref (°C)	35.67T ext. ref 1 (°C)	0.75T ext. ref 2 (°C)	32.97length (m)	temperature (°C)	Stokes	anti-Stokes-747.200	18.950	0.127	0.104
-746.185	760.440	-0.157	0.433
-745.171	-137.832	0.067	0.008
-744.156	120.456	-0.237	0.300
-743.142	-63.580	-0.424	0.177
-742.127	39.451	-0.217	0.198
-741.112	-200.000	-0.023	0.271
-740.098	-14.865	-0.164	0.107
-739.083	-60.728	-0.212	-0.092
-738.069	270.212	-0.201	0.360
-737.054	74.397	-0.081	0.087
-736.039	-74.143	-0.313	-0.115
-735.025	96.779	-0.146	0.171
-734.010	-200.000	0.035	0.232
-732.996	555.610	0.135	0.332
-731.981	-152.607	-0.145	-0.011
-730.966	-196.408	-0.296	-0.002
-729.952	210.073	0.140	-0.224
-728.937	-47.511	-0.251	0.124
-727.923	-200.000	-0.040	0.232
-726.908	-38.183	-0.169	-0.091
-725.894	438.723	0.177	-0.393
-724.879	-73.195	0.039	0.014
-723.864	-200.000	-0.003	-0.286
-722.850	611.347	-0.100	0.254
-721.835	-5.553	0.164	-0.115
-720.821	-143.039	-0.331	0.033
-719.806	-101.441	0.173	-0.043
-718.791	-32.356	-0.038	0.022
-717.777	-200.000	-0.048	0.241
-716.762	749.428	0.035	-0.096
-715.748	65.701	-0.189	-0.195
-714.733	402.196	0.024	0.051
-713.718	18.493	-0.091	0.074
-712.704	-162.245	-0.230	-0.012
-711.689	800.000	0.029	-0.124
-710.675	54.157	-0.227	-0.222
-709.660	-138.023	0.228	-0.026
-708.645	60.007	-0.061	-0.062
-707.631	-110.185	0.053	-0.011
-706.616	-43.584	-0.222	-0.114
-705.602	638.610	0.163	-0.421
-704.587	-123.479	0.254	-0.041
-703.572	73.330	-0.153	0.163
-702.558	-136.709	-0.331	0.039
-701.543	-79.187	0.291	0.101
-700.529	-21.888	0.227	-0.141
-699.514	-89.703	-0.333	-0.099
-698.499	104.120	-0.101	0.121
-697.485	-200.000	0.053	-0.393
-696.470	800.000	0.076	-0.302
-695.456	-2.836	0.259	-0.184
-694.441	-59.890	0.202	-0.088
-693.426	-76.296	0.275	-0.098
-692.412	-200.000	-0.011	-0.244
-691.397	-4.174	0.451	0.318
-690.383	-174.500	0.244	-0.007
-689.368	222.833	-0.087	-0.143
-688.354	-84.930	-0.080	0.026
-687.339	800.000	-0.122	-0.531
-686.324	-200.000	-0.032	-0.280
-685.310	-59.802	0.289	-0.126
-684.295	-60.596	-0.140	-0.060
-683.281	725.323	0.111	0.300
-682.266	-50.456	-0.261	-0.125
-681.251	98.680	0.112	0.131
-680.237	-200.000	-0.024	0.268
-679.222	-125.707	-0.170	0.026
-678.208	800.000	0.082	-0.246
-677.193	0.007	0.142	-0.103
-676.178	-106.257	0.097	-0.022
-675.164	-200.000	-0.008	0.076
-674.149	488.688	0.068	0.157
-673.135	-108.087	0.198	-0.044
-672.120	25.189	-0.125	0.106
-671.105	0.806	-0.289	-0.211
-670.091	317.550	-0.016	-0.030
-669.076	-186.495	0.429	0.006
-668.062	-11.051	-0.006	-0.004
-667.047	481.507	-0.130	0.299
-666.032	-116.535	0.212	0.040
-665.018	108.898	0.024	0.029
-664.003	49.976	0.105	0.100
-662.989	-163.655	-0.502	0.024
-661.974	-200.000	-0.047	-0.240
-660.959	85.349	0.188	-0.209
-659.945	156.538	-0.077	-0.108
-658.930	-135.745	-0.101	0.012
-657.916	-122.884	0.064	0.010
-656.901	-200.000	-0.036	0.361
-655.886	351.320	0.132	0.266
-654.872	-200.000	0.006	0.406
-653.857	5.116	-0.224	-0.167
-652.843	-200.000	0.003	0.067
-651.828	29.564	0.054	-0.047
-650.814	4.293	0.140	0.104
-649.799	20.808	-0.205	0.169
-648.784	260.906	0.146	0.257
-647.770	-21.169	-0.108	-0.067
-646.755	216.240	0.152	0.246
-645.741	-200.000	0.002	0.061
-644.726	369.298	0.017	0.035
-643.711	-88.681	0.213	-0.064
-642.697	-20.850	-0.172	-0.107
-641.682	-70.104	-0.374	0.144
-640.668	-200.000	-0.015	0.254
-639.653	-200.000	0.020	0.248
-638.638	-200.000	-0.062	0.370
-637.624	-32.226	0.134	-0.076
-636.609	417.683	-0.032	0.070
-635.595	57.649	0.025	0.024
-634.580	-94.480	-0.232	-0.064
-633.565	23.384	-0.161	-0.134
-632.551	-200.000	0.030	0.184
-631.536	-20.959	0.215	-0.134
-630.522	800.000	-0.071	-0.240
-629.507	-200.000	-0.097	-0.439
-628.492	-200.000	-0.005	0.146
-627.478	-93.575	-0.213	-0.060
-626.463	-200.000	-0.014	-0.205
-625.449	-140.186	-0.265	-0.028
-624.434	194.525	-0.068	0.105
-623.419	-200.000	0.005	-0.149
-622.405	528.609	0.042	-0.100
-621.390	800.000	-0.001	-0.005
-620.376	800.000	0.101	0.293
-619.361	-14.472	-0.168	-0.109
-618.346	-160.554	0.129	0.007
-617.332	-99.879	-0.331	0.084
-616.317	-82.423	-0.050	-0.016
-615.303	800.000	0.054	-0.212
-614.288	-200.000	0.082	-0.462
-613.273	505.410	-0.019	-0.044
-612.259	231.904	0.124	-0.207
-611.244	-200.000	-0.025	0.133
-610.230	25.927	0.079	-0.067
-609.215	-154.146	0.264	-0.018
-608.201	800.000	0.015	0.047
-607.186	-117.980	-0.179	0.032
-606.171	-126.895	0.130	0.019
-605.157	-200.000	-0.022	0.235
-604.142	-200.000	-0.006	-0.033
-603.128	29.807	0.229	-0.198
-602.113	800.000	0.016	-0.045
-601.098	176.802	0.129	0.190
-600.084	-119.241	-0.307	0.054
-599.069	-79.197	0.284	0.098
-598.055	-28.298	-0.214	-0.125
-597.040	206.815	0.128	-0.202
-596.025	576.842	-0.114	0.282
-595.011	248.905	0.135	0.232
-593.996	-136.574	-0.111	0.013
-592.982	258.232	0.058	-0.101
-591.967	5.389	0.100	0.075
-590.952	-200.000	-0.008	0.238
-589.938	-30.662	0.134	0.077
-588.923	391.024	0.071	0.150
-587.909	-200.000	-0.022	-0.271
-586.894	95.908	-0.220	0.255
-585.879	-107.992	-0.221	0.049
-584.865	-161.081	-0.134	-0.007
-583.850	34.153	0.153	0.135
-582.836	-200.000	0.053	-0.270
-581.821	-105.160	0.339	0.078
-580.806	314.650	-0.172	0.328
-579.792	184.626	-0.156	-0.235
-578.777	32.007	-0.360	-0.314
-577.763	104.888	0.120	-0.143
-576.748	23.984	0.203	0.170
-575.733	-200.000	-0.075	-0.514
-574.719	800.000	-0.090	-0.272
-573.704	-73.556	-0.059	0.022
-572.690	-200.000	-0.021	0.344
-571.675	-200.000	0.042	0.216
-570.661	-58.079	-0.120	-0.053
-569.646	-186.535	-0.290	-0.004
-568.631	-197.344	-0.074	0.000
-567.617	-200.000	-0.026	-0.145
-566.602	-200.000	0.020	0.340
-565.588	10.029	-0.152	-0.117
-564.573	-43.865	-0.312	0.159
-563.558	-112.749	0.163	-0.033
-562.544	43.059	0.237	-0.219
-561.529	-183.815	-0.146	0.003
-560.515	800.000	0.024	-0.086
-559.500	-62.370	0.147	0.062
-558.485	-37.151	-0.199	-0.108
-557.471	-2.206	-0.184	-0.130
-556.456	-200.000	0.019	-0.296
-555.442	-114.946	0.176	-0.034
-554.427	-200.000	0.009	0.110
-553.412	544.718	0.150	-0.362
-552.398	-200.000	0.024	-0.194
-551.383	112.342	0.071	-0.087
-550.369	75.023	-0.076	0.081
-549.354	-200.000	0.004	0.107
-548.339	371.208	0.054	-0.111
-547.325	171.395	-0.107	-0.156
-546.310	135.201	-0.162	-0.213
-545.296	134.221	-0.037	0.049
-544.281	800.000	0.043	-0.153
-543.266	-5.452	-0.188	-0.130
-542.252	0.076	0.156	-0.112
-541.237	80.799	0.234	-0.255
-540.223	24.118	0.155	0.129
-539.208	-107.397	0.161	-0.036
-538.193	-156.500	-0.141	-0.009
-537.179	539.574	0.042	-0.102
-536.164	124.838	0.126	0.161
-535.150	157.576	0.150	-0.209
-534.135	-4.187	-0.211	0.147
-533.121	-177.337	-0.239	-0.006
-532.106	-130.989	-0.216	-0.029
-531.091	293.921	0.072	-0.133
-530.077	-179.163	0.203	-0.005
-529.062	-25.017	-0.249	-0.149
-528.048	-59.834	-0.211	0.091
-527.033	-200.000	-0.030	-0.259
-526.018	87.971	0.151	0.170
-525.004	-68.330	0.561	-0.220
-523.989	-107.875	0.329	0.072
-522.975	-200.000	-0.029	-0.302
-521.960	-93.747	-0.125	-0.035
-520.945	-200.000	-0.018	0.186
-519.931	-200.000	-0.050	-0.225
-518.916	800.000	0.034	0.143
-517.902	-30.917	0.113	-0.064
-516.887	-200.000	0.055	0.296
-515.872	51.762	0.132	-0.127
-514.858	93.090	-0.113	0.129
-513.843	-0.567	-0.162	0.116
-512.829	-200.000	-0.005	-0.104
-511.814	-200.000	-0.010	-0.246
-510.799	-200.000	0.041	0.246
-509.785	-89.207	-0.110	-0.033
-508.770	-150.136	-0.480	0.038
-507.756	-200.000	0.035	-0.451
-506.741	-200.000	-0.015	0.118
-505.726	-49.214	0.170	0.082
-504.712	-4.330	0.218	-0.152
-503.697	-200.000	-0.039	-0.291
-502.683	415.515	0.117	0.251
-501.668	800.000	-0.114	0.356
-500.653	-200.000	-0.029	-0.327
-499.639	-200.000	0.031	-0.180
-498.624	800.000	0.073	-0.287
-497.610	240.514	0.165	0.278
-496.595	-200.000	0.008	-0.317
-495.581	16.401	0.114	0.091
-494.566	-200.000	0.009	-0.382
-493.551	1.843	-0.064	-0.046
-492.537	-4.115	-0.215	-0.150
-491.522	-77.193	0.263	-0.092
-490.508	-130.613	-0.272	-0.037
-489.493	-129.137	-0.385	0.054
-488.478	-83.201	-0.274	-0.089
-487.464	800.000	-0.054	0.192
-486.449	-28.080	0.134	0.078
-485.435	-178.175	-0.032	0.001
-484.420	-200.000	-0.027	-0.375
-483.405	-200.000	-0.101	0.498
-482.391	800.000	-0.049	0.181
-481.376	344.478	0.015	-0.030
-480.362	800.000	0.137	-0.567
-479.347	-89.483	-0.057	-0.017
-478.332	-62.760	-0.095	-0.040
-477.318	307.148	0.023	0.043
-476.303	-61.186	0.388	0.165
-475.289	67.959	0.069	0.071
-474.274	676.078	-0.071	-0.186
-473.259	-200.000	0.046	0.277
-472.245	800.000	0.042	-0.168
-471.230	-200.000	-0.079	-0.456
-470.216	359.806	-0.050	-0.100
-469.201	-96.837	-0.257	0.068
-468.186	-6.717	-0.116	0.080
-467.172	136.327	-0.069	-0.090
-466.157	24.690	-0.075	0.063
-465.143	-154.663	-0.136	0.009
-464.128	-200.000	0.010	0.119
-463.113	192.552	0.116	0.176
-462.099	-76.877	-0.242	0.085
-461.084	-117.515	-0.299	0.054
-460.070	-200.000	-0.033	0.191
-459.055	40.082	-0.156	-0.141
-458.040	39.958	0.111	0.101
-457.026	158.417	-0.123	-0.172
-456.011	-184.146	0.178	-0.003
-454.997	-47.553	0.008	0.004
-453.982	-2.558	0.282	-0.199
-452.968	13.656	0.151	-0.119
-451.953	-109.515	0.125	0.027
-450.938	-110.686	-0.125	0.026
-449.924	-200.000	-0.007	-0.123
-448.909	-0.802	0.241	-0.172
-447.895	-84.138	0.218	0.070
-446.880	48.630	0.046	0.044
-445.865	167.994	0.133	-0.190
-444.851	800.000	0.078	0.225
-443.836	108.138	0.101	0.122
-442.822	-44.146	0.165	-0.083
-441.807	-3.763	-0.169	-0.118
-440.792	800.000	0.081	-0.297
-439.778	-200.000	0.019	-0.182
-438.763	-200.000	-0.024	-0.171
-437.749	-54.888	0.283	0.128
-436.734	-200.000	0.041	-0.229
-435.719	320.616	-0.093	0.178
-434.705	-52.816	-0.188	-0.087
-433.690	-65.834	-0.107	0.043
-432.676	273.340	0.134	0.238
-431.661	-4.888	-0.082	-0.057
-430.646	-34.269	0.233	-0.129
-429.632	800.000	-0.099	-0.347
-428.617	104.255	-0.117	0.138
-427.603	800.000	0.042	0.137
-426.588	427.889	-0.059	0.129
-425.573	4.956	0.193	-0.143
-424.559	-80.285	-0.092	0.031
-423.544	-200.000	0.023	0.147
-422.530	-200.000	-0.041	-0.272
-421.515	-89.537	-0.282	-0.083
-420.500	-143.827	0.200	0.019
-419.486	-144.670	-0.128	-0.012
-418.471	-122.629	-0.130	0.021
-417.457	-129.931	0.019	0.003
-416.442	711.159	-0.115	0.307
-415.428	-58.710	-0.178	0.077
-414.413	79.745	0.137	-0.148
-413.398	-26.373	-0.333	0.196
-412.384	493.254	0.099	0.229
-411.369	-200.000	-0.000	-0.017
-410.355	92.442	-0.259	-0.294
-409.340	-29.942	-0.237	0.136
-408.325	16.213	-0.146	0.116
-407.311	135.433	-0.030	0.039
-406.296	-59.996	-0.164	-0.070
-405.282	-200.000	0.007	-0.427
-404.267	-84.665	0.251	0.080
-403.252	-109.780	0.230	-0.049
-402.238	-107.373	-0.246	0.054
-401.223	800.000	0.077	-0.296
-400.209	41.899	0.080	-0.073
-399.194	-38.201	-0.278	0.148
-398.179	607.009	-0.051	0.127
-397.165	325.194	0.014	-0.028
-396.150	-61.480	-0.367	-0.155
-395.136	-200.000	0.031	0.267
-394.121	800.000	0.028	-0.117
-393.106	-14.538	-0.029	0.019
-392.092	-136.378	0.165	0.019
-391.077	-84.475	0.265	0.084
-390.063	-200.000	-0.008	0.392
-389.048	-200.000	-0.025	0.311
-388.033	344.707	-0.145	0.287
-387.019	565.916	0.070	-0.171
-386.004	-69.051	-0.204	0.079
-384.990	288.176	0.089	-0.162
-383.975	331.233	-0.012	0.022
-382.960	-61.311	-0.270	-0.114
-381.946	-131.496	0.146	-0.019
-380.931	116.631	0.027	-0.033
-379.917	-39.451	-0.145	-0.077
-378.902	27.295	-0.199	0.168
-377.888	161.156	-0.044	0.061
-376.873	-200.000	0.012	0.296
-375.858	21.474	-0.130	-0.107
-374.844	-200.000	-0.003	0.498
-373.829	-105.744	0.386	0.088
-372.815	-97.370	0.215	0.056
-371.800	-98.290	-0.242	0.062
-370.785	-86.626	0.219	0.067
-369.771	25.875	-0.132	0.110
-368.756	143.696	-0.109	-0.145
-367.742	800.000	0.109	0.316
-366.727	51.125	0.119	0.113
-365.712	800.000	0.013	0.039
-364.698	791.333	0.034	-0.093
-363.683	-70.127	-0.332	0.127
-362.669	188.068	0.168	0.252
-361.654	-200.000	-0.043	0.394
-360.639	-200.000	-0.025	-0.312
-359.625	-80.974	-0.138	0.046
-358.610	800.000	0.045	0.174
-357.596	800.000	0.091	-0.386
-356.581	-200.000	-0.006	-0.118
-355.566	-68.108	0.346	0.135
-354.552	42.209	0.185	0.169
-353.537	-178.444	0.218	0.005
-352.523	53.818	0.045	0.044
-351.508	800.000	0.095	0.322
-350.493	-200.000	0.034	0.218
-349.479	-0.047	0.120	0.086
-348.464	-118.218	-0.237	-0.042
-347.450	-46.474	-0.240	0.118
-346.435	-200.000	-0.048	-0.492
-345.420	149.754	0.124	-0.169
-344.406	436.247	-0.121	0.265
-343.391	130.534	-0.054	0.069
-342.377	-23.615	0.272	-0.164
-341.362	29.388	-0.093	-0.080
-340.348	-82.224	-0.246	0.080
-339.333	-53.186	-0.278	-0.128
-338.318	767.687	-0.058	0.158
-337.304	12.458	0.135	0.105
-336.289	-23.533	0.016	-0.009
-335.275	800.000	0.040	-0.152
-334.260	91.772	0.071	0.080
-333.245	114.616	0.235	-0.287
-332.231	142.229	0.083	0.111
-331.216	317.354	0.025	0.048
-330.202	-53.005	-0.378	0.174
-329.187	-57.649	-0.235	-0.103
-328.172	463.682	0.085	-0.190
-327.158	80.688	-0.135	-0.146
-326.143	-25.215	-0.439	0.261
-325.129	-92.436	0.246	-0.069
-324.114	556.344	0.045	0.108
-323.099	800.000	0.102	-0.345
-322.085	-93.567	0.343	-0.095
-321.070	-107.410	-0.197	0.043
-320.056	478.239	0.125	0.284
-319.041	125.829	-0.164	-0.208
-318.026	800.000	0.061	-0.236
-317.012	-200.000	0.019	-0.158
-315.997	-24.661	0.099	-0.059
-314.983	569.620	0.076	-0.186
-313.968	286.237	0.046	0.084
-312.953	-7.692	0.167	-0.113
-311.939	-200.000	-0.007	0.046
-310.924	-27.539	0.103	0.060
-309.910	104.806	0.031	-0.036
-308.895	-66.985	-0.313	0.124
-307.880	-33.682	-0.200	-0.111
-306.866	-14.531	-0.124	-0.080
-305.851	800.000	-0.086	0.278
-304.837	-103.787	0.254	0.060
-303.822	-118.601	-0.029	0.005
-302.807	800.000	0.028	0.110
-301.793	179.435	0.154	-0.226
-300.778	325.951	0.104	-0.200
-299.764	800.000	-0.015	0.058
-298.749	308.837	-0.153	-0.286
-297.735	204.978	-0.134	0.209
-296.720	-29.128	-0.057	-0.033
-295.705	-52.760	0.071	-0.033
-294.691	-200.000	-0.003	0.063
-293.676	492.395	-0.139	0.319
-292.662	-164.835	-0.122	-0.005
-291.647	800.000	0.045	0.128
-290.632	-200.000	-0.023	0.150
-289.618	7.905	-0.277	0.208
-288.603	-46.917	0.340	0.166
-287.589	-7.034	-0.369	-0.251
-286.574	-200.000	0.000	0.132
-285.559	13.033	0.171	0.133
-284.545	800.000	0.032	0.123
-283.530	-20.579	0.122	-0.075
-282.516	386.501	0.120	-0.247
-281.501	310.818	-0.093	0.175
-280.486	-76.228	0.129	0.046
-279.472	800.000	0.042	-0.152
-278.457	82.892	0.260	-0.283
-277.443	800.000	0.067	0.244
-276.428	10.204	-0.342	0.260
-275.413	33.679	0.219	0.191
-274.399	-200.000	-0.068	-0.398
-273.384	8.407	-0.352	0.265
-272.370	-9.665	-0.330	-0.220
-271.355	-200.000	0.000	-0.115
-270.340	245.267	-0.054	0.091
-269.326	295.479	0.103	0.189
-268.311	178.299	0.174	0.254
-267.297	-200.000	-0.027	0.271
-266.282	-2.874	-0.078	0.054
-265.267	301.198	0.045	0.084
-264.253	55.929	-0.206	0.200
-263.238	212.080	-0.132	-0.207
-262.224	-118.992	-0.231	-0.041
-261.209	-200.000	0.017	0.130
-260.195	-20.577	-0.213	-0.131
-259.180	800.000	-0.047	0.185
-258.165	-200.000	0.011	0.366
-257.151	-114.921	-0.258	-0.049
-256.136	80.267	-0.067	-0.072
-255.122	-81.644	-0.210	0.069
-254.107	-78.775	0.186	0.063
-253.092	-200.000	0.007	0.149
-252.078	84.637	0.236	0.258
-251.063	-81.274	-0.414	-0.136
-250.049	-122.910	0.335	0.054
-249.034	-200.000	-0.019	0.087
-248.019	36.389	0.054	0.048
-247.005	82.980	0.190	-0.206
-245.990	-146.378	0.194	0.017
-244.976	-200.000	-0.012	0.125
-243.961	-200.000	-0.045	0.271
-242.946	-200.000	0.012	0.121
-241.932	-105.234	-0.333	-0.076
-240.917	800.000	0.047	-0.167
-239.903	800.000	0.040	0.150
-238.888	-45.127	-0.055	0.027
-237.873	248.359	-0.120	0.203
-236.859	358.701	0.096	-0.192
-235.844	800.000	0.064	0.203
-234.830	-200.000	0.013	-0.086
-233.815	-200.000	-0.034	-0.337
-232.800	-105.735	-0.080	0.018
-231.786	127.251	0.249	0.316
-230.771	-55.234	0.339	0.152
-229.757	-102.805	-0.182	-0.043
-228.742	-96.120	-0.401	-0.106
-227.727	344.761	0.072	-0.141
-226.713	-64.412	0.252	0.102
-225.698	-88.793	0.253	0.075
-224.684	-74.877	0.565	0.203
-223.669	-28.163	0.143	0.083
-222.655	324.425	-0.170	-0.324
-221.640	800.000	0.145	0.423
-220.625	-200.000	0.046	0.499
-219.611	-90.029	-0.278	0.081
-218.596	23.311	-0.236	-0.193
-217.582	48.888	0.133	0.124
-216.567	449.060	0.104	-0.229
-215.552	-166.363	-0.185	0.008
-214.538	-10.326	-0.098	-0.065
-213.523	49.949	0.050	-0.047
-212.509	-23.050	-0.020	0.012
-211.494	-89.890	-0.194	0.056
-210.479	-200.000	-0.008	-0.200
-209.465	-140.636	0.132	0.014
-208.450	-135.047	-0.115	0.014
-207.436	8.527	0.136	-0.102
-206.421	800.000	0.142	-0.426
-205.406	361.660	-0.122	-0.245
-204.392	800.000	0.035	-0.150
-203.377	800.000	0.090	-0.336
-202.363	-200.000	0.001	0.031
-201.348	-200.000	-0.018	-0.212
-200.333	-60.861	0.441	0.186
-199.319	-200.000	-0.004	0.151
-198.304	313.403	0.117	0.219
-197.290	-149.814	0.250	-0.020
-196.275	-200.000	-0.039	-0.200
-195.260	-107.365	0.393	0.086
-194.246	-137.000	0.043	-0.005
-193.231	-169.376	0.078	0.003
-192.217	-78.096	0.059	0.020
-191.202	800.000	0.050	-0.166
-190.187	103.156	0.120	0.140
-189.173	-52.301	-0.278	0.128
-188.158	-79.810	0.086	0.029
-187.144	155.956	-0.118	0.162
-186.129	54.948	0.084	0.081
-185.114	28.293	0.173	-0.146
-184.100	119.404	-0.120	0.149
-183.085	726.583	-0.086	-0.228
-182.071	-168.287	-0.124	-0.005
-181.056	14.505	0.277	-0.216
-180.042	39.834	-0.257	-0.230
-179.027	-200.000	0.051	-0.311
-178.012	-78.392	0.105	0.036
-176.998	795.092	0.046	0.127
-175.983	148.013	0.139	-0.187
-174.969	-104.140	0.339	-0.079
-173.954	-200.000	-0.003	0.212
-172.939	165.158	-0.037	-0.052
-171.925	-123.705	-0.141	-0.022
-170.910	4.211	-0.072	-0.052
-169.896	356.711	-0.068	0.136
-168.881	-176.532	0.128	0.003
-167.866	-29.733	0.201	-0.114
-166.852	38.018	0.097	0.086
-165.837	-86.076	0.168	0.052
-164.823	-200.000	-0.026	-0.185
-163.808	193.074	-0.136	-0.204
-162.793	-76.496	0.311	-0.109
-161.779	-62.122	-0.072	-0.030
-160.764	-200.000	0.045	0.225
-159.750	504.349	0.123	0.283
-158.735	-25.858	0.016	-0.010
-157.720	-197.989	0.198	0.001
-156.706	-124.073	0.637	0.100
-155.691	-200.000	-0.048	0.273
-154.677	-87.990	0.078	-0.023
-153.662	-47.340	0.126	0.061
-152.647	597.350	-0.014	-0.034
-151.633	518.058	0.134	0.313
-150.618	-2.166	-0.323	-0.226
-149.604	-135.262	0.168	-0.020
-148.589	-44.752	0.019	-0.010
-147.574	446.862	0.093	0.203
-146.560	65.537	0.239	0.240
-145.545	-85.766	-0.347	-0.107
-144.531	-146.523	0.297	0.026
-143.516	-59.005	0.131	0.056
-142.502	265.735	-0.073	0.126
-141.487	-152.118	-0.187	-0.014
-140.472	-182.209	-0.142	-0.003
-139.458	-133.032	-0.201	-0.025
-138.443	-200.000	-0.046	0.355
-137.429	-75.642	0.211	0.074
-136.414	190.092	-0.048	-0.072
-135.399	38.515	0.250	0.222
-134.385	800.000	0.108	0.316
-133.370	24.549	-0.252	-0.207
-132.356	143.685	-0.188	-0.249
-131.341	-200.000	0.093	-0.485
-130.326	6.527	-0.140	0.103
-129.312	266.995	-0.102	0.178
-128.297	800.000	-0.048	-0.188
-127.283	173.441	0.081	0.116
-126.268	3.106	-0.164	-0.119
-125.253	-158.401	0.185	0.011
-124.239	-119.549	-0.134	-0.023
-123.224	163.267	-0.118	-0.164
-122.210	-128.930	0.335	-0.047
-121.195	111.351	-0.074	0.089
