DTS Sentinel unit serial number:	SN413079Multiplexer serial number:	ORYXHardware model number:	OX4-SRSoftware version number:	ORYX F/W v4.00 Oryx Data Collector v3.7.2.0data status	okinstallation	princeton_trtdifferential loss correction	single-endedforward channel	channel 1reverse channel	N/Adate	2019/09/14time	12:46:35forward acquisition time	60.00reverse acquisition time	0.00gamma	496.2192k internal	0.2294k external	0.2294temperature offset calibration	1.0094default loss term (dB/km)	0.3790temperature slope calibration	1.0000multiplexer offset coefficient	1.0000multiplexer slope coefficient	1.0000fibre end	0.00T internal ref (°C)	37.94T ext. ref 1 (°C)	4.83T ext. ref 2 (°C)	33.19length (m)	temperature (°C)	Stokes	anti-Stokes-747.200	36.682	-0.345	0.312
-746.185	301.838	-0.075	0.142
-745.171	800.000	-0.046	0.133
-744.156	252.697	0.114	0.199
-743.142	-125.888	-0.409	-0.063
-742.127	-127.454	-0.229	0.034
-741.112	-103.241	-0.284	-0.069
-740.098	800.000	0.057	0.225
-739.083	204.650	-0.215	-0.341
-738.069	800.000	-0.034	0.147
-737.054	238.356	-0.170	-0.290
-736.039	-200.000	-0.535	0.000
-735.025	-200.000	-0.032	-0.209
-734.010	-1.018	-0.348	0.252
-732.996	-114.331	-0.082	-0.016
-731.981	-200.000	-0.041	0.419
-730.966	675.750	0.075	-0.199
-729.952	163.935	0.052	0.075
-728.937	-17.515	-0.142	0.091
-727.923	492.167	0.120	-0.282
-726.908	800.000	-0.072	-0.269
-725.894	-200.000	-0.031	0.263
-724.879	122.173	-0.072	-0.091
-723.864	-144.347	-0.142	-0.013
-722.850	800.000	-0.096	0.382
-721.835	11.133	-0.123	0.096
-720.821	-119.675	-0.122	0.022
-719.806	498.551	-0.055	-0.131
-718.791	52.915	0.030	-0.029
-717.777	-88.512	0.057	0.017
-716.762	-88.104	0.303	0.093
-715.748	321.516	0.154	0.300
-714.733	-200.000	0.011	0.171
-713.718	-105.206	-0.144	0.034
-712.704	44.879	-0.243	-0.228
-711.689	-33.850	0.154	-0.087
-710.675	-94.782	-0.260	0.072
-709.660	53.165	-0.306	-0.299
-708.645	72.836	-0.120	0.128
-707.631	322.586	-0.104	0.202
-706.616	-63.088	-0.231	0.098
-705.602	-200.000	0.018	0.129
-704.587	-93.188	-0.213	-0.061
-703.572	800.000	0.165	0.513
-702.558	66.776	-0.163	-0.170
-701.543	800.000	-0.074	0.211
-700.529	-200.000	-0.005	-0.095
-699.514	-140.007	0.282	0.030
-698.499	-33.462	0.088	0.050
-697.485	-113.930	0.181	-0.036
-696.470	-83.268	-0.181	-0.059
-695.456	-70.613	0.242	0.094
-694.441	-102.562	0.686	-0.167
-693.426	89.569	-0.234	-0.267
-692.412	-84.943	-0.053	-0.017
-691.397	-200.000	-0.042	-0.241
-690.383	800.000	0.040	-0.176
-689.368	-200.000	-0.002	0.128
-688.354	800.000	-0.035	0.153
-687.339	-53.866	0.118	0.055
-686.324	83.609	0.127	-0.141
-685.310	800.000	-0.054	0.193
-684.295	181.768	-0.085	-0.127
-683.281	800.000	-0.070	-0.206
-682.266	-94.678	-0.251	0.070
-681.251	91.736	-0.044	-0.051
-680.237	-28.505	0.284	0.167
-679.222	69.337	0.329	0.345
-678.208	14.529	-0.285	0.227
-677.193	232.454	-0.090	0.152
-676.178	-104.334	-0.414	-0.098
-675.164	-23.480	-0.014	-0.009
-674.149	800.000	-0.045	0.195
-673.135	277.794	-0.070	0.127
-672.120	-63.859	0.147	0.061
-671.105	-58.719	0.176	-0.078
-670.091	62.147	-0.203	0.206
-669.076	800.000	0.106	0.390
-668.062	147.556	-0.224	0.308
-667.047	-200.000	-0.107	-0.483
-666.032	-35.365	0.282	0.156
-665.018	-4.076	0.218	-0.154
-664.003	26.540	0.131	-0.111
-662.989	-67.081	-0.347	0.139
-661.974	-117.841	-0.314	0.057
-660.959	15.334	-0.031	0.025
-659.945	187.323	0.051	-0.078
-658.930	-18.833	-0.074	-0.047
-657.916	-188.740	0.158	-0.002
-656.901	-200.000	0.049	0.240
-655.886	-119.762	-0.182	-0.032
-654.872	261.036	-0.111	-0.196
-653.857	59.327	0.096	-0.096
-652.843	-5.284	0.164	-0.115
-651.828	800.000	-0.027	-0.076
-650.814	76.547	-0.234	0.253
-649.799	-200.000	-0.044	-0.210
-648.784	-7.833	0.383	-0.264
-647.770	-200.000	0.088	0.000
-646.755	-51.675	-0.232	0.110
-645.741	187.694	0.102	0.156
-644.726	85.843	0.175	-0.197
-643.711	-200.000	-0.004	-0.020
-642.697	-200.000	-0.017	-0.121
-641.682	-24.323	-0.070	0.043
-640.668	-200.000	0.006	-0.175
-639.653	331.996	0.036	-0.071
-638.638	443.344	-0.124	-0.278
-637.624	79.489	-0.087	-0.095
-636.609	-200.000	0.006	-0.363
-635.595	-44.910	-0.266	-0.135
-634.580	-95.227	-0.190	-0.052
-633.565	-200.000	-0.008	-0.140
-632.551	61.244	-0.050	-0.050
-631.536	121.564	-0.195	-0.248
-630.522	-86.519	-0.179	-0.056
-629.507	234.051	-0.058	0.098
-628.492	-200.000	-0.006	0.248
-627.478	296.310	0.085	0.159
-626.463	136.052	-0.125	0.165
-625.449	-200.000	-0.006	0.338
-624.434	661.202	0.111	0.290
-623.419	-19.099	0.238	-0.151
-622.405	645.711	-0.096	-0.249
-621.390	-21.803	0.169	0.105
-620.376	254.004	0.174	0.303
-619.361	-200.000	-0.009	-0.079
-618.346	-37.375	-0.430	-0.234
-617.332	-75.212	0.346	0.126
-616.317	189.343	0.269	-0.411
-615.303	322.145	-0.113	0.218
-614.288	12.782	0.114	0.089
-613.273	539.738	-0.073	0.177
-612.259	800.000	-0.090	0.262
-611.244	-200.000	0.014	0.072
-610.230	349.955	-0.084	0.169
-609.215	385.663	0.158	0.331
-608.201	5.712	-0.215	0.161
-607.186	-103.047	-0.091	-0.022
-606.171	-200.000	-0.006	-0.077
-605.157	800.000	-0.049	0.185
-604.142	-200.000	0.036	-0.210
-603.128	29.825	-0.158	0.137
-602.113	550.400	-0.141	0.344
-601.098	800.000	-0.015	-0.050
-600.084	56.458	0.313	-0.310
-599.069	-144.976	-0.132	-0.012
-598.055	93.794	0.081	-0.094
-597.040	-138.553	0.292	-0.033
-596.025	47.711	0.078	0.074
-595.011	-108.978	-0.379	0.082
-593.996	48.968	-0.171	0.163
-592.982	-76.220	0.273	0.098
-591.967	795.933	0.062	-0.175
-590.952	-196.699	-0.190	0.001
-589.938	39.158	-0.082	-0.075
-588.923	-71.739	-0.166	0.063
-587.909	1.772	-0.040	0.029
-586.894	-200.000	-0.016	0.096
-585.879	25.213	0.052	-0.044
-584.865	-142.561	0.185	-0.018
-583.850	-11.330	0.089	0.060
-582.836	258.970	-0.093	-0.164
-581.821	756.962	-0.068	0.186
-580.806	370.792	-0.030	-0.061
-579.792	-32.333	0.225	-0.128
-578.777	800.000	0.103	-0.376
-577.763	-109.736	-0.380	-0.081
-576.748	46.422	0.024	-0.023
-575.733	-200.000	-0.006	0.063
-574.719	-107.034	-0.041	0.009
-573.704	-107.904	0.154	-0.034
-572.690	198.966	0.044	-0.068
-571.675	40.394	0.185	-0.169
-570.661	103.209	-0.094	-0.112
-569.646	57.243	0.166	0.165
-568.631	438.337	-0.116	0.258
-567.617	800.000	0.005	-0.014
-566.602	-200.000	0.027	-0.307
-565.588	251.969	0.190	-0.328
-564.573	-17.881	-0.242	-0.154
-563.558	105.751	-0.178	0.214
-562.544	-36.493	-0.261	0.143
-561.529	-89.622	0.064	0.019
-560.515	-15.220	0.192	-0.125
-559.500	-30.330	0.066	-0.038
-558.485	-124.101	0.175	-0.028
-557.471	129.839	0.087	-0.113
-556.456	-200.000	-0.056	-0.340
-555.442	-31.595	0.076	-0.043
-554.427	17.791	0.055	0.044
-553.412	-165.419	-0.216	-0.010
-552.398	402.835	-0.038	0.081
-551.383	-44.880	-0.240	0.121
-550.369	-98.212	-0.175	0.045
-549.354	96.163	0.071	0.083
-548.339	93.627	-0.210	0.241
-547.325	-121.875	0.468	-0.078
-546.310	-98.070	0.360	-0.094
-545.296	209.986	-0.091	0.144
-544.281	-152.274	0.112	-0.008
-543.266	-53.045	-0.249	-0.116
-542.252	-175.896	0.117	-0.003
-541.237	-200.000	-0.001	-0.127
-540.223	27.861	-0.123	0.105
-539.208	239.556	-0.166	0.280
-538.193	108.729	0.148	-0.179
-537.179	-87.228	0.112	-0.035
-536.164	-52.250	-0.210	-0.099
-535.150	283.755	-0.115	-0.210
-534.135	800.000	-0.099	-0.293
-533.121	-50.115	-0.085	-0.041
-532.106	-61.282	0.370	-0.158
-531.091	-106.340	-0.333	0.076
-530.077	800.000	0.057	-0.206
-529.062	-57.783	-0.383	-0.170
-528.048	553.363	0.128	-0.312
-527.033	72.537	-0.051	-0.054
-526.018	50.167	-0.188	-0.180
-525.004	-13.183	-0.258	0.170
-523.989	108.337	-0.034	0.041
-522.975	334.628	0.130	-0.255
-521.960	-145.642	-0.335	0.030
-520.945	-25.725	0.215	-0.129
-519.931	-124.185	0.151	-0.024
-518.916	10.641	0.091	0.071
-517.902	98.804	-0.098	0.115
-516.887	257.617	0.084	-0.147
-515.872	-44.415	-0.126	-0.064
-514.858	-89.006	0.260	-0.078
-513.843	-128.220	0.055	0.008
-512.829	330.238	0.066	-0.129
-511.814	100.819	0.156	-0.184
-510.799	-9.128	0.046	0.032
-509.785	-174.462	-0.333	-0.010
-508.770	28.113	-0.065	-0.055
-507.756	-137.880	-0.353	0.040
-506.741	-42.966	0.300	0.155
-505.726	-2.352	0.140	0.100
-504.712	-200.000	-0.003	0.186
-503.697	125.215	0.097	0.124
-502.683	185.672	0.143	0.215
-501.668	224.289	-0.179	-0.294
-500.653	-200.000	0.048	0.228
-499.639	590.548	-0.083	0.208
-498.624	211.623	0.134	0.214
-497.610	-200.000	-0.009	0.470
-496.595	20.444	-0.188	0.154
-495.581	-200.000	-0.037	-0.421
-494.566	636.873	0.026	0.067
-493.551	16.954	-0.123	-0.099
-492.537	-143.396	0.417	0.040
-491.522	800.000	0.034	-0.103
-490.508	427.511	-0.121	-0.264
-489.493	52.661	-0.121	0.117
-488.478	277.510	-0.138	0.248
-487.464	-52.233	-0.062	-0.029
-486.449	-27.600	-0.228	0.134
-485.435	244.301	0.110	-0.187
-484.420	-46.278	-0.186	-0.093
-483.405	-200.000	-0.046	0.299
-482.391	800.000	-0.053	0.168
-481.376	223.881	-0.188	0.307
-480.362	749.416	-0.092	-0.251
-479.347	132.762	-0.045	-0.058
-478.332	-200.000	0.026	-0.184
-477.318	800.000	-0.050	0.174
-476.303	67.471	0.090	0.093
-475.289	27.374	0.250	0.213
-474.274	-200.000	-0.013	-0.232
-473.259	800.000	-0.036	0.145
-472.245	-88.175	0.166	-0.050
-471.230	47.240	-0.235	0.221
-470.216	-74.761	-0.071	-0.026
-469.201	-104.521	0.062	0.014
-468.186	-163.222	0.130	-0.006
-467.172	-106.164	-0.074	-0.017
-466.157	-200.000	0.004	0.163
-465.143	-42.611	-0.030	0.016
-464.128	19.617	-0.145	0.118
-463.113	99.522	-0.112	-0.131
-462.099	-30.637	0.170	0.097
-461.084	-27.421	0.381	-0.224
-460.070	225.606	-0.081	-0.132
-459.055	-102.534	-0.264	0.064
-458.040	800.000	0.030	-0.108
-457.026	-102.187	-0.103	-0.025
-456.011	-175.196	0.129	0.004
-454.997	-200.000	0.016	-0.258
-453.982	-200.000	0.021	0.307
-452.968	-47.648	-0.123	-0.060
-451.953	800.000	-0.065	-0.283
-450.938	-76.665	-0.416	-0.147
-449.924	256.886	-0.271	0.471
-448.909	-138.338	0.224	0.025
-447.895	293.585	0.099	-0.182
-446.880	-159.014	0.043	0.002
-445.865	102.463	-0.248	-0.293
-444.851	-83.164	0.334	-0.109
-443.836	-102.983	-0.248	-0.059
-442.822	-200.000	0.008	0.089
-441.807	346.765	-0.136	0.270
-440.792	402.123	0.101	0.214
-439.778	-200.000	0.017	-0.453
-438.763	130.514	0.148	0.192
-437.749	188.000	-0.088	0.133
-436.734	91.349	-0.162	0.184
-435.719	-200.000	0.007	0.113
-434.705	-139.389	0.060	0.006
-433.690	207.990	0.152	0.241
-432.676	-200.000	-0.001	0.190
-431.661	-194.155	0.293	0.002
-430.646	-162.633	0.183	-0.009
-429.632	-81.159	0.252	-0.084
-428.617	-55.224	-0.379	-0.172
-427.603	213.080	-0.133	-0.212
-426.588	-91.478	-0.322	0.093
-425.573	592.872	-0.056	-0.139
-424.559	2.667	0.106	0.078
-423.544	800.000	-0.015	0.057
-422.530	288.799	0.088	-0.162
-421.515	586.661	-0.041	-0.102
-420.500	-161.031	0.267	-0.014
-419.486	-3.524	-0.124	-0.087
-418.471	198.285	0.146	-0.225
-417.457	516.015	0.091	-0.214
-416.442	-200.000	0.017	0.158
-415.428	-91.191	0.308	-0.089
-414.413	800.000	-0.034	-0.105
-413.398	-14.349	-0.278	0.181
-412.384	87.943	0.211	0.236
-411.369	-200.000	-0.002	0.011
-410.355	260.273	-0.045	0.078
-409.340	-32.806	0.198	-0.111
-408.325	-53.100	0.183	-0.085
-407.311	-200.000	0.017	0.353
-406.296	91.667	0.165	-0.187
-405.282	-115.676	0.145	0.028
-404.267	-131.392	-0.124	-0.017
-403.252	18.679	-0.318	-0.257
-402.238	178.615	0.032	0.047
-401.223	27.322	-0.060	-0.051
-400.209	-98.859	0.026	-0.007
-399.194	-32.689	-0.345	0.194
-398.179	190.072	0.009	0.014
-397.165	-3.779	-0.107	0.075
-396.150	-18.866	0.046	-0.029
-395.136	-200.000	-0.010	-0.200
-394.121	11.118	-0.142	0.109
-393.106	-200.000	0.018	0.273
-392.092	-51.114	0.128	0.060
-391.077	-46.011	0.261	0.130
-390.063	100.361	-0.063	-0.073
-389.048	27.393	-0.179	-0.152
-388.033	-60.751	-0.198	-0.085
-387.019	-43.062	-0.268	0.137
-386.004	106.967	0.135	-0.162
-384.990	-200.000	-0.037	-0.251
-383.975	-112.387	-0.061	-0.012
-382.960	186.670	0.088	0.132
-381.946	-200.000	-0.050	0.262
-380.931	-52.338	0.138	0.064
-379.917	-93.348	0.074	0.021
-378.902	56.781	-0.269	-0.264
-377.888	76.745	-0.130	-0.139
-376.873	-39.539	-0.099	-0.052
-375.858	-137.506	0.127	-0.014
-374.844	-78.632	0.220	0.076
-373.829	-171.391	0.351	0.012
-372.815	-200.000	-0.020	-0.355
-371.800	-200.000	0.033	0.266
-370.785	77.173	0.190	0.203
-369.771	-11.315	0.111	0.074
-368.756	-20.828	0.189	0.117
-367.742	-200.000	0.018	-0.178
-366.727	686.697	0.097	0.255
-365.712	-200.000	0.015	-0.163
-364.698	-200.000	0.036	0.177
-363.683	-55.424	0.231	0.104
-362.669	23.457	0.146	0.121
-361.654	-200.000	0.041	0.256
-360.639	35.024	-0.086	0.076
-359.625	-89.711	0.206	-0.061
-358.610	200.050	-0.108	-0.167
-357.596	0.908	-0.395	-0.285
-356.581	20.191	0.117	0.095
-355.566	4.860	-0.064	-0.047
-354.552	-160.103	-0.066	0.004
-353.537	-200.000	0.058	-0.262
-352.523	-136.461	-0.164	0.019
-351.508	-32.604	-0.302	-0.169
-350.493	-113.707	0.184	0.036
-349.479	800.000	0.049	0.158
-348.464	-115.015	-0.115	-0.022
-347.450	800.000	-0.066	0.194
-346.435	-127.451	0.080	-0.012
-345.420	-200.000	0.009	-0.143
-344.406	-101.107	0.192	-0.047
-343.391	203.137	0.087	0.135
-342.377	-200.000	-0.076	-0.496
-341.362	22.327	0.125	-0.103
-340.348	44.635	-0.110	-0.102
-339.333	-107.710	0.084	-0.018
-338.318	-47.470	-0.194	0.095
-337.304	-70.135	-0.305	0.117
-336.289	-72.882	-0.246	0.091
-335.275	-200.000	-0.031	-0.185
-334.260	-66.538	0.153	-0.061
-333.245	-200.000	0.004	0.051
-332.231	32.732	0.196	0.171
-331.216	344.043	0.056	0.110
-330.202	-200.000	-0.050	-0.286
-329.187	-200.000	-0.022	0.270
-328.172	25.809	0.140	0.118
-327.158	-200.000	-0.012	0.148
-326.143	800.000	0.028	-0.115
-325.129	800.000	0.034	-0.115
-324.114	-200.000	-0.038	0.290
-323.099	800.000	-0.126	0.513
-322.085	-125.804	-0.184	0.028
-321.070	800.000	0.051	0.147
-320.056	91.417	-0.252	0.285
-319.041	381.588	0.083	-0.172
-318.026	-76.672	-0.070	-0.025
-317.012	91.223	0.112	-0.127
-315.997	800.000	0.109	0.368
-314.983	-150.254	0.341	0.027
-313.968	354.348	-0.155	-0.310
-312.953	41.752	0.195	-0.178
-311.939	-41.390	-0.229	0.118
-310.924	-109.699	0.188	0.040
-309.910	-200.000	-0.028	0.126
-308.895	-119.385	-0.231	0.040
-307.880	-126.989	-0.133	-0.020
-306.866	34.370	0.098	0.086
-305.851	-186.134	-0.276	0.004
-304.837	-16.309	-0.281	0.179
-303.822	2.752	0.038	-0.027
-302.807	800.000	-0.095	0.375
-301.793	-38.333	0.323	0.172
-300.778	-200.000	0.015	0.092
-299.764	-20.782	-0.132	-0.081
-298.749	103.954	-0.032	-0.038
-297.735	-200.000	0.020	0.265
-296.720	-9.694	0.227	-0.152
-295.705	-28.800	-0.054	0.031
-294.691	800.000	-0.125	-0.542
-293.676	172.223	0.054	-0.079
-292.662	-200.000	-0.015	0.105
-291.647	-114.174	0.215	0.042
-290.632	-200.000	0.059	-0.263
-289.618	84.332	0.043	-0.047
-288.603	19.659	0.173	-0.140
-287.589	800.000	-0.066	0.209
-286.574	299.578	-0.050	0.093
-285.559	406.845	-0.065	-0.137
-284.545	412.955	-0.082	-0.176
-283.530	-52.403	0.335	-0.156
-282.516	-162.444	-0.108	-0.005
-281.501	66.738	-0.100	-0.102
-280.486	761.949	0.039	-0.107
-279.472	-114.677	-0.292	-0.056
-278.457	144.126	0.074	-0.100
-277.443	740.216	-0.055	-0.147
-276.428	301.819	0.188	0.349
-275.413	-172.802	0.159	-0.005
-274.399	-119.260	-0.243	0.043
-273.384	29.317	0.084	-0.072
-272.370	-200.000	0.006	-0.130
-271.355	0.805	0.083	0.060
-270.340	57.139	0.122	0.120
-269.326	-31.066	0.078	0.044
-268.311	-200.000	-0.011	-0.051
-267.297	460.592	0.048	-0.108
-266.282	4.919	0.181	0.134
-265.267	-166.421	0.274	-0.012
-264.253	187.993	-0.204	-0.307
-263.238	-89.187	-0.152	0.045
-262.224	-111.697	0.351	0.071
-261.209	48.256	-0.202	-0.190
-260.195	233.543	-0.138	-0.228
-259.180	723.354	0.054	0.144
-258.165	45.605	-0.111	-0.103
-257.151	-17.124	0.217	-0.137
-256.136	-95.696	0.141	-0.038
-255.122	-124.649	-0.180	-0.028
-254.107	-163.902	0.264	-0.012
-253.092	224.753	0.189	0.306
-252.078	800.000	0.089	0.248
-251.063	463.041	-0.092	0.206
-250.049	-200.000	0.015	0.173
-249.034	800.000	-0.030	0.120
-248.019	-62.689	-0.125	0.052
-247.005	-99.490	0.117	-0.029
-245.990	-200.000	0.059	0.340
-244.976	-32.491	-0.057	-0.032
-243.961	34.342	-0.080	0.070
-242.946	-109.125	0.193	0.041
-241.932	-109.048	0.294	-0.063
-240.917	-66.942	-0.223	0.088
-239.903	-200.000	0.021	-0.133
-238.888	714.120	-0.178	-0.474
-237.873	-10.051	-0.184	-0.123
-236.859	-32.044	-0.033	-0.019
-235.844	-200.000	0.047	-0.376
-234.830	-115.253	0.284	0.054
-233.815	-27.051	-0.148	-0.087
-232.800	58.345	0.175	0.172
-231.786	-25.892	0.145	0.086
-230.771	-22.602	-0.164	0.099
-229.757	800.000	-0.150	0.479
-228.742	263.932	0.084	-0.146
-227.727	800.000	-0.033	0.113
-226.713	-200.000	0.046	0.254
-225.698	800.000	-0.111	0.371
-224.684	-12.735	0.056	0.037
-223.669	800.000	-0.051	-0.158
-222.655	113.750	-0.067	-0.081
-221.640	-131.245	0.169	-0.022
-220.625	353.202	-0.039	0.078
-219.611	-79.644	0.088	-0.030
-218.596	197.320	0.060	-0.092
-217.582	-94.276	-0.103	-0.028
-216.567	-200.000	0.012	-0.277
-215.552	140.184	0.146	-0.193
-214.538	800.000	0.032	0.136
-213.523	-46.458	0.220	0.108
-212.509	-200.000	0.009	0.071
-211.494	504.689	0.044	0.102
-210.479	800.000	-0.069	0.289
-209.465	23.005	-0.255	-0.210
-208.450	-200.000	0.065	-0.383
-207.436	211.211	-0.017	0.026
-206.421	76.668	-0.248	-0.263
-205.406	800.000	-0.047	-0.149
-204.392	471.225	-0.104	0.235
-203.377	59.166	0.057	-0.056
-202.363	-200.000	0.011	0.066
-201.348	25.085	0.136	-0.113
-200.333	17.384	0.154	-0.122
-199.319	-59.542	-0.179	0.077
-198.304	28.366	0.224	0.190
-197.290	-29.699	-0.394	0.225
-196.275	-95.891	0.251	0.067
-195.260	-200.000	0.059	-0.366
-194.246	-51.111	-0.138	0.065
-193.231	1.778	0.224	-0.162
-192.217	118.599	-0.050	0.062
-191.202	-133.309	-0.115	0.014
-190.187	615.400	0.061	-0.153
-189.173	-48.925	-0.303	-0.145
-188.158	117.861	0.181	-0.224
-187.144	-144.560	0.211	0.020
-186.129	800.000	0.129	-0.360
-185.114	72.137	0.216	0.225
-184.100	404.257	-0.132	0.279
-183.085	-84.917	0.402	-0.126
-182.071	-155.077	-0.085	0.006
-181.056	126.128	-0.314	-0.397
-180.042	76.295	0.063	0.066
-179.027	639.814	0.092	0.234
-178.012	-200.000	-0.031	-0.175
-176.998	800.000	0.078	0.220
-175.983	-200.000	-0.004	-0.150
-174.969	800.000	-0.020	-0.056
-173.954	-74.166	0.419	-0.152
-172.939	-200.000	-0.007	-0.105
-171.925	-38.368	0.306	-0.162
-170.910	45.783	-0.137	0.126
-169.896	537.641	-0.089	0.212
-168.881	257.042	-0.070	0.120
-167.866	800.000	0.060	0.176
-166.852	122.485	-0.134	-0.167
-165.837	-61.237	-0.362	-0.152
-164.823	500.169	-0.036	-0.084
-163.808	322.610	0.104	0.199
-162.793	-54.423	-0.222	-0.101
-161.779	-149.637	0.439	0.035
-160.764	-200.000	-0.005	0.104
-159.750	589.865	-0.158	-0.390
-158.735	128.083	0.164	0.209
-157.720	184.496	-0.099	0.147
-156.706	-135.901	0.283	0.033
-155.691	-200.000	-0.059	0.484
-154.677	45.921	0.116	0.108
-153.662	491.099	-0.167	0.381
-152.647	-10.100	-0.288	0.191
-151.633	-200.000	-0.003	0.081
-150.618	800.000	0.070	0.229
-149.604	-62.596	0.166	0.069
-148.589	-79.366	-0.141	0.048
-147.574	115.699	0.274	0.335
-146.560	-200.000	-0.003	0.270
-145.545	-13.850	-0.101	-0.065
-144.531	-200.000	0.017	-0.351
-143.516	82.573	-0.199	-0.216
-142.502	27.469	0.173	-0.145
-141.487	800.000	0.084	0.331
-140.472	16.158	0.225	0.177
-139.458	165.424	-0.198	-0.280
-138.443	-34.986	0.178	0.097
-137.429	-200.000	-0.040	0.375
-136.414	669.409	0.077	-0.198
-135.399	77.013	0.165	-0.175
-134.385	733.259	-0.111	-0.298
-133.370	-200.000	-0.076	0.497
-132.356	753.826	-0.114	0.308
-131.341	456.200	0.139	0.308
-130.326	-44.535	-0.239	-0.119
-129.312	-141.446	-0.121	0.012
-128.297	-139.517	0.153	-0.016
-127.283	-26.054	-0.262	0.154
-126.268	-138.152	0.466	0.052
-125.253	83.496	-0.033	0.036
-124.239	-57.394	-0.351	0.154
-123.224	193.835	-0.164	-0.248
-122.210	-81.586	0.386	0.127
-121.195	-149.638	-0.267	-0.021
