DTS Sentinel unit serial number:	SN413079Multiplexer serial number:	ORYXHardware model number:	OX4-SRSoftware version number:	ORYX F/W v4.00 Oryx Data Collector v3.7.2.0data status	okinstallation	princeton_trtdifferential loss correction	single-endedforward channel	channel 1reverse channel	N/Adate	2019/09/19time	09:46:35forward acquisition time	60.00reverse acquisition time	0.00gamma	496.2192k internal	0.2340k external	0.2340temperature offset calibration	1.0004default loss term (dB/km)	0.3790temperature slope calibration	1.0000multiplexer offset coefficient	1.0000multiplexer slope coefficient	1.0000fibre end	0.00T internal ref (°C)	23.33T ext. ref 1 (°C)	0.65T ext. ref 2 (°C)	19.49length (m)	temperature (°C)	Stokes	anti-Stokes-747.200	25.590	-0.136	-0.113
-746.185	58.991	-0.090	-0.089
-745.171	-200.000	-0.022	-0.296
-744.156	361.373	0.093	-0.186
-743.142	7.667	-0.128	0.096
-742.127	-200.000	-0.049	0.324
-741.112	-155.199	-0.356	-0.023
-740.098	-31.353	-0.144	-0.081
-739.083	800.000	-0.123	-0.432
-738.069	-36.503	0.125	-0.068
-737.054	150.378	-0.115	-0.157
-736.039	55.147	-0.137	0.133
-735.025	169.783	-0.096	-0.138
-734.010	-125.780	-0.212	-0.032
-732.996	-200.000	0.018	-0.111
-731.981	127.324	-0.298	-0.379
-730.966	-92.094	-0.308	-0.087
-729.952	657.047	0.076	-0.197
-728.937	281.079	0.046	0.083
-727.923	-2.702	-0.305	-0.214
-726.908	-200.000	0.003	-0.123
-725.894	-15.483	-0.141	-0.091
-724.879	284.252	-0.160	0.288
-723.864	-86.038	-0.054	-0.017
-722.850	63.196	-0.180	-0.180
-721.835	430.360	-0.154	-0.335
-720.821	-101.548	-0.292	-0.071
-719.806	-147.793	0.334	0.028
-718.791	383.746	-0.156	0.321
-717.777	11.634	-0.163	0.125
-716.762	-200.000	-0.014	0.249
-715.748	-37.432	0.086	0.046
-714.733	-17.903	0.298	0.187
-713.718	800.000	-0.062	0.232
-712.704	-89.441	-0.444	-0.131
-711.689	-200.000	0.011	-0.119
-710.675	-122.047	-0.188	0.031
-709.660	-75.293	0.103	-0.037
-708.645	347.524	0.094	-0.185
-707.631	86.941	0.173	0.191
-706.616	62.780	0.162	-0.163
-705.602	11.502	0.344	-0.264
-704.587	184.033	0.081	0.120
-703.572	265.091	-0.083	0.145
-702.558	-58.523	0.263	0.114
-701.543	436.634	-0.174	0.378
-700.529	-139.590	-0.264	0.028
-699.514	-30.704	0.457	-0.259
-698.499	-200.000	0.032	-0.154
-697.485	46.541	0.104	0.096
-696.470	-139.832	-0.152	-0.016
-695.456	-200.000	0.040	-0.185
-694.441	-200.000	0.014	-0.214
-693.426	-50.450	0.212	0.100
-692.412	461.890	-0.098	0.219
-691.397	800.000	0.025	-0.102
-690.383	320.266	-0.157	0.298
-689.368	-73.660	0.313	0.114
-688.354	249.090	-0.102	0.173
-687.339	60.711	-0.148	-0.147
-686.324	-67.904	0.049	0.019
-685.310	-46.370	0.079	-0.039
-684.295	-1.838	-0.067	-0.047
-683.281	245.737	-0.143	0.241
-682.266	-51.879	0.218	-0.101
-681.251	-137.297	-0.095	0.011
-680.237	-100.344	0.194	-0.048
-679.222	-112.008	0.258	0.052
-678.208	-200.000	0.017	-0.463
-677.193	3.599	-0.070	-0.051
-676.178	800.000	-0.021	-0.061
-675.164	-200.000	0.010	0.129
-674.149	800.000	0.121	0.443
-673.135	360.121	-0.128	-0.257
-672.120	611.411	-0.013	-0.032
-671.105	-126.646	0.178	-0.026
-670.091	-177.858	0.310	0.007
-669.076	236.104	-0.198	-0.327
-668.062	84.382	-0.128	-0.140
-667.047	430.844	-0.066	0.144
-666.032	490.321	0.110	0.251
-665.018	-133.623	0.461	-0.058
-664.003	757.276	0.124	0.336
-662.989	-59.417	-0.298	0.128
-661.974	800.000	0.043	0.141
-660.959	216.900	-0.072	-0.115
-659.945	-200.000	0.012	0.187
-658.930	99.229	-0.059	-0.068
-657.916	104.580	-0.072	0.085
-656.901	-162.340	0.266	-0.013
-655.886	126.285	0.078	-0.098
-654.872	-78.023	-0.204	-0.070
-653.857	118.225	-0.024	-0.029
-652.843	-136.594	0.311	-0.036
-651.828	128.649	-0.253	-0.322
-650.814	-79.856	0.189	-0.063
-649.799	-200.000	-0.007	-0.118
-648.784	129.761	0.156	-0.199
-647.770	92.938	-0.209	0.236
-646.755	37.125	-0.225	0.199
-645.741	-200.000	0.049	0.252
-644.726	25.748	0.233	-0.194
-643.711	-28.082	0.178	-0.103
-642.697	302.254	-0.056	0.103
-641.682	100.005	-0.117	-0.135
-640.668	24.796	-0.299	-0.247
-639.653	-40.730	-0.083	0.043
-638.638	-85.818	-0.019	0.006
-637.624	340.917	-0.112	0.219
-636.609	442.777	0.141	0.309
-635.595	-77.274	-0.259	-0.090
-634.580	232.589	-0.129	0.211
-633.565	206.995	0.125	0.195
-632.551	-64.175	-0.398	-0.162
-631.536	800.000	0.025	0.102
-630.522	-53.524	0.136	-0.062
-629.507	-40.294	-0.398	0.207
-628.492	-200.000	0.003	0.101
-627.478	41.786	-0.140	0.127
-626.463	800.000	0.031	0.117
-625.449	-8.198	0.212	0.143
-624.434	7.247	-0.072	0.054
-623.419	4.288	-0.165	0.121
-622.405	-150.806	-0.198	-0.015
-621.390	-145.480	0.222	0.020
-620.376	-72.536	-0.437	-0.161
-619.361	-200.000	0.008	-0.104
-618.346	-92.045	-0.229	0.065
-617.332	32.675	0.170	-0.147
-616.317	-200.000	0.055	-0.244
-615.303	-163.242	-0.278	-0.013
-614.288	800.000	-0.013	0.049
-613.273	800.000	0.095	-0.361
-612.259	800.000	0.030	-0.103
-611.244	165.227	-0.021	-0.030
-610.230	101.806	0.147	-0.171
-609.215	800.000	0.078	0.225
-608.201	221.756	0.118	0.189
-607.186	800.000	-0.053	0.170
-606.171	-52.755	-0.226	0.104
-605.157	-173.899	0.041	0.001
-604.142	106.469	0.185	-0.219
-603.128	347.779	-0.225	-0.442
-602.113	-89.178	0.062	-0.018
-601.098	-200.000	-0.036	0.229
-600.084	-168.801	-0.064	-0.002
-599.069	55.386	0.026	-0.025
-598.055	-75.640	-0.088	-0.031
-597.040	-4.460	0.076	-0.052
-596.025	-100.179	-0.063	0.016
-595.011	-107.367	-0.266	-0.058
-593.996	-100.409	0.291	0.072
-592.982	19.174	-0.289	-0.231
-591.967	-118.961	-0.136	-0.024
-590.952	29.107	-0.162	0.137
-589.938	-200.000	-0.013	0.376
-588.923	277.482	-0.166	-0.294
-587.909	-200.000	-0.017	0.181
-586.894	800.000	-0.096	-0.358
-585.879	217.957	-0.160	0.255
-584.865	-200.000	0.002	-0.199
-583.850	353.783	0.092	0.181
-582.836	-200.000	0.013	0.203
-581.821	46.846	0.184	0.170
-580.806	717.902	0.138	0.364
-579.792	682.217	-0.078	0.203
-578.777	-200.000	0.072	-0.430
-577.763	-78.238	0.234	-0.080
-576.748	-32.079	-0.353	0.197
-575.733	115.999	0.057	-0.069
-574.719	-30.472	0.234	-0.132
-573.704	-33.648	-0.213	0.117
-572.690	-34.999	-0.280	0.152
-571.675	800.000	-0.024	-0.083
-570.661	62.931	-0.131	0.131
-569.646	69.395	0.105	-0.108
-568.631	-173.488	0.330	-0.010
-567.617	-31.623	0.106	-0.060
-566.602	-23.544	-0.147	-0.088
-565.588	53.726	-0.021	-0.020
-564.573	174.077	0.272	-0.392
-563.558	-40.068	-0.129	0.067
-562.544	11.483	0.121	-0.092
-561.529	800.000	-0.020	0.086
-560.515	-130.886	0.191	0.025
-559.500	283.016	-0.147	-0.263
-558.485	-200.000	-0.091	0.399
-557.471	44.859	-0.120	0.110
-556.456	-200.000	0.030	-0.262
-555.442	-155.965	-0.123	-0.008
-554.427	-78.721	-0.128	0.043
-553.412	-36.694	0.117	-0.063
-552.398	-149.418	-0.401	-0.032
-551.383	0.410	0.042	-0.030
-550.369	68.416	-0.091	0.093
-549.354	357.029	0.249	-0.494
-548.339	800.000	0.084	0.253
-547.325	-122.773	-0.059	0.009
-546.310	-3.326	0.362	0.251
-545.296	-103.418	-0.417	-0.098
-544.281	102.690	0.137	0.160
-543.266	-118.477	-0.093	0.016
-542.252	133.908	-0.205	0.264
-541.237	-0.199	-0.100	0.071
-540.223	16.481	0.262	0.206
-539.208	547.217	-0.034	-0.080
-538.193	94.416	-0.084	-0.095
-537.179	-56.151	-0.191	-0.084
-536.164	-42.908	0.200	-0.101
-535.150	-200.000	0.021	-0.215
-534.135	-107.351	-0.087	-0.019
-533.121	81.172	-0.110	-0.118
-532.106	800.000	-0.065	0.194
-531.091	25.107	0.211	0.174
-530.077	-200.000	-0.002	-0.055
-529.062	800.000	0.135	-0.443
-528.048	-86.991	0.396	0.120
-527.033	26.530	0.012	0.010
-526.018	9.166	0.148	-0.111
-525.004	66.824	0.193	-0.195
-523.989	391.322	-0.180	-0.372
-522.975	429.711	-0.109	0.235
-521.960	800.000	-0.038	0.133
-520.945	-35.837	0.140	0.075
-519.931	-71.599	0.233	-0.087
-518.916	-48.818	-0.106	-0.050
-517.902	-200.000	0.032	0.316
-516.887	2.625	0.131	-0.094
-515.872	84.375	0.058	-0.063
-514.858	-200.000	0.021	0.315
-513.843	114.512	0.169	-0.204
-512.829	-25.951	0.084	0.049
-511.814	15.368	-0.175	-0.137
-510.799	5.156	0.141	0.103
-509.785	-103.291	-0.303	-0.071
-508.770	-27.738	-0.195	-0.113
-507.756	322.037	-0.065	0.123
-506.741	105.729	-0.290	-0.341
-505.726	-69.522	-0.222	0.084
-504.712	159.606	-0.404	0.558
-503.697	7.335	-0.144	0.107
-502.683	-179.137	-0.105	0.002
-501.668	478.842	0.086	-0.193
-500.653	800.000	0.091	0.300
-499.639	161.637	-0.263	0.366
-498.624	182.845	0.035	-0.051
-497.610	-200.000	-0.014	0.253
-496.595	-39.145	0.192	-0.100
-495.581	-128.597	-0.212	-0.030
-494.566	-14.495	0.055	0.035
-493.551	-110.718	-0.077	-0.016
-492.537	222.782	-0.081	-0.130
-491.522	-12.333	0.204	0.132
-490.508	348.955	0.185	-0.363
-489.493	-200.000	0.006	0.060
-488.478	146.427	0.286	-0.382
-487.464	317.389	0.065	-0.121
-486.449	-200.000	-0.009	0.156
-485.435	-154.096	0.260	0.018
-484.420	-73.124	-0.016	-0.006
-483.405	-39.394	-0.413	0.215
-482.391	-200.000	0.010	-0.192
-481.376	-28.347	0.227	-0.130
-480.362	469.160	-0.161	-0.359
-479.347	6.862	0.245	-0.181
-478.332	287.679	0.280	0.503
-477.318	61.933	-0.251	0.248
-476.303	-59.345	0.179	0.076
-475.289	-44.427	-0.184	-0.092
-474.274	-125.020	-0.299	0.046
-473.259	389.159	-0.248	0.510
-472.245	49.110	-0.217	-0.202
-471.230	-19.507	-0.231	-0.142
-470.216	318.509	0.057	-0.108
-469.201	119.960	-0.244	-0.300
-468.186	-200.000	0.002	0.179
-467.172	-68.923	0.286	0.109
-466.157	-22.798	0.167	0.100
-465.143	-200.000	-0.000	0.186
-464.128	197.227	-0.016	-0.024
-463.113	39.756	0.157	-0.139
-462.099	30.494	0.126	-0.107
-461.084	60.012	-0.038	-0.037
-460.070	-55.951	0.080	0.035
-459.055	-200.000	-0.070	0.541
-458.040	65.361	0.301	0.301
-457.026	90.411	0.070	0.078
-456.011	-69.986	-0.252	-0.095
-454.997	-100.747	-0.147	-0.036
-453.982	69.805	0.085	-0.087
-452.968	371.363	0.111	-0.224
-451.953	-200.000	0.045	-0.279
-450.938	538.440	-0.015	0.036
-449.924	800.000	0.033	-0.106
-448.909	742.262	0.047	-0.127
-447.895	74.670	0.124	-0.129
-446.880	86.380	-0.017	-0.019
-445.865	515.450	-0.175	-0.405
-444.851	167.018	0.079	-0.111
-443.836	-200.000	-0.004	0.110
-442.822	80.631	-0.330	0.353
-441.807	149.247	0.143	-0.191
-440.792	-200.000	0.019	-0.198
-439.778	-77.000	-0.327	-0.113
-438.763	46.845	-0.150	-0.138
-437.749	155.907	-0.253	-0.346
-436.734	-46.503	-0.435	-0.212
-435.719	800.000	-0.021	0.092
-434.705	-200.000	-0.001	-0.143
-433.690	238.000	-0.047	0.077
-432.676	83.542	-0.123	0.133
-431.661	800.000	0.033	-0.132
-430.646	-200.000	0.004	-0.439
-429.632	800.000	-0.043	0.160
-428.617	-200.000	-0.011	0.273
-427.603	800.000	0.067	-0.212
-426.588	-30.645	0.351	-0.197
-425.573	-159.439	0.269	-0.015
-424.559	164.900	0.035	0.050
-423.544	351.652	0.103	0.203
-422.530	800.000	-0.035	-0.119
-421.515	-83.770	-0.177	-0.056
-420.500	-14.939	0.120	-0.076
-419.486	-200.000	0.003	-0.058
-418.471	800.000	0.026	-0.072
-417.457	-200.000	0.030	-0.161
-416.442	-136.233	0.184	-0.021
-415.428	-200.000	-0.002	0.165
-414.413	20.787	-0.104	0.083
-413.398	800.000	0.037	-0.134
-412.384	615.640	0.060	-0.148
-411.369	-0.728	-0.260	-0.182
-410.355	-43.471	-0.360	0.180
-409.340	800.000	0.041	-0.156
-408.325	191.782	-0.151	0.225
-407.311	-107.548	0.169	-0.037
-406.296	-200.000	0.042	-0.335
-405.282	-66.737	0.136	-0.053
-404.267	-200.000	0.050	-0.327
-403.252	71.975	0.304	0.312
-402.238	-127.898	0.367	0.052
-401.223	-67.182	-0.035	0.014
-400.209	-10.954	0.098	0.064
-399.194	16.253	0.023	0.018
-398.179	147.995	-0.100	0.134
-397.165	-76.041	0.239	0.084
-396.150	-200.000	0.023	-0.296
-395.136	139.464	-0.192	0.250
-394.121	29.633	0.215	-0.181
-393.106	101.216	-0.137	0.158
-392.092	-101.044	0.216	-0.052
-391.077	-27.511	-0.160	0.092
-390.063	72.706	-0.145	0.149
-389.048	-13.973	0.328	-0.209
-388.033	-67.493	0.070	-0.027
-387.019	191.355	0.218	-0.324
-386.004	173.027	0.120	0.171
-384.990	-105.750	-0.224	0.050
-383.975	70.564	-0.198	0.203
-382.960	-173.861	-0.138	-0.004
-381.946	418.826	0.014	0.030
-380.931	197.423	-0.048	-0.073
-379.917	52.428	-0.315	-0.297
-378.902	-200.000	-0.011	0.102
-377.888	800.000	-0.088	-0.259
-376.873	228.331	-0.134	0.216
-375.858	-61.883	0.153	-0.063
-374.844	-136.820	-0.257	0.029
-373.829	230.624	0.118	-0.191
-372.815	-155.766	0.123	-0.008
-371.800	93.582	0.281	-0.315
-370.785	-26.382	0.243	0.141
-369.771	-87.426	0.094	0.028
-368.756	136.391	-0.135	0.174
-367.742	-200.000	0.006	-0.053
-366.727	30.121	0.195	0.165
-365.712	-170.802	-0.205	-0.007
-364.698	50.769	0.143	-0.134
-363.683	118.301	-0.172	0.210
-362.669	-40.337	0.146	-0.075
-361.654	130.982	-0.133	0.169
-360.639	-43.102	-0.118	0.059
-359.625	800.000	0.087	-0.297
-358.610	266.671	-0.120	0.208
-357.596	-84.724	0.289	0.090
-356.581	-120.780	-0.200	0.033
-355.566	800.000	0.100	-0.302
-354.552	-51.439	-0.166	0.077
-353.537	-80.543	0.157	0.052
-352.523	-149.387	0.399	-0.031
-351.508	381.223	0.077	0.157
-350.493	-19.719	-0.377	0.230
-349.479	-200.000	-0.005	-0.079
-348.464	124.423	-0.112	-0.139
-347.450	11.989	0.089	-0.068
-346.435	44.235	0.195	0.177
-345.420	246.459	0.121	-0.201
-344.406	19.879	0.280	0.223
-343.391	-60.177	-0.281	-0.118
-342.377	62.624	-0.126	-0.125
-341.362	18.590	0.197	0.156
-340.348	169.923	-0.234	0.330
-339.333	104.888	-0.180	-0.210
-338.318	388.217	0.112	0.229
-337.304	75.129	0.221	0.230
-336.289	-133.889	-0.393	0.048
-335.275	30.397	0.095	0.080
-334.260	21.322	-0.171	-0.137
-333.245	-16.968	0.124	-0.077
-332.231	-64.144	0.191	0.077
-331.216	800.000	0.016	-0.062
-330.202	-200.000	0.005	-0.153
-329.187	49.581	-0.080	-0.074
-328.172	359.802	-0.030	0.059
-327.158	800.000	0.050	0.196
-326.143	800.000	0.084	-0.302
-325.129	-121.206	-0.084	0.014
-324.114	129.023	0.165	0.208
-323.099	-121.199	0.116	0.019
-322.085	-132.604	0.134	-0.017
-321.070	-6.689	-0.040	0.027
-320.056	-81.482	-0.142	0.046
-319.041	-53.071	0.386	0.175
-318.026	-50.423	-0.171	-0.079
-317.012	5.507	0.038	0.028
-315.997	596.008	-0.064	0.157
-314.983	45.715	-0.053	0.048
-313.968	303.777	-0.044	-0.080
-312.953	-31.007	0.128	-0.071
-311.939	715.222	-0.063	-0.164
-310.924	800.000	0.045	0.179
-309.910	-117.375	0.083	0.015
-308.895	530.973	0.106	-0.247
-307.880	800.000	0.057	-0.157
-306.866	-25.795	0.271	0.157
-305.851	276.877	-0.123	-0.216
-304.837	500.390	0.043	-0.097
-303.822	296.451	0.064	0.116
-302.807	-200.000	-0.008	-0.125
-301.793	800.000	0.167	0.477
-300.778	-66.546	0.077	-0.030
-299.764	-75.435	0.477	-0.167
-298.749	-68.626	0.243	-0.093
-297.735	-200.000	0.041	0.233
-296.720	-200.000	0.004	0.114
-295.705	-141.734	0.101	-0.010
-294.691	-135.905	-0.108	0.012
-293.676	-49.679	-0.211	-0.099
-292.662	-82.045	-0.432	0.139
-291.647	584.559	0.108	-0.262
-290.632	-90.307	0.066	0.019
-289.618	-200.000	0.003	0.048
-288.603	-8.047	-0.154	0.103
-287.589	800.000	0.059	0.208
-286.574	-200.000	-0.006	-0.209
-285.559	133.922	-0.093	0.118
-284.545	453.944	0.101	0.220
-283.530	5.497	-0.148	0.108
-282.516	82.605	0.224	0.240
-281.501	91.710	0.121	0.134
-280.486	331.101	-0.042	0.079
-279.472	-200.000	-0.049	-0.290
-278.457	-85.381	-0.375	0.115
-277.443	24.108	-0.079	0.064
-276.428	-200.000	-0.114	-0.498
-275.413	274.006	-0.194	-0.338
-274.399	-46.726	-0.143	0.069
-273.384	-200.000	-0.087	0.416
-272.370	-68.624	0.160	0.061
-271.355	443.455	0.042	0.091
-270.340	-59.656	0.334	-0.141
-269.326	130.595	0.087	0.110
-268.311	-99.403	-0.333	0.083
-267.297	545.648	-0.056	0.131
-266.282	-120.753	0.117	-0.019
-265.267	633.454	-0.164	0.409
-264.253	-10.590	0.210	0.137
-263.238	440.078	0.103	-0.221
-262.224	-200.000	0.043	-0.211
-261.209	-200.000	-0.014	0.075
-260.195	144.697	0.154	0.203
-259.180	-151.260	0.177	0.013
-258.165	-7.146	-0.110	0.073
-257.151	-104.300	0.125	-0.029
-256.136	800.000	-0.054	-0.198
-255.122	-0.113	0.027	0.019
-254.107	-54.258	0.148	-0.066
-253.092	182.536	-0.218	0.316
-252.078	-73.322	-0.037	0.013
-251.063	-200.000	-0.016	-0.122
-250.049	-186.242	-0.112	-0.002
-249.034	345.196	-0.125	-0.242
-248.019	147.922	-0.216	-0.286
-247.005	-99.554	-0.279	0.069
-245.990	150.885	0.108	-0.144
-244.976	36.698	0.217	-0.189
-243.961	69.326	0.291	0.295
-242.946	-147.970	-0.087	-0.007
-241.932	577.865	-0.062	0.150
-240.917	-115.873	-0.133	-0.025
-239.903	-36.394	0.311	-0.165
-238.888	109.385	0.268	0.316
-237.873	800.000	0.044	0.153
-236.859	747.377	-0.073	-0.194
-235.844	800.000	-0.107	-0.295
-234.830	1.335	-0.232	0.164
-233.815	199.499	0.163	0.246
-232.800	-90.352	-0.294	-0.084
-231.786	304.618	-0.178	0.325
-230.771	-58.327	0.096	-0.041
-229.757	-0.098	-0.129	0.090
-228.742	-39.602	0.175	-0.090
-227.727	47.277	0.060	-0.055
-226.713	-55.950	0.138	0.061
-225.698	-200.000	0.049	0.222
-224.684	800.000	0.096	0.291
-223.669	23.055	-0.141	-0.114
-222.655	31.829	0.071	0.060
-221.640	234.485	-0.089	-0.143
-220.625	0.157	0.317	0.222
-219.611	-27.293	0.090	-0.052
-218.596	100.488	-0.043	-0.049
-217.582	-111.535	0.114	-0.023
-216.567	-99.289	-0.299	-0.074
-215.552	-54.997	-0.233	-0.103
-214.538	288.814	-0.202	0.359
-213.523	-96.129	0.176	0.046
-212.509	-200.000	0.023	-0.304
-211.494	-72.249	-0.161	-0.058
-210.479	19.642	0.203	0.160
-209.465	48.237	0.327	0.300
-208.450	-98.871	0.219	-0.055
-207.436	682.754	-0.094	-0.240
-206.421	22.377	-0.383	-0.308
-205.406	800.000	0.067	0.280
-204.392	729.579	0.119	0.311
-203.377	-200.000	0.039	0.239
-202.363	576.558	0.095	-0.229
-201.348	-115.882	-0.317	0.058
-200.333	-200.000	-0.017	-0.268
-199.319	-40.843	0.069	-0.035
-198.304	-200.000	-0.034	-0.197
-197.290	82.789	-0.171	-0.182
-196.275	54.502	0.181	-0.172
-195.260	421.281	0.123	-0.259
-194.246	28.555	-0.079	0.066
-193.231	-54.466	0.371	0.165
-192.217	-200.000	0.014	-0.076
-191.202	-15.405	0.143	-0.090
-190.187	-159.271	0.323	0.018
-189.173	-200.000	-0.052	0.336
-188.158	-200.000	-0.002	0.096
-187.144	-113.065	-0.231	0.045
-186.129	-129.465	0.151	0.021
-185.114	195.790	0.146	-0.217
-184.100	-159.188	-0.385	-0.021
-183.085	63.497	-0.172	-0.169
-182.071	48.857	0.146	-0.134
-181.056	53.005	-0.259	-0.243
-180.042	39.440	0.365	-0.321
-179.027	-200.000	-0.029	0.482
-178.012	800.000	0.059	0.183
-176.998	99.332	0.116	0.132
-175.983	38.158	0.285	-0.249
-174.969	150.434	0.142	0.189
-173.954	44.068	0.072	0.064
-172.939	640.001	0.108	-0.270
-171.925	197.193	-0.111	0.166
-170.910	800.000	-0.042	0.156
-169.896	-200.000	0.073	0.437
-168.881	159.188	-0.150	0.204
-167.866	519.193	-0.062	-0.142
-166.852	-85.544	0.293	-0.089
-165.837	12.572	0.072	-0.054
-164.823	-111.310	0.347	-0.069
-163.808	-200.000	0.014	0.131
-162.793	-200.000	-0.011	-0.229
-161.779	271.024	-0.140	0.242
-160.764	800.000	0.107	-0.324
-159.750	65.965	-0.057	-0.057
-158.735	-114.097	0.037	-0.007
-157.720	140.408	0.226	-0.293
-156.706	-41.865	0.100	0.050
-155.691	136.668	0.208	-0.266
-154.677	-79.939	-0.292	-0.096
-153.662	-80.699	0.193	0.063
-152.647	-80.684	-0.235	0.077
-151.633	-141.258	-0.232	-0.023
-150.618	75.061	-0.201	-0.207
-149.604	800.000	0.125	0.408
-148.589	198.575	0.062	-0.093
-147.574	-29.504	0.383	0.215
-146.560	-55.917	0.442	0.193
-145.545	-145.890	-0.102	0.009
-144.531	-57.095	-0.180	0.078
-143.516	-99.381	0.158	0.039
-142.502	-25.895	0.100	-0.058
-141.487	-59.400	0.073	-0.031
-140.472	-200.000	-0.003	-0.053
-139.458	-108.546	-0.176	-0.037
-138.443	-200.000	0.028	-0.213
-137.429	-116.767	-0.185	0.033
-136.414	113.845	-0.123	-0.147
-135.399	-131.632	0.108	0.014
-134.385	22.578	0.312	-0.250
-133.370	800.000	-0.059	-0.207
-132.356	-200.000	-0.000	-0.201
-131.341	232.068	-0.169	0.272
-130.326	800.000	0.043	-0.177
-129.312	-118.230	-0.078	0.014
-128.297	17.512	-0.203	-0.158
-127.283	-200.000	-0.028	0.193
-126.268	-165.025	0.439	-0.019
-125.253	-137.440	0.203	-0.022
-124.239	-200.000	0.010	-0.077
-123.224	0.339	0.094	-0.065
-122.210	800.000	0.069	-0.267
-121.195	800.000	-0.078	-0.224
-120.180	800.000	0.076	0.216
