DTS Sentinel unit serial number:	SN413079Multiplexer serial number:	ORYXHardware model number:	OX4-SRSoftware version number:	ORYX F/W v4.00 Oryx Data Collector v3.7.2.0data status	okinstallation	princeton_trtdifferential loss correction	single-endedforward channel	channel 1reverse channel	N/Adate	2019/09/14time	14:42:35forward acquisition time	60.00reverse acquisition time	0.00gamma	496.2192k internal	0.2293k external	0.2293temperature offset calibration	1.0069default loss term (dB/km)	0.3790temperature slope calibration	1.0000multiplexer offset coefficient	1.0000multiplexer slope coefficient	1.0000fibre end	0.00T internal ref (°C)	39.25T ext. ref 1 (°C)	4.95T ext. ref 2 (°C)	34.28length (m)	temperature (°C)	Stokes	anti-Stokes-747.200	-149.262	0.175	0.014
-746.185	38.325	-0.225	0.205
-745.171	800.000	-0.044	0.181
-744.156	-40.196	0.203	-0.108
-743.142	-175.616	0.251	-0.007
-742.127	-178.109	-0.079	-0.002
-741.112	800.000	-0.115	-0.445
-740.098	-200.000	0.037	-0.177
-739.083	-123.920	0.066	-0.011
-738.069	-87.389	-0.295	0.091
-737.054	-200.000	-0.006	-0.332
-736.039	-200.000	0.024	-0.163
-735.025	58.332	0.202	0.203
-734.010	32.121	-0.046	0.041
-732.996	84.810	0.056	0.062
-731.981	-118.012	-0.325	0.059
-730.966	29.768	0.161	0.140
-729.952	-200.000	-0.005	0.038
-728.937	-82.058	-0.051	-0.017
-727.923	-158.547	0.416	0.025
-726.908	-200.000	0.033	0.196
-725.894	225.072	-0.169	0.280
-724.879	-200.000	0.085	-0.451
-723.864	800.000	-0.077	0.233
-722.850	-200.000	0.005	0.131
-721.835	-158.182	-0.069	-0.004
-720.821	800.000	-0.016	0.068
-719.806	377.563	0.059	0.124
-718.791	167.767	0.021	0.030
-717.777	-74.768	-0.196	-0.072
-716.762	800.000	0.098	-0.280
-715.748	9.885	0.080	-0.062
-714.733	-50.883	0.014	-0.007
-713.718	423.989	-0.140	0.307
-712.704	-151.492	0.345	0.026
-711.689	-147.313	0.041	0.004
-710.675	260.013	-0.065	-0.115
-709.660	-200.000	-0.005	0.102
-708.645	-200.000	0.000	-0.162
-707.631	80.257	0.228	0.251
-706.616	-120.438	-0.426	0.074
-705.602	800.000	-0.134	-0.421
-704.587	32.055	-0.144	-0.127
-703.572	-73.885	0.249	0.092
-702.558	-200.000	-0.019	-0.093
-701.543	-200.000	-0.049	-0.271
-700.529	9.674	-0.328	-0.254
-699.514	42.713	0.072	0.067
-698.499	800.000	-0.039	-0.111
-697.485	146.362	-0.019	-0.026
-696.470	-11.962	-0.383	-0.256
-695.456	-111.736	0.189	0.039
-694.441	-83.592	-0.126	-0.041
-693.426	23.689	-0.130	0.109
-692.412	-14.706	0.352	0.231
-691.397	-200.000	0.014	-0.094
-690.383	-95.426	-0.166	-0.046
-689.368	20.875	-0.031	-0.026
-688.354	800.000	0.073	-0.283
-687.339	130.562	-0.011	0.014
-686.324	-121.539	-0.146	0.025
-685.310	53.465	-0.419	0.410
-684.295	571.369	0.113	-0.281
-683.281	-200.000	-0.060	-0.399
-682.266	-200.000	-0.030	-0.290
-681.251	-22.857	-0.494	0.304
-680.237	5.197	0.114	0.086
-679.222	-200.000	-0.034	0.167
-678.208	122.214	0.085	-0.108
-677.193	-200.000	0.039	-0.250
-676.178	472.869	0.052	0.118
-675.164	-76.488	-0.339	0.121
-674.149	800.000	-0.083	-0.316
-673.135	346.704	-0.125	-0.251
-672.120	800.000	0.041	0.159
-671.105	800.000	-0.096	0.279
-670.091	87.956	-0.084	0.095
-669.076	-80.055	-0.319	-0.109
-668.062	230.205	-0.174	0.291
-667.047	800.000	-0.040	0.114
-666.032	384.267	0.077	-0.162
-665.018	160.339	0.130	0.185
-664.003	10.003	-0.234	0.181
-662.989	-129.509	-0.307	-0.043
-661.974	-56.662	0.133	0.060
-660.959	226.775	-0.024	0.040
-659.945	99.367	-0.094	-0.111
-658.930	-20.630	0.354	-0.222
-657.916	-114.950	0.166	-0.032
-656.901	-14.128	0.145	0.096
-655.886	800.000	-0.084	-0.265
-654.872	-167.085	-0.294	0.012
-653.857	476.200	0.019	-0.043
-652.843	-139.715	0.549	0.060
-651.828	147.514	0.108	-0.148
-650.814	-200.000	-0.028	0.573
-649.799	-34.876	-0.181	-0.101
-648.784	-93.983	-0.194	-0.054
-647.770	800.000	0.027	-0.100
-646.755	49.335	-0.232	0.222
-645.741	331.101	0.095	-0.186
-644.726	-127.023	0.233	-0.035
-643.711	66.382	0.017	0.017
-642.697	-37.871	-0.138	-0.075
-641.682	-163.509	0.382	0.018
-640.668	46.123	-0.134	-0.126
-639.653	-67.033	0.026	0.010
-638.638	99.239	0.304	-0.358
-637.624	-200.000	-0.016	-0.218
-636.609	-61.289	0.216	-0.093
-635.595	-33.260	0.143	0.080
-634.580	8.658	-0.138	-0.106
-633.565	40.801	0.188	0.173
-632.551	518.773	0.149	-0.356
-631.536	-142.565	0.248	-0.025
-630.522	272.194	-0.041	0.074
-629.507	343.009	-0.201	0.402
-628.492	-200.000	-0.022	0.132
-627.478	63.519	-0.185	0.189
-626.463	800.000	-0.145	0.547
-625.449	-106.388	0.239	0.055
-624.434	220.136	0.180	-0.293
-623.419	451.188	-0.078	0.175
-622.405	-133.479	-0.212	-0.027
-621.390	-200.000	0.034	-0.243
-620.376	-74.270	-0.150	-0.055
-619.361	-128.377	-0.264	-0.038
-618.346	608.163	-0.014	0.036
-617.332	-78.727	-0.202	0.070
-616.317	-200.000	-0.069	-0.337
-615.303	173.963	-0.146	-0.215
-614.288	800.000	-0.031	0.090
-613.273	151.377	-0.164	0.227
-612.259	800.000	0.051	0.203
-611.244	800.000	-0.079	-0.246
-610.230	11.007	-0.227	-0.177
-609.215	282.087	-0.092	-0.168
-608.201	407.121	-0.021	-0.046
-607.186	39.147	-0.169	-0.154
-606.171	-200.000	-0.018	-0.153
-605.157	-200.000	0.063	-0.303
-604.142	-5.367	-0.126	-0.088
-603.128	-200.000	-0.026	0.128
-602.113	-49.250	0.130	-0.063
-601.098	-60.081	-0.306	0.133
-600.084	-200.000	-0.028	0.207
-599.069	126.446	0.139	-0.179
-598.055	-200.000	0.046	-0.265
-597.040	-76.313	-0.120	-0.043
-596.025	-21.717	-0.044	0.027
-595.011	-26.100	-0.187	-0.112
-593.996	428.812	0.089	0.196
-592.982	131.285	0.058	0.075
-591.967	-94.717	0.222	0.061
-590.952	-8.480	0.221	-0.151
-589.938	-200.000	-0.013	-0.165
-588.923	22.888	0.144	-0.120
-587.909	800.000	-0.072	0.236
-586.894	-200.000	0.001	0.091
-585.879	-2.291	-0.373	0.266
-584.865	800.000	-0.024	0.078
-583.850	-81.275	-0.154	0.052
-582.836	-29.855	0.176	0.102
-581.821	-77.495	0.129	-0.045
-580.806	13.870	-0.162	-0.128
-579.792	178.245	0.039	0.058
-578.777	-6.616	0.215	-0.149
-577.763	-140.739	-0.246	-0.026
-576.748	-200.000	0.046	-0.220
-575.733	-200.000	-0.025	-0.141
-574.719	13.119	-0.097	-0.077
-573.704	-85.419	-0.371	0.117
-572.690	-100.469	-0.149	-0.038
-571.675	-200.000	-0.001	0.127
-570.661	-130.773	0.181	0.025
-569.646	62.577	-0.212	-0.215
-568.631	-13.078	0.422	0.279
-567.617	-194.052	-0.126	0.001
-566.602	-144.686	-0.240	0.022
-565.588	78.393	-0.138	0.150
-564.573	69.534	0.162	-0.170
-563.558	58.602	-0.050	-0.050
-562.544	195.005	0.075	0.116
-561.529	-22.522	0.062	-0.038
-560.515	176.990	0.136	-0.200
-559.500	-30.900	0.171	-0.098
-558.485	270.118	-0.038	0.068
-557.471	800.000	0.050	-0.153
-556.456	-143.203	0.253	0.025
-555.442	15.085	0.214	-0.170
-554.427	44.723	-0.103	0.096
-553.412	17.011	-0.101	0.082
-552.398	31.152	-0.212	0.184
-551.383	127.823	0.142	0.184
-550.369	166.204	0.210	-0.301
-549.354	232.773	-0.145	0.241
-548.339	40.370	-0.119	-0.109
-547.325	-101.674	-0.183	-0.045
-546.310	284.005	-0.071	0.129
-545.296	-92.475	0.335	0.096
-544.281	-65.443	-0.155	0.063
-543.266	6.189	0.372	0.280
-542.252	-93.845	0.117	0.033
-541.237	-58.339	-0.067	-0.030
-540.223	76.713	-0.295	0.317
-539.208	171.127	-0.148	0.216
-538.193	-167.140	-0.230	-0.009
-537.179	494.948	0.190	-0.443
-536.164	-2.668	0.237	0.168
-535.150	73.121	-0.160	0.169
-534.135	-39.733	-0.184	-0.098
-533.121	-92.674	0.197	0.056
-532.106	183.309	-0.150	-0.225
-531.091	-92.667	-0.228	0.065
-530.077	-22.607	0.227	0.139
-529.062	100.834	-0.087	0.103
-528.048	40.979	0.034	-0.031
-527.033	101.609	0.123	-0.146
-526.018	-117.518	0.074	-0.013
-525.004	-2.087	-0.116	-0.082
-523.989	223.255	0.135	0.220
-522.975	692.178	-0.001	-0.003
-521.960	-157.552	0.071	0.004
-520.945	-147.849	0.371	-0.031
-519.931	-141.699	0.265	-0.027
-518.916	800.000	0.042	0.122
-517.902	800.000	0.071	0.304
-516.887	-140.250	-0.203	0.022
-515.872	800.000	0.034	-0.135
-514.858	85.577	-0.012	0.014
-513.843	-15.517	-0.198	-0.128
-512.829	90.341	-0.256	-0.291
-511.814	-125.071	0.381	0.059
-510.799	6.103	-0.197	0.148
-509.785	-11.198	0.174	0.116
-508.770	292.890	-0.085	-0.157
-507.756	-200.000	0.008	-0.332
-506.741	100.128	-0.147	0.173
-505.726	141.769	0.174	-0.234
-504.712	-101.040	-0.283	-0.070
-503.697	227.779	-0.133	0.220
-502.683	77.344	0.136	-0.147
-501.668	25.296	-0.175	-0.147
-500.653	-55.844	0.139	-0.063
-499.639	583.357	-0.069	-0.171
-498.624	50.749	-0.028	0.027
-497.610	74.340	-0.212	0.226
-496.595	-26.530	-0.093	-0.055
-495.581	688.996	0.049	0.131
-494.566	-200.000	-0.005	0.193
-493.551	76.561	0.303	-0.326
-492.537	-6.010	0.226	-0.156
-491.522	-131.393	0.264	0.035
-490.508	-52.521	0.096	0.045
-489.493	800.000	-0.060	0.200
-488.478	-33.485	-0.034	0.019
-487.464	77.257	0.036	-0.039
-486.449	-7.108	0.161	0.110
-485.435	-200.000	0.000	0.079
-484.420	-6.436	0.195	-0.135
-483.405	-200.000	0.054	0.326
-482.391	616.547	0.140	0.355
-481.376	-200.000	-0.031	0.250
-480.362	-52.562	-0.039	-0.018
-479.347	-165.350	0.320	-0.014
-478.332	150.274	-0.230	0.316
-477.318	-23.056	0.275	0.168
-476.303	-200.000	-0.003	-0.101
-475.289	503.178	0.122	-0.286
-474.274	-52.310	0.415	-0.195
-473.259	-200.000	0.027	0.182
-472.245	-200.000	-0.029	0.284
-471.230	800.000	-0.084	0.260
-470.216	-63.408	0.164	0.068
-469.201	113.136	-0.077	-0.095
-468.186	-92.398	-0.374	-0.106
-467.172	-3.184	-0.123	0.087
-466.157	-165.396	-0.124	0.006
-465.143	-200.000	-0.062	-0.292
-464.128	-133.580	0.373	0.047
-463.113	-13.560	0.139	-0.091
-462.099	-9.091	-0.205	-0.139
-461.084	60.167	-0.145	0.145
-460.070	-154.186	-0.076	0.005
-459.055	5.979	-0.179	0.134
-458.040	-126.200	0.153	-0.023
-457.026	-60.225	0.116	-0.050
-456.011	49.303	0.093	-0.088
-454.997	-200.000	0.023	0.240
-453.982	-144.514	0.232	0.022
-452.968	17.114	-0.165	0.133
-451.953	279.225	0.159	0.288
-450.938	-9.981	-0.218	-0.147
-449.924	-23.801	-0.257	0.155
-448.909	-200.000	0.029	-0.252
-447.895	59.846	-0.156	0.156
-446.880	393.911	0.134	-0.281
-445.865	248.423	-0.067	-0.114
-444.851	-101.053	-0.310	-0.077
-443.836	-21.721	-0.183	0.113
-442.822	800.000	-0.038	-0.112
-441.807	-76.250	-0.066	-0.024
-440.792	15.159	-0.094	-0.075
-439.778	800.000	-0.072	0.312
-438.763	800.000	-0.095	0.300
-437.749	140.615	-0.101	0.135
-436.734	297.803	0.103	0.192
-435.719	30.447	-0.087	0.075
-434.705	511.540	-0.018	0.042
-433.690	800.000	0.084	0.277
-432.676	-1.306	0.088	0.063
-431.661	382.536	0.083	-0.172
-430.646	63.518	-0.104	-0.106
-429.632	99.499	0.152	0.178
-428.617	-139.747	-0.305	0.033
-427.603	-36.189	-0.291	-0.159
-426.588	310.035	-0.087	0.165
-425.573	-200.000	0.007	-0.282
-424.559	-2.486	0.179	-0.127
-423.544	459.090	-0.094	-0.212
-422.530	-200.000	-0.002	-0.191
-421.515	-145.160	0.059	0.005
-420.500	-60.385	-0.153	0.066
-419.486	123.262	0.105	0.133
-418.471	-54.059	0.156	-0.072
-417.457	79.543	0.256	0.278
-416.442	-200.000	0.053	0.489
-415.428	203.938	-0.219	0.343
-414.413	800.000	-0.133	0.398
-413.398	-52.429	0.202	0.094
-412.384	416.783	-0.073	0.158
-411.369	299.488	-0.108	-0.201
-410.355	-97.751	-0.102	0.027
-409.340	588.335	-0.065	0.163
-408.325	199.920	0.097	-0.150
-407.311	274.693	-0.068	0.122
-406.296	-200.000	0.016	0.182
-405.282	326.016	-0.188	0.363
-404.267	-1.716	0.137	-0.098
-403.252	-116.221	-0.153	-0.029
-402.238	-28.352	0.068	0.039
-401.223	-200.000	0.001	-0.059
-400.209	-155.613	-0.376	0.024
-399.194	-199.301	0.246	-0.001
-398.179	77.524	0.364	0.391
-397.165	199.248	0.091	0.141
-396.150	257.579	-0.130	0.226
-395.136	-0.799	0.152	0.109
-394.121	341.437	0.153	-0.302
-393.106	-11.515	-0.176	-0.117
-392.092	235.203	-0.078	0.130
-391.077	-200.000	-0.028	-0.284
-390.063	561.137	0.048	0.118
-389.048	7.255	-0.095	0.071
-388.033	-168.653	0.148	0.006
-387.019	77.992	-0.099	0.106
-386.004	-60.160	0.075	-0.032
-384.990	27.377	-0.123	0.104
-383.975	-167.827	0.221	0.009
-382.960	-46.539	0.257	0.127
-381.946	20.498	-0.346	-0.282
-380.931	-154.858	-0.586	-0.039
-379.917	-200.000	0.015	-0.431
-378.902	270.715	-0.093	-0.164
-377.888	-101.277	0.252	-0.062
-376.873	-179.154	-0.133	0.003
-375.858	-36.599	-0.338	0.183
-374.844	-115.529	-0.188	-0.036
-373.829	231.915	0.051	-0.084
-372.815	757.471	-0.005	-0.012
-371.800	-200.000	-0.000	-0.214
-370.785	-151.322	0.336	0.025
-369.771	800.000	-0.053	-0.198
-368.756	-138.667	0.183	-0.020
-367.742	10.123	-0.209	-0.160
-366.727	-129.056	0.330	0.047
-365.712	-200.000	-0.039	0.372
-364.698	-25.728	0.147	-0.088
-363.683	-51.125	0.546	0.258
-362.669	-8.849	0.033	0.022
-361.654	-50.847	-0.066	0.031
-360.639	-177.707	0.230	-0.006
-359.625	589.004	-0.105	-0.261
-358.610	-200.000	0.018	0.268
-357.596	800.000	-0.045	0.132
-356.581	-28.386	-0.041	0.024
-355.566	-200.000	-0.008	-0.197
-354.552	-5.501	-0.046	0.032
-353.537	513.260	0.050	-0.117
-352.523	-200.000	-0.026	0.137
-351.508	-200.000	0.011	-0.222
-350.493	-66.095	-0.094	-0.038
-349.479	52.552	0.043	0.041
-348.464	-200.000	0.041	-0.263
-347.450	800.000	0.028	-0.088
-346.435	800.000	0.032	-0.141
-345.420	-200.000	-0.077	-0.413
-344.406	-79.296	0.258	-0.088
-343.391	800.000	0.070	0.197
-342.377	206.200	-0.148	-0.233
-341.362	-165.330	-0.174	-0.008
-340.348	-132.631	-0.112	-0.015
-339.333	9.074	0.047	0.036
-338.318	-154.239	0.182	0.012
-337.304	166.911	0.126	0.180
-336.289	246.037	0.131	-0.223
-335.275	3.343	0.244	0.179
-334.260	-200.000	0.044	-0.201
-333.245	509.380	0.009	0.021
-332.231	-200.000	-0.021	-0.161
-331.216	-130.295	0.159	0.022
-330.202	-96.353	-0.232	0.062
-329.187	-56.489	-0.429	0.192
-328.172	-200.000	-0.011	0.234
-327.158	-113.047	-0.247	-0.049
-326.143	165.794	0.064	-0.091
-325.129	11.346	-0.169	-0.130
-324.114	-131.061	-0.154	-0.021
-323.099	9.953	0.295	0.225
-322.085	-119.225	0.323	0.057
-321.070	-16.061	0.015	-0.010
-320.056	29.088	-0.213	-0.182
-319.041	166.178	0.067	0.096
-318.026	58.044	0.228	-0.225
-317.012	-127.616	0.114	0.017
-315.997	-103.659	0.427	0.101
-314.983	800.000	0.135	-0.522
-313.968	-200.000	0.046	-0.380
-312.953	-200.000	-0.011	0.084
-311.939	-179.610	0.372	-0.008
-310.924	487.478	0.122	-0.279
-309.910	-50.085	0.120	0.057
-308.895	-79.393	0.241	-0.082
-307.880	207.595	-0.137	-0.214
-306.866	-200.000	0.023	-0.115
-305.851	800.000	0.052	-0.164
-304.837	41.644	0.075	0.068
-303.822	77.914	-0.129	0.138
-302.807	-200.000	-0.023	-0.132
-301.793	-74.044	-0.216	-0.079
-300.778	-5.860	-0.133	0.092
-299.764	-200.000	-0.027	0.178
-298.749	-145.821	-0.131	-0.012
-297.735	131.508	0.222	-0.287
-296.720	55.966	-0.142	0.138
-295.705	800.000	0.044	-0.193
-294.691	-1.265	0.184	-0.130
-293.676	-76.273	0.216	0.076
-292.662	-63.038	-0.042	0.018
-291.647	-105.521	-0.352	0.080
-290.632	146.629	-0.090	-0.122
-289.618	-108.783	0.203	0.044
-288.603	-68.225	0.071	-0.028
-287.589	-33.627	-0.175	-0.097
-286.574	-109.967	-0.256	-0.054
-285.559	-200.000	0.032	0.281
-284.545	12.652	-0.204	0.158
-283.530	-7.884	0.190	-0.129
-282.516	-55.424	0.182	0.082
-281.501	-200.000	-0.052	0.236
-280.486	-116.935	-0.107	0.020
-279.472	667.788	0.049	-0.129
-278.457	800.000	-0.052	0.164
-277.443	-88.153	0.413	0.124
-276.428	137.790	0.088	0.116
-275.413	-157.709	0.258	-0.015
-274.399	-200.000	-0.052	0.313
-273.384	20.702	0.167	-0.136
-272.370	38.549	-0.036	-0.032
-271.355	489.464	-0.060	-0.138
-270.340	800.000	-0.100	0.314
-269.326	55.272	-0.194	0.188
-268.311	-100.188	0.167	-0.042
-267.297	126.545	-0.279	-0.355
-266.282	-164.141	0.313	-0.015
-265.267	27.359	-0.332	-0.280
-264.253	-114.221	-0.335	0.065
-263.238	-200.000	-0.043	-0.300
-262.224	-57.273	-0.290	0.128
-261.209	114.008	0.051	0.062
-260.195	-86.999	-0.171	-0.052
-259.180	-106.401	-0.048	-0.011
-258.165	235.758	0.133	-0.221
-257.151	800.000	0.109	-0.449
-256.136	-64.865	-0.199	0.081
-255.122	143.919	0.075	-0.100
-254.107	-94.281	-0.097	0.027
-253.092	-85.232	0.449	-0.141
-252.078	-200.000	0.007	-0.072
-251.063	-95.438	0.097	-0.026
-250.049	-200.000	-0.038	-0.279
-249.034	49.357	0.083	-0.079
-248.019	-200.000	0.013	0.251
-247.005	-70.061	0.099	-0.038
-245.990	-59.940	-0.497	-0.213
-244.976	800.000	-0.147	0.514
-243.961	34.411	-0.087	0.076
-242.946	29.089	-0.082	0.070
-241.932	143.502	-0.192	-0.257
-240.917	800.000	0.089	-0.265
-239.903	425.723	0.205	-0.443
-238.888	-66.592	0.091	0.036
-237.873	405.271	-0.052	-0.110
-236.859	-200.000	-0.001	0.078
-235.844	800.000	0.084	0.325
-234.830	-5.570	-0.182	0.125
-233.815	118.745	0.161	-0.200
-232.800	154.965	-0.109	-0.150
-231.786	-77.749	0.156	-0.054
-230.771	45.837	-0.253	-0.235
-229.757	-100.547	0.146	0.036
-228.742	-185.827	-0.091	0.001
-227.727	25.198	0.306	0.255
-226.713	4.456	-0.203	0.150
-225.698	-20.708	-0.124	0.076
-224.684	-58.295	-0.263	-0.115
-223.669	176.667	-0.091	0.132
-222.655	-200.000	-0.020	0.109
-221.640	-99.170	0.103	0.026
-220.625	-23.226	0.009	0.005
-219.611	18.294	-0.146	0.117
-218.596	-154.067	0.092	0.006
-217.582	-126.503	0.234	0.035
-216.567	15.057	0.042	0.033
-215.552	800.000	-0.032	0.129
-214.538	-200.000	0.059	-0.266
-213.523	-200.000	0.014	0.165
-212.509	104.308	-0.255	0.300
-211.494	70.151	0.110	-0.114
-210.479	-200.000	0.035	0.214
-209.465	298.105	-0.056	-0.103
-208.450	-200.000	0.032	0.244
-207.436	800.000	0.022	0.064
-206.421	-15.499	-0.167	0.107
-205.406	800.000	-0.093	0.289
-204.392	94.001	-0.118	0.134
-203.377	-200.000	-0.040	-0.193
-202.363	328.508	-0.094	0.181
-201.348	-200.000	0.048	0.257
-200.333	-200.000	-0.018	-0.149
-199.319	-45.508	-0.217	-0.108
-198.304	505.677	0.086	-0.200
-197.290	-200.000	-0.057	-0.289
-196.275	46.746	-0.095	-0.089
-195.260	129.942	0.054	-0.069
-194.246	-106.112	0.366	-0.082
-193.231	24.709	-0.275	0.228
-192.217	528.486	-0.052	0.123
-191.202	-34.052	0.239	0.132
-190.187	404.472	0.085	0.179
-189.173	-77.485	0.118	0.041
-188.158	-141.478	0.085	0.009
-187.144	240.626	0.157	0.263
-186.129	-38.502	-0.101	-0.054
-185.114	-40.947	0.255	-0.132
-184.100	103.270	-0.104	-0.122
-183.085	178.081	-0.203	-0.297
-182.071	-200.000	0.007	0.101
-181.056	-200.000	0.037	0.176
-180.042	-23.151	-0.091	0.055
-179.027	-113.682	0.025	0.005
-178.012	-200.000	0.024	-0.201
-176.998	800.000	-0.138	-0.450
-175.983	-64.669	0.220	0.089
-174.969	-19.441	0.163	-0.101
-173.954	-200.000	-0.047	0.219
-172.939	220.233	0.138	-0.222
-171.925	313.143	-0.111	0.208
-170.910	326.655	0.020	0.038
-169.896	-184.572	0.228	-0.004
-168.881	266.268	0.055	0.095
-167.866	-87.437	0.130	0.039
-166.852	-200.000	0.055	-0.250
-165.837	-21.154	0.143	-0.088
-164.823	95.975	-0.067	-0.076
-163.808	-200.000	-0.016	0.079
-162.793	496.707	-0.040	0.092
-161.779	-200.000	0.084	-0.409
-160.764	-87.749	-0.173	-0.052
-159.750	392.685	-0.104	0.216
-158.735	25.396	-0.128	0.106
-157.720	800.000	0.050	0.192
-156.706	-62.908	-0.279	0.116
-155.691	-200.000	0.027	-0.224
-154.677	-129.500	0.178	-0.025
-153.662	-145.061	-0.134	0.012
-152.647	81.118	-0.196	-0.212
-151.633	-36.978	0.355	0.190
-150.618	-200.000	0.015	0.278
-149.604	795.137	0.049	-0.135
-148.589	-57.732	0.136	-0.060
-147.574	-200.000	-0.074	-0.368
-146.560	-44.835	-0.147	0.073
-145.545	-66.162	0.500	-0.199
-144.531	41.953	-0.235	-0.213
-143.516	309.180	0.048	0.089
-142.502	-86.832	-0.104	0.032
-141.487	43.642	-0.104	-0.095
-140.472	-6.616	0.198	-0.135
-139.458	-51.473	-0.226	-0.105
-138.443	800.000	0.042	0.159
-137.429	426.501	0.015	-0.032
-136.414	-200.000	0.001	-0.140
-135.399	129.846	-0.188	-0.240
-134.385	800.000	-0.028	0.079
-133.370	-200.000	-0.018	0.187
-132.356	800.000	-0.069	-0.276
-131.341	-164.235	-0.243	0.011
-130.326	-150.535	-0.201	-0.015
-129.312	70.488	0.208	0.215
-128.297	26.943	-0.082	-0.069
-127.283	-119.165	-0.192	0.034
-126.268	-200.000	-0.065	0.466
-125.253	-162.750	-0.286	0.014
-124.239	27.028	0.172	-0.144
-123.224	196.655	0.165	-0.251
-122.210	-200.000	-0.043	0.363
-121.195	-118.327	-0.104	0.018
