DTS Sentinel unit serial number:	SN413079Multiplexer serial number:	ORYXHardware model number:	OX4-SRSoftware version number:	ORYX F/W v4.00 Oryx Data Collector v3.7.2.0data status	okinstallation	princeton_trtdifferential loss correction	single-endedforward channel	channel 1reverse channel	N/Adate	2019/09/18time	01:06:35forward acquisition time	60.00reverse acquisition time	0.00gamma	496.2192k internal	0.2341k external	0.2341temperature offset calibration	0.9978default loss term (dB/km)	0.3790temperature slope calibration	1.0000multiplexer offset coefficient	1.0000multiplexer slope coefficient	1.0000fibre end	0.00T internal ref (°C)	23.25T ext. ref 1 (°C)	0.17T ext. ref 2 (°C)	16.91length (m)	temperature (°C)	Stokes	anti-Stokes-747.200	20.807	0.193	-0.156
-746.185	-200.000	-0.060	0.266
-745.171	108.772	0.194	-0.233
-744.156	99.760	-0.190	-0.220
-743.142	-86.139	0.399	-0.123
-742.127	-74.274	-0.177	0.064
-741.112	-70.826	-0.094	0.035
-740.098	369.881	-0.101	-0.205
-739.083	164.551	0.190	0.269
-738.069	-6.897	-0.276	0.188
-737.054	159.079	0.107	0.149
-736.039	-53.392	-0.388	0.178
-735.025	-64.129	0.277	0.113
-734.010	-119.328	-0.137	-0.024
-732.996	-174.516	-0.646	-0.019
-731.981	-200.000	0.028	0.244
-730.966	-200.000	-0.030	0.175
-729.952	-200.000	0.018	0.088
-728.937	137.819	-0.193	0.254
-727.923	-132.306	-0.054	0.007
-726.908	-101.225	-0.081	-0.020
-725.894	-139.360	-0.229	0.025
-724.879	443.346	0.063	-0.139
-723.864	-200.000	-0.019	-0.118
-722.850	114.589	0.124	0.152
-721.835	800.000	-0.072	-0.244
-720.821	800.000	-0.039	-0.170
-719.806	-111.490	0.120	0.024
-718.791	-2.999	0.319	-0.223
-717.777	800.000	0.012	0.039
-716.762	-188.950	0.150	0.002
-715.748	-41.429	-0.232	0.119
-714.733	337.459	-0.036	-0.069
-713.718	-103.057	0.106	-0.025
-712.704	709.502	0.077	-0.203
-711.689	1.300	0.190	-0.137
-710.675	-25.878	0.132	-0.078
-709.660	101.052	-0.222	0.258
-708.645	117.280	-0.085	0.105
-707.631	-17.052	-0.353	0.223
-706.616	-92.943	-0.183	0.051
-705.602	800.000	-0.054	-0.186
-704.587	-200.000	0.000	0.079
-703.572	-85.784	-0.098	-0.031
-702.558	-46.475	0.144	-0.071
-701.543	-56.931	0.218	0.096
-700.529	-61.810	-0.099	-0.041
-699.514	-69.728	-0.183	-0.070
-698.499	284.717	-0.240	-0.432
-697.485	739.052	0.067	-0.181
-696.470	-200.000	-0.025	-0.347
-695.456	27.562	0.132	0.111
-694.441	-170.111	-0.323	0.011
-693.426	680.396	0.086	0.225
-692.412	-200.000	-0.020	-0.169
-691.397	-87.725	0.069	0.021
-690.383	5.515	-0.324	0.239
-689.368	800.000	0.068	-0.224
-688.354	8.134	-0.267	-0.200
-687.339	85.485	-0.192	-0.211
-686.324	-141.364	0.250	-0.025
-685.310	73.222	-0.116	0.121
-684.295	147.501	-0.199	0.269
-683.281	-7.531	-0.386	0.261
-682.266	36.022	0.099	-0.087
-681.251	586.232	0.098	0.242
-680.237	27.600	-0.196	-0.165
-679.222	50.797	0.219	0.208
-678.208	428.521	0.058	0.124
-677.193	-9.885	0.060	0.040
-676.178	-93.124	-0.139	0.039
-675.164	576.230	-0.132	0.323
-674.149	167.181	0.052	0.074
-673.135	-70.197	-0.194	0.074
-672.120	9.933	-0.374	-0.284
-671.105	70.630	-0.212	-0.219
-670.091	583.560	0.064	-0.157
-669.076	-61.218	0.279	0.118
-668.062	-134.788	-0.416	0.050
-667.047	800.000	0.038	-0.121
-666.032	-47.645	-0.265	0.128
-665.018	-200.000	-0.002	-0.019
-664.003	-1.820	0.189	0.133
-662.989	-200.000	0.014	-0.120
-661.974	85.812	0.046	0.050
-660.959	-86.083	0.068	0.021
-659.945	-130.116	-0.039	-0.005
-658.930	252.169	0.195	0.332
-657.916	36.045	-0.264	-0.232
-656.901	-200.000	-0.054	-0.325
-655.886	353.714	0.045	0.089
-654.872	800.000	0.069	-0.245
-653.857	424.349	-0.061	-0.131
-652.843	154.178	0.078	0.106
-651.828	800.000	-0.090	-0.323
-650.814	670.120	0.131	0.340
-649.799	196.697	0.073	-0.111
-648.784	237.436	0.116	-0.192
-647.770	385.649	-0.146	-0.301
-646.755	77.309	0.083	0.088
-645.741	-81.850	-0.144	0.047
-644.726	800.000	0.103	0.364
-643.711	-21.976	0.231	-0.140
-642.697	-200.000	-0.093	-0.542
-641.682	-115.081	-0.136	0.026
-640.668	242.944	0.246	-0.412
-639.653	-29.446	-0.195	0.111
-638.638	122.795	0.027	0.033
-637.624	1.794	-0.444	-0.319
-636.609	800.000	-0.120	-0.381
-635.595	175.902	-0.041	0.059
-634.580	1.344	-0.083	0.060
-633.565	-72.077	-0.077	-0.028
-632.551	-200.000	0.019	0.260
-631.536	138.839	0.377	-0.495
-630.522	17.278	0.113	-0.089
-629.507	-120.683	0.236	-0.040
-628.492	66.251	0.035	-0.036
-627.478	-56.423	0.239	0.106
-626.463	62.152	-0.202	-0.201
-625.449	-29.006	-0.217	-0.124
-624.434	-18.107	-0.216	0.135
-623.419	-200.000	-0.004	0.115
-622.405	-200.000	0.009	-0.171
-621.390	800.000	0.035	0.141
-620.376	67.916	0.222	-0.226
-619.361	-84.673	0.281	0.088
-618.346	199.888	0.075	0.115
-617.332	-45.944	0.215	-0.106
-616.317	514.041	-0.078	0.180
-615.303	-34.198	-0.120	-0.066
-614.288	-29.102	0.094	0.054
-613.273	-34.879	-0.131	-0.071
-612.259	800.000	0.054	-0.161
-611.244	-103.496	-0.068	0.016
-610.230	-40.719	-0.434	-0.224
-609.215	-200.000	0.015	0.237
-608.201	212.391	-0.129	-0.203
-607.186	-1.827	0.136	-0.096
-606.171	-200.000	0.010	-0.211
-605.157	-24.229	-0.441	-0.263
-604.142	6.799	-0.092	-0.069
-603.128	89.794	-0.043	0.048
-602.113	-200.000	-0.345	0.000
-601.098	350.584	-0.007	0.014
-600.084	3.285	0.226	0.164
-599.069	-5.224	0.098	-0.067
-598.055	800.000	-0.093	0.282
-597.040	326.510	0.081	-0.154
-596.025	-17.932	-0.182	0.114
-595.011	800.000	-0.104	0.328
-593.996	-74.268	0.361	0.130
-592.982	800.000	-0.132	-0.404
-591.967	520.719	0.174	-0.406
-590.952	-19.047	-0.340	-0.211
-589.938	7.518	-0.178	-0.133
-588.923	-200.000	0.040	-0.186
-587.909	800.000	0.024	0.067
-586.894	324.673	-0.088	0.168
-585.879	800.000	-0.139	0.424
-584.865	219.568	-0.044	0.070
-583.850	17.811	-0.233	-0.184
-582.836	-100.223	0.148	0.037
-581.821	779.996	-0.166	0.451
-580.806	351.151	0.115	-0.227
-579.792	362.643	-0.109	0.217
-578.777	800.000	0.143	0.408
-577.763	-5.923	-0.424	0.289
-576.748	-126.676	-0.309	0.046
-575.733	711.696	-0.108	0.286
-574.719	-103.284	0.140	0.033
-573.704	-64.481	0.252	-0.102
-572.690	-68.184	0.203	0.079
-571.675	4.114	0.314	0.228
-570.661	104.119	0.083	0.097
-569.646	-53.944	-0.248	-0.113
-568.631	328.281	-0.058	0.110
-567.617	-200.000	-0.015	-0.202
-566.602	-200.000	-0.019	0.214
-565.588	-126.654	-0.018	0.003
-564.573	-65.648	-0.058	-0.023
-563.558	-25.288	-0.237	-0.140
-562.544	81.850	-0.266	-0.287
-561.529	-82.745	-0.285	-0.092
-560.515	255.680	-0.164	0.280
-559.500	523.502	-0.094	0.219
-558.485	800.000	0.070	-0.299
-557.471	-105.795	0.234	0.053
-556.456	-57.191	-0.200	0.088
-555.442	112.178	-0.055	0.066
-554.427	-48.709	0.201	-0.096
-553.412	-102.008	-0.159	-0.038
-552.398	-20.668	0.324	-0.198
-551.383	-16.244	-0.508	0.321
-550.369	133.986	0.277	-0.357
-549.354	-105.123	-0.306	0.070
-548.339	30.259	-0.133	-0.113
-547.325	-17.161	0.189	0.119
-546.310	38.729	0.147	0.131
-545.296	-21.937	-0.343	-0.207
-544.281	224.556	0.172	-0.276
-543.266	-138.615	0.204	-0.022
-542.252	84.729	-0.225	0.245
-541.237	-38.220	-0.145	0.077
-540.223	-57.852	-0.201	-0.087
-539.208	-77.683	-0.171	-0.059
-538.193	767.270	0.101	0.274
-537.179	-99.343	-0.273	0.068
-536.164	-31.489	-0.183	-0.102
-535.150	-72.799	0.071	-0.026
-534.135	19.433	0.069	0.055
-533.121	37.765	-0.218	0.193
-532.106	28.559	0.154	-0.129
-531.091	800.000	0.070	-0.241
-530.077	-200.000	-0.044	0.373
-529.062	-144.074	0.333	-0.031
-528.048	1.863	0.073	0.052
-527.033	-38.135	0.130	0.069
-526.018	-200.000	-0.045	0.256
-525.004	-200.000	0.004	-0.238
-523.989	800.000	0.046	-0.182
-522.975	557.812	-0.054	-0.128
-521.960	-200.000	-0.004	0.142
-520.945	-200.000	-0.034	0.331
-519.931	-56.185	-0.209	0.092
-518.916	-111.658	0.202	-0.041
-517.902	-11.889	0.035	0.023
-516.887	281.639	0.050	0.089
-515.872	645.564	-0.026	-0.067
-514.858	82.345	0.080	-0.087
-513.843	308.283	0.222	0.411
-512.829	-108.897	0.108	0.023
-511.814	-200.000	0.005	-0.298
-510.799	800.000	-0.025	0.083
-509.785	33.435	-0.310	0.267
-508.770	6.045	-0.121	0.089
-507.756	32.739	-0.089	0.076
-506.741	66.471	0.144	-0.146
-505.726	456.987	-0.041	-0.091
-504.712	-15.055	0.225	0.143
-503.697	55.056	-0.325	0.311
-502.683	131.716	0.177	-0.226
-501.668	224.911	-0.076	-0.122
-500.653	400.249	-0.194	-0.404
-499.639	800.000	0.041	0.145
-498.624	-200.000	0.021	-0.198
-497.610	468.500	0.102	-0.227
-496.595	-154.461	-0.328	-0.022
-495.581	188.055	0.190	-0.282
-494.566	-20.415	0.181	-0.110
-493.551	-200.000	0.011	-0.158
-492.537	-143.266	0.228	0.022
-491.522	-84.091	0.053	-0.017
-490.508	800.000	0.036	0.140
-489.493	-200.000	0.024	-0.330
-488.478	399.254	0.056	0.117
-487.464	-200.000	0.020	0.200
-486.449	-153.508	0.090	-0.006
-485.435	32.410	0.040	0.034
-484.420	-128.241	-0.279	-0.039
-483.405	265.514	0.039	0.068
-482.391	243.511	0.284	0.473
-481.376	267.797	0.027	-0.048
-480.362	737.311	0.030	-0.079
-479.347	-55.933	0.340	-0.151
-478.332	-101.285	-0.248	-0.060
-477.318	-107.738	-0.257	0.056
-476.303	800.000	-0.088	0.335
-475.289	-107.198	-0.137	-0.030
-474.274	192.993	-0.019	-0.028
-473.259	-80.659	0.176	0.058
-472.245	180.050	0.017	0.025
-471.230	103.440	0.147	-0.171
-470.216	-200.000	-0.001	0.037
-469.201	65.861	0.073	0.073
-468.186	95.294	0.122	-0.138
-467.172	203.007	0.102	0.157
-466.157	15.077	-0.115	-0.089
-465.143	21.924	-0.258	0.208
-464.128	800.000	-0.032	-0.102
-463.113	82.212	-0.084	-0.090
-462.099	-82.011	-0.213	0.069
-461.084	-40.732	0.234	-0.120
-460.070	-138.262	0.177	-0.019
-459.055	-9.971	-0.388	-0.256
-458.040	-200.000	0.030	-0.291
-457.026	800.000	-0.024	-0.085
-456.011	800.000	-0.027	-0.092
-454.997	153.505	0.084	-0.115
-453.982	630.960	0.054	0.136
-452.968	318.426	-0.065	-0.122
-451.953	42.022	-0.077	-0.070
-450.938	-15.429	0.313	0.198
-449.924	-47.035	-0.214	0.103
-448.909	327.308	0.119	-0.227
-447.895	800.000	-0.092	-0.310
-446.880	163.160	0.294	0.409
-445.865	-200.000	0.018	-0.179
-444.851	-25.262	0.208	-0.122
-443.836	27.931	-0.208	-0.174
-442.822	-200.000	0.000	-0.086
-441.807	-22.054	-0.179	-0.108
-440.792	107.335	0.212	-0.250
-439.778	125.755	0.076	-0.095
-438.763	36.965	-0.136	-0.119
-437.749	-72.520	-0.366	0.134
-436.734	-141.922	0.179	0.018
-435.719	-40.726	0.090	-0.046
-434.705	253.043	0.146	0.247
-433.690	340.578	0.085	0.163
-432.676	-200.000	-0.044	-0.249
-431.661	-200.000	-0.018	-0.229
-430.646	-38.798	-0.350	-0.183
-429.632	7.517	0.125	0.092
-428.617	-156.882	0.403	0.025
-427.603	-105.264	-0.131	0.030
-426.588	-180.457	0.233	0.005
-425.573	401.851	0.036	-0.076
-424.559	-128.643	0.068	-0.009
-423.544	-29.184	-0.130	0.074
-422.530	173.226	0.125	0.179
-421.515	571.979	0.110	-0.264
-420.500	800.000	0.087	0.307
-419.486	-16.522	-0.085	0.053
-418.471	-61.667	0.049	0.020
-417.457	649.575	-0.030	-0.076
-416.442	65.711	-0.375	-0.376
-415.428	42.226	-0.162	-0.146
-414.413	-128.794	-0.138	0.019
-413.398	-25.865	-0.074	0.043
-412.384	464.241	-0.112	0.247
-411.369	173.192	-0.095	0.136
-410.355	-94.759	0.141	0.038
-409.340	787.958	0.105	0.286
-408.325	-72.655	0.126	0.046
-407.311	49.787	0.060	0.056
-406.296	-141.491	-0.280	-0.028
-405.282	-200.000	0.005	-0.248
-404.267	-200.000	-0.028	0.245
-403.252	57.408	-0.237	-0.229
-402.238	-87.812	0.265	0.079
-401.223	114.614	0.321	-0.387
-400.209	-200.000	-0.007	0.062
-399.194	390.427	-0.128	-0.263
-398.179	343.813	-0.155	0.301
-397.165	331.490	-0.053	0.102
-396.150	800.000	-0.005	-0.013
-395.136	-200.000	0.053	0.238
-394.121	-200.000	0.043	-0.486
-393.106	10.644	-0.175	-0.132
-392.092	-144.977	0.196	0.018
-391.077	-31.511	0.381	-0.212
-390.063	602.266	-0.028	0.069
-389.048	-95.000	-0.052	-0.014
-388.033	29.434	0.098	0.082
-387.019	252.634	0.058	-0.098
-386.004	-200.000	0.000	-0.121
-384.990	90.976	-0.119	0.132
-383.975	75.011	-0.227	0.236
-382.960	-80.891	-0.194	0.064
-381.946	70.379	0.394	0.402
-380.931	282.581	-0.106	0.188
-379.917	-200.000	-0.011	-0.051
-378.902	-32.111	-0.126	0.069
-377.888	-65.821	0.090	0.036
-376.873	-2.977	0.188	0.130
-375.858	-200.000	0.077	0.528
-374.844	-72.636	0.348	0.127
-373.829	-21.154	-0.144	0.087
-372.815	-145.977	-0.227	-0.020
-371.800	-55.583	-0.123	-0.055
-370.785	153.156	-0.215	0.290
-369.771	-142.883	0.099	0.010
-368.756	-138.209	0.170	0.019
-367.742	-169.040	0.031	-0.001
-366.727	145.189	-0.188	0.248
-365.712	333.360	0.114	-0.218
-364.698	-20.163	-0.052	-0.032
-363.683	-200.000	-0.030	-0.186
-362.669	50.470	0.040	-0.037
-361.654	-113.185	-0.252	-0.049
-360.639	57.732	0.041	0.040
-359.625	82.826	0.158	-0.170
-358.610	308.089	-0.145	-0.266
-357.596	-75.530	-0.207	-0.073
-356.581	-100.524	-0.197	-0.048
-355.566	-119.420	-0.243	-0.042
-354.552	-148.450	0.365	0.030
-353.537	-30.282	0.208	0.117
-352.523	-128.229	-0.039	-0.005
-351.508	95.353	-0.144	-0.162
-350.493	37.646	0.112	0.098
-349.479	779.721	0.076	0.206
-348.464	-96.655	-0.119	-0.031
-347.450	-90.121	-0.313	-0.090
-346.435	56.565	0.263	-0.252
-345.420	-54.333	-0.230	-0.103
-344.406	-200.000	0.021	-0.098
-343.391	800.000	0.060	-0.244
-342.377	-162.646	0.119	-0.006
-341.362	-200.000	-0.004	0.162
-340.348	-16.896	-0.203	-0.126
-339.333	-8.912	0.397	0.262
-338.318	-168.142	0.139	-0.005
-337.304	-41.142	-0.147	0.075
-336.289	94.075	0.244	0.273
-335.275	-27.009	-0.136	-0.078
-334.260	720.570	-0.116	-0.304
-333.245	800.000	-0.073	-0.227
-332.231	7.765	-0.203	-0.150
-331.216	-200.000	0.007	0.428
-330.202	341.416	0.229	0.441
-329.187	192.196	-0.224	0.334
-328.172	67.375	0.344	0.346
-327.158	80.510	-0.198	0.210
-326.143	-200.000	-0.017	0.154
-325.129	310.470	0.095	-0.176
-324.114	101.791	-0.256	-0.294
-323.099	-63.514	-0.225	-0.091
-322.085	175.522	0.205	-0.294
-321.070	-200.000	-0.018	-0.139
-320.056	773.098	-0.133	-0.358
-319.041	-200.000	0.118	-0.562
-318.026	335.866	-0.207	0.396
-317.012	77.097	-0.109	0.115
-315.997	800.000	0.083	-0.246
-314.983	-188.136	-0.144	0.002
-313.968	-98.865	-0.103	0.026
-312.953	-20.206	0.210	-0.127
-311.939	38.075	-0.078	0.069
-310.924	528.474	0.054	0.125
-309.910	54.240	0.221	-0.210
-308.895	-91.512	-0.055	0.015
-307.880	-7.790	0.233	0.155
-306.866	188.647	-0.151	-0.222
-305.851	0.426	-0.088	0.062
-304.837	596.696	-0.020	0.049
-303.822	18.052	0.328	0.257
-302.807	101.712	0.247	0.284
-301.793	800.000	-0.100	0.394
-300.778	-65.371	-0.257	-0.102
-299.764	-88.917	0.030	0.009
-298.749	-60.099	0.244	0.103
-297.735	-200.000	0.056	-0.400
-296.720	-200.000	-0.060	-0.393
-295.705	38.951	-0.264	-0.233
-294.691	-174.924	0.243	0.007
-293.676	-109.187	-0.179	-0.038
-292.662	-128.675	0.220	0.031
-291.647	800.000	-0.050	-0.148
-290.632	-200.000	-0.059	-0.317
-289.618	-200.000	0.013	-0.063
-288.603	-200.000	-0.006	0.240
-287.589	140.152	-0.331	0.430
-286.574	-48.006	0.106	-0.050
-285.559	-107.846	0.314	0.067
-284.545	175.884	-0.038	-0.054
-283.530	-16.108	-0.338	0.211
-282.516	-53.439	0.366	-0.165
-281.501	197.872	-0.063	0.095
-280.486	29.899	-0.250	0.209
-279.472	-109.265	-0.218	-0.046
-278.457	788.019	0.090	-0.244
-277.443	-200.000	-0.013	-0.109
-276.428	800.000	0.075	-0.275
-275.413	-200.000	-0.020	0.093
-274.399	-200.000	0.004	0.158
-273.384	175.114	-0.092	-0.131
-272.370	-200.000	0.023	-0.122
-271.355	-121.011	0.235	0.039
-270.340	107.896	0.128	-0.150
-269.326	-125.053	-0.313	-0.047
-268.311	256.370	0.219	-0.370
-267.297	-15.906	0.059	-0.037
-266.282	-85.767	-0.130	-0.040
-265.267	-117.018	0.296	0.053
-264.253	-90.848	-0.130	-0.037
-263.238	-52.848	0.227	0.103
-262.224	-200.000	0.077	0.000
-261.209	-113.817	0.239	-0.046
-260.195	185.624	-0.232	0.339
-259.180	-14.407	0.150	0.095
-258.165	800.000	-0.062	0.182
-257.151	-2.967	0.315	0.216
-256.136	-73.809	-0.184	-0.066
-255.122	-200.000	0.034	-0.149
-254.107	-200.000	0.013	0.188
-253.092	460.658	-0.021	0.047
-252.078	71.790	-0.127	0.129
-251.063	-92.597	-0.186	0.051
-250.049	135.668	0.062	-0.080
-249.034	-156.495	-0.061	0.004
-248.019	800.000	0.081	0.319
-247.005	-75.335	0.048	-0.017
-245.990	-200.000	-0.079	0.000
-244.976	-113.258	0.302	-0.058
-243.961	-34.263	-0.306	0.165
-242.946	505.389	0.047	0.106
-241.932	107.480	-0.134	-0.156
-240.917	-200.000	-0.197	0.000
-239.903	-73.831	0.015	0.005
-238.888	-64.046	-0.221	-0.089
-237.873	127.647	-0.108	0.134
-236.859	-200.000	0.004	-0.136
-235.844	-26.711	0.113	0.065
-234.830	85.103	0.146	-0.157
-233.815	3.312	0.405	0.289
-232.800	315.929	-0.132	-0.245
-231.786	26.324	-0.196	-0.161
-230.771	42.192	-0.173	-0.154
-229.757	-200.000	0.004	-0.264
-228.742	-117.932	0.235	0.041
-227.727	126.807	0.134	-0.166
-226.713	-200.000	0.020	0.092
-225.698	-200.000	0.008	-0.253
-224.684	108.521	0.158	0.185
-223.669	-200.000	-0.000	-0.147
-222.655	-126.813	-0.154	0.022
-221.640	165.319	-0.049	-0.068
-220.625	-110.168	0.081	0.017
-219.611	800.000	-0.028	0.080
-218.596	800.000	-0.126	-0.356
-217.582	605.689	-0.077	0.189
-216.567	-32.215	0.195	0.107
-215.552	-200.000	-0.056	0.328
-214.538	800.000	0.095	0.272
-213.523	245.754	-0.130	-0.214
-212.509	800.000	0.041	0.126
-211.494	-200.000	-0.004	0.452
-210.479	738.174	0.080	0.210
-209.465	800.000	-0.037	0.153
-208.450	47.453	0.295	0.270
-207.436	-200.000	-0.007	0.193
-206.421	-55.977	0.230	0.101
-205.406	-200.000	-0.035	0.182
-204.392	-200.000	0.002	-0.301
-203.377	-22.885	-0.144	0.086
-202.363	800.000	0.023	0.067
-201.348	10.381	-0.126	0.094
-200.333	-46.654	0.183	0.088
-199.319	392.190	0.092	-0.188
-198.304	-145.059	-0.401	0.036
-197.290	-200.000	-0.034	0.208
-196.275	-146.922	0.213	0.018
-195.260	208.669	-0.089	-0.136
-194.246	737.194	0.163	0.428
-193.231	272.612	0.197	0.342
-192.217	-113.107	0.369	-0.071
-191.202	-49.374	-0.217	0.102
-190.187	194.086	0.202	-0.301
-189.173	-157.290	-0.156	0.009
-188.158	27.926	-0.196	0.162
-187.144	800.000	0.057	-0.178
-186.129	46.414	0.188	-0.171
-185.114	115.453	0.252	-0.302
-184.100	283.278	0.125	0.220
-183.085	11.839	0.231	0.174
-182.071	396.686	0.154	0.315
-181.056	348.813	-0.187	0.362
-180.042	-149.892	0.246	0.019
-179.027	10.459	0.125	-0.093
-178.012	-59.136	-0.146	-0.062
-176.998	338.751	0.078	0.150
-175.983	-137.018	0.307	0.034
-174.969	800.000	-0.072	0.280
-173.954	-71.737	0.356	0.130
-172.939	-200.000	-0.023	-0.177
-171.925	800.000	0.115	-0.471
-170.910	-103.835	0.085	-0.019
-169.896	-57.338	0.021	0.009
-168.881	-80.375	0.098	0.032
-167.866	34.429	-0.190	-0.163
-166.852	-38.625	0.258	-0.133
-165.837	-24.956	-0.075	-0.044
-164.823	-154.784	-0.193	0.013
-163.808	571.211	0.193	0.460
-162.793	137.669	-0.110	-0.141
-161.779	-200.000	-0.005	0.187
-160.764	-2.769	-0.132	0.091
-159.750	-83.234	-0.048	-0.015
-158.735	-98.722	-0.032	0.008
-157.720	74.268	-0.343	0.353
-156.706	181.219	0.028	0.040
-155.691	-200.000	0.051	-0.241
-154.677	-200.000	-0.006	-0.030
-153.662	-77.649	0.240	-0.081
-152.647	57.241	0.140	-0.134
-151.633	-94.272	0.153	-0.041
-150.618	-1.839	-0.212	0.146
-149.604	-138.743	-0.106	0.011
-148.589	-70.730	0.179	-0.066
-147.574	65.900	0.094	0.093
-146.560	-200.000	-0.020	-0.167
-145.545	14.463	0.328	-0.251
-144.531	600.305	-0.041	0.099
-143.516	-30.622	0.356	-0.197
-142.502	-200.000	0.027	-0.156
-141.487	362.708	-0.105	0.207
-140.472	-200.000	-0.019	0.234
-139.458	-72.363	0.410	0.148
-138.443	75.996	0.122	-0.126
-137.429	-129.036	0.361	0.049
-136.414	-119.318	0.119	0.020
-135.399	-200.000	0.056	-0.000
-134.385	-123.407	-0.315	-0.049
-133.370	89.137	0.204	0.222
-132.356	-98.148	0.187	0.047
-131.341	-200.000	0.011	0.164
-130.326	-55.243	-0.177	0.078
-129.312	-130.649	0.199	-0.026
-128.297	800.000	-0.061	-0.214
-127.283	60.384	0.143	0.138
-126.268	24.427	0.083	-0.067
-125.253	69.022	0.153	0.154
-124.239	800.000	-0.052	0.180
-123.224	800.000	0.033	0.108
-122.210	-25.745	-0.357	-0.206
-121.195	-72.416	-0.193	0.070
-120.180	110.955	-0.271	0.319
