DTS Sentinel unit serial number:	SN413079Multiplexer serial number:	ORYXHardware model number:	OX4-SRSoftware version number:	ORYX F/W v4.00 Oryx Data Collector v3.7.2.0data status	okinstallation	princeton_trtdifferential loss correction	single-endedforward channel	channel 1reverse channel	N/Adate	2019/09/15time	16:14:35forward acquisition time	60.00reverse acquisition time	0.00gamma	496.2192k internal	0.2291k external	0.2291temperature offset calibration	0.9933default loss term (dB/km)	0.3790temperature slope calibration	1.0000multiplexer offset coefficient	1.0000multiplexer slope coefficient	1.0000fibre end	0.00T internal ref (°C)	43.39T ext. ref 1 (°C)	5.43T ext. ref 2 (°C)	40.61length (m)	temperature (°C)	Stokes	anti-Stokes-747.200	-110.643	0.155	0.033
-746.185	800.000	0.072	0.207
-745.171	-150.116	0.451	0.036
-744.156	-35.380	-0.277	0.154
-743.142	18.560	-0.177	0.145
-742.127	-46.020	0.191	0.096
-741.112	250.444	0.095	0.166
-740.098	800.000	-0.074	0.305
-739.083	12.341	0.177	0.139
-738.069	758.454	0.075	0.207
-737.054	800.000	-0.046	0.178
-736.039	282.904	0.032	0.059
-735.025	-200.000	0.018	0.175
-734.010	-35.096	0.180	-0.100
-732.996	6.097	-0.108	0.082
-731.981	-46.543	0.155	0.078
-730.966	-200.000	-0.046	-0.211
-729.952	277.068	-0.160	0.291
-728.937	0.517	-0.147	-0.108
-727.923	800.000	0.027	0.080
-726.908	-84.675	0.311	0.100
-725.894	292.876	0.120	0.224
-724.879	20.103	-0.057	0.047
-723.864	116.662	0.083	-0.104
-722.850	147.075	0.132	0.182
-721.835	-200.000	0.002	0.374
-720.821	85.936	0.051	-0.057
-719.806	-200.000	-0.022	0.100
-718.791	-200.000	0.004	0.313
-717.777	-36.236	-0.196	0.108
-716.762	171.504	-0.095	0.140
-715.748	-60.457	0.159	0.069
-714.733	-200.000	-0.041	0.285
-713.718	-200.000	-0.011	-0.211
-712.704	-138.433	0.014	0.002
-711.689	-200.000	0.028	-0.176
-710.675	224.419	-0.133	-0.220
-709.660	-91.746	0.092	0.027
-708.645	20.910	0.090	-0.075
-707.631	141.015	-0.121	-0.163
-706.616	800.000	-0.055	-0.225
-705.602	-35.528	-0.151	-0.084
-704.587	182.742	0.054	0.081
-703.572	-21.739	-0.169	-0.105
-702.558	-138.434	-0.240	-0.027
-701.543	-2.578	0.061	-0.044
-700.529	-149.498	-0.155	0.013
-699.514	249.711	0.050	-0.088
-698.499	800.000	0.079	0.286
-697.485	-151.618	0.249	0.019
-696.470	228.061	-0.140	0.233
-695.456	-83.130	-0.254	-0.084
-694.441	222.592	-0.114	-0.187
-693.426	311.868	-0.241	0.461
-692.412	-64.633	0.092	-0.038
-691.397	800.000	0.111	0.327
-690.383	322.468	-0.106	-0.207
-689.368	-111.781	0.166	-0.034
-688.354	409.063	0.062	-0.135
-687.339	-200.000	-0.028	0.259
-686.324	226.588	-0.288	-0.477
-685.310	800.000	-0.103	0.393
-684.295	149.723	0.165	0.229
-683.281	800.000	-0.054	-0.221
-682.266	130.394	-0.073	-0.096
-681.251	-190.872	0.351	-0.004
-680.237	-58.220	0.128	-0.057
-679.222	-183.275	0.377	-0.007
-678.208	-138.526	0.183	0.021
-677.193	-95.504	0.331	-0.091
-676.178	800.000	-0.087	-0.260
-675.164	-18.120	-0.127	-0.081
-674.149	171.111	0.175	0.257
-673.135	28.389	0.187	0.161
-672.120	149.976	0.040	0.056
-671.105	800.000	0.044	0.142
-670.091	800.000	-0.046	0.180
-669.076	-113.642	-0.373	0.074
-668.062	-112.809	-0.327	0.066
-667.047	264.782	0.097	0.172
-666.032	-200.000	0.020	0.113
-665.018	-140.560	0.308	-0.033
-664.003	75.349	0.237	0.255
-662.989	295.508	0.136	0.255
-661.974	310.816	-0.053	-0.102
-660.959	-104.881	-0.037	0.009
-659.945	-69.788	0.340	0.133
-658.930	-57.388	-0.128	0.057
-657.916	109.667	-0.209	0.255
-656.901	-200.000	-0.040	-0.277
-655.886	44.141	-0.262	-0.245
-654.872	-136.247	-0.437	0.052
-653.857	186.134	0.199	-0.301
-652.843	800.000	0.058	-0.176
-651.828	-84.181	-0.387	0.125
-650.814	743.195	0.063	0.172
-649.799	559.124	0.061	0.151
-648.784	-200.000	-0.002	0.105
-647.770	-174.777	-0.359	-0.010
-646.755	800.000	0.176	-0.593
-645.741	-113.896	-0.105	0.021
-644.726	170.263	-0.137	0.199
-643.711	-190.670	0.387	0.004
-642.697	-95.174	0.238	-0.066
-641.682	110.906	-0.102	-0.125
-640.668	20.710	-0.055	0.045
-639.653	-84.772	0.196	-0.063
-638.638	-11.637	-0.410	-0.275
-637.624	441.166	-0.121	0.271
-636.609	800.000	0.093	0.306
-635.595	-124.582	-0.134	-0.021
-634.580	47.754	-0.193	-0.184
-633.565	21.840	-0.292	-0.243
-632.551	13.467	-0.031	-0.025
-631.536	382.898	0.142	-0.298
-630.522	-112.906	0.233	-0.047
-629.507	-200.000	0.032	-0.306
-628.492	800.000	-0.149	-0.497
-627.478	800.000	-0.045	-0.164
-626.463	-200.000	0.027	0.235
-625.449	-47.770	0.171	0.084
-624.434	118.933	-0.140	0.177
-623.419	147.587	-0.147	0.202
-622.405	800.000	-0.087	-0.251
-621.390	125.826	0.028	-0.037
-620.376	184.470	0.143	-0.217
-619.361	181.518	-0.027	-0.041
-618.346	150.023	0.087	0.121
-617.332	-136.730	-0.077	-0.009
-616.317	38.593	0.175	-0.159
-615.303	31.951	0.206	-0.180
-614.288	-76.464	0.197	0.071
-613.273	800.000	0.064	-0.231
-612.259	800.000	0.019	-0.061
-611.244	-113.297	0.164	-0.033
-610.230	24.237	0.048	-0.041
-609.215	-0.511	-0.162	0.117
-608.201	-200.000	-0.060	0.279
-607.186	94.734	-0.140	-0.162
-606.171	58.397	-0.120	-0.120
-605.157	131.272	-0.072	-0.094
-604.142	-36.737	-0.209	-0.115
-603.128	532.555	0.088	0.211
-602.113	406.496	0.141	0.304
-601.098	61.350	-0.267	0.270
-600.084	-60.632	-0.177	-0.077
-599.069	-155.414	-0.285	0.019
-598.055	8.029	-0.174	-0.133
-597.040	-144.205	0.110	0.010
-596.025	-75.609	0.145	-0.052
-595.011	-104.804	0.153	0.036
-593.996	-108.609	0.455	0.099
-592.982	-96.656	-0.206	-0.055
-591.967	4.046	-0.205	-0.153
-590.952	-70.137	0.242	-0.094
-589.938	-123.491	0.297	-0.048
-588.923	-117.408	-0.115	-0.021
-587.909	800.000	0.094	0.301
-586.894	-112.797	-0.333	-0.067
-585.879	-97.236	-0.234	0.062
-584.865	-94.140	0.158	-0.044
-583.850	-141.942	0.208	-0.021
-582.836	-115.397	0.219	0.042
-581.821	299.430	0.097	0.182
-580.806	800.000	-0.038	0.116
-579.792	-77.170	-0.408	-0.145
-578.777	-161.941	0.082	0.004
-577.763	-126.984	-0.261	0.039
-576.748	-200.000	0.026	-0.148
-575.733	-20.183	0.111	0.069
-574.719	-200.000	0.010	0.061
-573.704	129.896	0.047	-0.061
-572.690	10.289	0.191	0.148
-571.675	-200.000	-0.017	0.149
-570.661	481.010	0.071	-0.163
-569.646	-27.345	-0.340	-0.201
-568.631	-200.000	-0.015	-0.110
-567.617	-111.705	-0.014	-0.003
-566.602	-147.383	-0.098	-0.008
-565.588	124.028	-0.152	-0.194
-564.573	152.923	0.104	-0.144
-563.558	71.983	-0.239	0.253
-562.544	-200.000	0.005	-0.144
-561.529	-77.400	-0.299	0.106
-560.515	-12.118	0.386	0.257
-559.500	-200.000	-0.030	0.228
-558.485	-200.000	0.008	-0.272
-557.471	800.000	-0.041	-0.178
-556.456	35.524	-0.218	0.195
-555.442	530.387	-0.088	-0.212
-554.427	10.271	0.092	0.072
-553.412	-127.775	-0.232	-0.034
-552.398	800.000	0.027	-0.105
-551.383	800.000	0.079	-0.227
-550.369	-86.419	0.115	-0.036
-549.354	-24.112	0.130	0.079
-548.339	35.436	-0.250	-0.223
-547.325	-200.000	0.085	0.384
-546.310	-188.161	-0.224	-0.003
-545.296	739.026	0.036	-0.098
-544.281	344.235	-0.072	-0.143
-543.266	291.102	0.123	-0.228
-542.252	-200.000	-0.032	-0.215
-541.237	-87.579	-0.187	0.057
-540.223	-44.264	-0.045	-0.023
-539.208	-20.294	-0.187	-0.117
-538.193	-47.186	0.052	-0.026
-537.179	81.294	-0.211	-0.231
-536.164	800.000	0.045	0.141
-535.150	116.502	0.273	-0.340
-534.135	115.121	0.198	-0.246
-533.121	367.280	-0.074	-0.152
-532.106	-200.000	0.044	0.299
-531.091	-87.460	0.134	0.041
-530.077	-200.000	-0.022	0.254
-529.062	46.333	-0.212	-0.200
-528.048	800.000	-0.147	0.467
-527.033	65.306	-0.051	-0.053
-526.018	-118.617	0.117	0.021
-525.004	800.000	-0.091	0.270
-523.989	513.581	0.086	0.204
-522.975	630.649	-0.096	-0.247
-521.960	108.116	-0.168	0.203
-520.945	-200.000	0.000	-0.082
-519.931	-82.008	0.172	-0.057
-518.916	800.000	-0.101	-0.327
-517.902	-39.323	-0.174	-0.093
-516.887	-156.105	0.170	-0.011
-515.872	398.966	0.062	0.132
-514.858	-146.284	0.124	-0.011
-513.843	9.011	-0.166	-0.127
-512.829	-158.437	0.244	0.014
-511.814	506.202	0.149	-0.350
-510.799	-110.475	0.295	0.062
-509.785	-32.872	0.119	0.067
-508.770	299.575	-0.031	0.059
-507.756	428.169	-0.088	-0.194
-506.741	-10.428	0.069	0.046
-505.726	-200.000	0.006	-0.197
-504.712	-200.000	-0.023	-0.120
-503.697	800.000	-0.017	0.069
-502.683	-126.641	0.087	0.013
-501.668	322.760	-0.118	-0.228
-500.653	-101.461	-0.373	-0.092
-499.639	-154.170	-0.374	-0.026
-498.624	-148.834	0.051	-0.004
-497.610	-68.218	-0.182	0.072
-496.595	-80.661	-0.206	-0.070
-495.581	-85.871	-0.268	0.084
-494.566	-103.042	0.225	-0.054
-493.551	53.448	-0.027	0.027
-492.537	385.413	-0.119	-0.249
-491.522	234.383	0.097	-0.162
-490.508	-50.246	-0.192	0.092
-489.493	460.921	0.049	0.112
-488.478	-112.264	-0.215	-0.044
-487.464	15.294	0.340	0.271
-486.449	-200.000	0.020	0.175
-485.435	98.642	-0.262	-0.307
-484.420	-47.544	0.060	-0.029
-483.405	-200.000	-0.001	-0.261
-482.391	-200.000	-0.044	0.231
-481.376	307.266	-0.057	-0.107
-480.362	-200.000	0.009	-0.150
-479.347	-200.000	0.040	0.216
-478.332	-158.127	0.437	0.026
-477.318	102.430	0.112	-0.132
-476.303	-43.574	-0.273	-0.140
-475.289	-200.000	-0.002	0.145
-474.274	126.049	0.161	0.206
-473.259	102.008	-0.084	0.100
-472.245	5.876	-0.295	0.221
-471.230	-200.000	0.063	-0.317
-470.216	-96.509	-0.202	0.054
-469.201	-200.000	-0.006	0.173
-468.186	-157.283	-0.072	0.004
-467.172	-122.690	-0.254	0.042
-466.157	100.997	0.151	-0.178
-465.143	-146.397	0.295	-0.026
-464.128	-200.000	-0.010	-0.148
-463.113	-46.783	0.228	-0.113
-462.099	-200.000	0.040	-0.236
-461.084	-13.434	-0.091	-0.060
-460.070	-76.643	-0.310	0.110
-459.055	-95.265	0.213	0.058
-458.040	-113.378	-0.142	0.028
-457.026	-103.865	0.103	-0.024
-456.011	273.331	0.167	0.298
-454.997	-68.143	-0.187	0.074
-453.982	756.152	-0.094	0.257
-452.968	131.000	0.017	0.022
-451.953	-200.000	0.001	0.187
-450.938	-200.000	-0.041	-0.378
-449.924	-43.468	0.190	-0.097
-448.909	-84.827	-0.097	-0.031
-447.895	63.153	-0.392	0.398
-446.880	499.959	0.079	0.185
-445.865	34.425	-0.060	-0.053
-444.851	800.000	0.026	0.109
-443.836	17.698	-0.488	0.393
-442.822	110.431	0.217	-0.264
-441.807	-94.497	-0.253	-0.070
-440.792	-200.000	-0.036	-0.207
-439.778	-8.359	0.361	0.246
-438.763	-88.592	-0.351	-0.106
-437.749	15.778	0.225	-0.179
-436.734	-169.477	-0.203	-0.008
-435.719	-110.777	-0.174	0.036
-434.705	675.912	-0.141	0.370
-433.690	-147.866	0.362	0.031
-432.676	294.091	0.176	-0.325
-431.661	-67.114	0.185	0.074
-430.646	75.987	0.059	0.063
-429.632	-120.816	0.156	0.027
-428.617	-185.698	-0.259	-0.004
-427.603	-200.000	0.020	0.228
-426.588	5.721	-0.138	-0.103
-425.573	182.587	0.014	0.020
-424.559	-5.253	-0.243	-0.169
-423.544	197.977	-0.104	0.161
-422.530	-69.611	0.057	0.022
-421.515	-139.156	0.123	-0.013
-420.500	-81.363	-0.169	0.056
-419.486	-9.923	0.204	-0.137
-418.471	-110.175	-0.222	-0.047
-417.457	-90.275	0.344	0.101
-416.442	-112.694	-0.068	-0.014
-415.428	267.988	-0.190	-0.337
-414.413	800.000	-0.043	0.138
-413.398	-15.398	0.142	0.091
-412.384	-105.215	0.204	-0.047
-411.369	17.625	0.088	0.071
-410.355	81.683	-0.193	0.211
-409.340	82.355	-0.229	-0.252
-408.325	-180.839	0.380	0.008
-407.311	800.000	0.158	-0.502
-406.296	739.175	0.108	-0.293
-405.282	-149.221	0.185	-0.015
-404.267	-56.847	-0.470	-0.210
-403.252	-165.678	0.168	0.007
-402.238	-165.224	0.248	0.011
-401.223	-101.525	0.300	0.074
-400.209	800.000	-0.033	-0.109
-399.194	-17.084	-0.126	0.081
-398.179	63.770	0.189	-0.192
-397.165	-23.823	0.289	-0.175
-396.150	800.000	0.059	0.229
-395.136	-200.000	-0.010	0.338
-394.121	35.200	-0.244	0.216
-393.106	-68.981	-0.274	-0.107
-392.092	-48.520	-0.363	0.177
-391.077	34.306	-0.083	-0.073
-390.063	403.114	-0.124	-0.262
-389.048	62.468	-0.156	-0.158
-388.033	513.161	-0.076	0.178
-387.019	-200.000	-0.025	-0.210
-386.004	-200.000	0.000	-0.195
-384.990	-57.873	-0.316	-0.139
-383.975	-44.640	0.056	0.028
-382.960	-200.000	0.019	-0.245
-381.946	692.913	-0.077	0.203
-380.931	606.266	-0.093	-0.235
-379.917	-144.189	-0.158	0.015
-378.902	30.741	-0.240	0.207
-377.888	106.426	0.163	0.195
-376.873	18.226	0.061	0.049
-375.858	228.848	0.089	0.147
-374.844	-48.838	-0.201	0.097
-373.829	-200.000	0.018	-0.316
-372.815	-0.193	-0.209	0.150
-371.800	-89.334	-0.269	0.080
-370.785	-200.000	0.078	0.387
-369.771	-13.531	0.322	0.210
-368.756	103.503	0.127	-0.150
-367.742	23.089	-0.152	-0.126
-366.727	-102.993	0.329	-0.079
-365.712	-45.564	0.067	-0.034
-364.698	-12.729	-0.165	-0.108
-363.683	239.924	-0.207	-0.347
-362.669	83.000	0.251	0.276
-361.654	37.930	-0.150	0.134
-360.639	-106.424	0.340	0.077
-359.625	-150.366	-0.167	-0.013
-358.610	495.124	0.046	-0.106
-357.596	-95.059	-0.351	0.096
-356.581	-19.767	-0.337	-0.210
-355.566	800.000	-0.062	-0.197
-354.552	-77.075	-0.170	-0.060
-353.537	-200.000	-0.019	0.171
-352.523	-73.947	0.193	-0.071
-351.508	-200.000	-0.002	-0.017
-350.493	-200.000	-0.001	0.231
-349.479	-93.764	0.060	0.017
-348.464	146.363	0.256	-0.346
-347.450	-43.019	-0.191	0.098
-346.435	-17.749	0.166	-0.105
-345.420	-87.155	0.148	0.046
-344.406	-5.005	-0.212	0.147
-343.391	-93.236	-0.057	-0.016
-342.377	6.732	-0.068	-0.051
-341.362	555.647	-0.093	-0.226
-340.348	-200.000	-0.014	-0.150
-339.333	-132.986	-0.073	-0.009
-338.318	-119.248	0.196	-0.034
-337.304	-112.833	0.117	0.023
-336.289	-72.785	0.379	0.141
-335.275	800.000	0.049	-0.187
-334.260	800.000	-0.069	-0.204
-333.245	-192.186	0.099	0.001
-332.231	154.692	0.191	0.265
-331.216	-19.680	-0.101	0.063
-330.202	-87.681	0.034	0.010
-329.187	-9.331	0.440	-0.296
-328.172	-41.385	-0.337	-0.175
-327.158	172.210	-0.133	0.192
-326.143	277.855	0.071	0.128
-325.129	302.044	0.194	0.360
-324.114	-140.894	-0.272	0.028
-323.099	-2.130	0.220	-0.155
-322.085	-186.561	0.089	0.001
-321.070	-34.765	-0.256	0.141
-320.056	-27.513	0.127	0.075
-319.041	3.848	0.235	0.173
-318.026	-32.312	0.097	-0.054
-317.012	-26.140	0.376	0.223
-315.997	-200.000	-0.002	0.144
-314.983	-200.000	-0.012	0.111
-313.968	800.000	-0.166	0.466
-312.953	-200.000	0.071	0.371
-311.939	565.215	-0.056	0.136
-310.924	800.000	0.078	0.241
-309.910	147.876	0.169	0.229
-308.895	-96.999	0.006	0.002
-307.880	-87.513	0.177	0.054
-306.866	-46.295	-0.108	-0.053
-305.851	340.725	0.087	0.171
-304.837	144.781	-0.137	0.184
-303.822	3.250	-0.116	0.085
-302.807	196.030	-0.093	-0.143
-301.793	-200.000	-0.029	0.320
-300.778	-200.000	0.008	0.275
-299.764	169.247	0.027	0.039
-298.749	800.000	0.047	-0.150
-297.735	54.935	0.243	0.236
-296.720	-60.813	0.248	0.106
-295.705	167.715	-0.065	0.094
-294.691	-3.303	0.183	-0.128
-293.676	-106.067	-0.241	0.055
-292.662	800.000	0.040	0.149
-291.647	-105.137	-0.253	0.058
-290.632	-18.504	0.134	0.084
-289.618	256.644	0.065	-0.112
-288.603	-154.945	0.111	-0.007
-287.589	-32.085	-0.156	-0.088
-286.574	800.000	0.069	-0.270
-285.559	-129.509	-0.100	0.014
-284.545	-200.000	0.051	0.267
-283.530	-135.072	-0.147	0.018
-282.516	91.334	-0.072	-0.082
-281.501	-73.823	-0.101	0.037
-280.486	-66.927	-0.153	-0.061
-279.472	-200.000	-0.016	0.218
-278.457	69.459	0.126	0.130
-277.443	486.849	-0.059	-0.135
-276.428	800.000	0.070	0.241
-275.413	-17.739	0.099	-0.062
-274.399	-51.466	0.041	0.019
-273.384	-87.810	-0.093	0.028
-272.370	246.305	-0.048	-0.082
-271.355	-200.000	-0.004	0.103
-270.340	-130.922	-0.438	0.059
-269.326	384.355	-0.103	-0.214
-268.311	104.220	0.145	-0.171
-267.297	800.000	-0.063	0.202
-266.282	207.542	0.173	-0.271
-265.267	-8.643	0.095	-0.064
-264.253	-5.811	0.371	0.255
-263.238	-80.499	0.138	0.046
-262.224	53.308	-0.008	-0.007
-261.209	-109.463	0.314	-0.067
-260.195	161.706	0.183	0.257
-259.180	44.578	-0.025	-0.023
-258.165	-200.000	-0.011	0.088
-257.151	-200.000	0.005	0.056
-256.136	223.574	0.156	0.253
-255.122	-28.673	0.364	-0.211
-254.107	-127.596	0.333	-0.049
-253.092	298.841	0.041	0.077
-252.078	-61.549	-0.307	-0.130
-251.063	-140.396	-0.090	0.009
-250.049	636.998	0.116	-0.297
-249.034	336.185	0.080	-0.157
-248.019	-46.108	0.136	0.067
-247.005	-200.000	0.002	0.140
-245.990	-30.286	-0.459	0.262
-244.976	-200.000	-0.020	0.240
-243.961	-54.883	0.189	-0.086
-242.946	-200.000	-0.051	-0.325
-241.932	595.056	0.097	-0.241
-240.917	-1.133	-0.061	-0.043
-239.903	-52.206	-0.345	0.161
-238.888	-200.000	-0.002	-0.339
-237.873	79.064	0.134	-0.144
-236.859	21.611	0.455	0.372
-235.844	-200.000	0.026	0.174
-234.830	-121.726	-0.316	0.053
-233.815	-121.164	0.237	-0.040
-232.800	-92.564	0.230	0.065
-231.786	-200.000	-0.029	0.260
-230.771	-171.416	0.250	-0.008
-229.757	339.916	0.148	-0.291
-228.742	800.000	-0.037	0.133
-227.727	-101.145	0.245	0.060
-226.713	800.000	-0.153	0.475
-225.698	-169.884	-0.270	0.010
-224.684	70.083	0.049	0.050
-223.669	-110.419	0.264	-0.055
-222.655	42.474	0.089	0.081
-221.640	-200.000	0.014	0.342
-220.625	-99.096	-0.069	-0.017
-219.611	-200.000	-0.044	-0.404
-218.596	-185.091	0.261	0.004
-217.582	317.840	-0.078	0.148
-216.567	159.124	0.085	0.118
-215.552	-200.000	-0.001	-0.216
-214.538	-200.000	-0.003	-0.117
-213.523	-8.660	-0.290	0.195
-212.509	-200.000	-0.011	-0.220
-211.494	585.814	-0.050	0.122
-210.479	-200.000	-0.013	0.187
-209.465	282.163	0.134	-0.241
-208.450	19.550	0.153	0.123
-207.436	85.793	0.253	-0.279
-206.421	-27.297	0.245	-0.143
-205.406	800.000	0.036	0.146
-204.392	-79.419	0.195	0.066
-203.377	-72.786	0.429	-0.158
-202.363	159.534	-0.242	0.338
-201.348	-14.327	0.077	-0.050
-200.333	685.433	0.118	-0.310
-199.319	-200.000	0.064	0.312
-198.304	-115.311	0.171	-0.032
-197.290	344.608	-0.228	0.449
-196.275	9.143	0.383	-0.290
-195.260	7.930	-0.169	-0.127
-194.246	341.369	-0.032	-0.062
-193.231	35.279	-0.222	-0.195
-192.217	-28.886	-0.293	-0.169
-191.202	-200.000	-0.038	-0.234
-190.187	160.223	0.091	-0.127
-189.173	88.617	-0.056	-0.063
-188.158	-54.380	0.302	-0.137
-187.144	-64.803	-0.059	0.024
-186.129	-13.007	0.335	0.218
-185.114	353.830	-0.093	0.184
-184.100	800.000	0.056	-0.155
-183.085	-51.961	0.400	-0.186
-182.071	277.980	-0.208	-0.370
-181.056	-99.106	0.259	0.066
-180.042	-58.354	-0.136	0.059
-179.027	92.789	0.081	-0.091
-178.012	87.606	-0.202	0.224
-176.998	30.745	-0.170	0.146
-175.983	800.000	-0.038	-0.135
-174.969	58.743	-0.138	-0.136
-173.954	-64.905	-0.089	-0.036
-172.939	190.443	0.054	0.081
-171.925	62.666	0.317	-0.317
-170.910	-200.000	-0.009	-0.047
-169.896	482.171	0.090	0.204
-168.881	800.000	0.074	0.313
-167.866	-27.567	-0.272	0.158
-166.852	-200.000	-0.013	-0.111
-165.837	-18.190	-0.248	0.155
-164.823	-17.182	0.265	-0.167
-163.808	800.000	-0.060	-0.211
-162.793	-92.870	-0.297	0.083
-161.779	-192.774	-0.267	-0.002
-160.764	800.000	0.044	0.176
-159.750	-144.912	-0.247	-0.023
-158.735	-200.000	-0.018	0.434
-157.720	-112.362	0.305	0.061
-156.706	-132.758	0.178	-0.023
-155.691	127.158	-0.118	0.150
-154.677	645.541	-0.055	0.140
-153.662	-200.000	-0.010	0.152
-152.647	-200.000	0.020	-0.102
-151.633	-181.442	-0.179	0.004
-150.618	800.000	0.021	-0.079
-149.604	-200.000	0.052	0.279
-148.589	-200.000	-0.005	-0.251
-147.574	734.857	-0.130	-0.349
-146.560	278.655	-0.132	-0.235
-145.545	800.000	0.049	-0.161
-144.531	719.823	0.102	-0.271
-143.516	-111.622	-0.185	0.038
-142.502	-114.469	-0.160	0.031
-141.487	800.000	-0.097	0.268
-140.472	3.999	0.157	0.115
-139.458	-200.000	-0.018	0.134
-138.443	800.000	0.092	0.257
-137.429	237.033	-0.116	-0.192
-136.414	13.382	-0.105	-0.081
-135.399	-52.989	0.124	0.057
-134.385	159.307	-0.209	-0.291
-133.370	-17.590	-0.071	0.044
-132.356	-200.000	0.030	0.154
-131.341	800.000	0.014	0.051
-130.326	-90.161	0.145	0.042
-129.312	32.556	-0.137	-0.119
-128.297	800.000	0.014	0.052
-127.283	119.210	-0.352	-0.435
-126.268	-200.000	-0.012	-0.175
-125.253	-99.392	-0.343	0.086
-124.239	441.347	0.130	0.284
-123.224	27.201	0.124	-0.104
-122.210	800.000	0.022	-0.061
-121.195	564.102	-0.058	-0.140
