DTS Sentinel unit serial number:	SN413079Multiplexer serial number:	ORYXHardware model number:	OX4-SRSoftware version number:	ORYX F/W v4.00 Oryx Data Collector v3.7.2.0data status	okinstallation	princeton_trtdifferential loss correction	single-endedforward channel	channel 1reverse channel	N/Adate	2019/09/17time	23:46:35forward acquisition time	60.00reverse acquisition time	0.00gamma	496.2192k internal	0.2341k external	0.2341temperature offset calibration	0.9981default loss term (dB/km)	0.3790temperature slope calibration	1.0000multiplexer offset coefficient	1.0000multiplexer slope coefficient	1.0000fibre end	0.00T internal ref (°C)	24.05T ext. ref 1 (°C)	0.17T ext. ref 2 (°C)	17.38length (m)	temperature (°C)	Stokes	anti-Stokes-747.200	-200.000	0.013	0.081
-746.185	-99.041	0.089	0.023
-745.171	-108.768	-0.222	-0.048
-744.156	800.000	-0.045	0.180
-743.142	-54.724	0.105	-0.048
-742.127	541.582	0.110	0.263
-741.112	311.069	-0.213	0.400
-740.098	-116.982	-0.209	-0.038
-739.083	473.461	-0.055	-0.123
-738.069	327.722	0.169	0.325
-737.054	800.000	0.155	-0.452
-736.039	-200.000	-0.015	0.074
-735.025	3.323	0.220	0.161
-734.010	-102.182	-0.352	-0.085
-732.996	472.390	0.074	0.166
-731.981	-80.384	-0.162	0.054
-730.966	-10.554	-0.060	-0.040
-729.952	349.224	-0.084	-0.166
-728.937	47.220	-0.156	-0.145
-727.923	-200.000	0.008	0.116
-726.908	321.564	-0.042	0.080
-725.894	-166.429	-0.426	-0.018
-724.879	174.390	-0.115	-0.167
-723.864	-200.000	-0.026	-0.180
-722.850	800.000	0.159	-0.445
-721.835	-144.743	-0.325	0.030
-720.821	9.641	-0.146	0.111
-719.806	-200.000	-0.012	-0.144
-718.791	43.347	-0.019	-0.017
-717.777	-118.776	-0.194	-0.034
-716.762	264.248	0.006	0.011
-715.748	-66.923	-0.084	0.033
-714.733	-141.718	0.181	0.018
-713.718	0.655	0.076	0.054
-712.704	81.750	-0.129	0.139
-711.689	-71.341	-0.275	-0.103
-710.675	-4.615	-0.111	-0.077
-709.660	-120.993	0.263	0.044
-708.645	-38.253	0.258	0.137
-707.631	-98.850	0.332	0.084
-706.616	16.833	-0.086	-0.068
-705.602	186.798	0.137	0.205
-704.587	161.842	-0.211	-0.296
-703.572	43.418	0.151	0.138
-702.558	334.759	-0.062	-0.121
-701.543	-26.309	0.344	-0.202
-700.529	166.817	-0.106	-0.151
-699.514	-158.421	0.076	-0.004
-698.499	-174.895	0.114	0.003
-697.485	-1.849	0.029	0.020
-696.470	-200.000	0.024	-0.185
-695.456	59.057	-0.283	0.278
-694.441	-69.445	0.159	0.061
-693.426	56.170	0.263	-0.256
-692.412	162.022	0.030	0.042
-691.397	800.000	-0.073	0.249
-690.383	115.392	-0.169	0.206
-689.368	-58.763	0.127	-0.055
-688.354	-200.000	-0.010	-0.304
-687.339	-54.440	-0.317	0.144
-686.324	800.000	-0.088	-0.285
-685.310	182.886	0.071	-0.105
-684.295	-200.000	0.052	-0.235
-683.281	544.176	-0.051	-0.123
-682.266	-166.122	-0.173	-0.007
-681.251	109.299	0.140	0.167
-680.237	-17.911	-0.054	-0.034
-679.222	-200.000	0.006	0.057
-678.208	37.820	0.115	0.102
-677.193	-200.000	0.014	0.351
-676.178	10.310	-0.220	-0.167
-675.164	-200.000	-0.019	0.091
-674.149	288.922	-0.112	0.204
-673.135	800.000	0.040	0.134
-672.120	800.000	-0.109	-0.313
-671.105	-200.000	-0.023	-0.201
-670.091	627.392	-0.131	-0.331
-669.076	800.000	-0.110	-0.463
-668.062	-60.807	-0.145	-0.061
-667.047	-164.706	-0.364	-0.016
-666.032	88.759	0.116	-0.129
-665.018	-123.607	-0.118	0.019
-664.003	337.988	-0.084	-0.164
-662.989	-169.819	0.068	0.002
-661.974	-98.471	-0.107	0.027
-660.959	-200.000	0.003	-0.148
-659.945	1.712	0.091	0.065
-658.930	293.307	-0.179	-0.326
-657.916	-136.596	-0.290	0.034
-656.901	-86.003	-0.395	0.122
-655.886	-14.973	-0.149	-0.095
-654.872	157.694	-0.129	0.178
-653.857	-110.619	-0.081	-0.017
-652.843	3.952	0.104	-0.076
-651.828	44.290	-0.197	-0.181
-650.814	-200.000	-0.013	0.258
-649.799	275.243	-0.031	0.055
-648.784	800.000	-0.051	-0.150
-647.770	237.946	-0.014	-0.023
-646.755	93.271	-0.122	-0.137
-645.741	293.292	-0.110	-0.200
-644.726	-51.700	0.221	0.103
-643.711	10.624	-0.180	-0.137
-642.697	-140.818	-0.207	-0.021
-641.682	-120.576	0.221	0.037
-640.668	-200.000	0.005	0.171
-639.653	-112.720	-0.019	-0.004
-638.638	-84.651	0.052	-0.016
-637.624	146.362	-0.265	-0.356
-636.609	-68.723	-0.216	-0.083
-635.595	-79.832	0.341	-0.115
-634.580	146.037	0.151	-0.202
-633.565	-200.000	-0.009	-0.079
-632.551	-8.114	-0.263	-0.177
-631.536	-200.000	-0.002	0.016
-630.522	51.497	0.157	0.149
-629.507	800.000	-0.097	0.340
-628.492	162.732	0.075	-0.106
-627.478	142.243	0.093	-0.123
-626.463	-188.308	0.065	-0.001
-625.449	-190.674	-0.078	0.001
-624.434	11.412	0.072	-0.055
-623.419	195.188	0.157	0.239
-622.405	16.783	-0.169	0.134
-621.390	-141.636	-0.487	-0.049
-620.376	-200.000	0.050	-0.265
-619.361	-181.794	-0.198	-0.004
-618.346	-118.892	0.189	0.033
-617.332	-200.000	-0.013	-0.079
-616.317	400.967	0.019	-0.039
-615.303	-200.000	0.033	0.262
-614.288	-71.372	-0.256	0.096
-613.273	-92.670	0.216	-0.060
-612.259	-84.851	0.212	-0.066
-611.244	735.623	0.068	0.182
-610.230	-6.857	-0.158	-0.107
-609.215	9.201	-0.034	-0.025
-608.201	235.032	0.065	0.108
-607.186	396.723	0.083	0.173
-606.171	-200.000	-0.016	0.275
-605.157	108.519	-0.088	-0.104
-604.142	800.000	-0.108	-0.351
-603.128	-200.000	-0.001	-0.218
-602.113	26.610	-0.081	-0.067
-601.098	-150.956	-0.360	-0.027
-600.084	370.660	0.086	-0.173
-599.069	96.411	-0.037	-0.043
-598.055	-103.243	-0.329	-0.077
-597.040	-200.000	0.011	-0.115
-596.025	375.375	-0.120	-0.243
-595.011	-125.615	-0.138	-0.021
-593.996	-47.570	-0.164	0.079
-592.982	78.369	-0.395	-0.420
-591.967	-101.242	0.206	0.050
-590.952	189.775	0.057	0.085
-589.938	-200.000	-0.001	-0.036
-588.923	194.670	0.018	0.028
-587.909	284.362	0.100	-0.178
-586.894	-100.746	0.143	0.035
-585.879	-77.527	-0.123	-0.042
-584.865	100.859	0.193	-0.224
-583.850	10.127	-0.185	0.140
-582.836	21.782	-0.240	0.195
-581.821	325.744	-0.036	0.068
-580.806	154.182	-0.118	-0.161
-579.792	127.562	-0.236	-0.299
-578.777	-200.000	-0.005	-0.101
-577.763	-165.804	0.130	-0.006
-576.748	-20.937	-0.261	-0.159
-575.733	373.269	0.047	-0.094
-574.719	335.608	-0.096	0.186
-573.704	-200.000	-0.003	-0.239
-572.690	800.000	0.060	-0.222
-571.675	-200.000	-0.004	0.170
-570.661	722.659	-0.090	-0.239
-569.646	44.538	-0.228	-0.209
-568.631	-57.414	0.213	-0.093
-567.617	55.631	-0.150	-0.144
-566.602	-169.225	0.204	0.008
-565.588	81.062	-0.168	0.180
-564.573	91.964	0.069	0.077
-563.558	-200.000	0.005	0.268
-562.544	-23.504	0.152	-0.091
-561.529	800.000	0.028	-0.098
-560.515	-200.000	-0.024	0.406
-559.500	-51.722	-0.112	0.052
-558.485	-96.268	0.268	-0.071
-557.471	-200.000	0.014	0.126
-556.456	-200.000	0.002	-0.088
-555.442	145.215	-0.174	-0.232
-554.427	-21.927	-0.066	-0.040
-553.412	30.653	-0.337	-0.287
-552.398	-200.000	0.036	-0.278
-551.383	76.683	-0.245	0.258
-550.369	-200.000	-0.013	0.104
-549.354	78.368	0.237	-0.251
-548.339	-75.754	-0.120	-0.042
-547.325	32.873	0.212	0.182
-546.310	800.000	-0.057	0.187
-545.296	-14.756	-0.038	0.024
-544.281	-89.107	-0.169	0.050
-543.266	800.000	-0.045	-0.173
-542.252	13.429	0.140	0.108
-541.237	663.609	0.118	0.302
-540.223	800.000	0.057	0.184
-539.208	-200.000	0.002	-0.380
-538.193	205.470	-0.234	0.361
-537.179	800.000	-0.076	-0.268
-536.164	30.162	-0.239	-0.203
-535.150	-68.298	-0.428	-0.165
-534.135	-26.611	0.233	-0.136
-533.121	10.083	0.180	0.136
-532.106	166.745	0.177	0.249
-531.091	-200.000	-0.077	0.455
-530.077	-158.069	-0.253	0.015
-529.062	514.763	-0.131	-0.303
-528.048	800.000	-0.083	0.243
-527.033	-6.182	0.201	0.136
-526.018	330.810	-0.116	-0.223
-525.004	251.121	0.295	-0.499
-523.989	-200.000	0.013	-0.302
-522.975	-33.486	0.093	-0.051
-521.960	118.000	-0.094	-0.115
-520.945	-38.291	0.109	-0.057
-519.931	-200.000	-0.001	-0.110
-518.916	800.000	-0.071	-0.199
-517.902	751.540	0.085	0.229
-516.887	-4.285	0.167	0.115
-515.872	800.000	-0.075	0.217
-514.858	-149.894	-0.133	-0.010
-513.843	37.891	0.254	0.224
-512.829	-200.000	-0.012	-0.100
-511.814	344.010	-0.107	0.208
-510.799	574.146	0.046	0.111
-509.785	721.508	0.037	-0.096
-508.770	66.277	-0.050	0.051
-507.756	112.858	0.187	-0.225
-506.741	800.000	0.064	-0.222
-505.726	-36.326	0.164	-0.088
-504.712	-40.011	0.182	0.094
-503.697	-49.978	0.078	0.037
-502.683	-44.464	0.099	0.049
-501.668	-15.700	0.108	-0.068
-500.653	102.915	-0.093	-0.108
-499.639	140.219	0.061	0.080
-498.624	-104.000	0.258	0.060
-497.610	-21.942	0.250	-0.151
-496.595	-121.581	-0.168	-0.028
-495.581	-101.469	-0.088	0.021
-494.566	800.000	0.052	-0.204
-493.551	-19.306	0.219	-0.135
-492.537	163.863	-0.137	0.191
-491.522	87.678	-0.227	-0.249
-490.508	24.224	0.375	0.307
-489.493	-130.260	0.074	-0.010
-488.478	-74.314	-0.461	-0.165
-487.464	-200.000	-0.073	-0.530
-486.449	-4.412	0.386	-0.265
-485.435	-51.636	0.091	0.042
-484.420	107.466	0.117	0.138
-483.405	-200.000	-0.020	-0.143
-482.391	177.512	-0.239	0.345
-481.376	-37.986	-0.305	-0.161
-480.362	-189.787	-0.453	-0.005
-479.347	92.172	-0.266	0.297
-478.332	-23.672	0.132	-0.078
-477.318	-200.000	-0.008	0.137
-476.303	140.290	0.216	-0.283
-475.289	92.893	-0.160	-0.179
-474.274	15.191	0.394	0.306
-473.259	501.950	-0.080	0.183
-472.245	-200.000	-0.030	0.426
-471.230	-129.828	-0.238	0.032
-470.216	137.726	-0.053	-0.068
-469.201	105.251	0.113	-0.132
-468.186	-200.000	0.016	0.241
-467.172	800.000	-0.076	0.234
-466.157	800.000	-0.100	-0.386
-465.143	11.327	0.150	0.114
-464.128	-3.806	0.224	-0.154
-463.113	-111.745	-0.384	0.077
-462.099	-200.000	0.049	0.596
-461.084	-5.762	0.188	-0.128
-460.070	115.341	0.219	0.266
-459.055	-167.198	-0.290	-0.012
-458.040	782.538	0.115	-0.311
-457.026	-173.971	0.175	-0.005
-456.011	375.948	-0.105	0.212
-454.997	177.753	-0.045	0.065
-453.982	-108.747	0.338	0.072
-452.968	238.616	0.029	-0.047
-451.953	271.535	-0.065	-0.114
-450.938	-13.458	0.106	-0.068
-449.924	-110.539	-0.163	0.034
-448.909	-164.720	0.028	-0.001
-447.895	-45.452	0.426	0.209
-446.880	-27.855	-0.238	0.137
-445.865	-32.142	0.256	0.142
-444.851	-148.781	-0.230	0.019
-443.836	396.276	0.137	0.283
-442.822	177.405	0.051	-0.074
-441.807	706.349	-0.059	0.154
-440.792	-200.000	0.000	0.341
-439.778	459.444	-0.150	-0.331
-438.763	224.937	0.160	0.256
-437.749	800.000	-0.079	0.273
-436.734	-134.900	-0.272	-0.033
-435.719	-200.000	0.029	0.202
-434.705	-94.727	0.074	0.020
-433.690	-200.000	0.000	0.022
-432.676	-200.000	-0.006	-0.090
-431.661	81.974	-0.131	0.140
-430.646	-1.063	0.258	-0.181
-429.632	800.000	-0.036	-0.145
-428.617	-173.480	-0.147	0.004
-427.603	139.863	0.249	-0.325
-426.588	17.652	0.164	-0.129
-425.573	312.082	-0.153	-0.284
-424.559	126.241	-0.119	0.149
-423.544	172.459	0.158	-0.225
-422.530	14.174	-0.200	0.154
-421.515	800.000	-0.009	-0.034
-420.500	762.371	-0.104	0.279
-419.486	-107.081	0.274	0.060
-418.471	800.000	0.008	-0.033
-417.457	-26.918	0.131	-0.076
-416.442	-87.432	-0.133	0.040
-415.428	-34.222	0.174	0.095
-414.413	148.032	0.102	0.137
-413.398	-55.735	0.315	0.139
-412.384	41.657	0.159	-0.143
-411.369	-24.042	0.177	0.105
-410.355	-48.372	0.051	-0.024
-409.340	-59.664	0.386	0.164
-408.325	-84.699	-0.171	0.053
-407.311	-200.000	0.041	0.282
-406.296	-200.000	0.023	-0.157
-405.282	-200.000	-0.030	-0.250
-404.267	373.170	-0.082	-0.165
-403.252	-43.047	0.083	0.042
-402.238	-137.034	0.321	-0.036
-401.223	-200.000	0.013	0.106
-400.209	-200.000	0.015	0.092
-399.194	115.480	0.033	0.040
-398.179	800.000	-0.026	0.100
-397.165	720.811	-0.168	-0.441
-396.150	-85.360	-0.319	0.098
-395.136	-200.000	0.050	0.306
-394.121	380.790	0.026	-0.052
-393.106	-40.414	-0.279	-0.143
-392.092	-200.000	0.005	0.315
-391.077	800.000	-0.036	-0.132
-390.063	49.697	0.228	-0.212
-389.048	-102.250	-0.064	-0.015
-388.033	-0.369	0.095	-0.067
-387.019	-120.337	0.298	-0.050
-386.004	587.184	-0.076	0.184
-384.990	293.809	-0.134	0.241
-383.975	168.829	0.230	0.324
-382.960	336.518	0.084	-0.162
-381.946	8.407	0.332	-0.246
-380.931	-135.026	-0.117	0.014
-379.917	-14.355	0.219	0.139
-378.902	-70.417	-0.435	0.163
-377.888	237.249	0.197	0.322
-376.873	197.663	-0.161	-0.243
-375.858	-10.963	-0.439	-0.286
-374.844	324.073	-0.084	0.159
-373.829	31.188	0.184	0.156
-372.815	219.492	0.187	0.295
-371.800	91.387	-0.147	0.163
-370.785	800.000	-0.003	0.013
-369.771	200.976	0.120	-0.182
-368.756	-200.000	0.056	0.291
-367.742	-30.953	-0.260	0.145
-366.727	108.190	0.275	0.324
-365.712	28.515	0.165	0.138
-364.698	-200.000	0.030	0.253
-363.683	-91.449	0.143	0.040
-362.669	-127.293	-0.224	0.032
-361.654	583.783	-0.044	0.107
-360.639	-89.428	-0.291	-0.085
-359.625	-130.842	0.222	-0.029
-358.610	-56.122	-0.153	0.067
-357.596	-31.052	-0.135	0.075
-356.581	-78.937	0.204	0.069
-355.566	-200.000	-0.048	-0.355
-354.552	-38.976	-0.232	-0.121
-353.537	-200.000	0.021	-0.136
-352.523	286.385	-0.042	0.075
-351.508	740.328	0.091	-0.241
-350.493	-53.679	-0.169	-0.076
-349.479	467.845	-0.079	0.174
-348.464	-200.000	-0.017	0.163
-347.450	111.199	-0.066	0.078
-346.435	-200.000	0.001	-0.090
-345.420	-200.000	0.026	-0.315
-344.406	-200.000	0.004	-0.166
-343.391	-86.043	-0.250	-0.076
-342.377	-55.945	0.162	-0.071
-341.362	-150.451	0.189	0.014
-340.348	800.000	-0.087	-0.275
-339.333	-74.136	0.086	-0.031
-338.318	773.165	-0.093	0.249
-337.304	-200.000	0.025	0.159
-336.289	-62.900	-0.090	0.037
-335.275	322.286	0.145	-0.273
-334.260	273.929	-0.206	-0.359
-333.245	91.143	-0.110	-0.122
-332.231	800.000	-0.039	-0.148
-331.216	-96.345	0.548	-0.143
-330.202	-38.988	-0.107	0.055
-329.187	-148.472	-0.054	0.004
-328.172	-200.000	-0.059	0.275
-327.158	198.882	0.110	0.166
-326.143	213.826	-0.016	0.026
-325.129	301.403	0.183	0.333
-324.114	-200.000	0.006	0.261
-323.099	-84.247	-0.285	-0.089
-322.085	-200.000	-0.037	-0.173
-321.070	800.000	-0.086	-0.240
-320.056	377.640	-0.092	0.186
-319.041	298.639	-0.153	0.278
-318.026	800.000	0.055	0.223
-317.012	-55.187	0.098	-0.043
-315.997	-99.507	-0.168	0.042
-314.983	128.589	0.257	0.322
-313.968	-12.699	-0.079	-0.051
-312.953	101.483	0.003	-0.003
-311.939	-36.151	0.233	0.124
-310.924	-167.637	0.328	0.013
-309.910	249.194	0.171	0.286
-308.895	-102.931	-0.293	-0.069
-307.880	37.783	-0.177	0.155
-306.866	-137.847	-0.409	0.045
-305.851	-43.481	0.312	0.155
-304.837	41.966	0.066	0.059
-303.822	-31.992	0.282	-0.156
-302.807	800.000	-0.047	0.171
-301.793	-146.805	-0.158	-0.013
-300.778	-200.000	0.002	-0.044
-299.764	-200.000	0.005	-0.190
-298.749	158.884	-0.112	-0.154
-297.735	-200.000	0.046	0.236
-296.720	-64.270	0.112	0.045
-295.705	-73.836	0.113	-0.040
-294.691	-4.086	-0.201	-0.137
-293.676	800.000	-0.060	0.217
-292.662	800.000	0.076	-0.231
-291.647	-200.000	-0.058	-0.251
-290.632	-129.417	-0.096	0.013
-289.618	-96.594	0.095	-0.025
-288.603	57.204	-0.134	0.129
-287.589	22.193	0.185	-0.149
-286.574	498.796	-0.060	0.137
-285.559	64.006	-0.046	0.046
-284.545	-200.000	-0.005	0.027
-283.530	223.656	-0.071	-0.113
-282.516	-200.000	0.004	0.118
-281.501	40.386	-0.300	-0.266
-280.486	-200.000	-0.033	0.169
-279.472	-140.622	-0.226	0.023
-278.457	-200.000	-0.024	-0.185
-277.443	-157.566	0.095	-0.006
-276.428	4.553	-0.283	0.204
-275.413	-89.163	-0.597	-0.174
-274.399	339.726	0.079	0.151
-273.384	192.835	-0.097	0.145
-272.370	20.159	0.087	0.069
-271.355	-104.588	-0.093	-0.021
-270.340	697.926	0.033	0.085
-269.326	-135.336	-0.068	0.008
-268.311	403.297	-0.164	-0.339
-267.297	-103.864	-0.007	-0.002
-266.282	691.048	-0.015	0.038
-265.267	-27.068	0.137	-0.078
-264.253	-174.087	-0.147	-0.004
-263.238	52.054	0.193	-0.181
-262.224	88.989	-0.149	0.164
-261.209	464.418	0.047	-0.103
-260.195	-149.739	0.335	-0.026
-259.180	-200.000	0.012	0.241
-258.165	-200.000	-0.072	0.360
-257.151	800.000	-0.051	-0.190
-256.136	-86.436	0.124	0.037
-255.122	800.000	0.068	0.239
-254.107	-79.467	0.177	-0.059
-253.092	-70.355	0.273	0.102
-252.078	-200.000	0.250	0.000
-251.063	-200.000	-0.007	0.088
-250.049	-142.587	0.383	-0.037
-249.034	-144.413	-0.203	0.018
-248.019	22.307	-0.166	-0.133
-247.005	-200.000	-0.194	0.001
-245.990	-28.176	0.225	0.128
-244.976	2.423	0.207	-0.147
-243.961	-165.078	0.192	-0.008
-242.946	15.210	0.207	0.159
-241.932	-200.000	0.033	-0.259
-240.917	-200.000	0.010	0.098
-239.903	-97.527	0.198	-0.051
-238.888	800.000	-0.026	-0.082
-237.873	-114.548	-0.255	-0.048
-236.859	-200.000	-0.015	-0.124
-235.844	58.364	-0.301	-0.290
-234.830	-200.000	0.030	-0.177
-233.815	-34.331	-0.215	-0.116
-232.800	-200.000	-0.021	0.102
-231.786	-139.199	0.452	0.048
-230.771	-39.253	-0.213	0.110
-229.757	-28.348	0.081	-0.046
-228.742	-200.000	-0.032	-0.157
-227.727	436.579	-0.159	-0.341
-226.713	193.543	0.208	0.310
-225.698	800.000	0.075	-0.303
-224.684	-200.000	-0.002	0.310
-223.669	-34.794	0.303	0.163
-222.655	397.316	-0.125	0.256
-221.640	-200.000	-0.031	-0.346
-220.625	-200.000	-0.004	-0.172
-219.611	-29.846	0.076	0.043
-218.596	192.473	-0.103	-0.152
-217.582	-98.853	0.229	0.057
-216.567	273.822	-0.105	-0.182
-215.552	-27.528	0.048	-0.027
-214.538	-43.067	-0.084	0.042
-213.523	-99.867	0.301	-0.074
-212.509	116.137	0.018	0.021
-211.494	21.209	0.306	0.244
-210.479	31.137	-0.280	0.236
-209.465	-89.671	-0.302	0.087
-208.450	-42.574	0.235	-0.117
-207.436	-105.330	-0.109	0.024
-206.421	800.000	0.047	0.129
-205.406	-200.000	-0.058	0.000
-204.392	295.859	0.121	0.218
-203.377	-130.018	0.203	0.027
-202.363	-94.041	-0.045	-0.012
-201.348	61.581	0.034	-0.033
-200.333	286.016	0.142	-0.252
-199.319	-184.311	-0.290	-0.005
-198.304	-20.771	-0.210	-0.127
-197.290	800.000	0.062	0.175
-196.275	233.789	-0.114	0.184
-195.260	-200.000	0.015	-0.319
-194.246	0.715	-0.282	-0.198
-193.231	800.000	-0.103	0.368
-192.217	-29.498	0.220	0.123
-191.202	571.257	0.033	-0.078
-190.187	106.214	0.165	0.191
-189.173	24.336	0.177	0.144
-188.158	-90.629	-0.175	-0.050
-187.144	-190.760	-0.236	0.002
-186.129	-200.000	0.023	0.267
-185.114	-200.000	-0.023	-0.118
-184.100	101.515	0.126	-0.144
-183.085	138.651	-0.169	0.217
-182.071	200.884	0.137	0.206
-181.056	272.159	0.133	-0.231
-180.042	77.624	-0.020	-0.021
-179.027	-92.251	0.298	-0.083
-178.012	429.952	0.122	0.258
-176.998	-200.000	0.035	0.237
-175.983	-52.243	-0.201	-0.091
-174.969	267.029	0.134	0.230
-173.954	133.888	0.225	-0.285
-172.939	-11.308	-0.058	0.037
-171.925	800.000	-0.096	0.262
-170.910	-33.948	-0.166	0.089
-169.896	-44.788	0.195	-0.095
-168.881	800.000	-0.066	0.207
-167.866	-200.000	-0.017	0.158
-166.852	-200.000	-0.018	0.299
-165.837	-200.000	0.018	-0.531
-164.823	-176.430	-0.033	0.001
-163.808	-200.000	0.009	0.101
-162.793	-45.295	-0.190	0.093
-161.779	-200.000	0.014	-0.296
-160.764	-200.000	-0.002	-0.317
-159.750	-40.149	0.092	-0.047
-158.735	-79.133	-0.257	-0.086
-157.720	85.887	0.148	-0.159
-156.706	124.309	-0.093	-0.114
-155.691	-7.834	0.393	-0.260
-154.677	-83.795	0.212	-0.066
-153.662	111.842	-0.187	0.221
-152.647	-156.812	0.203	0.012
-151.633	-200.000	-0.028	-0.272
-150.618	125.008	-0.052	0.065
-149.604	72.184	-0.097	-0.099
-148.589	-200.000	0.014	0.182
-147.574	-200.000	0.012	-0.295
-146.560	800.000	-0.052	-0.142
-145.545	384.967	0.031	0.062
-144.531	322.595	-0.071	0.133
-143.516	-200.000	0.028	-0.259
-142.502	-171.458	0.052	-0.002
-141.487	249.783	0.246	0.408
-140.472	-106.036	-0.125	-0.028
-139.458	800.000	-0.151	0.475
-138.443	395.691	0.084	0.172
-137.429	28.631	0.298	0.247
-136.414	81.644	-0.082	0.086
-135.399	-200.000	-0.013	0.265
-134.385	-79.474	0.060	0.020
-133.370	118.882	-0.079	-0.096
-132.356	118.638	0.041	-0.050
-131.341	23.398	-0.121	-0.097
-130.326	317.691	0.117	-0.216
-129.312	-111.400	-0.223	-0.044
-128.297	632.498	-0.049	-0.121
-127.283	-20.855	-0.248	-0.149
-126.268	-154.583	0.224	-0.015
-125.253	-10.430	-0.283	-0.184
-124.239	793.714	0.041	-0.110
-123.224	800.000	0.061	-0.172
-122.210	349.155	0.099	-0.191
