DTS Sentinel unit serial number:	SN413079Multiplexer serial number:	ORYXHardware model number:	OX4-SRSoftware version number:	ORYX F/W v4.00 Oryx Data Collector v3.7.2.0data status	okinstallation	princeton_trtdifferential loss correction	single-endedforward channel	channel 1reverse channel	N/Adate	2019/09/14time	20:06:35forward acquisition time	60.00reverse acquisition time	0.00gamma	496.2192k internal	0.2314k external	0.2314temperature offset calibration	1.0028default loss term (dB/km)	0.3790temperature slope calibration	1.0000multiplexer offset coefficient	1.0000multiplexer slope coefficient	1.0000fibre end	0.00T internal ref (°C)	33.94T ext. ref 1 (°C)	4.87T ext. ref 2 (°C)	28.34length (m)	temperature (°C)	Stokes	anti-Stokes-747.200	118.329	0.093	0.116
-746.185	-117.969	-0.078	0.014
-745.171	63.037	0.181	0.184
-744.156	103.195	-0.147	0.175
-743.142	130.188	-0.246	-0.319
-742.127	-200.000	0.016	-0.146
-741.112	-0.089	-0.093	-0.067
-740.098	136.049	-0.085	0.113
-739.083	294.085	-0.137	0.253
-738.069	-200.000	0.023	0.198
-737.054	-200.000	0.003	0.083
-736.039	-200.000	-0.115	0.000
-735.025	-162.295	0.215	0.011
-734.010	44.235	0.269	0.250
-732.996	-200.000	-0.008	0.303
-731.981	-159.502	0.073	0.004
-730.966	-200.000	-0.023	-0.142
-729.952	800.000	0.064	-0.285
-728.937	-130.132	0.288	-0.040
-727.923	-200.000	0.032	-0.220
-726.908	-51.489	-0.222	-0.105
-725.894	-121.733	0.158	-0.026
-724.879	205.272	0.024	-0.037
-723.864	-70.075	-0.336	0.130
-722.850	800.000	-0.161	-0.453
-721.835	48.275	0.245	0.232
-720.821	-148.332	-0.401	-0.033
-719.806	794.715	-0.030	0.082
-718.791	-116.162	0.168	0.032
-717.777	212.579	-0.096	-0.153
-716.762	10.261	0.209	0.161
-715.748	-131.436	-0.064	-0.009
-714.733	90.376	0.105	0.119
-713.718	-111.066	0.215	-0.045
-712.704	-98.746	-0.045	0.012
-711.689	-81.005	0.308	-0.103
-710.675	489.762	-0.087	0.202
-709.660	800.000	0.099	-0.303
-708.645	-200.000	-0.055	0.363
-707.631	23.939	0.072	-0.060
-706.616	800.000	0.059	0.222
-705.602	800.000	0.076	0.289
-704.587	-200.000	0.006	0.228
-703.572	800.000	-0.082	-0.244
-702.558	201.069	-0.111	-0.173
-701.543	5.784	-0.106	0.080
-700.529	230.110	-0.072	0.118
-699.514	800.000	0.017	-0.060
-698.499	-23.867	0.070	0.042
-697.485	-66.188	0.121	-0.049
-696.470	56.626	-0.129	-0.127
-695.456	51.260	0.088	0.084
-694.441	91.675	0.333	0.379
-693.426	290.953	-0.023	0.043
-692.412	1.173	0.132	-0.096
-691.397	-200.000	0.009	0.265
-690.383	-84.862	-0.182	-0.058
-689.368	-163.042	0.187	0.009
-688.354	-136.132	-0.398	0.047
-687.339	800.000	0.076	0.234
-686.324	109.536	-0.011	-0.013
-685.310	310.539	0.057	0.107
-684.295	685.082	0.032	-0.086
-683.281	-8.878	-0.379	-0.257
-682.266	-17.096	0.221	-0.141
-681.251	-200.000	-0.006	-0.150
-680.237	165.535	-0.060	0.086
-679.222	-67.469	-0.161	-0.064
-678.208	-54.698	-0.144	0.066
-677.193	-107.816	-0.155	-0.034
-676.178	-200.000	0.039	0.326
-675.164	-200.000	0.007	0.128
-674.149	-13.294	-0.098	0.064
-673.135	788.607	-0.041	0.114
-672.120	-18.614	-0.262	-0.165
-671.105	-3.392	-0.185	-0.130
-670.091	-77.818	0.324	-0.113
-669.076	5.481	0.159	-0.119
-668.062	-103.921	-0.254	0.060
-667.047	28.177	0.142	-0.121
-666.032	-79.511	-0.518	-0.177
-665.018	44.675	-0.169	-0.157
-664.003	163.185	-0.067	0.095
-662.989	-200.000	0.011	0.245
-661.974	633.959	-0.084	0.215
-660.959	255.560	-0.108	-0.187
-659.945	-181.358	0.119	-0.002
-658.930	800.000	-0.090	-0.262
-657.916	-138.417	-0.293	0.033
-656.901	-98.306	0.234	-0.061
-655.886	-72.684	0.183	-0.068
-654.872	-95.236	-0.184	-0.050
-653.857	103.628	0.147	-0.175
-652.843	-200.000	0.006	-0.445
-651.828	-0.937	0.234	0.167
-650.814	714.330	-0.035	0.093
-649.799	-58.917	-0.205	-0.089
-648.784	-101.082	-0.252	-0.062
-647.770	-200.000	-0.043	-0.334
-646.755	-11.745	-0.194	-0.129
-645.741	-4.831	0.336	-0.234
-644.726	-47.428	-0.390	-0.191
-643.711	-60.515	-0.054	0.023
-642.697	-163.538	-0.162	-0.008
-641.682	66.068	0.106	0.109
-640.668	-24.493	0.251	0.151
-639.653	-200.000	-0.021	0.243
-638.638	-200.000	-0.039	-0.275
-637.624	800.000	0.044	0.131
-636.609	-200.000	0.019	-0.298
-635.595	447.360	0.062	0.137
-634.580	42.549	-0.145	-0.133
-633.565	445.828	-0.087	-0.194
-632.551	-124.147	-0.071	0.011
-631.536	-79.718	-0.227	0.077
-630.522	65.400	-0.266	0.272
-629.507	41.400	-0.446	0.407
-628.492	87.588	-0.159	0.178
-627.478	438.985	-0.107	-0.236
-626.463	-23.384	0.150	0.091
-625.449	-200.000	-0.020	-0.310
-624.434	800.000	-0.066	0.239
-623.419	-45.084	-0.187	0.094
-622.405	82.291	-0.051	-0.056
-621.390	-28.599	0.306	0.178
-620.376	-50.227	0.081	0.039
-619.361	-105.844	0.260	0.059
-618.346	163.603	-0.191	0.271
-617.332	-200.000	-0.042	-0.277
-616.317	800.000	0.061	-0.192
-615.303	800.000	-0.032	0.106
-614.288	-46.296	-0.315	0.156
-613.273	-200.000	-0.044	0.280
-612.259	213.433	0.054	-0.087
-611.244	-10.552	-0.191	-0.128
-610.230	117.266	-0.103	0.128
-609.215	800.000	0.076	0.289
-608.201	648.987	0.070	0.181
-607.186	800.000	-0.100	-0.406
-606.171	-170.297	0.035	-0.001
-605.157	31.595	-0.083	0.072
-604.142	102.423	0.082	0.097
-603.128	-135.905	0.317	-0.038
-602.113	-84.150	0.340	0.109
-601.098	-200.000	0.020	0.337
-600.084	-139.360	-0.270	0.029
-599.069	649.672	-0.117	0.301
-598.055	226.607	0.065	-0.107
-597.040	-156.811	-0.165	0.010
-596.025	639.027	-0.088	-0.227
-595.011	-141.577	0.085	-0.009
-593.996	-134.784	-0.131	0.016
-592.982	-140.231	-0.381	-0.040
-591.967	-56.263	-0.124	0.055
-590.952	-200.000	-0.024	-0.257
-589.938	147.935	0.152	-0.206
-588.923	-119.176	0.073	-0.013
-587.909	-92.166	0.241	-0.069
-586.894	-9.923	0.200	0.134
-585.879	-200.000	0.030	-0.162
-584.865	95.341	0.128	0.147
-583.850	48.971	-0.091	0.086
-582.836	-49.309	0.332	-0.160
-581.821	-72.058	-0.269	0.101
-580.806	-128.342	-0.453	-0.065
-579.792	800.000	-0.110	-0.442
-578.777	-180.598	0.158	0.003
-577.763	437.327	0.020	0.044
-576.748	4.300	-0.217	-0.160
-575.733	371.923	-0.032	-0.065
-574.719	8.737	0.178	-0.135
-573.704	-200.000	-0.052	0.290
-572.690	-43.479	0.100	-0.051
-571.675	800.000	0.074	0.324
-570.661	-10.756	-0.194	0.129
-569.646	-37.782	-0.162	-0.087
-568.631	-23.994	0.331	-0.199
-567.617	9.813	0.125	-0.096
-566.602	-122.895	-0.508	0.083
-565.588	-200.000	0.062	-0.336
-564.573	519.992	-0.059	-0.139
-563.558	270.607	-0.203	0.360
-562.544	382.069	-0.090	-0.186
-561.529	-83.848	-0.217	-0.070
-560.515	800.000	-0.019	-0.081
-559.500	267.881	-0.055	-0.096
-558.485	-103.027	-0.160	-0.038
-557.471	31.774	0.123	-0.106
-556.456	-88.680	0.137	0.041
-555.442	-200.000	0.041	0.242
-554.427	79.258	0.063	-0.068
-553.412	-144.195	-0.118	0.011
-552.398	760.607	-0.026	0.072
-551.383	-200.000	-0.002	-0.101
-550.369	-200.000	-0.030	0.161
-549.354	73.016	0.254	0.267
-548.339	29.903	-0.119	-0.102
-547.325	-200.000	-0.014	-0.097
-546.310	800.000	-0.051	0.151
-545.296	-61.584	0.248	-0.105
-544.281	-87.266	0.118	-0.036
-543.266	-200.000	-0.053	-0.345
-542.252	800.000	-0.046	-0.181
-541.237	239.663	-0.133	-0.222
-540.223	-83.407	-0.253	0.082
-539.208	800.000	0.075	0.269
-538.193	-47.005	-0.094	-0.046
-537.179	794.206	0.025	-0.069
-536.164	-30.362	-0.049	-0.028
-535.150	-80.744	-0.369	0.123
-534.135	-200.000	-0.033	0.160
-533.121	-81.758	-0.326	-0.107
-532.106	-15.229	0.059	0.038
-531.091	-200.000	0.006	-0.145
-530.077	-185.345	0.182	-0.003
-529.062	-200.000	-0.037	-0.192
-528.048	-89.463	-0.351	-0.104
-527.033	-60.232	0.114	0.049
-526.018	-103.843	0.179	-0.042
-525.004	-91.991	-0.065	0.018
-523.989	64.274	-0.095	0.096
-522.975	800.000	-0.100	-0.330
-521.960	-105.372	0.231	-0.053
-520.945	8.427	0.060	-0.045
-519.931	35.067	-0.109	-0.096
-518.916	-67.942	-0.136	0.053
-517.902	40.565	-0.112	-0.101
-516.887	329.120	0.107	0.206
-515.872	-24.673	-0.040	-0.024
-514.858	-170.947	0.375	0.013
-513.843	-200.000	-0.022	-0.252
-512.829	-62.518	0.178	-0.074
-511.814	-168.373	-0.307	-0.012
-510.799	-41.666	0.329	-0.170
-509.785	132.011	-0.049	0.063
-508.770	800.000	0.031	-0.095
-507.756	213.245	0.139	0.221
-506.741	800.000	0.061	-0.173
-505.726	61.987	-0.231	-0.231
-504.712	800.000	-0.050	-0.188
-503.697	800.000	0.059	-0.214
-502.683	-200.000	-0.012	0.166
-501.668	-200.000	-0.029	-0.423
-500.653	800.000	-0.056	-0.203
-499.639	-200.000	-0.020	0.152
-498.624	279.530	-0.055	0.099
-497.610	-139.482	0.155	-0.017
-496.595	800.000	-0.036	0.111
-495.581	28.281	0.090	0.077
-494.566	109.305	0.117	0.140
-493.551	-121.615	-0.304	-0.051
-492.537	12.920	-0.292	0.227
-491.522	6.265	-0.328	0.244
-490.508	-28.513	0.133	0.077
-489.493	-41.667	-0.166	-0.085
-488.478	-103.626	0.264	0.062
-487.464	-117.858	-0.184	-0.033
-486.449	-92.742	0.082	-0.023
-485.435	397.080	-0.045	0.093
-484.420	-24.141	-0.126	-0.076
-483.405	-31.126	-0.228	0.129
-482.391	-200.000	0.020	0.201
-481.376	-200.000	0.058	0.394
-480.362	-176.051	0.071	0.002
-479.347	307.498	-0.227	0.425
-478.332	118.374	0.176	0.218
-477.318	12.404	0.349	0.270
-476.303	-200.000	0.011	0.085
-475.289	-74.704	-0.312	-0.112
-474.274	205.605	-0.119	0.186
-473.259	800.000	0.038	-0.107
-472.245	116.038	0.156	0.192
-471.230	72.262	-0.195	0.203
-470.216	333.620	0.041	0.079
-469.201	33.565	-0.057	0.050
-468.186	233.456	-0.099	-0.163
-467.172	-200.000	-0.078	-0.520
-466.157	155.033	-0.077	0.107
-465.143	-152.344	-0.111	0.008
-464.128	-128.890	0.072	0.010
-463.113	610.021	0.085	-0.212
-462.099	-143.226	-0.414	0.040
-461.084	-90.563	0.191	-0.056
-460.070	-8.254	0.208	-0.140
-459.055	464.722	0.155	0.348
-458.040	427.837	-0.047	0.101
-457.026	11.108	-0.098	-0.075
-456.011	264.213	-0.127	-0.221
-454.997	54.825	-0.070	-0.068
-453.982	-127.446	0.180	0.026
-452.968	-134.172	0.385	-0.048
-451.953	-200.000	-0.042	-0.436
-450.938	-12.926	-0.037	-0.024
-449.924	-200.000	0.028	-0.243
-448.909	39.371	-0.203	-0.182
-447.895	-200.000	0.080	-0.427
-446.880	-21.821	0.418	-0.255
-445.865	-80.488	0.067	-0.022
-444.851	-3.487	-0.132	-0.092
-443.836	-36.647	0.337	0.182
-442.822	-19.284	-0.197	-0.123
-441.807	-148.040	0.174	-0.014
-440.792	-86.044	0.084	0.026
-439.778	800.000	0.052	-0.151
-438.763	-163.271	0.124	-0.006
-437.749	-93.015	0.199	0.055
-436.734	-28.091	0.186	0.108
-435.719	643.038	-0.046	-0.118
-434.705	39.130	0.055	0.049
-433.690	800.000	0.031	-0.091
-432.676	-19.530	-0.139	-0.086
-431.661	513.031	-0.029	0.067
-430.646	-8.209	-0.099	0.067
-429.632	-117.367	-0.310	0.056
-428.617	-91.022	0.280	-0.081
-427.603	800.000	0.067	0.200
-426.588	-7.026	-0.050	0.034
-425.573	-31.090	-0.079	-0.045
-424.559	800.000	0.049	0.207
-423.544	-55.278	0.185	-0.083
-422.530	-200.000	0.016	-0.328
-421.515	-21.114	-0.256	-0.156
-420.500	-11.962	0.238	0.156
-419.486	-200.000	0.000	0.255
-418.471	83.477	-0.132	0.144
-417.457	-61.414	0.126	0.053
-416.442	-200.000	-0.035	-0.171
-415.428	-95.839	-0.256	-0.068
-414.413	-86.630	-0.219	0.067
-413.398	106.341	0.206	0.244
-412.384	-45.245	0.375	0.186
-411.369	779.771	-0.090	-0.246
-410.355	0.462	-0.215	-0.153
-409.340	-200.000	0.004	-0.196
-408.325	-200.000	0.003	-0.143
-407.311	-200.000	0.008	0.100
-406.296	-98.387	0.074	0.019
-405.282	114.903	-0.116	0.141
-404.267	14.052	0.158	-0.123
-403.252	-117.667	-0.023	-0.004
-402.238	-29.020	0.216	0.124
-401.223	-200.000	0.002	0.195
-400.209	-88.760	0.189	-0.056
-399.194	-168.377	-0.172	0.007
-398.179	800.000	-0.118	-0.391
-397.165	-67.156	-0.059	-0.023
-396.150	-101.747	-0.084	-0.020
-395.136	138.896	0.210	-0.275
-394.121	-200.000	-0.055	-0.345
-393.106	224.625	0.024	0.039
-392.092	101.343	0.073	0.085
-391.077	-0.505	0.326	0.231
-390.063	-189.675	0.285	0.003
-389.048	-148.430	-0.282	0.023
-388.033	407.611	0.098	-0.208
-387.019	53.318	0.040	0.039
-386.004	363.634	-0.197	0.396
-384.990	-200.000	0.008	0.164
-383.975	57.341	-0.033	-0.032
-382.960	-75.580	-0.166	0.059
-381.946	24.795	0.064	0.053
-380.931	189.380	-0.226	-0.338
-379.917	-117.258	0.092	0.017
-378.902	800.000	0.026	-0.080
-377.888	427.856	0.096	0.208
-376.873	-166.513	-0.347	0.014
-375.858	82.159	-0.108	0.117
-374.844	-37.444	0.140	-0.075
-373.829	-27.729	-0.097	-0.056
-372.815	-53.823	0.214	0.097
-371.800	-66.605	0.260	0.103
-370.785	-96.489	0.092	-0.024
-369.771	-56.820	-0.237	0.104
-368.756	103.080	0.154	0.180
-367.742	-133.370	0.375	-0.047
-366.727	70.128	0.230	-0.237
-365.712	-162.088	0.086	-0.004
-364.698	-176.496	0.221	-0.006
-363.683	451.531	-0.076	0.167
-362.669	315.935	0.165	0.311
-361.654	10.703	-0.163	0.125
-360.639	-64.807	0.534	0.216
-359.625	640.820	-0.095	-0.241
-358.610	182.875	-0.203	-0.299
-357.596	70.531	0.143	-0.148
-356.581	-200.000	0.019	0.254
-355.566	-2.717	0.086	-0.060
-354.552	800.000	0.097	0.385
-353.537	-26.511	-0.137	-0.080
-352.523	-200.000	0.000	-0.031
-351.508	175.290	-0.294	0.425
-350.493	-0.934	-0.028	-0.019
-349.479	293.847	0.127	0.231
-348.464	800.000	0.100	0.358
-347.450	389.476	0.111	0.230
-346.435	12.124	-0.099	0.076
-345.420	421.337	-0.058	0.125
-344.406	800.000	0.026	0.084
-343.391	200.058	0.153	0.235
-342.377	658.064	-0.065	0.166
-341.362	-89.972	0.108	-0.031
-340.348	-126.760	-0.095	0.014
-339.333	-47.120	-0.280	0.136
-338.318	-71.951	-0.152	-0.056
-337.304	502.667	0.108	0.248
-336.289	-26.202	-0.046	0.027
-335.275	-200.000	-0.025	0.442
-334.260	0.773	-0.243	-0.173
-333.245	140.216	0.082	0.108
-332.231	194.516	0.104	-0.157
-331.216	-200.000	-0.011	0.257
-330.202	-70.301	-0.022	-0.008
-329.187	800.000	-0.009	-0.035
-328.172	-139.761	0.150	-0.016
-327.158	-200.000	0.042	-0.284
-326.143	-41.593	-0.099	-0.051
-325.129	-87.619	0.178	-0.054
-324.114	-139.924	0.047	0.005
-323.099	-200.000	-0.005	0.035
-322.085	47.913	-0.184	0.172
-321.070	107.817	0.113	0.134
-320.056	-105.330	0.087	0.020
-319.041	-127.088	-0.297	-0.043
-318.026	800.000	0.061	0.174
-317.012	140.853	0.116	-0.152
-315.997	-76.744	0.344	-0.120
-314.983	800.000	-0.127	0.356
-313.968	800.000	-0.021	0.061
-312.953	124.866	0.135	0.170
-311.939	-87.953	0.106	0.032
-310.924	777.897	0.094	0.255
-309.910	446.590	-0.039	-0.086
-308.895	678.719	0.013	-0.034
-307.880	30.981	-0.216	-0.185
-306.866	-114.969	-0.117	0.022
-305.851	-150.813	0.223	0.017
-304.837	-81.939	0.089	0.029
-303.822	71.948	0.038	-0.039
-302.807	-200.000	-0.005	-0.169
-301.793	800.000	0.038	-0.118
-300.778	-57.527	0.139	0.061
-299.764	-80.426	-0.105	-0.035
-298.749	165.272	0.133	-0.188
-297.735	-90.019	0.263	-0.076
-296.720	-53.474	0.324	0.148
-295.705	722.113	-0.082	-0.217
-294.691	371.232	0.072	-0.145
-293.676	-64.259	0.066	-0.027
-292.662	-67.850	-0.120	0.047
-291.647	-200.000	0.057	0.373
-290.632	320.100	0.104	-0.197
-289.618	514.144	0.071	0.164
-288.603	-43.407	0.126	0.064
-287.589	117.285	0.204	-0.250
-286.574	85.811	-0.143	-0.157
-285.559	197.642	0.116	0.177
-284.545	-20.494	-0.251	-0.154
-283.530	-178.083	-0.142	0.003
-282.516	-42.991	-0.008	-0.004
-281.501	402.176	0.125	0.262
-280.486	717.720	-0.082	-0.216
-279.472	-80.454	-0.349	-0.116
-278.457	68.797	0.214	-0.218
-277.443	800.000	0.051	-0.178
-276.428	618.409	-0.034	-0.085
-275.413	-200.000	-0.021	0.259
-274.399	529.926	0.077	-0.182
-273.384	-26.878	-0.258	-0.150
-272.370	-124.327	0.315	-0.049
-271.355	660.470	-0.038	-0.098
-270.340	-200.000	0.040	-0.202
-269.326	-179.553	-0.264	0.006
-268.311	442.376	-0.017	0.036
-267.297	313.059	0.050	-0.093
-266.282	-31.738	-0.109	0.061
-265.267	-71.084	-0.181	-0.068
-264.253	-200.000	0.022	0.110
-263.238	-71.345	-0.350	-0.131
-262.224	-41.510	-0.194	-0.099
-261.209	800.000	0.074	-0.208
-260.195	-200.000	0.021	0.111
-259.180	-83.510	0.274	0.087
-258.165	-39.039	0.256	-0.134
-257.151	-200.000	0.036	-0.468
-256.136	-89.714	0.248	-0.072
-255.122	22.911	-0.164	0.134
-254.107	108.176	-0.107	-0.126
-253.092	-46.456	0.364	-0.178
-252.078	-109.308	0.202	-0.043
-251.063	282.495	0.092	-0.164
-250.049	-200.000	-0.028	0.188
-249.034	-38.002	-0.068	-0.036
-248.019	161.358	-0.058	0.081
-247.005	356.343	-0.024	0.048
-245.990	-160.906	0.162	0.008
-244.976	-30.546	-0.019	0.011
-243.961	-138.577	0.181	-0.020
-242.946	-200.000	-0.051	-0.229
-241.932	-76.070	0.118	0.041
-240.917	207.812	-0.165	0.256
-239.903	-42.856	0.083	0.042
-238.888	-200.000	0.019	-0.316
-237.873	127.390	0.146	-0.184
-236.859	-31.937	0.224	-0.125
-235.844	-113.810	-0.338	0.065
-234.830	-104.743	0.396	0.090
-233.815	-200.000	-0.014	-0.181
-232.800	-83.650	-0.071	-0.022
-231.786	421.677	-0.071	-0.152
-230.771	-17.935	0.072	-0.045
-229.757	-47.585	0.124	0.060
-228.742	-124.697	-0.090	-0.014
-227.727	-200.000	0.017	-0.112
-226.713	147.260	-0.152	0.204
-225.698	139.997	-0.178	-0.233
-224.684	-13.217	0.270	-0.174
-223.669	361.436	-0.147	-0.292
-222.655	-83.656	-0.163	0.052
-221.640	654.567	0.029	-0.074
-220.625	-52.070	-0.254	-0.117
-219.611	106.619	-0.157	0.185
-218.596	-18.518	0.122	-0.076
-217.582	-64.331	-0.358	0.145
-216.567	-125.629	0.719	0.108
-215.552	-200.000	0.008	-0.163
-214.538	-140.107	0.247	0.026
-213.523	433.996	0.122	-0.264
-212.509	-99.997	0.185	0.046
-211.494	36.703	-0.203	0.178
-210.479	-126.058	-0.268	0.040
-209.465	800.000	0.050	-0.141
-208.450	76.949	0.273	0.288
-207.436	-15.152	0.167	-0.106
-206.421	800.000	0.136	0.396
-205.406	-57.100	0.293	-0.128
-204.392	59.946	-0.327	0.320
-203.377	-61.373	0.181	-0.075
-202.363	-25.453	0.101	0.059
-201.348	382.972	0.065	0.132
-200.333	-120.386	-0.160	-0.027
-199.319	800.000	-0.083	0.306
-198.304	-68.962	-0.143	0.055
-197.290	468.503	0.119	0.265
-196.275	-14.194	0.278	0.178
-195.260	123.795	0.204	0.254
-194.246	800.000	-0.048	0.145
-193.231	24.820	-0.260	-0.214
-192.217	-126.923	0.206	-0.030
-191.202	117.540	-0.037	-0.045
-190.187	-200.000	0.031	-0.308
-189.173	28.017	0.441	0.369
-188.158	-167.135	-0.167	-0.007
-187.144	46.225	-0.144	0.132
-186.129	68.173	0.140	0.142
-185.114	785.417	-0.064	0.173
-184.100	-122.491	-0.111	0.018
-183.085	-79.734	-0.185	0.062
-182.071	-21.940	-0.298	-0.180
-181.056	261.623	-0.029	0.050
-180.042	-56.549	-0.176	-0.077
-179.027	231.710	-0.128	-0.209
-178.012	-19.473	-0.245	-0.151
-176.998	484.447	0.087	0.196
-175.983	219.397	-0.218	0.346
-174.969	-49.003	-0.353	-0.168
-173.954	800.000	0.035	0.125
-172.939	84.660	0.083	-0.090
-171.925	-0.709	-0.236	-0.166
-170.910	15.631	0.211	0.164
-169.896	-200.000	0.020	-0.147
-168.881	122.835	0.167	-0.207
-167.866	263.839	0.041	0.070
-166.852	-23.743	-0.341	-0.203
-165.837	-132.700	-0.161	0.020
-164.823	179.257	-0.126	0.183
-163.808	-107.290	0.226	-0.049
-162.793	-26.384	0.456	0.265
-161.779	418.988	0.159	0.338
-160.764	3.034	-0.108	0.078
-159.750	167.913	-0.065	-0.092
-158.735	24.858	0.306	0.251
-157.720	18.136	0.242	-0.191
-156.706	246.450	-0.066	-0.110
-155.691	213.035	-0.069	0.108
-154.677	-76.298	-0.071	-0.025
-153.662	104.058	0.233	0.272
-152.647	-200.000	-0.042	-0.234
-151.633	-103.698	-0.293	-0.068
-150.618	-13.762	0.238	0.152
-149.604	-200.000	0.026	0.252
-148.589	220.876	0.054	-0.085
-147.574	-134.952	-0.236	0.028
-146.560	-124.839	0.200	-0.031
-145.545	-179.736	-0.252	-0.005
-144.531	-156.037	0.078	0.005
-143.516	-65.803	0.119	0.047
-142.502	46.185	0.103	0.095
-141.487	-200.000	0.037	0.377
-140.472	-200.000	-0.042	-0.222
-139.458	-200.000	0.028	-0.211
-138.443	148.838	-0.083	-0.111
-137.429	-135.000	-0.080	0.010
-136.414	-200.000	-0.027	-0.329
-135.399	-200.000	0.126	0.000
-134.385	-32.182	-0.286	0.158
-133.370	-200.000	0.064	0.349
-132.356	-200.000	0.056	-0.266
-131.341	152.373	0.049	0.067
-130.326	183.514	-0.202	0.295
-129.312	-200.000	-0.019	0.295
-128.297	714.903	0.108	0.283
-127.283	-97.842	0.432	0.111
-126.268	214.153	0.054	0.085
-125.253	171.109	-0.175	0.248
-124.239	-111.862	-0.131	0.026
-123.224	-3.374	0.294	0.202
-122.210	168.572	-0.224	0.316
-121.195	800.000	0.092	-0.295
