DTS Sentinel unit serial number:	SN413079Multiplexer serial number:	ORYXHardware model number:	OX4-SRSoftware version number:	ORYX F/W v4.00 Oryx Data Collector v3.7.2.0data status	okinstallation	princeton_trtdifferential loss correction	single-endedforward channel	channel 1reverse channel	N/Adate	2019/09/14time	18:34:35forward acquisition time	60.00reverse acquisition time	0.00gamma	496.2192k internal	0.2303k external	0.2303temperature offset calibration	1.0037default loss term (dB/km)	0.3790temperature slope calibration	1.0000multiplexer offset coefficient	1.0000multiplexer slope coefficient	1.0000fibre end	0.00T internal ref (°C)	36.47T ext. ref 1 (°C)	4.91T ext. ref 2 (°C)	30.22length (m)	temperature (°C)	Stokes	anti-Stokes-747.200	193.128	0.085	0.131
-746.185	79.448	-0.079	0.086
-745.171	-87.245	0.093	0.029
-744.156	71.980	-0.279	0.295
-743.142	-200.000	-0.007	0.265
-742.127	266.781	0.195	-0.348
-741.112	-170.576	-0.308	-0.011
-740.098	36.156	-0.238	0.214
-739.083	800.000	-0.062	0.204
-738.069	-151.821	-0.360	-0.027
-737.054	45.720	0.253	-0.238
-736.039	-25.941	-0.233	-0.140
-735.025	-120.869	0.441	-0.076
-734.010	81.042	-0.063	0.069
-732.996	196.809	-0.059	-0.092
-731.981	-44.222	-0.129	0.066
-730.966	484.752	-0.103	-0.238
-729.952	190.477	-0.036	-0.055
-728.937	46.909	-0.328	-0.310
-727.923	-32.521	-0.314	0.178
-726.908	-95.378	-0.328	-0.090
-725.894	-200.000	-0.012	-0.299
-724.879	-8.240	0.183	-0.125
-723.864	-70.462	0.096	-0.037
-722.850	-24.792	-0.210	0.127
-721.835	235.371	-0.127	-0.214
-720.821	102.972	0.007	0.009
-719.806	-150.970	-0.318	0.024
-718.791	38.944	-0.202	-0.184
-717.777	230.006	-0.159	0.264
-716.762	-200.000	0.044	0.264
-715.748	108.880	-0.053	-0.065
-714.733	-128.922	-0.275	-0.039
-713.718	326.960	0.123	0.240
-712.704	-200.000	-0.007	0.192
-711.689	172.587	-0.089	0.130
-710.675	-7.915	-0.160	0.110
-709.660	-45.601	-0.181	-0.091
-708.645	-79.317	0.100	-0.034
-707.631	36.673	-0.159	0.143
-706.616	800.000	-0.074	-0.317
-705.602	40.921	-0.216	-0.198
-704.587	9.875	-0.171	0.132
-703.572	-46.447	-0.069	0.034
-702.558	-43.673	-0.092	0.047
-701.543	-118.818	0.098	0.018
-700.529	-15.227	-0.057	0.037
-699.514	-77.155	0.368	-0.130
-698.499	120.010	-0.082	-0.104
-697.485	-120.867	-0.189	0.032
-696.470	348.550	0.132	-0.264
-695.456	-200.000	-0.072	0.401
-694.441	-132.583	0.111	-0.014
-693.426	-96.627	0.287	-0.077
-692.412	-126.174	-0.141	0.022
-691.397	-101.811	-0.130	-0.032
-690.383	-128.563	-0.119	-0.017
-689.368	-19.536	0.342	0.215
-688.354	13.236	-0.157	-0.124
-687.339	800.000	0.040	0.159
-686.324	-200.000	0.013	0.082
-685.310	60.664	-0.267	-0.269
-684.295	400.546	0.092	0.195
-683.281	-124.976	-0.225	-0.035
-682.266	178.022	0.069	0.102
-681.251	-146.137	0.188	0.017
-680.237	-62.959	0.109	0.046
-679.222	219.686	-0.061	-0.099
-678.208	6.696	-0.170	0.128
-677.193	800.000	0.095	-0.284
-676.178	-46.205	-0.221	0.111
-675.164	68.876	0.173	0.180
-674.149	-45.109	-0.300	-0.152
-673.135	-116.614	0.137	-0.026
-672.120	-82.040	0.339	0.112
-671.105	-200.000	0.005	-0.252
-670.091	-57.086	0.048	-0.021
-669.076	-191.073	-0.200	0.002
-668.062	81.038	-0.054	0.059
-667.047	-193.056	0.455	-0.004
-666.032	-142.766	-0.143	-0.014
-665.018	-75.361	0.060	0.022
-664.003	-89.898	0.241	-0.072
-662.989	-150.043	-0.203	-0.016
-661.974	138.639	0.115	-0.153
-660.959	57.694	0.137	0.136
-659.945	-103.877	0.140	0.033
-658.930	1.633	0.259	-0.189
-657.916	399.651	0.080	-0.170
-656.901	91.325	-0.111	-0.127
-655.886	19.178	-0.182	-0.148
-654.872	266.493	0.148	0.262
-653.857	-61.479	0.084	-0.036
-652.843	-52.858	0.193	0.090
-651.828	98.260	0.278	-0.325
-650.814	-200.000	0.026	0.146
-649.799	-45.081	0.082	-0.041
-648.784	655.684	0.078	-0.204
-647.770	800.000	-0.064	-0.228
-646.755	800.000	0.106	0.314
-645.741	-200.000	-0.021	-0.159
-644.726	17.775	0.123	0.100
-643.711	22.729	0.028	-0.023
-642.697	358.174	-0.096	-0.195
-641.682	800.000	0.074	-0.262
-640.668	-200.000	-0.008	-0.139
-639.653	659.256	-0.079	0.207
-638.638	-200.000	0.001	0.215
-637.624	-2.173	-0.257	0.183
-636.609	-200.000	-0.009	0.077
-635.595	800.000	-0.180	-0.512
-634.580	-73.590	-0.362	-0.134
-633.565	-200.000	0.004	0.109
-632.551	800.000	-0.116	-0.410
-631.536	352.573	-0.096	-0.193
-630.522	-97.581	-0.243	-0.064
-629.507	-70.835	-0.430	0.164
-628.492	60.878	0.074	-0.075
-627.478	-43.122	0.228	-0.117
-626.463	580.353	-0.092	-0.229
-625.449	-200.000	0.045	-0.240
-624.434	-200.000	0.005	-0.193
-623.419	-6.444	0.349	-0.241
-622.405	-186.899	-0.319	0.004
-621.390	394.537	0.128	0.271
-620.376	-123.311	0.040	0.006
-619.361	94.333	0.047	0.054
-618.346	-159.901	-0.393	-0.022
-617.332	-200.000	-0.048	0.296
-616.317	-200.000	0.043	-0.460
-615.303	-58.392	0.192	-0.085
-614.288	-200.000	0.028	-0.134
-613.273	800.000	0.098	0.423
-612.259	-200.000	0.063	-0.349
-611.244	59.207	0.187	-0.186
-610.230	-200.000	-0.004	-0.107
-609.215	-200.000	-0.000	-0.063
-608.201	-84.140	0.211	-0.068
-607.186	29.288	0.263	0.226
-606.171	678.586	0.082	-0.217
-605.157	-56.884	-0.116	-0.052
-604.142	-10.116	-0.218	0.147
-603.128	122.861	-0.368	0.466
-602.113	182.705	-0.105	0.157
-601.098	-164.214	-0.394	0.018
-600.084	-162.976	-0.140	0.007
-599.069	-167.984	0.166	-0.007
-598.055	-59.128	0.389	-0.170
-597.040	-138.202	0.337	0.038
-596.025	-27.908	0.064	-0.038
-595.011	-200.000	0.020	-0.259
-593.996	-200.000	0.012	-0.212
-592.982	27.533	0.146	-0.125
-591.967	-40.950	0.195	-0.102
-590.952	-45.894	-0.333	-0.167
-589.938	-99.445	0.237	-0.060
-588.923	-183.269	0.040	0.001
-587.909	800.000	0.087	0.282
-586.894	-41.902	-0.200	-0.104
-585.879	-108.302	0.222	-0.049
-584.865	-137.264	-0.286	0.033
-583.850	120.939	0.015	-0.019
-582.836	-94.533	0.485	-0.134
-581.821	-102.882	0.341	-0.082
-580.806	133.184	0.008	-0.011
-579.792	60.702	0.091	-0.091
-578.777	-8.886	-0.059	0.040
-577.763	11.556	-0.100	-0.077
-576.748	-98.413	-0.311	0.080
-575.733	95.019	-0.230	-0.265
-574.719	-200.000	0.068	-0.557
-573.704	-36.224	-0.164	-0.090
-572.690	-200.000	-0.001	-0.083
-571.675	344.472	-0.014	-0.028
-570.661	10.630	-0.196	0.151
-569.646	-200.000	-0.019	-0.091
-568.631	-200.000	-0.049	0.219
-567.617	313.604	0.131	0.248
-566.602	-200.000	-0.065	0.360
-565.588	-119.056	-0.123	-0.022
-564.573	-105.553	-0.191	-0.044
-563.558	531.447	-0.161	-0.384
-562.544	298.280	-0.144	0.267
-561.529	-146.712	-0.113	-0.010
-560.515	-150.766	-0.040	0.003
-559.500	26.260	0.058	0.049
-558.485	-162.926	0.288	-0.014
-557.471	199.139	-0.181	-0.280
-556.456	175.992	0.021	-0.031
-555.442	539.001	0.112	-0.270
-554.427	-96.803	-0.290	-0.077
-553.412	106.796	-0.239	-0.287
-552.398	-200.000	0.053	-0.266
-551.383	339.092	-0.078	0.154
-550.369	-176.913	0.124	-0.003
-549.354	-200.000	-0.022	0.165
-548.339	104.546	0.141	0.168
-547.325	-25.375	0.197	-0.117
-546.310	-200.000	-0.017	0.188
-545.296	-200.000	0.021	0.257
-544.281	34.043	0.256	-0.225
-543.266	-200.000	-0.007	0.087
-542.252	-81.864	-0.109	0.036
-541.237	-200.000	-0.017	-0.169
-540.223	-134.154	-0.249	-0.031
-539.208	-200.000	-0.016	-0.177
-538.193	454.847	-0.041	0.091
-537.179	-129.407	-0.184	0.026
-536.164	139.578	0.201	-0.267
-535.150	-200.000	-0.026	0.128
-534.135	-45.290	-0.133	0.067
-533.121	-200.000	-0.005	-0.030
-532.106	24.155	-0.245	0.205
-531.091	-22.779	0.192	-0.117
-530.077	-200.000	-0.003	-0.117
-529.062	6.088	-0.081	-0.061
-528.048	-66.206	0.518	-0.208
-527.033	-45.405	-0.119	0.060
-526.018	-200.000	-0.030	-0.171
-525.004	-63.033	0.271	0.113
-523.989	112.319	0.170	-0.207
-522.975	-200.000	-0.062	-0.319
-521.960	-173.792	-0.222	0.007
-520.945	207.027	0.209	-0.330
-519.931	-102.406	0.296	0.072
-518.916	-54.490	-0.304	0.139
-517.902	-200.000	-0.004	0.066
-516.887	21.132	0.236	0.193
-515.872	-172.975	-0.339	-0.011
-514.858	-182.134	-0.100	-0.002
-513.843	-144.320	0.176	-0.017
-512.829	1.421	0.212	0.154
-511.814	-132.769	0.366	0.047
-510.799	-159.287	0.231	0.013
-509.785	51.153	0.182	-0.174
-508.770	-200.000	0.021	0.249
-507.756	-88.782	-0.302	-0.091
-506.741	800.000	0.025	-0.075
-505.726	75.501	0.089	-0.095
-504.712	14.165	-0.147	0.115
-503.697	-98.079	-0.195	-0.051
-502.683	-94.426	0.299	-0.082
-501.668	-200.000	0.003	0.048
-500.653	-39.756	-0.080	0.042
-499.639	16.890	-0.169	-0.135
-498.624	-130.331	-0.099	0.014
-497.610	132.468	-0.201	-0.262
-496.595	363.755	0.032	-0.064
-495.581	-82.556	0.264	0.086
-494.566	573.542	0.077	0.190
-493.551	-57.709	0.140	-0.062
-492.537	33.678	0.125	0.110
-491.522	-45.290	-0.079	0.039
-490.508	-147.302	-0.382	0.033
-489.493	5.231	-0.201	-0.149
-488.478	800.000	0.081	0.311
-487.464	678.706	0.069	0.180
-486.449	-200.000	0.014	-0.172
-485.435	800.000	0.044	0.156
-484.420	-158.781	0.103	-0.006
-483.405	-137.609	-0.032	-0.004
-482.391	800.000	0.045	-0.136
-481.376	98.372	0.083	0.097
-480.362	800.000	0.059	0.194
-479.347	402.607	-0.045	-0.094
-478.332	-133.930	-0.043	-0.005
-477.318	-91.187	-0.109	-0.032
-476.303	-72.357	-0.151	0.056
-475.289	-171.063	0.227	-0.008
-474.274	54.655	0.154	-0.150
-473.259	-10.031	-0.021	-0.014
-472.245	319.849	-0.100	0.192
-471.230	148.918	-0.161	0.219
-470.216	40.580	-0.136	-0.124
-469.201	228.563	0.086	-0.141
-468.186	-122.403	0.066	0.011
-467.172	-200.000	-0.009	-0.259
-466.157	-200.000	0.000	0.139
-465.143	182.873	-0.147	-0.218
-464.128	145.440	0.057	0.077
-463.113	119.441	-0.179	-0.223
-462.099	-200.000	-0.003	-0.058
-461.084	250.354	0.078	-0.134
-460.070	-98.025	0.405	-0.105
-459.055	-200.000	-0.033	-0.199
-458.040	-76.500	0.189	-0.067
-457.026	312.937	-0.085	0.162
-456.011	-190.612	-0.313	-0.003
-454.997	125.969	0.162	0.206
-453.982	149.110	0.026	0.035
-452.968	-130.552	-0.104	0.014
-451.953	134.482	0.283	-0.369
-450.938	100.640	0.020	0.023
-449.924	-127.026	-0.172	-0.025
-448.909	-195.448	0.174	0.001
-447.895	-124.467	0.330	-0.052
-446.880	800.000	-0.068	0.266
-445.865	29.583	0.058	0.049
-444.851	-72.338	-0.293	-0.109
-443.836	51.186	-0.222	0.212
-442.822	64.200	0.106	0.108
-441.807	-200.000	-0.022	0.185
-440.792	-99.232	-0.184	-0.047
-439.778	-98.615	0.200	0.051
-438.763	-175.969	0.241	-0.006
-437.749	-26.141	-0.215	0.127
-436.734	800.000	-0.076	0.282
-435.719	-132.815	-0.353	0.045
-434.705	-200.000	-0.040	0.184
-433.690	476.564	-0.178	-0.406
-432.676	-76.368	0.137	-0.048
-431.661	-113.686	0.167	0.033
-430.646	10.376	-0.179	-0.137
-429.632	-105.659	0.524	-0.119
-428.617	-158.582	-0.127	0.007
-427.603	-82.003	0.078	0.026
-426.588	164.777	-0.397	-0.563
-425.573	274.151	-0.037	-0.067
-424.559	85.322	-0.113	-0.125
-423.544	-115.844	-0.357	0.067
-422.530	227.463	0.109	0.178
-421.515	-77.326	-0.110	-0.038
-420.500	59.834	0.096	0.095
-419.486	-85.735	0.041	-0.013
-418.471	153.451	0.148	0.203
-417.457	-75.843	0.124	-0.044
-416.442	800.000	-0.059	-0.228
-415.428	118.693	0.047	-0.059
-414.413	81.801	0.091	0.099
-413.398	426.914	0.111	0.240
-412.384	-82.825	-0.152	-0.049
-411.369	-80.873	0.162	0.054
-410.355	668.585	0.061	-0.159
-409.340	-118.945	-0.346	-0.061
-408.325	413.693	-0.021	-0.045
-407.311	-200.000	-0.009	-0.081
-406.296	123.946	-0.034	-0.043
-405.282	104.961	-0.232	-0.275
-404.267	1.976	0.072	0.052
-403.252	176.740	0.161	0.235
-402.238	-187.903	0.133	0.002
-401.223	-6.858	-0.256	0.175
-400.209	209.972	0.165	0.259
-399.194	167.406	-0.296	0.423
-398.179	800.000	-0.108	-0.413
-397.165	98.233	-0.104	-0.120
-396.150	-186.159	0.104	-0.002
-395.136	-200.000	0.026	-0.429
-394.121	387.708	-0.109	0.227
-393.106	-77.330	-0.064	0.022
-392.092	241.931	0.081	-0.136
-391.077	-148.837	-0.126	-0.010
-390.063	10.431	0.188	0.144
-389.048	-108.301	-0.244	-0.053
-388.033	37.235	-0.088	-0.078
-387.019	-200.000	0.006	-0.247
-386.004	491.305	0.147	-0.337
-384.990	-74.909	-0.137	-0.049
-383.975	-200.000	0.054	0.380
-382.960	138.566	0.201	-0.264
-381.946	-200.000	0.016	-0.293
-380.931	134.054	0.226	-0.294
-379.917	-72.764	-0.472	0.174
-378.902	81.547	0.054	0.059
-377.888	31.128	-0.206	-0.178
-376.873	-78.391	-0.166	0.057
-375.858	17.425	-0.205	0.163
-374.844	800.000	0.050	0.214
-373.829	80.143	0.216	-0.233
-372.815	24.874	0.302	0.251
-371.800	-40.380	-0.102	-0.053
-370.785	-177.223	-0.347	0.009
-369.771	291.582	-0.069	-0.126
-368.756	114.363	-0.061	0.074
-367.742	59.473	-0.187	-0.185
-366.727	-200.000	0.017	0.252
-365.712	-200.000	-0.004	-0.185
-364.698	138.995	0.073	0.097
-363.683	-60.998	0.124	0.053
-362.669	800.000	0.072	0.237
-361.654	-200.000	-0.023	-0.444
-360.639	50.293	0.022	0.021
-359.625	311.334	-0.046	0.086
-358.610	-2.879	0.251	0.176
-357.596	63.239	0.106	-0.107
-356.581	-65.900	-0.160	-0.064
-355.566	-146.559	0.232	-0.020
-354.552	-112.015	-0.251	-0.051
-353.537	-83.787	-0.235	-0.075
-352.523	148.887	0.050	0.067
-351.508	-15.192	0.206	-0.132
-350.493	-56.633	-0.109	-0.048
-349.479	33.100	0.130	0.113
-348.464	291.511	0.033	-0.060
-347.450	221.702	-0.056	0.090
-346.435	-71.058	0.243	0.092
-345.420	-200.000	0.012	-0.133
-344.406	-200.000	-0.183	-0.001
-343.391	-69.574	-0.133	0.051
-342.377	-113.515	0.133	0.026
-341.362	-200.000	-0.066	0.334
-340.348	-175.284	-0.193	-0.005
-339.333	-200.000	0.003	-0.128
-338.318	594.080	-0.123	0.305
-337.304	800.000	0.026	0.099
-336.289	623.805	-0.057	-0.145
-335.275	145.274	-0.079	0.106
-334.260	122.830	0.073	-0.091
-333.245	-173.488	0.124	-0.004
-332.231	-141.043	0.140	-0.014
-331.216	-70.683	-0.199	-0.075
-330.202	-49.679	-0.311	0.148
-329.187	700.471	0.069	0.181
-328.172	-130.671	0.164	-0.022
-327.158	-67.268	0.218	0.086
-326.143	-26.140	0.115	-0.068
-325.129	65.077	0.168	-0.170
-324.114	-74.825	-0.159	0.057
-323.099	173.273	0.126	0.183
-322.085	17.327	0.100	-0.080
-321.070	11.968	-0.345	0.266
-320.056	239.831	0.140	0.233
-319.041	-200.000	0.037	-0.168
-318.026	-200.000	0.063	0.370
-317.012	112.951	0.051	0.062
-315.997	800.000	0.009	-0.032
-314.983	40.157	-0.075	0.067
-313.968	800.000	-0.093	-0.407
-312.953	-48.319	-0.053	-0.025
-311.939	-200.000	-0.026	0.288
-310.924	-68.505	0.145	0.056
-309.910	134.855	0.185	0.240
-308.895	599.353	0.109	-0.272
-307.880	-200.000	0.044	0.274
-306.866	-200.000	-0.055	0.243
-305.851	36.895	-0.246	0.218
-304.837	39.981	-0.103	0.093
-303.822	-200.000	-0.014	-0.075
-302.807	636.980	-0.036	-0.092
-301.793	75.755	0.125	-0.133
-300.778	800.000	-0.040	0.112
-299.764	-89.333	-0.287	0.085
-298.749	-200.000	-0.071	0.484
-297.735	36.771	0.095	0.084
-296.720	-2.258	0.214	0.150
-295.705	191.786	0.078	0.117
-294.691	-200.000	0.030	0.242
-293.676	-67.629	0.104	0.041
-292.662	-200.000	-0.012	0.082
-291.647	-158.119	-0.208	0.012
-290.632	-200.000	0.029	0.174
-289.618	-149.968	-0.309	0.024
-288.603	56.639	0.263	0.256
-287.589	98.444	0.170	0.196
-286.574	-192.670	-0.109	0.001
-285.559	-97.595	-0.104	0.027
-284.545	245.343	0.133	0.223
-283.530	99.168	0.171	0.197
-282.516	158.673	-0.065	-0.090
-281.501	-200.000	0.023	0.209
-280.486	-128.639	0.269	-0.038
-279.472	66.497	-0.063	0.064
-278.457	800.000	0.102	0.282
-277.443	722.855	0.138	-0.367
-276.428	-200.000	0.029	-0.304
-275.413	2.929	0.258	0.187
-274.399	32.815	0.031	-0.027
-273.384	-174.861	-0.223	0.006
-272.370	-200.000	0.006	0.159
-271.355	-118.688	0.109	-0.019
-270.340	-56.112	-0.382	0.170
-269.326	31.751	0.126	0.109
-268.311	238.570	-0.097	-0.162
-267.297	-19.000	-0.078	0.048
-266.282	71.085	-0.051	-0.053
-265.267	-87.415	0.044	0.013
-264.253	-40.731	-0.252	-0.131
-263.238	116.563	-0.207	0.253
-262.224	-149.735	-0.165	-0.013
-261.209	0.172	0.185	0.132
-260.195	218.969	-0.107	0.170
-259.180	-56.138	0.167	0.074
-258.165	143.077	-0.063	-0.083
-257.151	323.327	0.026	0.050
-256.136	391.679	0.007	-0.015
-255.122	-31.662	0.158	-0.089
-254.107	256.810	0.027	0.046
-253.092	13.317	0.281	0.218
-252.078	800.000	-0.097	-0.313
-251.063	-17.126	0.075	0.047
-250.049	500.347	0.178	0.410
-249.034	7.612	-0.292	-0.218
-248.019	51.215	-0.110	-0.104
-247.005	-79.364	0.190	-0.064
-245.990	171.915	-0.334	0.480
-244.976	-23.085	0.236	-0.142
-243.961	71.430	0.058	0.060
-242.946	-200.000	-0.234	0.000
-241.932	-200.000	0.000	-0.098
-240.917	-110.203	0.192	0.040
-239.903	-102.868	0.139	-0.033
-238.888	-15.469	-0.286	0.183
-237.873	29.493	-0.130	0.110
-236.859	130.843	0.273	0.350
-235.844	-70.120	0.241	-0.092
-234.830	-173.764	-0.229	-0.007
-233.815	177.033	-0.186	0.270
-232.800	390.496	0.043	0.088
-231.786	389.830	-0.101	0.209
-230.771	14.612	0.054	-0.042
-229.757	-106.655	-0.254	-0.056
-228.742	317.417	0.129	-0.243
-227.727	-15.844	-0.239	0.152
-226.713	-200.000	0.033	-0.183
-225.698	-75.886	0.128	0.045
-224.684	379.896	0.068	-0.140
-223.669	-26.108	0.041	-0.024
-222.655	0.035	0.033	-0.023
-221.640	-110.778	0.163	-0.034
-220.625	-200.000	0.011	0.058
-219.611	40.180	0.280	0.251
-218.596	369.090	-0.121	-0.245
-217.582	708.670	0.075	0.197
-216.567	21.292	0.160	0.129
-215.552	308.066	-0.201	0.375
-214.538	135.624	-0.200	-0.260
-213.523	-120.297	0.245	0.042
-212.509	-133.960	-0.245	0.030
-211.494	127.105	-0.162	-0.205
-210.479	9.645	-0.154	-0.117
-209.465	-73.509	0.190	-0.069
-208.450	-200.000	0.048	0.284
-207.436	800.000	-0.044	-0.152
-206.421	-200.000	0.002	-0.156
-205.406	28.329	-0.198	0.167
-204.392	-59.560	-0.360	-0.154
-203.377	-107.940	-0.246	-0.053
-202.363	-37.356	0.367	0.196
-201.348	-75.810	-0.163	0.058
-200.333	800.000	0.066	-0.277
-199.319	800.000	-0.090	-0.362
-198.304	150.441	0.249	-0.338
-197.290	241.326	-0.082	0.137
-196.275	23.324	-0.080	0.065
-195.260	800.000	0.095	0.399
-194.246	-147.031	-0.211	0.018
-193.231	-200.000	0.031	0.175
-192.217	-51.746	0.241	0.112
-191.202	110.318	0.118	-0.141
-190.187	-200.000	0.008	0.127
-189.173	-3.213	0.305	-0.212
-188.158	203.154	0.166	-0.255
-187.144	-200.000	-0.006	0.190
-186.129	-82.562	-0.231	0.075
-185.114	102.575	0.204	0.238
-184.100	-112.784	-0.055	0.011
-183.085	800.000	-0.087	0.241
-182.071	133.042	0.100	0.129
-181.056	-97.501	0.295	-0.076
-180.042	-22.027	-0.315	0.190
-179.027	-49.235	0.265	-0.126
-178.012	-115.667	0.093	-0.017
-176.998	800.000	0.099	-0.290
-175.983	572.153	-0.147	-0.357
-174.969	70.159	0.148	0.152
-173.954	-200.000	-0.017	0.209
-172.939	339.443	-0.041	-0.080
-171.925	800.000	-0.105	0.305
-170.910	-100.996	-0.250	0.061
-169.896	163.419	-0.111	0.155
-168.881	-113.908	0.606	-0.117
-167.866	91.451	0.194	0.217
-166.852	109.088	0.093	-0.111
-165.837	358.350	-0.130	0.259
-164.823	-112.286	0.115	0.023
-163.808	800.000	-0.060	0.190
-162.793	-122.604	0.278	-0.045
-161.779	-43.338	0.267	0.134
-160.764	-200.000	-0.062	-0.296
-159.750	-200.000	-0.014	-0.143
-158.735	-107.762	0.167	0.036
-157.720	-89.661	-0.077	0.022
-156.706	336.858	0.147	0.285
-155.691	-200.000	-0.044	-0.341
-154.677	71.318	-0.343	-0.354
-153.662	139.732	-0.113	0.148
-152.647	98.711	0.198	-0.228
-151.633	-119.333	0.423	0.073
-150.618	194.552	-0.098	0.148
-149.604	-78.187	0.144	-0.049
-148.589	-200.000	-0.015	0.346
-147.574	-145.956	-0.238	0.021
-146.560	-200.000	0.020	0.210
-145.545	-62.980	0.241	-0.099
-144.531	1.517	-0.059	0.042
-143.516	55.423	0.240	-0.231
-142.502	-200.000	0.022	-0.343
-141.487	174.381	0.149	-0.215
-140.472	169.211	0.124	-0.176
-139.458	109.041	0.100	0.119
-138.443	-51.725	0.350	0.162
-137.429	-173.674	0.181	0.005
-136.414	-73.170	-0.081	-0.030
-135.399	1.760	0.137	-0.098
-134.385	420.967	-0.157	-0.335
-133.370	-143.772	0.125	0.012
-132.356	800.000	0.022	-0.086
-131.341	-200.000	0.026	-0.181
-130.326	113.411	-0.162	0.196
-129.312	17.719	-0.234	0.185
-128.297	44.970	-0.059	-0.054
-127.283	25.307	0.222	-0.183
-126.268	800.000	-0.037	-0.127
-125.253	-48.628	0.118	-0.057
-124.239	-41.764	-0.195	-0.100
-123.224	800.000	-0.105	0.320
-122.210	274.287	0.156	0.274
-121.195	-102.468	-0.330	0.078
