DTS Sentinel unit serial number:	SN413079Multiplexer serial number:	ORYXHardware model number:	OX4-SRSoftware version number:	ORYX F/W v4.00 Oryx Data Collector v3.7.2.0data status	okinstallation	princeton_trtdifferential loss correction	single-endedforward channel	channel 1reverse channel	N/Adate	2019/09/13time	19:38:35forward acquisition time	60.00reverse acquisition time	0.00gamma	496.2192k internal	0.2327k external	0.2327temperature offset calibration	1.0094default loss term (dB/km)	0.3790temperature slope calibration	1.0000multiplexer offset coefficient	1.0000multiplexer slope coefficient	1.0000fibre end	0.00T internal ref (°C)	30.44T ext. ref 1 (°C)	3.44T ext. ref 2 (°C)	24.48length (m)	temperature (°C)	Stokes	anti-Stokes-747.200	800.000	0.120	-0.515
-746.185	-99.676	0.029	-0.007
-745.171	225.876	-0.007	0.011
-744.156	-200.000	0.028	0.209
-743.142	18.823	-0.051	0.041
-742.127	-200.000	-0.001	0.135
-741.112	-91.094	0.213	-0.062
-740.098	-26.656	-0.129	0.076
-739.083	89.467	0.160	0.180
-738.069	258.243	-0.061	-0.107
-737.054	-200.000	-0.054	0.341
-736.039	-31.455	-0.305	0.173
-735.025	237.566	0.128	-0.213
-734.010	-110.346	-0.415	0.087
-732.996	-68.356	0.142	-0.056
-731.981	-125.374	-0.216	0.033
-730.966	-200.000	0.022	-0.121
-729.952	-12.813	-0.283	-0.186
-728.937	-102.054	-0.238	-0.058
-727.923	467.799	0.068	0.154
-726.908	15.442	-0.348	-0.276
-725.894	-200.000	0.017	-0.226
-724.879	409.007	0.169	0.361
-723.864	-200.000	0.014	-0.159
-722.850	-87.453	0.258	-0.079
-721.835	449.630	0.079	-0.175
-720.821	-200.000	0.030	-0.142
-719.806	-105.110	-0.133	-0.031
-718.791	-128.071	0.716	-0.103
-717.777	-3.207	0.038	0.027
-716.762	-57.223	0.216	-0.096
-715.748	-200.000	0.048	0.238
-714.733	57.841	-0.229	-0.225
-713.718	-121.381	-0.380	0.064
-712.704	-85.519	0.170	-0.053
-711.689	-119.498	0.091	-0.016
-710.675	-200.000	0.049	0.245
-709.660	-93.220	0.212	-0.059
-708.645	-200.000	0.019	-0.110
-707.631	-200.000	0.063	-0.304
-706.616	-58.626	0.174	0.076
-705.602	158.827	0.159	0.222
-704.587	170.930	-0.084	-0.121
-703.572	12.768	-0.193	0.150
-702.558	-109.625	-0.210	-0.045
-701.543	-99.920	-0.153	0.039
-700.529	275.196	-0.219	-0.390
-699.514	800.000	0.061	-0.257
-698.499	-87.872	0.065	-0.020
-697.485	567.732	-0.161	0.394
-696.470	367.614	-0.119	-0.242
-695.456	-63.232	0.275	-0.114
-694.441	182.900	-0.026	0.039
-693.426	-200.000	0.036	0.343
-692.412	-66.762	-0.172	-0.069
-691.397	150.696	0.199	-0.272
-690.383	-200.000	-0.054	-0.433
-689.368	-16.358	-0.182	-0.116
-688.354	-75.545	0.047	0.017
-687.339	-8.314	0.032	-0.022
-686.324	-78.075	0.299	-0.104
-685.310	151.060	0.194	0.265
-684.295	800.000	0.024	0.089
-683.281	20.972	0.184	-0.150
-682.266	81.000	-0.288	-0.312
-681.251	-26.253	-0.138	-0.081
-680.237	-47.545	-0.174	-0.085
-679.222	123.560	0.233	0.293
-678.208	571.838	-0.160	0.392
-677.193	-89.628	0.280	-0.083
-676.178	-200.000	-0.025	0.188
-675.164	-200.000	-0.018	-0.251
-674.149	121.587	0.026	-0.033
-673.135	769.094	0.088	0.241
-672.120	13.283	-0.120	0.093
-671.105	170.411	-0.131	-0.189
-670.091	-200.000	-0.027	-0.133
-669.076	800.000	0.052	0.190
-668.062	-52.992	0.129	-0.060
-667.047	-108.867	-0.080	-0.017
-666.032	560.132	0.066	-0.160
-665.018	-90.101	-0.091	0.027
-664.003	-200.000	-0.108	0.479
-662.989	-200.000	0.036	-0.223
-661.974	-142.680	0.097	0.010
-660.959	384.801	-0.080	0.167
-659.945	62.990	-0.224	0.225
-658.930	-43.352	0.415	0.211
-657.916	336.746	-0.131	-0.256
-656.901	-54.754	-0.165	-0.075
-655.886	-52.933	-0.417	-0.193
-654.872	-131.100	-0.096	0.013
-653.857	-145.398	-0.216	-0.020
-652.843	-11.204	-0.163	-0.108
-651.828	104.196	-0.139	0.164
-650.814	-145.909	-0.081	-0.007
-649.799	459.121	-0.014	0.031
-648.784	-80.556	0.254	-0.085
-647.770	-59.906	0.332	0.143
-646.755	-91.620	0.152	-0.043
-645.741	-116.222	0.322	-0.060
-644.726	464.455	-0.040	0.089
-643.711	113.830	-0.194	-0.237
-642.697	800.000	-0.017	0.056
-641.682	-93.622	-0.173	-0.048
-640.668	5.088	-0.081	0.060
-639.653	-83.519	-0.228	-0.073
-638.638	800.000	0.031	0.095
-637.624	-97.647	-0.196	0.051
-636.609	151.607	0.180	0.246
-635.595	800.000	0.111	0.480
-634.580	56.000	0.106	0.103
-633.565	30.173	0.173	0.148
-632.551	-200.000	0.006	-0.126
-631.536	365.264	0.058	-0.116
-630.522	83.799	-0.184	-0.201
-629.507	546.063	0.071	0.169
-628.492	-200.000	0.010	0.227
-627.478	345.805	-0.098	0.194
-626.463	-79.531	-0.101	0.034
-625.449	375.791	0.141	-0.289
-624.434	-200.000	-0.050	-0.433
-623.419	-200.000	-0.055	-0.342
-622.405	49.475	0.071	-0.067
-621.390	-200.000	-0.025	0.174
-620.376	624.328	-0.046	0.118
-619.361	426.704	-0.143	0.310
-618.346	800.000	0.120	0.332
-617.332	-167.085	-0.340	-0.014
-616.317	-59.511	-0.252	-0.108
-615.303	3.433	-0.032	-0.023
-614.288	-200.000	-0.004	-0.027
-613.273	69.133	0.137	0.141
-612.259	-104.335	0.161	0.037
-611.244	800.000	-0.048	0.149
-610.230	495.072	-0.037	0.085
-609.215	-9.828	0.158	-0.105
-608.201	35.567	-0.049	0.043
-607.186	-79.390	0.186	0.063
-606.171	800.000	0.045	0.187
-605.157	209.602	0.182	0.286
-604.142	800.000	-0.053	0.157
-603.128	508.993	0.093	-0.217
-602.113	-154.805	-0.048	-0.003
-601.098	-200.000	-0.034	-0.362
-600.084	-16.963	-0.090	-0.057
-599.069	145.656	0.124	0.167
-598.055	-84.508	-0.107	0.034
-597.040	366.612	-0.081	-0.163
-596.025	151.823	-0.106	0.145
-595.011	-171.296	0.169	0.006
-593.996	50.200	0.035	-0.033
-592.982	-63.863	-0.343	-0.141
-591.967	-200.000	-0.005	0.233
-590.952	-200.000	0.009	0.205
-589.938	-200.000	0.011	0.084
-588.923	121.125	-0.275	-0.343
-587.909	-90.252	0.089	0.026
-586.894	33.901	-0.048	-0.042
-585.879	-200.000	-0.021	0.412
-584.865	-200.000	0.010	-0.078
-583.850	-17.946	-0.329	-0.207
-582.836	-29.703	0.136	-0.078
-581.821	-23.947	-0.281	-0.168
-580.806	-39.741	-0.313	-0.164
-579.792	-200.000	-0.068	0.337
-578.777	800.000	-0.121	0.379
-577.763	-200.000	0.089	0.435
-576.748	302.440	0.078	-0.145
-575.733	-174.049	-0.220	0.006
-574.719	-23.951	-0.290	0.174
-573.704	-53.752	0.320	-0.146
-572.690	-153.232	-0.523	0.037
-571.675	93.640	0.183	-0.208
-570.661	-64.975	0.286	-0.116
-569.646	343.737	0.145	0.285
-568.631	131.535	-0.123	-0.158
-567.617	-27.379	-0.139	0.081
-566.602	-13.847	0.204	0.132
-565.588	-107.116	0.086	-0.019
-564.573	-147.842	0.208	0.017
-563.558	236.259	-0.079	-0.130
-562.544	10.509	0.333	-0.254
-561.529	580.012	0.075	-0.184
-560.515	110.560	-0.117	-0.141
-559.500	-175.995	0.126	-0.003
-558.485	575.512	0.108	-0.264
-557.471	-200.000	-0.031	0.402
-556.456	-162.801	0.284	0.014
-555.442	212.285	0.116	-0.183
-554.427	-200.000	0.023	0.099
-553.412	-141.674	0.476	-0.048
-552.398	-72.048	-0.121	0.045
-551.383	19.317	0.285	0.229
-550.369	71.298	0.331	0.344
-549.354	-200.000	-0.025	0.137
-548.339	248.495	-0.109	-0.184
-547.325	344.945	-0.171	0.336
-546.310	62.626	0.047	-0.047
-545.296	-196.199	-0.269	-0.002
-544.281	43.275	-0.185	-0.169
-543.266	-127.398	-0.125	0.018
-542.252	-87.270	0.232	0.071
-541.237	713.606	0.065	-0.173
-540.223	314.638	0.091	0.171
-539.208	390.262	-0.158	-0.327
-538.193	44.454	0.055	-0.050
-537.179	108.365	-0.234	0.279
-536.164	383.899	-0.126	-0.260
-535.150	76.651	-0.178	0.189
-534.135	82.045	-0.055	0.060
-533.121	122.504	0.130	0.162
-532.106	-102.014	-0.108	-0.026
-531.091	-200.000	-0.021	0.162
-530.077	-147.408	0.204	0.017
-529.062	232.425	0.049	0.080
-528.048	-200.000	-0.027	-0.157
-527.033	-134.404	0.289	-0.035
-526.018	366.934	-0.144	0.290
-525.004	3.395	-0.116	-0.084
-523.989	-142.804	-0.367	-0.036
-522.975	266.452	-0.036	0.063
-521.960	-76.853	-0.160	-0.056
-520.945	53.269	-0.096	-0.092
-519.931	800.000	-0.051	-0.146
-518.916	52.647	0.110	-0.105
-517.902	27.798	-0.164	-0.138
-516.887	121.802	-0.188	-0.234
-515.872	-200.000	-0.003	-0.110
-514.858	250.250	-0.093	0.157
-513.843	-200.000	0.021	-0.115
-512.829	2.461	0.165	-0.119
-511.814	-108.939	0.158	0.034
-510.799	187.534	-0.104	0.154
-509.785	800.000	0.098	0.292
-508.770	277.978	-0.042	-0.074
-507.756	-155.884	-0.356	-0.023
-506.741	88.859	-0.180	0.199
-505.726	-46.558	0.291	0.142
-504.712	-200.000	0.027	-0.206
-503.697	22.263	-0.260	-0.212
-502.683	-107.098	0.182	0.040
-501.668	-77.826	-0.067	-0.023
-500.653	694.080	0.159	-0.415
-499.639	117.861	0.246	0.303
-498.624	-21.586	0.108	0.066
-497.610	-92.399	-0.100	-0.028
-496.595	71.800	0.314	0.326
-495.581	480.623	-0.051	0.116
-494.566	169.272	0.078	-0.111
-493.551	-66.720	0.184	-0.073
-492.537	315.998	-0.089	0.168
-491.522	79.574	-0.155	-0.166
-490.508	8.258	0.162	0.122
-489.493	17.672	-0.223	0.177
-488.478	-86.300	0.211	-0.065
-487.464	-46.231	0.140	0.069
-486.449	295.296	-0.097	-0.177
-485.435	-34.870	-0.051	-0.028
-484.420	37.353	-0.170	-0.150
-483.405	-125.645	-0.271	-0.041
-482.391	800.000	-0.104	0.397
-481.376	-200.000	0.004	-0.248
-480.362	-105.546	-0.356	-0.081
-479.347	138.971	-0.109	0.143
-478.332	800.000	-0.023	0.097
-477.318	-44.583	-0.138	0.069
-476.303	47.084	0.094	-0.087
-475.289	-200.000	-0.032	0.200
-474.274	568.802	-0.123	0.297
-473.259	338.151	-0.094	0.182
-472.245	-26.289	0.205	0.120
-471.230	-110.787	-0.086	0.018
-470.216	-15.941	-0.202	-0.128
-469.201	118.016	0.049	0.060
-468.186	48.996	0.347	0.325
-467.172	-200.000	0.002	-0.300
-466.157	-200.000	0.031	0.175
-465.143	236.780	-0.059	0.098
-464.128	-160.681	-0.506	-0.027
-463.113	273.035	-0.057	0.100
-462.099	800.000	-0.055	-0.171
-461.084	-200.000	-0.001	-0.312
-460.070	-177.911	-0.035	-0.001
-459.055	-131.540	0.130	-0.017
-458.040	84.807	0.127	0.138
-457.026	-118.082	0.308	0.055
-456.011	74.166	-0.149	-0.156
-454.997	-65.321	-0.056	0.022
-453.982	27.233	-0.240	-0.201
-452.968	202.070	0.161	-0.247
-451.953	-120.934	0.084	-0.014
-450.938	483.902	-0.141	-0.320
-449.924	231.902	-0.011	-0.018
-448.909	271.760	0.068	0.120
-447.895	-172.522	-0.120	-0.004
-446.880	-121.248	0.253	-0.042
-445.865	-23.028	0.181	-0.109
-444.851	-48.339	0.261	-0.125
-443.836	20.336	0.037	0.030
-442.822	-141.786	0.128	0.013
-441.807	-200.000	-0.028	-0.187
-440.792	476.647	0.104	-0.235
-439.778	115.952	0.047	-0.057
-438.763	-200.000	0.001	-0.200
-437.749	230.386	0.086	-0.141
-436.734	472.917	0.054	0.122
-435.719	121.128	0.055	0.069
-434.705	800.000	-0.061	-0.235
-433.690	40.864	0.446	-0.401
-432.676	-145.084	-0.183	0.017
-431.661	-142.738	0.193	-0.019
-430.646	123.487	-0.186	-0.232
-429.632	136.493	-0.091	0.118
-428.617	-35.862	0.211	-0.114
-427.603	-131.208	-0.078	0.010
-426.588	-88.152	-0.202	0.060
-425.573	184.899	-0.139	-0.205
-424.559	80.861	-0.086	0.093
-423.544	800.000	-0.012	-0.046
-422.530	-58.562	0.047	-0.020
-421.515	18.896	0.226	0.180
-420.500	170.008	0.091	0.130
-419.486	180.106	-0.166	0.243
-418.471	-71.793	-0.216	-0.080
-417.457	-66.310	-0.109	0.043
-416.442	-200.000	-0.026	0.293
-415.428	202.970	-0.024	-0.037
-414.413	-200.000	0.002	0.319
-413.398	145.255	-0.119	0.158
-412.384	71.246	0.160	0.165
-411.369	-33.700	-0.264	-0.145
-410.355	174.537	0.139	-0.200
-409.340	-110.621	-0.057	0.012
-408.325	800.000	0.085	-0.315
-407.311	800.000	0.048	-0.204
-406.296	800.000	0.032	-0.088
-405.282	-57.562	-0.250	-0.109
-404.267	-73.656	-0.303	0.110
-403.252	-138.793	0.069	-0.008
-402.238	-53.278	0.181	0.083
-401.223	-131.632	-0.269	-0.035
-400.209	40.903	-0.115	0.103
-399.194	304.145	-0.130	-0.239
-398.179	-86.130	-0.244	0.075
-397.165	6.661	-0.215	-0.159
-396.150	-14.174	-0.189	-0.121
-395.136	12.935	-0.349	-0.268
-394.121	-200.000	0.029	0.219
-393.106	164.155	-0.113	-0.158
-392.092	472.807	-0.103	0.231
-391.077	-33.597	0.297	0.163
-390.063	-103.318	-0.439	-0.103
-389.048	-118.662	0.167	-0.029
-388.033	33.950	0.088	-0.077
-387.019	-93.696	0.097	-0.027
-386.004	-200.000	0.001	-0.177
-384.990	800.000	-0.025	-0.081
-383.975	347.603	0.124	0.243
-382.960	225.011	0.092	0.147
-381.946	-171.052	0.064	-0.002
-380.931	-107.475	0.068	0.015
-379.917	15.797	0.080	0.062
-378.902	260.836	0.105	0.180
-377.888	310.059	0.070	-0.131
-376.873	84.432	0.105	0.114
-375.858	-123.348	0.078	0.012
-374.844	-45.688	0.284	-0.140
-373.829	-200.000	0.012	0.195
-372.815	219.421	-0.244	0.388
-371.800	6.229	-0.221	0.163
-370.785	-103.648	-0.428	-0.100
-369.771	-81.192	-0.233	0.076
-368.756	158.905	-0.084	0.116
-367.742	-135.933	-0.298	-0.035
-366.727	-146.533	-0.250	-0.022
-365.712	-200.000	-0.040	-0.396
-364.698	-39.942	0.153	0.080
-363.683	-71.187	-0.178	-0.066
-362.669	-200.000	0.044	-0.201
-361.654	-192.664	-0.140	-0.001
-360.639	-200.000	0.056	0.365
-359.625	49.802	0.298	0.279
-358.610	-200.000	-0.033	-0.282
-357.596	211.625	-0.042	0.066
-356.581	-117.230	0.322	0.058
-355.566	800.000	-0.093	0.267
-354.552	-200.000	-0.018	-0.302
-353.537	415.227	0.030	-0.063
-352.523	284.318	-0.108	0.193
-351.508	76.220	-0.064	0.067
-350.493	-132.466	-0.286	0.037
-349.479	2.852	-0.037	0.027
-348.464	-95.747	-0.321	0.085
-347.450	275.245	0.030	0.053
-346.435	278.459	0.060	0.106
-345.420	424.690	-0.085	0.181
-344.406	-200.000	0.020	0.133
-343.391	-10.189	-0.042	0.028
-342.377	230.209	-0.185	-0.300
-341.362	282.556	0.202	0.360
-340.348	53.656	-0.161	0.153
-339.333	453.152	-0.077	-0.170
-338.318	48.528	0.151	0.140
-337.304	-25.107	0.191	0.113
-336.289	-124.037	0.366	-0.057
-335.275	-113.900	-0.080	0.015
-334.260	-65.348	0.197	0.079
-333.245	65.234	-0.015	-0.015
-332.231	-35.631	-0.182	-0.098
-331.216	78.516	-0.196	-0.208
-330.202	-200.000	0.056	-0.382
-329.187	-179.536	-0.224	-0.005
-328.172	-22.142	-0.140	-0.084
-327.158	240.965	0.032	-0.053
-326.143	14.598	0.022	0.017
-325.129	-200.000	-0.015	-0.204
-324.114	-200.000	0.058	-0.260
-323.099	-94.624	-0.129	-0.035
-322.085	-135.585	-0.259	-0.031
-321.070	-21.195	-0.071	0.043
-320.056	-81.426	0.092	0.030
-319.041	-7.138	0.098	0.066
-318.026	-72.571	-0.263	0.096
-317.012	-53.439	-0.249	0.113
-315.997	283.205	0.092	0.164
-314.983	-16.427	0.151	0.095
-313.968	800.000	0.014	0.056
-312.953	-10.189	0.227	-0.149
-311.939	-35.237	-0.106	-0.057
-310.924	-17.181	0.120	-0.075
-309.910	-127.427	0.259	0.037
-308.895	-200.000	0.009	0.103
-307.880	-133.336	0.299	-0.037
-306.866	800.000	0.050	-0.166
-305.851	-57.060	-0.221	-0.097
-304.837	203.222	0.228	0.350
-303.822	800.000	0.042	-0.115
-302.807	-89.899	-0.111	-0.032
-301.793	-200.000	-0.004	-0.029
-300.778	325.645	0.072	-0.136
-299.764	-70.303	-0.123	0.046
-298.749	3.109	-0.109	-0.079
-297.735	88.599	-0.120	0.132
-296.720	800.000	0.040	-0.148
-295.705	97.141	0.116	-0.132
-294.691	-200.000	-0.059	-0.304
-293.676	9.682	0.169	0.127
-292.662	800.000	0.027	0.077
-291.647	-75.723	0.152	-0.053
-290.632	-200.000	0.029	-0.200
-289.618	140.363	-0.096	-0.126
-288.603	-110.319	0.090	0.018
-287.589	105.233	0.229	-0.267
-286.574	1.629	-0.086	-0.061
-285.559	-191.114	0.296	0.003
-284.545	-78.567	0.290	0.098
-283.530	-200.000	0.055	0.245
-282.516	271.182	0.107	0.187
-281.501	-85.578	-0.192	0.059
-280.486	-200.000	0.102	0.463
-279.472	46.605	-0.160	-0.147
-278.457	800.000	0.106	0.324
-277.443	123.392	-0.160	0.198
-276.428	208.670	-0.045	-0.069
-275.413	-23.782	-0.065	0.039
-274.399	35.186	0.158	-0.137
-273.384	120.425	-0.256	0.314
-272.370	-200.000	0.025	0.129
-271.355	70.108	0.161	0.164
-270.340	-113.749	0.312	-0.060
-269.326	28.440	-0.530	-0.443
-268.311	-200.000	0.088	-0.408
-267.297	471.338	0.055	0.123
-266.282	25.168	0.215	-0.176
-265.267	-200.000	0.056	-0.259
-264.253	800.000	-0.132	0.467
-263.238	-122.707	-0.256	-0.041
-262.224	-106.078	0.047	-0.010
-261.209	-200.000	-0.035	0.378
-260.195	-121.294	0.172	-0.028
-259.180	89.679	0.099	-0.110
-258.165	14.597	0.098	-0.076
-257.151	105.883	-0.088	0.103
-256.136	-200.000	0.004	0.133
-255.122	-7.477	0.317	0.212
-254.107	20.712	-0.212	-0.170
-253.092	-200.000	0.060	-0.277
-252.078	21.865	0.229	-0.184
-251.063	-200.000	0.058	0.270
-250.049	-19.293	0.149	0.092
-249.034	-82.307	0.403	-0.130
-248.019	42.771	-0.119	-0.107
-247.005	-188.136	-0.312	-0.004
-245.990	-4.236	0.181	0.124
-244.976	41.555	0.042	0.037
-243.961	-200.000	0.002	0.090
-242.946	-162.014	-0.213	-0.011
-241.932	45.967	-0.136	0.124
-240.917	-41.967	0.057	0.029
-239.903	30.177	-0.052	0.044
-238.888	-200.000	-0.015	-0.088
-237.873	-27.069	0.239	0.138
-236.859	121.080	-0.057	-0.070
-235.844	-162.873	0.257	0.012
-234.830	-200.000	-0.010	-0.243
-233.815	121.485	-0.175	-0.216
-232.800	-90.180	0.155	0.045
-231.786	35.324	-0.122	-0.106
-230.771	-200.000	0.007	-0.103
-229.757	-60.711	0.120	-0.050
-228.742	-93.948	0.158	0.043
-227.727	-200.000	-0.001	-0.107
-226.713	353.856	-0.056	-0.110
-225.698	-26.346	-0.107	0.062
-224.684	70.968	0.155	-0.159
-223.669	365.792	-0.053	0.106
-222.655	154.128	0.297	-0.403
-221.640	-7.695	0.285	-0.190
-220.625	256.136	0.045	0.075
-219.611	-200.000	-0.004	0.124
-218.596	38.723	0.087	0.077
-217.582	-138.479	-0.077	-0.008
-216.567	105.366	-0.170	0.198
-215.552	67.351	0.118	-0.119
-214.538	-142.688	-0.169	-0.016
-213.523	800.000	0.105	0.451
-212.509	24.807	-0.193	-0.158
-211.494	-84.192	0.235	0.074
-210.479	98.496	-0.220	0.250
-209.465	-145.216	-0.113	0.010
-208.450	-24.306	0.144	0.085
-207.436	146.647	-0.145	-0.193
-206.421	502.372	0.083	-0.189
-205.406	-45.448	0.138	0.067
-204.392	-163.561	-0.052	0.002
-203.377	335.706	-0.115	0.220
-202.363	-200.000	0.013	-0.154
-201.348	117.875	0.128	-0.156
-200.333	-107.480	0.254	-0.055
-199.319	-200.000	0.051	-0.475
-198.304	23.577	-0.248	-0.202
-197.290	16.350	-0.109	0.085
-196.275	169.805	0.066	0.094
-195.260	-147.029	-0.156	-0.013
-194.246	-200.000	0.044	0.294
-193.231	-157.638	0.239	-0.014
-192.217	-12.655	0.337	-0.217
-191.202	173.862	-0.025	0.035
-190.187	-108.811	0.170	0.036
-189.173	-124.499	0.348	-0.053
-188.158	-22.923	0.177	-0.105
-187.144	800.000	0.119	-0.405
-186.129	-63.747	0.138	0.056
-185.114	-40.808	-0.426	-0.217
-184.100	-127.436	0.288	-0.041
-183.085	-39.500	0.304	-0.157
-182.071	189.261	0.109	-0.161
-181.056	-200.000	0.030	0.202
-180.042	653.085	0.197	-0.498
-179.027	-153.849	-0.125	-0.008
-178.012	-200.000	0.005	-0.065
-176.998	256.279	-0.026	-0.043
-175.983	252.192	0.250	-0.420
-174.969	516.741	-0.169	0.389
-173.954	-50.950	-0.133	0.061
-172.939	-81.124	-0.156	0.051
-171.925	-200.000	0.021	-0.202
-170.910	-93.192	-0.120	0.033
-169.896	4.145	0.047	0.034
-168.881	97.829	-0.108	-0.123
-167.866	131.991	0.040	-0.050
-166.852	700.146	0.041	0.106
-165.837	186.449	-0.299	0.438
-164.823	-200.000	-0.025	0.197
-163.808	-200.000	0.017	0.106
-162.793	-69.769	0.119	0.045
-161.779	151.632	-0.013	0.018
-160.764	-61.237	0.210	-0.087
-159.750	800.000	-0.079	0.279
-158.735	-11.828	-0.214	0.138
-157.720	55.012	0.121	-0.115
-156.706	558.380	0.046	0.110
-155.691	-200.000	0.020	-0.198
-154.677	36.171	-0.071	0.061
-153.662	-200.000	0.001	-0.239
-152.647	123.585	-0.068	-0.084
-151.633	305.555	0.010	-0.018
-150.618	-104.375	0.109	0.025
-149.604	-112.289	0.219	-0.043
-148.589	405.501	0.124	-0.257
-147.574	-15.932	-0.346	-0.217
-146.560	212.510	-0.054	0.084
-145.545	-58.055	-0.124	-0.053
-144.531	-129.906	-0.236	0.032
-143.516	145.372	0.118	0.155
-142.502	-200.000	0.023	-0.191
-141.487	-200.000	0.022	0.118
-140.472	-200.000	0.009	-0.124
-139.458	30.017	-0.122	-0.103
-138.443	62.863	0.322	0.317
-137.429	260.255	0.053	-0.091
-136.414	-130.060	0.290	-0.039
-135.399	-33.455	-0.205	0.112
-134.385	-24.906	-0.077	-0.045
-133.370	81.257	-0.121	-0.129
-132.356	-49.161	-0.173	0.081
-131.341	800.000	0.093	-0.338
-130.326	156.281	-0.191	0.259
-129.312	-200.000	-0.255	0.001
-128.297	-200.000	0.040	0.307
-127.283	-56.808	-0.089	0.039
-126.268	-123.445	0.271	-0.042
-125.253	-200.000	-0.002	-0.198
-124.239	39.773	-0.095	0.084
-123.224	78.976	-0.238	0.251
-122.210	99.815	-0.053	0.061
