DTS Sentinel unit serial number:	SN413079Multiplexer serial number:	ORYXHardware model number:	OX4-SRSoftware version number:	ORYX F/W v4.00 Oryx Data Collector v3.7.2.0data status	okinstallation	princeton_trtdifferential loss correction	single-endedforward channel	channel 1reverse channel	N/Adate	2019/09/12time	04:44:11forward acquisition time	60.00reverse acquisition time	0.00gamma	496.2192k internal	0.2324k external	0.2324temperature offset calibration	1.0095default loss term (dB/km)	0.3790temperature slope calibration	1.0000multiplexer offset coefficient	1.0000multiplexer slope coefficient	1.0000fibre end	0.00T internal ref (°C)	31.62T ext. ref 1 (°C)	2.35T ext. ref 2 (°C)	27.20length (m)	temperature (°C)	Stokes	anti-Stokes-747.200	-37.924	0.232	0.124
-746.185	93.056	-0.226	0.258
-745.171	49.998	-0.141	-0.134
-744.156	422.302	0.126	0.274
-743.142	253.825	-0.096	0.165
-742.127	42.186	-0.232	0.212
-741.112	-155.450	-0.126	-0.008
-740.098	-200.000	0.015	0.081
-739.083	534.008	0.020	0.048
-738.069	-52.551	0.270	0.126
-737.054	123.498	-0.198	-0.250
-736.039	112.038	-0.103	-0.125
-735.025	521.564	-0.055	-0.131
-734.010	-135.682	-0.236	-0.028
-732.996	-118.138	-0.112	-0.020
-731.981	-112.971	-0.298	0.059
-730.966	426.053	-0.062	-0.135
-729.952	-89.920	-0.203	0.060
-728.937	-200.000	-0.022	0.105
-727.923	-200.000	0.013	-0.327
-726.908	-81.563	-0.135	0.045
-725.894	-200.000	-0.017	0.108
-724.879	-27.836	-0.193	0.113
-723.864	-162.631	-0.267	-0.013
-722.850	-37.608	0.166	0.089
-721.835	26.127	-0.227	-0.191
-720.821	800.000	0.020	0.080
-719.806	-51.308	0.324	-0.153
-718.791	-99.232	-0.142	-0.036
-717.777	-33.818	-0.286	-0.159
-716.762	-200.000	-0.086	0.534
-715.748	270.979	-0.103	-0.182
-714.733	-71.433	-0.254	-0.096
-713.718	73.729	-0.190	-0.201
-712.704	-200.000	-0.053	-0.338
-711.689	56.644	0.222	0.218
-710.675	-200.000	0.000	0.188
-709.660	248.879	-0.150	0.257
-708.645	-131.486	-0.098	-0.013
-707.631	257.828	0.040	0.069
-706.616	-51.062	-0.119	-0.056
-705.602	-126.745	-0.220	-0.033
-704.587	-165.016	0.402	0.018
-703.572	800.000	-0.128	-0.405
-702.558	-114.497	-0.028	-0.005
-701.543	-100.468	0.111	-0.028
-700.529	-14.013	-0.124	0.081
-699.514	-200.000	0.038	-0.292
-698.499	-59.681	0.258	0.112
-697.485	-59.890	-0.164	0.071
-696.470	646.144	-0.141	-0.363
-695.456	-63.857	-0.383	-0.158
-694.441	800.000	-0.076	-0.250
-693.426	334.995	-0.104	-0.203
-692.412	-143.567	0.168	-0.016
-691.397	800.000	-0.060	-0.196
-690.383	-43.413	-0.218	0.111
-689.368	-32.764	0.153	-0.086
-688.354	-122.942	-0.300	-0.049
-687.339	393.541	-0.048	-0.102
-686.324	-61.294	-0.269	0.114
-685.310	470.131	-0.109	0.246
-684.295	533.634	0.108	-0.259
-683.281	412.991	0.140	-0.299
-682.266	-74.078	0.338	0.123
-681.251	29.698	-0.140	-0.120
-680.237	-2.614	-0.038	0.026
-679.222	8.308	0.346	-0.262
-678.208	399.965	-0.061	0.129
-677.193	263.359	0.163	0.285
-676.178	-8.420	-0.316	0.214
-675.164	204.329	-0.113	0.177
-674.149	-92.112	0.252	-0.072
-673.135	-45.816	0.167	-0.083
-672.120	-45.420	-0.199	0.100
-671.105	297.759	-0.046	0.086
-670.091	-87.781	0.169	-0.051
-669.076	301.686	-0.157	-0.292
-668.062	325.996	0.032	-0.062
-667.047	-116.027	0.254	0.048
-666.032	800.000	-0.048	0.197
-665.018	-200.000	-0.037	0.167
-664.003	-200.000	0.021	-0.275
-662.989	39.594	0.395	-0.357
-661.974	-42.502	0.261	0.134
-660.959	-94.529	0.669	0.183
-659.945	-40.649	-0.401	-0.209
-658.930	-200.000	0.023	-0.191
-657.916	125.950	0.158	-0.201
-656.901	-116.302	-0.259	0.048
-655.886	800.000	0.067	-0.199
-654.872	84.625	-0.068	0.075
-653.857	-41.428	-0.363	-0.188
-652.843	-176.615	-0.061	0.002
-651.828	-46.938	0.172	0.085
-650.814	800.000	0.084	0.244
-649.799	-200.000	0.026	0.179
-648.784	21.548	0.074	0.061
-647.770	-128.042	-0.351	0.051
-646.755	-200.000	0.013	-0.133
-645.741	-200.000	0.007	-0.243
-644.726	-200.000	0.055	-0.254
-643.711	-33.736	-0.414	-0.230
-642.697	197.655	-0.106	0.163
-641.682	31.453	0.157	0.136
-640.668	-185.418	0.286	0.004
-639.653	205.574	-0.148	-0.231
-638.638	-200.000	0.008	0.138
-637.624	107.725	-0.285	-0.342
-636.609	121.236	0.099	-0.124
-635.595	472.732	-0.096	0.218
-634.580	64.370	0.224	0.227
-633.565	-53.553	0.169	0.078
-632.551	-122.459	-0.236	0.039
-631.536	-60.912	0.135	-0.057
-630.522	-200.000	-0.038	-0.316
-629.507	-116.038	-0.180	-0.034
-628.492	-200.000	-0.004	0.083
-627.478	90.017	0.007	-0.008
-626.463	-116.597	0.127	0.024
-625.449	53.135	0.213	0.205
-624.434	421.262	0.111	0.238
-623.419	-200.000	0.013	0.167
-622.405	188.812	0.086	-0.130
-621.390	14.554	-0.221	0.173
-620.376	770.210	0.034	0.093
-619.361	-200.000	-0.032	-0.187
-618.346	-200.000	0.010	0.126
-617.332	44.345	-0.225	-0.208
-616.317	523.054	0.081	-0.191
-615.303	-51.644	0.096	-0.045
-614.288	746.974	-0.027	0.073
-613.273	-41.938	-0.140	-0.072
-612.259	369.258	-0.134	-0.273
-611.244	-24.511	-0.194	0.116
-610.230	100.109	-0.254	-0.296
-609.215	45.072	0.215	-0.199
-608.201	417.498	-0.057	-0.122
-607.186	-102.776	0.226	0.054
-606.171	361.332	0.050	0.101
-605.157	24.056	-0.197	-0.163
-604.142	-0.771	0.222	-0.158
-603.128	-175.382	0.095	0.003
-602.113	172.315	0.056	-0.081
-601.098	92.014	-0.058	-0.066
-600.084	-200.000	-0.016	-0.151
-599.069	-25.849	0.187	-0.110
-598.055	-157.528	-0.145	0.009
-597.040	124.254	-0.202	0.255
-596.025	12.851	-0.158	-0.123
-595.011	-22.848	0.205	0.124
-593.996	-103.725	-0.024	0.006
-592.982	800.000	-0.011	-0.041
-591.967	214.865	-0.146	-0.232
-590.952	-54.906	-0.301	-0.136
-589.938	-112.164	-0.298	-0.060
-588.923	477.822	0.115	-0.260
-587.909	30.024	0.046	0.040
-586.894	140.262	0.121	0.160
-585.879	-200.000	-0.042	0.351
-584.865	370.168	0.059	0.121
-583.850	-82.051	-0.097	0.032
-582.836	-127.375	0.073	0.011
-581.821	-200.000	0.015	0.083
-580.806	-97.275	0.148	0.039
-579.792	590.343	-0.063	-0.157
-578.777	534.893	0.013	-0.030
-577.763	7.243	-0.186	-0.139
-576.748	800.000	0.060	-0.249
-575.733	800.000	0.070	0.223
-574.719	-81.266	0.043	0.014
-573.704	-22.792	-0.013	0.008
-572.690	180.799	0.101	0.149
-571.675	-50.278	-0.292	-0.139
-570.661	-200.000	0.048	0.274
-569.646	356.933	-0.052	-0.105
-568.631	44.217	0.026	0.024
-567.617	-200.000	0.005	0.090
-566.602	-20.279	-0.088	-0.054
-565.588	35.706	-0.242	0.213
-564.573	455.633	-0.061	0.136
-563.558	320.926	0.161	0.307
-562.544	-22.474	0.257	0.156
-561.529	26.459	-0.062	0.052
-560.515	800.000	-0.015	-0.046
-559.500	178.446	0.169	0.247
-558.485	-200.000	0.115	0.000
-557.471	751.205	0.040	-0.109
-556.456	800.000	0.074	0.218
-555.442	800.000	-0.043	0.169
-554.427	465.128	-0.069	0.155
-553.412	100.542	0.016	-0.019
-552.398	-79.211	0.196	0.067
-551.383	150.192	-0.331	0.449
-550.369	339.101	0.121	-0.236
-549.354	800.000	-0.095	0.314
-548.339	-27.133	0.092	0.054
-547.325	59.705	0.291	-0.287
-546.310	23.095	-0.158	0.130
-545.296	-200.000	-0.038	0.198
-544.281	-126.638	0.245	0.036
-543.266	-54.746	0.221	0.100
-542.252	-200.000	0.003	-0.304
-541.237	60.039	0.078	-0.078
-540.223	-141.512	-0.087	-0.009
-539.208	-200.000	-0.014	0.197
-538.193	-126.638	0.143	0.021
-537.179	-35.097	-0.192	-0.105
-536.164	800.000	0.040	0.154
-535.150	-94.157	0.031	0.008
-534.135	139.981	0.172	0.227
-533.121	800.000	-0.091	0.264
-532.106	8.471	0.226	0.170
-531.091	619.120	0.110	-0.277
-530.077	800.000	-0.071	-0.285
-529.062	-91.486	0.100	-0.029
-528.048	-43.571	0.132	-0.067
-527.033	292.545	0.334	-0.610
-526.018	-50.328	-0.144	0.068
-525.004	-91.593	-0.108	0.031
-523.989	-200.000	-0.074	0.359
-522.975	50.894	0.185	-0.176
-521.960	-200.000	0.069	-0.328
-520.945	38.335	0.148	0.132
-519.931	288.684	-0.067	-0.121
-518.916	-184.900	-0.241	0.004
-517.902	-16.585	-0.126	-0.080
-516.887	-6.732	0.425	0.289
-515.872	-163.636	-0.046	0.002
-514.858	-125.029	-0.502	0.077
-513.843	800.000	0.012	0.041
-512.829	-200.000	-0.036	0.281
-511.814	800.000	-0.030	-0.101
-510.799	-8.456	0.245	0.165
-509.785	129.414	-0.162	0.207
-508.770	-146.652	-0.335	0.029
-507.756	110.718	0.045	-0.054
-506.741	-40.650	0.219	-0.113
-505.726	43.074	-0.230	0.210
-504.712	-58.714	-0.277	-0.120
-503.697	319.984	0.071	-0.136
-502.683	-126.420	0.208	-0.031
-501.668	-200.000	0.044	-0.359
-500.653	54.013	-0.359	-0.345
-499.639	242.201	-0.049	0.081
-498.624	146.494	0.027	-0.036
-497.610	-15.388	0.314	-0.201
-496.595	-200.000	-0.017	-0.396
-495.581	54.024	-0.249	-0.240
-494.566	678.476	-0.086	-0.224
-493.551	-135.520	0.188	0.022
-492.537	56.254	0.196	0.190
-491.522	-53.712	0.024	-0.011
-490.508	-22.351	-0.202	0.123
-489.493	7.587	0.226	0.169
-488.478	97.984	-0.254	-0.292
-487.464	-111.866	0.114	-0.023
-486.449	-77.234	0.178	-0.062
-485.435	-54.396	-0.219	0.099
-484.420	-76.639	-0.260	-0.091
-483.405	800.000	-0.068	-0.203
-482.391	-200.000	-0.024	0.211
-481.376	-200.000	0.045	0.208
-480.362	285.061	0.262	0.471
-479.347	800.000	0.139	0.445
-478.332	-65.152	-0.131	0.053
-477.318	-53.120	-0.189	0.087
-476.303	-69.052	0.330	-0.127
-475.289	-29.408	-0.091	0.052
-474.274	441.832	-0.095	0.207
-473.259	-100.501	-0.111	-0.028
-472.245	77.458	-0.069	0.074
-471.230	-200.000	0.012	0.318
-470.216	33.874	-0.166	0.144
-469.201	-200.000	0.019	0.538
-468.186	-119.396	0.262	-0.045
-467.172	-101.327	-0.239	-0.058
-466.157	-24.027	0.278	-0.166
-465.143	254.487	-0.195	0.333
-464.128	154.065	-0.118	-0.162
-463.113	-200.000	-0.015	-0.212
-462.099	-200.000	0.043	-0.240
-461.084	800.000	-0.127	-0.381
-460.070	12.937	-0.180	-0.139
-459.055	135.139	-0.254	-0.330
-458.040	-49.497	0.380	0.181
-457.026	451.888	-0.126	0.279
-456.011	175.664	-0.083	-0.120
-454.997	487.510	-0.108	-0.247
-453.982	-123.012	-0.391	-0.063
-452.968	395.948	0.182	-0.378
-451.953	515.705	-0.011	-0.026
-450.938	1.509	0.357	0.256
-449.924	-25.990	-0.062	0.036
-448.909	162.013	0.227	0.318
-447.895	-139.310	-0.186	0.020
-446.880	-113.653	-0.240	-0.047
-445.865	91.871	0.227	-0.254
-444.851	-200.000	0.038	-0.219
-443.836	165.748	0.103	-0.145
-442.822	-92.624	-0.117	-0.033
-441.807	29.863	0.162	-0.137
-440.792	-200.000	-0.014	-0.147
-439.778	-53.208	0.032	-0.015
-438.763	210.605	-0.152	-0.239
-437.749	259.125	-0.072	0.123
-436.734	296.949	0.095	-0.175
-435.719	800.000	0.023	-0.090
-434.705	-130.684	0.365	-0.049
-433.690	-200.000	0.051	0.319
-432.676	-148.954	-0.091	0.007
-431.661	-111.088	-0.277	-0.057
-430.646	-70.244	0.100	0.038
-429.632	177.265	0.080	-0.116
-428.617	-117.109	0.174	-0.032
-427.603	-95.629	0.296	-0.079
-426.588	499.535	-0.180	0.413
-425.573	325.395	0.176	-0.335
-424.559	800.000	0.113	0.428
-423.544	144.802	0.203	0.271
-422.530	-99.874	0.417	0.104
-421.515	-200.000	0.007	0.062
-420.500	-200.000	-0.003	0.073
-419.486	-18.075	0.192	-0.120
-418.471	-96.079	-0.402	-0.107
-417.457	-86.897	-0.067	-0.020
-416.442	439.708	-0.115	0.250
-415.428	800.000	-0.037	0.128
-414.413	-109.246	-0.158	0.033
-413.398	-168.595	0.547	0.021
-412.384	-8.288	0.127	0.085
-411.369	73.635	-0.096	0.100
-410.355	-161.333	-0.154	-0.008
-409.340	800.000	-0.055	0.173
-408.325	-77.687	-0.350	-0.121
-407.311	44.787	-0.141	-0.129
-406.296	49.230	-0.259	0.243
-405.282	64.531	0.036	0.036
-404.267	-14.773	0.075	0.048
-403.252	800.000	-0.047	-0.139
-402.238	-75.788	0.310	-0.109
-401.223	162.192	0.088	-0.122
-400.209	-200.000	-0.006	0.153
-399.194	-55.223	0.109	-0.049
-398.179	-200.000	-0.278	-0.000
-397.165	137.227	0.086	-0.112
-396.150	-200.000	0.024	-0.205
-395.136	-85.361	0.051	0.016
-394.121	-200.000	0.010	-0.230
-393.106	-98.341	0.043	0.011
-392.092	-36.049	-0.070	0.037
-391.077	-10.166	-0.141	0.093
-390.063	27.137	-0.156	0.131
-389.048	-177.252	0.154	0.004
-388.033	135.460	-0.054	0.070
-387.019	235.730	-0.131	0.215
-386.004	-200.000	0.028	0.236
-384.990	-6.822	0.220	-0.149
-383.975	-200.000	-0.024	-0.162
-382.960	-173.159	0.159	0.005
-381.946	150.404	0.113	0.153
-380.931	502.382	0.077	-0.177
-379.917	-4.660	-0.376	-0.259
-378.902	800.000	-0.113	0.320
-377.888	125.834	-0.222	0.279
-376.873	-200.000	-0.009	0.078
-375.858	1.298	-0.361	0.258
-374.844	215.637	-0.081	-0.129
-373.829	400.808	0.130	-0.271
-372.815	234.179	-0.162	-0.265
-371.800	-159.474	-0.207	-0.011
-370.785	-122.589	0.465	0.075
-369.771	288.586	-0.088	-0.158
-368.756	-200.000	-0.019	0.128
-367.742	800.000	-0.077	0.229
-366.727	139.072	-0.178	0.233
-365.712	64.798	-0.158	-0.159
-364.698	-76.320	0.303	-0.106
-363.683	-200.000	-0.029	0.189
-362.669	-63.843	-0.171	-0.069
-361.654	263.428	0.083	-0.144
-360.639	-45.048	-0.127	-0.063
-359.625	150.825	0.297	0.401
-358.610	221.426	-0.095	-0.151
-357.596	242.931	0.208	-0.347
-356.581	-164.251	-0.262	0.012
-355.566	-145.480	0.341	-0.030
-354.552	-200.000	-0.058	0.292
-353.537	100.280	0.064	0.073
-352.523	-24.665	-0.105	-0.062
-351.508	-4.690	0.076	-0.052
-350.493	-119.771	-0.306	0.052
-349.479	152.422	0.193	0.262
-348.464	-167.785	-0.195	0.008
-347.450	800.000	-0.119	0.333
-346.435	-170.598	0.397	-0.014
-345.420	28.188	0.376	-0.315
-344.406	800.000	-0.053	-0.168
-343.391	-122.099	-0.195	-0.032
-342.377	-130.144	0.190	0.026
-341.362	34.787	-0.248	-0.216
-340.348	-200.000	0.003	0.095
-339.333	-189.489	-0.288	-0.003
-338.318	-60.678	0.067	-0.028
-337.304	-200.000	0.009	-0.563
-336.289	380.275	0.089	0.181
-335.275	-123.656	-0.110	-0.017
-334.260	-138.927	-0.016	0.002
-333.245	-162.376	-0.191	-0.009
-332.231	121.762	0.202	0.251
-331.216	-200.000	-0.284	-0.001
-330.202	-12.649	0.280	0.181
-329.187	-10.882	0.141	0.092
-328.172	91.879	-0.104	0.116
-327.158	781.905	-0.082	-0.222
-326.143	-31.573	0.200	-0.111
-325.129	-16.912	-0.357	-0.224
-324.114	-1.456	0.254	-0.178
-323.099	-40.638	-0.281	0.145
-322.085	-0.610	0.116	-0.082
-321.070	441.714	0.041	0.090
-320.056	-3.091	-0.120	0.083
-319.041	62.976	-0.198	-0.197
-318.026	-175.767	-0.241	-0.006
-317.012	7.655	0.127	-0.094
-315.997	-58.052	0.365	0.158
-314.983	-123.632	0.247	-0.039
-313.968	-109.453	0.080	0.017
-312.953	124.451	0.180	0.224
-311.939	-31.076	-0.177	-0.099
-310.924	-106.768	0.148	-0.033
-309.910	605.057	0.124	0.307
-308.895	233.194	0.131	-0.214
-307.880	473.773	0.111	-0.248
-306.866	-200.000	-0.014	0.161
-305.851	-29.257	0.196	0.111
-304.837	800.000	-0.022	-0.068
-303.822	-33.462	0.093	-0.051
-302.807	-167.668	-0.450	-0.018
-301.793	74.465	-0.193	-0.201
-300.778	-77.644	-0.099	0.034
-299.764	71.590	0.048	0.050
-298.749	-57.719	-0.201	-0.087
-297.735	-200.000	-0.032	-0.324
-296.720	76.447	0.184	-0.194
-295.705	55.009	-0.120	0.115
-294.691	184.391	-0.117	-0.171
-293.676	-67.849	-0.219	-0.085
-292.662	-200.000	-0.005	-0.026
-291.647	-140.836	-0.093	-0.010
-290.632	-152.769	0.422	0.030
-289.618	-145.552	0.145	0.013
-288.603	-8.318	-0.005	0.003
-287.589	800.000	-0.016	-0.058
-286.574	-46.061	0.156	-0.076
-285.559	-113.978	-0.306	-0.059
-284.545	-84.390	-0.057	0.018
-283.530	-142.661	-0.263	0.025
-282.516	-62.768	0.118	-0.048
-281.501	-99.456	0.261	0.065
-280.486	109.051	0.020	0.024
-279.472	-57.223	-0.084	0.037
-278.457	-16.542	0.129	0.081
-277.443	-122.302	0.112	0.018
-276.428	20.649	-0.103	-0.082
-275.413	-174.608	-0.193	0.005
-274.399	-63.973	0.223	0.090
-273.384	225.985	-0.054	0.086
-272.370	533.042	-0.053	0.125
-271.355	-34.531	-0.260	0.141
-270.340	-8.420	-0.140	0.093
-269.326	-200.000	0.036	-0.248
-268.311	-100.955	0.189	-0.046
-267.297	123.707	0.159	0.198
-266.282	463.091	0.130	-0.287
-265.267	219.879	0.163	0.259
-264.253	-18.387	-0.394	-0.244
-263.238	101.860	0.152	0.176
-262.224	-66.691	-0.051	0.020
-261.209	-31.951	-0.072	0.040
-260.195	800.000	-0.107	-0.454
-259.180	-138.554	-0.361	-0.039
-258.165	404.943	0.125	0.261
-257.151	150.760	0.215	0.289
-256.136	-152.114	0.125	0.009
-255.122	52.378	0.128	-0.121
-254.107	490.011	-0.049	-0.111
-253.092	-104.386	-0.064	0.015
-252.078	235.743	0.071	0.116
-251.063	-14.927	-0.291	-0.185
-250.049	25.030	0.321	-0.263
-249.034	132.674	-0.173	0.221
-248.019	60.454	-0.112	-0.110
-247.005	-200.000	-0.070	0.362
-245.990	28.936	-0.206	-0.173
-244.976	7.247	0.220	0.163
-243.961	-105.381	0.025	0.006
-242.946	17.658	0.230	-0.181
-241.932	-3.634	-0.352	-0.242
-240.917	800.000	-0.026	0.102
-239.903	248.904	-0.051	0.085
-238.888	26.556	-0.187	0.155
-237.873	-62.252	0.309	0.127
-236.859	-133.613	-0.169	-0.021
-235.844	-55.112	-0.063	-0.028
-234.830	800.000	-0.085	-0.276
-233.815	-32.503	-0.176	-0.097
-232.800	800.000	0.059	0.239
-231.786	238.498	0.045	0.075
-230.771	-200.000	0.002	0.306
-229.757	517.505	-0.079	-0.183
-228.742	233.815	0.156	-0.254
-227.727	-113.232	0.281	0.055
-226.713	129.810	-0.442	-0.559
-225.698	-96.865	0.300	0.078
-224.684	-119.695	-0.310	-0.053
-223.669	-200.000	0.041	0.187
-222.655	434.577	-0.054	-0.116
-221.640	-200.000	0.031	-0.154
-220.625	539.442	0.055	0.130
-219.611	-115.709	0.334	-0.062
-218.596	-150.586	0.127	0.010
-217.582	-140.600	-0.059	-0.006
-216.567	290.079	0.139	-0.249
-215.552	-113.948	-0.155	-0.030
-214.538	800.000	-0.138	0.382
-213.523	273.004	-0.070	-0.122
-212.509	333.507	-0.050	-0.095
-211.494	386.916	0.073	0.149
-210.479	-200.000	0.040	0.299
-209.465	-77.530	-0.221	0.076
-208.450	-109.976	0.274	0.057
-207.436	-126.564	-0.140	0.021
-206.421	129.400	-0.126	0.159
-205.406	-95.137	0.150	0.040
-204.392	-200.000	-0.005	0.140
-203.377	-200.000	-0.006	-0.195
-202.363	-73.825	0.411	0.148
-201.348	-79.733	0.131	0.044
-200.333	12.217	0.307	0.233
-199.319	160.836	0.063	-0.087
-198.304	606.511	-0.076	0.186
-197.290	-200.000	0.008	-0.235
-196.275	-200.000	-0.013	-0.168
-195.260	52.007	0.321	0.302
-194.246	-64.404	-0.109	-0.044
-193.231	10.537	0.089	0.067
-192.217	100.508	0.026	0.030
-191.202	664.367	0.133	0.339
-190.187	-88.857	-0.107	-0.032
-189.173	217.874	0.081	-0.128
-188.158	310.728	0.162	-0.299
-187.144	-122.082	-0.081	0.013
-186.129	5.084	0.108	-0.079
-185.114	156.984	0.121	-0.165
-184.100	190.955	-0.200	-0.296
-183.085	55.956	-0.067	0.064
-182.071	800.000	0.077	-0.236
-181.056	176.299	0.084	-0.121
-180.042	-119.487	-0.307	-0.053
-179.027	-200.000	0.003	0.100
-178.012	-200.000	-0.039	-0.333
-176.998	-200.000	0.008	-0.190
-175.983	-200.000	0.006	-0.118
-174.969	204.017	0.126	-0.193
-173.954	-200.000	0.019	-0.093
-172.939	185.367	-0.210	0.308
-171.925	148.571	0.180	0.240
-170.910	-21.612	-0.368	0.221
-169.896	-140.158	-0.388	-0.040
-168.881	-7.800	0.614	0.410
-167.866	-100.154	0.326	-0.080
-166.852	-38.753	0.245	0.128
-165.837	59.870	0.047	0.046
-164.823	800.000	0.064	0.251
-163.808	321.087	-0.010	0.018
-162.793	110.666	-0.068	0.081
-161.779	-200.000	-0.016	-0.154
-160.764	-104.909	0.127	-0.029
-159.750	621.613	-0.090	0.223
-158.735	-13.869	0.187	-0.119
-157.720	-97.935	-0.204	0.052
-156.706	327.717	-0.094	0.179
-155.691	-78.496	-0.086	0.029
-154.677	-68.188	0.260	-0.100
-153.662	371.784	-0.145	-0.291
-152.647	727.539	-0.046	0.122
-151.633	-102.219	-0.067	-0.016
-150.618	455.213	-0.078	-0.170
-149.604	767.729	-0.150	-0.403
-148.589	290.626	-0.117	0.209
-147.574	-200.000	0.011	-0.207
-146.560	158.070	0.064	0.087
-145.545	224.900	0.053	-0.085
-144.531	-112.435	-0.021	-0.004
-143.516	-200.000	-0.030	-0.341
-142.502	366.424	-0.283	0.563
-141.487	-97.346	-0.102	-0.026
-140.472	-79.299	-0.159	0.053
-139.458	-133.374	0.268	0.033
-138.443	-8.273	-0.063	0.042
-137.429	94.714	-0.151	0.169
-136.414	-18.727	-0.150	0.092
-135.399	-38.144	0.333	-0.174
-134.385	-158.346	0.198	-0.011
-133.370	480.705	-0.076	-0.169
-132.356	93.438	-0.170	0.189
-131.341	800.000	-0.164	-0.489
-130.326	-177.207	-0.343	0.008
-129.312	-200.000	0.010	0.075
-128.297	-200.000	-0.053	0.244
-127.283	291.428	0.102	0.182
-126.268	-189.203	-0.044	-0.001
-125.253	-200.000	0.007	0.413
-124.239	-106.154	-0.252	-0.056
-123.224	32.765	0.104	-0.089
-122.210	184.469	-0.020	-0.030
