DTS Sentinel unit serial number:	SN413079Multiplexer serial number:	ORYXHardware model number:	OX4-SRSoftware version number:	ORYX F/W v4.00 Oryx Data Collector v3.7.2.0data status	okinstallation	princeton_trtdifferential loss correction	single-endedforward channel	channel 1reverse channel	N/Adate	2019/09/19time	03:26:35forward acquisition time	60.00reverse acquisition time	0.00gamma	496.2192k internal	0.2343k external	0.2343temperature offset calibration	1.0019default loss term (dB/km)	0.3790temperature slope calibration	1.0000multiplexer offset coefficient	1.0000multiplexer slope coefficient	1.0000fibre end	0.00T internal ref (°C)	20.66T ext. ref 1 (°C)	0.64T ext. ref 2 (°C)	14.25length (m)	temperature (°C)	Stokes	anti-Stokes-747.200	-1.615	0.283	-0.200
-746.185	-46.787	0.327	0.160
-745.171	-200.000	0.005	-0.277
-744.156	35.838	0.155	-0.137
-743.142	-133.019	0.093	-0.012
-742.127	-17.095	-0.103	0.065
-741.112	-200.000	0.003	0.184
-740.098	418.244	0.043	0.092
-739.083	195.919	0.123	-0.188
-738.069	-200.000	-0.009	0.219
-737.054	627.196	-0.022	0.057
-736.039	231.637	-0.148	-0.243
-735.025	198.108	0.167	0.256
-734.010	6.943	-0.160	-0.119
-732.996	29.018	-0.388	-0.329
-731.981	290.387	-0.105	0.190
-730.966	507.811	0.066	-0.153
-729.952	-200.000	0.012	-0.264
-728.937	-39.979	-0.115	0.060
-727.923	542.634	-0.174	0.416
-726.908	-73.786	0.185	-0.067
-725.894	-119.788	-0.318	0.055
-724.879	132.190	0.159	-0.205
-723.864	-108.389	0.238	-0.051
-722.850	-18.809	-0.282	0.176
-721.835	-102.275	0.255	-0.061
-720.821	-16.433	-0.059	0.038
-719.806	-161.921	0.290	-0.015
-718.791	-122.636	-0.345	-0.056
-717.777	800.000	-0.053	0.173
-716.762	142.801	-0.215	-0.285
-715.748	127.510	-0.061	0.078
-714.733	-26.579	-0.231	0.136
-713.718	-200.000	-0.012	-0.057
-712.704	-1.015	-0.188	-0.133
-711.689	31.490	0.261	-0.224
-710.675	-60.575	-0.432	-0.183
-709.660	800.000	-0.037	0.116
-708.645	342.974	0.139	0.272
-707.631	-200.000	-0.065	0.286
-706.616	128.273	0.210	-0.267
-705.602	89.928	0.193	0.216
-704.587	61.674	-0.111	0.111
-703.572	-79.050	-0.201	0.068
-702.558	208.076	-0.123	0.192
-701.543	-200.000	0.058	-0.292
-700.529	800.000	0.067	0.218
-699.514	-152.474	0.184	-0.013
-698.499	78.381	0.139	0.148
-697.485	-45.081	-0.226	-0.112
-696.470	-26.589	0.233	-0.137
-695.456	-200.000	-0.002	-0.291
-694.441	-200.000	0.020	-0.181
-693.426	-116.871	0.317	0.058
-692.412	383.439	-0.068	0.141
-691.397	-200.000	0.059	-0.263
-690.383	-130.166	-0.204	-0.028
-689.368	800.000	0.042	-0.139
-688.354	-14.228	-0.092	-0.059
-687.339	-21.119	0.081	-0.050
-686.324	-200.000	-0.025	-0.163
-685.310	-0.642	-0.132	-0.093
-684.295	167.825	-0.011	0.016
-683.281	373.715	-0.085	-0.172
-682.266	800.000	0.086	0.324
-681.251	800.000	-0.042	0.134
-680.237	673.193	-0.082	0.214
-679.222	41.052	-0.304	0.274
-678.208	-200.000	0.010	-0.181
-677.193	800.000	-0.026	0.074
-676.178	-53.586	-0.188	-0.086
-675.164	-59.245	-0.022	0.010
-674.149	4.737	-0.279	-0.204
-673.135	800.000	-0.015	-0.054
-672.120	64.344	-0.211	-0.212
-671.105	-200.000	-0.034	-0.534
-670.091	18.964	-0.158	-0.127
-669.076	-29.563	0.198	-0.113
-668.062	800.000	0.082	0.230
-667.047	-200.000	0.032	-0.180
-666.032	471.644	-0.154	0.345
-665.018	-164.184	-0.074	-0.003
-664.003	-74.230	0.191	-0.069
-662.989	195.695	0.129	-0.196
-661.974	-127.554	0.174	0.025
-660.959	5.725	-0.194	0.143
-659.945	-200.000	-0.008	0.187
-658.930	703.113	-0.157	0.414
-657.916	87.366	-0.166	0.183
-656.901	-200.000	-0.009	-0.060
-655.886	-200.000	-0.010	-0.049
-654.872	-67.404	-0.061	-0.024
-653.857	73.348	-0.217	0.227
-652.843	241.960	-0.228	0.380
-651.828	120.691	-0.037	-0.046
-650.814	-200.000	0.027	0.265
-649.799	-82.848	-0.096	-0.031
-648.784	2.355	-0.118	-0.085
-647.770	-55.451	-0.328	-0.147
-646.755	23.511	-0.052	-0.043
-645.741	-86.246	0.120	0.037
-644.726	-95.587	0.436	0.117
-643.711	214.460	-0.121	0.191
-642.697	-200.000	0.037	0.211
-641.682	36.385	-0.077	-0.067
-640.668	-200.000	-0.011	0.218
-639.653	6.123	0.255	0.189
-638.638	-43.954	-0.238	0.119
-637.624	153.516	0.134	-0.182
-636.609	-59.626	-0.099	0.042
-635.595	2.414	-0.105	-0.075
-634.580	-112.679	0.180	0.036
-633.565	800.000	-0.026	0.089
-632.551	800.000	-0.072	-0.243
-631.536	107.030	0.185	0.219
-630.522	-200.000	-0.011	0.179
-629.507	-85.436	-0.253	-0.079
-628.492	800.000	0.046	-0.131
-627.478	800.000	0.135	-0.383
-626.463	-17.997	0.118	0.074
-625.449	-192.207	0.379	-0.004
-624.434	-41.861	0.189	0.096
-623.419	800.000	-0.102	-0.293
-622.405	-87.952	-0.174	0.052
-621.390	191.339	-0.278	-0.418
-620.376	148.893	0.179	0.241
-619.361	16.802	-0.089	-0.070
-618.346	307.658	-0.171	-0.317
-617.332	-200.000	-0.073	-0.348
-616.317	39.679	-0.088	0.078
-615.303	-104.546	-0.291	-0.067
-614.288	444.031	0.106	-0.231
-613.273	83.448	-0.271	-0.294
-612.259	-200.000	0.051	0.299
-611.244	229.771	-0.208	-0.338
-610.230	166.989	-0.332	-0.469
-609.215	-127.090	0.271	-0.040
-608.201	-79.614	0.182	-0.061
-607.186	116.114	-0.120	0.146
-606.171	-107.053	-0.173	0.038
-605.157	190.877	0.098	0.147
-604.142	381.999	-0.027	-0.056
-603.128	-95.067	-0.107	-0.029
-602.113	328.840	-0.076	-0.146
-601.098	-114.527	-0.375	-0.072
-600.084	211.859	-0.051	0.080
-599.069	-43.046	0.013	0.007
-598.055	-156.963	0.409	-0.025
-597.040	-95.183	-0.171	-0.046
-596.025	800.000	0.047	-0.189
-595.011	-200.000	-0.022	0.233
-593.996	2.246	0.364	0.262
-592.982	-159.448	0.336	0.019
-591.967	368.286	-0.142	-0.287
-590.952	-10.557	-0.178	0.118
-589.938	800.000	-0.057	0.197
-588.923	-200.000	-0.005	0.276
-587.909	-36.546	0.322	0.173
-586.894	-23.472	-0.059	-0.035
-585.879	-62.305	0.063	-0.026
-584.865	-87.246	0.111	-0.033
-583.850	-97.353	-0.151	0.039
-582.836	-11.812	-0.260	0.170
-581.821	-104.460	-0.389	0.090
-580.806	-156.277	0.306	0.019
-579.792	800.000	0.132	0.367
-578.777	-200.000	0.003	0.382
-577.763	-200.000	0.043	-0.334
-576.748	-200.000	-0.033	-0.149
-575.733	-13.360	-0.363	0.234
-574.719	-156.260	0.288	-0.018
-573.704	-120.281	-0.060	0.010
-572.690	-200.000	0.021	0.185
-571.675	485.490	0.063	-0.143
-570.661	-84.570	-0.303	-0.095
-569.646	289.294	-0.111	-0.199
-568.631	-22.503	-0.424	0.255
-567.617	-136.407	0.318	0.037
-566.602	192.060	-0.082	-0.123
-565.588	-49.039	0.198	-0.094
-564.573	235.591	-0.115	-0.189
-563.558	-200.000	-0.017	0.360
-562.544	243.652	0.074	0.123
-561.529	-200.000	-0.035	-0.286
-560.515	114.374	0.157	0.191
-559.500	-45.007	0.202	0.100
-558.485	-200.000	-0.008	0.068
-557.471	-95.908	-0.147	-0.039
-556.456	-27.239	0.149	0.087
-555.442	-26.101	-0.080	0.047
-554.427	-200.000	0.004	-0.234
-553.412	29.019	-0.146	0.123
-552.398	283.123	0.091	0.161
-551.383	613.192	-0.083	0.206
-550.369	800.000	0.043	-0.175
-549.354	800.000	0.044	-0.170
-548.339	195.467	-0.113	0.171
-547.325	49.775	0.220	0.206
-546.310	275.045	-0.073	0.128
-545.296	-200.000	0.030	-0.167
-544.281	-97.202	-0.157	-0.041
-543.266	-91.307	0.470	0.133
-542.252	-25.452	-0.227	0.133
-541.237	-200.000	0.011	-0.159
-540.223	-200.000	0.060	-0.332
-539.208	-23.140	-0.080	0.048
-538.193	-200.000	0.033	-0.144
-537.179	38.522	0.155	0.137
-536.164	468.238	-0.083	0.185
-535.150	16.439	-0.160	-0.126
-534.135	139.863	-0.030	-0.039
-533.121	162.755	-0.193	-0.269
-532.106	753.680	-0.099	-0.265
-531.091	-71.231	0.136	-0.051
-530.077	-200.000	-0.077	-0.446
-529.062	177.990	0.264	0.383
-528.048	360.415	-0.122	0.242
-527.033	-58.967	-0.288	-0.123
-526.018	28.556	0.245	-0.206
-525.004	-200.000	0.000	-0.040
-523.989	-200.000	0.039	0.178
-522.975	-69.184	-0.146	0.056
-521.960	-109.166	0.108	-0.023
-520.945	-200.000	0.009	0.212
-519.931	24.230	0.051	-0.042
-518.916	366.516	-0.111	0.223
-517.902	23.434	0.106	-0.086
-516.887	-200.000	0.013	0.109
-515.872	-200.000	-0.005	0.055
-514.858	-200.000	-0.017	-0.174
-513.843	29.928	0.152	-0.129
-512.829	-200.000	0.043	-0.271
-511.814	-200.000	0.028	-0.177
-510.799	-24.698	0.247	0.145
-509.785	-200.000	-0.027	-0.278
-508.770	176.568	-0.137	0.198
-507.756	35.415	0.097	-0.084
-506.741	563.711	-0.085	0.204
-505.726	-5.289	-0.224	-0.153
-504.712	-147.291	0.407	0.034
-503.697	192.789	-0.154	0.231
-502.683	46.788	-0.104	0.095
-501.668	-200.000	0.002	0.266
-500.653	-155.270	-0.373	0.024
-499.639	-200.000	0.010	0.153
-498.624	-200.000	-0.027	-0.261
-497.610	414.504	-0.070	-0.147
-496.595	-200.000	-0.037	0.182
-495.581	-7.903	0.166	0.111
-494.566	-35.790	0.218	0.117
-493.551	11.885	-0.122	-0.093
-492.537	800.000	0.019	-0.060
-491.522	-76.886	0.278	0.096
-490.508	30.416	0.252	-0.213
-489.493	314.064	-0.091	0.169
-488.478	-150.996	0.300	-0.022
-487.464	-188.786	-0.205	0.002
-486.449	171.448	0.052	-0.074
-485.435	800.000	0.041	0.138
-484.420	800.000	-0.118	-0.360
-483.405	111.161	0.283	-0.338
-482.391	-200.000	-0.039	-0.227
-481.376	44.535	-0.184	0.167
-480.362	-36.049	-0.145	-0.078
-479.347	209.946	-0.036	0.055
-478.332	262.205	-0.060	-0.104
-477.318	1.452	-0.326	-0.232
-476.303	-43.504	-0.054	0.027
-475.289	-11.269	-0.177	-0.115
-474.274	-49.619	0.368	0.173
-473.259	-59.178	0.129	-0.055
-472.245	117.164	-0.033	-0.040
-471.230	-68.429	-0.193	0.074
-470.216	-200.000	0.003	-0.156
-469.201	-200.000	0.001	-0.016
-468.186	-176.500	0.046	-0.001
-467.172	74.847	0.160	0.167
-466.157	-95.083	-0.250	-0.067
-465.143	-23.720	0.175	-0.104
-464.128	75.499	0.101	0.105
-463.113	430.898	0.048	-0.104
-462.099	800.000	-0.018	0.063
-461.084	-176.482	-0.187	-0.005
-460.070	-18.572	0.282	0.174
-459.055	-200.000	-0.064	-0.444
-458.040	-52.228	0.163	0.075
-457.026	-96.658	0.116	-0.030
-456.011	-27.874	-0.218	0.125
-454.997	-23.390	0.087	0.052
-453.982	59.698	0.269	-0.263
-452.968	-109.252	-0.367	0.077
-451.953	-200.000	0.024	0.168
-450.938	-200.000	0.034	-0.221
-449.924	-41.579	0.150	0.076
-448.909	-100.041	-0.334	-0.082
-447.895	-161.637	-0.050	-0.003
-446.880	-114.692	0.224	0.042
-445.865	-200.000	0.008	-0.401
-444.851	355.710	-0.145	-0.285
-443.836	-93.689	-0.255	-0.070
-442.822	-7.531	0.138	-0.092
-441.807	71.852	0.081	-0.084
-440.792	-200.000	0.000	0.013
-439.778	-50.745	0.169	-0.079
-438.763	-145.588	-0.263	0.023
-437.749	54.490	0.255	0.243
-436.734	440.927	0.036	-0.079
-435.719	20.427	0.117	-0.094
-434.705	-200.000	0.007	-0.075
-433.690	-125.857	0.156	0.023
-432.676	184.034	0.173	-0.253
-431.661	50.638	-0.069	0.065
-430.646	1.524	0.119	-0.084
-429.632	-133.533	-0.138	-0.017
-428.617	-80.733	-0.078	0.025
-427.603	-200.000	0.016	-0.158
-426.588	4.468	0.104	-0.076
-425.573	131.896	-0.263	0.334
-424.559	397.113	-0.035	-0.071
-423.544	-30.654	-0.160	-0.090
-422.530	161.323	-0.100	-0.138
-421.515	173.765	-0.149	-0.213
-420.500	-141.164	0.467	-0.047
-419.486	53.466	-0.077	-0.073
-418.471	112.625	0.098	0.118
-417.457	800.000	0.096	0.351
-416.442	-200.000	0.043	0.507
-415.428	-75.429	-0.259	0.091
-414.413	-200.000	-0.019	0.205
-413.398	800.000	0.079	0.323
-412.384	-67.484	-0.419	0.163
-411.369	-200.000	0.002	0.067
-410.355	-126.421	-0.358	-0.053
-409.340	-75.275	0.099	-0.035
-408.325	152.028	-0.097	-0.131
-407.311	-200.000	-0.007	0.172
-406.296	34.033	0.222	-0.191
-405.282	-36.878	0.445	0.236
-404.267	35.357	-0.162	-0.140
-403.252	0.915	0.274	0.194
-402.238	163.963	-0.087	0.121
-401.223	-134.676	0.238	-0.029
-400.209	341.531	0.097	0.188
-399.194	-200.000	0.002	0.032
-398.179	70.199	-0.076	0.078
-397.165	-82.064	-0.454	-0.146
-396.150	800.000	0.101	0.310
-395.136	-200.000	0.019	-0.438
-394.121	-200.000	0.010	0.413
-393.106	-67.565	0.173	-0.067
-392.092	-64.736	0.081	-0.032
-391.077	-200.000	-0.063	-0.322
-390.063	-123.579	0.308	-0.048
-389.048	-136.843	0.143	-0.016
-388.033	174.212	0.120	0.171
-387.019	154.108	-0.122	0.166
-386.004	-15.413	-0.230	0.145
-384.990	-200.000	-0.047	0.342
-383.975	-34.462	-0.263	0.142
-382.960	-187.463	0.157	-0.002
-381.946	800.000	-0.053	0.211
-380.931	-200.000	-0.068	-0.365
-379.917	-37.522	-0.025	0.013
-378.902	-98.403	-0.190	0.048
-377.888	202.314	-0.121	-0.184
-376.873	59.464	-0.179	-0.174
-375.858	-117.886	0.243	-0.043
-374.844	174.945	0.142	0.203
-373.829	-14.494	0.082	0.052
-372.815	-200.000	-0.001	0.044
-371.800	101.014	0.242	0.278
-370.785	46.792	0.209	-0.192
-369.771	-200.000	-0.024	-0.218
-368.756	-37.140	0.354	0.187
-367.742	-68.940	-0.214	0.082
-366.727	313.969	0.079	-0.147
-365.712	11.041	0.058	-0.044
-364.698	192.533	-0.085	0.127
-363.683	-64.152	0.199	0.080
-362.669	429.997	0.041	0.087
-361.654	-200.000	-0.003	-0.063
-360.639	-200.000	0.006	0.067
-359.625	351.256	0.117	-0.229
-358.610	-121.381	-0.186	-0.031
-357.596	-200.000	-0.006	-0.215
-356.581	329.207	-0.044	-0.083
-355.566	-200.000	0.024	-0.109
-354.552	800.000	-0.060	-0.184
-353.537	-168.935	-0.190	-0.007
-352.523	72.004	-0.127	0.130
-351.508	-59.415	-0.280	-0.119
-350.493	179.433	0.095	0.137
-349.479	357.819	-0.176	-0.346
-348.464	-99.249	-0.213	-0.053
-347.450	-17.898	0.207	-0.128
-346.435	-200.000	-0.009	0.214
-345.420	-27.719	0.309	0.176
-344.406	-200.000	-0.024	0.119
-343.391	27.343	0.172	-0.143
-342.377	-92.557	-0.267	-0.074
-341.362	-200.000	-0.029	0.257
-340.348	22.158	-0.137	0.110
-339.333	581.205	-0.107	0.259
-338.318	800.000	0.111	-0.369
-337.304	-200.000	0.073	0.000
-336.289	-23.405	-0.128	-0.076
-335.275	-39.820	0.352	-0.181
-334.260	142.485	-0.123	0.161
-333.245	175.974	-0.054	-0.077
-332.231	261.387	0.163	-0.279
-331.216	-99.095	0.237	-0.059
-330.202	197.220	-0.064	-0.096
-329.187	17.353	0.101	0.079
-328.172	2.448	-0.297	-0.212
-327.158	281.416	-0.080	0.141
-326.143	745.946	0.083	0.221
-325.129	-200.000	0.027	0.220
-324.114	117.865	-0.039	-0.048
-323.099	-107.611	0.288	-0.062
-322.085	-159.427	-0.173	-0.010
-321.070	21.316	0.186	0.148
-320.056	112.548	0.073	0.087
-319.041	102.052	-0.174	0.200
-318.026	800.000	0.015	0.063
-317.012	104.229	-0.150	-0.174
-315.997	800.000	-0.082	0.344
-314.983	-150.387	-0.205	0.016
-313.968	-95.487	0.230	-0.061
-312.953	141.353	-0.174	-0.227
-311.939	-200.000	0.011	0.147
-310.924	-90.362	0.054	-0.015
-309.910	-200.000	-0.031	0.258
-308.895	-100.042	0.309	-0.076
-307.880	115.904	-0.249	0.300
-306.866	-147.679	0.234	-0.019
-305.851	-110.277	-0.177	-0.036
-304.837	-54.466	-0.248	-0.111
-303.822	-169.792	0.343	-0.012
-302.807	-9.719	0.089	0.058
-301.793	-38.877	-0.181	0.094
-300.778	-200.000	0.050	0.277
-299.764	117.702	-0.090	0.109
-298.749	-200.000	0.011	-0.276
-297.735	472.447	0.054	0.120
-296.720	-48.962	0.365	-0.172
-295.705	-106.088	-0.212	-0.047
-294.691	-146.143	0.296	0.026
-293.676	-200.000	-0.053	-0.263
-292.662	209.522	0.024	0.038
-291.647	-200.000	-0.050	-0.309
-290.632	800.000	0.127	-0.407
-289.618	800.000	-0.104	-0.390
-288.603	-7.722	0.328	-0.218
-287.589	800.000	-0.028	-0.105
-286.574	-82.336	-0.359	-0.115
-285.559	-9.995	0.201	-0.132
-284.545	-200.000	-0.074	0.330
-283.530	-200.000	-0.019	-0.166
-282.516	-200.000	0.017	0.150
-281.501	23.052	-0.175	0.141
-280.486	-60.101	0.063	-0.026
-279.472	94.278	0.267	-0.298
-278.457	-200.000	0.039	0.296
-277.443	800.000	0.079	0.230
-276.428	318.364	0.094	0.175
-275.413	28.565	0.145	0.120
-274.399	-70.637	0.064	0.024
-273.384	17.929	-0.155	-0.121
-272.370	-2.869	0.283	0.195
-271.355	383.179	-0.064	-0.128
-270.340	-148.377	-0.211	0.017
-269.326	-153.138	0.349	0.024
-268.311	-9.828	0.131	-0.086
-267.297	137.744	-0.063	-0.081
-266.282	-200.000	-0.038	0.298
-265.267	27.705	0.275	-0.227
-264.253	36.724	0.254	0.221
-263.238	13.052	0.091	0.069
-262.224	-200.000	-0.002	0.330
-261.209	-120.001	0.141	-0.024
-260.195	-200.000	-0.058	0.273
-259.180	-200.000	-0.002	0.168
-258.165	230.923	-0.122	0.196
-257.151	800.000	-0.086	-0.253
-256.136	-135.372	0.332	0.039
-255.122	-100.358	0.041	-0.010
-254.107	-200.000	-0.007	0.208
-253.092	-29.334	-0.345	0.194
-252.078	145.414	0.176	0.231
-251.063	-5.687	-0.275	0.185
-250.049	762.491	-0.070	-0.188
-249.034	-116.180	0.234	-0.043
-248.019	800.000	0.068	-0.272
-247.005	-177.938	0.418	0.010
-245.990	-73.620	0.033	-0.012
-244.976	-76.169	-0.235	-0.081
-243.961	-127.877	0.187	0.026
-242.946	571.939	-0.180	0.430
-241.932	-121.772	0.067	0.011
-240.917	-86.084	0.382	-0.116
-239.903	15.153	-0.230	-0.177
-238.888	-194.029	-0.201	0.002
-237.873	-29.776	-0.221	0.124
-236.859	157.774	-0.171	-0.232
-235.844	-29.495	0.225	0.126
-234.830	-11.607	0.265	-0.171
-233.815	-72.461	0.180	-0.065
-232.800	-97.975	-0.269	-0.068
-231.786	-200.000	0.001	-0.096
-230.771	-200.000	-0.007	-0.083
-229.757	-200.000	-0.003	0.046
-228.742	754.216	-0.088	0.234
-227.727	-73.210	-0.081	0.029
-226.713	-59.097	-0.085	-0.036
-225.698	800.000	0.102	-0.298
-224.684	396.999	-0.162	0.331
-223.669	-48.508	0.090	-0.043
-222.655	-200.000	-0.053	0.241
-221.640	-95.705	-0.225	-0.059
-220.625	228.889	-0.100	0.160
-219.611	-113.936	-0.269	0.051
-218.596	17.403	-0.311	-0.242
-217.582	-200.000	-0.020	0.249
-216.567	-73.710	0.245	-0.087
-215.552	-1.143	-0.177	-0.123
-214.538	-21.196	0.167	-0.100
-213.523	-200.000	0.039	0.271
-212.509	-49.463	-0.123	0.057
-211.494	-11.441	-0.443	0.286
-210.479	177.615	-0.123	0.175
-209.465	732.886	0.123	-0.323
-208.450	219.463	-0.081	0.128
-207.436	-33.150	0.243	0.132
-206.421	-200.000	-0.040	-0.236
-205.406	60.160	0.282	-0.273
-204.392	800.000	0.108	-0.326
-203.377	213.993	0.097	0.151
-202.363	-146.834	-0.162	-0.014
-201.348	-88.996	-0.167	0.048
-200.333	65.091	-0.243	-0.240
-199.319	8.378	-0.208	0.153
-198.304	30.895	0.480	-0.403
-197.290	-74.332	0.278	0.098
-196.275	51.501	-0.079	-0.074
-195.260	-86.343	-0.256	0.077
-194.246	-36.577	-0.423	0.223
-193.231	41.359	-0.223	0.198
-192.217	-37.407	0.282	0.147
-191.202	272.932	-0.017	0.030
-190.187	-200.000	-0.016	0.138
-189.173	-94.241	-0.176	0.047
-188.158	-200.000	0.016	-0.276
-187.144	-145.588	0.465	0.041
-186.129	-109.783	-0.397	0.082
-185.114	-20.152	-0.271	-0.163
-184.100	-134.929	0.236	0.028
-183.085	171.718	-0.105	0.148
-182.071	-115.682	0.113	0.021
-181.056	-200.000	0.023	-0.190
-180.042	266.010	-0.251	0.429
-179.027	-200.000	-0.000	-0.188
-178.012	232.453	0.204	-0.329
-176.998	-177.408	-0.292	-0.007
-175.983	-114.421	0.229	0.043
-174.969	-124.091	0.239	0.037
-173.954	303.099	-0.135	-0.245
-172.939	-200.000	0.004	0.249
-171.925	4.880	-0.175	0.126
-170.910	174.894	0.182	-0.258
-169.896	800.000	-0.032	-0.102
-168.881	-148.757	-0.275	-0.022
-167.866	341.473	-0.115	-0.221
-166.852	150.530	0.183	0.244
-165.837	605.858	0.139	0.340
-164.823	-200.000	-0.012	-0.075
-163.808	345.724	-0.092	0.178
-162.793	-28.235	0.145	0.082
-161.779	118.403	-0.208	-0.251
-160.764	800.000	-0.069	-0.296
-159.750	800.000	0.066	0.228
-158.735	800.000	-0.059	0.211
-157.720	181.240	-0.096	-0.138
-156.706	227.353	-0.109	-0.173
-155.691	-200.000	0.002	-0.307
-154.677	-63.089	0.225	-0.091
-153.662	194.255	0.015	-0.023
-152.647	383.495	0.107	0.215
-151.633	662.453	0.078	0.196
-150.618	742.305	-0.089	0.234
-149.604	113.598	-0.166	0.197
-148.589	-163.186	-0.179	0.008
-147.574	-200.000	0.004	0.296
-146.560	8.709	0.190	0.140
-145.545	-129.551	-0.210	0.028
-144.531	-200.000	0.003	-0.119
-143.516	162.779	-0.032	0.044
-142.502	-148.182	-0.045	-0.004
-141.487	-78.279	-0.167	0.056
-140.472	405.644	0.058	0.120
-139.458	-115.677	0.222	-0.041
-138.443	-200.000	0.052	-0.281
-137.429	800.000	-0.087	-0.326
-136.414	162.928	0.098	-0.135
-135.399	-168.600	-0.168	0.006
-134.385	-200.000	-0.006	0.054
-133.370	116.346	0.065	0.078
-132.356	-200.000	0.032	-0.249
-131.341	-6.933	0.219	-0.146
-130.326	34.349	-0.178	-0.152
-129.312	800.000	0.112	0.357
-128.297	-165.782	0.038	0.002
-127.283	66.834	0.389	0.387
-126.268	-200.000	-0.002	-0.108
-125.253	-127.405	-0.229	-0.033
-124.239	-100.856	0.113	-0.027
-123.224	-156.767	-0.234	0.014
