DTS Sentinel unit serial number:	SN413079Multiplexer serial number:	ORYXHardware model number:	OX4-SRSoftware version number:	ORYX F/W v4.00 Oryx Data Collector v3.7.2.0data status	okinstallation	princeton_trtdifferential loss correction	single-endedforward channel	channel 1reverse channel	N/Adate	2019/09/19time	13:30:35forward acquisition time	60.00reverse acquisition time	0.00gamma	496.2192k internal	0.2326k external	0.2326temperature offset calibration	1.0016default loss term (dB/km)	0.3790temperature slope calibration	1.0000multiplexer offset coefficient	1.0000multiplexer slope coefficient	1.0000fibre end	0.00T internal ref (°C)	30.00T ext. ref 1 (°C)	0.96T ext. ref 2 (°C)	27.06length (m)	temperature (°C)	Stokes	anti-Stokes-747.200	-131.483	0.115	0.015
-746.185	9.581	-0.406	0.311
-745.171	32.900	-0.199	0.174
-744.156	81.926	-0.204	0.223
-743.142	199.926	0.210	-0.326
-742.127	163.751	0.099	0.140
-741.112	268.574	-0.110	0.195
-740.098	701.343	-0.090	0.240
-739.083	-200.000	-0.032	0.169
-738.069	-32.582	-0.214	0.120
-737.054	-83.089	0.238	0.077
-736.039	92.203	-0.254	0.289
-735.025	-47.284	0.551	-0.270
-734.010	538.611	0.127	-0.304
-732.996	-63.776	-0.303	0.125
-731.981	-200.000	0.034	0.186
-730.966	-127.424	0.039	-0.006
-729.952	-131.090	-0.643	-0.086
-728.937	-200.000	0.006	0.304
-727.923	409.781	-0.189	0.404
-726.908	-79.968	0.118	-0.040
-725.894	-137.244	-0.150	-0.017
-724.879	-131.073	-0.244	-0.033
-723.864	-140.558	-0.595	0.062
-722.850	-17.721	0.239	-0.151
-721.835	-134.333	-0.349	-0.043
-720.821	312.453	-0.210	-0.398
-719.806	-200.000	0.001	0.240
-718.791	-52.827	0.305	-0.142
-717.777	800.000	0.066	-0.218
-716.762	50.572	0.164	0.156
-715.748	-200.000	-0.011	-0.081
-714.733	684.075	-0.047	-0.122
-713.718	-200.000	0.016	-0.744
-712.704	-200.000	-0.019	-0.103
-711.689	-72.678	0.119	-0.044
-710.675	81.675	0.155	-0.169
-709.660	1.389	-0.142	-0.103
-708.645	-200.000	0.048	-0.293
-707.631	800.000	0.031	0.130
-706.616	800.000	0.070	-0.203
-705.602	-200.000	-0.029	0.181
-704.587	521.440	-0.120	-0.283
-703.572	800.000	0.113	-0.344
-702.558	61.086	0.272	0.272
-701.543	278.422	0.019	0.034
-700.529	13.870	-0.107	-0.084
-699.514	-200.000	0.011	-0.095
-698.499	-116.807	0.108	0.020
-697.485	-143.142	-0.487	0.047
-696.470	-200.000	-0.020	0.156
-695.456	-157.886	-0.505	-0.030
-694.441	138.003	0.103	-0.135
-693.426	-131.920	0.293	-0.039
-692.412	-200.000	-0.016	-0.106
-691.397	800.000	0.042	0.159
-690.383	-60.195	0.071	0.030
-689.368	-3.448	-0.134	0.094
-688.354	77.005	-0.063	0.067
-687.339	76.314	0.184	0.196
-686.324	-55.551	0.122	-0.055
-685.310	176.219	-0.063	-0.091
-684.295	360.460	-0.021	-0.042
-683.281	800.000	-0.020	-0.073
-682.266	30.374	-0.123	-0.106
-681.251	133.932	-0.047	-0.062
-680.237	-83.486	-0.208	0.067
-679.222	-178.770	-0.306	0.007
-678.208	-168.659	-0.191	-0.007
-677.193	-166.941	-0.282	0.012
-676.178	28.635	-0.134	-0.114
-675.164	3.430	0.073	0.053
-674.149	150.756	-0.103	-0.141
-673.135	1.896	0.151	-0.110
-672.120	93.321	-0.155	-0.176
-671.105	157.714	-0.158	-0.220
-670.091	687.415	-0.029	0.076
-669.076	28.733	-0.192	-0.163
-668.062	-24.109	0.227	0.136
-667.047	800.000	-0.080	-0.260
-666.032	-50.238	-0.335	-0.159
-665.018	-20.969	0.131	0.081
-664.003	0.787	-0.142	-0.102
-662.989	800.000	0.065	-0.230
-661.974	-200.000	-0.027	-0.175
-660.959	-68.451	-0.215	-0.084
-659.945	545.962	-0.075	0.179
-658.930	-21.580	0.151	0.092
-657.916	580.006	-0.110	-0.271
-656.901	411.368	0.061	0.131
-655.886	417.457	0.120	-0.257
-654.872	-173.279	-0.086	-0.003
-653.857	-107.901	-0.130	-0.028
-652.843	-200.000	0.004	0.268
-651.828	444.749	-0.096	0.211
-650.814	73.564	-0.035	-0.037
-649.799	-95.517	0.208	-0.056
-648.784	800.000	-0.043	-0.139
-647.770	800.000	0.050	-0.194
-646.755	238.310	0.177	0.296
-645.741	61.528	-0.341	-0.341
-644.726	493.800	0.071	0.164
-643.711	-200.000	0.023	0.156
-642.697	-32.610	0.244	-0.136
-641.682	-200.000	-0.013	-0.090
-640.668	7.545	0.175	0.132
-639.653	120.034	0.207	-0.258
-638.638	-40.398	-0.173	0.090
-637.624	-60.937	0.149	0.063
-636.609	495.275	-0.060	-0.139
-635.595	-200.000	0.026	0.123
-634.580	29.129	0.239	0.204
-633.565	24.679	-0.252	-0.210
-632.551	62.431	0.105	-0.105
-631.536	565.735	-0.052	0.126
-630.522	86.601	0.214	-0.237
-629.507	-200.000	-0.023	0.117
-628.492	-200.000	0.014	0.153
-627.478	203.527	0.139	-0.217
-626.463	5.416	-0.215	-0.159
-625.449	353.346	0.115	0.229
-624.434	-99.337	-0.325	0.082
-623.419	-151.146	-0.335	0.025
-622.405	-42.732	0.239	-0.122
-621.390	0.615	-0.252	0.181
-620.376	-17.491	-0.238	0.150
-619.361	74.076	-0.193	0.203
-618.346	-2.268	-0.130	-0.092
-617.332	-200.000	-0.023	0.149
-616.317	-200.000	0.010	-0.418
-615.303	268.209	0.083	0.146
-614.288	2.411	0.211	-0.153
-613.273	800.000	0.076	0.231
-612.259	-200.000	0.008	-0.094
-611.244	75.832	0.074	0.079
-610.230	-200.000	0.011	-0.190
-609.215	0.508	-0.135	-0.097
-608.201	-65.975	0.091	0.036
-607.186	475.850	0.130	0.294
-606.171	-57.959	-0.320	-0.140
-605.157	-110.601	0.308	-0.064
-604.142	82.710	0.104	-0.114
-603.128	-73.649	-0.068	0.025
-602.113	439.469	-0.043	-0.094
-601.098	543.612	-0.092	-0.219
-600.084	800.000	-0.037	0.146
-599.069	386.180	0.078	0.162
-598.055	-200.000	-0.021	-0.242
-597.040	50.124	-0.118	-0.112
-596.025	62.097	-0.167	0.167
-595.011	-200.000	0.059	-0.437
-593.996	-200.000	0.030	0.309
-592.982	-200.000	0.003	0.061
-591.967	-200.000	-0.023	0.218
-590.952	12.245	0.195	-0.150
-589.938	68.397	-0.083	-0.086
-588.923	570.584	0.122	-0.298
-587.909	-200.000	0.057	0.346
-586.894	800.000	0.106	-0.434
-585.879	504.041	0.105	0.244
-584.865	-67.496	-0.050	-0.019
-583.850	-54.554	-0.145	0.066
-582.836	-85.743	0.225	0.070
-581.821	240.885	-0.109	-0.182
-580.806	-43.377	-0.122	-0.062
-579.792	-121.352	-0.378	-0.063
-578.777	-21.029	-0.041	0.025
-577.763	218.613	-0.050	-0.080
-576.748	747.678	0.087	0.236
-575.733	15.743	0.050	-0.039
-574.719	-18.007	0.196	-0.123
-573.704	-64.339	-0.057	0.023
-572.690	-200.000	0.024	0.157
-571.675	-200.000	-0.035	0.228
-570.661	-78.720	-0.201	-0.069
-569.646	800.000	-0.050	0.150
-568.631	395.723	-0.078	-0.162
-567.617	173.610	0.075	0.109
-566.602	-87.553	0.262	-0.079
-565.588	-85.615	0.074	0.023
-564.573	-31.872	0.201	-0.113
-563.558	-88.106	0.414	-0.124
-562.544	-37.134	-0.246	0.132
-561.529	505.845	-0.070	-0.162
-560.515	800.000	-0.070	-0.223
-559.500	-97.518	0.118	-0.031
-558.485	109.858	0.113	0.136
-557.471	-200.000	0.010	-0.220
-556.456	150.830	0.154	-0.209
-555.442	45.686	0.225	0.208
-554.427	-140.637	0.282	-0.029
-553.412	40.427	-0.241	-0.218
-552.398	-50.468	0.346	0.164
-551.383	-96.550	-0.183	-0.048
-550.369	-33.709	0.197	-0.109
-549.354	56.739	-0.151	0.147
-548.339	-64.905	0.203	-0.082
-547.325	-109.642	-0.030	0.006
-546.310	602.337	0.119	0.295
-545.296	64.825	-0.229	-0.231
-544.281	145.786	0.099	-0.132
-543.266	39.080	0.054	0.048
-542.252	-200.000	-0.054	0.238
-541.237	-71.506	0.370	-0.138
-540.223	178.975	-0.149	-0.218
-539.208	82.383	0.189	-0.205
-538.193	462.343	-0.170	-0.379
-537.179	701.602	0.114	0.299
-536.164	542.858	-0.081	0.193
-535.150	147.417	0.081	-0.110
-534.135	-200.000	0.091	0.427
-533.121	314.974	0.123	0.231
-532.106	209.989	0.161	0.253
-531.091	-200.000	-0.040	0.261
-530.077	223.504	-0.120	0.193
-529.062	499.564	-0.084	-0.194
-528.048	800.000	-0.054	0.167
-527.033	63.916	0.142	-0.142
-526.018	37.208	-0.261	-0.231
-525.004	52.806	-0.208	-0.199
-523.989	340.368	-0.147	0.288
-522.975	135.246	-0.188	0.245
-521.960	40.315	-0.080	0.072
-520.945	-5.040	0.178	0.122
-519.931	379.653	-0.128	0.262
-518.916	-33.361	-0.246	-0.136
-517.902	593.358	-0.011	0.026
-516.887	-22.352	-0.120	-0.072
-515.872	214.002	0.149	-0.235
-514.858	-29.422	-0.221	-0.127
-513.843	-123.317	0.311	0.050
-512.829	800.000	-0.080	-0.312
-511.814	-42.764	0.091	-0.046
-510.799	-44.790	0.201	0.100
-509.785	360.285	-0.017	-0.034
-508.770	163.730	0.157	-0.221
-507.756	296.859	-0.217	-0.398
-506.741	249.878	0.056	0.095
-505.726	-62.052	0.181	0.076
-504.712	-88.977	-0.321	-0.095
-503.697	-90.223	0.294	-0.086
-502.683	-200.000	0.019	0.192
-501.668	800.000	0.025	-0.079
-500.653	-200.000	0.002	-0.035
-499.639	-27.008	-0.090	-0.053
-498.624	470.940	-0.101	-0.226
-497.610	-200.000	-0.022	0.114
-496.595	-82.067	-0.260	-0.085
-495.581	-200.000	0.000	-0.072
-494.566	-160.044	0.104	0.006
-493.551	273.794	0.109	-0.193
-492.537	-200.000	-0.006	0.122
-491.522	-25.229	-0.101	0.060
-490.508	377.858	-0.175	-0.357
-489.493	-200.000	0.016	-0.272
-488.478	-87.190	0.215	-0.065
-487.464	484.883	-0.076	0.174
-486.449	800.000	0.095	-0.318
-485.435	800.000	-0.037	-0.154
-484.420	577.516	0.143	-0.350
-483.405	-91.703	-0.576	-0.163
-482.391	73.931	0.051	-0.053
-481.376	24.815	0.207	0.171
-480.362	-39.245	0.339	-0.178
-479.347	-200.000	-0.043	-0.226
-478.332	36.901	0.037	-0.032
-477.318	-200.000	-0.031	-0.159
-476.303	18.040	0.177	0.141
-475.289	766.606	0.102	-0.277
-474.274	83.967	0.105	0.115
-473.259	-112.193	0.124	-0.025
-472.245	23.514	0.071	0.058
-471.230	-110.220	-0.300	0.062
-470.216	-107.444	-0.246	-0.054
-469.201	229.832	0.055	-0.089
-468.186	-128.309	-0.193	-0.027
-467.172	-138.981	0.131	-0.014
-466.157	-108.035	-0.144	-0.031
-465.143	52.965	0.191	0.182
-464.128	158.466	-0.102	-0.142
-463.113	502.993	-0.072	-0.166
-462.099	800.000	-0.042	0.171
-461.084	361.109	-0.107	-0.213
-460.070	84.516	-0.056	-0.061
-459.055	195.693	0.114	0.173
-458.040	183.174	-0.144	-0.213
-457.026	131.335	0.136	0.175
-456.011	37.853	0.215	-0.191
-454.997	800.000	0.068	-0.254
-453.982	-19.542	0.255	0.158
-452.968	-200.000	0.067	0.317
-451.953	-173.295	-0.124	0.004
-450.938	-42.147	0.228	0.116
-449.924	-200.000	0.030	0.208
-448.909	121.520	-0.224	0.278
-447.895	-55.702	-0.126	-0.056
-446.880	29.879	-0.079	0.067
-445.865	-107.186	0.071	-0.016
-444.851	-7.832	0.146	0.098
-443.836	-36.815	0.108	-0.058
-442.822	-104.055	0.485	-0.113
-441.807	-150.134	-0.154	0.012
-440.792	-200.000	0.028	0.135
-439.778	162.278	0.136	0.190
-438.763	-58.664	-0.023	-0.010
-437.749	800.000	0.038	0.132
-436.734	112.430	0.114	0.138
-435.719	-114.964	-0.193	0.037
-434.705	-51.480	-0.105	0.049
-433.690	611.592	-0.055	-0.136
-432.676	-200.000	-0.006	-0.049
-431.661	714.566	0.093	0.246
-430.646	-142.457	-0.231	-0.023
-429.632	283.182	0.110	0.196
-428.617	268.610	-0.067	-0.117
-427.603	-34.786	-0.203	-0.110
-426.588	30.484	-0.195	-0.166
-425.573	699.576	0.083	-0.217
-424.559	300.017	0.012	-0.023
-423.544	-81.126	0.255	0.084
-422.530	-105.104	-0.042	0.010
-421.515	-3.566	0.133	0.092
-420.500	-200.000	-0.007	0.392
-419.486	747.064	-0.084	0.226
-418.471	172.583	0.089	0.127
-417.457	-138.040	0.083	-0.009
-416.442	800.000	0.047	-0.191
-415.428	103.201	-0.232	0.271
-414.413	800.000	-0.006	0.021
-413.398	-65.915	0.199	0.079
-412.384	-102.762	-0.320	0.076
-411.369	568.916	-0.030	0.072
-410.355	1.783	0.094	-0.068
-409.340	-38.755	-0.423	-0.222
-408.325	-81.406	-0.065	0.021
-407.311	-200.000	0.059	0.377
-406.296	-87.414	-0.258	0.078
-405.282	384.994	-0.109	-0.224
-404.267	-70.119	0.326	-0.124
-403.252	353.239	-0.108	0.212
-402.238	50.380	-0.216	-0.203
-401.223	73.828	0.088	0.092
-400.209	-200.000	-0.001	0.274
-399.194	39.956	-0.148	0.132
-398.179	147.682	0.144	0.194
-397.165	800.000	0.037	0.112
-396.150	-200.000	-0.021	-0.134
-395.136	-45.835	-0.076	-0.037
-394.121	131.532	0.039	-0.050
-393.106	497.989	0.065	0.150
-392.092	800.000	0.092	-0.357
-391.077	-142.375	0.506	0.050
-390.063	-157.657	0.360	0.021
-389.048	800.000	0.043	0.125
-388.033	159.363	-0.110	0.153
-387.019	79.056	-0.062	0.066
-386.004	-158.955	0.061	-0.003
-384.990	-109.023	0.116	0.025
-383.975	193.006	-0.130	0.195
-382.960	-123.127	-0.362	-0.058
-381.946	-172.076	0.253	0.008
-380.931	144.267	-0.097	0.129
-379.917	114.461	0.197	-0.239
-378.902	-200.000	-0.030	0.254
-377.888	-23.523	0.241	-0.144
-376.873	-200.000	-0.037	-0.185
-375.858	341.045	0.023	0.045
-374.844	-200.000	0.040	0.459
-373.829	82.641	0.195	-0.211
-372.815	149.495	0.193	-0.260
-371.800	800.000	0.087	0.248
-370.785	48.129	-0.124	0.115
-369.771	-120.154	-0.184	-0.031
-368.756	-200.000	0.062	-0.385
-367.742	165.531	-0.113	0.159
-366.727	281.430	-0.076	0.136
-365.712	414.789	0.092	-0.195
-364.698	108.518	0.211	-0.250
-363.683	-36.701	-0.372	-0.199
-362.669	15.076	-0.065	-0.051
-361.654	214.354	0.098	0.154
-360.639	414.289	-0.107	0.226
-359.625	555.070	-0.129	-0.309
-358.610	109.584	-0.054	-0.064
-357.596	800.000	-0.045	0.147
-356.581	-177.780	0.268	0.006
-355.566	800.000	0.054	-0.159
-354.552	-200.000	0.022	0.126
-353.537	-43.293	-0.031	0.016
-352.523	-104.328	0.101	-0.023
-351.508	189.759	0.057	-0.085
-350.493	94.451	-0.066	0.074
-349.479	800.000	0.065	0.223
-348.464	-200.000	0.017	0.227
-347.450	131.210	-0.128	0.163
-346.435	-75.761	-0.282	0.099
-345.420	69.619	-0.114	-0.117
-344.406	-56.436	0.242	-0.107
-343.391	-71.959	0.230	-0.085
-342.377	131.812	0.210	-0.269
-341.362	-200.000	-0.014	0.123
-340.348	331.914	0.090	0.172
-339.333	800.000	-0.090	0.328
-338.318	400.452	0.114	0.237
-337.304	-162.213	-0.324	-0.016
-336.289	51.943	0.201	0.190
-335.275	-200.000	-0.036	0.163
-334.260	-19.412	0.276	0.170
-333.245	272.690	0.116	0.203
-332.231	800.000	0.032	0.110
-331.216	-180.083	-0.182	0.004
-330.202	5.666	0.204	-0.150
-329.187	36.452	-0.167	-0.146
-328.172	-200.000	0.003	0.018
-327.158	383.589	0.170	-0.347
-326.143	143.020	0.191	-0.252
-325.129	800.000	0.052	-0.223
-324.114	462.041	0.133	-0.295
-323.099	-11.895	-0.156	0.101
-322.085	178.189	0.191	-0.277
-321.070	98.887	-0.170	-0.195
-320.056	167.800	0.067	0.094
-319.041	-32.645	-0.360	0.199
-318.026	172.674	-0.232	-0.332
-317.012	-200.000	0.029	-0.151
-315.997	800.000	-0.094	0.261
-314.983	-106.276	0.026	-0.006
-313.968	800.000	0.044	-0.145
-312.953	21.673	0.131	0.106
-311.939	-200.000	0.033	0.190
-310.924	96.620	-0.129	-0.146
-309.910	-84.055	-0.111	-0.035
-308.895	-28.738	-0.126	-0.072
-307.880	-167.499	-0.175	-0.007
-306.866	800.000	-0.040	-0.169
-305.851	-92.234	-0.189	-0.053
-304.837	305.480	0.142	0.262
-303.822	59.825	0.097	-0.095
-302.807	40.202	-0.307	-0.273
-301.793	-111.679	-0.034	0.007
-300.778	-83.248	0.099	-0.031
-299.764	83.260	-0.287	0.309
-298.749	186.695	-0.107	-0.157
-297.735	-200.000	-0.316	0.002
-296.720	-194.751	0.100	-0.001
-295.705	7.060	0.181	0.134
-294.691	321.844	-0.045	0.084
-293.676	-51.211	-0.136	-0.063
-292.662	800.000	-0.110	0.384
-291.647	-200.000	0.011	-0.090
-290.632	118.090	0.156	0.190
-289.618	39.323	-0.107	-0.095
-288.603	800.000	0.021	-0.091
-287.589	21.038	0.065	0.052
-286.574	41.019	-0.207	0.185
-285.559	-153.657	-0.170	0.012
-284.545	473.274	-0.103	-0.230
-283.530	-62.771	-0.215	0.088
-282.516	83.470	0.113	0.122
-281.501	-191.115	-0.164	0.002
-280.486	-100.961	0.137	0.033
-279.472	144.463	-0.265	-0.351
-278.457	42.856	-0.178	0.160
-277.443	151.956	0.161	-0.217
-276.428	1.704	-0.301	0.215
-275.413	7.888	0.101	-0.075
-274.399	-23.938	0.153	0.091
-273.384	-26.176	-0.297	-0.173
-272.370	43.266	0.079	-0.072
-271.355	800.000	0.029	0.115
-270.340	-200.000	-0.004	0.068
-269.326	640.353	0.042	0.106
-268.311	-97.973	0.115	-0.029
-267.297	-200.000	-0.016	-0.085
-266.282	55.802	-0.222	-0.213
-265.267	25.103	0.125	0.103
-264.253	109.919	0.209	0.248
-263.238	-200.000	-0.021	0.284
-262.224	258.844	-0.152	-0.260
-261.209	-200.000	-0.007	0.125
-260.195	-129.026	0.139	0.019
-259.180	800.000	-0.047	-0.148
-258.165	328.362	-0.088	-0.167
-257.151	-117.982	-0.057	-0.010
-256.136	-67.412	-0.019	-0.007
-255.122	-195.364	0.127	0.001
-254.107	-79.190	0.169	0.057
-253.092	-92.883	-0.108	0.030
-252.078	-30.449	0.234	0.131
-251.063	-128.933	0.372	-0.052
-250.049	-200.000	-0.025	-0.328
-249.034	-200.000	0.020	-0.185
-248.019	77.170	-0.035	0.037
-247.005	189.034	-0.187	-0.278
-245.990	48.602	0.147	-0.136
-244.976	643.515	0.061	0.155
-243.961	174.029	0.050	-0.071
-242.946	44.667	-0.156	0.142
-241.932	108.912	-0.284	0.336
-240.917	-200.000	0.013	-0.076
-239.903	-200.000	-0.020	0.156
-238.888	-27.935	0.195	0.112
-237.873	-142.988	0.117	-0.011
-236.859	-189.620	0.504	-0.006
-235.844	168.160	-0.123	-0.174
-234.830	37.534	0.081	-0.071
-233.815	594.924	0.057	-0.140
-232.800	-1.953	0.092	0.064
-231.786	-63.782	-0.084	-0.034
-230.771	9.519	0.148	0.111
-229.757	-200.000	-0.040	-0.257
-228.742	800.000	-0.076	0.319
-227.727	-151.229	-0.185	-0.014
-226.713	800.000	0.062	-0.267
-225.698	-139.002	-0.264	0.028
-224.684	404.071	-0.159	-0.332
-223.669	30.579	0.309	-0.261
-222.655	-86.740	-0.257	-0.078
-221.640	30.226	0.325	0.274
-220.625	322.164	0.137	-0.258
-219.611	-200.000	0.026	-0.132
-218.596	657.565	-0.038	-0.098
-217.582	178.099	-0.222	0.320
-216.567	133.855	0.221	0.283
-215.552	-38.685	0.167	0.087
-214.538	222.500	-0.197	0.314
-213.523	229.890	-0.037	-0.060
-212.509	-112.677	0.281	-0.055
-211.494	-52.224	-0.187	0.086
-210.479	800.000	-0.069	-0.208
-209.465	97.776	-0.138	0.157
-208.450	-165.926	0.120	0.005
-207.436	-200.000	0.011	0.058
-206.421	-200.000	-0.019	0.150
-205.406	55.932	-0.193	0.185
-204.392	-200.000	0.020	-0.102
-203.377	587.431	0.093	-0.226
-202.363	800.000	-0.091	0.285
-201.348	-200.000	-0.013	0.080
-200.333	434.368	-0.070	-0.149
-199.319	12.925	0.109	-0.083
-198.304	-200.000	0.021	0.233
-197.290	-23.652	-0.261	-0.154
-196.275	-141.063	0.075	0.008
-195.260	242.233	-0.228	-0.376
-194.246	-200.000	0.030	-0.269
-193.231	37.023	-0.292	-0.255
-192.217	793.142	-0.106	-0.288
-191.202	60.124	0.065	0.063
-190.187	-114.372	-0.257	0.049
-189.173	318.417	0.074	0.138
-188.158	89.893	0.130	0.143
-187.144	11.892	0.097	-0.073
-186.129	-51.564	0.185	-0.085
-185.114	-200.000	0.030	0.430
-184.100	82.834	-0.193	-0.207
-183.085	-67.994	0.096	0.037
-182.071	-34.992	0.194	-0.104
-181.056	-200.000	0.101	0.497
-180.042	-177.565	-0.292	0.007
-179.027	-84.758	0.243	0.075
-178.012	196.775	-0.220	-0.330
-176.998	-47.976	-0.458	-0.219
-175.983	94.955	0.199	0.224
-174.969	331.856	0.092	0.175
-173.954	52.343	-0.204	0.192
-172.939	-46.564	-0.072	0.035
-171.925	13.635	0.115	0.088
-170.910	78.026	-0.216	0.227
-169.896	341.846	0.116	0.223
-168.881	800.000	0.040	0.155
-167.866	-59.626	-0.214	0.090
-166.852	114.650	-0.130	-0.156
-165.837	17.510	0.148	0.116
-164.823	511.469	-0.167	0.383
-163.808	-200.000	0.040	0.464
-162.793	-59.491	0.231	0.098
-161.779	-91.736	-0.080	0.022
-160.764	-125.901	0.303	0.045
-159.750	-178.152	-0.231	0.005
-158.735	800.000	-0.040	0.110
-157.720	583.583	-0.063	0.153
-156.706	-31.940	-0.161	-0.089
-155.691	-132.229	-0.302	-0.039
-154.677	-200.000	0.010	0.049
-153.662	-166.066	0.263	0.011
-152.647	-200.000	0.054	-0.383
-151.633	-200.000	0.002	-0.229
-150.618	-168.377	-0.201	-0.008
-149.604	-181.566	0.188	0.004
-148.589	124.088	0.183	-0.226
-147.574	679.921	-0.123	-0.316
-146.560	-96.796	-0.215	0.056
-145.545	-200.000	-0.037	-0.267
-144.531	-193.548	0.225	0.002
-143.516	-154.332	0.211	0.014
-142.502	127.079	-0.151	-0.189
-141.487	-200.000	0.047	-0.230
-140.472	-200.000	-0.014	0.207
-139.458	109.306	-0.226	-0.266
-138.443	-200.000	0.067	0.406
-137.429	542.240	0.074	0.174
-136.414	-200.000	-0.006	0.364
-135.399	-200.000	-0.011	0.214
-134.385	-100.481	0.181	-0.044
-133.370	217.965	-0.024	-0.037
-132.356	107.213	-0.104	0.122
-131.341	-98.669	-0.261	-0.065
-130.326	250.725	-0.151	-0.253
-129.312	-78.871	0.362	-0.122
-128.297	-65.078	0.242	-0.096
-127.283	31.284	-0.176	0.148
-126.268	-189.627	-0.199	-0.002
-125.253	68.867	-0.264	-0.267
-124.239	-117.348	-0.126	0.023
-123.224	241.094	-0.154	0.253
-122.210	26.846	0.133	0.110
-121.195	-0.860	-0.276	-0.192
-120.180	529.188	0.057	-0.133
