DTS Sentinel unit serial number:	SN413079Multiplexer serial number:	ORYXHardware model number:	OX4-SRSoftware version number:	ORYX F/W v4.00 Oryx Data Collector v3.7.2.0data status	okinstallation	princeton_trtdifferential loss correction	single-endedforward channel	channel 1reverse channel	N/Adate	2019/09/17time	05:06:35forward acquisition time	60.00reverse acquisition time	0.00gamma	496.2192k internal	0.2324k external	0.2324temperature offset calibration	0.9965default loss term (dB/km)	0.3790temperature slope calibration	1.0000multiplexer offset coefficient	1.0000multiplexer slope coefficient	1.0000fibre end	0.00T internal ref (°C)	29.44T ext. ref 1 (°C)	0.13T ext. ref 2 (°C)	23.92length (m)	temperature (°C)	Stokes	anti-Stokes-747.200	-200.000	-0.011	0.195
-746.185	-17.929	-0.362	0.229
-745.171	-114.913	0.138	-0.026
-744.156	-102.347	-0.081	0.020
-743.142	70.789	-0.141	0.147
-742.127	-200.000	0.023	0.207
-741.112	800.000	-0.034	0.127
-740.098	800.000	0.080	0.335
-739.083	-16.190	0.186	0.119
-738.069	-67.633	0.149	-0.059
-737.054	13.645	-0.069	0.054
-736.039	-4.947	-0.079	0.055
-735.025	29.406	0.183	-0.157
-734.010	-37.673	-0.387	-0.208
-732.996	354.667	-0.124	0.248
-731.981	-64.076	-0.170	0.070
-730.966	-14.948	-0.220	0.142
-729.952	483.904	-0.118	-0.271
-728.937	-78.803	0.321	-0.111
-727.923	800.000	-0.043	-0.186
-726.908	181.484	0.128	-0.190
-725.894	-118.144	-0.178	0.032
-724.879	-95.118	-0.095	-0.026
-723.864	-69.424	-0.283	0.109
-722.850	292.912	-0.039	-0.073
-721.835	-88.688	-0.099	0.030
-720.821	-122.880	0.241	0.039
-719.806	-200.000	0.045	0.397
-718.791	-40.589	-0.113	-0.059
-717.777	330.868	-0.029	-0.056
-716.762	-200.000	0.023	-0.205
-715.748	-175.605	0.282	0.008
-714.733	-28.416	-0.173	0.101
-713.718	-70.596	0.170	-0.065
-712.704	-200.000	-0.041	0.222
-711.689	-78.021	-0.028	0.010
-710.675	187.004	0.067	-0.100
-709.660	37.079	-0.107	0.096
-708.645	40.159	-0.190	-0.172
-707.631	800.000	0.052	0.185
-706.616	-106.601	0.278	-0.062
-705.602	-86.586	-0.336	-0.104
-704.587	-33.573	0.217	-0.121
-703.572	-132.363	0.365	-0.047
-702.558	-167.190	0.044	-0.002
-701.543	137.614	-0.131	0.172
-700.529	80.398	0.237	0.257
-699.514	-200.000	-0.013	-0.379
-698.499	-79.217	-0.086	-0.029
-697.485	36.774	0.247	-0.220
-696.470	-101.641	-0.170	0.042
-695.456	16.226	0.253	0.201
-694.441	671.893	-0.093	-0.243
-693.426	92.089	-0.138	0.157
-692.412	800.000	0.044	0.130
-691.397	-147.336	-0.192	0.016
-690.383	719.928	-0.059	0.158
-689.368	-200.000	0.028	0.474
-688.354	-200.000	-0.026	-0.505
-687.339	-109.174	-0.360	0.077
-686.324	-84.702	0.173	0.055
-685.310	757.487	0.140	0.382
-684.295	4.312	-0.144	0.106
-683.281	-88.326	0.262	0.079
-682.266	388.733	-0.063	0.131
-681.251	739.049	0.051	-0.139
-680.237	-130.228	-0.202	-0.028
-679.222	94.903	-0.159	-0.182
-678.208	-19.888	0.243	0.151
-677.193	27.887	-0.149	0.126
-676.178	-65.923	0.123	0.049
-675.164	103.372	-0.151	-0.178
-674.149	-48.280	0.187	-0.091
-673.135	-20.256	-0.122	0.076
-672.120	355.529	0.099	-0.199
-671.105	-200.000	0.111	-0.498
-670.091	-153.177	-0.297	-0.021
-669.076	-200.000	-0.009	0.069
-668.062	-24.003	-0.310	-0.186
-667.047	-200.000	0.026	0.178
-666.032	-48.915	-0.027	-0.013
-665.018	-200.000	-0.027	-0.376
-664.003	80.037	0.275	-0.298
-662.989	-108.325	-0.189	0.041
-661.974	-90.423	-0.358	0.105
-660.959	-66.111	0.268	0.108
-659.945	-200.000	-0.070	-0.313
-658.930	-44.719	-0.374	0.188
-657.916	-34.649	0.052	-0.029
-656.901	-85.929	-0.169	-0.053
-655.886	-165.109	0.332	0.015
-654.872	222.843	-0.066	0.107
-653.857	537.092	0.020	-0.047
-652.843	19.784	-0.264	-0.213
-651.828	800.000	0.060	-0.179
-650.814	215.716	0.056	-0.089
-649.799	110.051	-0.196	-0.237
-648.784	800.000	-0.078	0.236
-647.770	279.028	-0.137	-0.245
-646.755	565.556	-0.126	-0.308
-645.741	-112.408	0.138	-0.028
-644.726	-41.242	-0.095	-0.049
-643.711	135.525	-0.044	-0.057
-642.697	-35.230	-0.144	0.079
-641.682	-140.721	0.144	-0.015
-640.668	-200.000	0.024	-0.205
-639.653	800.000	0.083	-0.310
-638.638	-81.893	-0.252	-0.083
-637.624	-200.000	0.023	0.105
-636.609	175.174	-0.080	-0.117
-635.595	454.654	0.167	0.373
-634.580	-200.000	-0.010	0.238
-633.565	-200.000	0.022	-0.115
-632.551	227.749	0.127	-0.208
-631.536	306.271	-0.023	-0.042
-630.522	-93.670	0.073	-0.020
-629.507	-4.196	-0.106	-0.074
-628.492	-65.912	-0.168	-0.067
-627.478	-70.012	-0.247	-0.095
-626.463	-200.000	-0.045	0.200
-625.449	-27.213	-0.349	-0.205
-624.434	42.324	0.286	0.262
-623.419	-20.553	-0.142	0.088
-622.405	-53.433	0.325	0.149
-621.390	-17.014	0.160	0.101
-620.376	800.000	0.113	-0.316
-619.361	-82.560	0.161	0.052
-618.346	359.527	-0.065	-0.130
-617.332	117.473	-0.059	-0.073
-616.317	-200.000	0.039	-0.213
-615.303	-102.014	-0.130	-0.031
-614.288	172.489	0.131	0.189
-613.273	800.000	-0.056	-0.239
-612.259	-115.386	0.432	-0.082
-611.244	119.946	-0.029	0.036
-610.230	-34.275	0.297	-0.164
-609.215	-83.071	-0.281	0.091
-608.201	-200.000	0.046	0.227
-607.186	225.544	0.163	0.264
-606.171	-140.906	-0.230	0.024
-605.157	14.268	0.409	-0.320
-604.142	-114.235	-0.182	0.035
-603.128	-154.963	-0.442	0.029
-602.113	-9.467	-0.096	0.064
-601.098	-23.219	-0.030	0.018
-600.084	800.000	-0.099	-0.336
-599.069	-89.448	0.043	-0.013
-598.055	800.000	0.024	-0.101
-597.040	177.173	0.201	0.294
-596.025	78.385	-0.193	-0.207
-595.011	800.000	0.032	0.104
-593.996	349.233	0.181	0.359
-592.982	-58.275	-0.154	-0.067
-591.967	-200.000	-0.045	-0.225
-590.952	-32.589	-0.231	0.129
-589.938	-24.013	0.272	-0.163
-588.923	-72.407	0.468	0.174
-587.909	-36.144	-0.573	-0.310
-586.894	230.621	-0.074	-0.121
-585.879	-149.380	-0.206	0.016
-584.865	-200.000	-0.031	0.216
-583.850	-200.000	-0.005	0.282
-582.836	137.677	0.044	0.058
-581.821	286.053	-0.049	0.088
-580.806	-106.479	0.100	-0.022
-579.792	42.335	0.265	0.241
-578.777	-200.000	-0.050	0.530
-577.763	-26.596	-0.152	-0.089
-576.748	-200.000	-0.070	0.504
-575.733	-200.000	0.016	-0.143
-574.719	70.353	0.081	0.084
-573.704	4.933	-0.112	-0.083
-572.690	17.514	0.096	-0.077
-571.675	-72.392	0.163	0.060
-570.661	-200.000	-0.009	-0.163
-569.646	64.549	-0.188	-0.190
-568.631	-76.996	-0.129	-0.045
-567.617	535.961	-0.076	0.181
-566.602	-200.000	0.032	0.289
-565.588	114.703	0.156	-0.190
-564.573	-90.227	0.157	0.046
-563.558	800.000	-0.019	0.075
-562.544	317.118	-0.049	-0.093
-561.529	9.888	0.422	0.321
-560.515	800.000	-0.083	0.278
-559.500	-81.415	-0.336	0.111
-558.485	122.655	0.171	0.214
-557.471	-155.608	-0.159	0.010
-556.456	113.123	0.064	-0.078
-555.442	-200.000	-0.018	0.143
-554.427	-124.563	0.310	0.048
-553.412	188.206	-0.125	0.187
-552.398	206.839	-0.087	0.135
-551.383	-200.000	0.016	-0.171
-550.369	-200.000	-0.018	-0.083
-549.354	207.474	-0.088	0.137
-548.339	-21.397	-0.217	-0.133
-547.325	19.116	0.232	-0.186
-546.310	126.020	-0.147	-0.186
-545.296	-135.580	-0.190	-0.023
-544.281	-117.089	-0.133	-0.024
-543.266	-200.000	-0.012	0.198
-542.252	800.000	0.073	-0.232
-541.237	93.637	-0.114	0.129
-540.223	227.656	-0.061	0.100
-539.208	-145.952	-0.172	-0.015
-538.193	8.936	-0.115	0.087
-537.179	263.363	-0.099	-0.172
-536.164	800.000	0.048	0.151
-535.150	188.783	0.124	0.186
-534.135	-24.624	-0.103	-0.061
-533.121	97.914	-0.100	0.115
-532.106	800.000	-0.069	0.241
-531.091	-76.036	-0.171	-0.060
-530.077	-105.323	0.260	-0.059
-529.062	42.519	0.070	-0.064
-528.048	255.625	0.151	-0.259
-527.033	724.977	0.110	0.295
-526.018	-41.919	-0.210	0.108
-525.004	-147.058	-0.266	0.023
-523.989	478.718	-0.092	-0.208
-522.975	308.436	-0.143	0.268
-521.960	12.660	-0.333	-0.257
-520.945	-66.971	-0.088	-0.035
-519.931	465.671	0.052	0.117
-518.916	341.743	0.037	0.073
-517.902	185.211	-0.091	0.135
-516.887	800.000	0.048	-0.182
-515.872	-71.530	-0.128	-0.048
-514.858	-200.000	-0.025	0.370
-513.843	-136.590	0.210	-0.024
-512.829	102.054	0.155	0.181
-511.814	-43.455	0.105	0.053
-510.799	-24.828	0.258	-0.153
-509.785	388.874	-0.065	-0.135
-508.770	-167.074	-0.054	0.002
-507.756	298.466	-0.080	0.147
-506.741	12.699	0.207	-0.160
-505.726	-200.000	-0.094	0.452
-504.712	236.536	0.101	0.167
-503.697	-19.197	-0.179	-0.111
-502.683	642.632	0.068	0.174
-501.668	-132.032	-0.044	0.006
-500.653	-114.873	0.285	-0.054
-499.639	800.000	-0.054	-0.215
-498.624	358.567	0.142	-0.284
-497.610	-91.343	-0.066	0.019
-496.595	-116.915	-0.066	0.012
-495.581	146.720	0.056	-0.075
-494.566	231.730	-0.068	-0.111
-493.551	800.000	0.095	0.357
-492.537	263.247	0.081	-0.140
-491.522	-200.000	-0.042	-0.252
-490.508	-200.000	0.031	0.245
-489.493	-200.000	-0.120	0.683
-488.478	-200.000	-0.050	0.515
-487.464	-54.876	0.230	0.104
-486.449	-200.000	-0.095	0.427
-485.435	17.746	-0.149	-0.119
-484.420	113.639	-0.029	0.036
-483.405	195.198	0.060	-0.091
-482.391	-50.907	-0.261	-0.122
-481.376	327.560	-0.088	-0.169
-480.362	-32.369	0.271	0.151
-479.347	-176.596	-0.082	-0.002
-478.332	7.433	0.109	-0.081
-477.318	58.229	-0.112	-0.110
-476.303	-112.632	-0.158	-0.031
-475.289	-137.485	0.139	0.016
-474.274	800.000	0.026	-0.102
-473.259	-95.541	-0.115	0.031
-472.245	-59.809	-0.078	-0.033
-471.230	425.127	0.084	0.180
-470.216	-84.943	-0.250	-0.078
-469.201	155.085	-0.221	-0.304
-468.186	-42.951	-0.326	0.165
-467.172	-133.071	0.116	0.015
-466.157	230.660	0.139	0.226
-465.143	800.000	0.011	-0.050
-464.128	-88.227	-0.216	0.065
-463.113	299.043	0.061	0.112
-462.099	-47.428	0.039	0.019
-461.084	615.226	-0.145	-0.363
-460.070	-165.575	0.355	0.015
-459.055	38.194	-0.043	0.038
-458.040	-23.607	-0.161	0.096
-457.026	-37.476	-0.274	0.146
-456.011	128.478	0.206	-0.262
-454.997	-200.000	0.017	0.310
-453.982	-65.990	-0.251	0.100
-452.968	135.464	-0.218	-0.283
-451.953	-30.283	-0.140	-0.079
-450.938	111.441	0.277	0.333
-449.924	38.574	0.160	-0.142
-448.909	115.795	0.215	-0.263
-447.895	-49.454	0.112	0.053
-446.880	-35.005	-0.294	-0.160
-445.865	-200.000	0.047	-0.499
-444.851	-171.962	0.047	-0.002
-443.836	500.600	0.031	-0.070
-442.822	-72.194	-0.147	0.055
-441.807	-69.380	0.262	0.100
-440.792	-200.000	0.020	-0.229
-439.778	-57.072	-0.154	0.068
-438.763	-200.000	-0.020	-0.118
-437.749	800.000	-0.058	-0.231
-436.734	800.000	0.063	0.230
-435.719	166.982	-0.183	-0.259
-434.705	-57.363	0.070	-0.031
-433.690	451.726	0.039	0.085
-432.676	-139.788	-0.233	-0.025
-431.661	-87.063	-0.215	-0.065
-430.646	-128.333	0.113	0.016
-429.632	-200.000	-0.024	-0.134
-428.617	28.236	0.049	-0.041
-427.603	58.209	-0.298	0.291
-426.588	177.984	0.110	-0.160
-425.573	-114.691	-0.189	0.036
-424.559	203.069	-0.119	-0.183
-423.544	13.297	-0.126	0.097
-422.530	-85.039	0.230	0.072
-421.515	106.484	-0.191	0.226
-420.500	-6.435	-0.139	0.095
-419.486	-76.762	0.315	0.110
-418.471	-44.865	-0.427	0.212
-417.457	547.537	-0.048	-0.116
-416.442	800.000	-0.024	-0.098
-415.428	115.570	0.274	-0.334
-414.413	-200.000	0.015	0.103
-413.398	532.696	0.189	-0.447
-412.384	91.486	0.186	-0.208
-411.369	-52.226	0.092	-0.042
-410.355	455.545	-0.069	-0.152
-409.340	103.301	-0.057	0.066
-408.325	-120.937	0.208	0.035
-407.311	-117.626	-0.273	-0.049
-406.296	-118.140	-0.229	-0.041
-405.282	-153.871	0.024	0.002
-404.267	7.506	0.065	0.049
-403.252	693.318	0.115	-0.302
-402.238	-186.104	-0.110	0.002
-401.223	-33.650	-0.218	-0.120
-400.209	-173.751	0.376	-0.011
-399.194	163.984	0.109	-0.152
-398.179	-37.582	0.066	-0.035
-397.165	43.644	0.103	0.094
-396.150	21.123	0.326	0.264
-395.136	499.521	-0.099	0.228
-394.121	419.060	-0.131	-0.279
-393.106	-14.543	0.230	-0.147
-392.092	13.562	0.136	-0.105
-391.077	230.478	0.129	0.211
-390.063	-30.743	-0.245	0.138
-389.048	-157.706	0.267	0.016
-388.033	-200.000	0.001	-0.190
-387.019	800.000	-0.137	-0.390
-386.004	-200.000	0.005	0.162
-384.990	-138.289	-0.147	-0.016
-383.975	-161.616	0.337	0.017
-382.960	-32.217	0.133	-0.074
-381.946	-17.756	-0.066	0.041
-380.931	44.593	0.180	0.165
-379.917	11.148	-0.225	0.171
-378.902	-16.517	-0.148	-0.093
-377.888	-137.717	0.306	0.034
-376.873	-133.476	0.104	0.013
-375.858	-1.108	-0.222	-0.156
-374.844	265.108	0.164	-0.285
-373.829	800.000	0.041	-0.126
-372.815	1.580	0.114	0.081
-371.800	428.709	0.022	-0.047
-370.785	161.225	-0.164	0.229
-369.771	168.059	-0.136	-0.192
-368.756	800.000	-0.019	0.055
-367.742	-42.381	0.436	-0.221
-366.727	-109.232	-0.060	0.013
-365.712	114.499	0.119	-0.145
-364.698	353.156	-0.041	0.081
-363.683	293.977	-0.162	-0.295
-362.669	236.294	0.219	-0.360
-361.654	-200.000	-0.004	-0.124
-360.639	630.969	-0.041	-0.103
-359.625	63.431	0.109	-0.109
-358.610	-15.019	0.086	-0.055
-357.596	-70.772	0.283	-0.106
-356.581	-131.861	-0.157	0.020
-355.566	368.067	0.123	0.247
-354.552	800.000	-0.067	0.278
-353.537	-28.817	0.301	0.172
-352.523	-85.392	-0.203	-0.063
-351.508	36.848	-0.196	-0.172
-350.493	-200.000	0.020	-0.221
-349.479	12.954	-0.159	0.122
-348.464	800.000	0.042	-0.125
-347.450	160.901	0.026	0.036
-346.435	372.052	-0.201	0.405
-345.420	800.000	0.054	-0.228
-344.406	-102.812	0.287	-0.068
-343.391	-62.602	0.064	0.026
-342.377	-137.065	0.015	0.002
-341.362	-155.789	-0.091	0.006
-340.348	55.448	-0.021	-0.020
-339.333	-135.188	-0.276	-0.033
-338.318	-18.990	-0.131	-0.081
-337.304	-200.000	0.027	-0.173
-336.289	-119.554	0.248	-0.043
-335.275	51.443	-0.016	0.015
-334.260	120.802	-0.234	-0.289
-333.245	-43.219	0.522	0.263
-332.231	-200.000	-0.005	0.086
-331.216	226.452	0.172	-0.278
-330.202	-57.765	0.139	-0.060
-329.187	228.517	0.122	-0.197
-328.172	-200.000	-0.019	-0.173
-327.158	-46.300	-0.351	-0.172
-326.143	13.106	0.095	0.073
-325.129	-37.970	-0.071	-0.038
-324.114	-149.372	-0.167	-0.013
-323.099	185.402	0.089	-0.131
-322.085	178.020	-0.016	0.023
-321.070	659.818	0.007	-0.018
-320.056	387.637	0.014	0.029
-319.041	317.498	-0.074	-0.138
-318.026	194.363	-0.185	-0.278
-317.012	92.718	0.197	-0.221
-315.997	-135.455	-0.292	0.035
-314.983	-1.864	0.143	-0.100
-313.968	181.855	-0.149	-0.218
-312.953	-200.000	-0.065	-0.304
-311.939	-117.842	-0.367	0.065
-310.924	800.000	0.104	0.292
-309.910	800.000	-0.113	-0.331
-308.895	-200.000	-0.005	0.095
-307.880	-66.224	0.225	-0.089
-306.866	-200.000	-0.032	0.321
-305.851	-9.332	-0.138	0.092
-304.837	-4.082	0.174	-0.119
-303.822	800.000	0.049	-0.173
-302.807	44.563	-0.063	0.057
-301.793	-200.000	-0.042	0.342
-300.778	-200.000	-0.063	-0.286
-299.764	65.603	0.365	0.367
-298.749	-200.000	0.006	-0.072
-297.735	129.874	0.209	-0.265
-296.720	227.683	-0.067	-0.109
-295.705	-200.000	-0.019	-0.120
-294.691	68.711	0.051	-0.052
-293.676	-166.362	-0.235	-0.010
-292.662	68.714	-0.123	0.125
-291.647	-200.000	-0.057	0.263
-290.632	100.567	0.225	0.260
-289.618	-89.072	0.213	0.063
-288.603	-200.000	-0.027	0.327
-287.589	99.579	-0.245	0.282
-286.574	147.064	-0.043	0.058
-285.559	-200.000	0.010	-0.126
-284.545	-200.000	-0.051	0.275
-283.530	800.000	0.057	0.176
-282.516	47.259	0.153	0.141
-281.501	165.088	0.181	-0.253
-280.486	800.000	-0.102	0.386
-279.472	-109.531	-0.205	-0.043
-278.457	209.200	0.238	0.369
-277.443	-200.000	0.013	0.211
-276.428	-106.783	0.209	-0.046
-275.413	800.000	-0.026	-0.083
-274.399	-126.130	0.298	0.044
-273.384	-127.294	0.284	-0.041
-272.370	385.666	0.099	0.202
-271.355	-200.000	0.309	-0.000
-270.340	-163.743	-0.294	-0.014
-269.326	-200.000	-0.015	-0.515
-268.311	-12.022	-0.238	-0.155
-267.297	-46.191	0.139	-0.068
-266.282	800.000	0.067	0.195
-265.267	23.920	-0.314	0.257
-264.253	60.455	-0.122	-0.120
-263.238	107.289	-0.022	0.026
-262.224	-23.673	-0.101	-0.060
-261.209	-200.000	0.051	-0.281
-260.195	598.836	0.070	0.171
-259.180	126.213	-0.112	0.141
-258.165	161.443	0.125	0.174
-257.151	800.000	-0.066	-0.232
-256.136	-200.000	-0.000	-0.192
-255.122	236.600	0.015	-0.025
-254.107	-130.656	0.059	-0.008
-253.092	213.206	0.080	0.126
-252.078	-71.673	-0.288	0.106
-251.063	-157.258	-0.324	0.019
-250.049	-44.224	-0.098	-0.049
-249.034	485.038	0.197	-0.444
-248.019	733.490	0.062	0.163
-247.005	-87.174	-0.043	0.013
-245.990	-92.522	-0.054	-0.015
-244.976	800.000	0.045	-0.190
-243.961	-20.572	-0.212	-0.129
-242.946	-18.059	0.239	0.148
-241.932	47.699	-0.184	-0.170
-240.917	421.385	0.121	-0.257
-239.903	96.756	-0.273	-0.309
-238.888	-92.242	-0.131	-0.037
-237.873	800.000	-0.031	-0.109
-236.859	800.000	0.036	-0.111
-235.844	-79.321	0.062	0.021
-234.830	-8.474	0.223	0.148
-233.815	70.496	0.178	0.182
-232.800	509.761	-0.125	0.288
-231.786	415.837	0.099	-0.208
-230.771	-37.503	-0.120	0.063
-229.757	-200.000	-0.263	0.001
-228.742	-200.000	0.019	0.096
-227.727	-122.102	0.187	0.030
-226.713	-93.090	0.138	0.038
-225.698	-85.980	-0.086	0.026
-224.684	-110.773	0.234	0.048
-223.669	-36.599	-0.117	-0.062
-222.655	207.511	-0.169	-0.261
-221.640	423.611	-0.070	0.150
-220.625	-200.000	-0.009	0.111
-219.611	45.028	-0.111	-0.101
-218.596	-101.994	-0.163	0.039
-217.582	-109.458	-0.377	0.079
-216.567	558.075	-0.100	0.238
-215.552	-200.000	-0.004	-0.181
-214.538	800.000	-0.048	-0.159
-213.523	-200.000	0.049	-0.243
-212.509	118.621	-0.088	0.108
-211.494	800.000	0.086	-0.306
-210.479	-76.872	-0.232	0.080
-209.465	-30.805	0.200	-0.112
-208.450	-37.049	0.094	0.050
-207.436	-23.363	0.071	0.042
-206.421	-50.782	0.320	-0.149
-205.406	-16.665	0.230	-0.144
-204.392	-200.000	-0.021	-0.331
-203.377	230.707	0.134	0.216
-202.363	800.000	-0.116	0.333
-201.348	87.666	0.214	0.235
-200.333	180.452	-0.116	0.168
-199.319	42.430	-0.286	0.257
-198.304	-122.993	0.171	0.027
-197.290	800.000	0.029	0.083
-196.275	98.750	-0.123	-0.141
-195.260	-200.000	-0.004	0.246
-194.246	-25.129	0.347	0.203
-193.231	51.456	0.202	-0.190
-192.217	331.291	0.089	0.169
-191.202	-75.668	-0.087	-0.030
-190.187	-200.000	0.030	0.336
-189.173	-118.388	-0.411	0.072
-188.158	-200.000	0.003	-0.039
-187.144	8.434	-0.231	-0.171
-186.129	-131.977	0.116	0.015
-185.114	-200.000	-0.053	0.291
-184.100	457.016	-0.061	-0.133
-183.085	-65.523	0.291	0.115
-182.071	-200.000	0.031	0.411
-181.056	-143.476	-0.281	0.027
-180.042	-162.308	0.097	-0.005
-179.027	789.096	0.069	-0.188
-178.012	-32.614	0.276	-0.151
-176.998	-16.571	-0.231	0.144
-175.983	-40.713	0.219	0.112
-174.969	-158.174	0.313	0.018
-173.954	-200.000	-0.007	-0.310
-172.939	-12.114	0.084	0.055
-171.925	383.686	-0.060	-0.122
-170.910	81.697	0.119	0.127
-169.896	75.713	0.043	0.045
-168.881	-200.000	0.011	0.167
-167.866	1.738	0.279	0.198
-166.852	-200.000	0.031	-0.156
-165.837	-161.810	-0.104	-0.005
-164.823	-200.000	0.010	-0.069
-163.808	555.804	0.088	0.210
-162.793	329.431	0.124	-0.236
-161.779	663.939	-0.101	0.257
-160.764	259.697	0.249	-0.425
-159.750	318.676	-0.091	0.170
-158.735	168.883	0.106	0.150
-157.720	224.701	-0.021	-0.033
-156.706	-145.125	0.292	-0.026
-155.691	-157.975	0.105	-0.006
-154.677	328.857	-0.056	0.105
-153.662	24.461	0.011	-0.009
-152.647	332.566	0.083	0.159
-151.633	-200.000	0.045	0.300
-150.618	-61.109	-0.093	0.039
-149.604	-134.853	0.174	0.021
-148.589	-61.337	-0.092	0.038
-147.574	56.221	0.184	-0.176
-146.560	137.256	0.049	-0.064
-145.545	676.630	-0.030	0.078
-144.531	-106.059	-0.257	0.057
-143.516	-31.600	0.031	0.017
-142.502	-54.894	0.204	-0.091
-141.487	3.543	0.297	-0.214
-140.472	-26.717	-0.066	0.038
-139.458	-29.906	0.361	-0.202
-138.443	-17.797	-0.260	-0.161
-137.429	70.409	0.288	-0.293
-136.414	15.058	0.131	0.101
-135.399	200.431	-0.130	0.197
-134.385	615.001	0.106	-0.263
-133.370	308.276	-0.224	-0.412
-132.356	-74.496	0.301	0.107
-131.341	-99.078	0.098	0.024
-130.326	28.944	0.144	0.121
-129.312	24.829	-0.283	-0.231
-128.297	-200.000	0.007	0.151
-127.283	-200.000	0.000	0.302
-126.268	800.000	0.044	-0.165
-125.253	370.894	0.149	0.297
-124.239	27.980	-0.168	-0.140
-123.224	144.083	0.034	0.044
-122.210	-200.000	0.082	0.587
