DTS Sentinel unit serial number:	SN413079Multiplexer serial number:	ORYXHardware model number:	OX4-SRSoftware version number:	ORYX F/W v4.00 Oryx Data Collector v3.7.2.0data status	okinstallation	princeton_trtdifferential loss correction	single-endedforward channel	channel 1reverse channel	N/Adate	2019/09/17time	23:38:35forward acquisition time	60.00reverse acquisition time	0.00gamma	496.2192k internal	0.2340k external	0.2340temperature offset calibration	0.9980default loss term (dB/km)	0.3790temperature slope calibration	1.0000multiplexer offset coefficient	1.0000multiplexer slope coefficient	1.0000fibre end	0.00T internal ref (°C)	24.12T ext. ref 1 (°C)	0.17T ext. ref 2 (°C)	17.53length (m)	temperature (°C)	Stokes	anti-Stokes-747.200	-200.000	0.026	0.408
-746.185	394.180	0.123	0.256
-745.171	77.117	-0.205	-0.218
-744.156	75.450	-0.309	0.327
-743.142	-23.404	0.073	0.044
-742.127	-61.373	-0.397	0.167
-741.112	210.241	0.069	0.109
-740.098	-27.328	-0.291	-0.170
-739.083	-98.353	0.398	-0.102
-738.069	-62.274	-0.287	0.120
-737.054	25.456	0.049	-0.041
-736.039	-85.066	-0.393	-0.123
-735.025	592.579	-0.091	0.226
-734.010	-200.000	0.004	-0.100
-732.996	-133.835	-0.230	0.029
-731.981	98.477	0.131	0.151
-730.966	-200.000	-0.046	-0.228
-729.952	-12.784	-0.123	0.080
-728.937	-164.249	0.174	0.008
-727.923	105.194	-0.328	0.388
-726.908	307.775	-0.109	-0.203
-725.894	-200.000	0.015	-0.126
-724.879	0.049	-0.271	0.194
-723.864	125.658	-0.051	-0.064
-722.850	-48.646	-0.130	-0.063
-721.835	176.082	0.117	0.170
-720.821	-61.909	-0.167	0.070
-719.806	-97.819	0.209	-0.054
-718.791	-200.000	-0.009	-0.068
-717.777	-127.092	-0.132	-0.019
-716.762	17.359	-0.148	-0.117
-715.748	-51.936	0.340	0.159
-714.733	23.814	0.090	-0.075
-713.718	94.353	-0.046	0.052
-712.704	39.262	-0.120	0.107
-711.689	-200.000	-0.020	-0.178
-710.675	800.000	0.108	0.349
-709.660	-26.646	0.152	-0.089
-708.645	-162.341	0.211	-0.011
-707.631	-61.161	-0.177	0.075
-706.616	73.720	-0.037	-0.039
-705.602	800.000	-0.045	-0.147
-704.587	448.456	0.094	-0.207
-703.572	241.298	0.052	0.087
-702.558	-56.997	0.133	0.059
-701.543	1.575	-0.027	0.020
-700.529	-200.000	-0.063	-0.325
-699.514	-194.080	-0.469	0.004
-698.499	-58.633	-0.188	0.082
-697.485	13.884	-0.202	-0.157
-696.470	-99.655	0.182	-0.046
-695.456	-42.632	0.201	-0.102
-694.441	330.967	0.035	0.067
-693.426	549.831	-0.139	-0.333
-692.412	-162.950	0.229	-0.011
-691.397	25.348	-0.265	0.220
-690.383	-30.717	0.109	-0.062
-689.368	-174.186	0.128	0.004
-688.354	57.639	-0.159	0.156
-687.339	-158.429	0.253	-0.015
-686.324	-20.395	-0.152	-0.094
-685.310	800.000	-0.076	0.316
-684.295	109.016	-0.071	-0.085
-683.281	-132.723	-0.043	-0.005
-682.266	-130.296	-0.222	-0.030
-681.251	-105.256	-0.227	-0.052
-680.237	-45.046	-0.149	-0.074
-679.222	800.000	0.199	0.590
-678.208	572.622	-0.167	0.408
-677.193	800.000	-0.056	0.238
-676.178	-200.000	0.044	-0.362
-675.164	-108.727	0.100	0.021
-674.149	100.318	0.313	-0.363
-673.135	-80.024	-0.207	-0.070
-672.120	-200.000	0.065	-0.416
-671.105	54.620	-0.027	0.026
-670.091	800.000	0.096	-0.351
-669.076	-49.389	-0.246	0.117
-668.062	-59.214	0.263	-0.113
-667.047	363.137	0.132	-0.266
-666.032	-10.781	0.237	-0.157
-665.018	125.844	-0.179	0.226
-664.003	-200.000	0.043	0.481
-662.989	-157.502	0.255	0.015
-661.974	-102.645	-0.088	0.021
-660.959	165.931	-0.114	0.162
-659.945	154.759	0.121	0.166
-658.930	800.000	-0.030	0.099
-657.916	-200.000	-0.028	-0.257
-656.901	-32.163	0.319	-0.178
-655.886	-200.000	-0.051	-0.264
-654.872	200.713	-0.200	-0.307
-653.857	-135.994	-0.201	0.024
-652.843	800.000	0.026	-0.081
-651.828	-200.000	0.017	0.159
-650.814	75.605	0.253	0.266
-649.799	-200.000	-0.012	-0.178
-648.784	800.000	-0.033	-0.093
-647.770	112.907	0.063	-0.076
-646.755	-75.769	-0.192	-0.068
-645.741	-119.273	0.177	0.031
-644.726	-200.000	-0.092	-0.406
-643.711	105.345	0.216	-0.255
-642.697	102.111	0.121	0.141
-641.682	358.560	0.053	0.105
-640.668	28.025	0.082	-0.069
-639.653	-200.000	-0.024	-0.195
-638.638	103.688	0.017	0.020
-637.624	-107.912	0.204	0.044
-636.609	326.655	0.134	-0.257
-635.595	295.144	0.027	-0.050
-634.580	11.458	0.074	0.057
-633.565	-200.000	0.066	0.289
-632.551	25.971	0.183	0.152
-631.536	-116.993	-0.065	-0.012
-630.522	42.060	-0.091	0.083
-629.507	-200.000	-0.009	-0.290
-628.492	260.526	0.059	-0.103
-627.478	800.000	0.036	0.141
-626.463	105.415	-0.168	-0.198
-625.449	139.525	-0.113	-0.149
-624.434	241.715	-0.139	0.232
-623.419	573.078	-0.036	-0.088
-622.405	508.785	-0.067	0.154
-621.390	-129.322	-0.184	0.026
-620.376	-13.184	0.168	0.109
-619.361	-15.392	-0.149	-0.095
-618.346	21.707	-0.107	0.087
-617.332	-72.252	0.039	0.014
-616.317	85.177	0.361	0.395
-615.303	67.759	-0.282	-0.288
-614.288	-16.296	0.252	-0.159
-613.273	321.387	0.114	0.216
-612.259	246.690	0.161	-0.271
-611.244	-95.470	-0.022	0.006
-610.230	268.045	-0.077	-0.134
-609.215	259.819	0.112	-0.193
-608.201	-190.034	-0.412	-0.005
-607.186	-86.329	-0.092	0.028
-606.171	800.000	-0.092	-0.255
-605.157	-134.763	0.218	-0.026
-604.142	232.622	-0.123	0.202
-603.128	-157.200	0.373	-0.023
-602.113	60.237	0.080	-0.079
-601.098	129.114	0.175	0.223
-600.084	800.000	0.122	-0.347
-599.069	-141.149	0.348	-0.035
-598.055	-200.000	-0.024	0.122
-597.040	-117.829	0.302	-0.054
-596.025	-200.000	-0.009	-0.381
-595.011	-140.637	-0.072	0.007
-593.996	375.585	-0.025	-0.052
-592.982	59.917	0.233	0.230
-591.967	459.598	-0.062	0.137
-590.952	192.366	-0.080	0.121
-589.938	-48.194	-0.323	0.156
-588.923	164.825	0.008	-0.012
-587.909	540.451	-0.088	-0.208
-586.894	636.289	-0.074	0.188
-585.879	120.122	-0.126	-0.156
-584.865	-124.849	-0.346	-0.053
-583.850	-149.260	-0.216	-0.017
-582.836	-7.561	-0.074	0.050
-581.821	-200.000	0.013	-0.068
-580.806	-121.711	-0.237	-0.039
-579.792	37.327	0.335	-0.296
-578.777	-200.000	0.012	-0.145
-577.763	-200.000	-0.057	-0.351
-576.748	-87.117	-0.140	-0.042
-575.733	-102.406	-0.442	-0.105
-574.719	-47.689	0.068	0.033
-573.704	-7.883	0.210	0.141
-572.690	-146.191	0.268	-0.023
-571.675	-200.000	-0.029	0.143
-570.661	23.751	0.214	-0.176
-569.646	800.000	0.034	-0.141
-568.631	-119.890	-0.316	0.054
-567.617	-200.000	-0.024	-0.180
-566.602	507.024	-0.065	0.149
-565.588	800.000	-0.039	-0.128
-564.573	205.487	-0.218	0.338
-563.558	-200.000	0.060	0.476
-562.544	800.000	0.027	-0.092
-561.529	535.992	0.056	0.132
-560.515	233.413	-0.164	0.269
-559.500	-100.902	-0.117	-0.029
-558.485	3.937	0.325	0.236
-557.471	-115.936	-0.198	0.037
-556.456	800.000	-0.095	-0.315
-555.442	-31.368	-0.221	-0.124
-554.427	655.326	0.116	0.297
-553.412	87.119	0.120	-0.132
-552.398	800.000	0.031	0.120
-551.383	592.481	-0.153	-0.375
-550.369	-101.769	-0.272	-0.065
-549.354	-109.605	-0.125	-0.026
-548.339	-124.042	0.431	0.067
-547.325	-40.403	-0.297	-0.153
-546.310	-11.981	-0.245	-0.160
-545.296	-200.000	0.003	-0.146
-544.281	-1.256	-0.344	-0.242
-543.266	800.000	-0.086	0.285
-542.252	419.929	0.155	0.331
-541.237	-55.311	0.087	-0.039
-540.223	7.288	0.229	-0.170
-539.208	211.956	0.155	0.243
-538.193	-30.623	0.261	0.147
-537.179	-33.015	-0.184	0.101
-536.164	-111.283	0.367	-0.075
-535.150	800.000	-0.072	-0.233
-534.135	76.098	-0.038	-0.040
-533.121	-200.000	-0.006	-0.224
-532.106	-147.910	-0.276	-0.023
-531.091	-24.078	0.240	0.143
-530.077	-163.211	-0.407	0.019
-529.062	-200.000	-0.013	-0.389
-528.048	800.000	0.032	-0.093
-527.033	-71.744	-0.270	-0.100
-526.018	457.392	-0.059	0.130
-525.004	300.976	0.112	-0.205
-523.989	635.681	-0.113	-0.284
-522.975	-200.000	0.024	-0.158
-521.960	-131.764	0.264	0.034
-520.945	251.278	0.164	0.276
-519.931	124.656	0.174	-0.217
-518.916	-121.745	0.125	0.020
-517.902	519.174	0.020	-0.045
-516.887	62.859	-0.206	-0.205
-515.872	-8.259	-0.133	0.089
-514.858	144.342	0.098	-0.130
-513.843	-136.388	0.146	-0.017
-512.829	-19.560	0.381	-0.234
-511.814	-200.000	-0.039	-0.297
-510.799	101.668	0.054	0.063
-509.785	-78.879	-0.234	-0.079
-508.770	-71.105	-0.157	-0.059
-507.756	800.000	-0.063	0.259
-506.741	33.436	-0.116	0.100
-505.726	-130.210	0.133	-0.018
-504.712	800.000	0.023	0.077
-503.697	-10.258	-0.026	0.017
-502.683	-49.512	-0.118	0.056
-501.668	800.000	-0.091	0.269
-500.653	-200.000	-0.003	0.059
-499.639	-71.065	-0.493	-0.184
-498.624	32.858	0.118	-0.101
-497.610	-20.305	0.467	-0.285
-496.595	-40.781	0.201	-0.103
-495.581	230.036	0.163	0.264
-494.566	-3.716	-0.185	-0.128
-493.551	274.700	-0.158	-0.278
-492.537	70.827	-0.091	-0.094
-491.522	-49.464	-0.121	-0.057
-490.508	684.698	0.066	-0.171
-489.493	-107.026	0.194	-0.042
-488.478	54.324	0.142	-0.136
-487.464	204.997	-0.040	-0.062
-486.449	-12.237	-0.107	-0.069
-485.435	36.000	0.111	-0.097
-484.420	194.988	-0.021	-0.031
-483.405	455.335	-0.026	-0.057
-482.391	800.000	0.116	0.386
-481.376	114.662	-0.095	0.115
-480.362	23.178	0.075	-0.061
-479.347	78.022	0.284	-0.300
-478.332	-200.000	0.032	0.183
-477.318	66.241	0.227	0.228
-476.303	-50.254	0.259	-0.122
-475.289	70.170	0.136	-0.140
-474.274	21.994	-0.232	0.187
-473.259	-122.044	-0.198	-0.032
-472.245	154.873	0.333	-0.454
-471.230	-105.243	0.056	-0.013
-470.216	46.462	0.123	0.113
-469.201	38.985	-0.115	0.102
-468.186	-50.087	0.494	-0.232
-467.172	-30.469	0.195	0.109
-466.157	-16.776	-0.209	0.131
-465.143	-34.028	-0.181	-0.099
-464.128	-200.000	0.007	-0.068
-463.113	70.573	-0.193	0.198
-462.099	623.246	-0.122	0.304
-461.084	-53.963	0.156	-0.070
-460.070	58.534	0.113	-0.110
-459.055	-81.030	0.277	0.091
-458.040	-19.669	0.209	0.128
-457.026	-8.294	-0.069	-0.046
-456.011	-107.881	-0.129	0.028
-454.997	-200.000	0.003	-0.115
-453.982	-200.000	0.029	0.356
-452.968	81.607	0.063	0.067
-451.953	308.765	0.132	-0.244
-450.938	6.770	-0.231	-0.170
-449.924	-83.855	-0.211	-0.067
-448.909	0.736	0.375	0.266
-447.895	222.888	-0.047	-0.074
-446.880	-45.446	-0.132	0.065
-445.865	43.669	-0.055	-0.050
-444.851	800.000	0.006	0.018
-443.836	-200.000	-0.375	-0.001
-442.822	-200.000	-0.008	-0.277
-441.807	800.000	-0.073	-0.315
-440.792	-200.000	0.005	-0.216
-439.778	66.300	-0.123	-0.123
-438.763	-200.000	0.001	-0.273
-437.749	-200.000	-0.010	-0.160
-436.734	-95.096	-0.445	-0.119
-435.719	800.000	-0.131	0.406
-434.705	472.120	0.147	0.328
-433.690	-200.000	-0.018	-0.125
-432.676	-52.383	0.045	0.021
-431.661	-200.000	-0.060	0.277
-430.646	-200.000	-0.005	-0.141
-429.632	-111.979	-0.315	0.063
-428.617	250.935	-0.202	-0.340
-427.603	-124.204	0.228	-0.035
-426.588	0.133	0.146	0.103
-425.573	-117.417	-0.191	0.034
-424.559	131.823	0.183	0.233
-423.544	-128.843	0.053	0.007
-422.530	800.000	0.062	0.266
-421.515	-71.924	-0.233	0.086
-420.500	-96.739	0.422	0.110
-419.486	83.304	-0.145	0.156
-418.471	302.348	-0.160	0.292
-417.457	800.000	-0.067	0.237
-416.442	141.253	0.100	0.131
-415.428	-200.000	0.018	0.106
-414.413	800.000	0.047	-0.189
-413.398	712.446	0.058	0.153
-412.384	-200.000	-0.040	0.187
-411.369	-77.000	-0.148	0.051
-410.355	277.881	0.073	-0.129
-409.340	800.000	-0.032	0.087
-408.325	480.405	0.145	0.326
-407.311	182.408	-0.183	-0.266
-406.296	317.892	0.116	0.218
-405.282	79.120	-0.117	-0.124
-404.267	-173.983	0.056	0.002
-403.252	465.423	0.190	-0.421
-402.238	-11.431	0.186	-0.121
-401.223	800.000	0.031	-0.125
-400.209	-200.000	-0.025	-0.275
-399.194	214.847	0.208	0.326
-398.179	24.793	0.091	-0.075
-397.165	416.683	-0.108	-0.227
-396.150	28.390	-0.171	0.143
-395.136	-73.228	0.064	-0.023
-394.121	19.066	0.295	-0.234
-393.106	220.082	0.131	-0.207
-392.092	-137.470	-0.238	-0.027
-391.077	351.829	-0.174	-0.341
-390.063	-200.000	-0.036	0.335
-389.048	-200.000	0.003	-0.252
-388.033	800.000	0.067	-0.245
-387.019	-200.000	0.006	-0.119
-386.004	-200.000	-0.031	-0.211
-384.990	46.346	0.059	-0.054
-383.975	-200.000	0.019	0.118
-382.960	25.649	0.137	-0.113
-381.946	-174.164	-0.356	0.010
-380.931	-162.890	0.250	0.012
-379.917	-158.417	-0.347	0.020
-378.902	-200.000	0.027	0.121
-377.888	800.000	-0.049	0.167
-376.873	-200.000	-0.130	-0.000
-375.858	800.000	0.101	0.276
-374.844	800.000	-0.048	0.187
-373.829	110.611	0.157	0.186
-372.815	-149.148	0.187	-0.015
-371.800	-195.019	-0.119	0.001
-370.785	-81.130	0.265	-0.087
-369.771	-200.000	0.041	0.201
-368.756	800.000	0.050	-0.203
-367.742	-85.974	0.207	0.063
-366.727	560.726	-0.017	-0.042
-365.712	800.000	0.048	0.183
-364.698	-200.000	0.033	0.173
-363.683	800.000	0.107	-0.308
-362.669	-44.184	0.155	0.077
-361.654	-50.737	-0.473	0.220
-360.639	-9.661	-0.185	-0.122
-359.625	800.000	0.028	0.095
-358.610	485.228	0.086	-0.194
-357.596	-200.000	-0.012	-0.155
-356.581	191.636	0.078	0.117
-355.566	20.350	0.091	0.073
-354.552	-73.498	-0.487	0.176
-353.537	174.790	-0.105	0.151
-352.523	207.879	0.252	0.388
-351.508	410.243	-0.084	-0.176
-350.493	147.145	0.087	-0.116
-349.479	-118.893	-0.265	-0.046
-348.464	800.000	0.016	-0.062
-347.450	-147.047	-0.255	-0.022
-346.435	-120.223	-0.411	-0.069
-345.420	376.563	0.118	-0.237
-344.406	800.000	0.070	-0.260
-343.391	13.657	-0.240	0.184
-342.377	140.357	-0.411	0.536
-341.362	800.000	-0.047	0.193
-340.348	-200.000	-0.015	-0.303
-339.333	13.740	-0.114	-0.088
-338.318	-127.628	0.205	-0.029
-337.304	-200.000	0.040	-0.280
-336.289	87.329	0.121	0.132
-335.275	10.131	-0.214	0.160
-334.260	-62.333	-0.278	0.114
-333.245	-50.848	0.161	-0.075
-332.231	-200.000	0.004	0.037
-331.216	-200.000	0.005	0.064
-330.202	-200.000	-0.005	0.285
-329.187	190.583	-0.088	0.131
-328.172	-164.826	-0.372	0.016
-327.158	-200.000	-0.006	0.084
-326.143	10.322	0.096	-0.072
-325.129	800.000	-0.061	0.197
-324.114	-4.578	-0.173	0.118
-323.099	-200.000	-0.001	0.057
-322.085	215.347	0.213	0.333
-321.070	342.667	-0.135	-0.260
-320.056	-63.484	-0.301	-0.122
-319.041	330.921	0.119	-0.226
-318.026	408.153	0.111	-0.232
-317.012	63.339	-0.167	-0.165
-315.997	-50.254	0.232	-0.108
-314.983	-78.127	0.147	-0.050
-313.968	-124.066	0.191	0.030
-312.953	-200.000	-0.017	-0.268
-311.939	640.447	0.065	-0.163
-310.924	-65.044	0.224	-0.089
-309.910	-200.000	-0.001	-0.018
-308.895	-117.185	0.208	-0.037
-307.880	-37.794	0.090	0.047
-306.866	800.000	0.057	-0.186
-305.851	298.274	-0.270	0.489
-304.837	-200.000	0.017	0.124
-303.822	-145.607	0.318	-0.028
-302.807	-101.399	-0.146	-0.035
-301.793	-96.730	0.258	-0.067
-300.778	-169.318	0.164	0.006
-299.764	800.000	-0.054	-0.162
-298.749	-56.840	-0.117	-0.051
-297.735	136.398	0.237	-0.304
-296.720	-200.000	0.105	-0.542
-295.705	60.995	0.016	-0.016
-294.691	-200.000	-0.037	0.258
-293.676	50.746	-0.218	0.203
-292.662	800.000	-0.090	-0.339
-291.647	-74.253	-0.159	-0.057
-290.632	-45.628	0.191	0.093
-289.618	531.607	0.029	0.067
-288.603	-41.904	0.180	0.091
-287.589	-34.397	-0.230	-0.124
-286.574	-121.100	0.166	-0.027
-285.559	95.999	0.053	0.060
-284.545	334.659	-0.019	0.037
-283.530	108.419	-0.192	0.225
-282.516	-200.000	-0.006	0.102
-281.501	-114.045	-0.223	0.042
-280.486	-200.000	0.020	0.353
-279.472	-200.000	-0.029	-0.324
-278.457	-41.096	-0.314	0.160
-277.443	-200.000	0.040	-0.257
-276.428	-200.000	-0.024	-0.148
-275.413	-115.430	-0.214	0.040
-274.399	-200.000	-0.022	0.247
-273.384	-129.937	-0.174	0.023
-272.370	-168.814	-0.332	-0.012
-271.355	257.402	0.197	0.333
-270.340	-135.409	-0.115	0.014
-269.326	800.000	0.060	0.207
-268.311	-105.076	-0.292	0.066
-267.297	167.447	-0.107	0.150
-266.282	183.824	-0.149	0.216
-265.267	-151.357	0.154	0.011
-264.253	-200.000	-0.033	0.361
-263.238	-19.173	-0.140	0.086
-262.224	610.220	-0.039	-0.096
-261.209	-200.000	0.039	0.346
-260.195	335.658	0.129	0.246
-259.180	-22.513	-0.169	0.100
-258.165	-72.769	-0.289	-0.105
-257.151	16.154	0.207	0.160
-256.136	800.000	0.016	0.046
-255.122	414.625	0.068	-0.142
-254.107	-172.636	0.427	0.013
-253.092	194.129	0.159	0.237
-252.078	-30.506	-0.351	0.196
-251.063	-200.000	0.102	-0.000
-250.049	486.681	0.092	-0.207
-249.034	-97.785	-0.111	-0.028
-248.019	13.583	0.120	-0.092
-247.005	-64.812	0.113	0.045
-245.990	-94.963	-0.346	-0.092
-244.976	115.799	-0.053	0.064
-243.961	-144.428	-0.257	-0.023
-242.946	800.000	0.079	0.220
-241.932	-200.000	-0.057	-0.392
-240.917	-51.602	0.393	-0.180
-239.903	-95.539	0.440	0.116
-238.888	104.288	-0.263	-0.304
-237.873	255.014	-0.205	-0.345
-236.859	-32.741	0.357	0.195
-235.844	69.625	0.077	-0.078
-234.830	-169.960	0.291	-0.010
-233.815	-43.109	-0.254	0.126
-232.800	248.104	-0.138	-0.229
-231.786	33.741	-0.189	-0.161
-230.771	177.873	0.043	0.062
-229.757	-200.000	-0.035	0.194
-228.742	165.096	-0.082	-0.114
-227.727	-17.613	-0.341	0.210
-226.713	265.861	-0.067	0.114
-225.698	-200.000	-0.010	-0.356
-224.684	-200.000	0.034	0.230
-223.669	153.193	0.319	0.429
-222.655	222.942	-0.036	-0.058
-221.640	-3.375	0.310	-0.212
-220.625	503.025	0.111	0.252
-219.611	50.227	0.116	-0.108
-218.596	-135.307	-0.360	0.042
-217.582	-59.288	0.181	0.077
-216.567	-53.192	-0.370	-0.167
-215.552	800.000	-0.041	-0.120
-214.538	800.000	0.105	-0.338
-213.523	-200.000	0.014	0.239
-212.509	-132.786	-0.117	0.015
-211.494	-61.767	0.154	-0.063
-210.479	-200.000	0.032	0.199
-209.465	276.415	-0.184	-0.321
-208.450	-147.741	0.141	-0.012
-207.436	-200.000	-0.015	-0.227
-206.421	800.000	-0.061	0.211
-205.406	200.107	0.134	-0.201
-204.392	-200.000	-0.004	-0.053
-203.377	-34.686	-0.186	-0.100
-202.363	-136.664	0.224	-0.025
-201.348	13.296	0.521	0.397
-200.333	199.179	-0.197	0.297
-199.319	-200.000	0.037	0.302
-198.304	508.649	0.024	0.055
-197.290	-200.000	-0.032	0.238
-196.275	4.578	0.102	-0.073
-195.260	-200.000	0.042	-0.188
-194.246	800.000	0.023	0.069
-193.231	-49.817	0.292	0.136
-192.217	-200.000	0.005	-0.138
-191.202	-61.813	-0.403	0.165
-190.187	-200.000	0.035	0.392
-189.173	-154.208	-0.242	0.016
-188.158	296.793	0.047	-0.085
-187.144	13.033	-0.151	-0.115
-186.129	188.779	0.140	0.205
-185.114	176.169	0.032	0.045
-184.100	-4.084	0.214	0.145
-183.085	227.371	0.144	0.230
-182.071	-109.929	-0.089	0.018
-181.056	-55.111	-0.267	0.118
-180.042	-116.205	-0.290	-0.053
-179.027	-110.273	-0.283	-0.058
-178.012	-200.000	0.012	0.380
-176.998	-114.765	0.177	-0.033
-175.983	-139.912	0.384	-0.040
-174.969	-74.188	0.179	0.064
-173.954	-196.838	0.137	-0.001
-172.939	-154.064	-0.296	-0.020
-171.925	-32.279	0.242	0.132
-170.910	-200.000	-0.006	0.213
-169.896	-200.000	0.003	0.267
-168.881	5.759	0.131	-0.095
-167.866	-93.493	0.480	0.130
-166.852	-200.000	-0.044	0.197
-165.837	-35.893	0.067	-0.036
-164.823	63.779	0.306	0.302
-163.808	-200.000	0.048	0.397
-162.793	117.127	-0.074	0.090
-161.779	49.259	0.193	0.178
-160.764	-16.713	0.048	-0.030
-159.750	-110.633	0.137	-0.028
-158.735	800.000	-0.023	-0.088
-157.720	800.000	0.035	-0.109
-156.706	800.000	-0.154	-0.438
-155.691	-49.782	-0.308	-0.143
-154.677	-200.000	-0.005	-0.312
-153.662	232.858	0.075	0.121
-152.647	-158.706	0.153	-0.009
-151.633	-200.000	-0.023	0.435
-150.618	-200.000	-0.050	-0.228
-149.604	-200.000	0.010	-0.132
-148.589	34.882	0.207	-0.178
-147.574	-200.000	0.041	-0.247
-146.560	167.284	0.198	0.276
-145.545	-75.226	0.279	0.098
-144.531	-200.000	-0.026	0.188
-143.516	181.978	0.096	-0.138
-142.502	-17.973	-0.088	-0.054
-141.487	16.017	0.306	-0.236
-140.472	725.756	0.083	0.216
-139.458	-181.987	-0.288	-0.005
-138.443	-200.000	0.078	-0.351
-137.429	-54.328	0.076	0.034
-136.414	-200.000	0.065	-0.302
-135.399	-38.675	0.289	-0.149
-134.385	-130.628	0.300	-0.040
-133.370	-200.000	0.018	0.185
-132.356	52.424	-0.067	-0.062
-131.341	298.700	-0.118	0.213
-130.326	25.311	0.222	0.181
-129.312	737.878	0.029	-0.075
-128.297	-51.087	0.216	0.099
-127.283	59.667	-0.033	-0.032
-126.268	163.762	0.054	-0.075
-125.253	-122.051	-0.075	-0.012
-124.239	-15.821	0.268	-0.167
-123.224	438.657	0.039	0.083
-122.210	-183.193	-0.318	-0.005
