DTS Sentinel unit serial number:	SN413079Multiplexer serial number:	ORYXHardware model number:	OX4-SRSoftware version number:	ORYX F/W v4.00 Oryx Data Collector v3.7.2.0data status	okinstallation	princeton_trtdifferential loss correction	single-endedforward channel	channel 1reverse channel	N/Adate	2019/09/11time	14:04:11forward acquisition time	60.00reverse acquisition time	0.00gamma	496.2192k internal	0.2293k external	0.2293temperature offset calibration	0.9989default loss term (dB/km)	0.3790temperature slope calibration	1.0000multiplexer offset coefficient	1.0000multiplexer slope coefficient	1.0000fibre end	0.00T internal ref (°C)	41.87T ext. ref 1 (°C)	0.86T ext. ref 2 (°C)	36.11length (m)	temperature (°C)	Stokes	anti-Stokes-747.200	-200.000	-0.010	-0.081
-746.185	-55.506	0.291	0.133
-745.171	-200.000	-0.001	-0.120
-744.156	157.785	0.221	0.313
-743.142	365.753	-0.094	0.194
-742.127	34.186	0.079	-0.070
-741.112	587.366	0.081	0.203
-740.098	424.586	0.096	0.210
-739.083	-200.000	-0.034	-0.299
-738.069	105.007	-0.066	0.079
-737.054	6.936	-0.183	0.140
-736.039	366.464	-0.101	0.208
-735.025	-200.000	0.009	-0.143
-734.010	756.667	0.127	-0.352
-732.996	236.730	-0.171	-0.290
-731.981	-147.925	0.176	0.015
-730.966	-200.000	0.068	-0.402
-729.952	-200.000	0.021	0.209
-728.937	5.902	-0.242	0.183
-727.923	-200.000	0.005	-0.031
-726.908	127.161	-0.064	0.083
-725.894	-122.384	-0.210	-0.035
-724.879	-15.544	-0.100	-0.065
-723.864	-200.000	-0.066	-0.327
-722.850	72.633	0.178	0.190
-721.835	-69.560	0.270	-0.106
-720.821	-142.588	0.284	0.028
-719.806	-200.000	-0.020	-0.148
-718.791	-200.000	-0.042	-0.209
-717.777	302.052	0.116	0.218
-716.762	-132.709	-0.169	0.022
-715.748	78.717	-0.123	-0.135
-714.733	332.329	-0.060	0.118
-713.718	233.341	0.041	-0.069
-712.704	-156.277	-0.168	0.011
-711.689	-200.000	-0.025	-0.191
-710.675	-46.088	-0.154	0.077
-709.660	-54.460	-0.229	0.106
-708.645	23.052	0.078	-0.066
-707.631	-5.639	-0.129	0.090
-706.616	-40.060	0.195	0.104
-705.602	-200.000	0.001	0.230
-704.587	-108.919	0.100	-0.022
-703.572	2.791	-0.128	0.095
-702.558	205.666	-0.107	-0.169
-701.543	54.969	0.188	0.186
-700.529	-123.856	0.079	-0.013
-699.514	2.738	-0.283	0.209
-698.499	-13.177	-0.321	0.213
-697.485	-200.000	0.076	-0.355
-696.470	-72.978	0.168	-0.063
-695.456	-93.661	0.272	0.077
-694.441	-77.371	0.134	0.048
-693.426	73.977	-0.101	0.108
-692.412	-195.875	-0.298	0.002
-691.397	-31.919	-0.289	0.165
-690.383	-191.927	0.334	-0.003
-689.368	-87.700	0.051	0.016
-688.354	506.781	-0.074	-0.176
-687.339	-94.786	-0.363	0.101
-686.324	-200.000	-0.070	-0.454
-685.310	800.000	-0.054	0.206
-684.295	-144.088	-0.124	0.012
-683.281	61.586	0.216	0.220
-682.266	-35.080	-0.470	0.261
-681.251	-121.511	-0.118	0.020
-680.237	-200.000	0.007	0.078
-679.222	753.376	0.130	0.358
-678.208	132.865	-0.282	-0.371
-677.193	-54.050	-0.276	-0.128
-676.178	-33.413	0.072	-0.040
-675.164	-200.000	0.051	0.385
-674.149	-77.407	0.253	-0.090
-673.135	800.000	-0.063	-0.257
-672.120	161.054	-0.108	-0.154
-671.105	800.000	0.087	0.379
-670.091	-166.751	0.217	0.009
-669.076	-20.983	0.085	-0.053
-668.062	800.000	0.092	-0.309
-667.047	383.377	0.124	0.259
-666.032	-51.105	-0.150	0.072
-665.018	-200.000	0.086	-0.392
-664.003	-61.717	0.128	-0.055
-662.989	800.000	0.040	-0.138
-661.974	377.134	-0.046	-0.096
-660.959	800.000	0.168	0.544
-659.945	179.870	-0.084	0.126
-658.930	127.814	0.115	0.149
-657.916	-91.223	-0.137	-0.040
-656.901	-27.059	0.156	-0.093
-655.886	-102.777	-0.219	-0.053
-654.872	-192.570	-0.331	0.003
-653.857	-135.977	-0.228	-0.027
-652.843	-200.000	0.102	0.000
-651.828	370.833	0.095	-0.197
-650.814	-74.721	0.132	-0.049
-649.799	215.710	-0.158	-0.256
-648.784	-116.088	0.137	0.026
-647.770	-45.793	-0.188	0.094
-646.755	115.272	0.236	0.294
-645.741	800.000	-0.052	0.223
-644.726	207.388	-0.105	-0.167
-643.711	132.074	0.136	-0.178
-642.697	800.000	-0.157	-0.512
-641.682	-200.000	0.005	0.081
-640.668	244.928	0.103	-0.176
-639.653	-57.307	-0.129	-0.058
-638.638	-120.301	0.158	0.027
-637.624	-37.502	-0.205	-0.112
-636.609	800.000	-0.063	0.202
-635.595	-200.000	-0.020	-0.162
-634.580	-200.000	0.016	0.195
-633.565	-200.000	-0.049	-0.236
-632.551	-0.417	0.072	-0.052
-631.536	-200.000	0.036	-0.442
-630.522	-111.367	0.249	0.052
-629.507	-200.000	0.000	0.165
-628.492	221.288	0.059	-0.097
-627.478	-39.529	0.394	0.210
-626.463	-30.356	-0.145	-0.084
-625.449	-81.359	0.110	0.037
-624.434	-170.503	0.126	0.004
-623.419	-74.109	-0.230	0.085
-622.405	27.269	-0.073	-0.062
-621.390	28.641	-0.226	-0.195
-620.376	155.914	-0.213	-0.299
-619.361	-133.959	-0.087	-0.011
-618.346	35.394	-0.204	-0.182
-617.332	345.224	0.253	-0.505
-616.317	-200.000	-0.016	0.243
-615.303	18.551	-0.261	0.212
-614.288	-127.274	-0.347	-0.051
-613.273	-112.128	0.450	-0.092
-612.259	800.000	-0.044	0.154
-611.244	84.459	-0.113	0.126
-610.230	-58.352	-0.177	-0.078
-609.215	53.849	-0.239	-0.234
-608.201	-63.933	0.356	-0.148
-607.186	-150.116	-0.202	-0.016
-606.171	80.322	0.316	0.346
-605.157	227.156	0.121	0.200
-604.142	-32.009	-0.185	-0.105
-603.128	-84.405	-0.146	0.047
-602.113	800.000	-0.084	0.259
-601.098	-200.000	-0.010	0.072
-600.084	-200.000	0.020	-0.143
-599.069	108.429	0.041	-0.049
-598.055	169.389	-0.195	-0.283
-597.040	-105.059	-0.086	0.020
-596.025	78.996	-0.159	0.173
-595.011	223.634	0.205	0.337
-593.996	-200.000	0.009	-0.068
-592.982	-127.456	0.262	0.039
-591.967	515.883	-0.053	0.126
-590.952	800.000	-0.076	-0.220
-589.938	-48.575	0.299	0.146
-588.923	-100.890	0.235	0.059
-587.909	800.000	-0.014	-0.041
-586.894	49.638	-0.136	0.130
-585.879	-200.000	0.034	0.285
-584.865	543.183	-0.070	0.170
-583.850	-144.716	0.137	0.013
-582.836	-200.000	-0.013	0.229
-581.821	-30.290	-0.180	-0.104
-580.806	397.028	0.063	0.135
-579.792	-50.291	0.071	-0.034
-578.777	-41.661	-0.203	-0.106
-577.763	-51.534	0.106	0.050
-576.748	-97.318	-0.245	0.065
-575.733	208.141	-0.118	0.187
-574.719	106.346	-0.096	0.116
-573.704	-176.874	-0.202	0.005
-572.690	27.084	0.218	-0.186
-571.675	184.847	0.086	0.130
-570.661	269.753	-0.162	0.288
-569.646	-56.103	0.073	-0.033
-568.631	122.489	-0.122	0.154
-567.617	-200.000	0.003	0.171
-566.602	-200.000	-0.034	-0.208
-565.588	84.733	-0.122	-0.135
-564.573	189.130	-0.140	-0.214
-563.558	133.843	-0.210	0.277
-562.544	-118.620	0.013	-0.002
-561.529	678.767	0.097	0.256
-560.515	800.000	-0.043	0.121
-559.500	211.386	-0.147	0.235
-558.485	546.327	-0.104	0.251
-557.471	-130.004	0.217	-0.030
-556.456	-200.000	-0.011	-0.113
-555.442	-134.812	0.080	0.010
-554.427	10.724	-0.352	0.272
-553.412	-200.000	0.007	-0.094
-552.398	215.599	0.273	-0.440
-551.383	-133.895	0.321	-0.041
-550.369	112.343	0.205	0.252
-549.354	-63.304	-0.102	0.043
-548.339	-116.264	0.213	0.040
-547.325	-160.274	0.238	0.013
-546.310	1.712	0.057	-0.042
-545.296	-200.000	-0.010	-0.169
-544.281	166.756	-0.131	0.189
-543.266	-87.322	-0.275	0.085
-542.252	155.268	-0.025	0.035
-541.237	-157.657	-0.250	0.015
-540.223	-47.705	-0.272	-0.134
-539.208	131.808	0.128	0.168
-538.193	100.109	0.268	-0.315
-537.179	-12.887	0.149	-0.098
-536.164	-80.391	-0.292	0.099
-535.150	-67.798	-0.248	0.099
-534.135	-35.949	-0.049	0.027
-533.121	800.000	0.100	0.366
-532.106	-49.682	0.070	0.034
-531.091	217.762	-0.046	0.074
-530.077	-18.567	-0.266	0.168
-529.062	-200.000	0.023	0.202
-528.048	-3.513	-0.096	-0.068
-527.033	-32.875	0.065	-0.037
-526.018	14.928	-0.045	-0.035
-525.004	-24.751	0.156	0.094
-523.989	800.000	-0.088	-0.287
-522.975	800.000	0.047	-0.180
-521.960	-188.745	0.196	-0.002
-520.945	70.526	0.185	0.194
-519.931	-25.464	0.182	0.109
-518.916	800.000	-0.021	0.079
-517.902	-200.000	-0.074	-0.339
-516.887	-134.558	-0.065	-0.008
-515.872	-115.284	0.131	0.025
-514.858	-109.650	0.261	-0.056
-513.843	-27.496	0.120	-0.071
-512.829	-2.279	0.052	0.037
-511.814	-115.535	-0.201	0.038
-510.799	-82.284	-0.050	0.017
-509.785	252.553	0.016	-0.028
-508.770	30.618	-0.152	-0.132
-507.756	-33.015	0.138	-0.078
-506.741	-149.610	-0.109	-0.009
-505.726	202.266	0.024	0.038
-504.712	800.000	-0.052	-0.199
-503.697	15.513	-0.171	-0.136
-502.683	-128.636	-0.240	0.034
-501.668	-61.085	-0.196	0.084
-500.653	-49.362	0.403	-0.195
-499.639	-49.550	0.145	-0.070
-498.624	735.375	-0.063	-0.171
-497.610	-200.000	-0.081	-0.387
-496.595	19.127	-0.181	-0.147
-495.581	800.000	0.041	0.125
-494.566	-75.727	-0.232	0.083
-493.551	-64.982	-0.285	-0.117
-492.537	-32.812	0.158	-0.089
-491.522	-200.000	0.021	-0.188
-490.508	59.522	-0.293	0.293
-489.493	-149.131	0.407	0.033
-488.478	228.502	-0.032	-0.052
-487.464	36.492	0.183	0.164
-486.449	-200.000	-0.018	-0.144
-485.435	22.625	-0.154	-0.127
-484.420	-130.631	-0.107	-0.015
-483.405	197.393	0.020	0.030
-482.391	-200.000	0.013	0.151
-481.376	-64.688	-0.078	-0.032
-480.362	800.000	-0.050	-0.139
-479.347	-110.635	0.168	0.035
-478.332	-140.668	0.321	-0.034
-477.318	-21.226	-0.254	-0.157
-476.303	268.121	0.109	-0.193
-475.289	-200.000	-0.059	0.278
-474.274	390.292	0.023	-0.047
-473.259	539.994	0.164	0.396
-472.245	-200.000	0.021	0.223
-471.230	521.099	0.199	0.473
-470.216	800.000	0.090	0.303
-469.201	127.949	-0.127	0.164
-468.186	800.000	-0.090	0.376
-467.172	-57.276	-0.184	-0.082
-466.157	2.228	-0.160	0.117
-465.143	-200.000	0.025	-0.200
-464.128	800.000	0.029	-0.110
-463.113	474.576	0.105	-0.239
-462.099	-200.000	-0.027	-0.191
-461.084	-200.000	-0.016	0.273
-460.070	-111.879	-0.412	0.084
-459.055	31.691	-0.143	-0.125
-458.040	-200.000	-0.014	0.380
-457.026	800.000	0.032	0.103
-456.011	276.442	0.136	0.245
-454.997	-105.589	-0.273	-0.063
-453.982	93.517	-0.096	0.109
-452.968	-142.147	-0.064	-0.006
-451.953	800.000	-0.069	0.205
-450.938	-166.432	-0.247	0.010
-449.924	170.056	-0.133	-0.193
-448.909	-50.275	-0.493	0.236
-447.895	92.644	-0.214	0.244
-446.880	-76.041	-0.250	0.089
-445.865	-17.532	0.105	-0.066
-444.851	-40.318	-0.165	-0.087
-443.836	-90.571	-0.060	-0.018
-442.822	-85.593	-0.233	0.073
-441.807	-65.520	0.267	0.108
-440.792	71.456	-0.150	-0.157
-439.778	-200.000	0.035	-0.196
-438.763	-118.468	-0.029	0.005
-437.749	293.880	-0.182	0.335
-436.734	210.491	0.150	0.238
-435.719	57.793	-0.087	0.086
-434.705	-87.259	-0.199	0.061
-433.690	221.004	0.205	-0.332
-432.676	-92.432	-0.162	-0.046
-431.661	800.000	0.094	0.385
-430.646	386.349	0.050	-0.103
-429.632	341.027	-0.041	0.080
-428.617	-22.855	0.218	0.133
-427.603	-200.000	0.005	0.096
-426.588	32.522	0.095	-0.083
-425.573	-46.208	-0.417	-0.208
-424.559	-75.425	-0.314	-0.113
-423.544	-200.000	0.035	-0.402
-422.530	40.975	-0.160	-0.146
-421.515	-34.272	0.244	-0.136
-420.500	-43.576	-0.401	-0.204
-419.486	-200.000	-0.037	0.168
-418.471	23.909	0.210	-0.175
-417.457	-61.122	-0.190	-0.081
-416.442	-200.000	-0.025	-0.203
-415.428	-200.000	0.044	-0.352
-414.413	-86.574	-0.087	0.027
-413.398	43.442	-0.140	-0.129
-412.384	-27.677	-0.162	-0.095
-411.369	-90.058	-0.065	-0.019
-410.355	-87.311	0.172	-0.053
-409.340	695.916	-0.120	-0.319
-408.325	-109.844	-0.398	0.084
-407.311	84.822	0.030	0.034
-406.296	-41.611	-0.246	-0.128
-405.282	209.200	-0.268	-0.425
-404.267	-200.000	0.018	0.182
-403.252	800.000	-0.080	-0.237
-402.238	-200.000	-0.035	-0.172
-401.223	140.516	-0.113	0.151
-400.209	-200.000	0.006	-0.087
-399.194	-200.000	-0.033	-0.188
-398.179	132.150	0.205	-0.266
-397.165	24.128	0.041	-0.034
-396.150	800.000	-0.007	0.033
-395.136	-134.694	-0.302	-0.037
-394.121	200.295	0.150	-0.232
-393.106	526.233	0.076	0.180
-392.092	196.900	0.165	-0.254
-391.077	-200.000	-0.060	-0.321
-390.063	-200.000	-0.010	-0.108
-389.048	-71.383	0.191	-0.072
-388.033	-141.329	0.188	0.019
-387.019	212.835	-0.106	-0.169
-386.004	185.658	0.125	0.188
-384.990	-104.044	-0.303	0.071
-383.975	33.242	0.154	-0.135
-382.960	-124.197	0.139	-0.022
-381.946	275.166	0.066	-0.118
-380.931	179.325	-0.036	0.054
-379.917	42.422	-0.039	-0.036
-378.902	-41.096	-0.283	-0.147
-377.888	800.000	0.035	0.128
-376.873	168.468	0.162	-0.232
-375.858	-195.366	0.250	0.002
-374.844	-148.291	0.304	-0.025
-373.829	356.466	0.102	0.204
-372.815	-25.714	-0.176	0.105
-371.800	-200.000	-0.028	-0.301
-370.785	-200.000	0.102	-0.466
-369.771	800.000	-0.085	0.271
-368.756	77.479	-0.182	0.196
-367.742	-200.000	0.003	0.057
-366.727	-117.679	0.449	0.082
-365.712	86.523	0.038	-0.042
-364.698	-200.000	-0.058	-0.257
-363.683	800.000	-0.015	-0.047
-362.669	78.218	0.352	0.379
-361.654	-129.856	0.277	0.038
-360.639	9.727	0.234	-0.179
-359.625	509.469	-0.111	-0.261
-358.610	-133.452	0.073	0.009
-357.596	28.087	0.357	0.304
-356.581	-95.560	-0.244	0.066
-355.566	-200.000	0.016	-0.366
-354.552	-168.577	0.182	0.007
-353.537	-76.304	-0.128	-0.045
-352.523	800.000	0.127	-0.524
-351.508	-73.033	-0.171	-0.063
-350.493	87.876	0.141	-0.157
-349.479	-200.000	-0.017	-0.174
-348.464	145.789	0.148	0.200
-347.450	-54.833	0.371	0.169
-346.435	420.402	-0.137	0.296
-345.420	-3.611	-0.020	0.014
-344.406	-41.100	-0.223	-0.116
-343.391	269.316	0.131	0.232
-342.377	67.856	0.218	0.224
-341.362	-142.473	0.475	0.047
-340.348	800.000	0.034	-0.098
-339.333	-133.872	-0.379	0.047
-338.318	-63.265	-0.175	-0.073
-337.304	-200.000	-0.010	-0.082
-336.289	78.782	0.144	0.155
-335.275	-52.775	0.162	-0.075
-334.260	-200.000	0.008	0.279
-333.245	-161.237	0.041	-0.002
-332.231	-139.918	-0.131	-0.014
-331.216	-111.540	-0.304	0.062
-330.202	44.632	0.098	-0.091
-329.187	21.773	0.135	-0.111
-328.172	-37.941	-0.071	-0.038
-327.158	100.793	0.100	-0.117
-326.143	16.615	0.135	-0.108
-325.129	-14.245	0.134	0.087
-324.114	101.959	0.131	-0.153
-323.099	28.765	-0.269	0.229
-322.085	-79.300	-0.108	0.037
-321.070	69.013	0.042	-0.044
-320.056	-57.664	0.254	0.112
-319.041	282.402	0.134	-0.242
-318.026	263.158	0.072	0.125
-317.012	144.362	0.102	-0.137
-315.997	240.225	-0.142	0.237
-314.983	-125.129	-0.345	0.053
-313.968	-51.879	0.159	-0.075
-312.953	534.402	0.128	-0.306
-311.939	-200.000	0.034	0.312
-310.924	-116.219	0.452	0.084
-309.910	-169.119	0.270	-0.010
-308.895	-111.230	-0.363	-0.075
-307.880	-200.000	-0.001	0.008
-306.866	-200.000	-0.009	0.113
-305.851	196.251	0.081	0.124
-304.837	-200.000	0.023	-0.202
-303.822	800.000	0.015	-0.066
-302.807	-122.802	0.170	0.028
-301.793	800.000	-0.062	-0.212
-300.778	-107.632	0.115	0.025
-299.764	228.572	-0.184	-0.301
-298.749	-200.000	0.054	-0.326
-297.735	361.084	0.013	0.027
-296.720	-113.368	-0.215	-0.043
-295.705	-161.704	-0.142	-0.007
-294.691	41.213	-0.156	-0.142
-293.676	800.000	0.068	-0.223
-292.662	30.172	0.315	0.271
-291.647	-38.563	-0.206	0.110
-290.632	-200.000	0.059	0.441
-289.618	-200.000	0.061	-0.301
-288.603	105.235	-0.213	-0.252
-287.589	-21.408	0.218	0.134
-286.574	-200.000	0.019	0.214
-285.559	104.130	0.227	0.268
-284.545	672.277	0.022	0.056
-283.530	-200.000	-0.026	-0.353
-282.516	32.283	0.253	-0.219
-281.501	-97.005	0.293	0.077
-280.486	-65.392	-0.307	-0.124
-279.472	-103.217	-0.290	0.069
-278.457	-21.417	0.131	-0.080
-277.443	-25.961	-0.335	0.198
-276.428	-49.419	-0.269	0.129
-275.413	34.078	-0.165	0.144
-274.399	-200.000	0.057	0.347
-273.384	-5.353	0.326	0.225
-272.370	397.132	0.048	0.101
-271.355	-25.440	0.125	0.074
-270.340	-200.000	-0.029	-0.199
-269.326	-200.000	0.030	-0.271
-268.311	-149.448	-0.186	0.015
-267.297	-200.000	-0.007	-0.049
-266.282	-156.256	-0.107	0.007
-265.267	42.512	-0.166	-0.152
-264.253	1.059	0.576	0.415
-263.238	-200.000	0.008	0.054
-262.224	275.367	0.182	0.324
-261.209	-66.574	0.190	0.076
-260.195	-110.033	0.114	0.024
-259.180	766.676	0.115	0.313
-258.165	-199.338	0.319	-0.002
-257.151	524.760	-0.018	-0.043
-256.136	496.074	-0.132	-0.305
-255.122	244.202	0.128	0.216
-254.107	-61.519	-0.050	0.021
-253.092	25.535	0.143	-0.120
-252.078	435.768	0.102	0.223
-251.063	-110.182	-0.179	-0.037
-250.049	-200.000	-0.013	-0.243
-249.034	14.922	0.186	-0.146
-248.019	10.471	0.141	0.107
-247.005	800.000	0.097	-0.290
-245.990	-68.492	0.171	-0.066
-244.976	380.374	-0.017	-0.036
-243.961	291.891	-0.071	0.130
-242.946	-96.956	-0.146	-0.038
-241.932	183.708	-0.106	0.158
-240.917	-101.746	0.084	-0.020
-239.903	-33.353	0.233	0.129
-238.888	-47.758	-0.213	0.103
-237.873	379.226	0.091	0.187
-236.859	221.593	0.114	-0.184
-235.844	235.357	-0.152	-0.252
-234.830	-200.000	-0.031	-0.197
-233.815	49.998	0.163	0.154
-232.800	-200.000	-0.015	-0.393
-231.786	15.848	0.259	-0.205
-230.771	381.961	0.082	0.170
-229.757	125.435	0.081	0.102
-228.742	-200.000	-0.051	0.245
-227.727	287.793	0.121	-0.220
-226.713	82.567	0.030	0.032
-225.698	4.275	0.211	-0.155
-224.684	154.908	0.256	0.353
-223.669	261.597	0.013	0.022
-222.655	778.275	0.083	0.228
-221.640	507.510	-0.052	-0.122
-220.625	372.231	0.030	0.062
-219.611	114.774	-0.385	0.471
-218.596	-17.996	0.228	0.143
-217.582	98.525	0.164	-0.189
-216.567	-185.947	-0.079	-0.001
-215.552	-141.313	0.205	0.021
-214.538	-19.673	-0.248	-0.154
-213.523	9.575	-0.236	-0.179
-212.509	-200.000	0.027	-0.264
-211.494	-49.245	-0.200	-0.096
-210.479	-101.250	-0.178	-0.043
-209.465	5.843	0.106	-0.078
-208.450	-105.036	0.092	0.021
-207.436	800.000	-0.072	0.302
-206.421	-18.483	-0.225	-0.141
-205.406	147.574	0.049	0.066
-204.392	-42.186	-0.293	0.150
-203.377	800.000	-0.028	0.114
-202.363	-173.477	0.359	0.011
-201.348	-87.539	0.137	-0.042
-200.333	400.922	-0.070	0.147
-199.319	-115.408	-0.173	0.033
-198.304	-200.000	-0.003	-0.439
-197.290	-108.292	0.161	0.035
-196.275	117.923	-0.185	0.228
-195.260	463.655	-0.006	-0.012
-194.246	-57.948	0.088	-0.039
-193.231	-179.715	-0.121	0.003
-192.217	93.840	0.049	0.056
-191.202	800.000	0.054	0.220
-190.187	-200.000	0.013	0.093
-189.173	-101.200	0.158	-0.039
-188.158	62.016	-0.260	0.259
-187.144	800.000	-0.049	-0.210
-186.129	-57.354	-0.214	-0.094
-185.114	-64.637	0.146	-0.059
-184.100	800.000	-0.045	0.168
-183.085	-143.462	-0.249	-0.024
-182.071	-63.473	0.420	0.173
-181.056	-29.636	-0.116	0.066
-180.042	603.809	0.090	-0.225
-179.027	642.058	0.087	-0.222
-178.012	-104.357	-0.077	-0.018
-176.998	-86.870	0.329	0.100
-175.983	-177.427	0.247	-0.006
-174.969	-73.277	0.189	-0.069
-173.954	477.885	-0.121	-0.273
-172.939	19.579	-0.169	-0.136
-171.925	-132.156	-0.161	0.021
-170.910	134.254	0.185	0.240
-169.896	-115.934	0.286	-0.053
-168.881	112.153	0.136	0.165
-167.866	143.011	0.083	0.111
-166.852	800.000	0.033	0.123
-165.837	-25.267	-0.154	0.091
-164.823	-94.518	0.191	-0.052
-163.808	-200.000	0.004	-0.320
-162.793	258.524	0.063	0.109
-161.779	-17.929	0.183	0.115
-160.764	213.990	0.129	0.204
-159.750	800.000	-0.037	-0.112
-158.735	154.534	-0.297	0.408
-157.720	198.886	-0.039	0.059
-156.706	5.941	0.262	0.194
-155.691	359.446	-0.037	0.075
-154.677	408.837	-0.018	-0.037
-153.662	74.855	-0.249	-0.262
-152.647	302.755	-0.151	0.279
-151.633	-50.604	-0.089	0.042
-150.618	-49.692	0.391	0.186
-149.604	78.412	-0.297	0.317
-148.589	230.364	-0.099	-0.162
-147.574	-200.000	0.057	-0.484
-146.560	131.676	0.070	-0.090
-145.545	275.353	-0.148	0.262
-144.531	800.000	0.069	-0.223
-143.516	381.516	0.101	0.207
-142.502	254.562	-0.227	0.387
-141.487	-126.581	-0.389	-0.058
-140.472	-60.339	0.270	-0.115
-139.458	-109.647	-0.510	-0.107
-138.443	35.728	-0.174	-0.153
-137.429	17.188	-0.146	0.116
-136.414	-51.222	0.308	-0.144
-135.399	-25.092	0.074	-0.044
-134.385	800.000	-0.108	0.468
-133.370	10.181	-0.190	-0.144
-132.356	219.232	0.246	0.392
-131.341	-46.649	-0.116	0.057
-130.326	331.100	-0.177	-0.340
-129.312	-29.581	0.050	-0.028
-128.297	-135.345	0.019	0.002
-127.283	-79.614	-0.077	0.026
-126.268	-127.711	-0.264	0.038
-125.253	163.401	-0.192	0.269
-124.239	488.776	-0.093	-0.212
-123.224	8.847	-0.217	0.163
-122.210	299.328	0.075	0.139
