DTS Sentinel unit serial number:	SN413079Multiplexer serial number:	ORYXHardware model number:	OX4-SRSoftware version number:	ORYX F/W v4.00 Oryx Data Collector v3.7.2.0data status	okinstallation	princeton_trtdifferential loss correction	single-endedforward channel	channel 1reverse channel	N/Adate	2019/09/13time	19:14:35forward acquisition time	60.00reverse acquisition time	0.00gamma	496.2192k internal	0.2325k external	0.2325temperature offset calibration	1.0123default loss term (dB/km)	0.3790temperature slope calibration	1.0000multiplexer offset coefficient	1.0000multiplexer slope coefficient	1.0000fibre end	0.00T internal ref (°C)	31.34T ext. ref 1 (°C)	3.82T ext. ref 2 (°C)	24.71length (m)	temperature (°C)	Stokes	anti-Stokes-747.200	-200.000	-0.026	0.227
-746.185	800.000	0.069	0.256
-745.171	-200.000	-0.069	-0.322
-744.156	800.000	-0.043	-0.156
-743.142	-135.054	0.072	0.009
-742.127	387.473	-0.128	0.268
-741.112	795.815	-0.054	0.150
-740.098	175.342	0.355	0.519
-739.083	-200.000	0.012	0.057
-738.069	172.079	0.077	-0.111
-737.054	-100.834	-0.108	-0.027
-736.039	-72.330	0.098	-0.037
-735.025	-200.000	-0.042	-0.403
-734.010	-200.000	-0.026	-0.309
-732.996	79.207	-0.163	-0.176
-731.981	-62.733	-0.277	-0.116
-730.966	111.671	-0.200	-0.244
-729.952	78.155	-0.124	0.134
-728.937	124.033	-0.311	-0.394
-727.923	-200.000	-0.034	-0.263
-726.908	297.792	-0.071	0.132
-725.894	-151.161	-0.187	0.014
-724.879	774.408	0.103	-0.284
-723.864	8.143	-0.155	0.118
-722.850	296.836	-0.068	-0.126
-721.835	-147.673	-0.230	0.019
-720.821	-153.495	-0.384	0.027
-719.806	800.000	0.073	-0.205
-718.791	-200.000	-0.004	-0.110
-717.777	-200.000	-0.025	0.228
-716.762	-93.709	0.088	0.024
-715.748	-94.850	-0.326	0.089
-714.733	-200.000	-0.047	-0.371
-713.718	366.553	0.068	0.139
-712.704	-82.851	-0.295	0.096
-711.689	-200.000	-0.047	0.221
-710.675	117.190	0.155	-0.191
-709.660	-200.000	0.072	0.414
-708.645	800.000	0.097	0.341
-707.631	7.922	-0.241	0.182
-706.616	-200.000	-0.028	0.314
-705.602	-200.000	-0.020	-0.220
-704.587	-44.357	0.295	0.149
-703.572	800.000	-0.106	-0.452
-702.558	800.000	0.051	-0.202
-701.543	-96.957	-0.134	0.035
-700.529	258.849	0.050	-0.086
-699.514	-200.000	0.030	0.152
-698.499	-51.340	0.086	-0.041
-697.485	23.304	0.072	-0.060
-696.470	-71.609	-0.259	-0.097
-695.456	-82.557	0.225	-0.073
-694.441	149.567	0.227	-0.310
-693.426	147.391	0.130	-0.176
-692.412	170.823	0.201	-0.290
-691.397	714.242	-0.069	0.185
-690.383	748.840	0.079	-0.214
-689.368	52.922	0.207	-0.200
-688.354	800.000	0.027	0.114
-687.339	294.966	-0.081	0.148
-686.324	800.000	-0.064	-0.263
-685.310	-63.863	0.074	-0.030
-684.295	-5.822	-0.342	-0.236
-683.281	-25.060	-0.321	-0.192
-682.266	107.231	0.127	0.151
-681.251	28.940	-0.174	0.149
-680.237	-164.674	-0.094	0.004
-679.222	419.780	-0.106	0.228
-678.208	-99.489	0.284	0.072
-677.193	-200.000	0.005	0.077
-676.178	62.952	0.288	-0.290
-675.164	-36.489	-0.210	0.114
-674.149	113.936	0.047	0.057
-673.135	-31.107	-0.307	-0.174
-672.120	54.865	-0.100	-0.097
-671.105	259.981	-0.130	0.225
-670.091	65.014	0.176	-0.179
-669.076	800.000	-0.083	-0.240
-668.062	-200.000	-0.032	-0.281
-667.047	601.677	-0.048	0.119
-666.032	25.798	0.291	-0.244
-665.018	-137.964	0.208	-0.023
-664.003	515.114	-0.005	0.011
-662.989	-52.912	-0.206	-0.095
-661.974	159.452	-0.213	0.299
-660.959	663.183	0.061	-0.159
-659.945	-163.939	0.201	-0.009
-658.930	-200.000	-0.061	-0.272
-657.916	-98.875	0.344	-0.088
-656.901	-200.000	-0.033	-0.273
-655.886	258.686	0.161	0.279
-654.872	-1.207	-0.022	-0.016
-653.857	131.454	0.080	-0.104
-652.843	40.598	-0.190	0.172
-651.828	55.187	-0.402	-0.391
-650.814	-200.000	0.007	-0.084
-649.799	606.081	-0.103	-0.258
-648.784	93.809	0.235	0.268
-647.770	288.920	-0.101	0.183
-646.755	-21.572	0.106	-0.065
-645.741	-89.893	0.462	-0.136
-644.726	360.767	0.090	-0.182
-643.711	-42.478	0.217	0.111
-642.697	-200.000	0.037	-0.314
-641.682	-86.141	-0.101	-0.031
-640.668	-118.946	0.273	-0.048
-639.653	30.359	-0.133	0.114
-638.638	800.000	-0.030	0.096
-637.624	-115.941	0.229	0.043
-636.609	-57.407	-0.179	-0.079
-635.595	194.893	0.111	-0.169
-634.580	19.946	-0.163	-0.132
-633.565	-200.000	0.026	-0.157
-632.551	-55.552	-0.112	0.050
-631.536	-106.355	-0.119	-0.027
-630.522	150.568	0.124	-0.169
-629.507	-200.000	0.012	0.227
-628.492	-66.054	0.386	0.155
-627.478	-56.460	-0.050	0.022
-626.463	-12.087	-0.183	-0.120
-625.449	800.000	0.037	0.112
-624.434	611.232	-0.065	-0.163
-623.419	186.949	-0.147	0.221
-622.405	99.797	0.129	0.150
-621.390	-200.000	-0.004	-0.146
-620.376	800.000	-0.095	-0.282
-619.361	-200.000	0.005	0.025
-618.346	-170.693	0.299	-0.010
-617.332	685.701	0.146	-0.383
-616.317	800.000	0.009	-0.028
-615.303	149.370	0.132	0.180
-614.288	31.098	0.109	0.094
-613.273	690.860	0.136	-0.358
-612.259	-200.000	0.018	-0.226
-611.244	-200.000	0.014	-0.189
-610.230	39.390	0.030	-0.027
-609.215	-67.494	-0.095	-0.037
-608.201	-8.409	0.066	-0.044
-607.186	-8.863	-0.255	-0.172
-606.171	-0.139	0.145	0.104
-605.157	52.145	-0.114	-0.109
-604.142	-35.378	-0.169	-0.092
-603.128	-200.000	0.014	0.202
-602.113	175.487	-0.184	-0.268
-601.098	-166.651	-0.269	-0.011
-600.084	-52.778	-0.138	-0.064
-599.069	242.226	0.101	0.169
-598.055	-138.490	-0.379	-0.042
-597.040	-5.732	-0.073	-0.050
-596.025	-46.247	0.301	-0.148
-595.011	-145.608	-0.204	0.018
-593.996	45.346	0.200	0.185
-592.982	-197.324	0.297	0.002
-591.967	620.853	-0.120	0.303
-590.952	-200.000	0.008	-0.119
-589.938	96.034	-0.080	-0.091
-588.923	79.031	-0.049	-0.053
-587.909	-180.713	-0.211	0.004
-586.894	209.344	-0.058	0.092
-585.879	800.000	0.030	0.132
-584.865	800.000	0.078	0.251
-583.850	274.857	-0.076	-0.136
-582.836	-200.000	0.004	-0.376
-581.821	-170.963	0.122	0.004
-580.806	763.384	0.036	-0.099
-579.792	312.957	0.112	-0.212
-578.777	317.056	0.052	-0.099
-577.763	-95.534	0.246	-0.066
-576.748	-200.000	-0.017	-0.124
-575.733	-44.830	-0.205	-0.102
-574.719	15.347	-0.346	0.272
-573.704	-88.345	0.178	-0.053
-572.690	-200.000	-0.031	0.143
-571.675	67.314	0.110	0.113
-570.661	20.981	-0.068	-0.055
-569.646	236.259	-0.062	0.102
-568.631	46.808	-0.085	-0.079
-567.617	-78.735	-0.339	-0.116
-566.602	111.758	0.323	0.390
-565.588	-38.156	-0.112	-0.060
-564.573	-58.694	-0.190	0.082
-563.558	-200.000	-0.001	-0.010
-562.544	-161.830	-0.089	-0.005
-561.529	800.000	-0.097	0.340
-560.515	-200.000	0.007	-0.232
-559.500	328.065	-0.108	-0.207
-558.485	-17.905	0.078	0.049
-557.471	265.886	0.160	-0.279
-556.456	800.000	0.086	-0.317
-555.442	-103.608	-0.251	0.059
-554.427	-63.321	-0.086	0.035
-553.412	5.647	0.175	-0.130
-552.398	-134.025	-0.192	-0.024
-551.383	800.000	0.093	0.274
-550.369	163.973	-0.222	-0.313
-549.354	-38.686	-0.220	-0.116
-548.339	-81.463	0.082	0.027
-547.325	-38.057	0.089	0.047
-546.310	145.799	0.132	0.177
-545.296	8.850	-0.224	0.169
-544.281	-85.819	-0.028	0.009
-543.266	171.627	0.130	0.186
-542.252	-55.238	0.192	-0.086
-541.237	-89.894	-0.369	-0.108
-540.223	-131.094	0.098	0.013
-539.208	702.980	0.070	0.184
-538.193	36.869	0.246	-0.218
-537.179	137.903	0.103	0.135
-536.164	259.176	-0.100	-0.173
-535.150	102.605	0.087	-0.102
-534.135	-49.571	0.006	0.003
-533.121	-200.000	0.011	-0.095
-532.106	-73.438	-0.179	0.065
-531.091	212.054	-0.062	0.097
-530.077	99.488	0.042	-0.048
-529.062	-58.633	-0.299	-0.130
-528.048	128.176	0.126	-0.161
-527.033	-71.415	0.397	0.149
-526.018	341.164	0.156	-0.305
-525.004	800.000	0.108	-0.431
-523.989	-133.310	-0.279	0.035
-522.975	-85.900	0.424	0.131
-521.960	88.620	-0.034	-0.038
-520.945	-89.444	-0.420	0.124
-519.931	-55.989	-0.184	-0.082
-518.916	-200.000	0.063	-0.387
-517.902	140.047	0.087	0.115
-516.887	165.904	0.165	-0.234
-515.872	354.176	-0.057	-0.114
-514.858	418.827	-0.099	-0.213
-513.843	800.000	-0.123	-0.343
-512.829	-200.000	0.229	0.001
-511.814	800.000	-0.019	0.068
-510.799	-35.610	-0.127	0.069
-509.785	-94.264	-0.212	0.058
-508.770	167.021	0.176	0.249
-507.756	27.610	0.311	-0.262
-506.741	447.808	0.190	-0.418
-505.726	-200.000	-0.035	0.163
-504.712	732.035	-0.081	-0.217
-503.697	-36.110	0.198	0.107
-502.683	71.792	-0.112	0.117
-501.668	-79.229	-0.260	-0.088
-500.653	49.747	-0.180	0.169
-499.639	177.039	0.117	0.171
-498.624	-151.176	-0.167	0.012
-497.610	-68.710	0.105	-0.041
-496.595	438.817	0.076	0.165
-495.581	-90.286	0.117	-0.034
-494.566	41.133	0.127	0.115
-493.551	-31.906	-0.234	-0.131
-492.537	-5.452	-0.173	-0.118
-491.522	-68.862	0.199	-0.077
-490.508	800.000	-0.046	-0.150
-489.493	215.446	-0.106	-0.168
-488.478	409.833	0.094	-0.199
-487.464	-200.000	-0.005	-0.187
-486.449	-200.000	0.012	-0.139
-485.435	110.353	0.057	0.069
-484.420	14.457	0.261	0.203
-483.405	-200.000	0.057	0.329
-482.391	800.000	-0.078	0.222
-481.376	-200.000	-0.033	0.147
-480.362	800.000	-0.094	0.292
-479.347	7.193	0.164	-0.122
-478.332	2.653	0.127	-0.092
-477.318	-171.514	0.266	-0.009
-476.303	368.699	-0.046	-0.092
-475.289	-200.000	0.002	-0.063
-474.274	-200.000	0.014	-0.290
-473.259	-107.055	-0.156	-0.034
-472.245	-69.935	0.124	0.047
-471.230	-144.471	0.151	-0.014
-470.216	749.511	-0.070	0.189
-469.201	-20.598	0.185	0.114
-468.186	-87.032	0.053	0.016
-467.172	219.280	0.255	0.407
-466.157	-200.000	0.020	-0.239
-465.143	131.243	0.124	-0.159
-464.128	268.196	-0.043	-0.075
-463.113	-63.478	0.146	0.060
-462.099	-2.911	-0.265	-0.185
-461.084	-33.908	-0.113	0.062
-460.070	-76.008	0.204	-0.072
-459.055	-15.688	0.051	0.033
-458.040	519.957	0.194	0.454
-457.026	374.123	-0.129	-0.262
-456.011	77.607	0.154	0.164
-454.997	225.580	-0.105	0.169
-453.982	337.722	-0.091	0.177
-452.968	-72.006	-0.099	-0.037
-451.953	-69.801	-0.117	-0.045
-450.938	67.534	0.074	-0.075
-449.924	-61.250	0.137	0.058
-448.909	-149.004	-0.378	-0.030
-447.895	259.675	0.099	-0.170
-446.880	-140.592	0.160	0.017
-445.865	-200.000	-0.004	0.222
-444.851	3.562	0.234	0.170
-443.836	-200.000	-0.014	0.079
-442.822	-200.000	-0.060	0.282
-441.807	-87.591	0.212	0.064
-440.792	-200.000	-0.038	0.315
-439.778	453.282	-0.056	0.124
-438.763	-48.639	-0.206	-0.099
-437.749	43.993	-0.137	0.125
-436.734	800.000	-0.092	0.295
-435.719	19.441	0.170	-0.136
-434.705	-127.163	-0.187	-0.027
-433.690	-151.561	0.247	-0.018
-432.676	-200.000	0.044	0.407
-431.661	-200.000	-0.063	0.315
-430.646	-43.268	-0.050	-0.025
-429.632	-127.656	0.126	-0.018
-428.617	-118.803	-0.128	0.023
-427.603	297.715	-0.121	-0.222
-426.588	219.586	-0.102	-0.163
-425.573	153.015	-0.066	0.090
-424.559	800.000	0.139	-0.477
-423.544	-67.591	0.165	0.064
-422.530	-200.000	0.015	-0.122
-421.515	111.416	0.177	0.213
-420.500	-32.589	-0.172	-0.095
-419.486	-121.300	0.122	0.020
-418.471	600.631	-0.064	0.157
-417.457	800.000	-0.053	0.231
-416.442	165.060	0.033	-0.047
-415.428	459.582	-0.130	-0.288
-414.413	-41.399	0.070	0.036
-413.398	694.602	-0.071	0.186
-412.384	-149.499	0.221	0.017
-411.369	375.477	-0.005	0.011
-410.355	-17.328	0.209	0.131
-409.340	-46.819	-0.238	0.116
-408.325	-200.000	-0.001	0.383
-407.311	-99.003	-0.189	0.048
-406.296	-56.610	0.166	-0.073
-405.282	-51.192	0.060	0.028
-404.267	-127.157	0.097	0.014
-403.252	-130.466	-0.475	0.064
-402.238	19.388	0.138	0.111
-401.223	595.492	0.164	0.404
-400.209	800.000	-0.095	0.276
-399.194	-200.000	-0.052	0.306
-398.179	-200.000	0.008	0.089
-397.165	42.127	0.206	0.186
-396.150	-128.336	-0.359	-0.051
-395.136	-25.882	-0.225	-0.132
-394.121	800.000	0.106	-0.326
-393.106	-80.414	0.359	0.119
-392.092	47.790	-0.199	0.185
-391.077	118.743	-0.124	-0.152
-390.063	227.872	-0.146	-0.237
-389.048	165.529	0.182	-0.256
-388.033	595.862	0.071	-0.175
-387.019	259.377	-0.143	0.245
-386.004	12.347	-0.211	0.161
-384.990	56.230	-0.139	-0.134
-383.975	-200.000	-0.058	-0.265
-382.960	136.026	-0.022	0.029
-381.946	114.643	0.096	0.116
-380.931	119.451	0.018	0.023
-379.917	-83.007	0.202	-0.065
-378.902	-200.000	0.047	0.338
-377.888	-125.779	-0.187	0.028
-376.873	-9.967	0.308	-0.204
-375.858	791.616	-0.057	0.155
-374.844	-40.627	0.178	0.092
-373.829	83.235	-0.011	0.011
-372.815	-91.855	-0.087	-0.024
-371.800	142.546	-0.201	-0.266
-370.785	-200.000	0.012	-0.108
-369.771	-69.834	-0.152	-0.058
-368.756	800.000	-0.055	0.152
-367.742	-24.793	0.063	-0.037
-366.727	172.636	-0.278	0.398
-365.712	-108.103	0.267	0.058
-364.698	108.392	0.158	0.188
-363.683	8.743	-0.239	0.179
-362.669	-102.000	-0.061	-0.015
-361.654	-81.485	0.072	-0.024
-360.639	-3.770	-0.128	-0.088
-359.625	-69.859	-0.321	0.122
-358.610	-47.346	0.199	-0.096
-357.596	7.101	-0.084	0.062
-356.581	-200.000	0.046	0.316
-355.566	-101.277	-0.083	-0.020
-354.552	-47.618	0.333	0.161
-353.537	-105.162	-0.210	-0.048
-352.523	-80.024	0.195	-0.065
-351.508	-160.389	0.049	0.003
-350.493	-200.000	0.005	0.199
-349.479	-200.000	-0.005	-0.105
-348.464	-64.632	0.195	0.078
-347.450	-79.284	0.073	-0.025
-346.435	141.799	-0.104	0.137
-345.420	-112.287	-0.279	0.055
-344.406	-166.878	0.062	-0.003
-343.391	-4.842	0.219	-0.150
-342.377	170.102	-0.164	-0.233
-341.362	-197.769	0.164	0.001
-340.348	152.160	-0.116	-0.157
-339.333	-120.866	0.263	0.044
-338.318	-200.000	0.004	-0.187
-337.304	143.252	0.091	0.121
-336.289	357.167	-0.209	-0.413
-335.275	-20.617	-0.224	0.137
-334.260	-131.159	-0.413	0.054
-333.245	55.942	0.357	-0.344
-332.231	455.774	-0.043	-0.094
-331.216	202.424	0.123	0.189
-330.202	0.478	-0.169	-0.120
-329.187	-200.000	-0.021	0.128
-328.172	4.386	-0.268	0.195
-327.158	379.243	-0.064	0.130
-326.143	48.490	0.174	0.162
-325.129	800.000	0.053	0.175
-324.114	-8.281	0.187	-0.125
-323.099	800.000	-0.065	0.210
-322.085	800.000	0.072	-0.207
-321.070	800.000	-0.118	-0.388
-320.056	211.530	-0.123	-0.192
-319.041	800.000	-0.032	0.101
-318.026	272.350	0.107	0.186
-317.012	496.363	0.130	0.296
-315.997	800.000	-0.069	0.294
-314.983	14.884	-0.183	0.142
-313.968	175.331	-0.139	0.199
-312.953	-200.000	0.014	-0.161
-311.939	-147.712	-0.423	-0.035
-310.924	52.643	-0.177	-0.168
-309.910	-200.000	-0.018	0.138
-308.895	620.851	0.120	-0.300
-307.880	240.659	-0.125	-0.206
-306.866	11.543	0.279	0.212
-305.851	226.290	-0.180	0.289
-304.837	636.067	0.177	0.445
-303.822	-165.192	0.315	0.014
-302.807	53.128	0.081	0.077
-301.793	-200.000	-0.010	-0.235
-300.778	-200.000	0.032	0.156
-299.764	800.000	-0.060	0.182
-298.749	-55.684	-0.211	0.094
-297.735	85.867	-0.299	-0.326
-296.720	769.932	-0.090	0.242
-295.705	-5.061	0.089	0.061
-294.691	133.268	-0.091	0.117
-293.676	223.584	0.105	0.168
-292.662	-19.326	-0.262	-0.161
-291.647	-186.356	-0.311	-0.004
-290.632	-200.000	0.018	-0.467
-289.618	800.000	-0.049	-0.180
-288.603	-38.576	0.273	0.143
-287.589	13.571	0.204	-0.157
-286.574	408.945	-0.054	-0.114
-285.559	-71.398	-0.150	-0.056
-284.545	-61.260	0.117	0.049
-283.530	-10.912	0.299	0.196
-282.516	449.140	0.016	-0.035
-281.501	-173.719	0.176	-0.005
-280.486	322.247	-0.190	-0.358
-279.472	-104.589	0.119	-0.027
-278.457	71.541	-0.203	-0.209
-277.443	-64.899	0.211	0.084
-276.428	48.411	-0.177	-0.164
-275.413	-200.000	0.029	0.177
-274.399	-145.061	-0.069	0.006
-273.384	199.867	0.060	-0.091
-272.370	13.775	0.367	0.282
-271.355	-200.000	-0.067	-0.595
-270.340	-200.000	-0.011	-0.205
-269.326	-200.000	0.032	0.390
-268.311	116.140	0.227	-0.275
-267.297	26.642	-0.256	-0.212
-266.282	-19.041	0.032	0.019
-265.267	-138.786	-0.041	0.004
-264.253	-48.234	0.342	-0.163
-263.238	211.668	0.078	0.121
-262.224	-121.300	-0.184	-0.030
-261.209	-114.433	-0.154	0.029
-260.195	800.000	0.043	-0.187
-259.180	800.000	0.037	0.127
-258.165	203.419	0.151	0.232
-257.151	139.680	-0.066	-0.086
-256.136	-200.000	0.008	0.286
-255.122	51.806	0.068	-0.064
-254.107	20.692	-0.088	-0.070
-253.092	201.553	-0.019	-0.029
-252.078	-108.031	-0.167	-0.036
-251.063	-200.000	0.051	-0.241
-250.049	-122.242	0.150	0.024
-249.034	-13.865	-0.080	0.051
-248.019	783.046	0.068	0.185
-247.005	127.337	-0.191	-0.240
-245.990	-92.512	-0.189	0.053
-244.976	449.183	0.144	0.315
-243.961	581.522	0.091	-0.222
-242.946	55.002	0.186	-0.177
-241.932	-139.100	-0.216	0.023
-240.917	-79.546	0.223	-0.075
-239.903	-56.151	0.433	0.191
-238.888	-91.265	-0.322	0.091
-237.873	-14.746	-0.029	-0.018
-236.859	-200.000	0.001	-0.022
-235.844	120.619	-0.208	0.256
-234.830	22.449	-0.159	-0.128
-233.815	800.000	-0.007	0.024
-232.800	-200.000	-0.017	0.343
-231.786	-189.954	-0.155	0.002
-230.771	-48.183	0.290	-0.139
-229.757	103.567	-0.087	-0.101
-228.742	-191.750	-0.488	0.005
-227.727	160.606	-0.138	-0.190
-226.713	178.650	-0.110	0.159
-225.698	-115.120	-0.301	0.056
-224.684	685.443	0.009	-0.024
-223.669	-74.130	0.144	-0.052
-222.655	416.896	0.135	-0.284
-221.640	-44.683	-0.116	-0.057
-220.625	-119.531	-0.155	-0.027
-219.611	-169.074	0.071	0.003
-218.596	-200.000	0.012	-0.410
-217.582	-200.000	0.032	-0.320
-216.567	800.000	-0.061	-0.169
-215.552	55.725	-0.370	-0.354
-214.538	57.149	-0.047	0.045
-213.523	49.248	0.165	-0.153
-212.509	267.954	-0.019	-0.033
-211.494	-81.494	-0.095	0.031
-210.479	201.848	0.063	0.096
-209.465	741.356	0.064	-0.169
-208.450	800.000	0.101	-0.402
-207.436	-50.814	-0.174	-0.081
-206.421	-15.630	0.220	0.139
-205.406	332.411	-0.080	0.153
-204.392	62.363	-0.026	0.026
-203.377	-98.106	-0.157	0.040
-202.363	357.329	0.218	0.429
-201.348	-200.000	0.025	0.251
-200.333	-196.840	-0.227	-0.001
-199.319	-83.999	-0.311	-0.098
-198.304	-122.155	-0.392	0.063
-197.290	-128.217	-0.118	-0.017
-196.275	6.211	0.123	0.090
-195.260	-107.051	0.412	-0.090
-194.246	198.687	0.131	-0.198
-193.231	277.239	-0.096	0.168
-192.217	109.521	0.129	-0.153
-191.202	-41.146	0.303	0.154
-190.187	98.126	-0.135	0.154
-189.173	800.000	0.017	0.072
-188.158	800.000	0.051	0.217
-187.144	-200.000	-0.005	0.155
-186.129	58.078	0.078	0.076
-185.114	506.786	0.182	0.417
-184.100	-40.946	-0.513	0.262
-183.085	-142.186	0.208	-0.020
-182.071	-86.092	0.122	-0.037
-181.056	-11.572	0.128	0.083
-180.042	800.000	-0.093	-0.264
-179.027	240.106	0.116	-0.190
-178.012	-97.213	0.101	0.026
-176.998	250.041	0.031	-0.051
-175.983	20.895	-0.044	-0.035
-174.969	-164.331	0.218	-0.010
-173.954	-200.000	-0.002	0.148
-172.939	-87.359	0.141	0.042
-171.925	-160.748	0.281	0.015
-170.910	-200.000	-0.033	-0.150
-169.896	800.000	-0.081	-0.252
-168.881	-33.223	0.096	0.053
-167.866	754.487	0.079	0.211
-166.852	-200.000	-0.007	0.386
-165.837	-47.811	-0.237	-0.113
-164.823	-166.797	-0.125	-0.005
-163.808	-200.000	-0.017	0.421
-162.793	800.000	0.107	0.331
-161.779	-200.000	-0.039	-0.474
-160.764	12.407	-0.162	0.123
-159.750	800.000	-0.043	0.167
-158.735	800.000	0.058	-0.227
-157.720	800.000	0.014	0.056
-156.706	115.443	0.171	0.206
-155.691	447.761	0.051	0.112
-154.677	800.000	0.038	0.119
-153.662	-11.234	0.390	-0.253
-152.647	-81.931	-0.131	0.042
-151.633	-200.000	-0.021	-0.105
-150.618	221.804	0.033	-0.053
-149.604	-45.813	-0.185	-0.090
-148.589	-200.000	-0.015	-0.394
-147.574	153.403	0.215	-0.290
-146.560	-200.000	0.118	0.001
-145.545	53.413	0.201	-0.190
-144.531	463.190	0.078	0.171
-143.516	-103.434	-0.208	-0.048
-142.502	-128.406	0.289	-0.040
-141.487	-52.461	0.327	-0.149
-140.472	183.813	0.051	0.075
-139.458	-52.181	0.312	0.142
-138.443	119.197	0.109	0.133
-137.429	-173.395	0.438	0.013
-136.414	4.751	-0.142	-0.103
-135.399	-200.000	0.041	0.308
-134.385	377.814	-0.085	0.171
-133.370	-200.000	0.028	0.320
-132.356	-8.048	-0.103	-0.068
-131.341	-45.556	-0.149	-0.073
-130.326	-6.887	-0.189	-0.127
-129.312	-122.822	-0.117	-0.019
-128.297	-34.221	-0.268	0.145
-127.283	108.506	-0.094	0.111
-126.268	-169.090	-0.302	0.011
-125.253	-58.183	-0.140	-0.060
-124.239	287.538	0.099	-0.176
-123.224	-122.371	0.146	0.023
-122.210	800.000	-0.149	0.482
-121.195	-200.000	0.026	-0.226
