DTS Sentinel unit serial number:	SN413079Multiplexer serial number:	ORYXHardware model number:	OX4-SRSoftware version number:	ORYX F/W v4.00 Oryx Data Collector v3.7.2.0data status	okinstallation	princeton_trtdifferential loss correction	single-endedforward channel	channel 1reverse channel	N/Adate	2019/09/18time	19:02:35forward acquisition time	60.00reverse acquisition time	0.00gamma	496.2192k internal	0.2311k external	0.2311temperature offset calibration	1.0018default loss term (dB/km)	0.3790temperature slope calibration	1.0000multiplexer offset coefficient	1.0000multiplexer slope coefficient	1.0000fibre end	0.00T internal ref (°C)	35.80T ext. ref 1 (°C)	0.93T ext. ref 2 (°C)	24.94length (m)	temperature (°C)	Stokes	anti-Stokes-747.200	800.000	-0.056	-0.172
-746.185	-196.425	0.254	-0.002
-745.171	-30.869	0.150	-0.086
-744.156	59.283	0.059	0.059
-743.142	15.379	0.147	0.117
-742.127	800.000	-0.104	0.420
-741.112	-111.248	-0.174	0.036
-740.098	-171.830	-0.388	-0.013
-739.083	800.000	-0.028	0.090
-738.069	-88.186	0.132	0.040
-737.054	-189.586	0.240	-0.003
-736.039	800.000	-0.112	-0.438
-735.025	25.888	-0.134	0.114
-734.010	367.805	-0.172	-0.353
-732.996	-165.128	0.142	0.006
-731.981	-115.605	-0.164	0.031
-730.966	-200.000	-0.004	-0.211
-729.952	261.613	0.010	0.018
-728.937	-200.000	-0.055	0.308
-727.923	800.000	-0.092	-0.346
-726.908	-80.060	-0.149	0.051
-725.894	-200.000	-0.005	-0.389
-724.879	431.146	-0.085	-0.187
-723.864	-200.000	0.007	0.264
-722.850	-82.932	0.098	-0.032
-721.835	-131.360	0.201	-0.027
-720.821	241.796	-0.016	-0.027
-719.806	-150.263	-0.425	0.033
-718.791	109.207	0.164	0.198
-717.777	-138.626	0.278	-0.031
-716.762	-127.685	0.313	0.046
-715.748	800.000	0.035	0.140
-714.733	224.203	0.098	-0.160
-713.718	-84.001	-0.146	-0.047
-712.704	-101.685	0.275	-0.068
-711.689	-9.796	0.254	0.171
-710.675	800.000	-0.102	0.369
-709.660	-200.000	0.003	0.122
-708.645	-16.524	-0.206	-0.133
-707.631	-155.119	0.271	-0.018
-706.616	764.825	-0.086	0.236
-705.602	800.000	-0.103	0.289
-704.587	641.258	0.112	0.289
-703.572	15.377	-0.267	-0.213
-702.558	50.918	-0.260	0.250
-701.543	236.289	0.115	0.193
-700.529	-46.451	-0.288	-0.143
-699.514	-200.000	0.018	-0.113
-698.499	53.693	0.163	0.158
-697.485	-200.000	0.085	-0.557
-696.470	-200.000	0.010	-0.068
-695.456	-200.000	-0.009	-0.206
-694.441	-200.000	-0.010	-0.079
-693.426	-95.467	-0.300	-0.082
-692.412	-25.527	0.106	-0.064
-691.397	210.323	0.130	0.207
-690.383	-178.295	-0.282	0.007
-689.368	151.940	-0.200	0.277
-688.354	-200.000	0.033	0.453
-687.339	-200.000	-0.032	0.250
-686.324	800.000	0.068	-0.290
-685.310	100.313	0.184	0.216
-684.295	800.000	-0.057	-0.201
-683.281	-42.152	-0.336	-0.174
-682.266	-200.000	0.054	0.244
-681.251	-200.000	-0.005	0.144
-680.237	533.046	0.094	-0.224
-679.222	-136.562	-0.271	0.032
-678.208	-3.939	-0.103	0.073
-677.193	226.606	0.177	-0.291
-676.178	-44.520	0.145	0.074
-675.164	305.458	-0.030	-0.056
-674.149	213.197	0.089	0.142
-673.135	800.000	-0.031	0.107
-672.120	135.455	-0.376	-0.495
-671.105	-117.875	-0.204	-0.037
-670.091	144.718	-0.116	-0.157
-669.076	-68.747	-0.333	-0.130
-668.062	-200.000	0.048	-0.357
-667.047	-32.071	0.104	0.059
-666.032	-200.000	0.280	0.001
-665.018	135.813	0.063	-0.083
-664.003	254.505	-0.081	-0.141
-662.989	-78.232	0.142	0.049
-661.974	28.072	-0.182	-0.156
-660.959	-200.000	-0.000	0.060
-659.945	37.031	0.332	-0.297
-658.930	-194.578	-0.578	0.005
-657.916	215.465	-0.037	-0.060
-656.901	-200.000	-0.003	-0.323
-655.886	46.051	-0.045	0.042
-654.872	-76.512	0.189	0.067
-653.857	-101.954	0.242	0.059
-652.843	-118.459	0.178	-0.032
-651.828	800.000	0.009	-0.027
-650.814	205.594	0.118	0.186
-649.799	-56.401	-0.043	-0.019
-648.784	-120.752	-0.355	0.061
-647.770	-79.978	0.170	0.058
-646.755	-183.317	0.393	-0.007
-645.741	37.127	0.112	-0.100
-644.726	698.217	0.107	0.285
-643.711	-48.712	-0.166	0.081
-642.697	-88.003	0.401	-0.122
-641.682	-200.000	-0.101	-0.457
-640.668	547.151	0.028	0.067
-639.653	-132.917	-0.091	0.012
-638.638	250.613	-0.195	0.336
-637.624	-148.363	-0.340	0.028
-636.609	-59.178	-0.296	0.129
-635.595	142.137	0.141	-0.189
-634.580	-200.000	-0.041	0.330
-633.565	-128.067	0.210	0.030
-632.551	-102.902	-0.187	-0.045
-631.536	800.000	-0.038	0.112
-630.522	58.328	0.108	-0.107
-629.507	-69.273	-0.087	0.034
-628.492	800.000	-0.073	-0.226
-627.478	101.095	-0.223	-0.262
-626.463	-147.054	0.155	0.013
-625.449	800.000	-0.067	-0.213
-624.434	-105.372	-0.187	-0.043
-623.419	-77.252	0.085	0.030
-622.405	-200.000	-0.033	0.239
-621.390	64.106	-0.160	0.162
-620.376	-198.251	0.122	-0.001
-619.361	28.737	-0.135	-0.116
-618.346	212.877	-0.090	-0.143
-617.332	306.996	0.072	-0.136
-616.317	45.050	0.234	-0.218
-615.303	-48.670	-0.385	0.187
-614.288	-94.179	0.126	0.035
-613.273	-181.396	0.217	-0.004
-612.259	87.217	-0.316	0.353
-611.244	-28.241	0.105	-0.061
-610.230	-77.772	-0.417	-0.146
-609.215	32.495	-0.265	-0.231
-608.201	800.000	0.072	0.240
-607.186	99.508	0.080	-0.093
-606.171	-200.000	0.069	-0.323
-605.157	-68.267	0.093	0.037
-604.142	492.831	0.130	0.301
-603.128	-200.000	-0.035	0.314
-602.113	90.434	-0.147	-0.167
-601.098	-200.000	-0.016	0.091
-600.084	33.536	-0.053	-0.047
-599.069	-135.836	0.190	0.023
-598.055	-200.000	-0.022	0.132
-597.040	211.476	-0.245	-0.390
-596.025	-200.000	0.027	-0.427
-595.011	-150.680	-0.479	0.037
-593.996	86.299	0.144	-0.160
-592.982	-146.088	-0.030	-0.003
-591.967	-200.000	0.012	-0.155
-590.952	-200.000	0.023	0.267
-589.938	-200.000	-0.013	-0.188
-588.923	-2.597	-0.067	0.047
-587.909	-94.629	-0.231	0.063
-586.894	-39.555	-0.177	-0.093
-585.879	-26.854	-0.146	0.086
-584.865	343.317	0.288	0.570
-583.850	8.692	-0.149	0.113
-582.836	-125.144	0.230	0.036
-581.821	-42.366	0.136	0.070
-580.806	22.518	0.326	0.269
-579.792	-200.000	-0.000	-0.095
-578.777	-34.478	-0.178	-0.099
-577.763	25.147	-0.116	-0.097
-576.748	-200.000	0.002	-0.174
-575.733	485.126	-0.065	-0.150
-574.719	-124.688	-0.367	-0.057
-573.704	202.552	-0.166	-0.258
-572.690	-200.000	0.001	0.168
-571.675	41.760	-0.191	0.175
-570.661	-101.200	-0.474	-0.117
-569.646	157.857	0.153	0.214
-568.631	-16.963	0.177	-0.113
-567.617	-21.792	0.051	-0.031
-566.602	47.734	-0.237	0.223
-565.588	-67.806	0.263	0.104
-564.573	-122.171	0.258	0.043
-563.558	-8.421	-0.071	-0.048
-562.544	189.742	-0.119	0.180
-561.529	-4.734	-0.162	-0.113
-560.515	-200.000	0.020	-0.123
-559.500	520.926	0.072	0.170
-558.485	2.762	-0.198	0.145
-557.471	-116.976	-0.119	-0.022
-556.456	-73.926	-0.126	0.046
-555.442	93.114	0.162	0.185
-554.427	-61.234	-0.100	0.042
-553.412	-80.829	-0.325	0.109
-552.398	-200.000	0.030	-0.181
-551.383	72.699	-0.231	-0.243
-550.369	428.212	-0.281	-0.612
-549.354	-197.996	0.178	0.001
-548.339	-200.000	-0.031	-0.153
-547.325	21.412	-0.125	0.103
-546.310	-31.530	-0.179	0.102
-545.296	199.935	-0.122	-0.189
-544.281	-200.000	-0.025	-0.263
-543.266	800.000	-0.122	-0.396
-542.252	24.135	-0.135	-0.112
-541.237	-200.000	-0.052	0.285
-540.223	-46.685	0.154	-0.076
-539.208	150.068	0.227	-0.310
-538.193	-19.900	-0.201	-0.125
-537.179	57.387	-0.210	0.207
-536.164	-16.670	0.251	0.160
-535.150	-22.951	-0.114	0.069
-534.135	-200.000	-0.027	0.156
-533.121	-71.260	-0.097	-0.037
-532.106	40.198	0.138	0.125
-531.091	-54.596	-0.216	-0.098
-530.077	39.946	-0.080	-0.072
-529.062	-79.662	0.123	-0.042
-528.048	-200.000	-0.011	-0.210
-527.033	-200.000	-0.014	-0.232
-526.018	-200.000	0.011	-0.063
-525.004	-80.648	0.192	0.064
-523.989	256.927	0.039	0.068
-522.975	142.206	-0.060	0.080
-521.960	5.666	-0.301	0.224
-520.945	114.885	0.112	0.137
-519.931	155.596	-0.205	0.284
-518.916	122.112	0.032	0.040
-517.902	800.000	0.063	-0.201
-516.887	800.000	-0.090	0.321
-515.872	-35.872	0.087	0.048
-514.858	-200.000	0.037	0.443
-513.843	800.000	-0.021	0.090
-512.829	154.075	0.128	0.177
-511.814	20.156	0.375	0.304
-510.799	18.630	-0.105	0.085
-509.785	-3.481	-0.176	0.123
-508.770	234.024	-0.149	0.246
-507.756	800.000	0.005	0.017
-506.741	-200.000	-0.093	0.440
-505.726	-106.539	0.339	0.076
-504.712	114.582	-0.145	0.177
-503.697	-52.966	0.099	0.046
-502.683	-148.592	0.123	0.010
-501.668	222.138	-0.052	-0.083
-500.653	-30.165	-0.207	-0.118
-499.639	-128.488	-0.434	0.062
-498.624	-200.000	0.055	0.264
-497.610	547.568	0.092	-0.222
-496.595	92.237	0.141	-0.160
-495.581	-200.000	-0.006	0.049
-494.566	-39.786	0.378	-0.199
-493.551	75.972	-0.112	0.119
-492.537	-84.803	0.065	0.021
-491.522	-125.150	0.117	-0.018
-490.508	-133.991	0.147	-0.018
-489.493	100.532	0.063	-0.074
-488.478	502.818	0.081	-0.189
-487.464	-115.150	-0.134	0.026
-486.449	-200.000	-0.035	0.574
-485.435	-200.000	-0.033	-0.150
-484.420	800.000	0.122	0.399
-483.405	140.753	-0.079	0.105
-482.391	-72.168	0.121	-0.045
-481.376	119.488	0.050	-0.062
-480.362	531.590	0.089	-0.212
-479.347	-60.373	-0.255	-0.109
-478.332	481.226	0.018	0.041
-477.318	53.613	-0.208	0.201
-476.303	31.737	-0.079	0.068
-475.289	-175.769	0.143	-0.004
-474.274	-35.653	-0.072	0.039
-473.259	-83.476	0.338	0.109
-472.245	800.000	-0.096	-0.267
-471.230	137.199	-0.134	0.176
-470.216	-40.222	-0.045	-0.024
-469.201	-200.000	0.012	-0.185
-468.186	138.920	0.237	0.313
-467.172	19.184	0.228	-0.184
-466.157	800.000	-0.084	0.295
-465.143	27.240	0.171	0.145
-464.128	238.386	0.139	0.232
-463.113	2.840	-0.176	0.128
-462.099	273.004	-0.053	0.093
-461.084	-114.728	0.218	0.042
-460.070	115.467	0.030	-0.037
-459.055	534.191	-0.026	-0.061
-458.040	10.201	0.142	-0.109
-457.026	257.494	-0.169	-0.292
-456.011	-80.735	-0.249	-0.083
-454.997	79.970	0.012	-0.013
-453.982	-200.000	-0.010	0.085
-452.968	702.287	-0.069	0.183
-451.953	-55.877	-0.111	0.050
-450.938	-200.000	-0.007	0.151
-449.924	14.638	-0.146	-0.114
-448.909	-200.000	-0.014	-0.265
-447.895	217.821	0.204	0.326
-446.880	60.313	0.222	0.220
-445.865	312.321	0.044	0.083
-444.851	-2.965	0.244	0.171
-443.836	11.240	-0.364	-0.280
-442.822	-107.601	-0.249	0.055
-441.807	-22.522	0.039	0.024
-440.792	255.788	0.038	0.066
-439.778	-115.923	0.021	-0.004
-438.763	-8.867	-0.276	0.186
-437.749	-77.919	-0.240	-0.083
-436.734	194.360	0.190	-0.289
-435.719	167.760	-0.141	0.201
-434.705	678.742	-0.155	0.405
-433.690	800.000	0.053	-0.200
-432.676	-56.878	0.185	-0.082
-431.661	800.000	0.079	-0.312
-430.646	50.157	0.201	-0.190
-429.632	800.000	0.132	0.536
-428.617	800.000	-0.051	0.175
-427.603	800.000	-0.037	-0.146
-426.588	-146.821	0.057	-0.005
-425.573	-178.789	0.235	0.005
-424.559	47.277	0.302	0.282
-423.544	-20.425	-0.194	-0.120
-422.530	800.000	-0.183	0.599
-421.515	-200.000	0.073	-0.324
-420.500	800.000	0.076	-0.245
-419.486	-175.765	0.286	-0.008
-418.471	178.226	0.068	0.100
-417.457	8.311	-0.049	0.037
-416.442	8.703	-0.373	-0.282
-415.428	77.203	0.118	0.126
-414.413	286.943	-0.044	-0.081
-413.398	-71.732	0.300	0.112
-412.384	217.226	0.215	-0.343
-411.369	-158.277	0.260	0.015
-410.355	760.876	0.095	0.257
-409.340	-57.095	-0.304	-0.134
-408.325	406.754	-0.116	0.245
-407.311	242.617	-0.077	0.129
-406.296	-124.135	0.058	-0.009
-405.282	-98.356	-0.131	0.034
-404.267	-174.747	0.246	-0.007
-403.252	173.144	-0.073	0.105
-402.238	-126.256	0.187	-0.028
-401.223	25.412	-0.248	0.207
-400.209	532.408	-0.050	0.117
-399.194	160.473	-0.210	0.294
-398.179	-11.226	-0.204	0.134
-397.165	37.839	0.109	0.097
-396.150	800.000	-0.028	0.112
-395.136	7.213	0.081	-0.060
-394.121	24.902	-0.226	0.188
-393.106	89.144	-0.089	0.100
-392.092	-200.000	-0.033	0.302
-391.077	367.730	-0.050	0.101
-390.063	208.237	-0.121	0.190
-389.048	800.000	0.034	-0.098
-388.033	20.052	0.061	0.050
-387.019	-200.000	0.043	0.246
-386.004	147.653	-0.130	0.176
-384.990	45.163	0.147	-0.136
-383.975	13.466	0.149	-0.116
-382.960	-200.000	0.074	-0.417
-381.946	-172.044	-0.335	0.011
-380.931	-100.232	-0.149	0.037
-379.917	-174.759	-0.179	0.005
-378.902	800.000	0.051	0.200
-377.888	-193.203	0.237	0.002
-376.873	456.922	-0.046	-0.103
-375.858	457.235	-0.025	0.056
-374.844	-56.874	0.183	0.081
-373.829	-200.000	-0.013	0.149
-372.815	-16.343	-0.117	-0.074
-371.800	318.516	-0.053	-0.101
-370.785	144.675	-0.286	-0.382
-369.771	175.117	-0.156	0.226
-368.756	-55.622	-0.123	-0.055
-367.742	-200.000	-0.015	0.143
-366.727	-200.000	0.023	0.101
-365.712	-200.000	-0.019	0.243
-364.698	-196.896	0.163	0.001
-363.683	-93.319	-0.237	0.066
-362.669	172.534	0.133	0.191
-361.654	-82.078	0.144	-0.047
-360.639	775.319	0.148	0.403
-359.625	113.585	-0.070	0.086
-358.610	37.215	0.175	-0.155
-357.596	-50.531	0.022	0.011
-356.581	3.096	-0.090	0.065
-355.566	106.147	0.039	-0.046
-354.552	-67.652	0.165	-0.065
-353.537	-200.000	-0.021	-0.118
-352.523	-143.749	-0.203	0.019
-351.508	-141.028	0.223	-0.023
-350.493	800.000	-0.072	-0.235
-349.479	-51.409	-0.235	-0.110
-348.464	-200.000	-0.014	-0.108
-347.450	800.000	-0.039	-0.109
-346.435	800.000	-0.048	0.137
-345.420	523.099	0.076	0.179
-344.406	97.238	-0.064	-0.073
-343.391	106.874	-0.116	-0.138
-342.377	-11.577	0.142	0.093
-341.362	15.356	0.214	0.168
-340.348	-7.325	0.176	0.119
-339.333	800.000	-0.018	0.066
-338.318	800.000	-0.069	-0.208
-337.304	-53.568	-0.094	-0.043
-336.289	-133.779	-0.348	-0.043
-335.275	-146.494	0.408	-0.035
-334.260	-200.000	0.058	0.390
-333.245	182.006	0.164	0.241
-332.231	-35.517	-0.220	0.119
-331.216	-49.048	0.186	-0.089
-330.202	15.425	-0.187	-0.147
-329.187	62.057	0.140	-0.140
-328.172	-200.000	0.025	-0.311
-327.158	800.000	-0.151	-0.469
-326.143	39.358	0.252	-0.226
-325.129	146.786	0.149	0.199
-324.114	-113.256	0.246	0.048
-323.099	-200.000	-0.003	-0.482
-322.085	-93.798	-0.038	0.011
-321.070	-13.648	0.069	0.045
-320.056	800.000	0.018	-0.076
-319.041	458.475	-0.050	-0.111
-318.026	782.052	0.043	0.117
-317.012	800.000	0.033	0.131
-315.997	478.168	0.062	0.140
-314.983	-144.356	-0.568	0.053
-313.968	56.608	0.239	0.232
-312.953	-166.152	0.267	0.011
-311.939	800.000	0.068	-0.207
-310.924	800.000	0.097	0.389
-309.910	-71.057	0.337	0.127
-308.895	-200.000	0.020	-0.178
-307.880	24.297	0.249	-0.206
-306.866	-90.310	-0.031	0.009
-305.851	800.000	-0.074	0.245
-304.837	181.209	-0.074	0.108
-303.822	-104.814	0.090	-0.021
-302.807	-113.656	0.091	-0.018
-301.793	112.282	0.223	-0.269
-300.778	39.610	-0.271	-0.243
-299.764	-200.000	0.088	-0.444
-298.749	-108.557	0.129	0.028
-297.735	-64.439	0.328	-0.133
-296.720	800.000	-0.017	0.067
-295.705	436.348	0.132	0.287
-294.691	-16.749	0.288	0.182
-293.676	694.605	0.033	-0.085
-292.662	131.648	-0.249	-0.320
-291.647	800.000	-0.099	-0.334
-290.632	-200.000	0.035	0.214
-289.618	-52.656	-0.128	-0.059
-288.603	-200.000	0.067	0.305
-287.589	-93.780	-0.031	-0.008
-286.574	-109.559	0.251	-0.053
-285.559	-0.869	-0.180	0.127
-284.545	-41.763	0.351	0.180
-283.530	120.955	-0.086	0.106
-282.516	800.000	-0.039	0.151
-281.501	144.172	0.171	-0.227
-280.486	-112.234	0.700	0.140
-279.472	800.000	0.016	-0.057
-278.457	-66.254	-0.290	0.115
-277.443	152.729	-0.083	-0.113
-276.428	54.202	0.207	-0.199
-275.413	13.250	-0.234	0.181
-274.399	99.035	0.353	0.406
-273.384	-9.180	-0.028	-0.019
-272.370	-77.126	-0.303	0.105
-271.355	-130.908	0.237	0.032
-270.340	279.593	-0.142	0.252
-269.326	-16.936	0.132	0.083
-268.311	85.728	0.238	-0.261
-267.297	-200.000	0.011	-0.064
-266.282	-91.706	0.208	0.059
-265.267	-52.784	0.284	-0.131
-264.253	800.000	0.021	-0.078
-263.238	-106.952	-0.386	0.085
-262.224	441.869	0.135	-0.295
-261.209	-200.000	0.044	0.323
-260.195	-8.002	0.169	-0.113
-259.180	279.353	0.066	-0.117
-258.165	-200.000	0.000	0.015
-257.151	-200.000	-0.004	-0.036
-256.136	-200.000	0.026	0.130
-255.122	-56.686	0.308	0.136
-254.107	115.447	-0.046	0.056
-253.092	-118.323	0.124	0.022
-252.078	-17.125	0.254	0.160
-251.063	-91.235	-0.035	-0.010
-250.049	119.284	-0.052	0.064
-249.034	277.445	0.140	-0.247
-248.019	-200.000	0.005	-0.167
-247.005	59.222	0.215	-0.210
-245.990	-97.486	-0.340	-0.088
-244.976	-53.674	0.151	0.069
-243.961	-108.240	-0.148	0.032
-242.946	276.488	0.095	0.167
-241.932	-194.522	-0.376	0.003
-240.917	-104.787	-0.261	-0.060
-239.903	423.719	0.144	0.308
-238.888	-200.000	0.015	0.222
-237.873	-102.270	0.339	-0.081
-236.859	-129.669	-0.240	-0.033
-235.844	800.000	0.075	-0.309
-234.830	183.073	-0.172	-0.253
-233.815	69.248	0.291	-0.298
-232.800	-200.000	-0.073	0.344
-231.786	-200.000	-0.002	-0.019
-230.771	-78.922	-0.143	0.048
-229.757	-101.910	0.140	-0.034
-228.742	-90.052	-0.411	0.119
-227.727	-65.795	-0.167	-0.066
-226.713	-99.039	0.259	-0.065
-225.698	-176.906	-0.190	0.005
-224.684	-40.391	0.159	-0.082
-223.669	800.000	0.022	0.065
-222.655	-0.752	0.305	0.215
-221.640	9.121	-0.227	0.170
-220.625	-200.000	0.041	-0.406
-219.611	264.040	-0.304	-0.527
-218.596	-200.000	-0.012	-0.075
-217.582	-61.063	0.427	-0.179
-216.567	-4.976	-0.203	-0.139
-215.552	103.779	0.214	-0.250
-214.538	25.927	-0.165	0.137
-213.523	-5.399	0.169	-0.116
-212.509	275.998	0.061	-0.108
-211.494	-146.620	0.152	0.013
-210.479	-200.000	0.014	0.221
-209.465	16.474	0.252	0.198
-208.450	266.959	-0.155	-0.269
-207.436	800.000	0.040	-0.118
-206.421	161.319	0.080	-0.111
-205.406	-33.228	0.160	-0.088
-204.392	-116.829	-0.223	-0.041
-203.377	2.352	-0.154	-0.111
-202.363	39.228	0.135	-0.120
-201.348	114.701	-0.058	0.070
-200.333	-200.000	0.037	-0.294
-199.319	-61.069	-0.279	0.117
-198.304	399.862	0.149	-0.310
-197.290	331.248	0.135	-0.259
-196.275	-90.680	-0.365	0.105
-195.260	-200.000	0.009	0.040
-194.246	590.432	-0.131	0.320
-193.231	54.450	-0.071	-0.068
-192.217	-200.000	-0.023	-0.180
-191.202	-200.000	0.011	-0.299
-190.187	800.000	0.096	-0.364
-189.173	-100.133	0.247	-0.061
-188.158	-82.311	0.239	0.077
-187.144	97.193	0.120	-0.137
-186.129	-200.000	0.012	-0.181
-185.114	35.247	0.042	-0.037
-184.100	-200.000	-0.027	-0.193
-183.085	146.814	-0.292	-0.390
-182.071	-148.350	-0.102	-0.008
-181.056	66.624	-0.082	-0.083
-180.042	-176.071	0.095	-0.002
-179.027	800.000	-0.023	-0.078
-178.012	-107.221	-0.215	-0.047
-176.998	599.199	-0.047	0.116
-175.983	-200.000	-0.007	-0.065
-174.969	-154.386	0.154	-0.010
-173.954	-121.515	-0.167	0.028
-172.939	-200.000	0.027	-0.121
-171.925	800.000	-0.131	-0.472
-170.910	170.473	-0.051	0.072
-169.896	-200.000	-0.050	-0.233
-168.881	-60.927	-0.277	0.116
-167.866	372.106	-0.034	0.069
-166.852	-200.000	-0.003	-0.336
-165.837	145.759	0.087	0.115
-164.823	110.082	0.133	0.159
-163.808	-143.766	0.404	0.038
-162.793	-200.000	-0.015	-0.301
-161.779	208.823	0.196	-0.304
-160.764	800.000	-0.048	-0.171
-159.750	-200.000	-0.008	0.085
-158.735	-200.000	-0.072	0.339
-157.720	-84.111	-0.160	0.050
-156.706	392.663	0.102	-0.211
-155.691	-5.085	0.200	-0.136
-154.677	800.000	-0.089	-0.316
-153.662	468.240	-0.027	-0.060
-152.647	-187.591	0.146	-0.002
-151.633	-141.137	-0.192	0.019
-150.618	75.444	0.150	0.157
-149.604	-114.257	0.097	0.019
-148.589	-41.034	0.043	-0.022
-147.574	83.411	-0.104	0.112
-146.560	-8.942	0.248	-0.165
-145.545	52.982	-0.023	-0.022
-144.531	-36.398	-0.153	-0.082
-143.516	213.960	-0.122	-0.192
-142.502	55.563	0.167	0.160
-141.487	6.801	0.181	-0.133
-140.472	196.488	-0.153	0.231
-139.458	-200.000	0.015	0.122
-138.443	-132.099	-0.397	-0.051
-137.429	68.780	0.080	-0.082
-136.414	376.132	0.102	0.206
-135.399	97.540	0.283	-0.322
-134.385	132.792	0.241	-0.308
-133.370	-47.681	0.115	-0.055
-132.356	-145.264	0.368	-0.033
-131.341	-85.474	-0.338	0.104
-130.326	137.611	0.091	-0.119
-129.312	127.498	-0.093	-0.117
-128.297	-200.000	0.094	0.513
-127.283	300.381	-0.094	0.173
-126.268	-200.000	0.003	-0.161
-125.253	-175.744	0.278	-0.007
-124.239	7.891	-0.420	0.312
-123.224	-113.837	-0.101	-0.019
-122.210	705.057	-0.056	-0.147
-121.195	-200.000	-0.005	0.022
