DTS Sentinel unit serial number:	SN413079Multiplexer serial number:	ORYXHardware model number:	OX4-SRSoftware version number:	ORYX F/W v4.00 Oryx Data Collector v3.7.2.0data status	okinstallation	princeton_trtdifferential loss correction	single-endedforward channel	channel 1reverse channel	N/Adate	2019/09/12time	04:40:11forward acquisition time	60.00reverse acquisition time	0.00gamma	496.2192k internal	0.2324k external	0.2324temperature offset calibration	1.0114default loss term (dB/km)	0.3790temperature slope calibration	1.0000multiplexer offset coefficient	1.0000multiplexer slope coefficient	1.0000fibre end	0.00T internal ref (°C)	31.62T ext. ref 1 (°C)	2.68T ext. ref 2 (°C)	27.16length (m)	temperature (°C)	Stokes	anti-Stokes-747.200	-200.000	0.076	-0.390
-746.185	-70.031	-0.334	-0.128
-745.171	-134.604	0.071	-0.009
-744.156	-83.211	0.271	-0.088
-743.142	-200.000	-0.042	-0.243
-742.127	354.743	0.173	0.347
-741.112	299.355	0.155	0.289
-740.098	-14.212	-0.415	0.270
-739.083	46.865	0.119	-0.112
-738.069	253.419	0.139	0.239
-737.054	-200.000	-0.035	0.344
-736.039	28.456	0.033	0.028
-735.025	2.414	-0.139	0.102
-734.010	-22.575	-0.232	-0.142
-732.996	12.710	-0.281	-0.219
-731.981	335.031	0.158	-0.309
-730.966	-61.437	-0.251	-0.106
-729.952	26.228	0.115	-0.097
-728.937	-53.876	0.166	-0.077
-727.923	60.779	-0.212	-0.212
-726.908	800.000	0.022	-0.062
-725.894	-106.140	0.249	-0.056
-724.879	107.505	-0.279	-0.335
-723.864	703.355	-0.034	-0.092
-722.850	-79.823	-0.320	0.109
-721.835	15.564	0.228	-0.181
-720.821	-48.079	0.093	-0.046
-719.806	-2.428	-0.113	-0.080
-718.791	-200.000	-0.079	0.716
-717.777	-27.671	0.104	0.061
-716.762	-200.000	0.048	-0.281
-715.748	-127.643	-0.424	0.062
-714.733	-70.218	-0.355	-0.136
-713.718	-46.619	-0.188	0.093
-712.704	-13.633	0.049	-0.032
-711.689	-42.744	0.338	0.173
-710.675	106.564	-0.212	-0.253
-709.660	65.415	0.211	0.215
-708.645	571.374	0.050	0.124
-707.631	184.527	-0.215	0.321
-706.616	-47.656	-0.144	0.070
-705.602	-75.806	0.170	-0.061
-704.587	39.080	-0.079	-0.071
-703.572	-200.000	-0.020	-0.276
-702.558	-200.000	0.057	-0.299
-701.543	800.000	-0.088	0.273
-700.529	-109.429	-0.213	0.045
-699.514	63.706	0.378	-0.383
-698.499	-74.818	-0.153	-0.055
-697.485	25.888	-0.264	-0.222
-696.470	-200.000	-0.025	-0.257
-695.456	-13.775	-0.058	0.038
-694.441	162.466	0.202	0.286
-693.426	111.115	-0.263	-0.320
-692.412	-65.714	-0.115	0.046
-691.397	56.042	-0.073	0.071
-690.383	22.522	-0.298	0.246
-689.368	-29.940	0.248	0.142
-688.354	-94.672	-0.222	0.061
-687.339	39.514	-0.152	0.138
-686.324	244.944	-0.183	0.311
-685.310	36.211	0.051	-0.046
-684.295	8.459	0.241	-0.183
-683.281	-200.000	0.038	-0.335
-682.266	-56.245	-0.119	-0.054
-681.251	-33.507	0.177	0.099
-680.237	-47.248	-0.142	0.070
-679.222	800.000	-0.023	0.072
-678.208	-110.330	0.184	0.039
-677.193	507.290	-0.052	0.122
-676.178	-37.070	0.153	-0.083
-675.164	415.980	-0.125	-0.269
-674.149	633.609	0.032	0.080
-673.135	30.619	0.237	-0.204
-672.120	-200.000	-0.068	-0.390
-671.105	-200.000	-0.008	0.087
-670.091	331.294	-0.048	-0.094
-669.076	657.819	-0.074	-0.191
-668.062	135.483	0.160	-0.210
-667.047	179.469	0.168	0.248
-666.032	20.651	-0.124	0.101
-665.018	-64.845	-0.253	-0.103
-664.003	210.579	0.071	-0.112
-662.989	-39.042	0.337	0.178
-661.974	228.969	0.159	-0.261
-660.959	800.000	-0.040	-0.151
-659.945	-151.723	-0.288	-0.021
-658.930	-200.000	0.011	-0.194
-657.916	4.622	-0.273	-0.202
-656.901	264.731	-0.242	0.424
-655.886	-200.000	-0.035	-0.192
-654.872	-43.509	-0.225	-0.114
-653.857	-5.451	-0.315	-0.218
-652.843	-14.208	-0.228	-0.148
-651.828	-2.528	0.392	-0.276
-650.814	-119.665	-0.172	-0.030
-649.799	800.000	0.017	0.059
-648.784	-19.422	-0.128	0.080
-647.770	244.076	0.012	0.021
-646.755	108.038	0.065	0.077
-645.741	-200.000	-0.032	-0.279
-644.726	-77.170	-0.189	-0.066
-643.711	-81.511	0.252	-0.083
-642.697	46.822	0.306	0.286
-641.682	-123.922	-0.121	0.019
-640.668	42.605	0.113	0.103
-639.653	118.700	0.082	0.102
-638.638	55.889	-0.265	-0.258
-637.624	800.000	-0.066	-0.221
-636.609	150.320	-0.041	0.056
-635.595	6.923	0.220	-0.164
-634.580	196.446	0.144	-0.221
-633.565	504.258	0.027	-0.063
-632.551	800.000	0.024	0.077
-631.536	53.631	-0.158	-0.153
-630.522	-16.574	-0.120	0.076
-629.507	638.455	0.053	-0.135
-628.492	26.850	0.093	-0.078
-627.478	-173.526	0.232	0.007
-626.463	34.363	-0.296	0.260
-625.449	17.297	0.060	-0.048
-624.434	-97.093	-0.450	-0.118
-623.419	-200.000	0.043	-0.214
-622.405	9.919	-0.160	-0.122
-621.390	212.306	0.077	0.122
-620.376	-200.000	-0.028	0.341
-619.361	30.285	0.110	-0.095
-618.346	-81.527	0.127	-0.042
-617.332	-124.071	0.219	-0.035
-616.317	-168.725	-0.325	0.012
-615.303	313.826	0.111	-0.209
-614.288	800.000	-0.204	-0.657
-613.273	-4.791	0.224	0.155
-612.259	-159.226	0.220	-0.012
-611.244	-69.603	-0.131	0.050
-610.230	-200.000	0.001	-0.051
-609.215	57.263	-0.132	-0.129
-608.201	-159.741	0.250	0.014
-607.186	-52.901	-0.325	-0.150
-606.171	-200.000	0.040	-0.194
-605.157	-200.000	0.042	-0.289
-604.142	-36.518	0.018	-0.010
-603.128	300.728	-0.056	0.104
-602.113	159.492	-0.119	-0.167
-601.098	-4.928	-0.177	-0.122
-600.084	-11.218	0.187	-0.124
-599.069	31.595	-0.245	-0.211
-598.055	-200.000	-0.003	0.196
-597.040	800.000	0.053	-0.193
-596.025	-9.213	0.370	0.248
-595.011	-109.998	0.199	-0.042
-593.996	-200.000	0.022	0.138
-592.982	-85.079	-0.166	0.052
-591.967	55.949	-0.078	0.076
-590.952	227.239	0.173	0.282
-589.938	260.267	0.046	0.080
-588.923	384.400	-0.128	0.265
-587.909	376.903	0.166	0.339
-586.894	109.825	0.039	0.047
-585.879	-200.000	-0.036	-0.284
-584.865	-200.000	0.031	-0.236
-583.850	119.302	-0.076	-0.095
-582.836	18.604	0.267	-0.214
-581.821	800.000	-0.104	-0.288
-580.806	-64.325	0.201	0.082
-579.792	144.473	-0.200	-0.268
-578.777	-94.968	-0.201	-0.055
-577.763	-200.000	-0.060	0.276
-576.748	585.831	-0.046	-0.114
-575.733	30.362	-0.215	-0.184
-574.719	-156.747	0.088	-0.005
-573.704	-200.000	-0.018	-0.122
-572.690	-101.384	-0.070	-0.017
-571.675	-200.000	0.008	0.060
-570.661	-83.523	0.155	-0.050
-569.646	-200.000	0.004	0.294
-568.631	-50.762	-0.215	-0.102
-567.617	277.605	0.141	0.252
-566.602	353.887	0.149	-0.296
-565.588	244.953	-0.337	-0.569
-564.573	-134.280	-0.196	-0.024
-563.558	495.104	-0.059	0.136
-562.544	-42.239	0.276	-0.141
-561.529	134.984	-0.083	0.107
-560.515	-137.907	-0.179	-0.020
-559.500	536.222	0.040	0.096
-558.485	58.312	-0.166	0.163
-557.471	-49.401	0.446	-0.213
-556.456	800.000	0.026	-0.081
-555.442	282.527	0.103	-0.186
-554.427	118.004	-0.310	-0.383
-553.412	-95.521	0.036	-0.010
-552.398	-46.032	-0.232	0.114
-551.383	314.945	-0.064	-0.120
-550.369	-21.076	-0.241	-0.148
-549.354	-189.744	-0.082	0.001
-548.339	33.226	-0.091	-0.079
-547.325	-89.719	-0.240	0.070
-546.310	94.924	-0.124	-0.142
-545.296	18.125	-0.297	-0.237
-544.281	212.029	-0.234	-0.369
-543.266	115.760	0.063	-0.077
-542.252	172.544	-0.033	0.048
-541.237	215.113	0.069	-0.110
-540.223	19.340	-0.147	0.118
-539.208	-109.987	0.307	-0.064
-538.193	800.000	0.095	-0.297
-537.179	-200.000	-0.047	-0.212
-536.164	-138.704	-0.076	-0.008
-535.150	-29.685	-0.112	-0.064
-534.135	-121.297	-0.043	0.007
-533.121	-200.000	-0.027	-0.157
-532.106	-73.478	0.056	0.020
-531.091	800.000	0.083	0.291
-530.077	136.891	0.224	-0.293
-529.062	-200.000	-0.001	-0.130
-528.048	261.370	-0.130	0.225
-527.033	800.000	-0.075	-0.256
-526.018	-200.000	-0.018	-0.137
-525.004	-200.000	-0.008	-0.396
-523.989	-38.857	-0.192	-0.101
-522.975	316.906	-0.141	0.267
-521.960	620.145	0.176	-0.443
-520.945	394.380	-0.098	-0.204
-519.931	96.333	0.138	-0.158
-518.916	263.803	-0.136	-0.237
-517.902	44.240	-0.145	-0.133
-516.887	800.000	0.099	-0.359
-515.872	114.623	0.183	0.223
-514.858	246.504	-0.146	0.247
-513.843	-127.128	-0.218	0.032
-512.829	40.188	0.079	0.071
-511.814	800.000	0.006	0.021
-510.799	-200.000	-0.013	-0.240
-509.785	273.504	0.075	-0.133
-508.770	114.905	-0.137	0.167
-507.756	50.390	0.137	0.129
-506.741	165.363	-0.207	0.292
-505.726	800.000	-0.085	-0.356
-504.712	-51.292	0.160	0.075
-503.697	268.514	0.154	-0.270
-502.683	238.751	-0.027	0.045
-501.668	-111.318	-0.353	0.072
-500.653	-94.535	-0.375	0.102
-499.639	224.347	0.032	-0.052
-498.624	-200.000	-0.036	0.462
-497.610	151.802	0.105	0.144
-496.595	213.094	0.103	-0.162
-495.581	228.525	0.091	-0.148
-494.566	157.949	0.177	-0.246
-493.551	-145.980	-0.207	0.018
-492.537	486.699	-0.184	-0.420
-491.522	-33.988	-0.202	0.111
-490.508	-4.581	0.227	-0.157
-489.493	800.000	-0.066	0.229
-488.478	458.885	0.110	0.245
-487.464	603.920	-0.047	0.118
-486.449	-127.565	0.165	-0.024
-485.435	-102.589	0.074	0.018
-484.420	-55.122	-0.339	0.152
-483.405	-200.000	-0.048	0.259
-482.391	260.361	0.093	0.160
-481.376	-30.437	0.241	0.137
-480.362	800.000	0.067	0.230
-479.347	-200.000	-0.049	0.274
-478.332	-90.241	0.132	-0.038
-477.318	-200.000	0.014	0.247
-476.303	27.273	0.116	0.097
-475.289	-200.000	0.016	-0.284
-474.274	-200.000	0.021	0.103
-473.259	800.000	0.068	0.237
-472.245	112.899	-0.140	0.170
-471.230	193.984	0.100	-0.151
-470.216	127.010	0.197	0.249
-469.201	163.487	-0.121	0.169
-468.186	224.381	-0.216	-0.348
-467.172	800.000	-0.089	0.298
-466.157	-200.000	-0.012	-0.113
-465.143	-45.513	0.056	0.028
-464.128	258.632	-0.078	-0.134
-463.113	119.491	0.098	0.122
-462.099	-89.948	-0.013	0.004
-461.084	164.466	0.182	0.256
-460.070	-60.085	-0.031	0.013
-459.055	-150.917	0.266	0.020
-458.040	31.805	-0.046	-0.040
-457.026	-36.218	-0.202	-0.109
-456.011	-138.371	0.094	-0.010
-454.997	-0.531	-0.133	-0.094
-453.982	-22.753	-0.316	0.190
-452.968	229.107	-0.106	0.172
-451.953	204.881	-0.056	0.087
-450.938	627.123	-0.070	-0.177
-449.924	-29.388	0.170	-0.097
-448.909	800.000	0.045	0.170
-447.895	-65.163	0.358	-0.144
-446.880	510.841	-0.152	-0.352
-445.865	800.000	-0.017	0.059
-444.851	-53.386	0.334	0.153
-443.836	56.868	0.190	-0.185
-442.822	-85.683	-0.168	-0.052
-441.807	-17.162	0.223	0.141
-440.792	-200.000	-0.055	-0.347
-439.778	-75.528	-0.281	0.100
-438.763	-54.629	-0.222	-0.100
-437.749	78.831	-0.102	-0.109
-436.734	-200.000	-0.042	0.204
-435.719	-47.174	0.120	-0.059
-434.705	-200.000	0.013	0.195
-433.690	-200.000	-0.050	-0.305
-432.676	-33.628	-0.167	0.092
-431.661	-141.050	0.120	-0.012
-430.646	374.435	-0.083	0.168
-429.632	168.191	-0.134	0.190
-428.617	-135.848	0.181	-0.021
-427.603	67.492	0.269	0.274
-426.588	-29.926	-0.230	0.131
-425.573	-114.016	-0.276	-0.053
-424.559	-116.882	0.468	0.085
-423.544	-96.259	0.289	-0.076
-422.530	442.661	-0.024	-0.052
-421.515	-177.446	0.313	-0.008
-420.500	800.000	-0.063	0.229
-419.486	174.651	0.161	0.232
-418.471	-200.000	-0.018	0.109
-417.457	145.797	-0.090	-0.121
-416.442	-200.000	-0.017	0.142
-415.428	704.104	0.070	0.184
-414.413	-116.705	0.144	0.026
-413.398	-30.853	0.243	0.137
-412.384	291.585	0.173	-0.315
-411.369	-9.547	-0.157	-0.104
-410.355	104.626	-0.094	0.111
-409.340	800.000	0.120	0.362
-408.325	-200.000	0.011	0.211
-407.311	282.363	0.101	-0.181
-406.296	44.472	0.130	0.119
-405.282	800.000	0.090	0.316
-404.267	23.138	-0.137	-0.112
-403.252	-200.000	-0.072	0.345
-402.238	-200.000	0.038	-0.253
-401.223	-93.337	-0.021	0.006
-400.209	122.587	0.067	-0.084
-399.194	357.206	0.087	0.172
-398.179	233.180	-0.047	-0.077
-397.165	22.801	-0.190	0.155
-396.150	-99.113	0.202	0.051
-395.136	-131.306	0.202	0.027
-394.121	800.000	-0.007	-0.024
-393.106	-83.784	0.009	0.003
-392.092	-9.425	0.081	0.054
-391.077	-162.343	-0.220	0.011
-390.063	302.441	-0.120	-0.220
-389.048	-200.000	0.032	-0.159
-388.033	-200.000	-0.005	0.059
-387.019	-178.883	0.252	0.006
-386.004	-78.515	-0.074	0.025
-384.990	138.770	-0.156	-0.204
-383.975	-200.000	-0.008	-0.120
-382.960	110.523	-0.130	0.155
-381.946	800.000	-0.127	0.371
-380.931	-200.000	-0.064	0.391
-379.917	-36.475	0.014	0.008
-378.902	145.745	0.135	-0.180
-377.888	-28.946	0.132	0.075
-376.873	221.634	-0.136	0.218
-375.858	546.157	-0.006	0.015
-374.844	800.000	-0.039	0.144
-373.829	-130.631	0.051	-0.007
-372.815	-200.000	-0.040	-0.179
-371.800	-41.906	0.315	0.160
-370.785	282.732	-0.087	0.156
-369.771	800.000	0.056	-0.237
-368.756	15.674	-0.336	0.263
-367.742	-200.000	-0.010	0.154
-366.727	-107.698	-0.178	-0.039
-365.712	-12.682	0.130	-0.084
-364.698	-132.784	-0.416	-0.053
-363.683	23.571	0.111	0.091
-362.669	-36.262	0.160	-0.086
-361.654	-124.949	-0.216	0.033
-360.639	-200.000	0.008	0.040
-359.625	33.596	-0.179	0.154
-358.610	-9.828	0.367	0.243
-357.596	-106.529	-0.166	0.037
-356.581	-110.970	0.341	0.070
-355.566	219.371	-0.132	-0.211
-354.552	-55.575	0.064	-0.029
-353.537	-200.000	0.074	-0.338
-352.523	800.000	0.086	0.351
-351.508	35.262	0.126	-0.109
-350.493	800.000	-0.085	-0.276
-349.479	-30.062	0.150	0.085
-348.464	35.308	-0.173	-0.151
-347.450	800.000	0.031	0.090
-346.435	800.000	0.053	-0.148
-345.420	800.000	0.131	-0.386
-344.406	-35.839	0.232	0.125
-343.391	19.946	0.118	0.095
-342.377	-183.188	0.090	-0.002
-341.362	-200.000	0.011	0.254
-340.348	800.000	0.034	-0.099
-339.333	-165.886	0.264	-0.011
-338.318	205.383	-0.108	-0.167
-337.304	254.065	0.261	0.444
-336.289	-63.051	-0.311	0.128
-335.275	-200.000	0.023	-0.195
-334.260	487.559	-0.105	0.238
-333.245	310.620	-0.165	-0.307
-332.231	800.000	0.033	0.140
-331.216	479.788	-0.086	0.194
-330.202	98.392	0.071	-0.081
-329.187	-35.348	-0.185	-0.100
-328.172	-96.169	-0.056	-0.015
-327.158	-79.474	-0.065	0.022
-326.143	-77.139	0.249	-0.086
-325.129	106.209	-0.063	-0.074
-324.114	86.176	0.135	-0.147
-323.099	-131.099	0.369	-0.049
-322.085	92.496	0.190	0.213
-321.070	41.960	-0.057	0.052
-320.056	216.729	0.048	-0.075
-319.041	-38.765	0.150	0.079
-318.026	-200.000	0.002	-0.376
-317.012	425.507	-0.092	0.198
-315.997	-200.000	-0.016	0.310
-314.983	-10.896	-0.151	0.099
-313.968	-92.714	0.156	-0.043
-312.953	-130.434	-0.201	-0.027
-311.939	61.519	-0.300	-0.297
-310.924	66.571	0.076	0.076
-309.910	15.209	0.274	0.213
-308.895	1.879	0.131	0.093
-307.880	-29.210	0.157	-0.089
-306.866	9.079	-0.249	0.187
-305.851	-53.950	0.038	-0.017
-304.837	110.688	-0.152	0.182
-303.822	800.000	-0.093	0.290
-302.807	-10.246	0.201	0.132
-301.793	138.147	-0.097	0.126
-300.778	-145.052	-0.097	0.009
-299.764	140.863	0.236	-0.310
-298.749	-200.000	-0.011	0.264
-297.735	-129.326	0.290	-0.040
-296.720	-130.658	-0.185	-0.025
-295.705	38.724	-0.044	-0.039
-294.691	190.246	-0.157	-0.233
-293.676	-161.276	-0.140	-0.007
-292.662	-151.585	0.342	0.025
-291.647	-160.377	-0.444	-0.024
-290.632	800.000	-0.024	0.066
-289.618	-166.656	0.120	0.005
-288.603	-200.000	0.005	0.156
-287.589	-200.000	-0.018	0.127
-286.574	800.000	0.046	-0.136
-285.559	-88.117	0.164	-0.049
-284.545	-200.000	0.000	0.406
-283.530	205.851	-0.083	-0.127
-282.516	193.307	0.107	0.160
-281.501	61.873	-0.116	-0.115
-280.486	-92.395	-0.289	0.081
-279.472	-122.764	0.227	0.036
-278.457	43.311	-0.184	0.167
-277.443	659.026	0.047	0.120
-276.428	-200.000	-0.016	0.103
-275.413	-200.000	-0.063	0.335
-274.399	88.029	0.144	-0.158
-273.384	64.817	-0.247	-0.247
-272.370	-200.000	0.032	-0.150
-271.355	-200.000	0.062	-0.311
-270.340	718.844	0.141	0.372
-269.326	-41.820	-0.180	-0.091
-268.311	129.303	0.081	0.103
-267.297	800.000	0.053	-0.215
-266.282	-115.028	0.176	-0.033
-265.267	800.000	0.129	0.354
-264.253	705.017	-0.158	-0.414
-263.238	75.232	0.214	0.224
-262.224	-128.025	-0.225	0.032
-261.209	-200.000	-0.034	0.170
-260.195	-96.443	0.266	-0.070
-259.180	99.124	0.206	-0.236
-258.165	-110.640	-0.365	-0.075
-257.151	118.376	-0.129	-0.158
-256.136	129.728	0.069	0.088
-255.122	88.305	-0.247	0.272
-254.107	-115.984	0.172	0.032
-253.092	10.598	-0.179	-0.135
-252.078	61.923	0.093	0.091
-251.063	439.280	0.098	-0.212
-250.049	-92.265	-0.241	-0.067
-249.034	27.930	-0.111	0.093
-248.019	-90.350	0.098	-0.028
-247.005	-94.869	-0.295	0.079
-245.990	62.995	-0.098	-0.097
-244.976	800.000	0.026	-0.078
-243.961	-41.123	0.134	0.069
-242.946	-41.669	0.234	-0.119
-241.932	-163.639	-0.209	-0.010
-240.917	-147.067	0.120	-0.010
-239.903	410.339	-0.137	0.288
-238.888	-44.539	0.193	-0.095
-237.873	187.164	0.122	0.179
-236.859	-19.890	-0.105	0.064
-235.844	63.303	0.061	0.061
-234.830	75.393	-0.125	-0.131
-233.815	-72.230	0.070	0.026
-232.800	-89.826	0.128	-0.037
-231.786	-196.638	0.175	-0.001
-230.771	-94.691	0.088	0.024
-229.757	-200.000	0.007	-0.179
-228.742	-30.982	-0.274	0.153
-227.727	800.000	0.131	0.491
-226.713	76.520	-0.226	0.236
-225.698	84.022	0.174	-0.188
-224.684	-115.551	0.240	0.045
-223.669	-200.000	-0.001	0.149
-222.655	-82.439	0.323	0.104
-221.640	42.056	0.080	0.072
-220.625	112.510	-0.090	-0.108
-219.611	-148.171	-0.140	0.011
-218.596	653.510	-0.085	0.216
-217.582	194.608	-0.167	-0.250
-216.567	-200.000	-0.052	-0.293
-215.552	-200.000	-0.001	0.455
-214.538	-72.872	-0.418	0.152
-213.523	-32.005	-0.292	-0.161
-212.509	248.359	0.020	-0.033
-211.494	-177.711	0.330	0.008
-210.479	258.160	0.078	-0.133
-209.465	-15.149	-0.235	0.149
-208.450	-200.000	0.335	-0.000
-207.436	-120.997	-0.480	-0.080
-206.421	1.752	0.133	0.095
-205.406	406.979	-0.018	-0.038
-204.392	-176.201	0.238	-0.006
-203.377	-40.231	-0.257	-0.132
-202.363	290.348	-0.063	-0.113
-201.348	-41.488	0.499	0.254
-200.333	137.676	0.093	-0.120
-199.319	68.587	0.102	-0.103
-198.304	-162.977	0.246	0.012
-197.290	-108.954	0.122	-0.026
-196.275	-54.236	-0.252	-0.113
-195.260	-200.000	-0.021	0.165
-194.246	-200.000	0.026	-0.198
-193.231	-30.910	0.099	0.056
-192.217	-200.000	0.023	0.132
-191.202	-200.000	-0.004	0.063
-190.187	800.000	-0.060	-0.258
-189.173	35.917	0.064	0.055
-188.158	-200.000	-0.073	0.388
-187.144	-200.000	0.028	0.194
-186.129	-118.756	-0.321	-0.056
-185.114	-77.391	0.157	-0.054
-184.100	-34.539	-0.296	-0.160
-183.085	800.000	-0.020	0.077
-182.071	800.000	0.044	-0.163
-181.056	-20.383	0.054	0.033
-180.042	-85.410	-0.103	0.032
-179.027	353.418	0.048	-0.095
-178.012	-200.000	-0.019	0.199
-176.998	-114.878	-0.184	-0.035
-175.983	-162.319	0.393	0.019
-174.969	-92.323	0.187	-0.052
-173.954	-200.000	0.024	0.115
-172.939	-200.000	0.010	0.389
-171.925	800.000	0.045	0.178
-170.910	-162.251	-0.156	-0.008
-169.896	83.204	0.225	-0.241
-168.881	166.125	0.140	-0.195
-167.866	-200.000	-0.016	0.211
-166.852	-137.022	0.438	-0.050
-165.837	28.000	-0.241	-0.201
-164.823	97.489	-0.162	-0.184
-163.808	162.026	-0.151	-0.208
-162.793	-57.624	-0.178	-0.077
-161.779	-104.186	-0.171	-0.039
-160.764	-178.042	-0.378	-0.009
-159.750	-57.452	0.069	0.030
-158.735	730.997	0.089	-0.234
-157.720	-200.000	-0.034	0.178
-156.706	-200.000	0.010	0.087
-155.691	74.913	0.109	0.113
-154.677	800.000	-0.059	0.214
-153.662	59.081	0.260	0.252
-152.647	800.000	0.066	-0.248
-151.633	281.049	0.106	-0.187
-150.618	243.408	0.145	-0.240
-149.604	-54.599	0.039	-0.017
-148.589	407.325	-0.106	0.221
-147.574	-200.000	-0.037	-0.190
-146.560	-60.598	-0.280	-0.117
-145.545	-200.000	-0.008	0.087
-144.531	97.010	-0.182	-0.206
-143.516	-200.000	0.062	0.296
-142.502	-84.025	-0.344	0.108
-141.487	74.029	0.127	0.131
-140.472	-200.000	0.085	-0.393
-139.458	302.210	-0.117	0.213
-138.443	403.281	0.088	0.184
-137.429	-200.000	-0.009	-0.142
-136.414	351.768	-0.134	0.261
-135.399	61.366	-0.041	-0.041
-134.385	114.776	-0.125	0.150
-133.370	123.032	-0.076	0.094
-132.356	-123.078	0.194	0.031
-131.341	10.769	-0.163	0.122
-130.326	462.980	-0.129	0.285
-129.312	75.872	-0.019	-0.020
-128.297	337.451	-0.043	-0.082
-127.283	-23.281	-0.280	-0.166
-126.268	161.859	0.107	-0.147
-125.253	-93.210	-0.088	0.024
-124.239	-133.990	0.207	0.025
-123.224	-46.726	-0.311	0.150
-122.210	-200.000	-0.007	0.135
-121.195	-173.853	-0.339	-0.010
