DTS Sentinel unit serial number:	SN413079Multiplexer serial number:	ORYXHardware model number:	OX4-SRSoftware version number:	ORYX F/W v4.00 Oryx Data Collector v3.7.2.0data status	okinstallation	princeton_trtdifferential loss correction	single-endedforward channel	channel 1reverse channel	N/Adate	2019/09/12time	06:08:11forward acquisition time	60.00reverse acquisition time	0.00gamma	496.2192k internal	0.2320k external	0.2320temperature offset calibration	1.0048default loss term (dB/km)	0.3790temperature slope calibration	1.0000multiplexer offset coefficient	1.0000multiplexer slope coefficient	1.0000fibre end	0.00T internal ref (°C)	32.12T ext. ref 1 (°C)	1.55T ext. ref 2 (°C)	27.36length (m)	temperature (°C)	Stokes	anti-Stokes-747.200	-69.940	-0.334	-0.129
-746.185	400.004	0.110	0.234
-745.171	800.000	0.067	0.215
-744.156	-2.682	-0.344	-0.243
-743.142	-140.245	0.284	0.030
-742.127	-14.024	-0.389	0.254
-741.112	18.676	-0.191	0.155
-740.098	16.009	-0.304	0.242
-739.083	88.618	0.081	0.091
-738.069	87.033	-0.168	0.188
-737.054	263.469	-0.141	0.247
-736.039	51.724	-0.303	0.291
-735.025	800.000	-0.038	0.137
-734.010	-15.262	-0.287	0.185
-732.996	800.000	-0.042	0.148
-731.981	-44.055	-0.065	-0.033
-730.966	90.670	0.189	0.213
-729.952	32.803	-0.383	-0.335
-728.937	416.530	0.151	-0.325
-727.923	123.030	0.210	-0.266
-726.908	800.000	-0.089	-0.321
-725.894	-200.000	-0.000	-0.040
-724.879	476.348	0.046	-0.105
-723.864	-95.302	0.126	0.034
-722.850	29.215	0.125	-0.108
-721.835	40.645	0.456	0.415
-720.821	-13.624	-0.345	-0.226
-719.806	-79.653	-0.293	-0.100
-718.791	131.884	0.168	0.218
-717.777	59.783	0.298	0.297
-716.762	122.373	0.123	0.156
-715.748	-10.992	-0.150	-0.100
-714.733	208.670	-0.096	-0.152
-713.718	-32.466	-0.172	0.097
-712.704	-200.000	0.052	0.290
-711.689	311.009	-0.065	-0.122
-710.675	-22.259	0.232	0.142
-709.660	112.135	0.218	0.266
-708.645	218.165	-0.174	-0.280
-707.631	133.330	0.128	0.167
-706.616	-22.880	0.342	-0.208
-705.602	-200.000	-0.035	-0.276
-704.587	-200.000	0.006	-0.251
-703.572	227.708	0.087	-0.144
-702.558	-47.287	-0.246	0.121
-701.543	466.169	0.099	0.223
-700.529	800.000	0.039	0.148
-699.514	-200.000	-0.002	0.076
-698.499	-4.042	-0.056	-0.039
-697.485	247.216	-0.106	0.181
-696.470	-200.000	0.010	0.135
-695.456	-89.058	-0.179	-0.053
-694.441	620.152	-0.078	-0.199
-693.426	65.949	0.068	-0.070
-692.412	110.245	0.086	-0.104
-691.397	800.000	-0.030	0.091
-690.383	800.000	0.091	-0.258
-689.368	134.621	0.296	0.388
-688.354	800.000	-0.117	-0.386
-687.339	138.166	0.044	0.058
-686.324	100.233	0.153	-0.179
-685.310	310.726	0.059	0.111
-684.295	-95.604	0.168	0.045
-683.281	-89.960	-0.423	-0.125
-682.266	445.730	-0.255	-0.565
-681.251	-33.851	0.220	-0.122
-680.237	-14.202	0.214	0.139
-679.222	-94.072	0.086	0.024
-678.208	51.905	0.150	-0.144
-677.193	14.580	0.252	-0.198
-676.178	800.000	0.062	-0.259
-675.164	635.843	0.037	-0.094
-674.149	23.484	0.145	-0.120
-673.135	-200.000	-0.010	0.285
-672.120	-57.957	-0.046	-0.020
-671.105	-31.253	-0.260	0.148
-670.091	-200.000	0.001	-0.137
-669.076	116.974	0.042	0.052
-668.062	-153.985	0.327	-0.022
-667.047	-8.329	-0.246	0.167
-666.032	-200.000	-0.007	-0.107
-665.018	390.564	-0.076	-0.160
-664.003	-200.000	-0.025	-0.198
-662.989	800.000	-0.014	0.047
-661.974	800.000	-0.059	0.196
-660.959	36.583	0.223	0.199
-659.945	159.035	0.104	-0.145
-658.930	329.976	-0.198	0.384
-657.916	-108.356	0.445	-0.097
-656.901	322.228	-0.144	0.276
-655.886	163.461	0.067	-0.096
-654.872	192.985	0.164	-0.250
-653.857	87.786	-0.128	0.143
-652.843	-200.000	0.011	0.251
-651.828	-200.000	-0.014	0.092
-650.814	800.000	-0.014	0.059
-649.799	-30.435	0.095	-0.054
-648.784	140.860	-0.362	0.482
-647.770	-39.812	-0.198	0.104
-646.755	-69.546	-0.249	0.096
-645.741	-134.920	-0.120	0.015
-644.726	-139.853	-0.250	0.027
-643.711	800.000	0.088	0.268
-642.697	156.112	0.055	-0.076
-641.682	1.398	0.175	-0.127
-640.668	160.413	-0.059	-0.083
-639.653	41.712	0.156	-0.143
-638.638	-111.315	0.170	0.035
-637.624	-137.853	0.077	0.009
-636.609	232.861	0.143	0.237
-635.595	-155.532	0.058	-0.004
-634.580	-46.712	0.133	0.066
-633.565	-150.354	-0.169	0.013
-632.551	-40.244	0.122	-0.064
-631.536	16.720	-0.077	0.061
-630.522	67.516	0.106	-0.109
-629.507	-200.000	-0.008	0.058
-628.492	-105.321	0.268	-0.061
-627.478	-200.000	0.067	-0.326
-626.463	-112.834	0.174	-0.035
-625.449	-62.851	-0.080	0.033
-624.434	11.187	-0.236	-0.182
-623.419	800.000	-0.081	0.344
-622.405	-78.836	0.193	-0.066
-621.390	-200.000	-0.018	-0.139
-620.376	98.707	-0.045	0.053
-619.361	800.000	0.096	-0.296
-618.346	-161.644	0.125	0.006
-617.332	-200.000	-0.080	0.397
-616.317	-200.000	0.006	-0.328
-615.303	717.406	0.058	0.155
-614.288	800.000	-0.007	0.020
-613.273	-55.034	-0.144	-0.065
-612.259	303.367	0.046	-0.085
-611.244	800.000	-0.044	0.187
-610.230	-49.062	-0.128	-0.062
-609.215	-86.487	-0.150	0.046
-608.201	8.926	0.322	0.245
-607.186	284.703	-0.183	-0.331
-606.171	-147.222	0.240	-0.021
-605.157	-109.469	-0.189	-0.040
-604.142	-111.487	0.203	-0.041
-603.128	-122.245	-0.181	-0.030
-602.113	-200.000	-0.030	-0.210
-601.098	-113.944	-0.122	-0.024
-600.084	32.651	-0.037	-0.032
-599.069	800.000	-0.111	0.362
-598.055	-52.870	0.184	-0.085
-597.040	-200.000	0.015	-0.149
-596.025	584.043	-0.051	0.125
-595.011	140.179	0.195	0.258
-593.996	183.374	0.122	-0.181
-592.982	-1.818	-0.301	0.213
-591.967	800.000	0.024	-0.070
-590.952	129.913	-0.148	-0.190
-589.938	-55.079	-0.186	-0.084
-588.923	129.896	-0.132	-0.169
-587.909	164.017	0.164	0.233
-586.894	800.000	-0.086	-0.266
-585.879	-40.326	-0.124	0.065
-584.865	23.186	-0.384	-0.317
-583.850	-33.490	0.312	-0.173
-582.836	-14.823	-0.194	-0.125
-581.821	-184.136	0.102	0.002
-580.806	800.000	0.009	-0.038
-579.792	135.572	0.076	0.100
-578.777	-159.126	-0.274	0.016
-577.763	63.076	-0.325	0.327
-576.748	-49.450	-0.204	-0.098
-575.733	200.318	-0.255	0.394
-574.719	-200.000	-0.046	-0.237
-573.704	-105.904	0.185	0.042
-572.690	79.192	0.062	0.067
-571.675	96.626	-0.108	-0.124
-570.661	-200.000	0.037	-0.190
-569.646	-200.000	-0.009	-0.342
-568.631	627.244	-0.070	0.176
-567.617	109.575	-0.047	0.056
-566.602	7.326	-0.128	0.096
-565.588	-41.566	0.217	0.112
-564.573	-200.000	-0.008	-0.111
-563.558	37.125	0.100	0.089
-562.544	-117.509	0.234	-0.042
-561.529	483.211	-0.126	-0.287
-560.515	70.649	-0.224	-0.233
-559.500	-141.351	0.240	0.024
-558.485	577.413	-0.035	-0.087
-557.471	143.278	0.176	-0.235
-556.456	-33.154	-0.153	0.085
-555.442	-126.826	-0.255	0.038
-554.427	-200.000	0.006	0.357
-553.412	31.718	0.194	0.167
-552.398	377.115	0.065	-0.133
-551.383	-60.292	0.239	-0.102
-550.369	93.388	-0.240	0.273
-549.354	46.533	0.168	-0.157
-548.339	-28.915	-0.027	0.016
-547.325	-200.000	-0.010	0.213
-546.310	-200.000	0.008	0.370
-545.296	-30.259	-0.228	-0.130
-544.281	-200.000	-0.008	0.074
-543.266	61.491	-0.048	0.048
-542.252	-95.705	-0.069	0.019
-541.237	460.905	-0.019	0.042
-540.223	-100.951	0.181	-0.045
-539.208	195.861	-0.157	-0.239
-538.193	28.940	-0.363	0.309
-537.179	-200.000	0.035	-0.381
-536.164	-200.000	0.032	-0.213
-535.150	220.432	0.140	0.226
-534.135	81.661	-0.200	0.217
-533.121	29.599	0.336	0.287
-532.106	13.302	-0.171	-0.133
-531.091	497.054	0.112	-0.259
-530.077	-74.548	0.162	0.058
-529.062	283.651	0.070	0.125
-528.048	261.188	-0.132	0.229
-527.033	-200.000	-0.013	-0.081
-526.018	385.727	-0.059	-0.122
-525.004	-140.484	-0.343	-0.036
-523.989	-200.000	-0.027	0.145
-522.975	-89.385	0.078	0.023
-521.960	-113.161	-0.220	0.043
-520.945	-70.287	0.302	-0.115
-519.931	-124.538	-0.180	-0.028
-518.916	-117.918	0.251	-0.045
-517.902	-26.026	0.129	0.076
-516.887	-94.557	-0.564	-0.154
-515.872	785.405	-0.177	-0.486
-514.858	-200.000	-0.046	-0.338
-513.843	800.000	0.024	-0.106
-512.829	-63.400	0.166	-0.068
-511.814	-54.715	0.229	-0.104
-510.799	-200.000	-0.018	-0.157
-509.785	125.090	-0.282	-0.356
-508.770	9.206	0.317	-0.240
-507.756	36.935	-0.123	0.109
-506.741	183.394	-0.100	0.149
-505.726	800.000	0.068	0.285
-504.712	147.361	-0.103	0.138
-503.697	-179.396	0.427	0.009
-502.683	-30.927	0.424	0.240
-501.668	-182.739	0.192	-0.003
-500.653	-62.771	-0.319	-0.132
-499.639	115.233	-0.060	-0.073
-498.624	-136.533	0.103	0.012
-497.610	542.140	-0.007	0.017
-496.595	105.266	0.250	0.295
-495.581	800.000	0.082	-0.252
-494.566	20.156	-0.328	0.265
-493.551	629.694	-0.140	-0.354
-492.537	96.885	-0.180	-0.207
-491.522	253.187	0.118	-0.201
-490.508	800.000	-0.054	-0.163
-489.493	25.093	-0.118	-0.098
-488.478	800.000	0.057	0.225
-487.464	-75.660	-0.297	-0.106
-486.449	33.340	-0.228	-0.198
-485.435	-115.391	0.307	0.058
-484.420	-56.969	-0.316	-0.140
-483.405	-82.384	-0.104	-0.034
-482.391	-200.000	-0.008	0.061
-481.376	-56.226	-0.428	0.191
-480.362	800.000	0.086	0.341
-479.347	-58.774	0.234	0.101
-478.332	-200.000	0.001	0.308
-477.318	800.000	0.020	-0.080
-476.303	-107.088	-0.359	0.079
-475.289	274.259	-0.216	-0.382
-474.274	293.032	0.059	0.108
-473.259	-200.000	0.012	0.214
-472.245	285.284	0.026	0.047
-471.230	800.000	0.097	0.331
-470.216	-79.118	0.450	0.153
-469.201	7.487	-0.409	-0.306
-468.186	-26.135	-0.110	0.065
-467.172	26.026	0.334	0.279
-466.157	-200.000	-0.028	-0.163
-465.143	-128.805	-0.064	-0.009
-464.128	-86.933	-0.091	-0.028
-463.113	180.385	0.303	-0.445
-462.099	-80.820	-0.069	-0.023
-461.084	17.218	-0.346	0.275
-460.070	-126.729	0.077	0.011
-459.055	121.090	0.016	-0.020
-458.040	113.535	-0.089	0.108
-457.026	3.707	0.053	0.039
-456.011	14.311	-0.103	0.081
-454.997	-19.117	-0.124	0.077
-453.982	-87.037	-0.333	0.102
-452.968	-55.001	-0.126	-0.057
-451.953	-200.000	0.027	-0.186
-450.938	-60.195	0.054	-0.023
-449.924	-200.000	-0.027	-0.188
-448.909	-200.000	0.045	-0.440
-447.895	-50.347	-0.227	0.107
-446.880	362.993	0.057	-0.114
-445.865	-64.594	-0.302	0.122
-444.851	126.381	-0.184	-0.233
-443.836	4.482	0.250	0.183
-442.822	-200.000	-0.009	0.127
-441.807	-200.000	0.036	-0.509
-440.792	-130.072	0.381	-0.052
-439.778	91.198	0.055	-0.061
-438.763	-200.000	0.003	-0.094
-437.749	83.047	0.158	-0.172
-436.734	-40.096	0.397	-0.207
-435.719	-102.665	0.123	-0.029
-434.705	-92.351	0.201	0.056
-433.690	151.312	0.233	-0.316
-432.676	-62.696	-0.046	-0.019
-431.661	-40.579	0.115	-0.060
-430.646	278.286	0.266	0.473
-429.632	221.398	0.157	0.252
-428.617	-144.464	-0.485	0.045
-427.603	-65.453	-0.191	0.077
-426.588	-34.331	0.113	-0.062
-425.573	-200.000	-0.013	0.131
-424.559	-53.215	0.305	0.140
-423.544	800.000	-0.012	-0.036
-422.530	800.000	-0.016	-0.048
-421.515	217.636	0.049	0.079
-420.500	-73.492	0.371	0.135
-419.486	210.490	0.162	-0.253
-418.471	-65.601	0.101	-0.041
-417.457	529.572	0.089	0.209
-416.442	322.016	0.091	0.172
-415.428	-39.961	-0.267	0.139
-414.413	193.453	0.147	0.223
-413.398	-200.000	0.079	0.372
-412.384	399.536	-0.168	0.351
-411.369	74.686	0.332	0.348
-410.355	-200.000	-0.007	0.237
-409.340	108.385	0.065	-0.077
-408.325	-31.834	-0.269	-0.150
-407.311	-200.000	0.020	0.094
-406.296	-200.000	-0.069	-0.410
-405.282	37.652	0.253	0.224
-404.267	-88.009	0.178	-0.053
-403.252	-91.384	0.092	0.026
-402.238	253.351	0.135	0.229
-401.223	-64.199	0.080	-0.033
-400.209	255.935	0.134	-0.229
-399.194	-108.276	-0.251	-0.054
-398.179	29.364	-0.059	-0.050
-397.165	7.100	-0.342	-0.254
-396.150	149.295	-0.094	-0.127
-395.136	800.000	0.037	-0.125
-394.121	800.000	-0.061	-0.215
-393.106	135.778	-0.120	0.156
-392.092	800.000	0.061	0.230
-391.077	-200.000	0.017	0.178
-390.063	66.964	0.149	0.151
-389.048	22.172	0.141	0.115
-388.033	-68.487	0.260	-0.100
-387.019	-108.554	0.205	-0.044
-386.004	411.455	-0.050	-0.106
-384.990	8.823	0.173	-0.130
-383.975	640.531	0.106	0.270
-382.960	-19.928	0.151	0.093
-381.946	-94.622	0.295	-0.080
-380.931	-200.000	-0.050	-0.268
-379.917	28.473	-0.357	-0.301
-378.902	466.041	-0.136	-0.303
-377.888	10.040	0.154	0.117
-376.873	-137.777	-0.301	0.034
-375.858	744.271	0.077	-0.206
-374.844	-200.000	0.037	0.194
-373.829	-200.000	-0.018	-0.135
-372.815	19.373	0.363	-0.291
-371.800	135.693	-0.214	0.277
-370.785	-75.261	-0.406	-0.144
-369.771	800.000	0.052	0.221
-368.756	66.486	0.114	0.116
-367.742	-200.000	-0.055	-0.265
-366.727	-200.000	0.037	0.210
-365.712	95.464	0.230	-0.261
-364.698	-200.000	-0.047	-0.259
-363.683	24.308	-0.148	0.122
-362.669	-200.000	0.062	-0.325
-361.654	-118.894	-0.022	0.004
-360.639	-18.087	-0.300	0.187
-359.625	47.889	0.179	-0.167
-358.610	-15.727	0.011	0.007
-357.596	572.846	0.049	-0.119
-356.581	-119.631	-0.168	-0.029
-355.566	-12.675	0.091	0.059
-354.552	226.155	-0.084	0.136
-353.537	-139.877	0.209	0.022
-352.523	56.025	-0.135	-0.131
-351.508	295.910	0.177	0.323
-350.493	-80.336	0.099	-0.033
-349.479	141.433	-0.232	-0.305
-348.464	128.804	0.122	-0.155
-347.450	800.000	-0.077	-0.218
-346.435	-200.000	0.036	0.323
-345.420	-82.451	0.150	-0.048
-344.406	-86.045	0.096	-0.030
-343.391	-95.075	-0.477	-0.128
-342.377	-200.000	-0.005	-0.159
-341.362	800.000	0.063	0.239
-340.348	-38.668	-0.163	0.086
-339.333	-58.924	-0.217	0.094
-338.318	-9.159	0.080	0.053
-337.304	-57.173	-0.078	-0.034
-336.289	123.869	-0.271	0.339
-335.275	-114.918	-0.136	0.026
-334.260	771.189	-0.100	-0.272
-333.245	-200.000	-0.062	-0.291
-332.231	571.160	0.054	-0.130
-331.216	-200.000	0.030	0.165
-330.202	76.132	-0.113	-0.119
-329.187	800.000	0.047	-0.162
-328.172	72.340	-0.082	-0.085
-327.158	-200.000	-0.004	-0.313
-326.143	-168.033	0.205	0.008
-325.129	-141.012	0.316	-0.032
-324.114	-200.000	-0.028	0.187
-323.099	36.259	0.196	-0.172
-322.085	773.389	-0.083	0.225
-321.070	197.130	0.121	0.184
-320.056	-161.228	-0.182	0.009
-319.041	-200.000	-0.037	0.277
-318.026	-200.000	-0.016	-0.216
-317.012	5.512	-0.143	0.105
-315.997	-200.000	0.035	0.238
-314.983	140.284	-0.101	0.132
-313.968	-94.030	0.187	-0.051
-312.953	21.951	0.111	0.090
-311.939	61.688	-0.210	0.207
-310.924	-71.843	0.160	0.059
-309.910	-102.558	-0.046	-0.011
-308.895	309.544	-0.080	-0.148
-307.880	421.632	0.048	-0.103
-306.866	160.346	0.341	0.472
-305.851	15.943	-0.098	-0.077
-304.837	-74.682	0.352	0.126
-303.822	-90.257	0.088	-0.025
-302.807	-57.172	-0.156	-0.068
-301.793	-92.532	0.114	0.032
-300.778	-17.270	0.104	-0.065
-299.764	234.320	-0.140	0.230
-298.749	-133.341	0.218	0.027
-297.735	604.257	-0.121	0.299
-296.720	-35.557	-0.100	-0.054
-295.705	0.849	-0.169	-0.120
-294.691	-82.523	0.216	0.070
-293.676	268.840	0.290	-0.505
-292.662	25.263	0.282	0.233
-291.647	-0.928	0.031	-0.022
-290.632	331.727	0.180	0.346
-289.618	478.926	-0.051	0.115
-288.603	36.311	0.055	-0.048
-287.589	-121.784	0.145	0.024
-286.574	286.047	0.076	-0.135
-285.559	-137.652	0.121	-0.014
-284.545	292.465	-0.160	-0.290
-283.530	800.000	-0.138	-0.435
-282.516	-15.525	0.362	-0.229
-281.501	18.356	-0.142	-0.113
-280.486	106.668	-0.119	-0.141
-279.472	-179.386	0.173	0.004
-278.457	-152.334	0.229	0.016
-277.443	-200.000	-0.038	0.232
-276.428	800.000	0.127	-0.416
-275.413	-200.000	-0.013	-0.116
-274.399	-43.607	0.325	-0.163
-273.384	-83.979	-0.296	-0.093
-272.370	76.948	0.222	0.234
-271.355	120.982	-0.128	-0.158
-270.340	32.913	0.119	-0.102
-269.326	269.221	-0.076	0.132
-268.311	537.776	-0.065	0.154
-267.297	-62.050	-0.492	-0.204
-266.282	-27.303	-0.164	-0.095
-265.267	64.241	-0.235	0.234
-264.253	7.401	0.206	0.152
-263.238	244.118	-0.201	0.334
-262.224	-64.590	0.287	-0.116
-261.209	-0.818	-0.070	0.049
-260.195	30.718	-0.285	-0.242
-259.180	-200.000	0.035	-0.375
-258.165	-105.852	0.082	-0.018
-257.151	-93.746	-0.129	0.035
-256.136	-39.676	0.255	-0.133
-255.122	-32.191	0.056	-0.031
-254.107	-154.112	-0.312	-0.021
-253.092	-15.538	-0.352	0.223
-252.078	-200.000	-0.048	-0.306
-251.063	-156.671	-0.168	0.010
-250.049	-200.000	0.023	0.146
-249.034	-112.397	0.415	-0.082
-248.019	-75.394	0.222	0.078
-247.005	66.097	-0.171	-0.172
-245.990	303.350	-0.192	0.352
-244.976	159.791	0.309	0.426
-243.961	-48.621	-0.174	0.083
-242.946	-155.652	-0.358	-0.023
-241.932	-200.000	-0.003	0.141
-240.917	159.375	-0.116	-0.160
-239.903	-66.574	-0.176	0.069
-238.888	425.101	0.171	0.364
-237.873	-200.000	0.009	0.068
-236.859	-152.315	0.271	-0.019
-235.844	19.994	0.242	-0.193
-234.830	-200.000	-0.076	-0.456
-233.815	451.562	0.141	0.308
-232.800	31.598	-0.150	0.128
-231.786	-200.000	0.025	0.164
-230.771	-16.664	-0.294	0.184
-229.757	-13.936	-0.150	0.096
-228.742	-200.000	-0.017	0.178
-227.727	-57.540	-0.219	-0.095
-226.713	-2.144	-0.134	-0.094
-225.698	-200.000	0.003	0.157
-224.684	800.000	0.031	-0.108
-223.669	-68.280	0.316	0.122
-222.655	344.714	0.138	-0.269
-221.640	-33.529	-0.205	-0.112
-220.625	-142.690	0.237	-0.023
-219.611	-115.414	-0.164	0.031
-218.596	227.141	0.049	0.079
-217.582	56.367	0.057	0.055
-216.567	-200.000	-0.038	0.626
-215.552	-200.000	0.018	-0.310
-214.538	282.515	0.068	-0.121
-213.523	123.074	0.166	0.206
-212.509	-50.177	0.283	0.133
-211.494	-85.606	0.384	-0.118
-210.479	-106.865	0.073	-0.016
-209.465	-200.000	0.039	0.211
-208.450	-46.963	0.107	0.052
-207.436	-77.670	0.222	0.076
-206.421	-80.415	-0.270	0.089
-205.406	-43.088	-0.290	0.146
-204.392	113.149	-0.061	0.073
-203.377	27.967	-0.089	-0.074
-202.363	154.382	0.026	-0.036
-201.348	-145.573	0.126	0.011
-200.333	-200.000	-0.043	-0.189
-199.319	-130.482	-0.080	0.011
-198.304	-57.731	0.116	0.050
-197.290	-200.000	-0.115	0.502
-196.275	-90.224	-0.218	-0.063
-195.260	167.205	-0.135	0.189
-194.246	-200.000	-0.036	0.261
-193.231	-143.417	-0.046	-0.004
-192.217	-200.000	-0.014	-0.190
-191.202	111.349	0.183	0.218
-190.187	117.856	0.134	0.163
-189.173	442.529	-0.125	0.270
-188.158	-102.262	-0.354	-0.084
-187.144	800.000	0.027	-0.114
-186.129	-5.827	-0.279	-0.189
-185.114	-136.393	0.278	0.032
-184.100	288.594	0.206	-0.369
-183.085	159.540	0.061	0.084
-182.071	-68.989	-0.129	-0.049
-181.056	719.920	-0.112	-0.295
-180.042	-153.923	0.122	0.008
-179.027	-200.000	0.011	0.386
-178.012	-62.404	0.063	-0.026
-176.998	584.969	0.079	-0.192
-175.983	-200.000	0.022	0.321
-174.969	-72.309	-0.530	0.194
-173.954	120.853	0.238	0.293
-172.939	-200.000	0.028	0.148
-171.925	-128.609	0.081	-0.011
-170.910	-17.339	0.355	0.221
-169.896	800.000	0.044	-0.156
-168.881	-200.000	-0.014	0.072
-167.866	-200.000	0.025	-0.312
-166.852	-153.119	0.163	-0.011
-165.837	-200.000	0.015	0.072
-164.823	-200.000	-0.013	0.137
-163.808	-95.837	-0.121	0.032
-162.793	259.985	-0.345	-0.590
-161.779	9.994	0.264	0.198
-160.764	124.790	0.127	-0.158
-159.750	20.563	0.194	0.155
-158.735	-91.773	-0.235	-0.066
-157.720	734.547	0.146	-0.386
-156.706	-30.059	-0.139	-0.078
-155.691	-52.678	-0.071	0.032
-154.677	-127.365	0.121	0.017
-153.662	-37.801	0.149	0.078
-152.647	-39.669	-0.250	-0.129
-151.633	328.037	-0.044	-0.084
-150.618	-149.316	-0.131	-0.010
-149.604	288.845	0.176	0.315
-148.589	-43.792	0.020	0.010
-147.574	286.539	0.101	-0.181
-146.560	-135.041	-0.159	-0.019
-145.545	-77.875	0.070	-0.024
-144.531	-107.878	0.581	0.125
-143.516	-175.543	0.186	0.005
-142.502	-188.611	-0.200	-0.002
-141.487	-88.242	0.258	0.076
-140.472	138.925	0.157	-0.203
-139.458	-200.000	0.043	-0.206
-138.443	119.500	-0.123	-0.150
-137.429	-200.000	0.048	-0.303
-136.414	61.286	-0.239	0.235
-135.399	147.520	0.130	-0.173
-134.385	800.000	0.107	-0.349
-133.370	-73.687	-0.239	-0.086
-132.356	0.058	-0.251	0.176
-131.341	-36.833	0.320	0.170
-130.326	437.492	-0.009	0.020
-129.312	-3.090	-0.293	0.202
-128.297	43.635	0.168	0.152
-127.283	208.896	0.094	-0.145
-126.268	-200.000	-0.005	0.164
-125.253	-66.684	-0.386	0.151
-124.239	800.000	0.154	-0.517
-123.224	308.080	-0.157	0.289
-122.210	33.456	-0.106	0.091
-121.195	-79.813	0.161	-0.053
-120.180	-44.945	-0.149	-0.073
