DTS Sentinel unit serial number:	SN413079Multiplexer serial number:	ORYXHardware model number:	OX4-SRSoftware version number:	ORYX F/W v4.00 Oryx Data Collector v3.7.2.0data status	okinstallation	princeton_trtdifferential loss correction	single-endedforward channel	channel 1reverse channel	N/Adate	2019/09/11time	10:36:11forward acquisition time	60.00reverse acquisition time	0.00gamma	496.2192k internal	0.2298k external	0.2298temperature offset calibration	0.9952default loss term (dB/km)	0.3790temperature slope calibration	1.0000multiplexer offset coefficient	1.0000multiplexer slope coefficient	1.0000fibre end	0.00T internal ref (°C)	36.55T ext. ref 1 (°C)	0.16T ext. ref 2 (°C)	33.72length (m)	temperature (°C)	Stokes	anti-Stokes-747.200	-81.900	-0.361	0.121
-746.185	301.399	-0.120	0.226
-745.171	126.126	-0.157	0.202
-744.156	-147.709	-0.371	0.032
-743.142	333.717	0.068	0.133
-742.127	614.383	0.091	0.234
-741.112	9.098	-0.219	-0.169
-740.098	67.861	0.138	0.144
-739.083	202.183	0.163	-0.257
-738.069	-171.680	-0.207	0.007
-737.054	800.000	0.019	0.063
-736.039	-120.859	-0.146	0.025
-735.025	-200.000	0.048	0.340
-734.010	-187.802	-0.234	-0.003
-732.996	-200.000	0.007	-0.294
-731.981	293.217	0.181	0.336
-730.966	-200.000	0.033	0.169
-729.952	133.146	-0.167	-0.220
-728.937	-45.411	0.109	-0.055
-727.923	-99.617	-0.303	-0.078
-726.908	-180.150	0.127	0.003
-725.894	-31.534	-0.014	-0.008
-724.879	119.479	-0.069	0.087
-723.864	-21.544	-0.288	-0.179
-722.850	-41.332	-0.031	-0.016
-721.835	-44.165	-0.149	-0.076
-720.821	121.597	-0.184	-0.235
-719.806	1.072	-0.377	-0.276
-718.791	800.000	-0.071	-0.243
-717.777	-200.000	0.008	-0.063
-716.762	-200.000	0.015	0.238
-715.748	-103.248	-0.274	0.066
-714.733	-69.851	0.112	-0.044
-713.718	-102.339	0.401	-0.098
-712.704	596.825	0.036	-0.091
-711.689	-68.804	-0.357	0.141
-710.675	29.595	-0.336	-0.292
-709.660	-146.184	-0.472	-0.042
-708.645	-76.270	-0.393	-0.141
-707.631	-1.924	-0.188	-0.135
-706.616	-163.961	-0.130	0.006
-705.602	-46.809	-0.024	-0.012
-704.587	-43.109	-0.197	-0.102
-703.572	245.966	-0.116	-0.199
-702.558	154.997	-0.184	-0.258
-701.543	101.151	0.079	0.094
-700.529	-130.576	-0.175	-0.024
-699.514	-36.269	-0.492	-0.270
-698.499	161.916	0.197	-0.281
-697.485	-40.383	-0.307	0.163
-696.470	-200.000	-0.073	-0.510
-695.456	244.180	0.148	0.252
-694.441	800.000	0.173	0.608
-693.426	-39.860	-0.122	-0.065
-692.412	183.955	-0.224	-0.337
-691.397	800.000	-0.022	-0.066
-690.383	278.693	-0.101	-0.183
-689.368	-112.306	-0.132	0.027
-688.354	-200.000	0.016	-0.221
-687.339	-127.005	-0.176	-0.026
-686.324	800.000	0.124	0.399
-685.310	-188.105	0.444	-0.006
-684.295	-141.659	0.240	0.025
-683.281	800.000	-0.136	0.382
-682.266	-200.000	-0.049	-0.290
-681.251	800.000	-0.071	0.205
-680.237	-98.740	0.196	0.051
-679.222	36.285	-0.166	0.149
-678.208	535.940	0.064	0.155
-677.193	24.466	0.082	-0.069
-676.178	438.362	0.137	-0.304
-675.164	-98.493	0.108	-0.028
-674.149	-94.263	-0.124	-0.035
-673.135	185.790	0.187	-0.283
-672.120	800.000	0.097	0.317
-671.105	-200.000	0.005	0.086
-670.091	97.130	0.212	-0.247
-669.076	-2.170	-0.313	0.224
-668.062	15.579	0.461	0.369
-667.047	-89.947	-0.133	-0.039
-666.032	213.197	0.116	0.187
-665.018	241.408	-0.143	0.244
-664.003	492.796	0.024	-0.056
-662.989	121.743	-0.082	0.104
-661.974	28.341	0.139	0.119
-660.959	800.000	0.078	0.291
-659.945	-82.571	0.466	-0.154
-658.930	-38.105	-0.382	-0.206
-657.916	-22.413	0.124	-0.077
-656.901	168.286	-0.092	0.133
-655.886	-69.066	0.034	-0.013
-654.872	-64.158	-0.365	-0.152
-653.857	257.577	0.033	0.058
-652.843	-17.339	-0.139	0.089
-651.828	-200.000	0.006	-0.182
-650.814	-93.495	0.285	0.080
-649.799	77.906	0.046	0.049
-648.784	-0.514	-0.169	0.122
-647.770	-157.878	-0.157	-0.009
-646.755	-69.828	-0.167	-0.065
-645.741	182.984	-0.063	-0.095
-644.726	-101.299	0.160	0.040
-643.711	800.000	-0.087	0.256
-642.697	-22.634	0.096	-0.059
-641.682	-79.238	-0.254	-0.087
-640.668	697.960	0.092	-0.247
-639.653	91.359	-0.233	-0.266
-638.638	173.398	-0.198	0.291
-637.624	-200.000	0.061	0.345
-636.609	343.187	-0.054	0.107
-635.595	-79.335	0.407	-0.140
-634.580	-61.866	-0.171	0.073
-633.565	8.426	-0.169	0.129
-632.551	-13.864	-0.124	0.081
-631.536	-200.000	0.019	-0.257
-630.522	-127.793	-0.085	0.012
-629.507	-8.988	0.130	0.088
-628.492	-82.324	-0.441	0.146
-627.478	-5.659	0.061	-0.042
-626.463	-132.784	0.319	-0.041
-625.449	115.783	0.112	-0.140
-624.434	-50.754	-0.205	0.098
-623.419	33.556	0.085	-0.075
-622.405	50.126	-0.197	-0.189
-621.390	-19.877	-0.065	0.041
-620.376	28.013	0.357	0.306
-619.361	2.641	0.169	0.125
-618.346	-31.820	0.175	-0.100
-617.332	-200.000	0.074	0.395
-616.317	405.283	0.065	0.140
-615.303	182.390	-0.113	0.168
-614.288	-72.395	0.137	0.051
-613.273	43.203	-0.049	0.045
-612.259	-71.347	0.156	-0.059
-611.244	-185.640	0.489	-0.008
-610.230	-200.000	-0.019	0.085
-609.215	798.441	-0.076	0.213
-608.201	-13.932	-0.172	0.113
-607.186	122.867	0.246	0.313
-606.171	-200.000	0.012	0.245
-605.157	800.000	-0.081	0.240
-604.142	-129.805	-0.534	0.074
-603.128	259.031	0.105	0.183
-602.113	-181.972	0.046	0.001
-601.098	-108.042	0.183	0.040
-600.084	800.000	-0.038	0.138
-599.069	-186.308	-0.269	-0.004
-598.055	-86.654	-0.309	0.096
-597.040	105.668	-0.305	0.366
-596.025	147.499	0.083	0.114
-595.011	-12.236	0.060	-0.040
-593.996	405.265	-0.074	0.159
-592.982	-139.693	-0.298	-0.032
-591.967	-80.293	0.217	-0.073
-590.952	-13.062	-0.249	-0.164
-589.938	54.479	-0.143	0.140
-588.923	-87.596	0.197	-0.060
-587.909	-74.744	0.416	-0.152
-586.894	49.329	0.042	-0.040
-585.879	161.502	0.192	0.273
-584.865	-200.000	-0.003	0.237
-583.850	-200.000	-0.019	-0.229
-582.836	488.298	0.062	-0.143
-581.821	29.009	-0.301	-0.259
-580.806	55.951	0.009	-0.009
-579.792	-177.445	-0.275	-0.007
-578.777	-200.000	0.069	0.411
-577.763	-42.795	0.134	-0.069
-576.748	-200.000	-0.021	-0.206
-575.733	-200.000	0.011	0.070
-574.719	-159.945	0.213	-0.012
-573.704	462.095	-0.106	-0.241
-572.690	-200.000	-0.030	0.263
-571.675	800.000	0.061	0.193
-570.661	-200.000	0.007	-0.264
-569.646	28.817	0.093	-0.080
-568.631	2.957	-0.125	0.092
-567.617	-200.000	0.017	-0.103
-566.602	800.000	0.062	-0.211
-565.588	-96.344	0.077	-0.021
-564.573	-154.346	-0.212	-0.014
-563.558	216.675	0.056	0.090
-562.544	490.725	-0.077	-0.179
-561.529	110.949	0.174	-0.212
-560.515	800.000	-0.108	0.440
-559.500	-200.000	0.021	0.149
-558.485	26.826	-0.239	-0.203
-557.471	800.000	-0.058	-0.250
-556.456	-163.859	0.152	0.007
-555.442	-200.000	0.001	0.197
-554.427	-200.000	0.057	0.435
-553.412	686.598	-0.050	0.133
-552.398	624.885	-0.065	0.167
-551.383	800.000	-0.049	-0.211
-550.369	414.175	0.064	0.138
-549.354	800.000	-0.025	-0.089
-548.339	771.144	0.069	-0.191
-547.325	-66.114	-0.131	-0.053
-546.310	-41.198	-0.227	-0.118
-545.296	66.933	0.197	-0.203
-544.281	167.602	0.257	0.370
-543.266	512.275	0.085	0.200
-542.252	218.744	0.056	-0.091
-541.237	-83.950	-0.181	0.058
-540.223	-200.000	-0.048	-0.393
-539.208	-200.000	0.064	-0.351
-538.193	27.021	0.235	-0.200
-537.179	-111.348	-0.202	-0.042
-536.164	-60.093	-0.269	-0.116
-535.150	-86.178	-0.206	-0.064
-534.135	486.861	0.025	-0.058
-533.121	-20.515	-0.241	0.150
-532.106	-200.000	0.007	-0.091
-531.091	106.956	0.114	-0.137
-530.077	-4.398	0.056	-0.039
-529.062	800.000	0.081	0.253
-528.048	-200.000	-0.056	0.264
-527.033	199.433	-0.062	0.096
-526.018	134.003	0.055	0.072
-525.004	200.816	-0.144	-0.224
-523.989	-90.349	-0.312	-0.091
-522.975	73.429	0.167	-0.177
-521.960	-200.000	-0.003	0.106
-520.945	2.760	0.145	-0.107
-519.931	470.017	0.057	0.130
-518.916	800.000	-0.057	0.192
-517.902	-124.778	-0.264	0.041
-516.887	20.942	-0.164	0.134
-515.872	-96.399	-0.261	0.070
-514.858	-57.698	0.346	-0.153
-513.843	-200.000	0.005	-0.059
-512.829	-200.000	-0.001	0.080
-511.814	-152.873	0.150	-0.011
-510.799	-200.000	-0.009	-0.194
-509.785	-36.090	-0.172	0.094
-508.770	37.917	0.089	0.080
-507.756	-101.848	-0.262	-0.064
-506.741	-124.290	-0.187	0.030
-505.726	-75.450	-0.280	-0.101
-504.712	-179.877	0.109	0.002
-503.697	-200.000	-0.042	0.347
-502.683	119.353	0.133	0.167
-501.668	-200.000	-0.016	0.313
-500.653	56.412	-0.066	0.065
-499.639	800.000	-0.082	0.273
-498.624	25.935	0.058	-0.049
-497.610	268.382	-0.206	-0.365
-496.595	205.119	-0.053	-0.083
-495.581	103.883	-0.127	-0.151
-494.566	30.331	0.162	-0.140
-493.551	-114.512	0.286	-0.055
-492.537	274.698	0.087	0.155
-491.522	800.000	-0.021	-0.079
-490.508	-200.000	0.022	0.173
-489.493	3.312	-0.135	-0.099
-488.478	115.072	-0.226	-0.279
-487.464	-18.954	0.121	-0.076
-486.449	154.594	-0.036	0.050
-485.435	196.293	-0.120	-0.184
-484.420	25.629	0.050	-0.042
-483.405	-46.563	0.154	-0.076
-482.391	231.739	-0.076	0.126
-481.376	-88.736	-0.387	0.116
-480.362	37.869	0.230	0.206
-479.347	114.356	-0.167	0.206
-478.332	122.087	0.152	-0.191
-477.318	-140.545	-0.100	0.010
-476.303	-62.647	0.101	-0.042
-475.289	-200.000	-0.036	0.316
-474.274	-169.290	0.259	0.010
-473.259	-68.467	0.253	0.099
-472.245	-184.537	0.209	-0.003
-471.230	-200.000	0.021	0.254
-470.216	800.000	-0.066	-0.269
-469.201	-200.000	-0.039	0.192
-468.186	720.649	0.124	0.333
-467.172	-4.232	0.244	-0.171
-466.157	10.209	-0.139	0.107
-465.143	-200.000	0.014	-0.065
-464.128	-200.000	-0.024	-0.191
-463.113	-200.000	0.031	-0.164
-462.099	-200.000	-0.028	0.273
-461.084	-200.000	0.015	0.260
-460.070	209.929	0.112	-0.177
-459.055	-17.330	0.634	-0.403
-458.040	800.000	0.115	-0.413
-457.026	-138.509	-0.134	0.015
-456.011	-200.000	0.010	0.119
-454.997	-66.001	-0.060	-0.024
-453.982	341.702	0.147	0.290
-452.968	800.000	-0.034	-0.108
-451.953	-200.000	-0.016	-0.163
-450.938	357.652	-0.075	-0.152
-449.924	-42.678	0.168	0.086
-448.909	446.813	0.105	0.233
-447.895	-200.000	-0.060	0.556
-446.880	324.729	0.079	-0.153
-445.865	558.171	0.039	-0.094
-444.851	-200.000	-0.010	0.050
-443.836	-127.254	-0.335	0.049
-442.822	194.958	-0.235	-0.360
-441.807	9.899	0.259	-0.198
-440.792	375.922	-0.115	0.237
-439.778	-200.000	0.023	0.466
-438.763	346.239	0.041	-0.082
-437.749	-55.889	-0.263	0.119
-436.734	-32.533	-0.262	-0.147
-435.719	202.187	0.052	-0.081
-434.705	-21.836	0.070	0.043
-433.690	66.805	0.251	-0.258
-432.676	11.679	-0.168	-0.130
-431.661	578.177	-0.131	0.323
-430.646	-146.122	0.206	-0.018
-429.632	-158.272	-0.204	0.012
-428.617	-200.000	0.026	-0.173
-427.603	234.463	-0.112	-0.185
-426.588	566.421	0.101	-0.248
-425.573	-200.000	0.050	-0.222
-424.559	170.908	0.200	-0.288
-423.544	-3.710	-0.117	0.082
-422.530	480.119	0.097	0.221
-421.515	10.522	-0.200	0.154
-420.500	-35.719	0.099	-0.054
-419.486	37.281	0.118	-0.106
-418.471	760.020	0.075	-0.204
-417.457	792.885	-0.075	-0.207
-416.442	144.172	-0.084	-0.114
-415.428	-103.064	0.458	-0.109
-414.413	800.000	-0.065	0.199
-413.398	142.515	-0.089	0.119
-412.384	800.000	0.011	0.045
-411.369	410.180	0.061	0.131
-410.355	800.000	0.098	-0.328
-409.340	61.559	-0.086	0.086
-408.325	-144.667	-0.325	0.030
-407.311	800.000	-0.057	-0.159
-406.296	641.684	0.133	-0.342
-405.282	25.006	0.263	0.220
-404.267	183.174	-0.122	0.181
-403.252	-97.727	-0.152	0.040
-402.238	800.000	0.067	0.290
-401.223	-147.897	0.419	0.035
-400.209	-43.980	-0.438	0.222
-399.194	-79.867	0.421	-0.143
-398.179	68.132	-0.227	-0.234
-397.165	-200.000	-0.015	0.088
-396.150	155.876	0.165	-0.229
-395.136	-43.658	0.160	0.081
-394.121	-40.722	-0.078	-0.041
-393.106	-148.373	-0.223	-0.018
-392.092	587.413	0.058	0.143
-391.077	8.470	0.077	-0.058
-390.063	67.203	0.252	0.259
-389.048	55.070	0.207	-0.201
-388.033	-200.000	0.041	0.231
-387.019	118.066	0.311	-0.386
-386.004	-200.000	-0.016	-0.253
-384.990	800.000	-0.112	-0.359
-383.975	638.319	-0.196	-0.501
-382.960	-169.128	0.262	0.010
-381.946	467.461	-0.051	-0.115
-380.931	-200.000	0.002	-0.296
-379.917	-62.708	-0.177	-0.074
-378.902	324.350	0.156	-0.300
-377.888	169.870	0.244	0.351
-376.873	60.432	0.091	0.091
-375.858	-15.778	0.173	-0.111
-374.844	92.291	0.184	-0.208
-373.829	-29.355	-0.191	-0.110
-372.815	-129.916	-0.069	-0.010
-371.800	94.545	-0.136	0.155
-370.785	302.861	-0.113	0.211
-369.771	-200.000	0.053	0.446
-368.756	-200.000	-0.044	-0.301
-367.742	-200.000	0.008	-0.201
-366.727	-93.053	0.272	0.076
-365.712	800.000	-0.029	0.120
-364.698	2.848	-0.249	0.182
-363.683	-200.000	0.106	-0.691
-362.669	7.324	0.295	0.222
-361.654	-84.756	0.222	0.070
-360.639	159.005	0.143	-0.199
-359.625	374.923	-0.109	-0.224
-358.610	43.612	0.163	-0.150
-357.596	-100.187	0.207	0.052
-356.581	800.000	0.062	-0.192
-355.566	424.994	-0.143	-0.309
-354.552	-105.927	-0.303	-0.069
-353.537	-22.057	0.147	0.090
-352.523	-3.089	0.193	0.135
-351.508	-104.051	-0.053	0.012
-350.493	-200.000	-0.009	-0.141
-349.479	-200.000	-0.054	-0.258
-348.464	-92.386	0.114	-0.032
-347.450	-143.466	-0.165	0.016
-346.435	-200.000	0.001	0.172
-345.420	-200.000	-0.013	-0.214
-344.406	79.304	-0.106	0.115
-343.391	-74.916	-0.109	-0.039
-342.377	-200.000	-0.012	-0.069
-341.362	309.474	0.085	0.160
-340.348	703.244	-0.048	0.128
-339.333	-128.522	-0.065	0.009
-338.318	-182.765	-0.636	0.012
-337.304	800.000	0.071	0.275
-336.289	-200.000	0.008	0.163
-335.275	800.000	-0.078	0.231
-334.260	14.793	-0.110	-0.087
-333.245	68.524	0.079	0.081
-332.231	431.244	-0.060	0.130
-331.216	84.602	-0.105	-0.115
-330.202	-97.267	-0.152	0.040
-329.187	163.142	0.211	0.297
-328.172	-184.221	-0.205	0.003
-327.158	34.800	0.313	-0.275
-326.143	-88.945	0.109	-0.033
-325.129	-166.224	0.289	-0.012
-324.114	367.371	0.115	0.232
-323.099	440.080	0.032	-0.071
-322.085	-3.065	-0.124	-0.087
-321.070	-73.299	0.054	0.020
-320.056	486.441	0.078	-0.179
-319.041	-55.993	-0.059	0.026
-318.026	50.471	0.057	0.054
-317.012	82.302	-0.324	-0.353
-315.997	-37.087	0.076	0.041
-314.983	714.208	-0.117	-0.312
-313.968	-25.465	0.356	0.211
-312.953	-49.343	-0.146	0.070
-311.939	-69.376	0.066	0.026
-310.924	-32.924	-0.202	-0.112
-309.910	-52.779	-0.183	-0.085
-308.895	-12.380	0.333	0.218
-307.880	-200.000	-0.005	-0.104
-306.866	-112.249	-0.162	0.033
-305.851	542.841	0.079	0.188
-304.837	541.309	0.168	0.403
-303.822	381.134	0.118	0.244
-302.807	-200.000	-0.011	0.222
-301.793	373.403	0.064	-0.130
-300.778	800.000	0.062	-0.193
-299.764	-59.350	-0.077	-0.033
-298.749	-183.894	-0.224	-0.004
-297.735	-200.000	-0.032	0.428
-296.720	-200.000	0.059	0.386
-295.705	88.034	0.085	0.095
-294.691	-200.000	0.016	-0.073
-293.676	103.039	-0.199	0.234
-292.662	86.051	0.020	-0.022
-291.647	-179.800	-0.062	-0.001
-290.632	72.935	0.116	-0.121
-289.618	-200.000	-0.023	0.177
-288.603	529.081	-0.075	0.177
-287.589	-155.860	-0.135	0.009
-286.574	-126.865	0.187	-0.028
-285.559	79.194	-0.219	0.235
-284.545	-160.761	-0.069	-0.004
-283.530	-153.160	0.201	-0.014
-282.516	-132.124	-0.136	-0.018
-281.501	800.000	-0.072	-0.255
-280.486	-125.464	0.102	0.015
-279.472	-178.044	-0.187	-0.004
-278.457	-81.077	0.179	0.059
-277.443	-150.995	0.020	-0.001
-276.428	-200.000	0.049	0.249
-275.413	450.699	-0.089	0.197
-274.399	-126.177	0.063	-0.009
-273.384	-200.000	0.005	-0.166
-272.370	55.209	0.157	0.152
-271.355	-140.548	0.054	0.006
-270.340	419.344	0.017	-0.036
-269.326	-200.000	-0.014	0.130
-268.311	800.000	-0.103	0.305
-267.297	-36.993	0.213	-0.114
-266.282	91.578	-0.052	-0.059
-265.267	-107.893	-0.227	0.049
-264.253	379.923	0.102	0.209
-263.238	140.739	-0.112	0.148
-262.224	-115.263	0.196	-0.037
-261.209	-148.348	0.177	-0.015
-260.195	-19.328	-0.018	-0.011
-259.180	-159.756	-0.352	0.019
-258.165	244.599	0.150	-0.252
-257.151	-200.000	-0.001	0.068
-256.136	292.172	0.232	0.424
-255.122	-126.352	0.278	0.042
-254.107	-200.000	-0.011	-0.284
-253.092	-200.000	0.048	-0.281
-252.078	90.509	0.193	-0.216
-251.063	119.514	0.276	-0.342
-250.049	222.757	0.127	0.205
-249.034	-67.708	0.136	0.053
-248.019	-67.786	0.178	0.070
-247.005	-51.024	-0.112	-0.052
-245.990	354.219	0.073	-0.146
-244.976	-200.000	-0.012	-0.085
-243.961	-200.000	-0.017	0.222
-242.946	-113.401	0.023	0.004
-241.932	-141.528	-0.191	0.019
-240.917	-2.152	0.012	-0.008
-239.903	-34.996	-0.193	0.106
-238.888	39.888	-0.289	-0.259
-237.873	-135.931	0.331	-0.039
-236.859	111.542	0.102	-0.123
-235.844	-59.923	-0.034	-0.015
-234.830	717.610	-0.043	-0.115
-233.815	-39.951	-0.298	-0.156
-232.800	-56.111	-0.138	-0.062
-231.786	-55.611	-0.112	0.050
-230.771	542.562	-0.078	0.186
-229.757	-200.000	0.028	-0.145
-228.742	-13.664	-0.388	-0.251
-227.727	-134.566	0.128	0.016
-226.713	281.493	-0.186	-0.333
-225.698	-111.260	-0.164	-0.033
-224.684	800.000	-0.060	-0.168
-223.669	-55.405	-0.330	-0.148
-222.655	-64.486	-0.452	0.184
-221.640	-121.675	0.132	0.022
-220.625	800.000	-0.082	-0.329
-219.611	54.097	-0.108	-0.104
-218.596	451.646	0.064	-0.141
-217.582	800.000	-0.045	-0.145
-216.567	1.194	0.182	0.130
-215.552	-200.000	0.016	-0.197
-214.538	800.000	0.047	0.179
-213.523	385.053	-0.055	0.113
-212.509	165.144	0.097	0.137
-211.494	800.000	0.108	-0.460
-210.479	800.000	-0.066	-0.262
-209.465	73.184	0.266	0.278
-208.450	300.237	-0.080	-0.147
-207.436	541.730	-0.148	0.352
-206.421	-135.517	-0.342	0.041
-205.406	800.000	0.084	-0.339
-204.392	-200.000	-0.013	-0.171
-203.377	100.865	0.137	-0.159
-202.363	-200.000	0.061	0.371
-201.348	-200.000	-0.004	0.105
-200.333	-28.455	0.258	-0.149
-199.319	-84.948	0.087	-0.027
-198.304	-91.292	0.087	-0.025
-197.290	-126.534	0.301	0.045
-196.275	800.000	-0.039	0.144
-195.260	34.855	0.086	0.075
-194.246	-200.000	0.012	0.108
-193.231	-22.673	-0.106	0.064
-192.217	71.054	-0.182	0.189
-191.202	214.808	-0.184	-0.291
-190.187	456.116	0.061	0.136
-189.173	-8.442	0.211	0.142
-188.158	800.000	-0.060	-0.187
-187.144	-168.252	-0.202	0.008
-186.129	81.643	0.075	0.081
-185.114	-200.000	-0.026	-0.136
-184.100	-101.914	-0.275	0.066
-183.085	800.000	-0.049	-0.191
-182.071	34.197	0.238	-0.207
-181.056	-116.127	-0.126	0.023
-180.042	-200.000	-0.026	0.203
-179.027	536.194	0.069	-0.164
-178.012	91.511	-0.042	0.047
-176.998	800.000	0.079	-0.267
-175.983	-132.858	-0.177	0.023
-174.969	-36.880	0.208	0.111
-173.954	-36.636	-0.137	-0.073
-172.939	-162.310	-0.032	-0.002
-171.925	-74.271	0.324	0.117
-170.910	9.560	0.212	0.160
-169.896	380.775	0.038	-0.079
-168.881	-89.067	-0.113	0.033
-167.866	-75.885	0.139	0.049
-166.852	-200.000	0.017	0.219
-165.837	-58.998	-0.279	0.120
-164.823	-59.924	-0.044	0.019
-163.808	-169.292	-0.278	0.010
-162.793	-104.175	0.292	-0.068
-161.779	800.000	0.096	0.291
-160.764	12.414	-0.162	-0.124
-159.750	327.123	-0.110	-0.211
-158.735	-122.916	-0.100	-0.016
-157.720	52.299	0.041	0.039
-156.706	800.000	0.076	-0.271
-155.691	-200.000	0.069	-0.304
-154.677	129.129	-0.033	-0.042
-153.662	800.000	0.100	-0.364
-152.647	146.139	-0.100	0.134
-151.633	25.685	0.157	0.130
-150.618	153.527	-0.050	0.068
-149.604	-200.000	0.087	-0.429
-148.589	-137.939	0.357	-0.040
-147.574	181.220	-0.014	-0.021
-146.560	66.531	0.118	-0.120
-145.545	103.120	0.024	-0.029
-144.531	800.000	-0.133	-0.409
-143.516	-138.771	0.143	0.016
-142.502	-200.000	0.021	0.167
-141.487	5.221	-0.187	0.138
-140.472	800.000	0.052	0.149
-139.458	125.682	0.019	-0.024
-138.443	112.244	-0.079	0.095
-137.429	-96.487	-0.236	0.062
-136.414	680.233	-0.052	-0.134
-135.399	345.859	0.054	0.105
-134.385	15.771	-0.078	0.061
-133.370	-109.611	0.209	-0.044
-132.356	337.389	0.120	0.232
-131.341	800.000	0.096	0.293
-130.326	-115.072	-0.229	-0.043
-129.312	-200.000	-0.006	0.236
-128.297	-7.241	0.231	0.156
-127.283	158.056	0.061	-0.084
-126.268	-200.000	-0.017	-0.089
-125.253	-116.499	0.153	0.028
-124.239	368.408	-0.060	-0.122
-123.224	120.980	-0.026	0.032
-122.210	-129.969	-0.073	0.010
