DTS Sentinel unit serial number:	SN413079Multiplexer serial number:	ORYXHardware model number:	OX4-SRSoftware version number:	ORYX F/W v4.00 Oryx Data Collector v3.7.2.0data status	okinstallation	princeton_trtdifferential loss correction	single-endedforward channel	channel 1reverse channel	N/Adate	2019/09/16time	16:02:35forward acquisition time	60.00reverse acquisition time	0.00gamma	496.2192k internal	0.2292k external	0.2292temperature offset calibration	0.9955default loss term (dB/km)	0.3790temperature slope calibration	1.0000multiplexer offset coefficient	1.0000multiplexer slope coefficient	1.0000fibre end	0.00T internal ref (°C)	40.94T ext. ref 1 (°C)	14.91T ext. ref 2 (°C)	35.22length (m)	temperature (°C)	Stokes	anti-Stokes-747.200	-200.000	0.010	0.353
-746.185	50.704	0.126	0.122
-745.171	-165.558	0.239	0.011
-744.156	42.334	0.190	0.177
-743.142	129.890	0.199	0.261
-742.127	-200.000	-0.002	0.022
-741.112	12.631	-0.058	-0.046
-740.098	-114.348	-0.308	-0.061
-739.083	653.842	-0.069	-0.180
-738.069	42.805	-0.117	-0.109
-737.054	113.235	-0.028	0.034
-736.039	-146.117	-0.354	-0.032
-735.025	-144.023	0.079	-0.008
-734.010	97.832	-0.332	0.390
-732.996	-200.000	0.013	-0.098
-731.981	-84.508	-0.060	-0.019
-730.966	-83.178	0.119	0.039
-729.952	-200.000	-0.006	-0.077
-728.937	173.730	-0.070	0.103
-727.923	800.000	0.026	-0.082
-726.908	39.753	-0.200	0.184
-725.894	453.595	-0.144	-0.326
-724.879	-200.000	0.019	-0.100
-723.864	57.804	-0.176	-0.176
-722.850	65.500	-0.110	0.113
-721.835	-200.000	-0.034	0.304
-720.821	788.442	-0.019	-0.053
-719.806	-136.966	-0.220	-0.026
-718.791	-200.000	-0.011	-0.301
-717.777	-70.378	-0.044	-0.017
-716.762	-80.946	-0.166	0.056
-715.748	-121.695	-0.089	0.015
-714.733	56.791	-0.038	0.038
-713.718	-126.167	-0.153	0.023
-712.704	212.138	-0.206	-0.332
-711.689	-200.000	0.025	-0.443
-710.675	547.643	0.112	-0.274
-709.660	-200.000	-0.017	-0.157
-708.645	251.566	-0.167	0.291
-707.631	419.954	0.010	-0.022
-706.616	-76.572	-0.257	-0.092
-705.602	145.817	0.178	-0.243
-704.587	-114.361	-0.189	0.037
-703.572	-200.000	-0.001	-0.110
-702.558	800.000	-0.051	-0.223
-701.543	-40.670	0.179	-0.095
-700.529	144.750	0.142	0.195
-699.514	-178.121	0.196	-0.005
-698.499	284.828	-0.165	0.303
-697.485	121.601	0.055	0.070
-696.470	800.000	-0.019	-0.060
-695.456	116.617	-0.249	0.312
-694.441	582.678	0.026	-0.066
-693.426	-200.000	0.008	-0.256
-692.412	-29.781	0.099	0.057
-691.397	206.233	0.147	0.234
-690.383	-6.914	-0.206	-0.143
-689.368	467.603	0.068	0.155
-688.354	-119.066	-0.180	-0.032
-687.339	112.222	0.073	0.090
-686.324	-42.316	0.175	-0.091
-685.310	333.269	0.136	0.268
-684.295	266.572	0.028	0.051
-683.281	581.676	0.028	-0.071
-682.266	26.089	0.127	0.108
-681.251	-200.000	0.013	-0.086
-680.237	-200.000	-0.035	0.267
-679.222	-36.683	-0.087	0.048
-678.208	-130.974	-0.129	0.018
-677.193	-90.033	-0.063	-0.019
-676.178	72.374	-0.401	-0.427
-675.164	-200.000	-0.012	0.147
-674.149	-178.154	-0.103	0.002
-673.135	-123.799	-0.188	0.030
-672.120	185.163	-0.091	0.138
-671.105	262.109	-0.196	-0.347
-670.091	24.820	0.204	-0.172
-669.076	-127.254	-0.161	0.024
-668.062	-200.000	-0.019	-0.287
-667.047	31.335	0.124	-0.109
-666.032	-88.360	0.060	0.018
-665.018	-11.728	0.050	0.033
-664.003	-61.257	-0.116	0.050
-662.989	-184.971	0.295	-0.005
-661.974	27.494	0.268	-0.230
-660.959	-127.220	0.125	0.019
-659.945	99.927	-0.195	-0.231
-658.930	177.030	-0.041	-0.060
-657.916	-200.000	0.003	-0.031
-656.901	370.825	-0.092	0.190
-655.886	-200.000	0.025	0.118
-654.872	800.000	-0.047	0.193
-653.857	-30.825	0.227	0.131
-652.843	800.000	0.060	0.179
-651.828	70.284	0.100	-0.106
-650.814	0.321	-0.192	-0.140
-649.799	-24.167	-0.121	-0.074
-648.784	431.092	0.040	-0.088
-647.770	800.000	-0.059	-0.233
-646.755	-108.967	0.579	0.126
-645.741	59.718	-0.021	0.021
-644.726	-157.870	-0.054	-0.003
-643.711	553.172	0.078	0.191
-642.697	-133.557	-0.166	0.021
-641.682	101.470	-0.117	-0.138
-640.668	-56.128	-0.147	0.067
-639.653	306.175	-0.200	-0.379
-638.638	-50.644	0.271	-0.130
-637.624	800.000	0.064	-0.248
-636.609	-100.695	0.248	0.062
-635.595	-200.000	0.016	0.112
-634.580	-200.000	0.007	-0.160
-633.565	-80.999	-0.053	0.018
-632.551	-46.381	-0.323	-0.162
-631.536	800.000	-0.166	-0.477
-630.522	800.000	0.052	0.171
-629.507	1.477	-0.167	-0.122
-628.492	364.388	0.096	0.196
-627.478	132.876	-0.049	-0.065
-626.463	-64.586	0.098	0.041
-625.449	-200.000	-0.007	0.296
-624.434	170.250	0.041	-0.060
-623.419	170.151	0.051	-0.075
-622.405	-56.322	-0.115	0.052
-621.390	32.301	0.171	0.150
-620.376	-101.286	-0.146	0.036
-619.361	-22.608	-0.183	0.113
-618.346	-48.715	-0.144	0.071
-617.332	-126.754	-0.174	0.026
-616.317	-106.385	0.282	0.064
-615.303	117.041	0.128	-0.160
-614.288	-94.078	-0.241	-0.067
-613.273	-200.000	0.005	-0.072
-612.259	37.970	-0.126	0.114
-611.244	-160.834	-0.169	-0.009
-610.230	-72.852	0.273	-0.102
-609.215	-29.006	-0.178	-0.104
-608.201	-16.910	0.211	-0.136
-607.186	29.013	-0.048	0.041
-606.171	7.547	-0.363	0.276
-605.157	595.844	-0.075	-0.188
-604.142	604.398	-0.032	-0.081
-603.128	-1.511	0.165	0.119
-602.113	-200.000	-0.007	-0.153
-601.098	-200.000	0.011	-0.083
-600.084	286.904	0.098	-0.181
-599.069	178.581	-0.078	0.116
-598.055	-200.000	-0.003	-0.240
-597.040	-114.431	-0.087	-0.017
-596.025	-79.813	-0.045	-0.016
-595.011	-66.018	-0.245	0.100
-593.996	20.178	0.270	-0.222
-592.982	-87.865	-0.256	0.078
-591.967	54.678	-0.240	-0.235
-590.952	-200.000	-0.017	0.116
-589.938	-200.000	0.012	0.069
-588.923	29.087	0.073	-0.063
-587.909	69.507	0.074	0.077
-586.894	-54.561	-0.141	0.065
-585.879	-200.000	0.026	-0.460
-584.865	482.895	0.056	-0.130
-583.850	101.563	-0.178	-0.211
-582.836	800.000	0.029	-0.100
-581.821	94.956	-0.103	-0.119
-580.806	104.571	0.068	-0.081
-579.792	-85.597	0.150	0.048
-578.777	-200.000	0.008	0.191
-577.763	800.000	-0.078	-0.227
-576.748	-35.593	0.492	0.272
-575.733	54.255	0.045	0.044
-574.719	-1.673	-0.208	-0.149
-573.704	800.000	0.075	-0.323
-572.690	90.907	0.087	-0.099
-571.675	-200.000	0.000	0.128
-570.661	11.918	0.208	0.163
-569.646	800.000	0.036	-0.135
-568.631	781.608	0.072	-0.201
-567.617	-200.000	-0.022	0.103
-566.602	-200.000	-0.033	-0.171
-565.588	-61.603	-0.195	-0.083
-564.573	258.997	-0.168	-0.295
-563.558	53.104	-0.123	0.119
-562.544	-200.000	-0.022	-0.350
-561.529	-27.682	-0.262	-0.154
-560.515	-200.000	-0.014	-0.145
-559.500	-69.619	-0.446	0.173
-558.485	800.000	0.024	0.074
-557.471	-91.034	-0.237	-0.069
-556.456	-30.847	0.049	0.028
-555.442	142.869	-0.047	0.064
-554.427	-93.505	0.108	0.030
-553.412	-63.628	-0.061	0.025
-552.398	-200.000	-0.057	0.314
-551.383	-156.064	-0.194	-0.012
-550.369	155.809	-0.178	0.249
-549.354	26.429	-0.169	-0.143
-548.339	-125.818	-0.390	0.060
-547.325	800.000	0.131	0.499
-546.310	-142.491	0.180	-0.018
-545.296	-131.682	-0.154	-0.020
-544.281	-46.751	-0.360	0.179
-543.266	10.058	-0.441	-0.340
-542.252	94.193	-0.210	-0.242
-541.237	-155.339	0.112	-0.007
-540.223	-129.495	0.034	-0.005
-539.208	81.052	-0.168	0.184
-538.193	-106.573	0.238	0.054
-537.179	-87.674	0.216	-0.066
-536.164	98.696	0.191	-0.224
-535.150	284.353	0.074	0.136
-534.135	12.512	-0.298	-0.233
-533.121	800.000	-0.063	0.260
-532.106	-200.000	-0.252	-0.001
-531.091	518.051	-0.069	-0.164
-530.077	-17.576	0.199	-0.127
-529.062	-43.737	0.123	0.063
-528.048	109.332	0.162	-0.197
-527.033	-200.000	0.008	0.056
-526.018	90.495	0.021	-0.024
-525.004	-100.467	0.405	0.102
-523.989	18.230	0.143	-0.116
-522.975	-200.000	0.020	-0.101
-521.960	-200.000	0.065	-0.408
-520.945	78.644	-0.281	-0.305
-519.931	-20.889	0.193	-0.120
-518.916	133.681	0.040	0.053
-517.902	108.265	-0.172	0.208
-516.887	-149.048	-0.128	0.010
-515.872	-137.824	0.066	-0.007
-514.858	141.613	-0.066	0.088
-513.843	288.491	0.100	-0.183
-512.829	-157.582	-0.394	-0.024
-511.814	-88.205	0.653	0.198
-510.799	-200.000	-0.209	-0.001
-509.785	121.744	0.226	0.286
-508.770	-121.656	0.057	0.010
-507.756	-88.214	-0.159	0.048
-506.741	-154.152	-0.357	0.025
-505.726	-200.000	-0.008	-0.074
-504.712	-200.000	0.071	0.384
-503.697	653.959	-0.076	0.198
-502.683	-200.000	-0.046	-0.223
-501.668	800.000	0.035	-0.106
-500.653	260.721	0.113	-0.197
-499.639	237.317	0.052	0.088
-498.624	-200.000	-0.025	0.227
-497.610	-45.438	0.047	0.024
-496.595	74.995	0.179	0.191
-495.581	637.895	-0.085	-0.219
-494.566	47.763	0.125	0.118
-493.551	-200.000	0.002	-0.203
-492.537	-18.080	0.419	-0.266
-491.522	-78.523	0.122	0.042
-490.508	44.141	0.121	0.112
-489.493	255.248	0.210	-0.365
-488.478	61.311	0.205	0.207
-487.464	-105.496	-0.220	-0.051
-486.449	-75.854	0.343	-0.123
-485.435	17.336	-0.106	-0.085
-484.420	-97.458	-0.146	0.038
-483.405	800.000	-0.036	0.100
-482.391	800.000	-0.049	0.137
-481.376	-25.677	0.099	0.059
-480.362	65.419	-0.223	-0.229
-479.347	-135.661	0.315	-0.038
-478.332	-142.971	-0.307	-0.030
-477.318	602.538	0.063	-0.159
-476.303	59.259	-0.084	-0.084
-475.289	129.211	0.206	-0.267
-474.274	448.761	0.062	0.139
-473.259	-14.839	-0.086	-0.056
-472.245	482.544	0.171	0.393
-471.230	-49.947	-0.160	0.077
-470.216	516.494	0.109	-0.259
-469.201	-45.757	-0.096	-0.048
-468.186	419.238	-0.062	-0.133
-467.172	154.888	-0.149	-0.208
-466.157	-56.117	0.266	0.120
-465.143	-103.673	-0.059	-0.014
-464.128	130.570	-0.058	0.075
-463.113	-2.019	-0.280	-0.199
-462.099	512.443	-0.022	0.051
-461.084	455.946	0.121	0.271
-460.070	36.744	0.085	-0.076
-459.055	651.614	0.153	-0.396
-458.040	299.796	0.119	0.221
-457.026	-200.000	0.015	0.152
-456.011	399.588	-0.024	0.050
-454.997	50.168	0.217	0.208
-453.982	460.977	-0.081	-0.182
-452.968	-78.163	-0.161	0.056
-451.953	58.836	-0.174	-0.173
-450.938	-142.686	0.254	0.025
-449.924	149.659	-0.145	-0.199
-448.909	-15.112	-0.325	0.211
-447.895	146.087	0.075	-0.101
-446.880	127.395	0.139	0.179
-445.865	-163.605	0.333	0.016
-444.851	800.000	0.088	-0.271
-443.836	-99.399	0.090	0.023
-442.822	210.529	0.071	0.112
-441.807	402.736	0.138	0.294
-440.792	-38.721	-0.041	0.022
-439.778	-83.594	0.112	-0.036
-438.763	175.939	0.151	-0.221
-437.749	-200.000	-0.075	-0.417
-436.734	-200.000	0.004	0.066
-435.719	-85.007	0.116	0.037
-434.705	-6.447	-0.255	0.176
-433.690	-147.292	-0.245	0.021
-432.676	800.000	-0.130	0.397
-431.661	80.547	-0.068	0.074
-430.646	800.000	-0.067	-0.222
-429.632	-2.587	0.055	0.039
-428.617	396.936	-0.120	-0.253
-427.603	121.186	0.094	-0.119
-426.588	89.235	0.164	0.185
-425.573	800.000	-0.049	-0.171
-424.559	1.512	-0.099	0.072
-423.544	-25.093	0.036	0.022
-422.530	800.000	-0.107	0.402
-421.515	-200.000	0.027	0.263
-420.500	-6.326	-0.127	-0.088
-419.486	-2.342	0.107	-0.076
-418.471	324.590	-0.053	0.103
-417.457	-165.570	-0.250	0.011
-416.442	-93.258	-0.194	-0.054
-415.428	-200.000	-0.002	-0.146
-414.413	-4.393	-0.308	0.215
-413.398	-124.113	0.343	-0.054
-412.384	486.314	0.160	-0.369
-411.369	-31.236	0.313	0.178
-410.355	-200.000	0.024	-0.255
-409.340	490.473	0.094	-0.217
-408.325	119.025	-0.111	-0.139
-407.311	22.254	0.035	-0.029
-406.296	407.808	-0.209	0.447
-405.282	-26.163	0.349	0.207
-404.267	-47.961	0.043	-0.021
-403.252	14.627	-0.159	0.126
-402.238	547.223	-0.059	0.142
-401.223	96.242	-0.145	-0.168
-400.209	121.671	-0.097	0.123
-399.194	-106.270	-0.433	0.098
-398.179	238.707	-0.139	0.234
-397.165	800.000	0.058	0.187
-396.150	57.730	-0.049	0.048
-395.136	-121.078	0.266	-0.045
-394.121	800.000	-0.073	0.228
-393.106	-77.956	0.317	-0.110
-392.092	800.000	-0.036	-0.141
-391.077	-71.984	0.055	-0.020
-390.063	-200.000	0.039	-0.235
-389.048	-200.000	-0.046	0.512
-388.033	68.467	-0.162	0.168
-387.019	268.988	-0.079	0.141
-386.004	-17.766	0.178	-0.113
-384.990	-144.641	-0.168	0.016
-383.975	800.000	-0.011	-0.048
-382.960	-103.791	0.246	0.058
-381.946	27.356	-0.100	0.085
-380.931	-200.000	0.000	0.009
-379.917	507.073	0.088	-0.205
-378.902	40.115	0.173	-0.157
-377.888	-150.758	0.453	0.035
-376.873	-132.575	-0.245	-0.032
-375.858	153.112	-0.358	-0.494
-374.844	-200.000	0.042	-0.364
-373.829	-63.031	-0.372	-0.155
-372.815	102.378	0.198	-0.233
-371.800	-133.710	-0.213	-0.027
-370.785	3.981	0.060	0.044
-369.771	128.006	0.040	0.051
-368.756	694.873	0.033	-0.086
-367.742	-89.611	0.116	0.034
-366.727	-26.963	0.352	0.207
-365.712	-42.460	-0.076	-0.039
-364.698	-138.696	0.094	0.010
-363.683	-200.000	0.023	0.216
-362.669	488.754	0.032	0.073
-361.654	93.132	0.210	0.239
-360.639	-200.000	-0.008	-0.083
-359.625	-156.319	0.187	0.012
-358.610	7.630	-0.095	-0.072
-357.596	-139.262	0.103	-0.011
-356.581	-200.000	0.030	0.346
-355.566	-46.733	-0.311	0.153
-354.552	-86.886	0.045	0.014
-353.537	643.705	-0.071	-0.183
-352.523	-200.000	-0.082	0.389
-351.508	15.394	-0.156	0.124
-350.493	-129.850	-0.223	-0.031
-349.479	17.664	-0.236	-0.189
-348.464	13.785	-0.070	-0.054
-347.450	-52.154	-0.426	-0.199
-346.435	800.000	0.064	-0.227
-345.420	65.414	0.139	-0.141
-344.406	-200.000	0.018	0.256
-343.391	122.502	-0.308	0.388
-342.377	-83.664	0.151	0.049
-341.362	800.000	0.092	0.271
-340.348	-9.930	0.387	0.260
-339.333	-24.192	0.188	0.113
-338.318	-91.243	0.081	-0.023
-337.304	-2.515	-0.197	-0.139
-336.289	31.298	-0.186	-0.161
-335.275	-200.000	-0.081	-0.519
-334.260	-200.000	0.016	0.150
-333.245	-69.852	0.429	0.165
-332.231	-79.376	0.134	-0.046
-331.216	222.093	0.159	0.257
-330.202	-3.233	0.157	0.110
-329.187	-133.154	0.400	0.051
-328.172	-44.815	-0.119	-0.060
-327.158	-31.167	0.244	-0.139
-326.143	-200.000	-0.003	-0.083
-325.129	-200.000	0.018	0.204
-324.114	20.211	-0.126	-0.102
-323.099	800.000	-0.098	-0.375
-322.085	800.000	-0.106	-0.338
-321.070	-58.188	-0.072	-0.031
-320.056	-117.316	-0.333	0.061
-319.041	-200.000	-0.012	0.180
-318.026	-200.000	-0.014	0.080
-317.012	800.000	-0.022	-0.063
-315.997	-195.077	0.348	-0.003
-314.983	-37.870	0.105	0.056
-313.968	-67.830	-0.437	-0.172
-312.953	198.431	0.070	-0.108
-311.939	-152.047	-0.079	-0.006
-310.924	800.000	-0.036	0.116
-309.910	-120.366	-0.293	0.050
-308.895	46.693	-0.147	0.138
-307.880	-90.446	-0.376	0.110
-306.866	-200.000	0.014	0.288
-305.851	249.920	-0.088	-0.150
-304.837	-110.214	-0.202	0.042
-303.822	420.005	-0.015	-0.033
-302.807	-12.748	-0.250	-0.164
-301.793	120.155	-0.078	0.097
-300.778	-22.386	0.145	0.088
-299.764	-52.737	-0.153	0.071
-298.749	670.909	0.119	0.310
-297.735	-200.000	-0.015	0.211
-296.720	-99.270	0.381	0.097
-295.705	-200.000	0.027	0.163
-294.691	-64.343	-0.271	-0.111
-293.676	-28.658	-0.238	-0.138
-292.662	-200.000	-0.002	-0.170
-291.647	629.759	-0.062	-0.156
-290.632	-40.817	0.361	0.188
-289.618	-200.000	-0.013	-0.175
-288.603	294.081	-0.051	-0.095
-287.589	-200.000	-0.021	0.142
-286.574	90.082	0.176	-0.197
-285.559	726.368	0.065	-0.175
-284.545	25.654	-0.127	0.107
-283.530	-37.760	0.158	0.085
-282.516	26.499	0.157	0.132
-281.501	-200.000	-0.007	0.054
-280.486	-101.370	0.276	0.068
-279.472	-164.292	0.187	0.009
-278.457	359.459	-0.129	-0.259
-277.443	263.542	-0.095	-0.166
-276.428	-170.642	-0.187	0.006
-275.413	64.698	0.127	0.129
-274.399	513.971	0.083	-0.194
-273.384	15.429	0.124	-0.098
-272.370	-200.000	0.039	0.181
-271.355	659.551	-0.037	-0.095
-270.340	-141.823	0.071	0.007
-269.326	-93.415	-0.171	0.048
-268.311	-108.793	0.182	-0.039
-267.297	-158.308	-0.068	-0.004
-266.282	-85.663	0.189	-0.059
-265.267	-150.379	0.349	-0.027
-264.253	-39.991	-0.294	-0.154
-263.238	265.046	0.175	0.307
-262.224	800.000	-0.058	0.200
-261.209	63.236	0.218	0.220
-260.195	800.000	-0.095	0.322
-259.180	48.566	0.014	-0.013
-258.165	-65.907	0.149	0.060
-257.151	-174.213	0.158	0.005
-256.136	800.000	0.157	0.562
-255.122	64.687	0.146	-0.148
-254.107	-140.646	-0.079	-0.008
-253.092	10.375	0.197	0.151
-252.078	-37.222	-0.384	0.206
-251.063	-15.339	0.075	0.048
-250.049	-32.224	-0.219	0.123
-249.034	-165.933	0.183	-0.008
-248.019	-19.969	0.246	0.153
-247.005	800.000	-0.074	-0.247
-245.990	253.182	0.097	0.167
-244.976	-19.064	0.257	0.160
-243.961	-27.223	-0.094	0.055
-242.946	207.019	-0.168	0.263
-241.932	40.153	0.211	-0.190
-240.917	800.000	-0.052	-0.174
-239.903	-110.927	-0.163	-0.034
-238.888	-115.799	-0.114	0.021
-237.873	-140.927	0.072	-0.007
-236.859	-28.120	0.089	0.051
-235.844	-200.000	0.003	0.081
-234.830	26.179	-0.184	0.154
-233.815	116.276	-0.272	-0.335
-232.800	412.546	0.073	0.156
-231.786	-114.380	-0.094	0.018
-230.771	-7.219	-0.241	0.164
-229.757	-200.000	0.008	0.082
-228.742	79.014	0.031	0.034
-227.727	165.824	0.130	-0.184
-226.713	504.364	0.194	-0.450
-225.698	-200.000	-0.028	0.237
-224.684	-200.000	0.023	0.340
-223.669	84.223	0.101	-0.110
-222.655	-84.282	-0.101	0.032
-221.640	49.545	0.227	-0.215
-220.625	-17.726	0.113	0.071
-219.611	402.192	0.199	0.420
-218.596	34.656	0.154	0.135
-217.582	-106.481	-0.310	0.069
-216.567	61.695	-0.401	-0.400
-215.552	-88.904	-0.116	0.034
-214.538	-200.000	0.024	-0.257
-213.523	-200.000	-0.028	-0.133
-212.509	-92.723	-0.124	0.035
-211.494	-122.437	0.269	-0.044
-210.479	-114.059	0.255	-0.050
-209.465	800.000	0.052	0.149
-208.450	25.570	0.042	-0.035
-207.436	168.256	0.110	0.157
-206.421	-22.906	-0.059	0.036
-205.406	-69.225	0.278	0.107
-204.392	-135.452	0.010	0.001
-203.377	191.296	0.218	-0.330
-202.363	151.924	0.069	-0.094
-201.348	-200.000	0.005	0.292
-200.333	-200.000	-0.008	-0.274
-199.319	41.623	0.052	0.047
-198.304	98.497	0.186	-0.215
-197.290	-148.735	0.108	-0.009
-196.275	119.943	0.052	0.065
-195.260	366.776	0.121	-0.244
-194.246	335.816	-0.158	0.307
-193.231	-108.725	0.356	-0.076
-192.217	-200.000	0.008	-0.477
-191.202	517.068	-0.103	0.241
-190.187	22.021	0.245	0.200
-189.173	9.992	-0.190	-0.145
-188.158	-48.277	-0.223	0.108
-187.144	-107.827	-0.167	0.036
-186.129	-200.000	-0.041	-0.198
-185.114	50.647	-0.383	0.363
-184.100	22.473	-0.077	0.063
-183.085	800.000	-0.035	0.137
-182.071	-200.000	0.005	0.074
-181.056	361.153	0.017	0.035
-180.042	-10.013	-0.127	-0.084
-179.027	-20.482	0.069	0.043
-178.012	-56.306	0.143	0.064
-176.998	800.000	0.067	0.278
-175.983	-200.000	-0.010	-0.309
-174.969	-200.000	0.001	-0.145
-173.954	83.467	0.252	0.274
-172.939	-200.000	-0.013	0.059
-171.925	-10.522	0.028	-0.019
-170.910	-58.190	0.143	0.062
-169.896	-200.000	-0.002	0.095
-168.881	-163.092	0.113	0.005
-167.866	-200.000	0.012	0.189
-166.852	29.802	0.244	0.208
-165.837	117.158	0.043	-0.053
-164.823	-200.000	0.006	-0.244
-163.808	800.000	-0.100	-0.322
-162.793	88.226	0.093	-0.103
-161.779	-200.000	0.013	0.283
-160.764	-84.400	0.207	-0.065
-159.750	-51.326	-0.057	-0.027
-158.735	304.496	0.198	0.367
-157.720	516.542	0.096	0.224
-156.706	800.000	0.119	-0.431
-155.691	-128.700	-0.240	0.034
-154.677	800.000	0.018	-0.070
-153.662	-54.573	-0.421	0.191
-152.647	269.389	-0.064	0.112
-151.633	-68.838	-0.255	0.099
-150.618	-25.875	0.191	0.112
-149.604	800.000	0.065	0.207
-148.589	-200.000	0.018	-0.253
-147.574	-200.000	0.056	-0.266
-146.560	-122.892	0.188	-0.030
-145.545	-200.000	0.085	-0.446
-144.531	672.857	0.109	-0.282
-143.516	25.685	0.227	-0.189
-142.502	-138.485	0.129	-0.014
-141.487	-5.826	0.166	0.113
-140.472	404.217	-0.044	0.092
-139.458	343.667	-0.083	-0.163
-138.443	403.580	0.062	-0.130
-137.429	800.000	-0.057	-0.242
-136.414	79.711	0.096	-0.103
-135.399	-200.000	-0.002	-0.068
-134.385	-200.000	-0.016	-0.106
-133.370	478.412	-0.064	-0.146
-132.356	-200.000	0.035	0.232
-131.341	329.446	0.081	-0.156
-130.326	-15.710	0.196	-0.125
-129.312	-27.379	-0.174	-0.101
-128.297	-62.638	0.088	-0.037
-127.283	195.554	0.118	-0.179
-126.268	-122.432	-0.305	0.050
-125.253	378.657	0.030	-0.061
-124.239	-3.081	-0.243	0.169
-123.224	-91.164	0.274	-0.078
-122.210	199.703	0.171	-0.262
-121.195	4.539	-0.314	0.230
