DTS Sentinel unit serial number:	SN413079Multiplexer serial number:	ORYXHardware model number:	OX4-SRSoftware version number:	ORYX F/W v4.00 Oryx Data Collector v3.7.2.0data status	okinstallation	princeton_trtdifferential loss correction	single-endedforward channel	channel 1reverse channel	N/Adate	2019/09/19time	12:26:35forward acquisition time	60.00reverse acquisition time	0.00gamma	496.2192k internal	0.2333k external	0.2333temperature offset calibration	1.0014default loss term (dB/km)	0.3790temperature slope calibration	1.0000multiplexer offset coefficient	1.0000multiplexer slope coefficient	1.0000fibre end	0.00T internal ref (°C)	26.89T ext. ref 1 (°C)	0.87T ext. ref 2 (°C)	24.27length (m)	temperature (°C)	Stokes	anti-Stokes-747.200	800.000	0.059	-0.245
-746.185	-99.064	-0.083	-0.021
-745.171	800.000	0.046	0.161
-744.156	-31.258	-0.322	0.183
-743.142	307.655	0.127	0.238
-742.127	125.239	-0.092	0.116
-741.112	800.000	0.080	-0.351
-740.098	93.622	-0.183	-0.209
-739.083	800.000	-0.062	0.200
-738.069	277.636	-0.062	-0.111
-737.054	-135.721	0.388	0.046
-736.039	-145.537	-0.202	-0.018
-735.025	-4.676	0.190	0.132
-734.010	-169.227	-0.196	0.007
-732.996	-200.000	0.003	-0.129
-731.981	-115.611	-0.115	0.022
-730.966	800.000	0.056	0.213
-729.952	-200.000	-0.025	0.232
-728.937	-102.000	-0.105	-0.025
-727.923	-71.724	0.207	0.078
-726.908	260.514	-0.187	0.325
-725.894	-200.000	-0.069	0.470
-724.879	-200.000	-0.028	-0.186
-723.864	-29.206	-0.352	-0.203
-722.850	-178.166	0.185	-0.004
-721.835	-73.904	-0.301	-0.110
-720.821	-145.141	-0.155	0.014
-719.806	-79.751	-0.059	-0.020
-718.791	602.263	0.030	0.074
-717.777	-76.010	0.208	0.074
-716.762	87.759	-0.410	-0.456
-715.748	-45.431	-0.144	-0.072
-714.733	552.183	-0.060	0.145
-713.718	246.738	-0.094	-0.160
-712.704	-4.722	-0.366	-0.254
-711.689	-200.000	-0.013	-0.067
-710.675	22.861	-0.138	-0.114
-709.660	-74.031	0.444	0.162
-708.645	192.182	0.006	-0.010
-707.631	-33.552	-0.138	0.077
-706.616	361.032	-0.194	-0.390
-705.602	293.243	-0.064	-0.117
-704.587	800.000	0.071	0.200
-703.572	307.653	0.125	-0.233
-702.558	-27.877	-0.372	0.217
-701.543	-77.793	-0.207	-0.072
-700.529	77.984	-0.141	-0.151
-699.514	443.598	0.099	-0.217
-698.499	8.864	0.164	-0.124
-697.485	-200.000	0.010	0.167
-696.470	800.000	-0.078	-0.323
-695.456	550.615	-0.054	0.130
-694.441	-92.968	-0.287	-0.080
-693.426	-97.126	0.171	0.045
-692.412	40.442	-0.118	0.107
-691.397	33.039	-0.177	-0.154
-690.383	534.766	0.217	0.516
-689.368	-16.071	0.278	0.177
-688.354	-135.574	-0.174	-0.021
-687.339	-200.000	0.003	-0.088
-686.324	468.843	0.144	-0.323
-685.310	800.000	-0.077	-0.246
-684.295	-14.669	0.123	-0.079
-683.281	286.701	0.201	-0.363
-682.266	20.996	0.068	0.055
-681.251	10.027	-0.196	-0.150
-680.237	-200.000	-0.012	0.095
-679.222	-118.717	0.218	0.039
-678.208	-10.295	0.105	-0.070
-677.193	-139.255	0.362	-0.039
-676.178	497.173	0.119	-0.274
-675.164	-200.000	-0.036	-0.341
-674.149	-42.388	-0.087	-0.044
-673.135	-43.428	-0.211	-0.107
-672.120	10.669	0.163	-0.125
-671.105	-200.000	0.039	-0.271
-670.091	-43.845	0.134	-0.068
-669.076	114.596	0.130	-0.159
-668.062	-7.912	-0.263	0.178
-667.047	-200.000	-0.011	0.198
-666.032	271.244	0.057	-0.100
-665.018	163.430	0.138	0.195
-664.003	-200.000	0.011	0.055
-662.989	-59.331	0.107	-0.046
-661.974	34.239	0.348	-0.304
-660.959	-200.000	0.023	0.258
-659.945	156.018	-0.181	0.250
-658.930	-13.328	-0.221	-0.144
-657.916	12.899	0.057	0.044
-656.901	49.958	-0.148	0.139
-655.886	-200.000	0.043	-0.347
-654.872	-200.000	-0.009	0.063
-653.857	-118.205	0.391	-0.070
-652.843	-166.198	-0.232	0.010
-651.828	134.064	-0.093	-0.120
-650.814	-93.802	-0.234	0.065
-649.799	-101.595	0.279	0.068
-648.784	800.000	0.115	0.365
-647.770	-200.000	-0.020	-0.121
-646.755	722.337	-0.031	0.082
-645.741	-127.730	0.250	0.036
-644.726	81.485	0.204	0.221
-643.711	32.059	0.184	0.159
-642.697	-139.546	0.145	-0.016
-641.682	800.000	0.088	0.354
-640.668	800.000	-0.096	0.267
-639.653	-47.788	0.262	0.127
-638.638	-200.000	0.018	0.103
-637.624	800.000	-0.008	0.023
-636.609	2.759	0.199	-0.144
-635.595	-163.745	0.213	-0.010
-634.580	-98.180	-0.316	-0.081
-633.565	124.050	0.286	-0.360
-632.551	3.077	-0.262	0.191
-631.536	19.188	0.423	-0.340
-630.522	-54.928	0.108	-0.049
-629.507	-120.453	-0.205	-0.035
-628.492	-172.371	-0.060	-0.002
-627.478	640.669	-0.155	-0.394
-626.463	342.765	-0.070	-0.138
-625.449	-81.180	-0.266	0.088
-624.434	286.806	0.142	-0.256
-623.419	574.330	0.074	0.181
-622.405	-137.413	0.135	0.015
-621.390	-107.688	-0.232	0.051
-620.376	-21.173	0.284	-0.174
-619.361	455.061	-0.164	-0.363
-618.346	54.438	-0.063	0.061
-617.332	-143.273	-0.288	-0.028
-616.317	-61.662	0.318	0.133
-615.303	315.111	-0.129	-0.244
-614.288	454.814	-0.109	-0.242
-613.273	103.727	0.097	0.113
-612.259	-169.238	-0.382	0.014
-611.244	12.413	0.030	0.023
-610.230	-121.041	-0.135	0.023
-609.215	778.209	-0.055	-0.149
-608.201	268.394	-0.192	0.336
-607.186	253.827	0.089	0.152
-606.171	245.417	0.095	0.159
-605.157	-200.000	-0.016	0.330
-604.142	-200.000	0.024	0.136
-603.128	51.048	0.066	0.063
-602.113	120.888	-0.165	0.206
-601.098	-38.479	0.145	0.077
-600.084	4.080	-0.122	0.089
-599.069	-200.000	0.058	0.287
-598.055	58.238	0.130	0.127
-597.040	202.217	0.056	0.086
-596.025	-75.773	0.309	-0.110
-595.011	-100.533	0.411	0.102
-593.996	47.348	-0.317	-0.295
-592.982	48.582	0.054	-0.051
-591.967	766.294	-0.063	0.172
-590.952	-200.000	0.021	-0.306
-589.938	-200.000	0.027	0.159
-588.923	-102.338	0.021	0.005
-587.909	-200.000	-0.009	0.172
-586.894	-200.000	-0.005	-0.175
-585.879	-200.000	0.034	-0.167
-584.865	-44.718	0.107	0.053
-583.850	-66.546	0.335	-0.133
-582.836	-56.331	-0.311	-0.138
-581.821	152.601	-0.247	0.338
-580.806	264.233	-0.106	-0.185
-579.792	-111.505	-0.186	-0.038
-578.777	-101.756	0.016	-0.004
-577.763	11.840	-0.270	0.207
-576.748	-80.709	-0.130	0.043
-575.733	218.845	-0.085	0.136
-574.719	800.000	-0.110	0.308
-573.704	800.000	-0.044	0.137
-572.690	166.475	0.187	0.265
-571.675	589.842	0.086	-0.212
-570.661	5.374	-0.065	-0.048
-569.646	-200.000	0.039	-0.302
-568.631	-200.000	0.025	-0.353
-567.617	-200.000	-0.012	-0.349
-566.602	736.514	-0.200	-0.536
-565.588	-200.000	-0.008	-0.049
-564.573	800.000	0.062	0.215
-563.558	117.313	-0.157	-0.192
-562.544	51.954	-0.193	0.184
-561.529	-143.205	-0.197	-0.019
-560.515	-200.000	0.016	-0.279
-559.500	-75.994	-0.175	-0.062
-558.485	-74.206	0.234	0.085
-557.471	510.348	-0.156	-0.363
-556.456	800.000	-0.040	0.130
-555.442	-200.000	0.033	0.294
-554.427	-136.631	-0.294	0.034
-553.412	159.219	0.137	0.190
-552.398	-21.174	0.054	-0.033
-551.383	14.914	0.306	-0.239
-550.369	-143.751	0.247	0.023
-549.354	-200.000	-0.005	0.044
-548.339	-200.000	-0.050	-0.233
-547.325	-200.000	-0.009	0.129
-546.310	-78.359	-0.261	-0.089
-545.296	-131.565	-0.153	-0.020
-544.281	363.862	0.055	-0.111
-543.266	-102.353	0.126	-0.030
-542.252	-70.475	-0.390	0.147
-541.237	800.000	-0.051	0.148
-540.223	-200.000	0.009	-0.283
-539.208	-200.000	-0.027	0.271
-538.193	-64.744	-0.090	0.036
-537.179	25.453	0.210	-0.175
-536.164	-90.343	-0.200	-0.058
-535.150	-149.201	0.324	0.026
-534.135	239.146	-0.101	0.168
-533.121	-139.687	0.042	0.004
-532.106	-53.472	-0.269	-0.123
-531.091	-72.759	0.249	0.091
-530.077	425.078	-0.151	-0.325
-529.062	800.000	-0.033	0.107
-528.048	800.000	-0.034	0.138
-527.033	164.387	-0.163	0.230
-526.018	-56.224	-0.207	0.092
-525.004	800.000	0.030	-0.105
-523.989	-200.000	0.038	0.279
-522.975	173.260	0.065	-0.094
-521.960	800.000	0.064	0.278
-520.945	67.303	-0.094	0.096
-519.931	-32.788	0.059	0.033
-518.916	47.082	-0.250	0.232
-517.902	-39.622	-0.525	0.274
-516.887	-200.000	0.018	0.317
-515.872	-56.829	-0.451	-0.199
-514.858	45.140	-0.287	-0.264
-513.843	-200.000	0.003	0.274
-512.829	-38.465	-0.022	0.011
-511.814	-200.000	0.022	0.246
-510.799	-126.488	-0.288	0.043
-509.785	116.136	0.174	-0.213
-508.770	130.764	0.150	-0.192
-507.756	407.755	-0.156	-0.328
-506.741	800.000	-0.071	0.196
-505.726	570.854	-0.079	0.192
-504.712	-133.367	0.093	0.012
-503.697	-93.398	0.157	0.043
-502.683	777.644	0.063	0.171
-501.668	403.635	-0.110	-0.231
-500.653	-10.041	0.219	0.145
-499.639	800.000	-0.080	0.225
-498.624	80.452	0.212	0.227
-497.610	346.595	0.076	-0.149
-496.595	-67.830	-0.393	0.153
-495.581	-200.000	-0.045	-0.209
-494.566	-186.644	0.360	0.005
-493.551	49.780	-0.162	-0.152
-492.537	-39.760	0.155	0.081
-491.522	-37.762	0.177	-0.094
-490.508	800.000	-0.069	-0.293
-489.493	-168.713	0.215	-0.008
-488.478	236.155	0.183	0.302
-487.464	-200.000	0.006	0.049
-486.449	-200.000	-0.018	-0.126
-485.435	800.000	0.104	0.293
-484.420	301.340	-0.205	-0.376
-483.405	-76.999	0.236	0.082
-482.391	-74.736	-0.195	-0.070
-481.376	17.207	0.114	-0.090
-480.362	-96.418	0.144	0.038
-479.347	-28.401	0.215	-0.124
-478.332	-200.000	-0.017	0.155
-477.318	-200.000	0.029	-0.185
-476.303	84.010	0.223	-0.242
-475.289	-200.000	0.014	0.226
-474.274	-39.456	0.048	0.025
-473.259	-200.000	0.019	-0.154
-472.245	-19.678	0.159	0.098
-471.230	-200.000	-0.003	-0.320
-470.216	65.632	0.121	-0.122
-469.201	106.234	-0.222	-0.262
-468.186	1.166	-0.104	-0.074
-467.172	180.299	0.194	0.284
-466.157	121.724	-0.333	-0.413
-465.143	800.000	0.091	-0.256
-464.128	165.467	-0.210	-0.295
-463.113	-93.740	0.322	-0.088
-462.099	67.381	-0.152	-0.155
-461.084	-200.000	0.013	-0.207
-460.070	316.220	0.094	-0.176
-459.055	-86.401	-0.088	0.027
-458.040	404.759	-0.088	-0.185
-457.026	-44.335	-0.257	-0.128
-456.011	-31.351	-0.210	0.118
-454.997	-148.861	-0.270	-0.022
-453.982	-3.614	0.057	-0.039
-452.968	92.633	0.181	0.203
-451.953	443.695	-0.064	0.141
-450.938	121.504	0.054	0.067
-449.924	-35.489	0.220	-0.119
-448.909	297.223	0.218	-0.398
-447.895	-120.921	-0.406	0.068
-446.880	14.560	0.091	-0.071
-445.865	-200.000	-0.038	0.343
-444.851	373.461	-0.135	-0.272
-443.836	20.072	-0.106	-0.085
-442.822	-8.323	0.277	0.185
-441.807	800.000	-0.083	-0.237
-440.792	-200.000	0.038	0.342
-439.778	58.531	-0.293	-0.286
-438.763	227.257	-0.115	0.186
-437.749	-200.000	0.034	-0.166
-436.734	-66.458	-0.214	0.084
-435.719	-41.626	0.183	-0.094
-434.705	-77.678	0.250	-0.086
-433.690	151.030	-0.137	0.185
-432.676	-0.261	-0.141	-0.100
-431.661	-82.628	0.185	0.060
-430.646	253.861	-0.122	-0.208
-429.632	800.000	0.019	-0.084
-428.617	-110.411	0.231	-0.048
-427.603	128.019	-0.061	-0.077
-426.588	-139.659	0.186	0.020
-425.573	800.000	-0.107	0.295
-424.559	-120.722	-0.167	-0.028
-423.544	129.629	-0.350	-0.444
-422.530	516.588	0.049	0.113
-421.515	800.000	0.062	0.184
-420.500	-145.929	-0.308	-0.027
-419.486	-61.580	0.208	-0.087
-418.471	65.155	-0.086	0.087
-417.457	-101.728	-0.013	-0.003
-416.442	-118.274	0.125	0.022
-415.428	800.000	-0.021	0.074
-414.413	-55.212	-0.093	0.042
-413.398	-11.136	0.219	0.143
-412.384	-39.649	0.242	-0.126
-411.369	41.826	-0.284	0.255
-410.355	800.000	0.088	0.280
-409.340	-80.617	-0.427	-0.141
-408.325	421.521	-0.045	-0.095
-407.311	8.039	0.131	0.098
-406.296	-150.567	-0.353	0.027
-405.282	-27.745	0.381	0.219
-404.267	76.656	-0.107	0.113
-403.252	189.231	0.178	-0.265
-402.238	585.332	-0.081	0.197
-401.223	791.083	0.092	-0.251
-400.209	199.723	-0.176	-0.267
-399.194	-64.768	-0.569	-0.229
-398.179	-10.061	0.193	0.127
-397.165	-200.000	-0.001	-0.351
-396.150	-200.000	0.048	0.258
-395.136	431.777	0.137	-0.295
-394.121	-96.466	-0.072	0.019
-393.106	-6.265	0.149	-0.101
-392.092	-200.000	0.036	-0.355
-391.077	-98.587	-0.214	-0.054
-390.063	-200.000	0.035	0.252
-389.048	800.000	0.062	0.255
-388.033	13.627	0.218	0.168
-387.019	-43.919	0.117	-0.058
-386.004	-22.276	-0.107	0.064
-384.990	800.000	0.118	-0.344
-383.975	180.333	0.052	-0.075
-382.960	-70.667	-0.215	-0.081
-381.946	-166.802	0.089	0.004
-380.931	-200.000	0.000	0.025
-379.917	30.429	0.460	0.389
-378.902	39.600	0.155	0.138
-377.888	111.901	0.110	0.132
-376.873	53.349	-0.020	-0.019
-375.858	-19.054	0.433	-0.267
-374.844	-162.538	-0.512	-0.025
-373.829	504.669	0.193	-0.443
-372.815	165.709	-0.153	-0.214
-371.800	124.896	-0.258	0.322
-370.785	800.000	0.078	-0.253
-369.771	-25.416	0.063	-0.037
-368.756	-121.081	-0.231	-0.038
-367.742	800.000	0.040	0.113
-366.727	103.299	-0.159	0.185
-365.712	348.820	0.068	0.134
-364.698	392.779	-0.112	-0.231
-363.683	118.328	0.113	0.139
-362.669	-61.391	-0.140	-0.058
-361.654	-170.657	0.218	0.007
-360.639	57.686	-0.110	0.107
-359.625	-171.374	-0.410	-0.014
-358.610	598.590	0.057	0.140
-357.596	-49.862	-0.251	-0.118
-356.581	-81.292	-0.174	-0.057
-355.566	204.122	0.153	-0.236
-354.552	-124.892	0.299	-0.046
-353.537	128.463	-0.198	0.250
-352.523	53.399	0.175	-0.167
-351.508	18.379	-0.120	0.095
-350.493	-200.000	-0.030	0.498
-349.479	532.548	0.115	0.270
-348.464	542.196	-0.093	0.219
-347.450	-82.942	-0.273	-0.087
-346.435	-71.574	0.090	-0.033
-345.420	5.464	0.114	-0.083
-344.406	4.547	-0.045	0.033
-343.391	128.680	0.117	-0.148
-342.377	-100.536	-0.467	0.114
-341.362	-52.519	0.285	0.130
-340.348	579.254	0.020	0.048
-339.333	553.249	-0.077	-0.184
-338.318	767.885	-0.051	0.138
-337.304	82.266	0.195	-0.210
-336.289	555.181	0.075	0.178
-335.275	-200.000	-0.051	0.341
-334.260	535.248	0.142	-0.333
-333.245	345.260	0.155	0.301
-332.231	800.000	-0.095	-0.262
-331.216	109.604	0.237	-0.281
-330.202	800.000	0.036	0.122
-329.187	-83.409	0.031	0.010
-328.172	-86.696	-0.187	-0.056
-327.158	-97.881	0.170	0.043
-326.143	211.615	0.229	0.357
-325.129	27.284	0.109	-0.091
-324.114	-200.000	-0.045	-0.221
-323.099	26.610	-0.111	0.092
-322.085	-7.258	0.171	-0.114
-321.070	-200.000	0.012	-0.336
-320.056	-200.000	0.004	0.418
-319.041	-13.544	0.239	0.153
-318.026	5.727	-0.126	0.092
-317.012	87.583	-0.102	-0.111
-315.997	-37.656	0.105	0.055
-314.983	-200.000	-0.005	-0.158
-313.968	52.265	0.269	0.254
-312.953	52.990	-0.143	0.136
-311.939	800.000	0.059	-0.226
-310.924	-61.363	-0.049	0.020
-309.910	138.012	0.192	0.249
-308.895	-200.000	-0.019	0.541
-307.880	57.302	0.141	0.136
-306.866	-24.130	0.273	-0.161
-305.851	-131.685	-0.251	-0.033
-304.837	800.000	0.038	0.110
-303.822	456.935	0.141	-0.310
-302.807	-68.460	0.274	-0.105
-301.793	800.000	-0.111	-0.309
-300.778	-55.027	0.323	0.144
-299.764	-47.303	0.166	-0.080
-298.749	704.393	-0.028	0.072
-297.735	178.355	0.191	0.275
-296.720	-200.000	0.005	-0.146
-295.705	401.482	-0.035	-0.073
-294.691	-46.833	0.251	-0.121
-293.676	800.000	-0.088	0.342
-292.662	673.016	-0.117	-0.299
-291.647	-21.744	0.151	0.091
-290.632	800.000	0.034	0.103
-289.618	780.304	-0.053	0.145
-288.603	-137.262	-0.121	0.014
-287.589	-143.645	0.229	-0.021
-286.574	6.872	-0.255	-0.187
-285.559	195.392	0.166	-0.249
-284.545	73.890	0.331	-0.343
-283.530	800.000	0.145	0.427
-282.516	-200.000	0.020	0.130
-281.501	477.688	0.058	0.130
-280.486	-34.478	0.033	-0.018
-279.472	-136.085	0.189	0.022
-278.457	-200.000	-0.026	0.147
-277.443	-200.000	-0.015	-0.066
-276.428	-30.721	0.108	-0.060
-275.413	330.656	-0.113	0.215
-274.399	192.820	-0.141	-0.210
-273.384	249.922	-0.197	0.330
-272.370	-200.000	-0.013	0.206
-271.355	-200.000	0.001	-0.516
-270.340	-200.000	0.018	0.296
-269.326	321.489	-0.175	0.329
-268.311	800.000	0.065	-0.264
-267.297	-16.192	0.269	0.169
-266.282	-200.000	0.055	0.281
-265.267	321.080	-0.116	0.218
-264.253	40.055	-0.090	0.080
-263.238	800.000	-0.036	-0.103
-262.224	-200.000	0.007	0.228
-261.209	112.277	0.134	0.160
-260.195	-17.611	-0.410	0.254
-259.180	131.628	0.081	-0.103
-258.165	341.623	-0.074	-0.142
-257.151	44.865	0.308	-0.280
-256.136	-200.000	0.026	0.212
-255.122	-84.516	0.225	0.070
-254.107	-32.985	0.250	-0.137
-253.092	107.278	-0.312	-0.366
-252.078	67.013	0.143	0.144
-251.063	241.744	0.153	-0.252
-250.049	-9.868	-0.121	-0.080
-249.034	550.926	0.144	0.342
-248.019	-38.298	-0.187	-0.098
-247.005	65.426	-0.123	-0.123
-245.990	-200.000	-0.038	0.285
-244.976	152.964	0.134	-0.181
-243.961	-95.180	0.256	-0.068
-242.946	-152.622	0.219	-0.015
-241.932	111.665	-0.067	-0.080
-240.917	-26.144	-0.119	0.069
-239.903	-25.871	-0.361	-0.209
-238.888	148.330	0.212	-0.282
-237.873	-200.000	-0.090	0.541
-236.859	800.000	-0.051	0.141
-235.844	-27.695	0.264	-0.151
-234.830	800.000	0.118	0.342
-233.815	17.773	-0.258	-0.203
-232.800	225.883	-0.208	-0.332
-231.786	-23.598	-0.375	0.222
-230.771	-18.022	0.122	0.076
-229.757	20.283	-0.046	0.037
-228.742	14.984	0.082	-0.063
-227.727	120.991	0.142	0.174
-226.713	-200.000	0.010	-0.046
-225.698	159.386	-0.080	-0.110
-224.684	800.000	-0.074	0.254
-223.669	62.663	-0.299	0.295
-222.655	-200.000	0.011	-0.085
-221.640	-103.883	0.145	0.033
-220.625	28.502	-0.129	-0.107
-219.611	153.313	-0.206	-0.277
-218.596	-169.003	-0.243	0.009
-217.582	-200.000	0.063	0.379
-216.567	-200.000	-0.015	-0.274
-215.552	-70.378	-0.374	-0.140
-214.538	229.989	0.145	-0.233
-213.523	54.853	-0.292	-0.277
-212.509	-200.000	-0.037	0.191
-211.494	274.949	-0.054	0.094
-210.479	494.324	0.019	-0.042
-209.465	-200.000	-0.012	-0.216
-208.450	-200.000	-0.041	-0.265
-207.436	-150.929	-0.194	-0.014
-206.421	109.219	-0.087	-0.102
-205.406	76.444	-0.103	0.107
-204.392	800.000	0.012	0.047
-203.377	133.132	-0.321	-0.409
-202.363	-71.262	-0.055	0.020
-201.348	169.656	0.050	0.070
-200.333	359.987	-0.068	0.134
-199.319	-9.285	-0.241	-0.159
-198.304	-200.000	0.016	-0.085
-197.290	-51.880	-0.207	-0.095
-196.275	-200.000	0.040	0.176
-195.260	154.940	-0.069	0.094
-194.246	-63.093	0.066	0.027
-193.231	-72.097	-0.108	0.039
-192.217	123.819	-0.105	-0.129
-191.202	-64.993	0.276	0.110
-190.187	-200.000	0.068	0.363
-189.173	-61.514	-0.283	-0.117
-188.158	-58.668	0.313	0.133
-187.144	-34.562	0.127	0.068
-186.129	-166.486	-0.187	-0.008
-185.114	-45.238	0.031	0.015
-184.100	597.687	-0.054	-0.131
-183.085	-200.000	0.028	0.312
-182.071	-139.628	0.155	0.016
-181.056	-100.749	-0.275	0.067
-180.042	-125.581	0.327	0.049
-179.027	58.317	0.323	-0.311
-178.012	-177.321	0.343	0.008
-176.998	-72.752	0.334	0.121
-175.983	210.695	-0.134	-0.208
-174.969	-36.157	0.264	0.140
-173.954	-103.198	0.228	0.053
-172.939	83.571	-0.183	-0.197
-171.925	69.361	0.127	-0.129
-170.910	800.000	-0.060	0.179
-169.896	174.346	0.164	-0.234
-168.881	-49.007	0.162	-0.076
-167.866	-200.000	-0.008	-0.104
-166.852	-81.348	0.258	-0.083
-165.837	-178.231	-0.236	-0.005
-164.823	26.672	-0.078	0.064
-163.808	-200.000	-0.042	0.216
-162.793	-52.395	0.382	0.174
-161.779	-200.000	-0.031	-0.298
-160.764	-200.000	0.047	-0.334
-159.750	-129.500	-0.333	-0.045
-158.735	-44.557	-0.226	-0.111
-157.720	20.160	0.040	-0.032
-156.706	243.088	0.069	0.113
-155.691	-200.000	-0.011	0.425
-154.677	-60.119	-0.225	0.094
-153.662	43.987	0.210	-0.189
-152.647	80.049	0.018	-0.019
-151.633	127.520	0.119	0.148
-150.618	170.998	-0.082	-0.116
-149.604	647.863	-0.088	0.222
-148.589	48.632	0.126	-0.116
-147.574	151.180	-0.079	-0.106
-146.560	800.000	-0.056	-0.196
-145.545	-13.595	0.115	-0.073
-144.531	-200.000	0.012	-0.173
-143.516	-32.955	-0.074	0.040
-142.502	75.585	-0.108	-0.112
-141.487	-200.000	-0.031	0.155
-140.472	737.452	0.165	0.434
-139.458	-200.000	-0.032	-0.241
-138.443	86.341	0.193	0.209
-137.429	697.196	0.049	0.125
-136.414	800.000	0.028	0.112
-135.399	-200.000	-0.019	-0.248
-134.385	697.338	-0.090	-0.231
-133.370	-92.645	-0.282	0.078
-132.356	-33.619	0.161	0.087
-131.341	800.000	-0.110	-0.333
-130.326	49.969	0.109	-0.101
-129.312	-99.882	-0.207	0.051
-128.297	-49.388	-0.214	0.100
-127.283	-126.725	0.342	-0.050
-126.268	-200.000	0.005	0.117
-125.253	-73.531	0.309	-0.111
-124.239	-200.000	0.032	0.359
-123.224	-118.541	-0.320	-0.056
-122.210	-200.000	-0.050	-0.215
-121.195	-200.000	-0.012	-0.051
