DTS Sentinel unit serial number:	SN413079Multiplexer serial number:	ORYXHardware model number:	OX4-SRSoftware version number:	ORYX F/W v4.00 Oryx Data Collector v3.7.2.0data status	okinstallation	princeton_trtdifferential loss correction	single-endedforward channel	channel 1reverse channel	N/Adate	2019/09/16time	13:14:35forward acquisition time	60.00reverse acquisition time	0.00gamma	496.2192k internal	0.2294k external	0.2294temperature offset calibration	0.9950default loss term (dB/km)	0.3790temperature slope calibration	1.0000multiplexer offset coefficient	1.0000multiplexer slope coefficient	1.0000fibre end	0.00T internal ref (°C)	41.11T ext. ref 1 (°C)	13.70T ext. ref 2 (°C)	39.15length (m)	temperature (°C)	Stokes	anti-Stokes-747.200	-163.840	0.212	-0.010
-746.185	86.749	0.237	0.268
-745.171	-200.000	0.110	0.000
-744.156	39.048	0.054	-0.049
-743.142	12.919	0.060	0.047
-742.127	-5.472	0.141	-0.099
-741.112	-200.000	-0.001	-0.092
-740.098	143.615	-0.097	-0.132
-739.083	261.668	-0.216	-0.382
-738.069	117.509	-0.147	0.185
-737.054	-169.361	-0.188	0.007
-736.039	-136.982	-0.285	-0.033
-735.025	-96.381	0.191	0.052
-734.010	297.127	-0.186	-0.350
-732.996	-15.645	-0.165	0.107
-731.981	488.878	0.097	0.226
-730.966	-200.000	-0.018	0.089
-729.952	4.439	-0.126	-0.095
-728.937	-66.487	-0.101	0.041
-727.923	-101.713	0.124	0.031
-726.908	800.000	-0.035	0.107
-725.894	-200.000	0.033	-0.286
-724.879	-20.620	0.209	-0.131
-723.864	14.974	-0.126	0.100
-722.850	800.000	0.042	0.188
-721.835	-200.000	0.017	0.163
-720.821	800.000	0.128	-0.416
-719.806	246.818	-0.151	-0.261
-718.791	106.944	-0.194	0.235
-717.777	-64.112	-0.269	0.112
-716.762	736.270	0.077	0.210
-715.748	-200.000	0.004	0.223
-714.733	83.465	0.080	0.089
-713.718	-200.000	-0.001	-0.323
-712.704	620.090	-0.162	-0.415
-711.689	-200.000	-0.020	0.097
-710.675	-3.203	-0.136	0.097
-709.660	800.000	-0.074	-0.228
-708.645	27.609	-0.107	-0.092
-707.631	-6.966	0.276	-0.191
-706.616	-72.870	-0.166	0.062
-705.602	80.120	-0.197	-0.216
-704.587	387.736	0.054	-0.114
-703.572	-200.000	-0.010	0.086
-702.558	-1.619	-0.287	0.207
-701.543	75.895	-0.207	0.223
-700.529	3.945	0.236	-0.176
-699.514	800.000	0.053	0.154
-698.499	-200.000	0.018	0.166
-697.485	115.588	0.049	-0.061
-696.470	-36.570	-0.142	-0.078
-695.456	800.000	-0.102	-0.302
-694.441	220.508	0.013	0.021
-693.426	800.000	0.037	0.147
-692.412	-200.000	0.018	-0.204
-691.397	-20.853	-0.349	-0.218
-690.383	-200.000	0.047	-0.359
-689.368	800.000	0.055	-0.161
-688.354	-75.847	-0.189	0.068
-687.339	-33.993	0.163	0.092
-686.324	-55.854	-0.291	-0.132
-685.310	-147.568	0.162	-0.014
-684.295	-142.492	0.189	-0.019
-683.281	379.304	0.134	0.280
-682.266	-200.000	-0.009	0.080
-681.251	130.143	0.070	0.092
-680.237	13.349	0.077	0.061
-679.222	31.734	0.064	0.056
-678.208	-63.738	0.218	0.091
-677.193	-77.041	-0.179	0.064
-676.178	-169.317	0.216	0.008
-675.164	-102.857	-0.073	-0.018
-674.149	-133.143	0.081	0.010
-673.135	-188.956	0.249	-0.003
-672.120	800.000	-0.034	-0.142
-671.105	-56.541	0.082	0.037
-670.091	-125.236	0.169	-0.026
-669.076	-81.273	-0.353	-0.119
-668.062	-200.000	-0.028	-0.315
-667.047	800.000	-0.041	0.116
-666.032	308.988	0.185	0.352
-665.018	42.289	-0.134	0.124
-664.003	375.082	-0.058	-0.120
-662.989	74.692	0.172	-0.184
-661.974	-200.000	-0.047	0.000
-660.959	-4.537	-0.184	-0.129
-659.945	-200.000	0.064	-0.338
-658.930	-114.172	-0.108	-0.021
-657.916	-138.490	-0.124	-0.014
-656.901	60.209	0.068	0.069
-655.886	800.000	0.070	0.204
-654.872	-45.514	0.102	-0.052
-653.857	-113.277	0.528	0.106
-652.843	-71.774	-0.163	-0.062
-651.828	383.519	-0.135	-0.282
-650.814	260.509	-0.201	0.353
-649.799	-169.685	-0.401	0.015
-648.784	800.000	-0.074	-0.282
-647.770	800.000	0.091	-0.318
-646.755	800.000	0.063	-0.189
-645.741	2.741	0.054	-0.040
-644.726	-51.803	-0.087	-0.041
-643.711	-88.549	0.141	-0.043
-642.697	65.080	0.112	-0.115
-641.682	404.755	-0.089	-0.192
-640.668	198.526	-0.120	0.186
-639.653	124.602	0.212	0.272
-638.638	448.592	-0.091	-0.203
-637.624	24.911	0.331	-0.279
-636.609	800.000	-0.073	-0.211
-635.595	167.180	0.162	-0.234
-634.580	63.666	0.175	0.179
-633.565	9.720	-0.135	0.104
-632.551	-200.000	-0.058	0.273
-631.536	-200.000	-0.015	0.082
-630.522	88.501	-0.086	0.097
-629.507	167.782	-0.118	0.171
-628.492	-200.000	0.000	-0.001
-627.478	428.296	0.076	0.167
-626.463	398.937	0.091	-0.193
-625.449	-4.451	-0.199	-0.140
-624.434	-171.125	0.174	0.006
-623.419	-147.576	-0.027	0.002
-622.405	-65.643	-0.207	-0.084
-621.390	800.000	-0.043	0.148
-620.376	-89.484	0.124	0.037
-619.361	-46.025	0.038	-0.019
-618.346	157.105	-0.085	0.120
-617.332	-110.925	-0.235	-0.049
-616.317	-200.000	-0.016	-0.081
-615.303	-200.000	-0.029	0.349
-614.288	800.000	0.009	-0.029
-613.273	-14.286	0.099	0.065
-612.259	800.000	-0.032	-0.132
-611.244	-200.000	0.008	-0.275
-610.230	6.546	-0.031	0.024
-609.215	8.727	-0.228	0.175
-608.201	11.661	0.062	-0.048
-607.186	800.000	0.084	0.260
-606.171	-42.575	-0.324	-0.168
-605.157	-200.000	0.048	-0.255
-604.142	-200.000	-0.023	-0.112
-603.128	-200.000	0.105	0.607
-602.113	240.708	0.064	-0.109
-601.098	-160.619	-0.182	-0.010
-600.084	800.000	0.128	-0.517
-599.069	-39.071	0.066	-0.035
-598.055	308.984	0.151	0.287
-597.040	-200.000	0.003	-0.084
-596.025	-82.912	0.235	-0.077
-595.011	-42.091	-0.036	-0.018
-593.996	74.487	-0.118	0.127
-592.982	109.900	-0.230	-0.281
-591.967	-200.000	0.012	0.075
-590.952	800.000	-0.027	-0.108
-589.938	-71.061	-0.067	0.026
-588.923	800.000	-0.035	-0.113
-587.909	800.000	-0.042	0.150
-586.894	347.872	-0.112	0.225
-585.879	-8.786	-0.286	-0.195
-584.865	800.000	0.043	0.156
-583.850	165.170	-0.022	-0.031
-582.836	219.538	-0.178	-0.290
-581.821	800.000	-0.029	-0.092
-580.806	30.247	0.177	-0.153
-579.792	227.145	0.059	-0.098
-578.777	691.962	0.078	0.208
-577.763	-200.000	-0.028	0.149
-576.748	238.082	0.095	0.160
-575.733	-14.485	-0.156	0.102
-574.719	-96.605	0.014	0.004
-573.704	232.353	0.068	-0.113
-572.690	792.731	-0.034	0.096
-571.675	144.557	0.032	0.044
-570.661	-59.273	-0.037	-0.016
-569.646	-7.614	-0.246	-0.169
-568.631	-17.619	0.266	0.170
-567.617	-200.000	0.005	-0.075
-566.602	7.887	-0.145	0.110
-565.588	-135.047	-0.107	0.013
-564.573	-34.554	-0.156	-0.087
-563.558	192.867	0.116	0.179
-562.544	-200.000	0.012	0.302
-561.529	-79.772	-0.154	0.053
-560.515	800.000	0.089	-0.301
-559.500	-200.000	0.053	-0.498
-558.485	-200.000	-0.031	-0.313
-557.471	-33.925	0.255	-0.143
-556.456	800.000	-0.093	0.302
-555.442	-200.000	-0.033	0.394
-554.427	46.284	-0.129	0.122
-553.412	264.887	0.220	-0.389
-552.398	-194.719	0.138	-0.001
-551.383	349.683	0.129	-0.258
-550.369	54.973	0.177	-0.173
-549.354	-200.000	0.044	0.343
-548.339	-163.299	-0.105	-0.005
-547.325	800.000	0.020	-0.060
-546.310	200.401	-0.047	0.074
-545.296	143.033	0.250	0.337
-544.281	323.499	-0.096	0.186
-543.266	-29.231	-0.177	-0.103
-542.252	-149.822	0.298	-0.024
-541.237	91.043	-0.223	0.254
-540.223	-91.644	0.170	-0.049
-539.208	41.397	0.110	-0.101
-538.193	-200.000	0.023	0.207
-537.179	-78.227	-0.220	-0.077
-536.164	626.743	0.085	0.218
-535.150	-103.585	-0.103	-0.024
-534.135	379.878	0.107	0.222
-533.121	-153.409	0.404	-0.028
-532.106	-200.000	0.025	-0.714
-531.091	-26.853	0.156	-0.092
-530.077	-131.068	0.042	-0.006
-529.062	800.000	0.103	0.320
-528.048	83.373	0.153	0.169
-527.033	800.000	-0.066	-0.290
-526.018	483.060	-0.095	0.219
-525.004	365.127	0.198	0.405
-523.989	800.000	0.099	-0.390
-522.975	189.195	-0.088	0.134
-521.960	108.479	-0.075	-0.091
-520.945	-26.322	-0.175	0.104
-519.931	383.652	0.193	0.403
-518.916	-200.000	0.012	-0.065
-517.902	646.294	-0.034	0.088
-516.887	-200.000	-0.021	-0.214
-515.872	-24.916	-0.116	-0.070
-514.858	-106.984	-0.128	0.029
-513.843	-183.202	-0.161	-0.003
-512.829	-176.324	0.251	-0.007
-511.814	438.030	0.119	0.264
-510.799	800.000	0.081	0.287
-509.785	-25.375	0.251	0.151
-508.770	-200.000	0.044	0.198
-507.756	-93.545	0.244	-0.068
-506.741	-32.484	0.188	0.106
-505.726	800.000	0.061	-0.173
-504.712	29.071	0.237	-0.204
-503.697	299.210	0.143	0.266
-502.683	719.817	-0.173	0.467
-501.668	-69.345	0.268	-0.104
-500.653	-200.000	-0.003	-0.309
-499.639	5.286	0.208	0.155
-498.624	390.339	-0.023	0.048
-497.610	-91.736	0.151	-0.044
-496.595	-121.532	0.281	-0.047
-495.581	-148.864	0.391	0.032
-494.566	112.572	0.177	0.217
-493.551	-200.000	0.001	0.138
-492.537	-75.167	0.136	-0.049
-491.522	-114.155	-0.384	0.075
-490.508	164.603	-0.224	0.320
-489.493	-200.000	0.009	-0.417
-488.478	70.464	-0.112	-0.117
-487.464	-200.000	0.017	0.122
-486.449	-200.000	0.028	0.128
-485.435	800.000	0.009	-0.037
-484.420	800.000	-0.055	-0.185
-483.405	800.000	0.085	0.346
-482.391	182.530	-0.120	0.179
-481.376	155.455	-0.031	0.043
-480.362	800.000	0.037	-0.113
-479.347	-200.000	-0.010	-0.098
-478.332	119.010	0.100	-0.126
-477.318	260.983	0.129	-0.226
-476.303	-200.000	0.020	-0.216
-475.289	39.141	-0.368	-0.333
-474.274	-54.404	-0.233	-0.107
-473.259	800.000	-0.115	0.430
-472.245	619.473	0.059	0.151
-471.230	45.472	-0.166	-0.155
-470.216	-78.598	0.037	-0.013
-469.201	-138.329	-0.316	0.035
-468.186	795.567	0.043	0.119
-467.172	-131.769	-0.108	-0.014
-466.157	146.120	0.182	0.247
-465.143	-97.124	-0.232	0.061
-464.128	97.577	0.083	-0.097
-463.113	-167.283	0.239	0.010
-462.099	-27.071	0.373	0.220
-461.084	-90.093	0.295	0.087
-460.070	-109.799	0.126	-0.027
-459.055	-82.026	-0.266	-0.088
-458.040	39.476	0.051	-0.046
-457.026	-41.780	-0.071	0.037
-456.011	-200.000	-0.009	-0.227
-454.997	-200.000	-0.050	0.404
-453.982	-116.143	0.023	-0.004
-452.968	72.318	0.146	-0.153
-451.953	-52.911	0.222	0.103
-450.938	-51.329	-0.031	-0.015
-449.924	-121.995	-0.183	-0.030
-448.909	-142.503	0.022	-0.002
-447.895	6.898	0.016	0.012
-446.880	-77.378	-0.363	-0.127
-445.865	368.497	-0.127	0.259
-444.851	-104.429	0.165	0.039
-443.836	-40.920	-0.081	-0.043
-442.822	-103.134	-0.191	0.046
-441.807	63.964	0.265	-0.269
-440.792	800.000	-0.056	0.230
-439.778	-38.746	0.297	-0.158
-438.763	-38.717	0.091	-0.049
-437.749	-73.225	-0.231	0.086
-436.734	800.000	0.084	0.320
-435.719	-119.442	-0.123	-0.022
-434.705	61.624	0.119	-0.120
-433.690	800.000	0.055	-0.196
-432.676	310.434	-0.077	-0.145
-431.661	-45.905	0.160	0.080
-430.646	-26.069	0.039	-0.023
-429.632	41.435	-0.197	-0.180
-428.617	-200.000	0.009	0.087
-427.603	153.552	-0.049	-0.068
-426.588	-146.721	0.242	0.021
-425.573	553.348	0.142	0.345
-424.559	210.851	0.110	-0.175
-423.544	-200.000	-0.044	-0.244
-422.530	-152.732	0.177	0.013
-421.515	182.857	-0.105	0.157
-420.500	-4.906	0.148	0.103
-419.486	800.000	-0.091	-0.256
-418.471	-103.947	-0.105	0.025
-417.457	800.000	0.051	0.209
-416.442	555.905	0.034	0.083
-415.428	69.737	-0.107	-0.111
-414.413	-200.000	-0.255	0.000
-413.398	-19.430	0.200	-0.125
-412.384	12.401	0.218	0.170
-411.369	-200.000	-0.052	0.272
-410.355	165.152	0.075	0.106
-409.340	21.420	-0.219	0.180
-408.325	800.000	0.094	-0.391
-407.311	800.000	0.039	0.170
-406.296	-58.679	0.224	-0.098
-405.282	291.106	0.182	-0.334
-404.267	-1.905	-0.278	-0.197
-403.252	-109.527	-0.084	-0.018
-402.238	-13.963	-0.308	0.201
-401.223	145.336	-0.131	-0.177
-400.209	486.713	0.087	-0.199
-399.194	-20.605	-0.393	0.244
-398.179	77.824	0.396	-0.425
-397.165	800.000	-0.056	-0.204
-396.150	733.465	-0.114	-0.308
-395.136	-140.240	0.197	0.021
-394.121	-105.353	-0.332	0.076
-393.106	-200.000	0.033	0.153
-392.092	74.393	0.110	0.117
-391.077	-200.000	0.016	0.167
-390.063	-200.000	-0.021	-0.126
-389.048	-34.144	0.153	-0.085
-388.033	424.078	-0.093	-0.202
-387.019	-200.000	-0.034	-0.255
-386.004	-102.904	-0.102	-0.024
-384.990	479.207	0.131	0.300
-383.975	800.000	-0.034	-0.109
-382.960	-200.000	0.036	-0.208
-381.946	-168.562	0.207	0.008
-380.931	41.447	-0.159	-0.145
-379.917	69.087	0.101	0.105
-378.902	47.663	0.070	-0.066
-377.888	-21.593	0.241	0.148
-376.873	-120.932	-0.157	0.027
-375.858	-200.000	0.026	-0.296
-374.844	-45.060	-0.144	-0.072
-373.829	-24.022	-0.129	-0.078
-372.815	103.208	-0.111	-0.132
-371.800	26.530	-0.186	-0.157
-370.785	-32.994	0.077	-0.043
-369.771	-25.374	0.277	-0.165
-368.756	-200.000	0.011	-0.074
-367.742	800.000	0.021	0.070
-366.727	-200.000	0.127	-0.615
-365.712	-90.909	-0.334	0.097
-364.698	798.567	0.002	-0.006
-363.683	272.664	0.137	0.244
-362.669	-20.452	0.254	-0.157
-361.654	596.702	-0.071	0.177
-360.639	800.000	-0.050	0.163
-359.625	-104.138	-0.354	-0.083
-358.610	-135.227	-0.161	0.020
-357.596	-106.713	-0.122	-0.027
-356.581	-23.776	0.219	-0.132
-355.566	-115.354	-0.097	0.018
-354.552	2.869	-0.237	0.173
-353.537	-15.774	0.148	0.095
-352.523	-124.746	-0.065	-0.010
-351.508	337.461	0.175	-0.342
-350.493	-69.772	-0.070	0.027
-349.479	365.633	0.156	0.317
-348.464	615.181	-0.052	0.131
-347.450	-200.000	-0.028	-0.463
-346.435	81.430	-0.152	0.166
-345.420	-200.000	-0.038	-0.201
-344.406	121.122	0.190	-0.238
-343.391	-97.297	-0.233	0.061
-342.377	-200.000	-0.004	0.397
-341.362	488.268	-0.148	0.341
-340.348	800.000	0.040	0.123
-339.333	-76.762	-0.193	0.068
-338.318	317.489	-0.178	-0.339
-337.304	-81.577	0.217	0.072
-336.289	428.128	0.031	0.067
-335.275	-153.844	-0.333	-0.023
-334.260	-200.000	0.011	0.233
-333.245	-126.321	0.301	0.045
-332.231	-52.307	-0.210	0.098
-331.216	-200.000	0.012	0.229
-330.202	-200.000	0.010	0.391
-329.187	69.245	0.211	0.218
-328.172	-163.664	0.087	-0.004
-327.158	410.838	0.137	0.292
-326.143	41.658	0.181	-0.165
-325.129	-97.732	-0.090	0.023
-324.114	538.181	-0.097	-0.231
-323.099	-200.000	0.022	-0.462
-322.085	-200.000	-0.016	0.095
-321.070	24.631	0.036	0.030
-320.056	800.000	-0.099	-0.316
-319.041	-56.867	0.067	-0.030
-318.026	476.558	-0.127	0.290
-317.012	7.039	0.108	0.081
-315.997	-4.193	-0.107	-0.075
-314.983	29.052	0.104	-0.088
-313.968	95.972	0.159	0.183
-312.953	-200.000	-0.027	0.131
-311.939	-200.000	-0.020	0.146
-310.924	407.485	0.098	-0.208
-309.910	121.040	0.156	0.196
-308.895	-61.109	-0.134	0.057
-307.880	-200.000	0.068	0.420
-306.866	97.996	-0.118	0.136
-305.851	-160.957	-0.328	-0.017
-304.837	108.125	0.173	0.208
-303.822	-200.000	0.021	0.183
-302.807	-108.665	0.279	-0.060
-301.793	5.355	0.177	0.131
-300.778	57.297	0.153	-0.151
-299.764	182.842	-0.154	0.228
-298.749	-89.507	-0.445	0.131
-297.735	-200.000	-0.015	-0.125
-296.720	64.361	-0.103	0.104
-295.705	-200.000	0.020	-0.337
-294.691	-200.000	-0.043	-0.315
-293.676	231.679	0.066	0.108
-292.662	-48.549	-0.153	-0.074
-291.647	800.000	-0.102	-0.308
-290.632	-200.000	0.024	-0.467
-289.618	800.000	-0.017	0.056
-288.603	4.056	0.144	0.106
-287.589	-121.812	-0.189	0.031
-286.574	-47.502	-0.027	-0.013
-285.559	4.748	-0.115	0.085
-284.545	-200.000	0.056	0.335
-283.530	800.000	0.034	-0.097
-282.516	-83.431	0.039	0.013
-281.501	-33.750	-0.130	-0.072
-280.486	-102.578	-0.235	0.056
-279.472	-11.680	-0.175	0.115
-278.457	405.044	-0.138	0.291
-277.443	94.769	-0.261	-0.299
-276.428	-124.865	0.181	-0.028
-275.413	338.276	0.060	-0.118
-274.399	-87.273	-0.561	-0.171
-273.384	-58.924	-0.080	0.035
-272.370	199.250	0.081	0.125
-271.355	152.269	0.128	-0.175
-270.340	-200.000	0.025	-0.258
-269.326	466.368	0.070	0.157
-268.311	239.412	-0.046	-0.077
-267.297	-200.000	0.010	-0.118
-266.282	-62.580	0.219	-0.091
-265.267	481.617	0.057	0.130
-264.253	-143.899	0.041	-0.004
-263.238	-103.966	-0.111	-0.026
-262.224	-53.969	-0.214	0.098
-261.209	124.477	-0.032	-0.041
-260.195	393.019	-0.109	-0.227
-259.180	-74.771	0.364	-0.131
-258.165	-139.697	0.164	0.017
-257.151	75.560	0.129	0.137
-256.136	-156.995	-0.265	-0.016
-255.122	8.126	0.062	0.046
-254.107	800.000	0.107	0.310
-253.092	-191.962	0.188	0.002
-252.078	66.957	0.105	-0.107
-251.063	108.030	0.039	-0.046
-250.049	-96.937	0.292	-0.077
-249.034	50.327	-0.049	0.046
-248.019	-18.687	0.102	-0.064
-247.005	-107.512	0.114	-0.025
-245.990	-3.421	-0.097	-0.068
-244.976	-53.714	0.064	-0.029
-243.961	-23.551	-0.153	-0.092
-242.946	800.000	-0.002	-0.007
-241.932	90.957	0.147	-0.166
-240.917	-92.260	0.392	-0.111
-239.903	800.000	0.013	0.039
-238.888	800.000	-0.085	0.358
-237.873	-116.239	-0.152	0.028
-236.859	-72.872	-0.079	0.029
-235.844	164.863	0.059	-0.083
-234.830	-102.170	-0.100	-0.024
-233.815	219.146	0.092	0.147
-232.800	-18.308	-0.254	-0.159
-231.786	-164.316	0.379	-0.017
-230.771	-200.000	-0.030	0.272
-229.757	-200.000	0.011	-0.253
-228.742	-200.000	-0.044	0.198
-227.727	-140.395	0.252	0.026
-226.713	-200.000	-0.031	0.208
-225.698	-200.000	0.034	0.194
-224.684	485.007	-0.091	0.209
-223.669	-145.613	-0.223	-0.020
-222.655	370.431	0.063	0.127
-221.640	-96.924	0.109	0.029
-220.625	-51.186	0.263	-0.124
-219.611	204.484	-0.198	-0.307
-218.596	68.522	-0.213	-0.219
-217.582	-91.710	-0.198	-0.056
-216.567	-17.014	0.126	-0.080
-215.552	-200.000	0.003	-0.156
-214.538	-200.000	-0.001	0.156
-213.523	454.703	0.132	0.294
-212.509	800.000	0.051	0.178
-211.494	175.747	-0.062	0.090
-210.479	-200.000	0.016	-0.246
-209.465	-200.000	-0.076	-0.377
-208.450	-28.772	-0.261	0.150
-207.436	33.342	-0.216	0.188
-206.421	-95.578	-0.026	0.007
-205.406	-200.000	0.010	0.065
-204.392	155.266	-0.191	0.263
-203.377	261.689	0.014	-0.025
-202.363	95.103	-0.216	0.246
-201.348	800.000	0.039	0.119
-200.333	793.505	-0.010	0.026
-199.319	-200.000	-0.012	-0.059
-198.304	78.274	-0.268	0.286
-197.290	60.612	-0.245	0.243
-196.275	-55.819	0.261	-0.117
-195.260	73.602	0.246	-0.258
-194.246	134.287	-0.092	-0.119
-193.231	175.161	0.087	0.126
-192.217	-117.887	0.086	-0.015
-191.202	599.103	0.146	-0.362
-190.187	31.821	-0.080	0.069
-189.173	800.000	0.035	-0.136
-188.158	-155.457	-0.324	0.021
-187.144	125.346	0.151	-0.191
-186.129	-159.518	-0.175	-0.010
-185.114	-135.632	-0.306	0.036
-184.100	-105.380	-0.446	0.102
-183.085	785.814	0.027	0.075
-182.071	238.579	0.106	0.177
-181.056	54.265	0.090	0.086
-180.042	-85.616	0.121	-0.038
-179.027	92.036	-0.203	0.228
-178.012	800.000	0.094	-0.284
-176.998	-142.090	-0.328	0.033
-175.983	800.000	-0.153	-0.443
-174.969	-175.076	-0.195	0.005
-173.954	460.505	0.036	-0.080
-172.939	67.292	-0.090	-0.092
-171.925	-146.248	0.300	0.026
-170.910	800.000	0.133	0.467
-169.896	371.286	-0.103	-0.209
-168.881	-200.000	-0.006	-0.436
-167.866	-35.302	0.164	0.089
-166.852	-51.161	0.188	0.088
-165.837	-200.000	-0.027	-0.247
-164.823	60.050	-0.308	-0.304
-163.808	15.176	0.151	0.118
-162.793	-43.911	-0.263	0.132
-161.779	-62.987	0.172	-0.071
-160.764	147.917	0.069	-0.093
-159.750	-73.045	0.221	-0.081
-158.735	130.956	-0.197	0.252
-157.720	-200.000	-0.032	0.227
-156.706	-200.000	0.015	-0.068
-155.691	155.716	-0.101	-0.139
-154.677	-62.846	0.115	-0.048
-153.662	-200.000	0.008	0.038
-152.647	363.908	0.060	0.120
-151.633	10.881	0.155	-0.118
-150.618	800.000	0.046	0.155
-149.604	204.435	0.081	-0.125
-148.589	63.963	0.111	-0.111
-147.574	800.000	0.043	-0.122
-146.560	-200.000	0.030	-0.251
-145.545	-66.003	0.245	-0.098
-144.531	-38.370	-0.067	0.036
-143.516	96.388	0.030	0.034
-142.502	-200.000	0.000	0.249
-141.487	-93.007	-0.055	0.015
-140.472	355.821	0.119	0.236
-139.458	-123.499	0.142	-0.023
-138.443	-200.000	-0.031	0.303
-137.429	785.340	0.081	-0.223
-136.414	415.086	-0.028	-0.060
-135.399	-200.000	-0.044	-0.222
-134.385	70.027	0.193	0.199
-133.370	-200.000	0.025	0.203
-132.356	-40.206	0.123	-0.064
-131.341	800.000	0.095	-0.319
-130.326	-200.000	-0.019	0.167
-129.312	800.000	-0.069	-0.208
-128.297	571.120	0.026	-0.064
-127.283	41.099	-0.157	0.142
-126.268	-13.244	-0.412	0.267
-125.253	-88.803	-0.313	0.093
-124.239	-14.556	0.194	0.125
-123.224	22.908	0.356	-0.291
-122.210	-165.828	0.226	-0.010
-121.195	-144.217	-0.439	0.041
