DTS Sentinel unit serial number:	SN413079Multiplexer serial number:	ORYXHardware model number:	OX4-SRSoftware version number:	ORYX F/W v4.00 Oryx Data Collector v3.7.2.0data status	okinstallation	princeton_trtdifferential loss correction	single-endedforward channel	channel 1reverse channel	N/Adate	2019/09/11time	20:12:11forward acquisition time	60.00reverse acquisition time	0.00gamma	496.2192k internal	0.2302k external	0.2302temperature offset calibration	1.0038default loss term (dB/km)	0.3790temperature slope calibration	1.0000multiplexer offset coefficient	1.0000multiplexer slope coefficient	1.0000fibre end	0.00T internal ref (°C)	38.31T ext. ref 1 (°C)	1.42T ext. ref 2 (°C)	31.71length (m)	temperature (°C)	Stokes	anti-Stokes-747.200	-6.327	-0.202	-0.140
-746.185	17.108	-0.170	0.138
-745.171	-96.880	-0.053	0.014
-744.156	147.127	-0.078	0.107
-743.142	-200.000	0.041	0.344
-742.127	-200.000	0.052	0.307
-741.112	800.000	0.070	-0.241
-740.098	449.429	-0.164	0.368
-739.083	-200.000	-0.043	0.488
-738.069	26.698	-0.091	0.078
-737.054	800.000	0.038	0.169
-736.039	139.001	-0.243	-0.325
-735.025	-87.069	0.261	0.081
-734.010	144.460	-0.079	0.107
-732.996	421.789	-0.159	-0.347
-731.981	301.133	-0.141	-0.266
-730.966	-200.000	0.030	0.143
-729.952	-122.797	-0.372	0.061
-728.937	-49.327	0.244	-0.119
-727.923	-200.000	0.009	-0.064
-726.908	-168.859	-0.187	0.007
-725.894	-200.000	-0.051	0.293
-724.879	800.000	-0.042	-0.156
-723.864	176.925	0.074	0.110
-722.850	-200.000	-0.038	0.259
-721.835	-105.169	0.483	0.112
-720.821	800.000	0.030	0.094
-719.806	-45.552	-0.105	-0.053
-718.791	-80.589	0.175	-0.059
-717.777	-142.281	0.318	0.032
-716.762	800.000	-0.088	0.259
-715.748	-133.535	0.125	-0.016
-714.733	-31.290	-0.053	-0.031
-713.718	-200.000	-0.013	-0.113
-712.704	200.122	-0.197	-0.308
-711.689	415.181	0.041	-0.089
-710.675	35.403	0.265	-0.237
-709.660	-169.639	0.206	-0.008
-708.645	-200.000	-0.029	0.136
-707.631	-51.479	0.060	0.029
-706.616	800.000	0.060	-0.267
-705.602	800.000	0.043	-0.147
-704.587	800.000	-0.059	-0.254
-703.572	-98.857	-0.012	0.003
-702.558	-17.558	0.117	-0.075
-701.543	229.345	-0.163	0.271
-700.529	179.506	-0.130	-0.194
-699.514	-97.477	-0.154	0.041
-698.499	601.625	-0.053	-0.133
-697.485	34.945	-0.106	-0.095
-696.470	9.729	-0.283	0.219
-695.456	-144.967	-0.239	0.022
-694.441	-10.728	-0.241	-0.162
-693.426	783.689	-0.061	0.170
-692.412	70.505	-0.212	-0.223
-691.397	-156.745	0.413	0.026
-690.383	623.756	-0.169	0.433
-689.368	80.495	0.055	0.060
-688.354	-74.257	-0.256	-0.094
-687.339	-130.719	0.214	-0.029
-686.324	-32.127	0.233	-0.133
-685.310	20.362	-0.151	-0.124
-684.295	43.197	-0.100	-0.092
-683.281	54.782	0.218	-0.214
-682.266	47.178	0.131	-0.124
-681.251	45.989	0.223	-0.210
-680.237	-173.633	0.260	0.008
-679.222	-0.264	0.048	0.035
-678.208	-200.000	-0.047	-0.243
-677.193	71.440	-0.203	-0.214
-676.178	713.866	0.129	-0.348
-675.164	-200.000	-0.010	0.291
-674.149	-14.461	-0.203	-0.132
-673.135	-50.676	0.132	0.063
-672.120	-92.449	-0.166	0.047
-671.105	-27.319	-0.111	-0.066
-670.091	154.294	0.216	-0.301
-669.076	-74.993	0.221	0.080
-668.062	-196.189	0.110	0.001
-667.047	147.214	-0.157	0.214
-666.032	0.982	0.216	0.157
-665.018	502.760	-0.120	-0.282
-664.003	-200.000	-0.011	-0.264
-662.989	-190.174	-0.114	0.001
-661.974	-200.000	-0.220	-0.000
-660.959	-8.913	-0.158	0.108
-659.945	-61.637	0.049	0.021
-658.930	-120.221	0.152	-0.026
-657.916	-121.055	-0.203	-0.035
-656.901	-113.322	-0.353	0.070
-655.886	80.071	0.172	-0.188
-654.872	800.000	0.033	-0.141
-653.857	-37.456	0.366	0.199
-652.843	-110.724	0.106	-0.022
-651.828	245.439	0.032	-0.054
-650.814	97.824	0.070	-0.082
-649.799	800.000	-0.012	-0.044
-648.784	-62.685	0.198	-0.083
-647.770	800.000	0.019	0.065
-646.755	-200.000	0.019	-0.279
-645.741	759.222	-0.067	-0.184
-644.726	155.480	-0.174	-0.244
-643.711	191.856	-0.166	0.255
-642.697	31.791	0.148	-0.129
-641.682	131.694	0.262	-0.342
-640.668	-105.375	0.232	0.054
-639.653	-56.999	-0.437	0.196
-638.638	800.000	0.020	0.058
-637.624	338.557	-0.173	-0.343
-636.609	66.942	0.106	-0.110
-635.595	-66.391	-0.043	-0.017
-634.580	-162.792	-0.113	0.006
-633.565	-100.745	0.088	-0.022
-632.551	-87.094	-0.159	0.049
-631.536	-13.983	0.123	0.081
-630.522	800.000	0.057	-0.244
-629.507	28.514	-0.059	0.051
-628.492	28.730	0.100	0.086
-627.478	8.629	0.162	-0.124
-626.463	409.899	0.048	-0.104
-625.449	762.640	-0.065	0.178
-624.434	277.741	0.088	0.160
-623.419	800.000	-0.057	-0.218
-622.405	-11.146	0.199	0.133
-621.390	17.998	0.114	0.092
-620.376	2.188	0.393	-0.288
-619.361	286.342	0.088	0.162
-618.346	697.867	-0.097	0.259
-617.332	-200.000	0.007	-0.326
-616.317	-200.000	-0.036	-0.165
-615.303	-65.816	0.205	-0.083
-614.288	-36.249	-0.190	0.104
-613.273	-129.153	-0.075	0.011
-612.259	101.949	-0.187	-0.221
-611.244	-6.419	-0.226	0.156
-610.230	90.406	-0.170	0.193
-609.215	104.176	-0.231	0.276
-608.201	99.239	0.083	-0.097
-607.186	627.150	-0.079	0.202
-606.171	160.056	-0.069	-0.097
-605.157	-115.081	-0.199	-0.038
-604.142	-185.569	0.370	-0.006
-603.128	-112.140	-0.041	0.008
-602.113	-78.762	-0.243	-0.084
-601.098	-126.877	0.251	0.037
-600.084	-20.125	0.231	0.144
-599.069	404.587	0.138	-0.295
-598.055	65.634	-0.146	0.150
-597.040	-30.724	-0.128	0.073
-596.025	-197.980	-0.254	-0.002
-595.011	-200.000	0.018	-0.225
-593.996	-200.000	-0.012	0.429
-592.982	650.896	0.070	-0.182
-591.967	-110.163	-0.161	0.034
-590.952	-0.059	0.088	0.064
-589.938	-200.000	-0.034	0.174
-588.923	-35.177	0.182	0.100
-587.909	74.660	0.127	-0.135
-586.894	232.851	-0.005	0.008
-585.879	151.503	0.067	-0.092
-584.865	-103.254	0.192	0.046
-583.850	800.000	0.120	0.340
-582.836	707.531	0.065	0.174
-581.821	-73.181	-0.331	-0.123
-580.806	-187.084	-0.168	-0.002
-579.792	-152.116	-0.170	-0.013
-578.777	-157.323	0.115	0.007
-577.763	-200.000	-0.048	-0.323
-576.748	3.032	-0.096	0.071
-575.733	-60.142	-0.022	0.010
-574.719	-43.857	-0.129	0.066
-573.704	103.847	-0.273	0.325
-572.690	800.000	-0.043	0.143
-571.675	-200.000	0.048	-0.261
-570.661	-40.640	0.145	-0.076
-569.646	-74.264	0.139	0.051
-568.631	-114.409	-0.095	-0.019
-567.617	-134.952	-0.318	-0.039
-566.602	50.320	0.166	0.159
-565.588	495.699	0.011	0.027
-564.573	-108.054	0.386	-0.085
-563.558	137.348	-0.140	-0.185
-562.544	800.000	-0.047	0.165
-561.529	190.947	0.067	-0.102
-560.515	-70.795	-0.266	0.102
-559.500	-179.149	0.057	0.001
-558.485	31.848	-0.334	-0.291
-557.471	-200.000	-0.017	0.114
-556.456	-200.000	-0.035	0.227
-555.442	7.184	-0.093	0.070
-554.427	-41.626	-0.126	-0.065
-553.412	-200.000	0.000	-0.105
-552.398	-200.000	0.008	-0.089
-551.383	10.698	0.121	-0.094
-550.369	-141.365	-0.035	0.004
-549.354	73.735	-0.146	0.154
-548.339	800.000	-0.144	-0.445
-547.325	-185.743	-0.062	-0.001
-546.310	-151.579	-0.101	-0.008
-545.296	-83.249	-0.191	-0.062
-544.281	98.258	-0.028	-0.032
-543.266	376.977	0.144	0.296
-542.252	-200.000	-0.042	0.218
-541.237	-200.000	0.054	0.328
-540.223	463.721	0.052	-0.117
-539.208	-112.206	-0.120	-0.024
-538.193	-78.576	0.177	0.061
-537.179	-21.231	0.153	-0.094
-536.164	800.000	0.068	0.262
-535.150	177.450	-0.084	0.123
-534.135	-97.753	0.105	0.027
-533.121	-14.076	0.064	0.042
-532.106	69.567	0.202	-0.210
-531.091	800.000	0.068	-0.266
-530.077	-200.000	-0.059	0.279
-529.062	-164.393	-0.338	-0.016
-528.048	386.870	0.109	-0.228
-527.033	-200.000	-0.021	-0.155
-526.018	-115.550	-0.433	0.082
-525.004	297.684	0.241	0.448
-523.989	-105.505	0.247	-0.057
-522.975	800.000	0.024	0.105
-521.960	309.961	-0.102	-0.192
-520.945	21.289	-0.123	0.101
-519.931	321.688	-0.130	-0.250
-518.916	13.826	-0.123	-0.096
-517.902	-37.819	-0.218	-0.117
-516.887	-137.959	0.153	-0.017
-515.872	119.136	-0.179	-0.224
-514.858	122.755	0.206	-0.260
-513.843	-200.000	0.020	0.216
-512.829	53.322	0.125	-0.121
-511.814	-128.594	0.129	-0.018
-510.799	-200.000	0.031	0.167
-509.785	-200.000	-0.022	-0.378
-508.770	-10.614	0.130	0.087
-507.756	3.071	-0.240	-0.176
-506.741	-83.567	-0.042	0.013
-505.726	36.711	-0.153	-0.136
-504.712	-200.000	0.015	0.167
-503.697	11.743	-0.244	0.189
-502.683	-0.209	0.156	0.112
-501.668	-200.000	0.013	-0.218
-500.653	-124.239	-0.045	0.007
-499.639	35.185	0.237	0.209
-498.624	800.000	0.024	0.075
-497.610	80.758	-0.126	0.138
-496.595	-36.630	-0.290	0.157
-495.581	-142.685	-0.313	0.031
-494.566	191.464	-0.076	-0.116
-493.551	-59.877	-0.141	-0.061
-492.537	1.107	-0.208	-0.151
-491.522	107.181	-0.286	-0.344
-490.508	95.425	-0.255	-0.293
-489.493	0.565	0.320	0.231
-488.478	-42.026	0.144	0.074
-487.464	-131.890	0.202	-0.027
-486.449	163.435	-0.045	-0.064
-485.435	370.313	0.116	-0.237
-484.420	-74.896	0.151	0.055
-483.405	453.505	0.092	-0.204
-482.391	-73.705	-0.228	0.084
-481.376	78.334	-0.249	0.268
-480.362	-78.244	-0.196	-0.068
-479.347	-99.936	-0.252	0.064
-478.332	93.300	0.209	-0.238
-477.318	-156.748	0.152	-0.009
-476.303	800.000	-0.039	-0.160
-475.289	-100.758	0.045	-0.011
-474.274	443.126	0.083	0.184
-473.259	-152.321	-0.164	0.012
-472.245	93.212	-0.162	0.184
-471.230	248.043	-0.091	-0.155
-470.216	33.230	0.211	-0.184
-469.201	46.497	-0.228	-0.213
-468.186	-111.840	-0.285	0.058
-467.172	292.789	0.079	-0.145
-466.157	-200.000	0.047	-0.258
-465.143	-200.000	-0.057	0.260
-464.128	-167.950	0.069	-0.003
-463.113	800.000	0.045	0.165
-462.099	111.794	0.055	-0.067
-461.084	239.432	0.070	-0.117
-460.070	-200.000	-0.005	0.275
-459.055	146.895	-0.040	-0.054
-458.040	-108.256	0.084	-0.018
-457.026	752.274	-0.143	-0.391
-456.011	-188.362	-0.183	0.002
-454.997	-90.061	-0.203	-0.060
-453.982	27.078	-0.243	-0.206
-452.968	104.066	0.135	-0.160
-451.953	-200.000	0.011	0.145
-450.938	160.006	-0.215	-0.302
-449.924	-119.915	-0.418	-0.072
-448.909	-34.917	-0.234	-0.129
-447.895	800.000	0.110	0.338
-446.880	-186.035	0.252	0.004
-445.865	-98.636	0.181	-0.046
-444.851	-71.474	0.114	0.043
-443.836	-7.667	0.222	0.151
-442.822	-109.028	0.184	-0.040
-441.807	-65.882	0.053	0.021
-440.792	-18.444	0.136	-0.086
-439.778	-114.940	-0.112	0.021
-438.763	-98.766	-0.152	-0.039
-437.749	-51.578	-0.153	-0.072
-436.734	-172.072	-0.118	-0.004
-435.719	800.000	-0.100	-0.397
-434.705	170.295	0.165	-0.238
-433.690	-19.047	-0.157	0.098
-432.676	-96.461	-0.310	0.083
-431.661	-169.706	-0.158	0.006
-430.646	339.780	-0.049	-0.096
-429.632	136.116	-0.054	-0.070
-428.617	-28.849	-0.158	-0.092
-427.603	-126.572	0.199	-0.030
-426.588	450.102	-0.134	-0.298
-425.573	-30.124	-0.181	-0.104
-424.559	-177.011	-0.304	-0.008
-423.544	-63.170	-0.299	0.124
-422.530	-11.885	-0.121	0.080
-421.515	800.000	-0.097	0.300
-420.500	295.327	0.135	-0.250
-419.486	-193.179	0.161	0.001
-418.471	143.159	-0.299	-0.400
-417.457	156.629	-0.277	0.385
-416.442	125.179	0.200	0.254
-415.428	-26.067	0.037	0.022
-414.413	241.493	-0.019	-0.032
-413.398	-113.656	-0.183	0.036
-412.384	69.780	0.121	0.125
-411.369	-115.009	-0.256	-0.049
-410.355	-200.000	0.054	0.247
-409.340	114.184	0.091	0.111
-408.325	-47.959	0.141	-0.069
-407.311	-200.000	-0.010	-0.219
-406.296	44.255	-0.071	0.065
-405.282	-200.000	-0.028	0.220
-404.267	271.974	0.249	-0.441
-403.252	-131.284	0.209	0.028
-402.238	359.699	0.207	0.417
-401.223	102.340	0.079	-0.093
-400.209	-65.025	-0.104	0.042
-399.194	177.385	-0.161	0.235
-398.179	27.522	0.124	-0.105
-397.165	650.900	0.145	-0.373
-396.150	44.534	-0.226	0.208
-395.136	-146.335	0.269	-0.024
-394.121	196.190	-0.151	0.231
-393.106	-55.982	-0.223	-0.100
-392.092	39.745	-0.193	0.174
-391.077	255.471	0.115	-0.197
-390.063	728.171	0.076	-0.203
-389.048	360.148	0.125	-0.252
-388.033	-133.430	-0.303	-0.038
-387.019	-24.486	-0.358	-0.214
-386.004	782.422	0.090	0.247
-384.990	-13.048	-0.077	-0.050
-383.975	-93.987	0.261	0.072
-382.960	-200.000	0.008	0.435
-381.946	296.870	0.039	0.071
-380.931	8.999	0.263	-0.199
-379.917	431.563	0.104	0.226
-378.902	-200.000	0.011	-0.090
-377.888	-31.990	-0.179	-0.101
-376.873	-112.134	-0.161	0.033
-375.858	800.000	-0.011	0.041
-374.844	300.342	-0.152	-0.282
-373.829	185.180	-0.106	-0.159
-372.815	-200.000	0.478	0.002
-371.800	82.097	0.195	-0.213
-370.785	-200.000	-0.003	-0.142
-369.771	-141.926	0.091	-0.009
-368.756	294.335	0.189	0.347
-367.742	-18.614	-0.224	-0.140
-366.727	-135.703	0.685	-0.082
-365.712	121.530	0.195	0.245
-364.698	-112.751	-0.470	0.094
-363.683	-0.162	-0.199	0.142
-362.669	271.259	-0.042	0.073
-361.654	76.068	0.124	0.132
-360.639	-48.374	0.253	-0.123
-359.625	-200.000	-0.047	0.262
-358.610	-140.660	0.265	-0.028
-357.596	800.000	-0.071	0.269
-356.581	-31.814	-0.204	-0.115
-355.566	11.004	0.273	0.209
-354.552	-46.335	-0.123	-0.061
-353.537	157.354	0.099	-0.138
-352.523	331.449	0.154	0.297
-351.508	-167.641	0.163	-0.006
-350.493	-54.489	0.146	-0.067
-349.479	-103.117	0.137	-0.032
-348.464	-80.939	0.228	-0.076
-347.450	80.223	-0.081	0.087
-346.435	-26.617	0.121	-0.071
-345.420	-56.227	-0.089	0.040
-344.406	-11.028	0.157	-0.104
-343.391	-42.366	0.139	-0.071
-342.377	800.000	0.063	0.244
-341.362	800.000	-0.032	-0.119
-340.348	540.843	-0.042	-0.101
-339.333	102.128	0.088	0.103
-338.318	-200.000	0.042	-0.375
-337.304	272.318	0.035	0.063
-336.289	-79.441	0.303	0.103
-335.275	88.362	0.047	0.053
-334.260	170.737	0.166	-0.238
-333.245	-68.611	0.036	-0.014
-332.231	-119.270	0.119	0.021
-331.216	58.345	0.209	-0.205
-330.202	-70.037	0.295	-0.113
-329.187	-93.358	-0.238	0.066
-328.172	21.344	0.211	-0.172
-327.158	20.516	0.174	-0.141
-326.143	800.000	0.021	0.064
-325.129	-200.000	-0.009	0.295
-324.114	-21.104	-0.413	0.254
-323.099	30.870	0.268	0.230
-322.085	-97.381	0.346	0.090
-321.070	-58.301	-0.167	-0.073
-320.056	135.911	-0.030	-0.040
-319.041	-47.410	0.235	0.115
-318.026	-17.787	0.156	-0.098
-317.012	-200.000	-0.020	0.176
-315.997	-170.735	0.166	0.006
-314.983	-143.877	0.450	-0.043
-313.968	10.044	0.078	0.059
-312.953	-54.439	0.124	-0.056
-311.939	303.861	-0.072	0.134
-310.924	44.981	0.250	-0.231
-309.910	-6.257	0.253	0.173
-308.895	245.383	-0.101	0.171
-307.880	-200.000	0.049	0.330
-306.866	-107.273	-0.422	0.093
-305.851	-110.588	0.375	0.078
-304.837	98.508	0.232	0.268
-303.822	57.911	0.113	-0.111
-302.807	-150.061	0.277	0.022
-301.793	243.585	0.018	0.029
-300.778	447.826	0.178	0.393
-299.764	78.666	-0.316	0.338
-298.749	65.700	-0.160	-0.162
-297.735	800.000	0.096	-0.362
-296.720	779.606	0.064	-0.175
-295.705	56.583	0.063	-0.061
-294.691	13.999	-0.189	0.148
-293.676	-49.241	-0.302	-0.144
-292.662	-98.446	-0.262	-0.067
-291.647	-200.000	0.047	0.283
-290.632	-200.000	0.048	0.330
-289.618	22.317	-0.317	-0.259
-288.603	-200.000	0.050	-0.399
-287.589	-106.369	-0.056	-0.013
-286.574	30.169	0.147	-0.126
-285.559	-104.780	-0.430	-0.099
-284.545	-175.618	0.174	-0.005
-283.530	-80.383	-0.332	0.111
-282.516	583.115	0.035	0.087
-281.501	-10.026	0.263	0.175
-280.486	153.684	-0.183	-0.251
-279.472	-200.000	-0.033	0.365
-278.457	256.367	0.103	-0.176
-277.443	-200.000	-0.019	-0.084
-276.428	-98.083	0.235	-0.061
-275.413	-21.532	-0.173	0.105
-274.399	-98.632	0.071	-0.018
-273.384	149.353	0.233	-0.315
-272.370	-200.000	-0.009	-0.118
-271.355	381.941	0.099	-0.203
-270.340	-9.098	-0.080	-0.054
-269.326	-10.197	-0.146	-0.097
-268.311	369.104	-0.057	0.115
-267.297	-200.000	0.043	0.194
-266.282	17.838	-0.225	-0.180
-265.267	-8.217	-0.325	0.219
-264.253	140.022	0.117	-0.155
-263.238	25.587	0.160	-0.133
-262.224	-162.378	-0.149	-0.007
-261.209	1.987	-0.180	-0.130
-260.195	313.254	0.126	-0.238
-259.180	386.089	-0.280	0.579
-258.165	-47.334	0.058	-0.028
-257.151	-38.365	0.091	0.048
-256.136	-87.481	0.472	0.143
-255.122	800.000	0.073	0.238
-254.107	7.860	-0.094	-0.071
-253.092	-48.404	0.116	0.056
-252.078	-98.117	0.092	0.024
-251.063	-149.843	-0.361	-0.028
-250.049	-200.000	0.012	0.372
-249.034	-50.452	0.152	0.072
-248.019	-115.346	0.195	-0.037
-247.005	-39.867	-0.023	-0.012
-245.990	-19.159	0.226	0.140
-244.976	101.624	0.059	-0.069
-243.961	800.000	0.085	0.241
-242.946	34.208	0.067	-0.058
-241.932	-164.665	-0.287	0.013
-240.917	-200.000	-0.010	-0.153
-239.903	-168.122	0.354	-0.014
-238.888	229.578	-0.083	0.135
-237.873	-132.028	-0.266	0.035
-236.859	-92.076	0.404	-0.114
-235.844	20.795	0.131	0.106
-234.830	-119.806	-0.295	0.051
-233.815	-200.000	0.010	0.180
-232.800	-200.000	-0.013	0.160
-231.786	560.718	-0.012	0.028
-230.771	318.377	0.059	-0.112
-229.757	-200.000	-0.059	0.370
-228.742	149.146	0.248	0.336
-227.727	-77.042	-0.090	0.031
-226.713	800.000	0.111	-0.435
-225.698	279.767	-0.032	-0.058
-224.684	800.000	-0.078	-0.308
-223.669	78.196	0.216	-0.230
-222.655	-200.000	0.006	0.109
-221.640	-154.450	0.445	-0.030
-220.625	-138.283	-0.115	0.013
-219.611	-21.106	-0.178	0.109
-218.596	-101.293	0.172	-0.042
-217.582	4.753	0.163	-0.119
-216.567	59.652	-0.190	-0.187
-215.552	530.280	0.058	0.136
-214.538	800.000	-0.089	0.389
-213.523	-200.000	-0.013	-0.114
-212.509	-200.000	-0.041	-0.240
-211.494	-12.784	-0.047	-0.031
-210.479	-10.479	0.279	0.184
-209.465	-200.000	0.056	0.291
-208.450	5.165	0.189	0.139
-207.436	-89.466	-0.097	-0.029
-206.421	-77.210	0.013	0.005
-205.406	145.545	0.263	0.351
-204.392	800.000	0.033	-0.133
-203.377	-200.000	0.004	0.059
-202.363	-200.000	0.026	-0.351
-201.348	2.589	-0.168	-0.122
-200.333	-200.000	0.011	0.083
-199.319	-114.515	-0.111	0.021
-198.304	-145.763	-0.194	-0.017
-197.290	-200.000	-0.033	0.310
-196.275	143.696	0.142	0.189
-195.260	561.325	0.017	0.042
-194.246	-123.320	0.189	0.030
-193.231	-55.889	-0.188	0.084
-192.217	800.000	-0.060	0.177
-191.202	-115.078	0.596	0.113
-190.187	270.808	0.041	-0.072
-189.173	-38.306	-0.214	0.113
-188.158	-7.261	0.088	-0.059
-187.144	-62.440	0.160	0.067
-186.129	150.939	0.169	0.229
-185.114	360.047	-0.038	-0.075
-184.100	-124.473	-0.094	0.015
-183.085	17.533	0.126	0.100
-182.071	-200.000	-0.017	-0.120
-181.056	-149.465	0.154	0.012
-180.042	-69.878	0.263	-0.100
-179.027	-7.389	0.254	-0.171
-178.012	-150.072	0.320	-0.025
-176.998	-130.261	0.091	0.012
-175.983	114.833	-0.072	0.088
-174.969	-95.474	-0.114	0.031
-173.954	-200.000	-0.058	-0.376
-172.939	-102.688	-0.192	0.046
-171.925	204.436	-0.117	0.181
-170.910	-138.304	-0.376	0.041
-169.896	800.000	-0.131	-0.374
-168.881	-83.306	-0.417	-0.133
-167.866	800.000	-0.010	-0.045
-166.852	800.000	-0.061	0.221
-165.837	-28.696	-0.175	-0.100
-164.823	116.238	0.241	-0.295
-163.808	-117.715	-0.294	0.053
-162.793	-57.398	-0.209	0.091
-161.779	311.255	0.226	0.422
-160.764	800.000	0.039	-0.112
-159.750	430.419	-0.013	-0.028
-158.735	-162.216	0.130	-0.006
-157.720	800.000	-0.047	-0.173
-156.706	-37.037	-0.260	0.139
-155.691	-187.797	-0.269	0.004
-154.677	137.781	-0.251	-0.327
-153.662	-79.538	0.210	0.071
-152.647	239.000	0.103	0.171
-151.633	-162.109	-0.447	0.022
-150.618	107.715	0.176	0.209
-149.604	143.388	-0.172	-0.228
-148.589	-200.000	0.046	-0.298
-147.574	59.504	-0.035	-0.035
-146.560	-90.042	-0.044	-0.013
-145.545	280.478	0.085	0.151
-144.531	90.603	0.077	-0.086
-143.516	13.070	0.210	0.162
-142.502	-125.493	0.309	-0.047
-141.487	-13.534	-0.215	-0.139
-140.472	-16.898	-0.161	-0.101
-139.458	62.784	-0.138	0.138
-138.443	-200.000	0.023	-0.205
-137.429	307.865	0.120	0.222
-136.414	-46.890	0.118	-0.057
-135.399	-144.854	-0.326	-0.030
-134.385	-100.246	0.335	-0.083
-133.370	-0.946	-0.335	0.236
-132.356	-132.153	0.080	0.010
-131.341	70.736	0.110	-0.113
-130.326	-200.000	-0.003	-0.217
-129.312	334.195	0.174	0.334
-128.297	-154.855	0.252	-0.017
-127.283	-5.140	-0.166	-0.114
-126.268	21.700	-0.166	-0.135
-125.253	-200.000	-0.035	0.340
-124.239	800.000	0.039	0.161
-123.224	28.561	-0.095	-0.080
-122.210	501.204	-0.055	0.126
-121.195	-14.994	0.172	-0.110
