DTS Sentinel unit serial number:	SN413079Multiplexer serial number:	ORYXHardware model number:	OX4-SRSoftware version number:	ORYX F/W v4.00 Oryx Data Collector v3.7.2.0data status	okinstallation	princeton_trtdifferential loss correction	single-endedforward channel	channel 1reverse channel	N/Adate	2019/09/15time	10:14:35forward acquisition time	60.00reverse acquisition time	0.00gamma	496.2192k internal	0.2309k external	0.2309temperature offset calibration	0.9988default loss term (dB/km)	0.3790temperature slope calibration	1.0000multiplexer offset coefficient	1.0000multiplexer slope coefficient	1.0000fibre end	0.00T internal ref (°C)	34.25T ext. ref 1 (°C)	5.03T ext. ref 2 (°C)	29.73length (m)	temperature (°C)	Stokes	anti-Stokes-747.200	-114.303	0.159	0.031
-746.185	-116.635	-0.497	0.093
-745.171	60.775	-0.042	-0.042
-744.156	-50.810	-0.218	-0.104
-743.142	-67.065	-0.343	-0.137
-742.127	47.578	0.118	0.112
-741.112	-44.859	-0.240	-0.122
-740.098	394.783	0.089	0.187
-739.083	466.306	0.074	0.169
-738.069	-119.297	0.270	0.048
-737.054	298.369	-0.050	0.093
-736.039	69.317	0.069	-0.072
-735.025	-9.795	0.083	0.056
-734.010	-200.000	-0.073	0.336
-732.996	-166.559	0.053	0.002
-731.981	-27.041	-0.178	-0.105
-730.966	1.445	-0.038	0.028
-729.952	-46.335	-0.035	0.018
-728.937	800.000	-0.045	-0.164
-727.923	800.000	-0.088	0.342
-726.908	-200.000	-0.002	-0.173
-725.894	800.000	0.048	-0.192
-724.879	479.357	-0.094	0.216
-723.864	800.000	0.030	0.118
-722.850	-68.783	-0.125	0.049
-721.835	-116.873	0.270	-0.050
-720.821	-99.341	0.164	-0.042
-719.806	-200.000	0.005	-0.254
-718.791	58.806	0.223	-0.222
-717.777	-200.000	-0.008	0.059
-716.762	-200.000	-0.037	0.260
-715.748	164.764	-0.028	-0.040
-714.733	-28.979	-0.159	-0.092
-713.718	-35.265	-0.204	-0.113
-712.704	707.036	-0.091	-0.244
-711.689	-84.033	0.165	0.053
-710.675	-84.173	0.254	-0.082
-709.660	286.095	-0.083	-0.151
-708.645	-109.694	0.307	-0.066
-707.631	-124.218	0.137	-0.022
-706.616	0.398	0.047	0.034
-705.602	-69.755	-0.208	-0.081
-704.587	33.581	0.212	-0.187
-703.572	-66.447	-0.268	-0.108
-702.558	308.760	0.104	-0.198
-701.543	7.978	0.406	-0.309
-700.529	236.010	-0.139	0.233
-699.514	-44.752	0.158	0.080
-698.499	-200.000	0.059	-0.335
-697.485	80.007	-0.228	-0.248
-696.470	-200.000	0.018	-0.363
-695.456	-200.000	0.014	-0.203
-694.441	441.131	-0.038	-0.085
-693.426	800.000	-0.024	0.081
-692.412	-65.517	0.126	0.051
-691.397	91.031	-0.060	0.069
-690.383	-34.658	-0.171	0.095
-689.368	-78.077	-0.142	0.050
-688.354	800.000	0.105	-0.319
-687.339	-200.000	-0.012	-0.271
-686.324	800.000	0.029	-0.086
-685.310	76.451	-0.189	-0.203
-684.295	131.847	-0.139	0.181
-683.281	349.350	-0.080	-0.160
-682.266	-200.000	0.083	0.512
-681.251	399.545	-0.024	-0.050
-680.237	375.391	-0.157	0.324
-679.222	800.000	0.054	0.175
-678.208	625.188	0.099	0.253
-677.193	800.000	0.120	0.399
-676.178	-50.118	-0.196	0.094
-675.164	-54.290	-0.314	0.145
-674.149	355.974	-0.050	0.101
-673.135	800.000	0.048	0.183
-672.120	800.000	-0.074	-0.328
-671.105	-117.397	-0.149	0.027
-670.091	800.000	0.027	-0.090
-669.076	533.956	-0.077	0.185
-668.062	45.349	0.097	-0.091
-667.047	42.237	0.058	-0.053
-666.032	409.521	-0.086	-0.185
-665.018	-112.751	-0.135	0.027
-664.003	-129.082	-0.282	-0.040
-662.989	800.000	0.105	-0.320
-661.974	-200.000	0.076	-0.492
-660.959	681.998	-0.088	0.232
-659.945	263.108	0.112	0.198
-658.930	-34.920	-0.087	-0.048
-657.916	800.000	0.088	-0.291
-656.901	-200.000	-0.056	-0.332
-655.886	800.000	0.049	-0.208
-654.872	-4.694	0.144	-0.101
-653.857	-108.566	-0.207	0.045
-652.843	146.861	0.199	0.270
-651.828	298.524	-0.112	-0.208
-650.814	-24.586	0.232	-0.140
-649.799	-112.396	0.310	0.063
-648.784	26.139	-0.324	-0.274
-647.770	-86.504	-0.113	0.035
-646.755	127.346	-0.209	0.268
-645.741	-74.745	0.095	0.035
-644.726	282.369	0.200	-0.364
-643.711	-200.000	0.030	0.188
-642.697	618.498	-0.125	-0.319
-641.682	-64.698	-0.029	0.012
-640.668	-200.000	0.001	0.160
-639.653	800.000	-0.104	-0.374
-638.638	-80.936	0.253	0.085
-637.624	800.000	-0.063	-0.205
-636.609	800.000	0.033	0.116
-635.595	176.333	0.105	-0.154
-634.580	310.059	0.007	-0.014
-633.565	-123.525	-0.400	0.064
-632.551	-136.919	-0.206	-0.024
-631.536	25.597	-0.132	-0.111
-630.522	20.359	-0.152	-0.124
-629.507	394.724	-0.104	0.219
-628.492	187.154	0.170	0.257
-627.478	-65.877	0.283	0.114
-626.463	-65.456	-0.380	-0.154
-625.449	415.633	0.154	-0.332
-624.434	73.419	-0.187	0.198
-623.419	-84.940	0.466	0.148
-622.405	-170.425	0.146	0.005
-621.390	122.423	0.110	0.139
-620.376	426.925	-0.108	0.235
-619.361	-22.568	0.063	-0.039
-618.346	800.000	-0.054	-0.183
-617.332	-43.251	-0.328	-0.168
-616.317	-37.906	-0.176	-0.095
-615.303	52.236	-0.063	0.061
-614.288	272.235	-0.154	0.275
-613.273	800.000	-0.049	-0.189
-612.259	-125.626	0.295	-0.045
-611.244	111.429	0.117	0.142
-610.230	-200.000	0.016	-0.073
-609.215	11.681	0.065	0.050
-608.201	800.000	0.062	0.267
-607.186	262.279	-0.083	0.145
-606.171	-153.353	0.224	-0.016
-605.157	-200.000	0.032	0.147
-604.142	297.307	-0.019	-0.035
-603.128	-200.000	-0.015	0.300
-602.113	685.430	-0.023	-0.061
-601.098	800.000	0.049	-0.183
-600.084	-3.406	0.181	-0.127
-599.069	469.794	-0.109	0.248
-598.055	166.492	0.161	0.230
-597.040	-108.845	0.200	0.043
-596.025	-54.767	0.111	-0.051
-595.011	-182.952	0.240	0.004
-593.996	111.174	0.138	0.168
-592.982	290.806	0.014	0.026
-591.967	66.908	0.220	0.226
-590.952	-200.000	-0.013	-0.255
-589.938	-14.906	0.022	-0.014
-588.923	-72.873	0.173	0.064
-587.909	79.311	0.059	-0.064
-586.894	41.812	0.267	-0.244
-585.879	34.221	-0.088	-0.077
-584.865	-22.819	0.117	-0.072
-583.850	-154.541	-0.117	-0.008
-582.836	212.269	-0.133	0.212
-581.821	282.730	-0.174	-0.315
-580.806	67.030	0.343	-0.353
-579.792	-185.506	-0.064	0.001
-578.777	-112.380	-0.204	0.041
-577.763	-88.001	0.324	0.098
-576.748	185.657	0.204	-0.306
-575.733	432.087	0.142	-0.310
-574.719	-200.000	0.008	0.079
-573.704	800.000	-0.026	-0.078
-572.690	800.000	-0.028	-0.102
-571.675	-200.000	0.001	-0.016
-570.661	-133.892	-0.395	0.049
-569.646	-170.320	0.022	-0.001
-568.631	800.000	-0.036	0.140
-567.617	-200.000	0.017	0.340
-566.602	47.304	0.187	-0.175
-565.588	-200.000	0.027	0.144
-564.573	-165.854	-0.350	0.015
-563.558	-102.275	0.067	-0.016
-562.544	105.903	0.041	-0.049
-561.529	486.664	0.110	-0.253
-560.515	-0.938	0.148	0.106
-559.500	-106.990	-0.163	0.036
-558.485	-119.298	0.113	-0.020
-557.471	-191.396	-0.484	-0.005
-556.456	61.217	0.213	0.213
-555.442	-138.278	0.281	-0.031
-554.427	-146.547	0.506	-0.044
-553.412	-0.911	0.085	-0.061
-552.398	684.437	-0.098	-0.258
-551.383	-200.000	-0.039	0.245
-550.369	-156.229	-0.198	-0.013
-549.354	800.000	0.083	-0.301
-548.339	152.403	0.185	-0.254
-547.325	631.445	-0.078	0.200
-546.310	267.419	0.103	0.182
-545.296	-94.335	-0.221	-0.061
-544.281	232.662	-0.128	-0.212
-543.266	800.000	0.081	-0.236
-542.252	800.000	0.092	-0.273
-541.237	17.816	0.240	-0.192
-540.223	-27.468	0.269	-0.158
-539.208	-66.004	-0.420	-0.169
-538.193	-115.587	-0.374	-0.071
-537.179	-130.717	-0.214	0.029
-536.164	32.852	0.147	-0.129
-535.150	-52.331	-0.184	0.086
-534.135	-77.582	0.190	-0.066
-533.121	-200.000	-0.049	-0.315
-532.106	-200.000	-0.016	0.076
-531.091	800.000	0.075	0.273
-530.077	135.076	0.158	0.207
-529.062	50.393	-0.232	-0.221
-528.048	-200.000	-0.039	0.213
-527.033	-134.911	-0.134	0.016
-526.018	-142.292	-0.168	-0.017
-525.004	46.132	0.134	0.125
-523.989	97.967	0.106	-0.123
-522.975	87.413	0.223	-0.248
-521.960	800.000	-0.116	-0.343
-520.945	-38.542	0.101	0.054
-519.931	800.000	0.047	0.191
-518.916	-78.513	-0.308	-0.106
-517.902	289.227	-0.053	-0.097
-516.887	80.570	-0.247	-0.268
-515.872	-112.195	-0.224	0.045
-514.858	-55.524	0.131	0.059
-513.843	-200.000	-0.019	0.241
-512.829	12.508	-0.108	0.084
-511.814	3.511	-0.065	-0.047
-510.799	-136.732	0.187	-0.022
-509.785	472.645	-0.046	0.104
-508.770	233.176	-0.013	-0.021
-507.756	255.811	0.059	-0.102
-506.741	-110.643	0.269	0.056
-505.726	-195.008	0.043	0.000
-504.712	-92.392	-0.167	0.047
-503.697	-21.243	-0.295	-0.182
-502.683	800.000	-0.059	-0.227
-501.668	800.000	0.124	-0.360
-500.653	-200.000	0.057	-0.336
-499.639	800.000	-0.090	-0.337
-498.624	-200.000	-0.066	0.000
-497.610	-113.104	-0.326	-0.065
-496.595	-6.864	0.272	0.186
-495.581	-105.329	0.425	-0.097
-494.566	315.602	-0.051	0.096
-493.551	-70.656	-0.198	0.075
-492.537	-39.726	-0.085	-0.045
-491.522	-52.070	-0.143	-0.067
-490.508	-109.482	0.396	0.084
-489.493	65.188	-0.224	0.228
-488.478	271.989	-0.022	-0.039
-487.464	-47.505	0.252	0.123
-486.449	95.315	-0.074	-0.084
-485.435	497.163	0.085	0.197
-484.420	313.667	-0.101	-0.190
-483.405	219.359	-0.177	0.284
-482.391	-200.000	-0.012	0.187
-481.376	-76.693	0.215	0.076
-480.362	-146.226	0.394	0.035
-479.347	-63.504	-0.132	-0.054
-478.332	-59.352	0.135	-0.058
-477.318	-7.255	-0.234	-0.160
-476.303	-132.813	-0.337	-0.043
-475.289	-200.000	0.016	-0.144
-474.274	47.028	-0.206	0.193
-473.259	-98.656	0.143	0.037
-472.245	800.000	0.077	0.244
-471.230	254.219	-0.170	-0.292
-470.216	-6.095	-0.113	-0.078
-469.201	295.839	0.151	0.278
-468.186	358.332	-0.198	-0.398
-467.172	-200.000	-0.004	-0.147
-466.157	10.366	-0.177	-0.135
-465.143	118.498	0.132	-0.163
-464.128	-121.756	-0.206	-0.034
-463.113	66.864	0.041	-0.042
-462.099	181.128	0.111	0.164
-461.084	800.000	-0.055	0.193
-460.070	22.180	0.183	-0.150
-459.055	-156.783	-0.120	0.007
-458.040	-142.441	0.103	-0.010
-457.026	117.439	-0.202	-0.250
-456.011	-35.476	-0.098	0.054
-454.997	-200.000	0.050	0.272
-453.982	-21.051	0.133	-0.082
-452.968	614.605	0.152	-0.382
-451.953	472.225	-0.148	0.335
-450.938	433.141	-0.122	0.266
-449.924	212.097	-0.141	0.222
-448.909	-200.000	0.000	-0.150
-447.895	-67.235	0.141	0.056
-446.880	10.368	-0.066	0.051
-445.865	-19.818	-0.314	-0.195
-444.851	-166.198	-0.090	-0.004
-443.836	800.000	-0.117	-0.493
-442.822	691.304	-0.058	0.152
-441.807	-200.000	-0.032	-0.298
-440.792	-66.206	-0.174	0.070
-439.778	-200.000	-0.003	0.294
-438.763	-89.883	-0.454	-0.133
-437.749	800.000	-0.095	0.362
-436.734	-76.949	-0.231	0.081
-435.719	173.714	0.165	0.239
-434.705	-87.968	-0.058	0.017
-433.690	85.076	0.146	0.161
-432.676	-35.628	0.144	0.078
-431.661	-40.716	-0.066	-0.034
-430.646	-32.876	0.255	-0.142
-429.632	44.582	0.094	-0.086
-428.617	-8.258	-0.053	0.036
-427.603	-200.000	0.028	0.207
-426.588	-89.728	-0.148	0.044
-425.573	254.614	-0.167	-0.286
-424.559	92.765	0.154	0.174
-423.544	-62.475	0.337	0.141
-422.530	135.647	-0.119	0.156
-421.515	-174.462	0.246	0.007
-420.500	-200.000	-0.001	0.489
-419.486	800.000	-0.040	0.165
-418.471	-118.079	0.044	-0.008
-417.457	-70.012	0.265	-0.101
-416.442	-126.224	-0.151	0.023
-415.428	23.619	0.150	-0.124
-414.413	-45.866	-0.173	-0.086
-413.398	34.644	-0.012	0.011
-412.384	-74.721	-0.220	-0.079
-411.369	122.301	0.104	0.130
-410.355	19.528	-0.070	-0.056
-409.340	-49.529	-0.217	-0.104
-408.325	5.889	0.269	-0.200
-407.311	-55.531	-0.239	0.108
-406.296	17.657	-0.151	0.121
-405.282	800.000	-0.088	-0.316
-404.267	-69.362	-0.141	0.054
-403.252	-136.683	0.335	-0.039
-402.238	-100.351	-0.102	-0.025
-401.223	569.887	0.031	0.076
-400.209	108.156	0.142	-0.170
-399.194	-97.383	-0.103	-0.027
-398.179	-33.662	-0.271	-0.150
-397.165	-91.259	0.103	0.029
-396.150	44.319	-0.050	-0.046
-395.136	-154.115	0.136	-0.009
-394.121	-200.000	0.017	-0.121
-393.106	800.000	-0.119	-0.443
-392.092	-200.000	-0.016	0.183
-391.077	-29.015	0.180	-0.104
-390.063	9.712	0.178	0.135
-389.048	800.000	-0.033	0.127
-388.033	800.000	-0.054	0.182
-387.019	89.052	-0.253	0.282
-386.004	-134.008	0.347	0.043
-384.990	800.000	0.084	-0.313
-383.975	-63.210	-0.136	-0.056
-382.960	800.000	-0.077	-0.261
-381.946	177.357	0.083	-0.121
-380.931	-56.615	-0.321	0.143
-379.917	800.000	-0.101	-0.418
-378.902	163.559	-0.067	-0.095
-377.888	197.942	-0.144	0.220
-376.873	800.000	0.067	0.265
-375.858	-91.439	-0.153	-0.044
-374.844	-24.429	-0.053	-0.032
-373.829	63.399	0.145	-0.145
-372.815	-75.129	0.095	-0.034
-371.800	-200.000	-0.020	0.332
-370.785	158.522	0.015	-0.021
-369.771	-200.000	0.015	0.190
-368.756	37.972	0.108	0.096
-367.742	800.000	0.086	-0.281
-366.727	-40.227	-0.154	-0.080
-365.712	49.519	-0.068	0.064
-364.698	52.894	0.114	0.109
-363.683	-42.510	-0.167	0.085
-362.669	-157.108	0.281	-0.017
-361.654	-200.000	-0.017	-0.124
-360.639	179.473	-0.051	-0.074
-359.625	75.648	-0.235	0.248
-358.610	-69.102	0.159	0.061
-357.596	-16.534	0.184	0.117
-356.581	34.431	0.253	-0.221
-355.566	-200.000	0.001	0.297
-354.552	-23.037	0.292	0.176
-353.537	-60.366	0.258	0.110
-352.523	610.646	-0.048	0.120
-351.508	800.000	0.033	-0.102
-350.493	309.711	0.087	0.164
-349.479	800.000	-0.047	0.144
-348.464	-3.452	-0.083	0.058
-347.450	49.696	0.127	0.120
-346.435	110.025	-0.151	-0.181
-345.420	148.518	0.178	0.240
-344.406	-79.404	0.172	-0.058
-343.391	9.012	-0.095	-0.072
-342.377	-200.000	-0.017	-0.108
-341.362	-117.351	-0.372	-0.068
-340.348	15.652	-0.147	-0.115
-339.333	146.372	-0.142	0.191
-338.318	318.257	-0.049	-0.093
-337.304	2.322	0.151	-0.109
-336.289	-17.583	-0.279	-0.176
-335.275	-114.075	0.216	-0.042
-334.260	-96.485	0.196	0.052
-333.245	144.117	0.111	0.148
-332.231	420.679	-0.027	-0.057
-331.216	332.544	0.071	-0.137
-330.202	150.658	-0.033	-0.045
-329.187	-96.906	-0.119	0.031
-328.172	-200.000	-0.006	-0.130
-327.158	-200.000	-0.024	0.229
-326.143	51.096	-0.073	-0.069
-325.129	79.453	0.206	-0.221
-324.114	-85.799	0.186	-0.058
-323.099	-200.000	-0.070	0.365
-322.085	-200.000	0.094	-0.477
-321.070	-7.497	0.154	0.104
-320.056	330.942	0.194	0.373
-319.041	-11.834	-0.101	0.066
-318.026	398.980	-0.069	-0.143
-317.012	800.000	0.031	-0.102
-315.997	-158.457	0.132	-0.008
-314.983	800.000	-0.118	0.410
-313.968	544.796	0.122	0.291
-312.953	800.000	-0.096	0.351
-311.939	-200.000	-0.314	0.001
-310.924	-200.000	-0.028	0.264
-309.910	800.000	0.023	-0.101
-308.895	84.886	0.079	-0.087
-307.880	312.565	-0.074	0.139
-306.866	258.963	-0.127	0.219
-305.851	67.998	0.156	-0.160
-304.837	-71.869	-0.433	-0.161
-303.822	52.941	0.235	0.225
-302.807	-101.457	0.100	0.024
-301.793	-91.045	0.079	0.023
-300.778	132.642	-0.190	0.245
-299.764	-200.000	0.030	-0.228
-298.749	258.049	-0.090	-0.154
-297.735	212.727	0.059	-0.093
-296.720	-200.000	-0.013	-0.472
-295.705	-200.000	-0.042	0.282
-294.691	-156.798	0.459	0.028
-293.676	256.973	-0.076	0.131
-292.662	-200.000	0.030	-0.322
-291.647	800.000	0.075	-0.233
-290.632	35.490	0.258	0.226
-289.618	-97.475	-0.248	-0.064
-288.603	800.000	-0.143	-0.573
-287.589	60.728	-0.258	-0.255
-286.574	-36.837	-0.141	0.076
-285.559	-200.000	0.000	-0.043
-284.545	17.306	0.152	0.121
-283.530	800.000	-0.027	0.092
-282.516	-200.000	-0.047	-0.236
-281.501	-131.613	0.141	-0.018
-280.486	-47.383	-0.184	0.090
-279.472	800.000	-0.069	0.219
-278.457	252.810	-0.076	-0.129
-277.443	240.290	0.170	0.282
-276.428	-200.000	0.025	0.164
-275.413	-74.090	-0.221	-0.080
-274.399	-200.000	0.290	-0.001
-273.384	219.101	0.185	0.295
-272.370	676.691	0.034	-0.089
-271.355	487.022	-0.099	0.226
-270.340	-130.654	-0.194	0.026
-269.326	800.000	-0.031	0.120
-268.311	15.961	0.249	-0.196
-267.297	-200.000	-0.066	-0.319
-266.282	44.531	-0.143	0.131
-265.267	-9.447	0.115	0.076
-264.253	-196.409	0.322	-0.002
-263.238	29.962	-0.194	-0.165
-262.224	94.265	0.074	-0.083
-261.209	-176.968	-0.120	-0.003
-260.195	800.000	0.014	-0.041
-259.180	-200.000	0.034	0.192
-258.165	800.000	-0.055	0.172
-257.151	234.123	0.180	0.295
-256.136	92.208	-0.118	-0.133
-255.122	-39.353	-0.109	-0.057
-254.107	-200.000	0.139	0.000
-253.092	-29.381	-0.172	0.098
-252.078	-106.003	-0.195	0.044
-251.063	73.037	-0.325	0.338
-250.049	569.304	-0.026	-0.062
-249.034	-105.308	0.304	0.069
-248.019	53.583	-0.174	0.167
-247.005	228.524	0.042	-0.068
-245.990	243.030	0.108	-0.181
-244.976	800.000	-0.097	-0.345
-243.961	-200.000	0.014	-0.305
-242.946	-80.320	0.195	0.065
-241.932	-74.365	0.194	0.070
-240.917	42.055	-0.125	-0.113
-239.903	-120.010	0.077	0.013
-238.888	-128.094	0.283	0.040
-237.873	800.000	-0.067	-0.214
-236.859	-137.391	-0.115	-0.013
-235.844	23.198	-0.191	0.156
-234.830	-156.572	0.114	-0.007
-233.815	31.782	0.183	-0.157
-232.800	339.919	0.106	-0.207
-231.786	-97.031	-0.094	-0.025
-230.771	799.255	-0.131	0.361
-229.757	41.543	0.303	0.274
-228.742	36.155	0.169	0.148
-227.727	-80.745	-0.266	0.088
-226.713	-44.346	-0.249	-0.124
-225.698	800.000	-0.068	-0.254
-224.684	-200.000	0.050	0.261
-223.669	-56.103	0.135	0.060
-222.655	-107.113	0.314	0.069
-221.640	-200.000	0.031	0.147
-220.625	111.731	0.097	-0.117
-219.611	-200.000	-0.032	-0.414
-218.596	53.496	-0.086	0.082
-217.582	-113.022	-0.395	-0.078
-216.567	-163.368	0.008	0.000
-215.552	39.859	0.064	-0.057
-214.538	-49.557	-0.215	0.102
-213.523	800.000	-0.028	0.117
-212.509	5.360	-0.133	-0.098
-211.494	537.922	-0.083	0.197
-210.479	-117.874	-0.354	0.063
-209.465	-22.801	-0.138	0.083
-208.450	-129.421	-0.279	0.039
-207.436	0.544	-0.110	0.078
-206.421	0.334	0.242	0.172
-205.406	-113.142	0.093	0.018
-204.392	314.620	-0.160	0.300
-203.377	-113.659	-0.200	0.039
-202.363	-119.605	-0.341	0.059
-201.348	789.311	0.046	0.125
-200.333	800.000	-0.065	-0.183
-199.319	-109.298	0.099	-0.021
-198.304	-100.052	0.314	0.078
-197.290	30.911	0.143	0.122
-196.275	-200.000	0.020	0.125
-195.260	-200.000	-0.006	0.290
-194.246	-147.434	-0.064	-0.005
-193.231	-105.843	-0.066	0.015
-192.217	-16.134	0.492	0.311
-191.202	-139.253	0.170	-0.018
-190.187	-89.276	0.230	-0.067
-189.173	158.180	0.328	0.452
-188.158	-57.277	0.219	-0.096
-187.144	-72.138	0.216	-0.080
-186.129	-71.872	-0.049	-0.018
-185.114	-200.000	-0.008	0.359
-184.100	-135.111	0.197	0.024
-183.085	800.000	-0.068	-0.272
-182.071	523.895	-0.105	-0.246
-181.056	166.613	0.208	-0.293
-180.042	-91.514	0.217	0.061
-179.027	-79.019	-0.225	0.076
-178.012	-48.065	0.179	-0.086
-176.998	85.746	0.152	0.166
-175.983	800.000	-0.046	-0.151
-174.969	-200.000	-0.025	-0.286
-173.954	-152.162	-0.247	0.018
-172.939	-11.151	0.290	-0.190
-171.925	-200.000	0.003	0.098
-170.910	-61.261	-0.252	-0.105
-169.896	-142.669	-0.283	-0.028
-168.881	150.946	0.152	0.206
-167.866	-29.978	0.262	0.148
-166.852	-141.481	-0.247	0.025
-165.837	10.976	-0.227	0.173
-164.823	-48.486	0.314	-0.150
-163.808	-100.450	0.143	0.035
-162.793	20.343	0.022	0.018
-161.779	22.007	-0.072	-0.059
-160.764	285.624	0.053	0.096
-159.750	2.059	-0.269	0.193
-158.735	4.361	0.203	-0.148
-157.720	477.486	-0.059	-0.134
-156.706	-125.468	-0.382	0.058
-155.691	-44.331	0.046	-0.023
-154.677	800.000	-0.105	-0.289
-153.662	-38.122	0.131	0.069
-152.647	253.449	0.045	0.076
-151.633	12.934	-0.168	0.129
-150.618	800.000	0.038	-0.116
-149.604	169.403	0.045	0.064
-148.589	-33.392	-0.368	0.202
-147.574	147.538	0.235	-0.314
-146.560	-48.653	-0.281	-0.134
-145.545	58.002	-0.272	-0.264
-144.531	-189.513	-0.023	-0.000
-143.516	102.636	-0.208	0.242
-142.502	64.325	0.316	0.316
-141.487	-94.820	-0.181	0.049
-140.472	-50.689	-0.100	0.047
-139.458	-54.394	0.264	0.119
-138.443	-200.000	0.013	-0.096
-137.429	-200.000	0.045	0.200
-136.414	20.266	0.135	0.108
-135.399	-190.884	-0.266	0.003
-134.385	-126.320	-0.228	0.034
-133.370	409.013	0.125	0.262
-132.356	529.300	-0.155	-0.363
-131.341	134.119	-0.065	0.084
-130.326	-4.553	0.160	0.110
-129.312	800.000	0.063	0.246
-128.297	231.067	0.091	0.149
-127.283	-85.006	-0.083	0.026
-126.268	-101.214	0.150	-0.036
-125.253	-105.745	0.086	0.019
-124.239	-200.000	0.024	0.195
-123.224	800.000	0.029	0.092
-122.210	663.705	0.011	0.028
-121.195	298.276	0.038	0.070
