DTS Sentinel unit serial number:	SN413079Multiplexer serial number:	ORYXHardware model number:	OX4-SRSoftware version number:	ORYX F/W v4.00 Oryx Data Collector v3.7.2.0data status	okinstallation	princeton_trtdifferential loss correction	single-endedforward channel	channel 1reverse channel	N/Adate	2019/09/16time	07:42:35forward acquisition time	60.00reverse acquisition time	0.00gamma	496.2192k internal	0.2328k external	0.2328temperature offset calibration	0.9976default loss term (dB/km)	0.3790temperature slope calibration	1.0000multiplexer offset coefficient	1.0000multiplexer slope coefficient	1.0000fibre end	0.00T internal ref (°C)	27.94T ext. ref 1 (°C)	11.68T ext. ref 2 (°C)	24.68length (m)	temperature (°C)	Stokes	anti-Stokes-747.200	50.733	-0.138	0.132
-746.185	-111.383	-0.151	0.031
-745.171	191.923	0.047	-0.071
-744.156	-23.166	-0.283	0.172
-743.142	33.237	0.144	-0.126
-742.127	-126.133	-0.184	0.028
-741.112	-89.939	0.234	-0.069
-740.098	-56.922	0.052	-0.023
-739.083	-61.103	-0.071	0.030
-738.069	800.000	-0.035	0.111
-737.054	95.397	0.071	-0.081
-736.039	161.809	-0.256	-0.361
-735.025	-109.561	0.318	-0.067
-734.010	-200.000	-0.065	-0.389
-732.996	35.015	-0.113	0.100
-731.981	518.494	0.205	-0.483
-730.966	230.521	-0.150	-0.246
-729.952	-145.467	-0.271	-0.025
-728.937	0.784	-0.227	0.163
-727.923	-175.585	-0.163	0.004
-726.908	152.653	-0.107	-0.147
-725.894	-99.662	0.189	-0.048
-724.879	300.109	-0.090	-0.167
-723.864	-200.000	-0.022	-0.109
-722.850	-101.355	0.346	-0.085
-721.835	-161.509	0.249	0.013
-720.821	-17.983	-0.147	-0.093
-719.806	164.281	-0.080	-0.113
-718.791	-200.000	0.048	-0.300
-717.777	-136.016	-0.408	0.048
-716.762	-101.298	-0.548	0.135
-715.748	-200.000	0.033	-0.229
-714.733	-137.435	-0.091	-0.010
-713.718	-1.023	0.117	0.083
-712.704	122.138	-0.183	0.230
-711.689	-65.874	0.125	-0.050
-710.675	-63.657	-0.283	-0.117
-709.660	-29.081	0.286	0.165
-708.645	-200.000	-0.003	0.216
-707.631	-200.000	-0.049	-0.278
-706.616	34.069	-0.207	0.181
-705.602	-200.000	-0.032	-0.317
-704.587	-63.423	0.397	-0.164
-703.572	800.000	0.099	0.325
-702.558	7.706	0.235	-0.177
-701.543	678.509	0.119	-0.311
-700.529	-69.556	-0.159	0.061
-699.514	21.362	-0.110	-0.090
-698.499	214.907	-0.083	-0.133
-697.485	85.835	0.228	-0.252
-696.470	209.114	-0.162	0.255
-695.456	416.257	-0.111	0.239
-694.441	-166.359	-0.219	0.009
-693.426	45.603	-0.113	0.105
-692.412	67.664	0.238	-0.245
-691.397	800.000	-0.050	0.147
-690.383	-123.062	-0.374	-0.060
-689.368	-22.666	0.199	-0.121
-688.354	378.512	-0.124	-0.256
-687.339	-44.463	-0.078	-0.039
-686.324	154.779	0.106	-0.146
-685.310	-200.000	0.017	0.266
-684.295	-23.090	-0.096	0.058
-683.281	-62.278	-0.078	0.033
-682.266	70.712	0.184	0.191
-681.251	-57.714	-0.464	-0.204
-680.237	662.106	0.083	0.216
-679.222	-81.130	-0.129	-0.043
-678.208	-44.418	0.057	-0.029
-677.193	-200.000	0.048	-0.413
-676.178	800.000	0.083	-0.237
-675.164	-158.776	-0.318	0.018
-674.149	-116.195	0.445	-0.083
-673.135	223.770	-0.069	-0.112
-672.120	555.364	0.077	-0.186
-671.105	13.829	-0.094	-0.073
-670.091	65.672	0.074	0.075
-669.076	-127.726	-0.454	-0.066
-668.062	800.000	0.175	-0.511
-667.047	800.000	0.008	-0.029
-666.032	-71.025	-0.173	-0.066
-665.018	26.039	0.217	0.182
-664.003	-12.942	-0.073	0.048
-662.989	499.891	0.022	0.051
-661.974	-18.891	0.172	-0.108
-660.959	-21.502	0.148	0.091
-659.945	202.619	0.057	-0.089
-658.930	800.000	-0.074	-0.255
-657.916	-117.873	-0.288	0.052
-656.901	-41.601	-0.374	0.193
-655.886	-200.000	-0.059	0.454
-654.872	-175.988	-0.435	-0.012
-653.857	800.000	-0.139	-0.395
-652.843	137.342	0.237	-0.312
-651.828	-200.000	0.070	-0.422
-650.814	-66.113	-0.259	0.104
-649.799	-148.351	-0.201	0.017
-648.784	-40.077	-0.196	-0.102
-647.770	-62.554	-0.102	0.043
-646.755	-61.125	-0.259	0.110
-645.741	624.373	0.004	-0.010
-644.726	-140.576	-0.034	0.004
-643.711	-104.723	-0.104	0.024
-642.697	-17.124	0.127	-0.080
-641.682	-30.535	-0.140	0.080
-640.668	-62.433	-0.183	-0.076
-639.653	-200.000	0.015	-0.226
-638.638	-144.962	-0.279	0.026
-637.624	-80.345	-0.263	0.088
-636.609	513.390	-0.086	0.201
-635.595	403.293	-0.043	-0.090
-634.580	-200.000	-0.015	0.206
-633.565	-24.511	-0.247	-0.148
-632.551	-63.304	0.300	-0.124
-631.536	109.804	-0.026	0.031
-630.522	-200.000	0.003	-0.087
-629.507	94.698	-0.190	-0.217
-628.492	-63.773	0.051	0.021
-627.478	84.532	-0.142	0.156
-626.463	-46.251	0.144	-0.071
-625.449	339.185	-0.120	0.235
-624.434	277.218	0.156	0.278
-623.419	-200.000	-0.026	-0.146
-622.405	101.502	-0.202	-0.236
-621.390	207.482	0.178	0.278
-620.376	-90.609	0.283	0.082
-619.361	-200.000	0.023	0.282
-618.346	-200.000	-0.061	0.451
-617.332	-55.698	0.152	-0.068
-616.317	-7.341	0.284	0.193
-615.303	-59.602	-0.205	-0.088
-614.288	-162.111	0.351	-0.018
-613.273	-63.060	0.069	-0.028
-612.259	-148.970	-0.562	0.045
-611.244	800.000	-0.085	-0.264
-610.230	226.139	-0.110	-0.179
-609.215	800.000	-0.206	0.620
-608.201	160.262	-0.353	-0.494
-607.186	739.032	0.098	-0.263
-606.171	203.422	0.114	0.176
-605.157	112.275	-0.080	-0.097
-604.142	190.853	0.053	-0.079
-603.128	800.000	0.077	-0.305
-602.113	26.798	-0.200	-0.168
-601.098	641.619	-0.028	0.071
-600.084	-110.315	0.155	-0.032
-599.069	257.602	0.144	0.248
-598.055	-116.328	-0.590	0.109
-597.040	473.815	0.145	0.328
-596.025	-200.000	0.054	-0.244
-595.011	-166.267	-0.293	-0.012
-593.996	-148.905	0.341	0.028
-592.982	-200.000	0.014	-0.094
-591.967	800.000	-0.072	-0.208
-590.952	-200.000	0.051	0.308
-589.938	16.964	0.307	-0.244
-588.923	176.104	-0.224	0.326
-587.909	-89.400	-0.272	-0.080
-586.894	-200.000	0.012	0.235
-585.879	454.215	-0.110	-0.244
-584.865	-200.000	-0.013	-0.199
-583.850	8.652	-0.216	0.163
-582.836	284.245	-0.017	0.030
-581.821	-153.826	0.225	0.015
-580.806	800.000	-0.023	0.087
-579.792	1.368	-0.091	-0.065
-578.777	-155.064	-0.160	-0.010
-577.763	-141.191	0.231	-0.024
-576.748	-9.886	0.065	0.044
-575.733	-79.818	-0.247	-0.083
-574.719	35.353	0.115	-0.101
-573.704	-173.089	-0.371	0.011
-572.690	-200.000	-0.080	0.418
-571.675	21.826	-0.063	-0.051
-570.661	-170.708	0.153	0.005
-569.646	101.711	-0.205	0.239
-568.631	-200.000	-0.007	0.273
-567.617	35.139	-0.320	-0.281
-566.602	-17.759	-0.285	-0.179
-565.588	15.646	0.143	0.113
-564.573	-44.855	0.396	0.198
-563.558	800.000	0.052	-0.170
-562.544	112.699	-0.269	0.326
-561.529	-54.380	-0.200	0.091
-560.515	357.066	-0.057	-0.114
-559.500	-101.206	-0.206	0.050
-558.485	53.320	0.069	0.066
-557.471	-14.569	0.232	0.149
-556.456	800.000	-0.021	0.058
-555.442	-10.924	0.401	-0.265
-554.427	-92.529	-0.318	0.089
-553.412	-103.548	-0.318	-0.075
-552.398	329.283	-0.156	0.300
-551.383	800.000	-0.049	-0.188
-550.369	-200.000	0.036	-0.261
-549.354	38.466	-0.213	-0.190
-548.339	-67.210	0.178	0.070
-547.325	12.297	-0.115	-0.088
-546.310	800.000	-0.059	-0.236
-545.296	-200.000	-0.005	0.023
-544.281	-59.718	0.244	0.105
-543.266	-144.625	0.212	0.020
-542.252	-108.978	-0.324	0.069
-541.237	-57.652	-0.049	-0.021
-540.223	-126.953	-0.296	0.044
-539.208	-131.831	0.140	-0.018
-538.193	-200.000	0.002	0.086
-537.179	-200.000	0.041	-0.209
-536.164	68.337	0.172	0.176
-535.150	634.977	-0.072	0.182
-534.135	800.000	-0.011	-0.044
-533.121	-35.423	-0.078	0.042
-532.106	800.000	0.163	0.472
-531.091	-112.697	0.268	-0.053
-530.077	-105.995	-0.147	-0.033
-529.062	-145.972	0.405	-0.036
-528.048	204.622	-0.150	-0.233
-527.033	-200.000	-0.019	-0.252
-526.018	-200.000	-0.013	-0.129
-525.004	36.509	-0.168	0.148
-523.989	21.387	-0.371	-0.301
-522.975	-38.346	0.263	-0.139
-521.960	800.000	0.060	0.168
-520.945	-200.000	0.053	0.291
-519.931	-90.595	-0.349	0.101
-518.916	-200.000	0.016	-0.078
-517.902	756.173	-0.062	-0.166
-516.887	-90.123	0.251	-0.073
-515.872	343.131	0.168	-0.328
-514.858	-66.081	-0.155	-0.062
-513.843	-64.035	0.344	0.140
-512.829	-46.880	0.345	0.169
-511.814	-147.957	0.289	-0.024
-510.799	-200.000	0.001	-0.255
-509.785	19.271	-0.322	-0.258
-508.770	-119.622	-0.236	-0.041
-507.756	-200.000	-0.003	0.029
-506.741	-200.000	-0.007	-0.078
-505.726	-200.000	-0.014	-0.126
-504.712	800.000	0.048	0.131
-503.697	264.278	0.175	0.304
-502.683	412.848	-0.158	-0.335
-501.668	-200.000	-0.021	0.176
-500.653	-0.717	-0.204	-0.144
-499.639	-200.000	-0.038	-0.216
-498.624	800.000	0.079	-0.310
-497.610	-138.769	0.157	-0.017
-496.595	-200.000	0.045	-0.326
-495.581	-83.004	-0.168	-0.054
-494.566	117.426	-0.071	0.087
-493.551	33.702	0.148	0.129
-492.537	-162.345	0.182	0.009
-491.522	-45.434	0.242	0.120
-490.508	-57.423	-0.077	-0.034
-489.493	338.644	-0.031	-0.061
-488.478	800.000	0.064	0.203
-487.464	-86.934	-0.126	-0.038
-486.449	10.254	0.100	0.076
-485.435	120.657	-0.301	0.373
-484.420	34.611	0.268	0.234
-483.405	39.820	0.282	0.252
-482.391	-185.259	-0.211	0.003
-481.376	152.425	0.098	-0.133
-480.362	800.000	0.088	0.259
-479.347	9.571	0.138	-0.105
-478.332	280.935	-0.127	0.227
-477.318	203.238	-0.118	-0.181
-476.303	104.435	-0.104	0.122
-475.289	307.530	-0.101	-0.188
-474.274	800.000	0.019	0.078
-473.259	800.000	-0.036	-0.149
-472.245	-200.000	-0.049	-0.222
-471.230	-117.441	-0.315	-0.057
-470.216	-200.000	0.034	-0.155
-469.201	176.261	-0.105	0.152
-468.186	349.847	0.064	0.125
-467.172	262.411	-0.018	0.031
-466.157	-200.000	0.002	-0.138
-465.143	-200.000	0.032	-0.436
-464.128	533.444	0.107	0.253
-463.113	220.405	0.153	-0.244
-462.099	800.000	-0.238	-0.754
-461.084	-104.456	0.397	0.091
-460.070	-48.129	-0.106	-0.051
-459.055	330.153	0.096	-0.184
-458.040	-85.949	-0.419	-0.129
-457.026	136.728	-0.114	-0.148
-456.011	-80.245	0.584	0.195
-454.997	-127.390	0.396	0.057
-453.982	-78.520	-0.207	0.071
-452.968	54.754	-0.232	-0.223
-451.953	-14.101	-0.176	0.113
-450.938	380.055	-0.049	-0.101
-449.924	286.555	0.070	0.126
-448.909	374.798	-0.102	-0.206
-447.895	-46.283	0.296	-0.145
-446.880	87.964	0.099	-0.110
-445.865	-160.758	-0.287	-0.015
-444.851	-84.402	-0.205	0.065
-443.836	-17.151	0.191	0.120
-442.822	287.686	-0.102	0.183
-441.807	-200.000	-0.028	0.256
-440.792	-200.000	0.018	0.115
-439.778	-134.898	0.171	-0.021
-438.763	-106.694	-0.242	-0.054
-437.749	69.627	-0.099	0.101
-436.734	103.972	0.102	-0.119
-435.719	500.866	0.098	-0.226
-434.705	-200.000	-0.015	0.116
-433.690	800.000	-0.126	0.436
-432.676	-200.000	-0.027	0.362
-431.661	-183.752	0.333	-0.006
-430.646	-95.187	0.145	-0.039
-429.632	-64.801	0.108	0.043
-428.617	-200.000	0.066	-0.294
-427.603	-34.482	0.177	0.096
-426.588	-200.000	0.012	0.359
-425.573	696.049	0.042	-0.109
-424.559	172.149	0.112	-0.161
-423.544	133.545	-0.108	0.139
-422.530	-68.310	-0.192	-0.074
-421.515	-103.338	-0.303	-0.071
-420.500	-86.442	-0.400	0.122
-419.486	8.100	-0.243	-0.181
-418.471	-200.000	0.034	-0.183
-417.457	800.000	-0.031	0.118
-416.442	800.000	-0.058	0.191
-415.428	273.942	-0.076	-0.135
-414.413	-169.317	-0.209	-0.008
-413.398	-200.000	-0.045	-0.355
-412.384	303.738	0.084	-0.156
-411.369	800.000	-0.045	0.162
-410.355	-200.000	0.025	-0.324
-409.340	-108.423	-0.024	-0.005
-408.325	-132.535	-0.024	0.003
-407.311	282.505	-0.123	-0.219
-406.296	-152.229	0.051	-0.004
-405.282	79.040	0.089	-0.095
-404.267	544.272	-0.019	-0.044
-403.252	10.906	-0.318	0.241
-402.238	188.168	-0.052	-0.077
-401.223	-40.770	-0.360	-0.186
-400.209	-200.000	0.103	0.462
-399.194	153.352	0.199	-0.271
-398.179	-200.000	-0.001	-0.072
-397.165	9.616	0.213	-0.160
-396.150	238.709	-0.120	-0.199
-395.136	653.616	-0.029	0.074
-394.121	89.667	-0.055	-0.061
-393.106	61.930	-0.061	0.061
-392.092	-200.000	0.004	0.199
-391.077	7.735	-0.201	-0.149
-390.063	-79.633	-0.031	0.010
-389.048	800.000	-0.057	-0.203
-388.033	158.088	-0.075	0.104
-387.019	-104.952	0.373	-0.085
-386.004	294.596	-0.080	0.146
-384.990	-64.153	-0.222	0.090
-383.975	340.377	-0.139	0.269
-382.960	-186.047	0.060	0.001
-381.946	293.813	0.026	-0.048
-380.931	-200.000	0.319	-0.001
-379.917	800.000	-0.065	0.282
-378.902	-139.981	-0.292	0.031
-377.888	800.000	-0.048	0.183
-376.873	149.526	-0.102	-0.137
-375.858	-52.832	-0.163	-0.075
-374.844	47.827	0.086	-0.080
-373.829	-200.000	0.067	0.294
-372.815	-200.000	-0.046	-0.265
-371.800	-98.552	-0.138	-0.035
-370.785	-131.632	0.246	-0.032
-369.771	197.928	0.120	0.182
-368.756	35.673	-0.077	0.067
-367.742	749.616	0.066	-0.177
-366.727	-200.000	-0.079	-0.355
-365.712	-85.641	0.243	-0.075
-364.698	800.000	0.083	0.280
-363.683	-44.423	-0.127	0.063
-362.669	70.363	-0.185	-0.190
-361.654	126.534	-0.131	-0.164
-360.639	105.569	0.190	-0.223
-359.625	124.833	0.170	0.213
-358.610	-200.000	0.025	-0.158
-357.596	-200.000	0.034	0.159
-356.581	165.898	0.104	0.146
-355.566	8.805	0.020	-0.015
-354.552	-134.242	0.283	-0.035
-353.537	-53.754	0.277	-0.125
-352.523	323.704	0.129	0.245
-351.508	-126.804	0.076	0.011
-350.493	-74.993	-0.020	0.007
-349.479	236.846	0.196	-0.322
-348.464	55.387	0.026	-0.025
-347.450	-200.000	-0.008	-0.323
-346.435	-41.897	-0.142	-0.072
-345.420	-155.262	0.190	-0.012
-344.406	550.552	0.013	0.031
-343.391	-200.000	0.266	-0.000
-342.377	800.000	0.058	0.192
-341.362	-200.000	0.024	-0.203
-340.348	-56.200	0.300	0.132
-339.333	-88.969	-0.253	0.074
-338.318	-30.466	-0.243	0.137
-337.304	60.020	-0.080	-0.078
-336.289	-167.696	-0.121	0.005
-335.275	-200.000	-0.009	-0.096
-334.260	-88.720	0.341	-0.101
-333.245	-134.712	0.212	0.026
-332.231	800.000	-0.083	0.233
-331.216	15.852	0.156	-0.122
-330.202	256.368	0.124	-0.211
-329.187	82.144	-0.094	0.101
-328.172	-7.465	0.042	0.028
-327.158	296.143	-0.181	-0.330
-326.143	-51.223	0.149	-0.069
-325.129	50.237	-0.218	0.205
-324.114	-140.717	0.233	0.024
-323.099	-147.380	0.381	-0.032
-322.085	309.124	-0.173	-0.321
-321.070	96.897	-0.031	0.035
-320.056	80.899	-0.125	0.133
-319.041	-200.000	-0.009	-0.063
-318.026	-117.721	0.229	0.041
-317.012	800.000	0.088	-0.302
-315.997	11.253	-0.142	0.108
-314.983	51.997	0.248	-0.234
-313.968	-66.194	0.185	-0.073
-312.953	32.661	-0.088	0.075
-311.939	-200.000	0.024	-0.141
-310.924	35.012	0.241	-0.209
-309.910	-145.799	-0.130	-0.011
-308.895	-200.000	0.032	0.142
-307.880	-200.000	-0.069	0.425
-306.866	-50.252	-0.278	-0.130
-305.851	-113.198	0.263	-0.051
-304.837	461.626	-0.061	0.135
-303.822	-145.236	0.149	0.013
-302.807	-121.065	0.296	-0.049
-301.793	-6.553	0.036	0.024
-300.778	-49.765	-0.278	-0.131
-299.764	800.000	0.135	0.415
-298.749	-79.703	0.277	-0.092
-297.735	-195.396	0.325	-0.002
-296.720	-68.337	-0.151	0.058
-295.705	-188.184	0.364	0.005
-294.691	234.582	-0.156	-0.255
-293.676	-200.000	0.012	0.116
-292.662	-78.857	0.196	0.066
-291.647	731.703	-0.062	0.163
-290.632	340.162	-0.125	-0.242
-289.618	-200.000	0.012	0.082
-288.603	60.270	0.257	-0.251
-287.589	-55.178	-0.246	0.110
-286.574	-72.498	-0.227	-0.083
-285.559	586.251	0.127	0.309
-284.545	-79.887	-0.062	0.021
-283.530	-71.159	0.087	0.033
-282.516	-132.997	-0.173	-0.022
-281.501	281.965	0.163	0.290
-280.486	-21.445	0.243	-0.147
-279.472	800.000	-0.043	0.150
-278.457	800.000	-0.075	0.218
-277.443	199.046	0.214	-0.324
-276.428	8.042	0.082	0.061
-275.413	-200.000	0.033	0.175
-274.399	-93.999	0.194	0.053
-273.384	-26.203	0.274	0.159
-272.370	76.615	-0.210	-0.220
-271.355	565.955	-0.139	0.333
-270.340	93.297	0.312	-0.349
-269.326	154.932	-0.185	-0.252
-268.311	-200.000	0.026	0.321
-267.297	-73.615	0.276	-0.100
-266.282	-200.000	0.026	-0.124
-265.267	177.714	0.132	0.190
-264.253	-170.984	0.179	-0.006
-263.238	800.000	-0.043	-0.137
-262.224	133.762	0.097	-0.124
-261.209	99.887	0.105	0.120
-260.195	-55.763	0.190	-0.084
-259.180	367.402	-0.117	0.233
-258.165	-33.495	-0.060	-0.033
-257.151	-200.000	-0.011	0.069
-256.136	-159.663	0.115	-0.006
-255.122	93.976	0.052	-0.058
-254.107	-200.000	-0.052	-0.325
-253.092	-200.000	-0.036	0.348
-252.078	800.000	0.119	-0.373
-251.063	-144.284	-0.053	-0.005
-250.049	800.000	-0.053	0.186
-249.034	-23.295	0.217	-0.129
-248.019	-52.148	-0.194	0.089
-247.005	800.000	-0.083	-0.354
-245.990	-200.000	-0.008	0.113
-244.976	265.398	-0.124	-0.213
-243.961	-79.490	0.337	0.113
-242.946	118.392	-0.084	-0.103
-241.932	468.391	0.131	0.292
-240.917	107.772	-0.047	-0.056
-239.903	-200.000	0.045	-0.505
-238.888	800.000	0.024	-0.096
-237.873	222.654	-0.127	0.203
-236.859	-200.000	-0.107	0.000
-235.844	-166.092	0.302	-0.013
-234.830	-76.497	-0.282	-0.098
-233.815	-200.000	-0.016	-0.080
-232.800	73.012	0.139	0.143
-231.786	104.418	0.350	0.407
-230.771	28.531	-0.263	-0.220
-229.757	483.185	-0.059	0.133
-228.742	89.763	-0.128	-0.141
-227.727	-42.011	-0.357	-0.180
-226.713	-104.890	0.128	-0.029
-225.698	-200.000	-0.106	0.608
-224.684	232.856	-0.160	-0.259
-223.669	-200.000	-0.004	-0.133
-222.655	334.526	0.111	0.213
-221.640	-111.454	0.314	0.063
-220.625	-200.000	0.022	0.222
-219.611	17.605	-0.196	0.154
-218.596	-200.000	0.042	0.367
-217.582	-57.025	-0.224	0.098
-216.567	-78.158	-0.146	0.049
-215.552	-134.247	0.172	0.021
-214.538	35.366	-0.220	0.190
-213.523	95.543	-0.071	-0.080
-212.509	91.058	-0.339	-0.375
-211.494	-94.615	-0.373	0.100
-210.479	-200.000	-0.030	0.194
-209.465	800.000	0.085	0.246
-208.450	514.204	0.091	0.209
-207.436	-108.004	0.169	0.036
-206.421	-200.000	-0.001	0.153
-205.406	-22.760	-0.059	0.035
-204.392	-95.399	0.279	-0.074
-203.377	-150.500	-0.164	-0.012
-202.363	-200.000	-0.030	-0.199
-201.348	-73.666	0.218	-0.078
-200.333	144.109	-0.177	0.233
-199.319	118.585	0.033	0.040
-198.304	129.701	0.206	0.260
-197.290	394.071	-0.162	-0.332
-196.275	-200.000	0.020	0.257
-195.260	68.812	0.141	0.143
-194.246	212.307	0.084	-0.131
-193.231	206.603	-0.232	-0.357
-192.217	13.026	0.267	-0.204
-191.202	-38.353	0.153	0.080
-190.187	-77.878	-0.037	-0.013
-189.173	131.964	0.178	0.225
-188.158	-15.686	-0.076	0.048
-187.144	47.710	-0.206	0.189
-186.129	-200.000	-0.006	-0.040
-185.114	-131.066	0.149	-0.020
-184.100	-78.804	-0.246	0.083
-183.085	31.219	0.054	0.046
-182.071	-40.489	-0.182	0.093
-181.056	-91.198	0.479	0.135
-180.042	19.993	0.390	0.310
-179.027	175.730	0.250	-0.357
-178.012	-59.358	0.190	-0.081
-176.998	-200.000	0.016	-0.346
-175.983	-125.265	-0.431	-0.065
-174.969	800.000	-0.048	0.154
-173.954	258.581	0.063	-0.107
-172.939	-111.076	-0.332	-0.067
-171.925	-200.000	0.058	0.355
-170.910	-58.567	0.232	-0.099
-169.896	-97.617	-0.147	0.038
-168.881	-128.226	-0.112	-0.016
-167.866	-53.432	-0.178	0.080
-166.852	129.687	0.246	0.310
-165.837	215.281	-0.120	-0.188
-164.823	44.141	0.358	0.324
-163.808	528.644	-0.079	0.183
-162.793	-67.959	0.277	-0.107
-161.779	521.958	-0.068	-0.156
-160.764	245.994	-0.085	-0.142
-159.750	800.000	-0.047	0.134
-158.735	-91.957	0.318	-0.089
-157.720	-93.970	-0.436	-0.118
-156.706	-13.018	-0.213	-0.137
-155.691	-2.736	0.397	0.273
-154.677	-62.397	-0.347	0.142
-153.662	-187.967	0.152	-0.002
-152.647	-119.048	0.124	-0.021
-151.633	-54.839	0.215	0.095
-150.618	-120.736	0.174	-0.029
-149.604	800.000	0.064	0.224
-148.589	95.172	0.157	-0.176
-147.574	123.682	-0.158	-0.195
-146.560	800.000	0.068	-0.191
-145.545	250.665	0.025	-0.041
-144.531	18.578	-0.045	-0.036
-143.516	3.326	-0.114	0.082
-142.502	-200.000	0.043	-0.414
-141.487	423.221	0.135	-0.285
-140.472	-200.000	-0.034	0.183
-139.458	-99.891	-0.465	0.114
-138.443	-4.971	-0.265	-0.179
-137.429	50.608	-0.116	-0.108
-136.414	36.483	0.285	0.247
-135.399	745.783	-0.085	0.225
-134.385	-153.680	0.310	-0.021
-133.370	-83.616	0.240	-0.076
-132.356	-38.268	-0.072	-0.038
-131.341	165.874	0.144	-0.201
-130.326	-200.000	-0.009	0.046
-129.312	-141.996	0.094	-0.009
-128.297	-200.000	-0.007	0.498
-127.283	-129.965	0.102	0.014
-126.268	-200.000	-0.029	-0.144
-125.253	800.000	-0.037	0.135
-124.239	-137.296	0.104	0.012
-123.224	644.993	0.004	0.010
