DTS Sentinel unit serial number:	SN413079Multiplexer serial number:	ORYXHardware model number:	OX4-SRSoftware version number:	ORYX F/W v4.00 Oryx Data Collector v3.7.2.0data status	okinstallation	princeton_trtdifferential loss correction	single-endedforward channel	channel 1reverse channel	N/Adate	2019/09/14time	00:34:35forward acquisition time	60.00reverse acquisition time	0.00gamma	496.2192k internal	0.2337k external	0.2337temperature offset calibration	1.0079default loss term (dB/km)	0.3790temperature slope calibration	1.0000multiplexer offset coefficient	1.0000multiplexer slope coefficient	1.0000fibre end	0.00T internal ref (°C)	26.44T ext. ref 1 (°C)	3.17T ext. ref 2 (°C)	21.11length (m)	temperature (°C)	Stokes	anti-Stokes-747.200	-2.848	0.096	0.067
-746.185	67.862	-0.320	0.328
-745.171	257.232	-0.148	0.256
-744.156	-200.000	0.010	-0.101
-743.142	22.691	0.030	0.025
-742.127	63.300	-0.192	0.194
-741.112	-127.522	-0.222	0.032
-740.098	-163.960	0.188	-0.009
-739.083	38.349	-0.279	-0.249
-738.069	-155.636	-0.277	-0.018
-737.054	-4.464	0.081	0.056
-736.039	624.793	-0.146	-0.369
-735.025	-200.000	0.035	0.194
-734.010	-200.000	0.047	-0.229
-732.996	-126.626	-0.107	-0.016
-731.981	-111.510	-0.362	-0.074
-730.966	-200.000	-0.030	-0.158
-729.952	176.401	-0.202	0.295
-728.937	157.755	-0.078	0.109
-727.923	9.472	-0.115	0.088
-726.908	-5.723	-0.213	-0.146
-725.894	-155.044	-0.053	-0.003
-724.879	-183.384	-0.141	-0.002
-723.864	-30.382	0.035	0.020
-722.850	567.651	0.041	0.100
-721.835	180.013	0.157	-0.231
-720.821	136.709	0.162	-0.213
-719.806	22.153	-0.201	-0.165
-718.791	-115.863	-0.257	0.048
-717.777	-74.013	0.303	-0.110
-716.762	133.857	0.306	-0.398
-715.748	59.248	-0.225	-0.222
-714.733	-36.009	0.233	0.126
-713.718	-184.650	-0.273	0.004
-712.704	-200.000	-0.044	-0.276
-711.689	-70.326	0.163	0.062
-710.675	124.386	0.155	0.196
-709.660	-125.255	-0.258	0.040
-708.645	-43.758	0.212	0.107
-707.631	126.139	0.147	0.186
-706.616	-90.855	0.362	0.105
-705.602	-22.593	-0.046	-0.028
-704.587	280.803	-0.247	-0.443
-703.572	-200.000	0.040	-0.232
-702.558	-156.187	-0.375	-0.024
-701.543	149.795	-0.154	-0.209
-700.529	90.873	-0.310	-0.349
-699.514	149.587	-0.107	0.145
-698.499	-76.816	0.153	0.054
-697.485	-200.000	0.047	0.217
-696.470	-6.433	-0.216	-0.148
-695.456	187.582	-0.073	-0.109
-694.441	384.731	0.092	0.189
-693.426	140.275	0.140	-0.185
-692.412	-28.573	0.086	0.049
-691.397	-200.000	-0.012	-0.149
-690.383	-200.000	0.034	0.316
-689.368	240.260	0.146	-0.244
-688.354	83.560	0.322	0.352
-687.339	-14.180	0.220	0.142
-686.324	-46.844	0.202	-0.099
-685.310	290.201	-0.075	0.137
-684.295	800.000	0.036	-0.154
-683.281	800.000	0.047	0.192
-682.266	33.009	-0.302	0.262
-681.251	715.700	0.043	0.114
-680.237	-31.989	0.054	0.030
-679.222	-38.129	-0.204	0.109
-678.208	596.819	0.137	0.340
-677.193	157.917	-0.144	-0.199
-676.178	-6.241	-0.220	-0.151
-675.164	97.635	-0.260	0.300
-674.149	-105.255	0.447	0.102
-673.135	75.347	0.020	-0.022
-672.120	-164.225	-0.172	0.008
-671.105	-49.141	0.045	-0.022
-670.091	794.234	-0.031	0.086
-669.076	-56.661	0.017	0.008
-668.062	50.157	-0.194	0.183
-667.047	-126.237	0.340	0.051
-666.032	-80.181	-0.232	-0.078
-665.018	-200.000	-0.028	-0.122
-664.003	-200.000	0.025	-0.115
-662.989	341.980	-0.078	-0.152
-661.974	-167.017	0.187	-0.008
-660.959	-127.330	0.291	-0.042
-659.945	404.745	-0.082	-0.173
-658.930	-87.836	0.169	-0.051
-657.916	-128.951	-0.080	0.011
-656.901	-54.739	0.104	0.047
-655.886	-200.000	0.079	0.000
-654.872	-152.014	-0.245	-0.018
-653.857	-98.387	0.348	-0.089
-652.843	19.036	0.100	0.081
-651.828	-147.309	-0.083	0.007
-650.814	-200.000	-0.003	0.141
-649.799	-163.720	0.235	0.011
-648.784	-76.697	0.018	0.006
-647.770	-58.147	-0.120	0.052
-646.755	-6.640	-0.105	0.072
-645.741	662.357	-0.085	-0.220
-644.726	800.000	0.017	-0.053
-643.711	283.618	0.114	-0.205
-642.697	-13.129	-0.032	-0.021
-641.682	183.260	-0.122	-0.181
-640.668	-200.000	-0.008	0.286
-639.653	33.417	-0.139	-0.121
-638.638	27.749	0.236	-0.199
-637.624	-75.610	0.292	0.104
-636.609	-66.377	-0.317	0.126
-635.595	-54.676	-0.096	0.044
-634.580	-72.487	0.312	-0.115
-633.565	755.194	-0.089	0.241
-632.551	-32.270	-0.138	-0.077
-631.536	-117.586	-0.442	-0.080
-630.522	15.718	0.055	0.043
-629.507	246.454	-0.247	-0.417
-628.492	600.024	0.083	0.205
-627.478	-5.345	-0.276	0.190
-626.463	-112.083	-0.167	0.033
-625.449	-8.755	0.213	-0.143
-624.434	800.000	0.063	0.206
-623.419	-34.605	0.201	0.110
-622.405	452.374	0.090	0.200
-621.390	-87.658	-0.313	-0.094
-620.376	-177.002	-0.394	0.010
-619.361	800.000	0.078	-0.256
-618.346	-116.932	-0.216	0.039
-617.332	146.521	0.021	0.028
-616.317	-15.883	0.071	0.045
-615.303	54.053	0.140	0.135
-614.288	-69.130	0.202	0.078
-613.273	-81.435	0.159	0.052
-612.259	-95.007	-0.073	0.020
-611.244	-200.000	-0.012	-0.281
-610.230	361.748	-0.048	0.096
-609.215	94.846	-0.026	-0.030
-608.201	-85.407	0.089	-0.028
-607.186	-200.000	0.029	-0.228
-606.171	158.797	-0.171	-0.237
-605.157	-159.392	0.358	0.020
-604.142	-114.348	-0.271	-0.052
-603.128	-98.382	-0.106	0.027
-602.113	-170.164	0.165	-0.006
-601.098	-68.963	-0.174	-0.067
-600.084	3.835	-0.137	-0.100
-599.069	-150.570	0.244	-0.019
-598.055	130.383	-0.013	-0.017
-597.040	-30.790	-0.244	0.137
-596.025	-72.994	-0.256	-0.094
-595.011	-138.175	0.387	-0.043
-593.996	146.297	0.209	-0.280
-592.982	513.538	-0.157	0.365
-591.967	-94.466	-0.276	-0.075
-590.952	66.779	-0.238	0.242
-589.938	251.738	0.182	0.309
-588.923	800.000	-0.011	0.031
-587.909	195.577	-0.209	0.318
-586.894	-73.912	0.044	-0.016
-585.879	600.022	0.093	0.231
-584.865	800.000	0.021	-0.058
-583.850	-47.316	0.217	-0.105
-582.836	800.000	0.052	0.155
-581.821	85.365	-0.117	0.129
-580.806	434.374	0.046	0.100
-579.792	5.428	-0.356	0.262
-578.777	-82.405	-0.422	-0.137
-577.763	155.499	0.137	0.188
-576.748	-200.000	-0.001	0.156
-575.733	-13.650	-0.068	0.044
-574.719	-83.283	0.267	-0.086
-573.704	800.000	-0.043	0.170
-572.690	33.946	0.224	-0.195
-571.675	-200.000	0.008	0.184
-570.661	-200.000	-0.033	-0.299
-569.646	84.479	0.120	-0.131
-568.631	-3.595	-0.215	-0.149
-567.617	532.786	0.162	-0.383
-566.602	7.679	0.059	-0.044
-565.588	740.970	-0.088	0.235
-564.573	57.299	-0.043	0.042
-563.558	48.135	-0.275	0.256
-562.544	92.395	-0.034	-0.038
-561.529	-0.801	-0.230	-0.163
-560.515	-51.517	0.075	0.035
-559.500	-200.000	-0.010	0.123
-558.485	243.836	-0.238	-0.398
-557.471	189.039	-0.103	-0.153
-556.456	-94.915	-0.201	-0.054
-555.442	-146.885	-0.105	0.009
-554.427	-200.000	-0.037	-0.241
-553.412	800.000	0.060	0.211
-552.398	-80.406	-0.043	-0.014
-551.383	-154.973	-0.109	-0.007
-550.369	-200.000	0.004	0.147
-549.354	-200.000	0.021	-0.339
-548.339	-84.759	0.280	-0.088
-547.325	312.126	-0.072	0.134
-546.310	-62.735	-0.160	-0.066
-545.296	-169.785	-0.225	-0.008
-544.281	-76.092	0.331	0.116
-543.266	180.718	-0.080	-0.117
-542.252	-71.856	0.258	-0.096
-541.237	-186.368	-0.338	0.005
-540.223	-89.548	0.340	-0.100
-539.208	318.044	0.119	0.225
-538.193	321.391	-0.126	-0.238
-537.179	800.000	-0.027	0.108
-536.164	-200.000	0.008	0.117
-535.150	-94.169	-0.474	-0.129
-534.135	800.000	0.053	0.199
-533.121	-169.268	-0.249	0.009
-532.106	-147.169	-0.146	0.012
-531.091	-67.786	0.068	-0.027
-530.077	-143.132	-0.231	-0.022
-529.062	-200.000	-0.094	-0.546
-528.048	229.400	0.103	-0.167
-527.033	-157.650	-0.123	-0.007
-526.018	482.015	0.081	0.184
-525.004	-200.000	0.003	-0.259
-523.989	743.083	-0.072	0.193
-522.975	92.794	-0.178	0.200
-521.960	-200.000	0.061	0.386
-520.945	-70.072	0.223	-0.084
-519.931	-83.127	0.109	-0.035
-518.916	-36.043	0.265	-0.143
-517.902	-24.028	0.366	-0.217
-516.887	112.773	0.160	0.193
-515.872	12.538	-0.208	-0.160
-514.858	800.000	-0.085	0.254
-513.843	800.000	-0.010	0.039
-512.829	21.239	0.027	-0.022
-511.814	746.512	0.067	-0.179
-510.799	-200.000	0.001	0.134
-509.785	-70.612	-0.177	-0.067
-508.770	122.589	-0.080	0.099
-507.756	45.452	0.198	-0.182
-506.741	-76.757	0.302	0.105
-505.726	-200.000	0.033	-0.204
-504.712	162.540	-0.180	0.252
-503.697	63.916	0.071	-0.071
-502.683	677.867	0.127	-0.328
-501.668	447.467	-0.146	-0.319
-500.653	-161.373	0.197	-0.010
-499.639	88.032	0.014	0.015
-498.624	-80.113	-0.198	0.066
-497.610	-200.000	0.027	0.341
-496.595	-56.115	0.130	0.058
-495.581	-200.000	0.030	0.263
-494.566	-131.620	0.271	0.035
-493.551	593.112	-0.118	0.291
-492.537	456.301	-0.083	0.184
-491.522	-147.786	-0.161	0.013
-490.508	451.826	0.070	-0.153
-489.493	-200.000	0.041	-0.240
-488.478	800.000	0.036	0.104
-487.464	29.078	0.270	0.228
-486.449	800.000	0.031	0.092
-485.435	800.000	-0.052	-0.181
-484.420	221.352	-0.094	0.150
-483.405	230.589	-0.145	-0.236
-482.391	-37.989	0.616	0.325
-481.376	50.689	-0.229	-0.215
-480.362	-200.000	0.025	0.123
-479.347	-118.772	0.128	0.022
-478.332	-112.594	0.217	-0.043
-477.318	554.396	0.100	0.239
-476.303	-84.321	0.268	-0.084
-475.289	25.372	0.212	-0.175
-474.274	-178.880	0.301	0.007
-473.259	800.000	-0.058	-0.220
-472.245	23.407	-0.198	0.162
-471.230	-200.000	0.014	0.179
-470.216	455.259	0.103	0.227
-469.201	-24.135	-0.253	0.150
-468.186	83.594	-0.183	0.199
-467.172	256.181	-0.074	0.126
-466.157	63.657	-0.056	-0.055
-465.143	116.747	0.175	-0.213
-464.128	793.181	-0.045	-0.124
-463.113	210.233	-0.125	0.196
-462.099	12.686	-0.165	-0.127
-461.084	659.662	-0.006	0.015
-460.070	-128.410	0.162	-0.023
-459.055	717.957	0.035	0.092
-458.040	-149.856	-0.354	-0.028
-457.026	-141.608	-0.157	-0.016
-456.011	10.152	-0.313	-0.236
-454.997	-158.348	-0.148	0.009
-453.982	-157.604	0.514	-0.030
-452.968	10.998	-0.152	0.116
-451.953	1.339	-0.179	-0.127
-450.938	-200.000	0.030	0.175
-449.924	-33.813	0.443	-0.242
-448.909	26.452	-0.043	-0.036
-447.895	-53.237	0.061	-0.028
-446.880	-102.033	0.033	-0.008
-445.865	800.000	0.139	0.399
-444.851	-200.000	0.020	0.173
-443.836	-200.000	-0.064	0.289
-442.822	-122.653	-0.247	0.040
-441.807	326.792	-0.071	-0.135
-440.792	108.179	0.290	0.343
-439.778	800.000	-0.071	0.231
-438.763	151.150	0.142	-0.192
-437.749	376.252	-0.140	0.283
-436.734	-140.703	-0.292	-0.030
-435.719	-76.750	0.480	-0.167
-434.705	-200.000	0.009	0.067
-433.690	-74.703	-0.129	0.046
-432.676	-125.845	-0.127	0.019
-431.661	-200.000	-0.006	0.144
-430.646	-53.715	-0.195	-0.088
-429.632	-139.548	0.218	-0.023
-428.617	-82.423	0.049	-0.016
-427.603	243.617	-0.180	-0.300
-426.588	217.300	0.130	0.205
-425.573	-94.249	0.163	0.044
-424.559	-88.615	-0.299	0.088
-423.544	36.887	-0.210	0.184
-422.530	-160.525	0.206	-0.011
-421.515	6.681	0.198	0.146
-420.500	19.026	0.185	0.147
-419.486	-100.957	-0.166	0.040
-418.471	105.579	0.164	-0.192
-417.457	-200.000	0.005	-0.168
-416.442	-77.219	0.146	0.051
-415.428	120.645	-0.050	-0.061
-414.413	-192.598	0.333	-0.003
-413.398	-65.614	-0.307	-0.122
-412.384	800.000	-0.036	-0.117
-411.369	-64.350	-0.400	0.161
-410.355	-22.423	0.229	-0.137
-409.340	-155.373	-0.230	0.015
-408.325	-200.000	0.000	0.348
-407.311	24.702	0.042	-0.035
-406.296	-86.077	0.104	0.032
-405.282	19.843	-0.125	0.100
-404.267	-200.000	0.009	0.369
-403.252	800.000	0.035	0.125
-402.238	-200.000	0.034	-0.240
-401.223	-115.472	-0.348	0.065
-400.209	760.395	-0.105	-0.283
-399.194	-200.000	0.033	-0.301
-398.179	-56.246	0.127	-0.056
-397.165	57.134	0.215	-0.207
-396.150	800.000	-0.036	0.153
-395.136	-130.698	0.196	-0.026
-394.121	17.096	-0.357	-0.281
-393.106	424.594	-0.086	-0.183
-392.092	726.625	0.054	-0.143
-391.077	800.000	-0.024	0.065
-390.063	-155.005	0.190	0.012
-389.048	133.964	-0.249	0.319
-388.033	-87.985	-0.042	-0.013
-387.019	-20.675	0.191	0.116
-386.004	-200.000	0.052	-0.277
-384.990	140.718	0.209	-0.274
-383.975	279.889	-0.154	0.273
-382.960	77.587	-0.053	0.056
-381.946	-200.000	0.003	-0.081
-380.931	324.987	-0.135	-0.255
-379.917	-126.486	-0.112	0.017
-378.902	-158.619	-0.288	0.016
-377.888	800.000	-0.052	-0.211
-376.873	-140.868	0.138	0.014
-375.858	800.000	-0.042	0.146
-374.844	-200.000	-0.008	0.149
-373.829	380.028	0.079	0.161
-372.815	800.000	0.033	0.098
-371.800	201.107	0.108	-0.165
-370.785	800.000	-0.117	-0.405
-369.771	-132.728	-0.254	-0.032
-368.756	-72.723	0.201	0.073
-367.742	453.693	-0.048	0.104
-366.727	-87.437	0.272	0.081
-365.712	793.989	0.039	0.106
-364.698	548.915	0.021	0.051
-363.683	-40.728	-0.129	0.066
-362.669	-119.504	-0.357	-0.061
-361.654	800.000	0.067	0.259
-360.639	-200.000	-0.015	-0.146
-359.625	34.658	-0.268	-0.231
-358.610	-200.000	0.020	0.248
-357.596	98.878	0.246	-0.281
-356.581	7.979	-0.141	-0.104
-355.566	800.000	-0.009	-0.028
-354.552	-59.835	0.373	-0.158
-353.537	199.711	0.149	0.226
-352.523	162.192	-0.103	-0.143
-351.508	372.939	0.032	0.064
-350.493	286.768	-0.132	-0.236
-349.479	-119.678	-0.193	-0.033
-348.464	-200.000	-0.003	0.305
-347.450	-113.780	0.228	-0.044
-346.435	-53.250	0.105	-0.048
-345.420	-93.873	0.151	-0.041
-344.406	800.000	0.107	-0.310
-343.391	475.187	0.011	0.024
-342.377	-62.610	-0.140	0.057
-341.362	225.398	0.052	0.084
-340.348	800.000	-0.077	0.263
-339.333	31.759	0.118	-0.101
-338.318	322.825	-0.126	0.236
-337.304	-200.000	-0.006	-0.220
-336.289	318.660	-0.042	-0.079
-335.275	194.209	-0.175	-0.262
-334.260	54.696	-0.151	-0.144
-333.245	-12.184	0.146	-0.094
-332.231	-88.920	0.141	-0.041
-331.216	-2.213	0.157	-0.109
-330.202	138.564	-0.152	0.197
-329.187	-200.000	-0.064	0.286
-328.172	266.201	0.131	0.225
-327.158	-103.896	-0.227	0.052
-326.143	-200.000	-0.041	-0.261
-325.129	-98.298	0.167	0.042
-324.114	114.704	0.094	-0.114
-323.099	135.362	-0.231	0.297
-322.085	-84.329	0.405	-0.126
-321.070	-29.061	-0.326	0.185
-320.056	-79.280	0.133	-0.044
-319.041	202.078	0.195	0.297
-318.026	32.377	0.094	-0.080
-317.012	60.718	0.119	-0.116
-315.997	-155.686	0.158	-0.010
-314.983	55.086	-0.054	0.052
-313.968	-200.000	0.004	-0.115
-312.953	-111.473	0.047	0.009
-311.939	66.021	-0.030	0.030
-310.924	4.996	0.279	-0.203
-309.910	237.011	-0.203	-0.332
-308.895	-104.729	0.201	0.046
-307.880	-52.768	-0.156	-0.071
-306.866	-200.000	0.006	0.179
-305.851	800.000	-0.014	0.042
-304.837	-68.824	0.127	-0.048
-303.822	-22.173	-0.145	-0.087
-302.807	18.801	-0.082	-0.065
-301.793	-59.537	0.491	-0.208
-300.778	6.768	0.155	0.114
-299.764	21.504	0.214	-0.172
-298.749	408.270	0.099	-0.207
-297.735	800.000	0.080	-0.237
-296.720	149.033	-0.174	-0.232
-295.705	-18.056	0.071	-0.044
-294.691	265.554	0.161	0.277
-293.676	44.611	0.246	0.223
-292.662	-200.000	0.019	-0.090
-291.647	-200.000	0.049	0.237
-290.632	663.540	0.035	-0.088
-289.618	-28.916	0.033	0.019
-288.603	269.160	-0.156	-0.271
-287.589	767.207	-0.048	-0.130
-286.574	28.533	-0.131	-0.109
-285.559	75.005	0.073	0.076
-284.545	316.231	0.136	0.253
-283.530	49.189	-0.271	-0.251
-282.516	-187.736	0.247	-0.003
-281.501	-200.000	-0.038	-0.212
-280.486	-0.027	0.180	0.126
-279.472	-41.768	0.060	0.030
-278.457	502.811	-0.107	0.245
-277.443	131.991	0.079	0.101
-276.428	800.000	-0.037	0.136
-275.413	118.822	0.179	0.217
-274.399	-35.706	-0.220	0.118
-273.384	-200.000	-0.019	0.358
-272.370	-200.000	0.001	-0.225
-271.355	242.142	-0.144	-0.237
-270.340	72.997	-0.196	0.202
-269.326	-58.777	-0.178	-0.076
-268.311	-30.744	0.282	0.157
-267.297	-200.000	0.045	0.390
-266.282	-200.000	0.033	0.186
-265.267	-200.000	0.035	-0.287
-264.253	-200.000	-0.082	0.434
-263.238	-63.868	-0.398	0.161
-262.224	1.779	0.127	-0.090
-261.209	117.408	0.128	0.156
-260.195	-200.000	0.011	0.353
-259.180	-36.319	0.258	-0.137
-258.165	-17.093	-0.295	-0.184
-257.151	206.866	0.174	-0.267
-256.136	-33.030	0.207	-0.113
-255.122	-200.000	0.029	-0.179
-254.107	-60.363	-0.115	0.048
-253.092	259.253	0.187	0.317
-252.078	26.240	0.269	0.222
-251.063	-83.308	-0.101	0.032
-250.049	-18.659	-0.328	-0.201
-249.034	86.659	-0.016	0.017
-248.019	37.769	0.016	0.014
-247.005	800.000	-0.057	-0.168
-245.990	-18.174	-0.036	0.022
-244.976	-60.123	-0.188	0.079
-243.961	-147.491	-0.354	-0.029
-242.946	-29.981	-0.064	0.036
-241.932	779.020	0.082	-0.222
-240.917	-67.699	-0.132	-0.051
-239.903	-200.000	-0.010	0.213
-238.888	-200.000	0.011	0.134
-237.873	340.234	-0.112	0.215
-236.859	-200.000	-0.042	-0.384
-235.844	192.579	-0.037	0.055
-234.830	213.075	-0.058	0.090
-233.815	-81.635	-0.160	0.052
-232.800	-130.100	0.201	0.027
-231.786	-51.109	-0.145	0.067
-230.771	-81.959	0.037	-0.012
-229.757	4.247	0.035	-0.025
-228.742	524.727	0.156	-0.361
-227.727	78.199	0.104	-0.109
-226.713	-128.960	-0.049	-0.007
-225.698	33.759	-0.131	-0.112
-224.684	23.405	0.239	-0.193
-223.669	-48.935	-0.177	0.083
-222.655	-54.881	0.123	0.055
-221.640	-46.116	-0.078	0.038
-220.625	-98.060	-0.406	-0.103
-219.611	-200.000	-0.014	-0.155
-218.596	73.923	-0.044	0.045
-217.582	-78.989	0.658	-0.220
-216.567	325.357	-0.098	0.185
-215.552	-87.718	-0.229	0.068
-214.538	-9.367	0.159	0.104
-213.523	-35.990	-0.313	0.167
-212.509	247.397	-0.058	0.096
-211.494	210.917	0.085	-0.131
-210.479	800.000	-0.100	0.281
-209.465	153.260	0.279	-0.376
-208.450	64.196	0.055	0.055
-207.436	32.576	-0.316	-0.268
-206.421	-102.895	0.388	0.091
-205.406	-165.912	0.266	-0.011
-204.392	-14.730	0.224	-0.141
-203.377	203.286	-0.105	0.159
-202.363	-68.744	0.264	0.100
-201.348	161.000	0.052	0.071
-200.333	247.224	-0.170	-0.282
-199.319	-119.823	-0.299	0.051
-198.304	19.272	0.194	-0.153
-197.290	-75.601	0.242	-0.085
-196.275	205.668	0.151	0.230
-195.260	-19.800	0.160	0.097
-194.246	42.607	-0.180	-0.161
-193.231	98.556	-0.320	-0.362
-192.217	254.302	0.146	-0.245
-191.202	-41.478	0.368	0.186
-190.187	-79.708	-0.393	-0.130
-189.173	275.253	-0.156	-0.272
-188.158	-200.000	-0.014	0.150
-187.144	-124.315	0.221	-0.034
-186.129	-149.302	-0.310	0.024
-185.114	140.180	0.154	0.199
-184.100	-49.520	0.098	0.046
-183.085	800.000	0.042	0.144
-182.071	8.620	-0.253	0.187
-181.056	-200.000	-0.014	0.189
-180.042	-17.514	0.082	0.051
-179.027	-91.248	-0.321	0.090
-178.012	181.098	0.197	-0.284
-176.998	-200.000	0.135	-0.000
-175.983	800.000	-0.098	-0.332
-174.969	-143.075	0.275	-0.026
-173.954	136.923	0.142	0.182
-172.939	-56.989	-0.444	-0.192
-171.925	-68.516	0.453	0.172
-170.910	-49.563	-0.440	-0.206
-169.896	-96.776	0.188	-0.048
-168.881	-200.000	-0.096	0.473
-167.866	16.315	-0.196	0.152
-166.852	588.542	0.096	-0.232
-165.837	-160.079	0.063	0.003
-164.823	-65.030	0.227	-0.090
-163.808	-200.000	0.058	-0.398
-162.793	-147.215	0.164	0.014
-161.779	-116.971	-0.081	-0.015
-160.764	551.074	-0.109	0.257
-159.750	-102.609	0.076	-0.018
-158.735	-200.000	-0.003	-0.090
-157.720	-115.845	0.088	0.016
-156.706	-66.633	-0.241	0.094
-155.691	679.708	0.083	-0.211
-154.677	74.921	0.147	0.151
-153.662	94.021	-0.216	-0.240
-152.647	150.434	0.129	0.171
-151.633	-16.526	0.104	-0.065
-150.618	85.545	0.091	0.098
-149.604	52.568	-0.191	0.179
-148.589	-200.000	0.027	-0.294
-147.574	-97.588	0.469	-0.119
-146.560	-200.000	-0.016	0.211
-145.545	800.000	-0.068	-0.246
-144.531	10.298	-0.161	-0.120
-143.516	-147.603	-0.130	-0.011
-142.502	-51.581	0.449	-0.205
-141.487	-73.610	-0.195	0.070
-140.472	-36.833	0.069	-0.036
-139.458	7.390	0.207	0.152
-138.443	92.805	-0.172	0.191
-137.429	-188.143	0.292	0.004
-136.414	666.146	-0.063	-0.159
-135.399	145.714	0.149	0.196
-134.385	800.000	-0.063	0.185
-133.370	-113.349	0.056	0.011
-132.356	-78.309	-0.280	-0.094
-131.341	131.215	0.243	0.306
-130.326	800.000	-0.018	0.049
-129.312	-200.000	-0.024	0.122
-128.297	800.000	-0.064	0.188
-127.283	18.117	0.205	-0.160
-126.268	-47.382	-0.259	-0.123
-125.253	-134.963	-0.389	-0.046
-124.239	-161.438	0.281	-0.014
-123.224	386.026	0.121	-0.244
-122.210	-84.216	0.191	-0.059
-121.195	40.248	-0.184	-0.162
-120.180	141.774	0.085	-0.110
