DTS Sentinel unit serial number:	SN413079Multiplexer serial number:	ORYXHardware model number:	OX4-SRSoftware version number:	ORYX F/W v4.00 Oryx Data Collector v3.7.2.0data status	okinstallation	princeton_trtdifferential loss correction	single-endedforward channel	channel 1reverse channel	N/Adate	2019/09/14time	06:54:35forward acquisition time	60.00reverse acquisition time	0.00gamma	496.2192k internal	0.2337k external	0.2337temperature offset calibration	1.0080default loss term (dB/km)	0.3790temperature slope calibration	1.0000multiplexer offset coefficient	1.0000multiplexer slope coefficient	1.0000fibre end	0.00T internal ref (°C)	26.23T ext. ref 1 (°C)	3.44T ext. ref 2 (°C)	20.89length (m)	temperature (°C)	Stokes	anti-Stokes-747.200	-200.000	-0.010	0.212
-746.185	-129.513	0.281	-0.039
-745.171	55.503	0.206	-0.200
-744.156	-67.520	0.247	0.097
-743.142	173.037	-0.105	-0.152
-742.127	-51.677	0.041	-0.019
-741.112	219.766	-0.109	0.176
-740.098	-200.000	0.041	0.261
-739.083	-94.498	0.042	0.012
-738.069	-117.221	-0.173	0.032
-737.054	-200.000	-0.046	-0.295
-736.039	230.649	-0.089	0.147
-735.025	800.000	0.083	0.232
-734.010	-84.649	-0.474	-0.150
-732.996	-48.617	-0.302	-0.146
-731.981	-71.899	0.183	-0.069
-730.966	800.000	-0.063	0.195
-729.952	-200.000	-0.010	-0.058
-728.937	609.894	-0.083	-0.209
-727.923	-200.000	0.020	0.097
-726.908	14.625	0.098	-0.077
-725.894	-131.598	0.076	-0.010
-724.879	-163.334	-0.340	0.016
-723.864	18.438	0.093	-0.075
-722.850	133.099	-0.126	-0.163
-721.835	261.267	-0.073	-0.127
-720.821	-200.000	0.028	-0.258
-719.806	-77.759	0.144	-0.050
-718.791	25.978	0.128	-0.107
-717.777	33.601	0.054	-0.047
-716.762	-200.000	-0.027	-0.296
-715.748	-67.261	-0.306	-0.121
-714.733	-90.856	0.208	0.060
-713.718	-160.901	-0.228	0.012
-712.704	674.112	-0.138	-0.360
-711.689	-39.151	-0.024	0.013
-710.675	-120.969	-0.182	0.031
-709.660	70.766	0.147	-0.153
-708.645	-107.366	0.069	-0.015
-707.631	-47.384	0.300	0.147
-706.616	-20.614	0.075	-0.046
-705.602	800.000	0.015	0.055
-704.587	-55.489	-0.258	-0.116
-703.572	1.804	-0.144	0.104
-702.558	49.007	0.058	0.055
-701.543	-22.998	-0.126	-0.076
-700.529	-200.000	-0.052	0.365
-699.514	-68.989	0.227	0.088
-698.499	96.609	-0.071	-0.081
-697.485	341.321	0.096	0.189
-696.470	800.000	-0.065	0.244
-695.456	-55.695	-0.198	0.089
-694.441	125.211	0.150	0.189
-693.426	800.000	-0.102	0.375
-692.412	-200.000	0.061	0.302
-691.397	198.495	-0.043	0.066
-690.383	800.000	-0.068	0.254
-689.368	675.158	0.060	0.155
-688.354	-200.000	0.010	-0.057
-687.339	248.356	-0.091	0.154
-686.324	141.337	0.142	0.188
-685.310	195.386	-0.224	-0.341
-684.295	-11.300	0.076	-0.050
-683.281	167.103	0.136	-0.193
-682.266	759.398	-0.118	-0.319
-681.251	-115.512	0.209	-0.039
-680.237	193.429	0.146	-0.221
-679.222	60.651	-0.067	0.067
-678.208	609.339	0.025	-0.062
-677.193	-63.994	0.133	0.054
-676.178	13.476	0.093	-0.072
-675.164	-200.000	-0.057	-0.423
-674.149	-200.000	-0.060	-0.356
-673.135	-200.000	-0.003	-0.061
-672.120	800.000	0.083	-0.343
-671.105	800.000	-0.107	-0.465
-670.091	666.767	-0.025	-0.064
-669.076	-110.775	0.319	-0.066
-668.062	13.554	-0.049	0.038
-667.047	326.834	-0.079	-0.152
-666.032	-151.187	-0.158	0.012
-665.018	800.000	0.055	0.227
-664.003	572.919	0.068	-0.167
-662.989	710.119	-0.139	-0.369
-661.974	20.905	0.263	-0.213
-660.959	800.000	0.025	-0.089
-659.945	-133.298	-0.308	-0.039
-658.930	71.669	0.170	-0.177
-657.916	457.230	0.082	0.182
-656.901	16.553	0.093	-0.073
-655.886	800.000	0.022	0.082
-654.872	75.686	-0.226	0.238
-653.857	40.796	0.112	-0.101
-652.843	-48.733	0.176	0.084
-651.828	22.313	-0.287	-0.234
-650.814	-62.567	0.295	-0.123
-649.799	347.517	0.084	-0.166
-648.784	-63.606	-0.314	0.129
-647.770	-23.792	0.163	0.098
-646.755	-117.059	-0.290	-0.053
-645.741	800.000	-0.176	-0.618
-644.726	311.304	0.027	0.052
-643.711	454.601	-0.095	-0.210
-642.697	-106.303	-0.179	0.040
-641.682	-124.894	-0.094	-0.015
-640.668	-123.954	0.209	0.033
-639.653	2.948	0.269	0.196
-638.638	92.872	0.057	-0.064
-637.624	259.643	0.274	0.473
-636.609	-200.000	0.026	-0.130
-635.595	-45.209	-0.246	0.122
-634.580	-45.984	0.271	-0.134
-633.565	228.918	-0.207	0.338
-632.551	383.451	-0.071	-0.146
-631.536	-85.805	-0.173	0.054
-630.522	673.855	0.105	0.271
-629.507	-13.565	-0.253	0.164
-628.492	-101.672	0.144	-0.035
-627.478	453.929	0.038	-0.083
-626.463	717.451	-0.120	0.318
-625.449	218.865	-0.138	-0.221
-624.434	-85.852	-0.274	0.085
-623.419	163.073	-0.058	-0.082
-622.405	-200.000	-0.018	-0.122
-621.390	115.894	-0.084	-0.103
-620.376	-9.633	0.048	0.032
-619.361	216.751	-0.098	-0.155
-618.346	3.665	-0.295	-0.215
-617.332	-75.317	0.172	-0.061
-616.317	-138.345	-0.030	0.003
-615.303	-40.055	0.129	0.067
-614.288	-200.000	0.010	-0.243
-613.273	41.001	0.168	-0.151
-612.259	-98.959	-0.367	0.093
-611.244	55.402	-0.199	0.192
-610.230	-172.445	-0.516	0.016
-609.215	800.000	0.057	-0.172
-608.201	800.000	0.065	0.217
-607.186	25.787	-0.140	-0.116
-606.171	-55.720	0.145	0.065
-605.157	612.839	-0.124	-0.311
-604.142	709.920	0.149	-0.393
-603.128	-92.621	-0.058	-0.016
-602.113	370.233	0.096	0.194
-601.098	124.914	0.277	-0.348
-600.084	468.493	-0.088	-0.197
-599.069	-200.000	0.428	0.002
-598.055	-100.412	0.225	-0.056
-597.040	-200.000	0.038	0.237
-596.025	-200.000	0.303	-0.001
-595.011	89.475	-0.072	0.080
-593.996	-200.000	-0.023	0.411
-592.982	800.000	-0.041	0.164
-591.967	280.416	-0.076	-0.135
-590.952	-18.753	0.294	-0.183
-589.938	-86.002	0.251	-0.077
-588.923	-127.725	0.089	-0.013
-587.909	-80.817	0.193	-0.064
-586.894	63.236	-0.172	-0.172
-585.879	435.066	-0.146	-0.316
-584.865	357.509	0.137	-0.272
-583.850	223.053	0.150	-0.242
-582.836	-109.659	-0.321	-0.067
-581.821	-26.789	0.269	-0.157
-580.806	334.734	0.090	0.173
-579.792	-144.722	-0.164	0.015
-578.777	800.000	0.062	0.215
-577.763	-15.916	-0.185	0.118
-576.748	55.995	-0.138	-0.133
-575.733	800.000	0.080	-0.271
-574.719	-21.824	-0.346	-0.210
-573.704	587.673	0.086	0.210
-572.690	-90.268	-0.259	-0.075
-571.675	-175.990	0.156	-0.004
-570.661	104.954	-0.273	0.321
-569.646	-84.580	-0.322	0.101
-568.631	-115.004	0.073	-0.014
-567.617	576.188	-0.048	0.116
-566.602	-2.377	0.213	-0.149
-565.588	-200.000	0.030	-0.186
-564.573	-68.152	-0.082	-0.032
-563.558	46.244	-0.127	0.118
-562.544	-200.000	0.016	0.106
-561.529	-200.000	-0.016	0.279
-560.515	352.373	0.110	0.217
-559.500	800.000	0.007	-0.023
-558.485	-18.125	-0.240	-0.149
-557.471	68.562	-0.252	0.257
-556.456	151.911	-0.149	0.203
-555.442	-200.000	-0.061	-0.623
-554.427	-107.397	0.421	0.092
-553.412	-23.655	-0.284	0.170
-552.398	-200.000	-0.090	0.536
-551.383	-104.061	0.275	0.064
-550.369	-124.627	-0.217	0.034
-549.354	-56.633	0.385	-0.170
-548.339	19.191	-0.178	-0.143
-547.325	800.000	0.017	-0.062
-546.310	-162.244	-0.090	-0.004
-545.296	-36.321	-0.144	0.077
-544.281	639.811	0.086	-0.219
-543.266	-55.313	0.273	-0.122
-542.252	-200.000	0.001	-0.077
-541.237	-33.695	-0.199	-0.109
-540.223	23.605	-0.257	0.211
-539.208	107.249	-0.202	0.239
-538.193	-89.327	0.236	0.069
-537.179	178.334	-0.017	-0.025
-536.164	-107.755	-0.070	0.015
-535.150	27.651	-0.369	0.310
-534.135	207.853	-0.081	-0.126
-533.121	-88.935	0.132	0.039
-532.106	800.000	0.039	-0.147
-531.091	-133.215	0.296	-0.037
-530.077	25.840	0.345	-0.286
-529.062	441.487	-0.147	-0.321
-528.048	-116.869	0.345	0.063
-527.033	-41.140	0.184	0.095
-526.018	134.173	-0.033	0.043
-525.004	800.000	0.038	-0.162
-523.989	54.461	-0.242	0.232
-522.975	227.013	0.144	0.233
-521.960	-100.905	0.172	0.042
-520.945	-73.519	0.219	-0.080
-519.931	-151.943	0.006	-0.000
-518.916	133.090	-0.360	0.463
-517.902	-63.704	-0.102	-0.042
-516.887	0.832	-0.350	0.249
-515.872	152.928	0.115	0.156
-514.858	800.000	0.075	-0.222
-513.843	-174.505	0.047	0.001
-512.829	-61.452	-0.065	0.027
-511.814	-200.000	-0.003	-0.028
-510.799	254.839	-0.132	0.225
-509.785	57.720	-0.174	-0.170
-508.770	-96.827	0.213	-0.056
-507.756	-26.334	-0.152	0.088
-506.741	75.564	0.109	0.115
-505.726	694.514	0.126	0.328
-504.712	-200.000	-0.046	-0.396
-503.697	-179.583	-0.404	-0.009
-502.683	800.000	-0.088	-0.252
-501.668	-38.140	-0.172	0.091
-500.653	40.802	-0.061	-0.054
-499.639	37.693	-0.086	0.076
-498.624	-95.345	0.081	0.022
-497.610	105.938	-0.036	0.042
-496.595	-51.938	-0.359	-0.166
-495.581	366.586	0.187	-0.375
-494.566	-191.901	0.310	0.003
-493.551	-16.058	0.301	0.191
-492.537	-117.475	0.421	0.076
-491.522	-57.379	-0.143	0.063
-490.508	180.998	0.096	-0.141
-489.493	-200.000	-0.021	-0.372
-488.478	181.050	-0.120	0.175
-487.464	-200.000	0.031	-0.302
-486.449	-112.687	-0.325	0.064
-485.435	-29.743	0.275	-0.156
-484.420	-17.847	-0.227	-0.142
-483.405	368.663	-0.031	-0.063
-482.391	800.000	0.085	0.364
-481.376	110.700	0.072	-0.086
-480.362	-44.344	0.285	-0.142
-479.347	96.800	-0.162	-0.184
-478.332	-64.707	0.065	0.026
-477.318	800.000	0.115	-0.370
-476.303	252.763	-0.049	-0.083
-475.289	-200.000	0.049	-0.267
-474.274	800.000	-0.068	-0.218
-473.259	-6.963	0.357	-0.241
-472.245	86.735	0.174	-0.190
-471.230	-200.000	-0.001	-0.168
-470.216	269.967	0.061	0.107
-469.201	-68.566	0.118	0.045
-468.186	123.929	-0.285	0.355
-467.172	792.409	0.084	0.229
-466.157	36.026	0.165	0.144
-465.143	-41.292	-0.200	0.102
-464.128	-117.338	-0.274	-0.049
-463.113	265.267	-0.137	0.238
-462.099	81.368	0.171	-0.184
-461.084	43.704	0.073	0.066
-460.070	-200.000	-0.004	0.235
-459.055	-104.585	0.114	0.026
-458.040	135.326	-0.286	0.369
-457.026	-104.440	0.260	-0.060
-456.011	-200.000	-0.010	0.076
-454.997	-35.499	-0.215	-0.116
-453.982	98.468	-0.034	-0.039
-452.968	70.074	0.206	0.211
-451.953	-200.000	0.027	-0.126
-450.938	-200.000	0.015	0.174
-449.924	96.631	0.149	0.169
-448.909	55.508	0.167	0.160
-447.895	-23.658	-0.247	-0.147
-446.880	-62.001	-0.107	0.044
-445.865	256.055	-0.016	-0.027
-444.851	800.000	0.012	0.050
-443.836	800.000	0.088	-0.253
-442.822	-200.000	0.006	-0.303
-441.807	-83.189	-0.220	0.070
-440.792	3.681	-0.462	0.334
-439.778	-109.222	0.207	0.044
-438.763	-28.974	0.062	0.035
-437.749	-200.000	-0.032	0.347
-436.734	-98.626	0.177	0.045
-435.719	251.124	0.110	0.186
-434.705	156.575	-0.203	0.278
-433.690	191.971	0.051	0.076
-432.676	-67.519	0.327	0.127
-431.661	36.298	-0.194	-0.169
-430.646	800.000	-0.132	-0.459
-429.632	204.348	-0.047	0.072
-428.617	-44.991	-0.116	-0.057
-427.603	-173.597	-0.106	0.003
-426.588	76.254	0.202	0.212
-425.573	672.310	0.057	-0.147
-424.559	-77.423	-0.091	-0.031
-423.544	-200.000	0.011	0.216
-422.530	-70.709	-0.076	0.028
-421.515	-125.028	-0.236	0.036
-420.500	-97.523	0.098	0.025
-419.486	-29.718	0.124	-0.070
-418.471	800.000	0.044	0.184
-417.457	31.304	-0.036	-0.031
-416.442	43.649	0.008	-0.007
-415.428	-200.000	-0.059	-0.415
-414.413	800.000	-0.025	-0.073
-413.398	-200.000	0.061	-0.340
-412.384	-200.000	0.008	-0.315
-411.369	-200.000	0.011	-0.069
-410.355	-200.000	-0.004	0.146
-409.340	-200.000	-0.008	0.537
-408.325	132.217	-0.143	0.182
-407.311	236.466	0.078	0.127
-406.296	-103.676	-0.285	0.066
-405.282	-200.000	0.056	0.244
-404.267	-61.812	0.190	0.079
-403.252	-3.395	-0.249	-0.172
-402.238	800.000	0.014	0.056
-401.223	-117.188	-0.230	0.041
-400.209	-200.000	-0.073	-0.472
-399.194	42.671	0.176	-0.159
-398.179	-84.132	-0.198	0.062
-397.165	65.321	-0.348	-0.348
-396.150	-6.691	0.076	-0.051
-395.136	-5.700	-0.154	0.105
-394.121	-200.000	-0.033	-0.213
-393.106	-11.626	0.386	-0.251
-392.092	110.714	-0.103	-0.122
-391.077	-54.805	-0.265	-0.119
-390.063	-18.920	-0.346	0.213
-389.048	-128.006	-0.409	0.058
-388.033	-110.010	0.186	0.038
-387.019	-200.000	0.013	0.207
-386.004	-200.000	-0.010	0.078
-384.990	-200.000	0.062	0.490
-383.975	-200.000	-0.071	0.327
-382.960	-116.725	0.177	0.032
-381.946	125.576	0.192	0.239
-380.931	-67.363	0.312	-0.121
-379.917	53.520	0.035	0.034
-378.902	-200.000	0.011	-0.080
-377.888	-52.806	0.160	-0.073
-376.873	-200.000	0.010	-0.181
-375.858	84.410	-0.094	-0.102
-374.844	67.555	-0.021	0.021
-373.829	-200.000	-0.007	0.122
-372.815	321.018	-0.044	0.083
-371.800	-11.326	0.548	-0.357
-370.785	-1.291	0.160	-0.112
-369.771	-200.000	0.004	0.235
-368.756	-200.000	-0.006	-0.147
-367.742	5.358	-0.450	-0.328
-366.727	390.817	0.025	0.051
-365.712	-43.912	0.146	-0.073
-364.698	83.013	-0.167	0.180
-363.683	18.120	0.135	-0.106
-362.669	-79.400	0.152	-0.051
-361.654	68.844	0.077	-0.078
-360.639	192.924	-0.244	0.365
-359.625	-119.618	0.229	0.039
-358.610	-69.806	-0.172	0.065
-357.596	-200.000	-0.008	-0.076
-356.581	13.094	0.158	0.121
-355.566	149.514	0.027	-0.036
-354.552	-92.078	-0.070	-0.020
-353.537	297.576	-0.119	0.215
-352.523	800.000	-0.081	-0.257
-351.508	34.708	-0.028	0.025
-350.493	-200.000	-0.071	-0.401
-349.479	-73.763	-0.234	-0.084
-348.464	294.080	-0.149	0.268
-347.450	-104.048	-0.254	0.058
-346.435	-99.198	0.066	-0.017
-345.420	-157.981	-0.137	0.008
-344.406	800.000	0.040	0.112
-343.391	426.269	0.114	-0.243
-342.377	7.569	0.086	-0.063
-341.362	-54.516	-0.191	0.085
-340.348	-154.255	0.111	-0.007
-339.333	-106.402	-0.077	-0.017
-338.318	-39.707	0.165	-0.085
-337.304	54.426	0.108	0.103
-336.289	-67.164	-0.255	-0.099
-335.275	-200.000	-0.019	0.248
-334.260	-37.112	-0.259	0.137
-333.245	-112.975	0.195	0.038
-332.231	800.000	0.058	0.158
-331.216	-115.715	0.231	-0.043
-330.202	40.465	-0.143	0.127
-329.187	-194.771	-0.288	0.002
-328.172	-61.961	-0.104	-0.043
-327.158	-109.139	0.220	-0.046
-326.143	12.443	-0.281	0.214
-325.129	140.286	-0.080	-0.104
-324.114	207.416	-0.108	-0.166
-323.099	-123.915	0.215	-0.033
-322.085	-90.604	-0.231	-0.066
-321.070	-142.584	0.221	0.021
-320.056	14.800	0.190	0.146
-319.041	-200.000	-0.028	0.187
-318.026	-86.897	-0.159	0.048
-317.012	52.843	0.175	-0.165
-315.997	-117.205	0.204	0.037
-314.983	-157.852	-0.543	-0.032
-313.968	-40.110	0.213	-0.110
-312.953	47.320	0.116	0.107
-311.939	-5.378	-0.225	0.153
-310.924	-133.266	0.024	-0.003
-309.910	-102.412	-0.147	-0.035
-308.895	-40.314	0.301	0.154
-307.880	-89.863	-0.264	-0.076
-306.866	-84.096	0.307	0.096
-305.851	-153.178	0.196	0.014
-304.837	126.458	-0.205	0.256
-303.822	-200.000	0.088	0.386
-302.807	258.485	0.095	0.161
-301.793	108.653	-0.073	0.086
-300.778	258.585	-0.022	-0.038
-299.764	-20.433	0.175	-0.106
-298.749	179.317	-0.192	-0.278
-297.735	-200.000	0.020	0.186
-296.720	-128.672	0.081	0.011
-295.705	-125.525	0.307	0.046
-294.691	15.463	-0.337	-0.261
-293.676	137.810	0.117	-0.151
-292.662	800.000	-0.050	-0.174
-291.647	384.256	-0.102	0.207
-290.632	-200.000	0.275	-0.000
-289.618	-84.875	-0.234	-0.072
-288.603	-27.517	-0.267	-0.153
-287.589	366.408	-0.024	-0.047
-286.574	175.875	-0.200	-0.286
-285.559	-200.000	0.001	-0.380
-284.545	-152.196	0.279	-0.020
-283.530	128.737	-0.104	0.131
-282.516	214.656	-0.077	-0.120
-281.501	10.231	0.227	0.170
-280.486	75.516	0.131	0.136
-279.472	800.000	-0.099	-0.291
-278.457	245.222	0.059	-0.097
-277.443	79.938	0.204	-0.216
-276.428	-86.342	0.122	0.037
-275.413	-200.000	-0.038	-0.199
-274.399	-18.698	0.359	0.221
-273.384	-71.771	-0.320	-0.118
-272.370	-200.000	0.011	0.125
-271.355	-60.139	0.425	0.178
-270.340	123.050	-0.238	-0.293
-269.326	-88.500	0.236	-0.069
-268.311	-200.000	-0.017	0.537
-267.297	391.448	0.112	0.228
-266.282	433.514	0.032	-0.069
-265.267	-21.803	0.087	0.052
-264.253	-178.260	-0.404	0.009
-263.238	-92.687	-0.116	0.032
-262.224	-200.000	-0.004	-0.285
-261.209	-32.357	0.124	0.068
-260.195	168.408	0.077	0.108
-259.180	-200.000	0.002	0.176
-258.165	64.897	-0.242	0.240
-257.151	22.180	0.152	0.122
-256.136	138.985	0.109	0.141
-255.122	-200.000	0.009	-0.050
-254.107	-200.000	0.068	-0.343
-253.092	-200.000	-0.025	-0.209
-252.078	83.939	-0.114	0.123
-251.063	-193.203	-0.209	0.002
-250.049	779.376	-0.040	-0.108
-249.034	800.000	-0.053	0.160
-248.019	3.508	0.263	-0.189
-247.005	-133.995	0.215	-0.026
-245.990	-58.287	0.246	-0.105
-244.976	-24.229	-0.140	-0.082
-243.961	111.252	0.217	-0.257
-242.946	-74.822	-0.258	-0.091
-241.932	-125.060	0.382	-0.058
-240.917	227.720	-0.073	-0.116
-239.903	132.090	-0.051	-0.065
-238.888	800.000	-0.078	0.215
-237.873	216.299	-0.194	0.303
-236.859	-138.132	-0.204	0.022
-235.844	191.529	0.147	0.218
-234.830	118.735	-0.176	-0.214
-233.815	-143.768	-0.260	0.024
-232.800	-29.166	0.137	0.077
-231.786	-63.811	-0.095	-0.038
-230.771	800.000	-0.043	-0.162
-229.757	174.546	-0.095	-0.136
-228.742	-57.071	0.078	0.034
-227.727	-111.104	0.084	0.017
-226.713	800.000	-0.020	-0.055
-225.698	-200.000	0.008	-0.233
-224.684	-200.000	0.002	-0.081
-223.669	-152.349	0.063	-0.004
-222.655	531.469	-0.039	0.090
-221.640	60.389	-0.336	0.328
-220.625	-108.978	0.179	0.038
-219.611	-157.125	-0.179	-0.011
-218.596	63.605	-0.158	0.156
-217.582	-200.000	0.035	-0.231
-216.567	-200.000	0.007	-0.351
-215.552	22.922	-0.158	-0.127
-214.538	-189.965	0.326	0.004
-213.523	-200.000	-0.014	0.117
-212.509	-47.050	0.102	0.049
-211.494	-141.525	0.205	-0.020
-210.479	49.279	0.045	0.042
-209.465	-25.611	-0.338	0.196
-208.450	800.000	-0.016	0.049
-207.436	-140.396	-0.143	0.015
-206.421	-136.908	0.264	-0.030
-205.406	221.966	0.204	-0.322
-204.392	-197.470	0.431	-0.003
-203.377	-120.660	-0.362	0.060
-202.363	-200.000	0.027	0.199
-201.348	-69.632	0.047	0.018
-200.333	-51.275	-0.359	-0.165
-199.319	-83.123	0.179	-0.057
-198.304	77.006	0.144	-0.150
-197.290	28.093	0.225	-0.187
-196.275	751.551	0.097	0.258
-195.260	-129.145	0.070	-0.010
-194.246	800.000	-0.127	-0.367
-193.231	-126.842	0.279	0.040
-192.217	-99.717	0.240	-0.059
-191.202	-200.000	0.000	-0.055
-190.187	738.447	-0.036	-0.096
-189.173	-200.000	-0.066	0.297
-188.158	-62.820	0.313	0.127
-187.144	-7.364	0.305	0.203
-186.129	299.018	-0.177	-0.320
-185.114	-57.762	0.298	0.128
-184.100	800.000	-0.122	-0.512
-183.085	733.376	0.135	0.354
-182.071	-200.000	0.023	0.165
-181.056	305.248	-0.172	0.314
-180.042	-75.514	0.323	-0.113
-179.027	-84.437	0.125	0.039
-178.012	-39.819	0.179	0.092
-176.998	-81.014	0.059	-0.019
-175.983	800.000	0.076	0.224
-174.969	213.852	0.115	-0.179
-173.954	76.026	0.133	-0.138
-172.939	95.516	0.226	0.253
-171.925	-200.000	-0.000	0.188
-170.910	-12.795	0.177	0.113
-169.896	-96.109	0.157	0.041
-168.881	-40.785	-0.198	-0.100
-167.866	-45.216	0.148	-0.072
-166.852	118.207	0.046	0.056
-165.837	-64.465	0.045	-0.018
-164.823	295.726	-0.139	-0.250
-163.808	129.145	0.071	0.089
-162.793	800.000	0.124	0.468
-161.779	3.463	0.257	0.184
-160.764	70.054	0.186	0.188
-159.750	-78.566	-0.053	-0.018
-158.735	800.000	0.069	-0.208
-157.720	-143.331	-0.200	-0.019
-156.706	-57.106	-0.574	0.248
-155.691	-148.082	0.131	-0.011
-154.677	192.688	-0.109	0.161
-153.662	-90.364	0.163	-0.046
-152.647	-88.288	-0.479	-0.140
-151.633	-72.420	0.243	0.088
-150.618	14.412	-0.075	0.057
-149.604	755.537	0.093	-0.246
-148.589	311.098	-0.027	-0.050
-147.574	-200.000	0.014	0.116
-146.560	97.034	-0.092	-0.103
-145.545	-70.974	0.219	0.081
-144.531	63.857	-0.164	-0.161
-143.516	302.273	-0.085	-0.154
-142.502	800.000	-0.091	-0.370
-141.487	-34.533	0.229	-0.123
-140.472	-23.174	0.209	0.123
-139.458	147.001	-0.254	0.335
-138.443	800.000	0.055	0.179
-137.429	-10.025	0.341	0.222
-136.414	159.072	0.111	0.151
-135.399	-115.910	0.100	-0.018
-134.385	-29.051	-0.179	-0.101
-133.370	800.000	0.128	0.353
-132.356	388.300	-0.084	0.169
-131.341	79.141	0.042	0.044
-130.326	800.000	0.042	-0.172
-129.312	-11.822	0.025	0.016
-128.297	-200.000	0.008	0.337
-127.283	476.014	0.091	-0.202
-126.268	515.952	0.106	0.243
-125.253	74.061	-0.204	-0.210
-124.239	-200.000	0.014	0.130
-123.224	-200.000	0.009	0.205
-122.210	90.899	0.014	-0.015
-121.195	-105.594	-0.278	-0.062
