DTS Sentinel unit serial number:	SN413079Multiplexer serial number:	ORYXHardware model number:	OX4-SRSoftware version number:	ORYX F/W v4.00 Oryx Data Collector v3.7.2.0data status	okinstallation	princeton_trtdifferential loss correction	single-endedforward channel	channel 1reverse channel	N/Adate	2019/09/18time	06:18:35forward acquisition time	60.00reverse acquisition time	0.00gamma	496.2192k internal	0.2339k external	0.2339temperature offset calibration	0.9976default loss term (dB/km)	0.3790temperature slope calibration	1.0000multiplexer offset coefficient	1.0000multiplexer slope coefficient	1.0000fibre end	0.00T internal ref (°C)	23.25T ext. ref 1 (°C)	0.19T ext. ref 2 (°C)	17.84length (m)	temperature (°C)	Stokes	anti-Stokes-747.200	-1.426	-0.121	0.086
-746.185	-110.401	0.068	-0.014
-745.171	-200.000	-0.048	0.309
-744.156	-20.587	-0.168	0.103
-743.142	-13.479	0.082	-0.053
-742.127	-0.705	-0.351	0.250
-741.112	-19.475	0.092	0.057
-740.098	160.784	-0.187	0.262
-739.083	8.132	0.066	0.050
-738.069	-125.795	-0.278	-0.042
-737.054	-140.308	-0.215	-0.023
-736.039	379.489	0.161	-0.330
-735.025	-20.652	0.295	0.182
-734.010	-200.000	0.037	-0.366
-732.996	-200.000	-0.038	-0.294
-731.981	-122.347	0.182	0.030
-730.966	62.516	-0.110	-0.110
-729.952	800.000	-0.047	0.141
-728.937	-5.105	-0.208	0.144
-727.923	-200.000	0.028	-0.158
-726.908	-200.000	-0.002	-0.374
-725.894	55.018	0.147	-0.143
-724.879	23.389	0.157	-0.130
-723.864	-160.457	0.035	0.002
-722.850	788.087	0.081	-0.222
-721.835	800.000	0.046	0.195
-720.821	32.300	-0.035	0.031
-719.806	88.926	0.113	0.126
-718.791	800.000	-0.117	-0.348
-717.777	-148.399	0.252	0.021
-716.762	74.750	0.181	0.190
-715.748	-27.425	0.054	-0.031
-714.733	179.217	-0.094	-0.138
-713.718	697.862	-0.151	-0.397
-712.704	-60.523	0.266	-0.113
-711.689	-27.670	-0.225	0.131
-710.675	-75.758	0.112	0.040
-709.660	-200.000	-0.017	0.138
-708.645	-80.052	-0.121	-0.041
-707.631	247.425	0.064	-0.108
-706.616	-136.365	-0.429	-0.050
-705.602	800.000	0.124	-0.431
-704.587	-200.000	-0.043	0.306
-703.572	597.160	0.074	0.182
-702.558	239.214	0.082	0.136
-701.543	-150.865	0.387	-0.029
-700.529	-64.723	0.261	0.106
-699.514	158.207	0.153	0.213
-698.499	148.699	-0.087	-0.117
-697.485	-200.000	-0.077	0.465
-696.470	-65.420	0.197	-0.079
-695.456	-200.000	0.012	0.100
-694.441	-200.000	-0.001	-0.020
-693.426	-113.708	-0.258	0.050
-692.412	244.519	0.215	0.361
-691.397	319.866	0.125	-0.238
-690.383	46.264	0.164	0.152
-689.368	-77.999	-0.067	-0.023
-688.354	-15.887	-0.244	-0.156
-687.339	-172.845	0.274	0.009
-686.324	13.978	-0.209	-0.163
-685.310	238.598	0.069	-0.115
-684.295	-179.427	-0.345	-0.008
-683.281	-45.464	-0.262	-0.130
-682.266	-200.000	0.012	0.060
-681.251	64.463	-0.126	0.127
-680.237	-122.315	0.078	0.013
-679.222	177.226	-0.094	0.136
-678.208	-190.723	0.138	0.001
-677.193	162.026	0.093	0.130
-676.178	47.785	-0.179	-0.167
-675.164	560.426	-0.190	-0.460
-674.149	-24.639	0.131	0.078
-673.135	75.338	-0.094	-0.099
-672.120	-158.034	-0.267	0.016
-671.105	194.365	0.287	0.435
-670.091	-90.106	-0.192	0.056
-669.076	-6.141	0.087	-0.059
-668.062	154.149	0.049	0.067
-667.047	-157.373	0.166	-0.010
-666.032	10.644	0.071	-0.054
-665.018	348.990	-0.022	-0.043
-664.003	-93.804	-0.093	-0.026
-662.989	620.406	0.096	-0.241
-661.974	-133.582	0.306	0.038
-660.959	800.000	-0.051	-0.219
-659.945	-142.441	-0.213	-0.021
-658.930	-115.019	0.259	-0.049
-657.916	82.329	0.174	0.189
-656.901	-200.000	-0.050	-0.243
-655.886	350.481	0.085	-0.168
-654.872	-200.000	0.022	-0.215
-653.857	-40.516	-0.048	-0.025
-652.843	22.521	-0.064	0.053
-651.828	-46.685	-0.139	-0.068
-650.814	800.000	-0.092	0.266
-649.799	800.000	-0.033	0.117
-648.784	-101.651	-0.226	-0.055
-647.770	668.015	-0.050	0.129
-646.755	-200.000	0.015	-0.196
-645.741	38.489	-0.103	0.092
-644.726	39.289	0.251	-0.224
-643.711	-200.000	0.002	-0.120
-642.697	18.808	0.121	-0.097
-641.682	-43.088	0.311	-0.158
-640.668	-181.419	0.140	-0.003
-639.653	16.831	0.226	0.179
-638.638	-200.000	0.010	-0.154
-637.624	-30.630	0.283	-0.160
-636.609	-51.623	-0.140	0.065
-635.595	768.547	0.069	0.187
-634.580	-92.915	0.081	-0.022
-633.565	78.244	-0.033	0.036
-632.551	-83.102	-0.236	0.076
-631.536	480.160	-0.050	-0.113
-630.522	-45.439	-0.389	0.192
-629.507	792.265	-0.070	-0.192
-628.492	19.804	-0.270	-0.217
-627.478	761.877	-0.026	-0.070
-626.463	-200.000	-0.054	-0.250
-625.449	-200.000	-0.032	-0.317
-624.434	62.047	0.238	0.237
-623.419	399.719	0.191	-0.400
-622.405	-200.000	0.049	-0.217
-621.390	-94.087	-0.352	-0.096
-620.376	-156.256	0.413	-0.026
-619.361	58.520	0.078	-0.076
-618.346	-99.881	0.157	-0.039
-617.332	235.495	-0.217	-0.358
-616.317	-198.887	0.175	-0.001
-615.303	800.000	-0.041	0.162
-614.288	-17.756	-0.109	-0.069
-613.273	800.000	-0.050	0.203
-612.259	92.254	0.153	-0.172
-611.244	-52.523	-0.159	0.073
-610.230	-172.130	-0.298	0.010
-609.215	-87.323	0.271	-0.082
-608.201	238.366	-0.179	0.296
-607.186	108.317	0.048	0.058
-606.171	-200.000	0.062	-0.318
-605.157	-94.694	0.325	0.088
-604.142	-43.692	0.106	0.053
-603.128	800.000	-0.046	-0.141
-602.113	800.000	0.038	-0.109
-601.098	-200.000	0.094	0.000
-600.084	-5.369	-0.155	0.106
-599.069	358.022	-0.047	-0.094
-598.055	429.342	-0.051	-0.111
-597.040	800.000	0.019	-0.053
-596.025	800.000	0.012	0.043
-595.011	89.349	0.177	0.197
-593.996	-200.000	-0.042	0.398
-592.982	356.621	0.118	-0.235
-591.967	800.000	-0.007	-0.024
-590.952	-200.000	0.004	-0.174
-589.938	800.000	-0.116	-0.337
-588.923	-200.000	0.033	0.149
-587.909	78.153	-0.268	-0.285
-586.894	-141.652	-0.098	-0.010
-585.879	-32.811	-0.172	-0.095
-584.865	-103.775	0.240	0.056
-583.850	800.000	-0.064	-0.261
-582.836	-52.324	-0.264	-0.122
-581.821	-92.019	0.115	0.032
-580.806	286.293	0.156	0.281
-579.792	-37.067	-0.113	-0.060
-578.777	11.878	0.169	-0.129
-577.763	800.000	-0.065	-0.279
-576.748	161.426	-0.138	0.192
-575.733	19.221	0.230	-0.184
-574.719	177.532	-0.102	0.147
-573.704	-16.883	0.065	0.041
-572.690	348.734	0.118	-0.233
-571.675	6.630	0.208	-0.154
-570.661	-82.798	-0.540	0.174
-569.646	-58.093	0.254	0.111
-568.631	-161.690	-0.208	-0.011
-567.617	-96.940	0.193	0.050
-566.602	-70.130	-0.157	-0.060
-565.588	-86.065	0.076	-0.024
-564.573	50.352	0.343	0.323
-563.558	73.070	0.169	0.176
-562.544	776.891	-0.019	0.051
-561.529	262.804	0.232	-0.402
-560.515	-138.157	0.370	-0.041
-559.500	-0.209	-0.266	-0.188
-558.485	212.163	0.184	-0.289
-557.471	-36.698	-0.020	0.011
-556.456	-99.179	-0.226	0.057
-555.442	-45.142	-0.183	0.090
-554.427	-109.163	0.248	-0.052
-553.412	-85.577	-0.244	-0.075
-552.398	276.574	-0.226	-0.400
-551.383	-200.000	0.015	0.244
-550.369	-93.267	0.094	-0.026
-549.354	7.985	0.176	-0.131
-548.339	348.297	0.089	-0.175
-547.325	-111.458	0.216	-0.044
-546.310	-68.381	0.082	0.032
-545.296	800.000	0.052	-0.165
-544.281	196.326	0.264	-0.400
-543.266	-155.089	0.167	-0.011
-542.252	800.000	-0.061	0.172
-541.237	-8.702	0.229	0.153
-540.223	252.294	-0.232	0.393
-539.208	-61.438	0.141	-0.059
-538.193	64.569	-0.095	0.095
-537.179	212.219	-0.252	0.395
-536.164	29.991	-0.113	-0.096
-535.150	68.397	0.209	0.213
-534.135	218.649	0.029	0.046
-533.121	-4.475	0.187	-0.128
-532.106	630.842	0.128	0.323
-531.091	42.314	0.200	0.181
-530.077	4.993	0.183	-0.134
-529.062	-153.251	-0.223	-0.016
-528.048	-126.108	-0.154	-0.023
-527.033	13.287	-0.370	0.285
-526.018	-139.274	-0.205	0.022
-525.004	-24.483	-0.231	0.137
-523.989	-82.540	-0.203	0.065
-522.975	3.355	0.058	0.042
-521.960	-68.553	-0.267	0.103
-520.945	-200.000	-0.058	-0.396
-519.931	-128.523	-0.469	0.066
-518.916	287.860	0.126	0.226
-517.902	182.525	0.099	-0.145
-516.887	-133.734	0.238	-0.029
-515.872	800.000	-0.058	-0.214
-514.858	340.709	-0.124	0.241
-513.843	-127.851	-0.164	0.023
-512.829	-72.327	-0.121	0.045
-511.814	-134.665	0.042	-0.005
-510.799	96.806	-0.103	-0.117
-509.785	3.012	0.128	-0.092
-508.770	33.735	-0.312	-0.270
-507.756	-7.479	0.417	0.281
-506.741	-39.496	0.103	-0.054
-505.726	-108.153	-0.244	-0.053
-504.712	156.100	0.173	-0.237
-503.697	800.000	0.041	-0.166
-502.683	-193.357	-0.094	-0.001
-501.668	-72.057	-0.389	0.144
-500.653	-45.480	0.298	-0.147
-499.639	-112.666	0.092	-0.018
-498.624	-60.806	-0.041	0.017
-497.610	-200.000	-0.092	0.411
-496.595	-120.046	0.089	0.015
-495.581	159.067	-0.272	-0.375
-494.566	-200.000	-0.167	-0.001
-493.551	14.868	0.139	-0.108
-492.537	80.433	0.170	0.182
-491.522	142.359	0.272	-0.358
-490.508	-12.956	0.207	0.134
-489.493	-21.370	-0.165	-0.100
-488.478	10.895	-0.102	-0.077
-487.464	-200.000	0.029	-0.271
-486.449	-49.905	0.304	0.143
-485.435	-200.000	-0.021	-0.390
-484.420	-162.190	-0.049	0.002
-483.405	-200.000	0.032	-0.340
-482.391	-200.000	0.019	0.088
-481.376	-90.069	0.116	0.034
-480.362	-12.060	-0.208	0.135
-479.347	-122.994	-0.371	-0.059
-478.332	-174.898	0.392	-0.011
-477.318	800.000	0.086	0.321
-476.303	-103.513	-0.429	-0.100
-475.289	312.538	-0.131	0.244
-474.274	800.000	0.023	-0.093
-473.259	337.065	-0.039	-0.076
-472.245	64.345	0.153	0.153
-471.230	198.989	-0.094	-0.143
-470.216	-149.689	-0.379	0.030
-469.201	-95.023	-0.158	-0.042
-468.186	24.585	0.089	-0.073
-467.172	424.102	-0.217	0.462
-466.157	-108.746	0.137	0.029
-465.143	-200.000	0.008	0.105
-464.128	-200.000	-0.039	0.188
-463.113	-55.855	0.329	0.146
-462.099	-57.227	-0.222	-0.097
-461.084	255.275	0.079	0.135
-460.070	-36.403	0.439	0.235
-459.055	290.988	-0.185	0.333
-458.040	1.244	-0.096	-0.068
-457.026	24.621	0.209	-0.172
-456.011	-46.130	-0.011	-0.006
-454.997	-200.000	-0.013	0.469
-453.982	646.798	-0.048	-0.121
-452.968	205.984	0.183	0.283
-451.953	-75.705	0.123	-0.043
-450.938	124.020	-0.102	-0.127
-449.924	54.525	0.155	0.149
-448.909	199.140	0.122	0.185
-447.895	800.000	-0.032	0.097
-446.880	-166.288	-0.171	-0.007
-445.865	-128.253	0.161	-0.023
-444.851	800.000	-0.037	-0.137
-443.836	-200.000	-0.027	0.243
-442.822	181.966	0.052	-0.076
-441.807	800.000	0.103	-0.285
-440.792	98.756	0.093	0.106
-439.778	387.994	-0.033	-0.067
-438.763	-200.000	-0.026	0.155
-437.749	-37.780	-0.023	0.012
-436.734	529.766	0.060	0.141
-435.719	94.778	0.096	0.108
-434.705	-0.743	-0.144	-0.101
-433.690	82.188	0.127	0.136
-432.676	-200.000	0.065	-0.393
-431.661	800.000	-0.065	-0.250
-430.646	-82.000	-0.632	0.205
-429.632	29.825	0.123	0.104
-428.617	-200.000	-0.002	0.052
-427.603	-46.247	-0.300	-0.146
-426.588	37.663	-0.003	0.002
-425.573	-136.416	0.126	-0.014
-424.559	33.473	0.078	-0.067
-423.544	50.204	0.139	-0.130
-422.530	-200.000	0.044	-0.222
-421.515	240.083	0.086	-0.141
-420.500	-200.000	0.003	0.168
-419.486	750.641	-0.118	0.315
-418.471	-22.561	-0.330	-0.197
-417.457	485.012	0.104	0.235
-416.442	48.864	-0.209	-0.194
-415.428	800.000	-0.013	-0.039
-414.413	800.000	-0.086	0.283
-413.398	113.737	0.095	0.114
-412.384	549.684	-0.060	0.142
-411.369	-200.000	-0.036	0.385
-410.355	89.195	-0.069	-0.077
-409.340	15.129	0.064	-0.050
-408.325	-71.347	0.176	-0.065
-407.311	771.517	0.081	0.220
-406.296	-60.116	0.299	-0.126
-405.282	-0.807	0.323	0.227
-404.267	301.822	-0.081	0.148
-403.252	84.119	-0.087	-0.094
-402.238	-200.000	0.031	0.373
-401.223	-107.516	0.163	-0.035
-400.209	-14.350	-0.268	0.171
-399.194	17.890	-0.128	-0.101
-398.179	283.947	-0.044	-0.078
-397.165	-152.121	0.137	-0.010
-396.150	267.956	-0.062	-0.107
-395.136	-200.000	0.005	0.165
-394.121	-69.539	0.131	0.050
-393.106	31.824	0.219	0.186
-392.092	-155.232	-0.214	0.014
-391.077	-64.648	0.083	0.033
-390.063	58.455	0.180	-0.174
-389.048	391.039	-0.166	-0.340
-388.033	-48.855	-0.265	-0.125
-387.019	315.375	-0.092	-0.172
-386.004	791.151	0.077	-0.209
-384.990	101.395	0.072	-0.082
-383.975	88.085	0.157	-0.172
-382.960	-58.481	-0.352	-0.151
-381.946	800.000	-0.018	0.074
-380.931	-129.681	0.273	-0.037
-379.917	-77.105	0.366	0.126
-378.902	-40.874	-0.221	-0.113
-377.888	-33.255	-0.124	-0.068
-376.873	-73.060	0.175	-0.064
-375.858	38.983	-0.499	0.441
-374.844	-200.000	0.065	0.284
-373.829	-144.383	0.352	0.032
-372.815	800.000	0.040	-0.145
-371.800	53.459	0.205	0.194
-370.785	-11.827	-0.262	0.170
-369.771	371.483	0.113	0.226
-368.756	625.899	-0.029	0.071
-367.742	67.020	-0.067	-0.067
-366.727	71.207	0.056	0.057
-365.712	-43.555	0.202	-0.101
-364.698	-200.000	-0.094	-0.413
-363.683	-108.554	-0.330	-0.070
-362.669	800.000	0.033	0.138
-361.654	202.813	-0.065	-0.100
-360.639	-106.037	-0.304	-0.068
-359.625	-170.062	-0.029	0.001
-358.610	-200.000	0.006	0.123
-357.596	-169.192	-0.232	-0.008
-356.581	358.288	-0.096	-0.190
-355.566	-4.394	0.291	0.199
-354.552	9.408	0.165	0.123
-353.537	-200.000	0.006	0.296
-352.523	-53.498	-0.227	0.102
-351.508	-89.978	0.103	-0.030
-350.493	-40.162	-0.340	0.175
-349.479	800.000	0.081	0.255
-348.464	-64.193	-0.521	0.210
-347.450	-159.379	-0.140	-0.008
-346.435	4.492	-0.384	-0.278
-345.420	37.197	0.156	-0.136
-344.406	-23.609	0.118	0.070
-343.391	78.237	0.030	0.032
-342.377	486.467	0.037	0.083
-341.362	-200.000	0.017	0.085
-340.348	56.605	-0.327	0.314
-339.333	-20.309	0.154	0.094
-338.318	-139.540	0.102	-0.011
-337.304	12.272	-0.341	-0.259
-336.289	-74.134	-0.159	0.057
-335.275	-200.000	0.036	0.291
-334.260	-200.000	-0.003	-0.272
-333.245	-58.837	0.308	0.131
-332.231	138.569	0.086	0.111
-331.216	-80.217	-0.119	0.039
-330.202	-200.000	-0.009	0.264
-329.187	-200.000	0.015	0.312
-328.172	800.000	0.057	-0.170
-327.158	-200.000	-0.036	-0.194
-326.143	25.045	0.098	-0.080
-325.129	-65.313	0.224	-0.089
-324.114	-81.875	0.174	-0.056
-323.099	-87.456	0.029	-0.009
-322.085	77.569	-0.174	0.183
-321.070	-132.319	-0.276	-0.035
-320.056	-200.000	-0.006	-0.296
-319.041	-28.380	0.350	0.199
-318.026	224.155	0.226	-0.359
-317.012	-200.000	-0.070	-0.715
-315.997	-32.932	0.294	-0.161
-314.983	-31.434	0.310	-0.172
-313.968	-88.158	-0.089	0.026
-312.953	-48.391	-0.179	0.085
-311.939	-70.461	0.210	-0.078
-310.924	-35.510	-0.301	-0.161
-309.910	278.497	0.114	-0.200
-308.895	-200.000	0.037	0.331
-307.880	-200.000	0.337	0.001
-306.866	339.074	0.119	-0.229
-305.851	-33.115	0.110	-0.060
-304.837	119.461	0.213	0.260
-303.822	-30.585	-0.223	0.124
-302.807	284.628	0.144	-0.256
-301.793	-200.000	-0.053	0.355
-300.778	-200.000	0.062	0.537
-299.764	800.000	-0.085	-0.356
-298.749	403.849	-0.127	-0.264
-297.735	800.000	-0.091	0.376
-296.720	6.606	-0.109	-0.080
-295.705	-174.528	-0.192	-0.005
-294.691	73.404	0.214	0.220
-293.676	64.799	-0.109	0.108
-292.662	-99.629	-0.297	-0.074
-291.647	-105.729	0.240	-0.053
-290.632	-115.250	0.423	0.079
-289.618	-170.335	0.268	0.009
-288.603	-67.714	-0.207	0.080
-287.589	-200.000	0.030	0.156
-286.574	-51.623	0.332	0.152
-285.559	-131.676	-0.280	0.036
-284.545	609.059	0.123	0.302
-283.530	-149.201	-0.231	-0.018
-282.516	149.047	-0.042	-0.056
-281.501	128.121	-0.170	0.212
-280.486	51.649	-0.140	-0.131
-279.472	-57.270	-0.170	-0.074
-278.457	-200.000	-0.034	-0.525
-277.443	-94.038	0.333	-0.090
-276.428	-97.172	0.297	0.076
-275.413	-17.744	-0.205	0.127
-274.399	-91.877	-0.214	0.060
-273.384	-0.761	0.073	-0.051
-272.370	57.964	0.250	0.241
-271.355	-20.722	0.106	-0.064
-270.340	-47.286	0.078	-0.037
-269.326	800.000	-0.140	0.388
-268.311	800.000	-0.091	0.354
-267.297	800.000	0.096	-0.339
-266.282	38.798	0.125	0.110
-265.267	-91.472	0.320	0.090
-264.253	-200.000	-0.004	0.043
-263.238	61.905	0.021	-0.021
-262.224	800.000	-0.006	0.023
-261.209	-181.799	0.200	-0.004
-260.195	18.534	-0.107	0.084
-259.180	-173.605	0.143	-0.004
-258.165	39.676	0.242	-0.214
-257.151	-10.649	0.244	0.159
-256.136	3.508	0.347	0.249
-255.122	-129.902	-0.220	0.030
-254.107	-68.479	-0.098	-0.037
-253.092	50.850	-0.160	-0.149
-252.078	305.497	0.158	0.289
-251.063	431.675	0.115	-0.245
-250.049	-87.256	-0.080	0.024
-249.034	800.000	0.019	0.059
-248.019	-15.042	-0.152	-0.096
-247.005	-103.974	-0.298	0.068
-245.990	796.960	-0.125	0.339
-244.976	-42.564	0.144	0.072
-243.961	-66.677	0.526	-0.205
-242.946	800.000	-0.118	0.359
-241.932	126.736	-0.084	0.104
-240.917	377.147	0.172	0.345
-239.903	-200.000	0.022	-0.207
-238.888	-200.000	0.044	-0.245
-237.873	-159.713	-0.134	0.007
-236.859	-106.033	0.257	0.057
-235.844	-200.000	0.011	-0.182
-234.830	714.223	0.114	0.298
-233.815	106.764	-0.102	0.119
-232.800	-27.885	-0.079	0.045
-231.786	-161.370	0.108	-0.006
-230.771	-56.196	0.177	0.077
-229.757	644.254	0.073	0.183
-228.742	-105.494	-0.350	-0.078
-227.727	-124.278	-0.306	-0.047
-226.713	-200.000	-0.021	-0.113
-225.698	-24.476	-0.182	-0.106
-224.684	-200.000	0.070	0.345
-223.669	48.503	0.086	0.079
-222.655	-33.419	-0.309	-0.168
-221.640	104.040	0.139	-0.161
-220.625	-75.716	0.255	-0.089
-219.611	-110.095	0.128	-0.026
-218.596	800.000	-0.061	0.184
-217.582	99.821	0.077	0.088
-216.567	89.516	-0.135	0.148
-215.552	167.345	-0.259	-0.362
-214.538	-160.974	-0.068	-0.003
-213.523	-95.299	-0.248	0.065
-212.509	58.541	-0.129	-0.124
-211.494	-200.000	-0.009	0.403
-210.479	549.473	0.059	-0.138
-209.465	-200.000	-0.007	-0.152
-208.450	5.150	0.318	-0.230
-207.436	-200.000	-0.052	-0.270
-206.421	-77.700	-0.223	-0.076
-205.406	673.732	0.084	-0.214
-204.392	7.502	-0.139	-0.102
-203.377	72.454	-0.044	-0.045
-202.363	511.716	-0.049	-0.112
-201.348	800.000	-0.033	0.116
-200.333	-68.854	-0.200	0.076
-199.319	800.000	-0.112	-0.390
-198.304	-47.679	-0.142	0.068
-197.290	-200.000	-0.035	0.173
-196.275	-200.000	0.006	0.192
-195.260	341.245	-0.181	0.346
-194.246	800.000	0.076	-0.233
-193.231	29.892	-0.373	-0.312
-192.217	-32.877	0.092	0.050
-191.202	800.000	0.017	0.050
-190.187	-67.601	-0.278	-0.107
-189.173	112.092	-0.172	0.204
-188.158	138.690	-0.161	0.207
-187.144	-110.030	0.145	-0.030
-186.129	-200.000	0.019	0.102
-185.114	562.675	0.040	-0.094
-184.100	800.000	-0.064	-0.186
-183.085	-200.000	0.069	0.331
-182.071	800.000	-0.041	0.158
-181.056	-42.706	0.011	0.005
-180.042	-106.640	-0.120	0.026
-179.027	-72.268	0.144	0.052
-178.012	312.783	-0.098	-0.181
-176.998	-63.232	0.203	-0.082
-175.983	-168.682	0.437	-0.016
-174.969	-200.000	-0.027	-0.373
-173.954	-106.443	-0.145	-0.032
-172.939	-200.000	0.001	0.190
-171.925	-200.000	-0.027	-0.121
-170.910	759.772	-0.131	-0.348
-169.896	96.970	0.083	-0.093
-168.881	-67.945	0.164	-0.063
-167.866	-141.542	-0.397	-0.039
-166.852	161.918	-0.244	-0.335
-165.837	-200.000	0.020	0.306
-164.823	193.305	-0.149	-0.220
-163.808	65.274	-0.107	-0.106
-162.793	-46.397	0.167	-0.080
-161.779	-3.944	0.288	-0.196
-160.764	229.096	0.029	0.047
-159.750	274.253	0.148	-0.257
-158.735	-144.744	0.115	0.010
-157.720	-200.000	0.031	0.314
-156.706	244.637	0.106	-0.174
-155.691	88.572	-0.248	0.270
-154.677	60.111	0.075	-0.073
-153.662	115.798	-0.149	-0.179
-152.647	103.525	0.176	0.203
-151.633	-200.000	-0.009	0.234
-150.618	-16.438	0.303	-0.188
-149.604	-32.883	-0.198	0.108
-148.589	-200.000	0.057	0.262
-147.574	20.905	0.178	-0.141
-146.560	-200.000	0.040	-0.183
-145.545	-200.000	-0.010	0.149
-144.531	-42.974	-0.183	0.091
-143.516	-200.000	0.012	-0.147
-142.502	-47.374	-0.145	-0.069
-141.487	170.266	0.087	-0.122
-140.472	-87.374	-0.234	0.069
-139.458	-55.904	0.127	0.055
-138.443	411.119	0.054	-0.112
-137.429	113.616	0.222	0.264
-136.414	800.000	-0.043	-0.125
-135.399	-85.730	0.098	0.030
-134.385	800.000	0.130	0.402
-133.370	-1.541	0.268	-0.185
-132.356	-200.000	-0.063	-0.392
-131.341	112.642	0.164	0.194
-130.326	-142.208	-0.283	-0.027
-129.312	-9.638	-0.143	0.093
-128.297	-3.430	0.146	-0.100
-127.283	20.865	0.148	-0.117
-126.268	-149.163	0.388	0.030
-125.253	-132.453	-0.466	-0.059
-124.239	800.000	0.090	-0.314
-123.224	-46.677	0.214	-0.103
-122.210	-126.831	-0.129	0.019
-121.195	173.198	-0.131	0.186
-120.180	-93.167	0.268	-0.073
