DTS Sentinel unit serial number:	SN413079Multiplexer serial number:	ORYXHardware model number:	OX4-SRSoftware version number:	ORYX F/W v4.00 Oryx Data Collector v3.7.2.0data status	okinstallation	princeton_trtdifferential loss correction	single-endedforward channel	channel 1reverse channel	N/Adate	2019/09/15time	21:02:35forward acquisition time	60.00reverse acquisition time	0.00gamma	496.2192k internal	0.2328k external	0.2328temperature offset calibration	0.9959default loss term (dB/km)	0.3790temperature slope calibration	1.0000multiplexer offset coefficient	1.0000multiplexer slope coefficient	1.0000fibre end	0.00T internal ref (°C)	31.70T ext. ref 1 (°C)	8.07T ext. ref 2 (°C)	24.35length (m)	temperature (°C)	Stokes	anti-Stokes-747.200	420.085	-0.135	0.292
-746.185	-155.456	-0.372	0.024
-745.171	2.291	0.308	0.225
-744.156	8.055	-0.197	0.149
-743.142	-70.320	0.162	0.062
-742.127	22.064	-0.215	-0.177
-741.112	66.870	-0.088	-0.090
-740.098	34.765	0.120	0.106
-739.083	191.290	0.204	-0.310
-738.069	422.675	0.075	0.162
-737.054	352.073	0.127	0.254
-736.039	-149.802	-0.474	0.037
-735.025	-81.078	0.231	0.077
-734.010	-200.000	-0.024	-0.128
-732.996	150.234	-0.089	-0.121
-731.981	89.971	0.197	0.222
-730.966	205.862	0.034	-0.053
-729.952	800.000	-0.097	-0.422
-728.937	-145.340	-0.345	0.031
-727.923	244.876	-0.194	-0.328
-726.908	-4.727	-0.127	-0.089
-725.894	580.679	-0.056	-0.138
-724.879	487.564	0.033	-0.076
-723.864	456.339	0.029	0.064
-722.850	800.000	-0.018	-0.078
-721.835	-138.457	-0.386	0.043
-720.821	367.650	-0.109	-0.223
-719.806	777.964	-0.103	-0.284
-718.791	227.349	-0.128	-0.209
-717.777	-166.549	-0.067	-0.003
-716.762	-155.178	-0.257	-0.017
-715.748	800.000	-0.080	0.227
-714.733	-23.320	-0.063	0.038
-713.718	-171.558	0.108	0.004
-712.704	33.919	0.110	0.096
-711.689	-7.365	-0.088	0.060
-710.675	23.636	0.188	0.156
-709.660	172.585	-0.198	0.287
-708.645	365.922	0.131	-0.266
-707.631	-13.999	-0.449	-0.292
-706.616	94.647	-0.139	-0.158
-705.602	245.299	-0.132	-0.223
-704.587	800.000	0.040	-0.146
-703.572	-125.837	0.696	-0.106
-702.558	800.000	0.059	-0.251
-701.543	-121.946	0.099	-0.016
-700.529	-200.000	-0.014	-0.451
-699.514	86.300	-0.117	0.130
-698.499	470.206	-0.055	0.124
-697.485	-86.045	-0.214	0.066
-696.470	-20.952	-0.249	0.154
-695.456	-6.662	-0.268	0.183
-694.441	800.000	-0.151	-0.433
-693.426	424.788	0.017	0.036
-692.412	-69.614	0.146	0.056
-691.397	-200.000	0.028	0.148
-690.383	-36.568	0.316	0.171
-689.368	256.065	0.148	-0.255
-688.354	254.388	-0.018	-0.031
-687.339	-7.630	-0.142	-0.097
-686.324	-157.629	0.348	-0.021
-685.310	26.369	0.075	-0.063
-684.295	-200.000	-0.324	-0.000
-683.281	78.434	-0.048	-0.052
-682.266	-200.000	-0.008	-0.147
-681.251	-111.522	-0.286	0.058
-680.237	-87.928	0.080	-0.024
-679.222	-114.712	0.084	-0.016
-678.208	141.659	-0.081	0.108
-677.193	-114.908	0.352	0.067
-676.178	-151.329	-0.091	-0.007
-675.164	43.219	-0.330	-0.303
-674.149	-200.000	-0.001	-0.236
-673.135	140.816	-0.101	-0.135
-672.120	-59.081	0.129	0.056
-671.105	-5.482	-0.062	-0.043
-670.091	-24.919	0.225	-0.134
-669.076	96.637	0.153	0.176
-668.062	16.248	0.229	0.181
-667.047	132.376	-0.117	0.152
-666.032	-200.000	-0.034	0.365
-665.018	-25.647	0.011	-0.006
-664.003	-79.378	-0.117	-0.040
-662.989	162.899	0.139	-0.196
-661.974	-47.191	-0.107	0.052
-660.959	48.049	0.220	-0.207
-659.945	15.041	-0.077	0.060
-658.930	489.655	-0.093	-0.213
-657.916	-200.000	-0.061	0.441
-656.901	584.254	0.092	-0.228
-655.886	800.000	-0.041	0.124
-654.872	-200.000	-0.013	0.161
-653.857	-117.239	0.117	-0.021
-652.843	35.141	0.253	-0.223
-651.828	-69.595	-0.296	0.114
-650.814	800.000	-0.030	0.084
-649.799	711.726	-0.088	-0.235
-648.784	-200.000	-0.032	0.360
-647.770	294.661	-0.188	-0.346
-646.755	218.806	-0.136	0.219
-645.741	-129.532	0.148	-0.021
-644.726	28.374	0.235	-0.199
-643.711	-2.487	-0.262	-0.184
-642.697	8.317	-0.467	-0.352
-641.682	190.528	0.153	0.231
-640.668	417.239	-0.160	0.343
-639.653	-103.939	-0.156	-0.037
-638.638	1.693	-0.255	-0.184
-637.624	-135.382	0.226	-0.027
-636.609	-200.000	0.018	-0.175
-635.595	-135.854	-0.163	-0.019
-634.580	72.882	-0.130	-0.136
-633.565	-2.836	0.131	-0.092
-632.551	142.797	-0.069	-0.093
-631.536	43.194	-0.193	0.177
-630.522	-139.805	0.175	0.019
-629.507	-61.262	0.039	-0.016
-628.492	193.827	-0.039	0.059
-627.478	-90.717	0.259	0.075
-626.463	-141.130	0.179	-0.018
-625.449	-135.985	-0.304	0.036
-624.434	23.215	0.069	-0.057
-623.419	-108.090	-0.345	0.075
-622.405	25.886	-0.190	-0.159
-621.390	-11.295	-0.078	-0.051
-620.376	-60.985	-0.159	-0.067
-619.361	584.176	-0.033	0.082
-618.346	324.363	0.101	-0.194
-617.332	-94.632	0.321	0.088
-616.317	-104.496	-0.411	-0.095
-615.303	374.088	0.104	0.212
-614.288	161.401	0.024	0.034
-613.273	169.983	-0.159	-0.228
-612.259	-200.000	0.008	0.279
-611.244	-200.000	-0.019	0.219
-610.230	-104.423	0.219	-0.051
-609.215	-73.230	0.049	-0.018
-608.201	-47.920	0.180	0.088
-607.186	188.428	0.040	0.060
-606.171	-155.490	0.121	-0.008
-605.157	-200.000	-0.009	-0.063
-604.142	-158.891	0.177	-0.010
-603.128	-20.936	-0.240	-0.148
-602.113	-38.258	0.140	-0.074
-601.098	-83.119	0.107	-0.035
-600.084	101.583	0.149	-0.174
-599.069	24.670	-0.242	0.201
-598.055	-67.745	-0.076	-0.030
-597.040	-6.202	-0.202	0.138
-596.025	-80.444	0.250	0.084
-595.011	-88.868	0.185	0.055
-593.996	-56.781	-0.142	0.063
-592.982	-72.334	-0.281	-0.104
-591.967	800.000	0.050	0.171
-590.952	-200.000	0.103	0.472
-589.938	302.731	-0.140	0.260
-588.923	-75.778	0.184	-0.065
-587.909	108.924	0.035	0.042
-586.894	-115.642	0.076	-0.014
-585.879	-110.190	0.239	0.050
-584.865	800.000	-0.122	0.400
-583.850	800.000	-0.045	-0.181
-582.836	102.927	0.083	-0.097
-581.821	0.884	-0.212	-0.152
-580.806	312.950	0.030	0.057
-579.792	-16.125	0.135	-0.086
-578.777	-80.890	0.207	0.069
-577.763	121.944	-0.139	-0.173
-576.748	-54.252	-0.334	-0.152
-575.733	-59.064	-0.126	0.055
-574.719	-200.000	-0.001	-0.221
-573.704	-123.371	0.229	-0.037
-572.690	-37.749	-0.124	0.066
-571.675	50.822	-0.212	-0.201
-570.661	-21.417	-0.336	0.205
-569.646	229.866	-0.191	-0.313
-568.631	130.842	-0.266	-0.342
-567.617	131.542	-0.097	0.124
-566.602	-174.198	-0.218	-0.006
-565.588	283.530	-0.165	-0.296
-564.573	-200.000	0.009	0.104
-563.558	-200.000	-0.003	0.082
-562.544	-33.634	0.328	-0.181
-561.529	-55.555	0.333	-0.149
-560.515	80.962	-0.123	0.132
-559.500	-134.856	-0.404	-0.049
-558.485	-108.609	-0.190	0.041
-557.471	24.057	-0.205	0.169
-556.456	-200.000	0.037	0.502
-555.442	-90.915	0.371	0.107
-554.427	800.000	0.029	-0.125
-553.412	-1.336	0.226	-0.160
-552.398	800.000	0.123	-0.448
-551.383	37.616	0.268	0.238
-550.369	-77.191	-0.169	0.059
-549.354	24.097	-0.254	-0.209
-548.339	-200.000	0.038	-0.202
-547.325	-200.000	-0.057	0.276
-546.310	21.199	0.214	0.174
-545.296	99.538	0.094	-0.109
-544.281	125.108	-0.118	-0.148
-543.266	193.999	-0.108	-0.164
-542.252	-83.736	0.357	0.114
-541.237	-18.585	0.256	-0.160
-540.223	-200.000	0.027	-0.195
-539.208	131.047	-0.084	0.108
-538.193	41.500	-0.182	0.164
-537.179	730.520	-0.080	0.213
-536.164	143.491	0.106	-0.142
-535.150	800.000	-0.090	-0.342
-534.135	265.186	0.097	0.169
-533.121	319.138	0.124	-0.235
-532.106	61.201	-0.096	-0.095
-531.091	-200.000	-0.028	-0.437
-530.077	159.474	-0.053	0.073
-529.062	-200.000	-0.013	0.199
-528.048	74.227	-0.088	-0.093
-527.033	48.461	0.209	0.196
-526.018	-100.043	0.243	0.060
-525.004	65.583	0.287	0.290
-523.989	332.691	-0.091	-0.176
-522.975	28.155	-0.064	0.054
-521.960	-126.105	0.227	0.034
-520.945	-200.000	0.046	-0.242
-519.931	-200.000	-0.013	0.205
-518.916	21.274	0.196	0.159
-517.902	63.005	0.305	0.305
-516.887	367.873	0.019	-0.038
-515.872	-143.479	-0.108	0.010
-514.858	201.753	0.091	0.141
-513.843	-84.875	0.099	-0.031
-512.829	-200.000	0.004	0.120
-511.814	-54.696	0.283	-0.128
-510.799	-200.000	-0.006	-0.086
-509.785	-20.908	0.181	-0.111
-508.770	-81.851	0.466	0.152
-507.756	41.443	-0.103	-0.093
-506.741	114.134	0.190	-0.231
-505.726	27.111	-0.192	-0.161
-504.712	247.045	-0.026	0.043
-503.697	-80.712	0.123	-0.041
-502.683	-69.898	-0.098	-0.037
-501.668	7.714	-0.167	-0.125
-500.653	-59.231	0.252	0.108
-499.639	263.462	0.086	-0.148
-498.624	-200.000	-0.014	-0.208
-497.610	174.080	-0.169	-0.243
-496.595	-200.000	0.017	-0.078
-495.581	9.765	0.313	0.237
-494.566	800.000	0.041	-0.132
-493.551	76.637	0.101	0.106
-492.537	8.330	0.321	-0.241
-491.522	800.000	-0.089	-0.372
-490.508	-188.914	0.272	0.003
-489.493	800.000	-0.065	0.223
-488.478	-97.437	0.284	-0.074
-487.464	529.683	0.096	-0.225
-486.449	-117.806	-0.160	0.029
-485.435	194.325	0.105	0.159
-484.420	800.000	0.128	0.431
-483.405	63.784	-0.405	-0.406
-482.391	-109.880	0.239	0.050
-481.376	-200.000	0.103	-0.622
-480.362	-14.706	-0.434	0.278
-479.347	59.830	-0.050	0.049
-478.332	-125.625	0.214	0.032
-477.318	-49.669	0.192	-0.091
-476.303	-97.679	-0.413	0.107
-475.289	-1.074	-0.186	0.131
-474.274	-14.562	-0.371	0.238
-473.259	153.949	0.243	-0.332
-472.245	-200.000	0.021	-0.097
-471.230	103.259	-0.040	-0.047
-470.216	5.262	-0.409	-0.301
-469.201	-200.000	-0.003	-0.203
-468.186	36.421	-0.178	0.157
-467.172	412.543	0.100	0.212
-466.157	364.813	-0.136	-0.272
-465.143	-200.000	0.037	0.188
-464.128	572.504	0.066	0.160
-463.113	-2.877	-0.115	0.080
-462.099	-85.856	-0.390	-0.120
-461.084	437.300	-0.071	-0.154
-460.070	-200.000	0.016	-0.376
-459.055	-200.000	0.047	-0.329
-458.040	-200.000	0.034	-0.179
-457.026	140.209	-0.066	0.086
-456.011	-200.000	-0.007	0.067
-454.997	-138.343	-0.247	0.027
-453.982	-70.132	0.116	-0.044
-452.968	-47.088	-0.085	0.041
-451.953	-13.616	-0.180	-0.116
-450.938	-40.989	0.098	0.051
-449.924	156.579	-0.111	0.153
-448.909	506.339	0.253	-0.584
-447.895	91.948	-0.038	0.043
-446.880	0.124	0.173	-0.123
-445.865	-192.888	0.398	0.004
-444.851	-200.000	0.059	-0.277
-443.836	9.559	-0.387	-0.292
-442.822	-200.000	-0.010	-0.233
-441.807	-177.484	0.230	-0.006
-440.792	256.965	-0.118	0.202
-439.778	427.027	-0.120	0.257
-438.763	800.000	0.044	-0.152
-437.749	767.095	0.055	-0.150
-436.734	-200.000	-0.018	-0.251
-435.719	449.891	-0.152	-0.334
-434.705	-157.734	0.116	0.007
-433.690	-108.480	-0.387	-0.083
-432.676	332.240	-0.131	0.251
-431.661	-107.670	-0.094	-0.020
-430.646	171.342	0.207	-0.296
-429.632	-200.000	-0.037	-0.483
-428.617	-116.705	0.127	-0.023
-427.603	344.219	-0.092	0.179
-426.588	-153.686	0.160	-0.011
-425.573	67.652	0.189	-0.193
-424.559	-153.765	0.269	-0.018
-423.544	-75.188	-0.213	0.076
-422.530	51.321	0.320	0.302
-421.515	-95.840	0.263	-0.070
-420.500	-192.619	-0.141	-0.001
-419.486	721.971	0.150	0.398
-418.471	-56.135	0.199	0.088
-417.457	800.000	-0.069	-0.274
-416.442	-17.271	-0.280	-0.176
-415.428	137.024	-0.100	-0.130
-414.413	27.923	0.123	0.103
-413.398	-200.000	-0.015	-0.077
-412.384	22.807	0.064	0.052
-411.369	-200.000	0.044	0.222
-410.355	71.348	-0.197	0.203
-409.340	-73.522	-0.132	-0.048
-408.325	-200.000	0.003	0.021
-407.311	-126.344	-0.369	-0.055
-406.296	-151.176	0.217	-0.016
-405.282	577.315	-0.056	-0.135
-404.267	-185.611	0.249	0.004
-403.252	-23.038	-0.168	-0.101
-402.238	165.136	-0.128	0.180
-401.223	800.000	-0.064	0.255
-400.209	179.055	0.139	0.202
-399.194	800.000	0.047	0.172
-398.179	194.820	0.121	-0.183
-397.165	37.804	0.055	0.048
-396.150	-200.000	0.015	0.194
-395.136	111.282	-0.192	-0.230
-394.121	-200.000	-0.048	0.217
-393.106	800.000	0.007	-0.028
-392.092	-200.000	-0.009	-0.070
-391.077	189.016	0.117	-0.175
-390.063	72.235	-0.086	-0.089
-389.048	-82.345	-0.100	-0.032
-388.033	-24.908	0.293	-0.173
-387.019	-128.562	0.228	-0.032
-386.004	206.614	0.080	-0.123
-384.990	42.758	-0.211	0.191
-383.975	-141.192	0.263	0.027
-382.960	-107.084	0.227	-0.050
-381.946	-66.008	-0.366	-0.145
-380.931	-66.375	-0.106	0.042
-379.917	-200.000	0.041	-0.219
-378.902	-72.181	0.177	0.065
-377.888	800.000	-0.035	0.137
-376.873	-62.145	0.204	0.085
-375.858	46.926	0.188	0.173
-374.844	800.000	-0.023	0.065
-373.829	289.532	-0.174	0.314
-372.815	121.342	-0.144	-0.178
-371.800	1.961	-0.135	0.097
-370.785	-70.584	-0.055	0.021
-369.771	-81.738	-0.351	-0.114
-368.756	-176.725	0.435	0.011
-367.742	-109.227	0.230	-0.049
-366.727	87.755	-0.109	0.120
-365.712	800.000	-0.043	-0.128
-364.698	354.124	-0.226	-0.447
-363.683	-125.714	0.103	0.015
-362.669	-200.000	-0.008	-0.063
-361.654	-23.888	0.016	-0.010
-360.639	267.906	0.053	0.092
-359.625	37.005	0.232	-0.204
-358.610	800.000	0.023	0.076
-357.596	-199.831	-0.126	0.001
-356.581	-104.333	0.032	-0.007
-355.566	-9.718	-0.294	0.194
-354.552	-200.000	0.087	0.552
-353.537	134.982	-0.244	0.315
-352.523	800.000	0.024	0.074
-351.508	-200.000	-0.011	-0.104
-350.493	-6.582	-0.058	0.040
-349.479	79.098	-0.156	-0.166
-348.464	-164.308	0.352	-0.016
-347.450	270.087	0.036	-0.062
-346.435	-47.232	0.187	-0.090
-345.420	-102.085	-0.296	-0.071
-344.406	-171.305	0.246	0.008
-343.391	-146.433	-0.301	0.026
-342.377	157.127	0.130	0.178
-341.362	3.524	-0.125	0.091
-340.348	98.436	0.104	0.119
-339.333	107.027	0.077	-0.091
-338.318	-160.100	0.119	0.006
-337.304	0.573	0.358	-0.254
-336.289	228.637	0.081	0.131
-335.275	3.963	0.220	0.159
-334.260	-118.018	-0.014	0.003
-333.245	-99.605	-0.171	0.043
-332.231	109.612	-0.054	0.064
-331.216	788.377	-0.119	0.324
-330.202	-200.000	0.007	0.303
-329.187	-91.637	-0.081	0.023
-328.172	43.797	0.199	-0.181
-327.158	12.401	-0.166	0.127
-326.143	162.150	-0.158	0.220
-325.129	-141.144	0.284	-0.029
-324.114	-114.001	-0.067	-0.013
-323.099	160.754	-0.275	0.381
-322.085	96.916	0.123	-0.139
-321.070	279.264	0.100	-0.177
-320.056	18.348	0.210	-0.166
-319.041	31.250	-0.211	0.180
-318.026	95.634	0.095	-0.107
-317.012	-29.323	-0.167	-0.095
-315.997	-161.296	-0.474	0.024
-314.983	-21.914	0.179	0.108
-313.968	716.928	-0.043	0.114
-312.953	-200.000	0.015	0.177
-311.939	233.271	0.102	0.166
-310.924	-200.000	0.007	-0.143
-309.910	138.354	-0.090	-0.117
-308.895	59.702	0.229	0.224
-307.880	49.086	0.161	0.150
-306.866	-47.258	-0.222	0.107
-305.851	-78.861	-0.299	-0.101
-304.837	-200.000	-0.027	-0.344
-303.822	356.063	0.040	0.079
-302.807	27.902	0.148	-0.123
-301.793	-110.202	-0.175	-0.036
-300.778	800.000	0.057	-0.195
-299.764	284.050	0.212	0.378
-298.749	-187.356	-0.092	0.001
-297.735	265.436	-0.242	0.418
-296.720	-200.000	-0.010	-0.179
-295.705	20.019	-0.279	-0.223
-294.691	-42.391	0.139	-0.070
-293.676	-200.000	-0.032	0.257
-292.662	38.288	-0.179	-0.158
-291.647	-161.597	-0.108	-0.005
-290.632	492.703	0.068	0.155
-289.618	-46.876	0.138	-0.067
-288.603	799.771	-0.094	-0.256
-287.589	-200.000	0.028	0.279
-286.574	407.289	0.118	0.246
-285.559	-169.358	0.065	-0.002
-284.545	-200.000	-0.072	-0.346
-283.530	800.000	-0.117	-0.384
-282.516	-138.941	0.275	-0.030
-281.501	-200.000	-0.002	0.175
-280.486	-124.853	-0.373	-0.057
-279.472	201.835	0.072	-0.110
-278.457	-200.000	0.015	0.137
-277.443	-43.983	-0.234	-0.117
-276.428	-32.620	0.199	0.110
-275.413	127.970	0.081	0.102
-274.399	192.286	-0.112	-0.167
-273.384	800.000	0.067	0.220
-272.370	-200.000	-0.054	0.252
-271.355	800.000	0.014	-0.042
-270.340	-134.685	-0.461	-0.056
-269.326	607.727	-0.126	0.312
-268.311	-72.978	0.232	-0.084
-267.297	310.891	-0.161	0.299
-266.282	37.815	-0.065	0.057
-265.267	-200.000	0.001	-0.079
-264.253	-134.452	-0.397	0.048
-263.238	-200.000	0.002	-0.145
-262.224	-200.000	-0.043	0.188
-261.209	-0.560	0.194	-0.136
-260.195	-84.494	-0.334	-0.104
-259.180	-200.000	0.008	0.166
-258.165	800.000	0.041	-0.162
-257.151	-200.000	-0.006	0.218
-256.136	-99.181	0.371	-0.093
-255.122	-54.520	-0.357	-0.160
-254.107	-69.894	-0.078	0.030
-253.092	800.000	0.071	0.213
-252.078	800.000	-0.042	-0.140
-251.063	-105.038	-0.176	-0.040
-250.049	800.000	0.021	0.070
-249.034	25.661	0.295	0.243
-248.019	-200.000	0.038	0.188
-247.005	800.000	-0.051	-0.183
-245.990	-200.000	0.007	0.164
-244.976	-200.000	0.004	-0.248
-243.961	85.531	-0.145	0.158
-242.946	-44.715	0.033	0.016
-241.932	-129.771	0.345	0.047
-240.917	79.755	0.232	0.247
-239.903	-173.312	-0.355	-0.011
-238.888	168.389	-0.209	0.294
-237.873	-150.133	0.127	-0.010
-236.859	50.644	-0.094	-0.088
-235.844	99.217	0.191	0.218
-234.830	117.943	-0.201	0.244
-233.815	-32.016	-0.091	0.051
-232.800	-200.000	0.033	0.228
-231.786	-142.391	-0.333	0.032
-230.771	13.895	0.359	-0.276
-229.757	360.954	0.114	0.225
-228.742	-36.552	-0.138	0.074
-227.727	91.435	-0.244	-0.271
-226.713	-43.923	-0.192	0.095
-225.698	-74.326	-0.322	0.115
-224.684	21.223	0.302	0.242
-223.669	334.092	-0.151	0.289
-222.655	-200.000	0.014	-0.181
-221.640	113.836	0.082	-0.099
-220.625	207.121	-0.118	0.182
-219.611	-200.000	-0.005	0.175
-218.596	311.224	-0.179	-0.331
-217.582	65.726	0.228	0.228
-216.567	-200.000	-0.006	-0.081
-215.552	100.056	0.120	0.137
-214.538	-178.626	0.354	0.008
-213.523	800.000	-0.074	-0.236
-212.509	45.222	-0.203	0.185
-211.494	123.085	0.074	0.091
-210.479	89.839	0.134	-0.148
-209.465	36.292	0.144	0.126
-208.450	-200.000	-0.039	-0.220
-207.436	116.071	-0.091	0.110
-206.421	125.255	-0.125	-0.155
-205.406	162.362	-0.140	0.193
-204.392	75.834	-0.107	-0.112
-203.377	-200.000	-0.077	-0.451
-202.363	13.869	-0.212	0.163
-201.348	-68.597	0.049	-0.019
-200.333	291.576	-0.145	-0.261
-199.319	9.742	0.223	-0.167
-198.304	167.091	-0.062	-0.087
-197.290	-200.000	-0.038	-0.246
-196.275	-200.000	-0.004	-0.066
-195.260	-200.000	0.019	0.133
-194.246	-200.000	0.019	-0.103
-193.231	-200.000	0.010	0.189
-192.217	-2.381	0.208	0.144
-191.202	-132.296	-0.128	0.016
-190.187	61.286	0.189	-0.186
-189.173	618.062	-0.039	0.095
-188.158	196.771	-0.212	0.319
-187.144	178.842	0.101	0.145
-186.129	800.000	0.055	-0.172
-185.114	-195.595	0.202	-0.001
-184.100	5.409	0.130	-0.095
-183.085	507.108	0.044	0.100
-182.071	800.000	-0.038	0.161
-181.056	-182.170	0.428	0.008
-180.042	330.100	0.124	0.235
-179.027	387.534	0.029	-0.059
-178.012	-53.356	0.241	-0.109
-176.998	-191.824	0.296	0.003
-175.983	-41.268	0.276	-0.140
-174.969	456.608	0.064	-0.139
-173.954	-200.000	-0.033	0.187
-172.939	-200.000	0.027	0.399
-171.925	725.090	-0.105	-0.277
-170.910	166.204	-0.156	0.217
-169.896	-91.908	0.149	0.042
-168.881	-200.000	0.056	-0.384
-167.866	800.000	-0.093	0.369
-166.852	139.674	-0.069	-0.089
-165.837	447.100	0.060	0.130
-164.823	-88.755	0.538	0.158
-163.808	66.842	-0.116	0.116
-162.793	169.894	0.135	0.190
-161.779	-200.000	0.014	-0.078
-160.764	63.831	-0.068	-0.067
-159.750	800.000	-0.042	0.128
-158.735	-51.125	0.255	0.118
-157.720	-7.289	0.109	0.073
-156.706	-200.000	-0.054	0.290
-155.691	115.012	-0.105	-0.127
-154.677	32.645	-0.154	0.132
-153.662	29.755	0.168	0.141
-152.647	-26.672	-0.177	-0.102
-151.633	800.000	0.092	-0.272
-150.618	-200.000	0.000	0.040
-149.604	-200.000	-0.005	0.024
-148.589	-200.000	0.022	-0.113
-147.574	800.000	0.084	-0.295
-146.560	-128.188	-0.222	0.031
-145.545	72.361	-0.217	-0.223
-144.531	130.680	0.154	0.195
-143.516	-129.618	-0.211	0.029
-142.502	800.000	0.056	-0.235
-141.487	-37.586	0.124	-0.065
-140.472	-200.000	-0.017	0.205
-139.458	-200.000	-0.081	-0.464
-138.443	96.596	-0.233	-0.263
-137.429	800.000	0.137	-0.496
-136.414	800.000	0.109	-0.438
-135.399	-3.133	-0.103	-0.071
-134.385	-117.416	-0.288	-0.051
-133.370	-6.605	0.257	0.172
-132.356	-86.776	-0.357	-0.107
-131.341	-28.208	0.182	-0.104
-130.326	800.000	-0.062	-0.265
-129.312	-99.840	0.229	-0.056
-128.297	-17.953	0.132	0.081
-127.283	177.875	-0.161	0.232
-126.268	-107.085	-0.075	-0.016
-125.253	-128.549	-0.211	0.029
-124.239	-24.701	-0.065	0.038
-123.224	385.281	0.048	-0.098
-122.210	-139.077	0.334	0.036
-121.195	174.873	0.153	0.219
