DTS Sentinel unit serial number:	SN413079Multiplexer serial number:	ORYXHardware model number:	OX4-SRSoftware version number:	ORYX F/W v4.00 Oryx Data Collector v3.7.2.0data status	okinstallation	princeton_trtdifferential loss correction	single-endedforward channel	channel 1reverse channel	N/Adate	2019/09/15time	17:26:35forward acquisition time	60.00reverse acquisition time	0.00gamma	496.2192k internal	0.2291k external	0.2291temperature offset calibration	0.9933default loss term (dB/km)	0.3790temperature slope calibration	1.0000multiplexer offset coefficient	1.0000multiplexer slope coefficient	1.0000fibre end	0.00T internal ref (°C)	44.80T ext. ref 1 (°C)	6.11T ext. ref 2 (°C)	40.39length (m)	temperature (°C)	Stokes	anti-Stokes-747.200	226.040	-0.091	0.150
-746.185	144.385	-0.308	0.421
-745.171	-129.572	-0.289	-0.041
-744.156	271.168	0.093	0.167
-743.142	-200.000	0.013	-0.152
-742.127	-50.991	-0.225	0.108
-741.112	37.624	0.126	-0.115
-740.098	-42.103	0.301	-0.158
-739.083	800.000	0.045	-0.167
-738.069	88.344	-0.320	0.364
-737.054	26.801	-0.037	0.032
-736.039	331.836	-0.032	0.063
-735.025	-200.000	-0.033	-0.320
-734.010	-200.000	0.079	-0.453
-732.996	-96.520	-0.273	-0.074
-731.981	32.098	-0.117	-0.103
-730.966	46.802	0.085	0.081
-729.952	-145.379	-0.244	-0.022
-728.937	-71.341	0.343	0.132
-727.923	-10.271	0.066	-0.045
-726.908	462.872	-0.094	0.215
-725.894	418.728	-0.082	0.179
-724.879	-200.000	0.002	-0.027
-723.864	415.175	0.157	0.343
-722.850	111.948	0.284	0.350
-721.835	800.000	0.054	-0.177
-720.821	-138.787	0.074	-0.008
-719.806	-72.789	0.221	0.083
-718.791	-200.000	-0.041	0.201
-717.777	90.063	0.083	0.095
-716.762	59.335	0.123	0.124
-715.748	597.469	-0.079	0.200
-714.733	-48.100	0.440	-0.217
-713.718	666.143	0.119	0.315
-712.704	-47.323	0.104	0.052
-711.689	152.572	-0.186	0.260
-710.675	-73.973	-0.106	0.039
-709.660	-188.896	-0.245	0.003
-708.645	-39.146	0.323	-0.174
-707.631	193.763	0.116	-0.180
-706.616	-73.075	0.183	0.069
-705.602	-65.851	0.086	0.035
-704.587	42.101	-0.129	0.120
-703.572	-67.448	0.210	0.084
-702.558	240.682	0.060	-0.102
-701.543	800.000	0.089	-0.325
-700.529	800.000	-0.082	-0.255
-699.514	-80.102	0.104	-0.035
-698.499	-64.941	0.261	0.108
-697.485	800.000	0.109	0.349
-696.470	-200.000	-0.046	-0.363
-695.456	64.137	-0.206	0.212
-694.441	-130.801	-0.100	0.014
-693.426	-9.592	-0.064	0.044
-692.412	393.969	0.125	-0.266
-691.397	-200.000	-0.004	-0.158
-690.383	-104.373	0.317	0.075
-689.368	-200.000	-0.069	0.355
-688.354	-94.436	-0.238	0.066
-687.339	-68.019	0.096	0.038
-686.324	-200.000	-0.026	-0.164
-685.310	-200.000	-0.006	-0.319
-684.295	-39.181	0.159	0.085
-683.281	-90.881	-0.197	-0.058
-682.266	430.605	-0.073	-0.161
-681.251	163.682	-0.122	0.176
-680.237	-200.000	0.015	0.086
-679.222	9.233	-0.040	0.031
-678.208	-200.000	-0.032	-0.151
-677.193	800.000	-0.064	0.278
-676.178	-150.717	0.118	0.009
-675.164	73.277	-0.199	0.212
-674.149	-98.489	0.236	-0.062
-673.135	-200.000	0.010	-0.200
-672.120	-171.454	0.297	0.010
-671.105	-34.966	-0.292	0.163
-670.091	-156.875	-0.045	0.003
-669.076	-40.612	-0.092	-0.049
-668.062	-68.831	-0.167	-0.066
-667.047	-45.696	-0.267	0.135
-666.032	-98.781	0.309	-0.080
-665.018	-90.978	0.280	-0.082
-664.003	151.237	0.045	0.063
-662.989	-130.933	0.201	-0.027
-661.974	-40.386	-0.395	0.210
-660.959	-60.150	-0.136	0.059
-659.945	-200.000	-0.006	0.210
-658.930	-115.705	-0.308	-0.059
-657.916	154.875	-0.073	-0.102
-656.901	46.009	-0.210	0.198
-655.886	391.206	-0.069	0.145
-654.872	66.197	0.251	0.260
-653.857	170.798	0.060	0.088
-652.843	67.988	-0.058	0.060
-651.828	-200.000	0.008	0.362
-650.814	775.275	-0.065	-0.180
-649.799	-65.928	-0.315	0.128
-648.784	26.425	-0.063	0.053
-647.770	223.581	0.040	-0.066
-646.755	108.313	0.158	0.193
-645.741	18.887	-0.140	-0.115
-644.726	-164.108	0.230	-0.011
-643.711	-200.000	0.042	0.286
-642.697	620.704	-0.055	0.140
-641.682	88.411	-0.162	-0.184
-640.668	-181.920	-0.302	-0.006
-639.653	48.430	-0.066	-0.063
-638.638	54.878	0.092	0.091
-637.624	684.013	-0.177	-0.471
-636.609	-200.000	-0.088	-0.664
-635.595	729.163	0.154	0.420
-634.580	-95.356	-0.412	0.113
-633.565	179.060	-0.154	-0.229
-632.551	29.377	-0.068	-0.059
-631.536	103.097	0.211	0.252
-630.522	-12.764	0.102	0.068
-629.507	-15.537	0.367	0.239
-628.492	-80.656	-0.449	-0.152
-627.478	226.212	-0.154	0.254
-626.463	-93.266	0.040	-0.011
-625.449	-200.000	-0.017	0.103
-624.434	800.000	0.150	0.445
-623.419	-61.328	-0.189	-0.081
-622.405	94.941	0.055	-0.063
-621.390	-98.136	-0.204	-0.053
-620.376	-123.462	-0.115	0.019
-619.361	130.409	-0.228	-0.298
-618.346	267.824	0.047	-0.083
-617.332	-200.000	-0.052	-0.286
-616.317	657.543	0.015	-0.039
-615.303	800.000	0.094	-0.371
-614.288	-107.095	-0.309	0.070
-613.273	257.298	-0.056	-0.098
-612.259	-4.319	0.216	-0.153
-611.244	127.470	-0.155	0.201
-610.230	267.442	-0.120	0.214
-609.215	309.781	-0.054	-0.103
-608.201	80.785	0.203	0.223
-607.186	-200.000	0.004	-0.212
-606.171	-132.058	0.160	-0.021
-605.157	-139.855	-0.072	0.008
-604.142	-19.700	0.059	0.037
-603.128	556.907	0.067	0.164
-602.113	-47.744	-0.029	0.014
-601.098	299.901	0.091	0.171
-600.084	800.000	0.024	0.069
-599.069	102.637	-0.134	-0.160
-598.055	-200.000	-0.011	0.078
-597.040	-69.521	-0.242	0.094
-596.025	-106.402	-0.212	-0.048
-595.011	411.484	0.039	-0.085
-593.996	-25.181	-0.041	0.025
-592.982	625.153	0.134	0.344
-591.967	45.051	0.139	0.130
-590.952	-98.653	0.202	0.052
-589.938	-50.065	0.145	-0.070
-588.923	120.194	0.030	-0.038
-587.909	146.405	0.052	-0.070
-586.894	118.287	-0.049	-0.061
-585.879	-115.520	-0.204	-0.039
-584.865	-143.383	-0.230	-0.022
-583.850	383.364	0.016	-0.033
-582.836	-160.946	0.208	0.011
-581.821	-14.472	-0.304	-0.199
-580.806	-200.000	-0.013	0.249
-579.792	380.925	0.074	0.154
-578.777	62.360	-0.131	0.133
-577.763	800.000	-0.015	-0.066
-576.748	-29.985	-0.238	-0.138
-575.733	407.047	0.041	0.088
-574.719	-122.314	0.312	-0.052
-573.704	183.533	-0.018	-0.027
-572.690	-19.938	0.249	-0.156
-571.675	708.454	0.019	-0.051
-570.661	-124.268	0.251	-0.040
-569.646	800.000	-0.033	0.132
-568.631	443.642	-0.111	-0.248
-567.617	-128.486	0.025	-0.004
-566.602	139.038	-0.108	-0.144
-565.588	-122.252	-0.307	-0.051
-564.573	528.345	0.088	-0.211
-563.558	-125.621	-0.287	0.044
-562.544	-200.000	0.030	-0.273
-561.529	59.518	-0.133	-0.133
-560.515	-56.403	0.212	-0.096
-559.500	-11.306	0.029	0.019
-558.485	-120.021	0.272	-0.047
-557.471	-146.258	-0.175	-0.016
-556.456	65.701	-0.135	-0.139
-555.442	65.839	0.041	0.042
-554.427	-70.200	-0.336	-0.130
-553.412	584.419	-0.123	0.308
-552.398	-86.927	0.104	-0.032
-551.383	87.992	-0.188	-0.212
-550.369	0.132	-0.350	-0.253
-549.354	219.972	-0.189	-0.308
-548.339	89.764	-0.147	-0.167
-547.325	94.701	-0.043	-0.050
-546.310	-200.000	0.008	-0.265
-545.296	800.000	-0.050	0.195
-544.281	78.217	0.042	0.045
-543.266	-14.552	-0.198	-0.129
-542.252	-200.000	0.482	-0.001
-541.237	-200.000	-0.021	-0.237
-540.223	-137.038	0.143	0.017
-539.208	72.270	-0.154	0.163
-538.193	-200.000	0.012	0.433
-537.179	665.224	-0.043	-0.113
-536.164	71.473	0.076	-0.080
-535.150	-186.635	0.310	-0.004
-534.135	17.627	0.164	-0.132
-533.121	800.000	-0.013	-0.048
-532.106	-118.166	-0.274	-0.050
-531.091	3.497	-0.087	-0.064
-530.077	-200.000	-0.007	-0.093
-529.062	800.000	0.144	-0.493
-528.048	800.000	0.093	0.351
-527.033	-200.000	-0.024	-0.262
-526.018	696.057	-0.100	-0.267
-525.004	-16.343	0.252	-0.162
-523.989	21.327	-0.323	-0.266
-522.975	92.354	-0.097	0.111
-521.960	84.366	-0.225	0.250
-520.945	-136.144	0.261	0.031
-519.931	-126.962	-0.221	0.033
-518.916	-200.000	0.079	0.360
-517.902	23.960	0.141	0.118
-516.887	-60.284	-0.076	0.033
-515.872	53.180	-0.085	0.083
-514.858	-159.861	-0.264	-0.015
-513.843	192.504	0.096	0.147
-512.829	96.151	-0.097	0.112
-511.814	800.000	-0.147	0.572
-510.799	-54.493	0.132	0.061
-509.785	138.440	-0.250	-0.333
-508.770	800.000	0.030	0.104
-507.756	44.814	-0.033	-0.031
-506.741	-200.000	-0.028	-0.188
-505.726	800.000	0.040	-0.167
-504.712	-120.812	-0.094	-0.016
-503.697	-200.000	-0.018	0.374
-502.683	-29.183	-0.237	-0.138
-501.668	-3.066	-0.180	-0.127
-500.653	-40.854	0.111	0.058
-499.639	120.073	-0.173	0.218
-498.624	129.101	-0.186	-0.241
-497.610	90.962	-0.268	-0.305
-496.595	71.709	0.243	0.256
-495.581	-200.000	0.025	0.152
-494.566	118.773	-0.095	0.119
-493.551	-200.000	-0.024	0.325
-492.537	-200.000	0.036	0.240
-491.522	-200.000	0.015	-0.090
-490.508	800.000	-0.029	-0.091
-489.493	-200.000	0.003	-0.101
-488.478	644.437	-0.082	0.212
-487.464	673.013	-0.049	0.128
-486.449	-65.984	-0.116	0.047
-485.435	-200.000	0.004	-0.171
-484.420	-107.544	0.062	0.014
-483.405	-95.665	0.255	-0.069
-482.391	96.878	0.210	-0.243
-481.376	100.593	-0.250	-0.295
-480.362	9.314	-0.092	-0.071
-479.347	-18.079	0.098	-0.062
-478.332	302.885	0.118	0.221
-477.318	-42.823	-0.251	0.129
-476.303	185.166	0.044	-0.067
-475.289	800.000	-0.031	0.125
-474.274	344.827	-0.152	-0.302
-473.259	20.374	-0.089	0.073
-472.245	323.237	0.084	-0.163
-471.230	-200.000	-0.026	-0.248
-470.216	-200.000	0.003	0.063
-469.201	800.000	-0.017	0.069
-468.186	-118.525	0.320	0.057
-467.172	-128.830	0.106	-0.015
-466.157	168.430	-0.086	-0.124
-465.143	189.642	-0.138	0.210
-464.128	26.630	-0.151	-0.128
-463.113	-169.233	-0.086	0.003
-462.099	-200.000	-0.027	-0.156
-461.084	401.766	-0.024	-0.052
-460.070	-200.000	-0.013	-0.214
-459.055	-46.113	0.339	-0.169
-458.040	-169.311	-0.115	0.004
-457.026	800.000	0.032	-0.121
-456.011	-200.000	-0.003	0.152
-454.997	-126.082	-0.058	0.009
-453.982	-99.155	0.361	-0.092
-452.968	-133.835	0.141	0.018
-451.953	-55.246	-0.388	-0.176
-450.938	-139.992	0.355	0.038
-449.924	78.663	0.315	0.341
-448.909	-200.000	-0.065	-0.324
-447.895	-200.000	0.026	-0.177
-446.880	800.000	-0.077	-0.301
-445.865	-133.757	0.223	-0.028
-444.851	-88.000	-0.093	-0.028
-443.836	-23.211	-0.307	-0.187
-442.822	558.089	0.111	-0.270
-441.807	229.606	-0.009	0.015
-440.792	632.783	0.034	-0.086
-439.778	143.672	0.189	-0.254
-438.763	800.000	0.038	0.162
-437.749	800.000	0.101	-0.305
-436.734	39.997	0.351	-0.319
-435.719	-22.725	-0.269	-0.164
-434.705	-200.000	-0.014	-0.372
-433.690	800.000	0.010	0.042
-432.676	81.059	0.330	0.361
-431.661	-200.000	-0.008	0.093
-430.646	800.000	0.031	0.131
-429.632	380.673	-0.077	-0.159
-428.617	231.375	-0.155	-0.257
-427.603	285.373	0.277	0.505
-426.588	-84.879	0.094	-0.030
-425.573	-99.888	-0.144	-0.036
-424.559	162.115	0.044	-0.063
-423.544	-200.000	-0.022	-0.110
-422.530	-57.663	0.225	0.100
-421.515	342.817	-0.032	0.063
-420.500	-74.242	-0.155	0.057
-419.486	-94.430	0.252	-0.070
-418.471	-48.741	0.152	0.074
-417.457	0.126	0.120	-0.087
-416.442	-200.000	0.006	-0.239
-415.428	125.695	-0.005	0.007
-414.413	153.551	-0.158	-0.219
-413.398	-101.171	-0.113	-0.028
-412.384	-23.883	-0.016	-0.009
-411.369	-98.904	-0.112	0.029
-410.355	62.024	-0.294	-0.296
-409.340	-48.409	-0.036	0.018
-408.325	-6.421	-0.232	0.160
-407.311	-132.226	-0.339	0.044
-406.296	-41.301	0.313	0.163
-405.282	102.164	0.265	-0.313
-404.267	-73.984	0.107	0.039
-403.252	800.000	-0.073	0.228
-402.238	80.234	-0.196	-0.213
-401.223	-13.478	0.272	0.178
-400.209	800.000	0.137	0.492
-399.194	293.326	0.119	0.219
-398.179	-200.000	-0.053	0.254
-397.165	100.611	-0.195	-0.229
-396.150	1.933	0.395	-0.288
-395.136	87.976	0.029	0.033
-394.121	-105.703	-0.216	0.049
-393.106	-98.041	-0.076	-0.020
-392.092	-172.670	-0.228	0.007
-391.077	-121.152	0.118	-0.020
-390.063	163.256	0.141	0.201
-389.048	-6.373	0.293	0.202
-388.033	-25.259	-0.186	-0.111
-387.019	738.655	0.072	0.196
-386.004	-105.041	0.078	0.018
-384.990	115.712	0.294	0.363
-383.975	209.003	-0.081	-0.129
-382.960	54.075	0.088	0.085
-381.946	-200.000	0.001	0.102
-380.931	-200.000	-0.158	-0.000
-379.917	-200.000	-0.061	-0.344
-378.902	119.801	-0.293	-0.366
-377.888	-200.000	0.038	0.223
-376.873	-200.000	0.013	-0.070
-375.858	67.935	-0.113	-0.116
-374.844	-200.000	0.014	-0.241
-373.829	-95.635	-0.131	0.035
-372.815	-5.196	-0.142	0.099
-371.800	252.409	-0.129	0.223
-370.785	238.794	0.039	-0.066
-369.771	-74.933	0.338	-0.122
-368.756	101.236	-0.313	-0.368
-367.742	-34.658	0.123	-0.068
-366.727	34.034	-0.116	0.102
-365.712	-62.586	0.082	-0.034
-364.698	-188.481	0.148	-0.002
-363.683	-87.581	-0.123	0.037
-362.669	334.481	-0.074	-0.145
-361.654	-117.973	-0.079	-0.014
-360.639	-164.575	-0.228	0.010
-359.625	-150.535	-0.162	0.012
-358.610	-200.000	0.007	-0.322
-357.596	43.307	0.222	0.204
-356.581	-89.211	0.097	0.029
-355.566	309.919	-0.033	-0.063
-354.552	-4.219	-0.244	-0.170
-353.537	-139.544	0.362	0.039
-352.523	-170.854	-0.208	-0.007
-351.508	0.840	0.306	0.221
-350.493	-46.187	-0.187	-0.093
-349.479	-151.619	0.053	-0.004
-348.464	3.445	0.081	-0.060
-347.450	-138.981	-0.117	0.013
-346.435	-200.000	0.010	-0.318
-345.420	-151.252	0.266	-0.020
-344.406	-200.000	0.032	0.173
-343.391	-125.085	0.146	-0.023
-342.377	332.358	0.064	-0.125
-341.362	800.000	-0.167	-0.468
-340.348	-72.840	-0.331	0.123
-339.333	-87.887	0.174	-0.053
-338.318	-52.111	0.296	-0.139
-337.304	-163.969	-0.219	0.010
-336.289	247.459	0.173	0.294
-335.275	-200.000	-0.013	0.328
-334.260	-200.000	-0.050	-0.337
-333.245	29.971	-0.068	0.058
-332.231	714.545	0.013	-0.035
-331.216	800.000	0.046	0.138
-330.202	211.766	-0.073	0.116
-329.187	800.000	0.102	0.329
-328.172	119.176	-0.076	-0.094
-327.158	-32.938	-0.028	0.016
-326.143	-200.000	0.020	0.223
-325.129	-143.123	0.206	0.020
-324.114	74.152	-0.186	0.197
-323.099	-200.000	0.013	-0.145
-322.085	184.351	0.063	0.094
-321.070	62.925	-0.264	0.266
-320.056	-133.865	0.429	0.054
-319.041	66.368	0.120	0.123
-318.026	121.792	-0.059	0.075
-317.012	-104.042	0.112	0.026
-315.997	232.800	0.190	-0.315
-314.983	605.816	0.115	0.289
-313.968	268.839	-0.127	0.224
-312.953	47.183	0.265	-0.248
-311.939	114.749	-0.110	-0.135
-310.924	-110.117	0.153	-0.032
-309.910	-200.000	0.004	-0.193
-308.895	800.000	0.057	-0.167
-307.880	10.519	0.263	0.202
-306.866	201.498	-0.195	-0.302
-305.851	434.779	0.056	0.123
-304.837	110.920	0.353	0.428
-303.822	193.542	0.062	0.094
-302.807	800.000	0.048	-0.155
-301.793	38.743	0.064	0.057
-300.778	800.000	-0.055	0.242
-299.764	-56.772	0.236	-0.105
-298.749	55.393	-0.126	-0.123
-297.735	-174.563	0.473	-0.014
-296.720	-200.000	0.037	0.522
-295.705	166.672	-0.118	-0.168
-294.691	800.000	0.035	-0.107
-293.676	36.980	0.259	-0.231
-292.662	-88.415	-0.156	-0.047
-291.647	108.613	0.105	0.126
-290.632	-200.000	0.033	-0.149
-289.618	-200.000	-0.038	0.224
-288.603	-82.991	-0.170	0.055
-287.589	-21.426	0.438	-0.269
-286.574	-34.431	0.188	0.104
-285.559	-22.760	0.098	-0.059
-284.545	122.671	0.172	0.216
-283.530	-200.000	0.016	0.247
-282.516	-22.587	0.152	0.093
-281.501	-12.161	-0.108	0.071
-280.486	-200.000	0.066	0.306
-279.472	238.101	0.092	0.154
-278.457	-109.237	0.305	-0.065
-277.443	781.865	0.119	-0.328
-276.428	34.709	-0.037	-0.032
-275.413	112.667	0.212	0.258
-274.399	-200.000	0.028	0.187
-273.384	191.624	-0.194	-0.294
-272.370	45.897	-0.341	-0.317
-271.355	-22.019	-0.104	0.063
-270.340	-108.706	-0.542	-0.117
-269.326	97.311	0.165	0.191
-268.311	89.488	0.319	0.358
-267.297	-84.542	0.231	0.073
-266.282	-16.874	0.198	0.125
-265.267	-59.767	-0.228	-0.098
-264.253	800.000	-0.064	-0.221
-263.238	-154.519	-0.167	0.011
-262.224	-165.447	0.222	-0.010
-261.209	189.072	0.080	-0.120
-260.195	800.000	0.023	0.086
-259.180	-200.000	-0.003	-0.044
-258.165	-138.227	0.254	-0.028
-257.151	66.390	-0.175	0.178
-256.136	80.516	-0.163	-0.176
-255.122	-200.000	0.006	0.038
-254.107	-86.987	-0.286	-0.087
-253.092	-200.000	-0.011	0.214
-252.078	-200.000	-0.004	-0.290
-251.063	-129.732	-0.197	-0.027
-250.049	194.602	0.129	-0.196
-249.034	-67.761	0.146	0.057
-248.019	-200.000	0.003	0.058
-247.005	-92.341	0.086	0.024
-245.990	-46.050	-0.254	0.126
-244.976	-200.000	0.036	0.186
-243.961	297.532	-0.230	0.424
-242.946	28.170	-0.088	0.074
-241.932	462.457	0.015	-0.033
-240.917	-9.413	0.291	-0.195
-239.903	35.339	-0.125	-0.110
-238.888	12.630	-0.050	0.039
-237.873	-64.278	-0.169	0.069
-236.859	458.008	0.059	0.132
-235.844	14.766	0.234	0.183
-234.830	-53.406	-0.111	-0.051
-233.815	800.000	-0.028	0.118
-232.800	-78.817	0.123	-0.042
-231.786	-17.213	-0.245	-0.155
-230.771	-200.000	-0.005	-0.131
-229.757	-70.802	-0.197	0.075
-228.742	-117.433	-0.058	0.011
-227.727	-200.000	-0.046	0.313
-226.713	-200.000	-0.055	0.385
-225.698	-55.293	-0.154	-0.069
-224.684	273.309	-0.199	-0.353
-223.669	2.402	0.265	-0.193
-222.655	-177.955	0.106	-0.003
-221.640	-69.189	-0.181	0.070
-220.625	11.884	0.201	0.155
-219.611	-108.821	0.256	0.055
-218.596	-200.000	-0.003	-0.319
-217.582	-80.816	-0.033	-0.011
-216.567	800.000	-0.193	0.539
-215.552	-22.386	-0.257	0.156
-214.538	-86.708	-0.178	0.055
-213.523	-1.371	-0.374	0.265
-212.509	197.504	-0.081	-0.123
-211.494	-62.831	0.121	-0.050
-210.479	800.000	-0.015	-0.059
-209.465	-47.005	0.321	-0.157
-208.450	24.527	0.095	0.079
-207.436	-200.000	-0.017	-0.128
-206.421	-182.727	0.204	-0.004
-205.406	-200.000	-0.016	-0.106
-204.392	-87.307	0.144	0.044
-203.377	33.747	0.219	-0.191
-202.363	-96.746	-0.234	0.062
-201.348	-200.000	0.026	0.127
-200.333	-32.841	-0.375	-0.209
-199.319	53.450	-0.178	-0.171
-198.304	-200.000	0.028	-0.134
-197.290	-6.470	0.115	-0.078
-196.275	194.467	0.147	0.223
-195.260	98.693	0.174	-0.201
-194.246	442.959	0.062	-0.135
-193.231	288.430	0.239	-0.433
-192.217	102.864	-0.254	0.298
-191.202	800.000	0.034	0.104
-190.187	-71.192	0.285	0.107
-189.173	-61.793	0.155	-0.065
-188.158	-32.830	0.114	0.063
-187.144	-200.000	0.027	0.207
-186.129	-80.031	0.193	-0.065
-185.114	173.319	-0.095	0.137
-184.100	-129.199	0.122	0.017
-183.085	225.360	0.072	0.118
-182.071	-85.094	-0.184	-0.058
-181.056	-200.000	0.040	0.321
-180.042	66.151	-0.014	0.014
-179.027	-200.000	-0.009	0.057
-178.012	248.022	0.150	-0.253
-176.998	-200.000	0.056	0.336
-175.983	93.691	-0.146	0.165
-174.969	800.000	0.070	0.196
-173.954	-74.684	-0.103	0.037
-172.939	-50.993	-0.222	0.104
-171.925	-200.000	-0.021	0.170
-170.910	177.339	-0.114	-0.167
-169.896	-108.834	0.218	0.047
-168.881	-200.000	0.013	0.064
-167.866	16.741	-0.024	-0.019
-166.852	800.000	0.065	-0.211
-165.837	-72.301	0.319	0.118
-164.823	-61.573	0.190	0.080
-163.808	318.150	0.126	0.239
-162.793	-200.000	-0.008	-0.059
-161.779	-94.865	0.069	-0.019
-160.764	-200.000	-0.009	0.171
-159.750	-200.000	0.052	0.233
-158.735	-135.183	-0.365	-0.044
-157.720	527.759	0.050	0.119
-156.706	33.379	0.062	0.054
-155.691	-200.000	0.004	-0.055
-154.677	192.330	-0.196	0.297
-153.662	-93.500	-0.205	0.057
-152.647	-27.944	0.256	0.148
-151.633	-200.000	-0.044	0.416
-150.618	800.000	-0.048	-0.136
-149.604	115.611	-0.079	0.097
-148.589	152.903	-0.113	0.155
-147.574	-174.788	-0.179	-0.005
-146.560	-1.614	-0.273	-0.192
-145.545	-188.352	-0.424	-0.005
-144.531	0.122	-0.333	0.238
-143.516	196.048	-0.070	-0.107
-142.502	53.228	0.075	0.072
-141.487	-140.221	-0.037	0.004
-140.472	-200.000	-0.097	0.433
-139.458	-200.000	-0.052	0.247
-138.443	-172.473	0.301	-0.010
-137.429	-21.627	0.201	-0.122
-136.414	-94.604	0.041	0.011
-135.399	664.027	-0.097	-0.251
-134.385	-10.593	0.281	0.186
-133.370	428.023	0.082	0.178
-132.356	134.295	0.093	0.120
-131.341	320.862	-0.195	0.370
-130.326	317.730	-0.108	0.205
-129.312	800.000	0.138	0.492
-128.297	800.000	-0.044	-0.177
-127.283	-40.456	-0.072	0.037
-126.268	-24.471	0.164	0.098
-125.253	-39.932	0.060	-0.031
-124.239	375.430	-0.157	0.319
-123.224	-151.758	0.192	-0.014
-122.210	-54.013	0.352	0.160
-121.195	-174.470	0.096	-0.003
