DTS Sentinel unit serial number:	SN413079Multiplexer serial number:	ORYXHardware model number:	OX4-SRSoftware version number:	ORYX F/W v4.00 Oryx Data Collector v3.7.2.0data status	okinstallation	princeton_trtdifferential loss correction	single-endedforward channel	channel 1reverse channel	N/Adate	2019/09/11time	15:28:11forward acquisition time	60.00reverse acquisition time	0.00gamma	496.2192k internal	0.2292k external	0.2292temperature offset calibration	0.9991default loss term (dB/km)	0.3790temperature slope calibration	1.0000multiplexer offset coefficient	1.0000multiplexer slope coefficient	1.0000fibre end	0.00T internal ref (°C)	42.87T ext. ref 1 (°C)	0.98T ext. ref 2 (°C)	38.26length (m)	temperature (°C)	Stokes	anti-Stokes-747.200	-154.580	-0.333	0.023
-746.185	188.088	-0.146	-0.223
-745.171	-32.723	0.187	-0.107
-744.156	704.666	-0.138	0.372
-743.142	-21.358	-0.096	-0.060
-742.127	800.000	0.043	0.148
-741.112	-83.113	-0.228	0.075
-740.098	-34.277	-0.119	0.067
-739.083	99.964	0.258	0.306
-738.069	210.635	-0.051	0.083
-737.054	-0.090	-0.163	-0.118
-736.039	-200.000	-0.013	0.183
-735.025	-50.734	0.134	0.064
-734.010	-200.000	-0.010	-0.118
-732.996	666.881	-0.077	-0.204
-731.981	187.397	-0.203	-0.310
-730.966	-131.644	-0.254	0.034
-729.952	-102.327	-0.180	-0.044
-728.937	701.919	-0.092	-0.249
-727.923	800.000	0.067	0.191
-726.908	-42.365	0.067	0.035
-725.894	-122.775	0.195	-0.032
-724.879	37.573	0.092	-0.083
-723.864	50.339	-0.041	0.040
-722.850	800.000	0.042	0.158
-721.835	50.800	-0.058	0.056
-720.821	-142.131	0.310	0.032
-719.806	-83.163	-0.097	-0.032
-718.791	-109.617	0.134	-0.029
-717.777	800.000	0.056	0.217
-716.762	-49.437	-0.274	-0.134
-715.748	-125.368	0.352	0.055
-714.733	-92.196	-0.111	0.032
-713.718	800.000	0.148	0.431
-712.704	-150.356	0.125	0.010
-711.689	43.163	0.321	-0.300
-710.675	-119.279	0.169	0.030
-709.660	-47.910	0.124	0.061
-708.645	-28.211	-0.200	0.118
-707.631	-200.000	0.041	0.261
-706.616	-49.304	-0.142	-0.069
-705.602	-3.846	-0.267	-0.189
-704.587	321.474	-0.097	-0.189
-703.572	-182.028	-0.097	-0.002
-702.558	-200.000	-0.082	0.614
-701.543	-147.330	0.309	-0.027
-700.529	-103.897	0.378	-0.090
-699.514	800.000	0.039	0.126
-698.499	-48.187	0.029	-0.014
-697.485	-33.211	0.086	-0.049
-696.470	95.484	-0.089	-0.104
-695.456	656.811	0.077	0.203
-694.441	800.000	0.102	-0.411
-693.426	82.084	-0.160	0.177
-692.412	-200.000	0.030	-0.288
-691.397	-200.000	-0.013	0.152
-690.383	800.000	-0.044	-0.135
-689.368	416.896	0.123	0.268
-688.354	-122.349	0.147	-0.025
-687.339	-11.803	0.208	-0.140
-686.324	133.094	0.015	0.020
-685.310	800.000	-0.035	-0.111
-684.295	-95.503	0.145	-0.040
-683.281	80.145	-0.054	0.059
-682.266	226.800	-0.029	-0.049
-681.251	-200.000	-0.033	-0.213
-680.237	-200.000	0.053	0.314
-679.222	-89.653	-0.163	0.049
-678.208	180.682	0.069	0.103
-677.193	538.643	-0.117	0.283
-676.178	183.686	0.141	-0.213
-675.164	800.000	-0.032	0.110
-674.149	-200.000	-0.032	-0.411
-673.135	-39.587	-0.080	0.043
-672.120	-5.403	0.178	0.125
-671.105	-159.503	0.182	-0.010
-670.091	21.183	-0.198	0.164
-669.076	179.391	-0.093	-0.139
-668.062	287.983	0.139	0.257
-667.047	-200.000	0.009	-0.065
-666.032	-84.255	0.321	-0.104
-665.018	184.601	0.114	-0.173
-664.003	109.635	0.267	-0.327
-662.989	-188.149	-0.098	-0.001
-661.974	-200.000	-0.018	-0.148
-660.959	18.546	-0.354	-0.288
-659.945	-200.000	-0.051	-0.373
-658.930	175.333	0.209	0.309
-657.916	374.667	0.052	0.109
-656.901	-200.000	-0.523	0.002
-655.886	800.000	-0.079	0.232
-654.872	-189.612	0.273	-0.003
-653.857	276.265	0.034	0.062
-652.843	-142.098	-0.273	0.028
-651.828	-200.000	0.038	-0.180
-650.814	22.808	-0.100	-0.084
-649.799	395.927	0.087	0.186
-648.784	800.000	-0.101	-0.419
-647.770	58.464	0.109	0.109
-646.755	176.180	-0.127	-0.188
-645.741	-16.652	-0.263	0.170
-644.726	-83.205	0.092	0.030
-643.711	429.127	0.091	-0.200
-642.697	55.876	-0.163	0.161
-641.682	-200.000	0.077	-0.371
-640.668	-170.540	-0.211	0.007
-639.653	-73.010	-0.238	0.089
-638.638	-200.000	-0.019	-0.209
-637.624	-83.619	-0.390	-0.127
-636.609	314.214	-0.032	-0.062
-635.595	338.574	-0.093	-0.185
-634.580	118.622	0.111	0.139
-633.565	-182.029	-0.180	0.003
-632.551	95.836	0.253	0.294
-631.536	242.254	0.118	0.201
-630.522	-105.401	0.428	-0.099
-629.507	-148.937	0.683	-0.056
-628.492	125.716	0.107	0.138
-627.478	-87.604	-0.021	0.007
-626.463	-40.456	-0.251	0.133
-625.449	-106.653	-0.270	-0.061
-624.434	-24.821	-0.342	0.207
-623.419	180.702	-0.262	-0.393
-622.405	424.019	0.117	-0.257
-621.390	-105.097	0.114	0.027
-620.376	-200.000	0.068	0.439
-619.361	24.225	0.142	-0.120
-618.346	128.430	0.138	-0.179
-617.332	-116.138	0.371	0.070
-616.317	-121.045	0.200	-0.034
-615.303	-200.000	-0.008	0.120
-614.288	118.895	-0.095	0.120
-613.273	13.549	0.152	0.120
-612.259	800.000	-0.059	-0.257
-611.244	800.000	-0.040	-0.154
-610.230	800.000	-0.070	-0.264
-609.215	33.104	0.060	-0.053
-608.201	800.000	0.004	-0.013
-607.186	-31.442	-0.306	-0.175
-606.171	-170.836	0.236	-0.008
-605.157	80.352	0.242	0.265
-604.142	-35.518	-0.037	-0.021
-603.128	-93.606	-0.571	0.161
-602.113	-79.760	0.212	-0.073
-601.098	-60.791	0.026	0.011
-600.084	-151.334	0.234	-0.018
-599.069	110.437	0.244	0.299
-598.055	-108.848	0.118	-0.026
-597.040	-125.586	-0.192	-0.030
-596.025	81.142	0.089	-0.098
-595.011	-200.000	-0.025	-0.193
-593.996	-11.798	0.138	0.092
-592.982	-93.421	-0.252	0.071
-591.967	-34.500	-0.355	0.198
-590.952	-200.000	0.022	-0.290
-589.938	258.124	0.107	-0.188
-588.923	-4.073	-0.178	0.126
-587.909	116.994	-0.081	0.101
-586.894	-91.525	0.076	0.022
-585.879	-102.948	0.166	0.040
-584.865	-82.685	0.260	-0.086
-583.850	564.049	-0.043	-0.107
-582.836	171.790	0.053	0.078
-581.821	-115.175	-0.315	-0.061
-580.806	607.444	-0.081	-0.206
-579.792	-200.000	-0.012	-0.086
-578.777	17.502	0.053	-0.043
-577.763	168.365	-0.057	-0.082
-576.748	13.919	0.159	0.126
-575.733	-103.509	-0.157	-0.037
-574.719	554.356	-0.084	-0.204
-573.704	345.597	-0.073	0.146
-572.690	26.645	0.077	0.066
-571.675	-24.092	0.104	0.063
-570.661	800.000	0.028	0.093
-569.646	-166.162	-0.376	0.016
-568.631	-108.392	-0.043	0.009
-567.617	-200.000	0.006	0.195
-566.602	800.000	0.057	-0.190
-565.588	-200.000	0.052	-0.322
-564.573	-146.060	-0.180	-0.016
-563.558	-69.731	-0.162	-0.063
-562.544	-50.909	-0.279	0.133
-561.529	487.476	0.016	0.037
-560.515	-25.701	0.039	0.024
-559.500	800.000	-0.074	-0.260
-558.485	-200.000	-0.007	0.308
-557.471	800.000	0.068	-0.205
-556.456	-78.437	0.200	0.070
-555.442	537.033	-0.045	0.108
-554.427	-200.000	0.038	-0.288
-553.412	-10.862	0.193	-0.130
-552.398	78.015	-0.118	-0.128
-551.383	338.229	-0.024	-0.047
-550.369	-200.000	-0.010	-0.052
-549.354	-200.000	-0.020	0.252
-548.339	-63.652	0.137	0.057
-547.325	20.676	0.134	-0.110
-546.310	-88.698	0.177	-0.053
-545.296	51.180	-0.157	0.151
-544.281	800.000	-0.099	-0.356
-543.266	-200.000	0.005	-0.063
-542.252	-75.340	-0.044	-0.016
-541.237	605.435	-0.066	0.167
-540.223	-56.611	0.172	0.077
-539.208	800.000	-0.011	-0.039
-538.193	-144.993	0.324	0.030
-537.179	-122.535	0.331	-0.055
-536.164	800.000	0.092	-0.354
-535.150	-200.000	0.008	-0.080
-534.135	-108.219	-0.154	-0.034
-533.121	81.863	0.133	-0.146
-532.106	-88.302	0.506	0.154
-531.091	105.797	-0.150	-0.180
-530.077	180.771	-0.150	0.224
-529.062	800.000	-0.086	-0.296
-528.048	-55.442	0.375	0.171
-527.033	-200.000	-0.015	0.223
-526.018	140.910	-0.087	0.116
-525.004	-49.482	0.408	0.198
-523.989	244.418	-0.075	-0.128
-522.975	-35.027	0.153	-0.085
-521.960	-46.356	-0.189	0.094
-520.945	-5.873	-0.235	0.163
-519.931	-200.000	-0.009	0.384
-518.916	-126.518	-0.040	-0.006
-517.902	133.072	-0.034	-0.045
-516.887	-52.518	-0.151	0.071
-515.872	-38.322	0.325	-0.175
-514.858	59.708	0.173	-0.173
-513.843	-63.858	-0.158	-0.066
-512.829	-172.978	-0.083	-0.003
-511.814	-121.975	0.187	0.031
-510.799	-149.238	0.261	-0.021
-509.785	540.823	-0.044	-0.105
-508.770	388.446	-0.018	0.038
-507.756	141.227	-0.193	0.259
-506.741	-44.070	-0.124	-0.063
-505.726	-200.000	0.073	0.454
-504.712	-200.000	-0.017	0.083
-503.697	147.026	0.157	-0.214
-502.683	27.008	-0.239	0.203
-501.668	-200.000	-0.026	0.182
-500.653	355.253	-0.012	-0.024
-499.639	-175.744	0.247	0.007
-498.624	800.000	-0.055	-0.172
-497.610	224.031	0.170	0.278
-496.595	-200.000	-0.055	0.680
-495.581	-91.146	-0.345	-0.100
-494.566	185.793	0.170	-0.256
-493.551	76.014	-0.083	-0.089
-492.537	-15.612	-0.182	0.118
-491.522	-19.626	-0.082	-0.052
-490.508	800.000	-0.102	-0.382
-489.493	424.954	-0.140	-0.305
-488.478	-200.000	0.025	-0.161
-487.464	-200.000	0.016	-0.074
-486.449	-98.432	0.248	0.064
-485.435	-129.915	-0.113	-0.016
-484.420	-116.248	0.036	0.007
-483.405	-117.486	0.146	-0.027
-482.391	-200.000	-0.349	-0.000
-481.376	50.019	-0.029	-0.028
-480.362	-174.550	-0.207	0.006
-479.347	800.000	0.038	-0.122
-478.332	366.827	-0.067	0.137
-477.318	-133.440	0.327	0.042
-476.303	-69.158	0.154	0.060
-475.289	-31.768	0.178	0.101
-474.274	800.000	0.071	0.251
-473.259	57.513	0.175	-0.173
-472.245	124.526	0.236	-0.301
-471.230	1.312	-0.130	-0.095
-470.216	800.000	-0.084	-0.290
-469.201	800.000	0.056	0.235
-468.186	21.172	0.103	-0.085
-467.172	-43.834	0.156	-0.079
-466.157	-90.037	-0.114	0.034
-465.143	200.267	-0.085	-0.133
-464.128	627.022	0.024	-0.062
-463.113	-113.565	-0.357	0.071
-462.099	-178.366	-0.172	0.004
-461.084	-102.432	0.573	-0.139
-460.070	-200.000	0.027	-0.264
-459.055	3.196	-0.232	-0.171
-458.040	356.701	-0.190	-0.384
-457.026	-166.213	-0.186	-0.008
-456.011	291.440	-0.048	0.088
-454.997	335.575	-0.062	-0.123
-453.982	181.960	-0.230	0.343
-452.968	117.151	-0.249	-0.309
-451.953	800.000	0.096	0.332
-450.938	296.872	-0.143	0.265
-449.924	15.957	-0.213	-0.169
-448.909	-200.000	-0.109	0.510
-447.895	-200.000	0.003	-0.111
-446.880	346.752	-0.045	-0.090
-445.865	800.000	-0.101	0.323
-444.851	-81.128	0.207	-0.069
-443.836	800.000	0.035	-0.115
-442.822	-45.686	-0.236	-0.118
-441.807	-200.000	-0.017	0.213
-440.792	143.620	-0.244	0.329
-439.778	28.020	0.059	0.050
-438.763	-122.994	-0.140	-0.023
-437.749	-24.285	-0.144	0.087
-436.734	-179.174	-0.318	0.007
-435.719	47.139	0.156	-0.147
-434.705	-69.500	-0.163	0.063
-433.690	-168.217	0.268	-0.010
-432.676	800.000	-0.068	0.206
-431.661	-92.737	-0.286	0.081
-430.646	-142.468	0.077	0.008
-429.632	-171.167	0.068	-0.002
-428.617	-200.000	-0.014	0.112
-427.603	-16.014	0.442	-0.284
-426.588	800.000	0.035	-0.117
-425.573	800.000	-0.063	0.178
-424.559	-61.568	0.092	0.039
-423.544	433.521	-0.024	0.054
-422.530	255.949	-0.147	-0.255
-421.515	-139.168	0.150	0.016
-420.500	-200.000	0.096	-0.000
-419.486	-96.303	0.254	-0.068
-418.471	-200.000	0.026	-0.132
-417.457	800.000	0.032	-0.120
-416.442	-117.929	-0.112	0.020
-415.428	-122.554	-0.142	0.023
-414.413	549.576	0.010	0.024
-413.398	-200.000	-0.020	-0.142
-412.384	-30.851	0.320	-0.183
-411.369	702.143	0.051	0.135
-410.355	800.000	0.161	0.480
-409.340	560.081	0.114	0.277
-408.325	222.759	0.151	0.245
-407.311	-200.000	-0.007	-0.116
-406.296	56.600	-0.344	-0.338
-405.282	192.256	0.094	0.144
-404.267	-171.141	0.154	0.005
-403.252	-9.634	0.092	0.062
-402.238	-60.333	-0.210	0.090
-401.223	-140.573	-0.356	-0.037
-400.209	-58.843	-0.169	0.074
-399.194	800.000	0.050	0.187
-398.179	612.978	0.080	-0.202
-397.165	800.000	-0.045	0.131
-396.150	15.642	0.110	-0.087
-395.136	297.051	-0.097	-0.179
-394.121	800.000	-0.072	-0.232
-393.106	-200.000	-0.004	-0.088
-392.092	15.040	0.043	-0.034
-391.077	387.630	0.045	0.094
-390.063	354.905	0.013	0.026
-389.048	-121.155	0.165	0.028
-388.033	530.053	-0.144	-0.343
-387.019	-91.614	0.247	0.071
-386.004	-94.885	0.611	-0.167
-384.990	295.810	0.087	0.161
-383.975	36.498	-0.213	0.190
-382.960	505.948	0.105	0.246
-381.946	48.623	0.080	-0.076
-380.931	44.657	-0.205	0.190
-379.917	-96.115	0.327	-0.088
-378.902	-170.747	0.319	-0.011
-377.888	62.219	-0.289	-0.291
-376.873	-125.297	-0.215	-0.033
-375.858	-200.000	-0.023	0.206
-374.844	-200.000	0.019	0.128
-373.829	-200.000	0.070	-0.486
-372.815	304.473	-0.119	-0.224
-371.800	-39.043	0.327	0.174
-370.785	342.995	-0.059	-0.116
-369.771	762.259	0.163	0.445
-368.756	-174.642	0.298	-0.009
-367.742	-200.000	0.002	0.051
-366.727	800.000	0.037	0.165
-365.712	-55.353	-0.136	0.061
-364.698	-110.884	-0.135	-0.028
-363.683	-200.000	0.012	0.262
-362.669	-86.815	0.146	0.045
-361.654	177.669	0.073	0.108
-360.639	-8.798	0.266	-0.180
-359.625	-24.812	0.145	-0.087
-358.610	36.635	-0.118	0.105
-357.596	-131.292	0.225	0.030
-356.581	800.000	-0.040	-0.148
-355.566	287.364	0.162	0.295
-354.552	-127.526	0.111	-0.016
-353.537	-27.463	0.198	-0.116
-352.523	800.000	-0.102	-0.369
-351.508	163.971	0.079	0.112
-350.493	800.000	0.093	-0.274
-349.479	-50.206	-0.246	0.117
-348.464	450.841	0.063	-0.140
-347.450	800.000	0.073	-0.264
-346.435	257.181	0.030	0.052
-345.420	-56.436	-0.362	-0.162
-344.406	800.000	-0.090	-0.357
-343.391	58.050	0.128	-0.127
-342.377	-200.000	0.025	-0.206
-341.362	-177.825	0.137	0.003
-340.348	16.054	0.114	-0.090
-339.333	-25.593	0.210	-0.125
-338.318	-47.584	-0.333	-0.163
-337.304	727.670	0.116	-0.311
-336.289	-118.203	-0.084	0.015
-335.275	800.000	-0.093	0.286
-334.260	117.896	0.107	-0.133
-333.245	-112.031	0.156	-0.032
-332.231	-58.600	-0.325	0.142
-331.216	64.210	-0.144	-0.146
-330.202	-200.000	-0.007	-0.145
-329.187	19.551	0.374	0.303
-328.172	-200.000	0.035	-0.332
-327.158	-2.089	-0.071	0.050
-326.143	105.621	0.217	-0.258
-325.129	-132.840	0.081	0.010
-324.114	262.650	0.163	0.285
-323.099	-124.391	-0.204	-0.032
-322.085	78.038	0.169	-0.182
-321.070	-47.850	-0.053	-0.026
-320.056	800.000	-0.053	-0.146
-319.041	77.663	0.223	-0.240
-318.026	-166.021	0.367	0.016
-317.012	-200.000	-0.005	0.038
-315.997	800.000	-0.031	0.102
-314.983	800.000	0.017	-0.073
-313.968	-81.820	0.087	0.029
-312.953	399.997	0.032	-0.068
-311.939	-68.994	-0.118	0.046
-310.924	-135.938	-0.316	0.037
-309.910	-200.000	0.003	0.080
-308.895	57.487	-0.234	-0.230
-307.880	-7.734	-0.122	0.083
-306.866	-53.588	-0.287	0.132
-305.851	800.000	-0.080	0.313
-304.837	-200.000	-0.003	0.434
-303.822	-102.251	-0.507	-0.122
-302.807	-38.446	0.193	0.103
-301.793	-118.662	0.370	0.066
-300.778	68.794	-0.178	-0.184
-299.764	39.742	-0.117	-0.106
-298.749	31.301	-0.046	-0.040
-297.735	-1.525	0.350	-0.249
-296.720	-103.876	-0.130	0.031
-295.705	-89.225	0.175	-0.052
-294.691	-82.562	0.108	0.035
-293.676	-200.000	-0.009	0.068
-292.662	73.757	-0.091	0.096
-291.647	-47.583	0.227	0.111
-290.632	159.333	-0.055	-0.077
-289.618	-199.589	0.477	-0.002
-288.603	-95.320	0.364	0.099
-287.589	278.950	-0.189	0.339
-286.574	245.459	0.067	-0.113
-285.559	-29.688	0.180	-0.103
-284.545	-14.944	-0.136	0.087
-283.530	-200.000	0.042	0.330
-282.516	279.185	-0.041	0.073
-281.501	51.712	-0.147	0.140
-280.486	-122.953	0.285	0.046
-279.472	-132.802	-0.371	0.048
-278.457	-115.141	-0.132	-0.025
-277.443	-200.000	-0.026	-0.403
-276.428	-200.000	0.021	-0.242
-275.413	-200.000	0.023	-0.165
-274.399	77.411	0.212	-0.226
-273.384	62.618	0.129	0.130
-272.370	-60.375	-0.158	0.068
-271.355	420.027	-0.127	0.273
-270.340	-109.512	-0.240	-0.051
-269.326	55.664	-0.164	0.160
-268.311	-6.859	0.119	0.081
-267.297	60.605	0.121	-0.120
-266.282	-166.589	-0.165	0.007
-265.267	47.369	-0.084	0.079
-264.253	31.261	-0.063	0.055
-263.238	115.512	0.160	0.197
-262.224	-21.957	0.072	-0.044
-261.209	-110.438	0.252	0.053
-260.195	800.000	0.111	0.380
-259.180	-101.809	-0.308	0.075
-258.165	44.429	-0.152	-0.140
-257.151	-104.321	-0.223	-0.052
-256.136	39.903	-0.093	0.084
-255.122	-101.044	-0.128	-0.032
-254.107	-200.000	-0.016	-0.100
-253.092	142.533	-0.072	-0.096
-252.078	-103.931	0.324	-0.076
-251.063	-52.576	-0.081	-0.037
-250.049	438.325	0.081	-0.177
-249.034	-200.000	-0.035	-0.367
-248.019	-200.000	0.046	-0.311
-247.005	134.905	-0.097	-0.126
-245.990	-127.424	0.196	-0.029
-244.976	-165.356	-0.388	0.017
-243.961	800.000	0.044	-0.195
-242.946	16.193	0.328	-0.260
-241.932	-4.296	0.194	0.135
-240.917	-200.000	-0.005	-0.124
-239.903	169.144	-0.193	-0.276
-238.888	-18.538	0.142	-0.089
-237.873	-200.000	0.035	-0.368
-236.859	-79.284	0.379	0.129
-235.844	608.498	-0.113	0.283
-234.830	800.000	-0.012	-0.034
-233.815	-61.292	0.042	0.018
-232.800	800.000	-0.058	0.229
-231.786	85.497	0.112	-0.123
-230.771	800.000	-0.039	-0.136
-229.757	-108.459	-0.362	0.078
-228.742	800.000	-0.033	-0.101
-227.727	391.714	-0.051	0.107
-226.713	675.847	-0.016	-0.040
-225.698	165.996	0.182	-0.258
-224.684	133.825	0.217	0.281
-223.669	-200.000	-0.033	0.323
-222.655	108.848	0.069	0.082
-221.640	-102.839	0.105	0.025
-220.625	-113.595	-0.470	-0.092
-219.611	231.467	0.201	0.330
-218.596	312.542	-0.258	0.486
-217.582	-200.000	0.020	0.292
-216.567	684.867	-0.031	0.082
-215.552	800.000	-0.082	0.323
-214.538	-200.000	-0.037	0.366
-213.523	-40.924	-0.154	0.080
-212.509	-200.000	0.026	0.199
-211.494	245.655	0.037	0.062
-210.479	19.930	-0.112	0.090
-209.465	240.808	-0.058	-0.098
-208.450	71.794	-0.281	-0.293
-207.436	-200.000	-0.008	-0.329
-206.421	368.357	0.160	0.325
-205.406	-162.068	-0.289	0.015
-204.392	-200.000	0.009	-0.112
-203.377	-40.330	0.112	0.058
-202.363	96.609	-0.106	-0.121
-201.348	-73.159	0.160	-0.059
-200.333	611.707	-0.049	-0.123
-199.319	-30.724	-0.141	-0.080
-198.304	800.000	-0.062	-0.230
-197.290	437.347	-0.032	0.071
-196.275	-200.000	-0.071	0.507
-195.260	-200.000	-0.105	-0.481
-194.246	237.999	0.101	0.169
-193.231	-19.808	-0.193	0.119
-192.217	55.106	-0.025	0.024
-191.202	82.770	0.019	0.021
-190.187	-200.000	-0.061	-0.268
-189.173	-133.976	-0.262	0.033
-188.158	270.618	0.031	-0.054
-187.144	800.000	-0.098	0.382
-186.129	-114.180	-0.189	-0.037
-185.114	-200.000	0.003	-0.016
-184.100	800.000	0.077	0.221
-183.085	313.090	0.134	0.252
-182.071	800.000	-0.050	0.195
-181.056	-101.402	-0.154	-0.037
-180.042	-135.438	-0.060	0.007
-179.027	-200.000	0.039	0.245
-178.012	148.416	0.189	0.256
-176.998	95.712	0.156	0.179
-175.983	-23.771	-0.285	0.171
-174.969	30.299	-0.259	-0.222
-173.954	-98.128	-0.167	-0.043
-172.939	-8.190	-0.110	-0.074
-171.925	-27.636	-0.278	0.161
-170.910	508.228	-0.044	-0.102
-169.896	-200.000	0.026	-0.260
-168.881	118.610	-0.238	0.294
-167.866	401.882	0.027	0.057
-166.852	-78.189	0.347	0.119
-165.837	56.672	-0.019	0.018
-164.823	-46.495	0.117	0.058
-163.808	19.616	0.173	-0.140
-162.793	-200.000	0.016	0.144
-161.779	169.514	0.178	-0.254
-160.764	-78.503	-0.123	0.042
-159.750	265.995	0.128	0.224
-158.735	28.959	-0.191	0.162
-157.720	-66.996	-0.212	0.084
-156.706	109.687	-0.120	0.144
-155.691	101.385	0.217	0.253
-154.677	-11.955	-0.169	-0.111
-153.662	695.615	-0.023	0.061
-152.647	-200.000	0.023	-0.174
-151.633	-97.062	0.174	0.045
-150.618	800.000	-0.054	-0.225
-149.604	-128.850	0.301	-0.042
-148.589	27.077	0.214	0.179
-147.574	-6.344	0.049	0.033
-146.560	-24.712	-0.172	-0.102
-145.545	-68.858	0.072	-0.028
-144.531	-161.838	-0.399	-0.020
-143.516	263.482	-0.135	0.234
-142.502	-52.883	0.140	-0.064
-141.487	36.961	0.063	-0.055
-140.472	-61.897	-0.226	-0.094
-139.458	24.598	0.084	-0.070
-138.443	58.838	0.224	-0.220
-137.429	170.593	0.121	0.173
-136.414	4.013	0.116	0.084
-135.399	525.391	0.158	0.373
-134.385	240.704	0.158	-0.263
-133.370	-200.000	0.016	0.069
-132.356	122.407	0.157	0.196
-131.341	94.539	-0.128	0.145
-130.326	106.932	0.289	0.343
-129.312	-27.140	0.321	0.187
-128.297	-60.579	0.406	-0.172
-127.283	-65.032	0.225	-0.091
-126.268	20.018	0.239	-0.193
-125.253	-99.158	0.124	-0.031
-124.239	-135.616	-0.138	-0.016
-123.224	25.795	-0.095	-0.079
-122.210	-200.000	-0.034	0.187
