DTS Sentinel unit serial number:	SN413079Multiplexer serial number:	ORYXHardware model number:	OX4-SRSoftware version number:	ORYX F/W v4.00 Oryx Data Collector v3.7.2.0data status	okinstallation	princeton_trtdifferential loss correction	single-endedforward channel	channel 1reverse channel	N/Adate	2019/09/17time	06:58:35forward acquisition time	60.00reverse acquisition time	0.00gamma	496.2192k internal	0.2330k external	0.2330temperature offset calibration	0.9971default loss term (dB/km)	0.3790temperature slope calibration	1.0000multiplexer offset coefficient	1.0000multiplexer slope coefficient	1.0000fibre end	0.00T internal ref (°C)	27.55T ext. ref 1 (°C)	0.12T ext. ref 2 (°C)	21.05length (m)	temperature (°C)	Stokes	anti-Stokes-747.200	800.000	0.030	0.097
-746.185	79.192	-0.160	0.172
-745.171	80.165	-0.155	0.167
-744.156	95.154	-0.141	0.161
-743.142	51.233	0.138	-0.132
-742.127	-200.000	-0.037	0.246
-741.112	-39.600	0.152	-0.080
-740.098	-70.775	-0.218	0.083
-739.083	-57.071	0.051	-0.023
-738.069	-126.405	0.159	0.024
-737.054	-95.415	0.096	0.026
-736.039	-182.034	-0.260	-0.005
-735.025	160.471	0.069	0.096
-734.010	-90.934	-0.095	-0.028
-732.996	402.990	-0.117	0.247
-731.981	59.145	0.199	0.197
-730.966	-200.000	0.300	0.000
-729.952	123.175	-0.155	0.196
-728.937	178.700	-0.113	-0.167
-727.923	-200.000	0.033	-0.162
-726.908	-139.156	-0.150	-0.016
-725.894	282.996	-0.025	-0.045
-724.879	-140.080	-0.423	-0.045
-723.864	800.000	-0.101	0.285
-722.850	356.480	0.125	0.250
-721.835	132.285	-0.223	-0.289
-720.821	6.963	0.110	0.082
-719.806	47.181	0.074	0.069
-718.791	142.578	-0.301	-0.402
-717.777	264.093	0.047	0.082
-716.762	44.826	0.098	0.091
-715.748	-7.405	-0.337	-0.230
-714.733	29.261	-0.295	0.252
-713.718	-45.925	-0.143	0.071
-712.704	-57.280	-0.341	0.151
-711.689	1.977	-0.192	0.140
-710.675	800.000	-0.106	-0.313
-709.660	-200.000	0.004	-0.133
-708.645	-12.095	0.246	-0.162
-707.631	800.000	0.098	-0.318
-706.616	115.411	-0.263	-0.322
-705.602	303.649	-0.114	0.212
-704.587	800.000	0.009	0.033
-703.572	-44.230	-0.111	-0.056
-702.558	-200.000	-0.003	0.049
-701.543	-136.112	0.334	0.039
-700.529	275.785	-0.018	-0.032
-699.514	32.181	-0.043	-0.037
-698.499	-9.376	0.252	-0.169
-697.485	-121.750	0.111	0.018
-696.470	-64.227	0.266	-0.109
-695.456	-94.104	0.150	0.041
-694.441	345.480	-0.070	0.138
-693.426	-55.244	0.274	-0.124
-692.412	-85.293	-0.270	-0.085
-691.397	-185.866	-0.202	-0.003
-690.383	426.775	-0.027	-0.059
-689.368	237.526	-0.198	-0.330
-688.354	-52.521	-0.244	0.113
-687.339	30.275	-0.160	-0.137
-686.324	-200.000	-0.018	0.349
-685.310	-82.877	-0.211	-0.069
-684.295	-200.000	-0.058	-0.316
-683.281	-100.323	0.192	-0.048
-682.266	119.181	0.089	-0.111
-681.251	12.698	0.080	0.062
-680.237	-200.000	0.016	-0.191
-679.222	1.168	0.229	0.165
-678.208	-141.566	-0.161	-0.016
-677.193	354.366	0.036	0.073
-676.178	-108.283	-0.144	0.031
-675.164	-159.799	-0.388	-0.021
-674.149	235.172	-0.020	0.034
-673.135	-200.000	0.003	-0.292
-672.120	36.289	0.090	-0.079
-671.105	194.773	0.070	0.107
-670.091	33.524	0.052	-0.045
-669.076	-95.630	0.325	0.087
-668.062	-200.000	-0.011	0.243
-667.047	490.769	0.113	-0.259
-666.032	-103.438	0.231	0.055
-665.018	21.134	0.118	-0.096
-664.003	159.454	0.193	0.269
-662.989	529.539	-0.061	-0.144
-661.974	49.397	-0.191	-0.180
-660.959	-200.000	0.041	-0.230
-659.945	-117.133	-0.244	0.045
-658.930	292.537	0.072	-0.132
-657.916	-137.131	-0.154	-0.018
-656.901	800.000	-0.081	-0.237
-655.886	274.246	-0.184	0.327
-654.872	3.880	0.118	-0.086
-653.857	74.622	0.174	0.184
-652.843	8.115	0.247	0.186
-651.828	800.000	0.049	0.147
-650.814	-56.741	-0.306	-0.136
-649.799	800.000	0.096	0.342
-648.784	224.732	0.137	-0.222
-647.770	-55.863	-0.285	0.128
-646.755	-7.614	0.276	0.187
-645.741	80.160	-0.185	-0.199
-644.726	800.000	-0.031	-0.095
-643.711	-45.558	-0.244	0.121
-642.697	187.141	0.143	-0.214
-641.682	-10.541	0.210	0.139
-640.668	8.180	-0.081	-0.061
-639.653	-25.249	-0.283	0.168
-638.638	-128.706	0.237	0.033
-637.624	69.591	0.283	-0.292
-636.609	-10.159	-0.344	0.229
-635.595	-87.962	-0.359	0.108
-634.580	-82.435	0.118	-0.038
-633.565	-200.000	-0.025	-0.250
-632.551	191.393	0.275	-0.415
-631.536	359.309	0.113	-0.227
-630.522	12.355	0.364	0.281
-629.507	-200.000	-0.006	-0.186
-628.492	800.000	0.052	0.203
-627.478	40.652	0.295	0.266
-626.463	165.861	-0.070	-0.099
-625.449	39.068	-0.057	-0.051
-624.434	206.960	0.162	0.252
-623.419	-96.454	-0.256	0.068
-622.405	81.184	-0.103	0.111
-621.390	316.461	-0.183	0.347
-620.376	800.000	0.063	-0.231
-619.361	50.678	0.272	-0.257
-618.346	77.688	-0.173	0.184
-617.332	216.436	-0.145	-0.230
-616.317	245.307	0.102	0.172
-615.303	-100.598	-0.230	0.057
-614.288	696.047	0.103	0.270
-613.273	52.873	-0.182	0.174
-612.259	88.284	0.228	0.254
-611.244	29.287	-0.104	0.088
-610.230	341.214	-0.132	0.259
-609.215	-91.633	-0.065	-0.019
-608.201	-68.469	-0.313	-0.122
-607.186	-140.163	-0.203	-0.021
-606.171	800.000	0.036	0.113
-605.157	44.710	-0.196	0.181
-604.142	-120.525	-0.279	-0.047
-603.128	-66.553	0.104	0.041
-602.113	-200.000	0.021	-0.236
-601.098	636.650	0.044	-0.111
-600.084	-94.268	0.063	0.017
-599.069	-200.000	-0.006	-0.054
-598.055	800.000	-0.074	-0.221
-597.040	-112.873	0.190	-0.038
-596.025	169.652	0.061	0.088
-595.011	-200.000	-0.005	-0.213
-593.996	55.734	0.050	-0.048
-592.982	-50.317	0.110	0.052
-591.967	264.065	0.090	-0.156
-590.952	-200.000	0.001	0.085
-589.938	800.000	0.070	-0.273
-588.923	71.917	-0.183	0.191
-587.909	-200.000	0.036	-0.166
-586.894	-29.597	-0.533	0.305
-585.879	-116.060	0.087	0.016
-584.865	-105.674	-0.391	-0.089
-583.850	-67.020	0.165	-0.065
-582.836	483.449	0.108	0.245
-581.821	-96.764	-0.366	0.096
-580.806	-119.249	0.141	0.025
-579.792	285.537	-0.213	-0.383
-578.777	228.388	0.239	0.389
-577.763	800.000	0.174	0.517
-576.748	520.816	-0.069	-0.162
-575.733	-38.816	-0.177	-0.093
-574.719	208.989	0.116	-0.181
-573.704	-129.829	0.237	0.033
-572.690	89.267	-0.173	-0.192
-571.675	77.660	0.253	-0.270
-570.661	21.385	-0.124	0.101
-569.646	800.000	0.061	0.240
-568.631	-171.477	-0.117	0.004
-567.617	-186.219	-0.170	0.002
-566.602	-200.000	-0.018	0.088
-565.588	190.583	0.032	0.048
-564.573	32.232	-0.024	0.021
-563.558	-136.720	-0.102	0.012
-562.544	-38.989	-0.242	0.128
-561.529	-29.350	-0.337	-0.193
-560.515	94.792	0.145	-0.164
-559.500	99.712	0.079	0.092
-558.485	-78.148	-0.127	0.044
-557.471	-21.268	-0.005	-0.003
-556.456	-200.000	0.037	-0.260
-555.442	800.000	0.084	-0.354
-554.427	-200.000	0.010	0.349
-553.412	-200.000	0.078	0.488
-552.398	288.275	-0.188	-0.340
-551.383	-200.000	0.001	-0.279
-550.369	-78.205	-0.126	-0.043
-549.354	-106.485	0.166	-0.037
-548.339	-110.841	0.278	0.057
-547.325	-90.024	-0.275	0.080
-546.310	50.058	-0.173	0.163
-545.296	-75.589	0.162	0.058
-544.281	-86.361	-0.179	-0.055
-543.266	102.583	0.085	0.099
-542.252	-90.643	0.159	-0.046
-541.237	53.869	0.146	0.140
-540.223	-146.004	-0.283	-0.025
-539.208	423.576	0.127	0.273
-538.193	456.451	0.075	-0.167
-537.179	96.055	0.085	0.097
-536.164	-80.683	-0.130	0.043
-535.150	74.749	0.199	0.209
-534.135	36.532	0.151	-0.133
-533.121	66.285	-0.231	0.234
-532.106	125.228	-0.373	0.469
-531.091	-101.206	0.119	0.029
-530.077	96.977	-0.126	-0.144
-529.062	-128.068	0.219	-0.031
-528.048	-133.113	0.344	0.043
-527.033	-200.000	-0.023	-0.353
-526.018	-94.101	-0.086	0.024
-525.004	104.367	-0.125	-0.147
-523.989	-34.895	0.392	0.213
-522.975	-42.296	0.037	0.019
-521.960	-200.000	0.021	0.199
-520.945	800.000	-0.010	-0.031
-519.931	800.000	-0.030	-0.108
-518.916	595.150	0.015	-0.037
-517.902	800.000	0.053	-0.159
-516.887	783.443	-0.078	-0.214
-515.872	800.000	-0.056	0.235
-514.858	-92.830	-0.203	0.057
-513.843	-97.283	0.399	0.104
-512.829	-178.380	0.113	0.003
-511.814	-200.000	0.013	-0.207
-510.799	138.349	-0.246	-0.322
-509.785	241.090	0.208	-0.346
-508.770	-127.878	0.090	-0.013
-507.756	-138.627	-0.360	0.039
-506.741	800.000	0.032	0.126
-505.726	264.023	-0.054	-0.094
-504.712	257.391	0.088	0.150
-503.697	5.988	0.171	0.126
-502.683	52.010	-0.149	-0.142
-501.668	-90.748	-0.213	-0.061
-500.653	-163.555	-0.159	0.008
-499.639	-144.540	0.212	-0.020
-498.624	-111.536	-0.147	0.030
-497.610	800.000	0.105	0.295
-496.595	-4.108	-0.155	0.107
-495.581	-14.818	-0.222	-0.142
-494.566	427.110	-0.055	0.117
-493.551	23.404	0.027	-0.022
-492.537	-200.000	-0.018	-0.303
-491.522	-142.610	-0.109	-0.011
-490.508	-117.720	0.192	0.034
-489.493	-16.739	-0.289	0.182
-488.478	-40.454	-0.137	0.071
-487.464	53.637	0.083	0.079
-486.449	-28.353	0.149	-0.086
-485.435	29.129	0.055	0.046
-484.420	800.000	0.076	0.318
-483.405	-81.720	0.191	-0.062
-482.391	-141.323	-0.105	0.011
-481.376	-200.000	-0.018	-0.091
-480.362	200.314	-0.181	0.278
-479.347	-200.000	0.103	0.000
-478.332	-200.000	0.062	-0.349
-477.318	353.612	0.100	-0.197
-476.303	30.727	0.219	-0.187
-475.289	11.619	-0.224	-0.171
-474.274	-20.784	0.370	-0.226
-473.259	-200.000	-0.032	0.177
-472.245	-78.317	0.259	-0.088
-471.230	697.113	-0.026	-0.068
-470.216	-75.934	-0.184	0.065
-469.201	-95.448	0.250	0.067
-468.186	800.000	0.052	-0.185
-467.172	-10.656	0.079	-0.052
-466.157	-79.654	-0.128	-0.043
-465.143	34.580	-0.124	0.108
-464.128	800.000	-0.040	-0.162
-463.113	-200.000	-0.050	0.374
-462.099	800.000	0.071	0.283
-461.084	-171.526	0.248	0.008
-460.070	29.532	-0.229	0.194
-459.055	129.112	0.033	0.042
-458.040	-11.447	-0.039	-0.025
-457.026	112.354	0.051	0.061
-456.011	-19.512	0.187	-0.115
-454.997	-76.412	-0.367	0.128
-453.982	-109.108	0.197	-0.042
-452.968	301.461	-0.201	-0.369
-451.953	800.000	-0.093	0.285
-450.938	-142.408	-0.192	-0.019
-449.924	-138.451	-0.276	0.030
-448.909	180.724	0.100	-0.147
-447.895	-87.493	-0.150	0.045
-446.880	-64.033	0.140	-0.057
-445.865	91.683	0.110	-0.123
-444.851	-2.179	0.023	-0.016
-443.836	-200.000	-0.032	-0.294
-442.822	-200.000	0.014	-0.384
-441.807	140.922	-0.080	0.106
-440.792	-200.000	0.018	0.159
-439.778	-23.455	-0.209	0.125
-438.763	-200.000	-0.004	-0.064
-437.749	291.384	-0.031	-0.056
-436.734	207.934	-0.128	-0.198
-435.719	-200.000	0.021	0.143
-434.705	-152.771	0.210	0.015
-433.690	273.844	0.104	0.182
-432.676	-88.822	0.015	-0.005
-431.661	261.525	-0.058	-0.100
-430.646	-4.104	0.114	-0.079
-429.632	0.040	0.489	0.346
-428.617	72.284	-0.155	0.160
-427.603	-101.696	0.263	0.063
-426.588	-136.633	-0.309	-0.036
-425.573	-200.000	-0.016	0.613
-424.559	-70.181	-0.163	0.062
-423.544	800.000	0.074	-0.214
-422.530	130.446	-0.353	-0.449
-421.515	-28.552	0.267	0.153
-420.500	277.471	0.063	-0.111
-419.486	485.272	0.055	0.124
-418.471	800.000	0.061	-0.218
-417.457	-7.738	-0.090	-0.060
-416.442	-13.399	0.140	-0.090
-415.428	-73.020	-0.422	-0.154
-414.413	-200.000	0.000	-0.026
-413.398	800.000	0.084	0.315
-412.384	-200.000	-0.073	0.371
-411.369	-200.000	0.030	0.503
-410.355	194.258	0.042	0.064
-409.340	-17.986	-0.233	-0.145
-408.325	-144.153	0.356	0.033
-407.311	-200.000	-0.021	0.368
-406.296	792.567	0.096	-0.263
-405.282	800.000	-0.055	0.172
-404.267	13.239	0.086	0.066
-403.252	35.958	-0.026	0.023
-402.238	-21.614	-0.060	-0.037
-401.223	290.697	0.074	-0.134
-400.209	800.000	-0.054	-0.227
-399.194	-77.063	0.171	0.059
-398.179	-87.267	0.135	-0.041
-397.165	-52.454	-0.108	-0.049
-396.150	358.179	0.073	0.146
-395.136	-10.341	0.368	-0.242
-394.121	-95.312	0.125	-0.033
-393.106	-67.325	-0.079	-0.031
-392.092	-200.000	-0.024	0.161
-391.077	362.875	0.061	-0.122
-390.063	-200.000	0.015	-0.095
-389.048	669.111	-0.026	-0.068
-388.033	-8.454	0.192	-0.128
-387.019	-114.281	0.184	0.035
-386.004	800.000	0.060	-0.236
-384.990	-57.071	0.348	-0.152
-383.975	-121.399	-0.164	-0.027
-382.960	-200.000	-0.157	0.699
-381.946	-124.954	0.298	-0.046
-380.931	275.875	-0.129	-0.228
-379.917	800.000	0.071	0.295
-378.902	-105.609	0.066	0.015
-377.888	-85.227	0.136	0.042
-376.873	-200.000	-0.005	-0.294
-375.858	-67.172	0.100	0.039
-374.844	-200.000	0.026	0.238
-373.829	-200.000	-0.030	-0.141
-372.815	168.640	0.138	0.195
-371.800	-123.672	-0.152	-0.024
-370.785	800.000	0.074	-0.271
-369.771	-200.000	0.037	-0.256
-368.756	106.786	0.095	0.112
-367.742	800.000	0.079	-0.224
-366.727	333.902	-0.073	-0.141
-365.712	356.187	0.149	0.295
-364.698	-40.683	-0.084	-0.043
-363.683	-26.050	-0.097	0.056
-362.669	90.581	0.051	0.057
-361.654	36.910	-0.326	-0.286
-360.639	-200.000	-0.005	-0.145
-359.625	132.021	-0.213	-0.272
-358.610	5.218	-0.049	0.036
-357.596	80.620	-0.094	0.100
-356.581	283.432	0.104	-0.186
-355.566	-109.512	-0.288	0.060
-354.552	18.967	-0.088	-0.070
-353.537	84.635	0.234	0.254
-352.523	-72.832	-0.129	0.047
-351.508	102.356	0.104	0.120
-350.493	800.000	-0.077	0.278
-349.479	168.688	-0.067	-0.094
-348.464	15.920	0.222	0.173
-347.450	-200.000	-0.030	0.262
-346.435	-150.438	0.377	-0.029
-345.420	53.624	0.063	-0.059
-344.406	84.991	-0.141	0.153
-343.391	800.000	-0.073	0.205
-342.377	279.863	-0.137	-0.242
-341.362	-75.866	0.350	0.123
-340.348	-200.000	-0.007	0.107
-339.333	-200.000	-0.040	0.206
-338.318	-200.000	-0.010	-0.272
-337.304	-200.000	0.021	-0.149
-336.289	-200.000	0.066	-0.320
-335.275	-89.085	0.099	-0.029
-334.260	-30.281	-0.250	0.141
-333.245	282.000	-0.058	-0.103
-332.231	-93.560	0.114	0.031
-331.216	2.113	0.164	-0.117
-330.202	-200.000	-0.050	0.230
-329.187	-80.786	0.307	0.101
-328.172	800.000	0.018	0.049
-327.158	-200.000	0.027	-0.123
-326.143	-61.310	-0.206	-0.086
-325.129	119.743	0.170	0.208
-324.114	119.250	-0.147	-0.180
-323.099	800.000	0.071	0.200
-322.085	-69.292	-0.100	0.038
-321.070	800.000	-0.033	-0.132
-320.056	-136.430	0.179	0.021
-319.041	-69.155	-0.104	0.039
-318.026	99.661	0.133	-0.152
-317.012	-200.000	0.036	-0.189
-315.997	72.668	-0.108	0.111
-314.983	-200.000	-0.039	0.199
-313.968	-200.000	-0.008	-0.246
-312.953	800.000	-0.043	0.123
-311.939	-71.971	-0.118	0.044
-310.924	34.213	0.168	0.145
-309.910	-134.147	-0.242	0.030
-308.895	-123.022	-0.440	0.070
-307.880	14.608	-0.188	-0.146
-306.866	-165.908	0.251	-0.011
-305.851	236.543	-0.048	-0.079
-304.837	-104.309	-0.077	-0.018
-303.822	188.839	0.140	-0.208
-302.807	-164.934	-0.182	0.008
-301.793	182.170	-0.133	0.195
-300.778	-200.000	-0.005	-0.040
-299.764	-5.217	0.142	0.097
-298.749	-139.091	-0.163	-0.017
-297.735	-200.000	0.029	-0.202
-296.720	32.849	0.235	0.201
-295.705	49.696	-0.170	0.159
-294.691	-28.766	-0.263	-0.150
-293.676	380.902	-0.097	0.197
-292.662	196.237	-0.055	0.083
-291.647	-105.332	0.336	-0.076
-290.632	-200.000	0.027	0.271
-289.618	80.112	-0.174	-0.185
-288.603	103.398	-0.107	-0.124
-287.589	-11.595	-0.362	0.235
-286.574	-200.000	0.286	-0.001
-285.559	616.162	0.075	-0.187
-284.545	565.877	0.071	-0.170
-283.530	-200.000	-0.039	-0.295
-282.516	-15.615	0.307	0.193
-281.501	-151.386	-0.168	-0.012
-280.486	-200.000	-0.005	-0.185
-279.472	26.119	-0.140	-0.116
-278.457	-66.732	0.248	-0.097
-277.443	68.643	-0.136	0.138
-276.428	645.110	0.045	-0.113
-275.413	48.136	0.153	0.141
-274.399	119.113	0.129	0.157
-273.384	800.000	-0.058	-0.179
-272.370	-200.000	0.038	0.198
-271.355	-104.179	0.179	0.041
-270.340	-78.379	-0.177	0.060
-269.326	130.334	0.223	-0.282
-268.311	800.000	-0.036	-0.145
-267.297	-34.752	-0.200	-0.108
-266.282	-200.000	0.013	0.168
-265.267	-109.689	-0.140	0.029
-264.253	-200.000	-0.004	-0.089
-263.238	54.733	-0.137	-0.130
-262.224	20.163	0.275	-0.219
-261.209	214.256	0.022	0.035
-260.195	-23.069	0.256	-0.152
-259.180	-102.781	-0.186	-0.044
-258.165	-91.868	0.186	-0.052
-257.151	59.934	-0.103	0.101
-256.136	-5.999	0.212	-0.143
-255.122	-200.000	0.028	0.305
-254.107	50.264	0.087	0.081
-253.092	800.000	-0.069	0.238
-252.078	67.365	-0.117	-0.118
-251.063	-110.168	-0.055	-0.011
-250.049	-200.000	0.028	-0.333
-249.034	-200.000	-0.024	0.206
-248.019	32.829	-0.068	0.058
-247.005	-200.000	0.004	0.167
-245.990	-200.000	-0.001	-0.083
-244.976	800.000	-0.056	-0.175
-243.961	-46.924	0.241	0.116
-242.946	-57.094	0.289	-0.126
-241.932	54.411	-0.105	-0.100
-240.917	335.608	-0.157	0.300
-239.903	166.957	-0.135	0.189
-238.888	-37.326	0.200	0.105
-237.873	800.000	0.030	-0.117
-236.859	-29.656	-0.107	0.060
-235.844	-121.890	0.142	0.023
-234.830	-29.328	-0.089	-0.050
-233.815	-53.873	0.337	0.152
-232.800	-37.054	-0.192	-0.102
-231.786	165.650	-0.059	0.082
-230.771	262.943	-0.218	-0.373
-229.757	103.927	0.187	0.216
-228.742	800.000	-0.041	0.152
-227.727	-109.700	0.259	0.054
-226.713	-200.000	-0.029	-0.163
-225.698	-62.167	0.141	0.058
-224.684	-200.000	0.030	0.235
-223.669	-63.586	-0.202	0.082
-222.655	-200.000	-0.022	0.200
-221.640	-63.213	0.311	0.127
-220.625	-200.000	0.005	-0.045
-219.611	-40.356	0.135	-0.069
-218.596	291.235	0.183	0.328
-217.582	136.289	-0.159	0.205
-216.567	800.000	0.064	-0.176
-215.552	48.578	-0.148	0.137
-214.538	281.993	0.143	-0.252
-213.523	-86.475	-0.170	-0.052
-212.509	55.533	-0.106	-0.101
-211.494	-101.918	0.243	-0.058
-210.479	800.000	0.147	-0.523
-209.465	-200.000	-0.016	-0.091
-208.450	-56.538	0.189	-0.083
-207.436	-200.000	-0.001	-0.161
-206.421	800.000	-0.031	0.114
-205.406	557.719	0.040	0.095
-204.392	-200.000	-0.030	0.162
-203.377	-64.604	-0.283	0.113
-202.363	-139.080	-0.268	-0.029
-201.348	-38.965	0.192	0.100
-200.333	464.272	0.022	-0.048
-199.319	166.654	-0.237	-0.332
-198.304	-68.135	0.251	-0.096
-197.290	-148.630	0.112	-0.009
-196.275	-124.886	0.207	-0.032
-195.260	-144.383	-0.201	0.018
-194.246	800.000	-0.071	-0.308
-193.231	311.287	0.148	-0.274
-192.217	-155.722	-0.532	-0.034
-191.202	183.857	-0.193	0.282
-190.187	-200.000	-0.059	-0.306
-189.173	-200.000	-0.018	-0.171
-188.158	68.107	0.158	-0.160
-187.144	44.630	-0.118	-0.107
-186.129	-53.951	-0.288	0.129
-185.114	-192.257	-0.178	0.002
-184.100	715.550	0.046	-0.120
-183.085	27.355	-0.307	0.254
-182.071	-81.042	-0.120	0.039
-181.056	800.000	0.057	-0.222
-180.042	-79.776	-0.241	0.080
-179.027	-200.000	0.117	-0.522
-178.012	-130.242	-0.098	-0.013
-176.998	-123.617	-0.179	0.028
-175.983	40.146	-0.184	-0.163
-174.969	-200.000	0.049	0.221
-173.954	-200.000	-0.045	0.276
-172.939	-46.813	-0.151	0.073
-171.925	-65.229	-0.092	-0.036
-170.910	246.021	0.093	-0.155
-169.896	359.210	0.127	-0.250
-168.881	211.266	0.056	0.086
-167.866	261.116	0.120	0.204
-166.852	-111.085	0.091	-0.018
-165.837	800.000	0.065	0.183
-164.823	-25.249	0.051	0.030
-163.808	728.114	0.091	-0.240
-162.793	-102.576	0.187	-0.044
-161.779	-52.755	0.256	-0.116
-160.764	-105.983	0.172	0.038
-159.750	-40.479	0.191	-0.098
-158.735	1.252	-0.023	0.016
-157.720	-76.810	-0.145	0.050
-156.706	800.000	0.032	-0.089
-155.691	-104.599	0.114	0.026
-154.677	-14.899	-0.052	0.033
-153.662	-20.641	-0.134	0.081
-152.647	186.427	-0.130	0.190
-151.633	-88.157	0.148	-0.044
-150.618	-71.295	-0.286	-0.106
-149.604	18.594	-0.244	-0.192
-148.589	352.717	0.115	0.224
-147.574	800.000	-0.048	-0.186
-146.560	223.206	-0.072	0.114
-145.545	68.723	-0.313	-0.316
-144.531	-89.336	0.237	0.069
-143.516	-58.406	-0.348	-0.149
-142.502	26.531	0.104	-0.086
-141.487	-80.321	-0.145	0.048
-140.472	-49.374	-0.154	0.072
-139.458	134.779	-0.067	0.085
-138.443	95.593	0.278	0.312
-137.429	-122.539	0.126	-0.020
-136.414	-47.287	-0.172	0.082
-135.399	380.193	-0.040	-0.080
-134.385	800.000	-0.014	0.061
-133.370	42.337	0.149	-0.133
-132.356	31.130	-0.156	-0.132
-131.341	26.455	0.140	0.115
-130.326	-0.146	0.202	-0.141
-129.312	800.000	-0.069	0.294
-128.297	4.620	0.073	-0.052
-127.283	-200.000	0.007	-0.057
-126.268	124.615	-0.265	0.328
-125.253	-36.232	-0.017	-0.009
-124.239	800.000	-0.134	-0.562
-123.224	-200.000	0.020	-0.214
-122.210	800.000	-0.020	-0.087
-121.195	-129.182	0.277	0.038
