DTS Sentinel unit serial number:	SN413079Multiplexer serial number:	ORYXHardware model number:	OX4-SRSoftware version number:	ORYX F/W v4.00 Oryx Data Collector v3.7.2.0data status	okinstallation	princeton_trtdifferential loss correction	single-endedforward channel	channel 1reverse channel	N/Adate	2019/09/12time	01:12:11forward acquisition time	60.00reverse acquisition time	0.00gamma	496.2192k internal	0.2320k external	0.2320temperature offset calibration	1.0080default loss term (dB/km)	0.3790temperature slope calibration	1.0000multiplexer offset coefficient	1.0000multiplexer slope coefficient	1.0000fibre end	0.00T internal ref (°C)	33.02T ext. ref 1 (°C)	2.09T ext. ref 2 (°C)	27.71length (m)	temperature (°C)	Stokes	anti-Stokes-747.200	-71.161	0.243	0.092
-746.185	33.042	-0.112	-0.098
-745.171	277.940	0.146	0.264
-744.156	-147.622	-0.249	0.021
-743.142	-74.188	-0.178	-0.065
-742.127	-72.872	0.474	0.176
-741.112	-57.289	-0.271	0.121
-740.098	-61.703	-0.110	-0.047
-739.083	16.918	-0.212	0.170
-738.069	-200.000	0.021	0.251
-737.054	470.946	-0.098	-0.223
-736.039	315.153	-0.273	-0.520
-735.025	800.000	0.111	0.401
-734.010	325.047	-0.095	0.183
-732.996	-51.680	-0.245	0.115
-731.981	-200.000	-0.016	-0.255
-730.966	288.179	0.150	0.275
-729.952	-116.275	0.217	-0.041
-728.937	-85.181	-0.108	-0.034
-727.923	430.775	-0.159	0.348
-726.908	215.212	0.091	0.145
-725.894	659.538	0.060	-0.155
-724.879	767.571	-0.139	-0.383
-723.864	556.494	0.051	-0.123
-722.850	-103.709	0.279	-0.066
-721.835	13.516	-0.201	-0.157
-720.821	-35.625	0.223	0.122
-719.806	-76.228	-0.146	0.052
-718.791	256.965	0.122	-0.212
-717.777	-60.528	0.392	0.168
-716.762	-84.827	-0.077	-0.025
-715.748	-21.659	-0.400	-0.246
-714.733	-6.759	0.205	0.141
-713.718	800.000	-0.052	0.182
-712.704	-6.643	-0.392	0.269
-711.689	232.517	-0.041	-0.067
-710.675	639.461	0.106	0.273
-709.660	-72.264	-0.182	0.068
-708.645	-6.834	0.165	-0.113
-707.631	-81.111	0.085	0.028
-706.616	-200.000	-0.012	0.171
-705.602	516.297	-0.040	0.094
-704.587	259.013	0.158	-0.276
-703.572	-76.322	0.171	0.061
-702.558	800.000	0.044	-0.157
-701.543	-200.000	0.019	-0.596
-700.529	-72.013	-0.276	0.104
-699.514	800.000	-0.083	-0.249
-698.499	-62.214	0.224	-0.094
-697.485	437.008	0.139	0.307
-696.470	74.985	0.097	0.103
-695.456	800.000	-0.027	0.091
-694.441	-24.865	-0.120	0.072
-693.426	-32.564	-0.088	0.049
-692.412	-200.000	0.018	-0.187
-691.397	-38.387	0.359	-0.192
-690.383	452.128	0.084	-0.188
-689.368	-149.023	0.125	-0.010
-688.354	-200.000	0.001	-0.078
-687.339	352.166	-0.085	-0.169
-686.324	-200.000	-0.020	0.143
-685.310	123.848	-0.066	0.083
-684.295	109.916	0.071	0.087
-683.281	-34.993	-0.171	0.094
-682.266	82.591	0.084	-0.092
-681.251	-51.562	0.046	-0.021
-680.237	676.547	-0.040	0.105
-679.222	800.000	-0.077	-0.301
-678.208	-20.098	0.213	0.132
-677.193	200.858	-0.103	0.159
-676.178	-192.653	-0.083	0.001
-675.164	-200.000	0.007	0.224
-674.149	-125.251	0.267	-0.041
-673.135	-197.616	0.225	-0.001
-672.120	-3.740	-0.206	-0.144
-671.105	-130.281	-0.294	-0.040
-670.091	146.016	-0.237	0.321
-669.076	-158.347	-0.275	0.016
-668.062	65.286	-0.068	0.069
-667.047	309.750	0.222	-0.419
-666.032	-102.062	0.432	-0.105
-665.018	-105.019	0.150	0.035
-664.003	800.000	-0.040	-0.136
-662.989	-200.000	-0.003	-0.212
-661.974	-75.739	-0.267	0.096
-660.959	-173.595	-0.106	0.003
-659.945	-71.414	0.131	0.049
-658.930	-20.030	0.113	-0.070
-657.916	10.590	0.185	0.142
-656.901	150.523	0.229	0.314
-655.886	443.375	0.047	-0.104
-654.872	-114.937	0.151	0.029
-653.857	206.259	0.133	-0.209
-652.843	5.891	-0.186	0.139
-651.828	800.000	-0.046	-0.137
-650.814	-35.738	-0.175	0.096
-649.799	-60.004	-0.560	-0.241
-648.784	1.599	-0.112	0.081
-647.770	800.000	-0.013	-0.054
-646.755	-90.414	-0.055	0.016
-645.741	-133.459	-0.075	-0.009
-644.726	-46.416	-0.199	0.098
-643.711	-122.719	-0.453	0.074
-642.697	5.382	0.259	0.192
-641.682	129.794	0.079	-0.101
-640.668	-200.000	0.103	-0.000
-639.653	636.246	-0.143	-0.367
-638.638	-49.865	0.189	0.090
-637.624	-26.231	-0.134	0.079
-636.609	85.608	-0.072	-0.080
-635.595	-111.436	0.463	0.095
-634.580	662.309	0.049	-0.127
-633.565	99.761	-0.118	-0.138
-632.551	63.652	0.157	-0.159
-631.536	-137.069	0.125	0.014
-630.522	-68.948	-0.186	0.072
-629.507	45.507	-0.195	-0.181
-628.492	-133.966	0.225	-0.028
-627.478	-86.769	0.233	0.072
-626.463	-78.794	0.339	-0.116
-625.449	-200.000	-0.011	-0.251
-624.434	-154.526	-0.257	0.017
-623.419	-106.311	-0.227	0.051
-622.405	578.183	-0.182	-0.449
-621.390	-46.279	0.445	0.220
-620.376	-47.892	-0.328	-0.160
-619.361	269.763	-0.256	-0.453
-618.346	23.054	0.062	-0.051
-617.332	336.556	-0.091	0.177
-616.317	-166.414	-0.347	0.015
-615.303	-18.479	-0.294	-0.184
-614.288	160.056	0.042	-0.059
-613.273	-2.750	0.200	0.140
-612.259	-143.947	-0.275	-0.026
-611.244	-33.284	-0.084	-0.047
-610.230	56.905	-0.059	-0.058
-609.215	800.000	-0.046	-0.127
-608.201	123.150	0.201	0.253
-607.186	800.000	0.054	-0.152
-606.171	-200.000	-0.035	0.292
-605.157	140.092	-0.387	-0.514
-604.142	-200.000	-0.011	0.154
-603.128	-113.963	-0.136	-0.027
-602.113	50.021	-0.063	0.060
-601.098	42.900	0.135	0.123
-600.084	-14.751	0.071	-0.046
-599.069	800.000	0.033	0.115
-598.055	800.000	0.144	0.456
-597.040	-16.174	-0.164	-0.105
-596.025	170.642	0.101	-0.145
-595.011	-154.420	-0.059	-0.004
-593.996	497.321	0.051	-0.118
-592.982	110.361	0.087	0.105
-591.967	-84.199	0.105	0.033
-590.952	-200.000	0.005	0.068
-589.938	-200.000	0.006	0.051
-588.923	-130.842	-0.261	-0.035
-587.909	-37.463	-0.311	0.167
-586.894	91.841	0.020	0.022
-585.879	136.491	-0.184	0.242
-584.865	758.434	-0.068	-0.184
-583.850	-16.763	-0.287	-0.182
-582.836	138.066	0.126	0.167
-581.821	-19.616	0.319	-0.198
-580.806	-200.000	-0.007	0.076
-579.792	-128.034	-0.082	0.012
-578.777	25.006	-0.099	-0.083
-577.763	-1.894	0.065	0.046
-576.748	-50.870	0.241	-0.114
-575.733	-146.741	0.211	-0.018
-574.719	114.059	-0.184	-0.225
-573.704	214.887	0.096	0.152
-572.690	100.629	0.119	0.139
-571.675	-62.241	0.368	0.154
-570.661	-200.000	0.026	-0.356
-569.646	255.918	0.125	0.215
-568.631	621.602	0.092	0.234
-567.617	-37.416	0.163	0.087
-566.602	800.000	0.055	0.195
-565.588	57.860	-0.128	-0.126
-564.573	78.810	0.210	0.226
-563.558	800.000	-0.137	-0.449
-562.544	58.050	0.171	-0.168
-561.529	-68.022	0.160	-0.063
-560.515	-63.849	0.329	-0.135
-559.500	140.083	-0.085	-0.113
-558.485	-19.304	-0.217	-0.135
-557.471	-104.768	-0.219	-0.051
-556.456	116.724	-0.197	0.243
-555.442	-69.481	0.303	0.117
-554.427	800.000	-0.038	-0.136
-553.412	-134.624	0.202	0.025
-552.398	-64.573	-0.062	-0.025
-551.383	479.116	0.074	-0.168
-550.369	57.647	0.079	-0.078
-549.354	241.679	-0.123	-0.206
-548.339	-4.398	0.206	-0.143
-547.325	-131.059	0.276	0.037
-546.310	257.107	-0.083	0.143
-545.296	21.733	0.273	0.223
-544.281	19.395	-0.233	-0.188
-543.266	800.000	0.020	-0.080
-542.252	122.850	0.123	-0.154
-541.237	800.000	0.075	0.256
-540.223	428.816	0.108	-0.234
-539.208	-24.883	0.227	0.135
-538.193	800.000	-0.018	-0.056
-537.179	284.084	0.057	0.102
-536.164	84.957	-0.128	-0.140
-535.150	-136.435	0.078	-0.009
-534.135	505.300	0.110	0.256
-533.121	-200.000	-0.038	0.289
-532.106	327.153	-0.128	-0.246
-531.091	800.000	0.032	0.098
-530.077	182.444	0.261	-0.385
-529.062	-200.000	0.010	-0.088
-528.048	74.694	0.181	0.191
-527.033	-5.046	0.047	0.032
-526.018	800.000	0.079	0.330
-525.004	28.048	-0.145	-0.123
-523.989	-200.000	0.020	-0.147
-522.975	-132.107	-0.141	-0.018
-521.960	-80.718	0.434	0.145
-520.945	800.000	0.097	-0.369
-519.931	-137.282	-0.323	-0.037
-518.916	509.428	0.027	0.063
-517.902	160.088	-0.192	0.268
-516.887	-102.446	0.201	-0.048
-515.872	-62.302	-0.327	0.136
-514.858	-4.392	-0.005	-0.003
-513.843	22.573	0.175	-0.143
-512.829	-59.820	0.273	-0.117
-511.814	-79.115	0.236	-0.080
-510.799	-51.151	-0.054	0.025
-509.785	-200.000	-0.007	-0.084
-508.770	369.965	-0.044	-0.089
-507.756	543.344	0.092	0.219
-506.741	-200.000	-0.068	-0.402
-505.726	21.403	0.318	-0.259
-504.712	339.274	0.158	0.309
-503.697	-154.189	-0.372	-0.025
-502.683	-88.449	-0.409	-0.122
-501.668	-51.784	0.080	-0.038
-500.653	-151.644	-0.244	-0.018
-499.639	-200.000	0.013	0.265
-498.624	158.635	0.083	0.115
-497.610	393.964	-0.058	0.122
-496.595	-200.000	-0.049	-0.233
-495.581	-98.388	-0.243	-0.062
-494.566	-1.488	-0.117	-0.082
-493.551	-146.322	-0.091	-0.008
-492.537	-137.292	-0.013	0.001
-491.522	3.388	-0.137	-0.100
-490.508	522.373	-0.034	0.080
-489.493	-84.430	-0.148	0.047
-488.478	442.899	-0.115	-0.253
-487.464	-60.740	0.141	0.060
-486.449	-200.000	-0.029	-0.205
-485.435	800.000	-0.053	0.175
-484.420	-200.000	-0.016	-0.104
-483.405	-58.050	0.112	-0.049
-482.391	-45.966	-0.096	0.048
-481.376	-28.849	0.233	-0.134
-480.362	397.301	-0.109	0.229
-479.347	67.318	0.080	0.082
-478.332	-3.509	0.450	0.313
-477.318	-3.180	-0.159	-0.111
-476.303	-200.000	-0.008	-0.046
-475.289	-109.260	0.128	-0.027
-474.274	-124.314	-0.023	0.004
-473.259	-107.982	0.033	0.007
-472.245	87.294	0.094	0.105
-471.230	-118.096	-0.191	-0.034
-470.216	800.000	-0.069	-0.252
-469.201	-200.000	-0.017	0.104
-468.186	496.682	-0.167	-0.383
-467.172	-200.000	-0.018	-0.121
-466.157	-125.312	-0.101	-0.015
-465.143	-71.402	0.061	-0.023
-464.128	-164.236	0.260	0.012
-463.113	763.981	0.041	0.111
-462.099	-70.356	-0.148	0.056
-461.084	85.828	-0.192	-0.212
-460.070	165.395	0.091	0.128
-459.055	-89.090	0.250	-0.074
-458.040	531.455	0.070	0.167
-457.026	-24.234	0.100	-0.060
-456.011	800.000	-0.109	-0.333
-454.997	800.000	-0.060	0.261
-453.982	-200.000	-0.033	0.219
-452.968	249.898	-0.111	0.188
-451.953	-80.717	0.048	0.016
-450.938	-200.000	0.048	-0.275
-449.924	258.873	-0.075	0.129
-448.909	255.452	-0.262	-0.448
-447.895	-200.000	0.031	0.135
-446.880	-11.690	0.118	-0.078
-445.865	-67.630	0.281	-0.110
-444.851	307.114	-0.145	0.269
-443.836	499.362	-0.170	-0.391
-442.822	800.000	0.061	-0.254
-441.807	-154.014	-0.272	0.018
-440.792	-200.000	-0.021	-0.193
-439.778	190.252	0.079	-0.119
-438.763	-54.388	0.034	-0.015
-437.749	268.504	0.058	0.102
-436.734	135.159	0.132	0.172
-435.719	-122.096	0.325	-0.053
-434.705	-200.000	-0.039	0.207
-433.690	-43.497	0.101	-0.051
-432.676	-91.035	0.112	0.032
-431.661	-25.372	-0.402	0.237
-430.646	-200.000	0.015	0.108
-429.632	26.514	-0.072	-0.060
-428.617	23.849	0.113	0.093
-427.603	-200.000	-0.033	-0.160
-426.588	267.725	0.099	-0.173
-425.573	-200.000	0.052	-0.308
-424.559	-200.000	0.013	-0.159
-423.544	-51.420	0.258	0.121
-422.530	-200.000	-0.032	-0.202
-421.515	-90.931	-0.151	0.043
-420.500	-200.000	0.006	0.121
-419.486	197.526	-0.127	0.194
-418.471	356.185	0.129	-0.257
-417.457	336.553	-0.136	-0.264
-416.442	100.356	-0.199	0.231
-415.428	-191.562	-0.440	0.004
-414.413	790.753	-0.017	-0.046
-413.398	345.249	0.150	0.295
-412.384	-102.718	0.027	-0.006
-411.369	-79.307	-0.158	0.054
-410.355	-200.000	0.016	0.152
-409.340	79.708	-0.211	-0.226
-408.325	221.410	-0.098	-0.156
-407.311	-164.352	0.142	0.006
-406.296	-200.000	-0.035	-0.210
-405.282	-143.415	0.349	0.033
-404.267	-200.000	0.070	-0.454
-403.252	106.065	-0.085	-0.101
-402.238	416.849	0.101	0.215
-401.223	182.013	0.160	-0.235
-400.209	800.000	-0.033	0.106
-399.194	-100.131	0.070	-0.017
-398.179	172.458	-0.250	-0.359
-397.165	800.000	-0.081	-0.290
-396.150	-7.417	0.188	-0.127
-395.136	81.697	0.117	-0.126
-394.121	2.226	-0.335	0.241
-393.106	82.211	-0.017	0.018
-392.092	-130.380	0.276	-0.037
-391.077	-102.891	0.143	-0.034
-390.063	69.477	0.090	0.093
-389.048	35.844	-0.311	0.273
-388.033	20.481	0.198	-0.159
-387.019	-93.416	0.267	0.074
-386.004	-200.000	0.001	-0.216
-384.990	-27.214	0.036	-0.021
-383.975	-141.246	0.213	-0.022
-382.960	800.000	0.029	-0.118
-381.946	230.168	0.046	-0.074
-380.931	-51.679	-0.342	0.159
-379.917	-74.582	0.046	0.017
-378.902	-31.315	-0.151	0.085
-377.888	-200.000	-0.000	0.136
-376.873	47.418	0.162	-0.150
-375.858	-73.131	-0.294	-0.108
-374.844	165.392	0.211	0.297
-373.829	-200.000	0.035	-0.152
-372.815	438.854	0.016	-0.035
-371.800	108.334	0.091	0.109
-370.785	-200.000	0.002	0.105
-369.771	129.045	0.107	-0.135
-368.756	-200.000	0.017	-0.110
-367.742	-2.222	-0.171	-0.120
-366.727	800.000	-0.050	-0.211
-365.712	-200.000	-0.009	0.238
-364.698	-200.000	-0.040	0.242
-363.683	-200.000	0.033	0.304
-362.669	-45.747	0.195	-0.096
-361.654	67.595	-0.194	0.198
-360.639	-200.000	0.029	0.319
-359.625	392.553	-0.145	0.301
-358.610	-125.014	0.360	-0.055
-357.596	-51.831	0.160	-0.074
-356.581	-21.806	-0.147	-0.089
-355.566	-200.000	-0.007	0.130
-354.552	-84.379	0.090	-0.028
-353.537	370.394	-0.204	-0.413
-352.523	-139.311	0.267	0.029
-351.508	37.532	0.121	-0.107
-350.493	115.089	-0.157	-0.191
-349.479	255.807	0.059	-0.101
-348.464	-35.887	-0.155	-0.084
-347.450	13.259	-0.301	-0.232
-346.435	-60.752	-0.116	0.049
-345.420	-200.000	0.001	-0.202
-344.406	-45.538	0.052	-0.026
-343.391	599.396	-0.108	0.267
-342.377	-130.868	-0.106	-0.014
-341.362	-133.033	0.236	-0.030
-340.348	65.596	0.253	-0.255
-339.333	208.125	0.181	-0.281
-338.318	800.000	-0.057	-0.181
-337.304	16.971	0.174	-0.137
-336.289	55.703	0.110	-0.106
-335.275	247.950	-0.230	0.387
-334.260	278.869	0.196	0.348
-333.245	102.496	-0.025	0.029
-332.231	-33.655	0.093	0.051
-331.216	-43.541	0.089	-0.045
-330.202	-200.000	-0.042	0.381
-329.187	201.442	-0.100	0.154
-328.172	-48.501	0.259	-0.124
-327.158	-115.904	-0.384	0.071
-326.143	-101.083	-0.099	-0.024
-325.129	76.223	-0.125	0.132
-324.114	-200.000	0.059	0.383
-323.099	703.248	0.077	0.201
-322.085	467.826	-0.040	0.090
-321.070	-200.000	0.032	0.173
-320.056	800.000	-0.060	0.208
-319.041	800.000	0.067	-0.192
-318.026	328.401	-0.023	0.044
-317.012	680.163	0.078	0.202
-315.997	800.000	-0.019	0.080
-314.983	125.925	-0.222	0.279
-313.968	-200.000	-0.026	-0.277
-312.953	350.819	0.191	0.376
-311.939	71.284	0.094	0.097
-310.924	-31.846	-0.201	-0.112
-309.910	800.000	0.063	0.199
-308.895	-83.264	0.131	0.042
-307.880	-33.156	0.042	-0.023
-306.866	165.339	-0.127	-0.178
-305.851	-109.722	-0.132	-0.028
-304.837	-200.000	-0.015	0.070
-303.822	-40.665	0.390	0.201
-302.807	-200.000	-0.025	-0.333
-301.793	249.949	-0.027	0.046
-300.778	-102.367	0.281	-0.067
-299.764	-84.042	0.396	-0.125
-298.749	800.000	0.010	0.028
-297.735	-200.000	-0.033	-0.255
-296.720	800.000	0.056	-0.186
-295.705	-200.000	-0.048	0.289
-294.691	83.495	0.172	-0.186
-293.676	-37.014	0.058	0.031
-292.662	-56.879	-0.215	0.094
-291.647	-200.000	0.079	0.443
-290.632	38.095	0.049	-0.043
-289.618	62.570	0.147	0.146
-288.603	-200.000	0.018	0.124
-287.589	-200.000	-0.005	-0.146
-286.574	-200.000	0.000	0.221
-285.559	-72.182	-0.065	-0.024
-284.545	-200.000	0.029	0.253
-283.530	19.835	0.090	-0.072
-282.516	106.825	-0.038	0.045
-281.501	800.000	-0.027	-0.090
-280.486	800.000	-0.078	-0.240
-279.472	-3.180	-0.069	0.048
-278.457	-147.309	0.264	0.022
-277.443	154.478	-0.198	-0.271
-276.428	63.632	-0.194	0.194
-275.413	-81.231	0.383	-0.125
-274.399	800.000	-0.174	-0.499
-273.384	117.362	-0.223	-0.272
-272.370	169.167	0.208	0.294
-271.355	-25.576	0.189	0.111
-270.340	72.181	0.402	0.415
-269.326	-0.122	0.193	-0.137
-268.311	17.853	0.483	0.382
-267.297	-200.000	-0.435	-0.002
-266.282	800.000	-0.070	0.227
-265.267	431.477	-0.121	-0.260
-264.253	64.743	0.043	0.043
-263.238	-79.445	0.484	0.162
-262.224	-5.862	-0.125	-0.085
-261.209	-200.000	0.026	-0.257
-260.195	436.271	-0.037	-0.081
-259.180	800.000	-0.062	0.209
-258.165	71.729	-0.123	0.127
-257.151	662.881	0.047	0.119
-256.136	437.134	-0.106	-0.229
-255.122	245.443	0.045	-0.076
-254.107	24.783	0.357	0.294
-253.092	-159.506	-0.386	-0.021
-252.078	772.010	-0.131	0.354
-251.063	-19.794	0.079	0.048
-250.049	125.892	0.055	-0.069
-249.034	-59.505	0.320	0.136
-248.019	-136.743	-0.122	-0.014
-247.005	-148.265	0.061	-0.005
-245.990	293.401	0.028	0.052
-244.976	-145.263	-0.283	-0.025
-243.961	-200.000	0.020	0.173
-242.946	189.438	-0.152	0.226
-241.932	200.276	0.147	-0.223
-240.917	-116.769	-0.232	0.042
-239.903	232.030	0.101	-0.164
-238.888	66.692	-0.170	-0.171
-237.873	800.000	0.070	0.209
-236.859	275.881	-0.064	-0.112
-235.844	42.452	-0.217	0.196
-234.830	80.332	0.247	0.264
-233.815	44.318	0.243	0.221
-232.800	149.355	-0.144	0.193
-231.786	33.316	-0.194	-0.167
-230.771	-91.863	-0.179	-0.050
-229.757	-85.562	-0.230	0.071
-228.742	39.699	-0.073	0.065
-227.727	800.000	0.102	-0.312
-226.713	31.483	-0.192	0.163
-225.698	165.686	-0.088	0.124
-224.684	-56.743	-0.218	0.096
-223.669	167.047	0.217	-0.305
-222.655	-5.529	-0.064	0.044
-221.640	-70.706	-0.210	0.079
-220.625	-150.867	0.220	-0.017
-219.611	553.569	-0.068	0.161
-218.596	15.590	-0.251	-0.195
-217.582	16.952	0.152	-0.120
-216.567	118.267	0.109	0.133
-215.552	56.212	-0.329	0.317
-214.538	260.249	-0.029	-0.050
-213.523	18.912	-0.303	0.240
-212.509	40.583	-0.142	0.127
-211.494	800.000	-0.031	-0.087
-210.479	499.862	0.030	0.068
-209.465	-121.909	0.137	0.022
-208.450	6.382	-0.300	0.220
-207.436	-200.000	-0.002	-0.057
-206.421	555.329	0.114	0.271
-205.406	114.340	-0.084	0.102
-204.392	-59.153	-0.190	-0.081
-203.377	-200.000	0.013	0.201
-202.363	-21.001	0.052	0.032
-201.348	104.834	-0.022	-0.025
-200.333	800.000	-0.067	0.190
-199.319	23.379	-0.196	-0.160
-198.304	67.610	0.105	0.106
-197.290	-43.049	0.255	-0.128
-196.275	5.185	-0.057	0.041
-195.260	7.348	-0.145	-0.108
-194.246	14.742	-0.110	-0.085
-193.231	-29.502	-0.280	-0.158
-192.217	-104.287	0.382	-0.088
-191.202	-200.000	-0.009	-0.128
-190.187	-77.948	0.194	0.066
-189.173	78.422	-0.125	0.132
-188.158	440.098	-0.080	-0.173
-187.144	332.751	-0.037	0.071
-186.129	-30.197	-0.247	-0.139
-185.114	800.000	-0.077	0.265
-184.100	657.743	-0.141	0.359
-183.085	107.805	-0.154	0.181
-182.071	-94.106	0.077	-0.021
-181.056	10.457	-0.226	0.170
-180.042	-61.792	0.111	0.046
-179.027	515.626	0.128	0.297
-178.012	121.600	-0.140	-0.173
-176.998	95.171	0.211	-0.238
-175.983	-200.000	-0.006	0.236
-174.969	-35.766	0.364	0.195
-173.954	-69.849	-0.329	0.124
-172.939	65.482	0.211	0.211
-171.925	181.285	0.197	-0.287
-170.910	-92.919	0.055	0.015
-169.896	626.729	0.031	-0.076
-168.881	800.000	-0.040	0.171
-167.866	-29.563	-0.175	-0.099
-166.852	45.416	0.159	-0.146
-165.837	667.952	-0.076	-0.194
-164.823	152.824	0.124	0.168
-163.808	187.413	-0.110	-0.162
-162.793	86.564	0.349	0.380
-161.779	-89.654	-0.130	0.038
-160.764	800.000	0.024	0.097
-159.750	-140.246	-0.221	-0.023
-158.735	-168.115	0.150	-0.006
-157.720	68.751	0.059	-0.060
-156.706	800.000	0.031	-0.088
-155.691	-89.277	-0.153	-0.045
-154.677	-136.419	0.209	-0.024
-153.662	85.242	-0.148	-0.160
-152.647	-135.771	-0.185	-0.022
-151.633	800.000	-0.067	-0.193
-150.618	534.308	0.098	0.230
-149.604	-113.318	-0.209	-0.041
-148.589	-144.943	-0.224	0.020
-147.574	800.000	0.098	0.275
-146.560	110.500	0.150	-0.178
-145.545	-105.754	0.138	-0.031
-144.531	229.134	0.133	0.214
-143.516	47.429	0.148	-0.136
-142.502	800.000	0.057	-0.205
-141.487	267.824	0.035	-0.060
-140.472	93.335	0.072	-0.080
-139.458	-200.000	-0.047	-0.256
-138.443	-200.000	0.016	0.120
-137.429	202.276	-0.062	-0.094
-136.414	48.557	-0.167	0.154
-135.399	-100.940	-0.073	-0.018
-134.385	-38.776	-0.187	-0.097
-133.370	-63.939	0.085	0.034
-132.356	-67.325	0.085	-0.033
-131.341	-102.775	0.195	0.046
-130.326	800.000	-0.088	-0.345
-129.312	-111.156	-0.159	-0.032
-128.297	-66.202	0.157	0.062
-127.283	177.383	0.055	-0.079
-126.268	436.982	0.063	-0.136
-125.253	-61.822	-0.298	0.123
-124.239	-103.457	-0.273	0.063
-123.224	-76.239	-0.206	-0.072
-122.210	163.170	0.056	-0.078
-121.195	662.455	0.134	-0.341
