DTS Sentinel unit serial number:	SN413079Multiplexer serial number:	ORYXHardware model number:	OX4-SRSoftware version number:	ORYX F/W v4.00 Oryx Data Collector v3.7.2.0data status	okinstallation	princeton_trtdifferential loss correction	single-endedforward channel	channel 1reverse channel	N/Adate	2019/09/11time	09:16:11forward acquisition time	60.00reverse acquisition time	0.00gamma	496.2192k internal	0.2308k external	0.2308temperature offset calibration	0.9948default loss term (dB/km)	0.3790temperature slope calibration	1.0000multiplexer offset coefficient	1.0000multiplexer slope coefficient	1.0000fibre end	0.00T internal ref (°C)	34.37T ext. ref 1 (°C)	0.09T ext. ref 2 (°C)	30.94length (m)	temperature (°C)	Stokes	anti-Stokes-747.200	170.429	0.043	0.063
-746.185	800.000	0.078	0.290
-745.171	-33.553	0.267	0.150
-744.156	123.484	-0.044	0.057
-743.142	-200.000	0.021	-0.177
-742.127	466.523	-0.106	0.242
-741.112	800.000	0.018	-0.051
-740.098	6.313	0.144	0.109
-739.083	-12.398	-0.092	0.061
-738.069	35.055	-0.154	0.137
-737.054	-106.888	-0.049	-0.011
-736.039	-200.000	-0.064	-0.446
-735.025	40.976	0.171	0.157
-734.010	-32.348	-0.225	-0.128
-732.996	-37.672	-0.417	-0.225
-731.981	-87.182	-0.517	-0.160
-730.966	-200.000	0.197	-0.000
-729.952	169.623	-0.110	0.159
-728.937	-125.247	-0.143	-0.022
-727.923	211.324	0.225	0.359
-726.908	212.025	-0.021	-0.033
-725.894	-200.000	-0.047	0.346
-724.879	-75.883	0.126	-0.045
-723.864	-16.787	-0.186	0.119
-722.850	144.728	0.167	0.227
-721.835	-116.873	-0.105	0.020
-720.821	-67.751	0.179	0.071
-719.806	18.234	-0.068	0.055
-718.791	800.000	0.045	0.154
-717.777	-75.986	0.056	-0.020
-716.762	221.386	0.133	0.217
-715.748	-58.293	0.145	-0.064
-714.733	-41.737	-0.034	0.018
-713.718	708.135	0.052	-0.141
-712.704	142.560	-0.264	-0.357
-711.689	-26.710	-0.169	-0.101
-710.675	340.290	0.183	0.363
-709.660	-200.000	-0.091	0.453
-708.645	-14.551	-0.209	-0.136
-707.631	601.467	-0.060	-0.152
-706.616	-120.252	-0.323	-0.056
-705.602	114.446	-0.256	0.317
-704.587	-26.293	-0.415	0.247
-703.572	514.118	-0.218	0.517
-702.558	-105.236	-0.235	-0.054
-701.543	252.138	0.028	-0.049
-700.529	-40.051	-0.083	0.044
-699.514	449.914	0.105	-0.236
-698.499	-38.344	-0.036	-0.019
-697.485	-80.009	-0.331	-0.113
-696.470	-200.000	0.052	-0.276
-695.456	-113.539	0.125	0.025
-694.441	159.613	0.145	0.205
-693.426	155.880	-0.071	-0.100
-692.412	800.000	0.021	-0.084
-691.397	-63.588	0.117	0.049
-690.383	-200.000	-0.033	0.163
-689.368	800.000	-0.062	0.187
-688.354	55.658	-0.117	-0.115
-687.339	-200.000	0.032	0.150
-686.324	73.466	0.064	0.068
-685.310	225.342	-0.157	-0.257
-684.295	800.000	0.112	-0.393
-683.281	385.968	-0.026	-0.055
-682.266	-171.206	-0.357	0.012
-681.251	-54.530	-0.237	-0.109
-680.237	-138.420	0.318	0.036
-679.222	78.951	0.148	-0.160
-678.208	176.714	0.093	-0.137
-677.193	800.000	0.035	0.152
-676.178	29.397	-0.237	0.204
-675.164	-111.161	-0.162	-0.034
-674.149	800.000	-0.036	0.139
-673.135	-200.000	-0.008	-0.234
-672.120	-77.836	0.255	0.089
-671.105	-42.995	0.082	0.042
-670.091	-128.864	0.099	0.014
-669.076	-26.573	0.277	-0.165
-668.062	7.790	0.301	-0.228
-667.047	702.308	-0.062	-0.167
-666.032	-80.515	-0.122	-0.041
-665.018	117.535	-0.112	-0.140
-664.003	-165.603	-0.267	0.012
-662.989	58.537	0.195	-0.194
-661.974	137.937	0.086	-0.115
-660.959	-200.000	0.000	-0.169
-659.945	14.284	-0.281	0.222
-658.930	-200.000	0.008	0.073
-657.916	800.000	0.011	-0.040
-656.901	800.000	-0.066	-0.288
-655.886	-200.000	0.035	-0.226
-654.872	153.017	0.132	-0.183
-653.857	-51.336	-0.147	-0.070
-652.843	17.553	0.204	-0.164
-651.828	-16.685	-0.233	-0.149
-650.814	-48.767	-0.121	-0.059
-649.799	281.809	0.091	-0.166
-648.784	-200.000	0.010	-0.258
-647.770	-85.205	-0.379	0.120
-646.755	-200.000	-0.028	-0.431
-645.741	277.832	-0.053	0.095
-644.726	-200.000	0.033	-0.297
-643.711	42.244	-0.194	-0.179
-642.697	33.974	0.135	-0.119
-641.682	-119.940	0.042	0.007
-640.668	-6.589	0.128	0.089
-639.653	230.417	-0.080	-0.132
-638.638	-139.933	0.367	0.039
-637.624	48.809	-0.081	0.077
-636.609	-73.880	0.270	-0.099
-635.595	707.819	-0.017	-0.045
-634.580	-159.808	-0.381	-0.021
-633.565	141.012	-0.124	-0.166
-632.551	59.111	-0.089	-0.088
-631.536	-146.253	-0.142	-0.013
-630.522	-6.034	-0.162	0.112
-629.507	-13.539	0.195	0.128
-628.492	-163.797	-0.306	-0.015
-627.478	260.518	0.095	0.167
-626.463	-200.000	0.029	-0.299
-625.449	1.037	-0.045	-0.033
-624.434	800.000	0.018	0.063
-623.419	-26.959	-0.293	0.173
-622.405	-7.525	0.131	0.090
-621.390	36.598	0.086	0.077
-620.376	-77.652	-0.205	0.072
-619.361	-200.000	0.009	0.211
-618.346	-200.000	0.017	-0.353
-617.332	-200.000	-0.025	-0.217
-616.317	-16.528	0.145	-0.093
-615.303	35.448	-0.228	-0.203
-614.288	-78.527	0.086	-0.030
-613.273	-200.000	-0.042	-0.364
-612.259	-86.908	0.306	-0.094
-611.244	-82.576	-0.180	-0.059
-610.230	138.975	-0.202	-0.268
-609.215	52.281	-0.086	-0.083
-608.201	89.501	-0.036	0.041
-607.186	31.982	0.081	-0.071
-606.171	-38.928	0.260	0.138
-605.157	586.164	-0.033	0.081
-604.142	-68.490	-0.055	0.022
-603.128	10.641	0.027	0.021
-602.113	645.233	-0.066	-0.171
-601.098	44.934	0.125	-0.117
-600.084	800.000	0.071	0.291
-599.069	191.379	-0.141	0.215
-598.055	574.022	0.083	-0.205
-597.040	-18.047	-0.106	-0.067
-596.025	800.000	-0.123	0.464
-595.011	-200.000	0.041	0.183
-593.996	768.053	0.034	-0.093
-592.982	-55.926	0.078	-0.035
-591.967	-24.046	-0.150	-0.091
-590.952	24.251	0.111	0.092
-589.938	-37.323	0.334	-0.181
-588.923	-200.000	0.074	-0.336
-587.909	210.966	-0.103	0.163
-586.894	800.000	0.044	-0.162
-585.879	-200.000	0.004	-0.188
-584.865	197.857	-0.043	0.067
-583.850	-163.776	-0.183	0.009
-582.836	-200.000	-0.012	-0.086
-581.821	-65.052	0.161	-0.065
-580.806	-116.379	-0.052	0.010
-579.792	118.399	0.119	-0.148
-578.777	800.000	0.040	0.168
-577.763	-36.468	0.183	-0.099
-576.748	-124.548	0.159	0.025
-575.733	128.932	-0.055	-0.071
-574.719	326.576	0.158	-0.305
-573.704	-54.479	-0.165	-0.076
-572.690	86.026	0.033	-0.036
-571.675	-181.425	0.265	0.005
-570.661	-26.564	-0.214	-0.127
-569.646	-200.000	0.034	-0.218
-568.631	-200.000	-0.036	0.210
-567.617	2.802	-0.214	0.157
-566.602	799.184	0.051	-0.142
-565.588	24.383	-0.070	0.058
-564.573	-200.000	-0.027	0.219
-563.558	171.809	0.246	0.357
-562.544	-200.000	0.024	0.150
-561.529	-20.364	-0.170	0.105
-560.515	-47.415	-0.262	0.129
-559.500	-200.000	-0.009	-0.123
-558.485	-26.866	0.124	0.073
-557.471	-200.000	0.021	0.107
-556.456	-69.508	-0.184	-0.071
-555.442	-200.000	-0.006	0.298
-554.427	-200.000	-0.052	0.327
-553.412	-39.467	-0.197	0.104
-552.398	213.453	0.098	-0.156
-551.383	-200.000	0.029	0.153
-550.369	-200.000	-0.011	0.139
-549.354	486.355	0.061	0.140
-548.339	3.968	0.212	-0.156
-547.325	-22.521	-0.081	0.050
-546.310	800.000	0.030	-0.088
-545.296	-200.000	-0.009	-0.074
-544.281	351.800	0.099	0.197
-543.266	-8.257	-0.116	0.079
-542.252	453.257	0.012	-0.026
-541.237	-79.601	0.130	-0.044
-540.223	-3.175	0.036	0.025
-539.208	-97.354	-0.229	0.060
-538.193	178.951	-0.167	-0.247
-537.179	-130.692	-0.086	0.012
-536.164	-34.346	-0.225	0.124
-535.150	23.024	0.137	0.113
-534.135	-57.062	-0.160	-0.071
-533.121	65.476	0.160	-0.163
-532.106	800.000	0.028	-0.112
-531.091	-200.000	-0.011	-0.095
-530.077	-131.057	0.207	-0.028
-529.062	-200.000	-0.017	0.309
-528.048	-200.000	0.059	0.517
-527.033	-64.524	-0.150	0.062
-526.018	-200.000	-0.005	0.090
-525.004	-158.768	0.210	-0.012
-523.989	363.001	-0.244	-0.495
-522.975	800.000	-0.094	-0.338
-521.960	-11.475	-0.334	0.221
-520.945	101.076	0.016	0.019
-519.931	-92.598	0.225	0.064
-518.916	154.342	-0.143	0.198
-517.902	-200.000	-0.048	0.254
-516.887	-200.000	-0.015	0.487
-515.872	-200.000	-0.039	0.241
-514.858	-113.347	-0.335	-0.066
-513.843	800.000	-0.085	-0.257
-512.829	-45.881	0.308	-0.153
-511.814	174.616	-0.053	0.077
-510.799	599.175	0.055	-0.137
-509.785	-200.000	0.015	-0.324
-508.770	10.027	-0.100	0.077
-507.756	-200.000	-0.019	-0.147
-506.741	389.081	-0.056	-0.117
-505.726	800.000	-0.135	-0.427
-504.712	101.861	-0.064	-0.075
-503.697	800.000	0.129	0.383
-502.683	-200.000	-0.019	-0.116
-501.668	-140.459	0.217	-0.023
-500.653	-200.000	-0.036	0.244
-499.639	17.834	0.183	-0.147
-498.624	-24.059	-0.124	-0.074
-497.610	-200.000	0.005	0.165
-496.595	169.746	0.064	0.092
-495.581	-200.000	0.055	0.295
-494.566	87.767	-0.257	-0.287
-493.551	72.538	-0.172	0.180
-492.537	-166.880	0.278	0.011
-491.522	-200.000	-0.022	0.290
-490.508	7.217	-0.267	0.200
-489.493	283.467	0.110	-0.199
-488.478	-68.368	0.153	-0.060
-487.464	-71.882	0.279	0.105
-486.449	-115.040	-0.307	0.059
-485.435	121.518	0.136	0.171
-484.420	-10.464	0.224	0.149
-483.405	-142.310	0.360	-0.036
-482.391	-91.382	0.390	0.112
-481.376	203.446	0.154	-0.240
-480.362	-134.258	-0.088	0.011
-479.347	-43.632	-0.219	0.111
-478.332	191.810	-0.125	-0.189
-477.318	-200.000	-0.004	-0.050
-476.303	-128.227	0.374	-0.054
-475.289	176.152	-0.064	-0.094
-474.274	-5.534	-0.313	0.216
-473.259	-18.498	0.165	-0.103
-472.245	-123.312	-0.057	-0.009
-471.230	800.000	0.074	0.230
-470.216	-157.609	0.260	0.016
-469.201	260.137	-0.081	-0.140
-468.186	44.216	-0.107	0.099
-467.172	-200.000	0.060	0.460
-466.157	585.402	0.113	-0.279
-465.143	98.781	-0.131	0.152
-464.128	-107.234	0.102	-0.023
-463.113	19.096	-0.264	-0.213
-462.099	167.307	0.018	0.025
-461.084	-96.973	0.163	-0.043
-460.070	-159.351	-0.531	0.030
-459.055	-200.000	-0.005	0.088
-458.040	-66.280	-0.137	-0.055
-457.026	-30.793	0.142	-0.080
-456.011	-59.286	0.416	0.180
-454.997	-69.792	-0.188	0.072
-453.982	52.514	-0.273	-0.262
-452.968	143.261	-0.075	-0.100
-451.953	-88.029	0.183	-0.055
-450.938	-29.118	-0.206	0.119
-449.924	219.199	-0.078	0.125
-448.909	109.404	-0.087	0.105
-447.895	-73.711	0.236	-0.086
-446.880	16.567	-0.224	-0.178
-445.865	-200.000	-0.018	0.231
-444.851	784.134	-0.055	-0.152
-443.836	37.177	-0.231	0.206
-442.822	-200.000	0.014	-0.080
-441.807	-93.509	-0.156	-0.043
-440.792	-200.000	0.024	-0.223
-439.778	2.382	0.079	0.058
-438.763	717.131	-0.071	-0.190
-437.749	-200.000	0.028	-0.166
-436.734	25.867	-0.088	0.074
-435.719	-200.000	0.024	0.506
-434.705	-121.492	-0.211	0.035
-433.690	-3.130	-0.149	0.104
-432.676	-7.284	0.223	0.152
-431.661	115.218	-0.325	0.399
-430.646	-68.582	0.195	-0.076
-429.632	-72.047	0.222	0.083
-428.617	-172.958	-0.268	0.008
-427.603	-23.295	0.015	0.009
-426.588	123.152	0.291	0.366
-425.573	-139.519	0.083	0.009
-424.559	230.542	-0.208	-0.342
-423.544	-153.762	-0.131	-0.009
-422.530	-136.850	-0.148	0.017
-421.515	-143.679	0.258	0.025
-420.500	-200.000	0.019	0.325
-419.486	-52.081	0.169	-0.079
-418.471	80.531	-0.257	0.278
-417.457	90.784	-0.141	-0.159
-416.442	171.498	-0.203	-0.293
-415.428	800.000	0.106	-0.359
-414.413	-200.000	0.051	0.235
-413.398	-102.528	0.173	-0.042
-412.384	-200.000	-0.031	-0.158
-411.369	219.293	-0.087	0.140
-410.355	-52.055	0.280	-0.131
-409.340	-200.000	0.005	-0.296
-408.325	149.792	0.200	0.272
-407.311	-9.789	0.254	-0.169
-406.296	-128.513	0.260	0.037
-405.282	800.000	0.059	0.244
-404.267	-135.230	0.244	-0.029
-403.252	800.000	0.092	-0.294
-402.238	101.142	-0.144	0.168
-401.223	-99.904	0.143	0.036
-400.209	496.900	-0.093	-0.215
-399.194	75.050	-0.237	-0.251
-398.179	-34.686	0.118	0.065
-397.165	221.396	-0.124	-0.200
-396.150	-1.806	0.098	-0.069
-395.136	96.054	0.196	-0.225
-394.121	53.648	-0.224	-0.216
-393.106	3.809	-0.082	0.060
-392.092	552.640	0.031	0.076
-391.077	-83.034	0.262	-0.085
-390.063	-158.907	0.245	0.014
-389.048	144.167	-0.100	0.133
-388.033	80.698	-0.225	-0.244
-387.019	-200.000	0.016	-0.097
-386.004	42.114	0.111	-0.101
-384.990	53.908	-0.195	-0.188
-383.975	-3.510	-0.164	-0.115
-382.960	800.000	-0.084	0.285
-381.946	-200.000	-0.092	0.427
-380.931	24.976	0.248	0.206
-379.917	53.665	0.122	0.117
-378.902	105.369	0.019	-0.023
-377.888	-156.307	-0.276	-0.017
-376.873	-11.062	0.340	-0.225
-375.858	570.502	-0.087	-0.211
-374.844	-80.811	0.279	-0.093
-373.829	153.497	-0.102	0.141
-372.815	-20.231	0.120	0.074
-371.800	101.325	0.076	-0.089
-370.785	-103.581	-0.198	0.047
-369.771	-27.985	-0.197	-0.114
-368.756	-59.494	0.132	-0.057
-367.742	-147.521	-0.102	0.009
-366.727	800.000	0.047	0.171
-365.712	-7.179	0.238	0.162
-364.698	-139.945	0.160	-0.017
-363.683	-200.000	0.015	0.084
-362.669	272.941	-0.196	-0.347
-361.654	150.421	-0.199	-0.271
-360.639	51.843	-0.166	-0.158
-359.625	-66.194	-0.216	-0.086
-358.610	-127.208	-0.149	-0.022
-357.596	-200.000	-0.021	0.219
-356.581	174.695	-0.104	0.150
-355.566	-12.039	0.285	0.187
-354.552	-125.716	-0.297	-0.045
-353.537	-119.540	0.436	0.076
-352.523	-106.935	-0.452	0.100
-351.508	474.122	0.016	-0.035
-350.493	-200.000	-0.019	0.154
-349.479	-107.745	-0.541	0.118
-348.464	-52.284	-0.171	0.079
-347.450	12.179	-0.191	0.147
-346.435	347.143	-0.113	-0.223
-345.420	-90.570	0.147	0.042
-344.406	111.849	0.126	0.152
-343.391	484.493	0.144	0.328
-342.377	258.744	-0.078	0.134
-341.362	169.619	0.052	0.075
-340.348	-66.400	-0.112	0.045
-339.333	-200.000	-0.033	0.154
-338.318	-78.410	-0.253	-0.087
-337.304	-200.000	-0.041	-0.293
-336.289	-23.581	0.142	-0.085
-335.275	-200.000	-0.000	0.221
-334.260	51.578	0.080	0.076
-333.245	-190.471	-0.207	0.002
-332.231	-160.248	-0.155	0.008
-331.216	85.859	-0.253	-0.278
-330.202	-158.898	0.237	-0.013
-329.187	-15.375	0.114	-0.073
-328.172	-200.000	0.012	0.154
-327.158	-200.000	-0.010	0.055
-326.143	-162.128	-0.251	-0.013
-325.129	-82.426	-0.089	0.029
-324.114	96.109	-0.048	-0.055
-323.099	-36.996	-0.396	-0.212
-322.085	409.047	-0.071	0.151
-321.070	-122.800	0.061	0.010
-320.056	103.844	-0.229	-0.269
-319.041	-200.000	0.024	-0.123
-318.026	313.473	-0.032	0.060
-317.012	-148.932	-0.460	-0.037
-315.997	799.621	-0.078	-0.214
-314.983	-168.237	-0.066	0.003
-313.968	110.179	-0.176	-0.212
-312.953	127.740	0.125	-0.159
-311.939	800.000	0.078	0.248
-310.924	2.176	-0.378	0.273
-309.910	249.198	0.166	-0.281
-308.895	292.743	0.193	-0.352
-307.880	630.510	-0.005	0.013
-306.866	800.000	0.095	-0.378
-305.851	-200.000	-0.031	-0.311
-304.837	-200.000	0.007	-0.120
-303.822	232.100	-0.058	-0.094
-302.807	-77.285	0.245	0.085
-301.793	-91.518	0.045	0.013
-300.778	40.125	0.024	0.021
-299.764	-74.707	-0.155	0.056
-298.749	800.000	0.101	-0.290
-297.735	-27.986	0.135	0.078
-296.720	-200.000	0.022	0.282
-295.705	-200.000	0.003	0.195
-294.691	-167.111	-0.183	0.007
-293.676	75.368	0.157	-0.166
-292.662	646.773	0.192	0.491
-291.647	253.377	-0.128	-0.219
-290.632	39.264	0.279	0.249
-289.618	408.808	0.126	0.267
-288.603	800.000	0.135	-0.399
-287.589	2.808	0.103	-0.075
-286.574	139.466	-0.068	0.089
-285.559	-83.957	-0.208	-0.066
-284.545	65.236	0.123	0.124
-283.530	294.601	-0.100	0.183
-282.516	473.035	0.124	0.279
-281.501	800.000	0.079	0.343
-280.486	800.000	0.096	-0.319
-279.472	73.675	-0.199	-0.209
-278.457	135.146	-0.197	-0.256
-277.443	-200.000	-0.045	0.336
-276.428	19.934	0.176	0.141
-275.413	-200.000	0.012	0.174
-274.399	-5.849	-0.030	0.021
-273.384	-200.000	-0.015	0.100
-272.370	-53.971	0.265	-0.120
-271.355	-138.460	0.118	0.013
-270.340	800.000	-0.046	0.138
-269.326	-42.255	-0.210	0.107
-268.311	-32.265	-0.099	-0.055
-267.297	-200.000	0.043	0.198
-266.282	226.120	-0.058	-0.095
-265.267	-63.175	-0.233	0.096
-264.253	800.000	0.040	-0.124
-263.238	800.000	0.052	-0.187
-262.224	-188.118	0.045	-0.001
-261.209	-136.289	-0.230	0.027
-260.195	800.000	-0.105	-0.332
-259.180	-123.134	0.598	-0.096
-258.165	-56.662	0.072	-0.032
-257.151	800.000	0.051	-0.206
-256.136	-54.586	0.270	0.122
-255.122	640.526	-0.058	0.147
-254.107	45.545	0.082	-0.075
-253.092	-30.864	0.238	-0.134
-252.078	-200.000	-0.047	0.310
-251.063	-85.140	-0.093	-0.029
-250.049	-67.426	-0.154	0.060
-249.034	572.279	-0.053	0.130
-248.019	135.304	0.078	0.101
-247.005	102.306	-0.187	0.218
-245.990	800.000	-0.089	0.252
-244.976	-200.000	-0.016	0.220
-243.961	-69.562	0.200	0.076
-242.946	163.630	-0.102	-0.143
-241.932	98.870	0.122	-0.140
-240.917	-151.425	0.065	0.005
-239.903	-87.303	0.209	-0.063
-238.888	800.000	-0.038	-0.131
-237.873	-72.837	0.177	0.065
-236.859	87.867	-0.189	0.209
-235.844	-77.830	-0.458	-0.158
-234.830	106.026	-0.120	-0.141
-233.815	-41.357	0.268	0.138
-232.800	-27.594	0.319	0.185
-231.786	-134.286	0.166	0.020
-230.771	-88.874	-0.130	0.038
-229.757	-35.994	-0.223	-0.120
-228.742	800.000	-0.064	0.247
-227.727	-200.000	0.018	-0.266
-226.713	-126.675	0.338	0.050
-225.698	-46.639	-0.143	-0.070
-224.684	-200.000	-0.009	-0.070
-223.669	-3.525	0.237	-0.164
-222.655	800.000	-0.051	0.201
-221.640	-200.000	-0.045	-0.261
-220.625	-200.000	-0.014	-0.226
-219.611	49.669	-0.399	0.375
-218.596	-166.652	0.289	0.012
-217.582	107.702	0.086	-0.102
-216.567	-39.681	-0.183	-0.095
-215.552	389.557	0.108	-0.224
-214.538	-122.046	-0.206	0.034
-213.523	12.692	0.122	0.093
-212.509	-159.603	0.143	0.008
-211.494	-200.000	-0.005	-0.172
-210.479	800.000	0.021	0.081
-209.465	800.000	0.072	-0.243
-208.450	-200.000	-0.002	-0.161
-207.436	112.839	0.124	0.149
-206.421	341.989	-0.113	-0.219
-205.406	800.000	0.064	0.256
-204.392	126.765	0.108	0.137
-203.377	-200.000	0.032	0.146
-202.363	110.317	0.136	0.162
-201.348	-119.123	0.457	-0.079
-200.333	-105.257	0.119	0.027
-199.319	265.487	0.124	-0.215
-198.304	-15.609	-0.126	-0.080
-197.290	-84.535	-0.233	0.073
-196.275	-29.011	0.216	0.123
-195.260	185.418	0.076	-0.112
-194.246	340.822	-0.059	0.115
-193.231	-200.000	-0.045	0.338
-192.217	-55.699	-0.105	0.047
-191.202	-200.000	-0.005	0.139
-190.187	-35.306	-0.178	-0.096
-189.173	-200.000	-0.008	-0.303
-188.158	66.431	0.246	-0.248
-187.144	-200.000	0.483	-0.002
-186.129	-55.011	0.308	0.138
-185.114	-52.361	0.162	0.074
-184.100	-7.731	-0.207	0.139
-183.085	-112.154	0.126	0.025
-182.071	-78.243	0.390	0.133
-181.056	251.439	-0.103	-0.175
-180.042	-200.000	-0.046	0.279
-179.027	-200.000	-0.006	0.194
-178.012	316.706	0.218	0.409
-176.998	-200.000	0.080	-0.485
-175.983	-200.000	0.029	-0.161
-174.969	211.023	-0.062	-0.097
-173.954	800.000	0.113	-0.383
-172.939	-7.243	0.197	0.133
-171.925	-80.560	0.243	-0.081
-170.910	-200.000	-0.004	0.277
-169.896	-142.108	0.416	-0.041
-168.881	-69.620	-0.197	-0.075
-167.866	-200.000	0.005	-0.236
-166.852	66.604	0.080	0.081
-165.837	-85.776	-0.329	0.101
-164.823	800.000	0.116	-0.363
-163.808	-96.166	-0.269	-0.071
-162.793	-32.602	-0.155	-0.086
-161.779	-121.340	-0.472	-0.078
-160.764	-200.000	0.055	0.357
-159.750	-64.626	-0.141	-0.057
-158.735	800.000	-0.077	0.253
-157.720	20.952	0.121	-0.098
-156.706	-171.296	0.072	0.002
-155.691	-25.555	0.248	0.146
-154.677	-128.853	0.156	-0.022
-153.662	90.106	0.102	0.113
-152.647	-6.229	-0.057	0.038
-151.633	-77.469	0.057	0.020
-150.618	-200.000	-0.047	0.255
-149.604	800.000	0.049	-0.137
-148.589	-53.249	0.119	0.054
-147.574	-106.593	0.079	0.018
-146.560	-136.956	0.363	0.041
-145.545	-82.802	0.235	0.075
-144.531	-147.348	-0.275	-0.023
-143.516	-142.412	0.470	0.046
-142.502	186.842	-0.146	-0.217
-141.487	2.771	0.082	0.059
-140.472	196.553	-0.221	-0.335
-139.458	-46.986	-0.116	-0.056
-138.443	-85.577	0.172	-0.053
-137.429	237.050	-0.073	0.120
-136.414	240.728	0.126	0.209
-135.399	175.031	-0.028	-0.041
-134.385	744.314	-0.058	0.155
-133.370	-200.000	-0.005	-0.046
-132.356	137.413	0.086	-0.112
-131.341	442.358	-0.041	0.089
-130.326	-111.412	0.242	0.049
-129.312	-200.000	0.048	0.306
-128.297	-200.000	-0.074	-0.341
-127.283	12.850	0.207	-0.159
-126.268	-200.000	0.135	-0.001
-125.253	268.117	-0.066	-0.114
-124.239	344.693	-0.113	-0.221
-123.224	-200.000	0.009	0.224
-122.210	-53.124	0.204	-0.093
