DTS Sentinel unit serial number:	SN413079Multiplexer serial number:	ORYXHardware model number:	OX4-SRSoftware version number:	ORYX F/W v4.00 Oryx Data Collector v3.7.2.0data status	okinstallation	princeton_trtdifferential loss correction	single-endedforward channel	channel 1reverse channel	N/Adate	2019/09/11time	17:56:11forward acquisition time	60.00reverse acquisition time	0.00gamma	496.2192k internal	0.2290k external	0.2290temperature offset calibration	0.9996default loss term (dB/km)	0.3790temperature slope calibration	1.0000multiplexer offset coefficient	1.0000multiplexer slope coefficient	1.0000fibre end	0.00T internal ref (°C)	44.00T ext. ref 1 (°C)	1.12T ext. ref 2 (°C)	39.24length (m)	temperature (°C)	Stokes	anti-Stokes-747.200	72.401	0.116	0.124
-746.185	-200.000	-0.009	0.666
-745.171	-181.820	-0.296	-0.006
-744.156	-70.620	-0.496	0.192
-743.142	14.366	0.068	-0.055
-742.127	-184.427	0.395	0.007
-741.112	-83.957	-0.151	-0.049
-740.098	28.542	-0.129	-0.112
-739.083	50.391	0.204	-0.197
-738.069	46.089	-0.194	-0.184
-737.054	198.676	-0.091	0.142
-736.039	46.012	-0.050	0.047
-735.025	98.885	-0.109	0.129
-734.010	-96.042	-0.291	-0.079
-732.996	800.000	-0.133	-0.586
-731.981	245.162	0.111	-0.192
-730.966	178.691	-0.200	0.300
-729.952	124.706	0.084	-0.108
-728.937	627.912	-0.144	0.373
-727.923	-83.509	-0.310	-0.101
-726.908	203.271	-0.156	-0.248
-725.894	-144.234	-0.061	0.006
-724.879	61.875	0.068	0.069
-723.864	-85.755	-0.185	-0.059
-722.850	219.289	-0.036	0.058
-721.835	-61.586	0.100	-0.043
-720.821	-200.000	-0.018	-0.190
-719.806	230.927	-0.112	-0.187
-718.791	91.647	-0.120	-0.138
-717.777	800.000	0.045	-0.154
-716.762	-93.072	0.318	0.091
-715.748	204.192	0.157	-0.249
-714.733	-190.799	-0.180	-0.002
-713.718	-200.000	0.005	-0.090
-712.704	222.316	-0.131	-0.215
-711.689	242.507	-0.133	-0.227
-710.675	145.017	0.085	0.117
-709.660	-29.821	-0.104	-0.061
-708.645	104.062	-0.120	-0.144
-707.631	-138.797	0.176	-0.020
-706.616	-108.009	-0.134	0.030
-705.602	-76.905	-0.248	0.089
-704.587	-173.333	0.209	0.007
-703.572	-200.000	0.041	-0.205
-702.558	-200.000	0.008	-0.293
-701.543	-33.167	-0.176	-0.100
-700.529	800.000	-0.095	0.333
-699.514	-200.000	0.066	-0.316
-698.499	2.701	-0.094	-0.069
-697.485	8.665	0.196	0.151
-696.470	-0.080	-0.178	-0.130
-695.456	-78.485	-0.348	0.122
-694.441	420.865	-0.103	-0.227
-693.426	-148.902	-0.333	0.028
-692.412	185.754	0.280	-0.425
-691.397	-200.000	0.030	-0.189
-690.383	164.333	-0.077	0.111
-689.368	102.049	0.088	0.105
-688.354	550.416	0.060	0.148
-687.339	-144.366	-0.320	-0.030
-686.324	-200.000	-0.016	-0.186
-685.310	-28.762	-0.178	0.105
-684.295	146.076	-0.102	-0.140
-683.281	-200.000	-0.000	-0.026
-682.266	441.368	0.075	0.168
-681.251	31.751	0.149	0.131
-680.237	37.839	-0.232	0.210
-679.222	162.712	0.085	-0.122
-678.208	58.085	-0.229	0.229
-677.193	800.000	-0.088	-0.291
-676.178	-200.000	-0.006	-0.330
-675.164	-200.000	-0.097	-0.534
-674.149	11.325	-0.145	0.113
-673.135	-119.273	-0.283	0.050
-672.120	-26.636	0.074	0.044
-671.105	90.425	0.136	-0.155
-670.091	447.522	0.069	0.155
-669.076	209.751	0.116	-0.185
-668.062	-200.000	0.001	-0.360
-667.047	348.638	0.210	-0.423
-666.032	-42.481	-0.043	-0.022
-665.018	-200.000	0.048	0.237
-664.003	-93.951	-0.159	0.045
-662.989	113.520	-0.153	-0.189
-661.974	800.000	0.044	0.129
-660.959	99.431	-0.076	-0.090
-659.945	-159.209	-0.158	-0.009
-658.930	349.970	0.076	-0.154
-657.916	-43.498	-0.186	-0.096
-656.901	-139.560	0.152	0.017
-655.886	486.885	0.027	-0.062
-654.872	231.941	0.167	-0.279
-653.857	-90.230	-0.207	-0.061
-652.843	555.706	0.021	-0.052
-651.828	227.508	0.039	-0.064
-650.814	-57.865	-0.368	-0.164
-649.799	107.433	-0.126	0.153
-648.784	-200.000	0.040	-0.178
-647.770	-195.544	0.235	0.002
-646.755	239.841	0.130	0.221
-645.741	-94.081	0.136	-0.038
-644.726	-29.485	0.378	-0.220
-643.711	171.566	-0.052	-0.077
-642.697	-40.389	-0.367	0.195
-641.682	123.052	0.232	-0.296
-640.668	111.348	0.201	0.248
-639.653	-25.020	0.162	0.098
-638.638	173.567	-0.097	0.143
-637.624	-62.976	0.422	-0.178
-636.609	-189.731	0.069	0.001
-635.595	-106.050	-0.084	-0.019
-634.580	800.000	-0.065	0.252
-633.565	800.000	-0.069	-0.194
-632.551	122.226	-0.214	-0.273
-631.536	-84.330	0.128	-0.041
-630.522	28.169	0.178	0.153
-629.507	-29.316	0.252	0.147
-628.492	-84.350	-0.035	0.011
-627.478	-64.753	0.281	-0.116
-626.463	-26.498	0.061	-0.036
-625.449	-87.370	-0.149	-0.046
-624.434	53.654	-0.058	-0.056
-623.419	27.978	-0.109	-0.094
-622.405	-88.571	-0.173	0.053
-621.390	-200.000	0.021	-0.388
-620.376	-38.643	-0.286	0.154
-619.361	-162.475	-0.208	0.011
-618.346	-89.516	-0.125	-0.037
-617.332	-52.093	0.025	0.012
-616.317	-55.487	0.082	0.037
-615.303	-200.000	0.104	-0.598
-614.288	126.093	0.029	0.038
-613.273	-200.000	-0.025	0.267
-612.259	-200.000	-0.006	0.239
-611.244	1.796	0.256	0.188
-610.230	-46.576	-0.263	0.132
-609.215	-65.375	-0.050	0.020
-608.201	-148.131	-0.274	0.023
-607.186	-200.000	-0.053	0.296
-606.171	-200.000	0.049	-0.300
-605.157	-12.615	-0.411	-0.273
-604.142	333.010	0.129	-0.254
-603.128	-132.887	0.070	0.009
-602.113	-175.191	-0.193	-0.005
-601.098	-200.000	0.042	0.324
-600.084	-200.000	-0.058	-0.314
-599.069	-43.979	-0.086	-0.044
-598.055	-52.069	0.198	-0.094
-597.040	-200.000	0.023	0.436
-596.025	-164.082	0.055	-0.003
-595.011	-155.302	-0.145	0.010
-593.996	-121.990	-0.333	0.056
-592.982	234.643	-0.077	0.129
-591.967	229.287	0.112	-0.187
-590.952	254.202	-0.085	0.149
-589.938	-135.380	0.088	-0.011
-588.923	19.808	-0.368	0.302
-587.909	112.218	0.379	-0.466
-586.894	-117.441	0.071	0.013
-585.879	-86.841	-0.167	0.052
-584.865	-122.824	0.105	0.017
-583.850	-117.338	-0.151	-0.028
-582.836	-200.000	-0.063	0.342
-581.821	-23.198	0.249	-0.153
-580.806	-71.461	-0.183	0.070
-579.792	75.806	-0.126	0.136
-578.777	69.376	-0.078	-0.081
-577.763	-158.476	0.286	0.017
-576.748	-12.872	0.112	0.074
-575.733	-72.410	0.323	-0.121
-574.719	17.893	0.033	-0.027
-573.704	-200.000	-0.073	-0.330
-572.690	-80.272	-0.199	0.068
-571.675	-19.535	0.296	-0.186
-570.661	-88.268	0.199	-0.061
-569.646	-81.058	-0.123	0.041
-568.631	-112.794	0.371	0.075
-567.617	18.153	-0.147	-0.119
-566.602	84.387	-0.164	-0.183
-565.588	88.183	-0.088	-0.100
-564.573	-200.000	0.053	-0.454
-563.558	-97.341	0.294	-0.078
-562.544	-19.315	-0.086	0.054
-561.529	184.905	-0.167	0.253
-560.515	240.627	-0.211	0.358
-559.500	-175.701	0.106	-0.003
-558.485	-79.269	0.286	0.099
-557.471	-200.000	-0.042	0.261
-556.456	-200.000	-0.056	0.301
-555.442	176.267	0.024	-0.036
-554.427	164.509	-0.137	0.197
-553.412	-150.885	0.126	0.010
-552.398	381.246	0.030	0.062
-551.383	-50.867	0.149	0.071
-550.369	-200.000	0.053	-0.379
-549.354	-200.000	-0.020	-0.105
-548.339	-200.000	0.073	-0.329
-547.325	-69.916	-0.078	0.030
-546.310	721.678	-0.022	-0.060
-545.296	-200.000	-0.007	-0.235
-544.281	103.208	-0.150	-0.179
-543.266	-200.000	-0.042	-0.228
-542.252	298.201	-0.081	-0.151
-541.237	-87.975	0.074	-0.022
-540.223	-200.000	-0.011	0.349
-539.208	-200.000	-0.068	0.407
-538.193	-200.000	-0.025	0.191
-537.179	-98.346	-0.346	0.090
-536.164	-87.340	0.234	0.072
-535.150	0.530	0.257	-0.187
-534.135	505.261	-0.057	-0.134
-533.121	-66.525	-0.196	0.079
-532.106	464.293	0.165	-0.376
-531.091	97.650	0.229	0.268
-530.077	73.438	-0.170	-0.181
-529.062	-200.000	0.028	0.197
-528.048	-86.428	-0.151	0.047
-527.033	-200.000	-0.026	-0.161
-526.018	612.081	0.074	-0.187
-525.004	92.571	-0.139	-0.159
-523.989	-63.800	-0.191	0.080
-522.975	-200.000	0.018	0.132
-521.960	149.209	0.114	0.156
-520.945	-95.223	0.201	-0.055
-519.931	-25.766	0.251	0.150
-518.916	678.258	-0.158	0.419
-517.902	239.440	0.210	0.354
-516.887	178.782	0.100	-0.149
-515.872	-54.340	-0.234	-0.108
-514.858	-200.000	0.023	-0.255
-513.843	40.720	-0.264	-0.241
-512.829	-33.619	0.094	-0.053
-511.814	-122.811	-0.113	-0.019
-510.799	-200.000	0.004	-0.121
-509.785	-104.486	-0.331	-0.078
-508.770	-78.126	-0.048	0.017
-507.756	140.398	-0.102	-0.136
-506.741	-41.694	0.177	0.092
-505.726	493.725	0.025	0.058
-504.712	800.000	0.072	-0.265
-503.697	98.149	-0.277	-0.324
-502.683	-200.000	0.007	0.225
-501.668	308.466	0.074	0.140
-500.653	400.997	0.061	-0.129
-499.639	800.000	-0.040	-0.114
-498.624	55.536	-0.156	0.153
-497.610	-200.000	-0.018	-0.141
-496.595	380.522	-0.108	-0.225
-495.581	-62.402	0.167	0.070
-494.566	-51.107	-0.082	-0.039
-493.551	-101.367	-0.109	-0.027
-492.537	-19.240	-0.104	-0.066
-491.522	324.824	-0.054	-0.105
-490.508	13.143	0.210	-0.165
-489.493	-108.813	0.218	-0.047
-488.478	-100.551	0.177	0.044
-487.464	-94.774	-0.162	-0.045
-486.449	499.365	0.112	-0.261
-485.435	-17.351	-0.320	0.205
-484.420	-138.960	-0.389	0.043
-483.405	-51.267	-0.061	0.029
-482.391	-166.611	0.227	-0.010
-481.376	-93.017	0.229	0.065
-480.362	52.779	0.091	0.088
-479.347	-65.688	0.093	0.038
-478.332	14.608	0.390	0.309
-477.318	800.000	0.050	0.159
-476.303	300.908	0.160	-0.300
-475.289	-22.936	0.165	0.101
-474.274	-108.440	-0.178	-0.039
-473.259	-142.727	-0.240	-0.024
-472.245	-52.880	0.269	-0.126
-471.230	-179.524	0.175	-0.004
-470.216	-200.000	-0.020	0.154
-469.201	347.631	-0.114	-0.229
-468.186	800.000	0.098	-0.311
-467.172	-153.814	-0.162	0.011
-466.157	133.169	0.166	0.218
-465.143	-109.684	-0.232	-0.050
-464.128	98.175	0.192	-0.223
-463.113	88.422	0.096	-0.108
-462.099	-200.000	-0.050	-0.227
-461.084	800.000	0.091	-0.332
-460.070	-143.364	-0.116	-0.011
-459.055	529.767	0.074	-0.176
-458.040	800.000	-0.086	0.262
-457.026	800.000	-0.089	0.301
-456.011	65.805	-0.098	0.100
-454.997	505.906	0.051	0.119
-453.982	-107.615	0.327	0.072
-452.968	-136.925	0.242	-0.028
-451.953	88.221	0.266	-0.299
-450.938	54.264	0.112	0.109
-449.924	-114.178	-0.121	0.024
-448.909	0.632	0.193	0.140
-447.895	-185.072	0.445	-0.007
-446.880	-22.559	-0.189	-0.116
-445.865	135.067	0.172	-0.227
-444.851	-92.519	0.194	0.055
-443.836	-200.000	0.069	-0.330
-442.822	800.000	0.013	0.054
-441.807	-31.668	-0.234	0.133
-440.792	-74.433	-0.315	-0.115
-439.778	800.000	-0.128	0.413
-438.763	-200.000	0.007	0.050
-437.749	341.514	0.159	0.315
-436.734	-184.342	-0.127	-0.002
-435.719	98.125	0.134	0.156
-434.705	330.140	-0.214	-0.418
-433.690	-20.880	-0.169	0.105
-432.676	800.000	-0.031	0.111
-431.661	75.489	-0.138	0.148
-430.646	-200.000	-0.040	0.374
-429.632	-200.000	0.006	0.066
-428.617	-4.185	-0.145	0.102
-427.603	102.043	0.061	0.072
-426.588	64.283	-0.133	-0.135
-425.573	435.464	-0.086	-0.188
-424.559	-106.136	0.157	0.036
-423.544	246.100	0.071	-0.121
-422.530	-89.731	-0.272	0.081
-421.515	-132.850	-0.197	0.025
-420.500	-200.000	-0.048	-0.338
-419.486	65.132	-0.064	0.066
-418.471	800.000	-0.106	0.327
-417.457	-123.613	-0.166	-0.027
-416.442	0.882	0.198	0.143
-415.428	-200.000	-0.018	0.189
-414.413	220.546	0.076	0.124
-413.398	-38.223	-0.254	-0.136
-412.384	101.758	-0.139	0.163
-411.369	-114.947	-0.187	0.036
-410.355	-166.594	-0.363	0.015
-409.340	95.699	0.215	-0.248
-408.325	147.493	0.060	-0.082
-407.311	-105.094	0.351	0.081
-406.296	-76.098	0.070	-0.025
-405.282	356.564	0.134	-0.270
-404.267	273.589	0.114	0.203
-403.252	159.379	-0.026	0.036
-402.238	39.514	0.083	-0.075
-401.223	-74.678	0.215	0.078
-400.209	-110.709	0.513	0.107
-399.194	144.435	-0.131	0.176
-398.179	-128.113	0.095	0.014
-397.165	-64.259	-0.252	0.104
-396.150	19.307	0.095	0.077
-395.136	-200.000	-0.035	0.453
-394.121	12.129	-0.112	-0.087
-393.106	219.791	-0.149	0.240
-392.092	186.285	0.033	0.050
-391.077	-59.907	-0.427	-0.184
-390.063	-200.000	0.035	0.273
-389.048	-200.000	0.018	-0.089
-388.033	-86.642	-0.120	-0.037
-387.019	-40.512	-0.303	0.159
-386.004	-3.713	0.045	-0.032
-384.990	78.248	0.245	0.264
-383.975	4.333	0.114	0.084
-382.960	-90.185	0.248	0.073
-381.946	589.475	0.134	-0.334
-380.931	-200.000	-0.051	0.510
-379.917	-200.000	0.017	-0.103
-378.902	800.000	-0.047	0.134
-377.888	800.000	-0.015	0.058
-376.873	95.065	-0.102	0.117
-375.858	208.994	0.173	-0.274
-374.844	-200.000	-0.020	-0.223
-373.829	-109.923	-0.132	0.028
-372.815	-104.693	0.146	0.034
-371.800	-87.378	-0.244	0.075
-370.785	676.256	-0.065	-0.169
-369.771	-200.000	0.008	-0.046
-368.756	-200.000	-0.046	0.206
-367.742	123.325	-0.145	0.183
-366.727	615.358	-0.163	-0.413
-365.712	455.541	0.069	0.154
-364.698	688.593	0.042	0.110
-363.683	-168.680	-0.279	0.011
-362.669	404.805	0.110	-0.234
-361.654	-139.873	0.058	0.006
-360.639	-138.106	0.076	-0.009
-359.625	-185.023	-0.395	-0.006
-358.610	453.303	-0.108	0.241
-357.596	-141.825	-0.198	0.020
-356.581	8.493	-0.253	0.192
-355.566	-4.486	0.328	-0.229
-354.552	-200.000	0.021	0.155
-353.537	-200.000	-0.024	0.183
-352.523	800.000	-0.059	0.182
-351.508	-17.040	-0.144	0.092
-350.493	-69.138	-0.288	-0.112
-349.479	-74.159	-0.237	-0.086
-348.464	-173.547	0.271	0.008
-347.450	-200.000	-0.001	0.065
-346.435	158.941	0.031	0.043
-345.420	-155.693	-0.276	-0.018
-344.406	-200.000	-0.046	0.232
-343.391	-32.969	0.099	-0.055
-342.377	-91.866	-0.177	0.051
-341.362	79.030	0.102	0.111
-340.348	31.476	-0.110	0.095
-339.333	800.000	0.037	-0.122
-338.318	-45.587	-0.061	-0.030
-337.304	118.737	0.213	-0.265
-336.289	340.975	-0.092	-0.181
-335.275	19.255	-0.050	0.041
-334.260	-200.000	0.007	-0.205
-333.245	189.983	-0.050	0.076
-332.231	467.243	0.108	0.244
-331.216	-50.947	-0.130	0.062
-330.202	186.995	-0.207	-0.311
-329.187	-51.054	-0.162	-0.076
-328.172	-200.000	0.004	-0.167
-327.158	-140.021	-0.074	-0.008
-326.143	800.000	-0.072	-0.317
-325.129	17.933	0.201	-0.161
-324.114	-155.902	0.337	0.022
-323.099	-80.782	0.168	0.056
-322.085	84.407	-0.230	-0.254
-321.070	-121.094	-0.160	-0.027
-320.056	-200.000	-0.016	0.189
-319.041	-91.616	-0.160	0.046
-318.026	179.342	0.080	-0.118
-317.012	-76.444	0.283	0.100
-315.997	-0.751	0.118	-0.084
-314.983	168.431	0.149	0.214
-313.968	-66.771	-0.154	-0.061
-312.953	-89.191	0.376	0.112
-311.939	-95.771	-0.194	0.052
-310.924	-133.238	-0.189	0.024
-309.910	-158.660	-0.232	-0.013
-308.895	224.172	-0.050	0.081
-307.880	-20.385	0.319	-0.197
-306.866	147.019	-0.094	0.127
-305.851	13.181	-0.086	0.067
-304.837	61.893	0.223	0.224
-303.822	-200.000	0.041	0.197
-302.807	800.000	-0.085	-0.284
-301.793	800.000	0.048	-0.174
-300.778	32.428	0.223	0.194
-299.764	149.361	0.177	-0.241
-298.749	-26.756	-0.342	-0.201
-297.735	448.083	-0.070	0.156
-296.720	153.869	0.166	0.229
-295.705	304.879	-0.075	0.141
-294.691	-133.471	-0.080	-0.010
-293.676	205.070	-0.314	0.491
-292.662	25.762	0.220	-0.185
-291.647	800.000	0.046	0.177
-290.632	482.884	0.069	0.157
-289.618	3.171	0.220	-0.161
-288.603	-200.000	0.078	-0.403
-287.589	800.000	0.037	-0.135
-286.574	-200.000	0.010	-0.082
-285.559	69.555	-0.162	-0.168
-284.545	-129.400	0.173	0.024
-283.530	800.000	-0.082	-0.342
-282.516	800.000	0.071	-0.309
-281.501	59.048	0.171	-0.169
-280.486	-81.287	0.187	-0.062
-279.472	-59.765	-0.220	0.095
-278.457	-200.000	-0.041	-0.256
-277.443	-25.576	0.290	-0.172
-276.428	52.822	0.046	0.044
-275.413	-200.000	0.004	-0.053
-274.399	-110.546	0.264	0.055
-273.384	-200.000	0.019	-0.141
-272.370	-5.406	-0.266	0.184
-271.355	218.464	0.128	-0.205
-270.340	106.658	0.189	-0.226
-269.326	-76.740	-0.148	0.052
-268.311	-110.971	0.038	0.008
-267.297	-23.247	-0.141	-0.085
-266.282	-56.189	-0.285	-0.128
-265.267	-200.000	-0.059	0.638
-264.253	800.000	-0.105	0.346
-263.238	-100.513	-0.115	0.029
-262.224	43.333	0.256	-0.235
-261.209	-194.729	-0.124	-0.001
-260.195	307.565	-0.058	-0.109
-259.180	267.538	-0.036	0.064
-258.165	188.178	-0.141	-0.211
-257.151	6.522	0.358	0.267
-256.136	7.979	0.165	0.125
-255.122	800.000	0.053	0.210
-254.107	-151.266	0.099	-0.007
-253.092	156.613	-0.173	0.240
-252.078	306.035	-0.162	-0.303
-251.063	800.000	0.072	0.289
-250.049	37.644	0.143	0.127
-249.034	-46.927	0.144	0.071
-248.019	96.744	-0.107	0.123
-247.005	-200.000	-0.041	-0.290
-245.990	-200.000	0.004	-0.155
-244.976	-33.691	-0.076	-0.042
-243.961	-200.000	-0.005	-0.068
-242.946	-200.000	-0.027	-0.417
-241.932	103.308	-0.143	0.168
-240.917	800.000	-0.054	-0.164
-239.903	581.254	-0.044	-0.108
-238.888	800.000	-0.065	0.242
-237.873	671.388	0.065	-0.169
-236.859	-22.865	-0.130	-0.079
-235.844	313.338	-0.042	0.080
-234.830	-200.000	-0.005	0.134
-233.815	800.000	0.070	-0.251
-232.800	-58.804	0.192	-0.083
-231.786	-138.733	0.281	0.031
-230.771	58.199	-0.125	0.123
-229.757	-46.195	0.153	0.076
-228.742	-170.364	0.091	-0.003
-227.727	-104.366	0.333	0.077
-226.713	169.969	0.082	0.117
-225.698	-12.134	0.262	-0.172
-224.684	87.023	-0.273	0.303
-223.669	89.094	0.215	-0.240
-222.655	-42.943	-0.252	-0.128
-221.640	-200.000	-0.026	0.160
-220.625	22.814	0.127	-0.104
-219.611	-200.000	0.059	-0.325
-218.596	141.958	-0.129	0.172
-217.582	101.536	0.042	-0.049
-216.567	-192.102	-0.132	-0.001
-215.552	-200.000	-0.013	-0.106
-214.538	-10.322	-0.200	0.133
-213.523	88.592	0.166	0.185
-212.509	-94.134	-0.382	-0.105
-211.494	528.545	-0.113	-0.268
-210.479	92.832	0.038	-0.043
-209.465	546.834	0.082	0.196
-208.450	-49.208	-0.230	-0.110
-207.436	800.000	-0.036	0.159
-206.421	615.931	0.114	0.286
-205.406	-53.736	-0.098	0.045
-204.392	-200.000	0.017	-0.077
-203.377	-200.000	0.040	0.223
-202.363	800.000	-0.011	-0.046
-201.348	800.000	0.137	0.408
-200.333	53.841	-0.148	-0.142
-199.319	-48.777	-0.250	-0.120
-198.304	-160.787	0.054	0.003
-197.290	-114.170	-0.365	-0.071
-196.275	120.703	-0.113	-0.141
-195.260	-3.334	-0.224	0.157
-194.246	-200.000	0.004	0.341
-193.231	-30.315	0.349	0.199
-192.217	28.440	-0.348	0.295
-191.202	3.672	-0.265	0.194
-190.187	16.034	0.139	0.110
-189.173	-200.000	0.016	0.158
-188.158	-128.454	0.178	-0.025
-187.144	3.798	-0.264	0.193
-186.129	-54.341	0.200	-0.091
-185.114	86.563	-0.122	0.135
-184.100	-90.122	0.178	0.052
-183.085	80.303	-0.062	-0.067
-182.071	-140.315	0.526	-0.055
-181.056	800.000	0.110	-0.360
-180.042	-128.596	0.167	0.024
-179.027	-68.617	0.048	0.019
-178.012	34.135	-0.119	-0.104
-176.998	-60.841	0.157	-0.067
-175.983	-17.041	0.068	0.043
-174.969	-125.623	-0.148	0.023
-173.954	-200.000	0.007	-0.081
-172.939	112.523	-0.108	0.131
-171.925	-200.000	-0.024	-0.501
-170.910	-200.000	-0.027	-0.186
-169.896	-68.329	-0.165	-0.064
-168.881	303.741	0.016	-0.029
-167.866	-165.844	0.250	-0.011
-166.852	-200.000	-0.002	-0.059
-165.837	-15.366	-0.126	0.081
-164.823	-200.000	-0.010	0.110
-163.808	-200.000	0.015	-0.435
-162.793	-112.125	-0.262	0.053
-161.779	184.735	-0.069	-0.102
-160.764	-121.593	-0.135	0.022
-159.750	-127.440	0.137	0.020
-158.735	-158.936	0.339	0.019
-157.720	-29.389	0.225	-0.129
-156.706	92.038	0.094	-0.106
-155.691	-200.000	-0.096	0.587
-154.677	-159.216	0.189	0.011
-153.662	-47.863	0.342	-0.166
-152.647	-200.000	0.027	0.119
-151.633	66.715	-0.061	0.062
-150.618	145.739	0.136	-0.183
-149.604	-4.061	-0.305	-0.212
-148.589	-200.000	-0.009	-0.046
-147.574	23.331	-0.232	0.191
-146.560	134.467	0.100	0.130
-145.545	-85.713	-0.278	0.086
-144.531	-105.695	0.248	-0.056
-143.516	-84.891	0.232	-0.073
-142.502	56.928	0.124	0.121
-141.487	-143.079	-0.098	-0.009
-140.472	40.643	-0.159	0.144
-139.458	-76.081	-0.264	0.093
-138.443	800.000	-0.046	-0.199
-137.429	100.658	-0.080	0.093
-136.414	-60.439	0.339	0.144
-135.399	-200.000	-0.061	0.539
-134.385	383.206	-0.085	0.175
-133.370	-200.000	0.020	-0.098
-132.356	-76.811	0.251	-0.088
-131.341	89.659	-0.122	-0.136
-130.326	191.071	-0.128	-0.192
-129.312	85.509	-0.034	-0.038
-128.297	-79.575	-0.257	-0.087
-127.283	74.365	-0.238	0.250
-126.268	305.571	-0.048	-0.089
-125.253	115.594	0.118	0.144
-124.239	800.000	0.149	0.564
-123.224	131.928	0.113	0.145
-122.210	-118.833	-0.129	0.023
