DTS Sentinel unit serial number:	SN413079Multiplexer serial number:	ORYXHardware model number:	OX4-SRSoftware version number:	ORYX F/W v4.00 Oryx Data Collector v3.7.2.0data status	okinstallation	princeton_trtdifferential loss correction	single-endedforward channel	channel 1reverse channel	N/Adate	2019/09/14time	22:50:35forward acquisition time	60.00reverse acquisition time	0.00gamma	496.2192k internal	0.2319k external	0.2319temperature offset calibration	1.0002default loss term (dB/km)	0.3790temperature slope calibration	1.0000multiplexer offset coefficient	1.0000multiplexer slope coefficient	1.0000fibre end	0.00T internal ref (°C)	32.50T ext. ref 1 (°C)	4.68T ext. ref 2 (°C)	27.43length (m)	temperature (°C)	Stokes	anti-Stokes-747.200	-129.197	-0.135	-0.019
-746.185	285.608	-0.107	-0.194
-745.171	-112.489	0.109	0.022
-744.156	-34.362	0.135	0.075
-743.142	495.713	0.028	0.066
-742.127	62.585	0.060	0.060
-741.112	-200.000	0.008	0.342
-740.098	83.928	-0.340	0.376
-739.083	-123.420	0.109	0.018
-738.069	287.710	0.063	-0.116
-737.054	-128.761	0.192	0.027
-736.039	-173.495	-0.356	-0.011
-735.025	630.861	-0.169	-0.434
-734.010	800.000	0.052	-0.218
-732.996	1.614	-0.171	-0.125
-731.981	437.262	-0.038	-0.084
-730.966	-126.421	-0.101	0.015
-729.952	-35.725	-0.353	0.193
-728.937	-200.000	-0.025	-0.339
-727.923	-134.904	-0.280	-0.034
-726.908	36.244	-0.401	-0.357
-725.894	-170.509	-0.367	-0.013
-724.879	-61.054	-0.205	-0.088
-723.864	800.000	-0.100	-0.425
-722.850	-126.415	-0.313	-0.047
-721.835	45.260	0.222	0.207
-720.821	-96.373	-0.182	-0.049
-719.806	606.878	-0.045	0.114
-718.791	23.932	-0.153	0.128
-717.777	-200.000	-0.005	-0.128
-716.762	-48.465	0.279	-0.136
-715.748	-147.362	-0.120	-0.010
-714.733	-74.479	-0.447	-0.163
-713.718	-200.000	0.003	-0.035
-712.704	-200.000	-0.070	-0.454
-711.689	-125.702	0.090	0.014
-710.675	0.828	0.257	-0.186
-709.660	-72.037	-0.351	-0.132
-708.645	120.835	-0.249	0.312
-707.631	39.420	-0.169	-0.153
-706.616	416.422	-0.062	-0.134
-705.602	13.046	-0.326	0.255
-704.587	70.053	0.159	-0.166
-703.572	17.854	-0.034	-0.028
-702.558	77.724	0.212	-0.229
-701.543	-200.000	-0.041	0.327
-700.529	46.382	-0.140	0.131
-699.514	146.313	0.080	0.108
-698.499	60.820	0.278	0.278
-697.485	-200.000	0.018	0.090
-696.470	-200.000	-0.007	0.194
-695.456	83.181	-0.209	0.230
-694.441	-200.000	0.005	-0.150
-693.426	685.684	0.093	-0.245
-692.412	127.737	-0.201	0.258
-691.397	-200.000	-0.041	0.313
-690.383	-94.222	0.256	-0.071
-689.368	-48.423	-0.214	-0.104
-688.354	-153.175	0.301	-0.021
-687.339	112.794	0.287	0.351
-686.324	-52.706	-0.349	0.162
-685.310	580.985	0.059	0.145
-684.295	14.447	0.243	0.191
-683.281	-200.000	-0.013	0.110
-682.266	-200.000	-0.075	-0.379
-681.251	351.640	-0.053	-0.107
-680.237	-61.569	-0.249	-0.106
-679.222	-200.000	0.002	-0.078
-678.208	85.612	0.271	-0.301
-677.193	-20.933	-0.281	0.174
-676.178	-200.000	-0.031	0.174
-675.164	-200.000	0.013	-0.235
-674.149	237.851	-0.048	-0.081
-673.135	800.000	-0.085	-0.247
-672.120	-200.000	-0.008	0.159
-671.105	138.617	-0.185	0.245
-670.091	-18.739	-0.296	-0.186
-669.076	494.881	0.175	-0.405
-668.062	168.058	0.109	0.157
-667.047	96.866	-0.263	0.304
-666.032	-46.578	-0.103	-0.051
-665.018	-124.297	-0.451	0.071
-664.003	428.607	0.062	-0.134
-662.989	11.152	0.139	-0.107
-661.974	-200.000	0.055	-0.413
-660.959	17.886	0.192	-0.155
-659.945	-76.485	-0.387	-0.137
-658.930	-50.743	0.170	0.081
-657.916	-200.000	0.055	0.349
-656.901	-135.087	0.120	0.015
-655.886	429.268	0.138	-0.300
-654.872	240.477	0.181	-0.305
-653.857	52.107	-0.065	-0.062
-652.843	549.237	-0.055	-0.133
-651.828	-200.000	-0.005	-0.093
-650.814	-200.000	0.003	-0.034
-649.799	115.905	0.138	-0.170
-648.784	439.288	-0.133	0.292
-647.770	786.090	-0.048	0.132
-646.755	-132.777	0.162	0.021
-645.741	-46.467	0.030	-0.015
-644.726	216.033	0.031	0.050
-643.711	-21.271	0.175	-0.108
-642.697	800.000	-0.098	-0.284
-641.682	-80.182	0.252	-0.085
-640.668	-14.533	0.031	-0.020
-639.653	61.231	-0.367	-0.367
-638.638	614.904	0.105	-0.266
-637.624	106.874	-0.229	-0.274
-636.609	327.921	0.135	-0.261
-635.595	-130.158	0.512	-0.070
-634.580	-153.362	-0.381	-0.027
-633.565	-79.562	0.143	-0.049
-632.551	-0.717	0.253	0.181
-631.536	137.263	-0.135	0.177
-630.522	23.898	0.135	-0.112
-629.507	-200.000	-0.016	0.136
-628.492	-67.232	0.167	0.066
-627.478	800.000	-0.003	-0.008
-626.463	369.147	-0.013	-0.026
-625.449	55.498	0.291	0.283
-624.434	-104.998	0.229	-0.053
-623.419	124.993	0.250	-0.317
-622.405	-175.752	-0.219	0.006
-621.390	-32.794	0.275	-0.154
-620.376	-200.000	-0.007	-0.067
-619.361	-84.170	-0.222	-0.071
-618.346	800.000	0.127	0.422
-617.332	140.033	-0.121	0.160
-616.317	334.372	-0.163	-0.318
-615.303	-200.000	0.023	0.280
-614.288	-32.140	0.016	-0.009
-613.273	-200.000	-0.026	0.334
-612.259	-40.899	0.127	0.066
-611.244	-41.656	-0.190	0.098
-610.230	-200.000	-0.008	-0.081
-609.215	60.534	0.156	0.156
-608.201	-134.508	-0.117	-0.014
-607.186	241.340	0.041	0.069
-606.171	-46.871	0.354	0.174
-605.157	175.487	0.131	-0.191
-604.142	214.882	-0.171	-0.273
-603.128	-81.191	0.086	0.029
-602.113	-2.659	0.341	0.240
-601.098	-200.000	-0.084	-0.410
-600.084	104.915	0.087	0.103
-599.069	800.000	0.045	0.174
-598.055	46.412	-0.277	0.258
-597.040	-50.568	-0.097	-0.046
-596.025	429.611	0.126	-0.273
-595.011	48.016	-0.057	0.054
-593.996	-172.057	0.092	-0.003
-592.982	-89.941	-0.223	0.066
-591.967	-200.000	-0.008	0.311
-590.952	310.858	0.088	0.166
-589.938	-112.998	-0.188	0.037
-588.923	97.552	0.121	0.140
-587.909	43.740	0.133	0.123
-586.894	-200.000	-0.069	-0.339
-585.879	-27.324	-0.049	0.029
-584.865	239.212	0.131	-0.219
-583.850	24.886	-0.137	-0.114
-582.836	-51.974	-0.153	0.072
-581.821	83.638	0.128	-0.140
-580.806	-134.933	-0.175	0.021
-579.792	800.000	0.070	-0.203
-578.777	59.343	-0.122	0.121
-577.763	117.841	0.070	0.086
-576.748	269.083	-0.084	-0.148
-575.733	-28.427	0.279	-0.162
-574.719	41.547	-0.183	-0.166
-573.704	-174.812	-0.126	-0.004
-572.690	-153.035	0.310	-0.022
-571.675	196.265	-0.153	-0.234
-570.661	28.938	-0.122	-0.104
-569.646	43.397	0.269	0.247
-568.631	52.670	-0.167	0.160
-567.617	161.036	-0.129	-0.182
-566.602	-197.630	-0.084	0.001
-565.588	163.257	-0.106	0.150
-564.573	-3.922	0.198	-0.138
-563.558	-186.649	-0.344	0.005
-562.544	506.082	0.063	-0.146
-561.529	-46.846	-0.136	-0.067
-560.515	189.914	0.156	-0.234
-559.500	29.613	-0.169	0.144
-558.485	-141.805	0.085	0.009
-557.471	-200.000	0.014	-0.378
-556.456	800.000	0.037	-0.139
-555.442	800.000	-0.070	-0.267
-554.427	-200.000	-0.008	0.346
-553.412	-115.614	0.116	0.022
-552.398	-200.000	0.027	-0.167
-551.383	800.000	-0.058	0.209
-550.369	60.249	-0.443	0.440
-549.354	-86.248	-0.215	0.066
-548.339	139.635	-0.238	-0.315
-547.325	21.568	0.079	-0.064
-546.310	-13.451	0.108	-0.070
-545.296	-180.196	-0.233	-0.005
-544.281	-99.882	-0.094	0.024
-543.266	-188.967	0.222	-0.003
-542.252	800.000	0.044	0.149
-541.237	466.404	-0.033	0.074
-540.223	7.997	-0.306	-0.230
-539.208	-114.907	-0.156	0.030
-538.193	92.689	-0.216	-0.245
-537.179	-84.389	0.093	-0.030
-536.164	35.700	-0.226	0.199
-535.150	127.447	-0.073	0.093
-534.135	-36.230	-0.137	-0.074
-533.121	555.449	-0.051	0.123
-532.106	739.941	0.141	0.381
-531.091	-3.754	-0.175	0.122
-530.077	-65.150	-0.186	0.075
-529.062	8.576	0.168	0.127
-528.048	-68.623	0.280	-0.109
-527.033	-200.000	-0.004	-0.064
-526.018	-200.000	0.019	-0.140
-525.004	-81.169	0.311	-0.103
-523.989	-200.000	-0.018	0.124
-522.975	672.301	-0.096	0.250
-521.960	-200.000	-0.023	0.483
-520.945	82.976	-0.037	-0.041
-519.931	532.549	0.112	-0.266
-518.916	-200.000	0.006	-0.142
-517.902	800.000	0.069	-0.254
-516.887	-173.863	0.131	-0.004
-515.872	-156.398	-0.174	-0.011
-514.858	-68.825	-0.121	0.047
-513.843	800.000	-0.065	0.207
-512.829	169.145	-0.032	-0.046
-511.814	800.000	-0.033	-0.119
-510.799	-75.129	-0.268	0.096
-509.785	-200.000	-0.025	0.160
-508.770	303.808	-0.076	-0.141
-507.756	-58.947	0.372	0.161
-506.741	-121.866	0.053	0.009
-505.726	60.240	0.045	-0.045
-504.712	-170.158	0.188	0.007
-503.697	-200.000	-0.032	0.154
-502.683	117.754	0.050	0.062
-501.668	40.077	-0.142	0.128
-500.653	-141.491	-0.226	0.023
-499.639	800.000	0.071	0.235
-498.624	-159.097	-0.008	0.000
-497.610	800.000	-0.200	-0.572
-496.595	-54.494	0.177	-0.080
-495.581	800.000	0.017	-0.052
-494.566	-200.000	0.032	-0.328
-493.551	746.091	0.058	0.156
-492.537	-95.000	0.289	0.078
-491.522	43.330	0.170	-0.156
-490.508	-143.094	0.292	-0.028
-489.493	-110.227	-0.183	0.038
-488.478	147.736	-0.099	-0.134
-487.464	-39.811	-0.148	0.077
-486.449	316.005	0.109	-0.206
-485.435	120.139	0.242	0.301
-484.420	800.000	-0.021	0.059
-483.405	-53.605	-0.164	-0.075
-482.391	-96.671	0.146	-0.039
-481.376	268.451	0.065	0.114
-480.362	167.773	0.233	0.331
-479.347	-144.247	0.416	0.039
-478.332	179.823	-0.141	0.206
-477.318	-56.147	0.276	0.123
-476.303	-42.684	0.090	0.046
-475.289	-48.964	0.300	-0.144
-474.274	153.585	-0.172	-0.236
-473.259	-200.000	-0.041	-0.188
-472.245	-81.139	-0.456	-0.151
-471.230	-73.285	0.159	-0.058
-470.216	800.000	0.056	-0.158
-469.201	-54.126	0.216	-0.098
-468.186	23.253	-0.045	0.037
-467.172	350.361	0.122	0.241
-466.157	-200.000	0.035	0.181
-465.143	152.646	0.094	-0.128
-464.128	-200.000	-0.003	-0.087
-463.113	-20.065	0.291	0.180
-462.099	-81.940	0.162	-0.053
-461.084	742.766	0.131	-0.351
-460.070	44.244	0.239	-0.220
-459.055	-30.731	0.378	-0.214
-458.040	-200.000	0.006	0.053
-457.026	55.955	-0.101	-0.098
-456.011	-130.666	-0.142	0.019
-454.997	-200.000	-0.002	0.241
-453.982	-113.183	-0.118	-0.023
-452.968	196.500	0.190	-0.289
-451.953	-120.911	-0.246	0.041
-450.938	-186.089	-0.005	0.000
-449.924	-103.683	-0.608	-0.143
-448.909	83.216	0.121	0.132
-447.895	280.991	-0.063	0.113
-446.880	-70.544	-0.419	-0.158
-445.865	-200.000	0.135	-0.649
-444.851	-200.000	-0.039	-0.176
-443.836	-93.473	-0.218	-0.060
-442.822	800.000	-0.122	0.367
-441.807	114.612	0.102	-0.124
-440.792	-34.470	0.188	0.103
-439.778	139.952	-0.144	-0.190
-438.763	64.393	0.160	-0.161
-437.749	9.620	-0.292	-0.221
-436.734	-162.251	0.201	0.010
-435.719	-35.208	-0.547	0.297
-434.705	-132.907	0.239	-0.030
-433.690	-153.923	0.237	-0.016
-432.676	800.000	0.003	-0.010
-431.661	15.297	-0.219	0.171
-430.646	-145.273	0.382	-0.035
-429.632	29.878	0.046	-0.039
-428.617	800.000	-0.082	-0.274
-427.603	96.695	0.136	0.156
-426.588	800.000	0.054	0.157
-425.573	800.000	-0.103	0.317
-424.559	116.149	0.037	0.045
-423.544	-200.000	-0.063	-0.305
-422.530	5.836	-0.160	0.118
-421.515	-87.266	0.079	-0.024
-420.500	142.261	-0.083	0.111
-419.486	132.335	0.116	0.149
-418.471	31.827	0.089	-0.076
-417.457	-63.595	-0.153	0.063
-416.442	56.754	-0.237	0.230
-415.428	-71.809	-0.152	0.057
-414.413	-200.000	-0.009	-0.247
-413.398	-99.662	-0.175	0.044
-412.384	-39.415	-0.178	-0.093
-411.369	-200.000	0.040	0.255
-410.355	63.964	0.323	0.325
-409.340	-200.000	-0.029	-0.356
-408.325	-200.000	0.037	0.165
-407.311	-11.273	-0.301	-0.198
-406.296	370.388	-0.117	-0.237
-405.282	517.745	-0.124	0.291
-404.267	-15.353	-0.285	-0.182
-403.252	103.790	0.028	-0.033
-402.238	115.088	-0.062	-0.076
-401.223	88.061	-0.120	-0.133
-400.209	-102.025	-0.233	-0.056
-399.194	-161.862	-0.053	-0.003
-398.179	800.000	-0.065	0.259
-397.165	-145.961	-0.215	0.019
-396.150	-136.497	0.157	-0.018
-395.136	-55.626	-0.055	-0.024
-394.121	800.000	-0.055	-0.212
-393.106	384.142	-0.027	0.056
-392.092	-18.979	0.329	0.204
-391.077	276.402	-0.101	0.180
-390.063	-42.077	-0.187	0.095
-389.048	-101.172	0.225	-0.055
-388.033	-108.582	-0.183	-0.039
-387.019	-83.725	0.300	-0.096
-386.004	62.605	-0.248	-0.247
-384.990	451.245	-0.084	-0.184
-383.975	-70.337	-0.170	0.064
-382.960	85.063	-0.192	-0.209
-381.946	-79.203	-0.068	-0.023
-380.931	212.829	0.141	0.222
-379.917	-70.879	0.243	-0.091
-378.902	114.115	0.229	0.278
-377.888	199.028	-0.118	0.181
-376.873	-128.073	-0.146	0.021
-375.858	291.187	-0.126	-0.228
-374.844	-19.056	-0.086	0.054
-373.829	-44.273	-0.197	0.098
-372.815	76.700	0.306	0.323
-371.800	-125.088	-0.308	0.047
-370.785	-66.775	-0.146	-0.058
-369.771	-78.430	-0.178	0.061
-368.756	800.000	0.047	0.146
-367.742	-200.000	0.027	0.161
-366.727	-200.000	0.003	-0.071
-365.712	-74.084	0.186	0.067
-364.698	-112.612	0.079	0.016
-363.683	-142.974	-0.179	0.017
-362.669	-50.197	0.317	0.150
-361.654	47.044	-0.035	-0.032
-360.639	800.000	0.062	0.220
-359.625	-191.880	0.267	-0.003
-358.610	800.000	-0.012	-0.048
-357.596	-200.000	0.109	0.000
-356.581	132.823	0.098	0.126
-355.566	-200.000	0.026	-0.139
-354.552	800.000	-0.071	0.271
-353.537	141.969	0.107	-0.141
-352.523	-31.421	-0.202	-0.113
-351.508	334.870	0.072	-0.138
-350.493	-139.845	0.269	0.028
-349.479	62.580	-0.167	-0.166
-348.464	238.486	0.245	-0.405
-347.450	71.154	-0.053	0.055
-346.435	436.530	0.082	-0.178
-345.420	432.479	0.110	-0.237
-344.406	645.348	0.043	-0.109
-343.391	-81.263	0.227	-0.075
-342.377	-180.753	0.322	-0.007
-341.362	345.690	0.044	0.087
-340.348	-101.168	-0.247	0.060
-339.333	672.121	0.050	-0.128
-338.318	81.691	-0.168	0.181
-337.304	316.868	-0.154	0.289
-336.289	-39.352	-0.113	-0.059
-335.275	126.143	0.067	0.085
-334.260	-100.330	-0.302	0.075
-333.245	-2.614	-0.190	-0.132
-332.231	-46.354	-0.153	0.075
-331.216	-200.000	-0.040	0.205
-330.202	-114.173	-0.150	0.029
-329.187	471.977	-0.053	-0.118
-328.172	765.333	0.124	0.335
-327.158	-24.943	-0.166	0.098
-326.143	-40.093	0.105	0.054
-325.129	-200.000	0.096	0.488
-324.114	-156.100	0.288	-0.018
-323.099	-73.224	-0.121	0.044
-322.085	800.000	0.081	0.284
-321.070	-36.847	0.120	-0.064
-320.056	422.658	-0.079	-0.168
-319.041	800.000	0.104	-0.391
-318.026	-3.719	0.159	-0.110
-317.012	84.765	0.226	0.246
-315.997	-200.000	0.047	-0.281
-314.983	-200.000	-0.004	0.161
-313.968	55.328	-0.205	-0.197
-312.953	-124.278	0.299	0.047
-311.939	-125.414	0.244	0.037
-310.924	184.420	-0.139	0.205
-309.910	123.978	-0.118	0.148
-308.895	800.000	0.074	0.229
-307.880	43.422	0.399	-0.363
-306.866	-200.000	-0.008	-0.059
-305.851	-43.872	-0.217	-0.108
-304.837	-75.377	0.205	-0.073
-303.822	318.578	0.153	0.288
-302.807	-72.902	-0.423	0.154
-301.793	-169.041	0.152	0.006
-300.778	-200.000	-0.018	0.186
-299.764	-23.989	0.246	0.146
-298.749	-200.000	0.037	-0.230
-297.735	-22.791	-0.086	-0.052
-296.720	71.886	-0.219	-0.227
-295.705	-200.000	-0.051	-0.257
-294.691	-200.000	0.058	-0.298
-293.676	58.498	0.286	0.279
-292.662	43.327	0.164	-0.149
-291.647	-10.735	-0.151	0.099
-290.632	-21.742	0.340	-0.205
-289.618	25.453	-0.062	0.051
-288.603	800.000	-0.045	0.150
-287.589	800.000	0.075	0.326
-286.574	-200.000	0.026	-0.379
-285.559	800.000	0.075	-0.223
-284.545	-120.339	-0.321	-0.054
-283.530	-200.000	-0.016	-0.279
-282.516	19.645	-0.276	0.221
-281.501	210.370	0.170	-0.265
-280.486	800.000	-0.099	0.277
-279.472	-116.996	-0.118	0.021
-278.457	79.555	-0.218	-0.233
-277.443	-103.850	0.102	0.024
-276.428	800.000	-0.036	0.153
-275.413	221.967	-0.134	-0.215
-274.399	58.023	-0.163	-0.158
-273.384	-166.298	-0.192	-0.008
-272.370	-11.234	0.458	-0.300
-271.355	-200.000	-0.014	0.213
-270.340	130.842	-0.260	0.331
-269.326	41.625	-0.205	0.185
-268.311	166.719	0.136	-0.191
-267.297	-36.284	0.355	0.190
-266.282	391.779	0.024	-0.049
-265.267	-200.000	0.014	-0.297
-264.253	-35.173	0.283	-0.153
-263.238	711.052	0.064	-0.168
-262.224	-54.804	0.338	0.151
-261.209	311.151	0.121	-0.225
-260.195	-174.835	0.353	-0.010
-259.180	3.740	-0.326	-0.236
-258.165	-62.516	-0.251	0.104
-257.151	-12.924	-0.237	-0.153
-256.136	-200.000	-0.003	-0.086
-255.122	248.561	0.126	0.212
-254.107	-175.445	-0.238	0.006
-253.092	88.338	0.101	0.111
-252.078	555.333	-0.090	-0.215
-251.063	321.191	-0.289	-0.546
-250.049	-17.865	0.406	-0.253
-249.034	252.695	0.115	-0.195
-248.019	-72.759	-0.307	0.112
-247.005	527.806	-0.066	0.155
-245.990	25.732	0.181	0.149
-244.976	-44.335	-0.149	-0.074
-243.961	206.809	0.057	0.089
-242.946	267.470	-0.085	0.148
-241.932	-41.911	0.187	-0.095
-240.917	101.466	0.306	0.353
-239.903	437.743	0.150	0.325
-238.888	-0.476	-0.260	0.183
-237.873	-150.792	-0.271	-0.020
-236.859	588.274	-0.109	0.267
-235.844	53.698	-0.180	-0.171
-234.830	70.063	-0.092	0.094
-233.815	-158.122	-0.147	0.009
-232.800	-29.835	-0.176	-0.100
-231.786	800.000	0.048	-0.142
-230.771	-19.333	-0.186	-0.114
-229.757	54.064	-0.099	-0.095
-228.742	20.374	-0.085	-0.068
-227.727	-200.000	-0.042	0.228
-226.713	-14.500	0.155	-0.099
-225.698	-200.000	0.025	-0.186
-224.684	112.009	-0.100	0.120
-223.669	-185.424	0.484	-0.007
-222.655	-24.221	0.155	0.092
-221.640	-4.392	0.221	0.151
-220.625	37.061	-0.176	0.154
-219.611	-200.000	-0.023	0.321
-218.596	377.062	-0.174	0.352
-217.582	508.678	0.118	-0.271
-216.567	18.575	0.088	0.069
-215.552	345.786	0.194	0.378
-214.538	-17.203	-0.207	0.129
-213.523	148.339	-0.237	-0.318
-212.509	-162.625	0.170	0.008
-211.494	32.852	-0.194	0.166
-210.479	94.216	-0.212	-0.239
-209.465	-60.395	-0.360	0.152
-208.450	43.314	0.348	-0.315
-207.436	-8.120	-0.083	-0.055
-206.421	800.000	-0.097	0.346
-205.406	106.132	-0.155	0.182
-204.392	-86.746	0.283	-0.086
-203.377	272.467	0.099	0.174
-202.363	-107.333	0.306	-0.067
-201.348	360.904	-0.109	0.217
-200.333	-7.548	-0.417	-0.279
-199.319	4.002	0.034	-0.024
-198.304	224.461	-0.101	0.162
-197.290	13.407	-0.186	-0.142
-196.275	381.913	-0.125	-0.253
-195.260	279.685	-0.089	0.157
-194.246	91.193	0.230	0.256
-193.231	86.602	-0.190	-0.208
-192.217	800.000	0.061	-0.200
-191.202	-95.058	-0.400	0.107
-190.187	-200.000	-0.018	0.096
-189.173	-44.115	-0.134	-0.067
-188.158	40.224	-0.053	0.047
-187.144	170.341	0.076	-0.108
-186.129	800.000	-0.028	-0.079
-185.114	95.286	0.164	-0.185
-184.100	-171.316	0.196	0.007
-183.085	-60.722	-0.390	0.163
-182.071	372.282	0.103	0.208
-181.056	-163.480	-0.210	0.010
-180.042	52.956	0.151	-0.143
-179.027	800.000	0.038	-0.154
-178.012	800.000	0.042	0.121
-176.998	24.926	0.222	0.182
-175.983	800.000	-0.011	-0.039
-174.969	-60.129	-0.133	-0.056
-173.954	117.384	0.083	-0.101
-172.939	800.000	0.024	-0.077
-171.925	197.999	0.115	0.174
-170.910	524.284	-0.079	0.183
-169.896	33.973	0.149	0.129
-168.881	123.162	0.211	0.261
-167.866	188.290	0.149	-0.220
-166.852	-200.000	-0.012	0.268
-165.837	-23.666	0.200	0.119
-164.823	-189.260	0.273	-0.003
-163.808	-5.172	0.239	0.163
-162.793	-26.004	-0.215	-0.125
-161.779	11.338	0.073	0.055
-160.764	-200.000	-0.030	0.283
-159.750	-200.000	0.001	0.082
-158.735	-200.000	0.029	-0.197
-157.720	-145.201	0.212	-0.019
-156.706	-13.607	-0.231	-0.148
-155.691	-137.543	0.182	0.020
-154.677	-200.000	-0.015	0.262
-153.662	-93.131	-0.144	-0.039
-152.647	800.000	0.021	-0.059
-151.633	263.128	-0.146	0.250
-150.618	-89.034	0.319	0.093
-149.604	-38.892	0.063	-0.033
-148.589	-99.822	0.270	-0.067
-147.574	646.125	0.022	0.055
-146.560	142.476	-0.055	0.072
-145.545	17.239	-0.189	0.148
-144.531	-200.000	0.003	-0.240
-143.516	513.215	-0.031	0.072
-142.502	-25.871	0.163	0.095
-141.487	-162.783	0.427	0.021
-140.472	39.179	0.098	0.087
-139.458	-59.696	0.150	-0.064
-138.443	36.600	0.261	-0.227
-137.429	211.681	0.054	-0.085
-136.414	43.142	-0.343	-0.310
-135.399	261.383	0.141	0.240
-134.385	287.048	0.038	0.068
-133.370	-137.137	0.034	-0.004
-132.356	19.844	-0.347	-0.276
-131.341	107.552	-0.168	0.198
-130.326	-85.039	-0.243	0.075
-129.312	800.000	-0.050	0.160
-128.297	-71.580	-0.407	0.150
-127.283	-122.335	0.317	-0.051
-126.268	-152.281	0.247	-0.018
-125.253	-200.000	0.007	0.153
-124.239	-161.756	0.190	-0.010
-123.224	-122.263	-0.544	-0.088
-122.210	210.268	0.152	0.235
-121.195	134.016	0.156	0.199
