DTS Sentinel unit serial number:	SN413079Multiplexer serial number:	ORYXHardware model number:	OX4-SRSoftware version number:	ORYX F/W v4.00 Oryx Data Collector v3.7.2.0data status	okinstallation	princeton_trtdifferential loss correction	single-endedforward channel	channel 1reverse channel	N/Adate	2019/09/15time	21:18:35forward acquisition time	60.00reverse acquisition time	0.00gamma	496.2192k internal	0.2329k external	0.2329temperature offset calibration	0.9959default loss term (dB/km)	0.3790temperature slope calibration	1.0000multiplexer offset coefficient	1.0000multiplexer slope coefficient	1.0000fibre end	0.00T internal ref (°C)	31.12T ext. ref 1 (°C)	8.21T ext. ref 2 (°C)	24.14length (m)	temperature (°C)	Stokes	anti-Stokes-747.200	2.607	-0.217	0.159
-746.185	437.560	-0.172	0.379
-745.171	-15.971	-0.220	-0.141
-744.156	-138.660	-0.365	-0.040
-743.142	-200.000	-0.051	0.408
-742.127	-20.559	0.161	0.099
-741.112	546.609	-0.172	0.414
-740.098	329.761	0.144	0.280
-739.083	-40.801	0.216	-0.113
-738.069	800.000	-0.138	0.431
-737.054	-107.908	0.391	-0.086
-736.039	42.595	-0.160	-0.147
-735.025	466.914	0.107	0.242
-734.010	-59.391	-0.202	0.087
-732.996	-200.000	0.059	-0.368
-731.981	660.286	-0.073	-0.191
-730.966	241.316	0.146	0.246
-729.952	-115.612	0.029	0.005
-728.937	356.370	0.062	0.124
-727.923	-34.199	-0.253	0.140
-726.908	-132.097	0.241	-0.032
-725.894	158.017	-0.242	-0.338
-724.879	6.671	-0.269	-0.202
-723.864	-85.157	0.203	0.064
-722.850	-200.000	-0.019	-0.205
-721.835	25.061	-0.156	0.130
-720.821	-181.420	0.250	0.005
-719.806	800.000	-0.129	-0.525
-718.791	121.863	0.075	0.094
-717.777	152.848	-0.238	0.327
-716.762	-95.248	-0.242	0.066
-715.748	-14.505	0.188	0.121
-714.733	-63.521	-0.249	-0.103
-713.718	-200.000	0.006	0.071
-712.704	624.188	-0.076	0.192
-711.689	-158.880	-0.193	0.011
-710.675	623.962	0.102	-0.258
-709.660	421.965	-0.090	-0.195
-708.645	8.632	0.039	-0.029
-707.631	556.634	-0.031	-0.076
-706.616	-200.000	-0.030	0.180
-705.602	-130.499	-0.222	0.030
-704.587	800.000	-0.034	0.144
-703.572	-179.506	-0.252	-0.006
-702.558	800.000	0.009	0.038
-701.543	45.507	0.025	-0.024
-700.529	800.000	-0.022	0.071
-699.514	-72.581	-0.177	0.066
-698.499	103.296	-0.252	-0.298
-697.485	102.938	0.107	-0.126
-696.470	-92.070	0.316	-0.090
-695.456	-54.992	-0.105	-0.048
-694.441	-158.106	0.152	0.009
-693.426	-200.000	0.018	-0.289
-692.412	-200.000	0.004	0.279
-691.397	14.134	0.326	-0.255
-690.383	800.000	0.058	0.183
-689.368	50.697	0.153	0.146
-688.354	-200.000	-0.002	0.019
-687.339	-151.928	-0.100	-0.007
-686.324	-64.962	-0.185	0.075
-685.310	277.131	-0.037	-0.065
-684.295	800.000	0.015	-0.062
-683.281	-200.000	0.030	-0.285
-682.266	99.985	0.220	-0.257
-681.251	-200.000	-0.015	-0.098
-680.237	-76.779	-0.242	-0.085
-679.222	800.000	-0.054	-0.175
-678.208	238.528	0.112	0.188
-677.193	165.157	0.053	0.075
-676.178	88.075	-0.066	0.074
-675.164	-200.000	-0.051	0.406
-674.149	-200.000	-0.185	-0.000
-673.135	800.000	0.061	-0.205
-672.120	800.000	0.059	0.194
-671.105	405.185	-0.121	0.256
-670.091	-101.627	-0.122	-0.030
-669.076	-72.761	-0.369	-0.136
-668.062	-200.000	0.010	-0.163
-667.047	75.790	0.227	0.241
-666.032	164.841	-0.113	-0.160
-665.018	-5.277	-0.032	0.022
-664.003	-200.000	-0.000	0.048
-662.989	8.432	0.089	0.067
-661.974	-109.076	-0.184	-0.039
-660.959	-37.704	0.215	0.115
-659.945	-200.000	-0.002	0.051
-658.930	416.958	-0.093	0.199
-657.916	-122.045	-0.184	0.030
-656.901	-111.974	-0.216	-0.044
-655.886	24.305	-0.099	0.082
-654.872	-123.771	0.187	0.030
-653.857	-157.513	-0.289	0.017
-652.843	-200.000	0.062	-0.393
-651.828	-200.000	0.018	-0.084
-650.814	400.367	-0.099	0.207
-649.799	-103.142	-0.257	0.061
-648.784	498.301	0.018	-0.041
-647.770	-200.000	0.025	-0.261
-646.755	-20.911	0.284	-0.174
-645.741	310.443	-0.110	0.206
-644.726	-100.433	0.055	0.014
-643.711	697.022	-0.078	0.206
-642.697	22.606	-0.148	-0.121
-641.682	9.822	0.130	0.099
-640.668	94.877	-0.215	-0.245
-639.653	41.275	0.079	0.072
-638.638	-51.362	0.153	0.072
-637.624	-119.128	0.127	-0.022
-636.609	28.430	-0.060	-0.051
-635.595	-23.877	-0.106	0.064
-634.580	800.000	0.159	0.590
-633.565	-54.664	-0.259	-0.118
-632.551	800.000	-0.010	-0.042
-631.536	18.653	-0.120	-0.097
-630.522	270.179	0.130	-0.229
-629.507	58.212	0.050	0.049
-628.492	-77.537	0.257	-0.090
-627.478	-78.329	-0.111	-0.038
-626.463	-116.494	-0.224	0.041
-625.449	22.729	0.296	-0.243
-624.434	-38.714	0.314	-0.166
-623.419	116.999	-0.139	0.172
-622.405	74.020	-0.191	-0.201
-621.390	-108.138	0.112	-0.024
-620.376	27.566	0.143	0.121
-619.361	-108.509	-0.217	0.047
-618.346	800.000	0.174	0.485
-617.332	-145.682	0.236	-0.021
-616.317	-166.071	-0.155	0.007
-615.303	-102.785	-0.097	0.023
-614.288	328.175	0.062	-0.119
-613.273	-200.000	-0.070	-0.379
-612.259	227.812	0.130	-0.213
-611.244	-84.289	-0.148	-0.047
-610.230	-129.283	0.198	0.028
-609.215	-126.743	-0.170	0.025
-608.201	-16.145	-0.252	-0.161
-607.186	-5.509	0.294	0.202
-606.171	-109.198	0.408	-0.087
-605.157	-44.879	0.047	0.023
-604.142	77.632	-0.283	0.301
-603.128	-127.734	0.198	-0.029
-602.113	800.000	0.129	0.411
-601.098	-185.926	-0.167	-0.002
-600.084	-200.000	-0.003	-0.222
-599.069	0.854	-0.111	-0.080
-598.055	-24.483	-0.195	-0.116
-597.040	-200.000	0.027	0.242
-596.025	178.853	-0.126	-0.185
-595.011	-182.215	0.465	-0.009
-593.996	257.773	-0.024	0.042
-592.982	-196.061	-0.247	-0.002
-591.967	-111.674	0.227	0.046
-590.952	-88.493	-0.359	-0.107
-589.938	-200.000	0.021	0.155
-588.923	257.338	0.133	0.229
-587.909	68.353	0.113	-0.116
-586.894	-58.419	-0.278	0.121
-585.879	-200.000	0.004	-0.051
-584.865	-151.843	0.130	0.010
-583.850	193.939	0.120	-0.183
-582.836	-155.868	-0.282	0.018
-581.821	122.857	-0.303	0.380
-580.806	74.597	-0.094	0.099
-579.792	-200.000	-0.069	-0.340
-578.777	-11.941	0.060	-0.039
-577.763	508.840	0.087	-0.203
-576.748	524.763	-0.089	-0.211
-575.733	800.000	0.061	-0.228
-574.719	-91.809	-0.176	0.050
-573.704	-95.073	-0.248	-0.067
-572.690	372.687	-0.023	0.048
-571.675	102.687	-0.226	0.265
-570.661	800.000	-0.028	0.088
-569.646	343.027	-0.026	0.052
-568.631	-68.475	0.131	0.051
-567.617	-103.471	0.234	0.055
-566.602	-12.585	0.196	0.128
-565.588	-77.824	0.086	0.030
-564.573	118.538	0.092	0.113
-563.558	800.000	0.062	0.199
-562.544	800.000	-0.037	0.107
-561.529	-113.317	0.209	-0.041
-560.515	-200.000	-0.025	0.233
-559.500	-93.830	0.281	-0.077
-558.485	800.000	-0.055	-0.179
-557.471	800.000	0.083	-0.242
-556.456	21.885	-0.267	-0.218
-555.442	355.951	-0.056	-0.111
-554.427	735.263	-0.127	-0.339
-553.412	-10.107	-0.072	-0.048
-552.398	-96.795	0.247	0.065
-551.383	-74.178	-0.291	0.105
-550.369	-39.946	-0.213	-0.111
-549.354	521.598	-0.097	0.227
-548.339	706.680	-0.020	0.054
-547.325	67.874	-0.200	-0.205
-546.310	-0.838	0.142	-0.101
-545.296	-200.000	-0.033	0.162
-544.281	-200.000	-0.028	-0.149
-543.266	-86.548	0.145	0.045
-542.252	246.314	0.120	0.203
-541.237	112.830	0.048	-0.059
-540.223	-77.720	0.196	0.068
-539.208	-26.499	-0.225	0.132
-538.193	-200.000	-0.011	-0.392
-537.179	59.469	-0.069	-0.068
-536.164	800.000	0.025	0.105
-535.150	-200.000	-0.010	-0.106
-534.135	-48.599	-0.167	0.080
-533.121	-200.000	0.066	-0.312
-532.106	719.769	-0.062	-0.165
-531.091	241.146	0.076	0.127
-530.077	128.798	-0.141	-0.180
-529.062	379.667	0.166	-0.340
-528.048	-83.990	0.032	0.010
-527.033	-200.000	0.009	-0.146
-526.018	-200.000	-0.000	0.084
-525.004	44.960	-0.171	0.158
-523.989	9.247	-0.081	-0.061
-522.975	-200.000	0.042	-0.219
-521.960	7.488	-0.255	0.190
-520.945	-98.434	-0.279	-0.071
-519.931	-13.538	0.090	-0.058
-518.916	623.345	0.072	-0.180
-517.902	134.480	0.300	-0.388
-516.887	-200.000	0.038	0.212
-515.872	800.000	-0.114	0.406
-514.858	519.053	0.159	0.372
-513.843	305.390	0.100	0.186
-512.829	-108.189	0.177	-0.038
-511.814	-102.475	-0.273	0.065
-510.799	188.005	-0.071	-0.106
-509.785	8.142	-0.068	-0.051
-508.770	37.025	0.273	0.241
-507.756	-200.000	-0.011	-0.204
-506.741	3.659	0.351	0.256
-505.726	-188.498	-0.319	-0.004
-504.712	54.675	-0.111	-0.106
-503.697	-60.518	0.216	0.091
-502.683	-67.084	0.178	0.070
-501.668	-200.000	-0.018	-0.156
-500.653	-127.299	0.332	0.048
-499.639	-106.509	-0.377	0.084
-498.624	214.418	-0.017	0.026
-497.610	129.611	0.220	0.281
-496.595	87.523	0.173	-0.191
-495.581	-200.000	-0.017	-0.296
-494.566	301.282	-0.121	-0.223
-493.551	-66.880	-0.313	0.123
-492.537	-12.791	0.332	-0.216
-491.522	-200.000	0.008	-0.083
-490.508	-50.623	-0.436	-0.205
-489.493	170.302	0.033	0.047
-488.478	-94.796	0.570	0.154
-487.464	800.000	-0.024	0.092
-486.449	-99.656	-0.186	0.047
-485.435	579.095	0.141	-0.345
-484.420	-200.000	-0.062	0.293
-483.405	-200.000	0.078	0.402
-482.391	-39.920	-0.397	-0.207
-481.376	619.274	-0.091	0.228
-480.362	-16.117	0.437	-0.277
-479.347	800.000	0.025	-0.084
-478.332	-200.000	0.019	-0.194
-477.318	216.754	0.185	0.294
-476.303	-200.000	-0.032	0.223
-475.289	347.576	0.070	-0.138
-474.274	82.922	-0.072	-0.079
-473.259	61.289	-0.222	-0.220
-472.245	800.000	-0.143	-0.423
-471.230	718.029	-0.113	-0.298
-470.216	12.165	-0.105	-0.081
-469.201	138.076	0.201	0.262
-468.186	19.583	-0.215	0.172
-467.172	-99.880	0.117	0.029
-466.157	590.830	-0.166	0.407
-465.143	52.016	0.136	0.129
-464.128	-193.710	-0.481	-0.004
-463.113	670.221	0.051	-0.131
-462.099	349.688	-0.145	-0.286
-461.084	625.840	-0.101	-0.254
-460.070	-11.821	0.199	0.130
-459.055	-41.534	0.226	-0.116
-458.040	-60.521	0.218	0.092
-457.026	109.843	0.098	0.117
-456.011	800.000	0.124	0.505
-454.997	121.032	-0.264	0.327
-453.982	103.321	0.189	-0.221
-452.968	193.316	0.164	0.246
-451.953	-113.963	-0.365	0.071
-450.938	404.523	0.083	-0.174
-449.924	-200.000	0.033	-0.193
-448.909	8.992	-0.442	-0.332
-447.895	59.157	-0.200	0.196
-446.880	-5.417	-0.206	0.141
-445.865	-200.000	-0.071	-0.354
-444.851	-56.473	0.268	-0.118
-443.836	800.000	-0.068	-0.221
-442.822	-102.656	0.074	0.018
-441.807	-81.922	0.198	0.064
-440.792	16.597	0.094	0.074
-439.778	-200.000	0.004	-0.094
-438.763	-200.000	0.007	-0.209
-437.749	17.943	-0.143	-0.113
-436.734	20.110	-0.171	0.137
-435.719	-200.000	-0.029	0.133
-434.705	696.301	0.140	-0.366
-433.690	-200.000	-0.018	0.156
-432.676	-114.144	-0.221	0.042
-431.661	-46.621	0.202	0.098
-430.646	-28.504	0.452	-0.259
-429.632	-22.442	0.152	-0.091
-428.617	-76.137	-0.337	0.118
-427.603	800.000	-0.053	0.167
-426.588	-31.214	0.292	-0.164
-425.573	794.837	-0.052	0.141
-424.559	-100.773	-0.246	-0.060
-423.544	-23.932	-0.075	-0.045
-422.530	-200.000	0.014	-0.138
-421.515	-168.661	0.265	-0.010
-420.500	-71.270	0.207	-0.077
-419.486	120.403	-0.161	0.199
-418.471	64.599	0.197	-0.198
-417.457	-71.632	0.118	0.044
-416.442	796.269	0.070	-0.191
-415.428	-200.000	0.013	0.073
-414.413	40.415	0.139	-0.125
-413.398	-100.764	0.104	0.025
-412.384	409.483	0.149	-0.314
-411.369	-121.702	0.046	0.008
-410.355	-32.392	0.138	0.076
-409.340	800.000	0.105	0.305
-408.325	-33.064	0.118	0.065
-407.311	105.565	-0.168	0.197
-406.296	7.710	-0.184	-0.137
-405.282	-102.200	-0.465	-0.111
-404.267	29.072	0.183	0.155
-403.252	-200.000	-0.011	0.071
-402.238	57.876	-0.067	-0.065
-401.223	800.000	0.024	0.094
-400.209	800.000	0.020	0.066
-399.194	-152.506	-0.363	-0.026
-398.179	800.000	0.120	-0.482
-397.165	800.000	0.058	0.203
-396.150	-89.535	-0.322	0.094
-395.136	-200.000	-0.003	0.221
-394.121	800.000	-0.062	-0.170
-393.106	128.951	-0.189	-0.240
-392.092	800.000	-0.050	-0.143
-391.077	74.375	0.034	0.035
-390.063	-2.991	0.185	0.129
-389.048	47.220	-0.310	0.287
-388.033	800.000	0.071	-0.211
-387.019	-119.572	0.175	-0.030
-386.004	-55.125	0.062	0.028
-384.990	-200.000	-0.051	0.247
-383.975	99.252	-0.148	-0.170
-382.960	121.270	0.212	0.262
-381.946	800.000	0.080	0.337
-380.931	-41.439	-0.321	-0.164
-379.917	-6.695	0.179	-0.121
-378.902	73.147	-0.066	-0.068
-377.888	148.139	-0.128	0.172
-376.873	-88.474	-0.265	0.078
-375.858	64.749	0.143	-0.144
-374.844	-174.053	0.180	-0.005
-373.829	41.654	0.053	0.047
-372.815	40.227	-0.230	-0.205
-371.800	800.000	0.029	-0.126
-370.785	186.171	0.078	0.115
-369.771	34.459	0.078	0.067
-368.756	-100.919	-0.230	0.056
-367.742	-200.000	-0.003	0.319
-366.727	139.632	-0.205	0.268
-365.712	800.000	0.127	0.370
-364.698	64.762	0.107	0.107
-363.683	-101.820	0.037	0.009
-362.669	187.181	-0.187	0.276
-361.654	-146.464	-0.287	0.025
-360.639	-60.168	0.403	-0.171
-359.625	24.079	0.040	0.033
-358.610	-48.023	-0.266	-0.128
-357.596	58.336	0.262	0.255
-356.581	-164.394	-0.084	0.004
-355.566	195.381	-0.095	0.143
-354.552	-67.201	0.458	-0.179
-353.537	-173.658	-0.329	-0.010
-352.523	165.074	0.067	0.094
-351.508	800.000	-0.160	0.500
-350.493	800.000	0.117	0.322
-349.479	800.000	-0.122	0.390
-348.464	-58.964	-0.328	-0.141
-347.450	718.122	0.084	0.222
-346.435	148.123	0.190	0.255
-345.420	79.896	0.175	0.186
-344.406	-37.716	0.070	0.037
-343.391	-200.000	-0.047	-0.285
-342.377	-51.919	0.105	-0.048
-341.362	74.834	-0.048	0.050
-340.348	21.835	-0.192	-0.155
-339.333	800.000	-0.101	0.377
-338.318	326.577	-0.187	0.356
-337.304	38.818	-0.109	-0.097
-336.289	97.894	0.306	-0.349
-335.275	328.601	-0.135	-0.258
-334.260	-121.670	-0.095	0.016
-333.245	-200.000	0.007	0.130
-332.231	-146.715	0.318	0.027
-331.216	-49.690	-0.136	0.064
-330.202	-200.000	-0.028	-0.199
-329.187	-150.714	0.203	0.015
-328.172	106.508	0.080	0.094
-327.158	-78.995	0.247	0.083
-326.143	-59.704	0.482	0.205
-325.129	55.087	-0.102	-0.098
-324.114	-133.684	-0.076	-0.009
-323.099	744.926	-0.115	-0.307
-322.085	-200.000	0.052	-0.376
-321.070	100.640	0.172	-0.198
-320.056	69.961	-0.295	-0.301
-319.041	23.116	-0.336	0.274
-318.026	168.812	0.069	0.098
-317.012	470.371	-0.082	0.182
-315.997	-200.000	-0.026	0.294
-314.983	206.188	0.117	0.181
-313.968	-60.758	-0.367	0.154
-312.953	54.167	0.365	0.348
-311.939	-19.704	0.149	-0.091
-310.924	122.201	0.179	0.221
-309.910	800.000	0.071	0.201
-308.895	-102.900	0.244	0.057
-307.880	244.433	0.081	0.135
-306.866	-44.958	0.265	0.130
-305.851	-146.618	-0.163	-0.014
-304.837	800.000	-0.022	-0.070
-303.822	-136.186	-0.310	-0.036
-302.807	441.214	-0.204	0.442
-301.793	193.248	0.074	-0.111
-300.778	250.756	0.158	-0.265
-299.764	-200.000	0.012	0.150
-298.749	800.000	0.032	-0.123
-297.735	-5.300	0.106	-0.072
-296.720	207.312	0.098	-0.152
-295.705	-200.000	0.022	-0.111
-294.691	-36.572	0.040	0.021
-293.676	-103.028	0.338	-0.079
-292.662	712.942	-0.088	-0.231
-291.647	8.052	0.292	0.217
-290.632	-81.210	0.237	0.077
-289.618	-200.000	-0.029	-0.137
-288.603	-106.376	0.227	0.050
-287.589	-121.048	0.392	0.065
-286.574	148.325	0.141	0.188
-285.559	-163.620	-0.509	-0.024
-284.545	347.188	0.108	0.210
-283.530	571.747	-0.066	0.160
-282.516	245.819	-0.080	-0.133
-281.501	94.257	0.058	-0.065
-280.486	98.723	0.113	0.129
-279.472	-84.194	-0.260	0.082
-278.457	-16.495	0.122	-0.076
-277.443	-200.000	-0.017	-0.235
-276.428	-117.345	-0.350	-0.063
-275.413	424.297	0.070	-0.149
-274.399	-58.708	-0.146	0.062
-273.384	800.000	-0.062	-0.194
-272.370	-2.915	-0.181	-0.125
-271.355	-129.095	0.175	-0.024
-270.340	106.451	0.191	0.224
-269.326	-200.000	-0.019	0.186
-268.311	800.000	-0.057	0.222
-267.297	-152.791	0.255	0.018
-266.282	176.690	0.140	-0.201
-265.267	-149.058	0.202	-0.016
-264.253	250.048	-0.167	0.280
-263.238	74.224	-0.261	-0.271
-262.224	-75.721	0.244	-0.086
-261.209	12.547	-0.145	0.110
-260.195	-114.382	0.187	0.035
-259.180	36.847	0.235	-0.206
-258.165	154.242	0.088	0.120
-257.151	9.465	-0.094	-0.070
-256.136	-29.723	0.127	0.072
-255.122	6.520	0.079	0.058
-254.107	-93.830	-0.309	0.084
-253.092	-200.000	-0.008	-0.178
-252.078	-200.000	-0.062	-0.341
-251.063	228.527	-0.107	-0.173
-250.049	-90.745	0.228	-0.065
-249.034	-29.468	0.143	-0.081
-248.019	608.211	0.093	-0.229
-247.005	38.899	-0.122	0.108
-245.990	-200.000	-0.068	0.302
-244.976	116.939	-0.174	-0.211
-243.961	21.938	0.191	-0.154
-242.946	10.413	0.149	0.112
-241.932	-200.000	0.041	0.317
-240.917	-200.000	0.175	0.000
-239.903	330.365	-0.048	0.091
-238.888	-8.984	-0.270	0.178
-237.873	68.209	-0.049	-0.049
-236.859	-121.002	0.193	-0.032
-235.844	-34.822	0.099	-0.053
-234.830	-52.834	0.301	0.137
-233.815	-200.000	0.000	-0.225
-232.800	-77.930	0.134	-0.046
-231.786	158.720	0.264	-0.362
-230.771	-200.000	-0.410	-0.001
-229.757	-39.529	0.058	-0.030
-228.742	-115.393	0.225	-0.042
-227.727	62.152	0.207	-0.204
-226.713	-39.738	-0.165	0.085
-225.698	68.238	-0.071	0.072
-224.684	199.685	-0.081	-0.122
-223.669	-3.711	-0.116	0.080
-222.655	-200.000	-0.014	0.105
-221.640	-133.034	-0.213	0.027
-220.625	52.476	-0.154	-0.145
-219.611	800.000	-0.123	-0.385
-218.596	-200.000	-0.002	-0.069
-217.582	800.000	0.055	-0.190
-216.567	-200.000	-0.033	-0.357
-215.552	-38.849	-0.205	-0.107
-214.538	-155.473	-0.378	-0.024
-213.523	-141.530	-0.261	0.026
-212.509	38.688	0.194	0.170
-211.494	-70.958	-0.235	0.087
-210.479	-86.740	0.381	-0.115
-209.465	-78.174	0.058	0.020
-208.450	235.139	0.037	-0.060
-207.436	556.044	0.048	-0.114
-206.421	317.879	0.059	-0.110
-205.406	-93.306	0.381	0.104
-204.392	-190.227	-0.553	0.006
-203.377	-101.457	-0.372	-0.089
-202.363	800.000	-0.027	-0.115
-201.348	178.809	-0.066	-0.096
-200.333	346.626	-0.179	0.348
-199.319	-81.503	-0.089	0.029
-198.304	64.333	-0.103	0.102
-197.290	59.532	0.174	0.169
-196.275	-116.301	-0.043	-0.008
-195.260	573.680	-0.106	-0.255
-194.246	70.686	-0.103	-0.105
-193.231	-200.000	-0.229	-0.001
-192.217	183.619	-0.112	0.163
-191.202	-20.207	-0.087	-0.053
-190.187	113.087	-0.138	0.166
-189.173	92.480	0.106	-0.118
-188.158	-140.658	0.213	0.022
-187.144	-26.486	0.402	0.232
-186.129	284.594	-0.057	0.100
-185.114	-200.000	-0.004	-0.050
-184.100	540.459	-0.252	0.591
-183.085	-192.232	0.273	0.003
-182.071	410.500	0.103	-0.216
-181.056	222.920	0.148	0.235
-180.042	152.941	0.081	-0.109
-179.027	-107.072	-0.200	0.044
-178.012	470.633	-0.076	-0.169
-176.998	800.000	-0.141	-0.426
-175.983	-57.054	-0.202	-0.088
-174.969	-85.756	0.348	0.106
-173.954	-200.000	-0.071	-0.321
-172.939	-9.675	0.221	-0.145
-171.925	800.000	-0.137	-0.481
-170.910	326.549	-0.258	-0.488
-169.896	34.170	0.066	0.057
-168.881	-5.656	-0.087	0.058
-167.866	800.000	-0.006	-0.022
-166.852	2.484	-0.160	-0.114
-165.837	-200.000	0.013	0.085
-164.823	254.636	-0.130	0.220
-163.808	59.025	0.123	0.119
-162.793	-200.000	-0.058	0.369
-161.779	38.402	-0.165	-0.144
-160.764	-200.000	0.002	-0.064
-159.750	-48.447	0.467	0.221
-158.735	128.146	-0.112	0.141
-157.720	800.000	0.045	0.147
-156.706	-83.229	0.040	-0.013
-155.691	-54.941	0.313	0.139
-154.677	698.805	-0.134	-0.348
-153.662	800.000	0.022	-0.084
-152.647	-32.890	-0.271	0.148
-151.633	23.741	-0.128	0.104
-150.618	-120.077	0.106	-0.018
-149.604	-1.889	-0.217	-0.150
-148.589	-9.045	0.161	-0.106
-147.574	-18.803	-0.184	-0.113
-146.560	-74.239	-0.281	0.100
-145.545	64.886	-0.112	-0.112
-144.531	178.952	-0.069	0.100
-143.516	38.503	0.130	0.114
-142.502	-173.331	-0.274	0.008
-141.487	11.366	-0.033	0.025
-140.472	-7.367	-0.199	0.132
-139.458	615.274	-0.121	0.299
-138.443	-200.000	-0.009	0.114
-137.429	800.000	-0.035	0.120
-136.414	170.751	0.075	0.105
-135.399	-91.277	-0.105	0.029
-134.385	-140.341	0.490	0.050
-133.370	1.342	0.065	0.046
-132.356	-33.446	0.154	0.084
-131.341	-139.645	0.195	-0.020
-130.326	638.781	0.061	0.154
-129.312	-95.709	0.186	-0.049
-128.297	485.766	0.063	0.141
-127.283	-200.000	0.022	-0.106
-126.268	-117.005	0.153	0.027
-125.253	-15.596	-0.070	-0.044
-124.239	-191.490	0.191	-0.002
-123.224	-124.035	-0.271	-0.042
-122.210	-87.252	0.228	-0.068
-121.195	175.745	-0.067	0.096
-120.180	160.048	0.105	-0.144
