DTS Sentinel unit serial number:	SN413079Multiplexer serial number:	ORYXHardware model number:	OX4-SRSoftware version number:	ORYX F/W v4.00 Oryx Data Collector v3.7.2.0data status	okinstallation	princeton_trtdifferential loss correction	single-endedforward channel	channel 1reverse channel	N/Adate	2019/09/12time	05:36:11forward acquisition time	60.00reverse acquisition time	0.00gamma	496.2192k internal	0.2321k external	0.2321temperature offset calibration	1.0048default loss term (dB/km)	0.3790temperature slope calibration	1.0000multiplexer offset coefficient	1.0000multiplexer slope coefficient	1.0000fibre end	0.00T internal ref (°C)	31.97T ext. ref 1 (°C)	1.60T ext. ref 2 (°C)	27.51length (m)	temperature (°C)	Stokes	anti-Stokes-747.200	-106.207	0.078	0.018
-746.185	-194.907	-0.350	-0.003
-745.171	-200.000	-0.011	-0.060
-744.156	169.143	-0.268	0.387
-743.142	-28.978	0.385	0.223
-742.127	800.000	-0.073	0.271
-741.112	800.000	-0.037	-0.151
-740.098	194.434	-0.249	0.382
-739.083	17.746	0.080	0.064
-738.069	235.305	-0.052	0.087
-737.054	-200.000	0.013	-0.313
-736.039	222.079	0.040	0.064
-735.025	-200.000	0.036	0.298
-734.010	800.000	-0.074	0.265
-732.996	-64.462	-0.169	0.069
-731.981	-200.000	0.012	-0.093
-730.966	171.794	-0.060	-0.087
-729.952	-154.171	0.172	-0.012
-728.937	35.127	0.067	0.059
-727.923	800.000	-0.059	-0.200
-726.908	214.589	-0.100	-0.160
-725.894	-200.000	0.000	0.290
-724.879	47.243	-0.445	0.418
-723.864	-172.508	-0.201	-0.006
-722.850	7.152	-0.216	-0.163
-721.835	-28.632	-0.273	-0.159
-720.821	132.369	-0.191	0.249
-719.806	-87.925	-0.376	-0.114
-718.791	-157.231	-0.133	-0.008
-717.777	-200.000	0.027	0.138
-716.762	294.612	0.093	0.172
-715.748	205.395	0.071	0.112
-714.733	-97.509	0.067	-0.017
-713.718	347.481	-0.064	0.127
-712.704	-62.174	0.227	0.095
-711.689	180.770	0.121	-0.179
-710.675	-39.229	-0.484	-0.256
-709.660	-104.886	-0.078	-0.018
-708.645	-200.000	-0.004	0.207
-707.631	-81.008	-0.071	-0.024
-706.616	800.000	-0.086	0.280
-705.602	-200.000	0.034	0.155
-704.587	800.000	0.007	-0.020
-703.572	-87.820	-0.107	-0.033
-702.558	-200.000	-0.008	0.175
-701.543	-146.715	-0.333	0.029
-700.529	-200.000	-0.035	-0.339
-699.514	-200.000	-0.013	-0.071
-698.499	-38.351	-0.032	-0.017
-697.485	-200.000	0.033	-0.155
-696.470	347.783	-0.136	-0.271
-695.456	-1.022	-0.154	-0.110
-694.441	471.724	-0.080	0.182
-693.426	-200.000	-0.080	-0.386
-692.412	438.545	-0.078	-0.172
-691.397	54.423	0.156	-0.151
-690.383	93.416	-0.038	-0.043
-689.368	113.132	0.137	-0.167
-688.354	330.486	0.098	-0.191
-687.339	286.809	-0.068	-0.125
-686.324	4.528	0.242	0.179
-685.310	33.975	0.153	0.134
-684.295	800.000	-0.030	-0.112
-683.281	-125.531	0.215	-0.033
-682.266	-106.056	-0.107	0.024
-681.251	-187.273	-0.213	0.003
-680.237	277.720	-0.023	-0.040
-679.222	499.245	-0.013	-0.031
-678.208	-80.306	-0.429	0.145
-677.193	149.897	0.031	0.043
-676.178	800.000	-0.057	-0.247
-675.164	-99.619	0.333	-0.084
-674.149	-45.111	0.278	-0.140
-673.135	-200.000	0.052	-0.404
-672.120	-200.000	0.059	-0.409
-671.105	-173.246	-0.302	0.009
-670.091	-74.766	-0.241	-0.087
-669.076	-200.000	-0.030	0.156
-668.062	569.281	0.030	-0.074
-667.047	-48.501	-0.354	-0.172
-666.032	-159.199	0.406	0.023
-665.018	-200.000	-0.034	-0.215
-664.003	-7.754	-0.076	-0.052
-662.989	-113.818	-0.035	0.007
-661.974	-7.164	0.444	0.304
-660.959	-200.000	0.001	0.126
-659.945	-200.000	0.020	-0.115
-658.930	-26.766	-0.248	-0.146
-657.916	785.742	-0.024	-0.068
-656.901	-52.522	0.168	0.078
-655.886	6.352	-0.031	-0.023
-654.872	78.506	-0.099	0.107
-653.857	800.000	-0.032	0.103
-652.843	-0.469	0.298	-0.213
-651.828	179.161	-0.208	-0.306
-650.814	-200.000	0.027	-0.189
-649.799	-79.389	0.142	-0.049
-648.784	54.597	-0.266	-0.258
-647.770	800.000	-0.058	0.253
-646.755	-13.739	-0.219	0.143
-645.741	800.000	-0.009	-0.027
-644.726	438.437	0.186	0.409
-643.711	516.942	0.105	0.248
-642.697	131.873	0.164	-0.213
-641.682	19.280	-0.197	-0.159
-640.668	800.000	0.048	-0.162
-639.653	710.985	0.022	0.059
-638.638	5.882	-0.285	0.213
-637.624	70.039	-0.199	-0.206
-636.609	-200.000	0.079	-0.434
-635.595	71.273	-0.078	0.082
-634.580	311.182	-0.046	-0.087
-633.565	27.337	0.066	-0.055
-632.551	190.459	-0.171	-0.259
-631.536	-200.000	0.013	0.099
-630.522	216.790	0.090	0.144
-629.507	-126.954	0.421	0.062
-628.492	568.202	0.089	0.217
-627.478	-15.848	-0.213	0.136
-626.463	-173.310	0.134	0.004
-625.449	-200.000	-0.030	-0.526
-624.434	-94.984	-0.127	-0.035
-623.419	67.857	0.188	0.194
-622.405	-104.499	0.048	-0.011
-621.390	314.585	0.041	-0.078
-620.376	125.906	-0.120	0.152
-619.361	18.428	-0.068	0.055
-618.346	418.759	-0.071	0.152
-617.332	20.361	-0.333	-0.270
-616.317	-148.914	0.332	-0.027
-615.303	-3.299	0.282	-0.198
-614.288	263.798	0.126	-0.221
-613.273	-17.240	0.346	0.219
-612.259	800.000	-0.050	-0.154
-611.244	-129.211	-0.061	-0.009
-610.230	-124.752	-0.430	0.067
-609.215	115.538	0.151	-0.186
-608.201	156.316	0.151	0.209
-607.186	800.000	0.051	0.211
-606.171	114.696	-0.084	0.102
-605.157	59.507	0.078	0.078
-604.142	14.752	0.173	0.136
-603.128	-95.614	-0.262	-0.070
-602.113	-150.831	-0.209	-0.016
-601.098	-200.000	0.006	-0.089
-600.084	800.000	0.131	-0.415
-599.069	-200.000	-0.077	0.511
-598.055	-90.702	0.150	-0.044
-597.040	255.150	0.118	-0.204
-596.025	219.670	-0.075	0.121
-595.011	-166.791	-0.185	-0.008
-593.996	506.079	-0.116	-0.270
-592.982	-200.000	0.005	0.337
-591.967	263.942	-0.063	-0.110
-590.952	502.503	0.194	-0.451
-589.938	29.194	-0.012	-0.010
-588.923	-54.016	-0.102	-0.046
-587.909	800.000	0.038	0.131
-586.894	55.531	0.153	-0.148
-585.879	534.633	0.032	-0.076
-584.865	800.000	-0.037	0.146
-583.850	-40.333	0.292	-0.153
-582.836	359.666	-0.054	0.109
-581.821	102.703	-0.079	0.092
-580.806	281.553	-0.043	0.077
-579.792	-82.615	0.262	-0.085
-578.777	800.000	-0.070	-0.210
-577.763	38.753	0.265	-0.237
-576.748	217.969	0.121	0.195
-575.733	800.000	-0.105	-0.313
-574.719	50.953	-0.079	0.075
-573.704	-1.675	-0.377	0.266
-572.690	800.000	0.130	0.425
-571.675	329.324	0.063	0.122
-570.661	-126.957	-0.206	-0.030
-569.646	391.058	0.121	0.252
-568.631	-156.987	0.164	-0.010
-567.617	-175.750	-0.240	0.006
-566.602	-200.000	0.004	0.339
-565.588	185.538	0.066	0.098
-564.573	-67.974	-0.400	-0.157
-563.558	-200.000	-0.038	-0.253
-562.544	303.447	-0.041	0.076
-561.529	-200.000	-0.004	-0.043
-560.515	-111.143	-0.101	-0.021
-559.500	-1.414	-0.232	-0.164
-558.485	60.377	-0.101	0.100
-557.471	-200.000	-0.006	-0.122
-556.456	-146.170	-0.322	0.028
-555.442	-66.436	0.129	0.051
-554.427	25.037	-0.115	0.096
-553.412	243.621	0.115	0.193
-552.398	-31.421	-0.102	-0.058
-551.383	726.636	-0.091	0.243
-550.369	800.000	-0.077	-0.217
-549.354	-162.872	0.321	0.016
-548.339	800.000	-0.082	-0.302
-547.325	-97.827	0.206	-0.053
-546.310	-140.107	-0.187	-0.020
-545.296	-23.576	0.427	-0.257
-544.281	-30.789	0.184	-0.104
-543.266	108.706	-0.071	0.085
-542.252	-128.125	0.187	0.027
-541.237	664.849	0.062	0.161
-540.223	800.000	0.058	-0.199
-539.208	258.000	-0.118	-0.203
-538.193	-200.000	0.012	-0.287
-537.179	9.222	-0.062	-0.047
-536.164	-8.424	-0.093	0.063
-535.150	-116.265	-0.350	0.065
-534.135	31.231	-0.422	-0.363
-533.121	-15.702	0.146	0.093
-532.106	-104.655	0.324	-0.075
-531.091	-200.000	0.000	0.259
-530.077	-144.203	0.357	0.033
-529.062	63.143	0.298	-0.300
-528.048	192.638	0.076	0.114
-527.033	-41.060	0.118	0.061
-526.018	190.305	0.155	0.233
-525.004	-123.403	-0.382	0.061
-523.989	-162.735	0.058	0.003
-522.975	183.492	0.128	-0.190
-521.960	187.946	-0.182	-0.273
-520.945	-33.296	-0.328	0.182
-519.931	431.011	-0.105	-0.227
-518.916	746.526	0.078	0.210
-517.902	25.067	0.201	0.167
-516.887	48.705	-0.074	-0.070
-515.872	-63.445	0.173	-0.071
-514.858	107.299	-0.130	0.155
-513.843	800.000	-0.010	-0.036
-512.829	-200.000	-0.022	-0.120
-511.814	-200.000	-0.032	-0.485
-510.799	-122.286	-0.248	-0.041
-509.785	-39.989	-0.134	0.070
-508.770	800.000	0.051	-0.140
-507.756	366.833	0.171	-0.345
-506.741	800.000	-0.027	-0.117
-505.726	-42.141	0.083	0.042
-504.712	-4.485	0.082	-0.057
-503.697	-45.979	-0.339	0.167
-502.683	44.925	0.047	-0.043
-501.668	-200.000	0.008	-0.136
-500.653	12.045	-0.034	0.026
-499.639	-156.757	0.045	-0.003
-498.624	3.872	-0.068	0.049
-497.610	-200.000	-0.034	0.191
-496.595	310.116	-0.120	-0.224
-495.581	206.222	-0.127	-0.198
-494.566	-134.369	0.372	-0.046
-493.551	-200.000	-0.314	0.000
-492.537	800.000	0.032	0.110
-491.522	-200.000	0.020	-0.266
-490.508	-47.435	-0.061	-0.030
-489.493	26.652	-0.132	0.111
-488.478	117.638	-0.025	-0.031
-487.464	-49.428	-0.258	-0.123
-486.449	58.216	-0.124	0.122
-485.435	-5.524	-0.124	0.085
-484.420	-200.000	-0.014	0.081
-483.405	-102.370	-0.142	-0.034
-482.391	-65.951	0.051	-0.020
-481.376	-33.297	0.053	0.029
-480.362	-10.036	0.066	0.044
-479.347	33.849	-0.094	-0.082
-478.332	800.000	-0.019	0.057
-477.318	-108.867	-0.185	-0.040
-476.303	-138.270	0.246	-0.027
-475.289	-200.000	0.019	0.178
-474.274	-123.049	-0.427	-0.069
-473.259	-173.292	0.043	-0.001
-472.245	-122.518	0.134	0.022
-471.230	-104.561	-0.302	-0.070
-470.216	132.582	-0.012	0.015
-469.201	-52.996	-0.262	0.121
-468.186	6.540	-0.193	-0.144
-467.172	275.144	0.056	-0.098
-466.157	-47.915	0.168	-0.081
-465.143	-200.000	-0.001	0.076
-464.128	-200.000	0.001	-0.104
-463.113	-200.000	-0.012	0.061
-462.099	-200.000	0.025	0.237
-461.084	65.294	0.106	-0.108
-460.070	-44.643	-0.107	-0.054
-459.055	-200.000	-0.001	0.128
-458.040	-5.585	0.155	0.106
-457.026	-116.727	0.268	0.049
-456.011	-33.202	0.031	-0.017
-454.997	-93.514	-0.106	0.029
-453.982	249.195	-0.172	0.292
-452.968	42.553	-0.138	-0.125
-451.953	-124.824	-0.457	-0.071
-450.938	800.000	0.020	-0.077
-449.924	174.809	-0.055	0.080
-448.909	-200.000	0.038	-0.205
-447.895	-117.738	0.066	0.012
-446.880	64.658	-0.242	0.244
-445.865	282.754	-0.192	0.344
-444.851	-119.273	-0.237	-0.041
-443.836	-200.000	-0.020	-0.281
-442.822	585.818	-0.068	0.168
-441.807	95.883	-0.235	-0.268
-440.792	-200.000	-0.059	-0.342
-439.778	-83.590	-0.225	-0.072
-438.763	-64.082	-0.093	-0.038
-437.749	-8.145	0.209	0.141
-436.734	800.000	-0.073	0.227
-435.719	-200.000	0.000	0.179
-434.705	-102.579	0.094	0.022
-433.690	-170.902	0.251	0.009
-432.676	-200.000	-0.024	0.306
-431.661	152.768	-0.163	0.223
-430.646	124.871	0.100	0.126
-429.632	-117.145	-0.153	-0.028
-428.617	388.645	0.121	0.250
-427.603	98.052	0.185	-0.212
-426.588	490.870	0.089	0.204
-425.573	237.183	-0.067	-0.110
-424.559	482.059	0.101	-0.228
-423.544	533.097	0.054	0.128
-422.530	363.098	0.038	0.077
-421.515	31.944	0.266	-0.228
-420.500	4.457	-0.148	0.108
-419.486	-53.662	0.389	0.177
-418.471	97.521	0.222	0.255
-417.457	38.063	-0.152	0.135
-416.442	-200.000	0.013	-0.495
-415.428	800.000	0.076	0.292
-414.413	57.132	-0.092	0.090
-413.398	140.185	-0.114	-0.151
-412.384	800.000	0.088	-0.365
-411.369	-122.336	0.217	-0.035
-410.355	-148.287	-0.170	0.014
-409.340	182.834	-0.114	-0.167
-408.325	162.867	-0.052	-0.073
-407.311	-44.437	0.358	0.179
-406.296	-104.656	-0.166	0.038
-405.282	-62.699	0.301	0.124
-404.267	-150.245	-0.130	-0.010
-403.252	683.125	0.076	0.198
-402.238	21.821	-0.313	0.255
-401.223	-200.000	0.015	0.118
-400.209	-8.784	0.327	-0.218
-399.194	-23.676	-0.250	-0.149
-398.179	-26.457	0.182	-0.107
-397.165	141.440	-0.060	-0.079
-396.150	-200.000	-0.024	0.133
-395.136	-78.657	0.460	0.157
-394.121	15.918	0.105	0.083
-393.106	415.164	-0.044	-0.093
-392.092	-91.805	-0.349	-0.099
-391.077	782.353	-0.041	-0.111
-390.063	-128.381	0.086	0.012
-389.048	-1.666	0.192	-0.135
-388.033	135.610	-0.114	-0.148
-387.019	-200.000	-0.022	-0.137
-386.004	318.004	-0.051	-0.097
-384.990	-130.574	0.166	-0.022
-383.975	-139.377	-0.225	0.024
-382.960	3.059	-0.171	-0.124
-381.946	-89.132	-0.086	-0.025
-380.931	461.100	-0.074	-0.165
-379.917	-36.346	-0.119	-0.064
-378.902	-23.744	0.417	0.249
-377.888	168.379	-0.139	-0.197
-376.873	-137.362	-0.271	-0.031
-375.858	436.750	-0.085	-0.184
-374.844	243.219	0.070	-0.116
-373.829	22.644	-0.223	-0.182
-372.815	46.074	-0.237	0.219
-371.800	-200.000	0.043	0.269
-370.785	-161.769	0.175	0.009
-369.771	-118.009	0.031	-0.006
-368.756	197.087	0.075	-0.113
-367.742	58.412	0.095	0.093
-366.727	-47.927	0.147	0.071
-365.712	800.000	-0.037	0.151
-364.698	-47.187	-0.300	-0.146
-363.683	501.586	-0.016	0.038
-362.669	-200.000	0.008	-0.039
-361.654	-135.408	-0.140	-0.017
-360.639	-69.563	0.055	-0.021
-359.625	-37.532	0.191	-0.101
-358.610	162.526	-0.081	0.113
-357.596	644.295	-0.104	-0.264
-356.581	671.643	0.047	0.121
-355.566	48.569	-0.100	-0.093
-354.552	-161.708	-0.139	0.007
-353.537	125.468	0.050	-0.063
-352.523	-43.769	0.354	0.177
-351.508	-200.000	-0.047	0.209
-350.493	541.315	0.123	-0.291
-349.479	71.393	0.044	-0.046
-348.464	-52.667	-0.164	-0.075
-347.450	265.010	0.167	-0.290
-346.435	-200.000	-0.033	-0.453
-345.420	-112.866	0.148	0.029
-344.406	-39.527	0.152	-0.079
-343.391	-62.349	-0.294	-0.122
-342.377	-120.325	-0.322	-0.055
-341.362	128.528	0.084	-0.106
-340.348	-100.222	0.159	-0.039
-339.333	313.888	-0.040	-0.074
-338.318	-200.000	0.010	0.183
-337.304	27.376	-0.285	0.238
-336.289	531.368	-0.072	-0.170
-335.275	52.268	0.164	0.155
-334.260	-200.000	0.016	-0.164
-333.245	56.226	-0.156	0.151
-332.231	-200.000	-0.035	-0.341
-331.216	-42.229	-0.178	-0.091
-330.202	159.524	-0.044	0.060
-329.187	-200.000	0.009	-0.056
-328.172	-200.000	0.016	-0.343
-327.158	-90.508	-0.160	-0.046
-326.143	577.912	0.082	0.200
-325.129	528.387	-0.054	-0.126
-324.114	-3.397	-0.082	0.057
-323.099	-200.000	-0.031	0.182
-322.085	262.674	0.095	-0.163
-321.070	97.199	0.187	0.213
-320.056	29.645	0.276	-0.234
-319.041	-37.826	0.102	-0.054
-318.026	588.543	0.049	-0.121
-317.012	631.051	-0.126	-0.317
-315.997	-130.296	0.124	-0.017
-314.983	-200.000	0.034	0.263
-313.968	8.708	-0.210	-0.157
-312.953	-55.828	0.296	0.131
-311.939	54.496	0.117	0.112
-310.924	-200.000	0.086	0.403
-309.910	147.391	-0.151	-0.201
-308.895	-46.718	-0.295	0.143
-307.880	48.982	-0.158	-0.147
-306.866	-17.281	-0.261	0.163
-305.851	200.261	0.170	0.259
-304.837	161.386	-0.231	-0.320
-303.822	-76.797	0.296	-0.103
-302.807	-75.326	0.323	0.114
-301.793	546.806	0.066	0.158
-300.778	-200.000	0.003	-0.093
-299.764	-81.288	-0.332	0.109
-298.749	-89.898	0.073	-0.021
-297.735	490.927	0.059	0.135
-296.720	800.000	-0.132	0.435
-295.705	-106.834	0.526	0.116
-294.691	54.547	-0.254	-0.243
-293.676	205.179	-0.120	0.185
-292.662	-200.000	-0.033	0.146
-291.647	-200.000	0.004	-0.211
-290.632	-87.369	-0.141	0.042
-289.618	-200.000	0.016	0.086
-288.603	-200.000	-0.011	-0.152
-287.589	12.977	-0.141	-0.108
-286.574	-200.000	0.019	0.087
-285.559	675.970	0.080	-0.206
-284.545	-85.563	-0.270	0.083
-283.530	-200.000	0.012	0.275
-282.516	-140.243	0.270	0.028
-281.501	-120.061	-0.239	0.041
-280.486	-112.097	-0.239	0.048
-279.472	103.208	0.110	0.128
-278.457	-22.386	0.242	-0.145
-277.443	-109.248	-0.263	-0.055
-276.428	800.000	0.077	0.332
-275.413	-200.000	-0.002	-0.095
-274.399	73.093	0.279	-0.289
-273.384	-134.405	-0.384	-0.047
-272.370	-13.188	0.103	0.067
-271.355	-167.981	-0.171	0.007
-270.340	-105.037	0.440	0.100
-269.326	660.214	-0.070	0.179
-268.311	-125.199	0.229	0.035
-267.297	-26.051	-0.297	-0.173
-266.282	-75.429	0.158	0.056
-265.267	254.968	-0.126	0.214
-264.253	230.292	0.067	0.108
-263.238	430.473	0.133	-0.287
-262.224	19.219	-0.228	-0.182
-261.209	298.791	-0.118	0.215
-260.195	12.587	0.158	-0.121
-259.180	-31.584	0.254	0.141
-258.165	148.098	-0.268	-0.359
-257.151	-200.000	-0.041	0.241
-256.136	-200.000	-0.023	-0.191
-255.122	-147.030	-0.133	-0.011
-254.107	-42.713	0.094	0.047
-253.092	-146.080	-0.350	-0.031
-252.078	-38.311	-0.383	0.201
-251.063	135.611	0.080	0.103
-250.049	-70.500	0.403	-0.151
-249.034	-23.053	0.229	0.137
-248.019	-200.000	0.005	0.374
-247.005	-173.228	0.317	0.010
-245.990	-136.758	0.387	-0.044
-244.976	147.614	0.209	-0.279
-243.961	-83.750	-0.217	0.069
-242.946	82.093	0.112	-0.121
-241.932	800.000	0.051	0.209
-240.917	-94.652	0.159	-0.043
-239.903	106.091	-0.206	0.241
-238.888	18.359	-0.208	-0.165
-237.873	-62.430	0.264	-0.109
-236.859	137.815	-0.093	0.120
-235.844	266.347	-0.063	0.108
-234.830	5.444	-0.403	-0.295
-233.815	-162.542	0.525	-0.026
-232.800	-31.573	-0.123	-0.069
-231.786	-47.488	-0.254	0.122
-230.771	80.933	0.087	0.093
-229.757	535.730	-0.057	-0.134
-228.742	-58.377	-0.220	0.095
-227.727	-126.963	0.537	0.078
-226.713	-115.106	-0.266	0.050
-225.698	441.791	0.033	0.071
-224.684	-81.006	0.150	0.049
-223.669	-200.000	-0.044	-0.205
-222.655	-30.489	0.081	0.046
-221.640	-82.667	0.262	0.084
-220.625	800.000	-0.114	0.331
-219.611	27.659	-0.056	0.047
-218.596	-200.000	0.026	-0.159
-217.582	-116.213	0.248	-0.046
-216.567	800.000	0.010	0.042
-215.552	-93.795	0.338	0.092
-214.538	-200.000	0.037	0.161
-213.523	800.000	0.109	-0.333
-212.509	-200.000	0.026	-0.316
-211.494	-119.055	0.100	-0.017
-210.479	302.413	0.117	-0.214
-209.465	98.252	-0.124	-0.141
-208.450	-129.179	-0.351	-0.048
-207.436	237.820	0.170	-0.279
-206.421	-84.003	0.196	0.062
-205.406	28.633	-0.098	0.082
-204.392	5.752	0.124	-0.091
-203.377	-109.700	0.179	-0.037
-202.363	67.913	0.117	0.119
-201.348	177.330	0.194	0.280
-200.333	800.000	0.007	0.021
-199.319	543.184	-0.112	-0.264
-198.304	590.905	-0.142	0.346
-197.290	-123.435	0.361	-0.057
-196.275	524.382	-0.152	0.354
-195.260	-200.000	0.055	0.311
-194.246	-95.743	-0.105	-0.028
-193.231	-200.000	-0.107	0.000
-192.217	713.463	-0.019	-0.049
-191.202	180.676	0.230	0.334
-190.187	-200.000	-0.015	0.126
-189.173	409.646	-0.038	0.079
-188.158	-72.661	0.134	-0.049
-187.144	339.989	0.125	0.241
-186.129	-42.651	-0.192	0.096
-185.114	-200.000	-0.042	0.255
-184.100	-56.618	0.130	0.057
-183.085	-71.357	0.040	-0.015
-182.071	800.000	-0.074	0.218
-181.056	309.481	0.098	0.181
-180.042	233.720	0.137	-0.223
-179.027	-18.980	-0.146	0.090
-178.012	-87.477	0.054	-0.016
-176.998	-200.000	0.015	-0.319
-175.983	-120.163	0.252	-0.043
-174.969	545.657	0.043	-0.101
-173.954	-30.534	-0.107	0.060
-172.939	137.500	0.384	0.496
-171.925	800.000	-0.110	0.327
-170.910	-135.244	0.160	-0.019
-169.896	41.223	0.128	-0.114
-168.881	-157.951	-0.152	-0.009
-167.866	166.066	0.166	0.232
-166.852	491.612	-0.105	-0.237
-165.837	-88.060	0.039	0.012
-164.823	800.000	-0.045	-0.164
-163.808	-14.952	0.226	-0.143
-162.793	-153.754	0.141	0.010
-161.779	54.354	-0.132	0.125
-160.764	432.822	0.080	-0.171
-159.750	-200.000	0.039	0.257
-158.735	167.781	0.060	0.084
-157.720	20.801	-0.164	-0.131
-156.706	78.927	-0.173	-0.183
-155.691	-200.000	-0.050	0.257
-154.677	423.333	0.090	0.191
-153.662	653.266	-0.039	0.099
-152.647	-89.952	0.260	0.075
-151.633	-200.000	-0.014	0.131
-150.618	263.471	-0.109	0.186
-149.604	604.348	-0.124	-0.304
-148.589	0.539	0.270	0.190
-147.574	110.084	-0.172	-0.204
-146.560	-200.000	0.007	-0.075
-145.545	-200.000	0.011	-0.216
-144.531	186.276	0.066	0.096
-143.516	-129.553	-0.132	-0.018
-142.502	-21.200	-0.178	-0.107
-141.487	10.019	-0.198	-0.149
-140.472	800.000	0.121	-0.430
-139.458	-5.766	-0.113	-0.076
-138.443	-200.000	-0.060	0.285
-137.429	-94.527	0.161	0.043
-136.414	-200.000	-0.023	0.572
-135.399	44.001	-0.071	-0.064
-134.385	-200.000	-0.022	0.120
-133.370	-24.141	-0.155	0.091
-132.356	-152.661	0.042	-0.003
-131.341	50.043	-0.247	-0.230
-130.326	233.902	0.072	-0.116
-129.312	-193.447	-0.267	-0.002
-128.297	-200.000	-0.008	0.122
-127.283	-6.949	-0.186	0.125
-126.268	-107.631	0.060	-0.013
-125.253	800.000	-0.052	-0.154
-124.239	-111.681	0.402	0.080
-123.224	-7.075	-0.197	0.132
-122.210	-200.000	-0.009	0.107
