DTS Sentinel unit serial number:	SN413079Multiplexer serial number:	ORYXHardware model number:	OX4-SRSoftware version number:	ORYX F/W v4.00 Oryx Data Collector v3.7.2.0data status	okinstallation	princeton_trtdifferential loss correction	single-endedforward channel	channel 1reverse channel	N/Adate	2019/09/13time	09:02:35forward acquisition time	60.00reverse acquisition time	0.00gamma	496.2192k internal	0.2326k external	0.2326temperature offset calibration	1.0156default loss term (dB/km)	0.3790temperature slope calibration	1.0000multiplexer offset coefficient	1.0000multiplexer slope coefficient	1.0000fibre end	0.00T internal ref (°C)	28.50T ext. ref 1 (°C)	4.36T ext. ref 2 (°C)	25.85length (m)	temperature (°C)	Stokes	anti-Stokes-747.200	-73.314	-0.278	0.102
-746.185	136.060	0.255	0.335
-745.171	59.327	0.069	-0.069
-744.156	25.863	-0.196	-0.164
-743.142	278.529	-0.187	-0.337
-742.127	77.194	0.244	0.261
-741.112	-67.056	0.264	0.105
-740.098	-200.000	-0.094	0.441
-739.083	800.000	-0.066	-0.256
-738.069	-52.879	-0.083	0.038
-737.054	-127.293	0.044	-0.006
-736.039	-90.920	-0.418	0.121
-735.025	10.607	-0.152	-0.117
-734.010	-111.323	-0.370	-0.076
-732.996	-112.830	-0.275	0.055
-731.981	780.753	-0.064	-0.176
-730.966	-111.082	-0.145	-0.030
-729.952	-62.260	-0.373	-0.157
-728.937	435.415	0.130	-0.286
-727.923	347.454	0.155	0.307
-726.908	-89.841	0.065	-0.019
-725.894	456.927	0.100	-0.224
-724.879	-16.791	-0.209	0.133
-723.864	800.000	-0.015	0.053
-722.850	-133.483	-0.280	0.035
-721.835	-79.211	-0.153	-0.052
-720.821	-86.009	-0.234	-0.073
-719.806	-127.207	-0.169	0.025
-718.791	-4.669	-0.071	0.049
-717.777	65.777	0.086	-0.087
-716.762	-23.905	0.112	0.067
-715.748	800.000	-0.070	-0.230
-714.733	-142.369	0.205	0.020
-713.718	103.459	-0.168	-0.199
-712.704	-116.083	-0.206	0.039
-711.689	-142.923	0.329	-0.032
-710.675	-200.000	0.002	-0.077
-709.660	97.375	0.171	-0.198
-708.645	12.865	0.117	-0.091
-707.631	-116.949	-0.236	0.043
-706.616	95.318	0.175	0.200
-705.602	-200.000	-0.042	0.464
-704.587	1.563	-0.181	0.131
-703.572	175.480	0.341	-0.498
-702.558	143.802	0.096	0.129
-701.543	-200.000	-0.048	-0.312
-700.529	-147.527	0.490	-0.042
-699.514	419.674	0.160	-0.345
-698.499	-139.146	-0.191	-0.021
-697.485	113.264	-0.217	0.265
-696.470	-46.208	0.262	0.130
-695.456	-200.000	0.005	0.084
-694.441	-163.748	-0.267	-0.013
-693.426	-73.111	-0.167	0.062
-692.412	111.508	-0.091	-0.111
-691.397	417.659	-0.034	-0.073
-690.383	95.657	-0.055	-0.064
-689.368	-30.325	-0.327	-0.187
-688.354	800.000	0.056	0.248
-687.339	42.286	0.185	-0.170
-686.324	197.630	-0.131	-0.202
-685.310	800.000	-0.020	-0.086
-684.295	501.106	-0.074	0.172
-683.281	-200.000	-0.032	-0.171
-682.266	101.926	-0.091	0.107
-681.251	-200.000	0.002	-0.070
-680.237	-33.433	-0.129	-0.072
-679.222	-200.000	0.028	-0.327
-678.208	58.791	0.246	-0.243
-677.193	55.032	-0.184	0.179
-676.178	125.612	0.138	-0.175
-675.164	-149.601	-0.051	0.004
-674.149	-84.878	0.288	0.091
-673.135	10.648	-0.048	0.037
-672.120	-129.917	-0.366	0.050
-671.105	354.359	-0.131	-0.262
-670.091	309.321	-0.158	0.296
-669.076	-200.000	0.034	-0.279
-668.062	317.318	-0.109	-0.207
-667.047	186.225	-0.170	-0.254
-666.032	336.161	0.062	0.122
-665.018	80.966	0.288	0.313
-664.003	118.553	0.217	0.270
-662.989	-45.450	0.025	0.013
-661.974	-14.247	-0.022	-0.014
-660.959	108.353	0.172	0.206
-659.945	-142.370	-0.216	0.021
-658.930	-125.317	0.436	0.067
-657.916	187.066	0.097	-0.145
-656.901	-81.429	0.107	0.036
-655.886	-200.000	-0.018	0.399
-654.872	-95.087	-0.214	0.058
-653.857	71.050	-0.043	0.045
-652.843	34.715	-0.087	0.076
-651.828	72.743	0.200	-0.210
-650.814	-8.815	0.334	0.225
-649.799	-200.000	-0.004	-0.063
-648.784	-200.000	0.025	-0.174
-647.770	31.197	0.311	-0.268
-646.755	118.316	0.223	0.276
-645.741	271.774	-0.205	0.362
-644.726	1.946	-0.141	-0.102
-643.711	-118.671	0.256	-0.045
-642.697	-109.820	0.067	0.014
-641.682	124.617	0.201	0.254
-640.668	-61.480	-0.196	0.083
-639.653	-131.774	0.149	-0.020
-638.638	-200.000	-0.046	-0.279
-637.624	-106.694	0.076	-0.017
-636.609	76.862	-0.056	-0.060
-635.595	91.803	0.154	0.174
-634.580	530.067	0.122	-0.288
-633.565	116.850	-0.068	-0.084
-632.551	-106.121	-0.299	-0.067
-631.536	-160.933	-0.134	0.007
-630.522	-1.646	0.213	-0.150
-629.507	-106.179	-0.239	0.054
-628.492	25.432	-0.027	-0.023
-627.478	-32.454	0.286	0.160
-626.463	800.000	0.044	0.149
-625.449	-200.000	0.009	0.086
-624.434	-10.670	-0.152	0.101
-623.419	800.000	-0.047	0.170
-622.405	728.435	-0.102	0.274
-621.390	297.179	0.127	0.233
-620.376	-104.478	-0.096	-0.022
-619.361	191.400	-0.045	-0.069
-618.346	90.383	0.310	-0.349
-617.332	-8.774	-0.288	0.194
-616.317	-55.929	0.086	-0.038
-615.303	350.087	-0.101	-0.201
-614.288	-200.000	-0.015	0.306
-613.273	-134.716	-0.104	-0.013
-612.259	64.992	-0.143	0.145
-611.244	-143.449	0.379	0.036
-610.230	-113.330	-0.440	0.087
-609.215	352.985	-0.096	-0.192
-608.201	372.973	-0.107	0.218
-607.186	76.603	0.084	-0.089
-606.171	-69.366	0.162	0.062
-605.157	-10.903	-0.158	-0.105
-604.142	595.467	0.021	-0.053
-603.128	-200.000	0.098	-0.496
-602.113	0.736	-0.124	-0.089
-601.098	-159.389	-0.182	0.010
-600.084	163.578	0.089	0.126
-599.069	-155.807	0.079	-0.005
-598.055	-23.809	0.136	-0.081
-597.040	-148.457	-0.116	-0.010
-596.025	-200.000	0.022	-0.178
-595.011	-116.663	0.241	0.044
-593.996	-95.188	-0.195	-0.053
-592.982	24.876	-0.087	0.072
-591.967	-151.979	0.064	-0.005
-590.952	-8.645	0.380	-0.255
-589.938	99.736	0.109	-0.127
-588.923	-106.672	0.502	-0.112
-587.909	489.534	0.033	0.075
-586.894	-110.974	0.350	-0.072
-585.879	-45.722	-0.094	0.047
-584.865	-140.787	0.141	-0.015
-583.850	277.806	-0.154	0.275
-582.836	-25.408	0.095	-0.056
-581.821	30.729	-0.188	0.161
-580.806	81.532	-0.242	-0.262
-579.792	182.582	-0.107	0.158
-578.777	149.455	0.207	-0.280
-577.763	56.077	-0.130	0.127
-576.748	-58.826	-0.080	0.035
-575.733	-14.515	-0.084	-0.054
-574.719	68.430	-0.265	0.272
-573.704	800.000	-0.093	0.279
-572.690	123.968	0.212	-0.267
-571.675	106.956	0.040	-0.048
-570.661	-200.000	0.031	-0.181
-569.646	800.000	-0.025	0.085
-568.631	329.866	0.093	0.179
-567.617	-53.508	-0.346	-0.159
-566.602	-200.000	-0.002	0.210
-565.588	-200.000	-0.038	0.278
-564.573	378.443	-0.089	0.182
-563.558	-143.297	0.262	0.025
-562.544	-38.941	0.264	-0.139
-561.529	-200.000	0.059	-0.436
-560.515	304.123	0.075	-0.140
-559.500	-96.067	0.158	-0.042
-558.485	800.000	-0.122	-0.368
-557.471	426.389	-0.086	0.185
-556.456	-165.076	-0.288	-0.013
-555.442	800.000	-0.012	-0.037
-554.427	-9.913	0.264	-0.176
-553.412	476.234	0.084	-0.189
-552.398	-79.425	-0.204	-0.069
-551.383	-109.658	0.185	-0.039
-550.369	800.000	-0.064	0.229
-549.354	23.045	0.177	-0.145
-548.339	800.000	0.063	0.175
-547.325	-139.790	-0.185	-0.020
-546.310	443.645	0.051	0.111
-545.296	600.092	0.084	-0.209
-544.281	-78.374	-0.275	-0.094
-543.266	-133.941	0.041	-0.005
-542.252	800.000	0.037	-0.155
-541.237	-57.702	-0.061	-0.027
-540.223	-190.889	0.143	-0.002
-539.208	469.616	-0.144	-0.324
-538.193	244.456	0.055	-0.092
-537.179	143.902	-0.060	-0.080
-536.164	63.054	-0.085	0.085
-535.150	-200.000	-0.032	0.191
-534.135	800.000	-0.045	-0.133
-533.121	-129.244	-0.443	-0.062
-532.106	-31.146	0.160	-0.090
-531.091	286.115	0.214	-0.387
-530.077	28.111	-0.192	-0.162
-529.062	380.772	0.114	-0.234
-528.048	-200.000	-0.024	-0.140
-527.033	-99.318	-0.287	-0.072
-526.018	800.000	-0.050	-0.188
-525.004	-200.000	0.007	0.316
-523.989	-35.873	-0.244	-0.132
-522.975	228.256	-0.073	0.119
-521.960	23.552	0.175	0.144
-520.945	-79.683	0.066	0.022
-519.931	-156.909	-0.514	-0.031
-518.916	-159.149	0.357	-0.020
-517.902	-31.909	-0.345	-0.193
-516.887	-105.999	-0.511	-0.115
-515.872	365.575	0.094	-0.188
-514.858	-55.023	0.097	-0.044
-513.843	-70.867	0.185	0.070
-512.829	44.061	0.097	-0.089
-511.814	-70.118	0.435	0.165
-510.799	-134.405	0.326	-0.040
-509.785	14.204	0.159	-0.124
-508.770	-200.000	0.028	-0.402
-507.756	189.169	-0.074	-0.111
-506.741	543.641	-0.105	-0.250
-505.726	-111.919	0.169	-0.034
-504.712	-200.000	-0.016	-0.314
-503.697	800.000	0.010	0.041
-502.683	73.275	-0.148	0.155
-501.668	499.588	0.155	0.357
-500.653	-52.737	0.043	0.020
-499.639	-24.704	-0.069	0.041
-498.624	-200.000	-0.020	-0.168
-497.610	-40.969	0.061	0.032
-496.595	-200.000	-0.018	-0.111
-495.581	-160.216	-0.546	0.030
-494.566	106.139	0.119	-0.140
-493.551	800.000	0.056	0.189
-492.537	11.082	-0.219	0.167
-491.522	-200.000	0.049	-0.266
-490.508	-34.111	0.341	0.187
-489.493	-200.000	-0.026	0.148
-488.478	-200.000	0.049	-0.270
-487.464	-104.551	-0.338	-0.078
-486.449	77.916	-0.355	-0.378
-485.435	-200.000	0.007	0.083
-484.420	-200.000	0.010	-0.068
-483.405	57.108	-0.116	-0.113
-482.391	73.640	0.120	-0.126
-481.376	-82.733	0.256	-0.083
-480.362	-28.841	-0.088	-0.051
-479.347	145.707	-0.168	0.224
-478.332	164.509	0.024	0.034
-477.318	-102.783	0.101	-0.024
-476.303	-87.672	-0.280	-0.084
-475.289	-100.988	-0.308	-0.075
-474.274	-200.000	0.007	0.083
-473.259	219.231	-0.241	0.384
-472.245	245.086	-0.051	-0.086
-471.230	405.361	0.140	0.296
-470.216	-98.567	0.420	-0.107
-469.201	-183.284	0.160	0.003
-468.186	-160.533	0.180	-0.010
-467.172	-200.000	0.061	0.307
-466.157	61.058	-0.124	0.123
-465.143	-200.000	0.033	-0.173
-464.128	800.000	-0.089	-0.334
-463.113	20.318	-0.067	0.054
-462.099	-35.074	-0.109	0.059
-461.084	262.590	-0.053	-0.091
-460.070	-93.253	0.024	-0.007
-459.055	800.000	-0.057	0.179
-458.040	-90.358	0.064	0.019
-457.026	98.644	0.213	0.245
-456.011	-200.000	0.030	0.137
-454.997	12.603	0.173	-0.133
-453.982	392.464	0.019	0.040
-452.968	392.337	-0.019	0.039
-451.953	800.000	-0.104	0.326
-450.938	-200.000	-0.018	-0.113
-449.924	-200.000	-0.003	0.072
-448.909	-51.577	0.030	-0.014
-447.895	800.000	0.070	0.219
-446.880	45.348	-0.214	0.197
-445.865	800.000	-0.147	0.442
-444.851	-131.863	-0.260	0.034
-443.836	800.000	-0.040	0.116
-442.822	224.937	-0.145	0.234
-441.807	-19.443	-0.071	0.044
-440.792	-30.988	-0.027	0.015
-439.778	-109.019	-0.160	0.034
-438.763	286.882	-0.040	-0.072
-437.749	269.520	0.192	-0.336
-436.734	-169.266	0.189	0.007
-435.719	-54.606	-0.197	-0.089
-434.705	172.208	0.031	-0.045
-433.690	183.677	0.134	-0.198
-432.676	-139.361	-0.261	-0.028
-431.661	-200.000	0.041	0.281
-430.646	-200.000	0.026	0.136
-429.632	-77.592	-0.168	-0.058
-428.617	-88.570	0.272	-0.081
-427.603	800.000	0.068	0.294
-426.588	-200.000	0.012	-0.103
-425.573	-200.000	0.016	0.145
-424.559	780.937	-0.084	-0.229
-423.544	-200.000	0.017	0.399
-422.530	-58.963	0.261	-0.112
-421.515	-85.185	-0.183	0.057
-420.500	27.052	-0.280	-0.234
-419.486	-44.606	0.132	-0.066
-418.471	-37.704	-0.082	-0.044
-417.457	-77.755	0.049	0.017
-416.442	-44.242	-0.247	-0.124
-415.428	800.000	-0.067	0.197
-414.413	-175.520	-0.248	-0.007
-413.398	800.000	0.105	0.404
-412.384	-129.396	-0.173	-0.024
-411.369	284.330	-0.215	-0.385
-410.355	-88.447	-0.265	-0.079
-409.340	88.557	0.069	-0.076
-408.325	447.391	-0.067	0.147
-407.311	17.348	0.445	0.352
-406.296	800.000	0.061	0.225
-405.282	-164.098	-0.372	-0.017
-404.267	-200.000	0.017	0.203
-403.252	-78.248	0.094	-0.032
-402.238	800.000	0.090	0.264
-401.223	-157.663	0.364	0.022
-400.209	-28.127	-0.058	0.033
-399.194	-92.115	0.019	-0.005
-398.179	-36.069	0.183	0.098
-397.165	486.675	-0.069	0.156
-396.150	-112.751	0.136	0.027
-395.136	63.926	0.132	-0.133
-394.121	607.634	-0.107	-0.266
-393.106	500.044	0.082	-0.187
-392.092	163.165	0.021	-0.029
-391.077	103.031	-0.064	-0.074
-390.063	-59.797	0.312	-0.133
-389.048	-39.623	0.165	-0.086
-388.033	-167.047	-0.110	-0.004
-387.019	786.417	0.053	0.144
-386.004	391.093	-0.068	-0.140
-384.990	-200.000	0.009	0.055
-383.975	800.000	0.175	0.528
-382.960	-200.000	0.044	0.445
-381.946	-23.792	0.108	0.065
-380.931	-53.491	0.069	0.031
-379.917	-16.640	-0.140	0.088
-378.902	800.000	0.039	-0.113
-377.888	4.881	-0.197	0.144
-376.873	-122.153	-0.171	-0.028
-375.858	775.817	0.118	0.321
-374.844	-112.109	0.222	-0.044
-373.829	101.974	0.144	-0.167
-372.815	71.766	0.255	-0.263
-371.800	-198.947	-0.168	-0.001
-370.785	-129.463	-0.123	-0.017
-369.771	800.000	-0.021	-0.074
-368.756	-200.000	-0.009	-0.171
-367.742	800.000	-0.037	0.115
-366.727	118.621	-0.052	-0.064
-365.712	-200.000	-0.005	-0.196
-364.698	726.863	-0.089	-0.237
-363.683	174.259	0.035	0.050
-362.669	-134.708	-0.187	-0.023
-361.654	-101.484	-0.214	0.052
-360.639	-12.774	0.293	-0.189
-359.625	370.719	0.082	-0.165
-358.610	-123.018	0.118	-0.019
-357.596	348.131	0.123	0.240
-356.581	-161.665	-0.206	-0.010
-355.566	-25.951	0.085	-0.050
-354.552	800.000	-0.031	0.097
-353.537	-200.000	0.036	0.266
-352.523	-136.865	0.222	0.025
-351.508	737.266	0.107	-0.286
-350.493	248.216	0.177	-0.298
-349.479	224.809	-0.275	0.442
-348.464	86.784	0.205	0.225
-347.450	-145.960	0.363	-0.032
-346.435	-98.869	0.201	-0.051
-345.420	459.797	-0.062	0.137
-344.406	-131.386	0.056	0.007
-343.391	-63.330	-0.290	-0.118
-342.377	800.000	-0.085	-0.263
-341.362	73.431	0.098	-0.102
-340.348	-35.297	0.103	-0.056
-339.333	800.000	0.124	-0.486
-338.318	36.141	0.120	0.105
-337.304	-200.000	-0.004	0.093
-336.289	140.256	0.235	-0.307
-335.275	791.363	-0.063	-0.172
-334.260	53.030	0.180	-0.171
-333.245	-200.000	0.008	-0.115
-332.231	-123.957	-0.110	-0.017
-331.216	598.276	-0.123	-0.303
-330.202	142.754	0.182	-0.240
-329.187	-123.716	-0.193	0.030
-328.172	166.390	0.164	-0.231
-327.158	-200.000	0.018	-0.096
-326.143	686.835	0.080	-0.208
-325.129	346.711	0.075	-0.147
-324.114	-52.215	-0.309	0.142
-323.099	-148.862	-0.132	-0.011
-322.085	225.764	-0.079	-0.127
-321.070	540.476	-0.100	-0.236
-320.056	144.593	-0.093	-0.123
-319.041	-86.839	0.170	0.052
-318.026	-200.000	-0.012	-0.081
-317.012	-85.655	-0.216	-0.067
-315.997	-200.000	0.037	0.257
-314.983	-67.139	-0.182	0.071
-313.968	-200.000	-0.003	0.144
-312.953	-62.254	0.200	0.083
-311.939	77.033	-0.158	0.167
-310.924	-200.000	-0.012	0.158
-309.910	-122.716	-0.188	-0.030
-308.895	767.618	-0.116	0.314
-307.880	-37.850	-0.042	-0.022
-306.866	-200.000	-0.061	-0.490
-305.851	-71.414	0.068	0.025
-304.837	800.000	-0.045	-0.154
-303.822	97.471	0.143	-0.162
-302.807	-194.107	-0.034	0.000
-301.793	111.538	-0.159	-0.191
-300.778	-21.029	-0.058	-0.035
-299.764	-160.619	-0.316	-0.017
-298.749	-200.000	-0.005	0.144
-297.735	499.241	0.029	0.066
-296.720	-157.477	-0.295	-0.018
-295.705	187.393	-0.074	0.110
-294.691	219.856	-0.093	-0.147
-293.676	800.000	-0.092	0.320
-292.662	486.310	0.087	0.198
-291.647	-120.557	-0.130	0.022
-290.632	281.900	0.131	0.232
-289.618	-25.120	-0.086	0.051
-288.603	-19.289	0.079	-0.049
-287.589	800.000	-0.067	0.255
-286.574	-200.000	0.018	-0.188
-285.559	20.497	-0.178	0.142
-284.545	-200.000	-0.025	0.176
-283.530	-200.000	-0.009	-0.098
-282.516	-117.327	0.162	0.029
-281.501	56.438	-0.073	0.070
-280.486	-129.407	-0.259	-0.036
-279.472	552.572	-0.115	0.273
-278.457	-59.763	-0.102	0.043
-277.443	-200.000	-0.040	0.237
-276.428	-200.000	-0.022	0.249
-275.413	-200.000	0.020	-0.288
-274.399	-54.206	-0.030	-0.014
-273.384	-200.000	0.067	-0.305
-272.370	-31.274	-0.198	0.111
-271.355	-77.726	-0.110	-0.038
-270.340	-28.238	-0.156	-0.089
-269.326	-200.000	-0.007	0.260
-268.311	-82.574	0.058	0.019
-267.297	-95.554	0.222	-0.059
-266.282	800.000	0.047	0.190
-265.267	-79.642	-0.182	0.061
-264.253	-18.889	0.233	0.144
-263.238	-200.000	0.012	-0.099
-262.224	-107.518	-0.180	-0.039
-261.209	26.192	0.245	-0.203
-260.195	-36.705	-0.166	0.088
-259.180	-200.000	0.008	-0.128
-258.165	2.412	0.194	-0.139
-257.151	-36.454	-0.166	0.088
-256.136	-33.097	0.078	-0.043
-255.122	80.781	-0.080	0.085
-254.107	82.605	-0.030	0.032
-253.092	-122.315	0.509	0.082
-252.078	800.000	0.050	-0.193
-251.063	-200.000	0.025	0.145
-250.049	24.376	-0.196	0.160
-249.034	97.296	0.113	0.128
-248.019	-200.000	-0.024	-0.302
-247.005	-14.925	-0.057	-0.036
-245.990	81.438	-0.071	-0.076
-244.976	800.000	0.133	0.374
-243.961	72.189	-0.181	-0.186
-242.946	-31.420	-0.119	0.066
-241.932	61.051	-0.242	0.238
-240.917	26.678	-0.029	-0.024
-239.903	758.200	0.106	0.285
-238.888	127.891	0.209	-0.263
-237.873	13.742	0.203	-0.156
-236.859	49.037	-0.102	0.095
-235.844	273.049	0.170	0.297
-234.830	798.640	-0.171	0.465
-233.815	28.160	0.127	-0.106
-232.800	-200.000	-0.012	-0.093
-231.786	112.662	-0.125	-0.149
-230.771	-200.000	0.016	0.282
-229.757	-200.000	0.030	0.213
-228.742	4.290	-0.163	-0.118
-227.727	365.362	0.068	-0.136
-226.713	-200.000	0.031	-0.154
-225.698	-22.403	0.096	-0.057
-224.684	103.460	0.048	-0.055
-223.669	13.212	0.130	-0.099
-222.655	800.000	-0.093	-0.384
-221.640	-200.000	0.004	-0.140
-220.625	-200.000	0.008	-0.098
-219.611	-200.000	-0.050	-0.222
-218.596	18.650	-0.176	0.139
-217.582	-160.267	0.195	-0.010
-216.567	760.825	0.204	0.546
-215.552	-119.861	-0.181	0.031
-214.538	-141.362	0.368	-0.037
-213.523	105.306	-0.186	0.216
-212.509	-49.712	-0.303	0.142
-211.494	-160.659	0.325	0.017
-210.479	-100.694	0.148	0.036
-209.465	-60.070	0.140	0.059
-208.450	664.437	0.136	-0.347
-207.436	-200.000	-0.013	0.138
-206.421	220.152	-0.016	0.025
-205.406	-82.754	-0.189	-0.060
-204.392	-200.000	-0.022	0.206
-203.377	259.016	-0.133	-0.227
-202.363	-31.780	-0.034	0.019
-201.348	-200.000	-0.009	0.053
-200.333	-42.767	0.169	0.085
-199.319	67.986	0.203	0.205
-198.304	-200.000	-0.039	0.207
-197.290	72.507	-0.147	0.151
-196.275	118.466	0.233	0.283
-195.260	-167.178	0.034	-0.001
-194.246	136.212	-0.110	-0.142
-193.231	234.207	-0.148	0.240
-192.217	-31.742	-0.171	-0.095
-191.202	-37.789	0.070	0.037
-190.187	788.900	0.038	0.104
-189.173	-6.653	-0.172	-0.115
-188.158	-169.056	0.288	0.011
-187.144	-180.813	0.520	-0.010
-186.129	93.733	0.171	-0.191
-185.114	-27.996	-0.098	0.056
-184.100	800.000	-0.044	0.141
-183.085	-10.704	-0.253	0.165
-182.071	54.541	0.079	0.075
-181.056	-114.786	-0.130	-0.025
-180.042	178.777	0.240	0.346
-179.027	-200.000	-0.013	-0.144
-178.012	241.361	-0.087	0.143
-176.998	-5.052	0.291	0.197
-175.983	800.000	-0.058	0.199
-174.969	-22.022	0.204	0.122
-173.954	-110.519	0.137	-0.028
-172.939	-11.164	0.144	-0.094
-171.925	-81.160	-0.086	-0.028
-170.910	206.112	-0.021	-0.033
-169.896	45.540	-0.249	0.227
-168.881	-93.372	0.137	-0.037
-167.866	-137.079	-0.272	-0.031
-166.852	-34.519	0.171	-0.092
-165.837	392.290	0.167	-0.342
-164.823	602.099	-0.122	0.299
-163.808	-130.402	0.175	-0.023
-162.793	-83.553	0.275	-0.087
-161.779	-113.314	-0.159	-0.031
-160.764	-125.405	0.244	0.037
-159.750	800.000	-0.147	0.538
-158.735	134.366	0.041	-0.052
-157.720	-167.232	-0.170	-0.007
-156.706	-66.844	-0.395	-0.154
-155.691	-200.000	-0.008	-0.192
-154.677	-128.220	0.199	0.028
-153.662	109.327	0.116	-0.137
-152.647	800.000	0.016	-0.046
-151.633	800.000	0.097	-0.296
-150.618	19.987	0.114	0.091
-149.604	7.808	-0.289	0.214
-148.589	-65.240	-0.299	0.119
-147.574	-160.028	-0.289	-0.016
-146.560	-200.000	-0.012	-0.175
-145.545	-70.465	0.029	-0.011
-144.531	48.543	-0.174	0.160
-143.516	800.000	0.062	0.223
-142.502	107.848	0.040	0.047
-141.487	-11.368	0.216	0.140
-140.472	-38.488	-0.205	-0.107
-139.458	748.197	-0.025	0.068
-138.443	80.269	0.237	0.251
-137.429	-31.740	0.173	0.096
-136.414	239.380	-0.116	0.190
-135.399	191.112	-0.076	-0.112
-134.385	-2.559	0.339	0.234
-133.370	11.447	-0.264	-0.199
-132.356	-172.769	0.314	-0.010
-131.341	800.000	0.091	-0.358
-130.326	294.657	-0.026	-0.048
-129.312	704.249	0.085	-0.220
-128.297	251.574	-0.215	0.360
-127.283	-38.047	-0.250	0.131
-126.268	-135.383	0.525	0.062
-125.253	-200.000	-0.017	-0.326
-124.239	-59.585	0.265	0.112
-123.224	-200.000	-0.025	0.222
