DTS Sentinel unit serial number:	SN413079Multiplexer serial number:	ORYXHardware model number:	OX4-SRSoftware version number:	ORYX F/W v4.00 Oryx Data Collector v3.7.2.0data status	okinstallation	princeton_trtdifferential loss correction	single-endedforward channel	channel 1reverse channel	N/Adate	2019/09/15time	08:26:35forward acquisition time	60.00reverse acquisition time	0.00gamma	496.2192k internal	0.2321k external	0.2321temperature offset calibration	0.9990default loss term (dB/km)	0.3790temperature slope calibration	1.0000multiplexer offset coefficient	1.0000multiplexer slope coefficient	1.0000fibre end	0.00T internal ref (°C)	31.48T ext. ref 1 (°C)	4.97T ext. ref 2 (°C)	28.50length (m)	temperature (°C)	Stokes	anti-Stokes-747.200	-130.256	0.354	0.049
-746.185	-56.384	-0.040	-0.018
-745.171	-200.000	0.004	-0.111
-744.156	110.790	-0.125	0.152
-743.142	-61.716	0.232	0.098
-742.127	199.860	0.078	0.121
-741.112	-166.279	0.323	0.014
-740.098	-27.747	0.067	0.040
-739.083	-2.617	-0.134	-0.095
-738.069	-13.015	-0.038	-0.025
-737.054	-110.236	0.569	0.120
-736.039	2.081	0.124	0.090
-735.025	-133.700	0.176	0.022
-734.010	137.714	-0.149	-0.198
-732.996	189.734	-0.091	0.138
-731.981	9.781	-0.162	0.124
-730.966	328.712	-0.206	0.400
-729.952	432.010	-0.095	-0.208
-728.937	27.396	-0.061	-0.052
-727.923	-56.542	-0.107	-0.048
-726.908	-55.500	-0.161	-0.073
-725.894	133.268	-0.178	-0.232
-724.879	165.275	0.156	-0.222
-723.864	-200.000	0.031	-0.201
-722.850	-61.200	-0.120	0.051
-721.835	131.293	0.415	0.538
-720.821	-62.791	-0.152	0.063
-719.806	-161.495	0.213	-0.011
-718.791	-200.000	-0.010	-0.192
-717.777	-54.083	0.155	-0.071
-716.762	-165.415	0.166	-0.007
-715.748	47.310	-0.258	-0.243
-714.733	800.000	-0.043	-0.176
-713.718	116.529	-0.185	-0.229
-712.704	68.311	-0.226	-0.233
-711.689	742.315	0.044	-0.120
-710.675	21.096	-0.167	-0.137
-709.660	-200.000	-0.021	-0.354
-708.645	-29.318	-0.135	-0.078
-707.631	800.000	0.026	-0.108
-706.616	-32.297	0.030	-0.017
-705.602	800.000	-0.077	-0.216
-704.587	15.203	-0.139	0.110
-703.572	800.000	-0.072	0.226
-702.558	12.251	-0.261	-0.203
-701.543	119.838	-0.090	0.112
-700.529	-40.603	-0.182	-0.095
-699.514	-184.396	0.075	0.001
-698.499	-200.000	0.004	0.019
-697.485	-59.118	-0.117	-0.051
-696.470	-37.401	-0.168	-0.090
-695.456	-10.836	-0.117	-0.078
-694.441	-200.000	0.079	-0.394
-693.426	-200.000	0.002	0.065
-692.412	-200.000	-0.043	0.214
-691.397	457.015	-0.117	-0.263
-690.383	-86.766	0.352	0.109
-689.368	155.029	0.111	-0.154
-688.354	-111.968	0.040	-0.008
-687.339	84.931	-0.127	0.140
-686.324	33.819	0.152	-0.133
-685.310	-200.000	-0.030	-0.165
-684.295	-200.000	0.027	-0.255
-683.281	-40.444	-0.191	0.100
-682.266	-30.419	0.330	-0.188
-681.251	-200.000	0.009	-0.218
-680.237	-34.120	0.287	-0.159
-679.222	194.145	0.204	0.312
-678.208	-58.446	-0.186	0.081
-677.193	-27.062	0.010	-0.006
-676.178	-200.000	0.025	-0.158
-675.164	383.457	-0.158	0.329
-674.149	73.771	-0.234	-0.247
-673.135	75.135	-0.257	-0.273
-672.120	-78.079	0.086	-0.030
-671.105	31.205	0.260	-0.225
-670.091	800.000	0.139	-0.456
-669.076	181.406	0.206	-0.306
-668.062	35.836	0.155	-0.138
-667.047	-200.000	0.040	-0.368
-666.032	441.881	-0.050	0.111
-665.018	-105.510	0.339	-0.077
-664.003	-166.391	0.248	0.010
-662.989	800.000	-0.087	0.261
-661.974	191.789	-0.191	0.289
-660.959	377.323	-0.088	-0.181
-659.945	-200.000	-0.036	-0.185
-658.930	-25.847	0.217	-0.129
-657.916	95.664	-0.131	0.151
-656.901	-75.409	0.036	0.013
-655.886	86.971	-0.132	0.147
-654.872	251.499	0.110	0.189
-653.857	-200.000	0.002	0.156
-652.843	47.118	-0.172	-0.161
-651.828	-6.430	-0.069	0.047
-650.814	-62.345	0.375	-0.157
-649.799	-200.000	-0.001	-0.112
-648.784	107.863	0.138	-0.165
-647.770	393.526	-0.049	-0.102
-646.755	156.479	-0.094	0.131
-645.741	-137.649	0.183	0.021
-644.726	130.331	-0.309	0.398
-643.711	-88.300	0.159	0.048
-642.697	59.200	-0.070	0.069
-641.682	-69.860	-0.319	-0.122
-640.668	-200.000	-0.003	-0.353
-639.653	-172.955	0.354	-0.011
-638.638	-105.816	0.059	-0.013
-637.624	-109.910	0.061	0.013
-636.609	-128.423	-0.134	-0.019
-635.595	30.492	-0.112	-0.096
-634.580	-200.000	-0.021	0.110
-633.565	19.563	0.032	-0.026
-632.551	-65.121	0.227	0.092
-631.536	-114.333	0.079	-0.015
-630.522	231.501	-0.203	-0.335
-629.507	31.481	0.146	-0.126
-628.492	800.000	0.121	-0.438
-627.478	-0.638	-0.040	0.028
-626.463	14.401	-0.210	-0.165
-625.449	-200.000	0.080	0.360
-624.434	179.561	-0.186	0.274
-623.419	139.690	-0.017	-0.022
-622.405	-90.866	0.287	0.083
-621.390	-60.518	0.026	-0.011
-620.376	-115.752	-0.208	0.039
-619.361	37.885	0.200	-0.179
-618.346	-44.876	-0.165	-0.083
-617.332	53.518	-0.378	0.364
-616.317	-117.852	0.126	-0.023
-615.303	-200.000	-0.011	0.090
-614.288	25.650	0.124	0.104
-613.273	443.017	-0.046	-0.102
-612.259	800.000	-0.118	-0.345
-611.244	188.930	0.105	-0.158
-610.230	30.108	0.315	0.270
-609.215	689.630	-0.060	0.158
-608.201	164.508	0.244	0.346
-607.186	117.990	-0.147	-0.182
-606.171	-165.557	0.334	0.015
-605.157	-197.486	-0.128	-0.001
-604.142	-34.989	0.190	0.104
-603.128	25.271	-0.239	0.200
-602.113	15.246	0.312	-0.246
-601.098	-52.577	-0.297	-0.138
-600.084	-200.000	-0.038	0.283
-599.069	216.552	0.110	0.176
-598.055	33.984	0.391	-0.342
-597.040	-21.697	-0.342	-0.210
-596.025	-200.000	0.012	-0.132
-595.011	-148.255	0.376	0.031
-593.996	-60.900	-0.048	0.021
-592.982	800.000	-0.132	-0.385
-591.967	637.171	0.076	0.195
-590.952	-124.696	0.216	0.034
-589.938	-138.962	-0.054	-0.006
-588.923	121.177	0.088	-0.110
-587.909	-190.473	0.254	-0.003
-586.894	-31.106	-0.152	-0.086
-585.879	800.000	0.064	0.251
-584.865	-186.190	-0.288	-0.004
-583.850	-50.731	-0.047	-0.022
-582.836	-113.411	0.092	0.018
-581.821	238.858	0.121	-0.203
-580.806	119.449	-0.223	-0.278
-579.792	-36.473	0.314	-0.170
-578.777	-123.439	-0.383	-0.061
-577.763	632.215	0.052	-0.132
-576.748	-69.936	0.241	0.092
-575.733	800.000	-0.042	-0.127
-574.719	800.000	0.049	0.142
-573.704	192.391	-0.087	-0.131
-572.690	-101.940	0.058	-0.014
-571.675	-120.163	-0.041	-0.007
-570.661	326.149	-0.109	0.209
-569.646	98.949	0.033	-0.038
-568.631	-200.000	0.053	-0.337
-567.617	-200.000	0.047	0.369
-566.602	537.190	-0.153	-0.364
-565.588	42.192	-0.066	0.060
-564.573	-121.108	0.276	-0.046
-563.558	301.705	0.097	0.179
-562.544	-103.500	0.113	-0.027
-561.529	285.873	-0.102	0.185
-560.515	532.286	-0.107	-0.254
-559.500	140.792	-0.185	0.246
-558.485	34.291	-0.372	0.326
-557.471	-161.011	-0.263	0.014
-556.456	-102.949	-0.084	-0.020
-555.442	112.561	0.043	-0.052
-554.427	108.986	-0.094	0.112
-553.412	19.637	-0.402	0.324
-552.398	-200.000	0.058	0.304
-551.383	800.000	0.056	0.208
-550.369	-54.655	0.294	0.134
-549.354	-200.000	-0.043	-0.221
-548.339	52.142	0.189	-0.180
-547.325	-6.958	-0.203	-0.138
-546.310	-200.000	0.031	0.320
-545.296	-45.148	-0.290	0.144
-544.281	-5.916	0.257	-0.177
-543.266	34.051	0.129	-0.113
-542.252	-62.145	0.041	-0.017
-541.237	28.273	0.215	-0.182
-540.223	-85.541	-0.121	-0.038
-539.208	64.097	-0.202	0.204
-538.193	35.524	0.042	-0.037
-537.179	-200.000	0.023	0.181
-536.164	97.180	-0.128	0.147
-535.150	-126.660	-0.136	0.020
-534.135	21.598	-0.123	0.100
-533.121	-32.434	0.164	-0.091
-532.106	-97.939	0.134	-0.035
-531.091	800.000	-0.058	-0.245
-530.077	-2.808	0.233	-0.163
-529.062	242.012	-0.161	-0.270
-528.048	-200.000	0.005	-0.269
-527.033	-200.000	0.025	0.293
-526.018	8.383	-0.119	-0.089
-525.004	-9.232	0.096	-0.064
-523.989	-100.670	0.144	-0.036
-522.975	164.509	0.068	-0.096
-521.960	-200.000	0.009	-0.041
-520.945	-33.450	0.175	-0.097
-519.931	-30.970	0.211	-0.119
-518.916	25.778	0.078	0.065
-517.902	-190.944	-0.048	-0.001
-516.887	100.135	-0.156	-0.182
-515.872	800.000	0.094	-0.268
-514.858	-127.428	-0.298	-0.043
-513.843	-200.000	-0.004	-0.160
-512.829	575.363	0.072	-0.175
-511.814	-47.592	0.149	-0.073
-510.799	217.845	0.059	0.094
-509.785	-200.000	0.008	-0.097
-508.770	-200.000	0.014	0.185
-507.756	-8.578	-0.087	-0.058
-506.741	-200.000	0.069	-0.419
-505.726	519.935	-0.043	-0.101
-504.712	95.218	0.056	0.064
-503.697	800.000	-0.085	-0.325
-502.683	-200.000	0.001	0.095
-501.668	-200.000	-0.004	-0.047
-500.653	36.612	-0.195	0.172
-499.639	-66.051	0.169	-0.067
-498.624	-68.728	0.216	-0.084
-497.610	-200.000	-0.029	0.424
-496.595	-38.581	0.199	0.105
-495.581	800.000	0.039	-0.134
-494.566	-18.509	-0.174	-0.108
-493.551	186.390	-0.093	0.139
-492.537	-0.539	0.274	-0.194
-491.522	-65.324	-0.306	-0.123
-490.508	455.507	-0.141	0.313
-489.493	-61.380	0.040	0.017
-488.478	-7.253	-0.084	-0.057
-487.464	-200.000	0.028	0.130
-486.449	-13.575	-0.117	0.076
-485.435	38.416	-0.126	-0.112
-484.420	2.628	0.235	0.170
-483.405	-74.210	0.131	0.047
-482.391	800.000	-0.114	0.391
-481.376	-200.000	0.064	0.283
-480.362	800.000	0.063	0.247
-479.347	-200.000	0.014	-0.227
-478.332	-200.000	0.040	0.249
-477.318	-200.000	0.049	0.419
-476.303	-95.974	0.260	-0.069
-475.289	-125.343	-0.103	-0.016
-474.274	699.548	0.047	0.125
-473.259	-158.252	-0.179	-0.010
-472.245	-200.000	0.036	-0.242
-471.230	-94.631	0.132	-0.036
-470.216	374.990	-0.073	-0.150
-469.201	296.503	0.034	-0.063
-468.186	245.787	-0.024	0.040
-467.172	-29.842	-0.246	0.140
-466.157	-8.193	0.100	0.067
-465.143	-26.304	-0.326	-0.191
-464.128	-200.000	0.025	-0.176
-463.113	5.645	0.079	0.058
-462.099	-200.000	0.035	0.167
-461.084	-43.852	-0.254	-0.128
-460.070	-200.000	-0.071	-0.366
-459.055	-35.776	0.107	0.058
-458.040	-131.525	-0.359	0.047
-457.026	518.399	-0.059	0.139
-456.011	-39.957	0.060	0.031
-454.997	800.000	0.089	0.361
-453.982	48.991	0.101	0.095
-452.968	222.740	-0.068	0.110
-451.953	326.678	0.146	-0.279
-450.938	38.220	-0.212	-0.189
-449.924	150.885	0.123	0.168
-448.909	-70.011	-0.082	0.031
-447.895	-200.000	-0.029	0.195
-446.880	-149.181	0.205	0.016
-445.865	-185.033	0.240	0.004
-444.851	800.000	-0.019	-0.065
-443.836	-200.000	0.068	-0.386
-442.822	0.877	0.238	0.171
-441.807	-50.751	-0.126	0.059
-440.792	205.884	0.177	-0.274
-439.778	-32.015	-0.149	0.083
-438.763	-200.000	-0.007	0.237
-437.749	-67.312	-0.380	0.149
-436.734	-169.960	-0.131	0.005
-435.719	289.400	-0.184	0.332
-434.705	-6.859	-0.120	-0.081
-433.690	26.210	-0.104	-0.086
-432.676	-76.714	-0.202	0.071
-431.661	-45.729	-0.262	0.130
-430.646	-105.859	0.068	0.015
-429.632	800.000	-0.010	0.031
-428.617	-200.000	0.009	0.356
-427.603	131.624	0.116	0.149
-426.588	7.618	-0.120	-0.090
-425.573	327.758	-0.142	-0.273
-424.559	-11.651	0.219	-0.144
-423.544	103.061	-0.074	0.087
-422.530	206.115	-0.182	0.283
-421.515	-85.519	-0.254	0.079
-420.500	-200.000	-0.039	0.177
-419.486	49.427	-0.161	0.151
-418.471	-32.512	-0.436	0.243
-417.457	-200.000	-0.002	-0.073
-416.442	365.033	-0.092	0.185
-415.428	-10.872	-0.066	0.044
-414.413	51.909	0.160	-0.152
-413.398	171.297	-0.123	0.176
-412.384	-9.048	-0.054	-0.036
-411.369	-200.000	-0.008	-0.155
-410.355	-86.636	0.092	0.028
-409.340	800.000	0.057	0.164
-408.325	-37.800	-0.184	-0.098
-407.311	-200.000	-0.015	0.207
-406.296	-158.417	-0.425	0.025
-405.282	-40.577	0.074	0.038
-404.267	-200.000	0.025	0.126
-403.252	-67.796	0.284	0.111
-402.238	-15.106	-0.253	0.162
-401.223	7.651	-0.125	0.093
-400.209	191.281	-0.130	0.196
-399.194	-78.114	-0.377	0.130
-398.179	5.015	-0.099	-0.073
-397.165	-72.677	-0.451	-0.166
-396.150	-200.000	-0.002	-0.034
-395.136	-141.196	-0.440	0.045
-394.121	-28.670	0.222	0.127
-393.106	144.100	0.009	0.012
-392.092	116.705	-0.166	-0.203
-391.077	270.253	-0.069	-0.121
-390.063	-108.605	-0.045	-0.010
-389.048	148.927	0.138	-0.186
-388.033	45.143	0.172	-0.158
-387.019	-200.000	-0.015	-0.183
-386.004	-37.143	0.124	0.066
-384.990	147.164	0.113	0.152
-383.975	-200.000	0.013	-0.094
-382.960	10.448	-0.165	0.125
-381.946	50.403	0.204	0.192
-380.931	-52.889	0.185	0.085
-379.917	-47.959	0.137	0.066
-378.902	75.485	-0.207	-0.218
-377.888	-103.765	0.298	0.070
-376.873	262.977	0.128	-0.222
-375.858	-200.000	-0.014	0.126
-374.844	296.963	0.154	-0.281
-373.829	-87.540	0.044	0.013
-372.815	131.869	0.128	-0.164
-371.800	800.000	-0.072	-0.240
-370.785	29.696	-0.086	0.073
-369.771	-12.895	0.218	-0.142
-368.756	-64.262	0.159	-0.065
-367.742	800.000	-0.054	-0.174
-366.727	800.000	-0.073	-0.202
-365.712	412.798	-0.181	-0.384
-364.698	-2.124	-0.109	0.076
-363.683	-119.685	-0.084	0.014
-362.669	264.124	0.106	-0.184
-361.654	-200.000	-0.004	0.436
-360.639	35.937	-0.230	0.202
-359.625	-87.168	-0.087	0.026
-358.610	-93.753	0.382	0.105
-357.596	-200.000	-0.016	0.100
-356.581	41.961	-0.255	0.230
-355.566	506.243	0.132	-0.305
-354.552	155.860	-0.089	0.121
-353.537	122.026	-0.015	0.019
-352.523	-34.301	0.225	-0.123
-351.508	486.022	0.123	-0.278
-350.493	-15.042	-0.174	0.111
-349.479	187.956	0.067	0.100
-348.464	-32.934	0.166	-0.092
-347.450	-38.152	-0.153	-0.081
-346.435	-9.296	0.102	0.068
-345.420	247.319	-0.026	0.044
-344.406	68.800	0.159	0.162
-343.391	481.821	0.176	0.398
-342.377	-25.809	0.208	-0.122
-341.362	-40.517	0.119	-0.061
-340.348	-71.549	-0.094	0.035
-339.333	188.597	0.089	0.132
-338.318	-179.484	0.288	0.006
-337.304	-181.678	0.196	-0.004
-336.289	800.000	0.062	0.191
-335.275	-200.000	0.001	-0.231
-334.260	289.776	-0.118	-0.212
-333.245	-23.507	0.244	0.146
-332.231	-74.344	-0.114	-0.041
-331.216	14.628	-0.203	-0.158
-330.202	-58.583	0.224	-0.097
-329.187	-200.000	-0.029	0.146
-328.172	800.000	-0.052	0.220
-327.158	53.097	-0.044	-0.041
-326.143	88.464	0.170	0.188
-325.129	-2.341	-0.180	-0.126
-324.114	24.429	0.035	0.029
-323.099	-200.000	-0.033	-0.312
-322.085	800.000	-0.064	-0.196
-321.070	-200.000	-0.002	0.142
-320.056	800.000	-0.036	-0.136
-319.041	-147.853	-0.373	0.031
-318.026	-139.860	0.374	0.039
-317.012	36.603	0.431	-0.379
-315.997	5.635	-0.160	-0.117
-314.983	81.316	0.181	0.194
-313.968	229.143	-0.181	0.294
-312.953	-8.338	-0.103	0.069
-311.939	-200.000	-0.019	-0.198
-310.924	81.649	-0.116	-0.125
-309.910	254.965	-0.064	-0.110
-308.895	341.664	-0.073	0.142
-307.880	295.182	0.132	-0.239
-306.866	-153.383	0.145	0.010
-305.851	-116.799	-0.159	-0.029
-304.837	-33.609	0.198	-0.109
-303.822	-180.413	0.041	-0.001
-302.807	800.000	0.133	-0.394
-301.793	-180.443	0.271	-0.006
-300.778	41.311	0.077	0.069
-299.764	57.092	0.203	0.197
-298.749	-172.899	0.353	-0.011
-297.735	562.387	-0.025	-0.060
-296.720	-93.768	0.126	-0.034
-295.705	-156.395	0.417	0.026
-294.691	-67.103	0.024	0.009
-293.676	171.020	0.059	0.084
-292.662	-66.987	0.233	-0.091
-291.647	-61.367	0.275	0.115
-290.632	-38.638	0.117	-0.061
-289.618	-200.000	-0.057	0.336
-288.603	-191.079	-0.312	0.003
-287.589	288.355	0.198	-0.356
-286.574	800.000	-0.028	0.121
-285.559	-69.693	0.288	-0.109
-284.545	800.000	-0.055	0.219
-283.530	161.269	-0.209	-0.290
-282.516	76.673	0.183	-0.192
-281.501	-159.791	-0.439	0.024
-280.486	-146.081	-0.146	-0.013
-279.472	-97.996	0.205	-0.052
-278.457	-200.000	0.015	-0.177
-277.443	-67.303	-0.229	-0.089
-276.428	800.000	0.102	-0.369
-275.413	-145.346	0.082	-0.007
-274.399	759.034	0.025	0.068
-273.384	165.857	0.219	0.308
-272.370	102.589	-0.242	0.281
-271.355	-38.918	-0.250	0.131
-270.340	291.509	-0.031	0.056
-269.326	-47.855	-0.221	-0.106
-268.311	-89.203	-0.282	0.082
-267.297	-101.770	0.232	-0.056
-266.282	-200.000	-0.023	0.206
-265.267	47.800	-0.287	-0.266
-264.253	-159.051	0.469	-0.026
-263.238	79.915	0.183	-0.195
-262.224	139.637	-0.020	0.027
-261.209	-22.691	0.190	-0.114
-260.195	-200.000	-0.077	0.477
-259.180	-39.213	-0.056	-0.029
-258.165	-200.000	0.308	-0.001
-257.151	-200.000	0.017	0.289
-256.136	-102.197	-0.285	-0.068
-255.122	800.000	0.121	-0.350
-254.107	56.554	-0.267	0.257
-253.092	173.213	-0.064	-0.092
-252.078	-59.824	0.287	0.122
-251.063	437.741	-0.038	0.082
-250.049	-135.192	-0.229	-0.027
-249.034	604.002	-0.146	-0.361
-248.019	54.673	0.330	-0.316
-247.005	-166.629	-0.430	0.018
-245.990	-176.954	-0.109	-0.003
-244.976	800.000	-0.059	-0.205
-243.961	-61.160	-0.225	0.094
-242.946	-141.677	-0.361	-0.036
-241.932	-150.674	-0.383	0.029
-240.917	375.397	-0.031	0.063
-239.903	340.396	0.124	0.240
-238.888	800.000	-0.062	0.215
-237.873	279.574	0.164	0.290
-236.859	-25.052	-0.402	0.236
-235.844	800.000	-0.026	0.099
-234.830	-120.971	-0.272	-0.045
-233.815	800.000	-0.024	0.067
-232.800	-200.000	-0.007	0.057
-231.786	44.492	-0.175	0.159
-230.771	-138.525	0.091	-0.010
-229.757	49.998	0.034	-0.032
-228.742	-96.387	0.134	-0.035
-227.727	50.694	-0.190	0.178
-226.713	-29.938	0.264	-0.149
-225.698	-79.361	0.216	0.072
-224.684	121.154	-0.222	0.274
-223.669	-200.000	0.027	0.177
-222.655	-150.397	0.453	-0.035
-221.640	-200.000	-0.009	0.060
-220.625	33.103	0.143	-0.123
-219.611	-16.650	-0.098	-0.061
-218.596	156.437	0.139	0.190
-217.582	-139.364	0.280	-0.030
-216.567	19.444	0.216	-0.172
-215.552	348.268	-0.178	-0.347
-214.538	-200.000	-0.005	-0.227
-213.523	-82.805	-0.132	0.042
-212.509	-69.317	-0.215	-0.082
-211.494	50.762	-0.078	0.073
-210.479	480.338	-0.047	0.105
-209.465	129.863	0.124	-0.157
-208.450	6.077	-0.074	-0.054
-207.436	114.928	0.099	0.119
-206.421	-70.485	0.248	0.093
-205.406	-39.386	0.208	-0.108
-204.392	-67.714	0.117	0.045
-203.377	84.533	-0.131	-0.142
-202.363	-97.063	-0.266	0.069
-201.348	126.780	-0.092	0.115
-200.333	300.030	-0.161	-0.294
-199.319	-85.705	-0.114	-0.035
-198.304	386.370	-0.047	-0.096
-197.290	118.566	0.093	0.113
-196.275	235.674	0.272	0.445
-195.260	32.049	-0.211	-0.180
-194.246	-21.128	0.192	0.116
-193.231	-200.000	-0.031	0.138
-192.217	31.827	-0.171	-0.146
-191.202	-200.000	0.029	-0.417
-190.187	-200.000	0.025	0.247
-189.173	-64.145	0.265	0.107
-188.158	-47.421	-0.137	-0.066
-187.144	800.000	-0.040	-0.140
-186.129	782.295	-0.048	-0.129
-185.114	-138.826	-0.093	0.010
-184.100	-163.490	-0.188	0.009
-183.085	320.524	-0.106	0.200
-182.071	-28.433	0.233	0.133
-181.056	42.955	0.221	-0.200
-180.042	-27.436	0.329	0.189
-179.027	-66.654	-0.331	0.130
-178.012	-200.000	0.020	0.098
-176.998	-65.288	0.143	0.057
-175.983	40.371	-0.187	-0.166
-174.969	50.236	0.210	0.196
-173.954	94.657	-0.148	-0.166
-172.939	-200.000	0.030	-0.163
-171.925	-125.355	-0.425	-0.064
-170.910	-5.585	0.296	-0.201
-169.896	-200.000	0.022	0.097
-168.881	46.948	-0.130	-0.119
-167.866	104.762	0.086	-0.100
-166.852	-102.543	-0.212	-0.050
-165.837	-61.865	0.150	0.062
-164.823	-19.169	0.152	0.093
-163.808	-20.585	0.203	-0.123
-162.793	800.000	-0.075	-0.219
-161.779	800.000	0.099	-0.292
-160.764	-52.004	0.185	0.085
-159.750	-200.000	-0.050	-0.246
-158.735	-200.000	-0.026	0.165
-157.720	151.327	0.240	0.323
-156.706	-136.950	0.101	-0.011
-155.691	-31.314	-0.249	0.139
-154.677	236.697	-0.087	0.143
-153.662	-200.000	-0.061	-0.266
-152.647	-92.290	0.510	0.142
-151.633	800.000	-0.046	0.185
-150.618	-13.684	0.059	-0.038
-149.604	800.000	-0.106	-0.376
-148.589	115.478	0.170	0.206
-147.574	-46.916	0.175	-0.084
-146.560	390.026	0.106	-0.216
-145.545	224.157	0.173	-0.276
-144.531	452.352	-0.151	-0.329
-143.516	-68.000	-0.213	-0.082
-142.502	-45.294	0.210	0.103
-141.487	187.609	0.157	0.231
-140.472	-72.172	-0.220	-0.080
-139.458	339.757	-0.105	-0.203
-138.443	225.763	0.174	-0.278
-137.429	800.000	0.085	-0.342
-136.414	-200.000	0.006	0.106
-135.399	66.488	0.104	-0.105
-134.385	141.918	0.070	-0.092
-133.370	-74.192	-0.308	-0.110
-132.356	422.391	-0.091	-0.192
-131.341	19.435	-0.154	0.122
-130.326	17.113	0.159	-0.124
-129.312	-124.212	-0.078	-0.012
-128.297	-82.157	0.309	0.099
-127.283	43.329	0.331	0.298
-126.268	-44.587	-0.333	0.164
-125.253	606.858	-0.119	0.293
-124.239	-65.310	-0.300	-0.119
-123.224	-200.000	0.028	-0.163
-122.210	800.000	0.075	0.250
-121.195	-68.587	0.182	0.070
