DTS Sentinel unit serial number:	SN413079Multiplexer serial number:	ORYXHardware model number:	OX4-SRSoftware version number:	ORYX F/W v4.00 Oryx Data Collector v3.7.2.0data status	okinstallation	princeton_trtdifferential loss correction	single-endedforward channel	channel 1reverse channel	N/Adate	2019/09/13time	12:06:35forward acquisition time	60.00reverse acquisition time	0.00gamma	496.2192k internal	0.2310k external	0.2310temperature offset calibration	1.0165default loss term (dB/km)	0.3790temperature slope calibration	1.0000multiplexer offset coefficient	1.0000multiplexer slope coefficient	1.0000fibre end	0.00T internal ref (°C)	33.75T ext. ref 1 (°C)	4.60T ext. ref 2 (°C)	31.30length (m)	temperature (°C)	Stokes	anti-Stokes-747.200	-180.588	0.327	-0.007
-746.185	5.662	-0.271	-0.204
-745.171	63.534	-0.171	0.175
-744.156	-200.000	-0.010	-0.070
-743.142	800.000	0.076	0.301
-742.127	94.271	-0.129	0.149
-741.112	-16.570	0.153	0.098
-740.098	58.140	-0.215	-0.214
-739.083	-200.000	-0.056	0.255
-738.069	39.568	-0.179	0.163
-737.054	-200.000	0.023	0.219
-736.039	-200.000	0.009	-0.298
-735.025	57.437	-0.068	0.067
-734.010	-200.000	0.009	-0.128
-732.996	-9.704	-0.182	0.123
-731.981	-65.044	-0.135	-0.056
-730.966	-200.000	-0.012	-0.265
-729.952	-171.108	0.159	-0.005
-728.937	-110.533	0.126	0.026
-727.923	-143.638	-0.158	-0.015
-726.908	30.552	-0.168	-0.146
-725.894	65.023	0.051	0.052
-724.879	-63.682	-0.171	-0.071
-723.864	120.411	-0.052	0.066
-722.850	-83.202	-0.254	0.083
-721.835	-200.000	-0.014	-0.061
-720.821	-97.113	-0.402	-0.107
-719.806	-82.145	-0.181	0.060
-718.791	603.171	0.065	-0.165
-717.777	55.238	-0.041	0.041
-716.762	83.676	-0.217	-0.240
-715.748	174.372	-0.293	-0.430
-714.733	800.000	-0.025	-0.075
-713.718	170.287	0.101	0.147
-712.704	-46.458	0.393	0.196
-711.689	-82.986	-0.146	-0.048
-710.675	90.542	-0.104	0.118
-709.660	-118.616	-0.131	-0.023
-708.645	800.000	0.026	0.086
-707.631	-33.325	-0.061	-0.034
-706.616	-62.357	-0.058	0.024
-705.602	-32.623	-0.298	0.168
-704.587	26.425	-0.100	0.085
-703.572	-52.952	0.148	-0.069
-702.558	-72.298	-0.281	0.106
-701.543	-103.292	-0.120	-0.029
-700.529	328.172	-0.123	0.240
-699.514	37.023	0.057	0.051
-698.499	-50.491	-0.392	0.188
-697.485	-200.000	0.032	-0.161
-696.470	-200.000	0.015	-0.432
-695.456	251.065	-0.199	-0.342
-694.441	30.348	0.053	-0.046
-693.426	21.533	0.048	-0.039
-692.412	13.031	0.072	-0.056
-691.397	-44.743	-0.148	-0.075
-690.383	7.492	-0.134	-0.102
-689.368	36.651	0.063	-0.056
-688.354	-16.193	-0.019	0.012
-687.339	110.004	-0.153	-0.186
-686.324	189.060	-0.109	0.165
-685.310	-83.293	0.103	-0.034
-684.295	12.972	-0.206	0.161
-683.281	393.289	-0.065	-0.136
-682.266	-192.307	-0.404	-0.004
-681.251	50.489	-0.167	0.160
-680.237	-104.662	0.045	-0.010
-679.222	119.144	-0.153	0.191
-678.208	-46.302	-0.252	0.125
-677.193	106.533	0.090	-0.108
-676.178	-200.000	-0.017	0.320
-675.164	160.128	-0.257	-0.363
-674.149	-26.438	-0.156	0.093
-673.135	-200.000	-0.015	-0.388
-672.120	800.000	-0.065	0.254
-671.105	141.017	-0.134	-0.179
-670.091	800.000	0.025	0.095
-669.076	25.526	-0.220	-0.185
-668.062	-99.013	0.471	-0.121
-667.047	121.122	-0.104	-0.131
-666.032	653.894	-0.060	-0.157
-665.018	132.290	-0.144	-0.188
-664.003	70.394	0.176	-0.184
-662.989	-200.000	-0.009	0.080
-661.974	470.394	0.103	-0.235
-660.959	-44.946	-0.222	-0.112
-659.945	28.690	0.298	0.255
-658.930	-153.546	0.184	-0.013
-657.916	524.319	0.238	-0.567
-656.901	-143.851	-0.071	-0.007
-655.886	-130.928	-0.041	0.005
-654.872	-71.442	-0.412	-0.156
-653.857	455.091	0.046	0.104
-652.843	-7.444	-0.313	-0.214
-651.828	539.347	0.056	-0.136
-650.814	-77.844	0.067	0.023
-649.799	-83.298	-0.266	0.086
-648.784	-34.882	0.333	0.184
-647.770	-200.000	0.077	0.344
-646.755	376.713	-0.050	-0.103
-645.741	62.253	0.435	0.439
-644.726	480.990	0.123	-0.281
-643.711	25.294	0.101	0.085
-642.697	-52.730	-0.111	0.052
-641.682	-172.033	-0.299	0.010
-640.668	283.957	0.102	0.186
-639.653	-200.000	-0.034	0.330
-638.638	59.991	0.109	-0.109
-637.624	36.909	-0.129	0.115
-636.609	-106.595	-0.139	-0.031
-635.595	-77.738	0.196	0.069
-634.580	800.000	0.016	-0.069
-633.565	46.530	0.279	-0.262
-632.551	-200.000	0.039	0.387
-631.536	-3.710	-0.181	-0.127
-630.522	800.000	0.030	0.093
-629.507	17.195	-0.204	-0.163
-628.492	-49.380	-0.124	-0.060
-627.478	-42.773	-0.155	0.080
-626.463	106.130	0.137	0.164
-625.449	503.669	-0.076	-0.177
-624.434	-110.276	-0.074	0.016
-623.419	-86.729	-0.287	0.089
-622.405	800.000	0.100	0.402
-621.390	293.937	0.239	-0.441
-620.376	15.401	0.357	0.283
-619.361	724.482	0.073	-0.196
-618.346	298.683	-0.136	-0.253
-617.332	31.406	0.036	0.031
-616.317	-120.162	-0.292	0.050
-615.303	496.544	-0.138	-0.320
-614.288	487.413	-0.101	0.232
-613.273	-200.000	-0.049	-0.272
-612.259	2.551	-0.171	0.125
-611.244	800.000	0.129	-0.462
-610.230	800.000	0.077	0.242
-609.215	-108.267	0.241	0.053
-608.201	-64.229	-0.209	-0.086
-607.186	1.429	0.229	-0.166
-606.171	-90.170	-0.427	0.125
-605.157	724.912	0.026	-0.069
-604.142	800.000	0.052	-0.206
-603.128	-200.000	0.037	-0.273
-602.113	1.309	0.148	-0.107
-601.098	166.577	0.168	-0.241
-600.084	97.063	0.301	-0.348
-599.069	-200.000	-0.021	-0.169
-598.055	-2.926	0.301	0.212
-597.040	-80.308	0.119	-0.040
-596.025	213.300	0.059	-0.094
-595.011	800.000	-0.010	-0.031
-593.996	-148.906	0.199	0.016
-592.982	119.878	0.154	0.193
-591.967	241.174	0.050	-0.084
-590.952	90.068	-0.269	0.303
-589.938	114.128	0.119	0.146
-588.923	-200.000	0.001	0.124
-587.909	120.409	-0.193	-0.242
-586.894	347.706	0.121	0.240
-585.879	-200.000	0.026	-0.156
-584.865	56.144	0.127	0.124
-583.850	-200.000	-0.022	-0.155
-582.836	-162.620	-0.278	-0.014
-581.821	267.310	0.080	0.141
-580.806	-200.000	0.031	0.143
-579.792	-34.855	0.400	0.220
-578.777	32.240	0.028	-0.024
-577.763	287.237	-0.132	0.241
-576.748	267.559	0.071	0.125
-575.733	336.821	-0.212	0.415
-574.719	-91.107	0.233	0.067
-573.704	382.310	0.140	-0.290
-572.690	-200.000	-0.227	0.000
-571.675	-156.249	-0.105	-0.007
-570.661	-89.918	0.445	0.131
-569.646	-39.197	0.043	-0.023
-568.631	736.863	-0.035	0.094
-567.617	7.159	-0.181	0.136
-566.602	91.900	0.127	-0.144
-565.588	-200.000	0.032	-0.245
-564.573	-82.254	-0.046	-0.015
-563.558	109.652	-0.183	0.222
-562.544	-65.701	0.379	-0.153
-561.529	1.031	-0.058	-0.042
-560.515	-97.037	0.100	0.026
-559.500	173.181	-0.241	0.351
-558.485	800.000	0.132	-0.441
-557.471	65.814	-0.201	-0.205
-556.456	176.789	0.162	-0.238
-555.442	82.836	-0.288	-0.315
-554.427	-200.000	0.008	0.180
-553.412	-1.312	0.191	-0.136
-552.398	-200.000	0.028	-0.222
-551.383	-200.000	-0.007	0.153
-550.369	800.000	0.055	-0.194
-549.354	260.488	0.089	-0.155
-548.339	-128.793	-0.102	-0.014
-547.325	38.994	0.165	-0.149
-546.310	42.330	-0.303	-0.278
-545.296	43.953	0.136	0.126
-544.281	-101.413	-0.318	-0.078
-543.266	-200.000	0.037	0.174
-542.252	53.463	0.102	0.098
-541.237	-185.657	-0.177	0.003
-540.223	744.069	-0.053	-0.144
-539.208	336.672	-0.054	0.105
-538.193	-200.000	0.042	-0.225
-537.179	-132.609	-0.339	0.044
-536.164	6.809	0.061	-0.045
-535.150	-0.452	-0.181	0.129
-534.135	-104.738	0.209	0.048
-533.121	800.000	-0.085	-0.311
-532.106	-200.000	-0.027	0.186
-531.091	779.730	-0.030	0.082
-530.077	-64.357	0.312	0.128
-529.062	51.140	0.085	-0.081
-528.048	231.736	0.040	-0.066
-527.033	-200.000	0.006	0.184
-526.018	-88.666	0.247	-0.074
-525.004	182.387	0.077	0.114
-523.989	-200.000	-0.021	-0.339
-522.975	130.439	0.097	-0.126
-521.960	36.943	-0.122	0.108
-520.945	-130.350	0.163	-0.022
-519.931	301.050	0.114	0.211
-518.916	-73.947	-0.065	-0.024
-517.902	800.000	0.030	0.094
-516.887	141.133	-0.152	0.203
-515.872	-57.912	-0.105	0.046
-514.858	-7.158	0.121	0.083
-513.843	-44.141	0.142	0.072
-512.829	-74.285	-0.245	0.089
-511.814	-93.867	0.213	0.059
-510.799	-101.643	-0.269	-0.066
-509.785	-92.693	-0.396	0.111
-508.770	188.608	0.180	0.271
-507.756	104.581	-0.279	-0.330
-506.741	-128.615	0.166	-0.024
-505.726	-200.000	-0.016	-0.090
-504.712	440.773	0.045	0.100
-503.697	-110.536	0.180	-0.038
-502.683	-4.996	-0.169	-0.117
-501.668	347.371	-0.099	-0.195
-500.653	-200.000	-0.026	0.207
-499.639	-200.000	-0.030	0.239
-498.624	-21.982	0.045	0.028
-497.610	489.249	0.038	-0.088
-496.595	-200.000	0.006	-0.038
-495.581	185.268	-0.078	0.116
-494.566	-129.282	0.128	-0.018
-493.551	-200.000	-0.006	-0.070
-492.537	-200.000	-0.018	-0.161
-491.522	4.819	0.170	0.125
-490.508	-162.100	0.241	0.012
-489.493	59.288	-0.089	0.088
-488.478	-51.068	0.291	0.137
-487.464	-89.657	0.113	-0.033
-486.449	-200.000	0.002	-0.417
-485.435	1.589	-0.112	0.081
-484.420	800.000	0.058	-0.239
-483.405	11.518	0.295	-0.227
-482.391	644.070	-0.060	0.155
-481.376	70.610	-0.124	-0.129
-480.362	-41.033	0.099	0.051
-479.347	-110.811	0.259	0.054
-478.332	197.366	0.178	-0.274
-477.318	-71.753	-0.139	0.052
-476.303	10.602	0.240	-0.184
-475.289	-25.182	-0.153	0.091
-474.274	522.075	-0.074	0.174
-473.259	27.947	-0.124	0.105
-472.245	800.000	0.044	-0.175
-471.230	768.460	-0.073	-0.200
-470.216	81.344	-0.136	0.148
-469.201	88.605	-0.078	0.087
-468.186	435.539	-0.027	0.060
-467.172	-94.463	0.121	-0.033
-466.157	-71.702	-0.048	0.018
-465.143	652.078	0.067	-0.174
-464.128	732.819	0.039	-0.106
-463.113	-50.741	0.183	0.086
-462.099	43.435	0.334	-0.306
-461.084	-60.166	0.290	-0.124
-460.070	18.317	0.069	-0.056
-459.055	11.617	0.285	-0.219
-458.040	34.087	-0.269	-0.235
-457.026	-154.538	-0.151	-0.010
-456.011	800.000	-0.023	0.075
-454.997	65.401	-0.160	0.163
-453.982	162.155	0.062	-0.087
-452.968	193.153	0.128	-0.195
-451.953	123.619	-0.063	0.080
-450.938	267.733	-0.066	-0.117
-449.924	-200.000	0.004	-0.112
-448.909	-121.666	-0.294	-0.049
-447.895	225.816	0.086	0.140
-446.880	135.786	-0.140	0.183
-445.865	-16.144	0.313	-0.200
-444.851	200.980	0.040	-0.061
-443.836	-83.771	0.096	-0.031
-442.822	226.529	-0.165	-0.269
-441.807	153.099	0.089	0.123
-440.792	131.442	0.144	0.186
-439.778	83.061	-0.041	0.045
-438.763	-146.564	-0.538	0.047
-437.749	-200.000	-0.004	-0.030
-436.734	494.332	0.075	0.173
-435.719	-200.000	0.019	0.107
-434.705	-152.636	-0.016	0.001
-433.690	326.014	0.143	0.275
-432.676	-129.870	-0.137	0.019
-431.661	224.203	0.275	-0.446
-430.646	-26.827	-0.195	-0.114
-429.632	249.990	0.203	0.345
-428.617	-8.043	-0.149	-0.101
-427.603	-200.000	0.012	-0.144
-426.588	21.216	-0.106	0.087
-425.573	-18.145	0.172	-0.108
-424.559	312.876	0.099	0.187
-423.544	-172.284	0.134	-0.004
-422.530	800.000	-0.071	-0.204
-421.515	-25.501	-0.117	-0.069
-420.500	142.292	-0.139	0.185
-419.486	7.208	-0.220	-0.164
-418.471	-93.107	0.254	-0.071
-417.457	-52.450	-0.168	0.078
-416.442	641.603	-0.072	-0.184
-415.428	3.952	0.143	0.105
-414.413	800.000	0.068	-0.300
-413.398	-45.592	0.092	-0.046
-412.384	71.601	-0.144	0.150
-411.369	-200.000	-0.313	0.001
-410.355	145.376	-0.109	-0.146
-409.340	-107.996	-0.428	-0.093
-408.325	16.192	0.238	0.188
-407.311	-90.608	-0.120	0.035
-406.296	-200.000	0.023	0.166
-405.282	-73.196	0.145	0.053
-404.267	-146.697	0.185	0.016
-403.252	-33.323	-0.450	-0.249
-402.238	420.360	0.013	0.027
-401.223	377.097	-0.127	-0.260
-400.209	-200.000	-0.007	0.163
-399.194	-105.980	0.315	-0.071
-398.179	-1.462	-0.155	0.109
-397.165	383.286	-0.132	0.271
-396.150	-30.615	0.124	0.071
-395.136	102.430	-0.178	0.208
-394.121	30.610	-0.366	0.314
-393.106	-122.347	-0.168	-0.027
-392.092	-156.265	0.283	-0.018
-391.077	124.842	-0.109	0.137
-390.063	-49.153	-0.337	0.161
-389.048	800.000	-0.039	0.128
-388.033	-200.000	0.017	0.101
-387.019	-79.531	-0.165	-0.056
-386.004	-156.370	0.261	0.016
-384.990	-67.058	0.120	0.048
-383.975	-69.545	-0.180	0.069
-382.960	-118.141	0.240	-0.043
-381.946	-200.000	-0.008	0.073
-380.931	-86.668	0.087	0.027
-379.917	-200.000	-0.020	0.098
-378.902	155.712	-0.195	0.269
-377.888	-20.995	0.127	0.078
-376.873	163.323	0.218	0.306
-375.858	800.000	-0.055	0.185
-374.844	-9.373	-0.329	0.220
-373.829	540.829	0.155	0.370
-372.815	43.773	-0.320	0.293
-371.800	-200.000	-0.035	-0.205
-370.785	-137.395	0.127	0.014
-369.771	93.751	-0.154	-0.175
-368.756	294.045	-0.155	-0.284
-367.742	-200.000	-0.022	-0.140
-366.727	800.000	0.042	0.185
-365.712	411.717	-0.091	-0.194
-364.698	76.694	-0.142	0.151
-363.683	70.008	-0.216	0.223
-362.669	-27.888	0.223	-0.129
-361.654	-200.000	0.027	-0.282
-360.639	800.000	0.048	-0.191
-359.625	-200.000	0.001	-0.205
-358.610	108.359	-0.337	-0.402
-357.596	-89.449	0.056	-0.016
-356.581	-200.000	0.031	0.218
-355.566	-200.000	0.011	0.433
-354.552	225.125	0.092	0.149
-353.537	-200.000	-0.054	0.275
-352.523	800.000	-0.043	0.174
-351.508	-200.000	0.035	0.223
-350.493	-200.000	-0.022	-0.204
-349.479	800.000	0.118	0.396
-348.464	547.788	-0.108	-0.258
-347.450	-8.091	0.324	0.218
-346.435	-200.000	-0.000	0.240
-345.420	-54.613	0.344	-0.155
-344.406	-19.406	0.397	0.246
-343.391	184.562	0.172	-0.255
-342.377	131.219	-0.126	-0.162
-341.362	27.842	-0.340	-0.286
-340.348	-106.691	-0.295	0.066
-339.333	-200.000	0.012	-0.083
-338.318	10.159	0.105	0.080
-337.304	-4.637	-0.176	-0.121
-336.289	-195.877	0.315	0.002
-335.275	-200.000	-0.032	-0.196
-334.260	237.576	0.084	-0.139
-333.245	87.667	0.125	0.138
-332.231	212.652	0.070	0.111
-331.216	143.733	0.038	-0.051
-330.202	-200.000	0.025	0.129
-329.187	143.581	0.074	0.099
-328.172	27.469	0.170	0.143
-327.158	-61.490	-0.225	0.094
-326.143	131.358	0.097	-0.125
-325.129	429.834	0.146	0.314
-324.114	321.435	0.027	-0.051
-323.099	19.766	-0.158	-0.127
-322.085	-87.475	-0.203	0.061
-321.070	297.541	0.118	0.216
-320.056	800.000	0.110	0.307
-319.041	406.820	-0.032	-0.067
-318.026	292.885	0.114	0.207
-317.012	530.888	-0.129	0.305
-315.997	-178.196	-0.182	-0.004
-314.983	-65.906	-0.106	0.042
-313.968	-16.717	-0.245	-0.155
-312.953	-74.767	-0.027	0.010
-311.939	-89.892	0.254	-0.074
-310.924	-145.450	-0.322	-0.029
-309.910	508.102	0.087	0.203
-308.895	-60.006	0.137	-0.059
-307.880	-134.244	-0.249	0.031
-306.866	-160.574	-0.234	-0.012
-305.851	500.493	0.047	-0.109
-304.837	-200.000	0.024	0.137
-303.822	261.189	0.118	0.204
-302.807	-159.986	-0.327	-0.018
-301.793	136.019	0.069	0.090
-300.778	14.117	-0.043	-0.034
-299.764	-29.099	-0.267	-0.153
-298.749	-63.966	0.268	-0.109
-297.735	-134.589	0.360	-0.044
-296.720	-95.338	-0.080	-0.021
-295.705	67.012	0.122	0.124
-294.691	-161.996	-0.165	-0.008
-293.676	-5.679	0.152	-0.104
-292.662	-107.881	-0.194	-0.042
-291.647	-73.385	-0.099	-0.036
-290.632	800.000	0.086	-0.306
-289.618	-118.229	0.178	-0.032
-288.603	-200.000	-0.019	0.159
-287.589	-124.002	0.431	0.068
-286.574	-200.000	0.054	-0.361
-285.559	596.252	0.026	0.063
-284.545	-200.000	0.038	0.172
-283.530	-20.242	-0.044	0.027
-282.516	800.000	-0.041	0.131
-281.501	315.451	0.056	-0.106
-280.486	6.604	0.385	0.285
-279.472	800.000	0.071	0.223
-278.457	-200.000	0.014	-0.112
-277.443	800.000	-0.015	0.058
-276.428	800.000	-0.062	0.197
-275.413	-125.252	-0.155	0.024
-274.399	-116.993	-0.083	0.015
-273.384	183.698	-0.070	0.103
-272.370	-165.065	-0.107	0.005
-271.355	-65.777	0.179	-0.071
-270.340	-19.805	-0.037	-0.023
-269.326	-130.441	0.132	-0.018
-268.311	-31.080	-0.194	0.109
-267.297	288.368	-0.141	-0.255
-266.282	328.833	-0.164	0.314
-265.267	-200.000	0.049	0.245
-264.253	-200.000	-0.052	0.291
-263.238	-200.000	-0.031	-0.247
-262.224	-109.794	0.364	0.076
-261.209	-200.000	0.036	0.251
-260.195	-141.903	0.197	0.020
-259.180	525.316	0.070	0.163
-258.165	-200.000	-0.009	-0.479
-257.151	-171.198	0.146	0.005
-256.136	-27.893	-0.215	0.124
-255.122	190.687	-0.154	0.231
-254.107	-110.629	0.168	-0.035
-253.092	-200.000	0.040	0.220
-252.078	21.782	-0.256	0.208
-251.063	-20.055	-0.318	-0.196
-250.049	-200.000	0.077	-0.380
-249.034	-25.354	0.194	0.114
-248.019	195.323	0.059	0.090
-247.005	-47.640	0.203	-0.098
-245.990	-200.000	-0.000	-0.076
-244.976	800.000	-0.101	-0.429
-243.961	-16.421	0.056	-0.036
-242.946	351.611	0.032	-0.064
-241.932	-88.896	-0.321	0.095
-240.917	-120.574	-0.258	-0.043
-239.903	-31.136	0.178	-0.100
-238.888	30.679	-0.149	-0.127
-237.873	459.949	-0.095	-0.212
-236.859	-113.387	-0.121	-0.024
-235.844	1.654	0.088	0.063
-234.830	43.849	0.125	-0.114
-233.815	-200.000	-0.027	0.179
-232.800	51.049	0.253	-0.238
-231.786	-126.565	-0.033	-0.005
-230.771	-200.000	-0.025	-0.114
-229.757	460.920	0.071	0.156
-228.742	-15.636	-0.262	-0.166
-227.727	-200.000	-0.026	-0.267
-226.713	-78.443	0.313	-0.107
-225.698	-112.735	0.102	-0.020
-224.684	-122.462	-0.115	-0.019
-223.669	-200.000	0.032	-0.272
-222.655	181.351	0.068	-0.100
-221.640	-200.000	0.003	0.016
-220.625	-114.140	-0.338	-0.065
-219.611	371.545	-0.042	-0.085
-218.596	800.000	-0.074	-0.274
-217.582	46.387	-0.151	0.139
-216.567	60.153	0.257	-0.253
-215.552	-200.000	0.017	0.310
-214.538	-77.322	-0.124	-0.043
-213.523	-26.667	0.233	-0.136
-212.509	81.425	-0.044	-0.048
-211.494	-145.674	-0.135	0.012
-210.479	-200.000	0.023	-0.195
-209.465	-59.644	0.198	-0.084
-208.450	-52.047	-0.138	-0.064
-207.436	249.462	-0.144	0.242
-206.421	-200.000	0.026	0.231
-205.406	36.349	-0.173	-0.152
-204.392	-13.967	0.220	0.141
-203.377	54.570	-0.370	0.355
-202.363	-130.520	-0.105	-0.014
-201.348	213.313	-0.097	0.152
-200.333	151.545	0.077	0.104
-199.319	800.000	-0.066	0.187
-198.304	283.834	0.105	0.188
-197.290	42.923	-0.148	-0.134
-196.275	135.621	0.210	-0.271
-195.260	-200.000	-0.037	-0.393
-194.246	45.883	-0.271	-0.250
-193.231	-22.204	0.237	0.143
-192.217	-200.000	-0.066	0.520
-191.202	-66.357	0.133	0.052
-190.187	-200.000	-0.022	-0.330
-189.173	24.162	-0.108	0.089
-188.158	-200.000	-0.010	-0.176
-187.144	-200.000	0.003	-0.321
-186.129	650.743	0.047	-0.120
-185.114	-50.599	-0.102	-0.048
-184.100	36.836	0.100	0.088
-183.085	800.000	0.042	-0.179
-182.071	800.000	-0.028	-0.080
-181.056	-200.000	0.009	0.135
-180.042	152.494	-0.050	0.068
-179.027	-117.790	0.353	-0.063
-178.012	22.204	0.201	0.163
-176.998	-200.000	-0.014	-0.153
-175.983	220.812	-0.254	-0.404
-174.969	800.000	0.053	-0.220
-173.954	564.079	-0.108	-0.260
-172.939	-26.148	0.202	0.118
-171.925	-34.494	-0.154	-0.084
-170.910	148.575	0.180	0.241
-169.896	146.059	-0.119	0.158
-168.881	306.670	-0.125	0.232
-167.866	20.396	-0.186	-0.149
-166.852	169.128	0.121	0.172
-165.837	519.078	-0.084	0.195
-164.823	30.950	0.176	0.150
-163.808	125.114	-0.067	0.083
-162.793	-35.968	0.159	-0.086
-161.779	-117.080	-0.122	0.022
-160.764	-200.000	0.018	0.255
-159.750	195.235	-0.235	0.355
-158.735	-67.781	-0.384	-0.149
-157.720	224.046	0.127	-0.204
-156.706	-200.000	-0.065	-0.367
-155.691	800.000	0.084	-0.305
-154.677	-200.000	-0.025	-0.133
-153.662	-105.913	-0.114	-0.026
-152.647	-56.489	-0.050	0.022
-151.633	109.261	-0.109	-0.129
-150.618	80.382	0.111	0.118
-149.604	-200.000	-0.011	0.303
-148.589	800.000	0.144	0.449
-147.574	800.000	-0.063	-0.206
-146.560	-128.863	0.306	0.043
-145.545	59.733	-0.208	-0.204
-144.531	36.372	-0.086	0.076
-143.516	56.740	0.063	-0.061
-142.502	241.904	-0.174	0.288
-141.487	177.994	0.215	0.311
-140.472	-172.654	0.224	0.007
-139.458	107.161	0.290	-0.341
-138.443	162.936	0.179	-0.250
-137.429	73.644	-0.204	-0.212
-136.414	-81.351	0.049	0.016
-135.399	-200.000	-0.033	0.190
-134.385	3.039	0.223	-0.161
-133.370	301.301	0.032	-0.058
-132.356	113.974	0.323	-0.390
-131.341	65.882	-0.163	0.163
-130.326	-200.000	-0.018	0.132
-129.312	41.395	-0.071	-0.064
-128.297	43.839	0.142	-0.129
-127.283	399.563	0.061	-0.127
-126.268	647.393	-0.073	-0.186
-125.253	-72.138	-0.349	-0.128
-124.239	515.876	0.067	0.155
-123.224	32.157	-0.234	-0.200
-122.210	335.004	-0.078	0.149
-121.195	-200.000	-0.006	-0.163
