DTS Sentinel unit serial number:	SN413079Multiplexer serial number:	ORYXHardware model number:	OX4-SRSoftware version number:	ORYX F/W v4.00 Oryx Data Collector v3.7.2.0data status	okinstallation	princeton_trtdifferential loss correction	single-endedforward channel	channel 1reverse channel	N/Adate	2019/09/19time	05:02:35forward acquisition time	60.00reverse acquisition time	0.00gamma	496.2192k internal	0.2343k external	0.2343temperature offset calibration	1.0021default loss term (dB/km)	0.3790temperature slope calibration	1.0000multiplexer offset coefficient	1.0000multiplexer slope coefficient	1.0000fibre end	0.00T internal ref (°C)	19.69T ext. ref 1 (°C)	0.62T ext. ref 2 (°C)	12.90length (m)	temperature (°C)	Stokes	anti-Stokes-747.200	94.659	-0.306	0.349
-746.185	727.007	-0.041	0.111
-745.171	-105.819	0.065	-0.015
-744.156	17.582	0.122	0.097
-743.142	-85.740	0.278	-0.086
-742.127	23.848	-0.106	-0.088
-741.112	800.000	0.149	0.424
-740.098	368.266	0.131	-0.265
-739.083	-9.513	0.133	-0.089
-738.069	-200.000	-0.033	0.312
-737.054	-113.605	-0.241	-0.047
-736.039	-81.892	-0.191	-0.063
-735.025	-200.000	0.005	0.218
-734.010	-200.000	-0.027	-0.349
-732.996	268.393	-0.116	0.204
-731.981	134.518	-0.047	-0.061
-730.966	-80.348	-0.500	-0.167
-729.952	-52.265	-0.346	-0.160
-728.937	-182.032	-0.519	-0.010
-727.923	-112.555	0.257	0.051
-726.908	153.018	0.055	0.076
-725.894	-121.031	-0.356	0.060
-724.879	-200.000	-0.036	0.407
-723.864	11.800	-0.296	-0.228
-722.850	-200.000	0.024	-0.505
-721.835	-200.000	0.019	-0.259
-720.821	-116.336	0.071	-0.013
-719.806	-26.651	0.255	0.150
-718.791	-61.719	0.168	-0.071
-717.777	-113.416	-0.230	0.045
-716.762	-131.223	0.342	-0.045
-715.748	-55.759	-0.197	0.088
-714.733	262.669	-0.138	-0.240
-713.718	329.125	-0.118	0.226
-712.704	101.266	0.194	-0.225
-711.689	212.642	0.241	-0.380
-710.675	800.000	-0.025	-0.072
-709.660	575.727	0.034	-0.082
-708.645	20.888	-0.291	-0.236
-707.631	16.974	0.090	0.071
-706.616	-68.736	0.171	0.066
-705.602	310.109	-0.225	-0.421
-704.587	59.379	0.107	0.105
-703.572	-118.355	0.219	0.039
-702.558	-6.021	-0.150	-0.103
-701.543	298.877	-0.213	0.391
-700.529	21.998	-0.100	-0.081
-699.514	69.955	-0.114	0.118
-698.499	-103.581	-0.384	-0.090
-697.485	-200.000	-0.002	0.119
-696.470	-78.755	0.153	0.052
-695.456	195.822	-0.131	-0.199
-694.441	-200.000	0.012	0.392
-693.426	-87.479	-0.191	-0.058
-692.412	307.153	0.145	-0.270
-691.397	504.967	-0.032	0.073
-690.383	-116.366	0.115	-0.021
-689.368	-22.508	-0.247	-0.149
-688.354	86.002	0.120	0.131
-687.339	460.949	-0.142	0.315
-686.324	-154.595	-0.167	0.011
-685.310	800.000	-0.081	-0.285
-684.295	24.377	0.015	0.012
-683.281	161.857	0.123	-0.173
-682.266	-73.650	-0.338	-0.123
-681.251	68.442	-0.124	-0.127
-680.237	-83.645	-0.181	0.058
-679.222	800.000	0.051	-0.191
-678.208	-22.015	0.199	-0.121
-677.193	423.347	-0.053	-0.114
-676.178	108.604	0.114	-0.135
-675.164	-49.308	0.290	-0.138
-674.149	-133.464	0.224	-0.028
-673.135	256.562	-0.077	0.131
-672.120	333.338	-0.131	0.253
-671.105	202.026	-0.098	-0.151
-670.091	-82.781	-0.268	0.087
-669.076	-111.964	-0.082	-0.017
-668.062	208.180	0.099	-0.155
-667.047	-117.547	-0.183	0.033
-666.032	87.444	-0.030	0.033
-665.018	-123.523	-0.208	-0.033
-664.003	447.779	-0.101	-0.223
-662.989	-26.591	0.120	-0.070
-661.974	800.000	-0.084	0.295
-660.959	-74.050	-0.028	-0.010
-659.945	-200.000	0.036	-0.335
-658.930	-127.316	-0.106	0.015
-657.916	219.198	-0.088	-0.140
-656.901	-87.531	-0.130	-0.039
-655.886	-101.510	0.340	0.082
-654.872	-90.310	0.145	-0.042
-653.857	48.371	0.303	-0.283
-652.843	-73.265	-0.047	0.017
-651.828	-125.569	0.089	0.013
-650.814	-200.000	0.016	0.230
-649.799	-200.000	0.068	-0.436
-648.784	-50.962	0.140	0.066
-647.770	125.751	-0.166	0.209
-646.755	-34.395	-0.397	0.217
-645.741	-1.329	0.253	0.178
-644.726	-82.538	-0.130	0.042
-643.711	62.200	-0.073	-0.073
-642.697	-140.319	0.218	-0.023
-641.682	-200.000	0.034	0.209
-640.668	-151.767	0.455	0.033
-639.653	24.449	-0.254	-0.209
-638.638	-200.000	0.013	0.233
-637.624	683.637	0.052	0.135
-636.609	45.257	0.331	-0.304
-635.595	489.111	-0.125	-0.285
-634.580	316.356	0.106	-0.200
-633.565	-200.000	0.015	0.073
-632.551	-174.258	-0.146	-0.004
-631.536	59.141	0.085	0.083
-630.522	-63.351	0.169	-0.070
-629.507	482.553	-0.067	0.152
-628.492	22.956	-0.093	0.076
-627.478	-200.000	-0.023	-0.174
-626.463	-114.457	-0.057	-0.011
-625.449	17.979	-0.036	0.028
-624.434	590.897	-0.143	-0.351
-623.419	-200.000	0.001	-0.335
-622.405	81.438	-0.211	0.227
-621.390	800.000	0.127	0.425
-620.376	-109.528	-0.156	-0.033
-619.361	63.750	0.044	0.044
-618.346	-86.691	-0.124	-0.038
-617.332	-200.000	-0.030	-0.274
-616.317	24.316	-0.108	-0.089
-615.303	-200.000	0.069	0.402
-614.288	-200.000	0.005	-0.187
-613.273	252.792	-0.044	-0.075
-612.259	800.000	-0.049	-0.182
-611.244	-86.837	-0.148	-0.045
-610.230	82.290	0.107	0.115
-609.215	165.859	-0.144	-0.203
-608.201	513.957	0.162	-0.377
-607.186	-8.195	-0.476	-0.319
-606.171	231.781	0.076	-0.124
-605.157	678.833	-0.111	0.289
-604.142	-9.621	0.082	0.054
-603.128	-14.813	-0.246	0.157
-602.113	76.486	-0.297	0.313
-601.098	-57.377	0.165	0.072
-600.084	-200.000	0.014	-0.153
-599.069	-117.336	0.164	0.030
-598.055	-125.573	-0.345	0.052
-597.040	124.134	-0.057	0.072
-596.025	-200.000	0.003	-0.265
-595.011	-59.206	0.120	0.051
-593.996	800.000	-0.042	0.169
-592.982	63.034	-0.226	0.225
-591.967	-200.000	0.079	-0.577
-590.952	800.000	0.066	-0.207
-589.938	-200.000	-0.007	0.047
-588.923	-200.000	-0.017	0.165
-587.909	-63.498	-0.017	0.007
-586.894	65.142	-0.218	-0.219
-585.879	29.840	0.200	0.170
-584.865	-200.000	0.019	0.395
-583.850	132.062	-0.188	-0.241
-582.836	-53.611	-0.186	0.084
-581.821	-182.610	-0.103	0.002
-580.806	51.664	0.100	-0.095
-579.792	303.659	-0.029	0.053
-578.777	119.022	-0.134	-0.165
-577.763	-92.015	0.245	-0.069
-576.748	800.000	0.118	0.477
-575.733	800.000	0.042	-0.168
-574.719	577.627	-0.156	0.380
-573.704	408.257	-0.028	0.059
-572.690	800.000	0.066	-0.260
-571.675	518.207	0.047	-0.109
-570.661	88.009	-0.071	0.078
-569.646	-85.806	0.239	0.074
-568.631	800.000	0.026	-0.075
-567.617	-156.891	0.086	-0.005
-566.602	54.103	-0.271	-0.259
-565.588	175.811	-0.243	0.351
-564.573	-69.008	-0.049	0.019
-563.558	261.975	-0.098	0.170
-562.544	-143.569	-0.160	-0.015
-561.529	-51.592	-0.048	-0.022
-560.515	800.000	-0.073	-0.317
-559.500	-168.983	0.178	0.007
-558.485	162.497	0.053	-0.074
-557.471	67.738	-0.205	0.208
-556.456	-59.682	0.116	-0.049
-555.442	-160.214	0.432	0.023
-554.427	16.982	-0.294	0.232
-553.412	-141.283	0.121	0.012
-552.398	800.000	-0.043	0.151
-551.383	194.815	0.209	0.316
-550.369	-24.746	0.255	0.151
-549.354	-109.211	-0.214	-0.045
-548.339	129.607	0.233	0.296
-547.325	134.660	-0.050	0.064
-546.310	-200.000	-0.043	-0.221
-545.296	-159.000	-0.414	-0.023
-544.281	-119.559	0.107	-0.018
-543.266	26.088	0.129	-0.107
-542.252	26.739	-0.205	-0.171
-541.237	22.574	-0.244	-0.198
-540.223	422.993	0.084	-0.180
-539.208	-29.207	-0.106	-0.061
-538.193	-100.150	0.202	0.050
-537.179	99.123	-0.133	-0.152
-536.164	-200.000	0.022	0.254
-535.150	-200.000	-0.085	0.400
-534.135	-200.000	0.024	0.355
-533.121	800.000	-0.099	-0.279
-532.106	137.354	0.115	-0.150
-531.091	-200.000	-0.005	0.159
-530.077	-7.112	0.024	0.016
-529.062	28.135	-0.053	0.044
-528.048	-17.240	-0.281	0.176
-527.033	-151.101	0.110	0.008
-526.018	241.943	-0.194	0.321
-525.004	489.850	-0.156	0.354
-523.989	800.000	-0.058	0.161
-522.975	274.396	-0.094	0.166
-521.960	305.356	-0.181	-0.333
-520.945	-84.500	-0.152	-0.048
-519.931	-15.677	0.245	-0.155
-518.916	346.065	0.122	0.238
-517.902	-19.918	0.284	0.174
-516.887	-200.000	0.038	-0.179
-515.872	800.000	-0.062	-0.243
-514.858	-200.000	-0.013	-0.298
-513.843	-42.324	0.065	-0.033
-512.829	154.183	-0.222	-0.302
-511.814	-192.876	0.201	-0.002
-510.799	-61.440	0.115	-0.048
-509.785	800.000	-0.019	0.057
-508.770	32.628	-0.159	0.136
-507.756	346.870	-0.229	-0.448
-506.741	-105.847	0.142	-0.032
-505.726	-137.420	-0.123	0.014
-504.712	25.377	-0.329	0.271
-503.697	800.000	0.032	0.096
-502.683	-83.949	0.218	-0.069
-501.668	-200.000	-0.013	-0.211
-500.653	194.058	0.037	0.055
-499.639	-200.000	-0.021	0.097
-498.624	121.281	-0.071	-0.087
-497.610	388.066	-0.157	0.322
-496.595	144.852	-0.165	0.219
-495.581	-74.964	-0.231	-0.082
-494.566	-51.768	0.402	0.186
-493.551	-41.749	-0.304	-0.155
-492.537	-139.349	0.203	-0.022
-491.522	-136.969	0.092	-0.010
-490.508	-33.578	-0.222	-0.122
-489.493	-98.517	-0.378	-0.096
-488.478	-123.760	0.268	-0.042
-487.464	76.036	0.311	-0.327
-486.449	588.850	0.042	-0.102
-485.435	-200.000	0.163	0.001
-484.420	68.824	0.075	0.076
-483.405	-53.229	0.087	-0.040
-482.391	19.961	0.308	0.246
-481.376	-200.000	-0.005	0.233
-480.362	502.935	-0.065	-0.150
-479.347	-75.651	-0.378	0.133
-478.332	150.970	0.232	-0.313
-477.318	106.499	0.101	-0.118
-476.303	761.994	-0.030	0.082
-475.289	-69.062	0.375	0.143
-474.274	-200.000	-0.074	0.345
-473.259	182.805	0.042	-0.061
-472.245	-200.000	-0.052	-0.295
-471.230	-200.000	-0.027	0.139
-470.216	83.362	0.133	-0.143
-469.201	-32.796	-0.131	-0.072
-468.186	-30.811	0.286	-0.160
-467.172	277.449	0.115	-0.203
-466.157	-89.845	-0.114	-0.033
-465.143	683.884	0.128	-0.332
-464.128	-200.000	-0.013	0.075
-463.113	-200.000	0.007	0.061
-462.099	269.253	-0.002	0.003
-461.084	294.954	0.111	-0.201
-460.070	-32.376	0.083	0.046
-459.055	486.254	-0.045	-0.102
-458.040	-129.675	-0.197	0.027
-457.026	-177.577	-0.106	-0.003
-456.011	-79.218	0.172	-0.058
-454.997	-32.721	0.224	0.123
-453.982	161.673	-0.050	-0.069
-452.968	164.630	-0.117	-0.163
-451.953	391.836	0.068	-0.141
-450.938	-91.321	0.234	-0.066
-449.924	-114.757	-0.074	-0.014
-448.909	-18.880	-0.175	-0.108
-447.895	-78.169	-0.086	0.029
-446.880	77.563	-0.043	-0.046
-445.865	276.516	0.059	-0.105
-444.851	52.789	0.310	-0.293
-443.836	-41.177	-0.109	0.056
-442.822	-200.000	-0.025	0.328
-441.807	118.742	0.272	-0.333
-440.792	47.020	0.044	-0.040
-439.778	-87.047	-0.026	0.008
-438.763	-66.266	0.014	0.005
-437.749	364.423	-0.053	0.106
-436.734	-64.533	-0.313	0.126
-435.719	800.000	0.118	-0.329
-434.705	84.997	0.136	-0.148
-433.690	174.382	-0.082	-0.118
-432.676	800.000	0.101	0.322
-431.661	-5.392	0.049	0.033
-430.646	274.943	0.131	-0.229
-429.632	800.000	-0.088	-0.345
-428.617	-74.210	0.303	-0.108
-427.603	77.099	0.189	-0.198
-426.588	-63.089	-0.234	0.095
-425.573	800.000	0.078	-0.282
-424.559	171.393	0.332	-0.471
-423.544	800.000	-0.025	-0.101
-422.530	227.951	0.056	0.089
-421.515	-88.852	0.344	0.101
-420.500	800.000	-0.084	-0.238
-419.486	81.291	-0.460	-0.491
-418.471	-200.000	0.032	0.256
-417.457	-200.000	0.030	-0.255
-416.442	34.850	0.136	-0.117
-415.428	539.778	0.028	-0.067
-414.413	399.337	-0.071	-0.148
-413.398	594.943	0.106	0.260
-412.384	-102.443	0.228	-0.054
-411.369	-157.736	0.438	-0.026
-410.355	42.591	0.047	0.042
-409.340	419.588	0.044	0.093
-408.325	-139.613	-0.218	-0.023
-407.311	511.453	0.068	-0.157
-406.296	-97.210	-0.079	-0.021
-405.282	-83.346	-0.100	-0.032
-404.267	-65.516	0.188	-0.075
-403.252	319.530	0.140	-0.263
-402.238	-67.662	-0.238	-0.092
-401.223	303.087	0.069	0.126
-400.209	-162.395	-0.257	0.013
-399.194	-71.004	-0.394	0.146
-398.179	-113.142	0.190	0.037
-397.165	113.495	0.106	0.127
-396.150	800.000	0.043	-0.138
-395.136	-89.105	-0.048	0.014
-394.121	141.539	-0.187	-0.245
-393.106	-68.827	-0.102	-0.039
-392.092	-200.000	0.060	0.319
-391.077	137.048	0.067	0.087
-390.063	-84.830	0.093	0.029
-389.048	-39.074	-0.094	0.049
-388.033	-200.000	-0.045	-0.204
-387.019	-200.000	-0.011	-0.125
-386.004	80.169	0.206	-0.219
-384.990	439.464	0.068	-0.148
-383.975	180.462	-0.066	-0.095
-382.960	47.545	0.154	-0.142
-381.946	741.455	-0.009	0.023
-380.931	547.536	-0.142	0.336
-379.917	-1.759	0.241	-0.168
-378.902	-200.000	0.010	-0.103
-377.888	-200.000	0.041	-0.229
-376.873	-113.008	0.413	0.081
-375.858	-200.000	-0.030	0.216
-374.844	-126.489	-0.084	0.012
-373.829	-95.140	-0.268	0.071
-372.815	-85.077	0.169	0.052
-371.800	35.499	-0.148	0.129
-370.785	62.426	0.042	0.041
-369.771	16.881	-0.009	0.007
-368.756	800.000	-0.042	-0.139
-367.742	81.159	-0.096	0.102
-366.727	-200.000	0.046	0.353
-365.712	-133.514	-0.232	0.029
-364.698	-69.162	-0.278	-0.105
-363.683	261.302	0.112	0.190
-362.669	800.000	0.011	0.037
-361.654	138.327	0.281	-0.363
-360.639	278.104	-0.191	-0.335
-359.625	91.942	-0.161	-0.179
-358.610	84.749	-0.126	-0.136
-357.596	-59.615	0.290	-0.123
-356.581	-44.313	-0.094	0.046
-355.566	800.000	-0.055	0.234
-354.552	-200.000	-0.043	0.197
-353.537	67.562	-0.282	-0.284
-352.523	64.366	-0.310	0.308
-351.508	-55.435	-0.386	-0.171
-350.493	-4.217	0.085	0.058
-349.479	59.703	-0.046	-0.045
-348.464	-200.000	0.024	-0.428
-347.450	-32.540	-0.245	0.135
-346.435	-200.000	0.031	0.279
-345.420	174.244	0.142	0.203
-344.406	800.000	0.042	-0.160
-343.391	-126.046	-0.257	0.038
-342.377	-121.811	-0.088	0.014
-341.362	502.968	0.099	0.226
-340.348	1.898	0.202	0.144
-339.333	800.000	0.102	0.404
-338.318	232.045	0.196	-0.317
-337.304	-182.234	-0.259	-0.005
-336.289	232.650	-0.197	0.319
-335.275	800.000	-0.055	-0.179
-334.260	-186.952	0.202	0.003
-333.245	800.000	0.027	-0.096
-332.231	-88.121	0.496	-0.147
-331.216	-106.436	0.135	-0.030
-330.202	-56.192	-0.079	0.035
-329.187	141.557	0.303	-0.395
-328.172	12.981	0.082	-0.063
-327.158	377.721	-0.230	0.463
-326.143	-200.000	-0.029	0.387
-325.129	-200.000	0.024	-0.383
-324.114	-16.522	-0.064	-0.040
-323.099	741.059	0.062	-0.164
-322.085	-200.000	0.004	-0.053
-321.070	146.409	0.076	-0.101
-320.056	-200.000	-0.024	-0.348
-319.041	-65.014	-0.104	0.042
-318.026	53.785	0.165	-0.156
-317.012	-200.000	-0.032	0.274
-315.997	-13.807	0.200	0.127
-314.983	800.000	0.097	0.294
-313.968	-3.102	-0.163	0.112
-312.953	51.379	0.116	0.108
-311.939	52.363	0.147	-0.139
-310.924	-125.267	0.289	-0.044
-309.910	240.817	-0.039	-0.064
-308.895	-34.790	0.332	-0.179
-307.880	-146.984	-0.263	0.022
-306.866	61.265	-0.057	-0.055
-305.851	-111.467	0.114	-0.023
-304.837	-200.000	-0.059	0.264
-303.822	33.484	-0.175	0.150
-302.807	-29.966	-0.083	-0.047
-301.793	-170.661	0.050	0.002
-300.778	96.292	-0.229	0.258
-299.764	-38.909	0.235	0.122
-298.749	-200.000	0.020	-0.209
-297.735	-200.000	-0.014	0.186
-296.720	-21.067	-0.031	-0.019
-295.705	60.013	0.311	0.302
-294.691	-65.930	-0.324	0.127
-293.676	-200.000	0.026	0.165
-292.662	-200.000	-0.013	-0.112
-291.647	24.265	-0.270	-0.220
-290.632	115.596	0.180	0.217
-289.618	-21.742	-0.172	0.103
-288.603	-122.217	-0.353	0.057
-287.589	-84.212	-0.094	-0.029
-286.574	37.949	0.227	0.198
-285.559	372.960	0.211	0.422
-284.545	-200.000	-0.060	0.502
-283.530	186.129	-0.101	-0.147
-282.516	-100.058	-0.029	-0.007
-281.501	123.995	-0.046	-0.057
-280.486	127.561	-0.202	0.253
-279.472	-41.131	0.081	-0.041
-278.457	-129.666	0.246	0.033
-277.443	800.000	0.020	0.080
-276.428	267.898	0.095	-0.163
-275.413	-17.208	0.056	-0.035
-274.399	800.000	0.063	0.225
-273.384	800.000	0.109	-0.359
-272.370	151.031	-0.109	-0.145
-271.355	249.354	0.064	0.107
-270.340	225.866	0.308	-0.490
-269.326	33.237	-0.040	-0.034
-268.311	704.966	-0.059	0.153
-267.297	-32.915	0.162	-0.089
-266.282	287.207	0.199	-0.354
-265.267	-200.000	0.006	-0.146
-264.253	-18.619	0.308	0.189
-263.238	0.797	0.044	-0.031
-262.224	106.574	0.197	-0.229
-261.209	32.367	-0.418	-0.355
-260.195	450.350	0.121	-0.262
-259.180	460.263	0.169	-0.370
-258.165	-125.696	-0.049	-0.007
-257.151	47.462	-0.018	-0.016
-256.136	-2.342	0.145	0.100
-255.122	106.893	0.115	-0.134
-254.107	-46.419	-0.063	0.030
-253.092	-38.746	-0.202	0.105
-252.078	800.000	0.013	-0.041
-251.063	-200.000	0.014	-0.222
-250.049	-133.621	0.070	-0.009
-249.034	56.637	0.306	0.292
-248.019	263.725	0.141	0.240
-247.005	4.667	0.130	0.094
-245.990	-122.350	0.297	-0.048
-244.976	800.000	-0.099	0.354
-243.961	-136.796	0.204	-0.023
-242.946	-200.000	-0.017	-0.289
-241.932	-69.739	-0.247	-0.093
-240.917	314.884	-0.124	0.230
-239.903	162.756	-0.121	-0.166
-238.888	-200.000	-0.012	-0.073
-237.873	-64.440	-0.073	-0.029
-236.859	-144.625	0.179	-0.016
-235.844	-66.802	-0.184	-0.072
-234.830	-200.000	0.017	0.101
-233.815	224.254	0.179	0.284
-232.800	196.631	-0.122	0.183
-231.786	-3.871	-0.210	0.143
-230.771	133.451	0.176	0.224
-229.757	-200.000	0.008	0.383
-228.742	-106.462	-0.279	0.061
-227.727	-200.000	0.006	0.330
-226.713	800.000	0.072	0.244
-225.698	500.547	-0.094	-0.214
-224.684	145.546	0.089	-0.117
-223.669	514.865	0.038	0.088
-222.655	-108.187	-0.098	-0.021
-221.640	586.625	-0.164	0.395
-220.625	258.208	0.025	0.043
-219.611	-91.183	-0.306	-0.086
-218.596	292.133	0.194	0.347
-217.582	348.456	0.047	-0.092
-216.567	-200.000	0.011	-0.101
-215.552	463.358	-0.075	0.165
-214.538	114.286	0.119	0.142
-213.523	-200.000	0.057	0.248
-212.509	800.000	0.082	0.230
-211.494	106.076	-0.136	0.157
-210.479	34.272	0.083	0.071
-209.465	-200.000	0.020	-0.195
-208.450	-79.677	-0.254	-0.084
-207.436	-130.160	-0.075	0.010
-206.421	-25.647	-0.098	0.057
-205.406	128.749	0.164	0.205
-204.392	244.849	-0.204	0.336
-203.377	646.180	-0.069	-0.172
-202.363	-200.000	0.044	0.591
-201.348	687.296	-0.064	0.165
-200.333	800.000	-0.068	0.209
-199.319	800.000	0.059	0.217
-198.304	-200.000	-0.025	-0.127
-197.290	-200.000	0.031	-0.383
-196.275	-200.000	-0.002	-0.137
-195.260	55.749	0.283	-0.269
-194.246	-200.000	-0.011	-0.131
-193.231	-49.362	0.161	-0.075
-192.217	-49.171	-0.395	-0.185
-191.202	59.640	0.131	-0.126
-190.187	-34.366	0.124	0.067
-189.173	365.380	-0.062	-0.122
-188.158	-200.000	0.009	-0.145
-187.144	-200.000	-0.027	-0.125
-186.129	559.102	-0.051	-0.120
-185.114	376.627	-0.072	-0.145
-184.100	35.740	-0.241	0.208
-183.085	-200.000	0.035	0.233
-182.071	345.255	0.103	0.198
-181.056	-53.791	0.390	0.174
-180.042	-13.716	-0.074	0.047
-179.027	-13.043	0.289	0.184
-178.012	-78.034	-0.108	-0.037
-176.998	-200.000	-0.001	-0.105
-175.983	55.445	0.083	0.078
-174.969	-86.178	-0.136	-0.041
-173.954	38.370	-0.207	0.181
-172.939	800.000	-0.050	0.144
-171.925	-55.070	-0.166	-0.073
-170.910	-61.333	0.428	0.177
-169.896	-170.738	-0.213	-0.007
-168.881	800.000	-0.045	-0.181
-167.866	195.398	0.192	0.286
-166.852	-21.127	0.415	0.249
-165.837	-200.000	-0.036	-0.187
-164.823	128.455	-0.151	-0.188
-163.808	-86.800	-0.121	0.036
-162.793	-200.000	0.043	-0.368
-161.779	-49.834	-0.269	0.125
-160.764	-105.452	0.099	0.022
-159.750	-84.401	0.097	0.030
-158.735	-66.908	-0.036	-0.014
-157.720	-100.924	-0.290	-0.070
-156.706	-95.269	-0.039	-0.010
-155.691	-90.432	0.305	0.086
-154.677	-74.482	-0.308	0.109
-153.662	393.992	-0.085	0.173
-152.647	6.611	-0.169	0.123
-151.633	276.420	-0.086	0.149
-150.618	800.000	0.078	-0.267
-149.604	-67.680	0.157	0.060
-148.589	-21.800	0.131	-0.078
-147.574	800.000	-0.061	0.213
-146.560	-112.112	0.112	0.022
-145.545	800.000	-0.051	-0.166
-144.531	-12.018	0.076	0.049
-143.516	133.694	0.315	0.399
-142.502	-113.371	0.086	0.017
-141.487	-166.710	0.717	0.029
-140.472	-200.000	-0.051	0.237
-139.458	-69.447	-0.259	0.097
-138.443	-114.249	-0.243	-0.046
-137.429	-200.000	0.069	-0.355
-136.414	99.356	-0.197	0.222
-135.399	203.712	-0.064	-0.097
-134.385	5.300	0.206	-0.149
-133.370	-136.404	0.165	-0.019
-132.356	0.135	-0.301	-0.210
-131.341	34.576	-0.144	-0.123
-130.326	273.656	0.059	-0.102
-129.312	57.395	-0.052	0.049
-128.297	187.753	0.080	0.117
-127.283	101.802	-0.135	-0.154
-126.268	113.857	-0.202	0.240
-125.253	-123.469	0.353	0.055
-124.239	50.543	0.156	-0.144
-123.224	712.205	0.083	0.216
-122.210	307.117	0.029	0.053
-121.195	129.052	0.065	-0.081
