DTS Sentinel unit serial number:	SN413079Multiplexer serial number:	ORYXHardware model number:	OX4-SRSoftware version number:	ORYX F/W v4.00 Oryx Data Collector v3.7.2.0data status	okinstallation	princeton_trtdifferential loss correction	single-endedforward channel	channel 1reverse channel	N/Adate	2019/09/11time	06:16:11forward acquisition time	60.00reverse acquisition time	0.00gamma	496.2192k internal	0.2331k external	0.2331temperature offset calibration	0.9922default loss term (dB/km)	0.3790temperature slope calibration	1.0000multiplexer offset coefficient	1.0000multiplexer slope coefficient	1.0000fibre end	0.00T internal ref (°C)	29.50T ext. ref 1 (°C)	-0.19T ext. ref 2 (°C)	23.85length (m)	temperature (°C)	Stokes	anti-Stokes-747.200	-55.488	0.109	-0.049
-746.185	40.711	-0.136	0.123
-745.171	532.880	0.031	0.075
-744.156	800.000	0.038	0.149
-743.142	-98.859	0.074	0.019
-742.127	-71.640	-0.301	0.113
-741.112	680.316	0.077	0.201
-740.098	-55.781	-0.146	-0.065
-739.083	800.000	0.087	0.273
-738.069	269.168	-0.050	0.087
-737.054	-173.435	0.319	0.010
-736.039	68.493	-0.115	-0.118
-735.025	-110.393	0.352	0.074
-734.010	-185.146	0.407	0.006
-732.996	607.355	0.065	-0.164
-731.981	318.549	0.109	-0.207
-730.966	800.000	0.043	-0.155
-729.952	182.166	0.136	-0.201
-728.937	404.680	-0.132	-0.279
-727.923	-200.000	-0.085	0.380
-726.908	218.846	-0.116	-0.187
-725.894	-200.000	0.032	0.156
-724.879	12.416	-0.079	0.061
-723.864	-200.000	-0.030	-0.139
-722.850	-104.158	-0.160	0.037
-721.835	-200.000	-0.031	0.300
-720.821	800.000	0.011	0.041
-719.806	37.111	-0.140	-0.125
-718.791	-81.625	-0.134	-0.044
-717.777	-124.104	-0.141	-0.022
-716.762	400.479	0.018	-0.037
-715.748	127.203	0.237	-0.303
-714.733	110.367	-0.152	-0.184
-713.718	-200.000	-0.016	0.209
-712.704	-22.088	-0.329	0.201
-711.689	144.236	0.145	0.194
-710.675	35.590	-0.027	-0.024
-709.660	-200.000	0.000	-0.242
-708.645	-58.509	-0.388	-0.169
-707.631	445.655	-0.174	-0.384
-706.616	-98.523	-0.099	0.025
-705.602	479.862	-0.114	0.260
-704.587	197.984	-0.293	0.451
-703.572	-200.000	0.008	0.087
-702.558	511.175	-0.080	0.186
-701.543	215.998	0.274	0.438
-700.529	55.911	-0.231	-0.225
-699.514	26.024	0.183	0.153
-698.499	-117.869	0.240	-0.043
-697.485	508.081	-0.039	0.092
-696.470	-200.000	0.013	0.231
-695.456	200.150	-0.103	0.159
-694.441	576.715	-0.096	0.235
-693.426	-50.304	-0.069	-0.033
-692.412	36.858	-0.335	-0.297
-691.397	-97.789	0.274	-0.071
-690.383	458.724	0.011	0.025
-689.368	460.414	0.022	-0.049
-688.354	-137.480	-0.454	0.052
-687.339	45.756	0.022	-0.020
-686.324	-200.000	0.038	0.218
-685.310	232.415	0.144	-0.237
-684.295	-67.101	0.077	0.030
-683.281	-200.000	0.064	-0.374
-682.266	135.107	0.081	-0.105
-681.251	-135.550	0.216	0.026
-680.237	238.990	0.190	0.317
-679.222	326.871	-0.168	-0.323
-678.208	-76.671	0.120	0.042
-677.193	-86.542	0.176	0.054
-676.178	-197.598	0.298	0.002
-675.164	-56.207	0.198	0.088
-674.149	800.000	0.002	-0.007
-673.135	43.121	0.216	0.198
-672.120	-200.000	-0.014	-0.116
-671.105	-200.000	0.014	-0.164
-670.091	-200.000	-0.002	-0.203
-669.076	-200.000	-0.024	-0.207
-668.062	-154.656	0.123	0.008
-667.047	-200.000	-0.019	-0.344
-666.032	548.890	0.132	-0.317
-665.018	686.500	-0.021	0.055
-664.003	-57.014	-0.111	-0.049
-662.989	-200.000	0.008	0.127
-661.974	29.256	0.251	-0.214
-660.959	800.000	0.066	-0.275
-659.945	-101.587	-0.318	0.077
-658.930	800.000	0.055	-0.166
-657.916	-84.502	0.220	-0.070
-656.901	42.484	0.211	0.193
-655.886	-143.287	-0.303	-0.029
-654.872	-55.879	0.231	-0.103
-653.857	489.342	-0.078	0.178
-652.843	-200.000	0.012	0.120
-651.828	247.705	0.120	-0.204
-650.814	505.531	0.147	0.342
-649.799	58.297	-0.067	-0.066
-648.784	65.336	-0.243	0.247
-647.770	-200.000	0.084	-0.387
-646.755	28.557	-0.227	-0.193
-645.741	41.913	0.273	0.248
-644.726	800.000	0.124	0.392
-643.711	-101.963	-0.133	0.032
-642.697	-58.726	-0.279	-0.121
-641.682	-71.613	-0.263	0.099
-640.668	-200.000	-0.006	0.100
-639.653	-9.557	-0.127	0.085
-638.638	-51.796	0.423	-0.198
-637.624	-121.307	-0.308	-0.051
-636.609	-96.955	0.066	-0.017
-635.595	301.670	-0.051	0.095
-634.580	-200.000	-0.017	0.203
-633.565	-76.744	0.194	0.068
-632.551	-40.805	-0.309	0.160
-631.536	32.762	-0.157	-0.136
-630.522	800.000	-0.010	-0.034
-629.507	45.955	-0.054	-0.050
-628.492	75.940	-0.148	0.157
-627.478	-72.841	0.247	0.091
-626.463	713.847	-0.005	-0.013
-625.449	149.529	-0.163	-0.221
-624.434	800.000	-0.029	-0.087
-623.419	-72.701	-0.163	-0.060
-622.405	-66.987	0.124	-0.049
-621.390	-25.844	0.110	0.065
-620.376	800.000	-0.078	-0.301
-619.361	-9.227	0.263	0.176
-618.346	-14.960	-0.216	0.139
-617.332	279.777	-0.129	-0.231
-616.317	-200.000	-0.010	0.058
-615.303	9.825	-0.091	0.069
-614.288	800.000	-0.104	-0.322
-613.273	800.000	-0.083	-0.349
-612.259	-128.844	-0.349	0.049
-611.244	-80.882	-0.213	0.071
-610.230	196.570	0.019	0.029
-609.215	249.490	0.101	0.171
-608.201	-132.404	-0.466	0.060
-607.186	800.000	0.115	-0.324
-606.171	339.973	0.119	-0.233
-605.157	-200.000	0.021	0.166
-604.142	682.937	0.008	0.020
-603.128	197.758	0.032	-0.050
-602.113	-200.000	0.320	0.001
-601.098	-169.767	0.072	0.003
-600.084	-68.605	0.156	-0.061
-599.069	800.000	-0.166	0.544
-598.055	249.739	0.167	-0.283
-597.040	-51.837	-0.261	0.122
-596.025	-119.439	0.330	-0.057
-595.011	-23.823	0.173	0.104
-593.996	35.800	-0.071	0.062
-592.982	167.192	-0.213	0.303
-591.967	-200.000	-0.059	-0.341
-590.952	151.505	-0.169	-0.230
-589.938	800.000	0.063	-0.272
-588.923	69.710	-0.222	-0.229
-587.909	-115.049	-0.162	0.031
-586.894	-200.000	0.007	0.079
-585.879	188.212	0.114	-0.170
-584.865	104.896	-0.171	-0.202
-583.850	800.000	0.053	-0.157
-582.836	61.632	-0.058	0.058
-581.821	67.009	-0.207	-0.211
-580.806	106.637	0.110	-0.130
-579.792	24.047	-0.093	0.077
-578.777	447.847	-0.034	0.075
-577.763	-200.000	0.052	-0.407
-576.748	-77.682	-0.261	0.090
-575.733	800.000	-0.066	-0.202
-574.719	-200.000	0.039	-0.234
-573.704	-50.401	-0.065	0.031
-572.690	242.603	-0.171	-0.287
-571.675	-134.643	-0.246	0.030
-570.661	166.282	0.201	0.284
-569.646	153.992	0.180	0.246
-568.631	-200.000	0.012	0.279
-567.617	192.701	0.127	-0.192
-566.602	800.000	-0.051	-0.170
-565.588	259.456	-0.193	-0.334
-564.573	-200.000	0.015	-0.098
-563.558	770.664	0.164	-0.448
-562.544	123.619	-0.053	-0.067
-561.529	800.000	0.031	-0.104
-560.515	-160.042	-0.190	-0.010
-559.500	44.229	-0.222	0.204
-558.485	436.532	0.087	0.189
-557.471	-55.270	0.238	0.107
-556.456	800.000	0.006	0.024
-555.442	-200.000	0.030	0.163
-554.427	167.045	-0.283	-0.401
-553.412	-66.756	0.443	-0.175
-552.398	-200.000	-0.017	-0.105
-551.383	514.577	0.062	-0.145
-550.369	-117.665	0.589	0.106
-549.354	-200.000	-0.004	0.296
-548.339	-103.487	-0.132	-0.031
-547.325	-69.216	0.233	-0.089
-546.310	-3.824	-0.313	0.217
-545.296	-119.555	-0.217	0.038
-544.281	626.215	-0.076	0.192
-543.266	366.578	0.142	-0.287
-542.252	-35.344	0.226	0.123
-541.237	-200.000	0.004	0.055
-540.223	85.500	-0.126	0.138
-539.208	-200.000	0.015	0.251
-538.193	800.000	-0.037	0.125
-537.179	-88.527	-0.192	-0.057
-536.164	-200.000	-0.063	0.279
-535.150	-129.281	-0.173	-0.024
-534.135	-111.160	0.148	0.030
-533.121	800.000	-0.037	-0.157
-532.106	263.348	-0.100	0.174
-531.091	-200.000	0.003	-0.013
-530.077	-96.686	-0.216	-0.057
-529.062	102.804	0.319	0.372
-528.048	254.534	-0.141	-0.241
-527.033	-53.309	0.265	-0.121
-526.018	5.834	-0.193	-0.142
-525.004	-200.000	-0.004	-0.028
-523.989	-200.000	-0.023	-0.111
-522.975	-84.108	0.178	0.056
-521.960	197.241	-0.090	0.137
-520.945	800.000	0.102	0.321
-519.931	87.562	-0.054	0.060
-518.916	-77.663	0.220	0.076
-517.902	13.004	0.311	0.240
-516.887	-87.579	-0.191	0.057
-515.872	241.526	-0.126	0.209
-514.858	-200.000	0.001	0.188
-513.843	25.313	0.133	0.110
-512.829	106.356	0.168	0.199
-511.814	-1.958	-0.116	0.081
-510.799	126.737	-0.050	-0.064
-509.785	20.632	-0.126	0.102
-508.770	-56.577	0.187	0.083
-507.756	398.541	0.108	0.226
-506.741	-200.000	-0.014	-0.130
-505.726	69.320	-0.054	-0.055
-504.712	800.000	-0.044	-0.151
-503.697	800.000	0.005	-0.015
-502.683	-166.722	-0.518	-0.021
-501.668	-181.950	-0.154	-0.003
-500.653	-200.000	-0.005	-0.087
-499.639	684.173	-0.139	0.361
-498.624	-114.681	0.181	0.034
-497.610	-65.218	-0.367	0.147
-496.595	-43.507	0.191	-0.096
-495.581	40.692	0.081	0.073
-494.566	-39.896	0.238	-0.124
-493.551	227.734	0.117	-0.190
-492.537	-200.000	-0.002	-0.273
-491.522	-127.512	0.363	-0.052
-490.508	-145.228	-0.178	0.016
-489.493	353.169	-0.044	-0.087
-488.478	-200.000	0.028	-0.213
-487.464	-171.781	-0.135	-0.004
-486.449	30.879	-0.121	0.103
-485.435	-62.617	0.089	-0.037
-484.420	-16.241	0.311	0.197
-483.405	800.000	-0.126	-0.430
-482.391	436.778	0.086	-0.186
-481.376	-71.597	0.237	-0.088
-480.362	96.371	-0.196	-0.223
-479.347	665.577	0.092	0.238
-478.332	800.000	-0.033	0.106
-477.318	-200.000	0.016	0.071
-476.303	231.792	0.051	0.084
-475.289	19.661	0.071	0.057
-474.274	219.810	-0.296	0.472
-473.259	-131.281	0.148	0.020
-472.245	176.189	-0.191	0.277
-471.230	-200.000	-0.066	-0.361
-470.216	-69.142	0.276	-0.106
-469.201	371.743	0.042	-0.084
-468.186	225.971	-0.010	-0.016
-467.172	-131.863	-0.500	0.065
-466.157	426.995	0.070	0.151
-465.143	776.095	-0.061	0.165
-464.128	104.641	-0.088	-0.103
-463.113	-200.000	-0.078	0.411
-462.099	405.701	-0.052	-0.109
-461.084	-183.642	0.212	0.004
-460.070	-56.006	-0.054	-0.024
-459.055	800.000	-0.033	-0.102
-458.040	-98.338	-0.133	0.034
-457.026	-71.820	-0.336	0.125
-456.011	800.000	-0.042	-0.131
-454.997	-200.000	-0.021	0.386
-453.982	-200.000	-0.013	0.060
-452.968	-200.000	-0.015	-0.146
-451.953	800.000	0.153	-0.426
-450.938	800.000	-0.053	0.177
-449.924	-200.000	0.020	0.277
-448.909	-25.927	0.392	-0.230
-447.895	800.000	-0.060	0.187
-446.880	191.346	-0.081	-0.121
-445.865	-100.033	0.181	-0.045
-444.851	-117.464	0.268	-0.048
-443.836	-192.166	0.187	0.002
-442.822	-200.000	0.008	0.170
-441.807	272.531	0.044	0.078
-440.792	800.000	0.045	-0.161
-439.778	-172.727	0.105	0.003
-438.763	-200.000	-0.259	0.001
-437.749	128.088	0.284	0.359
-436.734	33.453	0.059	-0.051
-435.719	23.321	-0.217	0.178
-434.705	-160.899	-0.058	0.003
-433.690	766.029	-0.094	0.255
-432.676	-60.704	0.125	0.053
-431.661	107.430	-0.045	-0.053
-430.646	313.904	-0.140	-0.262
-429.632	-96.124	-0.286	-0.075
-428.617	800.000	-0.108	0.338
-427.603	-200.000	-0.022	0.163
-426.588	-200.000	-0.005	-0.059
-425.573	-184.028	0.036	-0.001
-424.559	175.565	-0.112	-0.161
-423.544	-200.000	-0.022	-0.094
-422.530	-162.989	0.174	0.008
-421.515	62.904	-0.212	0.211
-420.500	195.512	0.117	-0.177
-419.486	-43.349	0.337	0.169
-418.471	30.499	-0.135	-0.115
-417.457	-177.369	0.206	0.005
-416.442	165.176	0.313	-0.439
-415.428	800.000	0.105	-0.300
-414.413	145.141	-0.075	-0.100
-413.398	-200.000	0.272	-0.001
-412.384	-200.000	-0.042	0.205
-411.369	112.968	0.150	0.181
-410.355	89.723	0.214	-0.237
-409.340	-200.000	0.040	0.210
-408.325	177.508	0.136	-0.196
-407.311	-113.782	0.223	0.043
-406.296	5.466	-0.104	-0.077
-405.282	191.692	-0.121	0.182
-404.267	128.769	-0.141	-0.178
-403.252	356.553	0.042	-0.084
-402.238	-152.457	-0.390	0.028
-401.223	-36.576	-0.374	0.200
-400.209	-200.000	-0.035	-0.157
-399.194	-182.817	0.257	-0.005
-398.179	800.000	-0.024	0.079
-397.165	37.892	-0.109	0.096
-396.150	48.600	-0.177	-0.164
-395.136	800.000	0.048	-0.135
-394.121	392.245	0.102	-0.211
-393.106	-18.937	-0.340	0.210
-392.092	691.960	-0.124	0.324
-391.077	483.232	-0.085	0.191
-390.063	-61.288	0.005	0.002
-389.048	241.318	-0.150	-0.248
-388.033	-67.453	-0.367	-0.143
-387.019	-200.000	-0.029	0.266
-386.004	20.528	0.279	-0.224
-384.990	-200.000	-0.007	0.120
-383.975	59.265	-0.076	-0.074
-382.960	-200.000	0.009	-0.052
-381.946	493.962	0.112	0.256
-380.931	-24.887	-0.183	-0.108
-379.917	800.000	-0.032	0.129
-378.902	800.000	0.008	-0.028
-377.888	-38.462	0.081	0.042
-376.873	-200.000	0.000	-0.133
-375.858	261.392	0.104	0.178
-374.844	-127.308	-0.244	-0.035
-373.829	-110.879	0.030	-0.006
-372.815	-12.833	0.243	0.157
-371.800	-85.853	-0.052	-0.016
-370.785	-200.000	0.037	-0.223
-369.771	-3.085	0.102	0.071
-368.756	-29.736	-0.196	-0.111
-367.742	269.121	0.068	-0.117
-366.727	800.000	-0.135	0.386
-365.712	-147.510	0.160	0.013
-364.698	25.849	-0.071	0.059
-363.683	-7.723	0.082	0.055
-362.669	-43.845	-0.123	0.061
-361.654	-38.120	0.057	0.030
-360.639	318.279	0.028	-0.052
-359.625	-65.586	0.322	0.128
-358.610	-11.526	-0.181	-0.118
-357.596	-15.751	0.286	-0.181
-356.581	-46.362	0.153	-0.074
-355.566	-200.000	0.006	0.124
-354.552	73.905	0.181	-0.189
-353.537	-180.037	-0.082	-0.002
-352.523	143.192	0.106	-0.140
-351.508	-87.942	-0.167	-0.050
-350.493	315.215	0.044	0.082
-349.479	-200.000	-0.022	-0.211
-348.464	-200.000	0.070	0.343
-347.450	527.143	0.125	0.291
-346.435	-200.000	-0.006	-0.047
-345.420	-85.732	0.647	0.199
-344.406	-200.000	-0.003	0.126
-343.391	305.567	0.070	-0.130
-342.377	49.199	-0.193	0.180
-341.362	135.837	0.155	-0.200
-340.348	338.168	-0.097	-0.187
-339.333	-131.653	0.247	-0.032
-338.318	57.096	0.260	0.252
-337.304	-200.000	0.039	0.218
-336.289	448.933	-0.054	0.118
-335.275	-73.141	-0.141	0.051
-334.260	-200.000	-0.074	0.342
-333.245	-76.673	0.131	-0.046
-332.231	26.410	-0.017	-0.014
-331.216	800.000	0.096	-0.285
-330.202	-57.781	0.110	-0.047
-329.187	-38.087	-0.222	0.117
-328.172	3.366	-0.133	-0.096
-327.158	-93.645	0.229	0.063
-326.143	-200.000	0.016	-0.251
-325.129	-200.000	0.029	-0.226
-324.114	-15.647	0.125	0.079
-323.099	-200.000	0.030	0.151
-322.085	-68.367	0.374	-0.144
-321.070	-52.800	-0.208	0.095
-320.056	-34.517	0.226	-0.122
-319.041	30.895	-0.174	-0.147
-318.026	-137.935	0.293	0.032
-317.012	-78.262	-0.336	0.114
-315.997	164.548	-0.205	-0.286
-314.983	-117.195	0.138	0.025
-313.968	-86.068	-0.292	-0.089
-312.953	-200.000	-0.030	0.169
-311.939	304.997	0.158	0.290
-310.924	-0.647	-0.146	0.102
-309.910	-200.000	-0.018	0.173
-308.895	-3.273	0.194	0.134
-307.880	166.257	-0.120	-0.169
-306.866	422.149	-0.076	-0.161
-305.851	-200.000	-0.001	-0.216
-304.837	86.185	-0.016	-0.017
-303.822	-200.000	-0.044	-0.316
-302.807	47.845	0.192	0.177
-301.793	192.575	0.167	0.250
-300.778	-55.196	-0.212	-0.094
-299.764	280.244	-0.048	-0.085
-298.749	800.000	0.027	-0.105
-297.735	800.000	0.066	0.205
-296.720	-32.758	0.292	0.161
-295.705	85.972	-0.154	0.167
-294.691	310.123	0.025	-0.046
-293.676	800.000	0.030	0.129
-292.662	-71.401	0.221	0.082
-291.647	-169.305	-0.334	-0.012
-290.632	-23.503	0.287	-0.170
-289.618	800.000	-0.024	0.073
-288.603	800.000	0.092	-0.267
-287.589	-37.778	0.200	-0.105
-286.574	188.056	0.108	-0.160
-285.559	321.318	0.047	-0.088
-284.545	-200.000	0.045	-0.412
-283.530	-200.000	-0.008	-0.332
-282.516	-200.000	-0.009	0.146
-281.501	-78.295	0.037	0.013
-280.486	-94.581	-0.221	0.060
-279.472	298.805	0.234	-0.426
-278.457	-103.351	0.134	-0.031
-277.443	15.306	0.303	0.235
-276.428	144.500	0.250	0.330
-275.413	-200.000	-0.015	-0.101
-274.399	-144.379	0.156	0.014
-273.384	63.846	-0.140	-0.139
-272.370	-200.000	-0.003	-0.099
-271.355	208.647	-0.176	-0.272
-270.340	731.059	-0.112	0.295
-269.326	202.630	0.071	0.108
-268.311	-76.746	-0.209	-0.072
-267.297	240.635	-0.186	-0.306
-266.282	-200.000	-0.011	-0.377
-265.267	43.220	-0.081	-0.073
-264.253	800.000	0.117	0.336
-263.238	-89.767	-0.234	-0.068
-262.224	-31.144	-0.224	-0.125
-261.209	19.382	-0.438	-0.348
-260.195	6.532	0.100	-0.073
-259.180	-200.000	0.037	-0.242
-258.165	-161.091	-0.332	-0.017
-257.151	174.995	-0.044	-0.063
-256.136	-89.028	-0.263	-0.077
-255.122	-10.657	0.153	0.100
-254.107	104.354	-0.086	-0.100
-253.092	238.149	-0.097	0.159
-252.078	30.184	-0.036	-0.031
-251.063	-74.366	0.230	0.082
-250.049	15.806	-0.044	-0.034
-249.034	-24.599	-0.268	-0.157
-248.019	-48.929	0.287	0.136
-247.005	-7.973	-0.116	0.077
-245.990	-125.549	0.372	-0.056
-244.976	-13.504	-0.290	-0.186
-243.961	800.000	0.093	0.265
-242.946	46.198	0.349	0.319
-241.932	-186.896	0.288	-0.004
-240.917	-200.000	0.018	-0.080
-239.903	-4.271	-0.292	-0.200
-238.888	-0.647	-0.339	-0.237
-237.873	800.000	-0.021	0.086
-236.859	-175.516	0.210	-0.006
-235.844	-200.000	-0.012	-0.165
-234.830	36.985	-0.144	-0.126
-233.815	3.331	-0.381	-0.274
-232.800	-88.460	-0.261	0.077
-231.786	-135.681	0.182	0.021
-230.771	-85.280	0.271	-0.084
-229.757	-36.361	0.138	0.074
-228.742	-200.000	-0.003	0.017
-227.727	-52.846	-0.031	-0.014
-226.713	-102.561	0.253	-0.060
-225.698	-42.581	-0.191	-0.096
-224.684	-40.799	-0.045	0.023
-223.669	249.595	-0.121	0.202
-222.655	-200.000	-0.038	0.000
-221.640	-175.479	0.451	-0.012
-220.625	493.355	0.056	0.127
-219.611	-185.556	0.224	-0.003
-218.596	800.000	-0.105	0.302
-217.582	-6.844	-0.065	0.044
-216.567	-11.944	0.214	0.138
-215.552	-200.000	-0.017	-0.085
-214.538	55.796	0.096	-0.091
-213.523	40.461	0.088	-0.078
-212.509	-148.497	-0.191	0.015
-211.494	-27.140	-0.317	-0.182
-210.479	-66.647	0.095	0.037
-209.465	-20.654	0.198	-0.120
-208.450	103.048	-0.175	0.202
-207.436	254.421	0.137	-0.231
-206.421	-55.082	-0.289	-0.128
-205.406	-200.000	0.049	-0.224
-204.392	-17.691	0.066	0.041
-203.377	-200.000	-0.054	0.424
-202.363	-38.865	0.313	-0.163
-201.348	-64.947	0.148	-0.059
-200.333	180.063	0.124	-0.179
-199.319	34.173	0.061	-0.053
-198.304	273.263	0.026	0.046
-197.290	800.000	0.025	-0.078
-196.275	-179.939	-0.226	0.005
-195.260	30.977	-0.258	0.218
-194.246	2.580	0.017	-0.012
-193.231	154.198	0.072	-0.097
-192.217	415.590	-0.125	0.262
-191.202	800.000	0.014	-0.047
-190.187	-200.000	0.007	0.399
-189.173	10.294	-0.129	0.097
-188.158	176.612	0.034	0.049
-187.144	265.177	0.088	0.151
-186.129	800.000	0.078	0.276
-185.114	-200.000	-0.014	0.204
-184.100	3.622	-0.118	0.085
-183.085	-24.843	0.257	-0.151
-182.071	-53.279	0.090	0.041
-181.056	52.450	0.117	0.110
-180.042	183.207	0.105	0.152
-179.027	800.000	-0.043	0.158
-178.012	-75.971	-0.306	-0.107
-176.998	-200.000	-0.030	0.433
-175.983	19.420	-0.170	0.135
-174.969	182.697	0.080	-0.116
-173.954	-25.730	-0.115	0.067
-172.939	-61.098	0.232	0.096
-171.925	67.001	0.243	-0.244
-170.910	27.527	-0.162	-0.134
-169.896	-200.000	0.011	0.154
-168.881	669.418	-0.082	-0.210
-167.866	-20.067	-0.083	-0.050
-166.852	34.456	-0.217	0.186
-165.837	441.770	0.197	0.424
-164.823	-60.414	0.163	-0.068
-163.808	-8.582	-0.227	0.150
-162.793	800.000	-0.056	-0.162
-161.779	58.196	0.255	-0.246
-160.764	-57.233	0.273	-0.118
-159.750	-200.000	-0.005	0.105
-158.735	-151.791	0.127	-0.009
-157.720	479.078	0.108	-0.240
-156.706	-15.207	-0.079	0.050
-155.691	136.315	0.127	0.163
-154.677	-200.000	0.014	0.091
-153.662	258.725	0.084	-0.142
-152.647	-136.743	-0.220	0.025
-151.633	136.477	0.080	0.103
-150.618	251.731	0.018	-0.030
-149.604	-16.144	0.186	0.116
-148.589	219.563	0.167	-0.262
-147.574	-49.956	-0.151	0.071
-146.560	243.518	0.226	0.373
-145.545	-50.277	-0.183	0.085
-144.531	-200.000	0.051	-0.286
-143.516	128.194	-0.110	0.138
-142.502	-20.336	0.137	-0.083
-141.487	-64.363	-0.184	0.074
-140.472	800.000	-0.028	0.105
-139.458	-54.560	0.133	-0.059
-138.443	-146.484	0.114	-0.010
-137.429	800.000	0.081	0.306
-136.414	107.828	-0.222	0.260
-135.399	-91.860	-0.071	-0.020
-134.385	-65.609	-0.392	0.155
-133.370	800.000	0.078	-0.214
-132.356	800.000	0.066	-0.278
-131.341	-200.000	-0.003	0.077
-130.326	-200.000	0.002	0.056
-129.312	-177.659	0.212	-0.005
-128.297	800.000	0.037	0.118
-127.283	-164.515	-0.332	0.015
-126.268	252.656	-0.141	-0.237
-125.253	428.270	-0.075	-0.160
-124.239	-164.642	0.075	0.003
-123.224	-103.725	0.270	-0.062
-122.210	143.225	-0.047	-0.062
-121.195	-126.171	-0.032	0.005
