DTS Sentinel unit serial number:	SN413079Multiplexer serial number:	ORYXHardware model number:	OX4-SRSoftware version number:	ORYX F/W v4.00 Oryx Data Collector v3.7.2.0data status	okinstallation	princeton_trtdifferential loss correction	single-endedforward channel	channel 1reverse channel	N/Adate	2019/09/12time	14:56:11forward acquisition time	60.00reverse acquisition time	0.00gamma	496.2192k internal	0.2292k external	0.2292temperature offset calibration	1.0053default loss term (dB/km)	0.3790temperature slope calibration	1.0000multiplexer offset coefficient	1.0000multiplexer slope coefficient	1.0000fibre end	0.00T internal ref (°C)	40.34T ext. ref 1 (°C)	2.32T ext. ref 2 (°C)	37.40length (m)	temperature (°C)	Stokes	anti-Stokes-747.200	-38.593	0.211	-0.114
-746.185	338.832	-0.113	0.226
-745.171	-72.854	-0.338	-0.127
-744.156	-200.000	-0.009	0.207
-743.142	-9.466	0.045	0.031
-742.127	-200.000	-0.000	0.012
-741.112	38.686	-0.100	0.091
-740.098	-57.377	-0.163	0.073
-739.083	800.000	-0.124	0.374
-738.069	5.108	0.033	-0.025
-737.054	165.802	-0.156	-0.226
-736.039	-66.904	-0.059	-0.024
-735.025	116.706	0.133	0.167
-734.010	47.630	-0.256	-0.244
-732.996	-131.866	-0.265	0.035
-731.981	-20.003	-0.325	-0.205
-730.966	295.634	-0.065	0.123
-729.952	225.153	-0.079	0.131
-728.937	-152.014	0.251	-0.019
-727.923	-178.756	-0.412	-0.010
-726.908	-200.000	0.044	0.241
-725.894	-140.082	-0.183	0.020
-724.879	148.974	-0.122	-0.168
-723.864	-165.922	-0.264	-0.012
-722.850	-128.092	-0.115	-0.017
-721.835	8.161	-0.009	-0.007
-720.821	-91.832	0.086	-0.025
-719.806	800.000	-0.091	-0.264
-718.791	484.331	-0.168	-0.390
-717.777	-50.463	-0.126	-0.061
-716.762	800.000	-0.030	0.090
-715.748	-133.429	-0.265	-0.034
-714.733	460.348	-0.041	-0.093
-713.718	-200.000	0.003	-0.256
-712.704	399.300	-0.071	0.153
-711.689	769.972	0.087	-0.241
-710.675	-44.415	0.291	0.149
-709.660	35.589	-0.108	0.097
-708.645	-172.904	0.275	0.009
-707.631	-200.000	-0.017	-0.225
-706.616	-31.081	-0.557	-0.321
-705.602	-129.282	0.148	-0.021
-704.587	-97.821	0.087	-0.023
-703.572	-78.820	0.144	0.050
-702.558	767.820	0.094	-0.262
-701.543	260.562	-0.088	-0.155
-700.529	-200.000	0.082	0.381
-699.514	-150.448	-0.501	0.039
-698.499	-200.000	0.023	0.111
-697.485	-200.000	-0.046	0.308
-696.470	-111.253	0.165	0.034
-695.456	13.874	-0.217	-0.172
-694.441	390.726	0.131	-0.278
-693.426	51.014	-0.233	-0.226
-692.412	-114.021	0.107	-0.021
-691.397	800.000	0.056	-0.237
-690.383	800.000	-0.045	0.198
-689.368	-167.691	-0.323	0.013
-688.354	-122.770	-0.356	-0.059
-687.339	65.409	0.162	-0.168
-686.324	800.000	-0.021	0.078
-685.310	45.487	-0.097	-0.092
-684.295	92.330	-0.096	0.110
-683.281	-133.530	0.224	0.029
-682.266	800.000	-0.103	-0.332
-681.251	-163.323	-0.347	0.017
-680.237	-142.660	-0.368	0.037
-679.222	201.405	-0.025	-0.039
-678.208	-86.608	-0.135	0.042
-677.193	-200.000	0.030	-0.179
-676.178	578.079	0.241	-0.601
-675.164	-68.805	-0.163	0.064
-674.149	174.603	0.217	-0.320
-673.135	210.213	-0.123	-0.197
-672.120	-89.974	0.121	-0.036
-671.105	-87.175	-0.040	-0.012
-670.091	79.818	-0.367	-0.402
-669.076	178.786	-0.090	0.134
-668.062	-129.132	-0.164	0.023
-667.047	130.437	-0.104	-0.136
-666.032	7.470	-0.107	-0.082
-665.018	52.453	0.128	-0.125
-664.003	20.398	-0.277	0.228
-662.989	361.691	-0.071	0.146
-661.974	307.239	-0.121	-0.229
-660.959	244.576	0.150	-0.257
-659.945	-88.427	-0.341	-0.104
-658.930	78.128	0.103	0.112
-657.916	541.733	-0.121	-0.293
-656.901	-200.000	-0.033	-0.161
-655.886	140.161	-0.173	0.233
-654.872	165.369	0.138	0.199
-653.857	-200.000	0.008	-0.102
-652.843	63.114	-0.319	0.326
-651.828	192.524	0.127	-0.195
-650.814	26.750	0.039	0.033
-649.799	280.849	0.145	-0.264
-648.784	131.812	0.138	-0.181
-647.770	478.098	0.079	0.183
-646.755	-200.000	-0.057	-0.492
-645.741	-76.811	0.025	-0.009
-644.726	-33.505	-0.101	-0.057
-643.711	65.178	-0.126	-0.130
-642.697	-8.955	-0.096	0.065
-641.682	-172.784	0.353	0.011
-640.668	10.817	0.054	0.042
-639.653	-167.073	0.290	-0.012
-638.638	152.061	-0.056	0.077
-637.624	800.000	-0.043	0.132
-636.609	339.037	-0.122	0.243
-635.595	-181.143	-0.327	0.007
-634.580	-68.121	0.230	-0.091
-633.565	297.947	-0.084	0.157
-632.551	288.674	-0.019	0.035
-631.536	-162.171	-0.287	0.015
-630.522	65.521	0.176	-0.182
-629.507	-200.000	-0.007	-0.227
-628.492	-157.697	-0.428	0.026
-627.478	16.445	-0.138	0.111
-626.463	344.837	0.120	-0.240
-625.449	-46.804	0.150	-0.075
-624.434	41.090	0.141	-0.129
-623.419	-21.983	-0.045	0.028
-622.405	-27.486	0.465	0.275
-621.390	800.000	-0.033	-0.122
-620.376	-200.000	0.029	-0.398
-619.361	489.500	0.163	0.379
-618.346	800.000	0.051	0.179
-617.332	170.832	0.138	0.202
-616.317	595.019	-0.054	-0.137
-615.303	-200.000	0.009	0.075
-614.288	161.792	0.214	0.305
-613.273	-156.066	-0.071	0.005
-612.259	-109.614	0.043	-0.009
-611.244	593.670	-0.031	-0.077
-610.230	-110.595	0.177	-0.037
-609.215	60.342	0.061	0.061
-608.201	219.400	0.119	-0.193
-607.186	-107.682	0.336	0.075
-606.171	9.171	-0.096	0.074
-605.157	-83.910	-0.059	0.019
-604.142	274.121	0.147	-0.265
-603.128	-14.947	0.161	-0.105
-602.113	-6.842	-0.254	0.176
-601.098	-79.846	-0.217	-0.074
-600.084	3.521	0.010	0.007
-599.069	-200.000	-0.008	-0.049
-598.055	-200.000	0.042	0.265
-597.040	220.579	-0.154	0.251
-596.025	-200.000	-0.011	0.124
-595.011	18.208	-0.180	0.146
-593.996	800.000	-0.067	0.265
-592.982	33.993	0.309	0.274
-591.967	-132.437	0.137	0.018
-590.952	15.891	-0.250	-0.200
-589.938	-47.679	0.317	-0.156
-588.923	231.180	0.132	-0.220
-587.909	-92.541	-0.220	0.063
-586.894	-200.000	-0.024	0.225
-585.879	-200.000	-0.036	-0.408
-584.865	-200.000	-0.049	0.315
-583.850	317.350	0.071	0.137
-582.836	-59.961	-0.139	-0.061
-581.821	-59.430	-0.252	-0.110
-580.806	-200.000	-0.343	0.000
-579.792	-200.000	-0.024	-0.152
-578.777	-77.120	0.111	0.039
-577.763	-53.779	0.088	-0.041
-576.748	58.316	-0.131	0.130
-575.733	-200.000	0.009	0.301
-574.719	-101.786	0.065	-0.016
-573.704	-24.068	-0.265	-0.161
-572.690	71.572	0.068	-0.072
-571.675	-200.000	0.031	-0.221
-570.661	171.798	-0.106	0.154
-569.646	10.945	-0.292	0.227
-568.631	-200.000	0.035	-0.193
-567.617	800.000	0.125	-0.406
-566.602	-54.990	-0.083	-0.038
-565.588	-200.000	0.003	0.176
-564.573	49.766	0.176	0.168
-563.558	-26.385	0.045	-0.027
-562.544	-200.000	-0.176	-0.000
-561.529	-50.801	-0.271	0.129
-560.515	-200.000	0.001	-0.015
-559.500	169.581	0.278	-0.404
-558.485	-137.123	0.092	0.011
-557.471	-77.987	0.106	-0.037
-556.456	408.713	-0.081	-0.173
-555.442	-64.967	0.150	0.062
-554.427	13.687	0.188	-0.149
-553.412	800.000	-0.043	-0.128
-552.398	33.284	-0.031	0.027
-551.383	54.793	-0.154	-0.151
-550.369	-11.443	-0.155	-0.103
-549.354	-200.000	-0.006	-0.134
-548.339	152.433	-0.122	-0.169
-547.325	-55.686	-0.404	0.183
-546.310	368.504	-0.187	-0.385
-545.296	601.685	-0.215	-0.543
-544.281	-82.975	-0.093	0.031
-543.266	-54.418	-0.256	-0.118
-542.252	-119.432	-0.090	0.016
-541.237	-167.674	-0.368	-0.015
-540.223	7.377	-0.283	0.214
-539.208	-200.000	-0.012	0.101
-538.193	-54.655	0.129	0.059
-537.179	167.308	0.183	-0.264
-536.164	-200.000	-0.009	0.381
-535.150	-200.000	0.010	-0.102
-534.135	-120.272	-0.258	0.045
-533.121	-2.925	-0.376	0.267
-532.106	-13.202	-0.036	0.024
-531.091	-83.824	-0.067	0.022
-530.077	800.000	0.051	-0.215
-529.062	87.101	0.340	0.381
-528.048	-70.368	0.132	-0.051
-527.033	800.000	0.067	-0.217
-526.018	68.600	-0.083	-0.087
-525.004	-163.912	0.078	-0.004
-523.989	-18.119	-0.013	0.008
-522.975	101.469	0.325	0.385
-521.960	-66.302	0.193	0.078
-520.945	-51.956	-0.279	0.131
-519.931	-200.000	0.003	0.080
-518.916	-146.035	-0.132	-0.012
-517.902	-87.168	-0.272	0.084
-516.887	41.827	0.189	0.174
-515.872	800.000	-0.121	0.377
-514.858	-149.302	-0.178	0.014
-513.843	291.210	-0.052	0.095
-512.829	800.000	-0.021	-0.076
-511.814	800.000	-0.084	-0.340
-510.799	-200.000	-0.023	-0.241
-509.785	-121.878	-0.263	-0.044
-508.770	800.000	-0.071	-0.271
-507.756	-100.201	0.126	0.032
-506.741	206.616	-0.097	-0.154
-505.726	69.461	-0.064	-0.067
-504.712	38.132	-0.086	0.077
-503.697	-115.424	-0.373	0.071
-502.683	164.617	-0.167	0.239
-501.668	-70.438	0.099	-0.038
-500.653	46.718	0.240	0.226
-499.639	-200.000	0.018	0.293
-498.624	-147.218	0.313	0.027
-497.610	9.107	-0.022	-0.017
-496.595	91.195	-0.035	0.040
-495.581	-200.000	0.000	-0.137
-494.566	-60.070	0.256	-0.111
-493.551	-104.226	0.126	0.030
-492.537	-126.363	0.280	0.042
-491.522	-48.966	0.256	-0.124
-490.508	-107.529	0.098	-0.022
-489.493	169.795	-0.085	-0.124
-488.478	354.522	0.021	-0.041
-487.464	-95.300	-0.212	0.058
-486.449	-26.442	-0.029	-0.017
-485.435	-29.852	-0.271	0.156
-484.420	800.000	0.015	0.060
-483.405	-200.000	-0.016	0.260
-482.391	305.675	-0.019	-0.036
-481.376	377.733	0.228	-0.472
-480.362	-200.000	0.042	0.187
-479.347	-185.566	-0.036	0.001
-478.332	122.391	0.150	-0.190
-477.318	-48.663	0.240	-0.117
-476.303	-108.999	0.074	0.016
-475.289	123.103	-0.321	-0.407
-474.274	-90.820	-0.188	0.055
-473.259	97.728	0.117	-0.136
-472.245	-27.176	-0.100	0.059
-471.230	255.655	0.085	0.147
-470.216	-200.000	0.016	0.321
-469.201	-200.000	-0.018	-0.263
-468.186	28.548	-0.287	0.246
-467.172	349.801	-0.070	0.140
-466.157	-200.000	0.003	0.104
-465.143	-200.000	0.011	-0.122
-464.128	-176.862	-0.313	0.008
-463.113	25.266	-0.239	-0.201
-462.099	-49.627	0.141	-0.068
-461.084	236.208	0.122	0.204
-460.070	-49.201	0.204	-0.098
-459.055	245.648	-0.135	-0.230
-458.040	-83.738	0.255	-0.082
-457.026	52.353	-0.276	-0.266
-456.011	222.318	0.111	0.182
-454.997	800.000	-0.050	-0.154
-453.982	158.598	-0.169	-0.237
-452.968	491.412	0.141	0.326
-451.953	75.710	-0.259	0.277
-450.938	-5.444	-0.137	-0.095
-449.924	-126.934	-0.172	0.026
-448.909	-111.606	0.164	0.034
-447.895	-83.777	-0.156	-0.050
-446.880	185.976	-0.187	0.282
-445.865	-165.971	-0.326	0.014
-444.851	-40.029	0.148	0.078
-443.836	800.000	0.121	0.342
-442.822	-57.142	-0.216	-0.096
-441.807	132.234	0.059	0.076
-440.792	-200.000	-0.019	-0.091
-439.778	58.266	0.150	-0.149
-438.763	-96.153	0.097	-0.026
-437.749	746.829	-0.098	0.267
-436.734	800.000	0.103	0.398
-435.719	-18.062	-0.128	-0.081
-434.705	-200.000	0.031	-0.300
-433.690	541.181	-0.109	-0.262
-432.676	-200.000	0.044	0.282
-431.661	-170.086	-0.280	-0.010
-430.646	-22.142	0.142	0.087
-429.632	-200.000	-0.036	0.225
-428.617	111.906	-0.273	-0.333
-427.603	-13.756	-0.176	-0.115
-426.588	518.588	-0.096	-0.227
-425.573	800.000	-0.024	0.103
-424.559	-77.792	-0.184	-0.064
-423.544	134.727	-0.094	0.124
-422.530	-52.019	0.344	0.162
-421.515	-58.581	-0.245	-0.108
-420.500	-200.000	-0.051	-0.293
-419.486	46.938	0.175	0.165
-418.471	-200.000	-0.019	-0.258
-417.457	557.432	-0.025	0.061
-416.442	800.000	-0.101	0.345
-415.428	71.736	-0.220	0.231
-414.413	95.489	0.153	-0.176
-413.398	-151.462	-0.141	0.011
-412.384	-160.850	-0.052	0.003
-411.369	-97.121	0.289	-0.076
-410.355	-66.337	0.038	0.015
-409.340	-77.841	0.084	-0.029
-408.325	22.374	-0.116	0.096
-407.311	-60.443	-0.076	-0.033
-406.296	-40.689	-0.168	-0.088
-405.282	-34.558	-0.138	-0.076
-404.267	244.412	-0.154	-0.262
-403.252	-200.000	-0.008	-0.305
-402.238	140.168	0.191	-0.254
-401.223	-200.000	-0.049	0.370
-400.209	-35.989	-0.121	-0.066
-399.194	186.696	-0.101	-0.152
-398.179	-41.743	0.251	-0.130
-397.165	-55.182	0.155	-0.070
-396.150	132.636	0.316	-0.412
-395.136	-17.373	0.107	-0.068
-394.121	-200.000	-0.010	-0.133
-393.106	-64.384	0.104	0.043
-392.092	-200.000	-0.030	0.144
-391.077	-94.858	0.140	0.038
-390.063	800.000	0.024	0.091
-389.048	-33.544	-0.230	-0.128
-388.033	94.952	0.105	-0.121
-387.019	319.077	0.074	-0.141
-386.004	-200.000	0.043	-0.201
-384.990	-200.000	-0.032	-0.273
-383.975	-200.000	0.008	0.138
-382.960	14.920	0.308	-0.243
-381.946	139.616	-0.281	-0.373
-380.931	578.878	0.045	-0.112
-379.917	562.814	-0.042	0.103
-378.902	800.000	-0.028	-0.115
-377.888	341.711	-0.086	0.169
-376.873	267.548	0.050	-0.088
-375.858	-106.516	0.422	0.095
-374.844	-200.000	0.016	0.175
-373.829	-27.345	0.179	-0.105
-372.815	800.000	-0.079	0.244
-371.800	-139.121	-0.155	0.017
-370.785	-87.581	-0.096	0.029
-369.771	-200.000	-0.002	0.582
-368.756	-57.775	-0.372	-0.164
-367.742	1.438	0.050	0.036
-366.727	800.000	0.096	-0.276
-365.712	-93.660	0.255	0.071
-364.698	-37.808	0.079	0.042
-363.683	800.000	-0.025	-0.078
-362.669	-200.000	0.046	-0.272
-361.654	517.919	0.148	-0.349
-360.639	146.811	0.104	0.141
-359.625	330.980	0.037	-0.071
-358.610	-200.000	0.038	0.169
-357.596	800.000	0.044	0.157
-356.581	-200.000	-0.079	-0.427
-355.566	-108.383	-0.363	0.079
-354.552	-200.000	-0.005	0.113
-353.537	-148.657	0.436	-0.036
-352.523	-200.000	0.001	0.285
-351.508	34.152	0.094	0.083
-350.493	-200.000	0.006	-0.083
-349.479	800.000	0.126	-0.355
-348.464	331.185	0.070	-0.136
-347.450	-0.529	-0.199	0.142
-346.435	-50.798	-0.130	-0.062
-345.420	-0.393	0.110	-0.079
-344.406	-92.585	-0.342	-0.097
-343.391	800.000	0.075	0.268
-342.377	-39.452	0.212	-0.112
-341.362	41.205	0.249	0.227
-340.348	-95.501	-0.237	-0.064
-339.333	101.310	0.037	0.043
-338.318	236.580	-0.109	0.181
-337.304	150.511	0.059	0.081
-336.289	-200.000	-0.025	-0.165
-335.275	-23.824	0.081	0.049
-334.260	36.670	0.056	-0.050
-333.245	-200.000	-0.010	0.097
-332.231	190.595	-0.139	0.211
-331.216	13.610	0.230	-0.180
-330.202	-120.309	-0.099	0.017
-329.187	-89.127	0.525	0.156
-328.172	-146.613	0.075	-0.007
-327.158	800.000	-0.057	-0.175
-326.143	-108.871	-0.112	-0.024
-325.129	-92.428	-0.289	-0.082
-324.114	-42.661	0.327	0.168
-323.099	7.834	-0.067	0.051
-322.085	-70.040	0.194	-0.074
-321.070	59.674	-0.165	0.164
-320.056	-144.504	-0.049	0.005
-319.041	160.196	-0.176	0.246
-318.026	694.371	-0.191	0.506
-317.012	266.417	0.177	0.311
-315.997	83.396	0.162	0.178
-314.983	-18.823	0.189	-0.118
-313.968	-138.813	0.154	-0.017
-312.953	57.274	-0.071	0.070
-311.939	226.646	-0.073	-0.120
-310.924	-143.385	0.040	-0.004
-309.910	36.469	0.253	-0.225
-308.895	-200.000	-0.002	-0.209
-307.880	3.827	0.137	-0.101
-306.866	-57.776	-0.125	-0.055
-305.851	-136.663	0.091	0.011
-304.837	-170.012	-0.299	-0.011
-303.822	228.620	0.264	0.433
-302.807	-200.000	0.006	0.120
-301.793	148.857	-0.197	0.268
-300.778	167.816	0.033	-0.047
-299.764	-165.877	0.399	0.017
-298.749	14.042	0.103	0.081
-297.735	279.465	-0.058	-0.104
-296.720	-200.000	0.013	0.172
-295.705	-33.145	0.201	-0.112
-294.691	800.000	-0.065	-0.192
-293.676	-64.552	0.185	-0.075
-292.662	-76.881	0.187	-0.066
-291.647	-103.798	0.206	-0.048
-290.632	-171.842	0.191	-0.006
-289.618	-61.596	0.207	0.087
-288.603	283.693	0.181	-0.327
-287.589	-70.273	0.135	-0.052
-286.574	-200.000	-0.046	0.270
-285.559	800.000	0.059	0.237
-284.545	800.000	-0.065	0.180
-283.530	-182.157	-0.449	0.008
-282.516	-125.938	-0.161	-0.024
-281.501	171.966	0.098	0.142
-280.486	-200.000	0.050	0.249
-279.472	-13.549	-0.101	0.066
-278.457	307.019	-0.100	0.187
-277.443	157.054	0.159	0.220
-276.428	96.271	-0.197	0.227
-275.413	-104.427	-0.397	-0.092
-274.399	-200.000	0.006	0.154
-273.384	335.925	-0.208	0.406
-272.370	104.438	-0.198	-0.234
-271.355	-163.880	-0.104	-0.005
-270.340	38.809	-0.258	0.231
-269.326	-41.761	-0.040	-0.020
-268.311	-8.853	-0.248	0.167
-267.297	98.299	0.209	0.242
-266.282	-171.473	0.132	0.004
-265.267	-200.000	0.010	0.122
-264.253	573.666	-0.102	-0.249
-263.238	78.977	-0.058	0.063
-262.224	-108.641	0.114	-0.025
-261.209	202.405	0.086	-0.134
-260.195	88.557	0.117	-0.131
-259.180	5.412	-0.066	-0.049
-258.165	-140.543	0.044	-0.005
-257.151	800.000	0.040	-0.122
-256.136	43.295	0.187	-0.171
-255.122	58.124	0.160	-0.158
-254.107	-200.000	-0.026	0.254
-253.092	581.407	-0.057	0.139
-252.078	248.111	0.149	-0.253
-251.063	-76.483	-0.183	-0.065
-250.049	-81.688	-0.045	-0.015
-249.034	800.000	-0.090	-0.328
-248.019	-200.000	0.050	-0.264
-247.005	51.067	0.267	-0.254
-245.990	6.643	-0.211	-0.158
-244.976	-170.208	-0.113	0.004
-243.961	77.136	-0.174	-0.185
-242.946	135.618	0.155	-0.203
-241.932	-94.320	-0.326	0.089
-240.917	42.277	-0.132	0.120
-239.903	-105.222	0.114	-0.026
-238.888	-200.000	-0.003	0.168
-237.873	-200.000	-0.047	0.354
-236.859	-61.352	0.162	0.068
-235.844	139.262	-0.188	0.248
-234.830	-70.295	0.284	-0.108
-233.815	-200.000	-0.019	0.219
-232.800	669.054	0.099	0.256
-231.786	-200.000	0.022	0.209
-230.771	519.881	-0.071	-0.166
-229.757	79.944	-0.081	0.087
-228.742	-200.000	-0.028	0.162
-227.727	219.043	0.173	0.277
-226.713	-23.920	-0.231	-0.138
-225.698	-17.604	0.132	0.083
-224.684	47.543	0.218	0.204
-223.669	208.326	0.180	-0.282
-222.655	-200.000	0.037	-0.261
-221.640	-9.335	0.122	0.082
-220.625	800.000	-0.086	0.250
-219.611	-44.727	0.289	0.145
-218.596	-165.874	0.338	0.015
-217.582	800.000	0.032	0.093
-216.567	-8.270	0.096	-0.065
-215.552	-97.429	0.145	0.038
-214.538	16.971	0.232	0.185
-213.523	421.832	0.018	0.039
-212.509	-90.111	-0.181	-0.053
-211.494	800.000	-0.097	-0.312
-210.479	-38.033	0.132	-0.070
-209.465	-200.000	0.034	-0.179
-208.450	-6.941	0.088	0.060
-207.436	-79.572	-0.415	0.140
-206.421	-73.949	0.036	-0.013
-205.406	-50.820	-0.475	0.224
-204.392	135.055	0.122	-0.159
-203.377	-82.944	0.174	0.056
-202.363	50.185	-0.068	-0.064
-201.348	-75.565	-0.228	0.081
-200.333	477.907	-0.046	0.104
-199.319	-52.441	0.246	-0.114
-198.304	-140.673	-0.230	0.024
-197.290	-64.186	0.256	-0.105
-196.275	793.003	0.060	0.167
-195.260	-102.114	0.320	0.077
-194.246	-26.757	-0.470	-0.275
-193.231	125.724	0.105	0.133
-192.217	81.336	0.105	-0.114
-191.202	49.769	0.188	0.177
-190.187	426.035	0.079	0.170
-189.173	86.108	-0.196	0.216
-188.158	109.447	0.101	0.121
-187.144	-77.614	0.095	-0.033
-186.129	-200.000	-0.231	0.000
-185.114	508.609	-0.100	-0.234
-184.100	-200.000	-0.002	-0.101
-183.085	408.142	0.053	-0.112
-182.071	217.938	-0.101	0.161
-181.056	-129.437	-0.242	-0.034
-180.042	328.436	-0.083	-0.159
-179.027	-200.000	0.205	-0.001
-178.012	-200.000	0.049	0.245
-176.998	428.681	-0.003	-0.007
-175.983	-65.403	-0.284	-0.114
-174.969	106.728	-0.116	-0.138
-173.954	800.000	-0.004	0.011
-172.939	-57.358	-0.054	-0.024
-171.925	-82.934	0.115	0.037
-170.910	800.000	-0.094	-0.352
-169.896	-200.000	-0.005	-0.607
-168.881	751.810	0.115	-0.311
-167.866	-150.437	0.110	-0.008
-166.852	24.987	0.275	0.228
-165.837	800.000	-0.055	0.199
-164.823	800.000	0.077	0.252
-163.808	-200.000	0.002	0.013
-162.793	-12.965	0.302	-0.196
-161.779	-7.931	-0.064	-0.043
-160.764	55.260	0.107	-0.103
-159.750	150.335	0.018	-0.024
-158.735	-104.776	0.290	-0.067
-157.720	107.861	0.151	0.180
-156.706	800.000	-0.105	-0.293
-155.691	500.285	0.154	0.355
-154.677	176.166	0.080	0.117
-153.662	800.000	-0.037	0.106
-152.647	135.531	-0.078	-0.101
-151.633	64.127	0.105	-0.106
-150.618	106.055	-0.152	0.180
-149.604	240.774	0.182	-0.304
-148.589	-200.000	-0.026	-0.224
-147.574	-120.369	0.361	-0.061
-146.560	-37.562	-0.117	-0.062
-145.545	-200.000	-0.014	-0.090
-144.531	800.000	-0.113	0.391
-143.516	-200.000	0.027	0.204
-142.502	53.900	0.126	-0.121
-141.487	357.428	-0.101	-0.202
-140.472	-181.168	-0.140	0.003
-139.458	-200.000	-0.053	0.271
-138.443	-2.152	-0.043	0.030
-137.429	-200.000	-0.018	0.133
-136.414	-200.000	0.017	0.202
-135.399	361.646	0.152	0.304
-134.385	-56.611	-0.452	-0.200
-133.370	-47.225	0.225	-0.110
-132.356	-4.417	-0.139	-0.096
-131.341	800.000	0.147	-0.556
-130.326	-31.667	0.019	0.011
-129.312	-200.000	0.007	0.041
-128.297	-95.130	-0.098	0.026
-127.283	334.244	0.110	0.212
-126.268	-79.174	0.296	-0.100
-125.253	-111.966	0.342	0.069
-124.239	-23.905	-0.356	0.213
-123.224	-14.394	0.083	-0.053
-122.210	-110.859	-0.088	-0.018
