DTS Sentinel unit serial number:	SN413079Multiplexer serial number:	ORYXHardware model number:	OX4-SRSoftware version number:	ORYX F/W v4.00 Oryx Data Collector v3.7.2.0data status	okinstallation	princeton_trtdifferential loss correction	single-endedforward channel	channel 1reverse channel	N/Adate	2019/09/18time	14:22:35forward acquisition time	60.00reverse acquisition time	0.00gamma	496.2192k internal	0.2312k external	0.2312temperature offset calibration	0.9987default loss term (dB/km)	0.3790temperature slope calibration	1.0000multiplexer offset coefficient	1.0000multiplexer slope coefficient	1.0000fibre end	0.00T internal ref (°C)	34.31T ext. ref 1 (°C)	0.69T ext. ref 2 (°C)	30.00length (m)	temperature (°C)	Stokes	anti-Stokes-747.200	-86.737	0.305	-0.095
-746.185	8.875	-0.059	0.045
-745.171	141.469	0.133	0.179
-744.156	-111.408	-0.175	0.036
-743.142	-72.803	-0.133	0.049
-742.127	100.670	0.173	0.204
-741.112	184.000	0.135	-0.203
-740.098	253.961	0.125	0.217
-739.083	41.355	0.237	-0.217
-738.069	800.000	-0.054	0.238
-737.054	-200.000	0.007	0.208
-736.039	182.031	-0.260	-0.389
-735.025	-46.157	-0.255	-0.127
-734.010	-78.603	-0.181	-0.063
-732.996	94.142	-0.159	0.183
-731.981	-200.000	-0.005	-0.043
-730.966	-106.290	-0.075	0.017
-729.952	-86.958	0.276	-0.085
-728.937	800.000	-0.073	-0.264
-727.923	29.023	0.234	-0.201
-726.908	47.182	-0.119	-0.112
-725.894	-107.388	-0.027	0.006
-724.879	490.541	0.177	-0.411
-723.864	800.000	0.044	0.190
-722.850	-45.229	-0.034	-0.017
-721.835	800.000	-0.087	0.273
-720.821	-45.723	-0.174	-0.087
-719.806	22.250	-0.214	-0.177
-718.791	-107.229	-0.163	-0.036
-717.777	-200.000	-0.012	-0.056
-716.762	59.050	0.100	0.100
-715.748	110.659	0.190	-0.232
-714.733	-142.842	0.325	-0.032
-713.718	-108.092	-0.119	-0.026
-712.704	49.342	0.047	-0.044
-711.689	125.348	-0.174	0.223
-710.675	-200.000	0.012	0.075
-709.660	-200.000	0.079	-0.425
-708.645	302.781	0.212	-0.398
-707.631	89.783	-0.090	0.102
-706.616	-77.442	0.293	-0.103
-705.602	81.284	-0.187	-0.205
-704.587	509.751	0.114	0.269
-703.572	-80.379	0.240	0.081
-702.558	-17.154	-0.173	0.110
-701.543	-52.518	0.173	0.081
-700.529	509.711	-0.102	0.240
-699.514	-200.000	0.005	0.138
-698.499	-24.145	0.037	-0.023
-697.485	800.000	0.071	-0.241
-696.470	43.868	-0.037	-0.034
-695.456	-200.000	-0.081	0.485
-694.441	-108.043	0.059	-0.013
-693.426	-200.000	-0.021	0.268
-692.412	-200.000	-0.019	0.196
-691.397	26.459	0.110	0.093
-690.383	-110.537	0.218	-0.046
-689.368	-52.469	0.339	0.159
-688.354	-142.237	0.164	-0.016
-687.339	121.600	0.128	0.162
-686.324	95.229	0.316	-0.365
-685.310	29.503	0.083	0.072
-684.295	-106.384	0.248	-0.056
-683.281	-200.000	0.002	-0.119
-682.266	-200.000	0.048	-0.220
-681.251	51.332	0.275	-0.264
-680.237	-200.000	-0.013	-0.151
-679.222	-98.051	-0.160	0.042
-678.208	92.562	-0.097	0.111
-677.193	-105.547	0.354	0.081
-676.178	-109.103	-0.102	-0.022
-675.164	17.771	0.263	-0.212
-674.149	112.640	0.134	-0.164
-673.135	-200.000	0.035	-0.160
-672.120	-70.429	-0.213	-0.082
-671.105	295.034	0.155	-0.287
-670.091	203.048	-0.125	-0.196
-669.076	-200.000	-0.028	0.273
-668.062	800.000	0.042	0.116
-667.047	-66.103	0.364	-0.147
-666.032	-200.000	-0.032	0.202
-665.018	-139.842	-0.132	0.014
-664.003	-198.909	0.419	-0.002
-662.989	-65.120	-0.404	-0.165
-661.974	473.794	0.134	-0.305
-660.959	-115.993	-0.348	-0.066
-659.945	800.000	-0.047	-0.154
-658.930	19.072	0.201	-0.163
-657.916	800.000	0.050	-0.154
-656.901	800.000	-0.092	-0.293
-655.886	161.594	0.190	-0.269
-654.872	119.166	0.081	-0.101
-653.857	285.596	-0.079	-0.144
-652.843	157.629	-0.123	-0.173
-651.828	-9.924	-0.186	-0.125
-650.814	-200.000	0.000	0.119
-649.799	8.637	0.173	-0.132
-648.784	18.414	-0.231	-0.187
-647.770	-61.166	0.196	0.083
-646.755	-200.000	-0.012	-0.252
-645.741	6.723	0.249	-0.187
-644.726	205.253	0.114	0.178
-643.711	-76.703	0.258	-0.091
-642.697	-89.020	-0.242	0.072
-641.682	-200.000	0.016	-0.212
-640.668	33.040	0.170	0.149
-639.653	-70.463	0.245	-0.094
-638.638	106.735	0.280	0.336
-637.624	-41.322	-0.344	-0.179
-636.609	800.000	0.052	0.193
-635.595	-34.566	-0.194	0.108
-634.580	-30.981	0.108	0.061
-633.565	48.157	0.179	-0.169
-632.551	-95.741	-0.288	-0.078
-631.536	-118.064	-0.134	0.024
-630.522	52.058	-0.228	-0.219
-629.507	291.150	0.139	0.255
-628.492	491.659	-0.103	-0.238
-627.478	50.276	0.262	0.250
-626.463	-117.675	0.229	-0.042
-625.449	800.000	0.092	-0.338
-624.434	122.978	-0.192	-0.243
-623.419	53.647	-0.111	-0.108
-622.405	-12.893	-0.287	0.189
-621.390	373.627	-0.064	-0.131
-620.376	124.330	-0.150	-0.191
-619.361	178.733	0.055	0.081
-618.346	23.675	0.289	-0.240
-617.332	800.000	0.069	0.230
-616.317	-74.683	0.185	0.067
-615.303	-51.133	-0.313	0.148
-614.288	-70.330	0.180	-0.069
-613.273	-200.000	-0.001	-0.078
-612.259	-114.564	-0.203	-0.039
-611.244	-60.073	0.293	0.126
-610.230	124.163	0.030	0.038
-609.215	-114.724	-0.127	-0.025
-608.201	165.836	0.064	0.092
-607.186	-19.063	0.086	-0.054
-606.171	-200.000	0.013	-0.112
-605.157	8.250	0.058	-0.044
-604.142	56.829	0.176	-0.173
-603.128	-174.376	-0.354	0.010
-602.113	387.266	0.067	0.140
-601.098	75.527	-0.152	0.162
-600.084	251.334	-0.092	0.157
-599.069	-200.000	-0.030	-0.364
-598.055	-200.000	-0.014	0.174
-597.040	493.189	-0.085	-0.197
-596.025	-200.000	0.047	-0.212
-595.011	-73.566	0.217	0.080
-593.996	4.485	0.276	0.204
-592.982	280.302	0.137	-0.247
-591.967	800.000	-0.069	-0.229
-590.952	-200.000	-0.018	-0.144
-589.938	-8.462	0.338	-0.229
-588.923	40.471	-0.102	-0.092
-587.909	800.000	0.019	0.065
-586.894	16.017	0.167	-0.133
-585.879	800.000	-0.051	0.145
-584.865	226.338	0.143	-0.233
-583.850	-200.000	0.002	0.189
-582.836	800.000	0.065	0.187
-581.821	120.072	-0.197	0.246
-580.806	-111.130	0.256	0.053
-579.792	-13.877	-0.228	-0.148
-578.777	-46.371	0.235	-0.116
-577.763	-100.878	0.184	0.046
-576.748	800.000	-0.078	-0.299
-575.733	-200.000	0.502	0.001
-574.719	74.349	0.054	-0.057
-573.704	-95.869	-0.292	-0.079
-572.690	209.175	-0.059	-0.093
-571.675	360.790	-0.076	-0.153
-570.661	102.569	0.155	0.182
-569.646	-200.000	-0.024	0.337
-568.631	-47.818	-0.140	-0.068
-567.617	-98.697	0.045	-0.012
-566.602	170.934	0.174	0.252
-565.588	-74.907	-0.489	0.177
-564.573	52.719	-0.104	-0.100
-563.558	694.477	0.079	-0.210
-562.544	-200.000	0.025	-0.120
-561.529	234.455	0.136	-0.226
-560.515	-9.421	-0.185	-0.125
-559.500	-136.909	0.105	0.012
-558.485	-200.000	0.023	-0.136
-557.471	640.292	-0.025	-0.064
-556.456	10.404	0.118	0.090
-555.442	35.333	-0.170	0.150
-554.427	-109.224	0.116	-0.025
-553.412	-103.470	-0.199	0.047
-552.398	-100.237	0.349	0.087
-551.383	-46.667	-0.221	-0.109
-550.369	-200.000	0.013	-0.130
-549.354	-68.536	-0.119	-0.046
-548.339	800.000	-0.063	0.182
-547.325	-97.650	0.102	0.027
-546.310	-200.000	-0.035	-0.306
-545.296	-200.000	-0.007	-0.072
-544.281	-119.800	-0.441	-0.077
-543.266	-45.020	-0.336	0.169
-542.252	93.946	-0.053	0.061
-541.237	-48.304	0.172	0.083
-540.223	-167.784	0.293	0.012
-539.208	-108.711	-0.255	-0.055
-538.193	-102.797	0.074	0.018
-537.179	800.000	0.117	0.496
-536.164	203.237	0.062	0.096
-535.150	-13.952	0.318	-0.207
-534.135	103.118	0.033	0.039
-533.121	45.434	0.296	0.275
-532.106	0.450	-0.377	0.271
-531.091	-59.558	-0.402	-0.174
-530.077	-147.952	0.008	-0.001
-529.062	-1.716	-0.159	0.112
-528.048	365.264	-0.076	-0.153
-527.033	68.244	0.244	0.251
-526.018	-200.000	0.038	0.442
-525.004	133.816	-0.175	-0.227
-523.989	800.000	0.031	-0.099
-522.975	-200.000	0.015	0.165
-521.960	-27.660	-0.152	-0.089
-520.945	-200.000	0.016	0.174
-519.931	30.235	0.112	-0.096
-518.916	128.636	0.178	-0.228
-517.902	800.000	0.052	-0.184
-516.887	740.834	0.065	0.175
-515.872	147.368	-0.056	-0.076
-514.858	22.120	-0.117	-0.096
-513.843	-9.384	-0.111	-0.075
-512.829	-200.000	0.013	0.207
-511.814	800.000	0.038	-0.131
-510.799	-95.062	0.155	0.042
-509.785	-37.756	0.321	-0.172
-508.770	202.392	-0.191	-0.297
-507.756	-200.000	0.038	-0.177
-506.741	800.000	-0.076	-0.303
-505.726	-0.389	-0.242	-0.172
-504.712	160.158	0.059	-0.083
-503.697	34.484	-0.317	-0.278
-502.683	653.464	0.116	0.300
-501.668	-146.673	0.107	-0.009
-500.653	246.848	0.061	0.104
-499.639	31.435	-0.049	-0.042
-498.624	800.000	-0.100	-0.405
-497.610	-94.695	-0.231	0.063
-496.595	-29.947	0.092	0.053
-495.581	-82.132	0.109	-0.036
-494.566	-8.427	-0.163	0.110
-493.551	-36.138	0.146	0.079
-492.537	-11.028	0.283	0.188
-491.522	66.806	0.074	-0.076
-490.508	-200.000	0.015	-0.170
-489.493	-153.545	0.153	0.011
-488.478	49.514	-0.275	-0.260
-487.464	14.697	-0.272	-0.214
-486.449	-140.636	0.211	-0.022
-485.435	-7.867	-0.149	0.101
-484.420	-58.724	-0.282	-0.123
-483.405	-184.097	0.183	-0.003
-482.391	-200.000	-0.028	-0.140
-481.376	-51.482	-0.061	-0.029
-480.362	-200.000	-0.064	0.431
-479.347	800.000	-0.055	0.195
-478.332	800.000	0.100	-0.279
-477.318	-157.770	-0.165	0.010
-476.303	-107.024	0.269	0.060
-475.289	466.245	-0.130	0.293
-474.274	800.000	-0.065	0.186
-473.259	-102.020	-0.198	0.048
-472.245	-200.000	-0.036	0.309
-471.230	-38.700	0.206	0.109
-470.216	32.713	-0.122	-0.106
-469.201	800.000	-0.057	-0.239
-468.186	-61.417	0.239	0.101
-467.172	-162.445	-0.053	-0.003
-466.157	38.381	-0.141	-0.126
-465.143	-200.000	-0.054	0.247
-464.128	-160.108	-0.332	-0.018
-463.113	-25.491	0.379	-0.225
-462.099	-37.102	0.316	-0.170
-461.084	-138.212	-0.389	0.043
-460.070	-156.023	-0.294	-0.019
-459.055	-200.000	0.062	-0.405
-458.040	-89.642	-0.204	-0.060
-457.026	360.323	0.101	0.204
-456.011	60.194	0.096	0.096
-454.997	-121.161	0.235	0.039
-453.982	-40.172	-0.115	0.060
-452.968	-40.091	0.068	-0.036
-451.953	301.246	-0.084	0.155
-450.938	-80.982	-0.175	-0.058
-449.924	-87.802	-0.188	0.057
-448.909	-132.170	-0.027	-0.004
-447.895	-160.774	-0.380	-0.020
-446.880	55.611	0.274	0.266
-445.865	800.000	-0.083	0.280
-444.851	800.000	-0.066	-0.224
-443.836	800.000	0.051	-0.224
-442.822	-166.943	-0.132	-0.005
-441.807	-127.199	-0.259	0.038
-440.792	96.453	-0.044	0.051
-439.778	-200.000	0.016	-0.084
-438.763	-102.426	0.251	-0.060
-437.749	10.148	-0.093	-0.071
-436.734	-2.289	0.084	-0.059
-435.719	-200.000	-0.045	0.374
-434.705	-43.342	0.270	-0.137
-433.690	590.930	0.070	0.172
-432.676	-11.163	0.155	0.103
-431.661	233.924	0.213	-0.352
-430.646	-117.171	0.448	-0.082
-429.632	-139.044	0.182	-0.020
-428.617	96.300	0.135	0.155
-427.603	7.861	-0.203	-0.152
-426.588	21.434	-0.132	0.108
-425.573	-193.952	-0.069	-0.001
-424.559	40.937	-0.276	-0.250
-423.544	-200.000	-0.002	-0.145
-422.530	-66.041	-0.243	-0.097
-421.515	52.229	0.279	0.267
-420.500	202.444	-0.113	-0.174
-419.486	34.160	-0.166	-0.145
-418.471	92.900	-0.095	0.107
-417.457	800.000	0.078	0.297
-416.442	64.976	-0.282	-0.286
-415.428	-57.463	-0.114	-0.050
-414.413	61.639	0.184	0.183
-413.398	-144.164	0.120	-0.011
-412.384	78.218	-0.083	0.089
-411.369	-69.813	-0.406	0.155
-410.355	389.643	0.060	0.126
-409.340	-40.623	0.229	-0.119
-408.325	202.797	-0.104	0.162
-407.311	118.919	0.174	-0.216
-406.296	424.347	0.104	0.224
-405.282	27.322	0.107	0.090
-404.267	-200.000	0.005	0.214
-403.252	-200.000	0.004	-0.088
-402.238	-60.109	-0.151	0.064
-401.223	-200.000	-0.076	-0.361
-400.209	-200.000	-0.005	-0.039
-399.194	-154.633	-0.127	-0.008
-398.179	316.049	-0.060	0.114
-397.165	-200.000	0.022	0.186
-396.150	-77.342	0.176	-0.061
-395.136	800.000	-0.027	0.091
-394.121	-84.811	-0.096	0.030
-393.106	-200.000	-0.274	-0.001
-392.092	-30.766	0.133	-0.075
-391.077	-177.792	0.209	-0.005
-390.063	-200.000	0.045	0.326
-389.048	-74.177	-0.091	0.033
-388.033	-200.000	-0.021	0.166
-387.019	81.871	-0.130	-0.141
-386.004	59.197	-0.040	-0.039
-384.990	800.000	0.095	0.266
-383.975	-200.000	0.018	0.119
-382.960	326.631	0.076	-0.145
-381.946	-107.225	-0.174	-0.038
-380.931	272.393	-0.109	0.192
-379.917	211.507	-0.244	-0.385
-378.902	214.115	-0.164	0.260
-377.888	12.488	0.219	0.169
-376.873	-167.128	0.143	0.006
-375.858	-72.105	-0.245	-0.091
-374.844	-135.364	0.171	-0.020
-373.829	35.364	0.268	0.235
-372.815	389.192	0.057	0.119
-371.800	68.591	0.054	-0.055
-370.785	768.560	-0.137	-0.374
-369.771	43.090	-0.163	0.149
-368.756	429.150	0.107	0.232
-367.742	-200.000	-0.014	-0.084
-366.727	-200.000	0.033	0.419
-365.712	-115.274	0.328	0.062
-364.698	574.509	-0.069	-0.169
-363.683	-186.911	-0.143	0.002
-362.669	-200.000	-0.024	-0.136
-361.654	260.373	-0.154	0.266
-360.639	-200.000	-0.033	0.205
-359.625	184.144	0.110	0.162
-358.610	-200.000	0.072	-0.419
-357.596	800.000	-0.159	-0.640
-356.581	-35.045	0.084	-0.046
-355.566	-62.445	-0.458	0.190
-354.552	-103.389	-0.242	-0.057
-353.537	-147.621	-0.135	0.011
-352.523	-200.000	0.035	-0.300
-351.508	800.000	-0.108	-0.343
-350.493	-200.000	0.019	0.153
-349.479	-0.993	0.164	0.116
-348.464	260.349	-0.156	-0.269
-347.450	62.958	-0.185	-0.185
-346.435	800.000	-0.054	-0.181
-345.420	243.540	0.118	-0.198
-344.406	-31.194	-0.125	0.070
-343.391	281.343	0.091	-0.163
-342.377	-23.951	-0.087	0.052
-341.362	104.644	-0.180	0.212
-340.348	-200.000	0.013	0.329
-339.333	40.822	0.046	0.042
-338.318	505.190	0.093	0.216
-337.304	164.104	-0.108	-0.152
-336.289	115.587	0.165	-0.201
-335.275	180.623	0.081	0.118
-334.260	-94.152	0.142	0.039
-333.245	800.000	-0.058	0.194
-332.231	-88.351	0.180	0.054
-331.216	535.111	-0.057	-0.135
-330.202	800.000	-0.014	-0.043
-329.187	79.508	0.132	0.141
-328.172	-113.243	-0.141	0.028
-327.158	20.337	-0.161	-0.130
-326.143	274.582	-0.116	0.205
-325.129	-200.000	0.006	0.158
-324.114	36.836	0.289	-0.255
-323.099	-13.926	-0.123	0.079
-322.085	516.699	0.157	-0.367
-321.070	-78.324	0.150	-0.051
-320.056	-200.000	0.024	0.262
-319.041	-129.397	0.087	0.012
-318.026	60.508	0.055	-0.054
-317.012	-200.000	0.046	-0.517
-315.997	230.446	-0.053	0.086
-314.983	90.679	0.274	0.306
-313.968	-145.494	0.111	-0.010
-312.953	-200.000	0.016	-0.129
-311.939	-99.510	0.218	0.055
-310.924	-120.037	0.292	-0.050
-309.910	-192.919	0.278	-0.003
-308.895	73.571	-0.116	-0.122
-307.880	695.233	-0.089	0.232
-306.866	-200.000	-0.001	0.141
-305.851	800.000	-0.120	0.352
-304.837	-69.338	0.303	0.116
-303.822	56.604	-0.088	0.085
-302.807	-24.073	-0.045	0.027
-301.793	-20.650	0.281	0.172
-300.778	-46.410	0.213	0.104
-299.764	-200.000	0.006	-0.122
-298.749	251.645	0.126	0.214
-297.735	-77.216	-0.384	0.133
-296.720	800.000	-0.048	0.207
-295.705	-128.416	0.135	0.019
-294.691	448.362	0.060	-0.131
-293.676	-133.912	-0.318	-0.039
-292.662	-24.437	-0.070	0.041
-291.647	379.858	-0.103	-0.209
-290.632	39.804	-0.326	0.291
-289.618	800.000	-0.127	0.471
-288.603	800.000	-0.061	0.171
-287.589	97.945	-0.155	-0.178
-286.574	-144.489	0.329	-0.030
-285.559	-178.158	0.398	0.009
-284.545	-2.291	-0.217	0.152
-283.530	-200.000	-0.029	0.148
-282.516	-200.000	0.044	-0.226
-281.501	-18.727	0.233	0.144
-280.486	651.198	-0.108	0.275
-279.472	-129.475	-0.360	-0.050
-278.457	-5.840	0.265	-0.181
-277.443	-141.269	0.031	0.003
-276.428	176.377	0.086	0.125
-275.413	-85.090	0.071	0.022
-274.399	-170.078	0.123	0.004
-273.384	-6.037	0.155	0.106
-272.370	-123.166	0.440	-0.070
-271.355	-137.056	-0.128	0.015
-270.340	102.016	-0.191	0.223
-269.326	-56.189	0.309	-0.137
-268.311	137.599	0.142	-0.186
-267.297	-193.196	0.082	-0.001
-266.282	182.471	0.032	-0.047
-265.267	-91.631	-0.097	-0.028
-264.253	458.680	0.121	0.268
-263.238	-84.904	-0.203	0.064
-262.224	-158.717	-0.102	0.006
-261.209	-200.000	-0.002	-0.188
-260.195	-64.670	-0.146	-0.059
-259.180	-152.380	0.147	-0.011
-258.165	-29.824	-0.235	-0.133
-257.151	-85.041	0.216	-0.067
-256.136	69.316	-0.134	0.137
-255.122	-200.000	-0.021	-0.141
-254.107	331.211	-0.071	-0.135
-253.092	-75.689	-0.128	0.045
-252.078	-200.000	0.030	0.169
-251.063	410.478	0.025	0.053
-250.049	800.000	0.048	0.174
-249.034	800.000	0.066	-0.271
-248.019	56.677	0.047	0.045
-247.005	480.429	0.049	-0.110
-245.990	-200.000	-0.004	-0.109
-244.976	-66.074	0.244	-0.097
-243.961	-157.115	0.055	0.003
-242.946	-48.781	0.321	-0.153
-241.932	81.239	0.154	-0.165
-240.917	-12.983	0.358	-0.232
-239.903	-135.860	-0.155	-0.018
-238.888	398.202	-0.160	0.334
-237.873	-200.000	0.045	0.557
-236.859	581.617	0.109	-0.265
-235.844	-200.000	0.007	-0.047
-234.830	800.000	-0.040	-0.153
-233.815	-200.000	0.056	0.349
-232.800	-115.794	-0.195	-0.036
-231.786	-26.768	-0.186	-0.108
-230.771	800.000	-0.042	-0.120
-229.757	-86.483	-0.287	0.088
-228.742	800.000	0.094	0.261
-227.727	94.659	-0.159	0.180
-226.713	-47.473	0.404	0.195
-225.698	356.540	-0.044	-0.088
-224.684	47.146	0.106	0.098
-223.669	-89.503	-0.179	-0.052
-222.655	182.947	0.091	-0.134
-221.640	175.569	-0.176	0.254
-220.625	800.000	-0.031	0.093
-219.611	321.821	-0.040	0.075
-218.596	-184.145	-0.217	0.004
-217.582	90.231	-0.293	0.325
-216.567	800.000	-0.058	-0.194
-215.552	-42.316	-0.081	0.041
-214.538	800.000	-0.060	0.188
-213.523	-200.000	-0.059	0.276
-212.509	-200.000	0.024	0.166
-211.494	528.096	-0.020	-0.048
-210.479	800.000	0.028	0.112
-209.465	-73.621	0.180	-0.065
-208.450	69.128	-0.051	0.053
-207.436	-0.434	-0.354	0.250
-206.421	-142.292	0.235	0.023
-205.406	-53.777	0.375	-0.170
-204.392	106.681	-0.140	-0.165
-203.377	-200.000	-0.051	-0.425
-202.363	125.211	0.049	-0.061
-201.348	0.964	-0.196	-0.140
-200.333	275.656	-0.217	-0.382
-199.319	537.033	-0.175	-0.412
-198.304	-108.516	0.166	-0.035
-197.290	-155.290	0.389	0.025
-196.275	-126.578	-0.214	0.031
-195.260	-200.000	0.130	-0.600
-194.246	-122.533	-0.355	-0.057
-193.231	349.654	0.097	0.190
-192.217	-200.000	0.025	0.267
-191.202	-83.161	-0.362	0.116
-190.187	60.354	0.046	-0.045
-189.173	-76.799	-0.218	-0.076
-188.158	85.764	0.177	0.193
-187.144	755.590	-0.037	0.100
-186.129	-161.636	0.295	0.015
-185.114	-141.395	-0.186	0.019
-184.100	-200.000	-0.037	0.323
-183.085	-200.000	-0.176	0.001
-182.071	24.520	-0.060	0.049
-181.056	-52.345	0.192	0.088
-180.042	441.848	-0.023	-0.050
-179.027	-6.785	-0.215	0.145
-178.012	800.000	0.112	0.387
-176.998	-200.000	0.004	-0.159
-175.983	541.806	0.148	-0.351
-174.969	186.214	0.177	0.262
-173.954	-90.389	0.202	-0.058
-172.939	-200.000	0.006	0.055
-171.925	582.405	-0.125	-0.305
-170.910	-69.866	0.299	-0.113
-169.896	-6.509	-0.166	-0.112
-168.881	705.227	-0.131	-0.343
-167.866	-75.377	-0.239	0.084
-166.852	-200.000	0.018	0.237
-165.837	114.296	-0.281	-0.339
-164.823	231.729	0.143	0.233
-163.808	116.672	0.159	0.193
-162.793	-31.252	-0.098	-0.055
-161.779	123.201	-0.118	-0.147
-160.764	-104.860	0.380	-0.087
-159.750	47.768	0.252	0.233
-158.735	-75.717	0.074	0.026
-157.720	-200.000	0.019	-0.144
-156.706	-200.000	-0.033	0.149
-155.691	778.480	0.088	-0.239
-154.677	-200.000	-0.041	0.340
-153.662	73.962	-0.231	-0.240
-152.647	-130.659	-0.333	0.044
-151.633	-90.482	0.324	-0.093
-150.618	-62.640	-0.057	0.023
-149.604	740.026	-0.040	0.106
-148.589	-85.271	-0.505	-0.156
-147.574	353.156	-0.134	0.264
-146.560	31.153	0.267	-0.227
-145.545	82.879	-0.290	0.312
-144.531	67.288	-0.105	0.106
-143.516	800.000	0.134	-0.423
-142.502	772.563	-0.119	0.322
-141.487	62.816	-0.100	-0.099
-140.472	359.733	0.019	0.038
-139.458	6.516	-0.124	0.091
-138.443	283.609	0.060	0.106
-137.429	725.589	-0.080	-0.211
-136.414	-163.708	-0.289	-0.013
-135.399	486.547	-0.026	0.058
-134.385	-59.247	-0.048	0.021
-133.370	-159.618	0.111	0.006
-132.356	-99.826	0.134	0.033
-131.341	-200.000	-0.001	0.082
-130.326	-0.826	-0.117	0.082
-129.312	359.292	0.139	0.274
-128.297	-200.000	-0.008	0.138
-127.283	25.356	0.234	-0.192
-126.268	-63.554	-0.102	-0.042
-125.253	-61.076	0.244	0.102
-124.239	-139.980	0.252	0.026
-123.224	31.931	0.098	0.084
-122.210	272.528	-0.221	-0.386
-121.195	584.013	-0.029	-0.071
