DTS Sentinel unit serial number:	SN413079Multiplexer serial number:	ORYXHardware model number:	OX4-SRSoftware version number:	ORYX F/W v4.00 Oryx Data Collector v3.7.2.0data status	okinstallation	princeton_trtdifferential loss correction	single-endedforward channel	channel 1reverse channel	N/Adate	2019/09/18time	02:26:35forward acquisition time	60.00reverse acquisition time	0.00gamma	496.2192k internal	0.2341k external	0.2341temperature offset calibration	0.9978default loss term (dB/km)	0.3790temperature slope calibration	1.0000multiplexer offset coefficient	1.0000multiplexer slope coefficient	1.0000fibre end	0.00T internal ref (°C)	22.81T ext. ref 1 (°C)	0.17T ext. ref 2 (°C)	16.89length (m)	temperature (°C)	Stokes	anti-Stokes-747.200	185.698	0.123	0.183
-746.185	-200.000	-0.023	0.171
-745.171	-101.332	-0.337	-0.082
-744.156	-25.553	0.153	0.090
-743.142	166.534	-0.145	-0.207
-742.127	-200.000	0.075	0.412
-741.112	-181.047	0.146	0.003
-740.098	-30.643	-0.345	0.196
-739.083	212.602	0.169	0.266
-738.069	-200.000	-0.008	0.503
-737.054	-34.911	-0.097	0.053
-736.039	-81.590	0.228	-0.075
-735.025	-132.358	0.351	0.045
-734.010	97.272	-0.045	-0.052
-732.996	247.767	0.033	0.056
-731.981	-156.361	-0.355	-0.022
-730.966	-107.152	0.177	-0.039
-729.952	-90.650	0.205	-0.059
-728.937	28.302	0.077	-0.065
-727.923	-83.898	-0.402	-0.128
-726.908	-177.518	-0.053	0.001
-725.894	-168.793	-0.174	0.007
-724.879	-200.000	-0.010	0.222
-723.864	-43.559	-0.159	0.080
-722.850	8.317	-0.124	-0.093
-721.835	30.804	-0.135	-0.116
-720.821	85.126	0.179	-0.197
-719.806	-15.948	-0.085	-0.054
-718.791	-177.514	-0.217	0.005
-717.777	-42.977	0.313	0.159
-716.762	-102.454	0.183	-0.044
-715.748	800.000	0.065	-0.202
-714.733	800.000	0.079	-0.231
-713.718	35.240	-0.167	0.147
-712.704	-200.000	0.077	-0.438
-711.689	-56.972	-0.314	-0.139
-710.675	-45.968	-0.140	-0.069
-709.660	-64.309	0.192	-0.078
-708.645	800.000	-0.076	0.295
-707.631	145.250	0.151	0.203
-706.616	27.847	0.084	0.071
-705.602	108.024	0.126	0.150
-704.587	-75.629	0.356	-0.127
-703.572	52.143	-0.157	0.150
-702.558	-113.662	0.277	0.054
-701.543	124.816	0.142	-0.179
-700.529	-118.269	0.362	0.064
-699.514	-200.000	0.028	0.379
-698.499	-74.787	0.202	-0.073
-697.485	-200.000	-0.010	-0.080
-696.470	367.980	0.203	0.409
-695.456	-19.088	0.325	0.202
-694.441	800.000	-0.026	0.101
-693.426	128.588	-0.019	-0.024
-692.412	241.358	0.126	-0.211
-691.397	-117.343	-0.350	0.063
-690.383	-200.000	-0.009	-0.048
-689.368	-35.537	0.309	-0.168
-688.354	302.354	-0.111	-0.206
-687.339	-150.140	0.225	0.017
-686.324	189.387	-0.201	0.301
-685.310	-200.000	0.015	-0.072
-684.295	109.663	0.062	-0.074
-683.281	-54.790	-0.217	-0.098
-682.266	311.797	0.068	-0.128
-681.251	800.000	-0.051	-0.164
-680.237	148.584	-0.203	0.274
-679.222	-78.324	-0.380	-0.130
-678.208	299.938	0.032	0.058
-677.193	-169.791	-0.121	0.004
-676.178	-180.371	-0.262	0.005
-675.164	-99.892	-0.151	0.038
-674.149	-2.704	-0.226	0.158
-673.135	88.996	0.110	0.123
-672.120	-108.969	0.431	-0.092
-671.105	324.243	0.036	-0.068
-670.091	747.353	-0.028	0.076
-669.076	-45.502	0.311	-0.154
-668.062	-71.148	0.315	-0.118
-667.047	619.235	0.049	-0.123
-666.032	-44.943	0.423	0.211
-665.018	-124.741	-0.127	0.020
-664.003	193.841	0.159	0.241
-662.989	90.067	0.266	-0.297
-661.974	-200.000	0.007	-0.248
-660.959	-200.000	0.009	-0.203
-659.945	118.237	0.180	-0.221
-658.930	41.199	0.141	0.128
-657.916	80.240	-0.013	0.014
-656.901	48.759	-0.128	-0.120
-655.886	-57.602	-0.328	-0.144
-654.872	800.000	0.048	-0.150
-653.857	-180.245	-0.228	-0.005
-652.843	591.166	0.104	0.255
-651.828	800.000	-0.056	0.233
-650.814	-195.927	0.364	0.003
-649.799	-164.457	-0.143	0.007
-648.784	-200.000	0.071	0.388
-647.770	800.000	0.109	0.391
-646.755	180.268	0.201	-0.294
-645.741	167.112	-0.096	0.135
-644.726	-30.550	-0.277	0.157
-643.711	-200.000	0.012	0.070
-642.697	270.960	-0.098	0.172
-641.682	263.345	0.067	-0.117
-640.668	-200.000	-0.029	-0.135
-639.653	-111.825	0.326	0.066
-638.638	-76.801	-0.188	0.066
-637.624	86.271	0.368	-0.404
-636.609	-200.000	0.021	-0.112
-635.595	-173.476	0.236	0.007
-634.580	-1.484	-0.300	0.211
-633.565	113.415	-0.063	0.076
-632.551	-1.597	0.090	0.063
-631.536	-200.000	-0.004	-0.184
-630.522	-200.000	-0.002	-0.270
-629.507	267.431	-0.276	-0.482
-628.492	-200.000	-0.061	0.290
-627.478	228.229	-0.039	-0.063
-626.463	222.973	0.133	0.214
-625.449	-30.631	0.063	-0.035
-624.434	-27.845	-0.175	-0.101
-623.419	-150.750	0.230	-0.017
-622.405	-17.460	-0.258	0.162
-621.390	590.069	-0.166	-0.409
-620.376	-75.952	-0.123	-0.043
-619.361	-180.015	-0.250	0.005
-618.346	595.013	-0.030	0.074
-617.332	-200.000	-0.015	-0.259
-616.317	31.110	-0.201	-0.172
-615.303	72.986	-0.110	-0.114
-614.288	9.523	-0.144	-0.109
-613.273	9.169	-0.141	0.106
-612.259	509.987	-0.168	-0.390
-611.244	13.055	-0.014	0.011
-610.230	639.275	-0.085	-0.216
-609.215	-149.638	-0.315	0.025
-608.201	138.526	0.097	-0.127
-607.186	-96.135	-0.253	0.067
-606.171	27.227	-0.134	-0.112
-605.157	800.000	0.094	-0.265
-604.142	732.205	0.065	-0.173
-603.128	-151.128	-0.138	0.010
-602.113	189.439	0.145	0.217
-601.098	-116.054	-0.284	0.053
-600.084	11.560	0.138	-0.106
-599.069	243.788	0.092	-0.155
-598.055	-10.913	-0.195	-0.129
-597.040	402.368	0.093	0.195
-596.025	-7.928	-0.147	0.099
-595.011	768.999	-0.110	-0.299
-593.996	800.000	0.034	0.122
-592.982	141.004	-0.101	-0.133
-591.967	57.907	-0.141	-0.137
-590.952	19.641	-0.088	-0.070
-589.938	800.000	-0.052	-0.191
-588.923	800.000	0.011	-0.046
-587.909	-118.604	0.636	-0.112
-586.894	-58.889	-0.168	-0.072
-585.879	50.131	0.048	-0.045
-584.865	158.451	-0.212	-0.293
-583.850	-107.337	0.375	-0.082
-582.836	61.270	-0.108	0.107
-581.821	454.887	-0.109	0.240
-580.806	38.862	-0.351	-0.312
-579.792	-81.802	0.139	0.045
-578.777	402.441	-0.013	0.027
-577.763	-134.504	-0.325	-0.040
-576.748	-153.879	-0.262	-0.018
-575.733	16.553	-0.274	-0.216
-574.719	337.729	-0.108	-0.209
-573.704	800.000	0.102	-0.419
-572.690	27.095	-0.410	0.343
-571.675	257.317	0.204	-0.349
-570.661	800.000	-0.105	0.424
-569.646	-37.457	0.332	0.177
-568.631	384.409	0.114	-0.233
-567.617	-130.025	-0.122	-0.017
-566.602	-96.117	-0.308	-0.081
-565.588	-200.000	0.029	-0.249
-564.573	-41.025	0.307	0.158
-563.558	-15.874	-0.177	-0.112
-562.544	-31.700	0.151	-0.084
-561.529	573.591	0.095	0.230
-560.515	-200.000	0.037	-0.178
-559.500	-58.206	0.141	-0.061
-558.485	-200.000	-0.014	-0.083
-557.471	800.000	0.058	0.193
-556.456	-131.578	0.020	0.003
-555.442	-72.906	-0.362	0.132
-554.427	-109.196	0.255	-0.054
-553.412	665.867	0.077	0.199
-552.398	-200.000	-0.029	-0.187
-551.383	70.773	0.292	0.301
-550.369	156.261	0.215	0.295
-549.354	75.431	0.058	0.061
-548.339	-121.747	0.135	-0.022
-547.325	-66.261	-0.129	0.051
-546.310	-13.582	-0.256	-0.165
-545.296	-96.166	0.169	-0.045
-544.281	-141.263	0.246	0.025
-543.266	3.001	-0.193	0.140
-542.252	-200.000	-0.003	0.163
-541.237	-139.131	0.171	-0.018
-540.223	-200.000	0.001	0.165
-539.208	800.000	-0.043	0.150
-538.193	800.000	0.090	0.263
-537.179	12.584	0.266	-0.204
-536.164	24.848	-0.125	-0.103
-535.150	-11.227	-0.232	0.152
-534.135	-84.864	-0.225	0.070
-533.121	557.461	0.035	0.083
-532.106	367.810	-0.039	0.078
-531.091	-200.000	-0.010	0.235
-530.077	329.073	-0.175	-0.334
-529.062	-200.000	0.033	-0.299
-528.048	-137.654	-0.158	0.018
-527.033	27.061	-0.091	-0.076
-526.018	-46.639	0.337	0.164
-525.004	-73.502	-0.133	0.048
-523.989	-28.835	-0.175	-0.100
-522.975	-10.662	-0.061	0.040
-521.960	564.344	0.028	-0.067
-520.945	-142.397	-0.054	-0.005
-519.931	-54.324	-0.235	-0.106
-518.916	800.000	0.081	0.299
-517.902	-104.605	-0.293	0.067
-516.887	-21.824	0.264	-0.160
-515.872	89.905	0.096	-0.106
-514.858	-159.135	-0.140	-0.008
-513.843	-33.674	-0.238	0.131
-512.829	99.137	-0.136	0.156
-511.814	-83.531	-0.057	0.018
-510.799	-200.000	0.023	-0.106
-509.785	-191.354	0.203	0.002
-508.770	-200.000	-0.028	0.177
-507.756	-101.204	-0.068	0.017
-506.741	-9.610	-0.237	0.157
-505.726	-3.002	0.337	-0.233
-504.712	-9.751	-0.316	0.209
-503.697	-64.050	0.293	0.119
-502.683	-28.019	-0.397	-0.228
-501.668	493.225	0.116	-0.265
-500.653	-200.000	-0.019	0.258
-499.639	228.637	-0.180	-0.292
-498.624	-200.000	0.012	-0.073
-497.610	217.301	-0.122	-0.193
-496.595	-200.000	0.058	0.275
-495.581	-200.000	0.009	-0.228
-494.566	-200.000	-0.014	0.065
-493.551	800.000	0.055	-0.214
-492.537	-169.726	-0.101	0.004
-491.522	-28.186	0.125	0.072
-490.508	-177.225	0.382	0.009
-489.493	800.000	0.078	0.331
-488.478	-94.834	-0.045	0.012
-487.464	-170.342	-0.363	-0.013
-486.449	207.539	-0.191	0.297
-485.435	-200.000	-0.003	0.149
-484.420	-0.964	-0.055	-0.039
-483.405	485.465	-0.096	-0.218
-482.391	-95.515	0.360	0.096
-481.376	-200.000	-0.023	-0.158
-480.362	11.327	-0.336	-0.255
-479.347	-200.000	-0.024	-0.197
-478.332	-90.394	0.268	-0.077
-477.318	66.609	0.043	-0.043
-476.303	-71.114	-0.242	-0.090
-475.289	-6.556	-0.266	-0.180
-474.274	14.298	0.294	0.227
-473.259	-98.339	-0.165	0.042
-472.245	-90.076	-0.138	-0.040
-471.230	240.155	-0.077	-0.127
-470.216	800.000	0.073	-0.253
-469.201	-200.000	-0.096	0.503
-468.186	109.180	0.179	0.212
-467.172	765.456	0.054	-0.146
-466.157	-200.000	-0.012	-0.156
-465.143	-151.434	0.238	-0.018
-464.128	-103.865	-0.350	0.081
-463.113	141.151	0.155	-0.203
-462.099	-200.000	0.063	0.309
-461.084	-55.623	0.110	0.049
-460.070	-111.810	0.060	0.012
-459.055	-158.502	-0.246	0.014
-458.040	-118.976	0.241	-0.042
-457.026	-200.000	0.015	-0.179
-456.011	-80.562	-0.098	-0.032
-454.997	-198.251	-0.071	0.000
-453.982	800.000	-0.104	-0.284
-452.968	-200.000	-0.024	0.387
-451.953	356.395	0.173	0.341
-450.938	-116.457	-0.347	0.064
-449.924	-77.453	0.301	-0.103
-448.909	8.804	0.084	0.063
-447.895	63.598	-0.378	0.376
-446.880	-53.499	0.298	0.135
-445.865	-166.351	0.291	-0.012
-444.851	-200.000	-0.022	0.105
-443.836	-164.523	-0.477	-0.021
-442.822	116.637	0.216	-0.262
-441.807	52.057	-0.378	-0.357
-440.792	25.448	0.166	0.137
-439.778	186.600	0.134	0.198
-438.763	-104.376	0.066	0.015
-437.749	800.000	0.007	-0.031
-436.734	-200.000	0.014	0.093
-435.719	-200.000	0.010	-0.058
-434.705	69.746	-0.341	0.348
-433.690	19.766	-0.094	-0.075
-432.676	-126.303	-0.273	0.040
-431.661	-200.000	-0.067	-0.316
-430.646	-101.374	-0.070	0.017
-429.632	-101.935	-0.275	0.066
-428.617	-2.327	0.045	-0.032
-427.603	255.259	0.052	0.089
-426.588	-200.000	0.060	-0.346
-425.573	121.021	0.161	-0.198
-424.559	425.139	0.073	0.156
-423.544	800.000	0.033	0.094
-422.530	-4.300	0.233	-0.159
-421.515	28.458	0.086	0.072
-420.500	-178.834	0.249	0.006
-419.486	-157.478	0.261	0.016
-418.471	14.537	-0.431	0.333
-417.457	-152.842	-0.179	0.013
-416.442	32.368	0.177	-0.151
-415.428	800.000	-0.057	-0.170
-414.413	-61.733	-0.236	0.098
-413.398	-120.029	0.141	-0.024
-412.384	-200.000	-0.061	0.367
-411.369	-123.738	0.105	-0.016
-410.355	-65.158	0.251	0.100
-409.340	133.067	-0.132	-0.169
-408.325	259.145	-0.219	0.374
-407.311	800.000	-0.029	0.092
-406.296	563.533	-0.071	0.171
-405.282	242.090	0.220	-0.365
-404.267	-51.628	-0.101	0.047
-403.252	-51.995	0.109	-0.050
-402.238	-123.861	-0.163	0.025
-401.223	154.050	-0.137	0.186
-400.209	800.000	-0.051	-0.151
-399.194	-60.201	-0.176	0.074
-398.179	800.000	0.029	-0.107
-397.165	-57.834	0.235	0.102
-396.150	136.319	0.177	0.228
-395.136	32.509	0.087	0.074
-394.121	-148.896	0.403	0.032
-393.106	-200.000	0.033	0.296
-392.092	-54.967	0.340	0.151
-391.077	101.585	-0.095	-0.110
-390.063	104.811	0.151	-0.176
-389.048	800.000	-0.092	0.283
-388.033	419.309	0.072	-0.152
-387.019	800.000	-0.088	-0.321
-386.004	194.461	0.135	-0.203
-384.990	-200.000	0.014	-0.094
-383.975	135.632	-0.147	0.189
-382.960	204.530	-0.034	-0.052
-381.946	120.641	0.013	-0.016
-380.931	-22.498	-0.297	-0.178
-379.917	48.807	0.180	-0.167
-378.902	-200.000	0.009	-0.117
-377.888	-200.000	-0.019	0.120
-376.873	-51.678	0.272	0.125
-375.858	276.730	-0.128	-0.225
-374.844	-71.846	-0.231	0.085
-373.829	-163.342	-0.186	-0.009
-372.815	-152.095	-0.431	0.031
-371.800	-200.000	0.027	-0.225
-370.785	207.716	0.016	-0.024
-369.771	2.493	-0.224	0.160
-368.756	-8.834	0.125	0.083
-367.742	-30.480	-0.229	-0.128
-366.727	-121.242	-0.091	0.015
-365.712	-174.520	-0.388	0.011
-364.698	-76.105	-0.301	-0.105
-363.683	249.392	0.171	-0.287
-362.669	-38.610	0.237	0.124
-361.654	-39.115	-0.152	-0.079
-360.639	91.729	0.143	0.159
-359.625	-200.000	-0.027	0.219
-358.610	520.100	-0.073	-0.170
-357.596	231.488	0.195	-0.315
-356.581	-47.938	-0.093	-0.044
-355.566	-23.243	-0.204	0.121
-354.552	6.716	0.040	-0.030
-353.537	232.416	0.118	0.191
-352.523	156.831	0.269	-0.366
-351.508	-58.122	-0.043	0.019
-350.493	800.000	-0.053	0.213
-349.479	-113.455	0.314	0.061
-348.464	-20.229	0.292	-0.178
-347.450	26.565	0.084	0.070
-346.435	-125.052	0.133	0.020
-345.420	-26.245	0.123	0.071
-344.406	-28.826	0.188	0.106
-343.391	-139.053	0.289	0.031
-342.377	-195.504	-0.157	-0.001
-341.362	-69.400	0.111	0.042
-340.348	-42.493	-0.169	0.085
-339.333	-200.000	-0.040	-0.244
-338.318	-57.085	-0.051	0.022
-337.304	-132.544	-0.058	-0.007
-336.289	-36.427	-0.197	-0.105
-335.275	800.000	0.032	-0.104
-334.260	-200.000	0.063	0.346
-333.245	6.602	-0.334	-0.245
-332.231	-200.000	-0.030	-0.287
-331.216	52.015	0.075	-0.070
-330.202	26.331	0.140	0.115
-329.187	267.646	0.140	0.241
-328.172	-200.000	0.012	0.093
-327.158	219.136	0.107	-0.168
-326.143	288.603	0.112	0.200
-325.129	-6.246	-0.093	-0.062
-324.114	-200.000	0.024	0.241
-323.099	123.773	-0.094	-0.116
-322.085	-64.942	-0.081	-0.032
-321.070	-200.000	-0.029	0.226
-320.056	-71.639	-0.112	0.041
-319.041	-130.620	-0.278	-0.037
-318.026	552.297	0.115	0.271
-317.012	-34.957	0.066	-0.036
-315.997	294.381	0.159	-0.286
-314.983	403.668	0.133	-0.276
-313.968	-200.000	0.017	-0.264
-312.953	800.000	0.091	-0.281
-311.939	-128.050	0.245	0.035
-310.924	-97.424	0.276	0.071
-309.910	-200.000	-0.000	0.048
-308.895	128.419	-0.182	0.229
-307.880	81.553	0.103	0.110
-306.866	800.000	-0.086	-0.248
-305.851	-200.000	-0.052	0.254
-304.837	-200.000	0.023	0.110
-303.822	-51.899	-0.233	-0.107
-302.807	-200.000	0.007	-0.180
-301.793	-200.000	0.058	-0.405
-300.778	541.546	-0.039	0.093
-299.764	-107.439	-0.152	-0.033
-298.749	-195.495	-0.251	-0.002
-297.735	800.000	0.140	0.502
-296.720	786.574	0.073	0.197
-295.705	800.000	-0.053	0.207
-294.691	198.545	-0.218	0.329
-293.676	-200.000	-0.007	-0.208
-292.662	-200.000	-0.003	0.151
-291.647	-22.568	0.098	0.058
-290.632	-15.583	-0.042	0.026
-289.618	-138.748	-0.220	0.024
-288.603	34.701	0.134	-0.115
-287.589	800.000	0.051	0.170
-286.574	-18.524	0.204	-0.125
-285.559	170.283	0.154	-0.217
-284.545	-40.087	-0.132	-0.068
-283.530	86.554	-0.123	0.134
-282.516	3.929	0.078	0.056
-281.501	-200.000	-0.020	0.218
-280.486	104.980	0.197	0.228
-279.472	303.337	0.124	-0.226
-278.457	20.878	-0.124	-0.099
-277.443	357.548	0.098	0.193
-276.428	-200.000	0.007	0.194
-275.413	800.000	0.041	0.178
-274.399	-10.539	0.213	-0.139
-273.384	-32.600	-0.189	-0.104
-272.370	-146.789	0.139	-0.012
-271.355	-200.000	-0.065	0.310
-270.340	27.603	0.116	-0.096
-269.326	-167.584	-0.214	0.008
-268.311	28.790	0.074	-0.062
-267.297	800.000	-0.147	0.436
-266.282	-78.365	0.171	-0.058
-265.267	-66.642	0.149	0.058
-264.253	-200.000	-0.008	0.396
-263.238	223.808	-0.155	-0.245
-262.224	591.343	-0.110	-0.266
-261.209	19.832	0.265	-0.210
-260.195	-153.345	0.222	-0.015
-259.180	-132.623	0.120	-0.015
-258.165	-200.000	0.216	0.000
-257.151	-53.983	-0.245	0.110
-256.136	-80.783	0.133	-0.043
-255.122	-67.506	-0.120	-0.046
-254.107	63.144	-0.015	0.015
-253.092	-200.000	-0.033	-0.192
-252.078	102.480	0.119	0.137
-251.063	61.572	0.153	0.149
-250.049	-95.573	-0.143	-0.038
-249.034	72.879	0.165	0.169
-248.019	-200.000	-0.057	0.289
-247.005	770.329	0.183	-0.491
-245.990	-200.000	0.394	-0.002
-244.976	171.346	-0.153	-0.215
-243.961	-167.366	0.168	0.007
-242.946	-199.918	0.283	0.001
-241.932	-111.005	-0.256	-0.052
-240.917	800.000	0.041	-0.126
-239.903	800.000	0.025	0.098
-238.888	800.000	-0.034	-0.142
-237.873	593.613	-0.195	0.474
-236.859	48.566	0.317	-0.292
-235.844	8.179	-0.156	-0.115
-234.830	-151.644	-0.206	0.015
-233.815	142.800	0.282	0.369
-232.800	-200.000	0.042	0.452
-231.786	-120.378	-0.193	0.032
-230.771	-32.608	0.194	-0.106
-229.757	225.151	0.047	0.074
-228.742	-200.000	-0.022	0.263
-227.727	-101.484	-0.147	0.035
-226.713	181.136	-0.083	0.119
-225.698	-4.406	0.245	-0.166
-224.684	64.342	-0.321	-0.318
-223.669	-200.000	-0.052	0.267
-222.655	-145.797	-0.232	-0.020
-221.640	117.444	0.207	0.250
-220.625	-81.575	-0.299	0.096
-219.611	59.572	0.140	0.136
-218.596	-4.226	0.240	0.163
-217.582	-123.824	-0.136	0.021
-216.567	-200.000	-0.036	-0.220
-215.552	199.347	0.214	0.322
-214.538	-61.435	-0.075	0.031
-213.523	-4.504	0.359	-0.243
-212.509	-98.708	-0.318	0.080
-211.494	358.859	-0.009	-0.018
-210.479	209.713	-0.112	-0.172
-209.465	373.571	0.072	0.144
-208.450	-200.000	-0.015	-0.176
-207.436	-127.100	-0.175	-0.025
-206.421	-20.253	-0.078	-0.047
-205.406	-73.486	-0.345	-0.124
-204.392	783.466	-0.049	0.132
-203.377	7.459	-0.285	-0.209
-202.363	-200.000	0.019	0.148
-201.348	463.357	-0.096	0.211
-200.333	64.621	0.114	-0.113
-199.319	311.500	-0.069	-0.127
-198.304	265.415	0.100	0.171
-197.290	-83.045	0.040	-0.013
-196.275	-66.179	0.158	-0.062
-195.260	-135.777	-0.207	0.024
-194.246	-62.851	0.481	0.195
-193.231	111.666	0.097	0.115
-192.217	800.000	0.043	-0.138
-191.202	-102.685	-0.220	-0.051
-190.187	31.832	0.197	-0.166
-189.173	-78.166	0.299	0.101
-188.158	251.492	0.202	-0.338
-187.144	115.164	-0.203	-0.242
-186.129	-78.614	0.081	-0.027
-185.114	-28.539	0.131	-0.074
-184.100	330.642	-0.074	-0.141
-183.085	629.750	0.110	0.272
-182.071	-200.000	0.012	0.072
-181.056	-10.194	0.254	0.166
-180.042	312.278	0.059	-0.108
-179.027	690.325	0.042	-0.109
-178.012	25.587	-0.150	0.122
-176.998	-37.378	-0.095	-0.050
-175.983	800.000	0.039	0.120
-174.969	408.396	0.038	-0.079
-173.954	-121.332	0.325	-0.053
-172.939	93.826	0.222	0.247
-171.925	-200.000	0.012	-0.140
-170.910	800.000	0.089	0.263
-169.896	-79.551	0.223	-0.074
-168.881	134.884	0.247	-0.314
-167.866	7.848	0.239	-0.176
-166.852	-121.326	0.208	0.034
-165.837	469.259	0.048	0.106
-164.823	789.262	-0.048	0.130
-163.808	220.285	0.053	0.083
-162.793	-200.000	-0.057	0.315
-161.779	-200.000	-0.027	0.147
-160.764	-98.169	0.307	-0.077
-159.750	106.559	-0.217	-0.252
-158.735	-97.809	0.140	0.035
-157.720	-92.755	0.146	-0.040
-156.706	800.000	0.028	-0.094
-155.691	179.652	0.044	-0.064
-154.677	800.000	0.052	0.169
-153.662	-105.240	0.318	-0.071
-152.647	-200.000	-0.017	0.222
-151.633	800.000	0.062	-0.169
-150.618	800.000	-0.087	0.272
-149.604	-25.844	-0.293	0.169
-148.589	382.752	0.115	0.231
-147.574	-148.204	-0.172	-0.014
-146.560	46.478	0.420	-0.382
-145.545	800.000	0.088	0.269
-144.531	-200.000	-0.018	-0.156
-143.516	-26.927	0.093	0.053
-142.502	-146.347	0.132	-0.011
-141.487	186.212	-0.078	0.113
-140.472	18.475	-0.133	0.104
-139.458	-117.293	-0.285	-0.051
-138.443	650.139	-0.105	0.262
-137.429	-86.286	0.413	-0.124
-136.414	800.000	0.066	-0.236
-135.399	-13.785	0.114	-0.072
-134.385	68.729	-0.150	0.151
-133.370	171.085	0.212	0.297
-132.356	-28.752	0.200	0.113
-131.341	800.000	-0.034	-0.116
-130.326	-200.000	0.019	0.215
-129.312	-200.000	0.062	0.340
-128.297	800.000	-0.060	-0.187
-127.283	-51.428	-0.391	-0.179
-126.268	233.711	0.036	-0.058
-125.253	313.548	-0.125	0.230
-124.239	-169.962	-0.076	0.003
-123.224	-109.119	-0.301	-0.063
-122.210	-76.643	-0.473	0.162
-121.195	-95.487	0.157	0.041
