DTS Sentinel unit serial number:	SN413079Multiplexer serial number:	ORYXHardware model number:	OX4-SRSoftware version number:	ORYX F/W v4.00 Oryx Data Collector v3.7.2.0data status	okinstallation	princeton_trtdifferential loss correction	single-endedforward channel	channel 1reverse channel	N/Adate	2019/09/15time	14:46:35forward acquisition time	60.00reverse acquisition time	0.00gamma	496.2192k internal	0.2292k external	0.2292temperature offset calibration	0.9951default loss term (dB/km)	0.3790temperature slope calibration	1.0000multiplexer offset coefficient	1.0000multiplexer slope coefficient	1.0000fibre end	0.00T internal ref (°C)	39.80T ext. ref 1 (°C)	4.86T ext. ref 2 (°C)	36.40length (m)	temperature (°C)	Stokes	anti-Stokes-747.200	-200.000	0.013	0.172
-746.185	118.994	-0.147	0.186
-745.171	3.780	-0.333	-0.249
-744.156	444.964	0.052	0.117
-743.142	800.000	-0.092	-0.289
-742.127	-200.000	-0.005	-0.332
-741.112	-148.605	-0.137	-0.011
-740.098	-200.000	0.025	0.340
-739.083	-200.000	-0.019	-0.117
-738.069	-200.000	0.015	0.101
-737.054	-141.769	-0.288	-0.030
-736.039	800.000	-0.114	-0.344
-735.025	-126.142	0.157	-0.024
-734.010	55.629	0.182	-0.180
-732.996	168.390	-0.099	0.145
-731.981	-200.000	-0.001	-0.039
-730.966	-35.461	0.279	-0.155
-729.952	-200.000	-0.051	0.329
-728.937	574.523	-0.070	-0.175
-727.923	773.105	-0.145	-0.404
-726.908	-102.871	0.230	-0.056
-725.894	-133.516	-0.130	-0.017
-724.879	-29.113	-0.196	-0.115
-723.864	-200.000	0.003	-0.110
-722.850	454.346	0.101	-0.230
-721.835	-192.346	-0.167	0.002
-720.821	-148.432	-0.204	-0.017
-719.806	100.456	-0.125	0.148
-718.791	-100.799	0.323	0.081
-717.777	498.051	-0.077	0.180
-716.762	-200.000	0.019	0.130
-715.748	295.485	0.085	0.160
-714.733	-136.930	0.277	0.033
-713.718	267.735	-0.052	-0.092
-712.704	6.929	-0.267	-0.203
-711.689	-132.087	0.191	-0.025
-710.675	-122.243	-0.149	0.025
-709.660	-200.000	-0.040	0.247
-708.645	-62.622	0.371	-0.157
-707.631	-200.000	-0.064	-0.376
-706.616	-80.354	-0.166	0.057
-705.602	175.812	0.133	0.197
-704.587	-14.349	0.081	-0.054
-703.572	-52.117	-0.112	0.053
-702.558	199.611	-0.169	-0.264
-701.543	90.755	0.101	0.116
-700.529	794.826	0.059	-0.166
-699.514	-87.390	-0.073	0.023
-698.499	-60.404	0.163	0.071
-697.485	-88.323	0.358	0.109
-696.470	-159.299	-0.153	0.009
-695.456	-77.119	-0.202	-0.072
-694.441	319.108	0.124	0.241
-693.426	293.280	0.102	0.190
-692.412	-200.000	-0.011	-0.320
-691.397	416.185	0.050	-0.110
-690.383	-129.226	0.200	-0.029
-689.368	-65.592	0.182	-0.074
-688.354	102.954	0.144	-0.172
-687.339	-47.482	0.180	-0.089
-686.324	9.802	0.182	0.141
-685.310	31.127	-0.112	0.098
-684.295	-11.934	-0.121	-0.081
-683.281	800.000	0.080	0.255
-682.266	-200.000	0.075	-0.344
-681.251	800.000	-0.063	-0.186
-680.237	2.191	0.137	-0.101
-679.222	8.851	-0.133	-0.102
-678.208	-84.011	-0.173	0.056
-677.193	436.304	0.107	-0.237
-676.178	-118.196	-0.167	0.030
-675.164	-200.000	-0.006	0.203
-674.149	357.749	0.150	-0.305
-673.135	-95.331	-0.275	-0.075
-672.120	-18.604	0.357	0.227
-671.105	800.000	0.092	0.344
-670.091	-17.433	-0.027	-0.018
-669.076	368.819	0.170	0.351
-668.062	-62.418	0.321	-0.136
-667.047	-160.158	-0.229	-0.013
-666.032	-200.000	0.018	0.145
-665.018	-89.956	-0.175	0.052
-664.003	-46.302	0.145	-0.073
-662.989	-65.611	-0.128	-0.052
-661.974	800.000	0.034	-0.151
-660.959	-55.736	0.179	-0.082
-659.945	17.182	-0.072	-0.058
-658.930	800.000	-0.028	0.095
-657.916	-47.618	0.290	0.144
-656.901	5.950	0.140	0.106
-655.886	234.279	-0.217	-0.364
-654.872	-108.478	0.257	-0.056
-653.857	-200.000	0.006	-0.072
-652.843	-200.000	-0.015	0.154
-651.828	-81.499	0.062	0.021
-650.814	36.548	-0.282	0.254
-649.799	99.656	-0.102	-0.121
-648.784	800.000	-0.069	0.301
-647.770	25.044	0.358	-0.303
-646.755	-200.000	0.015	-0.477
-645.741	3.865	-0.020	0.015
-644.726	4.249	0.325	0.242
-643.711	-101.800	-0.110	-0.027
-642.697	365.773	0.084	-0.172
-641.682	101.750	-0.057	0.067
-640.668	800.000	0.019	-0.053
-639.653	195.790	0.025	-0.038
-638.638	-200.000	0.030	-0.220
-637.624	-120.331	-0.282	-0.049
-636.609	800.000	-0.022	-0.092
-635.595	-117.879	-0.193	0.035
-634.580	-125.834	0.101	-0.015
-633.565	-52.910	0.380	-0.178
-632.551	-95.157	-0.262	0.072
-631.536	-40.296	0.092	-0.049
-630.522	28.836	-0.112	-0.097
-629.507	-99.044	0.237	-0.061
-628.492	-200.000	0.037	-0.198
-627.478	102.109	-0.198	0.236
-626.463	-124.228	0.292	-0.047
-625.449	273.957	0.092	-0.165
-624.434	487.212	-0.033	-0.077
-623.419	-118.635	-0.232	-0.042
-622.405	-200.000	-0.038	0.300
-621.390	122.135	-0.196	0.249
-620.376	800.000	-0.026	-0.078
-619.361	800.000	0.050	-0.175
-618.346	-200.000	0.032	-0.341
-617.332	-120.561	0.176	0.030
-616.317	242.402	0.016	-0.027
-615.303	175.814	-0.179	0.264
-614.288	800.000	0.037	0.121
-613.273	547.777	0.118	-0.288
-612.259	-142.171	0.162	-0.016
-611.244	58.741	-0.060	0.060
-610.230	-6.356	-0.268	0.186
-609.215	-137.009	0.258	-0.030
-608.201	-125.465	0.203	0.031
-607.186	-60.898	-0.324	-0.139
-606.171	-7.052	0.075	0.052
-605.157	-175.528	-0.344	-0.010
-604.142	800.000	-0.056	-0.167
-603.128	261.482	-0.124	-0.218
-602.113	-35.264	-0.249	0.138
-601.098	146.528	0.025	0.035
-600.084	-88.444	-0.194	-0.059
-599.069	442.654	0.076	0.169
-598.055	511.808	0.105	-0.248
-597.040	6.031	-0.149	0.112
-596.025	-85.367	0.142	0.045
-595.011	-62.270	0.107	-0.045
-593.996	242.450	0.106	-0.180
-592.982	526.170	0.062	-0.148
-591.967	71.214	-0.098	-0.104
-590.952	201.523	-0.160	-0.251
-589.938	259.243	-0.049	0.087
-588.923	-200.000	-0.007	0.083
-587.909	42.432	0.117	-0.108
-586.894	-42.241	0.207	0.108
-585.879	17.389	0.068	-0.055
-584.865	-200.000	0.054	0.296
-583.850	14.835	-0.124	-0.099
-582.836	800.000	0.043	-0.145
-581.821	800.000	-0.033	-0.117
-580.806	58.709	0.267	-0.267
-579.792	32.630	0.068	0.060
-578.777	491.167	-0.079	0.183
-577.763	-150.106	-0.305	0.024
-576.748	-23.677	-0.219	0.134
-575.733	21.323	0.069	-0.057
-574.719	-128.716	0.297	0.043
-573.704	-29.129	0.134	-0.078
-572.690	-200.000	-0.070	0.480
-571.675	32.555	0.147	0.130
-570.661	-114.608	-0.037	-0.007
-569.646	16.717	0.142	0.114
-568.631	-200.000	0.042	-0.364
-567.617	774.578	-0.042	-0.116
-566.602	800.000	-0.069	-0.226
-565.588	61.924	0.280	-0.283
-564.573	90.933	-0.046	0.052
-563.558	-200.000	-0.028	0.156
-562.544	150.455	0.114	0.157
-561.529	-58.800	0.317	-0.139
-560.515	-85.600	-0.268	-0.085
-559.500	-200.000	-0.015	-0.148
-558.485	169.167	-0.147	0.214
-557.471	460.351	-0.024	-0.055
-556.456	-200.000	0.018	0.100
-555.442	-133.479	0.201	-0.026
-554.427	-156.893	0.241	0.015
-553.412	-88.161	0.157	-0.048
-552.398	-60.337	-0.155	0.067
-551.383	-200.000	0.034	-0.209
-550.369	85.100	-0.122	-0.136
-549.354	800.000	0.051	0.166
-548.339	32.996	0.224	0.197
-547.325	-45.191	0.216	0.109
-546.310	118.072	0.168	0.210
-545.296	49.999	0.204	0.195
-544.281	240.034	0.218	-0.370
-543.266	217.537	0.049	-0.080
-542.252	-200.000	0.033	-0.289
-541.237	-137.037	-0.167	0.019
-540.223	-127.264	-0.326	0.048
-539.208	-45.870	0.318	-0.159
-538.193	-139.335	-0.335	0.037
-537.179	6.725	0.240	0.181
-536.164	-200.000	-0.013	-0.087
-535.150	-48.962	-0.426	0.207
-534.135	81.678	0.125	-0.138
-533.121	-136.980	0.167	0.019
-532.106	-150.363	-0.188	0.015
-531.091	119.456	0.047	-0.059
-530.077	-23.798	0.133	-0.081
-529.062	800.000	0.115	0.324
-528.048	-76.823	0.182	-0.065
-527.033	28.434	-0.284	-0.243
-526.018	9.007	0.060	-0.046
-525.004	-111.616	0.059	0.012
-523.989	-200.000	0.053	-0.270
-522.975	-146.411	-0.233	0.021
-521.960	-75.588	-0.282	-0.102
-520.945	-200.000	-0.027	-0.219
-519.931	-83.339	0.132	-0.043
-518.916	-99.227	-0.259	-0.066
-517.902	-44.742	-0.075	-0.038
-516.887	-26.575	-0.029	0.017
-515.872	111.500	0.033	-0.040
-514.858	-200.000	0.019	0.192
-513.843	247.112	-0.085	0.145
-512.829	-130.764	0.234	-0.032
-511.814	18.440	0.210	-0.170
-510.799	-200.000	-0.037	0.308
-509.785	450.735	0.129	0.288
-508.770	-21.107	-0.315	-0.196
-507.756	-67.144	-0.065	0.026
-506.741	800.000	0.166	0.570
-505.726	-200.000	0.020	-0.116
-504.712	800.000	-0.049	0.157
-503.697	800.000	-0.070	-0.261
-502.683	-111.239	-0.290	-0.060
-501.668	800.000	0.041	-0.162
-500.653	-56.283	0.458	0.207
-499.639	178.404	-0.250	-0.370
-498.624	800.000	0.071	0.226
-497.610	-197.921	-0.345	-0.002
-496.595	116.072	-0.075	0.093
-495.581	50.409	-0.159	-0.152
-494.566	468.127	0.118	-0.269
-493.551	-17.867	0.500	-0.318
-492.537	-200.000	-0.000	0.087
-491.522	-101.970	0.225	-0.055
-490.508	-51.344	0.162	0.077
-489.493	800.000	-0.066	0.209
-488.478	-200.000	0.038	0.390
-487.464	67.622	-0.090	0.093
-486.449	18.521	-0.058	0.047
-485.435	357.617	0.033	0.066
-484.420	-58.774	-0.254	0.111
-483.405	-22.582	-0.077	-0.047
-482.391	-177.648	0.249	-0.006
-481.376	-200.000	0.091	0.413
-480.362	-123.221	-0.297	-0.048
-479.347	66.823	0.234	0.241
-478.332	211.990	0.172	0.275
-477.318	14.492	0.094	0.074
-476.303	-97.189	-0.123	-0.033
-475.289	218.947	-0.070	0.113
-474.274	-68.295	-0.227	-0.089
-473.259	-89.055	-0.608	0.182
-472.245	-139.035	-0.165	-0.018
-471.230	-119.537	0.272	-0.048
-470.216	-200.000	0.037	-0.187
-469.201	-200.000	-0.041	-0.209
-468.186	-200.000	0.052	0.346
-467.172	541.986	0.111	0.268
-466.157	-191.508	-0.246	0.003
-465.143	-200.000	0.015	-0.080
-464.128	-96.692	0.169	0.045
-463.113	307.708	-0.105	0.199
-462.099	100.056	0.207	0.243
-461.084	-170.603	-0.043	-0.001
-460.070	-102.580	0.192	-0.047
-459.055	408.457	0.095	-0.202
-458.040	-30.660	0.200	-0.114
-457.026	-28.374	-0.189	0.110
-456.011	-200.000	0.007	0.063
-454.997	-88.154	0.224	-0.068
-453.982	157.881	-0.176	-0.247
-452.968	-10.783	0.158	-0.105
-451.953	348.664	0.088	-0.175
-450.938	-91.492	-0.158	-0.046
-449.924	-110.260	0.308	0.065
-448.909	-2.480	0.069	0.049
-447.895	-123.369	-0.153	0.025
-446.880	-12.740	0.103	0.068
-445.865	152.530	-0.123	-0.170
-444.851	-188.008	-0.149	-0.002
-443.836	-22.520	-0.015	0.009
-442.822	-119.843	-0.331	-0.058
-441.807	-67.051	0.177	0.071
-440.792	263.922	0.114	-0.200
-439.778	78.260	0.215	-0.232
-438.763	31.788	-0.216	0.188
-437.749	793.260	-0.070	0.196
-436.734	-200.000	0.011	0.215
-435.719	1.488	-0.162	0.118
-434.705	-131.691	0.070	0.009
-433.690	-91.315	0.094	-0.027
-432.676	682.287	0.119	-0.315
-431.661	-42.837	-0.071	0.036
-430.646	-61.805	-0.085	-0.036
-429.632	-142.675	-0.317	0.031
-428.617	-62.502	-0.238	0.100
-427.603	-200.000	-0.056	0.519
-426.588	-24.589	0.452	0.272
-425.573	-70.250	0.192	-0.074
-424.559	-200.000	0.045	0.236
-423.544	-16.077	-0.016	0.010
-422.530	-200.000	-0.017	0.203
-421.515	-200.000	0.021	-0.217
-420.500	335.516	-0.163	-0.319
-419.486	-54.858	-0.094	0.043
-418.471	32.940	0.083	-0.073
-417.457	-70.536	0.329	0.126
-416.442	234.898	-0.106	0.176
-415.428	-62.631	-0.280	-0.117
-414.413	389.369	0.048	-0.100
-413.398	-106.029	-0.007	0.002
-412.384	-14.761	0.126	-0.082
-411.369	-200.000	-0.030	-0.162
-410.355	85.908	0.036	-0.040
-409.340	-1.705	-0.310	0.220
-408.325	800.000	-0.067	-0.196
-407.311	-59.919	0.087	-0.038
-406.296	216.463	-0.072	0.116
-405.282	97.010	-0.279	0.324
-404.267	83.561	-0.284	0.313
-403.252	40.912	0.126	0.115
-402.238	42.516	-0.115	-0.105
-401.223	-14.539	-0.221	-0.143
-400.209	800.000	0.076	0.212
-399.194	-126.568	-0.431	-0.065
-398.179	-200.000	0.010	-0.248
-397.165	-169.965	0.119	0.004
-396.150	763.082	-0.103	-0.281
-395.136	-77.482	-0.378	-0.132
-394.121	-62.834	-0.284	-0.119
-393.106	-125.924	-0.230	0.035
-392.092	301.368	-0.196	-0.365
-391.077	-48.266	0.077	0.037
-390.063	-102.980	0.315	0.075
-389.048	-168.097	0.152	-0.006
-388.033	-97.997	0.326	-0.085
-387.019	495.147	0.037	0.087
-386.004	-93.623	-0.231	0.064
-384.990	-113.994	0.202	-0.040
-383.975	-86.516	0.339	0.105
-382.960	800.000	0.046	-0.199
-381.946	137.415	-0.291	0.384
-380.931	430.746	0.088	0.192
-379.917	-33.607	0.351	0.195
-378.902	10.353	-0.306	-0.235
-377.888	-187.899	-0.103	-0.001
-376.873	-71.251	-0.293	0.111
-375.858	-200.000	0.008	0.083
-374.844	-149.230	0.132	0.011
-373.829	315.565	-0.251	0.477
-372.815	-200.000	0.029	-0.210
-371.800	135.142	-0.125	-0.164
-370.785	190.761	0.079	-0.120
-369.771	79.226	-0.129	0.139
-368.756	188.502	0.142	0.214
-367.742	81.567	0.203	0.221
-366.727	510.243	0.115	-0.270
-365.712	334.312	0.022	-0.044
-364.698	795.131	0.052	-0.145
-363.683	-68.872	-0.423	0.165
-362.669	-172.621	-0.243	0.008
-361.654	-116.557	0.110	0.020
-360.639	4.937	0.254	-0.189
-359.625	21.445	0.096	0.078
-358.610	-33.625	-0.214	-0.119
-357.596	-200.000	-0.044	-0.223
-356.581	-79.063	-0.246	0.084
-355.566	-29.466	-0.280	0.162
-354.552	-2.448	-0.167	-0.118
-353.537	716.825	-0.049	-0.132
-352.523	52.526	-0.136	-0.131
-351.508	-5.188	0.137	-0.095
-350.493	800.000	0.108	-0.384
-349.479	800.000	-0.088	0.338
-348.464	59.037	0.105	-0.104
-347.450	-200.000	0.006	0.431
-346.435	-140.804	0.196	-0.020
-345.420	-200.000	0.023	-0.107
-344.406	-65.898	0.239	-0.096
-343.391	-36.264	-0.332	0.181
-342.377	-200.000	0.025	0.207
-341.362	-72.976	0.209	0.077
-340.348	229.718	0.098	0.160
-339.333	-114.117	-0.130	-0.025
-338.318	-145.152	-0.091	0.008
-337.304	-120.296	0.226	-0.039
-336.289	-87.820	0.431	0.131
-335.275	800.000	0.070	-0.287
-334.260	800.000	0.098	0.401
-333.245	132.783	0.146	0.190
-332.231	285.080	-0.030	0.054
-331.216	-200.000	0.021	0.278
-330.202	-47.742	-0.088	0.043
-329.187	-53.519	-0.083	-0.038
-328.172	-200.000	-0.028	-0.222
-327.158	202.431	0.078	0.121
-326.143	-9.799	0.426	-0.286
-325.129	-153.031	-0.206	-0.015
-324.114	800.000	-0.104	-0.366
-323.099	744.053	-0.060	0.162
-322.085	-113.475	-0.184	0.036
-321.070	-200.000	0.020	-0.330
-320.056	46.861	0.206	0.193
-319.041	99.869	-0.099	-0.115
-318.026	-79.353	0.269	-0.092
-317.012	486.911	-0.148	0.340
-315.997	-58.645	-0.097	-0.042
-314.983	800.000	-0.073	-0.210
-313.968	173.370	0.055	0.080
-312.953	-200.000	0.013	-0.063
-311.939	-1.616	-0.110	-0.078
-310.924	-147.314	-0.146	-0.012
-309.910	-50.816	0.141	-0.067
-308.895	91.815	0.379	-0.429
-307.880	-200.000	0.007	-0.178
-306.866	624.003	0.081	-0.205
-305.851	-74.863	0.187	0.068
-304.837	800.000	-0.025	0.109
-303.822	301.617	-0.079	-0.147
-302.807	68.544	-0.029	0.030
-301.793	-200.000	0.055	0.291
-300.778	714.743	0.048	-0.128
-299.764	68.083	-0.036	0.037
-298.749	-125.406	-0.091	0.014
-297.735	-84.481	0.229	0.073
-296.720	-92.682	0.182	-0.051
-295.705	264.741	-0.144	0.253
-294.691	243.471	-0.126	0.213
-293.676	-92.527	-0.350	0.099
-292.662	157.667	0.040	0.056
-291.647	206.267	-0.030	-0.047
-290.632	800.000	0.040	0.127
-289.618	21.553	-0.121	0.099
-288.603	-200.000	0.004	0.232
-287.589	-38.187	0.170	0.090
-286.574	800.000	0.059	0.167
-285.559	233.698	-0.143	-0.236
-284.545	45.347	0.190	-0.176
-283.530	-97.472	-0.207	-0.054
-282.516	-113.723	0.268	-0.052
-281.501	-22.389	0.103	0.063
-280.486	800.000	-0.084	0.305
-279.472	265.713	0.074	-0.130
-278.457	34.932	-0.257	-0.226
-277.443	-53.454	-0.179	0.082
-276.428	-109.485	-0.368	-0.078
-275.413	-75.433	0.228	-0.082
-274.399	800.000	0.036	-0.135
-273.384	25.204	-0.281	-0.235
-272.370	-200.000	0.047	0.211
-271.355	-111.453	0.146	-0.030
-270.340	275.641	0.106	-0.189
-269.326	109.279	-0.141	-0.169
-268.311	92.968	0.023	-0.026
-267.297	87.841	0.058	0.065
-266.282	231.056	-0.135	0.222
-265.267	-131.977	-0.372	-0.049
-264.253	-146.332	-0.116	0.010
-263.238	-86.873	0.191	-0.058
-262.224	-200.000	-0.005	-0.210
-261.209	-108.214	0.211	0.046
-260.195	-77.964	0.162	-0.056
-259.180	-91.467	-0.012	0.003
-258.165	281.563	-0.046	-0.083
-257.151	315.847	0.159	0.301
-256.136	189.025	0.167	-0.251
-255.122	-96.715	-0.165	-0.044
-254.107	800.000	0.023	-0.092
-253.092	231.085	0.125	0.206
-252.078	800.000	0.064	0.216
-251.063	-1.229	0.159	-0.113
-250.049	-20.770	0.206	-0.127
-249.034	-154.216	0.079	-0.005
-248.019	60.359	0.115	0.114
-247.005	249.197	0.065	-0.111
-245.990	-200.000	0.060	0.267
-244.976	470.713	-0.058	-0.132
-243.961	57.144	-0.091	0.089
-242.946	-200.000	0.040	0.187
-241.932	225.540	-0.126	0.204
-240.917	360.399	-0.125	0.251
-239.903	-200.000	-0.006	0.130
-238.888	16.322	0.072	0.057
-237.873	129.102	0.034	0.044
-236.859	-53.651	0.181	0.083
-235.844	119.526	-0.118	0.146
-234.830	28.449	0.269	0.228
-233.815	608.121	-0.072	-0.181
-232.800	-82.276	-0.038	0.012
-231.786	-200.000	0.008	-0.287
-230.771	108.001	-0.097	0.116
-229.757	13.929	-0.036	0.028
-228.742	800.000	0.039	-0.112
-227.727	-21.870	0.192	-0.117
-226.713	141.875	-0.076	-0.101
-225.698	245.187	0.256	-0.432
-224.684	-46.837	0.148	-0.072
-223.669	2.100	0.126	-0.091
-222.655	-200.000	-0.010	0.097
-221.640	-99.153	0.179	0.045
-220.625	62.363	0.076	0.076
-219.611	-0.692	-0.351	-0.250
-218.596	-99.933	-0.363	0.091
-217.582	598.623	-0.049	-0.121
-216.567	276.072	0.061	0.108
-215.552	-178.266	-0.487	-0.011
-214.538	185.019	-0.249	-0.370
-213.523	-2.149	0.117	-0.083
-212.509	-171.696	-0.229	0.008
-211.494	-157.389	-0.312	0.019
-210.479	180.677	0.102	0.150
-209.465	-109.700	0.287	0.061
-208.450	39.742	0.188	0.169
-207.436	108.909	-0.130	0.156
-206.421	-200.000	-0.011	0.067
-205.406	800.000	-0.063	0.227
-204.392	413.575	0.087	-0.184
-203.377	-48.836	-0.144	-0.069
-202.363	-88.750	-0.327	0.097
-201.348	-200.000	0.002	0.197
-200.333	30.287	-0.101	-0.087
-199.319	800.000	-0.058	-0.250
-198.304	-60.884	-0.097	-0.041
-197.290	800.000	-0.037	0.130
-196.275	-200.000	0.018	-0.381
-195.260	800.000	-0.031	0.097
-194.246	-60.522	-0.268	0.114
-193.231	162.207	-0.037	0.052
-192.217	-200.000	-0.006	0.082
-191.202	800.000	0.063	0.207
-190.187	691.567	-0.070	-0.183
-189.173	-133.329	0.134	-0.017
-188.158	800.000	0.147	-0.456
-187.144	-175.956	-0.089	0.002
-186.129	15.726	-0.232	-0.183
-185.114	256.338	0.170	-0.291
-184.100	83.214	0.121	0.132
-183.085	358.062	-0.167	-0.333
-182.071	-113.492	0.161	-0.032
-181.056	800.000	-0.087	0.290
-180.042	-76.912	-0.236	-0.083
-179.027	52.779	0.138	-0.132
-178.012	2.192	0.101	0.073
-176.998	-12.525	0.190	-0.124
-175.983	300.301	-0.064	0.118
-174.969	52.075	0.254	0.242
-173.954	-19.041	0.045	0.028
-172.939	14.332	0.173	-0.135
-171.925	-73.081	-0.419	0.154
-170.910	-30.477	0.393	0.223
-169.896	-106.068	-0.346	-0.078
-168.881	-200.000	-0.013	0.148
-167.866	-22.643	-0.262	0.159
-166.852	-144.877	0.183	0.017
-165.837	-93.515	0.087	0.024
-164.823	-22.755	0.435	-0.263
-163.808	-165.231	0.319	0.014
-162.793	-97.792	0.122	0.031
-161.779	-102.029	0.222	-0.054
-160.764	-124.575	0.076	0.012
-159.750	-76.626	-0.132	-0.046
-158.735	-105.338	-0.326	0.074
-157.720	-145.727	-0.203	0.018
-156.706	95.083	0.081	0.092
-155.691	-200.000	-0.022	0.137
-154.677	-121.682	0.316	0.052
-153.662	-137.031	-0.215	0.025
-152.647	800.000	-0.041	-0.114
-151.633	-200.000	0.060	0.328
-150.618	-200.000	0.002	-0.184
-149.604	45.734	0.036	-0.033
-148.589	49.071	-0.342	0.321
-147.574	99.404	-0.148	0.171
-146.560	-200.000	0.005	-0.096
-145.545	125.759	-0.254	0.321
-144.531	-147.734	0.277	0.023
-143.516	-103.499	0.273	-0.064
-142.502	-158.892	-0.373	0.021
-141.487	800.000	-0.018	0.050
-140.472	-150.781	0.203	0.015
-139.458	67.525	0.018	0.019
-138.443	275.571	0.105	-0.187
-137.429	-140.811	0.330	0.034
-136.414	-51.152	-0.258	-0.121
-135.399	280.590	0.144	0.257
-134.385	-71.673	0.201	0.075
-133.370	800.000	-0.079	0.300
-132.356	407.969	0.143	-0.303
-131.341	138.472	0.123	0.161
-130.326	267.322	0.046	-0.081
-129.312	-169.746	0.170	-0.006
-128.297	-63.232	0.153	0.063
-127.283	68.866	0.250	0.257
-126.268	800.000	0.065	-0.212
-125.253	65.889	0.068	-0.069
-124.239	-157.754	0.270	-0.016
-123.224	-174.117	-0.244	0.007
-122.210	-200.000	0.011	-0.170
-121.195	165.325	0.218	0.307
