DTS Sentinel unit serial number:	SN413079Multiplexer serial number:	ORYXHardware model number:	OX4-SRSoftware version number:	ORYX F/W v4.00 Oryx Data Collector v3.7.2.0data status	okinstallation	princeton_trtdifferential loss correction	single-endedforward channel	channel 1reverse channel	N/Adate	2019/09/11time	09:08:11forward acquisition time	60.00reverse acquisition time	0.00gamma	496.2192k internal	0.2309k external	0.2309temperature offset calibration	0.9950default loss term (dB/km)	0.3790temperature slope calibration	1.0000multiplexer offset coefficient	1.0000multiplexer slope coefficient	1.0000fibre end	0.00T internal ref (°C)	34.25T ext. ref 1 (°C)	0.10T ext. ref 2 (°C)	30.00length (m)	temperature (°C)	Stokes	anti-Stokes-747.200	-132.892	0.404	-0.052
-746.185	-131.872	-0.174	0.023
-745.171	310.650	0.201	-0.382
-744.156	-53.069	-0.191	0.089
-743.142	-166.527	0.118	-0.005
-742.127	706.547	0.097	0.259
-741.112	800.000	0.053	0.226
-740.098	-15.809	0.235	-0.152
-739.083	-200.000	-0.037	-0.206
-738.069	379.839	-0.171	0.356
-737.054	328.376	-0.147	-0.287
-736.039	-200.000	0.005	-0.148
-735.025	-72.862	0.228	0.085
-734.010	-43.401	-0.117	0.060
-732.996	-200.000	-0.031	-0.168
-731.981	-185.246	-0.314	0.005
-730.966	158.938	0.113	-0.159
-729.952	800.000	0.069	-0.199
-728.937	-25.825	-0.156	-0.093
-727.923	-200.000	0.047	-0.234
-726.908	-79.497	0.077	-0.026
-725.894	800.000	0.050	-0.223
-724.879	-200.000	0.002	-0.020
-723.864	-200.000	-0.011	0.205
-722.850	-145.340	0.180	0.017
-721.835	-84.756	-0.221	0.071
-720.821	427.515	-0.109	0.238
-719.806	-71.288	0.063	0.024
-718.791	791.261	-0.105	-0.292
-717.777	-110.438	-0.453	-0.095
-716.762	800.000	0.073	-0.307
-715.748	-80.025	-0.086	-0.029
-714.733	-59.931	0.052	-0.023
-713.718	-200.000	0.008	-0.064
-712.704	800.000	0.103	-0.423
-711.689	-88.997	0.097	-0.029
-710.675	130.861	-0.132	-0.172
-709.660	-8.477	-0.250	-0.170
-708.645	34.030	-0.178	0.158
-707.631	-78.277	0.358	-0.125
-706.616	-19.227	-0.123	-0.077
-705.602	800.000	-0.054	-0.174
-704.587	-53.169	0.212	-0.099
-703.572	-200.000	-0.052	0.377
-702.558	-150.767	0.160	0.012
-701.543	-200.000	0.051	0.275
-700.529	800.000	0.093	-0.261
-699.514	-119.509	-0.042	-0.007
-698.499	306.080	0.072	0.136
-697.485	194.484	-0.015	0.024
-696.470	-77.945	-0.193	0.067
-695.456	-200.000	0.002	0.133
-694.441	209.864	0.272	0.432
-693.426	-166.460	0.144	0.006
-692.412	-200.000	0.044	-0.399
-691.397	100.937	0.281	0.331
-690.383	105.927	-0.166	0.199
-689.368	-200.000	0.030	0.179
-688.354	110.547	-0.084	0.102
-687.339	246.380	0.043	0.074
-686.324	800.000	-0.086	-0.332
-685.310	12.321	0.294	-0.230
-684.295	184.274	-0.137	-0.205
-683.281	-139.223	-0.306	0.033
-682.266	800.000	0.077	-0.308
-681.251	164.404	0.162	-0.232
-680.237	-200.000	0.039	0.270
-679.222	-185.145	0.125	0.002
-678.208	61.329	-0.225	-0.226
-677.193	0.114	-0.048	0.034
-676.178	232.989	0.090	0.150
-675.164	28.645	-0.255	-0.219
-674.149	-137.866	-0.214	-0.024
-673.135	-62.317	0.146	-0.062
-672.120	-49.867	-0.091	-0.044
-671.105	125.407	-0.118	0.151
-670.091	-2.091	-0.321	-0.229
-669.076	-144.215	-0.602	-0.057
-668.062	-200.000	0.018	-0.115
-667.047	-200.000	0.005	-0.030
-666.032	275.755	-0.097	-0.174
-665.018	-22.638	0.226	-0.138
-664.003	-158.559	0.062	0.004
-662.989	9.495	-0.212	-0.162
-661.974	295.998	-0.093	0.173
-660.959	98.894	-0.160	-0.187
-659.945	800.000	-0.113	-0.393
-658.930	800.000	0.045	0.168
-657.916	-200.000	-0.100	-0.468
-656.901	136.686	-0.149	-0.197
-655.886	-144.045	0.160	0.015
-654.872	-48.907	0.195	0.095
-653.857	-200.000	-0.053	0.447
-652.843	614.845	-0.088	-0.222
-651.828	-54.579	-0.376	-0.172
-650.814	381.533	0.119	-0.247
-649.799	8.824	0.145	-0.111
-648.784	-125.728	0.399	-0.061
-647.770	9.228	-0.240	-0.183
-646.755	-200.000	-0.004	0.432
-645.741	188.303	0.126	0.191
-644.726	-200.000	0.025	0.170
-643.711	-123.243	-0.245	-0.040
-642.697	800.000	-0.044	0.163
-641.682	800.000	-0.069	-0.284
-640.668	-22.728	-0.211	-0.129
-639.653	-146.855	0.180	-0.016
-638.638	-61.118	0.117	0.050
-637.624	-200.000	-0.122	-0.597
-636.609	57.993	0.106	-0.105
-635.595	-125.972	0.167	0.025
-634.580	800.000	-0.065	0.225
-633.565	295.429	-0.082	-0.152
-632.551	-70.945	-0.105	-0.040
-631.536	-200.000	-0.025	-0.271
-630.522	-200.000	0.020	0.156
-629.507	-116.171	-0.182	0.034
-628.492	98.449	-0.037	0.044
-627.478	-200.000	0.033	-0.188
-626.463	-159.370	0.224	0.013
-625.449	68.715	0.077	-0.080
-624.434	-129.523	-0.167	-0.023
-623.419	-75.592	0.147	0.053
-622.405	800.000	0.024	0.081
-621.390	53.017	0.142	0.137
-620.376	383.337	0.180	0.374
-619.361	-200.000	-0.030	-0.193
-618.346	-120.560	0.155	-0.027
-617.332	313.368	-0.269	-0.512
-616.317	160.609	0.099	-0.140
-615.303	295.216	0.131	-0.242
-614.288	-43.250	-0.190	-0.097
-613.273	800.000	-0.121	0.454
-612.259	181.071	-0.109	-0.161
-611.244	-78.873	0.277	0.095
-610.230	-200.000	0.033	-0.279
-609.215	-200.000	0.024	0.138
-608.201	225.251	0.164	-0.268
-607.186	68.057	-0.253	0.262
-606.171	800.000	0.067	0.273
-605.157	-120.690	0.226	-0.039
-604.142	-138.228	-0.291	0.033
-603.128	253.167	-0.126	-0.216
-602.113	145.675	-0.089	-0.120
-601.098	-169.636	0.056	-0.002
-600.084	26.216	-0.069	0.058
-599.069	33.127	0.048	-0.042
-598.055	-6.661	-0.094	0.064
-597.040	800.000	0.048	0.175
-596.025	-148.910	0.310	0.025
-595.011	-81.833	0.105	0.035
-593.996	-200.000	0.030	0.315
-592.982	-200.000	0.053	-0.374
-591.967	-54.569	-0.372	0.170
-590.952	215.613	-0.065	0.105
-589.938	800.000	-0.033	-0.115
-588.923	43.092	-0.159	-0.146
-587.909	186.680	-0.131	0.197
-586.894	-82.487	0.194	-0.064
-585.879	-111.872	-0.133	-0.027
-584.865	800.000	-0.017	-0.070
-583.850	800.000	-0.066	0.286
-582.836	-81.446	0.380	0.126
-581.821	398.898	-0.040	-0.084
-580.806	-200.000	-0.012	-0.231
-579.792	-140.861	-0.100	0.010
-578.777	-19.997	-0.137	-0.086
-577.763	-159.406	0.426	-0.024
-576.748	222.158	-0.121	-0.196
-575.733	-129.788	0.164	0.023
-574.719	246.821	0.013	-0.023
-573.704	-53.337	0.196	0.091
-572.690	-114.491	-0.201	-0.039
-571.675	60.430	-0.277	-0.276
-570.661	800.000	-0.150	-0.463
-569.646	669.535	-0.059	0.155
-568.631	302.372	0.107	-0.201
-567.617	-99.582	-0.249	-0.063
-566.602	-29.225	0.066	-0.038
-565.588	-129.825	0.133	-0.019
-564.573	-10.493	-0.163	-0.109
-563.558	148.238	0.074	-0.101
-562.544	163.511	0.083	0.118
-561.529	-140.045	0.113	-0.012
-560.515	-200.000	0.054	0.280
-559.500	-200.000	0.003	0.084
-558.485	489.625	-0.088	-0.204
-557.471	-153.233	0.047	0.003
-556.456	-25.343	-0.270	-0.161
-555.442	-39.448	0.256	-0.135
-554.427	-14.239	-0.219	-0.142
-553.412	373.369	0.145	-0.298
-552.398	-68.468	-0.238	0.093
-551.383	8.809	-0.192	-0.146
-550.369	153.607	0.188	0.260
-549.354	53.718	-0.136	0.132
-548.339	-47.200	0.143	-0.070
-547.325	49.294	-0.165	-0.157
-546.310	-69.867	0.231	-0.089
-545.296	-200.000	-0.016	-0.512
-544.281	211.300	0.080	-0.128
-543.266	152.159	-0.109	-0.150
-542.252	743.649	0.083	0.226
-541.237	-86.790	-0.131	0.040
-540.223	55.654	-0.127	-0.124
-539.208	-116.701	0.430	-0.080
-538.193	-21.657	0.576	-0.354
-537.179	800.000	-0.047	-0.177
-536.164	-152.640	-0.081	0.006
-535.150	800.000	0.115	0.323
-534.135	-2.673	0.032	0.022
-533.121	-103.716	-0.249	0.059
-532.106	-49.535	0.058	-0.028
-531.091	-80.032	0.280	-0.095
-530.077	-104.099	-0.231	-0.054
-529.062	-16.965	-0.114	-0.073
-528.048	480.421	-0.106	-0.243
-527.033	-76.577	0.214	-0.076
-526.018	800.000	0.008	-0.034
-525.004	-151.982	0.174	0.013
-523.989	-41.191	-0.221	-0.115
-522.975	-22.915	-0.208	0.127
-521.960	-20.306	0.118	0.073
-520.945	-200.000	0.072	-0.322
-519.931	-44.145	0.101	-0.051
-518.916	-131.531	0.216	0.029
-517.902	196.729	0.032	-0.050
-516.887	-101.575	0.218	0.053
-515.872	-78.723	0.222	0.076
-514.858	216.288	0.256	-0.409
-513.843	252.623	0.061	0.105
-512.829	136.070	-0.129	-0.169
-511.814	-74.647	0.164	0.059
-510.799	-200.000	0.038	0.311
-509.785	800.000	0.116	-0.451
-508.770	-49.060	-0.135	-0.065
-507.756	-200.000	-0.027	0.139
-506.741	50.496	-0.145	-0.138
-505.726	800.000	0.064	-0.188
-504.712	470.559	0.157	-0.356
-503.697	-200.000	0.020	0.115
-502.683	236.154	-0.135	-0.225
-501.668	184.653	-0.055	0.082
-500.653	800.000	0.097	-0.274
-499.639	322.394	-0.025	-0.048
-498.624	200.423	0.077	-0.119
-497.610	576.040	-0.095	-0.233
-496.595	-129.664	-0.328	-0.046
-495.581	-200.000	-0.003	-0.145
-494.566	184.666	0.220	-0.328
-493.551	-54.612	0.175	-0.080
-492.537	-200.000	-0.054	-0.286
-491.522	-200.000	-0.017	-0.216
-490.508	-200.000	-0.003	0.124
-489.493	63.499	0.073	-0.074
-488.478	-11.214	0.062	-0.041
-487.464	-200.000	-0.024	-0.116
-486.449	-84.252	-0.180	-0.057
-485.435	800.000	0.049	0.151
-484.420	-71.933	0.178	-0.066
-483.405	183.628	0.033	0.049
-482.391	-200.000	-0.095	0.432
-481.376	34.748	-0.090	-0.079
-480.362	-200.000	-0.016	0.192
-479.347	-200.000	0.271	-0.001
-478.332	-200.000	0.048	-0.225
-477.318	197.668	-0.165	-0.253
-476.303	800.000	0.066	0.213
-475.289	800.000	0.046	-0.191
-474.274	-200.000	-0.003	-0.025
-473.259	40.390	0.096	-0.087
-472.245	-178.795	-0.225	-0.005
-471.230	800.000	0.060	0.257
-470.216	-200.000	-0.053	0.250
-469.201	-66.437	0.194	-0.078
-468.186	8.708	0.177	-0.134
-467.172	10.318	0.272	-0.208
-466.157	230.816	0.092	0.151
-465.143	408.211	0.140	-0.298
-464.128	-200.000	-0.015	-0.128
-463.113	-66.553	0.158	0.063
-462.099	-68.947	-0.088	-0.034
-461.084	241.866	-0.056	-0.093
-460.070	239.458	-0.081	-0.136
-459.055	-200.000	-0.002	0.169
-458.040	76.477	0.288	0.307
-457.026	-155.321	0.218	-0.014
-456.011	32.124	0.048	0.041
-454.997	566.398	0.156	0.381
-453.982	743.951	0.035	-0.094
-452.968	800.000	-0.094	0.338
-451.953	172.672	-0.232	0.336
-450.938	346.200	-0.116	0.230
-449.924	-56.838	0.166	0.074
-448.909	-18.222	-0.196	0.123
-447.895	275.602	-0.118	0.210
-446.880	3.452	0.214	0.157
-445.865	749.611	0.078	-0.210
-444.851	-84.511	-0.371	-0.118
-443.836	-94.651	0.182	0.050
-442.822	472.700	-0.041	-0.092
-441.807	179.777	-0.167	-0.245
-440.792	-200.000	0.065	0.371
-439.778	-139.737	-0.105	-0.011
-438.763	151.701	-0.346	-0.474
-437.749	598.885	-0.130	-0.323
-436.734	144.936	0.239	0.321
-435.719	-196.454	-0.159	0.001
-434.705	583.558	0.081	0.201
-433.690	-151.070	-0.254	0.019
-432.676	-88.530	-0.385	-0.115
-431.661	23.889	-0.103	-0.085
-430.646	-200.000	0.014	0.227
-429.632	-126.867	-0.292	0.043
-428.617	228.734	-0.184	-0.301
-427.603	133.654	-0.132	0.172
-426.588	46.208	0.286	-0.265
-425.573	1.826	-0.060	-0.043
-424.559	-47.011	0.247	-0.121
-423.544	218.787	-0.263	0.422
-422.530	32.625	-0.278	-0.241
-421.515	-192.476	-0.312	-0.003
-420.500	-106.434	-0.322	-0.072
-419.486	-83.260	-0.309	0.100
-418.471	305.633	0.164	-0.306
-417.457	-200.000	-0.017	-0.080
-416.442	41.448	-0.117	0.106
-415.428	222.226	-0.029	0.047
-414.413	-200.000	-0.062	-0.605
-413.398	-131.862	0.404	0.053
-412.384	-200.000	-0.040	-0.287
-411.369	309.724	-0.141	-0.265
-410.355	-200.000	-0.005	0.069
-409.340	-139.742	0.056	0.006
-408.325	-159.054	-0.114	-0.006
-407.311	-200.000	0.006	-0.103
-406.296	-200.000	0.001	0.255
-405.282	-200.000	0.013	-0.118
-404.267	619.526	0.060	0.152
-403.252	-200.000	0.048	-0.301
-402.238	-200.000	-0.000	0.034
-401.223	-200.000	0.014	-0.094
-400.209	24.942	-0.260	0.216
-399.194	325.469	0.087	0.167
-398.179	-45.025	0.296	-0.148
-397.165	44.873	0.168	-0.155
-396.150	-200.000	0.037	0.202
-395.136	297.174	-0.160	-0.294
-394.121	-1.675	-0.237	0.167
-393.106	-17.468	-0.103	-0.065
-392.092	-6.467	0.125	0.086
-391.077	168.674	-0.052	-0.074
-390.063	209.035	0.081	-0.127
-389.048	45.642	0.177	-0.164
-388.033	-144.561	0.101	0.009
-387.019	-200.000	-0.017	-0.226
-386.004	-120.509	-0.260	-0.044
-384.990	316.867	0.130	0.246
-383.975	-128.822	-0.110	-0.016
-382.960	-200.000	0.002	0.468
-381.946	-200.000	0.021	0.431
-380.931	239.997	-0.147	-0.245
-379.917	-200.000	0.015	-0.210
-378.902	18.101	-0.019	0.015
-377.888	-21.128	-0.157	0.096
-376.873	-200.000	0.005	-0.321
-375.858	-200.000	0.005	-0.126
-374.844	252.308	0.079	-0.136
-373.829	342.012	0.039	0.077
-372.815	618.098	0.054	-0.136
-371.800	425.458	-0.046	-0.098
-370.785	-42.936	0.198	-0.101
-369.771	-109.376	-0.415	0.088
-368.756	-51.909	-0.195	-0.091
-367.742	537.775	0.147	-0.350
-366.727	-137.960	-0.273	-0.031
-365.712	-200.000	-0.006	0.250
-364.698	800.000	-0.041	-0.128
-363.683	84.358	0.151	0.165
-362.669	-149.975	-0.204	0.016
-361.654	800.000	-0.196	0.688
-360.639	-3.376	0.153	-0.106
-359.625	800.000	-0.083	0.250
-358.610	-18.145	0.292	0.183
-357.596	543.918	-0.155	-0.370
-356.581	-43.011	0.341	-0.173
-355.566	-28.777	0.420	-0.242
-354.552	-99.871	0.199	0.050
-353.537	-127.464	-0.040	0.006
-352.523	800.000	0.019	0.060
-351.508	102.737	0.208	0.243
-350.493	-3.150	0.359	0.250
-349.479	-122.133	-0.224	-0.037
-348.464	34.944	-0.099	-0.087
-347.450	-152.438	0.035	-0.002
-346.435	-46.825	0.227	0.111
-345.420	-92.627	0.159	-0.045
-344.406	-92.106	0.114	-0.032
-343.391	-200.000	-0.030	0.210
-342.377	14.981	-0.125	0.098
-341.362	27.900	-0.307	0.259
-340.348	31.774	0.106	-0.092
-339.333	14.252	0.068	-0.053
-338.318	-54.959	-0.226	0.102
-337.304	-125.839	0.294	0.044
-336.289	144.069	0.316	-0.421
-335.275	-200.000	0.044	-0.193
-334.260	800.000	0.115	-0.423
-333.245	-8.120	0.075	0.050
-332.231	-200.000	-0.016	0.336
-331.216	210.554	-0.247	-0.388
-330.202	28.963	0.136	-0.115
-329.187	800.000	-0.087	0.288
-328.172	-200.000	0.022	-0.364
-327.158	-200.000	-0.043	-0.230
-326.143	-116.329	-0.238	-0.044
-325.129	-100.578	0.074	-0.018
-324.114	29.955	-0.241	0.205
-323.099	-200.000	0.025	-0.126
-322.085	800.000	0.048	-0.134
-321.070	-17.270	0.247	-0.156
-320.056	-106.859	-0.316	-0.070
-319.041	-200.000	-0.040	0.313
-318.026	-200.000	-0.018	0.376
-317.012	-200.000	-0.010	0.446
-315.997	-101.549	0.293	0.071
-314.983	-200.000	0.030	0.243
-313.968	-32.982	-0.137	-0.076
-312.953	-60.342	0.379	0.161
-311.939	-200.000	0.020	0.346
-310.924	228.129	-0.093	0.152
-309.910	-130.094	-0.021	0.003
-308.895	318.075	0.039	0.074
-307.880	-131.641	-0.260	-0.034
-306.866	4.637	-0.108	0.079
-305.851	89.850	0.134	-0.150
-304.837	68.140	0.236	-0.242
-303.822	1.237	-0.184	0.132
-302.807	-77.989	-0.134	-0.046
-301.793	-200.000	0.044	0.240
-300.778	264.090	0.020	0.034
-299.764	2.570	-0.191	-0.138
-298.749	40.977	0.058	0.053
-297.735	-200.000	0.058	-0.337
-296.720	-200.000	-0.004	0.210
-295.705	-184.972	-0.210	0.003
-294.691	427.168	0.083	0.179
-293.676	-16.907	-0.031	0.019
-292.662	800.000	-0.084	0.280
-291.647	-140.474	-0.465	0.048
-290.632	800.000	-0.065	0.194
-289.618	-200.000	-0.023	0.140
-288.603	800.000	0.090	0.350
-287.589	233.679	-0.078	-0.129
-286.574	-200.000	0.001	-0.107
-285.559	1.070	-0.280	0.201
-284.545	155.369	0.121	-0.166
-283.530	-60.307	-0.319	0.135
-282.516	-9.287	0.025	-0.016
-281.501	-199.856	-0.257	-0.001
-280.486	-51.960	0.196	-0.091
-279.472	-200.000	0.015	0.318
-278.457	90.971	0.075	0.084
-277.443	-75.317	0.412	-0.147
-276.428	501.170	0.031	0.071
-275.413	-86.633	-0.197	0.060
-274.399	-39.731	-0.192	0.100
-273.384	800.000	0.050	0.173
-272.370	135.956	0.142	0.185
-271.355	-32.326	-0.191	-0.106
-270.340	308.582	-0.054	-0.100
-269.326	-200.000	-0.009	-0.066
-268.311	-174.524	-0.176	-0.005
-267.297	148.575	0.087	0.117
-266.282	-14.023	-0.154	0.099
-265.267	-92.587	0.351	0.098
-264.253	558.820	-0.048	-0.116
-263.238	279.291	-0.199	-0.355
-262.224	-200.000	0.008	-0.291
-261.209	422.483	0.083	-0.178
-260.195	-156.951	-0.274	-0.017
-259.180	-105.662	-0.296	-0.067
-258.165	56.391	-0.034	-0.033
-257.151	133.668	-0.386	0.497
-256.136	-92.275	0.247	0.069
-255.122	402.114	0.092	0.193
-254.107	-32.720	-0.324	-0.180
-253.092	-200.000	0.003	0.435
-252.078	131.026	0.225	0.288
-251.063	97.941	0.208	-0.238
-250.049	175.521	-0.080	0.115
-249.034	-108.209	0.210	0.045
-248.019	-200.000	-0.006	-0.257
-247.005	105.003	0.283	0.333
-245.990	771.850	-0.094	0.255
-244.976	-200.000	0.029	-0.335
-243.961	-74.849	-0.153	0.055
-242.946	110.352	-0.212	0.254
-241.932	-200.000	-0.005	-0.194
-240.917	36.021	-0.073	-0.064
-239.903	-200.000	-0.002	0.019
-238.888	-126.794	0.280	-0.041
-237.873	-99.849	0.088	0.022
-236.859	447.257	-0.032	0.070
-235.844	4.947	0.237	-0.174
-234.830	-97.258	0.185	0.048
-233.815	129.307	-0.022	0.027
-232.800	194.530	0.110	-0.167
-231.786	-108.848	0.060	0.013
-230.771	-200.000	-0.028	0.341
-229.757	-113.888	-0.269	-0.052
-228.742	273.842	0.038	0.067
-227.727	-99.940	0.329	-0.082
-226.713	67.656	-0.075	0.077
-225.698	-73.222	0.168	-0.061
-224.684	89.765	-0.097	0.108
-223.669	111.294	-0.175	0.210
-222.655	109.364	0.148	-0.176
-221.640	-36.260	0.224	-0.120
-220.625	146.585	0.096	-0.128
-219.611	48.658	0.343	-0.320
-218.596	-200.000	0.005	-0.055
-217.582	-133.797	0.121	0.015
-216.567	-148.700	-0.067	-0.005
-215.552	276.752	0.165	0.293
-214.538	-200.000	-0.031	0.308
-213.523	218.729	0.073	0.116
-212.509	690.474	-0.072	0.189
-211.494	-115.575	0.191	0.036
-210.479	296.699	0.160	0.292
-209.465	800.000	-0.032	-0.116
-208.450	-200.000	-0.002	-0.295
-207.436	41.743	0.351	0.317
-206.421	631.909	0.121	-0.304
-205.406	-112.675	-0.172	-0.034
-204.392	53.056	-0.361	0.343
-203.377	800.000	0.106	0.371
-202.363	800.000	-0.086	-0.248
-201.348	6.549	-0.245	0.181
-200.333	-200.000	0.026	0.411
-199.319	-114.693	-0.234	-0.044
-198.304	127.035	0.192	0.242
-197.290	341.467	-0.107	0.207
-196.275	-200.000	-0.022	-0.177
-195.260	26.010	0.072	-0.059
-194.246	-183.595	-0.162	-0.003
-193.231	207.440	-0.271	0.420
-192.217	-200.000	0.005	-0.171
-191.202	-95.867	-0.015	-0.004
-190.187	-200.000	-0.024	0.334
-189.173	-28.349	-0.153	0.088
-188.158	117.898	-0.108	0.132
-187.144	-38.353	-0.547	0.288
-186.129	-200.000	-0.010	0.133
-185.114	-16.251	0.079	-0.050
-184.100	224.083	0.121	-0.195
-183.085	-37.005	0.115	-0.061
-182.071	-200.000	0.006	0.246
-181.056	-48.799	-0.171	-0.082
-180.042	-200.000	0.002	-0.047
-179.027	90.876	-0.058	0.064
-178.012	-99.112	0.128	-0.032
-176.998	-154.655	-0.219	-0.015
-175.983	58.499	-0.187	0.182
-174.969	156.792	-0.065	0.090
-173.954	-27.542	-0.032	0.018
-172.939	41.643	0.190	0.171
-171.925	200.816	0.200	0.306
-170.910	-200.000	0.006	0.125
-169.896	-94.481	-0.166	-0.045
-168.881	-200.000	0.002	0.090
-167.866	-88.714	0.222	0.065
-166.852	499.823	0.099	0.227
-165.837	151.106	0.139	0.188
-164.823	-5.515	0.189	0.129
-163.808	800.000	0.022	-0.081
-162.793	-33.475	-0.347	0.190
-161.779	194.726	0.146	-0.220
-160.764	1.016	-0.225	0.160
-159.750	173.115	0.208	0.297
-158.735	187.318	0.105	0.155
-157.720	-84.571	0.195	0.061
-156.706	202.045	-0.123	0.189
-155.691	-104.929	0.155	0.035
-154.677	-185.588	-0.239	0.004
-153.662	28.897	0.174	0.147
-152.647	214.531	-0.159	-0.249
-151.633	-200.000	0.045	-0.336
-150.618	-55.327	0.023	0.010
-149.604	-13.949	-0.193	0.124
-148.589	-122.205	0.238	0.039
-147.574	130.677	0.018	-0.022
-146.560	83.237	0.107	0.116
-145.545	-94.483	-0.130	0.035
-144.531	-200.000	-0.028	0.166
-143.516	-56.005	0.285	-0.126
-142.502	800.000	0.062	0.172
-141.487	-200.000	0.004	0.152
-140.472	130.386	-0.087	0.110
-139.458	200.587	0.101	0.154
-138.443	800.000	-0.105	0.348
-137.429	-126.590	-0.110	-0.016
-136.414	11.390	-0.142	-0.108
-135.399	244.600	-0.286	-0.477
-134.385	-96.223	-0.139	-0.037
-133.370	231.591	-0.193	-0.314
-132.356	296.064	-0.127	-0.231
-131.341	-200.000	-0.027	0.209
-130.326	-115.591	-0.165	-0.031
-129.312	117.066	0.277	0.338
-128.297	243.033	-0.102	-0.169
-127.283	-200.000	-0.050	0.232
-126.268	800.000	-0.043	0.157
-125.253	-56.050	0.160	-0.071
-124.239	-114.462	-0.357	-0.068
-123.224	-9.554	0.286	0.189
