DTS Sentinel unit serial number:	SN413079Multiplexer serial number:	ORYXHardware model number:	OX4-SRSoftware version number:	ORYX F/W v4.00 Oryx Data Collector v3.7.2.0data status	okinstallation	princeton_trtdifferential loss correction	single-endedforward channel	channel 1reverse channel	N/Adate	2019/09/11time	16:28:11forward acquisition time	60.00reverse acquisition time	0.00gamma	496.2192k internal	0.2290k external	0.2290temperature offset calibration	0.9992default loss term (dB/km)	0.3790temperature slope calibration	1.0000multiplexer offset coefficient	1.0000multiplexer slope coefficient	1.0000fibre end	0.00T internal ref (°C)	43.61T ext. ref 1 (°C)	1.07T ext. ref 2 (°C)	39.40length (m)	temperature (°C)	Stokes	anti-Stokes-747.200	-200.000	0.037	-0.198
-746.185	541.172	-0.097	0.237
-745.171	496.297	-0.050	-0.117
-744.156	800.000	0.059	0.179
-743.142	-73.270	0.317	-0.119
-742.127	84.597	-0.112	0.126
-741.112	-163.622	0.115	0.006
-740.098	189.264	-0.251	0.385
-739.083	800.000	-0.074	0.296
-738.069	-14.705	-0.350	0.230
-737.054	-70.313	0.330	0.128
-736.039	-101.380	-0.191	-0.048
-735.025	-200.000	0.011	-0.099
-734.010	-98.546	0.380	-0.099
-732.996	-82.845	-0.232	0.077
-731.981	-82.016	-0.258	-0.086
-730.966	-200.000	-0.045	0.326
-729.952	-62.252	-0.258	-0.110
-728.937	-106.099	-0.258	0.059
-727.923	-141.337	-0.310	-0.032
-726.908	-67.450	-0.175	0.070
-725.894	450.564	0.036	0.082
-724.879	14.133	-0.242	0.193
-723.864	513.815	-0.084	0.201
-722.850	-118.710	-0.386	0.070
-721.835	-57.700	-0.267	0.120
-720.821	44.127	0.085	-0.080
-719.806	468.297	-0.167	-0.384
-718.791	-59.433	0.229	-0.101
-717.777	52.021	0.153	-0.149
-716.762	-200.000	-0.024	0.328
-715.748	-200.000	0.023	0.148
-714.733	-79.826	0.012	0.004
-713.718	289.297	-0.020	-0.038
-712.704	228.247	-0.107	0.179
-711.689	-89.779	-0.209	0.063
-710.675	187.797	0.131	-0.200
-709.660	51.736	-0.200	-0.194
-708.645	-77.446	0.247	0.088
-707.631	363.862	0.060	-0.124
-706.616	544.803	-0.030	-0.073
-705.602	11.834	-0.168	-0.132
-704.587	674.999	-0.197	-0.523
-703.572	800.000	-0.098	-0.301
-702.558	272.230	-0.163	-0.294
-701.543	43.962	0.224	-0.210
-700.529	-97.568	-0.061	0.016
-699.514	358.211	-0.116	0.236
-698.499	762.882	-0.125	-0.346
-697.485	-89.809	0.312	0.093
-696.470	-24.769	-0.059	0.036
-695.456	-200.000	-0.094	0.545
-694.441	93.132	0.230	0.266
-693.426	111.878	-0.165	0.204
-692.412	-162.854	0.222	0.011
-691.397	-91.005	0.607	-0.178
-690.383	139.396	-0.079	-0.106
-689.368	-34.543	0.347	-0.195
-688.354	-72.107	-0.119	-0.045
-687.339	-171.676	0.260	-0.009
-686.324	-37.270	-0.229	0.125
-685.310	284.101	-0.071	-0.130
-684.295	325.812	-0.078	-0.152
-683.281	-200.000	0.013	0.140
-682.266	-194.901	-0.159	0.001
-681.251	800.000	0.049	-0.179
-680.237	12.621	-0.192	-0.152
-679.222	-200.000	-0.020	0.138
-678.208	227.636	-0.082	0.136
-677.193	310.500	-0.070	0.135
-676.178	110.406	-0.221	0.271
-675.164	-139.156	-0.589	0.065
-674.149	-200.000	-0.007	-0.117
-673.135	-200.000	-0.030	0.298
-672.120	-120.796	0.291	0.050
-671.105	127.552	0.202	0.262
-670.091	429.318	-0.027	0.059
-669.076	68.581	-0.333	-0.349
-668.062	115.553	-0.098	-0.122
-667.047	-14.639	-0.028	-0.018
-666.032	34.561	-0.089	-0.080
-665.018	-125.122	-0.168	0.026
-664.003	462.509	-0.162	-0.369
-662.989	158.680	0.110	-0.157
-661.974	363.320	-0.156	0.321
-660.959	-130.812	-0.173	0.024
-659.945	167.369	-0.196	-0.285
-658.930	-200.000	0.092	-0.522
-657.916	201.547	0.155	-0.243
-656.901	-88.674	-0.255	-0.077
-655.886	727.654	0.191	-0.519
-654.872	-200.000	-0.062	-0.510
-653.857	-95.436	-0.265	-0.073
-652.843	-34.496	-0.196	-0.109
-651.828	-113.338	-0.200	-0.040
-650.814	147.565	-0.093	-0.127
-649.799	689.767	-0.100	0.267
-648.784	800.000	-0.033	0.131
-647.770	-127.161	0.178	-0.027
-646.755	-200.000	0.014	-0.242
-645.741	-139.327	-0.128	0.014
-644.726	-200.000	-0.001	0.255
-643.711	271.635	0.120	-0.216
-642.697	-79.594	-0.365	0.126
-641.682	110.152	-0.304	-0.372
-640.668	-132.812	-0.385	0.050
-639.653	-77.112	-0.199	0.071
-638.638	82.523	-0.076	-0.084
-637.624	-95.145	-0.339	-0.093
-636.609	-96.345	-0.199	0.054
-635.595	29.702	0.140	-0.122
-634.580	-51.298	-0.320	0.153
-633.565	-165.046	-0.250	0.011
-632.551	-37.179	-0.315	-0.172
-631.536	-98.929	0.149	0.039
-630.522	133.346	0.205	-0.271
-629.507	800.000	0.052	0.160
-628.492	130.592	0.219	-0.287
-627.478	-200.000	-0.005	-0.078
-626.463	800.000	-0.103	-0.385
-625.449	-36.265	0.149	-0.082
-624.434	-200.000	-0.046	-0.351
-623.419	412.365	-0.105	-0.228
-622.405	31.745	-0.258	-0.226
-621.390	6.670	-0.162	0.123
-620.376	111.691	-0.203	-0.250
-619.361	-7.047	-0.062	-0.043
-618.346	329.398	-0.155	0.303
-617.332	-200.000	-0.015	0.167
-616.317	258.032	0.188	-0.330
-615.303	-65.208	0.184	0.076
-614.288	-74.312	0.299	-0.110
-613.273	222.845	-0.053	0.087
-612.259	-32.353	0.256	0.146
-611.244	-165.667	0.281	0.012
-610.230	618.997	-0.038	-0.098
-609.215	-158.262	0.471	-0.028
-608.201	-81.982	-0.270	0.090
-607.186	-200.000	-0.036	0.176
-606.171	162.973	-0.180	0.258
-605.157	-91.337	-0.140	0.041
-604.142	-0.918	0.225	0.162
-603.128	-200.000	-0.012	0.102
-602.113	310.169	-0.081	0.155
-601.098	-105.028	-0.145	0.034
-600.084	-78.755	-0.119	-0.041
-599.069	-189.348	0.477	0.006
-598.055	427.589	0.132	-0.289
-597.040	-117.574	0.205	0.038
-596.025	800.000	-0.029	-0.093
-595.011	-76.262	-0.109	-0.039
-593.996	-92.914	0.158	0.045
-592.982	552.663	0.050	-0.121
-591.967	800.000	0.046	-0.194
-590.952	101.119	-0.045	0.053
-589.938	800.000	0.052	0.195
-588.923	-200.000	-0.029	-0.399
-587.909	615.181	-0.062	0.158
-586.894	-174.045	-0.067	-0.002
-585.879	-102.945	-0.222	-0.054
-584.865	-200.000	0.056	-0.284
-583.850	149.457	0.079	-0.109
-582.836	155.308	-0.013	-0.018
-581.821	-200.000	-0.005	-0.222
-580.806	512.304	0.097	0.229
-579.792	800.000	-0.138	0.428
-578.777	430.577	-0.135	-0.297
-577.763	-200.000	-0.018	-0.081
-576.748	-158.578	0.143	-0.008
-575.733	164.090	-0.118	0.169
-574.719	-84.919	0.190	0.061
-573.704	167.565	-0.074	0.107
-572.690	157.366	-0.106	-0.149
-571.675	361.167	0.159	-0.324
-570.661	800.000	0.091	-0.320
-569.646	-82.080	0.262	0.087
-568.631	152.349	0.149	-0.207
-567.617	-120.911	0.172	-0.029
-566.602	101.974	-0.054	0.064
-565.588	800.000	-0.028	-0.083
-564.573	-150.470	0.104	0.008
-563.558	0.186	0.230	0.167
-562.544	-64.402	-0.097	0.040
-561.529	-99.309	0.120	0.031
-560.515	369.409	0.048	-0.099
-559.500	-180.310	-0.266	-0.006
-558.485	800.000	-0.048	0.163
-557.471	6.616	0.051	0.038
-556.456	365.286	-0.085	0.175
-555.442	-26.876	-0.246	-0.146
-554.427	-18.113	0.266	-0.169
-553.412	-7.638	-0.161	0.110
-552.398	800.000	-0.064	-0.242
-551.383	-135.671	0.278	-0.034
-550.369	-11.383	-0.265	-0.177
-549.354	-119.067	-0.324	-0.058
-548.339	300.399	0.128	-0.241
-547.325	-128.557	-0.168	0.024
-546.310	-128.553	0.120	0.017
-545.296	782.972	0.046	-0.128
-544.281	82.241	0.231	0.255
-543.266	106.002	-0.057	0.068
-542.252	-167.737	-0.253	-0.010
-541.237	460.757	0.031	0.071
-540.223	11.223	0.180	0.140
-539.208	84.976	-0.218	0.243
-538.193	96.010	-0.122	-0.141
-537.179	71.285	0.211	-0.222
-536.164	-200.000	-0.002	0.064
-535.150	42.011	-0.074	-0.068
-534.135	-90.652	0.272	0.080
-533.121	-98.491	-0.540	-0.140
-532.106	-200.000	-0.011	-0.208
-531.091	76.136	-0.116	-0.125
-530.077	81.394	-0.275	0.302
-529.062	58.506	0.157	0.157
-528.048	-150.854	-0.178	0.014
-527.033	486.817	-0.023	-0.054
-526.018	-30.641	-0.250	-0.144
-525.004	-200.000	0.029	-0.293
-523.989	-6.845	-0.251	-0.173
-522.975	-200.000	-0.005	-0.062
-521.960	-162.745	-0.076	0.004
-520.945	73.922	0.052	0.055
-519.931	-200.000	0.054	0.352
-518.916	-200.000	0.003	0.060
-517.902	227.358	-0.057	0.095
-516.887	47.214	-0.193	0.183
-515.872	125.984	-0.156	-0.200
-514.858	-200.000	-0.008	0.431
-513.843	-200.000	0.028	0.214
-512.829	-122.045	-0.090	0.015
-511.814	105.184	0.219	0.262
-510.799	-149.021	0.025	0.002
-509.785	-74.549	-0.071	-0.026
-508.770	146.939	-0.113	0.154
-507.756	-36.742	-0.216	0.118
-506.741	800.000	-0.059	0.177
-505.726	-86.025	-0.425	0.133
-504.712	-142.896	0.170	-0.017
-503.697	-200.000	-0.002	-0.017
-502.683	162.327	0.116	0.165
-501.668	119.604	-0.096	0.121
-500.653	-200.000	-0.034	-0.222
-499.639	-130.221	0.299	-0.041
-498.624	800.000	0.098	0.278
-497.610	-200.000	-0.017	0.164
-496.595	-150.007	-0.239	-0.019
-495.581	800.000	-0.077	-0.229
-494.566	163.199	-0.199	-0.283
-493.551	-200.000	0.026	-0.165
-492.537	800.000	0.012	0.038
-491.522	12.687	0.185	-0.145
-490.508	-38.877	0.265	-0.142
-489.493	-170.113	0.097	-0.003
-488.478	-56.375	0.251	-0.113
-487.464	139.354	-0.005	0.007
-486.449	-139.628	0.273	0.030
-485.435	98.772	0.073	0.085
-484.420	0.775	-0.365	0.265
-483.405	144.001	0.069	0.093
-482.391	-19.979	0.233	0.146
-481.376	37.139	0.264	0.237
-480.362	156.594	-0.266	-0.373
-479.347	800.000	0.082	-0.273
-478.332	87.818	0.079	0.089
-477.318	800.000	0.083	0.255
-476.303	800.000	0.006	-0.018
-475.289	-96.644	0.479	-0.128
-474.274	-59.197	0.067	0.029
-473.259	264.984	0.134	-0.237
-472.245	-159.206	-0.255	-0.015
-471.230	89.987	0.089	0.101
-470.216	157.585	0.213	-0.299
-469.201	108.051	-0.042	-0.051
-468.186	120.102	-0.273	-0.343
-467.172	800.000	0.096	-0.283
-466.157	17.489	0.099	-0.080
-465.143	81.581	-0.067	0.073
-464.128	-200.000	-0.018	-0.209
-463.113	-43.009	0.377	0.194
-462.099	209.810	-0.171	0.272
-461.084	-200.000	0.049	0.224
-460.070	-200.000	0.001	0.147
-459.055	87.462	-0.110	0.124
-458.040	10.035	-0.299	-0.230
-457.026	-200.000	0.029	0.149
-456.011	-49.617	-0.184	0.089
-454.997	-200.000	-0.003	0.386
-453.982	-200.000	-0.028	0.236
-452.968	-5.811	0.131	-0.091
-451.953	-143.206	0.283	-0.028
-450.938	496.874	0.086	-0.201
-449.924	-110.712	-0.247	0.052
-448.909	-60.540	-0.124	-0.053
-447.895	110.858	-0.242	-0.295
-446.880	-200.000	0.063	-0.414
-445.865	-200.000	-0.089	-0.435
-444.851	-200.000	0.003	-0.126
-443.836	694.911	0.040	-0.106
-442.822	-200.000	0.001	-0.220
-441.807	-200.000	-0.013	0.082
-440.792	252.561	0.266	0.459
-439.778	-200.000	-0.009	0.194
-438.763	-143.016	0.211	-0.021
-437.749	151.344	0.179	-0.247
-436.734	-200.000	-0.040	-0.296
-435.719	-74.187	0.305	-0.112
-434.705	-200.000	0.025	0.360
-433.690	196.270	-0.099	0.153
-432.676	-58.247	0.263	-0.116
-431.661	-177.059	0.059	-0.002
-430.646	-182.750	-0.320	0.006
-429.632	800.000	0.092	0.256
-428.617	136.272	-0.277	0.365
-427.603	257.155	0.156	-0.271
-426.588	800.000	-0.119	0.335
-425.573	162.204	-0.066	0.093
-424.559	216.716	-0.075	-0.121
-423.544	405.297	0.104	0.223
-422.530	-93.548	0.310	0.087
-421.515	98.059	-0.073	-0.085
-420.500	-200.000	-0.006	-0.074
-419.486	-178.080	-0.019	-0.000
-418.471	-76.674	-0.232	0.082
-417.457	800.000	-0.087	-0.336
-416.442	800.000	-0.059	-0.187
-415.428	165.108	-0.175	-0.250
-414.413	-10.837	-0.380	-0.254
-413.398	-200.000	-0.034	-0.186
-412.384	30.516	0.372	0.322
-411.369	-156.986	-0.144	-0.009
-410.355	175.190	0.167	-0.245
-409.340	59.615	0.175	0.175
-408.325	-124.234	-0.417	-0.066
-407.311	800.000	0.115	-0.330
-406.296	180.980	0.020	-0.030
-405.282	-200.000	0.330	0.000
-404.267	-200.000	0.006	-0.147
-403.252	800.000	-0.044	0.148
-402.238	-200.000	-0.005	0.262
-401.223	16.231	0.182	0.145
-400.209	126.000	-0.245	-0.313
-399.194	52.435	-0.169	0.163
-398.179	36.349	-0.097	0.086
-397.165	-115.368	-0.283	-0.054
-396.150	19.426	-0.190	0.154
-395.136	247.044	-0.094	0.160
-394.121	14.040	-0.239	0.188
-393.106	468.425	-0.122	0.276
-392.092	46.512	-0.068	-0.064
-391.077	-129.765	-0.230	-0.032
-390.063	800.000	-0.123	-0.385
-389.048	-25.907	0.238	-0.142
-388.033	-38.959	-0.122	0.065
-387.019	-183.925	0.193	-0.003
-386.004	-200.000	-0.049	-0.272
-384.990	-162.220	-0.185	0.009
-383.975	45.665	0.212	0.198
-382.960	-56.814	0.220	-0.098
-381.946	-138.094	-0.110	0.012
-380.931	38.545	-0.040	-0.036
-379.917	-200.000	0.025	0.130
-378.902	-200.000	-0.045	-0.215
-377.888	-23.220	-0.200	-0.121
-376.873	-126.555	0.507	-0.076
-375.858	-200.000	0.034	0.456
-374.844	800.000	0.071	-0.209
-373.829	52.377	0.127	-0.122
-372.815	17.510	-0.151	-0.121
-371.800	194.649	0.051	0.079
-370.785	-115.439	-0.358	-0.068
-369.771	-32.625	-0.348	0.196
-368.756	18.091	0.184	0.148
-367.742	-123.670	-0.296	-0.047
-366.727	188.066	-0.149	0.224
-365.712	-16.398	0.243	-0.156
-364.698	-52.308	0.088	0.041
-363.683	4.151	-0.080	0.059
-362.669	-200.000	-0.049	-0.225
-361.654	800.000	-0.079	0.222
-360.639	-165.809	0.157	0.007
-359.625	123.227	0.180	-0.228
-358.610	211.732	0.203	-0.323
-357.596	-200.000	-0.044	0.254
-356.581	-154.628	-0.344	0.023
-355.566	7.777	0.214	0.162
-354.552	284.752	-0.138	0.250
-353.537	65.966	-0.077	-0.079
-352.523	148.232	0.134	0.182
-351.508	225.438	0.094	0.154
-350.493	-25.598	-0.038	0.023
-349.479	159.211	0.102	-0.143
-348.464	52.645	-0.163	-0.157
-347.450	-161.351	0.410	0.021
-346.435	461.715	0.066	0.148
-345.420	-200.000	0.090	-0.000
-344.406	-27.445	0.045	-0.026
-343.391	-200.000	-0.043	0.254
-342.377	-9.146	0.071	-0.048
-341.362	-9.553	0.158	0.106
-340.348	41.947	0.176	0.161
-339.333	-37.082	0.121	0.065
-338.318	-138.389	-0.380	-0.042
-337.304	-22.288	-0.314	-0.192
-336.289	800.000	0.090	0.323
-335.275	127.758	-0.074	-0.095
-334.260	-5.122	-0.301	-0.209
-333.245	93.329	0.106	0.121
-332.231	-200.000	-0.077	-0.343
-331.216	687.375	0.112	-0.296
-330.202	83.302	0.048	0.053
-329.187	665.259	0.048	-0.125
-328.172	-89.909	-0.075	-0.022
-327.158	800.000	-0.035	-0.113
-326.143	-8.915	0.291	0.197
-325.129	200.481	-0.011	0.016
-324.114	-200.000	-0.017	-0.222
-323.099	89.175	0.123	-0.138
-322.085	-165.787	0.274	-0.012
-321.070	195.389	-0.176	0.270
-320.056	800.000	-0.045	0.162
-319.041	28.973	-0.215	-0.183
-318.026	800.000	-0.066	-0.193
-317.012	121.819	-0.023	0.029
-315.997	637.468	-0.058	-0.149
-314.983	152.454	-0.126	-0.174
-313.968	172.145	0.109	-0.158
-312.953	-34.992	0.100	-0.055
-311.939	495.412	-0.032	0.075
-310.924	39.890	-0.310	0.281
-309.910	-143.893	-0.114	-0.011
-308.895	-9.068	-0.232	0.156
-307.880	-55.192	0.084	0.038
-306.866	43.961	0.075	-0.070
-305.851	-49.917	-0.034	0.016
-304.837	-54.650	-0.071	0.032
-303.822	-133.297	0.263	0.033
-302.807	127.335	-0.113	0.144
-301.793	147.450	-0.007	-0.010
-300.778	-2.249	-0.349	-0.246
-299.764	-200.000	-0.010	-0.216
-298.749	-143.299	0.363	-0.035
-297.735	800.000	0.008	0.030
-296.720	34.627	0.058	0.051
-295.705	219.676	0.206	-0.332
-294.691	-28.891	-0.110	-0.064
-293.676	342.433	-0.124	0.244
-292.662	-200.000	0.013	0.130
-291.647	-200.000	0.015	0.310
-290.632	-157.249	0.254	-0.016
-289.618	-200.000	-0.010	0.129
-288.603	800.000	0.063	0.185
-287.589	-82.093	0.306	0.101
-286.574	-200.000	0.008	0.183
-285.559	393.419	0.157	0.329
-284.545	398.576	-0.081	-0.170
-283.530	-133.594	0.201	0.025
-282.516	247.737	-0.111	0.188
-281.501	-36.268	0.358	-0.195
-280.486	190.077	0.115	-0.174
-279.472	-57.816	-0.190	-0.084
-278.457	250.867	0.121	-0.207
-277.443	-200.000	-0.007	-0.080
-276.428	483.089	-0.065	-0.148
-275.413	-141.457	0.519	-0.053
-274.399	-200.000	-0.030	-0.196
-273.384	43.251	-0.113	-0.103
-272.370	-73.187	-0.189	0.070
-271.355	-200.000	0.070	0.319
-270.340	10.839	0.056	-0.043
-269.326	585.726	0.084	-0.207
-268.311	85.977	-0.163	-0.180
-267.297	-200.000	-0.021	-0.193
-266.282	116.173	0.184	0.226
-265.267	-91.346	-0.013	0.004
-264.253	800.000	-0.031	0.089
-263.238	-97.476	-0.174	-0.046
-262.224	-126.803	0.109	0.016
-261.209	375.005	-0.119	-0.244
-260.195	-27.735	-0.170	-0.099
-259.180	-200.000	-0.018	-0.139
-258.165	4.601	0.268	0.198
-257.151	369.240	0.246	0.501
-256.136	-3.869	-0.125	0.087
-255.122	32.947	-0.131	0.114
-254.107	116.890	-0.148	0.182
-253.092	-19.480	-0.090	-0.056
-252.078	19.264	0.282	0.228
-251.063	269.035	-0.051	0.091
-250.049	-144.072	-0.558	-0.053
-249.034	20.507	-0.144	0.117
-248.019	-62.102	0.214	0.090
-247.005	23.319	0.196	0.162
-245.990	102.111	0.208	0.244
-244.976	-43.737	-0.111	-0.056
-243.961	-104.778	0.272	0.063
-242.946	-104.828	0.073	0.017
-241.932	-144.561	0.066	0.006
-240.917	21.504	0.105	0.086
-239.903	22.596	0.286	-0.235
-238.888	5.056	-0.112	0.083
-237.873	-94.483	-0.041	0.011
-236.859	-33.918	-0.200	-0.111
-235.844	169.049	-0.159	-0.228
-234.830	800.000	-0.074	0.272
-233.815	1.616	0.303	-0.219
-232.800	-52.173	0.187	0.087
-231.786	800.000	0.065	0.264
-230.771	120.829	-0.101	-0.126
-229.757	800.000	0.058	-0.217
-228.742	116.719	0.127	0.157
-227.727	40.719	-0.235	-0.212
-226.713	-184.795	0.240	0.004
-225.698	481.604	0.107	0.243
-224.684	320.977	-0.060	-0.114
-223.669	100.213	-0.168	-0.196
-222.655	295.152	0.109	-0.200
-221.640	-38.245	0.075	-0.040
-220.625	-173.408	0.283	0.009
-219.611	18.696	-0.194	0.156
-218.596	68.186	-0.160	0.164
-217.582	76.305	-0.097	-0.103
-216.567	-11.242	-0.134	-0.089
-215.552	-154.640	-0.210	-0.014
-214.538	-36.405	0.062	0.033
-213.523	-30.909	0.047	-0.027
-212.509	140.762	-0.075	0.100
-211.494	-65.691	-0.057	-0.023
-210.479	127.085	-0.109	-0.139
-209.465	-200.000	0.016	0.208
-208.450	-23.938	0.323	0.194
-207.436	36.428	-0.353	0.313
-206.421	437.138	-0.134	0.293
-205.406	125.287	-0.219	0.277
-204.392	-122.656	0.432	0.070
-203.377	25.801	-0.392	0.328
-202.363	-197.428	-0.050	-0.000
-201.348	162.499	-0.096	-0.136
-200.333	-104.749	0.370	0.085
-199.319	-2.552	0.293	0.206
-198.304	800.000	-0.040	0.167
-197.290	800.000	0.064	-0.225
-196.275	27.579	-0.331	0.279
-195.260	177.561	0.237	-0.346
-194.246	-87.797	0.086	-0.026
-193.231	-23.634	-0.299	0.180
-192.217	-27.918	-0.158	-0.092
-191.202	437.887	0.052	0.113
-190.187	218.041	-0.043	-0.069
-189.173	-200.000	-0.009	-0.048
-188.158	43.409	0.139	-0.128
-187.144	800.000	0.070	0.205
-186.129	-200.000	0.000	0.051
-185.114	-200.000	0.002	-0.082
-184.100	61.695	-0.130	-0.129
-183.085	124.798	0.097	-0.123
-182.071	-200.000	-0.053	0.308
-181.056	132.787	0.102	-0.131
-180.042	326.061	0.138	0.265
-179.027	-102.825	-0.145	0.035
-178.012	64.677	-0.223	-0.225
-176.998	800.000	0.037	0.126
-175.983	-116.156	0.630	-0.117
-174.969	-63.775	-0.079	0.032
-173.954	206.597	-0.251	0.392
-172.939	-141.720	0.178	-0.018
-171.925	-46.903	0.318	0.156
-170.910	194.066	0.067	-0.102
-169.896	118.087	-0.087	-0.107
-168.881	-129.070	0.303	0.043
-167.866	-115.723	0.199	0.037
-166.852	-54.273	-0.228	-0.104
-165.837	69.946	-0.009	-0.010
-164.823	-96.606	-0.248	0.065
-163.808	1.979	0.359	0.260
-162.793	256.298	0.140	-0.241
-161.779	200.803	-0.073	0.113
-160.764	-87.328	0.129	0.039
-159.750	-200.000	-0.067	0.348
-158.735	-200.000	0.024	-0.237
-157.720	-23.528	0.162	0.097
-156.706	-140.415	0.146	0.015
-155.691	800.000	0.043	0.120
-154.677	103.101	-0.119	0.140
-153.662	800.000	0.048	-0.173
-152.647	337.701	0.206	-0.401
-151.633	25.096	0.022	-0.018
-150.618	-200.000	0.013	0.272
-149.604	537.603	0.100	0.238
-148.589	-50.629	-0.090	0.042
-147.574	206.098	-0.124	0.193
-146.560	185.793	0.100	-0.149
-145.545	-200.000	0.011	-0.110
-144.531	-73.744	0.144	-0.053
-143.516	190.001	-0.178	0.268
-142.502	-110.458	-0.066	0.014
-141.487	-200.000	-0.013	-0.215
-140.472	336.899	0.082	0.159
-139.458	-93.667	-0.165	-0.046
-138.443	-10.478	0.232	-0.154
-137.429	14.535	0.054	-0.042
-136.414	240.448	0.236	-0.394
-135.399	-114.571	-0.013	0.003
-134.385	-82.566	0.216	-0.070
-133.370	116.688	-0.242	-0.297
-132.356	42.273	-0.135	-0.123
-131.341	47.609	-0.034	0.031
-130.326	-200.000	0.005	-0.038
-129.312	-56.942	-0.177	0.078
-128.297	-150.028	0.148	-0.012
-127.283	3.047	-0.250	0.182
-126.268	151.067	0.080	-0.109
-125.253	4.147	0.093	-0.068
-124.239	-92.178	-0.021	0.006
-123.224	-58.069	-0.078	-0.034
-122.210	-92.900	-0.116	0.032
