DTS Sentinel unit serial number:	SN413079Multiplexer serial number:	ORYXHardware model number:	OX4-SRSoftware version number:	ORYX F/W v4.00 Oryx Data Collector v3.7.2.0data status	okinstallation	princeton_trtdifferential loss correction	single-endedforward channel	channel 1reverse channel	N/Adate	2019/09/13time	12:42:35forward acquisition time	60.00reverse acquisition time	0.00gamma	496.2192k internal	0.2305k external	0.2305temperature offset calibration	1.0168default loss term (dB/km)	0.3790temperature slope calibration	1.0000multiplexer offset coefficient	1.0000multiplexer slope coefficient	1.0000fibre end	0.00T internal ref (°C)	34.67T ext. ref 1 (°C)	4.59T ext. ref 2 (°C)	31.04length (m)	temperature (°C)	Stokes	anti-Stokes-747.200	-60.788	0.365	-0.158
-746.185	20.763	-0.326	0.269
-745.171	-85.222	0.320	0.102
-744.156	286.014	0.207	0.380
-743.142	-52.864	-0.161	-0.076
-742.127	397.205	0.087	0.186
-741.112	-109.247	0.194	-0.042
-740.098	761.444	0.161	0.445
-739.083	-50.419	-0.164	0.079
-738.069	-60.882	-0.142	-0.061
-737.054	-65.923	0.117	0.048
-736.039	-200.000	-0.043	0.434
-735.025	-70.230	0.396	0.153
-734.010	-124.051	-0.353	-0.056
-732.996	52.896	-0.280	0.272
-731.981	126.693	0.342	0.441
-730.966	-152.727	0.150	0.011
-729.952	800.000	-0.035	0.112
-728.937	119.179	-0.200	0.252
-727.923	-16.994	-0.468	-0.301
-726.908	-120.662	0.151	-0.026
-725.894	-53.439	0.325	-0.151
-724.879	-200.000	-0.019	0.158
-723.864	-200.000	0.001	0.185
-722.850	-41.575	0.067	0.035
-721.835	197.612	0.094	0.145
-720.821	-93.738	-0.254	-0.071
-719.806	-35.130	-0.278	-0.154
-718.791	800.000	-0.070	-0.262
-717.777	9.677	0.193	0.149
-716.762	800.000	0.098	0.306
-715.748	79.806	0.096	-0.105
-714.733	-200.000	-0.021	-0.128
-713.718	-200.000	0.100	-0.557
-712.704	40.199	0.097	0.088
-711.689	324.052	0.122	-0.236
-710.675	5.180	0.337	-0.252
-709.660	-58.010	-0.081	0.036
-708.645	-96.445	0.249	-0.067
-707.631	-120.111	-0.398	-0.069
-706.616	-108.584	-0.259	-0.056
-705.602	11.555	0.227	-0.177
-704.587	-63.143	0.095	-0.040
-703.572	-157.135	0.357	-0.022
-702.558	800.000	-0.055	-0.155
-701.543	151.941	0.098	-0.135
-700.529	-44.512	-0.171	0.087
-699.514	-79.459	-0.180	-0.062
-698.499	800.000	-0.035	-0.100
-697.485	107.283	-0.103	-0.125
-696.470	-98.261	0.108	0.028
-695.456	210.883	-0.196	0.314
-694.441	-200.000	-0.086	0.469
-693.426	-200.000	-0.014	0.113
-692.412	-18.571	-0.335	0.213
-691.397	-126.046	0.265	-0.040
-690.383	-30.308	0.362	0.209
-689.368	800.000	0.024	0.090
-688.354	46.400	0.130	0.122
-687.339	-29.270	-0.106	0.062
-686.324	524.655	0.082	-0.195
-685.310	-125.036	-0.158	-0.025
-684.295	-122.562	-0.457	-0.075
-683.281	-200.000	-0.013	0.195
-682.266	-33.377	-0.059	-0.033
-681.251	84.511	-0.113	0.125
-680.237	31.660	0.288	-0.252
-679.222	-135.486	-0.253	0.031
-678.208	-115.055	-0.197	0.038
-677.193	-136.866	0.184	-0.021
-676.178	-200.000	0.012	-0.062
-675.164	411.193	-0.106	-0.228
-674.149	-14.312	0.259	0.170
-673.135	-127.874	-0.245	-0.036
-672.120	-88.998	0.232	0.070
-671.105	-200.000	-0.005	-0.141
-670.091	-121.042	-0.125	0.021
-669.076	13.878	-0.064	-0.051
-668.062	-200.000	-0.063	-0.340
-667.047	213.486	0.039	0.062
-666.032	-200.000	-0.027	-0.123
-665.018	-134.567	-0.269	-0.033
-664.003	800.000	0.021	-0.092
-662.989	-200.000	-0.008	0.134
-661.974	-23.433	0.098	0.060
-660.959	-115.890	0.527	-0.100
-659.945	54.985	-0.269	0.264
-658.930	-56.289	-0.041	0.019
-657.916	-200.000	-0.001	0.128
-656.901	-138.870	0.172	0.019
-655.886	169.997	-0.149	-0.217
-654.872	-45.236	0.201	0.101
-653.857	-67.572	-0.228	-0.091
-652.843	183.479	0.089	0.133
-651.828	-59.584	0.391	0.170
-650.814	71.585	-0.148	0.156
-649.799	-113.506	0.085	0.017
-648.784	0.750	0.075	0.054
-647.770	800.000	-0.047	-0.166
-646.755	182.592	-0.091	-0.136
-645.741	252.362	0.228	-0.393
-644.726	-103.291	-0.141	0.034
-643.711	-77.229	-0.184	-0.065
-642.697	-69.664	-0.190	0.074
-641.682	-29.868	0.163	-0.094
-640.668	-82.913	-0.241	0.079
-639.653	419.116	0.107	-0.232
-638.638	413.087	-0.165	0.355
-637.624	-67.434	-0.431	0.172
-636.609	-85.837	0.142	-0.044
-635.595	-9.180	0.264	0.179
-634.580	434.901	0.109	-0.240
-633.565	800.000	0.130	-0.491
-632.551	271.535	-0.227	-0.405
-631.536	-58.241	-0.258	-0.114
-630.522	-30.570	0.378	0.217
-629.507	165.142	0.152	0.218
-628.492	-27.709	-0.310	-0.182
-627.478	-30.056	-0.247	0.142
-626.463	305.816	0.054	0.102
-625.449	800.000	-0.017	-0.061
-624.434	-200.000	-0.030	0.202
-623.419	53.586	0.206	-0.200
-622.405	398.843	-0.051	0.108
-621.390	-10.780	0.077	0.052
-620.376	457.934	-0.102	0.229
-619.361	-61.182	-0.218	0.093
-618.346	-200.000	0.010	0.059
-617.332	-22.588	-0.219	0.134
-616.317	-88.875	-0.185	-0.055
-615.303	467.191	-0.069	-0.157
-614.288	-95.491	0.068	0.019
-613.273	800.000	0.007	0.029
-612.259	59.992	0.133	-0.133
-611.244	345.575	0.043	0.087
-610.230	564.915	-0.117	-0.288
-609.215	800.000	0.019	0.082
-608.201	73.320	-0.334	-0.354
-607.186	602.207	0.115	-0.290
-606.171	8.149	-0.313	-0.238
-605.157	289.138	0.015	0.028
-604.142	-136.611	0.315	-0.037
-603.128	364.073	0.165	0.335
-602.113	320.138	0.057	0.110
-601.098	-69.731	-0.177	-0.069
-600.084	-33.225	0.181	-0.102
-599.069	94.906	-0.057	0.066
-598.055	66.629	0.259	-0.266
-597.040	800.000	-0.054	-0.213
-596.025	-200.000	0.022	0.194
-595.011	10.336	0.053	-0.041
-593.996	50.054	-0.131	0.125
-592.982	46.225	0.158	-0.149
-591.967	262.127	-0.078	-0.137
-590.952	-89.327	0.164	0.049
-589.938	-22.552	0.094	0.057
-588.923	-200.000	-0.026	-0.204
-587.909	-98.401	-0.221	0.057
-586.894	-85.555	-0.393	-0.124
-585.879	-14.217	0.124	-0.081
-584.865	-53.757	-0.242	0.112
-583.850	-28.791	0.262	0.152
-582.836	33.013	-0.063	-0.055
-581.821	12.649	0.224	-0.175
-580.806	127.064	0.089	-0.114
-579.792	800.000	-0.130	-0.374
-578.777	481.802	0.117	-0.269
-577.763	-200.000	-0.024	-0.171
-576.748	-15.060	0.066	0.043
-575.733	-128.405	0.247	-0.036
-574.719	-61.524	-0.142	-0.060
-573.704	800.000	0.042	-0.122
-572.690	145.334	-0.051	0.069
-571.675	-200.000	-0.008	0.108
-570.661	-25.727	0.283	-0.169
-569.646	32.926	-0.159	-0.139
-568.631	87.098	0.171	0.191
-567.617	-28.709	0.306	0.178
-566.602	-69.785	-0.357	-0.138
-565.588	35.369	0.195	0.173
-564.573	-200.000	0.011	0.060
-563.558	367.028	0.114	0.233
-562.544	-79.740	0.090	0.031
-561.529	-135.110	-0.196	0.024
-560.515	-74.883	0.256	0.093
-559.500	110.251	-0.136	-0.165
-558.485	21.296	-0.227	0.187
-557.471	800.000	0.019	0.074
-556.456	-112.996	0.169	0.034
-555.442	-200.000	-0.049	-0.333
-554.427	-76.717	-0.253	-0.090
-553.412	-10.477	-0.129	0.086
-552.398	180.696	0.065	-0.096
-551.383	-200.000	0.019	0.167
-550.369	-63.952	0.138	0.057
-549.354	67.032	-0.035	-0.036
-548.339	442.374	0.095	-0.210
-547.325	-200.000	-0.006	0.123
-546.310	-129.297	-0.388	-0.055
-545.296	-14.427	0.172	-0.112
-544.281	23.371	0.422	0.350
-543.266	135.643	-0.040	-0.053
-542.252	800.000	0.057	0.232
-541.237	71.860	0.054	0.056
-540.223	-7.452	-0.100	-0.068
-539.208	-200.000	0.014	0.270
-538.193	-65.805	0.040	-0.016
-537.179	61.528	-0.015	0.015
-536.164	-157.874	0.296	0.018
-535.150	113.929	0.032	-0.039
-534.135	113.570	-0.098	-0.120
-533.121	800.000	-0.060	0.212
-532.106	-68.838	0.090	-0.035
-531.091	-36.157	-0.120	0.065
-530.077	734.756	-0.088	0.238
-529.062	-153.343	-0.519	-0.036
-528.048	-140.260	-0.159	-0.017
-527.033	800.000	-0.062	0.272
-526.018	-15.719	0.184	0.118
-525.004	-75.000	0.237	-0.086
-523.989	-92.106	-0.125	-0.036
-522.975	86.360	-0.186	0.207
-521.960	-5.779	0.290	0.201
-520.945	-2.141	-0.214	-0.152
-519.931	800.000	0.074	0.280
-518.916	53.658	-0.248	0.240
-517.902	93.949	0.188	-0.215
-516.887	-1.876	0.318	-0.225
-515.872	64.554	-0.248	0.252
-514.858	-66.231	0.135	-0.054
-513.843	783.601	0.012	0.033
-512.829	-200.000	0.038	0.228
-511.814	118.131	0.216	-0.269
-510.799	-121.191	0.187	0.032
-509.785	-200.000	0.041	-0.231
-508.770	265.882	0.107	-0.188
-507.756	46.617	-0.274	0.256
-506.741	37.248	-0.110	-0.098
-505.726	158.329	-0.246	0.345
-504.712	-15.170	-0.042	0.027
-503.697	10.723	-0.128	-0.099
-502.683	-200.000	0.028	-0.302
-501.668	-120.296	-0.298	0.051
-500.653	800.000	0.068	0.196
-499.639	-44.078	-0.152	0.077
-498.624	-166.311	-0.212	-0.009
-497.610	-112.441	-0.144	-0.029
-496.595	-86.397	0.177	-0.055
-495.581	23.955	0.058	0.048
-494.566	-200.000	-0.001	-0.029
-493.551	19.580	0.291	-0.236
-492.537	470.494	0.128	-0.291
-491.522	131.685	0.078	-0.101
-490.508	150.551	0.181	0.248
-489.493	-27.917	0.139	0.081
-488.478	-200.000	0.027	0.330
-487.464	30.572	-0.185	0.160
-486.449	-200.000	-0.000	0.018
-485.435	122.545	0.322	0.406
-484.420	-102.980	0.255	0.061
-483.405	-129.508	0.352	0.049
-482.391	-137.786	-0.215	0.024
-481.376	-26.079	-0.101	-0.060
-480.362	17.547	0.334	-0.268
-479.347	50.285	-0.195	-0.186
-478.332	-200.000	-0.072	-0.386
-477.318	-200.000	-0.025	-0.183
-476.303	-120.379	-0.561	0.096
-475.289	34.449	0.195	0.172
-474.274	89.255	-0.115	-0.129
-473.259	-200.000	-0.040	-0.363
-472.245	-20.075	0.074	-0.046
-471.230	800.000	-0.059	0.199
-470.216	800.000	-0.116	-0.330
-469.201	116.850	-0.015	0.018
-468.186	800.000	0.025	0.084
-467.172	15.972	0.165	0.131
-466.157	-200.000	-0.002	0.117
-465.143	-26.119	-0.042	0.025
-464.128	-64.969	-0.069	0.028
-463.113	499.148	-0.011	-0.026
-462.099	-70.770	0.333	-0.127
-461.084	80.029	-0.196	0.212
-460.070	800.000	-0.016	-0.053
-459.055	11.888	-0.133	0.103
-458.040	46.484	-0.120	0.112
-457.026	-200.000	-0.003	0.017
-456.011	35.838	-0.283	-0.251
-454.997	-152.705	-0.074	-0.005
-453.982	101.558	-0.132	-0.155
-452.968	-106.738	-0.301	-0.067
-451.953	-200.000	0.001	0.164
-450.938	-72.491	0.235	0.087
-449.924	-147.928	-0.035	-0.003
-448.909	53.133	0.154	0.148
-447.895	188.913	0.126	-0.189
-446.880	272.079	-0.178	0.317
-445.865	145.499	0.026	-0.035
-444.851	-91.711	-0.167	0.048
-443.836	-108.003	-0.247	-0.054
-442.822	46.219	0.063	0.059
-441.807	-63.462	-0.195	0.081
-440.792	24.581	0.042	-0.035
-439.778	354.647	-0.138	0.276
-438.763	-34.508	0.305	0.168
-437.749	12.180	-0.116	-0.090
-436.734	-200.000	-0.062	-0.431
-435.719	-140.208	-0.209	-0.022
-434.705	800.000	0.090	0.308
-433.690	-46.890	-0.321	0.158
-432.676	-133.420	-0.281	0.036
-431.661	-200.000	-0.045	0.221
-430.646	-168.889	0.194	0.007
-429.632	-64.190	-0.116	-0.047
-428.617	-103.150	0.433	0.103
-427.603	92.872	0.142	-0.161
-426.588	50.649	0.459	0.437
-425.573	9.250	-0.065	0.050
-424.559	310.582	-0.112	0.210
-423.544	-92.435	0.008	0.002
-422.530	-1.222	0.104	-0.074
-421.515	180.702	0.255	0.377
-420.500	143.998	-0.031	-0.042
-419.486	-11.678	0.087	0.057
-418.471	-102.980	-0.174	0.042
-417.457	-200.000	0.063	0.356
-416.442	145.469	-0.116	-0.156
-415.428	800.000	-0.064	0.186
-414.413	492.419	-0.032	0.073
-413.398	-22.171	0.251	-0.153
-412.384	394.730	-0.078	0.164
-411.369	-100.780	-0.197	0.049
-410.355	97.394	-0.242	-0.279
-409.340	139.851	0.078	0.103
-408.325	265.100	0.074	-0.129
-407.311	800.000	-0.129	-0.432
-406.296	-144.021	0.134	0.013
-405.282	15.837	0.135	-0.107
-404.267	-21.538	-0.265	-0.162
-403.252	102.684	0.277	0.325
-402.238	-65.899	-0.160	0.064
-401.223	-200.000	0.016	-0.453
-400.209	800.000	0.089	-0.284
-399.194	-41.568	-0.234	-0.121
-398.179	-200.000	-0.011	-0.082
-397.165	-151.295	-0.204	0.015
-396.150	23.398	0.164	-0.135
-395.136	-200.000	-0.035	-0.213
-394.121	4.731	0.119	-0.087
-393.106	753.217	-0.071	-0.192
-392.092	-177.171	-0.157	0.004
-391.077	-200.000	0.000	0.182
-390.063	30.394	0.094	-0.080
-389.048	255.149	0.133	0.228
-388.033	-111.661	0.358	0.073
-387.019	-105.164	0.169	-0.039
-386.004	-172.757	-0.319	0.010
-384.990	401.932	-0.121	0.255
-383.975	107.001	0.150	-0.179
-382.960	332.064	-0.117	0.226
-381.946	11.026	0.099	-0.076
-380.931	-137.672	0.366	0.041
-379.917	266.437	0.109	-0.190
-378.902	63.104	0.230	0.231
-377.888	-127.185	0.166	-0.024
-376.873	-8.875	-0.029	-0.019
-375.858	-182.719	0.274	-0.005
-374.844	-3.517	-0.169	0.118
-373.829	17.631	-0.233	0.186
-372.815	320.258	-0.014	-0.027
-371.800	88.722	-0.255	-0.285
-370.785	-104.468	0.295	-0.069
-369.771	14.914	-0.173	-0.136
-368.756	-94.694	-0.396	0.108
-367.742	122.494	-0.152	-0.190
-366.727	800.000	-0.039	-0.133
-365.712	800.000	0.048	0.167
-364.698	800.000	-0.029	0.127
-363.683	800.000	-0.051	-0.182
-362.669	-200.000	-0.025	0.182
-361.654	-96.371	-0.144	0.038
-360.639	414.800	0.116	0.247
-359.625	-69.988	-0.039	0.015
-358.610	25.534	-0.351	0.293
-357.596	552.732	-0.104	-0.250
-356.581	546.061	-0.132	-0.317
-355.566	10.064	0.220	0.167
-354.552	-29.140	0.132	0.076
-353.537	-200.000	0.002	0.072
-352.523	321.033	-0.094	-0.180
-351.508	-140.953	0.110	-0.011
-350.493	234.838	-0.024	-0.039
-349.479	-79.507	0.510	0.173
-348.464	-200.000	-0.008	-0.106
-347.450	-186.864	-0.272	-0.004
-346.435	-160.351	0.263	-0.014
-345.420	-200.000	0.012	0.076
-344.406	375.889	0.115	-0.235
-343.391	-200.000	-0.001	0.281
-342.377	-49.638	-0.183	0.087
-341.362	12.175	0.322	0.248
-340.348	88.917	0.088	0.098
-339.333	-61.693	-0.057	0.024
-338.318	-156.177	0.253	-0.016
-337.304	-51.273	0.057	-0.027
-336.289	-26.998	0.072	-0.042
-335.275	800.000	-0.089	0.327
-334.260	185.435	-0.144	-0.215
-333.245	-200.000	-0.050	-0.251
-332.231	284.980	-0.136	-0.245
-331.216	52.604	-0.073	-0.070
-330.202	800.000	0.033	-0.136
-329.187	69.885	-0.260	-0.268
-328.172	239.314	0.181	0.302
-327.158	800.000	-0.023	0.091
-326.143	620.982	-0.032	0.082
-325.129	67.611	-0.250	0.256
-324.114	28.282	-0.142	-0.120
-323.099	148.291	-0.136	-0.184
-322.085	-13.587	0.230	0.149
-321.070	177.925	0.161	-0.236
-320.056	-8.434	0.235	0.159
-319.041	-200.000	-0.026	-0.158
-318.026	-200.000	-0.005	-0.085
-317.012	-200.000	-0.038	-0.245
-315.997	440.782	-0.081	-0.177
-314.983	-200.000	-0.039	0.256
-313.968	-111.098	-0.208	-0.043
-312.953	-88.731	-0.270	0.080
-311.939	170.131	0.074	-0.106
-310.924	-200.000	0.037	0.252
-309.910	-19.447	-0.085	-0.053
-308.895	5.387	0.195	-0.144
-307.880	-200.000	0.007	-0.258
-306.866	-19.046	-0.222	0.138
-305.851	319.912	0.154	0.293
-304.837	-34.072	-0.076	-0.042
-303.822	8.232	-0.128	0.096
-302.807	88.123	-0.141	0.156
-301.793	-27.865	-0.181	-0.105
-300.778	69.767	0.243	-0.251
-299.764	677.094	0.099	-0.259
-298.749	-200.000	0.018	-0.130
-297.735	800.000	0.065	-0.247
-296.720	-54.035	0.238	0.108
-295.705	-200.000	-0.018	0.246
-294.691	131.161	-0.089	-0.114
-293.676	740.440	0.068	0.183
-292.662	39.043	0.271	-0.243
-291.647	18.176	-0.042	-0.033
-290.632	-97.973	-0.153	-0.039
-289.618	25.872	0.032	-0.026
-288.603	-78.774	0.035	-0.012
-287.589	800.000	-0.069	-0.240
-286.574	800.000	-0.009	0.032
-285.559	108.738	0.314	-0.375
-284.545	106.615	-0.102	-0.121
-283.530	-65.719	0.408	0.163
-282.516	-200.000	0.006	0.088
-281.501	-47.708	0.135	0.065
-280.486	200.604	0.130	-0.200
-279.472	-155.488	0.126	-0.008
-278.457	-200.000	-0.030	0.206
-277.443	-13.631	0.087	0.057
-276.428	2.535	0.086	-0.062
-275.413	-200.000	-0.009	0.202
-274.399	555.526	-0.110	0.265
-273.384	349.241	-0.321	0.633
-272.370	168.008	0.123	-0.175
-271.355	-200.000	-0.069	0.319
-270.340	-79.480	-0.184	0.062
-269.326	-200.000	0.019	0.388
-268.311	-131.873	-0.297	0.039
-267.297	550.830	0.210	-0.503
-266.282	35.356	-0.136	0.119
-265.267	415.112	0.068	0.145
-264.253	-143.286	-0.259	0.025
-263.238	-105.363	0.151	0.034
-262.224	-27.472	0.114	0.066
-261.209	35.894	0.177	-0.155
-260.195	-108.201	-0.129	0.028
-259.180	-94.300	-0.322	-0.088
-258.165	-101.900	0.124	-0.030
-257.151	66.533	0.130	-0.132
-256.136	-140.715	0.201	-0.021
-255.122	494.761	0.049	-0.113
-254.107	-85.991	-0.243	-0.075
-253.092	-95.584	-0.067	-0.018
-252.078	-143.810	0.161	-0.015
-251.063	-108.703	0.176	-0.038
-250.049	-111.022	-0.144	0.029
-249.034	21.524	0.212	-0.172
-248.019	58.724	-0.065	0.064
-247.005	126.514	-0.089	-0.113
-245.990	-200.000	-0.003	-0.244
-244.976	800.000	0.051	0.170
-243.961	22.668	0.368	-0.300
-242.946	223.883	-0.040	-0.064
-241.932	800.000	0.081	0.303
-240.917	657.733	-0.034	0.087
-239.903	-128.261	-0.264	0.038
-238.888	-135.384	-0.257	0.031
-237.873	-27.116	0.124	-0.072
-236.859	-40.490	0.339	-0.176
-235.844	25.771	-0.133	-0.111
-234.830	-53.338	0.158	-0.072
-233.815	1.434	-0.355	-0.255
-232.800	-200.000	0.011	0.189
-231.786	-45.851	0.075	0.037
-230.771	221.426	0.092	-0.148
-229.757	-200.000	-0.057	0.334
-228.742	-116.362	-0.364	0.067
-227.727	800.000	0.094	0.296
-226.713	338.158	0.181	-0.351
-225.698	39.234	0.221	-0.197
-224.684	166.357	0.110	-0.156
-223.669	-38.909	0.184	-0.097
-222.655	116.970	0.128	0.157
-221.640	129.856	0.134	0.170
-220.625	-145.673	0.253	-0.023
-219.611	101.904	0.128	0.149
-218.596	-200.000	0.006	-0.156
-217.582	-109.764	-0.155	-0.032
-216.567	-45.481	-0.117	0.058
-215.552	-200.000	-0.012	-0.154
-214.538	-200.000	0.015	0.189
-213.523	-119.338	0.160	0.028
-212.509	-56.331	0.158	0.070
-211.494	-200.000	-0.016	-0.273
-210.479	23.569	0.055	0.045
-209.465	-200.000	-0.017	-0.271
-208.450	-99.746	-0.299	-0.075
-207.436	-86.768	0.258	0.079
-206.421	-59.717	-0.213	-0.091
-205.406	-49.104	0.142	0.068
-204.392	-83.452	-0.123	0.039
-203.377	239.538	0.186	0.308
-202.363	-22.112	0.306	-0.185
-201.348	-200.000	0.108	0.558
-200.333	63.120	0.341	0.341
-199.319	28.571	-0.328	-0.277
-198.304	-26.865	-0.068	0.040
-197.290	-128.660	0.014	0.002
-196.275	59.448	0.367	-0.361
-195.260	155.099	-0.083	0.113
-194.246	19.264	0.078	-0.063
-193.231	48.639	-0.126	-0.118
-192.217	-47.712	-0.252	0.122
-191.202	56.319	0.180	0.174
-190.187	-25.365	-0.249	0.147
-189.173	-102.591	0.339	0.081
-188.158	800.000	0.044	0.169
-187.144	800.000	-0.123	-0.349
-186.129	-200.000	-0.001	-0.244
-185.114	-66.814	-0.322	-0.127
-184.100	-14.413	0.190	-0.122
-183.085	-90.853	-0.138	-0.040
-182.071	-164.895	-0.484	0.022
-181.056	123.500	-0.141	0.176
-180.042	-104.006	0.048	0.011
-179.027	287.619	0.080	-0.145
-178.012	800.000	-0.030	-0.127
-176.998	250.913	-0.055	-0.093
-175.983	-92.432	-0.226	0.063
-174.969	-200.000	-0.006	0.441
-173.954	-104.398	0.298	0.069
-172.939	250.729	0.200	-0.338
-171.925	35.649	-0.137	-0.120
-170.910	800.000	-0.046	-0.132
-169.896	23.873	0.030	-0.025
-168.881	-200.000	-0.040	0.223
-167.866	-200.000	0.013	0.135
-166.852	99.601	-0.074	-0.085
-165.837	104.402	0.132	-0.155
-164.823	172.342	-0.070	0.100
-163.808	92.684	0.140	-0.158
-162.793	-86.017	0.178	0.055
-161.779	58.561	0.101	0.099
-160.764	-99.749	0.140	-0.035
-159.750	127.694	-0.472	0.597
-158.735	-50.061	-0.150	-0.071
-157.720	461.445	0.098	0.217
-156.706	-4.527	-0.337	0.232
-155.691	105.756	-0.053	-0.062
-154.677	-200.000	0.053	0.310
-153.662	54.244	-0.116	-0.111
-152.647	556.128	0.124	-0.297
-151.633	-200.000	-0.096	0.430
-150.618	-200.000	-0.023	-0.173
-149.604	23.280	-0.052	0.043
-148.589	49.469	0.139	0.130
-147.574	-65.319	-0.215	-0.086
-146.560	307.482	-0.131	-0.243
-145.545	-200.000	0.004	0.042
-144.531	-47.947	0.253	0.122
-143.516	15.954	0.145	0.113
-142.502	479.783	-0.059	0.134
-141.487	3.741	0.036	0.026
-140.472	-129.679	0.563	-0.077
-139.458	-97.660	-0.246	-0.063
-138.443	128.797	-0.056	0.071
-137.429	15.723	0.245	0.192
-136.414	763.604	-0.138	0.371
-135.399	162.061	0.092	0.128
-134.385	-56.374	-0.286	-0.126
-133.370	800.000	-0.057	0.167
-132.356	132.712	0.068	0.088
-131.341	75.947	0.144	-0.151
-130.326	-72.552	-0.175	-0.064
-129.312	-200.000	0.004	-0.135
-128.297	38.274	0.277	-0.245
-127.283	-200.000	-0.061	0.568
-126.268	-52.918	-0.229	-0.105
-125.253	-6.460	0.165	0.112
-124.239	-200.000	-0.027	0.237
-123.224	-3.768	-0.291	0.201
-122.210	800.000	-0.016	-0.049
-121.195	-35.360	0.088	0.047
-120.180	766.226	0.060	-0.163
