DTS Sentinel unit serial number:	SN413079Multiplexer serial number:	ORYXHardware model number:	OX4-SRSoftware version number:	ORYX F/W v4.00 Oryx Data Collector v3.7.2.0data status	okinstallation	princeton_trtdifferential loss correction	single-endedforward channel	channel 1reverse channel	N/Adate	2019/09/17time	17:18:35forward acquisition time	60.00reverse acquisition time	0.00gamma	496.2192k internal	0.2292k external	0.2292temperature offset calibration	0.9954default loss term (dB/km)	0.3790temperature slope calibration	1.0000multiplexer offset coefficient	1.0000multiplexer slope coefficient	1.0000fibre end	0.00T internal ref (°C)	42.94T ext. ref 1 (°C)	0.34T ext. ref 2 (°C)	38.87length (m)	temperature (°C)	Stokes	anti-Stokes-747.200	800.000	0.044	0.157
-746.185	-160.386	-0.237	-0.013
-745.171	-135.589	-0.129	0.016
-744.156	633.137	0.061	0.159
-743.142	-200.000	0.056	-0.294
-742.127	103.093	0.100	0.120
-741.112	169.219	0.136	0.199
-740.098	384.967	-0.042	0.088
-739.083	120.359	-0.102	0.130
-738.069	-200.000	0.006	0.437
-737.054	201.422	0.126	0.198
-736.039	25.368	0.093	0.079
-735.025	132.636	0.162	-0.213
-734.010	16.629	-0.349	-0.282
-732.996	-84.294	-0.155	0.050
-731.981	-102.906	-0.274	0.067
-730.966	15.750	0.035	-0.028
-729.952	-200.000	-0.000	-0.259
-728.937	308.243	-0.165	-0.316
-727.923	-200.000	-0.017	-0.217
-726.908	-200.000	-0.000	0.124
-725.894	320.241	0.106	0.205
-724.879	-71.827	-0.135	0.052
-723.864	-200.000	0.036	-0.368
-722.850	800.000	-0.100	-0.338
-721.835	18.454	-0.233	-0.191
-720.821	-200.000	0.030	0.211
-719.806	305.099	-0.152	-0.288
-718.791	-25.670	-0.046	0.028
-717.777	-119.837	-0.211	0.037
-716.762	31.854	-0.027	-0.024
-715.748	415.666	-0.068	-0.148
-714.733	800.000	-0.066	0.224
-713.718	-18.905	-0.143	-0.091
-712.704	381.937	-0.038	0.081
-711.689	400.358	0.109	-0.233
-710.675	35.937	-0.208	0.187
-709.660	-115.775	-0.069	0.013
-708.645	788.125	0.137	0.384
-707.631	-30.102	-0.305	0.177
-706.616	124.926	-0.185	0.238
-705.602	653.546	0.102	0.267
-704.587	-200.000	-0.043	-0.191
-703.572	407.910	-0.075	0.163
-702.558	99.195	-0.070	-0.082
-701.543	800.000	-0.092	0.345
-700.529	-141.430	0.055	-0.006
-699.514	800.000	0.093	0.308
-698.499	45.148	-0.028	-0.026
-697.485	186.343	0.126	-0.191
-696.470	-200.000	-0.059	0.278
-695.456	800.000	-0.053	-0.167
-694.441	37.634	0.196	0.177
-693.426	184.468	-0.026	0.039
-692.412	800.000	0.058	0.203
-691.397	-125.924	-0.165	-0.025
-690.383	-200.000	-0.006	0.206
-689.368	-200.000	0.029	0.202
-688.354	19.680	0.095	-0.078
-687.339	53.649	-0.056	-0.055
-686.324	-200.000	0.065	0.294
-685.310	-49.508	0.085	0.041
-684.295	623.963	-0.095	0.243
-683.281	-200.000	0.004	-0.033
-682.266	-128.487	0.199	-0.029
-681.251	-49.092	-0.165	-0.081
-680.237	800.000	-0.039	-0.118
-679.222	75.102	-0.021	0.023
-678.208	-200.000	0.022	-0.205
-677.193	224.937	0.107	-0.177
-676.178	-33.025	0.142	-0.081
-675.164	-59.519	-0.178	0.078
-674.149	-200.000	0.060	0.386
-673.135	-111.741	-0.123	-0.025
-672.120	-26.756	-0.160	0.096
-671.105	-176.680	-0.382	0.010
-670.091	800.000	-0.027	-0.093
-669.076	-123.211	-0.240	0.039
-668.062	-200.000	-0.008	0.046
-667.047	-139.630	-0.181	-0.020
-666.032	-113.848	0.384	0.076
-665.018	200.759	0.152	0.238
-664.003	69.094	0.088	0.093
-662.989	-200.000	-0.006	-0.145
-661.974	34.189	0.210	-0.187
-660.959	252.266	-0.155	-0.270
-659.945	-200.000	0.049	-0.333
-658.930	145.126	-0.049	-0.068
-657.916	-77.163	-0.060	-0.021
-656.901	60.016	0.095	-0.096
-655.886	15.428	0.017	-0.014
-654.872	-58.589	-0.162	0.072
-653.857	-77.147	-0.192	0.068
-652.843	-54.466	-0.068	0.032
-651.828	-112.453	0.096	-0.020
-650.814	-200.000	-0.405	0.001
-649.799	50.686	-0.191	0.185
-648.784	92.957	0.057	-0.065
-647.770	800.000	-0.028	0.121
-646.755	-36.356	0.247	-0.136
-645.741	31.663	0.027	0.023
-644.726	179.961	-0.069	0.103
-643.711	-92.921	0.152	-0.043
-642.697	91.841	-0.029	-0.033
-641.682	-200.000	-0.004	0.046
-640.668	-47.767	-0.324	0.160
-639.653	62.727	-0.424	0.432
-638.638	135.023	0.127	0.168
-637.624	-183.344	0.306	0.005
-636.609	-138.889	0.323	0.036
-635.595	35.784	0.103	-0.092
-634.580	-43.053	0.171	0.089
-633.565	-200.000	0.007	0.102
-632.551	-200.000	0.001	0.094
-631.536	800.000	-0.107	0.418
-630.522	-72.693	-0.144	-0.054
-629.507	-150.935	0.163	-0.013
-628.492	-76.043	0.323	0.116
-627.478	165.932	-0.111	-0.159
-626.463	113.678	-0.056	0.069
-625.449	-25.646	-0.244	-0.147
-624.434	-200.000	-0.039	-0.532
-623.419	298.970	0.109	-0.205
-622.405	168.356	0.129	0.187
-621.390	-153.094	-0.236	0.017
-620.376	-200.000	0.067	0.361
-619.361	287.099	0.136	-0.250
-618.346	-97.849	-0.300	0.079
-617.332	-200.000	0.077	-0.393
-616.317	226.600	0.079	-0.130
-615.303	-200.000	0.030	0.184
-614.288	-109.595	-0.106	-0.023
-613.273	-64.270	-0.247	0.102
-612.259	800.000	0.112	-0.460
-611.244	-200.000	-0.077	0.371
-610.230	123.258	0.138	-0.177
-609.215	-200.000	0.017	0.257
-608.201	485.008	-0.070	-0.163
-607.186	4.265	-0.309	-0.230
-606.171	419.438	-0.102	0.222
-605.157	-5.463	0.066	0.046
-604.142	12.626	-0.128	-0.101
-603.128	-200.000	0.046	-0.374
-602.113	-18.116	0.060	0.038
-601.098	-138.464	-0.347	-0.039
-600.084	-49.947	0.174	0.084
-599.069	-200.000	-0.003	-0.231
-598.055	-200.000	-0.033	0.207
-597.040	-200.000	0.010	0.174
-596.025	537.564	-0.098	-0.237
-595.011	4.934	-0.145	0.109
-593.996	-200.000	-0.040	0.269
-592.982	-71.245	-0.150	-0.057
-591.967	-200.000	-0.021	-0.193
-590.952	-59.154	0.130	-0.057
-589.938	74.414	0.140	0.150
-588.923	-14.692	0.306	-0.200
-587.909	800.000	0.079	-0.258
-586.894	1.434	-0.335	-0.245
-585.879	53.294	-0.138	-0.134
-584.865	52.125	0.266	0.258
-583.850	-130.716	0.255	-0.035
-582.836	800.000	0.082	0.254
-581.821	-200.000	0.008	-0.184
-580.806	800.000	-0.095	-0.364
-579.792	37.160	-0.062	-0.056
-578.777	-118.639	0.197	-0.035
-577.763	292.861	0.124	-0.230
-576.748	-200.000	0.059	-0.304
-575.733	-4.666	0.107	0.075
-574.719	-12.759	0.207	-0.137
-573.704	-28.489	-0.216	-0.126
-572.690	-107.295	-0.367	-0.082
-571.675	317.875	0.073	0.140
-570.661	-89.506	-0.242	-0.072
-569.646	-200.000	-0.031	-0.309
-568.631	276.715	0.080	-0.145
-567.617	407.941	-0.091	-0.195
-566.602	-200.000	0.037	0.203
-565.588	306.705	-0.094	0.179
-564.573	149.030	-0.241	-0.331
-563.558	242.835	0.125	0.213
-562.544	345.874	0.235	-0.469
-561.529	282.883	-0.092	0.168
-560.515	-32.594	-0.204	0.115
-559.500	73.794	-0.095	-0.101
-558.485	-200.000	-0.036	0.288
-557.471	-67.402	-0.155	0.062
-556.456	127.022	0.167	-0.216
-555.442	28.323	0.101	0.087
-554.427	-200.000	-0.008	0.064
-553.412	-200.000	-0.060	-0.290
-552.398	-180.445	0.270	-0.006
-551.383	-166.623	-0.222	0.009
-550.369	648.622	-0.110	-0.287
-549.354	-142.642	0.242	0.024
-548.339	800.000	0.042	0.184
-547.325	12.889	-0.050	-0.039
-546.310	222.227	0.084	-0.137
-545.296	54.839	-0.393	-0.385
-544.281	559.628	-0.159	-0.389
-543.266	-200.000	-0.049	0.357
-542.252	-200.000	-0.005	-0.144
-541.237	-144.492	-0.063	-0.006
-540.223	-200.000	-0.018	-0.236
-539.208	-147.806	0.306	-0.026
-538.193	-200.000	0.002	-0.036
-537.179	800.000	-0.048	0.165
-536.164	-109.220	0.176	-0.038
-535.150	800.000	-0.104	0.306
-534.135	-170.498	0.283	-0.010
-533.121	-95.546	-0.368	-0.100
-532.106	-24.131	-0.045	-0.027
-531.091	-130.093	0.071	0.010
-530.077	-142.745	-0.172	0.017
-529.062	-64.948	0.138	0.057
-528.048	-122.685	0.102	-0.017
-527.033	-137.714	-0.517	-0.059
-526.018	-10.245	0.013	0.009
-525.004	-200.000	-0.052	0.246
-523.989	800.000	-0.058	-0.180
-522.975	-200.000	0.000	0.026
-521.960	79.461	0.215	-0.234
-520.945	33.883	0.100	-0.089
-519.931	800.000	-0.074	-0.220
-518.916	27.014	0.125	-0.106
-517.902	60.861	0.241	0.243
-516.887	19.104	-0.100	0.081
-515.872	141.258	-0.091	0.122
-514.858	-17.324	-0.141	0.090
-513.843	-96.508	0.204	0.055
-512.829	59.079	-0.107	-0.107
-511.814	800.000	-0.084	-0.275
-510.799	-58.378	-0.462	0.204
-509.785	-145.022	0.261	-0.024
-508.770	-71.759	0.275	0.104
-507.756	-136.211	-0.258	0.031
-506.741	-52.644	0.059	0.028
-505.726	-25.617	-0.206	-0.123
-504.712	189.161	-0.062	0.094
-503.697	-71.128	0.237	0.090
-502.683	-118.499	-0.208	0.037
-501.668	55.154	-0.264	0.259
-500.653	-200.000	0.034	0.336
-499.639	-155.020	0.130	-0.009
-498.624	296.087	0.024	0.045
-497.610	800.000	0.051	-0.213
-496.595	-200.000	0.066	-0.466
-495.581	11.512	-0.246	0.191
-494.566	-200.000	-0.007	-0.091
-493.551	-178.777	0.094	0.002
-492.537	279.699	-0.111	0.201
-491.522	-184.574	0.323	0.005
-490.508	-200.000	-0.041	0.355
-489.493	-100.970	-0.054	0.013
-488.478	617.687	-0.101	-0.257
-487.464	-28.311	-0.242	0.141
-486.449	800.000	-0.179	-0.549
-485.435	22.115	0.069	-0.057
-484.420	-200.000	-0.095	-0.439
-483.405	47.414	0.138	0.130
-482.391	41.376	-0.229	0.210
-481.376	-150.696	-0.305	-0.024
-480.362	585.539	0.057	0.142
-479.347	-102.443	0.106	-0.026
-478.332	-83.674	-0.255	-0.083
-477.318	-200.000	-0.001	-0.323
-476.303	263.038	-0.133	0.234
-475.289	-54.690	0.071	0.032
-474.274	491.285	0.130	0.301
-473.259	89.277	-0.082	0.093
-472.245	104.963	0.120	-0.143
-471.230	-157.256	-0.048	0.003
-470.216	-92.738	0.383	-0.109
-469.201	-59.695	0.306	0.133
-468.186	68.912	0.271	-0.282
-467.172	-10.255	-0.154	0.103
-466.157	-18.408	-0.233	0.147
-465.143	41.058	0.077	-0.070
-464.128	-40.296	0.131	-0.069
-463.113	-200.000	-0.012	0.142
-462.099	11.378	-0.080	-0.062
-461.084	159.074	0.086	-0.122
-460.070	54.297	0.050	0.048
-459.055	-34.774	0.094	-0.052
-458.040	-84.386	-0.203	0.065
-457.026	124.598	0.105	0.133
-456.011	-198.692	0.163	0.001
-454.997	122.462	-0.195	0.247
-453.982	-101.583	-0.148	0.036
-452.968	-162.215	-0.157	-0.008
-451.953	0.527	0.091	0.066
-450.938	622.098	-0.123	-0.313
-449.924	23.989	-0.202	0.169
-448.909	90.641	-0.152	-0.172
-447.895	29.846	-0.134	0.116
-446.880	-98.900	0.334	-0.086
-445.865	800.000	0.067	0.237
-444.851	-200.000	0.042	0.223
-443.836	105.185	0.087	0.104
-442.822	78.477	0.144	0.155
-441.807	-200.000	0.012	-0.169
-440.792	-58.921	0.064	-0.028
-439.778	218.939	-0.041	0.067
-438.763	800.000	0.090	0.399
-437.749	-1.579	-0.280	-0.200
-436.734	15.435	0.114	-0.090
-435.719	128.604	-0.103	-0.133
-434.705	233.026	0.136	-0.226
-433.690	-158.277	0.126	0.007
-432.676	66.257	0.187	-0.192
-431.661	187.918	0.067	0.101
-430.646	89.008	0.108	0.121
-429.632	-36.686	-0.150	0.081
-428.617	-17.689	0.089	0.057
-427.603	-154.872	0.199	0.013
-426.588	-84.647	-0.122	0.039
-425.573	-3.223	-0.056	-0.039
-424.559	-200.000	-0.028	-0.276
-423.544	130.591	0.093	0.120
-422.530	-1.315	-0.115	0.082
-421.515	104.520	0.138	-0.165
-420.500	-29.454	0.143	-0.083
-419.486	-8.878	-0.299	-0.203
-418.471	25.437	-0.070	0.059
-417.457	800.000	0.071	0.223
-416.442	-148.701	0.209	-0.017
-415.428	800.000	-0.040	-0.116
-414.413	312.220	0.107	-0.204
-413.398	218.130	-0.247	-0.398
-412.384	-200.000	0.073	0.340
-411.369	206.844	-0.190	-0.299
-410.355	80.238	-0.196	-0.213
-409.340	-4.984	-0.102	-0.071
-408.325	-200.000	0.011	-0.058
-407.311	-200.000	0.009	0.048
-406.296	-52.692	0.146	-0.068
-405.282	-52.435	-0.038	0.018
-404.267	-200.000	0.016	0.224
-403.252	20.501	0.251	-0.205
-402.238	-9.697	-0.251	-0.169
-401.223	642.937	0.060	-0.154
-400.209	51.671	-0.134	0.129
-399.194	-183.890	0.469	-0.008
-398.179	-200.000	-0.048	0.229
-397.165	-200.000	0.008	0.184
-396.150	418.432	0.068	-0.146
-395.136	93.058	-0.042	0.048
-394.121	83.051	-0.074	-0.081
-393.106	110.093	-0.225	0.273
-392.092	-82.309	0.323	0.106
-391.077	237.445	-0.259	0.434
-390.063	-108.150	-0.168	0.037
-389.048	-200.000	0.025	0.228
-388.033	-19.162	-0.159	0.100
-387.019	-200.000	-0.018	-0.197
-386.004	-90.882	-0.077	-0.022
-384.990	-21.229	-0.325	-0.200
-383.975	86.582	-0.126	-0.140
-382.960	12.155	0.166	-0.129
-381.946	-107.438	-0.437	0.097
-380.931	246.046	0.282	-0.480
-379.917	210.464	0.092	0.145
-378.902	10.984	0.201	0.155
-377.888	50.565	-0.095	-0.090
-376.873	658.305	0.080	-0.209
-375.858	-108.176	0.326	0.071
-374.844	-135.224	0.049	-0.006
-373.829	800.000	0.039	0.131
-372.815	800.000	-0.063	-0.216
-371.800	-181.837	-0.398	0.008
-370.785	563.836	0.093	0.227
-369.771	-116.127	-0.141	-0.026
-368.756	-200.000	-0.169	0.000
-367.742	326.577	-0.080	-0.154
-366.727	800.000	0.017	-0.055
-365.712	151.587	-0.152	0.209
-364.698	-200.000	0.038	0.213
-363.683	-200.000	0.020	0.116
-362.669	-200.000	-0.013	-0.164
-361.654	-152.131	-0.046	0.003
-360.639	645.168	0.080	-0.205
-359.625	99.109	0.156	0.182
-358.610	-20.510	-0.093	0.057
-357.596	146.733	-0.012	0.017
-356.581	53.104	-0.315	0.304
-355.566	-131.134	0.037	-0.005
-354.552	9.992	-0.156	-0.120
-353.537	-46.159	-0.456	0.226
-352.523	649.415	0.112	0.289
-351.508	-200.000	0.000	-0.057
-350.493	13.398	0.069	-0.054
-349.479	445.309	-0.067	-0.149
-348.464	-136.676	0.257	0.030
-347.450	44.264	0.108	0.100
-346.435	-46.573	0.333	0.164
-345.420	-47.559	0.293	-0.144
-344.406	86.473	0.113	-0.125
-343.391	-200.000	-0.005	-0.094
-342.377	450.517	0.011	-0.024
-341.362	-200.000	0.014	0.137
-340.348	412.920	-0.141	-0.302
-339.333	53.385	0.021	0.021
-338.318	635.119	0.109	-0.277
-337.304	78.659	-0.071	-0.077
-336.289	299.516	0.152	0.283
-335.275	106.915	-0.088	-0.105
-334.260	575.895	0.034	0.084
-333.245	331.038	-0.258	-0.502
-332.231	331.453	-0.201	0.390
-331.216	183.630	0.109	-0.163
-330.202	300.838	0.071	0.132
-329.187	-100.162	0.123	-0.031
-328.172	199.280	0.216	-0.333
-327.158	-200.000	0.057	-0.328
-326.143	22.701	0.151	-0.125
-325.129	34.017	-0.067	0.059
-324.114	-8.116	-0.110	-0.074
-323.099	-200.000	0.110	0.001
-322.085	-71.808	-0.201	-0.076
-321.070	-91.861	-0.079	-0.023
-320.056	7.850	-0.111	0.083
-319.041	800.000	0.042	0.124
-318.026	333.623	0.174	0.338
-317.012	21.872	-0.133	-0.109
-315.997	190.605	-0.163	-0.246
-314.983	-10.099	-0.130	0.087
-313.968	-200.000	0.047	-0.210
-312.953	626.528	0.065	0.166
-311.939	180.895	-0.179	0.264
-310.924	-176.163	-0.155	0.004
-309.910	-200.000	0.019	0.168
-308.895	99.379	-0.290	0.337
-307.880	-20.208	0.125	-0.077
-306.866	136.197	-0.262	-0.344
-305.851	-0.074	-0.245	-0.176
-304.837	800.000	0.082	0.236
-303.822	3.733	0.293	0.215
-302.807	-39.525	-0.195	0.103
-301.793	-83.913	0.295	-0.094
-300.778	433.245	-0.149	-0.325
-299.764	393.925	0.097	0.203
-298.749	144.601	-0.089	-0.119
-297.735	218.632	0.125	0.200
-296.720	3.648	-0.274	-0.201
-295.705	-126.282	-0.300	0.045
-294.691	534.336	0.047	-0.113
-293.676	-105.894	0.208	0.047
-292.662	-75.092	0.095	-0.034
-291.647	139.543	0.186	-0.246
-290.632	-97.008	-0.089	0.024
-289.618	-37.947	-0.183	-0.098
-288.603	35.727	-0.155	0.137
-287.589	-84.360	-0.093	-0.030
-286.574	-157.404	-0.105	0.006
-285.559	-179.362	0.262	0.006
-284.545	800.000	-0.053	-0.201
-283.530	40.982	0.064	0.058
-282.516	-96.709	-0.292	0.077
-281.501	-67.846	0.155	0.061
-280.486	-69.927	0.243	-0.093
-279.472	186.874	-0.039	0.059
-278.457	53.644	-0.080	-0.077
-277.443	-63.841	-0.284	-0.117
-276.428	16.171	0.250	-0.198
-275.413	-27.066	0.110	0.064
-274.399	650.131	0.157	0.405
-273.384	800.000	0.049	-0.182
-272.370	52.435	0.182	-0.174
-271.355	222.690	0.206	0.333
-270.340	451.400	-0.117	-0.259
-269.326	623.036	0.126	0.319
-268.311	-188.788	0.274	0.003
-267.297	3.259	0.290	-0.212
-266.282	-200.000	0.026	0.176
-265.267	-200.000	-0.024	-0.269
-264.253	192.691	0.152	0.230
-263.238	-100.118	0.188	-0.047
-262.224	-149.847	-0.257	-0.020
-261.209	-200.000	-0.006	-0.039
-260.195	182.547	0.183	0.271
-259.180	12.838	-0.169	0.131
-258.165	-200.000	-0.027	0.343
-257.151	-46.014	0.198	-0.098
-256.136	-50.021	-0.405	0.193
-255.122	171.010	-0.231	-0.332
-254.107	223.156	0.156	0.253
-253.092	-16.336	-0.255	0.162
-252.078	-115.031	0.222	0.042
-251.063	163.057	-0.201	0.283
-250.049	-141.620	0.368	-0.037
-249.034	-14.433	-0.031	0.020
-248.019	-63.606	0.136	-0.056
-247.005	477.413	0.105	-0.238
-245.990	284.925	-0.116	0.209
-244.976	-106.624	-0.115	0.026
-243.961	-130.909	0.385	0.052
-242.946	-120.690	0.208	0.035
-241.932	-2.549	-0.166	0.117
-240.917	-200.000	-0.030	-0.199
-239.903	-153.038	0.113	0.008
-238.888	-145.202	0.147	0.013
-237.873	458.042	0.025	-0.055
-236.859	196.658	-0.130	0.199
-235.844	-179.316	0.265	0.006
-234.830	-55.315	-0.299	0.135
-233.815	175.207	0.103	0.149
-232.800	800.000	-0.057	-0.159
-231.786	186.729	-0.160	-0.238
-230.771	-28.359	0.309	-0.179
-229.757	-200.000	-0.006	0.030
-228.742	173.200	0.137	-0.198
-227.727	549.041	0.052	0.125
-226.713	9.097	0.106	0.081
-225.698	-89.369	0.283	0.084
-224.684	-176.638	-0.114	-0.003
-223.669	-117.944	0.056	0.010
-222.655	800.000	-0.035	0.123
-221.640	800.000	-0.105	0.299
-220.625	-64.544	-0.089	0.036
-219.611	159.977	-0.206	0.288
-218.596	-9.656	-0.100	0.067
-217.582	-47.251	-0.254	-0.124
-216.567	-79.863	0.229	-0.077
-215.552	-200.000	0.002	0.187
-214.538	112.086	-0.038	-0.046
-213.523	-36.074	0.160	0.087
-212.509	-73.817	0.347	0.127
-211.494	-61.808	0.346	0.145
-210.479	28.473	-0.071	-0.060
-209.465	-78.911	-0.146	0.050
-208.450	-200.000	0.068	-0.314
-207.436	-200.000	-0.001	-0.304
-206.421	-1.882	-0.353	-0.249
-205.406	-13.607	-0.084	0.054
-204.392	800.000	0.066	0.183
-203.377	800.000	0.065	0.182
-202.363	331.076	-0.045	-0.086
-201.348	-78.212	-0.119	0.041
-200.333	176.412	0.116	0.169
-199.319	-6.438	0.105	0.072
-198.304	-20.272	0.017	-0.011
-197.290	341.005	-0.052	0.102
-196.275	49.396	0.356	-0.336
-195.260	-121.339	0.100	-0.017
-194.246	425.499	-0.156	0.337
-193.231	800.000	0.093	0.301
-192.217	-80.863	-0.233	0.077
-191.202	-100.120	-0.118	-0.029
-190.187	-200.000	-0.013	-0.167
-189.173	73.163	-0.183	0.192
-188.158	-200.000	0.049	-0.318
-187.144	14.059	0.101	0.079
-186.129	-59.303	0.072	-0.031
-185.114	-200.000	-0.045	-0.223
-184.100	800.000	0.102	0.384
-183.085	247.597	0.130	0.220
-182.071	179.407	0.221	-0.324
-181.056	-144.335	0.263	0.024
-180.042	316.504	-0.173	0.327
-179.027	68.370	-0.288	0.296
-178.012	149.369	-0.134	-0.181
-176.998	-101.878	-0.106	0.026
-175.983	4.102	-0.298	0.218
-174.969	-60.591	0.295	0.125
-173.954	105.557	0.034	-0.040
-172.939	-156.247	-0.311	0.020
-171.925	-79.935	-0.417	0.140
-170.910	-73.038	0.236	0.087
-169.896	585.783	0.065	0.160
-168.881	-200.000	-0.025	-0.473
-167.866	-200.000	0.010	-0.074
-166.852	-79.132	0.118	0.040
-165.837	-86.966	0.251	0.077
-164.823	39.315	0.234	0.209
-163.808	-153.577	0.296	-0.020
-162.793	-200.000	-0.035	-0.204
-161.779	-23.564	-0.221	0.132
-160.764	167.726	0.063	0.089
-159.750	-97.200	0.151	-0.039
-158.735	143.050	-0.144	-0.192
-157.720	-28.569	-0.120	0.069
-156.706	-200.000	0.024	-0.351
-155.691	-186.432	0.153	-0.002
-154.677	-34.040	0.240	-0.132
-153.662	-4.154	0.084	0.058
-152.647	118.420	0.170	0.210
-151.633	720.869	0.234	0.624
-150.618	295.789	-0.174	0.319
-149.604	-95.921	0.461	-0.123
-148.589	134.213	0.266	-0.345
-147.574	-84.774	-0.327	0.103
-146.560	-84.191	-0.108	0.034
-145.545	149.938	0.056	-0.076
-144.531	800.000	0.127	-0.392
-143.516	-182.435	0.401	-0.007
-142.502	-38.512	-0.177	0.094
-141.487	13.042	-0.232	0.180
-140.472	62.890	0.020	0.020
-139.458	-0.229	0.058	-0.041
-138.443	800.000	0.087	-0.290
-137.429	-146.640	-0.067	0.006
-136.414	20.357	0.045	-0.036
-135.399	-4.200	-0.100	-0.069
-134.385	-200.000	0.016	0.078
-133.370	436.320	-0.080	0.174
-132.356	-92.605	0.311	0.087
-131.341	372.214	-0.094	0.191
-130.326	800.000	0.037	-0.106
-129.312	472.486	0.039	-0.088
-128.297	-28.845	0.303	0.174
-127.283	-9.148	0.066	0.044
-126.268	-200.000	0.039	0.264
-125.253	105.099	0.174	-0.205
-124.239	-74.711	-0.082	-0.029
-123.224	88.927	-0.245	0.272
-122.210	231.586	-0.124	-0.203
-121.195	-60.522	-0.290	0.123
-120.180	-173.845	-0.408	-0.012
