DTS Sentinel unit serial number:	SN413079Multiplexer serial number:	ORYXHardware model number:	OX4-SRSoftware version number:	ORYX F/W v4.00 Oryx Data Collector v3.7.2.0data status	okinstallation	princeton_trtdifferential loss correction	single-endedforward channel	channel 1reverse channel	N/Adate	2019/09/12time	10:36:11forward acquisition time	60.00reverse acquisition time	0.00gamma	496.2192k internal	0.2296k external	0.2296temperature offset calibration	1.0043default loss term (dB/km)	0.3790temperature slope calibration	1.0000multiplexer offset coefficient	1.0000multiplexer slope coefficient	1.0000fibre end	0.00T internal ref (°C)	37.31T ext. ref 1 (°C)	1.89T ext. ref 2 (°C)	35.45length (m)	temperature (°C)	Stokes	anti-Stokes-747.200	-40.080	-0.114	0.061
-746.185	-8.866	-0.060	0.041
-745.171	4.641	0.215	0.161
-744.156	-80.437	0.184	0.063
-743.142	5.754	-0.325	-0.246
-742.127	800.000	-0.133	0.575
-741.112	-200.000	-0.064	0.297
-740.098	-200.000	0.011	0.176
-739.083	-200.000	0.018	0.450
-738.069	326.292	-0.080	-0.156
-737.054	35.840	0.200	0.180
-736.039	800.000	-0.002	-0.005
-735.025	95.228	0.121	-0.140
-734.010	404.069	-0.032	-0.068
-732.996	427.442	-0.104	-0.229
-731.981	259.396	0.077	-0.135
-730.966	-51.632	-0.339	-0.162
-729.952	124.503	-0.144	-0.185
-728.937	-145.047	-0.573	0.053
-727.923	-200.000	-0.005	-0.198
-726.908	175.524	-0.211	-0.312
-725.894	-68.107	-0.160	0.064
-724.879	-162.161	-0.337	-0.017
-723.864	-124.144	-0.217	0.035
-722.850	800.000	-0.062	0.204
-721.835	-51.353	-0.083	-0.040
-720.821	800.000	0.026	0.116
-719.806	-22.014	0.176	0.109
-718.791	-72.214	-0.544	-0.206
-717.777	482.526	0.018	0.043
-716.762	-73.116	-0.221	0.083
-715.748	475.010	-0.031	-0.071
-714.733	-200.000	0.020	0.121
-713.718	116.607	0.173	0.217
-712.704	-130.031	-0.606	0.085
-711.689	-198.690	0.028	-0.000
-710.675	800.000	0.039	-0.144
-709.660	127.391	0.181	-0.235
-708.645	-152.268	-0.129	-0.010
-707.631	-110.493	-0.121	0.026
-706.616	-57.716	-0.163	0.073
-705.602	321.653	0.051	0.098
-704.587	132.836	0.039	-0.052
-703.572	-200.000	-0.048	0.435
-702.558	-34.753	0.205	-0.114
-701.543	490.906	-0.020	-0.047
-700.529	-34.701	-0.284	-0.158
-699.514	-119.962	-0.082	0.014
-698.499	800.000	0.148	-0.495
-697.485	-200.000	0.089	-0.000
-696.470	662.644	-0.057	0.149
-695.456	-120.548	0.114	0.020
-694.441	63.975	0.028	0.028
-693.426	-200.000	-0.036	-0.397
-692.412	36.145	-0.151	-0.136
-691.397	0.183	-0.183	-0.133
-690.383	208.706	0.053	-0.084
-689.368	263.967	0.095	0.169
-688.354	25.493	-0.074	-0.063
-687.339	74.657	-0.145	-0.155
-686.324	-137.233	-0.208	-0.024
-685.310	-11.678	-0.273	-0.183
-684.295	20.701	-0.101	-0.083
-683.281	202.630	-0.090	0.142
-682.266	38.304	0.111	-0.101
-681.251	3.205	-0.034	-0.025
-680.237	800.000	0.166	-0.494
-679.222	381.444	0.048	0.100
-678.208	434.024	0.063	0.139
-677.193	-142.304	0.060	0.006
-676.178	22.009	-0.179	-0.149
-675.164	-5.349	-0.094	0.066
-674.149	652.278	0.053	0.137
-673.135	654.541	0.111	0.291
-672.120	-124.233	0.367	-0.059
-671.105	800.000	-0.065	0.230
-670.091	169.074	0.181	0.263
-669.076	-200.000	0.004	0.238
-668.062	-125.678	0.295	0.046
-667.047	-35.946	-0.224	0.123
-666.032	-113.466	0.178	0.035
-665.018	122.425	-0.200	0.255
-664.003	800.000	0.029	0.102
-662.989	39.721	0.130	0.119
-661.974	800.000	0.071	-0.218
-660.959	-139.044	-0.395	-0.044
-659.945	-71.751	-0.046	0.017
-658.930	177.850	-0.172	0.255
-657.916	-8.720	-0.069	0.047
-656.901	-165.001	-0.210	-0.010
-655.886	67.464	-0.141	-0.147
-654.872	-45.893	-0.133	0.067
-653.857	110.604	-0.236	0.289
-652.843	58.957	-0.207	0.207
-651.828	800.000	-0.126	0.402
-650.814	-200.000	-0.043	0.206
-649.799	58.764	-0.097	0.097
-648.784	-200.000	-0.061	-0.291
-647.770	73.832	-0.085	-0.090
-646.755	221.492	0.142	0.232
-645.741	-33.159	-0.357	0.201
-644.726	179.853	0.097	-0.144
-643.711	48.152	-0.312	-0.297
-642.697	16.513	0.311	-0.250
-641.682	-25.041	0.192	0.116
-640.668	-200.000	0.008	0.251
-639.653	-200.000	0.078	0.494
-638.638	-63.831	-0.427	-0.178
-637.624	800.000	-0.047	-0.172
-636.609	274.489	-0.250	-0.450
-635.595	800.000	-0.066	-0.237
-634.580	-51.567	0.108	0.051
-633.565	-200.000	0.013	0.220
-632.551	-117.283	0.430	0.079
-631.536	-145.135	0.084	-0.008
-630.522	800.000	0.060	-0.223
-629.507	71.169	0.056	0.059
-628.492	274.999	0.071	0.128
-627.478	-55.045	0.269	0.123
-626.463	119.243	-0.061	-0.076
-625.449	574.850	0.152	0.377
-624.434	-200.000	0.003	-0.018
-623.419	-137.458	0.564	0.065
-622.405	58.842	0.120	-0.120
-621.390	-19.248	-0.046	0.029
-620.376	-134.552	-0.262	0.033
-619.361	-177.473	0.185	-0.005
-618.346	-127.238	-0.135	-0.020
-617.332	203.324	0.027	-0.043
-616.317	-200.000	0.016	0.288
-615.303	102.110	-0.177	0.210
-614.288	155.165	0.210	-0.294
-613.273	110.213	0.048	-0.059
-612.259	-200.000	-0.067	-0.341
-611.244	-99.921	0.109	0.028
-610.230	-109.641	0.727	-0.156
-609.215	-48.236	-0.180	-0.088
-608.201	-140.142	0.190	0.020
-607.186	28.218	-0.069	-0.059
-606.171	124.703	-0.161	-0.206
-605.157	-30.297	0.191	-0.110
-604.142	-7.424	-0.179	0.123
-603.128	800.000	-0.111	-0.352
-602.113	-200.000	-0.031	0.273
-601.098	-70.711	-0.115	-0.044
-600.084	-70.702	0.332	0.128
-599.069	800.000	-0.057	-0.185
-598.055	194.581	-0.290	-0.447
-597.040	-153.069	-0.102	-0.007
-596.025	-26.087	0.218	-0.130
-595.011	-54.148	0.106	-0.049
-593.996	252.614	0.057	-0.098
-592.982	-13.131	0.355	0.234
-591.967	-172.122	0.145	-0.005
-590.952	-43.744	0.292	0.149
-589.938	-73.479	-0.240	0.089
-588.923	-200.000	-0.003	-0.225
-587.909	800.000	-0.037	-0.132
-586.894	-200.000	-0.039	-0.172
-585.879	53.533	0.101	0.098
-584.865	-122.211	0.299	-0.050
-583.850	113.461	0.030	0.037
-582.836	38.552	0.116	-0.105
-581.821	-74.041	0.238	-0.088
-580.806	-35.375	-0.067	0.037
-579.792	69.784	-0.242	-0.253
-578.777	-200.000	-0.020	0.348
-577.763	111.308	0.266	-0.325
-576.748	348.347	0.191	-0.382
-575.733	212.005	0.135	-0.216
-574.719	-200.000	-0.030	-0.413
-573.704	178.923	0.145	0.215
-572.690	160.910	-0.215	-0.305
-571.675	280.527	-0.067	0.122
-570.661	-91.915	0.249	0.072
-569.646	-77.880	-0.234	-0.082
-568.631	-143.551	0.123	-0.012
-567.617	-138.365	-0.212	0.024
-566.602	-181.888	-0.316	-0.006
-565.588	-200.000	-0.023	-0.218
-564.573	-146.054	-0.124	0.011
-563.558	241.136	-0.060	0.102
-562.544	-96.191	0.095	-0.026
-561.529	-0.981	0.369	0.265
-560.515	74.247	0.100	-0.106
-559.500	-28.241	0.214	-0.125
-558.485	-146.206	0.145	-0.013
-557.471	154.282	0.088	0.123
-556.456	-19.698	-0.131	0.082
-555.442	-38.700	-0.119	0.064
-554.427	81.853	-0.159	0.175
-553.412	-28.559	-0.284	-0.166
-552.398	-78.442	-0.265	-0.092
-551.383	-66.863	-0.241	0.097
-550.369	800.000	0.021	-0.089
-549.354	94.617	0.081	-0.094
-548.339	77.049	0.287	-0.309
-547.325	-31.249	0.178	0.102
-546.310	800.000	-0.073	-0.228
-545.296	747.355	-0.127	0.346
-544.281	-200.000	-0.053	-0.242
-543.266	-18.784	0.289	0.183
-542.252	275.680	0.197	0.355
-541.237	800.000	-0.091	-0.285
-540.223	114.512	-0.265	0.327
-539.208	-185.881	0.157	0.002
-538.193	-85.709	-0.261	0.082
-537.179	-200.000	0.036	-0.302
-536.164	140.917	0.137	0.183
-535.150	800.000	-0.052	-0.197
-534.135	-169.516	-0.168	0.006
-533.121	142.867	-0.162	0.218
-532.106	-34.335	0.398	-0.221
-531.091	-168.419	-0.207	-0.008
-530.077	-200.000	0.032	-0.235
-529.062	265.098	-0.114	0.201
-528.048	286.098	-0.148	0.270
-527.033	-121.186	-0.398	0.067
-526.018	47.244	-0.091	0.086
-525.004	85.383	-0.099	-0.110
-523.989	-200.000	-0.001	-0.011
-522.975	402.656	-0.166	0.354
-521.960	-93.344	-0.301	-0.084
-520.945	57.391	0.036	0.035
-519.931	-44.956	-0.239	0.120
-518.916	-185.960	-0.259	-0.004
-517.902	800.000	-0.030	0.094
-516.887	-200.000	0.039	0.245
-515.872	-200.000	0.014	-0.177
-514.858	-200.000	-0.007	-0.215
-513.843	-118.443	-0.100	-0.018
-512.829	-93.198	-0.041	-0.012
-511.814	-200.000	0.001	0.212
-510.799	-96.136	-0.255	0.068
-509.785	800.000	-0.046	-0.153
-508.770	800.000	0.025	-0.072
-507.756	-14.371	-0.347	0.226
-506.741	696.866	0.120	-0.318
-505.726	800.000	-0.112	-0.381
-504.712	-59.662	-0.351	-0.152
-503.697	183.609	0.167	-0.250
-502.683	-200.000	-0.031	0.192
-501.668	-200.000	-0.017	0.367
-500.653	425.147	0.112	0.244
-499.639	28.577	0.285	0.244
-498.624	74.012	-0.141	-0.150
-497.610	489.336	0.052	0.119
-496.595	618.680	-0.185	-0.470
-495.581	800.000	0.121	-0.526
-494.566	87.744	0.212	-0.238
-493.551	-117.045	0.302	0.056
-492.537	18.515	0.257	-0.208
-491.522	772.608	0.075	0.206
-490.508	-13.226	0.276	0.181
-489.493	38.258	0.027	0.025
-488.478	-171.708	0.629	0.021
-487.464	-131.936	0.146	0.019
-486.449	381.193	0.086	0.178
-485.435	-200.000	-0.011	-0.117
-484.420	-64.171	0.109	0.045
-483.405	-200.000	0.009	-0.198
-482.391	-200.000	-0.016	-0.266
-481.376	-93.176	0.097	-0.027
-480.362	-32.612	0.118	0.066
-479.347	130.832	0.159	-0.206
-478.332	-38.465	-0.217	0.116
-477.318	-86.325	-0.196	0.061
-476.303	-5.924	-0.444	-0.307
-475.289	-46.938	-0.155	-0.076
-474.274	-23.597	-0.177	0.108
-473.259	-200.000	-0.003	-0.443
-472.245	-189.653	-0.127	0.001
-471.230	-200.000	-0.022	-0.161
-470.216	96.309	-0.219	-0.254
-469.201	800.000	-0.062	0.180
-468.186	149.563	-0.085	0.116
-467.172	-100.589	-0.360	0.090
-466.157	-25.711	-0.020	0.012
-465.143	-102.068	-0.179	-0.044
-464.128	-200.000	-0.005	0.273
-463.113	800.000	0.053	-0.230
-462.099	-200.000	-0.011	0.124
-461.084	-45.094	-0.323	0.163
-460.070	-60.631	-0.198	0.085
-459.055	252.075	-0.030	0.051
-458.040	661.671	-0.082	0.215
-457.026	283.276	0.100	0.182
-456.011	162.110	0.053	0.075
-454.997	-123.935	-0.192	0.031
-453.982	575.168	0.089	0.220
-452.968	127.862	0.160	-0.205
-451.953	-200.000	-0.030	-0.207
-450.938	2.114	0.194	0.141
-449.924	800.000	-0.018	0.065
-448.909	-200.000	-0.075	0.422
-447.895	-200.000	0.021	0.237
-446.880	198.320	-0.154	0.238
-445.865	800.000	-0.007	-0.022
-444.851	-200.000	-0.032	-0.162
-443.836	800.000	-0.063	-0.262
-442.822	-109.342	0.142	0.030
-441.807	-200.000	-0.089	0.505
-440.792	-158.687	-0.098	-0.006
-439.778	-119.944	0.179	-0.031
-438.763	-22.519	0.322	0.197
-437.749	142.474	0.138	0.184
-436.734	800.000	-0.074	-0.258
-435.719	539.444	0.031	0.074
-434.705	21.644	0.107	-0.088
-433.690	226.526	-0.126	0.206
-432.676	-200.000	-0.037	0.261
-431.661	-62.033	0.356	0.150
-430.646	800.000	0.100	-0.396
-429.632	-60.389	-0.170	0.073
-428.617	111.232	0.230	-0.280
-427.603	-200.000	-0.009	-0.258
-426.588	181.777	0.075	0.111
-425.573	206.059	0.046	-0.073
-424.559	600.100	0.039	-0.099
-423.544	-65.416	-0.191	0.077
-422.530	19.119	0.169	-0.137
-421.515	-17.739	0.242	0.153
-420.500	-200.000	0.018	0.104
-419.486	800.000	-0.098	0.375
-418.471	533.013	0.009	0.022
-417.457	-90.375	-0.223	0.065
-416.442	-80.754	-0.178	-0.060
-415.428	161.409	-0.041	0.058
-414.413	-115.931	-0.413	-0.078
-413.398	-64.059	-0.191	-0.079
-412.384	-118.975	-0.224	-0.040
-411.369	-101.295	-0.183	0.045
-410.355	67.262	-0.214	0.220
-409.340	-14.250	0.167	0.108
-408.325	16.278	0.100	0.080
-407.311	592.397	0.031	0.077
-406.296	-200.000	0.001	-0.258
-405.282	-102.976	0.328	-0.078
-404.267	-98.395	-0.003	-0.001
-403.252	62.223	0.164	-0.165
-402.238	543.687	-0.109	-0.262
-401.223	-7.076	-0.100	-0.069
-400.209	-200.000	-0.013	0.206
-399.194	-161.305	-0.278	0.015
-398.179	155.646	-0.208	0.288
-397.165	30.031	0.092	0.079
-396.150	-28.297	-0.186	0.108
-395.136	-22.033	0.154	0.095
-394.121	-200.000	-0.005	-0.258
-393.106	27.078	-0.090	0.076
-392.092	-102.039	-0.128	0.031
-391.077	-34.926	0.090	0.049
-390.063	279.498	-0.131	-0.235
-389.048	-22.437	-0.316	-0.193
-388.033	-122.426	0.072	-0.012
-387.019	87.651	0.148	0.165
-386.004	800.000	-0.052	-0.170
-384.990	-28.124	0.270	0.157
-383.975	-56.749	0.118	0.053
-382.960	800.000	-0.049	0.168
-381.946	-200.000	0.003	0.216
-380.931	-200.000	0.001	0.025
-379.917	-21.333	-0.004	0.002
-378.902	49.048	-0.265	0.251
-377.888	-200.000	-0.009	-0.172
-376.873	-73.948	0.115	-0.042
-375.858	-23.073	-0.364	-0.221
-374.844	102.992	0.005	-0.005
-373.829	57.147	-0.180	-0.177
-372.815	33.853	-0.194	0.170
-371.800	-41.538	0.203	0.105
-370.785	286.548	0.161	-0.292
-369.771	-130.774	0.218	0.030
-368.756	106.903	0.128	0.153
-367.742	-200.000	-0.032	0.323
-366.727	481.234	-0.110	-0.250
-365.712	301.945	0.068	-0.126
-364.698	625.833	-0.058	0.147
-363.683	13.498	-0.243	-0.190
-362.669	16.400	0.131	0.104
-361.654	-20.848	0.108	0.067
-360.639	-122.468	0.069	-0.011
-359.625	60.718	-0.351	0.350
-358.610	-200.000	-0.009	-0.169
-357.596	-176.739	-0.365	-0.009
-356.581	800.000	-0.124	-0.400
-355.566	-76.978	0.190	-0.067
-354.552	-200.000	-0.009	0.049
-353.537	-157.170	0.148	0.009
-352.523	800.000	-0.080	-0.282
-351.508	-189.257	0.064	-0.001
-350.493	481.570	0.048	0.111
-349.479	-200.000	0.018	0.466
-348.464	-88.874	-0.424	0.126
-347.450	237.630	0.116	0.193
-346.435	184.720	0.237	-0.354
-345.420	-138.281	0.112	-0.012
-344.406	483.431	-0.119	0.272
-343.391	-37.202	0.200	-0.107
-342.377	360.979	0.107	0.216
-341.362	-109.283	-0.223	0.047
-340.348	-64.188	-0.259	0.106
-339.333	-100.512	0.079	-0.020
-338.318	-123.246	-0.348	0.056
-337.304	39.644	0.202	-0.182
-336.289	110.895	0.219	-0.265
-335.275	-200.000	0.004	0.254
-334.260	800.000	-0.076	0.273
-333.245	-0.368	-0.022	0.016
-332.231	523.404	-0.188	0.444
-331.216	103.432	0.123	0.145
-330.202	-101.960	0.199	-0.048
-329.187	328.616	0.157	-0.304
-328.172	79.749	-0.139	0.150
-327.158	140.119	-0.124	0.164
-326.143	137.315	0.139	0.183
-325.129	-45.884	-0.228	0.113
-324.114	-78.108	0.272	-0.094
-323.099	150.667	-0.091	0.125
-322.085	78.151	-0.051	-0.054
-321.070	635.601	-0.047	0.119
-320.056	800.000	0.039	0.122
-319.041	-39.160	-0.140	0.074
-318.026	-177.408	-0.084	0.002
-317.012	-200.000	-0.025	-0.119
-315.997	-108.133	0.236	0.051
-314.983	-98.023	0.290	-0.075
-313.968	-200.000	-0.003	-0.258
-312.953	-49.982	0.292	-0.139
-311.939	-120.542	-0.127	0.022
-310.924	-200.000	-0.008	-0.138
-309.910	-130.344	0.236	0.032
-308.895	-181.792	0.309	-0.006
-307.880	22.296	0.039	0.032
-306.866	800.000	-0.056	0.156
-305.851	-52.729	-0.202	-0.094
-304.837	120.839	0.161	-0.200
-303.822	-75.860	0.141	-0.050
-302.807	-200.000	0.013	0.423
-301.793	10.491	0.257	-0.197
-300.778	-51.568	0.165	-0.078
-299.764	56.740	-0.128	0.126
-298.749	-3.001	-0.054	0.038
-297.735	30.906	0.035	0.030
-296.720	-200.000	0.015	-0.121
-295.705	201.500	-0.122	-0.189
-294.691	-200.000	0.008	-0.124
-293.676	-39.447	0.083	0.044
-292.662	-114.819	0.201	-0.038
-291.647	-74.935	-0.231	0.083
-290.632	-39.156	0.232	-0.122
-289.618	431.386	-0.046	0.100
-288.603	-49.159	0.277	0.133
-287.589	13.204	0.296	0.230
-286.574	-153.704	0.131	0.009
-285.559	-71.544	0.124	-0.046
-284.545	201.520	-0.029	-0.045
-283.530	-33.488	0.157	-0.087
-282.516	-60.533	0.080	0.034
-281.501	-134.490	-0.388	0.048
-280.486	-176.722	0.318	0.008
-279.472	-121.015	0.151	-0.025
-278.457	257.101	0.227	0.391
-277.443	236.975	-0.096	-0.160
-276.428	-62.515	0.107	-0.045
-275.413	186.547	0.074	-0.110
-274.399	-79.964	-0.366	0.123
-273.384	-103.911	0.055	-0.013
-272.370	402.293	-0.120	-0.254
-271.355	100.761	-0.165	-0.192
-270.340	639.992	0.032	-0.082
-269.326	-26.405	0.235	0.138
-268.311	800.000	-0.104	-0.292
-267.297	-136.789	-0.296	0.034
-266.282	352.738	-0.060	0.120
-265.267	-118.396	0.070	-0.012
-264.253	800.000	0.111	0.330
-263.238	-5.312	-0.076	0.052
-262.224	-19.904	-0.249	0.154
-261.209	119.888	-0.112	-0.140
-260.195	-200.000	0.009	-0.192
-259.180	-146.349	0.184	0.016
-258.165	-23.693	-0.145	-0.087
-257.151	-10.498	0.072	-0.048
-256.136	-6.625	-0.137	-0.094
-255.122	-152.848	0.036	-0.003
-254.107	609.589	0.083	-0.207
-253.092	-61.477	0.337	0.142
-252.078	-116.921	-0.171	-0.031
-251.063	242.141	0.082	0.138
-250.049	18.799	-0.090	0.072
-249.034	-56.980	-0.122	-0.054
-248.019	-32.219	-0.043	-0.024
-247.005	-102.867	-0.272	0.065
-245.990	-200.000	-0.003	-0.129
-244.976	-49.612	-0.126	-0.060
-243.961	-25.008	-0.061	-0.036
-242.946	-200.000	0.060	-0.279
-241.932	-200.000	-0.014	-0.128
-240.917	-104.740	0.456	-0.105
-239.903	-118.857	0.236	-0.042
-238.888	16.768	0.174	-0.138
-237.873	114.818	-0.156	0.191
-236.859	600.616	0.063	0.157
-235.844	-200.000	0.033	0.378
-234.830	94.234	-0.076	-0.086
-233.815	442.672	0.117	0.256
-232.800	-145.664	-0.081	-0.007
-231.786	-64.916	0.234	-0.095
-230.771	-82.871	-0.238	-0.077
-229.757	-92.331	-0.377	-0.106
-228.742	-186.429	0.196	0.003
-227.727	301.058	-0.193	-0.356
-226.713	18.081	-0.086	0.069
-225.698	114.549	0.098	0.120
-224.684	-200.000	0.021	0.229
-223.669	-136.572	-0.217	-0.025
-222.655	13.916	-0.262	-0.204
-221.640	-200.000	-0.012	0.360
-220.625	-37.380	-0.148	-0.079
-219.611	70.581	-0.013	0.013
-218.596	202.385	-0.032	-0.049
-217.582	800.000	-0.080	0.240
-216.567	-200.000	-0.023	-0.349
-215.552	345.533	-0.116	-0.228
-214.538	-200.000	-0.015	-0.125
-213.523	709.073	0.135	-0.358
-212.509	800.000	0.020	0.069
-211.494	-198.590	-0.207	0.001
-210.479	-200.000	-0.067	0.408
-209.465	330.558	0.074	0.143
-208.450	573.728	-0.052	0.127
-207.436	-200.000	-0.022	0.251
-206.421	-8.724	0.207	0.139
-205.406	-72.557	0.238	-0.088
-204.392	160.651	-0.091	-0.127
-203.377	246.612	0.189	0.320
-202.363	113.074	-0.085	0.103
-201.348	12.119	0.155	0.120
-200.333	182.956	0.088	0.129
-199.319	401.279	-0.014	0.029
-198.304	-200.000	-0.009	-0.324
-197.290	-91.356	-0.318	0.091
-196.275	-135.363	0.129	-0.015
-195.260	43.872	0.111	-0.102
-194.246	-9.054	0.118	-0.079
-193.231	-200.000	0.015	0.080
-192.217	-99.740	-0.220	-0.055
-191.202	209.988	0.056	0.087
-190.187	-200.000	0.039	0.316
-189.173	116.142	-0.069	0.084
-188.158	18.495	-0.119	0.095
-187.144	248.481	0.080	-0.135
-186.129	-200.000	0.001	-0.014
-185.114	61.138	-0.178	0.177
-184.100	-96.000	0.084	0.022
-183.085	-108.696	0.125	0.027
-182.071	4.577	-0.200	-0.147
-181.056	-76.391	-0.158	-0.056
-180.042	-200.000	0.043	-0.241
-179.027	800.000	-0.086	-0.277
-178.012	21.016	-0.102	-0.083
-176.998	-20.523	-0.053	-0.033
-175.983	-200.000	0.020	-0.121
-174.969	-147.672	0.074	0.006
-173.954	-200.000	-0.011	-0.093
-172.939	-200.000	0.000	-0.379
-171.925	-200.000	-0.028	0.141
-170.910	759.341	-0.126	0.341
-169.896	109.037	0.290	0.346
-168.881	83.284	0.015	0.016
-167.866	76.207	-0.314	-0.332
-166.852	270.334	0.031	0.055
-165.837	-74.343	0.337	0.122
-164.823	-38.013	-0.182	-0.097
-163.808	278.019	0.094	-0.167
-162.793	-62.320	-0.135	-0.056
-161.779	-109.745	0.214	0.045
-160.764	-73.114	0.142	-0.052
-159.750	109.785	-0.099	0.118
-158.735	800.000	0.122	0.387
-157.720	-65.753	0.095	0.038
-156.706	-90.549	0.376	-0.109
-155.691	-47.279	-0.116	0.056
-154.677	-157.134	-0.125	-0.008
-153.662	100.943	-0.088	0.102
-152.647	-200.000	-0.007	0.160
-151.633	-31.282	0.146	0.082
-150.618	-127.622	-0.244	0.035
-149.604	247.123	0.203	-0.342
-148.589	-47.560	-0.239	0.116
-147.574	20.493	0.306	0.247
-146.560	-200.000	-0.038	0.230
-145.545	369.810	-0.149	0.301
-144.531	-10.736	0.147	-0.097
-143.516	-11.987	-0.251	-0.164
-142.502	-30.225	-0.102	-0.058
-141.487	-88.868	-0.125	0.037
-140.472	209.123	-0.099	0.155
-139.458	205.288	-0.125	0.194
-138.443	-87.797	-0.147	-0.044
-137.429	676.844	0.086	0.224
-136.414	20.256	0.079	-0.064
-135.399	-97.655	-0.347	0.090
-134.385	-87.585	0.335	-0.101
-133.370	-26.246	0.332	-0.194
-132.356	93.877	-0.151	0.171
-131.341	11.793	0.309	-0.236
-130.326	-200.000	0.040	0.292
-129.312	274.018	-0.114	-0.201
-128.297	-114.081	-0.146	-0.028
-127.283	-200.000	-0.050	-0.348
-126.268	20.649	-0.111	-0.089
-125.253	-82.350	-0.179	0.058
-124.239	63.744	-0.302	-0.303
-123.224	103.462	0.187	-0.218
-122.210	-20.771	0.387	-0.237
