DTS Sentinel unit serial number:	SN413079Multiplexer serial number:	ORYXHardware model number:	OX4-SRSoftware version number:	ORYX F/W v4.00 Oryx Data Collector v3.7.2.0data status	okinstallation	princeton_trtdifferential loss correction	single-endedforward channel	channel 1reverse channel	N/Adate	2019/09/11time	15:44:11forward acquisition time	60.00reverse acquisition time	0.00gamma	496.2192k internal	0.2291k external	0.2291temperature offset calibration	0.9989default loss term (dB/km)	0.3790temperature slope calibration	1.0000multiplexer offset coefficient	1.0000multiplexer slope coefficient	1.0000fibre end	0.00T internal ref (°C)	42.81T ext. ref 1 (°C)	0.98T ext. ref 2 (°C)	37.90length (m)	temperature (°C)	Stokes	anti-Stokes-747.200	18.709	-0.038	0.031
-746.185	800.000	-0.116	0.363
-745.171	-119.655	-0.102	-0.018
-744.156	614.921	-0.134	0.344
-743.142	-104.355	0.075	0.018
-742.127	-28.215	-0.335	0.199
-741.112	4.297	-0.239	0.179
-740.098	-75.764	-0.461	0.167
-739.083	-141.742	0.121	0.012
-738.069	800.000	-0.057	0.197
-737.054	47.142	0.206	-0.196
-736.039	-200.000	-0.003	0.067
-735.025	-200.000	-0.031	0.239
-734.010	6.615	-0.126	0.096
-732.996	70.428	-0.256	-0.271
-731.981	469.579	-0.118	-0.271
-730.966	-58.216	-0.400	0.178
-729.952	-26.936	-0.269	-0.161
-728.937	800.000	0.086	-0.321
-727.923	725.572	0.053	0.145
-726.908	800.000	0.026	0.097
-725.894	24.925	-0.194	0.165
-724.879	-189.612	-0.100	0.001
-723.864	-61.142	0.099	0.043
-722.850	-10.624	0.096	-0.065
-721.835	-85.934	-0.097	0.031
-720.821	-44.003	0.239	-0.123
-719.806	407.531	-0.103	0.223
-718.791	-109.580	-0.062	0.013
-717.777	800.000	0.064	-0.207
-716.762	-200.000	-0.042	-0.228
-715.748	-3.540	-0.209	-0.149
-714.733	273.223	-0.106	0.191
-713.718	10.364	-0.261	0.204
-712.704	-200.000	-0.019	-0.096
-711.689	121.287	-0.182	0.232
-710.675	800.000	-0.068	-0.233
-709.660	-200.000	-0.010	-0.349
-708.645	-50.778	-0.318	0.153
-707.631	-200.000	0.005	0.034
-706.616	85.394	-0.233	-0.261
-705.602	-147.483	0.475	0.041
-704.587	112.270	0.265	0.327
-703.572	-159.846	-0.126	-0.007
-702.558	-92.600	0.125	-0.036
-701.543	111.101	-0.121	0.149
-700.529	-200.000	0.007	-0.049
-699.514	-43.519	0.038	-0.020
-698.499	-125.569	-0.219	0.034
-697.485	-49.723	-0.489	-0.238
-696.470	-132.676	0.113	-0.015
-695.456	502.646	0.124	0.293
-694.441	-147.914	-0.096	-0.008
-693.426	-200.000	-0.008	-0.114
-692.412	-200.000	-0.016	-0.142
-691.397	170.660	-0.045	0.065
-690.383	195.283	-0.149	-0.231
-689.368	-41.058	0.162	0.086
-688.354	800.000	0.089	-0.316
-687.339	407.091	0.107	-0.232
-686.324	75.905	-0.124	-0.134
-685.310	719.823	0.063	0.172
-684.295	-83.920	0.147	-0.048
-683.281	-149.705	-0.103	-0.008
-682.266	-83.778	-0.331	-0.108
-681.251	-80.511	-0.181	-0.062
-680.237	25.829	-0.116	0.098
-679.222	440.108	-0.026	-0.057
-678.208	-15.871	-0.205	-0.134
-677.193	-200.000	0.005	-0.064
-676.178	52.918	0.087	0.085
-675.164	-78.027	0.217	0.077
-674.149	-200.000	-0.026	-0.169
-673.135	800.000	0.116	-0.357
-672.120	-200.000	-0.032	-0.212
-671.105	-93.070	0.114	0.032
-670.091	5.194	-0.188	0.142
-669.076	763.394	0.021	0.058
-668.062	399.126	-0.082	-0.176
-667.047	-200.000	-0.035	-0.296
-666.032	82.464	0.101	-0.112
-665.018	71.113	0.258	-0.273
-664.003	116.683	-0.183	-0.229
-662.989	-32.286	-0.212	-0.121
-661.974	199.013	-0.231	0.362
-660.959	347.515	-0.099	-0.199
-659.945	-97.555	0.316	-0.084
-658.930	-200.000	-0.008	-0.416
-657.916	200.055	-0.174	-0.272
-656.901	578.316	0.027	-0.067
-655.886	257.134	-0.050	-0.088
-654.872	-138.777	-0.254	0.028
-653.857	800.000	-0.059	0.181
-652.843	16.224	0.206	0.166
-651.828	-200.000	-0.034	0.208
-650.814	-0.109	-0.237	-0.172
-649.799	92.221	0.018	-0.020
-648.784	445.112	0.088	-0.196
-647.770	-7.847	-0.054	-0.037
-646.755	93.938	-0.282	0.326
-645.741	800.000	0.102	0.323
-644.726	-69.049	0.271	0.107
-643.711	-177.667	-0.535	-0.013
-642.697	-89.733	0.385	-0.115
-641.682	179.063	-0.079	-0.118
-640.668	-30.020	-0.151	-0.088
-639.653	46.537	-0.107	-0.101
-638.638	-56.719	-0.151	0.068
-637.624	800.000	0.034	0.137
-636.609	-67.107	0.309	-0.124
-635.595	-200.000	0.003	-0.352
-634.580	-82.694	-0.053	-0.017
-633.565	67.041	0.269	-0.279
-632.551	-87.221	-0.214	0.066
-631.536	-48.655	0.166	0.081
-630.522	-74.900	0.077	0.028
-629.507	0.366	-0.155	-0.113
-628.492	-135.399	-0.021	0.003
-627.478	266.744	-0.067	-0.120
-626.463	363.327	0.165	0.337
-625.449	279.796	-0.111	0.203
-624.434	-165.060	0.067	-0.003
-623.419	-177.850	-0.176	-0.004
-622.405	-200.000	0.096	-0.435
-621.390	13.670	-0.276	-0.219
-620.376	-7.235	0.201	0.139
-619.361	73.901	-0.076	-0.082
-618.346	212.328	-0.125	0.201
-617.332	800.000	-0.031	-0.091
-616.317	79.817	0.158	-0.173
-615.303	-110.849	-0.011	-0.002
-614.288	-105.240	0.095	0.022
-613.273	135.947	-0.132	0.175
-612.259	-49.056	-0.330	-0.161
-611.244	800.000	-0.035	0.109
-610.230	-39.807	-0.254	0.135
-609.215	-1.613	0.062	0.044
-608.201	800.000	0.119	-0.366
-607.186	-59.549	-0.135	-0.059
-606.171	-113.356	0.100	-0.020
-605.157	-20.233	-0.453	-0.284
-604.142	36.435	-0.111	0.100
-603.128	27.774	0.133	0.114
-602.113	800.000	0.069	0.198
-601.098	-52.466	-0.245	0.116
-600.084	-168.326	0.210	0.008
-599.069	423.953	-0.098	-0.214
-598.055	412.720	0.079	-0.172
-597.040	-128.251	0.323	0.047
-596.025	-134.164	-0.359	-0.045
-595.011	328.843	0.091	-0.178
-593.996	-99.570	0.118	-0.030
-592.982	44.728	-0.209	-0.196
-591.967	-156.379	-0.421	0.027
-590.952	800.000	-0.017	-0.068
-589.938	-18.764	-0.275	-0.175
-588.923	-100.713	-0.143	-0.036
-587.909	5.123	0.118	0.089
-586.894	36.647	0.153	-0.138
-585.879	305.288	-0.064	-0.121
-584.865	217.737	-0.062	0.100
-583.850	-200.000	-0.016	0.103
-582.836	268.267	-0.045	0.080
-581.821	-100.045	-0.182	-0.046
-580.806	523.271	-0.017	0.041
-579.792	800.000	-0.103	-0.344
-578.777	-200.000	-0.046	0.209
-577.763	-125.566	-0.069	-0.011
-576.748	-48.945	0.138	-0.067
-575.733	74.760	-0.242	-0.259
-574.719	800.000	-0.047	0.192
-573.704	651.651	0.084	-0.219
-572.690	683.920	-0.098	-0.261
-571.675	-139.316	0.440	0.048
-570.661	-17.283	-0.102	-0.065
-569.646	202.459	-0.144	-0.225
-568.631	34.169	-0.094	-0.083
-567.617	800.000	0.089	0.357
-566.602	-119.624	0.538	0.095
-565.588	391.683	0.085	0.180
-564.573	-161.309	0.236	0.012
-563.558	210.085	-0.166	-0.265
-562.544	-36.021	-0.183	0.100
-561.529	800.000	0.109	-0.442
-560.515	198.285	0.053	-0.082
-559.500	-120.569	-0.028	0.005
-558.485	-161.614	-0.171	-0.009
-557.471	54.231	-0.095	0.093
-556.456	-91.135	0.089	0.026
-555.442	-200.000	-0.006	0.042
-554.427	-69.038	-0.318	-0.125
-553.412	160.980	0.164	-0.233
-552.398	-200.000	0.017	-0.323
-551.383	-200.000	-0.007	-0.197
-550.369	800.000	0.095	0.308
-549.354	800.000	0.062	-0.226
-548.339	253.261	-0.082	-0.142
-547.325	-192.108	-0.221	-0.002
-546.310	227.195	0.158	-0.260
-545.296	-200.000	-0.066	-0.364
-544.281	800.000	-0.058	0.190
-543.266	48.295	0.161	-0.153
-542.252	198.196	-0.211	0.328
-541.237	-58.254	0.056	-0.025
-540.223	-32.717	-0.315	0.178
-539.208	-4.931	-0.202	0.142
-538.193	10.323	-0.212	0.164
-537.179	800.000	0.071	0.267
-536.164	-25.258	0.095	-0.057
-535.150	242.535	-0.156	0.265
-534.135	-200.000	0.002	-0.286
-533.121	139.153	-0.101	-0.135
-532.106	-18.870	0.114	0.072
-531.091	538.908	0.038	-0.091
-530.077	-200.000	0.024	0.216
-529.062	-39.723	-0.358	-0.190
-528.048	-200.000	-0.012	-0.213
-527.033	749.011	-0.027	-0.074
-526.018	-200.000	0.007	0.072
-525.004	800.000	-0.018	0.070
-523.989	637.885	0.079	-0.203
-522.975	-165.581	0.371	0.016
-521.960	30.248	-0.190	-0.165
-520.945	-123.548	-0.095	0.015
-519.931	-62.430	0.297	-0.125
-518.916	261.092	-0.037	-0.065
-517.902	0.726	-0.144	-0.104
-516.887	-84.305	0.225	0.072
-515.872	72.382	0.104	0.110
-514.858	-19.503	-0.176	-0.111
-513.843	-165.882	-0.351	-0.015
-512.829	-100.596	0.257	0.064
-511.814	-10.938	-0.183	-0.123
-510.799	221.834	0.026	-0.043
-509.785	-200.000	0.045	0.373
-508.770	800.000	-0.025	-0.088
-507.756	364.281	0.087	-0.179
-506.741	-199.111	0.097	-0.001
-505.726	-109.115	0.320	0.069
-504.712	-163.243	0.084	0.004
-503.697	800.000	0.077	-0.314
-502.683	-200.000	-0.029	-0.411
-501.668	800.000	-0.063	-0.214
-500.653	-42.455	-0.167	-0.087
-499.639	-98.458	-0.053	-0.014
-498.624	-200.000	-0.010	-0.101
-497.610	178.672	0.099	-0.146
-496.595	-23.703	-0.301	0.183
-495.581	-200.000	-0.050	-0.352
-494.566	224.823	-0.050	0.083
-493.551	-131.143	-0.363	0.049
-492.537	-160.209	0.190	0.010
-491.522	171.315	0.070	0.101
-490.508	700.830	0.027	0.073
-489.493	-125.656	-0.337	0.052
-488.478	60.789	-0.122	-0.122
-487.464	141.552	-0.122	0.164
-486.449	-55.266	-0.032	-0.014
-485.435	-108.974	-0.206	-0.045
-484.420	-200.000	-0.033	-0.181
-483.405	528.429	0.072	0.172
-482.391	-59.183	-0.231	-0.101
-481.376	-200.000	-0.006	0.171
-480.362	800.000	0.022	-0.089
-479.347	-196.967	0.070	-0.000
-478.332	449.670	-0.046	-0.103
-477.318	-200.000	-0.010	0.202
-476.303	9.135	-0.280	0.215
-475.289	288.073	0.153	-0.280
-474.274	24.724	-0.135	0.113
-473.259	-146.590	-0.227	0.020
-472.245	-163.552	-0.097	0.005
-471.230	800.000	0.032	0.096
-470.216	364.602	-0.118	0.241
-469.201	-44.794	-0.223	0.113
-468.186	66.542	-0.075	0.077
-467.172	-59.832	-0.261	0.113
-466.157	-54.322	0.064	0.030
-465.143	-63.082	0.235	0.098
-464.128	90.386	0.216	0.245
-463.113	800.000	0.186	-0.529
-462.099	267.561	-0.098	-0.173
-461.084	-52.842	-0.293	-0.137
-460.070	800.000	-0.059	0.171
-459.055	-38.611	0.175	0.094
-458.040	-29.868	0.370	0.214
-457.026	157.787	0.219	-0.307
-456.011	-172.663	-0.282	0.009
-454.997	-112.792	-0.058	0.012
-453.982	800.000	0.076	-0.230
-452.968	-76.513	0.105	0.037
-451.953	-3.441	0.156	0.110
-450.938	223.666	0.141	0.230
-449.924	-1.782	-0.293	0.209
-448.909	-11.680	-0.188	0.125
-447.895	-37.846	-0.131	0.070
-446.880	33.037	-0.134	-0.117
-445.865	-200.000	0.003	-0.163
-444.851	-200.000	-0.030	0.142
-443.836	800.000	-0.032	-0.114
-442.822	-84.869	0.164	-0.052
-441.807	672.280	-0.122	-0.320
-440.792	800.000	0.036	-0.157
-439.778	141.092	-0.336	0.449
-438.763	364.440	-0.077	-0.157
-437.749	-84.561	0.095	-0.030
-436.734	-69.008	-0.262	-0.102
-435.719	-37.499	0.389	0.210
-434.705	-200.000	-0.013	0.066
-433.690	-200.000	0.011	-0.109
-432.676	-145.931	0.336	0.030
-431.661	24.344	-0.198	0.166
-430.646	284.143	-0.041	0.074
-429.632	262.817	0.154	0.271
-428.617	52.819	0.034	0.033
-427.603	60.838	-0.152	0.153
-426.588	-64.469	0.351	0.144
-425.573	-86.199	-0.050	0.016
-424.559	102.340	-0.084	-0.099
-423.544	68.538	0.310	0.321
-422.530	-46.986	-0.214	-0.106
-421.515	-14.331	-0.226	-0.147
-420.500	225.132	-0.066	-0.109
-419.486	-47.495	0.234	0.115
-418.471	119.573	0.123	0.154
-417.457	419.679	-0.100	-0.217
-416.442	294.506	-0.119	0.220
-415.428	-7.475	-0.175	-0.120
-414.413	26.931	-0.233	0.197
-413.398	7.764	-0.211	0.160
-412.384	19.973	-0.046	0.037
-411.369	-200.000	0.004	-0.202
-410.355	-70.770	-0.205	-0.078
-409.340	800.000	0.043	-0.158
-408.325	800.000	-0.052	-0.200
-407.311	-16.182	-0.084	-0.054
-406.296	-107.468	-0.080	0.018
-405.282	-87.592	-0.159	0.049
-404.267	-197.796	0.144	0.001
-403.252	102.241	0.169	0.199
-402.238	800.000	0.043	0.122
-401.223	-96.323	-0.172	0.046
-400.209	425.601	-0.245	-0.534
-399.194	-76.312	0.298	-0.106
-398.179	52.511	-0.137	-0.132
-397.165	-55.644	-0.061	-0.027
-396.150	200.921	0.135	0.210
-395.136	800.000	0.037	0.128
-394.121	4.730	-0.341	-0.253
-393.106	144.276	-0.073	-0.098
-392.092	-93.941	0.340	0.094
-391.077	-1.339	0.075	0.054
-390.063	60.731	0.086	-0.086
-389.048	-79.407	0.171	-0.058
-388.033	-175.127	0.233	0.007
-387.019	101.375	-0.113	-0.133
-386.004	-200.000	-0.001	-0.057
-384.990	101.646	-0.264	-0.311
-383.975	-34.750	-0.145	-0.080
-382.960	-42.474	-0.040	-0.021
-381.946	-200.000	-0.051	0.228
-380.931	464.090	-0.140	0.316
-379.917	-16.279	-0.028	0.018
-378.902	135.932	-0.236	0.310
-377.888	-38.268	-0.211	0.113
-376.873	-116.466	-0.264	-0.049
-375.858	-200.000	-0.031	0.170
-374.844	193.632	0.239	0.365
-373.829	606.883	-0.047	0.119
-372.815	5.905	-0.182	0.136
-371.800	96.971	0.142	0.164
-370.785	582.953	-0.061	0.152
-369.771	59.481	-0.190	-0.189
-368.756	81.812	0.191	0.209
-367.742	-200.000	-0.021	0.331
-366.727	229.924	0.055	-0.090
-365.712	800.000	0.081	-0.286
-364.698	-200.000	-0.023	0.235
-363.683	97.376	0.208	0.241
-362.669	-129.659	0.463	0.064
-361.654	-200.000	-0.006	-0.229
-360.639	-200.000	0.017	-0.241
-359.625	-80.037	0.302	0.102
-358.610	-200.000	0.001	-0.041
-357.596	800.000	0.074	0.322
-356.581	-96.894	0.435	-0.115
-355.566	-200.000	0.017	0.228
-354.552	-55.401	0.147	0.067
-353.537	141.316	-0.176	0.235
-352.523	-145.419	0.243	-0.022
-351.508	-200.000	-0.020	-0.092
-350.493	-194.981	0.047	0.000
-349.479	-163.597	0.299	0.014
-348.464	182.272	-0.228	-0.340
-347.450	40.166	0.311	-0.282
-346.435	800.000	-0.089	-0.348
-345.420	273.171	-0.104	0.186
-344.406	585.202	0.100	0.248
-343.391	39.916	-0.100	-0.090
-342.377	-83.189	0.205	-0.066
-341.362	-153.093	-0.285	-0.020
-340.348	130.534	0.074	0.096
-339.333	-82.790	-0.215	-0.070
-338.318	-161.912	0.144	0.007
-337.304	-200.000	0.025	0.121
-336.289	-9.920	0.138	0.093
-335.275	331.604	0.007	0.015
-334.260	-72.986	0.169	-0.063
-333.245	206.126	-0.338	0.529
-332.231	-97.282	-0.210	0.055
-331.216	166.094	0.097	-0.139
-330.202	-4.662	-0.185	0.129
-329.187	31.827	-0.418	0.363
-328.172	-200.000	-0.013	-0.202
-327.158	158.877	0.047	-0.066
-326.143	-185.401	-0.071	0.001
-325.129	-121.220	0.183	0.031
-324.114	-84.533	0.239	0.076
-323.099	-200.000	-0.065	-0.325
-322.085	238.378	0.077	0.129
-321.070	800.000	0.064	0.264
-320.056	130.465	-0.181	0.233
-319.041	473.008	-0.066	0.149
-318.026	800.000	-0.039	0.117
-317.012	-104.345	0.360	-0.084
-315.997	127.990	0.160	-0.205
-314.983	487.070	0.151	0.348
-313.968	-96.103	-0.349	0.093
-312.953	800.000	-0.063	-0.198
-311.939	-200.000	-0.014	-0.286
-310.924	-31.940	-0.096	-0.054
-309.910	-200.000	0.071	-0.420
-308.895	-123.943	0.422	-0.067
-307.880	92.123	-0.056	0.063
-306.866	-84.571	0.309	0.098
-305.851	800.000	-0.007	0.023
-304.837	-167.817	-0.183	0.007
-303.822	265.365	0.147	0.258
-302.807	219.849	0.060	-0.097
-301.793	10.044	0.381	0.291
-300.778	-142.344	0.096	-0.010
-299.764	-200.000	-0.029	0.376
-298.749	176.563	0.168	-0.246
-297.735	-74.477	0.419	-0.152
-296.720	-200.000	0.020	0.457
-295.705	-112.177	-0.154	0.031
-294.691	800.000	0.009	0.027
-293.676	-200.000	0.009	-0.083
-292.662	173.999	-0.131	0.190
-291.647	800.000	-0.084	0.312
-290.632	800.000	-0.117	0.352
-289.618	-191.335	-0.151	0.002
-288.603	800.000	-0.116	0.347
-287.589	-30.620	0.181	-0.103
-286.574	-48.677	0.267	-0.129
-285.559	-71.806	-0.294	0.110
-284.545	204.054	0.033	0.051
-283.530	-79.798	-0.163	0.055
-282.516	492.205	0.103	0.237
-281.501	-119.429	0.175	0.031
-280.486	-65.907	0.085	0.034
-279.472	205.961	0.021	-0.034
-278.457	-116.543	0.336	-0.062
-277.443	800.000	0.071	-0.271
-276.428	-118.954	-0.137	0.024
-275.413	136.025	0.095	0.124
-274.399	-200.000	0.004	-0.224
-273.384	800.000	-0.048	0.211
-272.370	-45.492	-0.181	-0.090
-271.355	-45.545	0.316	0.158
-270.340	-200.000	0.010	-0.098
-269.326	154.859	0.275	0.380
-268.311	-200.000	-0.026	0.116
-267.297	16.368	0.181	-0.143
-266.282	-200.000	0.004	-0.175
-265.267	-167.181	-0.086	-0.003
-264.253	-126.972	-0.324	-0.048
-263.238	77.936	0.045	0.048
-262.224	191.526	0.109	-0.164
-261.209	-123.036	-0.367	0.059
-260.195	-114.253	0.237	-0.046
-259.180	-51.707	-0.124	-0.058
-258.165	65.467	-0.168	0.171
-257.151	-65.014	-0.055	0.022
-256.136	22.502	0.230	0.189
-255.122	17.180	0.118	0.094
-254.107	-170.328	0.420	0.015
-253.092	-200.000	0.008	0.116
-252.078	259.740	0.047	-0.081
-251.063	8.469	0.133	-0.101
-250.049	-156.453	0.187	-0.012
-249.034	-200.000	0.006	-0.167
-248.019	-30.661	-0.069	-0.039
-247.005	287.902	-0.123	-0.224
-245.990	-49.760	-0.157	0.075
-244.976	302.362	-0.041	-0.075
-243.961	55.516	-0.143	0.139
-242.946	-160.030	-0.113	-0.006
-241.932	-94.454	0.158	0.043
-240.917	3.999	0.165	0.121
-239.903	-8.525	0.112	0.076
-238.888	-21.369	-0.165	0.101
-237.873	-200.000	0.008	0.351
-236.859	39.332	0.087	0.078
-235.844	36.145	-0.164	-0.145
-234.830	58.513	-0.038	0.037
-233.815	-149.892	-0.189	0.015
-232.800	391.380	-0.079	0.165
-231.786	569.629	0.074	0.182
-230.771	-26.806	0.210	0.123
-229.757	10.469	-0.060	-0.046
-228.742	37.782	0.162	-0.144
-227.727	165.516	0.163	-0.231
-226.713	-200.000	-0.032	0.209
-225.698	-62.491	0.133	-0.056
-224.684	-32.409	0.403	-0.225
-223.669	32.589	0.094	-0.082
-222.655	-55.361	0.274	0.123
-221.640	145.392	0.165	-0.221
-220.625	800.000	-0.138	0.402
-219.611	19.195	-0.203	0.164
-218.596	51.053	0.111	0.106
-217.582	-30.803	0.186	0.105
-216.567	-85.769	0.104	0.032
-215.552	28.441	0.143	0.121
-214.538	-24.027	-0.361	0.216
-213.523	-200.000	0.008	0.126
-212.509	189.458	0.152	0.229
-211.494	-79.170	-0.151	-0.052
-210.479	-200.000	-0.461	-0.000
-209.465	51.487	0.051	-0.049
-208.450	-42.597	0.187	0.096
-207.436	17.674	0.253	-0.202
-206.421	-113.540	0.117	-0.023
-205.406	-110.241	0.220	-0.046
-204.392	-200.000	-0.056	0.296
-203.377	139.574	-0.191	-0.252
-202.363	-200.000	0.062	-0.346
-201.348	800.000	-0.088	0.289
-200.333	22.527	0.045	-0.037
-199.319	-200.000	-0.011	0.308
-198.304	-83.005	-0.017	-0.005
-197.290	-200.000	-0.016	0.080
-196.275	800.000	-0.018	0.067
-195.260	-5.888	0.222	0.153
-194.246	-83.004	0.224	0.072
-193.231	575.444	0.030	0.072
-192.217	-102.039	-0.120	-0.029
-191.202	-42.528	0.457	-0.233
-190.187	-200.000	-0.026	0.173
-189.173	113.440	0.192	-0.234
-188.158	800.000	-0.071	-0.217
-187.144	-77.233	0.081	0.028
-186.129	-84.117	0.264	0.084
-185.114	55.465	-0.023	0.023
-184.100	-92.907	0.092	0.026
-183.085	84.384	-0.134	-0.147
-182.071	50.998	-0.061	-0.058
-181.056	32.730	0.155	-0.134
-180.042	-78.106	-0.239	0.082
-179.027	-101.738	0.241	-0.058
-178.012	-200.000	0.000	-0.280
-176.998	96.782	-0.086	-0.099
-175.983	597.208	0.077	-0.192
-174.969	42.198	-0.180	-0.164
-173.954	245.251	-0.043	-0.072
-172.939	104.970	-0.218	0.258
-171.925	-200.000	0.043	-0.224
-170.910	-89.176	0.249	0.074
-169.896	-57.287	0.423	-0.187
-168.881	55.103	-0.123	0.119
-167.866	-121.076	-0.107	0.018
-166.852	10.831	-0.143	-0.109
-165.837	176.486	-0.159	-0.232
-164.823	-90.213	0.276	-0.080
-163.808	-64.329	0.107	-0.044
-162.793	247.266	0.071	-0.121
-161.779	-40.096	-0.252	0.132
-160.764	800.000	-0.071	-0.270
-159.750	-200.000	-0.004	-0.184
-158.735	-87.206	0.178	-0.054
-157.720	-130.817	0.115	0.016
-156.706	-22.008	0.098	0.060
-155.691	118.475	-0.126	-0.156
-154.677	536.722	-0.068	-0.161
-153.662	-200.000	0.000	-0.122
-152.647	-118.284	0.422	0.075
-151.633	-3.059	-0.223	-0.155
-150.618	-158.969	0.222	-0.013
-149.604	-116.975	0.326	0.060
-148.589	-74.138	-0.219	0.079
-147.574	176.892	-0.176	-0.256
-146.560	800.000	-0.048	-0.187
-145.545	-38.762	0.284	0.150
-144.531	107.614	0.144	-0.172
-143.516	-21.571	-0.190	0.116
-142.502	-200.000	-0.017	-0.208
-141.487	758.865	0.100	0.272
-140.472	-37.387	0.140	0.075
-139.458	-41.003	-0.060	0.031
-138.443	-84.174	0.134	0.042
-137.429	-200.000	0.000	0.034
-136.414	-56.792	0.274	0.121
-135.399	-89.409	0.351	-0.103
-134.385	6.321	-0.155	-0.115
-133.370	47.743	-0.073	0.068
-132.356	-62.464	-0.175	0.073
-131.341	-151.065	0.131	-0.010
-130.326	-129.541	0.163	-0.023
-129.312	-29.630	-0.072	0.041
-128.297	-187.300	-0.462	-0.006
-127.283	119.594	0.180	-0.223
-126.268	184.057	-0.044	0.065
-125.253	227.559	-0.111	0.181
-124.239	32.197	-0.120	-0.104
-123.224	-200.000	-0.005	-0.087
-122.210	17.560	-0.017	-0.014
-121.195	-200.000	0.048	-0.300
