DTS Sentinel unit serial number:	SN413079Multiplexer serial number:	ORYXHardware model number:	OX4-SRSoftware version number:	ORYX F/W v4.00 Oryx Data Collector v3.7.2.0data status	okinstallation	princeton_trtdifferential loss correction	single-endedforward channel	channel 1reverse channel	N/Adate	2019/09/13time	19:18:35forward acquisition time	60.00reverse acquisition time	0.00gamma	496.2192k internal	0.2326k external	0.2326temperature offset calibration	1.0119default loss term (dB/km)	0.3790temperature slope calibration	1.0000multiplexer offset coefficient	1.0000multiplexer slope coefficient	1.0000fibre end	0.00T internal ref (°C)	31.19T ext. ref 1 (°C)	3.80T ext. ref 2 (°C)	24.59length (m)	temperature (°C)	Stokes	anti-Stokes-747.200	618.327	-0.066	0.168
-746.185	-200.000	0.002	0.283
-745.171	56.819	0.059	-0.058
-744.156	-200.000	0.062	0.291
-743.142	86.151	0.233	0.259
-742.127	129.822	0.102	0.132
-741.112	-200.000	0.015	-0.107
-740.098	-30.440	-0.311	0.178
-739.083	-94.026	-0.356	0.099
-738.069	800.000	-0.039	0.169
-737.054	308.777	-0.053	0.099
-736.039	800.000	-0.097	-0.309
-735.025	-200.000	-0.026	-0.152
-734.010	-86.309	-0.400	-0.124
-732.996	461.179	-0.083	0.187
-731.981	427.622	0.041	-0.089
-730.966	-48.704	0.166	0.080
-729.952	-200.000	-0.025	-0.324
-728.937	-78.372	-0.223	-0.077
-727.923	206.719	-0.114	0.180
-726.908	-70.673	-0.051	-0.019
-725.894	180.811	0.059	0.088
-724.879	-200.000	0.014	-0.122
-723.864	95.995	0.019	0.022
-722.850	465.210	0.139	-0.314
-721.835	684.078	-0.058	-0.154
-720.821	-145.742	-0.280	0.025
-719.806	113.915	0.207	-0.254
-718.791	69.684	-0.114	-0.118
-717.777	-73.381	-0.279	0.103
-716.762	350.099	0.090	0.180
-715.748	38.411	-0.222	0.199
-714.733	72.785	0.172	-0.181
-713.718	-81.919	-0.485	-0.160
-712.704	-75.922	-0.150	0.053
-711.689	544.074	-0.016	-0.038
-710.675	-71.110	-0.267	-0.101
-709.660	-21.720	0.259	0.159
-708.645	-97.504	0.112	-0.029
-707.631	533.811	-0.108	-0.257
-706.616	13.257	-0.066	-0.052
-705.602	457.999	-0.099	-0.221
-704.587	-200.000	-0.032	0.288
-703.572	124.165	-0.209	-0.265
-702.558	800.000	0.074	-0.259
-701.543	-9.143	-0.164	-0.111
-700.529	138.529	-0.119	0.158
-699.514	665.943	-0.058	-0.151
-698.499	71.771	0.113	0.118
-697.485	10.296	0.279	-0.214
-696.470	157.824	0.197	-0.275
-695.456	174.213	0.105	0.153
-694.441	-200.000	0.000	0.292
-693.426	800.000	0.107	-0.297
-692.412	-7.876	0.240	-0.163
-691.397	-12.469	-0.149	-0.098
-690.383	499.880	0.106	-0.245
-689.368	-200.000	-0.095	-0.451
-688.354	1.958	-0.116	-0.084
-687.339	53.328	0.147	0.142
-686.324	3.925	0.331	0.244
-685.310	800.000	0.093	-0.297
-684.295	-23.877	0.299	0.180
-683.281	-200.000	0.026	-0.166
-682.266	800.000	0.067	-0.239
-681.251	-68.650	0.330	-0.129
-680.237	4.332	-0.229	-0.169
-679.222	33.897	0.024	0.021
-678.208	-200.000	-0.036	-0.178
-677.193	800.000	-0.037	-0.116
-676.178	67.919	0.205	-0.211
-675.164	-51.467	-0.195	-0.092
-674.149	50.332	-0.163	0.155
-673.135	-116.149	-0.127	-0.024
-672.120	295.391	-0.132	-0.243
-671.105	30.420	0.550	-0.472
-670.091	-200.000	0.005	-0.128
-669.076	-200.000	-0.009	0.132
-668.062	-200.000	0.001	-0.202
-667.047	250.619	-0.113	-0.194
-666.032	390.255	-0.074	0.154
-665.018	-101.335	0.183	-0.045
-664.003	800.000	0.071	-0.205
-662.989	53.589	-0.377	-0.364
-661.974	-151.819	0.122	-0.009
-660.959	83.231	0.190	0.208
-659.945	280.878	-0.243	0.438
-658.930	141.668	-0.151	-0.201
-657.916	202.182	-0.182	0.282
-656.901	34.672	-0.411	0.361
-655.886	61.421	-0.183	-0.183
-654.872	-200.000	-0.046	0.235
-653.857	174.463	-0.021	-0.031
-652.843	-16.883	0.165	-0.105
-651.828	-84.876	0.046	-0.015
-650.814	277.325	0.075	-0.134
-649.799	-200.000	0.020	-0.210
-648.784	223.212	0.103	0.167
-647.770	178.181	-0.250	-0.366
-646.755	-64.580	-0.270	-0.110
-645.741	-68.483	0.243	-0.095
-644.726	-85.179	0.144	0.045
-643.711	800.000	-0.012	-0.048
-642.697	66.425	0.155	0.158
-641.682	-66.634	-0.116	-0.046
-640.668	-200.000	-0.077	-0.339
-639.653	18.964	-0.268	0.216
-638.638	308.144	-0.193	-0.363
-637.624	125.312	-0.141	0.178
-636.609	16.280	-0.199	-0.158
-635.595	800.000	-0.064	0.257
-634.580	800.000	-0.041	0.164
-633.565	-17.291	-0.056	-0.035
-632.551	34.936	0.116	-0.102
-631.536	-56.060	-0.246	0.110
-630.522	800.000	0.028	0.095
-629.507	47.305	0.372	-0.348
-628.492	-106.538	-0.313	-0.070
-627.478	0.628	0.175	-0.125
-626.463	-136.662	-0.144	-0.017
-625.449	800.000	-0.081	0.307
-624.434	-200.000	-0.011	-0.072
-623.419	-167.173	-0.079	-0.003
-622.405	105.372	0.187	-0.222
-621.390	-29.968	0.074	0.043
-620.376	165.802	-0.106	0.150
-619.361	-95.591	-0.412	-0.111
-618.346	145.809	0.091	0.122
-617.332	800.000	-0.110	-0.369
-616.317	-105.861	-0.052	0.012
-615.303	-72.537	-0.253	-0.094
-614.288	-88.287	0.247	-0.074
-613.273	59.003	-0.256	0.252
-612.259	117.927	-0.050	-0.062
-611.244	121.158	-0.026	0.033
-610.230	-154.147	-0.245	-0.017
-609.215	-80.901	-0.235	0.078
-608.201	-47.514	0.192	0.094
-607.186	-67.146	0.438	-0.173
-606.171	-64.422	0.252	0.103
-605.157	-54.829	-0.216	0.098
-604.142	440.540	-0.101	-0.222
-603.128	145.822	-0.187	0.252
-602.113	42.371	0.071	0.065
-601.098	-142.070	0.139	0.014
-600.084	-59.940	0.145	-0.062
-599.069	-200.000	0.023	-0.281
-598.055	12.448	-0.067	-0.052
-597.040	417.370	-0.053	0.113
-596.025	259.256	0.072	-0.125
-595.011	-79.099	-0.057	0.019
-593.996	259.453	0.093	-0.162
-592.982	-200.000	0.003	-0.162
-591.967	139.607	-0.214	-0.282
-590.952	1.822	0.209	-0.151
-589.938	420.030	0.166	0.356
-588.923	-100.834	-0.161	0.040
-587.909	-113.112	-0.190	-0.038
-586.894	-200.000	0.012	-0.064
-585.879	514.996	-0.143	-0.336
-584.865	321.500	-0.036	-0.069
-583.850	215.439	-0.095	-0.150
-582.836	519.527	0.054	0.128
-581.821	800.000	0.021	0.060
-580.806	185.438	-0.015	-0.023
-579.792	-31.897	-0.093	0.052
-578.777	-200.000	-0.023	0.216
-577.763	-60.763	0.193	-0.082
-576.748	-8.166	-0.143	0.097
-575.733	-26.117	0.224	-0.132
-574.719	-149.599	0.199	-0.016
-573.704	18.788	0.167	0.134
-572.690	-69.116	0.218	-0.084
-571.675	-139.279	-0.197	-0.021
-570.661	-200.000	0.037	-0.244
-569.646	73.648	-0.334	0.350
-568.631	38.446	-0.060	0.053
-567.617	276.557	0.166	-0.296
-566.602	-97.851	-0.376	0.097
-565.588	-14.775	0.158	0.102
-564.573	-178.123	-0.011	-0.000
-563.558	129.105	-0.114	-0.145
-562.544	201.907	0.142	0.219
-561.529	800.000	0.088	-0.359
-560.515	449.161	-0.137	0.302
-559.500	-199.260	0.118	-0.001
-558.485	-115.344	-0.229	0.043
-557.471	-143.471	-0.300	-0.029
-556.456	-143.076	0.036	-0.004
-555.442	-20.371	0.187	0.115
-554.427	89.632	0.131	0.147
-553.412	95.795	-0.219	0.250
-552.398	-200.000	0.027	-0.258
-551.383	-33.476	-0.063	-0.035
-550.369	-159.768	-0.465	-0.026
-549.354	4.547	-0.188	0.138
-548.339	-200.000	0.021	-0.173
-547.325	19.628	-0.143	-0.115
-546.310	-200.000	-0.104	0.515
-545.296	-62.929	-0.121	-0.050
-544.281	-54.183	-0.495	0.225
-543.266	98.663	0.070	0.081
-542.252	-101.746	-0.219	0.053
-541.237	12.885	-0.168	0.130
-540.223	800.000	-0.027	0.080
-539.208	-200.000	-0.003	-0.127
-538.193	40.858	-0.067	-0.060
-537.179	-2.032	-0.205	-0.144
-536.164	-48.854	-0.128	0.062
-535.150	45.657	-0.152	0.141
-534.135	-137.465	-0.187	0.021
-533.121	-55.900	-0.086	0.038
-532.106	-200.000	-0.003	-0.073
-531.091	-63.400	-0.205	-0.085
-530.077	-200.000	0.005	0.063
-529.062	236.164	-0.125	0.207
-528.048	594.162	0.117	-0.289
-527.033	-125.924	0.097	0.015
-526.018	-68.389	-0.217	-0.084
-525.004	-167.052	0.105	0.004
-523.989	-76.921	0.046	0.016
-522.975	29.922	-0.269	0.229
-521.960	-200.000	0.046	-0.208
-520.945	-129.542	-0.093	0.013
-519.931	708.095	0.053	0.139
-518.916	-32.235	0.210	-0.117
-517.902	19.907	-0.164	0.133
-516.887	-34.002	0.144	0.079
-515.872	-162.102	-0.129	-0.007
-514.858	-136.919	0.193	-0.022
-513.843	-52.710	0.152	-0.070
-512.829	-101.199	0.160	-0.039
-511.814	96.014	0.183	-0.209
-510.799	-102.217	0.201	0.048
-509.785	-71.340	-0.336	0.126
-508.770	1.956	0.305	-0.220
-507.756	-148.388	-0.265	0.022
-506.741	-37.594	0.236	0.125
-505.726	503.893	0.062	-0.145
-504.712	800.000	0.020	0.081
-503.697	85.810	-0.169	-0.186
-502.683	617.417	-0.148	-0.371
-501.668	-25.277	0.357	-0.211
-500.653	20.051	0.258	-0.208
-499.639	800.000	-0.054	-0.183
-498.624	624.575	-0.028	0.072
-497.610	-106.399	0.027	0.006
-496.595	120.007	0.110	0.136
-495.581	-73.118	-0.384	-0.141
-494.566	64.910	-0.130	0.131
-493.551	-48.350	0.292	-0.141
-492.537	530.745	-0.096	0.227
-491.522	-81.421	-0.147	-0.048
-490.508	155.407	-0.290	-0.399
-489.493	-83.170	0.189	-0.061
-488.478	437.777	0.065	0.141
-487.464	227.555	-0.049	-0.080
-486.449	171.920	0.100	0.144
-485.435	-200.000	-0.014	-0.193
-484.420	-9.979	0.088	-0.058
-483.405	268.352	-0.099	0.174
-482.391	-105.001	0.164	0.037
-481.376	460.649	0.047	0.106
-480.362	-200.000	0.065	-0.000
-479.347	800.000	0.099	0.309
-478.332	-104.138	-0.316	-0.073
-477.318	800.000	-0.087	-0.288
-476.303	231.516	-0.071	-0.116
-475.289	65.881	0.284	-0.287
-474.274	-50.374	0.152	-0.072
-473.259	142.976	-0.247	0.328
-472.245	-25.529	0.219	-0.129
-471.230	-133.068	0.298	-0.038
-470.216	-18.686	-0.078	0.049
-469.201	11.267	0.235	-0.179
-468.186	202.616	-0.116	0.178
-467.172	800.000	-0.050	-0.166
-466.157	-129.259	-0.169	-0.024
-465.143	182.313	-0.217	0.319
-464.128	800.000	0.091	-0.344
-463.113	800.000	-0.067	-0.241
-462.099	-200.000	-0.005	0.131
-461.084	-93.877	-0.206	0.056
-460.070	242.100	-0.155	0.258
-459.055	506.433	0.038	-0.087
-458.040	-165.150	0.216	-0.010
-457.026	-200.000	-0.010	0.116
-456.011	-196.016	-0.216	-0.002
-454.997	-94.001	-0.063	-0.017
-453.982	-200.000	0.006	-0.102
-452.968	22.795	-0.078	0.064
-451.953	-32.728	0.449	-0.249
-450.938	-120.600	-0.121	0.020
-449.924	34.296	0.210	-0.182
-448.909	-200.000	-0.073	-0.509
-447.895	-59.205	0.285	-0.123
-446.880	294.148	0.078	0.141
-445.865	284.645	0.020	-0.035
-444.851	48.937	0.238	0.222
-443.836	557.151	-0.044	0.106
-442.822	-173.955	0.328	-0.010
-441.807	-51.865	0.218	0.101
-440.792	133.274	0.130	-0.168
-439.778	-143.636	-0.259	0.024
-438.763	-200.000	-0.038	-0.313
-437.749	-42.816	0.202	-0.102
-436.734	50.349	0.342	0.322
-435.719	64.253	-0.129	-0.129
-434.705	-32.800	0.330	0.183
-433.690	623.783	0.045	-0.113
-432.676	-200.000	0.019	-0.184
-431.661	800.000	-0.042	-0.145
-430.646	375.550	-0.066	-0.134
-429.632	130.871	-0.204	-0.261
-428.617	800.000	-0.235	-0.651
-427.603	-117.915	-0.312	-0.056
-426.588	-134.799	-0.344	0.042
-425.573	23.849	0.270	-0.222
-424.559	-200.000	-0.049	0.389
-423.544	-83.760	-0.301	-0.096
-422.530	-33.660	0.128	-0.071
-421.515	-200.000	-0.048	-0.227
-420.500	310.835	-0.112	0.210
-419.486	232.221	0.203	0.332
-418.471	261.323	-0.111	0.192
-417.457	-165.064	-0.261	0.012
-416.442	-21.150	0.094	-0.057
-415.428	-200.000	0.023	-0.248
-414.413	-62.555	0.065	-0.027
-413.398	85.003	-0.177	-0.193
-412.384	-162.292	0.264	0.013
-411.369	-200.000	0.007	0.214
-410.355	-200.000	0.013	0.175
-409.340	800.000	-0.098	0.351
-408.325	-53.034	-0.121	0.055
-407.311	101.591	-0.138	-0.160
-406.296	800.000	-0.105	-0.311
-405.282	-27.326	0.142	0.082
-404.267	453.954	0.011	0.024
-403.252	514.731	0.136	-0.316
-402.238	800.000	-0.048	0.195
-401.223	756.911	0.146	0.394
-400.209	-50.228	-0.323	-0.152
-399.194	-137.973	0.118	-0.013
-398.179	106.551	0.234	-0.276
-397.165	28.102	-0.146	-0.122
-396.150	-43.840	-0.101	0.051
-395.136	-107.709	-0.341	-0.074
-394.121	28.493	0.243	0.205
-393.106	-138.525	0.127	-0.014
-392.092	-93.689	-0.056	-0.015
-391.077	800.000	0.054	-0.201
-390.063	-20.478	0.207	0.126
-389.048	800.000	0.051	-0.163
-388.033	-200.000	0.004	-0.063
-387.019	180.554	-0.103	-0.150
-386.004	-200.000	0.087	0.382
-384.990	-200.000	0.077	0.560
-383.975	208.552	0.049	0.076
-382.960	800.000	0.018	0.057
-381.946	325.231	0.131	-0.249
-380.931	-104.655	0.199	0.046
-379.917	-92.326	-0.287	0.081
-378.902	282.086	-0.135	0.241
-377.888	-74.549	0.092	0.033
-376.873	420.315	0.133	-0.284
-375.858	57.325	0.065	-0.064
-374.844	-200.000	-0.015	-0.163
-373.829	29.917	0.179	0.151
-372.815	85.762	-0.165	0.180
-371.800	-96.709	0.087	0.023
-370.785	-59.878	0.226	-0.096
-369.771	112.929	-0.227	-0.274
-368.756	-3.389	0.160	-0.111
-367.742	70.682	0.184	0.190
-366.727	-31.572	0.281	-0.157
-365.712	-159.262	-0.256	0.014
-364.698	-122.365	-0.322	0.052
-363.683	411.728	-0.075	0.158
-362.669	-200.000	0.001	0.248
-361.654	110.707	-0.094	0.113
-360.639	-92.778	0.285	0.079
-359.625	-173.629	0.248	-0.007
-358.610	33.933	0.133	-0.115
-357.596	12.845	-0.186	0.143
-356.581	-118.476	-0.119	-0.021
-355.566	-47.935	0.306	0.147
-354.552	-102.074	-0.351	-0.084
-353.537	-200.000	-0.046	0.407
-352.523	-200.000	0.012	0.102
-351.508	-19.889	0.071	0.043
-350.493	87.349	0.089	-0.098
-349.479	-200.000	-0.030	0.149
-348.464	-200.000	-0.015	0.212
-347.450	361.988	-0.193	-0.385
-346.435	51.266	0.237	-0.224
-345.420	-182.214	-0.094	-0.002
-344.406	-200.000	-0.005	-0.110
-343.391	301.362	0.130	-0.238
-342.377	-200.000	0.009	-0.182
-341.362	168.865	-0.118	0.167
-340.348	17.438	0.031	-0.025
-339.333	-200.000	-0.005	-0.263
-338.318	18.764	0.022	-0.018
-337.304	800.000	0.012	-0.041
-336.289	-200.000	-0.043	0.342
-335.275	98.888	0.105	0.121
-334.260	-200.000	0.014	0.155
-333.245	800.000	0.120	-0.423
-332.231	-200.000	0.053	-0.386
-331.216	-114.752	-0.290	-0.055
-330.202	-200.000	-0.054	-0.263
-329.187	-39.662	-0.089	0.046
-328.172	89.783	0.138	-0.153
-327.158	235.683	-0.081	0.133
-326.143	-160.587	0.186	-0.010
-325.129	16.426	-0.091	0.071
-324.114	-200.000	0.026	0.238
-323.099	44.148	0.077	0.070
-322.085	-23.942	0.154	-0.091
-321.070	-200.000	0.013	0.187
-320.056	-141.162	-0.245	-0.025
-319.041	-29.657	-0.189	0.107
-318.026	272.893	-0.100	0.175
-317.012	-181.817	-0.276	0.005
-315.997	-105.386	0.276	0.062
-314.983	-165.708	0.309	0.013
-313.968	74.403	0.103	-0.108
-312.953	-200.000	0.011	-0.163
-311.939	295.600	0.153	0.277
-310.924	-54.853	0.201	-0.090
-309.910	-68.619	-0.441	-0.169
-308.895	562.423	0.125	0.300
-307.880	211.750	-0.177	0.276
-306.866	139.985	0.072	0.095
-305.851	800.000	-0.033	0.126
-304.837	-140.840	-0.218	-0.022
-303.822	73.624	-0.153	-0.159
-302.807	30.216	0.133	-0.113
-301.793	131.974	-0.194	0.248
-300.778	800.000	0.042	0.140
-299.764	-200.000	-0.247	0.000
-298.749	-75.160	0.241	0.085
-297.735	-113.242	-0.225	0.044
-296.720	113.573	0.214	-0.258
-295.705	63.971	0.068	-0.067
-294.691	-79.537	-0.174	-0.058
-293.676	37.199	-0.352	0.309
-292.662	-105.322	0.332	-0.075
-291.647	182.803	-0.121	0.177
-290.632	725.352	0.078	-0.206
-289.618	-147.635	0.116	-0.010
-288.603	334.952	0.134	0.257
-287.589	-35.648	-0.199	0.107
-286.574	-83.585	0.147	0.047
-285.559	-154.372	0.098	0.007
-284.545	49.108	0.049	-0.046
-283.530	-31.239	0.288	0.161
-282.516	-200.000	0.049	-0.229
-281.501	131.852	-0.133	0.169
-280.486	-90.267	0.555	-0.160
-279.472	69.027	-0.132	-0.134
-278.457	765.562	-0.017	-0.047
-277.443	800.000	-0.052	-0.153
-276.428	-4.188	0.231	0.158
-275.413	-200.000	0.001	0.077
-274.399	55.155	0.108	-0.103
-273.384	-144.464	0.106	0.010
-272.370	516.644	-0.077	0.178
-271.355	-143.841	0.097	-0.009
-270.340	203.303	-0.051	0.078
-269.326	269.357	0.092	0.160
-268.311	-52.652	-0.322	0.147
-267.297	-200.000	-0.013	0.365
-266.282	-187.725	0.294	-0.004
-265.267	79.455	-0.125	-0.132
-264.253	-25.410	-0.236	0.138
-263.238	-94.415	-0.305	0.082
-262.224	327.586	-0.155	0.294
-261.209	-147.412	-0.034	-0.003
-260.195	-200.000	0.047	-0.210
-259.180	-200.000	-0.005	0.072
-258.165	-200.000	-0.011	0.221
-257.151	-138.165	-0.042	-0.005
-256.136	-112.295	0.293	0.058
-255.122	800.000	-0.058	0.170
-254.107	-200.000	0.029	-0.172
-253.092	-200.000	-0.024	0.163
-252.078	-200.000	-0.017	0.140
-251.063	318.358	0.070	0.132
-250.049	339.781	-0.062	0.119
-249.034	47.703	0.259	0.240
-248.019	-71.550	0.173	-0.064
-247.005	-95.120	0.309	0.083
-245.990	-101.816	0.195	-0.047
-244.976	12.092	-0.102	0.077
-243.961	-200.000	0.034	-0.187
-242.946	800.000	-0.128	0.467
-241.932	4.192	-0.057	-0.042
-240.917	288.795	0.036	-0.064
-239.903	174.518	0.203	0.291
-238.888	78.334	0.225	0.238
-237.873	-54.245	0.355	0.159
-236.859	-112.812	-0.215	0.042
-235.844	-16.022	-0.214	0.135
-234.830	-200.000	-0.009	-0.363
-233.815	-173.409	-0.148	-0.004
-232.800	-200.000	-0.057	0.287
-231.786	-45.660	-0.176	-0.086
-230.771	-200.000	0.011	-0.071
-229.757	513.835	0.059	-0.136
-228.742	-52.039	0.308	-0.142
-227.727	800.000	-0.087	-0.289
-226.713	155.123	0.026	-0.035
-225.698	-29.273	0.184	-0.104
-224.684	-200.000	-0.043	-0.257
-223.669	-200.000	0.043	-0.229
-222.655	-152.104	0.144	0.010
-221.640	305.363	-0.038	0.069
-220.625	63.952	-0.082	0.081
-219.611	31.588	0.246	-0.209
-218.596	43.524	0.189	-0.171
-217.582	-200.000	-0.033	-0.000
-216.567	-200.000	0.025	-0.118
-215.552	59.100	0.174	0.170
-214.538	-140.209	-0.262	0.027
-213.523	67.363	0.174	0.175
-212.509	59.821	0.178	-0.174
-211.494	10.137	0.106	0.080
-210.479	-174.812	0.191	0.005
-209.465	-200.000	0.004	-0.387
-208.450	56.509	-0.195	0.187
-207.436	-200.000	-0.037	0.540
-206.421	294.188	-0.102	-0.185
-205.406	-153.340	-0.229	0.016
-204.392	42.689	0.193	-0.173
-203.377	423.470	0.101	-0.214
-202.363	-200.000	-0.011	-0.074
-201.348	766.335	-0.056	0.150
-200.333	-72.703	-0.265	0.097
-199.319	581.055	0.063	-0.153
-198.304	183.500	-0.226	0.330
-197.290	-61.874	0.052	0.021
-196.275	-95.814	-0.556	0.146
-195.260	-11.629	-0.224	-0.146
-194.246	115.126	0.250	0.301
-193.231	54.036	-0.292	-0.277
-192.217	-154.657	0.375	0.025
-191.202	800.000	-0.054	-0.159
-190.187	112.155	0.080	-0.095
-189.173	-32.672	-0.051	0.028
-188.158	-38.192	0.139	-0.073
-187.144	-38.812	0.229	0.119
-186.129	-125.557	-0.347	-0.052
-185.114	-200.000	0.005	-0.124
-184.100	-159.257	0.235	0.013
-183.085	-200.000	0.030	0.284
-182.071	-68.726	0.148	0.057
-181.056	66.477	0.101	-0.101
-180.042	727.200	-0.009	0.022
-179.027	639.321	0.091	0.227
-178.012	-3.381	0.139	0.095
-176.998	800.000	-0.144	-0.404
-175.983	-118.017	0.291	0.051
-174.969	-200.000	-0.029	-0.203
-173.954	199.852	-0.179	0.271
-172.939	-54.385	-0.026	-0.012
-171.925	157.984	0.040	0.055
-170.910	70.594	0.165	0.168
-169.896	-200.000	-0.061	0.000
-168.881	-200.000	-0.015	0.225
-167.866	-58.208	-0.123	-0.053
-166.852	6.100	0.018	-0.013
-165.837	-83.947	-0.083	0.026
-164.823	-200.000	-0.093	0.438
-163.808	124.958	-0.226	-0.280
-162.793	-200.000	-0.012	0.095
-161.779	-97.185	0.076	0.020
-160.764	-99.157	0.302	0.075
-159.750	763.484	0.086	0.231
-158.735	-99.222	-0.315	0.078
-157.720	-57.020	0.143	0.062
-156.706	-21.230	0.153	0.092
-155.691	241.285	0.148	-0.244
-154.677	3.561	0.541	-0.389
-153.662	-200.000	0.019	0.440
-152.647	-200.000	-0.018	0.224
-151.633	-43.431	0.346	-0.173
-150.618	800.000	-0.037	0.108
-149.604	-200.000	0.023	0.433
-148.589	243.834	0.064	0.106
-147.574	193.495	0.178	0.265
-146.560	-112.622	-0.241	-0.047
-145.545	800.000	0.088	-0.294
-144.531	-149.805	0.424	-0.033
-143.516	21.248	0.024	-0.019
-142.502	-139.227	-0.265	0.028
-141.487	3.028	0.204	0.146
-140.472	-200.000	0.139	-0.000
-139.458	800.000	0.088	-0.254
-138.443	800.000	-0.027	-0.087
-137.429	-53.560	-0.181	-0.082
-136.414	23.356	-0.193	-0.156
-135.399	166.684	0.192	0.269
-134.385	-61.548	-0.120	-0.050
-133.370	85.719	-0.112	0.121
-132.356	11.497	0.112	-0.084
-131.341	-200.000	0.316	0.000
-130.326	-54.175	0.197	-0.088
-129.312	-29.602	0.184	0.104
-128.297	-200.000	0.060	-0.315
-127.283	800.000	-0.135	-0.453
-126.268	-122.086	-0.018	-0.003
-125.253	800.000	-0.115	0.457
-124.239	26.216	0.166	0.136
-123.224	-22.970	0.181	-0.107
-122.210	172.867	-0.190	0.269
-121.195	800.000	0.066	0.220
