DTS Sentinel unit serial number:	SN413079Multiplexer serial number:	ORYXHardware model number:	OX4-SRSoftware version number:	ORYX F/W v4.00 Oryx Data Collector v3.7.2.0data status	okinstallation	princeton_trtdifferential loss correction	single-endedforward channel	channel 1reverse channel	N/Adate	2019/09/14time	18:26:35forward acquisition time	60.00reverse acquisition time	0.00gamma	496.2192k internal	0.2302k external	0.2302temperature offset calibration	1.0041default loss term (dB/km)	0.3790temperature slope calibration	1.0000multiplexer offset coefficient	1.0000multiplexer slope coefficient	1.0000fibre end	0.00T internal ref (°C)	36.73T ext. ref 1 (°C)	4.93T ext. ref 2 (°C)	30.51length (m)	temperature (°C)	Stokes	anti-Stokes-747.200	800.000	0.013	0.050
-746.185	-73.265	0.159	-0.059
-745.171	-200.000	0.006	-0.130
-744.156	-112.973	-0.194	-0.039
-743.142	-132.726	0.404	0.053
-742.127	-53.462	0.208	0.097
-741.112	-69.546	-0.221	-0.086
-740.098	-108.432	0.367	-0.081
-739.083	214.336	-0.042	0.067
-738.069	-200.000	-0.080	0.501
-737.054	-153.263	-0.158	-0.011
-736.039	-200.000	0.055	0.343
-735.025	-13.231	0.268	0.178
-734.010	-41.138	0.212	-0.111
-732.996	28.229	-0.210	0.181
-731.981	-2.799	0.002	-0.001
-730.966	143.227	-0.030	0.041
-729.952	109.391	-0.161	-0.197
-728.937	-200.000	-0.024	-0.313
-727.923	133.664	-0.250	-0.329
-726.908	557.689	-0.067	-0.163
-725.894	18.778	0.075	-0.061
-724.879	800.000	-0.144	-0.618
-723.864	3.545	-0.104	0.077
-722.850	323.759	-0.114	-0.221
-721.835	65.454	0.214	0.221
-720.821	731.827	-0.064	-0.173
-719.806	-25.259	-0.207	-0.125
-718.791	-200.000	-0.001	0.136
-717.777	-96.420	-0.295	-0.079
-716.762	225.338	-0.177	-0.292
-715.748	800.000	-0.027	-0.097
-714.733	2.718	0.199	-0.147
-713.718	-44.420	-0.261	-0.133
-712.704	-200.000	0.028	-0.337
-711.689	-109.583	-0.233	0.050
-710.675	-139.331	-0.422	-0.046
-709.660	753.236	0.072	0.199
-708.645	-48.845	-0.206	0.101
-707.631	-43.235	-0.165	-0.085
-706.616	-2.700	0.115	-0.082
-705.602	800.000	0.063	-0.195
-704.587	63.970	-0.234	-0.239
-703.572	249.297	-0.079	-0.137
-702.558	-197.290	-0.257	0.002
-701.543	-52.096	-0.180	0.085
-700.529	-113.402	0.176	-0.035
-699.514	171.287	-0.154	-0.224
-698.499	-200.000	0.008	-0.257
-697.485	464.168	-0.167	-0.379
-696.470	2.243	-0.197	-0.145
-695.456	-85.898	-0.276	0.087
-694.441	800.000	-0.062	-0.181
-693.426	330.133	-0.132	-0.258
-692.412	-140.263	-0.051	-0.005
-691.397	800.000	-0.061	-0.234
-690.383	106.651	0.089	0.108
-689.368	-82.451	-0.169	-0.056
-688.354	800.000	-0.056	0.191
-687.339	-58.806	0.180	0.079
-686.324	800.000	-0.022	0.099
-685.310	800.000	-0.030	0.114
-684.295	-55.350	0.129	0.059
-683.281	-179.031	0.078	0.002
-682.266	-59.857	0.098	0.042
-681.251	800.000	0.065	-0.280
-680.237	-200.000	0.027	-0.165
-679.222	393.900	-0.197	-0.418
-678.208	-200.000	0.051	0.260
-677.193	-106.149	-0.321	0.073
-676.178	-117.890	-0.205	0.037
-675.164	-200.000	0.015	0.398
-674.149	132.983	0.123	0.161
-673.135	179.742	-0.134	0.200
-672.120	-200.000	0.008	-0.146
-671.105	4.834	0.057	0.043
-670.091	40.515	-0.250	-0.229
-669.076	98.763	-0.237	-0.278
-668.062	-200.000	0.026	0.190
-667.047	428.418	0.068	0.149
-666.032	800.000	-0.040	0.149
-665.018	435.237	-0.062	0.137
-664.003	137.553	0.036	-0.048
-662.989	-200.000	-0.062	-0.313
-661.974	-47.000	-0.086	-0.043
-660.959	-200.000	-0.016	0.097
-659.945	181.317	0.043	-0.064
-658.930	-200.000	0.039	0.272
-657.916	-64.572	-0.207	-0.085
-656.901	-48.427	-0.022	-0.011
-655.886	800.000	0.037	0.152
-654.872	-172.658	0.120	-0.004
-653.857	-128.898	-0.312	0.045
-652.843	45.490	-0.364	0.341
-651.828	345.490	0.044	0.088
-650.814	-77.771	-0.031	0.011
-649.799	-178.112	0.205	0.005
-648.784	113.146	-0.332	0.409
-647.770	-9.986	0.216	0.146
-646.755	-200.000	-0.038	-0.251
-645.741	800.000	0.088	0.271
-644.726	-200.000	0.025	-0.161
-643.711	-200.000	-0.081	-0.365
-642.697	-47.425	-0.305	0.151
-641.682	-15.633	-0.163	-0.106
-640.668	356.923	0.197	0.398
-639.653	82.013	-0.136	-0.150
-638.638	-34.574	0.084	-0.047
-637.624	229.878	-0.164	-0.273
-636.609	156.626	0.215	-0.301
-635.595	800.000	0.052	-0.155
-634.580	-6.814	0.310	-0.214
-633.565	-16.863	-0.257	0.165
-632.551	800.000	-0.070	0.310
-631.536	-35.362	-0.214	0.118
-630.522	356.831	-0.111	0.225
-629.507	-128.678	-0.448	0.064
-628.492	-134.815	0.140	-0.017
-627.478	108.730	-0.046	-0.056
-626.463	800.000	-0.026	-0.109
-625.449	96.357	0.045	-0.053
-624.434	800.000	-0.032	-0.128
-623.419	-121.705	0.052	-0.009
-622.405	-135.045	-0.061	-0.007
-621.390	-32.778	-0.106	0.060
-620.376	-91.634	0.087	-0.025
-619.361	15.969	-0.195	0.156
-618.346	-24.883	-0.166	-0.100
-617.332	-43.580	0.244	0.125
-616.317	119.884	-0.046	0.057
-615.303	-18.965	-0.083	-0.052
-614.288	-33.575	-0.204	-0.114
-613.273	622.001	-0.084	-0.216
-612.259	-123.011	0.174	-0.028
-611.244	-146.469	-0.274	0.024
-610.230	116.041	-0.147	0.182
-609.215	-110.928	-0.193	0.040
-608.201	40.841	-0.167	-0.153
-607.186	-200.000	0.016	0.100
-606.171	-42.347	0.252	0.131
-605.157	1.114	0.107	0.077
-604.142	-200.000	0.015	-0.280
-603.128	381.060	-0.091	-0.190
-602.113	-17.783	0.113	0.072
-601.098	152.299	-0.339	0.470
-600.084	157.668	0.241	0.338
-599.069	344.410	0.081	0.162
-598.055	-52.769	-0.302	-0.141
-597.040	-152.731	-0.206	0.015
-596.025	-73.793	0.333	-0.123
-595.011	-164.518	-0.106	-0.005
-593.996	-135.585	0.345	-0.042
-592.982	-49.620	-0.348	-0.168
-591.967	-123.551	-0.194	0.031
-590.952	140.702	-0.064	0.085
-589.938	416.143	-0.128	0.277
-588.923	-156.833	0.233	-0.015
-587.909	800.000	-0.040	-0.124
-586.894	-200.000	0.023	0.154
-585.879	-45.209	-0.071	0.036
-584.865	-65.388	0.186	-0.076
-583.850	-134.292	0.234	0.029
-582.836	438.991	-0.050	0.110
-581.821	-86.586	0.202	-0.063
-580.806	800.000	-0.091	0.259
-579.792	-32.791	0.023	-0.013
-578.777	-200.000	0.002	-0.336
-577.763	19.179	-0.108	0.088
-576.748	-78.059	-0.175	0.061
-575.733	-193.503	-0.375	0.003
-574.719	-121.340	-0.034	-0.006
-573.704	-5.490	-0.082	-0.057
-572.690	196.345	0.179	-0.276
-571.675	217.119	0.285	0.460
-570.661	118.757	-0.187	0.233
-569.646	31.204	-0.157	-0.137
-568.631	-39.165	0.023	-0.012
-567.617	-1.019	0.333	0.239
-566.602	-200.000	0.037	0.273
-565.588	-164.139	0.149	0.007
-564.573	-61.311	-0.241	-0.103
-563.558	800.000	-0.062	0.212
-562.544	517.181	-0.073	-0.172
-561.529	800.000	0.021	-0.073
-560.515	-200.000	0.010	0.184
-559.500	-159.914	0.188	0.010
-558.485	-200.000	-0.002	0.026
-557.471	34.247	0.100	-0.088
-556.456	57.743	-0.204	-0.202
-555.442	79.270	0.071	0.077
-554.427	-200.000	0.001	-0.486
-553.412	-31.602	-0.200	0.114
-552.398	-200.000	0.015	0.083
-551.383	800.000	-0.027	-0.096
-550.369	-106.920	0.390	-0.087
-549.354	108.401	-0.127	-0.154
-548.339	800.000	0.081	0.303
-547.325	-104.150	0.222	0.052
-546.310	381.480	-0.094	-0.195
-545.296	-51.162	0.190	0.090
-544.281	-200.000	0.020	0.123
-543.266	-147.652	-0.066	-0.006
-542.252	-91.213	-0.215	-0.062
-541.237	-96.378	0.116	-0.031
-540.223	-200.000	-0.002	-0.274
-539.208	-200.000	-0.009	0.043
-538.193	60.789	0.202	0.203
-537.179	68.807	-0.148	-0.153
-536.164	-97.845	0.260	-0.068
-535.150	113.674	0.066	0.082
-534.135	-133.687	0.141	-0.018
-533.121	153.386	-0.228	-0.315
-532.106	800.000	-0.137	0.600
-531.091	195.679	-0.109	0.167
-530.077	382.674	-0.243	0.504
-529.062	-200.000	0.055	0.508
-528.048	-64.743	-0.261	-0.107
-527.033	94.967	-0.051	0.059
-526.018	95.825	-0.057	-0.065
-525.004	-158.242	-0.247	0.015
-523.989	-56.581	-0.055	0.025
-522.975	-200.000	0.050	-0.308
-521.960	-105.925	-0.173	0.039
-520.945	-30.905	-0.060	0.034
-519.931	32.072	0.330	0.287
-518.916	-200.000	-0.023	-0.223
-517.902	800.000	0.050	0.196
-516.887	64.544	-0.284	0.289
-515.872	-94.096	-0.440	-0.122
-514.858	800.000	-0.095	-0.384
-513.843	239.297	-0.012	-0.021
-512.829	166.202	0.070	-0.101
-511.814	115.852	0.124	0.153
-510.799	-169.151	0.258	0.010
-509.785	-102.821	0.276	0.066
-508.770	-200.000	-0.031	0.138
-507.756	276.628	-0.102	0.183
-506.741	295.386	-0.056	-0.104
-505.726	-89.466	0.228	-0.068
-504.712	-104.957	-0.306	-0.071
-503.697	-26.097	0.395	0.234
-502.683	-200.000	0.035	0.206
-501.668	-172.735	-0.262	-0.008
-500.653	-12.678	0.231	-0.152
-499.639	1.976	0.057	-0.041
-498.624	65.719	-0.124	0.127
-497.610	-200.000	0.014	-0.166
-496.595	87.372	0.150	-0.168
-495.581	800.000	-0.042	0.122
-494.566	-91.605	-0.246	0.071
-493.551	-200.000	-0.003	0.064
-492.537	-200.000	0.028	0.195
-491.522	-21.093	-0.210	0.130
-490.508	-165.038	-0.195	0.009
-489.493	800.000	-0.023	0.099
-488.478	-174.339	-0.448	-0.013
-487.464	800.000	-0.039	-0.119
-486.449	-13.217	0.140	-0.092
-485.435	800.000	-0.029	0.091
-484.420	46.746	0.151	0.141
-483.405	-46.754	-0.192	0.095
-482.391	-160.876	-0.103	0.006
-481.376	-38.477	0.498	-0.266
-480.362	-196.154	-0.256	0.002
-479.347	-93.516	0.126	-0.035
-478.332	26.605	0.200	0.169
-477.318	201.327	0.129	0.200
-476.303	140.147	-0.113	0.151
-475.289	-2.188	-0.282	-0.199
-474.274	-113.301	-0.109	-0.022
-473.259	209.623	-0.061	0.096
-472.245	21.575	-0.152	0.125
-471.230	85.833	-0.212	-0.235
-470.216	68.719	-0.162	0.167
-469.201	63.331	-0.062	-0.063
-468.186	130.881	-0.201	-0.259
-467.172	220.662	0.104	0.168
-466.157	474.708	0.131	0.298
-465.143	560.538	0.117	-0.286
-464.128	-34.195	-0.164	-0.091
-463.113	-91.138	0.207	-0.060
-462.099	241.586	-0.156	0.262
-461.084	22.630	-0.294	-0.242
-460.070	318.565	0.224	-0.428
-459.055	-200.000	-0.003	-0.048
-458.040	800.000	0.027	-0.095
-457.026	-17.000	0.226	0.144
-456.011	-77.480	0.199	-0.070
-454.997	-43.899	0.155	0.079
-453.982	128.254	0.150	-0.193
-452.968	-61.316	0.115	0.049
-451.953	-165.279	0.194	-0.009
-450.938	17.749	-0.139	0.111
-449.924	800.000	0.095	0.413
-448.909	-139.912	0.068	-0.007
-447.895	42.339	0.030	-0.027
-446.880	296.591	0.038	-0.070
-445.865	-129.743	0.139	0.019
-444.851	-54.965	0.122	0.055
-443.836	800.000	-0.046	-0.187
-442.822	85.469	-0.107	-0.118
-441.807	470.429	0.032	-0.073
-440.792	357.240	0.131	0.263
-439.778	-200.000	-0.010	-0.094
-438.763	767.263	0.067	0.184
-437.749	800.000	0.051	0.177
-436.734	5.352	0.077	-0.057
-435.719	300.412	0.133	-0.248
-434.705	-116.619	0.162	0.030
-433.690	-42.277	-0.456	-0.234
-432.676	-173.185	0.135	0.004
-431.661	-83.661	0.369	0.119
-430.646	-91.358	-0.177	-0.051
-429.632	278.976	-0.065	-0.116
-428.617	-22.614	-0.209	0.127
-427.603	800.000	0.010	0.033
-426.588	-135.162	0.069	-0.008
-425.573	70.434	0.157	-0.164
-424.559	-64.897	-0.269	-0.109
-423.544	-132.957	-0.096	0.012
-422.530	-97.085	-0.023	-0.006
-421.515	-24.393	0.082	-0.049
-420.500	22.302	0.191	-0.157
-419.486	-200.000	0.002	0.098
-418.471	15.027	-0.153	-0.120
-417.457	-104.584	-0.181	0.042
-416.442	-200.000	0.012	0.096
-415.428	-41.263	0.084	0.044
-414.413	0.739	0.210	0.152
-413.398	-200.000	-0.061	0.372
-412.384	-89.011	-0.280	0.083
-411.369	800.000	0.028	-0.086
-410.355	227.728	-0.115	0.189
-409.340	-200.000	-0.007	-0.039
-408.325	-200.000	0.000	-0.183
-407.311	-3.040	-0.144	-0.101
-406.296	38.262	-0.064	0.057
-405.282	413.223	0.096	-0.206
-404.267	-200.000	0.047	-0.394
-403.252	119.830	-0.154	0.192
-402.238	3.160	0.115	-0.084
-401.223	63.974	0.029	0.029
-400.209	46.791	0.042	0.039
-399.194	-200.000	0.012	-0.233
-398.179	-130.199	0.475	0.065
-397.165	163.900	-0.139	-0.197
-396.150	-104.662	-0.020	-0.005
-395.136	247.655	-0.036	-0.061
-394.121	260.626	-0.092	-0.161
-393.106	800.000	-0.044	-0.150
-392.092	800.000	0.012	0.052
-391.077	-172.535	-0.088	-0.003
-390.063	800.000	-0.074	-0.207
-389.048	-200.000	-0.016	0.176
-388.033	777.617	-0.052	-0.143
-387.019	-45.216	-0.245	-0.122
-386.004	173.834	0.034	-0.050
-384.990	195.165	0.168	0.256
-383.975	-200.000	0.007	0.167
-382.960	87.149	0.054	-0.059
-381.946	800.000	-0.010	0.032
-380.931	707.559	-0.090	-0.239
-379.917	44.615	0.148	-0.136
-378.902	-200.000	0.080	-0.363
-377.888	-200.000	-0.022	0.115
-376.873	-144.640	-0.244	0.023
-375.858	54.131	-0.103	-0.100
-374.844	123.273	-0.190	0.240
-373.829	-154.909	0.085	0.006
-372.815	696.459	-0.010	0.025
-371.800	800.000	-0.081	-0.273
-370.785	260.444	0.036	0.062
-369.771	729.304	0.072	0.192
-368.756	-200.000	0.003	-0.290
-367.742	231.025	-0.118	-0.194
-366.727	222.591	-0.060	-0.097
-365.712	416.387	0.043	-0.092
-364.698	41.524	-0.185	-0.168
-363.683	69.779	0.051	-0.053
-362.669	-200.000	-0.023	0.269
-361.654	800.000	0.061	-0.253
-360.639	22.664	-0.406	0.334
-359.625	275.904	-0.055	0.097
-358.610	-86.728	0.102	-0.031
-357.596	29.986	0.063	0.054
-356.581	262.617	-0.156	-0.272
-355.566	-39.101	-0.315	-0.166
-354.552	-200.000	-0.026	-0.252
-353.537	706.347	-0.061	0.161
-352.523	131.713	-0.050	0.065
-351.508	-39.196	-0.427	-0.225
-350.493	-200.000	0.059	-0.342
-349.479	-86.673	0.050	-0.015
-348.464	-151.967	-0.152	0.011
-347.450	-107.352	-0.261	-0.058
-346.435	-64.104	0.130	0.053
-345.420	425.117	0.115	-0.249
-344.406	-200.000	-0.001	0.352
-343.391	106.112	0.075	0.089
-342.377	51.369	0.257	0.245
-341.362	-110.802	-0.395	-0.082
-340.348	109.222	-0.199	0.239
-339.333	-5.519	0.260	-0.179
-338.318	179.288	0.085	-0.125
-337.304	62.887	-0.254	-0.255
-336.289	800.000	-0.066	0.224
-335.275	-17.425	0.109	0.069
-334.260	-82.974	0.121	-0.039
-333.245	-66.911	-0.118	0.047
-332.231	-200.000	0.028	-0.132
-331.216	337.182	0.144	0.280
-330.202	-200.000	0.018	-0.293
-329.187	800.000	0.146	0.449
-328.172	53.825	-0.227	-0.219
-327.158	234.488	-0.170	-0.280
-326.143	542.083	-0.094	-0.224
-325.129	13.651	-0.010	0.008
-324.114	-62.982	0.061	0.025
-323.099	-32.542	0.163	-0.091
-322.085	-42.522	0.145	0.074
-321.070	800.000	0.095	0.319
-320.056	-14.245	-0.235	-0.152
-319.041	728.798	0.081	-0.217
-318.026	-200.000	0.011	0.053
-317.012	19.624	0.135	-0.109
-315.997	-200.000	-0.049	-0.216
-314.983	130.802	-0.052	0.067
-313.968	-18.851	-0.384	0.240
-312.953	428.637	-0.115	-0.250
-311.939	800.000	-0.041	-0.127
-310.924	-122.430	0.164	0.027
-309.910	-200.000	0.013	-0.173
-308.895	-107.984	-0.152	0.033
-307.880	216.508	0.287	0.458
-306.866	-200.000	-0.003	0.122
-305.851	399.635	-0.114	-0.240
-304.837	190.207	0.118	0.178
-303.822	128.802	0.117	0.149
-302.807	-58.748	0.113	-0.049
-301.793	-94.331	-0.310	-0.085
-300.778	800.000	0.043	0.136
-299.764	50.292	-0.291	-0.276
-298.749	-200.000	-0.005	-0.432
-297.735	-89.347	-0.048	-0.014
-296.720	-97.095	0.074	-0.019
-295.705	-149.889	0.153	-0.012
-294.691	-118.751	0.067	-0.012
-293.676	48.030	-0.228	-0.213
-292.662	473.964	-0.162	-0.366
-291.647	420.411	0.116	-0.250
-290.632	800.000	0.046	0.157
-289.618	-147.907	-0.076	-0.006
-288.603	687.813	0.061	-0.160
-287.589	-200.000	0.041	-0.230
-286.574	800.000	0.022	0.096
-285.559	-102.198	-0.115	0.028
-284.545	-52.254	0.252	0.117
-283.530	-200.000	0.025	-0.242
-282.516	238.250	0.079	-0.131
-281.501	800.000	0.031	-0.108
-280.486	238.499	-0.149	0.248
-279.472	-200.000	-0.005	-0.225
-278.457	90.447	-0.074	-0.082
-277.443	-165.715	0.110	0.005
-276.428	42.187	-0.202	0.184
-275.413	-169.716	0.329	0.012
-274.399	51.255	0.034	0.033
-273.384	765.573	-0.173	0.470
-272.370	-200.000	-0.030	0.135
-271.355	-200.000	0.021	-0.115
-270.340	800.000	-0.106	-0.339
-269.326	75.377	0.166	0.175
-268.311	346.413	0.094	0.185
-267.297	-114.379	0.105	0.020
-266.282	800.000	-0.076	-0.257
-265.267	-200.000	-0.017	0.127
-264.253	338.380	0.055	-0.107
-263.238	-13.619	0.441	-0.286
-262.224	-154.157	-0.092	0.006
-261.209	26.581	-0.218	-0.182
-260.195	393.172	-0.021	0.045
-259.180	800.000	0.138	0.477
-258.165	-106.511	0.112	0.025
-257.151	-60.406	0.173	0.074
-256.136	-113.353	0.165	-0.032
-255.122	68.250	0.179	0.184
-254.107	-91.898	0.315	-0.089
-253.092	-48.052	-0.199	0.096
-252.078	-110.409	0.240	0.050
-251.063	27.124	-0.205	0.172
-250.049	-53.371	0.063	0.029
-249.034	800.000	0.037	-0.158
-248.019	652.634	0.019	0.050
-247.005	-7.653	-0.170	0.115
-245.990	48.407	-0.087	-0.081
-244.976	-59.537	-0.160	-0.069
-243.961	137.654	-0.181	0.237
-242.946	-119.645	-0.026	-0.004
-241.932	-141.867	-0.212	-0.021
-240.917	800.000	0.050	-0.172
-239.903	13.315	0.195	0.151
-238.888	141.965	0.113	0.150
-237.873	282.476	0.190	0.340
-236.859	800.000	0.063	-0.193
-235.844	183.920	-0.154	-0.228
-234.830	106.583	0.109	-0.129
-233.815	323.503	0.042	-0.080
-232.800	182.874	-0.251	0.369
-231.786	-88.896	0.104	-0.031
-230.771	-101.954	0.220	-0.053
-229.757	78.350	0.063	0.067
-228.742	-200.000	0.032	0.324
-227.727	-7.841	-0.208	-0.141
-226.713	17.645	-0.242	-0.192
-225.698	72.894	0.080	0.084
-224.684	-60.205	0.236	-0.100
-223.669	137.455	-0.107	0.140
-222.655	-82.908	0.204	0.066
-221.640	516.556	-0.116	-0.270
-220.625	-131.243	-0.398	-0.053
-219.611	-145.293	-0.220	-0.020
-218.596	-102.419	0.211	0.050
-217.582	-75.034	0.049	-0.017
-216.567	152.236	0.126	-0.171
-215.552	0.117	-0.132	-0.094
-214.538	-103.231	0.222	0.052
-213.523	-85.349	-0.219	0.068
-212.509	34.107	0.204	0.177
-211.494	-200.000	0.018	-0.286
-210.479	-200.000	0.018	0.086
-209.465	-23.007	0.250	0.150
-208.450	137.782	0.242	0.316
-207.436	-200.000	0.023	0.218
-206.421	-43.346	-0.273	0.138
-205.406	-52.414	0.442	0.204
-204.392	21.977	0.217	0.176
-203.377	-200.000	-0.020	-0.126
-202.363	-121.892	-0.226	0.037
-201.348	441.975	-0.083	0.182
-200.333	18.322	-0.107	-0.085
-199.319	82.926	0.100	-0.108
-198.304	-82.582	-0.007	-0.002
-197.290	-183.857	0.210	-0.004
-196.275	-35.936	0.234	-0.126
-195.260	-200.000	-0.031	-0.170
-194.246	-200.000	-0.031	-0.172
-193.231	110.804	-0.035	0.042
-192.217	800.000	-0.066	-0.196
-191.202	-126.141	0.398	-0.059
-190.187	-26.957	0.051	0.030
-189.173	-51.694	0.242	0.113
-188.158	-153.249	0.107	0.007
-187.144	-50.052	0.258	0.122
-186.129	131.530	0.257	-0.330
-185.114	-135.202	0.284	0.034
-184.100	50.911	0.288	0.272
-183.085	119.120	-0.153	0.188
-182.071	169.518	0.110	0.157
-181.056	92.143	0.169	-0.190
-180.042	-108.616	0.390	0.083
-179.027	-10.334	-0.118	0.078
-178.012	160.141	0.138	-0.192
-176.998	56.848	0.198	0.192
-175.983	139.244	-0.216	-0.284
-174.969	-109.966	0.095	0.020
-173.954	722.255	0.122	0.324
-172.939	800.000	0.018	0.077
-171.925	337.324	0.082	0.159
-170.910	-27.854	-0.235	-0.136
-169.896	731.018	0.113	0.301
-168.881	-37.823	0.203	0.108
-167.866	-101.857	0.438	-0.105
-166.852	-200.000	-0.015	-0.349
-165.837	-159.842	0.095	-0.005
-164.823	-200.000	0.002	-0.040
-163.808	800.000	0.043	0.161
-162.793	-128.764	0.331	0.046
-161.779	-65.818	-0.278	-0.111
-160.764	-50.498	-0.192	-0.090
-159.750	-26.938	0.200	-0.116
-158.735	-200.000	-0.009	0.110
-157.720	800.000	-0.091	-0.336
-156.706	-200.000	-0.066	-0.000
-155.691	-200.000	0.021	0.489
-154.677	49.114	0.110	0.103
-153.662	-105.172	-0.182	-0.041
-152.647	-200.000	-0.022	-0.153
-151.633	778.303	-0.052	0.143
-150.618	-200.000	0.076	0.528
-149.604	-105.725	0.378	0.085
-148.589	-200.000	0.006	0.262
-147.574	-200.000	0.020	0.196
-146.560	111.289	0.077	0.092
-145.545	5.522	0.236	-0.173
-144.531	65.315	0.109	-0.110
-143.516	8.173	-0.106	0.079
-142.502	-35.159	-0.170	-0.092
-141.487	-200.000	0.009	-0.193
-140.472	-200.000	-0.059	-0.309
-139.458	-63.224	0.167	0.068
-138.443	800.000	0.050	-0.186
-137.429	-127.683	-0.125	-0.018
-136.414	199.203	0.059	0.089
-135.399	-109.695	-0.164	-0.034
-134.385	-0.584	0.333	0.235
-133.370	-129.025	0.114	-0.016
-132.356	752.971	0.071	0.191
-131.341	-175.301	-0.151	-0.004
-130.326	-67.897	-0.092	-0.036
-129.312	800.000	0.093	0.292
-128.297	247.035	0.139	-0.233
-127.283	-115.708	0.157	-0.029
-126.268	41.435	-0.279	-0.251
-125.253	4.229	0.082	0.060
-124.239	-166.720	-0.411	-0.017
-123.224	-96.581	0.445	-0.117
-122.210	800.000	0.149	0.441
