DTS Sentinel unit serial number:	SN413079Multiplexer serial number:	ORYXHardware model number:	OX4-SRSoftware version number:	ORYX F/W v4.00 Oryx Data Collector v3.7.2.0data status	okinstallation	princeton_trtdifferential loss correction	single-endedforward channel	channel 1reverse channel	N/Adate	2019/09/13time	19:06:35forward acquisition time	60.00reverse acquisition time	0.00gamma	496.2192k internal	0.2324k external	0.2324temperature offset calibration	1.0119default loss term (dB/km)	0.3790temperature slope calibration	1.0000multiplexer offset coefficient	1.0000multiplexer slope coefficient	1.0000fibre end	0.00T internal ref (°C)	31.67T ext. ref 1 (°C)	3.87T ext. ref 2 (°C)	24.99length (m)	temperature (°C)	Stokes	anti-Stokes-747.200	-167.487	-0.250	-0.010
-746.185	68.683	-0.448	0.464
-745.171	125.731	-0.153	0.196
-744.156	-123.545	-0.232	-0.037
-743.142	102.408	-0.028	0.033
-742.127	800.000	0.040	-0.165
-741.112	18.199	-0.073	0.059
-740.098	10.737	0.264	0.203
-739.083	-192.268	0.215	-0.002
-738.069	-99.865	-0.114	0.029
-737.054	-200.000	0.029	0.141
-736.039	24.809	-0.244	-0.204
-735.025	129.219	0.077	0.099
-734.010	-116.017	-0.023	0.004
-732.996	116.783	-0.149	-0.184
-731.981	800.000	0.210	0.595
-730.966	-200.000	0.032	0.270
-729.952	66.953	-0.151	0.156
-728.937	-112.689	0.127	-0.026
-727.923	282.341	-0.263	0.477
-726.908	-149.442	-0.074	0.006
-725.894	76.498	0.149	0.159
-724.879	156.999	-0.122	0.171
-723.864	800.000	-0.097	0.286
-722.850	-76.864	-0.281	0.099
-721.835	20.951	-0.298	0.244
-720.821	256.824	0.135	-0.234
-719.806	-200.000	0.004	-0.098
-718.791	192.929	0.091	-0.138
-717.777	-137.518	-0.322	0.037
-716.762	57.633	-0.159	0.156
-715.748	726.925	0.144	0.389
-714.733	-200.000	-0.053	-0.240
-713.718	-122.024	0.276	0.046
-712.704	-2.023	-0.256	-0.181
-711.689	148.863	0.099	0.135
-710.675	800.000	0.032	-0.128
-709.660	-135.660	-0.213	-0.025
-708.645	-54.955	-0.222	0.101
-707.631	-200.000	-0.010	-0.198
-706.616	-93.336	-0.087	0.024
-705.602	-86.678	0.185	0.057
-704.587	493.228	0.048	-0.111
-703.572	632.494	-0.023	-0.060
-702.558	-200.000	-0.003	-0.137
-701.543	-95.614	0.256	-0.069
-700.529	-106.688	-0.333	-0.075
-699.514	107.049	0.029	-0.035
-698.499	-38.260	0.183	0.098
-697.485	475.057	0.078	-0.178
-696.470	800.000	-0.073	0.259
-695.456	163.958	0.118	0.167
-694.441	79.188	-0.180	-0.195
-693.426	800.000	-0.060	0.248
-692.412	565.619	0.048	0.116
-691.397	-168.204	0.124	0.005
-690.383	-200.000	0.014	-0.117
-689.368	-95.799	-0.203	-0.055
-688.354	15.490	0.327	-0.259
-687.339	-124.342	-0.125	-0.020
-686.324	66.235	0.069	0.071
-685.310	-110.503	-0.273	0.057
-684.295	-44.709	-0.283	-0.142
-683.281	94.312	0.133	0.152
-682.266	-200.000	0.024	0.269
-681.251	73.985	-0.287	0.304
-680.237	-108.529	0.299	0.065
-679.222	572.041	0.032	-0.078
-678.208	-81.375	0.445	-0.148
-677.193	-200.000	0.024	-0.148
-676.178	-181.738	-0.114	-0.002
-675.164	-157.080	-0.266	0.016
-674.149	105.742	0.040	0.048
-673.135	-37.258	0.200	0.108
-672.120	800.000	-0.023	0.072
-671.105	-200.000	-0.018	0.283
-670.091	13.101	-0.211	-0.164
-669.076	-200.000	-0.005	-0.150
-668.062	-59.355	0.118	-0.051
-667.047	-53.910	0.145	-0.066
-666.032	-113.741	0.170	-0.033
-665.018	-134.711	-0.128	0.016
-664.003	-113.621	-0.156	-0.031
-662.989	-77.325	0.284	-0.099
-661.974	-116.821	0.054	-0.010
-660.959	706.648	0.036	0.096
-659.945	-200.000	0.004	-0.048
-658.930	-162.845	-0.140	-0.007
-657.916	-200.000	-0.076	-0.423
-656.901	66.801	0.200	0.205
-655.886	-92.295	-0.194	0.055
-654.872	501.561	-0.170	-0.395
-653.857	-87.255	-0.303	-0.093
-652.843	-166.541	0.051	-0.002
-651.828	83.219	-0.041	-0.045
-650.814	56.811	-0.101	0.099
-649.799	-200.000	0.042	-0.329
-648.784	640.685	0.078	0.200
-647.770	-200.000	0.039	-0.256
-646.755	575.290	-0.052	0.128
-645.741	-69.224	-0.149	0.058
-644.726	-185.097	-0.116	-0.002
-643.711	140.756	0.080	0.106
-642.697	800.000	-0.039	-0.134
-641.682	-200.000	0.003	-0.246
-640.668	129.658	0.103	0.133
-639.653	800.000	-0.078	-0.318
-638.638	-45.270	0.237	-0.118
-637.624	-44.844	0.240	0.120
-636.609	-53.675	0.083	-0.038
-635.595	504.765	0.044	-0.103
-634.580	-200.000	0.002	-0.145
-633.565	-45.444	-0.276	-0.138
-632.551	211.325	0.075	-0.119
-631.536	-0.382	0.169	0.120
-630.522	-200.000	0.027	-0.377
-629.507	-99.126	-0.249	-0.063
-628.492	-200.000	-0.061	-0.298
-627.478	4.516	0.068	-0.050
-626.463	800.000	-0.164	-0.457
-625.449	268.015	-0.108	-0.190
-624.434	150.384	-0.141	-0.192
-623.419	206.580	0.115	-0.180
-622.405	30.337	-0.205	0.176
-621.390	78.049	-0.114	0.122
-620.376	440.813	0.026	-0.057
-619.361	174.003	-0.082	0.118
-618.346	-31.369	-0.317	-0.179
-617.332	-70.293	0.471	0.180
-616.317	800.000	0.127	-0.485
-615.303	800.000	-0.098	0.275
-614.288	55.584	-0.108	0.105
-613.273	240.691	0.154	-0.258
-612.259	-195.131	0.501	0.004
-611.244	800.000	-0.070	0.231
-610.230	31.601	-0.066	-0.057
-609.215	96.716	0.266	0.306
-608.201	18.166	0.058	-0.047
-607.186	-64.088	0.143	-0.059
-606.171	4.918	0.199	0.147
-605.157	-200.000	0.024	0.238
-604.142	-111.682	-0.243	-0.050
-603.128	184.315	-0.123	0.182
-602.113	273.735	-0.045	0.080
-601.098	-99.182	0.330	-0.084
-600.084	-133.902	0.142	-0.018
-599.069	-200.000	0.063	-0.452
-598.055	106.903	-0.166	0.198
-597.040	-52.851	0.294	-0.136
-596.025	800.000	-0.028	-0.092
-595.011	409.148	-0.196	-0.417
-593.996	70.341	0.116	-0.121
-592.982	420.213	-0.144	0.311
-591.967	-91.960	-0.256	0.073
-590.952	800.000	-0.165	-0.488
-589.938	97.351	0.316	-0.364
-588.923	-145.351	0.287	-0.026
-587.909	-17.734	-0.092	0.058
-586.894	140.924	0.198	0.263
-585.879	34.000	0.288	0.252
-584.865	-149.861	0.318	-0.025
-583.850	800.000	0.012	-0.042
-582.836	800.000	0.051	0.184
-581.821	270.615	0.040	0.071
-580.806	86.166	-0.298	-0.329
-579.792	16.351	-0.247	-0.195
-578.777	359.925	-0.067	-0.135
-577.763	-148.925	-0.533	-0.043
-576.748	59.016	0.191	0.189
-575.733	73.156	0.178	-0.186
-574.719	-176.229	0.238	0.006
-573.704	-148.152	0.142	-0.012
-572.690	109.151	0.201	0.241
-571.675	-73.794	-0.340	-0.124
-570.661	299.918	-0.008	-0.014
-569.646	57.386	-0.263	-0.257
-568.631	-32.804	0.113	-0.063
-567.617	-6.721	0.120	0.082
-566.602	-200.000	0.016	0.220
-565.588	633.723	-0.037	-0.095
-564.573	18.301	-0.119	0.095
-563.558	2.759	-0.129	-0.093
-562.544	357.697	0.042	0.083
-561.529	-11.920	0.222	0.146
-560.515	433.386	0.094	-0.204
-559.500	171.490	0.164	-0.235
-558.485	106.495	-0.101	-0.120
-557.471	235.196	-0.223	-0.369
-556.456	-15.652	-0.373	-0.238
-555.442	-8.782	-0.130	0.088
-554.427	-179.142	0.326	0.007
-553.412	-94.944	0.284	0.077
-552.398	-200.000	-0.015	0.166
-551.383	19.711	-0.135	-0.109
-550.369	-200.000	0.046	0.313
-549.354	-100.518	0.152	-0.038
-548.339	-200.000	-0.007	0.218
-547.325	-200.000	-0.081	-0.433
-546.310	114.052	0.039	0.048
-545.296	-187.091	0.349	-0.005
-544.281	-110.332	-0.444	0.093
-543.266	-200.000	-0.056	-0.372
-542.252	-150.783	-0.272	0.021
-541.237	-114.674	0.463	0.089
-540.223	-168.739	-0.428	0.016
-539.208	139.415	-0.263	-0.347
-538.193	-55.656	-0.362	0.162
-537.179	212.807	0.132	-0.208
-536.164	207.840	0.047	0.074
-535.150	-136.252	-0.194	-0.023
-534.135	-70.519	0.066	-0.025
-533.121	149.499	-0.116	0.157
-532.106	372.980	0.110	0.224
-531.091	62.397	-0.101	-0.101
-530.077	-89.420	-0.244	0.072
-529.062	445.704	0.070	-0.153
-528.048	800.000	-0.064	-0.220
-527.033	-200.000	0.030	-0.235
-526.018	-157.224	0.151	-0.009
-525.004	-101.329	0.171	0.042
-523.989	-200.000	0.047	-0.247
-522.975	250.538	0.052	0.088
-521.960	157.901	-0.063	0.087
-520.945	-200.000	-0.064	0.477
-519.931	-144.170	0.311	0.029
-518.916	800.000	-0.044	0.189
-517.902	133.212	0.041	-0.053
-516.887	-200.000	0.002	-0.099
-515.872	-102.228	-0.306	0.074
-514.858	-22.562	-0.333	-0.202
-513.843	800.000	0.055	0.226
-512.829	194.424	-0.209	0.316
-511.814	-134.051	-0.326	0.040
-510.799	-200.000	0.055	0.260
-509.785	-11.263	-0.258	0.170
-508.770	-54.931	-0.326	-0.147
-507.756	800.000	-0.100	-0.321
-506.741	2.175	-0.244	-0.176
-505.726	66.874	-0.183	-0.186
-504.712	104.589	0.139	0.164
-503.697	-98.761	-0.171	0.044
-502.683	-184.354	0.006	0.000
-501.668	-167.570	-0.276	0.011
-500.653	800.000	0.026	-0.074
-499.639	-200.000	0.014	0.249
-498.624	91.766	-0.269	0.302
-497.610	-66.580	0.030	0.012
-496.595	-21.578	0.125	-0.076
-495.581	800.000	0.109	-0.364
-494.566	154.172	-0.066	0.091
-493.551	-181.593	0.430	0.008
-492.537	452.602	-0.119	0.263
-491.522	-99.523	0.109	-0.027
-490.508	-50.878	0.238	0.112
-489.493	53.455	-0.087	0.083
-488.478	-20.038	0.178	0.110
-487.464	-200.000	-0.002	-0.054
-486.449	484.686	0.121	0.275
-485.435	71.587	-0.163	0.170
-484.420	-200.000	0.035	-0.208
-483.405	7.685	0.191	-0.143
-482.391	-200.000	0.441	0.001
-481.376	-35.429	-0.162	-0.088
-480.362	135.148	-0.087	-0.113
-479.347	29.457	-0.249	-0.211
-478.332	46.611	0.126	0.117
-477.318	800.000	-0.053	-0.165
-476.303	27.176	-0.094	0.079
-475.289	-17.869	-0.121	0.076
-474.274	54.978	-0.396	-0.382
-473.259	210.513	0.173	0.271
-472.245	93.065	0.233	0.263
-471.230	-142.532	-0.235	-0.023
-470.216	88.627	0.115	0.128
-469.201	-27.487	0.264	-0.153
-468.186	-68.653	-0.101	0.039
-467.172	390.684	0.124	0.257
-466.157	52.298	0.153	-0.146
-465.143	-73.285	-0.385	0.141
-464.128	161.319	-0.172	-0.241
-463.113	-200.000	0.048	0.215
-462.099	-76.679	0.365	-0.128
-461.084	167.923	0.281	-0.398
-460.070	411.866	-0.082	-0.174
-459.055	-70.674	0.278	-0.105
-458.040	800.000	0.072	0.310
-457.026	-200.000	-0.059	0.297
-456.011	45.067	-0.194	-0.179
-454.997	121.222	-0.154	0.191
-453.982	250.339	0.090	-0.152
-452.968	-49.244	-0.166	0.079
-451.953	437.780	0.034	-0.074
-450.938	-23.091	-0.088	-0.053
-449.924	23.697	0.247	0.203
-448.909	192.659	0.061	0.092
-447.895	157.646	0.141	0.194
-446.880	76.025	-0.096	0.101
-445.865	122.813	0.154	0.193
-444.851	-34.249	-0.192	-0.105
-443.836	-200.000	-0.006	0.098
-442.822	390.331	-0.062	-0.129
-441.807	800.000	0.053	0.193
-440.792	-123.144	0.139	0.022
-439.778	40.819	-0.173	0.156
-438.763	36.763	-0.144	0.127
-437.749	-53.658	0.159	0.073
-436.734	-200.000	0.006	0.080
-435.719	208.428	0.146	-0.227
-434.705	-17.076	-0.146	0.092
-433.690	-41.356	-0.091	0.047
-432.676	-61.932	0.190	0.079
-431.661	-200.000	-0.003	0.068
-430.646	-68.487	0.162	0.063
-429.632	-75.059	-0.243	-0.087
-428.617	-102.857	-0.074	-0.018
-427.603	201.996	0.102	-0.157
-426.588	-43.533	-0.043	0.022
-425.573	-170.537	0.151	-0.005
-424.559	-93.334	-0.188	0.052
-423.544	310.248	-0.168	0.313
-422.530	-200.000	-0.008	0.069
-421.515	-200.000	-0.064	0.396
-420.500	-110.697	0.180	-0.037
-419.486	381.610	-0.202	0.414
-418.471	99.887	0.273	0.316
-417.457	98.892	0.333	0.383
-416.442	-138.813	0.370	-0.040
-415.428	-106.764	0.188	-0.041
-414.413	337.159	-0.072	0.139
-413.398	7.904	-0.092	-0.069
-412.384	30.700	0.079	-0.068
-411.369	132.795	0.125	-0.160
-410.355	800.000	-0.032	0.099
-409.340	-87.505	0.188	-0.057
-408.325	-22.625	0.113	-0.068
-407.311	800.000	-0.062	0.211
-406.296	98.680	0.180	-0.206
-405.282	-41.144	-0.225	0.116
-404.267	320.081	-0.053	0.100
-403.252	11.701	-0.326	0.249
-402.238	11.908	0.400	0.306
-401.223	284.896	0.029	0.052
-400.209	220.775	-0.197	-0.315
-399.194	72.996	-0.076	-0.079
-398.179	13.447	0.128	-0.099
-397.165	-79.326	-0.309	-0.104
-396.150	33.771	0.197	0.171
-395.136	134.766	0.079	-0.102
-394.121	800.000	-0.036	0.155
-393.106	-55.730	0.116	-0.052
-392.092	9.883	0.137	-0.103
-391.077	-200.000	0.013	-0.337
-390.063	427.459	0.083	0.179
-389.048	-200.000	-0.042	0.269
-388.033	-162.879	-0.116	-0.006
-387.019	-126.861	0.051	0.008
-386.004	-54.914	-0.225	0.101
-384.990	-127.164	-0.073	-0.011
-383.975	86.236	0.156	-0.171
-382.960	-26.623	-0.308	-0.180
-381.946	-200.000	0.061	0.317
-380.931	560.328	-0.059	0.143
-379.917	325.476	-0.012	-0.023
-378.902	-200.000	0.028	0.140
-377.888	800.000	0.065	0.220
-376.873	38.925	-0.059	0.052
-375.858	-78.383	0.108	-0.037
-374.844	128.320	-0.171	-0.217
-373.829	-108.159	0.136	-0.029
-372.815	800.000	0.017	0.063
-371.800	800.000	-0.151	-0.444
-370.785	-125.826	0.152	0.023
-369.771	758.087	-0.064	0.173
-368.756	-181.087	0.212	-0.004
-367.742	-79.162	0.326	-0.110
-366.727	-125.166	-0.178	0.027
-365.712	-200.000	0.003	-0.047
-364.698	341.010	0.099	0.191
-363.683	800.000	0.054	0.166
-362.669	-98.312	0.267	0.068
-361.654	-97.153	0.226	-0.059
-360.639	35.670	-0.176	-0.153
-359.625	58.804	-0.179	-0.175
-358.610	-107.407	0.157	-0.034
-357.596	-57.708	-0.121	-0.053
-356.581	-200.000	-0.063	0.276
-355.566	-131.898	0.339	-0.044
-354.552	470.070	0.073	0.163
-353.537	120.971	-0.253	0.313
-352.523	-200.000	0.057	-0.258
-351.508	-128.111	0.360	-0.051
-350.493	492.675	0.131	0.299
-349.479	-50.056	-0.174	0.082
-348.464	33.400	-0.087	-0.075
-347.450	-9.276	-0.299	-0.199
-346.435	30.426	0.163	-0.138
-345.420	93.057	0.124	0.139
-344.406	481.324	-0.187	0.421
-343.391	8.850	-0.098	0.073
-342.377	-69.014	-0.362	-0.139
-341.362	-22.315	0.096	0.058
-340.348	-200.000	0.059	-0.291
-339.333	467.122	-0.203	0.452
-338.318	-200.000	0.007	0.206
-337.304	-87.581	0.117	-0.035
-336.289	18.142	-0.257	-0.204
-335.275	-67.166	0.253	-0.099
-334.260	800.000	-0.031	-0.126
-333.245	-92.284	-0.332	0.093
-332.231	698.809	-0.047	-0.122
-331.216	168.022	0.298	-0.421
-330.202	-90.961	-0.231	-0.066
-329.187	-193.189	0.172	0.002
-328.172	106.322	0.095	0.112
-327.158	431.513	-0.062	-0.133
-326.143	-16.826	0.048	0.030
-325.129	-167.397	-0.097	0.004
-324.114	-139.153	-0.350	0.038
-323.099	322.749	0.040	0.075
-322.085	87.464	0.085	0.093
-321.070	-74.677	0.075	-0.027
-320.056	800.000	-0.051	0.170
-319.041	-181.001	0.185	-0.004
-318.026	-200.000	0.018	0.099
-317.012	-200.000	0.000	0.207
-315.997	-200.000	-0.016	0.159
-314.983	14.391	-0.255	-0.198
-313.968	-200.000	-0.008	-0.063
-312.953	128.828	-0.229	-0.289
-311.939	177.138	0.040	-0.057
-310.924	800.000	-0.123	-0.366
-309.910	5.090	-0.134	0.098
-308.895	-26.543	0.207	0.120
-307.880	-200.000	0.017	0.129
-306.866	335.384	0.117	0.225
-305.851	800.000	-0.067	-0.211
-304.837	-112.013	-0.235	0.047
-303.822	-94.923	-0.153	-0.041
-302.807	-129.581	-0.191	0.026
-301.793	-200.000	0.016	0.075
-300.778	800.000	0.038	-0.135
-299.764	-128.117	0.126	-0.018
-298.749	800.000	-0.143	0.448
-297.735	-98.229	0.289	-0.074
-296.720	-75.112	0.294	-0.104
-295.705	512.982	0.158	-0.366
-294.691	234.688	-0.062	-0.101
-293.676	-57.271	0.129	-0.056
-292.662	-200.000	0.030	-0.658
-291.647	262.690	-0.164	-0.281
-290.632	-119.679	-0.297	-0.051
-289.618	99.497	-0.106	0.122
-288.603	-110.362	-0.267	-0.055
-287.589	-110.140	0.265	-0.055
-286.574	-57.106	0.204	-0.089
-285.559	30.089	-0.088	-0.074
-284.545	-152.854	-0.283	-0.020
-283.530	-135.245	0.082	0.010
-282.516	194.513	-0.124	-0.186
-281.501	20.436	-0.184	0.147
-280.486	-200.000	0.006	-0.435
-279.472	103.030	0.123	0.143
-278.457	118.125	-0.183	0.223
-277.443	182.815	0.045	-0.066
-276.428	-56.537	0.361	0.159
-275.413	19.207	0.079	-0.062
-274.399	-84.098	0.167	0.053
-273.384	-200.000	-0.083	0.546
-272.370	-6.528	0.112	0.076
-271.355	-85.855	0.233	-0.072
-270.340	800.000	0.071	0.211
-269.326	47.184	0.183	0.169
-268.311	-99.975	0.179	-0.044
-267.297	-92.855	-0.233	-0.065
-266.282	-148.175	0.247	0.020
-265.267	-17.566	0.047	-0.029
-264.253	9.945	-0.160	-0.120
-263.238	158.790	0.095	0.130
-262.224	-169.079	0.080	-0.003
-261.209	-200.000	-0.002	0.139
-260.195	-200.000	-0.011	-0.342
-259.180	-130.172	-0.205	-0.028
-258.165	800.000	0.063	-0.268
-257.151	-35.568	-0.216	-0.116
-256.136	-144.220	-0.149	-0.014
-255.122	-88.650	-0.167	0.049
-254.107	292.403	-0.134	-0.241
-253.092	14.437	0.139	-0.108
-252.078	-200.000	0.043	-0.293
-251.063	160.371	-0.128	0.177
-250.049	800.000	-0.113	0.464
-249.034	800.000	-0.054	0.192
-248.019	-200.000	0.013	0.095
-247.005	19.014	0.175	0.139
-245.990	303.271	0.203	0.372
-244.976	800.000	0.035	0.147
-243.961	-42.852	-0.231	0.116
-242.946	21.860	0.115	0.093
-241.932	-200.000	-0.027	-0.194
-240.917	-200.000	0.026	0.207
-239.903	-46.512	0.151	0.073
-238.888	-200.000	0.041	-0.348
-237.873	-81.753	-0.206	0.067
-236.859	-138.909	-0.358	-0.039
-235.844	-200.000	-0.002	-0.091
-234.830	568.783	0.041	-0.098
-233.815	56.932	0.227	-0.219
-232.800	11.200	-0.282	-0.214
-231.786	334.189	-0.057	0.109
-230.771	-45.090	-0.255	0.125
-229.757	47.364	-0.105	-0.097
-228.742	0.505	0.127	0.090
-227.727	85.516	0.256	-0.278
-226.713	800.000	-0.052	0.143
-225.698	393.738	0.180	0.371
-224.684	-200.000	-0.012	0.270
-223.669	269.547	-0.026	0.046
-222.655	-73.078	-0.231	-0.084
-221.640	-64.692	-0.117	-0.047
-220.625	125.691	0.083	-0.104
-219.611	-200.000	0.004	-0.231
-218.596	235.251	0.100	-0.164
-217.582	624.615	0.080	0.200
-216.567	-100.731	0.189	-0.046
-215.552	3.595	-0.133	0.096
-214.538	-81.099	0.293	0.096
-213.523	358.956	-0.184	-0.364
-212.509	-103.852	-0.314	0.072
-211.494	142.770	0.169	-0.222
-210.479	-49.064	0.148	-0.070
-209.465	-98.039	-0.384	-0.098
-208.450	-83.794	0.377	-0.119
-207.436	-61.066	-0.266	0.111
-206.421	-200.000	-0.003	0.030
-205.406	-200.000	0.021	0.123
-204.392	-200.000	-0.010	-0.189
-203.377	-200.000	-0.008	0.080
-202.363	47.501	0.070	-0.065
-201.348	-200.000	-0.013	0.055
-200.333	-200.000	0.014	0.087
-199.319	89.777	0.032	0.036
-198.304	19.165	0.317	0.251
-197.290	344.488	0.114	-0.222
-196.275	141.532	-0.062	-0.081
-195.260	-156.921	-0.272	-0.016
-194.246	81.549	0.076	-0.081
-193.231	-127.778	0.040	0.006
-192.217	-156.060	0.260	-0.016
-191.202	125.193	-0.101	-0.126
-190.187	800.000	0.075	-0.211
-189.173	-99.892	0.071	0.018
-188.158	89.227	0.045	0.049
-187.144	-87.367	-0.314	-0.094
-186.129	800.000	-0.025	-0.094
-185.114	-200.000	-0.005	0.268
-184.100	630.090	-0.133	0.331
-183.085	-72.441	-0.008	0.003
-182.071	108.302	0.208	0.245
-181.056	-84.770	-0.178	-0.055
-180.042	-72.761	-0.158	0.057
-179.027	298.777	-0.195	-0.353
-178.012	259.188	0.034	-0.058
-176.998	-155.623	0.199	-0.013
-175.983	-134.040	0.227	-0.028
-174.969	291.286	0.031	0.056
-173.954	-50.420	0.127	0.059
-172.939	96.693	0.119	-0.134
-171.925	800.000	-0.035	-0.106
-170.910	-200.000	-0.029	0.368
-169.896	350.806	0.055	-0.107
-168.881	49.697	0.253	0.235
-167.866	41.951	-0.145	0.130
-166.852	214.100	-0.019	-0.029
-165.837	-56.761	-0.282	0.123
-164.823	-132.435	0.209	-0.027
-163.808	-200.000	-0.071	0.338
-162.793	499.101	0.095	0.217
-161.779	-83.355	-0.084	0.027
-160.764	-200.000	-0.018	-0.124
-159.750	95.305	0.216	-0.243
-158.735	-29.498	-0.087	-0.049
-157.720	800.000	0.085	0.247
-156.706	59.327	-0.222	0.216
-155.691	-200.000	0.017	-0.268
-154.677	504.828	-0.055	0.125
-153.662	-200.000	0.051	0.269
-152.647	800.000	0.051	0.157
-151.633	624.364	-0.114	-0.283
-150.618	601.168	-0.096	0.235
-149.604	-103.826	0.231	0.053
-148.589	-200.000	-0.016	-0.126
-147.574	-25.843	0.226	-0.131
-146.560	223.643	0.130	0.207
-145.545	176.170	-0.086	-0.124
-144.531	237.280	-0.144	-0.236
-143.516	800.000	-0.030	0.094
-142.502	722.410	0.031	0.081
-141.487	405.688	-0.141	0.293
-140.472	-105.079	-0.117	0.026
-139.458	56.521	-0.030	-0.029
-138.443	193.174	-0.103	-0.154
-137.429	-16.135	-0.300	-0.188
-136.414	800.000	-0.019	0.059
-135.399	529.664	0.199	0.464
-134.385	-53.142	0.178	0.081
-133.370	-118.000	0.338	0.060
-132.356	-117.704	0.292	-0.052
-131.341	800.000	0.026	-0.072
-130.326	1.564	0.185	0.131
-129.312	74.339	-0.255	-0.265
-128.297	-87.020	-0.306	0.092
-127.283	-90.225	0.148	-0.043
-126.268	-124.980	-0.195	0.030
-125.253	-34.368	-0.232	-0.125
-124.239	243.611	-0.023	-0.037
-123.224	-68.356	-0.082	-0.031
-122.210	-80.244	-0.106	0.035
-121.195	-87.224	-0.148	-0.044
