DTS Sentinel unit serial number:	SN413079Multiplexer serial number:	ORYXHardware model number:	OX4-SRSoftware version number:	ORYX F/W v4.00 Oryx Data Collector v3.7.2.0data status	okinstallation	princeton_trtdifferential loss correction	single-endedforward channel	channel 1reverse channel	N/Adate	2019/09/15time	23:50:35forward acquisition time	60.00reverse acquisition time	0.00gamma	496.2192k internal	0.2332k external	0.2332temperature offset calibration	0.9973default loss term (dB/km)	0.3790temperature slope calibration	1.0000multiplexer offset coefficient	1.0000multiplexer slope coefficient	1.0000fibre end	0.00T internal ref (°C)	27.94T ext. ref 1 (°C)	9.30T ext. ref 2 (°C)	21.70length (m)	temperature (°C)	Stokes	anti-Stokes-747.200	-13.879	0.444	0.289
-746.185	-43.729	-0.295	0.149
-745.171	533.505	-0.018	-0.042
-744.156	-151.925	-0.190	-0.014
-743.142	192.687	0.196	-0.298
-742.127	-121.333	-0.342	0.057
-741.112	-139.204	0.141	-0.015
-740.098	-200.000	0.009	0.510
-739.083	107.948	0.344	0.413
-738.069	-90.552	0.090	0.026
-737.054	-98.843	-0.221	-0.057
-736.039	-200.000	0.058	-0.351
-735.025	-86.444	0.306	0.094
-734.010	203.299	-0.147	-0.228
-732.996	-200.000	-0.062	-0.413
-731.981	103.263	-0.142	-0.167
-730.966	505.811	-0.159	0.370
-729.952	25.551	-0.207	-0.174
-728.937	572.209	0.123	-0.300
-727.923	8.123	-0.277	-0.209
-726.908	-113.821	0.384	-0.075
-725.894	-64.277	0.241	-0.099
-724.879	-200.000	-0.020	0.391
-723.864	71.323	-0.129	0.135
-722.850	-92.014	-0.126	-0.036
-721.835	304.976	0.113	0.210
-720.821	-119.630	-0.247	-0.043
-719.806	121.475	-0.199	0.249
-718.791	-200.000	0.001	-0.404
-717.777	-200.000	-0.000	-0.108
-716.762	-60.890	0.092	-0.039
-715.748	-18.928	-0.337	0.211
-714.733	201.528	0.228	0.353
-713.718	-200.000	0.026	0.261
-712.704	376.716	0.106	-0.218
-711.689	-28.173	-0.291	0.169
-710.675	800.000	-0.066	-0.256
-709.660	288.414	-0.045	-0.082
-708.645	-118.216	-0.079	0.014
-707.631	14.844	-0.088	0.069
-706.616	800.000	-0.074	-0.216
-705.602	202.535	0.174	-0.269
-704.587	-104.601	-0.357	0.083
-703.572	49.433	-0.109	-0.103
-702.558	12.500	-0.066	0.051
-701.543	133.216	-0.144	-0.187
-700.529	50.050	0.126	-0.120
-699.514	165.594	-0.286	0.406
-698.499	800.000	0.013	0.058
-697.485	-81.024	0.269	0.090
-696.470	-200.000	0.011	-0.204
-695.456	-2.143	0.185	-0.130
-694.441	-30.758	0.168	-0.095
-693.426	179.191	0.085	0.124
-692.412	-37.859	0.295	-0.158
-691.397	131.904	0.096	0.124
-690.383	17.988	-0.227	-0.182
-689.368	-200.000	-0.005	0.145
-688.354	-124.324	-0.367	-0.057
-687.339	-82.725	0.209	-0.068
-686.324	100.842	-0.298	-0.348
-685.310	5.623	-0.109	0.081
-684.295	100.714	0.297	-0.346
-683.281	-200.000	-0.011	0.272
-682.266	-200.000	-0.003	-0.283
-681.251	-125.532	-0.354	-0.054
-680.237	282.182	-0.140	0.251
-679.222	26.462	0.273	-0.229
-678.208	-200.000	0.078	-0.503
-677.193	91.619	-0.148	-0.167
-676.178	-3.226	-0.337	-0.236
-675.164	-200.000	0.018	-0.195
-674.149	2.148	-0.175	-0.127
-673.135	-49.706	-0.272	-0.130
-672.120	-16.855	0.083	-0.053
-671.105	-27.970	0.191	0.111
-670.091	-200.000	-0.039	0.354
-669.076	-72.215	-0.204	0.076
-668.062	-164.881	0.410	-0.018
-667.047	-98.899	0.053	-0.014
-666.032	-100.252	0.263	0.065
-665.018	-164.631	-0.180	-0.008
-664.003	35.367	0.174	0.153
-662.989	-200.000	0.031	0.200
-661.974	7.144	-0.267	0.200
-660.959	429.983	-0.031	0.067
-659.945	-70.569	-0.272	0.103
-658.930	-91.093	-0.399	-0.115
-657.916	-200.000	-0.037	-0.280
-656.901	800.000	-0.048	0.146
-655.886	-155.917	-0.372	0.024
-654.872	-200.000	-0.032	-0.328
-653.857	223.505	0.141	-0.228
-652.843	147.538	0.144	-0.195
-651.828	120.875	0.231	0.288
-650.814	-103.976	-0.025	-0.006
-649.799	539.984	0.032	-0.077
-648.784	738.427	0.117	-0.314
-647.770	94.104	-0.202	-0.230
-646.755	0.991	0.264	-0.190
-645.741	247.777	-0.108	-0.184
-644.726	-150.312	0.259	0.020
-643.711	-38.798	-0.115	-0.061
-642.697	31.643	-0.210	-0.181
-641.682	-27.541	-0.211	0.123
-640.668	57.769	-0.381	-0.374
-639.653	166.710	-0.120	0.171
-638.638	76.853	-0.083	-0.089
-637.624	144.575	-0.049	-0.065
-636.609	91.263	0.202	-0.227
-635.595	101.612	-0.045	-0.052
-634.580	-73.997	0.266	0.097
-633.565	-200.000	-0.019	-0.230
-632.551	-100.415	-0.304	-0.075
-631.536	-28.023	-0.042	-0.024
-630.522	-17.124	-0.251	-0.158
-629.507	-48.491	0.221	0.107
-628.492	237.144	0.083	-0.138
-627.478	800.000	-0.045	-0.154
-626.463	119.045	0.069	-0.085
-625.449	-105.021	-0.389	-0.089
-624.434	157.268	-0.140	-0.194
-623.419	-200.000	-0.007	-0.162
-622.405	-153.985	-0.312	-0.021
-621.390	-103.802	0.270	0.063
-620.376	-200.000	-0.003	-0.210
-619.361	-24.414	-0.050	-0.030
-618.346	-200.000	0.033	0.353
-617.332	800.000	0.056	0.174
-616.317	-25.194	0.186	0.110
-615.303	316.404	-0.154	0.291
-614.288	271.379	-0.095	0.168
-613.273	-200.000	-0.003	0.172
-612.259	-109.304	0.054	0.011
-611.244	-200.000	-0.057	-0.531
-610.230	264.892	0.160	-0.278
-609.215	-117.004	-0.005	-0.001
-608.201	800.000	0.071	0.201
-607.186	800.000	0.035	0.129
-606.171	-95.744	-0.334	0.089
-605.157	35.706	0.060	-0.052
-604.142	-200.000	-0.066	-0.298
-603.128	800.000	0.117	0.352
-602.113	29.498	0.047	-0.040
-601.098	-115.205	-0.223	-0.042
-600.084	135.283	-0.069	-0.090
-599.069	404.046	-0.063	0.133
-598.055	-151.182	0.382	0.029
-597.040	305.151	-0.072	0.134
-596.025	602.348	-0.131	-0.326
-595.011	-134.426	-0.027	-0.003
-593.996	-63.660	0.229	-0.094
-592.982	155.515	-0.124	0.171
-591.967	-101.913	0.156	-0.038
-590.952	-200.000	0.046	0.296
-589.938	533.168	0.038	-0.091
-588.923	-29.421	0.150	0.086
-587.909	105.508	0.110	0.130
-586.894	348.934	0.154	-0.305
-585.879	62.675	-0.133	-0.133
-584.865	-200.000	0.020	-0.130
-583.850	-59.169	0.247	-0.107
-582.836	237.531	0.211	-0.350
-581.821	-137.756	0.267	0.030
-580.806	28.113	-0.157	-0.132
-579.792	-74.123	-0.135	-0.049
-578.777	-200.000	-0.105	0.493
-577.763	-200.000	0.006	-0.181
-576.748	103.408	0.093	-0.109
-575.733	-50.036	0.258	0.122
-574.719	99.861	0.129	-0.149
-573.704	-197.179	-0.254	0.002
-572.690	39.709	-0.157	-0.140
-571.675	-200.000	0.065	-0.484
-570.661	422.364	-0.065	0.139
-569.646	-172.523	0.151	-0.005
-568.631	-49.604	-0.412	0.196
-567.617	-121.901	-0.249	0.041
-566.602	800.000	0.029	0.114
-565.588	31.302	0.088	0.076
-564.573	-200.000	0.005	-0.041
-563.558	-12.699	-0.161	0.105
-562.544	-113.608	-0.183	-0.036
-561.529	67.599	0.298	0.304
-560.515	-200.000	-0.014	0.066
-559.500	67.009	-0.183	-0.186
-558.485	259.813	-0.117	0.203
-557.471	-45.134	0.346	-0.172
-556.456	-200.000	-0.020	-0.104
-555.442	-124.668	-0.380	0.059
-554.427	-172.596	-0.279	-0.009
-553.412	384.662	-0.127	-0.260
-552.398	-200.000	0.098	-0.481
-551.383	14.960	0.073	0.057
-550.369	-200.000	0.024	0.225
-549.354	-200.000	0.001	0.081
-548.339	56.452	0.154	-0.150
-547.325	-46.435	-0.130	-0.064
-546.310	-10.054	0.088	-0.058
-545.296	-49.257	0.200	0.095
-544.281	-13.058	0.185	-0.120
-543.266	348.137	0.092	0.181
-542.252	-200.000	-0.015	0.104
-541.237	-143.616	-0.207	-0.020
-540.223	633.705	0.162	-0.409
-539.208	-200.000	-0.001	-0.482
-538.193	228.348	-0.253	0.411
-537.179	-140.866	-0.295	0.030
-536.164	-40.421	0.284	-0.147
-535.150	75.579	-0.153	0.162
-534.135	800.000	-0.067	-0.259
-533.121	-80.891	0.139	0.046
-532.106	62.896	0.161	0.160
-531.091	106.740	0.139	0.165
-530.077	-200.000	0.033	-0.147
-529.062	-37.583	-0.305	0.162
-528.048	-66.013	0.299	-0.119
-527.033	-172.115	0.351	-0.011
-526.018	3.666	0.055	0.040
-525.004	-29.652	-0.059	0.034
-523.989	-32.153	-0.262	-0.146
-522.975	-200.000	-0.056	-0.317
-521.960	-64.176	0.118	-0.048
-520.945	-47.424	-0.130	-0.063
-519.931	-65.486	0.181	0.073
-518.916	27.270	-0.214	0.180
-517.902	64.397	-0.184	0.185
-516.887	-52.440	0.277	-0.128
-515.872	279.234	0.078	-0.139
-514.858	533.049	0.076	-0.179
-513.843	142.693	0.096	-0.128
-512.829	133.651	-0.063	-0.082
-511.814	349.969	0.163	-0.320
-510.799	-131.154	0.317	0.042
-509.785	149.960	-0.167	0.226
-508.770	800.000	-0.081	0.273
-507.756	-157.443	0.127	-0.008
-506.741	549.299	-0.043	-0.102
-505.726	9.911	0.197	-0.149
-504.712	-83.063	-0.183	0.059
-503.697	108.322	-0.198	0.235
-502.683	290.592	0.189	-0.342
-501.668	-51.787	0.210	0.098
-500.653	45.592	0.094	0.087
-499.639	-84.580	-0.051	0.016
-498.624	66.270	0.155	0.157
-497.610	-82.862	-0.165	0.053
-496.595	-40.979	0.249	0.128
-495.581	800.000	-0.083	-0.239
-494.566	800.000	0.045	-0.177
-493.551	-115.677	-0.227	-0.042
-492.537	650.088	0.054	0.138
-491.522	-93.755	0.207	0.057
-490.508	-56.960	-0.325	-0.143
-489.493	-200.000	-0.064	0.388
-488.478	-200.000	0.021	0.273
-487.464	73.418	-0.075	0.079
-486.449	98.658	-0.050	-0.057
-485.435	-200.000	0.002	-0.132
-484.420	800.000	0.084	0.266
-483.405	2.862	0.239	-0.173
-482.391	458.647	0.055	-0.121
-481.376	800.000	-0.061	0.242
-480.362	-15.775	-0.210	-0.133
-479.347	263.325	0.265	-0.458
-478.332	-200.000	0.004	0.280
-477.318	-33.765	0.505	0.277
-476.303	-200.000	-0.031	0.182
-475.289	-45.737	-0.220	0.108
-474.274	58.117	0.116	-0.113
-473.259	-152.925	0.327	-0.023
-472.245	95.073	-0.092	0.104
-471.230	9.718	0.093	-0.071
-470.216	-21.789	0.375	0.227
-469.201	5.783	-0.373	0.274
-468.186	-200.000	0.016	-0.224
-467.172	800.000	-0.032	-0.114
-466.157	-200.000	0.023	0.267
-465.143	646.688	0.040	0.102
-464.128	800.000	-0.018	-0.054
-463.113	63.308	-0.210	0.210
-462.099	212.077	0.146	-0.229
-461.084	174.682	-0.138	-0.199
-460.070	383.549	0.112	0.230
-459.055	-81.925	0.126	-0.041
-458.040	-54.689	0.247	0.111
-457.026	-200.000	-0.020	0.228
-456.011	-200.000	0.002	0.036
-454.997	-200.000	-0.086	-0.378
-453.982	-200.000	0.016	0.193
-452.968	102.829	-0.119	-0.139
-451.953	-77.114	0.131	0.045
-450.938	-200.000	0.011	-0.176
-449.924	7.637	-0.263	0.196
-448.909	276.924	0.095	0.168
-447.895	13.674	0.148	0.114
-446.880	800.000	-0.043	0.156
-445.865	-200.000	0.076	-0.355
-444.851	-175.536	0.138	-0.004
-443.836	-89.387	0.157	-0.046
-442.822	-200.000	-0.025	-0.256
-441.807	-3.507	0.201	-0.139
-440.792	-75.935	-0.160	-0.056
-439.778	800.000	0.054	0.176
-438.763	-42.097	0.397	-0.202
-437.749	-17.471	-0.116	-0.072
-436.734	-20.608	0.269	-0.164
-435.719	70.922	-0.128	0.132
-434.705	-94.235	0.200	0.054
-433.690	-84.916	-0.181	-0.056
-432.676	218.291	-0.215	-0.341
-431.661	-105.618	-0.101	0.023
-430.646	-22.335	-0.047	-0.028
-429.632	-196.722	0.227	-0.001
-428.617	-125.153	-0.174	-0.026
-427.603	526.320	-0.066	0.155
-426.588	-200.000	-0.054	0.423
-425.573	-128.209	-0.261	-0.037
-424.559	-27.064	-0.223	0.129
-423.544	84.324	0.195	0.212
-422.530	229.602	-0.015	-0.025
-421.515	800.000	0.060	0.182
-420.500	800.000	-0.112	0.365
-419.486	-200.000	0.005	0.104
-418.471	113.208	0.350	-0.422
-417.457	-39.190	-0.128	-0.067
-416.442	-52.876	-0.118	0.054
-415.428	729.668	0.104	-0.276
-414.413	-200.000	-0.016	0.190
-413.398	727.801	0.111	-0.295
-412.384	42.034	0.225	0.203
-411.369	179.222	-0.107	-0.156
-410.355	-9.606	-0.483	0.320
-409.340	800.000	-0.104	0.379
-408.325	50.787	-0.117	-0.110
-407.311	800.000	0.063	0.223
-406.296	229.012	0.106	0.171
-405.282	42.605	0.139	-0.126
-404.267	-146.566	0.174	-0.015
-403.252	103.930	-0.220	-0.256
-402.238	800.000	-0.126	0.356
-401.223	278.538	-0.107	-0.189
-400.209	-132.530	-0.206	0.026
-399.194	-45.304	0.309	0.152
-398.179	421.716	-0.082	-0.175
-397.165	-108.316	0.434	0.093
-396.150	571.917	-0.109	0.264
-395.136	-172.267	-0.289	0.009
-394.121	769.547	0.093	-0.252
-393.106	76.821	-0.200	-0.211
-392.092	-200.000	0.006	-0.209
-391.077	59.193	-0.157	0.153
-390.063	33.151	-0.143	0.123
-389.048	-200.000	0.012	0.098
-388.033	30.320	0.214	0.181
-387.019	-200.000	0.025	-0.309
-386.004	-200.000	0.006	0.145
-384.990	-200.000	-0.034	-0.162
-383.975	25.806	-0.225	-0.186
-382.960	-28.517	0.207	0.119
-381.946	174.257	0.042	-0.060
-380.931	116.938	-0.094	0.115
-379.917	800.000	0.026	0.086
-378.902	-123.127	-0.198	-0.031
-377.888	800.000	-0.059	-0.221
-376.873	629.505	0.022	0.056
-375.858	365.308	-0.194	-0.386
-374.844	56.557	0.015	0.015
-373.829	-17.571	-0.046	-0.029
-372.815	60.198	-0.111	0.108
-371.800	-24.237	-0.185	0.109
-370.785	-138.507	0.172	0.019
-369.771	117.984	-0.288	-0.352
-368.756	-200.000	0.072	0.473
-367.742	-200.000	0.010	0.061
-366.727	800.000	-0.082	0.223
-365.712	-200.000	0.008	0.487
-364.698	432.133	-0.072	-0.155
-363.683	49.932	-0.067	0.063
-362.669	-160.594	-0.110	-0.006
-361.654	-200.000	-0.005	0.143
-360.639	147.409	0.081	0.109
-359.625	109.192	0.141	-0.167
-358.610	72.792	0.162	-0.167
-357.596	176.174	-0.036	0.051
-356.581	56.483	0.262	-0.253
-355.566	-29.072	-0.091	-0.052
-354.552	600.534	-0.092	0.226
-353.537	-200.000	-0.054	-0.243
-352.523	357.004	0.197	0.389
-351.508	-19.613	-0.342	-0.210
-350.493	65.604	-0.219	-0.219
-349.479	211.849	0.038	-0.059
-348.464	-36.009	-0.202	-0.108
-347.450	24.270	0.303	-0.248
-346.435	800.000	0.055	0.158
-345.420	33.217	0.258	-0.221
-344.406	-200.000	-0.021	-0.262
-343.391	-58.044	0.124	0.054
-342.377	-128.910	-0.091	0.013
-341.362	-138.588	-0.181	-0.020
-340.348	-66.265	0.186	0.073
-339.333	479.412	0.153	0.344
-338.318	-133.839	-0.068	-0.008
-337.304	-129.168	-0.369	-0.051
-336.289	-38.517	-0.449	0.235
-335.275	-180.944	-0.283	-0.006
-334.260	39.580	-0.285	-0.253
-333.245	-123.422	0.275	0.043
-332.231	61.497	0.179	0.176
-331.216	99.330	-0.293	0.336
-330.202	75.978	0.273	0.286
-329.187	76.074	-0.187	0.196
-328.172	34.834	-0.239	-0.207
-327.158	116.112	-0.238	-0.288
-326.143	-10.668	-0.281	-0.184
-325.129	800.000	-0.080	0.284
-324.114	-53.574	-0.068	0.031
-323.099	-121.838	0.375	-0.061
-322.085	598.125	-0.045	-0.109
-321.070	-194.747	0.328	-0.003
-320.056	141.714	-0.075	0.099
-319.041	-98.023	-0.272	0.069
-318.026	-70.660	0.230	0.086
-317.012	23.322	0.202	0.164
-315.997	-200.000	0.008	-0.080
-314.983	125.351	0.226	-0.282
-313.968	-25.568	-0.196	-0.114
-312.953	-200.000	0.032	0.186
-311.939	250.981	-0.108	0.181
-310.924	-189.096	0.074	0.001
-309.910	800.000	0.035	-0.122
-308.895	-36.068	-0.218	-0.116
-307.880	47.239	0.187	0.172
-306.866	82.709	-0.111	0.119
-305.851	-200.000	0.005	-0.164
-304.837	-200.000	-0.032	0.232
-303.822	8.762	-0.398	-0.296
-302.807	191.528	-0.037	0.055
-301.793	-200.000	0.020	0.098
-300.778	-113.346	0.026	0.005
-299.764	239.977	-0.081	-0.133
-298.749	32.098	-0.112	0.096
-297.735	800.000	-0.054	-0.173
-296.720	-200.000	0.013	0.296
-295.705	-81.597	0.094	-0.030
-294.691	223.655	0.245	-0.391
-293.676	284.897	0.124	-0.221
-292.662	-27.324	0.065	0.038
-291.647	164.167	-0.204	0.284
-290.632	92.570	0.134	-0.149
-289.618	245.947	0.071	0.119
-288.603	-200.000	-0.026	-0.118
-287.589	-168.600	-0.422	0.016
-286.574	94.536	0.101	-0.113
-285.559	-107.639	-0.240	-0.052
-284.545	-55.555	-0.042	-0.018
-283.530	-200.000	-0.010	-0.076
-282.516	244.991	0.068	0.112
-281.501	75.000	0.082	0.085
-280.486	488.406	0.152	-0.344
-279.472	-111.609	-0.155	-0.031
-278.457	-96.592	0.245	-0.064
-277.443	664.784	-0.105	-0.269
-276.428	-162.926	-0.226	-0.011
-275.413	77.411	-0.031	0.032
-274.399	531.754	0.073	-0.170
-273.384	309.273	-0.222	0.409
-272.370	-200.000	-0.057	-0.255
-271.355	-130.023	-0.192	-0.026
-270.340	14.493	0.088	-0.068
-269.326	48.024	0.205	0.189
-268.311	108.530	0.051	-0.060
-267.297	213.774	-0.199	-0.311
-266.282	-25.676	-0.323	-0.188
-265.267	-85.644	-0.048	0.015
-264.253	31.011	-0.274	-0.232
-263.238	227.011	-0.097	0.156
-262.224	-200.000	-0.059	0.259
-261.209	-109.732	0.144	-0.030
-260.195	-200.000	0.035	0.276
-259.180	270.576	0.120	-0.208
-258.165	125.917	0.138	0.172
-257.151	90.673	-0.185	0.204
-256.136	-28.731	-0.146	-0.083
-255.122	387.974	-0.046	0.095
-254.107	-33.455	0.059	0.032
-253.092	321.504	-0.103	0.193
-252.078	-200.000	0.044	-0.199
-251.063	800.000	-0.035	0.112
-250.049	436.295	-0.131	0.282
-249.034	49.910	0.213	0.198
-248.019	152.189	-0.050	0.068
-247.005	-6.769	-0.082	-0.055
-245.990	206.104	-0.085	-0.131
-244.976	12.586	0.343	-0.261
-243.961	520.249	0.194	0.449
-242.946	-200.000	0.030	0.189
-241.932	156.232	0.147	0.200
-240.917	-200.000	-0.010	0.391
-239.903	175.967	-0.242	-0.346
-238.888	-200.000	-0.011	0.156
-237.873	9.714	0.199	0.149
-236.859	-107.647	0.170	-0.037
-235.844	42.900	-0.113	-0.102
-234.830	248.035	-0.078	0.130
-233.815	71.719	0.193	0.198
-232.800	-73.027	-0.329	0.119
-231.786	306.299	0.062	0.114
-230.771	-123.290	-0.323	-0.051
-229.757	-200.000	0.062	0.384
-228.742	209.597	0.167	0.258
-227.727	129.170	-0.038	-0.048
-226.713	800.000	0.091	0.319
-225.698	76.645	0.305	0.318
-224.684	113.375	0.037	-0.045
-223.669	-101.523	-0.277	0.066
-222.655	783.897	-0.129	0.349
-221.640	-105.489	-0.064	0.014
-220.625	-200.000	0.017	-0.284
-219.611	170.456	0.063	0.089
-218.596	-62.378	-0.105	0.043
-217.582	278.827	0.053	0.093
-216.567	331.720	-0.096	0.182
-215.552	519.947	0.054	-0.124
-214.538	800.000	-0.104	-0.436
-213.523	413.470	-0.112	0.234
-212.509	51.189	0.307	0.287
-211.494	-36.183	0.219	-0.116
-210.479	18.037	0.161	0.126
-209.465	686.753	-0.093	-0.241
-208.450	132.373	-0.262	-0.333
-207.436	-200.000	-0.028	-0.147
-206.421	4.543	-0.159	0.115
-205.406	-200.000	0.038	-0.195
-204.392	800.000	-0.031	-0.099
-203.377	-200.000	0.015	-0.079
-202.363	224.588	-0.188	-0.299
-201.348	-0.090	0.065	0.046
-200.333	-200.000	0.000	-0.037
-199.319	-80.699	0.303	0.099
-198.304	291.553	0.162	-0.290
-197.290	-6.049	-0.137	0.092
-196.275	-86.140	0.183	-0.056
-195.260	-200.000	0.026	-0.207
-194.246	-90.214	0.199	-0.057
-193.231	396.705	-0.074	0.152
-192.217	-200.000	0.021	0.450
-191.202	341.636	0.175	-0.336
-190.187	-200.000	-0.080	0.462
-189.173	-108.136	-0.124	0.026
-188.158	-77.796	0.188	-0.064
-187.144	-31.980	0.323	0.178
-186.129	-200.000	-0.031	0.209
-185.114	-87.247	-0.278	0.083
-184.100	51.177	0.134	0.125
-183.085	-30.338	0.277	0.155
-182.071	800.000	-0.046	-0.146
-181.056	-29.458	0.314	-0.177
-180.042	-38.559	0.155	-0.080
-179.027	800.000	-0.178	-0.556
-178.012	-107.582	0.412	0.089
-176.998	-200.000	0.029	-0.141
-175.983	-35.525	0.157	0.084
-174.969	220.539	0.051	-0.080
-173.954	-9.734	-0.155	-0.101
-172.939	26.537	0.155	0.128
-171.925	12.575	0.210	0.160
-170.910	56.945	-0.417	0.400
-169.896	800.000	0.060	0.176
-168.881	-47.833	0.185	0.088
-167.866	644.406	0.101	-0.252
-166.852	158.115	-0.137	0.187
-165.837	-200.000	-0.018	-0.180
-164.823	-47.028	0.225	-0.108
-163.808	-159.889	0.130	-0.007
-162.793	-200.000	-0.031	0.258
-161.779	1.803	-0.167	0.118
-160.764	-44.000	0.289	0.143
-159.750	-200.000	0.090	-0.474
-158.735	211.338	-0.233	-0.360
-157.720	800.000	0.028	0.088
-156.706	-3.950	0.138	0.094
-155.691	-200.000	-0.000	-0.180
-154.677	408.543	0.113	0.234
-153.662	621.384	-0.110	0.272
-152.647	-72.531	0.326	-0.118
-151.633	-200.000	0.009	-0.092
-150.618	125.736	0.265	0.329
-149.604	11.754	-0.181	0.136
-148.589	262.010	-0.173	-0.294
-147.574	158.561	-0.313	-0.427
-146.560	46.024	-0.132	-0.120
-145.545	106.272	-0.279	0.325
-144.531	-116.416	0.401	0.073
-143.516	-54.970	-0.178	-0.079
-142.502	-78.345	0.102	-0.034
-141.487	-23.312	0.099	0.059
-140.472	-100.429	0.235	0.057
-139.458	207.828	0.079	0.121
-138.443	166.906	-0.164	0.228
-137.429	664.249	-0.045	0.115
-136.414	800.000	-0.067	0.207
-135.399	-200.000	-0.029	0.150
-134.385	-1.752	-0.353	0.244
-133.370	-200.000	-0.022	-0.101
-132.356	-200.000	-0.050	0.334
-131.341	95.811	-0.234	0.263
-130.326	19.706	0.091	0.072
-129.312	190.579	0.162	0.239
-128.297	800.000	0.100	-0.350
-127.283	14.497	-0.130	-0.100
-126.268	42.259	-0.085	0.076
-125.253	169.859	0.141	0.197
-124.239	800.000	-0.025	-0.073
-123.224	-145.255	-0.291	0.026
-122.210	-200.000	0.044	0.198
-121.195	-16.729	0.115	-0.071
