DTS Sentinel unit serial number:	SN413079Multiplexer serial number:	ORYXHardware model number:	OX4-SRSoftware version number:	ORYX F/W v4.00 Oryx Data Collector v3.7.2.0data status	okinstallation	princeton_trtdifferential loss correction	single-endedforward channel	channel 1reverse channel	N/Adate	2019/09/17time	14:18:35forward acquisition time	60.00reverse acquisition time	0.00gamma	496.2192k internal	0.2299k external	0.2299temperature offset calibration	0.9970default loss term (dB/km)	0.3790temperature slope calibration	1.0000multiplexer offset coefficient	1.0000multiplexer slope coefficient	1.0000fibre end	0.00T internal ref (°C)	36.12T ext. ref 1 (°C)	0.40T ext. ref 2 (°C)	33.26length (m)	temperature (°C)	Stokes	anti-Stokes-747.200	800.000	0.007	-0.021
-746.185	189.080	0.437	0.667
-745.171	-30.460	0.435	0.252
-744.156	800.000	-0.043	0.154
-743.142	174.624	-0.151	0.223
-742.127	-200.000	0.018	0.263
-741.112	-27.261	0.206	-0.123
-740.098	800.000	0.079	0.268
-739.083	-200.000	0.022	0.202
-738.069	14.861	-0.179	-0.143
-737.054	71.924	0.166	-0.176
-736.039	376.259	-0.019	-0.039
-735.025	193.794	-0.178	0.275
-734.010	-55.241	-0.303	-0.139
-732.996	-47.055	-0.136	0.068
-731.981	-39.165	0.051	-0.027
-730.966	-119.773	-0.199	0.035
-729.952	-44.197	-0.373	-0.191
-728.937	151.999	0.127	0.177
-727.923	2.009	-0.069	-0.050
-726.908	41.303	-0.365	-0.336
-725.894	94.544	-0.100	-0.116
-724.879	-200.000	0.038	0.266
-723.864	800.000	-0.134	0.480
-722.850	161.797	-0.095	0.136
-721.835	511.209	-0.051	0.121
-720.821	185.477	-0.295	-0.446
-719.806	-17.864	-0.155	0.099
-718.791	-52.909	-0.276	0.130
-717.777	639.940	-0.070	0.181
-716.762	-200.000	0.005	-0.125
-715.748	84.827	0.127	0.142
-714.733	-1.718	-0.115	0.082
-713.718	-195.237	-0.215	0.002
-712.704	3.318	-0.230	0.171
-711.689	242.024	0.216	0.368
-710.675	-200.000	0.105	-0.477
-709.660	230.259	0.046	-0.076
-708.645	208.357	-0.160	-0.255
-707.631	-200.000	0.005	-0.121
-706.616	20.750	-0.171	0.141
-705.602	-9.649	-0.277	-0.188
-704.587	-105.425	0.130	0.030
-703.572	134.878	0.044	-0.058
-702.558	800.000	0.075	0.258
-701.543	-200.000	0.003	0.061
-700.529	-200.000	0.006	0.255
-699.514	-12.230	0.117	-0.078
-698.499	182.246	-0.102	-0.153
-697.485	-200.000	0.003	-0.040
-696.470	-200.000	-0.030	-0.311
-695.456	800.000	-0.120	-0.436
-694.441	-98.087	0.230	-0.060
-693.426	-200.000	0.025	0.252
-692.412	214.884	-0.077	-0.124
-691.397	539.521	-0.107	-0.259
-690.383	-126.921	-0.070	0.010
-689.368	-142.299	-0.415	-0.042
-688.354	522.214	0.071	-0.169
-687.339	-40.542	-0.222	-0.117
-686.324	-200.000	-0.010	0.125
-685.310	31.498	0.292	0.256
-684.295	-200.000	0.041	0.242
-683.281	-116.418	-0.095	-0.018
-682.266	-76.714	0.448	0.160
-681.251	-53.285	0.228	0.107
-680.237	-92.219	-0.535	-0.154
-679.222	-36.397	-0.203	-0.111
-678.208	166.706	0.072	-0.104
-677.193	336.808	-0.023	-0.046
-676.178	800.000	-0.088	-0.340
-675.164	-200.000	-0.042	-0.335
-674.149	-153.111	-0.117	0.008
-673.135	-115.644	-0.300	0.057
-672.120	164.424	0.181	0.259
-671.105	800.000	0.026	0.101
-670.091	176.568	0.157	0.232
-669.076	800.000	-0.029	-0.095
-668.062	-200.000	0.003	0.079
-667.047	-200.000	0.000	0.027
-666.032	-69.375	0.085	-0.033
-665.018	65.493	-0.187	0.193
-664.003	-85.556	-0.297	0.094
-662.989	-8.829	-0.131	-0.089
-661.974	61.618	0.042	-0.043
-660.959	283.700	0.094	-0.171
-659.945	39.596	-0.112	-0.102
-658.930	-92.487	-0.217	0.062
-657.916	694.955	-0.101	-0.271
-656.901	-2.128	-0.185	-0.132
-655.886	-200.000	0.029	-0.270
-654.872	-200.000	0.028	0.198
-653.857	72.466	0.179	0.189
-652.843	-13.788	-0.086	-0.057
-651.828	-23.585	-0.170	-0.104
-650.814	-200.000	0.011	0.122
-649.799	-139.148	-0.047	-0.005
-648.784	-190.022	-0.364	-0.004
-647.770	224.493	0.061	-0.100
-646.755	-120.813	0.121	0.021
-645.741	-133.184	-0.265	0.034
-644.726	588.021	-0.154	0.387
-643.711	-200.000	0.018	-0.198
-642.697	-200.000	0.010	-0.070
-641.682	9.944	-0.183	-0.141
-640.668	800.000	-0.034	0.150
-639.653	-30.903	0.270	-0.155
-638.638	800.000	-0.084	-0.248
-637.624	-0.578	-0.215	0.155
-636.609	-73.755	-0.099	0.037
-635.595	-24.520	-0.048	-0.029
-634.580	800.000	-0.131	-0.476
-633.565	-200.000	0.003	0.225
-632.551	146.109	-0.098	-0.133
-631.536	-78.095	-0.277	0.097
-630.522	-53.332	0.183	-0.085
-629.507	-2.615	-0.364	-0.259
-628.492	16.781	0.138	0.111
-627.478	64.990	0.117	0.120
-626.463	506.722	0.019	0.046
-625.449	193.903	-0.151	-0.232
-624.434	138.022	-0.065	0.087
-623.419	198.271	-0.066	0.102
-622.405	682.016	-0.071	-0.187
-621.390	43.523	-0.109	0.101
-620.376	291.174	0.094	-0.173
-619.361	-59.275	-0.358	0.157
-618.346	249.978	-0.096	-0.166
-617.332	-200.000	-0.034	0.196
-616.317	129.114	-0.169	-0.219
-615.303	-66.111	0.223	-0.090
-614.288	363.558	-0.039	0.079
-613.273	800.000	0.063	0.203
-612.259	287.588	-0.099	0.182
-611.244	-44.294	-0.181	-0.092
-610.230	362.670	0.049	-0.099
-609.215	-115.837	0.191	0.036
-608.201	-200.000	-0.006	-0.085
-607.186	800.000	0.058	0.168
-606.171	-180.041	0.256	0.006
-605.157	7.707	0.030	-0.023
-604.142	-91.040	-0.154	0.045
-603.128	72.083	0.049	-0.051
-602.113	-50.889	0.370	-0.176
-601.098	262.010	-0.049	-0.087
-600.084	202.593	0.141	0.221
-599.069	-39.184	0.168	-0.090
-598.055	-142.362	0.270	0.027
-597.040	-165.666	0.444	-0.020
-596.025	-81.612	-0.550	-0.183
-595.011	-107.191	-0.279	0.062
-593.996	123.808	-0.146	-0.185
-592.982	-1.125	0.189	-0.135
-591.967	-200.000	0.022	-0.144
-590.952	-65.334	0.108	-0.044
-589.938	22.619	-0.204	0.170
-588.923	-200.000	-0.063	-0.320
-587.909	-70.699	0.175	0.067
-586.894	71.122	-0.210	0.220
-585.879	-200.000	0.007	-0.249
-584.865	-200.000	-0.077	-0.423
-583.850	-100.799	0.360	-0.090
-582.836	-13.843	0.244	0.160
-581.821	-94.234	-0.200	-0.056
-580.806	282.472	0.164	0.298
-579.792	-35.241	0.176	-0.097
-578.777	800.000	0.074	0.274
-577.763	800.000	-0.099	-0.310
-576.748	98.164	0.032	0.038
-575.733	-24.177	0.066	0.040
-574.719	800.000	0.045	-0.128
-573.704	495.352	0.082	-0.190
-572.690	-92.552	0.116	-0.033
-571.675	64.881	0.043	-0.044
-570.661	-87.093	-0.120	-0.037
-569.646	15.565	-0.067	0.053
-568.631	83.956	0.076	0.084
-567.617	87.364	-0.150	-0.168
-566.602	298.991	-0.196	-0.366
-565.588	-135.150	0.207	0.025
-564.573	800.000	-0.028	0.093
-563.558	-117.690	-0.119	-0.022
-562.544	-45.380	0.197	0.099
-561.529	-180.388	0.198	0.004
-560.515	7.957	-0.153	0.116
-559.500	-153.072	0.288	0.020
-558.485	-36.648	0.227	-0.123
-557.471	95.015	-0.119	0.137
-556.456	422.245	-0.062	0.135
-555.442	59.308	0.261	0.261
-554.427	-200.000	0.067	0.502
-553.412	800.000	-0.041	0.137
-552.398	-75.695	0.158	-0.057
-551.383	12.404	0.079	-0.061
-550.369	-200.000	0.029	-0.344
-549.354	-185.142	-0.133	0.002
-548.339	725.144	-0.026	0.071
-547.325	800.000	0.036	-0.123
-546.310	800.000	-0.071	0.246
-545.296	-43.055	0.272	0.140
-544.281	-47.810	0.385	0.189
-543.266	-200.000	0.024	0.194
-542.252	140.798	0.201	0.269
-541.237	-200.000	0.020	-0.123
-540.223	-200.000	-0.032	-0.163
-539.208	445.306	-0.067	-0.148
-538.193	4.347	0.098	0.073
-537.179	641.252	0.030	0.077
-536.164	633.753	-0.015	-0.040
-535.150	20.349	-0.083	-0.068
-534.135	651.322	0.097	0.250
-533.121	-200.000	-0.006	-0.116
-532.106	159.829	-0.155	-0.218
-531.091	197.015	0.078	-0.120
-530.077	74.244	-0.172	-0.183
-529.062	-96.086	0.290	0.078
-528.048	208.442	-0.133	0.210
-527.033	273.267	-0.093	-0.167
-526.018	-200.000	-0.000	-0.353
-525.004	-200.000	-0.020	-0.396
-523.989	34.537	-0.212	-0.187
-522.975	498.775	-0.183	0.425
-521.960	207.422	-0.047	-0.074
-520.945	-12.881	-0.017	-0.011
-519.931	418.814	0.062	-0.134
-518.916	-46.089	0.087	0.044
-517.902	-8.997	0.265	-0.180
-516.887	-125.858	-0.069	-0.011
-515.872	87.929	-0.041	-0.046
-514.858	50.930	-0.156	-0.150
-513.843	-111.729	0.433	-0.089
-512.829	45.707	0.018	0.017
-511.814	-200.000	0.040	-0.195
-510.799	-86.171	0.472	-0.147
-509.785	-200.000	-0.029	-0.343
-508.770	-84.181	-0.199	-0.064
-507.756	454.933	0.071	-0.159
-506.741	29.709	0.221	-0.190
-505.726	13.844	-0.294	0.231
-504.712	-56.819	0.270	-0.121
-503.697	171.717	0.188	0.273
-502.683	94.064	0.072	0.082
-501.668	-160.942	0.155	-0.008
-500.653	-73.705	-0.085	0.031
-499.639	-200.000	0.009	-0.075
-498.624	141.221	-0.029	0.039
-497.610	-135.643	-0.251	-0.030
-496.595	310.856	-0.097	-0.183
-495.581	320.350	-0.105	0.202
-494.566	311.033	0.065	0.122
-493.551	732.912	-0.107	-0.289
-492.537	-52.651	0.160	-0.075
-491.522	-164.534	-0.141	-0.006
-490.508	103.105	0.109	0.129
-489.493	800.000	-0.056	0.193
-488.478	561.815	-0.051	-0.125
-487.464	-56.302	-0.267	-0.120
-486.449	800.000	-0.064	-0.182
-485.435	-12.001	0.243	-0.161
-484.420	441.041	-0.135	-0.298
-483.405	332.793	-0.306	0.597
-482.391	-200.000	-0.022	-0.367
-481.376	675.191	0.019	-0.050
-480.362	258.067	-0.063	0.109
-479.347	-200.000	0.005	-0.517
-478.332	-59.187	-0.120	0.052
-477.318	-91.864	-0.361	-0.104
-476.303	34.117	0.167	0.147
-475.289	-200.000	0.007	-0.203
-474.274	-200.000	-0.046	0.307
-473.259	-104.372	-0.177	0.041
-472.245	196.608	-0.141	-0.216
-471.230	-127.152	-0.241	-0.036
-470.216	120.806	0.096	-0.120
-469.201	-38.904	-0.273	0.145
-468.186	115.757	0.182	0.225
-467.172	-33.374	0.121	-0.067
-466.157	-200.000	-0.022	-0.355
-465.143	133.943	0.283	0.369
-464.128	130.571	-0.062	-0.080
-463.113	231.760	0.063	-0.104
-462.099	156.644	0.163	-0.227
-461.084	667.288	-0.096	0.252
-460.070	-156.987	0.127	-0.008
-459.055	61.796	0.014	-0.014
-458.040	24.299	-0.106	0.088
-457.026	420.395	0.094	0.203
-456.011	-166.215	0.302	-0.013
-454.997	39.136	0.159	-0.143
-453.982	426.488	-0.145	-0.314
-452.968	-82.688	-0.326	0.106
-451.953	677.282	0.035	0.092
-450.938	-95.806	0.263	0.071
-449.924	-83.195	-0.055	-0.018
-448.909	800.000	0.027	0.093
-447.895	800.000	-0.042	-0.143
-446.880	-156.489	0.060	-0.004
-445.865	515.796	0.018	-0.042
-444.851	-200.000	-0.002	-0.226
-443.836	107.645	0.066	0.079
-442.822	8.633	-0.256	0.194
-441.807	144.988	-0.072	0.097
-440.792	-200.000	-0.020	0.165
-439.778	-200.000	-0.075	-0.521
-438.763	-192.620	-0.310	0.003
-437.749	-5.064	-0.318	-0.220
-436.734	38.744	0.093	-0.084
-435.719	-200.000	-0.025	-0.223
-434.705	-43.713	0.279	-0.142
-433.690	113.335	0.166	-0.203
-432.676	411.166	-0.050	-0.107
-431.661	51.946	0.422	0.405
-430.646	211.455	-0.047	0.075
-429.632	-200.000	-0.012	0.097
-428.617	-8.333	-0.128	0.087
-427.603	-80.182	-0.035	-0.012
-426.588	426.851	-0.121	-0.262
-425.573	-114.789	-0.312	-0.060
-424.559	8.896	0.323	0.246
-423.544	800.000	-0.043	0.173
-422.530	89.364	0.119	-0.133
-421.515	-197.260	0.253	-0.002
-420.500	573.831	-0.079	-0.194
-419.486	-200.000	0.015	0.109
-418.471	-200.000	-0.044	-0.260
-417.457	-28.147	-0.377	0.219
-416.442	173.752	-0.197	0.287
-415.428	-108.124	-0.102	0.022
-414.413	-38.800	0.110	-0.058
-413.398	800.000	-0.021	0.063
-412.384	-162.724	-0.083	0.004
-411.369	-35.150	0.024	-0.013
-410.355	67.591	0.100	0.103
-409.340	-200.000	0.037	0.361
-408.325	800.000	0.026	-0.079
-407.311	-122.307	-0.102	0.017
-406.296	-44.088	-0.266	-0.135
-405.282	-75.647	0.306	-0.109
-404.267	800.000	-0.022	-0.093
-403.252	302.621	0.132	-0.246
-402.238	-200.000	0.050	0.305
-401.223	800.000	-0.062	-0.183
-400.209	-128.878	0.017	-0.002
-399.194	-200.000	0.004	0.254
-398.179	-1.622	-0.374	0.265
-397.165	33.077	0.084	-0.073
-396.150	13.257	-0.170	-0.132
-395.136	1.736	-0.229	-0.166
-394.121	-65.889	-0.308	-0.124
-393.106	-200.000	-0.003	-0.137
-392.092	51.320	0.112	-0.107
-391.077	800.000	-0.069	0.203
-390.063	-68.445	-0.144	-0.056
-389.048	40.540	0.194	0.176
-388.033	800.000	-0.073	0.228
-387.019	-33.062	-0.181	0.101
-386.004	-127.226	0.408	-0.060
-384.990	-132.227	0.320	-0.042
-383.975	800.000	0.062	-0.239
-382.960	279.874	-0.108	-0.194
-381.946	800.000	-0.043	0.169
-380.931	-75.992	0.136	-0.048
-379.917	49.381	-0.228	-0.215
-378.902	22.692	-0.034	-0.028
-377.888	43.346	-0.096	0.088
-376.873	55.837	-0.112	0.109
-375.858	-40.082	-0.487	0.256
-374.844	-155.048	-0.320	0.021
-373.829	95.380	-0.035	0.040
-372.815	-200.000	-0.073	0.357
-371.800	30.777	0.156	0.134
-370.785	-200.000	-0.081	0.434
-369.771	-96.065	0.202	0.054
-368.756	-85.038	0.049	0.015
-367.742	328.987	-0.115	0.222
-366.727	115.635	-0.234	-0.288
-365.712	-8.214	-0.084	0.057
-364.698	-64.491	0.242	0.099
-363.683	800.000	0.108	-0.333
-362.669	754.621	0.163	-0.443
-361.654	391.480	-0.049	0.101
-360.639	359.891	0.205	-0.411
-359.625	157.654	-0.153	-0.213
-358.610	-200.000	0.046	0.285
-357.596	716.186	0.088	0.234
-356.581	800.000	0.087	0.336
-355.566	-200.000	-0.091	0.414
-354.552	-200.000	-0.030	0.282
-353.537	-78.198	0.038	0.013
-352.523	-152.287	-0.399	0.029
-351.508	800.000	0.013	-0.043
-350.493	-200.000	0.032	0.263
-349.479	89.022	0.183	0.205
-348.464	379.372	-0.042	-0.086
-347.450	-200.000	-0.007	-0.218
-346.435	-90.353	0.210	-0.061
-345.420	800.000	0.069	0.198
-344.406	100.997	0.123	0.144
-343.391	-10.400	-0.131	-0.087
-342.377	143.954	0.175	0.234
-341.362	256.404	-0.211	0.364
-340.348	-98.994	-0.210	-0.053
-339.333	-200.000	0.031	-0.174
-338.318	-10.310	0.120	0.080
-337.304	64.807	-0.083	0.084
-336.289	-200.000	-0.000	0.160
-335.275	86.278	-0.143	-0.159
-334.260	165.951	-0.060	0.086
-333.245	-30.262	-0.132	0.075
-332.231	-13.499	-0.331	0.215
-331.216	-64.430	-0.483	0.197
-330.202	-166.257	-0.042	-0.002
-329.187	42.239	-0.122	-0.111
-328.172	-96.494	0.269	-0.071
-327.158	31.631	0.052	-0.045
-326.143	-129.564	-0.228	-0.032
-325.129	-31.814	0.157	-0.089
-324.114	-200.000	-0.022	-0.232
-323.099	800.000	-0.087	0.345
-322.085	800.000	-0.114	0.422
-321.070	800.000	0.039	-0.140
-320.056	53.225	0.223	0.215
-319.041	226.301	-0.058	0.094
-318.026	24.583	-0.179	-0.148
-317.012	-200.000	-0.008	-0.080
-315.997	26.583	0.175	-0.147
-314.983	-200.000	-0.006	-0.029
-313.968	-200.000	0.036	0.160
-312.953	325.026	-0.170	0.327
-311.939	702.439	-0.122	-0.323
-310.924	800.000	0.024	-0.102
-309.910	800.000	0.032	-0.111
-308.895	-6.028	0.150	0.103
-307.880	-40.183	-0.160	-0.083
-306.866	684.201	0.068	0.178
-305.851	614.534	0.061	-0.154
-304.837	-42.454	0.122	0.062
-303.822	-113.455	-0.199	-0.039
-302.807	-200.000	-0.013	-0.151
-301.793	-200.000	0.035	-0.207
-300.778	-196.711	-0.165	0.001
-299.764	-174.333	0.129	0.004
-298.749	-12.658	0.213	0.140
-297.735	234.793	0.346	-0.573
-296.720	-15.257	0.338	-0.217
-295.705	-107.413	0.048	-0.011
-294.691	796.481	0.064	0.178
-293.676	-200.000	-0.008	0.396
-292.662	218.985	0.116	0.186
-291.647	-33.594	0.241	0.134
-290.632	102.125	0.048	0.056
-289.618	-52.984	-0.219	0.101
-288.603	-57.801	0.263	-0.115
-287.589	81.102	0.182	0.197
-286.574	800.000	-0.032	-0.101
-285.559	171.807	-0.161	0.232
-284.545	800.000	0.048	-0.192
-283.530	-200.000	-0.020	-0.293
-282.516	-200.000	0.028	0.483
-281.501	-46.921	0.046	-0.023
-280.486	104.288	-0.026	-0.031
-279.472	-152.955	-0.107	-0.008
-278.457	-120.029	0.275	-0.047
-277.443	-34.331	-0.120	0.066
-276.428	222.688	0.046	0.074
-275.413	-43.852	-0.320	-0.161
-274.399	-93.125	-0.175	0.049
-273.384	-95.833	0.159	0.042
-272.370	-26.768	-0.118	0.069
-271.355	422.776	-0.085	-0.182
-270.340	-84.368	-0.083	0.026
-269.326	800.000	-0.058	-0.216
-268.311	-82.586	0.290	0.094
-267.297	-200.000	0.011	0.057
-266.282	-142.957	0.170	0.017
-265.267	730.213	0.053	-0.141
-264.253	-15.029	0.131	0.084
-263.238	722.819	0.175	0.466
-262.224	-128.621	-0.393	-0.056
-261.209	-134.552	-0.255	-0.031
-260.195	257.798	0.082	-0.141
-259.180	281.604	0.116	0.208
-258.165	111.017	0.098	-0.118
-257.151	413.283	0.185	0.394
-256.136	-67.365	0.172	0.068
-255.122	247.940	0.110	-0.187
-254.107	-200.000	-0.032	0.358
-253.092	90.351	0.205	-0.230
-252.078	-200.000	0.024	-0.272
-251.063	259.798	0.031	0.054
-250.049	2.718	-0.141	0.102
-249.034	378.261	-0.055	-0.112
-248.019	143.218	0.197	-0.262
-247.005	-92.996	-0.218	-0.061
-245.990	655.125	0.018	-0.046
-244.976	458.770	-0.045	-0.100
-243.961	-200.000	0.030	-0.392
-242.946	-34.183	-0.387	0.212
-241.932	524.809	0.055	-0.130
-240.917	62.575	0.139	0.139
-239.903	-149.553	-0.207	0.016
-238.888	-200.000	0.030	-0.223
-237.873	-108.490	-0.237	0.051
-236.859	24.941	0.173	0.143
-235.844	-50.671	0.067	-0.031
-234.830	-130.339	0.074	-0.010
-233.815	45.068	-0.177	0.163
-232.800	-35.374	-0.308	0.167
-231.786	-200.000	0.270	0.000
-230.771	-114.173	0.100	-0.019
-229.757	-200.000	0.049	0.261
-228.742	-9.166	-0.168	-0.112
-227.727	557.375	-0.114	-0.275
-226.713	251.160	-0.081	0.138
-225.698	50.188	-0.020	0.019
-224.684	97.547	-0.164	0.188
-223.669	80.845	0.209	-0.226
-222.655	-121.610	0.151	0.025
-221.640	-52.430	-0.184	-0.085
-220.625	375.529	-0.025	0.052
-219.611	-137.201	0.270	0.031
-218.596	-120.021	0.338	-0.058
-217.582	-29.407	0.213	0.122
-216.567	-24.626	-0.055	-0.033
-215.552	-100.116	0.125	-0.031
-214.538	800.000	0.078	0.337
-213.523	-15.804	0.123	-0.078
-212.509	-18.972	0.166	0.103
-211.494	-200.000	0.018	0.270
-210.479	95.591	0.129	-0.147
-209.465	58.614	-0.027	0.027
-208.450	324.840	0.114	0.217
-207.436	10.170	0.130	-0.099
-206.421	-200.000	0.057	0.391
-205.406	485.047	-0.047	0.106
-204.392	-143.295	-0.358	0.034
-203.377	-200.000	0.006	-0.131
-202.363	-38.184	0.177	0.094
-201.348	-42.863	0.398	0.202
-200.333	-200.000	-0.049	0.373
-199.319	-200.000	0.003	0.322
-198.304	109.260	-0.189	-0.226
-197.290	-200.000	-0.008	0.345
-196.275	-200.000	-0.015	-0.096
-195.260	-200.000	0.054	-0.312
-194.246	-200.000	-0.000	-0.011
-193.231	800.000	-0.035	-0.132
-192.217	261.348	-0.169	0.292
-191.202	-200.000	0.020	-0.185
-190.187	646.682	-0.163	-0.416
-189.173	-200.000	-0.036	0.175
-188.158	38.696	0.172	-0.153
-187.144	21.178	0.134	-0.109
-186.129	-111.267	-0.079	-0.016
-185.114	-63.638	0.251	-0.103
-184.100	-63.765	0.209	0.086
-183.085	-24.809	0.009	0.006
-182.071	295.994	-0.078	0.144
-181.056	144.516	0.229	0.306
-180.042	-122.790	-0.451	-0.073
-179.027	33.896	0.253	-0.220
-178.012	-200.000	0.034	0.289
-176.998	800.000	0.064	0.257
-175.983	500.157	-0.151	0.347
-174.969	-129.672	0.065	-0.009
-173.954	-102.578	0.139	-0.033
-172.939	-167.382	0.150	0.006
-171.925	70.021	0.179	0.185
-170.910	-124.141	-0.287	-0.045
-169.896	11.890	-0.143	0.110
-168.881	-200.000	0.078	-0.364
-167.866	-43.114	0.200	0.101
-166.852	325.101	-0.053	0.102
-165.837	800.000	0.009	0.029
-164.823	326.893	0.095	-0.182
-163.808	44.876	-0.309	0.284
-162.793	-200.000	0.054	-0.337
-161.779	116.606	-0.104	-0.127
-160.764	424.987	0.198	-0.426
-159.750	101.701	-0.133	-0.155
-158.735	677.161	-0.014	-0.037
-157.720	-27.828	0.086	0.049
-156.706	-65.546	-0.330	-0.132
-155.691	77.423	-0.254	0.270
-154.677	-200.000	-0.017	-0.194
-153.662	-200.000	-0.002	0.077
-152.647	130.116	-0.068	-0.086
-151.633	-155.073	0.147	-0.010
-150.618	800.000	0.038	0.153
-149.604	-39.272	0.063	0.033
-148.589	471.762	-0.117	-0.263
-147.574	211.472	-0.075	-0.118
-146.560	181.297	0.196	0.287
-145.545	-200.000	0.059	-0.308
-144.531	-111.058	0.363	0.074
-143.516	206.109	0.093	0.144
-142.502	800.000	0.026	-0.095
-141.487	-18.285	-0.152	0.094
-140.472	-145.067	0.052	-0.005
-139.458	-200.000	-0.031	0.228
-138.443	111.805	0.147	-0.177
-137.429	-17.957	-0.319	-0.199
-136.414	800.000	0.039	-0.129
-135.399	-18.433	-0.117	0.073
-134.385	-35.788	0.301	-0.163
-133.370	254.262	0.012	0.021
-132.356	120.184	0.351	0.434
-131.341	295.831	0.178	-0.326
-130.326	683.614	0.031	-0.081
-129.312	30.327	0.221	-0.188
-128.297	-117.962	-0.219	-0.039
-127.283	571.921	-0.131	0.318
-126.268	143.874	0.234	0.310
-125.253	-30.423	0.114	-0.064
-124.239	609.537	0.037	-0.093
-123.224	800.000	-0.080	-0.309
-122.210	-47.781	0.249	0.120
-121.195	800.000	-0.064	-0.275
