DTS Sentinel unit serial number:	SN413079Multiplexer serial number:	ORYXHardware model number:	OX4-SRSoftware version number:	ORYX F/W v4.00 Oryx Data Collector v3.7.2.0data status	okinstallation	princeton_trtdifferential loss correction	single-endedforward channel	channel 1reverse channel	N/Adate	2019/09/12time	14:24:11forward acquisition time	60.00reverse acquisition time	0.00gamma	496.2192k internal	0.2294k external	0.2294temperature offset calibration	1.0060default loss term (dB/km)	0.3790temperature slope calibration	1.0000multiplexer offset coefficient	1.0000multiplexer slope coefficient	1.0000fibre end	0.00T internal ref (°C)	40.12T ext. ref 1 (°C)	2.27T ext. ref 2 (°C)	35.00length (m)	temperature (°C)	Stokes	anti-Stokes-747.200	800.000	-0.132	0.436
-746.185	-200.000	0.020	0.151
-745.171	-155.870	0.337	-0.022
-744.156	72.534	-0.108	-0.115
-743.142	68.845	0.049	0.052
-742.127	-160.455	0.179	0.010
-741.112	-18.676	0.072	0.046
-740.098	-200.000	0.004	0.334
-739.083	143.959	0.086	-0.118
-738.069	353.203	-0.209	0.425
-737.054	-200.000	-0.030	0.137
-736.039	65.214	0.161	-0.166
-735.025	-150.203	-0.116	-0.009
-734.010	800.000	0.039	-0.115
-732.996	499.089	-0.123	-0.290
-731.981	44.672	0.296	-0.278
-730.966	-200.000	0.010	0.230
-729.952	128.818	-0.156	0.203
-728.937	-200.000	0.020	-0.112
-727.923	-200.000	-0.005	0.084
-726.908	-110.979	0.190	0.040
-725.894	-63.543	-0.153	0.064
-724.879	-59.100	0.086	0.038
-723.864	-88.072	-0.105	-0.032
-722.850	-0.604	-0.231	0.167
-721.835	223.295	0.194	-0.320
-720.821	-200.000	-0.033	0.212
-719.806	-25.525	0.014	-0.008
-718.791	45.342	-0.169	0.160
-717.777	-164.663	-0.215	-0.010
-716.762	800.000	-0.047	-0.138
-715.748	91.550	-0.100	-0.114
-714.733	-145.120	0.141	0.013
-713.718	-48.289	-0.238	0.117
-712.704	-77.826	-0.279	0.098
-711.689	332.369	-0.076	-0.150
-710.675	-2.829	-0.105	-0.075
-709.660	221.954	0.185	-0.304
-708.645	-42.660	-0.093	0.048
-707.631	47.043	0.049	0.046
-706.616	276.903	-0.149	-0.271
-705.602	-97.545	-0.380	0.101
-704.587	266.369	-0.081	0.144
-703.572	800.000	0.077	0.301
-702.558	390.008	0.087	-0.185
-701.543	-122.222	0.036	-0.006
-700.529	-169.280	0.287	-0.011
-699.514	3.247	-0.009	0.007
-698.499	163.352	0.099	0.142
-697.485	-200.000	-0.093	0.000
-696.470	-189.282	0.048	-0.001
-695.456	-95.044	0.321	-0.089
-694.441	187.251	0.161	-0.245
-693.426	50.958	-0.044	-0.042
-692.412	-200.000	0.007	-0.084
-691.397	-27.501	-0.056	0.033
-690.383	-46.696	0.116	0.058
-689.368	-175.782	-0.136	0.004
-688.354	-35.023	-0.218	-0.121
-687.339	192.958	0.075	0.116
-686.324	237.111	0.117	-0.198
-685.310	588.570	-0.097	0.243
-684.295	-200.000	-0.009	-0.062
-683.281	54.715	-0.052	0.052
-682.266	-21.822	0.212	-0.131
-681.251	-21.818	0.311	0.193
-680.237	800.000	0.032	-0.096
-679.222	252.276	0.159	0.276
-678.208	657.115	-0.077	0.201
-677.193	-200.000	0.013	0.076
-676.178	214.092	0.227	-0.367
-675.164	-129.004	0.313	0.045
-674.149	247.584	-0.139	0.240
-673.135	800.000	-0.019	0.081
-672.120	-100.395	-0.305	-0.077
-671.105	-25.333	0.112	-0.067
-670.091	-95.635	0.202	-0.055
-669.076	-15.523	-0.182	-0.118
-668.062	-129.592	0.103	-0.015
-667.047	232.418	0.120	-0.201
-666.032	-82.846	-0.387	-0.127
-665.018	800.000	-0.094	-0.281
-664.003	61.240	-0.106	-0.108
-662.989	51.891	-0.230	0.224
-661.974	-17.715	-0.226	0.145
-660.959	-179.060	0.389	0.009
-659.945	-113.923	-0.512	-0.101
-658.930	-91.740	-0.413	0.120
-657.916	-200.000	0.012	-0.198
-656.901	-167.609	-0.176	-0.007
-655.886	162.593	-0.114	0.163
-654.872	-172.312	0.210	-0.007
-653.857	24.901	0.150	0.126
-652.843	156.322	-0.098	0.138
-651.828	-106.997	0.211	-0.047
-650.814	27.795	0.067	-0.057
-649.799	-48.073	0.204	-0.100
-648.784	65.364	0.195	-0.201
-647.770	-34.488	-0.532	-0.297
-646.755	39.877	-0.201	0.184
-645.741	416.485	-0.075	0.163
-644.726	61.367	-0.167	-0.170
-643.711	-200.000	-0.045	0.241
-642.697	-153.293	0.132	-0.009
-641.682	-128.907	0.051	-0.007
-640.668	27.382	-0.297	-0.254
-639.653	800.000	-0.089	-0.345
-638.638	-200.000	0.001	0.040
-637.624	-63.317	-0.121	-0.051
-636.609	-63.846	0.185	-0.077
-635.595	20.822	0.155	0.128
-634.580	260.659	0.139	0.245
-633.565	800.000	0.040	-0.178
-632.551	-145.962	0.102	-0.009
-631.536	-29.388	-0.242	0.141
-630.522	2.501	-0.182	-0.134
-629.507	-5.704	0.236	0.165
-628.492	-57.382	-0.183	0.082
-627.478	277.480	-0.062	-0.112
-626.463	800.000	0.050	0.185
-625.449	-105.986	-0.216	-0.050
-624.434	-200.000	0.050	0.366
-623.419	-37.434	-0.251	0.136
-622.405	-37.860	-0.116	-0.063
-621.390	109.610	0.214	-0.261
-620.376	34.840	0.140	0.125
-619.361	-113.573	-0.114	0.023
-618.346	689.132	0.150	0.400
-617.332	-200.000	-0.010	0.247
-616.317	218.471	-0.054	0.087
-615.303	33.002	-0.100	0.088
-614.288	-200.000	-0.017	-0.078
-613.273	-136.575	0.203	0.024
-612.259	-107.568	0.323	0.072
-611.244	-200.000	-0.006	0.222
-610.230	-15.433	-0.182	-0.118
-609.215	339.150	0.192	0.380
-608.201	-200.000	0.097	0.438
-607.186	253.363	-0.127	0.221
-606.171	800.000	0.071	-0.292
-605.157	-136.944	0.110	0.013
-604.142	-47.762	-0.113	0.056
-603.128	-48.628	-0.082	0.040
-602.113	-200.000	-0.014	-0.251
-601.098	-200.000	0.048	0.309
-600.084	209.455	0.036	0.058
-599.069	43.866	-0.129	-0.121
-598.055	-97.197	-0.101	-0.027
-597.040	-169.687	-0.181	-0.007
-596.025	717.642	-0.033	-0.089
-595.011	-200.000	0.014	0.072
-593.996	-200.000	-0.044	-0.318
-592.982	169.352	-0.183	0.266
-591.967	-87.883	-0.126	0.038
-590.952	-22.555	-0.122	-0.075
-589.938	800.000	0.035	0.143
-588.923	51.600	0.077	0.074
-587.909	-107.088	-0.089	0.020
-586.894	-200.000	-0.008	0.082
-585.879	-200.000	0.043	0.276
-584.865	800.000	-0.048	0.182
-583.850	-200.000	0.007	-0.327
-582.836	223.843	0.141	-0.232
-581.821	585.942	-0.098	0.246
-580.806	-90.281	-0.157	0.046
-579.792	-96.137	-0.060	0.016
-578.777	800.000	-0.038	-0.112
-577.763	80.372	0.195	0.213
-576.748	153.003	-0.039	-0.054
-575.733	-200.000	-0.017	-0.092
-574.719	651.186	-0.038	0.099
-573.704	130.662	0.082	-0.107
-572.690	442.690	-0.087	-0.193
-571.675	43.499	-0.114	-0.106
-570.661	5.447	0.155	0.116
-569.646	-200.000	0.002	-0.169
-568.631	-49.175	0.189	-0.092
-567.617	585.724	-0.057	-0.142
-566.602	-200.000	0.031	-0.298
-565.588	-120.472	-0.389	-0.067
-564.573	303.058	-0.104	-0.195
-563.558	23.788	0.178	0.149
-562.544	-75.075	0.221	0.080
-561.529	270.768	-0.096	-0.172
-560.515	-29.606	-0.155	0.090
-559.500	145.512	-0.085	0.115
-558.485	-200.000	-0.000	0.043
-557.471	-113.044	-0.075	-0.015
-556.456	666.271	-0.085	0.222
-555.442	227.513	-0.140	-0.231
-554.427	41.778	0.136	0.126
-553.412	19.993	-0.252	-0.207
-552.398	-200.000	-0.067	-0.320
-551.383	-200.000	0.022	0.126
-550.369	265.010	0.078	0.137
-549.354	230.496	0.058	-0.096
-548.339	639.306	-0.101	-0.262
-547.325	800.000	-0.111	-0.313
-546.310	36.848	-0.173	-0.155
-545.296	286.581	0.084	-0.154
-544.281	327.084	0.087	-0.169
-543.266	-200.000	-0.003	0.055
-542.252	149.356	0.144	0.197
-541.237	-11.901	0.074	0.049
-540.223	-200.000	0.038	-0.313
-539.208	-167.428	-0.354	-0.014
-538.193	-200.000	-0.079	-0.459
-537.179	-133.211	-0.078	-0.010
-536.164	-73.962	-0.401	-0.148
-535.150	-28.865	-0.169	-0.099
-534.135	-109.581	-0.155	-0.033
-533.121	-200.000	0.024	0.172
-532.106	800.000	0.018	-0.062
-531.091	103.465	-0.092	0.109
-530.077	429.727	0.070	-0.153
-529.062	-42.384	-0.260	0.135
-528.048	-22.320	-0.034	-0.021
-527.033	302.060	0.155	-0.290
-526.018	148.403	0.068	0.093
-525.004	130.314	0.105	-0.136
-523.989	280.860	0.237	-0.431
-522.975	60.378	-0.226	0.227
-521.960	190.825	0.123	0.188
-520.945	-99.493	0.106	-0.027
-519.931	-200.000	0.023	-0.180
-518.916	196.977	0.156	-0.241
-517.902	-200.000	0.010	-0.137
-516.887	-200.000	0.005	0.042
-515.872	-87.993	0.196	0.060
-514.858	-110.533	0.158	-0.033
-513.843	-80.778	0.396	-0.133
-512.829	57.898	-0.048	0.048
-511.814	-29.032	0.155	0.090
-510.799	-80.197	-0.252	-0.086
-509.785	-99.618	0.268	0.068
-508.770	800.000	-0.047	0.165
-507.756	-200.000	-0.028	-0.443
-506.741	-122.989	0.315	0.051
-505.726	246.165	0.133	0.227
-504.712	-192.446	0.235	-0.002
-503.697	90.481	-0.179	0.203
-502.683	-8.402	0.332	0.226
-501.668	-17.976	-0.034	0.022
-500.653	-52.406	-0.159	0.074
-499.639	73.247	0.073	-0.078
-498.624	340.561	-0.040	0.080
-497.610	800.000	-0.036	0.107
-496.595	800.000	-0.069	0.283
-495.581	15.212	0.410	-0.326
-494.566	-106.965	-0.237	-0.053
-493.551	-200.000	0.027	-0.275
-492.537	-150.168	0.200	0.016
-491.522	204.638	0.145	-0.228
-490.508	-56.497	0.164	0.074
-489.493	28.329	-0.441	0.377
-488.478	800.000	-0.123	-0.354
-487.464	228.898	-0.078	-0.129
-486.449	-137.445	-0.342	-0.039
-485.435	800.000	0.055	-0.176
-484.420	800.000	-0.099	0.337
-483.405	-155.770	-0.237	0.015
-482.391	800.000	-0.084	-0.371
-481.376	-10.432	0.214	0.144
-480.362	282.515	-0.078	-0.141
-479.347	-99.187	-0.100	0.026
-478.332	154.115	-0.044	-0.061
-477.318	242.089	0.179	0.303
-476.303	-23.239	-0.088	-0.053
-475.289	-147.059	-0.317	-0.027
-474.274	-200.000	-0.031	-0.174
-473.259	235.298	0.196	-0.328
-472.245	-200.000	-0.048	-0.225
-471.230	456.123	0.093	-0.209
-470.216	108.923	0.085	0.103
-469.201	437.488	-0.030	0.065
-468.186	-26.035	0.299	-0.178
-467.172	501.736	-0.064	0.149
-466.157	194.454	-0.147	-0.225
-465.143	-200.000	-0.002	-0.153
-464.128	135.091	-0.133	0.175
-463.113	118.832	-0.117	0.146
-462.099	-70.513	0.324	-0.124
-461.084	126.648	-0.060	-0.077
-460.070	-200.000	0.013	0.057
-459.055	-46.171	-0.223	0.111
-458.040	-134.205	-0.220	0.027
-457.026	-2.382	0.146	-0.103
-456.011	-89.608	-0.054	-0.016
-454.997	-45.571	-0.123	-0.061
-453.982	223.878	-0.049	0.081
-452.968	800.000	0.123	0.345
-451.953	-42.040	-0.036	-0.018
-450.938	800.000	0.033	0.121
-449.924	-24.617	0.140	-0.084
-448.909	-71.847	0.499	0.188
-447.895	741.507	0.035	-0.096
-446.880	-200.000	0.021	0.125
-445.865	-142.774	-0.243	-0.024
-444.851	133.399	-0.054	-0.070
-443.836	-38.496	-0.098	0.052
-442.822	-44.934	0.229	0.115
-441.807	143.638	-0.141	-0.189
-440.792	-200.000	-0.019	-0.086
-439.778	-200.000	0.025	0.156
-438.763	135.712	-0.182	0.240
-437.749	-41.005	-0.131	0.069
-436.734	682.170	-0.082	0.216
-435.719	-200.000	0.000	0.046
-434.705	-23.386	0.293	0.178
-433.690	800.000	0.034	-0.124
-432.676	-96.176	0.100	0.027
-431.661	-10.890	0.073	0.049
-430.646	223.413	0.158	0.257
-429.632	44.848	-0.065	0.060
-428.617	-59.334	-0.167	0.073
-427.603	-56.299	0.250	0.112
-426.588	-200.000	0.034	-0.176
-425.573	230.391	0.116	0.192
-424.559	-200.000	0.030	0.177
-423.544	-22.139	-0.216	0.132
-422.530	-105.744	-0.160	-0.036
-421.515	-200.000	0.000	0.085
-420.500	-200.000	0.009	-0.060
-419.486	-9.286	0.061	-0.041
-418.471	192.451	0.030	0.046
-417.457	226.525	-0.059	-0.096
-416.442	82.089	-0.126	-0.138
-415.428	-200.000	-0.013	0.153
-414.413	-0.478	0.149	0.107
-413.398	-49.743	0.235	0.113
-412.384	235.447	0.124	0.208
-411.369	60.829	0.070	0.070
-410.355	396.905	0.085	0.178
-409.340	540.575	0.044	-0.106
-408.325	-166.793	0.163	-0.007
-407.311	655.899	0.072	-0.186
-406.296	-10.583	-0.140	-0.093
-405.282	-103.666	-0.550	-0.130
-404.267	800.000	0.160	-0.533
-403.252	-97.303	0.291	-0.076
-402.238	-67.370	0.238	0.095
-401.223	58.493	-0.394	0.391
-400.209	-150.436	-0.479	0.037
-399.194	-83.536	-0.154	0.050
-398.179	770.535	-0.085	-0.235
-397.165	-156.493	0.182	-0.011
-396.150	-33.054	-0.255	-0.143
-395.136	140.728	-0.161	0.214
-394.121	-158.539	-0.373	0.022
-393.106	-23.551	0.462	0.280
-392.092	538.655	0.089	0.213
-391.077	800.000	0.086	0.259
-390.063	-118.813	0.038	-0.007
-389.048	-200.000	-0.066	0.296
-388.033	-124.655	0.101	-0.016
-387.019	-143.876	-0.279	-0.027
-386.004	-179.609	-0.046	-0.001
-384.990	199.311	-0.138	-0.213
-383.975	-200.000	0.010	0.084
-382.960	-200.000	0.024	0.165
-381.946	-200.000	0.020	0.180
-380.931	524.059	-0.093	-0.221
-379.917	-89.006	-0.250	0.075
-378.902	502.588	-0.117	0.272
-377.888	-108.951	-0.237	-0.051
-376.873	23.407	-0.206	-0.171
-375.858	800.000	0.088	-0.247
-374.844	800.000	0.074	-0.293
-373.829	95.944	-0.214	0.247
-372.815	-200.000	-0.015	0.149
-371.800	800.000	0.061	0.189
-370.785	678.430	0.165	0.434
-369.771	135.323	0.197	0.258
-368.756	-83.408	0.127	0.041
-367.742	-49.149	0.292	0.141
-366.727	-128.193	0.123	0.018
-365.712	-200.000	-0.011	-0.185
-364.698	-82.251	0.148	0.049
-363.683	800.000	-0.072	-0.222
-362.669	158.799	-0.106	-0.148
-361.654	446.648	-0.025	-0.054
-360.639	-92.229	-0.271	-0.077
-359.625	-102.840	-0.426	-0.102
-358.610	-62.410	0.175	0.073
-357.596	188.027	-0.174	-0.262
-356.581	-200.000	-0.003	0.209
-355.566	797.785	-0.164	0.456
-354.552	800.000	-0.059	-0.184
-353.537	-134.679	0.135	-0.017
-352.523	-200.000	0.009	-0.129
-351.508	-121.373	-0.161	-0.027
-350.493	95.248	-0.133	-0.153
-349.479	-200.000	0.003	-0.084
-348.464	-85.087	0.351	-0.111
-347.450	-1.745	0.073	-0.052
-346.435	-116.755	0.091	-0.017
-345.420	-16.802	0.239	-0.152
-344.406	151.297	0.020	-0.028
-343.391	-32.027	-0.017	-0.009
-342.377	-149.338	0.381	-0.031
-341.362	800.000	-0.061	-0.197
-340.348	-64.738	-0.214	0.087
-339.333	-11.740	0.108	0.071
-338.318	-52.407	0.164	-0.076
-337.304	-129.887	0.141	0.019
-336.289	-41.728	0.304	0.157
-335.275	195.166	-0.122	-0.186
-334.260	800.000	0.038	0.129
-333.245	-200.000	0.002	0.024
-332.231	800.000	-0.069	-0.301
-331.216	-125.449	0.263	0.040
-330.202	-29.395	-0.129	0.074
-329.187	54.977	0.299	-0.290
-328.172	-97.459	-0.109	-0.029
-327.158	-28.614	0.373	-0.216
-326.143	10.349	-0.267	-0.204
-325.129	-73.253	-0.225	-0.083
-324.114	-200.000	0.005	-0.033
-323.099	-24.287	0.245	-0.147
-322.085	666.514	-0.036	0.093
-321.070	-106.333	-0.364	-0.082
-320.056	-54.694	0.065	0.029
-319.041	301.574	0.054	-0.100
-318.026	-52.037	0.248	-0.116
-317.012	-136.400	0.119	0.014
-315.997	625.289	0.060	-0.152
-314.983	-200.000	0.049	-0.266
-313.968	-200.000	-0.020	-0.099
-312.953	88.298	-0.049	-0.054
-311.939	240.716	-0.144	-0.242
-310.924	201.979	0.073	0.114
-309.910	-44.172	0.287	-0.145
-308.895	-116.069	-0.312	-0.058
-307.880	-89.300	-0.163	0.048
-306.866	270.955	0.178	0.316
-305.851	-88.805	-0.416	-0.124
-304.837	49.895	-0.139	0.131
-303.822	-93.227	0.210	0.059
-302.807	-3.965	0.184	0.128
-301.793	273.320	-0.104	0.184
-300.778	250.463	0.149	0.254
-299.764	-200.000	0.045	0.231
-298.749	354.513	-0.145	-0.289
-297.735	800.000	0.069	-0.272
-296.720	800.000	0.009	-0.031
-295.705	-125.517	-0.174	0.027
-294.691	-111.489	0.262	-0.054
-293.676	-49.154	-0.181	0.087
-292.662	-10.767	0.032	0.021
-291.647	290.478	-0.182	-0.333
-290.632	-177.620	-0.220	0.005
-289.618	43.310	-0.326	0.299
-288.603	269.556	0.186	0.329
-287.589	175.980	0.129	-0.188
-286.574	-35.608	0.038	-0.021
-285.559	-200.000	0.003	-0.148
-284.545	-36.556	-0.121	-0.066
-283.530	73.444	0.209	-0.220
-282.516	76.816	-0.071	0.076
-281.501	168.251	0.139	-0.199
-280.486	-25.337	-0.512	0.304
-279.472	-7.438	-0.159	0.108
-278.457	-56.180	0.242	-0.108
-277.443	-200.000	-0.048	-0.292
-276.428	663.746	0.116	0.300
-275.413	-50.430	-0.168	0.080
-274.399	-109.614	-0.177	-0.038
-273.384	-200.000	0.024	0.182
-272.370	418.412	0.029	0.061
-271.355	-200.000	0.033	0.311
-270.340	-46.369	0.467	0.230
-269.326	-150.175	0.309	-0.024
-268.311	262.977	-0.092	-0.161
-267.297	-189.906	0.340	0.004
-266.282	-33.480	-0.123	0.068
-265.267	-200.000	0.023	0.315
-264.253	-200.000	-0.016	-0.241
-263.238	-200.000	0.002	-0.185
-262.224	-134.904	-0.270	-0.033
-261.209	561.469	0.156	-0.379
-260.195	164.998	0.089	0.125
-259.180	800.000	-0.092	-0.370
-258.165	330.654	-0.138	-0.267
-257.151	-200.000	-0.100	0.445
-256.136	27.454	0.241	-0.203
-255.122	93.768	-0.130	-0.148
-254.107	25.720	-0.189	0.158
-253.092	63.997	0.339	-0.342
-252.078	800.000	-0.065	-0.252
-251.063	33.778	-0.085	0.074
-250.049	294.017	0.142	0.260
-249.034	800.000	0.111	0.420
-248.019	-145.668	0.202	0.018
-247.005	345.454	0.121	-0.238
-245.990	-128.793	0.209	0.030
-244.976	269.623	0.102	-0.180
-243.961	99.117	0.071	0.082
-242.946	-116.904	-0.334	0.061
-241.932	466.031	-0.022	0.049
-240.917	568.900	0.117	-0.285
-239.903	-200.000	0.017	0.092
-238.888	166.046	-0.127	-0.181
-237.873	-7.927	-0.052	0.035
-236.859	-138.397	0.278	0.031
-235.844	127.554	0.079	-0.101
-234.830	13.725	0.167	-0.130
-233.815	-200.000	0.006	-0.095
-232.800	-68.410	0.346	-0.135
-231.786	-173.774	-0.354	0.011
-230.771	197.096	-0.047	-0.071
-229.757	1.703	-0.087	0.063
-228.742	-200.000	-0.016	0.288
-227.727	-81.015	0.175	0.058
-226.713	-53.998	-0.227	-0.104
-225.698	30.855	-0.151	-0.129
-224.684	295.517	0.104	0.191
-223.669	-45.691	0.080	-0.040
-222.655	542.301	0.147	-0.352
-221.640	-129.560	-0.311	0.043
-220.625	800.000	0.044	0.132
-219.611	-167.919	-0.166	-0.007
-218.596	44.253	-0.069	0.064
-217.582	-118.238	0.425	0.076
-216.567	-200.000	0.047	0.253
-215.552	-200.000	0.023	0.394
-214.538	-200.000	0.009	-0.065
-213.523	82.545	-0.188	-0.205
-212.509	3.711	0.182	-0.133
-211.494	800.000	0.016	0.053
-210.479	800.000	0.070	0.263
-209.465	-11.014	-0.015	0.010
-208.450	-200.000	0.009	-0.062
-207.436	24.371	0.055	-0.045
-206.421	662.123	-0.171	-0.442
-205.406	179.731	-0.254	-0.373
-204.392	3.965	-0.093	0.068
-203.377	-14.683	0.124	-0.080
-202.363	154.054	0.054	0.073
-201.348	-200.000	-0.061	-0.296
-200.333	79.522	0.141	0.151
-199.319	800.000	-0.156	0.436
-198.304	-66.738	0.720	0.285
-197.290	-134.017	-0.307	0.038
-196.275	800.000	-0.103	0.304
-195.260	-146.851	-0.305	0.026
-194.246	-200.000	-0.059	-0.300
-193.231	800.000	0.064	0.246
-192.217	-200.000	0.072	0.419
-191.202	800.000	-0.045	0.171
-190.187	98.646	0.061	0.071
-189.173	1.159	0.163	-0.117
-188.158	16.922	-0.061	-0.049
-187.144	315.552	-0.073	-0.138
-186.129	92.388	0.201	0.227
-185.114	-146.937	0.326	0.028
-184.100	800.000	0.078	-0.228
-183.085	-67.605	0.454	0.178
-182.071	19.115	0.048	-0.038
-181.056	-200.000	0.012	-0.330
-180.042	-34.137	-0.160	0.088
-179.027	-19.588	0.423	0.262
-178.012	800.000	-0.055	0.161
-176.998	60.197	0.129	0.127
-175.983	77.723	-0.284	0.303
-174.969	-115.284	-0.255	0.048
-173.954	78.141	-0.063	-0.067
-172.939	-59.499	-0.153	-0.066
-171.925	-102.350	-0.108	-0.026
-170.910	-150.123	-0.409	0.032
-169.896	-28.802	0.205	0.118
-168.881	89.085	0.052	0.058
-167.866	-126.373	0.115	-0.017
-166.852	31.416	-0.180	-0.155
-165.837	-200.000	0.003	0.115
-164.823	679.934	-0.023	0.061
-163.808	602.790	-0.059	0.146
-162.793	596.903	0.033	-0.083
-161.779	-200.000	0.001	0.072
-160.764	800.000	0.032	0.103
-159.750	162.764	0.146	0.205
-158.735	-165.794	0.190	0.008
-157.720	-200.000	-0.016	-0.082
-156.706	244.063	0.032	-0.054
-155.691	-124.824	0.272	-0.042
-154.677	279.889	-0.120	-0.214
-153.662	15.317	-0.090	-0.070
-152.647	-9.001	0.228	0.152
-151.633	-200.000	0.027	0.162
-150.618	-200.000	0.038	0.443
-149.604	-200.000	-0.047	-0.371
-148.589	800.000	0.107	0.344
-147.574	700.795	-0.085	0.225
-146.560	-7.366	0.165	-0.111
-145.545	-89.258	-0.111	0.033
-144.531	26.232	0.294	0.245
-143.516	-112.287	0.070	0.014
-142.502	800.000	0.077	0.304
-141.487	-142.152	0.240	0.024
-140.472	-139.411	0.058	0.006
-139.458	-117.490	0.296	0.053
-138.443	-60.668	0.162	0.069
-137.429	204.189	-0.110	-0.170
-136.414	-200.000	-0.006	-0.052
-135.399	195.419	0.209	0.317
-134.385	-95.342	0.032	-0.009
-133.370	-36.444	0.331	-0.178
-132.356	-96.271	0.165	0.044
-131.341	595.841	-0.055	0.136
-130.326	778.853	0.062	-0.169
-129.312	-200.000	0.053	-0.287
-128.297	800.000	-0.036	0.102
-127.283	-200.000	0.024	-0.228
-126.268	-196.207	-0.110	0.001
-125.253	-70.013	-0.044	-0.017
-124.239	64.745	-0.259	0.261
-123.224	-58.300	0.080	-0.035
-122.210	138.644	-0.085	0.112
-121.195	-154.638	-0.373	-0.025
