DTS Sentinel unit serial number:	SN413079Multiplexer serial number:	ORYXHardware model number:	OX4-SRSoftware version number:	ORYX F/W v4.00 Oryx Data Collector v3.7.2.0data status	okinstallation	princeton_trtdifferential loss correction	single-endedforward channel	channel 1reverse channel	N/Adate	2019/09/18time	05:58:35forward acquisition time	60.00reverse acquisition time	0.00gamma	496.2192k internal	0.2339k external	0.2339temperature offset calibration	0.9978default loss term (dB/km)	0.3790temperature slope calibration	1.0000multiplexer offset coefficient	1.0000multiplexer slope coefficient	1.0000fibre end	0.00T internal ref (°C)	23.19T ext. ref 1 (°C)	0.19T ext. ref 2 (°C)	17.66length (m)	temperature (°C)	Stokes	anti-Stokes-747.200	29.849	0.172	-0.147
-746.185	-68.371	-0.277	0.108
-745.171	490.755	0.017	0.039
-744.156	-11.881	-0.103	-0.067
-743.142	800.000	0.051	-0.180
-742.127	-73.663	-0.126	0.046
-741.112	72.756	-0.177	0.185
-740.098	-128.271	-0.253	0.036
-739.083	-200.000	0.021	0.100
-738.069	-13.562	-0.465	0.302
-737.054	26.634	-0.206	0.173
-736.039	-185.938	-0.179	-0.003
-735.025	-111.450	0.483	0.099
-734.010	800.000	-0.132	-0.382
-732.996	-200.000	0.013	-0.179
-731.981	61.762	-0.179	-0.178
-730.966	-121.343	0.191	0.032
-729.952	88.534	0.101	-0.112
-728.937	-22.708	-0.216	0.131
-727.923	-13.499	-0.359	0.233
-726.908	-126.853	0.153	-0.023
-725.894	-200.000	-0.199	0.000
-724.879	73.159	0.057	-0.060
-723.864	-29.707	-0.235	-0.135
-722.850	-75.938	-0.173	-0.062
-721.835	800.000	0.078	-0.305
-720.821	-200.000	0.009	-0.101
-719.806	29.401	0.060	-0.051
-718.791	114.254	-0.253	-0.308
-717.777	-200.000	-0.000	0.310
-716.762	-160.115	0.177	0.010
-715.748	-20.567	-0.093	0.057
-714.733	61.280	0.308	-0.307
-713.718	-138.457	0.170	-0.019
-712.704	-124.767	-0.209	-0.032
-711.689	299.742	-0.170	0.313
-710.675	-178.953	0.296	0.007
-709.660	-103.320	-0.199	0.047
-708.645	352.499	-0.059	-0.116
-707.631	-200.000	-0.031	0.158
-706.616	-200.000	-0.013	-0.183
-705.602	800.000	-0.055	0.206
-704.587	61.943	0.115	-0.115
-703.572	22.338	-0.074	0.060
-702.558	-116.488	0.257	-0.047
-701.543	-55.215	-0.089	0.040
-700.529	-61.021	-0.190	0.080
-699.514	-106.531	0.355	-0.079
-698.499	5.846	0.144	-0.107
-697.485	43.365	-0.244	-0.223
-696.470	760.604	0.133	0.362
-695.456	-200.000	0.015	-0.113
-694.441	461.451	0.060	0.134
-693.426	800.000	-0.084	0.315
-692.412	-200.000	0.051	0.232
-691.397	-61.548	-0.210	-0.088
-690.383	-200.000	-0.036	-0.231
-689.368	28.537	0.134	0.114
-688.354	-69.575	-0.207	-0.079
-687.339	-53.933	-0.057	0.026
-686.324	59.503	0.127	0.125
-685.310	135.761	-0.107	0.139
-684.295	800.000	-0.126	-0.507
-683.281	-125.401	-0.419	-0.064
-682.266	587.031	0.053	-0.130
-681.251	-200.000	0.005	-0.161
-680.237	-200.000	-0.006	0.164
-679.222	-160.878	-0.242	-0.013
-678.208	-165.864	0.128	-0.005
-677.193	225.636	-0.074	0.121
-676.178	800.000	-0.028	0.083
-675.164	505.617	0.048	-0.111
-674.149	-89.849	-0.407	0.119
-673.135	-138.753	0.024	-0.003
-672.120	-54.045	0.171	-0.078
-671.105	118.528	0.056	-0.070
-670.091	102.999	0.295	0.346
-669.076	-200.000	-0.024	-0.346
-668.062	-23.611	0.197	0.118
-667.047	-167.733	0.236	-0.009
-666.032	191.994	-0.298	-0.449
-665.018	-116.450	0.252	-0.046
-664.003	-200.000	-0.031	-0.160
-662.989	-28.289	-0.179	0.103
-661.974	1.466	-0.229	-0.165
-660.959	-23.556	-0.165	-0.099
-659.945	-17.188	0.237	-0.149
-658.930	-146.755	-0.143	0.012
-657.916	800.000	-0.090	-0.335
-656.901	-200.000	-0.185	0.000
-655.886	23.082	-0.075	0.061
-654.872	198.635	0.042	0.064
-653.857	-200.000	0.081	0.424
-652.843	-69.822	0.188	0.072
-651.828	-25.728	0.295	0.174
-650.814	-200.000	0.057	0.411
-649.799	-32.486	0.050	0.028
-648.784	-27.005	-0.225	0.131
-647.770	-200.000	0.035	0.264
-646.755	-135.300	-0.195	0.023
-645.741	12.217	0.410	0.315
-644.726	32.601	-0.129	-0.111
-643.711	800.000	-0.049	0.175
-642.697	-86.646	-0.132	0.040
-641.682	485.376	-0.047	0.106
-640.668	13.414	-0.150	-0.116
-639.653	-200.000	0.054	-0.315
-638.638	-47.013	-0.182	-0.089
-637.624	-157.262	0.283	0.017
-636.609	88.437	0.063	0.070
-635.595	-200.000	-0.013	0.094
-634.580	-118.006	-0.421	-0.075
-633.565	12.298	-0.277	0.213
-632.551	-100.132	-0.248	0.062
-631.536	-82.358	-0.288	-0.094
-630.522	-200.000	0.015	-0.074
-629.507	270.549	-0.008	0.015
-628.492	631.147	0.068	0.173
-627.478	-200.000	-0.335	-0.001
-626.463	-48.125	0.163	-0.078
-625.449	800.000	-0.111	-0.344
-624.434	470.990	-0.110	-0.246
-623.419	-15.043	0.081	0.052
-622.405	74.615	-0.268	0.282
-621.390	-63.973	0.297	-0.121
-620.376	156.614	-0.049	0.068
-619.361	379.853	0.068	0.140
-618.346	-200.000	-0.059	0.280
-617.332	92.334	0.159	-0.179
-616.317	25.679	-0.133	-0.110
-615.303	66.834	0.116	-0.118
-614.288	-200.000	0.146	-0.745
-613.273	-37.008	0.190	0.101
-612.259	-12.782	-0.290	-0.189
-611.244	-200.000	-0.003	-0.206
-610.230	75.566	0.162	0.171
-609.215	-200.000	-0.025	0.204
-608.201	-200.000	0.029	-0.147
-607.186	236.124	-0.084	0.138
-606.171	-200.000	-0.040	0.344
-605.157	-200.000	0.024	-0.399
-604.142	6.454	0.269	-0.199
-603.128	-200.000	-0.020	0.313
-602.113	-200.000	-0.026	-0.133
-601.098	-119.850	-0.270	-0.046
-600.084	800.000	0.103	-0.312
-599.069	344.513	0.148	-0.290
-598.055	-23.898	-0.236	-0.141
-597.040	71.622	0.387	-0.401
-596.025	114.660	0.252	0.306
-595.011	-200.000	-0.035	0.283
-593.996	-11.739	-0.145	-0.095
-592.982	-12.999	-0.127	0.083
-591.967	-200.000	0.024	-0.262
-590.952	285.759	0.029	0.052
-589.938	213.731	-0.211	-0.332
-588.923	-200.000	-0.006	-0.405
-587.909	-55.141	0.080	0.036
-586.894	800.000	-0.022	-0.095
-585.879	-200.000	-0.012	0.312
-584.865	115.091	0.090	0.109
-583.850	217.340	-0.016	-0.025
-582.836	800.000	-0.057	0.163
-581.821	167.954	-0.195	-0.277
-580.806	134.778	0.225	0.291
-579.792	192.244	0.188	-0.283
-578.777	-147.172	-0.315	-0.027
-577.763	-21.435	-0.462	0.281
-576.748	-149.353	-0.202	0.016
-575.733	172.911	0.126	0.181
-574.719	63.447	-0.362	-0.361
-573.704	-72.075	-0.183	-0.068
-572.690	116.439	-0.117	0.143
-571.675	194.632	0.076	-0.114
-570.661	800.000	0.051	0.174
-569.646	344.093	-0.173	-0.338
-568.631	-66.890	0.243	-0.096
-567.617	-139.656	0.101	0.011
-566.602	-130.481	-0.268	0.036
-565.588	138.019	0.223	0.291
-564.573	800.000	-0.074	0.274
-563.558	-33.636	-0.204	0.112
-562.544	-200.000	-0.056	0.256
-561.529	800.000	0.091	0.282
-560.515	10.280	-0.335	0.254
-559.500	110.271	-0.180	-0.216
-558.485	206.244	0.075	-0.117
-557.471	-28.360	-0.182	-0.105
-556.456	42.692	0.274	0.249
-555.442	-200.000	0.047	-0.349
-554.427	-82.100	0.208	-0.067
-553.412	-200.000	0.029	0.173
-552.398	-200.000	0.228	0.000
-551.383	32.513	-0.233	-0.200
-550.369	-200.000	0.001	-0.489
-549.354	223.109	0.092	0.147
-548.339	-68.600	0.183	-0.070
-547.325	111.188	0.227	-0.272
-546.310	-200.000	-0.042	-0.228
-545.296	19.394	-0.188	-0.151
-544.281	496.577	0.088	0.201
-543.266	-91.686	-0.403	0.114
-542.252	-33.540	-0.160	0.088
-541.237	-200.000	-0.015	0.070
-540.223	-16.316	-0.167	-0.105
-539.208	-200.000	-0.030	-0.211
-538.193	-20.061	0.109	-0.067
-537.179	-168.215	0.189	0.007
-536.164	139.413	0.042	-0.055
-535.150	-23.732	-0.089	-0.053
-534.135	282.520	-0.009	-0.016
-533.121	-53.081	0.123	-0.056
-532.106	-96.010	0.236	-0.063
-531.091	-35.172	-0.210	-0.114
-530.077	-138.865	-0.366	-0.040
-529.062	0.869	-0.276	0.197
-528.048	197.152	0.101	-0.154
-527.033	-104.736	-0.256	-0.059
-526.018	-68.627	-0.313	-0.120
-525.004	138.112	0.288	-0.375
-523.989	-66.228	-0.397	-0.157
-522.975	-35.926	0.111	0.059
-521.960	-62.461	-0.074	-0.031
-520.945	-10.625	0.261	-0.172
-519.931	149.605	-0.046	0.062
-518.916	146.622	0.062	0.083
-517.902	800.000	0.135	0.586
-516.887	-95.172	0.162	0.043
-515.872	-159.753	-0.315	-0.017
-514.858	800.000	0.002	-0.007
-513.843	325.101	-0.116	-0.219
-512.829	-8.478	-0.260	-0.174
-511.814	-200.000	0.062	-0.411
-510.799	-23.070	-0.083	0.050
-509.785	168.717	-0.122	-0.173
-508.770	60.782	0.198	0.195
-507.756	-101.883	0.082	-0.020
-506.741	154.368	-0.010	-0.014
-505.726	-121.714	-0.077	0.013
-504.712	52.081	0.595	0.563
-503.697	800.000	0.064	-0.233
-502.683	800.000	-0.097	0.289
-501.668	800.000	-0.085	-0.238
-500.653	-200.000	-0.026	-0.286
-499.639	182.035	0.221	-0.324
-498.624	-200.000	0.048	0.244
-497.610	-58.940	-0.141	0.060
-496.595	-115.657	0.225	0.042
-495.581	383.564	0.087	-0.178
-494.566	-200.000	-0.059	-0.312
-493.551	-106.598	-0.039	0.009
-492.537	117.427	0.144	-0.175
-491.522	18.370	-0.236	-0.187
-490.508	-108.071	0.244	0.052
-489.493	151.489	0.101	0.137
-488.478	-64.833	-0.152	-0.061
-487.464	-169.444	0.131	-0.005
-486.449	127.928	-0.132	0.167
-485.435	-51.168	0.271	-0.126
-484.420	212.690	0.073	-0.114
-483.405	78.891	0.232	0.246
-482.391	800.000	0.067	0.208
-481.376	-61.344	0.163	-0.068
-480.362	462.431	-0.045	-0.100
-479.347	54.931	-0.368	0.353
-478.332	-137.578	-0.235	-0.026
-477.318	-57.233	-0.117	0.051
-476.303	130.854	0.098	-0.125
-475.289	259.635	-0.098	-0.168
-474.274	156.487	0.069	0.094
-473.259	98.788	-0.044	-0.050
-472.245	-200.000	0.007	0.052
-471.230	12.213	0.059	-0.045
-470.216	-200.000	-0.026	-0.260
-469.201	-56.487	-0.157	0.069
-468.186	-75.784	0.440	-0.155
-467.172	800.000	0.089	-0.246
-466.157	710.791	-0.189	-0.497
-465.143	130.767	0.233	0.297
-464.128	-126.213	-0.287	-0.043
-463.113	374.110	0.224	-0.453
-462.099	-165.746	-0.445	0.019
-461.084	-22.587	-0.251	0.151
-460.070	117.442	-0.293	-0.358
-459.055	52.544	-0.136	0.128
-458.040	116.738	0.006	0.007
-457.026	602.713	-0.020	-0.048
-456.011	800.000	-0.104	-0.349
-454.997	-200.000	0.006	-0.274
-453.982	-100.898	0.308	-0.075
-452.968	-85.298	0.187	-0.058
-451.953	14.071	0.355	-0.274
-450.938	118.330	0.294	0.359
-449.924	254.321	-0.060	0.101
-448.909	-200.000	0.047	-0.243
-447.895	15.437	0.114	0.089
-446.880	-200.000	-0.052	-0.509
-445.865	-57.588	0.228	-0.099
-444.851	15.269	0.227	-0.177
-443.836	267.549	0.176	0.305
-442.822	-156.793	0.346	0.021
-441.807	400.457	-0.090	-0.187
-440.792	-48.485	-0.307	0.147
-439.778	-200.000	-0.084	-0.389
-438.763	-93.646	-0.325	0.089
-437.749	800.000	-0.017	-0.063
-436.734	52.249	0.161	-0.152
-435.719	-149.278	-0.297	0.023
-434.705	-200.000	0.008	-0.149
-433.690	-55.259	0.142	0.063
-432.676	278.871	0.152	-0.268
-431.661	283.943	-0.048	0.086
-430.646	-77.442	-0.153	-0.053
-429.632	259.078	0.117	0.200
-428.617	-79.308	0.369	0.124
-427.603	-200.000	-0.009	-0.084
-426.588	800.000	0.061	-0.259
-425.573	800.000	0.080	-0.300
-424.559	7.178	0.064	0.047
-423.544	37.069	0.253	-0.221
-422.530	800.000	-0.063	-0.185
-421.515	-200.000	-0.082	0.445
-420.500	-119.506	0.267	-0.046
-419.486	180.120	0.120	-0.174
-418.471	0.429	-0.206	0.146
-417.457	-48.231	0.196	0.093
-416.442	-200.000	0.001	-0.103
-415.428	437.077	0.021	-0.045
-414.413	405.404	-0.058	0.121
-413.398	143.426	0.062	0.082
-412.384	800.000	-0.085	-0.240
-411.369	-116.845	0.219	-0.040
-410.355	82.001	0.091	0.098
-409.340	-200.000	-0.029	0.156
-408.325	-170.689	-0.178	-0.006
-407.311	-200.000	-0.017	0.166
-406.296	-115.758	-0.100	-0.019
-405.282	685.353	-0.068	-0.177
-404.267	-46.197	-0.437	-0.213
-403.252	800.000	0.016	-0.063
-402.238	-200.000	0.038	0.186
-401.223	-200.000	0.012	0.234
-400.209	800.000	0.028	0.092
-399.194	-96.084	0.150	0.040
-398.179	-40.440	0.242	0.124
-397.165	800.000	-0.086	0.250
-396.150	139.848	0.112	0.146
-395.136	84.988	-0.285	-0.309
-394.121	-200.000	0.062	0.446
-393.106	228.082	0.021	-0.034
-392.092	158.695	0.177	0.243
-391.077	-87.348	-0.247	0.074
-390.063	800.000	-0.052	0.149
-389.048	64.039	0.305	0.304
-388.033	26.092	-0.199	-0.165
-387.019	-25.668	0.397	0.232
-386.004	-50.230	0.117	0.055
-384.990	-20.302	0.169	0.103
-383.975	-28.028	0.020	0.011
-382.960	331.270	0.069	0.132
-381.946	23.451	-0.232	-0.189
-380.931	7.075	0.320	-0.236
-379.917	148.521	-0.157	0.210
-378.902	-16.905	-0.136	-0.085
-377.888	153.339	-0.104	0.140
-376.873	104.828	-0.121	0.141
-375.858	125.078	-0.105	0.131
-374.844	-117.409	-0.091	0.016
-373.829	19.662	-0.035	0.028
-372.815	372.664	0.213	-0.427
-371.800	-35.917	0.161	-0.086
-370.785	36.788	0.035	-0.031
-369.771	83.418	0.142	-0.153
-368.756	-129.374	-0.106	-0.015
-367.742	-200.000	0.043	-0.216
-366.727	800.000	-0.077	-0.236
-365.712	-58.078	0.200	0.086
-364.698	-140.108	-0.362	-0.038
-363.683	-134.722	0.330	-0.040
-362.669	-79.186	-0.199	-0.067
-361.654	96.635	0.127	-0.144
-360.639	81.376	-0.190	-0.203
-359.625	-200.000	-0.004	-0.124
-358.610	32.389	0.244	0.208
-357.596	284.777	-0.098	0.175
-356.581	-79.747	-0.133	0.044
-355.566	-197.631	0.050	0.000
-354.552	800.000	0.124	-0.383
-353.537	-149.025	-0.181	0.014
-352.523	583.346	-0.011	0.027
-351.508	-175.109	-0.282	0.008
-350.493	463.861	0.176	-0.389
-349.479	20.372	-0.253	-0.202
-348.464	20.583	-0.078	-0.062
-347.450	-51.565	-0.268	0.124
-346.435	-62.153	0.187	-0.077
-345.420	-11.210	0.149	0.097
-344.406	-38.911	-0.304	0.158
-343.391	76.062	0.098	-0.102
-342.377	-49.643	-0.184	0.086
-341.362	800.000	-0.065	-0.182
-340.348	579.702	-0.105	0.255
-339.333	71.598	-0.121	0.124
-338.318	-136.013	0.196	-0.023
-337.304	-59.093	-0.171	-0.073
-336.289	-200.000	-0.026	0.251
-335.275	-33.524	-0.163	-0.089
-334.260	800.000	-0.033	0.090
-333.245	-160.212	-0.398	0.021
-332.231	76.045	0.126	0.131
-331.216	-96.129	-0.245	0.064
-330.202	182.671	-0.137	-0.199
-329.187	105.744	-0.134	0.156
-328.172	-130.353	0.183	-0.024
-327.158	408.625	0.147	0.307
-326.143	405.077	0.250	-0.519
-325.129	-128.552	0.318	0.044
-324.114	-60.916	0.020	0.008
-323.099	-200.000	-0.028	0.587
-322.085	800.000	0.016	0.056
-321.070	-89.430	-0.465	-0.135
-320.056	201.157	0.117	0.178
-319.041	-60.232	0.070	0.030
-318.026	-157.313	0.237	0.014
-317.012	-74.440	0.101	0.036
-315.997	-200.000	-0.025	0.171
-314.983	40.511	0.124	-0.111
-313.968	143.951	0.320	0.421
-312.953	800.000	0.003	-0.012
-311.939	-57.870	0.158	0.068
-310.924	-71.751	0.061	-0.022
-309.910	-140.137	-0.426	-0.044
-308.895	664.769	0.105	0.268
-307.880	-106.177	0.176	0.039
-306.866	-79.323	-0.241	0.081
-305.851	-200.000	-0.040	0.331
-304.837	118.152	-0.052	0.063
-303.822	37.497	0.168	0.147
-302.807	-200.000	-0.049	0.230
-301.793	-50.073	0.170	0.080
-300.778	444.493	0.212	-0.459
-299.764	-50.974	-0.167	0.077
-298.749	720.125	-0.060	-0.157
-297.735	-30.882	-0.359	-0.200
-296.720	465.687	0.058	0.127
-295.705	310.587	-0.032	0.059
-294.691	-17.732	0.204	0.126
-293.676	800.000	-0.055	0.190
-292.662	-200.000	-0.007	0.192
-291.647	621.131	0.084	0.208
-290.632	279.045	0.072	-0.127
-289.618	-200.000	0.000	0.022
-288.603	563.282	-0.108	0.257
-287.589	519.737	-0.161	-0.372
-286.574	-34.265	0.088	-0.048
-285.559	17.000	0.222	-0.173
-284.545	114.950	-0.280	-0.336
-283.530	358.513	-0.101	-0.200
-282.516	369.535	0.029	0.058
-281.501	135.790	-0.200	0.257
-280.486	136.362	0.201	0.259
-279.472	326.306	0.062	-0.117
-278.457	47.994	-0.057	-0.052
-277.443	-51.293	-0.270	-0.124
-276.428	-180.180	-0.036	0.001
-275.413	-200.000	0.012	-0.090
-274.399	-200.000	0.048	-0.215
-273.384	-61.012	-0.314	0.131
-272.370	-180.692	0.104	0.002
-271.355	276.498	-0.144	0.252
-270.340	70.092	-0.152	-0.155
-269.326	-139.931	0.270	-0.028
-268.311	-200.000	0.035	-0.414
-267.297	142.586	-0.124	0.162
-266.282	82.112	-0.119	-0.127
-265.267	-200.000	-0.021	0.388
-264.253	-95.955	-0.216	-0.057
-263.238	60.580	0.164	0.160
-262.224	-200.000	0.034	0.274
-261.209	-58.889	-0.366	0.156
-260.195	-19.240	0.220	-0.134
-259.180	800.000	-0.038	-0.127
-258.165	-22.121	0.181	-0.108
-257.151	-200.000	-0.005	-0.039
-256.136	8.883	-0.198	0.147
-255.122	9.449	-0.236	-0.176
-254.107	800.000	-0.068	0.264
-253.092	-200.000	-0.004	0.383
-252.078	-140.803	-0.346	-0.035
-251.063	-164.723	0.308	-0.014
-250.049	-200.000	0.033	0.317
-249.034	-118.972	-0.155	-0.027
-248.019	-117.088	0.216	-0.039
-247.005	26.475	0.138	-0.114
-245.990	120.694	-0.288	-0.352
-244.976	-23.405	-0.172	0.101
-243.961	-64.206	0.058	-0.023
-242.946	402.657	0.170	0.351
-241.932	120.271	-0.231	0.282
-240.917	-93.178	0.251	0.069
-239.903	-51.519	0.228	-0.105
-238.888	-72.971	-0.163	-0.059
-237.873	6.874	0.161	0.118
-236.859	-72.957	0.193	-0.070
-235.844	-25.012	-0.074	0.043
-234.830	-83.966	0.269	-0.084
-233.815	-200.000	0.012	0.072
-232.800	-195.939	0.194	0.001
-231.786	618.181	0.082	0.202
-230.771	-129.581	-0.263	-0.036
-229.757	-171.344	0.172	0.006
-228.742	400.221	0.113	0.233
-227.727	525.273	0.086	0.199
-226.713	353.400	-0.126	0.246
-225.698	-12.985	0.238	0.152
-224.684	164.682	0.131	0.181
-223.669	70.607	-0.041	-0.042
-222.655	-85.711	0.186	0.057
-221.640	313.656	-0.040	0.074
-220.625	800.000	0.072	-0.223
-219.611	80.554	0.108	-0.114
-218.596	800.000	0.015	0.052
-217.582	-6.347	-0.101	-0.067
-216.567	-126.914	0.113	-0.016
-215.552	576.253	0.025	0.060
-214.538	25.338	-0.120	-0.098
-213.523	-200.000	0.062	-0.275
-212.509	208.530	-0.112	-0.172
-211.494	-7.773	0.167	0.111
-210.479	-189.547	0.325	-0.004
-209.465	-80.400	0.243	-0.080
-208.450	-92.980	-0.424	0.116
-207.436	-137.088	-0.083	-0.009
-206.421	-47.750	-0.040	0.019
-205.406	-200.000	-0.007	0.031
-204.392	-27.635	0.208	-0.118
-203.377	-200.000	-0.040	-0.176
-202.363	217.255	-0.205	0.321
-201.348	316.783	0.135	0.251
-200.333	-200.000	0.012	-0.183
-199.319	-200.000	0.051	-0.254
-198.304	-142.978	0.024	0.002
-197.290	128.719	0.159	0.199
-196.275	-33.258	-0.237	-0.129
-195.260	-139.439	-0.017	0.002
-194.246	-103.100	0.111	0.026
-193.231	303.870	0.166	0.302
-192.217	-142.731	0.185	-0.018
-191.202	-85.902	-0.257	-0.078
-190.187	-200.000	0.043	0.336
-189.173	-3.213	0.114	0.078
-188.158	-25.601	-0.173	-0.100
-187.144	279.246	0.149	0.260
-186.129	105.430	0.289	0.335
-185.114	159.862	0.071	0.097
-184.100	-166.171	0.168	0.007
-183.085	800.000	-0.098	-0.320
-182.071	208.803	-0.094	-0.144
-181.056	-200.000	0.016	0.413
-180.042	-200.000	0.014	0.120
-179.027	-55.797	0.049	0.021
-178.012	37.912	-0.063	-0.055
-176.998	-142.923	0.280	0.027
-175.983	189.319	-0.059	0.087
-174.969	-116.476	-0.174	0.032
-173.954	-101.309	0.228	-0.055
-172.939	800.000	-0.075	0.270
-171.925	-112.688	0.206	0.040
-170.910	129.765	0.208	-0.261
-169.896	800.000	0.072	-0.306
-168.881	93.364	0.078	0.086
-167.866	-98.064	0.205	-0.052
-166.852	-145.241	-0.529	0.047
-165.837	157.042	-0.132	0.178
-164.823	372.143	-0.079	-0.157
-163.808	106.180	-0.297	0.345
-162.793	136.406	0.102	0.130
-161.779	548.308	0.142	0.334
-160.764	-24.486	0.223	-0.130
-159.750	-200.000	0.001	0.025
-158.735	-129.580	0.080	-0.011
-157.720	-30.422	0.176	0.098
-156.706	35.302	0.134	0.115
-155.691	800.000	-0.080	0.248
-154.677	-87.999	-0.086	-0.025
-153.662	-45.842	0.137	0.066
-152.647	-200.000	0.002	0.084
-151.633	208.040	0.254	0.389
-150.618	53.844	-0.209	0.196
-149.604	207.748	0.137	-0.210
-148.589	511.822	0.033	0.074
-147.574	176.396	0.123	-0.175
-146.560	-46.890	0.168	-0.080
-145.545	-200.000	-0.015	0.114
-144.531	-68.152	0.109	-0.042
-143.516	-120.004	0.097	-0.016
-142.502	800.000	0.032	-0.132
-141.487	-68.433	-0.306	0.116
-140.472	104.049	-0.161	0.186
-139.458	-200.000	0.030	0.305
-138.443	168.289	0.146	-0.203
-137.429	290.161	-0.076	0.135
-136.414	-161.299	-0.187	-0.010
-135.399	23.183	0.117	-0.094
-134.385	-151.441	0.127	0.009
-133.370	-95.169	0.346	0.091
-132.356	800.000	0.039	-0.109
-131.341	-182.085	-0.291	0.005
-130.326	-28.985	0.093	-0.052
-129.312	101.142	0.250	0.285
-128.297	-131.988	-0.024	-0.003
-127.283	-79.992	-0.425	-0.140
-126.268	-92.088	-0.178	-0.049
-125.253	58.657	0.210	0.202
-124.239	206.053	-0.137	-0.208
-123.224	-22.896	0.168	-0.099
-122.210	230.457	0.071	0.113
-121.195	-200.000	0.019	0.129
