DTS Sentinel unit serial number:	SN413079Multiplexer serial number:	ORYXHardware model number:	OX4-SRSoftware version number:	ORYX F/W v4.00 Oryx Data Collector v3.7.2.0data status	okinstallation	princeton_trtdifferential loss correction	single-endedforward channel	channel 1reverse channel	N/Adate	2019/09/16time	18:34:35forward acquisition time	60.00reverse acquisition time	0.00gamma	496.2192k internal	0.2306k external	0.2306temperature offset calibration	0.9931default loss term (dB/km)	0.3790temperature slope calibration	1.0000multiplexer offset coefficient	1.0000multiplexer slope coefficient	1.0000fibre end	0.00T internal ref (°C)	36.48T ext. ref 1 (°C)	-0.02T ext. ref 2 (°C)	29.90length (m)	temperature (°C)	Stokes	anti-Stokes-747.200	320.325	-0.085	0.164
-746.185	800.000	-0.078	0.227
-745.171	-155.151	0.032	0.002
-744.156	44.053	-0.118	-0.110
-743.142	-98.333	-0.100	-0.026
-742.127	418.061	-0.057	0.125
-741.112	-33.752	-0.142	0.080
-740.098	-200.000	0.016	0.201
-739.083	8.273	0.248	0.190
-738.069	598.153	-0.062	-0.156
-737.054	72.158	-0.258	-0.273
-736.039	-51.771	-0.289	-0.137
-735.025	-34.303	-0.075	0.042
-734.010	355.385	0.056	-0.114
-732.996	-18.752	0.163	0.103
-731.981	-200.000	-0.018	-0.309
-730.966	-126.532	-0.335	-0.051
-729.952	143.627	-0.212	0.287
-728.937	-200.000	0.001	0.174
-727.923	152.576	0.141	-0.196
-726.908	51.980	-0.225	0.218
-725.894	-70.533	0.059	0.023
-724.879	505.566	-0.030	-0.072
-723.864	22.402	-0.150	-0.124
-722.850	14.039	0.241	0.191
-721.835	-35.194	-0.257	0.142
-720.821	-126.137	-0.266	-0.040
-719.806	394.175	-0.054	0.114
-718.791	-69.180	0.118	-0.046
-717.777	-30.677	0.168	-0.097
-716.762	-17.633	0.193	-0.123
-715.748	279.423	0.054	0.098
-714.733	-200.000	-0.016	0.114
-713.718	486.193	0.077	-0.179
-712.704	27.906	-0.178	-0.153
-711.689	-97.869	-0.521	0.137
-710.675	-25.606	0.207	-0.124
-709.660	23.646	-0.221	-0.185
-708.645	-95.141	-0.134	-0.037
-707.631	-200.000	0.016	-0.216
-706.616	-200.000	0.041	0.230
-705.602	-143.062	0.278	-0.027
-704.587	108.361	-0.079	-0.095
-703.572	-2.615	0.119	0.085
-702.558	-119.415	0.150	-0.026
-701.543	-159.433	0.154	-0.009
-700.529	41.775	-0.281	0.258
-699.514	226.750	0.098	-0.161
-698.499	-200.000	0.040	-0.221
-697.485	-200.000	0.027	0.262
-696.470	-200.000	-0.007	0.121
-695.456	-117.727	0.319	0.058
-694.441	78.542	0.184	-0.200
-693.426	-40.616	0.022	0.011
-692.412	800.000	0.033	-0.130
-691.397	581.479	-0.094	-0.235
-690.383	800.000	0.046	0.182
-689.368	-200.000	0.003	0.020
-688.354	-200.000	-0.020	-0.486
-687.339	-105.945	0.116	0.027
-686.324	-100.368	-0.225	-0.057
-685.310	553.641	-0.047	0.114
-684.295	-200.000	0.063	-0.294
-683.281	127.187	0.118	-0.152
-682.266	-200.000	0.040	0.189
-681.251	-146.251	-0.185	-0.016
-680.237	-107.105	-0.478	-0.107
-679.222	-120.673	-0.218	-0.037
-678.208	-11.603	-0.097	0.065
-677.193	83.292	-0.195	0.215
-676.178	158.076	-0.097	-0.136
-675.164	-200.000	0.031	-0.218
-674.149	-3.096	0.319	0.226
-673.135	800.000	-0.065	-0.245
-672.120	-11.886	0.168	-0.112
-671.105	-200.000	-0.008	-0.197
-670.091	332.326	-0.200	-0.391
-669.076	9.614	-0.234	-0.180
-668.062	-200.000	-0.037	-0.303
-667.047	-0.887	-0.129	0.092
-666.032	177.377	-0.147	0.217
-665.018	-81.359	0.389	0.130
-664.003	-147.106	-0.274	-0.024
-662.989	63.160	0.192	0.195
-661.974	0.755	0.164	0.119
-660.959	800.000	-0.061	0.261
-659.945	171.548	-0.227	0.331
-658.930	800.000	0.053	0.235
-657.916	-16.140	-0.361	0.233
-656.901	271.399	-0.010	-0.017
-655.886	-192.295	0.172	0.002
-654.872	-200.000	-0.015	0.130
-653.857	319.817	0.180	-0.345
-652.843	-153.095	0.348	-0.025
-651.828	-200.000	0.015	-0.430
-650.814	-111.977	0.299	-0.061
-649.799	-200.000	0.051	0.297
-648.784	-43.108	0.229	0.117
-647.770	-200.000	0.042	0.377
-646.755	-200.000	-0.009	0.425
-645.741	385.432	-0.071	0.148
-644.726	249.531	-0.273	-0.469
-643.711	190.789	0.182	0.277
-642.697	800.000	-0.040	-0.135
-641.682	-83.225	-0.122	0.040
-640.668	-168.635	0.022	-0.001
-639.653	-182.097	-0.281	0.005
-638.638	118.352	-0.073	-0.092
-637.624	75.517	0.189	-0.203
-636.609	-79.342	0.354	0.122
-635.595	43.561	-0.118	-0.109
-634.580	-14.976	-0.135	0.087
-633.565	-26.112	0.087	-0.052
-632.551	17.851	-0.109	-0.088
-631.536	252.368	0.145	0.250
-630.522	-53.199	-0.538	-0.250
-629.507	-200.000	0.044	-0.243
-628.492	-200.000	-0.006	-0.055
-627.478	-200.000	-0.043	0.216
-626.463	-200.000	0.044	0.271
-625.449	-200.000	0.013	0.220
-624.434	78.892	-0.193	0.209
-623.419	-133.550	-0.055	-0.007
-622.405	-27.773	-0.152	0.090
-621.390	-44.314	0.210	-0.107
-620.376	-28.411	0.166	0.097
-619.361	49.301	0.189	-0.180
-618.346	134.885	-0.082	0.107
-617.332	-200.000	-0.015	-0.355
-616.317	65.950	0.284	0.292
-615.303	-0.272	-0.260	-0.187
-614.288	-91.207	-0.116	0.034
-613.273	78.464	-0.290	0.313
-612.259	-200.000	-0.017	0.145
-611.244	-200.000	0.004	-0.363
-610.230	-25.697	-0.123	-0.073
-609.215	122.014	-0.153	0.194
-608.201	770.900	0.086	-0.236
-607.186	0.477	-0.213	-0.154
-606.171	76.503	0.044	0.048
-605.157	736.921	-0.136	0.370
-604.142	209.610	0.262	0.415
-603.128	800.000	-0.089	-0.346
-602.113	-200.000	0.014	0.073
-601.098	-68.531	0.372	-0.146
-600.084	-63.810	0.406	-0.168
-599.069	119.207	0.159	-0.199
-598.055	47.161	0.197	-0.185
-597.040	697.876	-0.098	0.259
-596.025	-101.607	-0.085	-0.021
-595.011	-152.360	-0.487	-0.035
-593.996	-156.881	-0.246	-0.015
-592.982	81.817	-0.037	0.040
-591.967	66.697	0.218	-0.224
-590.952	-200.000	-0.011	0.081
-589.938	-41.160	0.194	0.101
-588.923	-200.000	0.004	0.028
-587.909	800.000	0.100	-0.336
-586.894	-29.551	-0.056	-0.033
-585.879	157.123	-0.124	-0.173
-584.865	-75.572	-0.194	-0.070
-583.850	317.042	0.133	0.253
-582.836	127.733	0.199	0.256
-581.821	-200.000	-0.011	-0.149
-580.806	61.919	-0.297	-0.300
-579.792	800.000	-0.028	0.097
-578.777	342.859	0.164	0.324
-577.763	45.350	0.151	-0.141
-576.748	186.772	-0.097	-0.146
-575.733	101.209	0.220	-0.259
-574.719	65.341	0.328	0.335
-573.704	-28.540	-0.136	0.079
-572.690	-36.516	0.030	0.016
-571.675	288.575	0.067	-0.123
-570.661	54.269	0.217	0.211
-569.646	-108.924	0.188	0.041
-568.631	572.228	-0.086	0.211
-567.617	-122.687	0.317	-0.052
-566.602	85.783	0.143	-0.159
-565.588	113.852	-0.118	0.145
-564.573	57.600	-0.101	-0.100
-563.558	51.213	0.073	0.070
-562.544	132.692	0.023	0.030
-561.529	12.199	0.235	-0.182
-560.515	-154.571	0.152	-0.010
-559.500	-111.109	-0.303	0.063
-558.485	68.840	-0.223	-0.231
-557.471	800.000	-0.077	-0.244
-556.456	800.000	-0.044	0.154
-555.442	-11.975	-0.144	0.095
-554.427	-68.718	0.238	0.093
-553.412	49.077	0.156	0.148
-552.398	158.942	-0.145	-0.204
-551.383	-39.200	-0.190	0.101
-550.369	-31.760	-0.157	0.089
-549.354	-68.280	-0.125	-0.049
-548.339	-42.865	-0.074	0.038
-547.325	-200.000	0.034	-0.183
-546.310	205.678	0.114	-0.179
-545.296	-200.000	-0.014	0.072
-544.281	108.845	-0.106	-0.128
-543.266	316.026	-0.095	-0.181
-542.252	293.500	0.181	0.333
-541.237	194.959	0.105	-0.161
-540.223	-200.000	-0.055	-0.264
-539.208	-200.000	0.006	0.100
-538.193	-30.594	0.151	-0.086
-537.179	800.000	-0.014	-0.045
-536.164	-137.249	0.330	0.038
-535.150	-124.904	-0.198	-0.031
-534.135	-200.000	-0.033	-0.158
-533.121	-59.275	0.159	-0.069
-532.106	-18.010	0.235	-0.148
-531.091	-200.000	0.098	-0.528
-530.077	-200.000	0.060	-0.449
-529.062	177.412	-0.230	-0.338
-528.048	-200.000	-0.011	-0.095
-527.033	281.253	-0.034	-0.061
-526.018	-81.669	0.128	0.042
-525.004	-10.194	-0.222	-0.148
-523.989	800.000	0.047	0.148
-522.975	2.905	0.131	0.096
-521.960	-26.857	0.125	0.073
-520.945	-200.000	-0.035	-0.175
-519.931	-96.546	-0.083	-0.022
-518.916	-46.962	-0.199	0.098
-517.902	-1.449	0.214	0.152
-516.887	-113.569	-0.465	-0.092
-515.872	-91.692	-0.325	-0.093
-514.858	-65.169	0.198	0.081
-513.843	-72.186	-0.065	-0.024
-512.829	-65.593	-0.169	0.068
-511.814	-114.192	0.149	0.029
-510.799	-121.053	0.136	0.023
-509.785	-51.704	-0.187	0.088
-508.770	86.460	0.077	-0.085
-507.756	-86.427	-0.270	0.084
-506.741	800.000	-0.057	0.170
-505.726	134.364	0.201	-0.263
-504.712	-200.000	-0.010	-0.199
-503.697	-127.733	-0.274	-0.040
-502.683	147.173	-0.171	-0.232
-501.668	175.898	-0.145	-0.212
-500.653	-35.391	0.186	-0.102
-499.639	-200.000	-0.046	0.219
-498.624	362.946	0.262	0.530
-497.610	-200.000	-0.034	0.257
-496.595	-103.787	0.296	-0.070
-495.581	167.342	0.121	0.173
-494.566	-67.915	0.285	0.112
-493.551	177.906	-0.322	-0.473
-492.537	-200.000	0.012	0.103
-491.522	-68.574	-0.115	-0.045
-490.508	-200.000	-0.007	-0.273
-489.493	-70.709	0.128	0.049
-488.478	800.000	0.049	0.163
-487.464	800.000	-0.023	-0.066
-486.449	-45.682	-0.115	0.057
-485.435	-28.540	0.208	0.121
-484.420	304.810	0.221	0.412
-483.405	179.709	0.108	0.159
-482.391	-13.939	-0.445	0.289
-481.376	39.511	-0.062	-0.056
-480.362	-105.249	0.395	-0.091
-479.347	800.000	-0.090	0.271
-478.332	25.719	0.040	-0.034
-477.318	800.000	-0.054	-0.198
-476.303	-87.261	0.087	0.027
-475.289	-53.167	0.224	0.103
-474.274	355.977	-0.112	-0.225
-473.259	-200.000	-0.020	-0.158
-472.245	-200.000	0.003	-0.351
-471.230	-200.000	0.002	-0.178
-470.216	-200.000	0.033	-0.349
-469.201	89.695	0.127	-0.143
-468.186	351.673	0.080	0.159
-467.172	-92.231	0.045	0.013
-466.157	-30.689	-0.146	0.083
-465.143	-149.921	0.143	-0.011
-464.128	2.245	-0.111	0.080
-463.113	60.456	0.194	0.193
-462.099	-129.211	0.168	0.024
-461.084	104.971	-0.124	0.147
-460.070	73.965	0.044	-0.046
-459.055	240.477	0.134	0.224
-458.040	39.473	0.117	-0.105
-457.026	-88.891	0.361	0.108
-456.011	117.104	0.091	0.113
-454.997	51.609	-0.195	-0.187
-453.982	38.774	0.122	-0.109
-452.968	151.829	-0.053	-0.073
-451.953	-68.918	-0.161	0.062
-450.938	25.449	0.202	-0.169
-449.924	123.453	-0.112	0.141
-448.909	-118.102	-0.219	-0.039
-447.895	-71.973	0.508	-0.190
-446.880	288.397	-0.008	0.015
-445.865	-134.683	0.279	-0.034
-444.851	587.961	-0.020	-0.048
-443.836	-127.302	0.198	0.029
-442.822	-86.940	0.240	-0.074
-441.807	-115.881	-0.112	-0.021
-440.792	-82.598	0.240	-0.078
-439.778	-200.000	-0.051	-0.285
-438.763	384.056	0.094	-0.195
-437.749	38.008	-0.298	-0.267
-436.734	138.510	-0.069	-0.092
-435.719	-200.000	-0.033	0.233
-434.705	-200.000	-0.003	0.097
-433.690	378.710	-0.042	-0.086
-432.676	132.985	0.011	-0.014
-431.661	-143.661	0.328	-0.031
-430.646	-138.812	-0.162	-0.018
-429.632	-124.148	-0.066	0.010
-428.617	-18.975	0.251	-0.157
-427.603	242.962	-0.204	-0.344
-426.588	-200.000	0.021	0.251
-425.573	-200.000	0.041	0.188
-424.559	-7.832	-0.161	-0.109
-423.544	-21.666	-0.197	0.121
-422.530	11.571	-0.120	-0.092
-421.515	93.544	-0.118	-0.135
-420.500	29.947	-0.131	-0.112
-419.486	-200.000	0.039	-0.211
-418.471	372.203	0.124	-0.253
-417.457	396.861	0.064	0.133
-416.442	145.712	0.105	-0.141
-415.428	-200.000	0.025	-0.251
-414.413	-24.212	0.131	-0.078
-413.398	360.479	-0.090	0.181
-412.384	800.000	-0.094	-0.361
-411.369	219.226	0.122	-0.196
-410.355	-200.000	0.001	-0.050
-409.340	209.513	-0.200	0.315
-408.325	-144.660	-0.424	0.039
-407.311	137.792	0.165	0.217
-406.296	-15.376	-0.134	0.086
-405.282	616.806	-0.087	-0.220
-404.267	-200.000	0.035	0.427
-403.252	-28.259	-0.075	0.044
-402.238	-62.812	-0.254	-0.105
-401.223	-60.028	-0.159	0.068
-400.209	-31.757	0.041	0.023
-399.194	16.756	-0.127	0.101
-398.179	204.300	0.116	0.180
-397.165	271.399	-0.075	-0.132
-396.150	245.335	0.159	0.268
-395.136	800.000	-0.015	0.048
-394.121	-200.000	-0.039	0.188
-393.106	-200.000	0.002	0.173
-392.092	800.000	-0.046	0.142
-391.077	502.512	0.012	-0.027
-390.063	54.656	-0.240	-0.232
-389.048	-71.121	-0.086	0.033
-388.033	-97.720	0.039	-0.010
-387.019	-200.000	-0.007	-0.219
-386.004	-200.000	0.008	0.224
-384.990	101.014	0.198	0.231
-383.975	126.966	0.013	-0.017
-382.960	170.037	-0.126	-0.181
-381.946	-127.947	0.515	0.074
-380.931	15.606	0.359	0.283
-379.917	0.190	-0.190	-0.136
-378.902	-131.258	0.581	-0.077
-377.888	-6.028	-0.103	-0.071
-376.873	-91.761	0.051	0.015
-375.858	-68.417	-0.106	0.041
-374.844	35.238	0.102	0.090
-373.829	800.000	-0.086	0.263
-372.815	-69.827	0.050	0.019
-371.800	411.813	-0.081	0.172
-370.785	77.913	-0.086	0.092
-369.771	-56.933	0.427	-0.189
-368.756	-85.151	0.065	-0.020
-367.742	-61.862	0.044	-0.018
-366.727	604.578	0.097	0.242
-365.712	-76.036	0.263	-0.093
-364.698	592.628	-0.102	0.253
-363.683	98.210	0.106	0.122
-362.669	546.510	0.060	-0.143
-361.654	377.971	0.037	-0.076
-360.639	-67.158	0.073	-0.029
-359.625	-200.000	0.001	-0.025
-358.610	-48.958	-0.167	0.080
-357.596	-42.935	0.268	0.136
-356.581	39.498	-0.170	0.153
-355.566	-74.223	-0.181	-0.066
-354.552	93.041	0.244	-0.276
-353.537	-87.930	-0.122	-0.037
-352.523	99.815	0.327	0.379
-351.508	-57.055	0.250	-0.110
-350.493	316.258	-0.125	-0.237
-349.479	295.966	-0.091	-0.167
-348.464	-101.464	-0.091	-0.022
-347.450	-200.000	-0.030	0.484
-346.435	-124.132	0.197	-0.031
-345.420	-54.738	0.092	0.042
-344.406	134.925	-0.049	-0.063
-343.391	-104.831	0.238	0.055
-342.377	520.574	-0.070	0.164
-341.362	-45.298	0.064	-0.032
-340.348	800.000	-0.029	0.117
-339.333	-30.967	-0.360	0.203
-338.318	756.277	-0.069	0.188
-337.304	-165.744	-0.230	-0.010
-336.289	800.000	0.120	0.350
-335.275	800.000	-0.189	0.533
-334.260	-91.718	-0.224	0.064
-333.245	-10.247	0.149	0.099
-332.231	-200.000	0.017	-0.161
-331.216	-36.641	0.106	-0.057
-330.202	82.174	-0.065	-0.071
-329.187	-18.009	0.281	-0.176
-328.172	-108.660	-0.346	0.074
-327.158	-85.265	0.059	-0.018
-326.143	194.726	0.138	0.209
-325.129	7.611	0.160	-0.120
-324.114	246.823	0.174	-0.294
-323.099	104.967	0.156	-0.184
-322.085	-45.069	0.224	-0.112
-321.070	22.054	-0.106	0.087
-320.056	-87.836	0.230	0.069
-319.041	800.000	-0.100	-0.350
-318.026	563.872	-0.093	-0.224
-317.012	-151.519	-0.098	0.007
-315.997	-58.539	-0.280	0.122
-314.983	-84.168	0.199	-0.063
-313.968	-93.042	0.036	0.010
-312.953	800.000	-0.026	-0.099
-311.939	-57.627	0.195	-0.085
-310.924	-47.587	-0.105	0.051
-309.910	-111.977	-0.288	-0.058
-308.895	-55.458	-0.306	-0.137
-307.880	800.000	-0.037	-0.127
-306.866	117.455	0.106	-0.130
-305.851	-103.388	-0.337	-0.079
-304.837	-200.000	-0.048	-0.288
-303.822	-172.323	-0.255	-0.008
-302.807	14.310	-0.204	0.159
-301.793	-116.634	0.303	-0.056
-300.778	202.451	0.140	0.216
-299.764	-200.000	-0.020	-0.189
-298.749	398.916	-0.084	0.176
-297.735	80.541	0.165	-0.177
-296.720	17.098	0.101	-0.080
-295.705	116.946	0.273	0.335
-294.691	800.000	0.090	-0.250
-293.676	-23.295	-0.362	0.217
-292.662	55.749	-0.178	-0.172
-291.647	-176.453	-0.397	0.010
-290.632	222.518	-0.234	-0.377
-289.618	-132.627	0.081	0.010
-288.603	614.433	0.083	0.209
-287.589	-200.000	-0.030	-0.176
-286.574	-100.757	0.085	0.021
-285.559	-200.000	-0.025	-0.255
-284.545	257.783	0.223	-0.384
-283.530	-200.000	0.034	0.286
-282.516	-16.138	0.117	0.074
-281.501	594.711	-0.093	-0.229
-280.486	5.731	0.303	-0.224
-279.472	-153.636	0.045	-0.003
-278.457	21.807	-0.190	-0.155
-277.443	800.000	-0.048	-0.182
-276.428	564.973	0.068	0.164
-275.413	23.143	-0.232	0.191
-274.399	436.254	-0.037	-0.081
-273.384	526.210	0.191	0.448
-272.370	-110.853	-0.109	-0.022
-271.355	-44.247	0.250	-0.125
-270.340	-62.495	0.163	0.068
-269.326	-200.000	-0.009	-0.102
-268.311	-123.693	0.208	0.033
-267.297	-102.193	-0.145	0.035
-266.282	-200.000	0.006	-0.035
-265.267	253.689	0.112	-0.191
-264.253	-88.375	0.049	0.015
-263.238	800.000	0.028	0.106
-262.224	-16.115	-0.161	-0.102
-261.209	-75.589	0.233	0.083
-260.195	181.375	0.241	0.354
-259.180	20.594	0.206	-0.167
-258.165	-54.688	-0.278	-0.125
-257.151	48.583	0.150	0.140
-256.136	-200.000	-0.045	0.200
-255.122	-132.602	-0.214	-0.027
-254.107	-5.680	-0.250	0.171
-253.092	65.653	0.050	0.051
-252.078	-200.000	0.015	0.117
-251.063	-82.443	0.251	0.081
-250.049	-200.000	-0.004	0.237
-249.034	1.645	-0.072	0.052
-248.019	-81.188	0.245	-0.081
-247.005	-200.000	0.001	0.106
-245.990	-104.155	0.303	0.070
-244.976	630.818	0.054	0.135
-243.961	219.922	0.063	0.101
-242.946	3.702	0.243	-0.177
-241.932	-50.505	0.164	0.077
-240.917	2.068	-0.270	-0.194
-239.903	-18.875	0.244	0.151
-238.888	-159.759	0.181	0.010
-237.873	247.194	-0.143	0.241
-236.859	-200.000	0.026	-0.140
-235.844	22.740	-0.237	0.193
-234.830	266.248	-0.118	0.206
-233.815	-200.000	-0.008	0.321
-232.800	-200.000	-0.016	-0.139
-231.786	-111.517	0.086	-0.017
-230.771	-57.316	0.356	-0.156
-229.757	552.899	-0.028	-0.067
-228.742	-200.000	-0.033	0.164
-227.727	11.967	0.074	0.057
-226.713	-20.152	-0.136	0.083
-225.698	-113.876	-0.199	0.038
-224.684	-127.468	0.109	-0.016
-223.669	-200.000	-0.004	0.033
-222.655	4.295	0.237	0.173
-221.640	410.936	0.182	-0.386
-220.625	336.578	0.018	0.035
-219.611	-122.281	-0.121	0.020
-218.596	-200.000	0.007	0.041
-217.582	68.797	0.126	-0.129
-216.567	-70.192	0.275	-0.104
-215.552	217.218	0.044	-0.070
-214.538	12.656	-0.138	-0.106
-213.523	-12.779	0.099	-0.064
-212.509	-81.804	0.079	0.026
-211.494	550.928	-0.062	0.147
-210.479	-200.000	-0.004	0.167
-209.465	420.070	0.067	-0.143
-208.450	-200.000	0.028	0.137
-207.436	-62.146	-0.175	-0.073
-206.421	41.784	-0.222	0.200
-205.406	122.387	-0.134	-0.167
-204.392	-200.000	-0.009	0.181
-203.377	218.687	-0.111	-0.176
-202.363	-37.700	-0.218	0.115
-201.348	226.698	-0.091	0.147
-200.333	-76.774	-0.353	-0.123
-199.319	-1.769	0.161	0.113
-198.304	-148.885	-0.173	-0.014
-197.290	491.469	-0.141	-0.321
-196.275	655.741	-0.099	-0.252
-195.260	-200.000	-0.017	0.157
-194.246	-200.000	0.006	0.075
-193.231	-27.053	0.066	-0.038
-192.217	1.763	-0.531	-0.381
-191.202	-110.906	-0.228	0.047
-190.187	47.745	-0.072	-0.067
-189.173	-55.299	-0.415	-0.185
-188.158	-142.997	0.151	-0.015
-187.144	88.411	0.128	0.141
-186.129	106.626	-0.050	0.059
-185.114	231.908	-0.067	-0.110
-184.100	234.297	0.106	0.174
-183.085	-76.674	-0.351	-0.122
-182.071	44.497	0.100	-0.091
-181.056	800.000	0.018	-0.070
-180.042	134.092	-0.019	-0.025
-179.027	-200.000	-0.031	-0.145
-178.012	-13.759	-0.380	-0.244
-176.998	-51.709	0.274	0.127
-175.983	-144.944	-0.224	0.020
-174.969	-60.294	-0.243	-0.103
-173.954	-40.188	0.322	0.167
-172.939	-74.525	-0.256	0.092
-171.925	125.699	0.167	0.210
-170.910	-129.672	0.263	0.036
-169.896	-200.000	-0.066	0.481
-168.881	126.862	-0.198	0.250
-167.866	312.200	-0.118	0.220
-166.852	358.085	-0.094	-0.187
-165.837	-178.932	-0.302	-0.007
-164.823	-200.000	-0.016	0.128
-163.808	642.477	-0.091	-0.230
-162.793	-23.186	0.049	-0.030
-161.779	-75.712	0.182	0.064
-160.764	-144.061	-0.110	-0.010
-159.750	800.000	-0.024	-0.080
-158.735	80.092	-0.147	-0.157
-157.720	195.458	-0.272	0.411
-156.706	-29.259	-0.224	-0.127
-155.691	-16.615	-0.252	0.158
-154.677	189.110	0.084	0.125
-153.662	-200.000	0.017	-0.298
-152.647	-200.000	0.046	0.538
-151.633	-131.888	-0.492	-0.064
-150.618	-155.983	0.167	-0.011
-149.604	227.083	-0.138	0.222
-148.589	14.127	0.154	0.119
-147.574	-43.995	0.151	0.075
-146.560	-128.246	-0.313	0.044
-145.545	-200.000	-0.009	0.492
-144.531	-139.500	-0.369	0.039
-143.516	181.310	-0.083	0.122
-142.502	-139.062	0.113	-0.012
-141.487	240.785	0.099	0.164
-140.472	147.849	-0.084	-0.113
-139.458	-11.325	0.125	0.081
-138.443	-200.000	0.018	0.257
-137.429	238.468	0.060	-0.100
-136.414	-8.676	0.033	-0.022
-135.399	346.593	0.119	0.233
-134.385	-11.203	0.443	0.290
-133.370	97.047	-0.034	0.039
-132.356	-200.000	0.022	-0.172
-131.341	-106.286	-0.066	-0.015
-130.326	136.226	0.018	0.023
-129.312	16.843	-0.143	-0.113
-128.297	-200.000	-0.024	-0.114
-127.283	-3.591	0.158	-0.109
-126.268	52.969	0.141	-0.134
-125.253	-200.000	0.026	-0.209
-124.239	800.000	0.046	-0.128
-123.224	731.279	-0.078	0.207
-122.210	258.346	-0.111	0.190
-121.195	96.738	0.094	0.107
