DTS Sentinel unit serial number:	SN413079Multiplexer serial number:	ORYXHardware model number:	OX4-SRSoftware version number:	ORYX F/W v4.00 Oryx Data Collector v3.7.2.0data status	okinstallation	princeton_trtdifferential loss correction	single-endedforward channel	channel 1reverse channel	N/Adate	2019/09/12time	10:24:11forward acquisition time	60.00reverse acquisition time	0.00gamma	496.2192k internal	0.2298k external	0.2298temperature offset calibration	1.0044default loss term (dB/km)	0.3790temperature slope calibration	1.0000multiplexer offset coefficient	1.0000multiplexer slope coefficient	1.0000fibre end	0.00T internal ref (°C)	36.86T ext. ref 1 (°C)	1.89T ext. ref 2 (°C)	34.83length (m)	temperature (°C)	Stokes	anti-Stokes-747.200	796.042	-0.010	0.029
-746.185	-80.412	-0.105	0.036
-745.171	79.241	-0.182	-0.199
-744.156	800.000	0.055	0.186
-743.142	450.520	0.023	0.053
-742.127	-16.067	-0.095	-0.062
-741.112	-156.961	-0.319	0.020
-740.098	-200.000	-0.004	0.240
-739.083	-71.534	-0.315	-0.120
-738.069	-200.000	-0.066	0.354
-737.054	-104.013	0.125	-0.030
-736.039	-44.273	-0.281	-0.144
-735.025	-141.896	-0.143	0.015
-734.010	-37.646	-0.221	0.120
-732.996	-164.916	-0.215	0.010
-731.981	-200.000	0.023	-0.168
-730.966	65.069	0.521	-0.537
-729.952	-7.235	0.218	-0.150
-728.937	800.000	-0.083	-0.244
-727.923	-44.412	0.102	-0.052
-726.908	71.522	-0.024	-0.025
-725.894	87.140	0.166	-0.187
-724.879	-173.588	0.350	0.011
-723.864	112.897	-0.171	-0.212
-722.850	256.879	-0.240	-0.420
-721.835	-120.918	-0.244	0.042
-720.821	-200.000	-0.003	-0.037
-719.806	-103.959	0.266	-0.063
-718.791	467.751	-0.028	-0.064
-717.777	90.833	0.060	-0.068
-716.762	-114.826	-0.104	0.020
-715.748	-151.807	-0.128	-0.010
-714.733	210.555	0.145	-0.232
-713.718	200.468	-0.213	0.334
-712.704	-78.485	-0.252	-0.088
-711.689	-200.000	-0.014	-0.250
-710.675	-71.125	0.057	-0.022
-709.660	-152.126	-0.176	0.013
-708.645	2.401	0.145	-0.107
-707.631	165.001	-0.118	0.170
-706.616	-76.908	-0.278	0.099
-705.602	-178.522	-0.367	-0.009
-704.587	800.000	0.077	0.322
-703.572	200.580	-0.143	-0.224
-702.558	94.747	-0.169	0.195
-701.543	-106.193	-0.147	0.034
-700.529	800.000	0.176	0.600
-699.514	-200.000	-0.003	0.141
-698.499	800.000	0.087	-0.272
-697.485	-55.844	0.252	-0.115
-696.470	-159.531	0.317	0.018
-695.456	-133.024	-0.229	-0.030
-694.441	-142.160	-0.143	0.014
-693.426	-70.320	0.410	-0.158
-692.412	800.000	-0.038	-0.145
-691.397	67.025	0.123	-0.127
-690.383	-200.000	0.018	0.156
-689.368	-98.172	-0.280	0.073
-688.354	187.324	-0.184	0.280
-687.339	7.008	-0.361	-0.274
-686.324	-101.745	-0.297	-0.073
-685.310	-58.454	-0.145	-0.064
-684.295	-151.338	-0.342	0.026
-683.281	-200.000	-0.053	0.436
-682.266	-0.487	-0.211	0.152
-681.251	216.448	0.073	-0.119
-680.237	-101.213	-0.235	-0.058
-679.222	300.256	-0.154	-0.289
-678.208	800.000	0.084	-0.266
-677.193	209.553	-0.101	0.161
-676.178	7.174	-0.055	-0.042
-675.164	-187.173	0.274	0.004
-674.149	-7.049	-0.138	-0.095
-673.135	486.847	-0.108	-0.250
-672.120	257.402	0.108	-0.189
-671.105	187.525	-0.085	-0.129
-670.091	262.136	-0.138	-0.244
-669.076	800.000	-0.050	-0.214
-668.062	-147.441	0.090	0.008
-667.047	-200.000	0.079	0.472
-666.032	211.919	-0.183	0.294
-665.018	-18.667	-0.252	-0.160
-664.003	-23.903	-0.388	-0.236
-662.989	-81.316	-0.198	-0.066
-661.974	42.356	-0.153	-0.142
-660.959	626.112	0.030	0.077
-659.945	-29.684	-0.142	0.083
-658.930	11.949	-0.073	-0.057
-657.916	793.043	-0.080	0.224
-656.901	30.961	-0.291	-0.253
-655.886	-200.000	-0.039	0.348
-654.872	-200.000	0.023	0.134
-653.857	800.000	-0.031	-0.097
-652.843	387.295	-0.205	0.431
-651.828	-169.853	-0.232	0.008
-650.814	-37.035	0.163	0.089
-649.799	800.000	0.063	0.245
-648.784	-75.637	-0.198	0.072
-647.770	255.721	0.041	0.071
-646.755	601.823	0.083	0.209
-645.741	800.000	-0.037	-0.117
-644.726	134.979	0.067	-0.089
-643.711	-200.000	0.016	0.144
-642.697	299.586	0.128	-0.241
-641.682	-200.000	0.014	-0.327
-640.668	-200.000	-0.032	-0.146
-639.653	-38.521	0.340	0.183
-638.638	9.847	0.212	-0.164
-637.624	-125.916	-0.398	-0.061
-636.609	278.390	-0.103	0.187
-635.595	64.536	-0.209	0.214
-634.580	-141.376	0.237	-0.024
-633.565	-137.623	-0.119	-0.014
-632.551	148.094	-0.069	0.095
-631.536	-200.000	0.022	0.103
-630.522	800.000	-0.023	0.088
-629.507	-200.000	0.011	-0.228
-628.492	60.437	0.182	-0.183
-627.478	190.991	0.185	0.283
-626.463	476.723	-0.074	-0.170
-625.449	-200.000	-0.014	0.079
-624.434	800.000	-0.050	0.192
-623.419	116.066	0.057	-0.071
-622.405	-86.129	-0.194	-0.061
-621.390	-106.096	0.042	0.010
-620.376	597.538	0.109	-0.274
-619.361	800.000	-0.060	0.211
-618.346	800.000	0.036	0.105
-617.332	62.381	-0.265	-0.269
-616.317	-43.746	-0.256	0.131
-615.303	-13.992	0.134	0.088
-614.288	367.095	-0.126	0.258
-613.273	-200.000	0.001	0.074
-612.259	-51.169	-0.304	0.145
-611.244	49.870	0.110	0.106
-610.230	-86.050	0.201	-0.063
-609.215	800.000	0.040	-0.134
-608.201	-10.776	-0.235	-0.158
-607.186	-103.209	-0.219	0.053
-606.171	9.328	0.156	-0.120
-605.157	-104.320	0.078	-0.018
-604.142	121.429	-0.155	-0.197
-603.128	-121.161	0.202	0.034
-602.113	800.000	-0.068	0.295
-601.098	-58.331	-0.285	-0.126
-600.084	35.275	0.229	-0.204
-599.069	-29.517	0.078	-0.045
-598.055	262.257	-0.052	0.091
-597.040	-55.702	0.341	0.155
-596.025	-90.880	-0.200	-0.058
-595.011	248.705	-0.112	0.193
-593.996	227.090	0.092	-0.153
-592.982	219.072	-0.207	-0.336
-591.967	-200.000	-0.008	0.302
-590.952	34.793	0.146	0.129
-589.938	315.327	-0.090	-0.172
-588.923	-200.000	0.015	-0.124
-587.909	120.738	-0.221	-0.279
-586.894	123.012	-0.206	0.261
-585.879	-164.663	-0.231	-0.011
-584.865	-137.797	0.089	0.010
-583.850	800.000	0.037	0.110
-582.836	-51.751	0.137	0.065
-581.821	-105.387	-0.069	0.016
-580.806	-56.886	-0.164	-0.073
-579.792	68.305	-0.199	-0.206
-578.777	-200.000	-0.021	-0.182
-577.763	-65.507	0.424	0.173
-576.748	-200.000	-0.017	0.186
-575.733	-85.686	-0.287	-0.090
-574.719	211.892	-0.064	-0.103
-573.704	239.486	0.117	0.198
-572.690	-13.641	0.059	0.038
-571.675	800.000	0.082	0.349
-570.661	-149.645	0.167	0.013
-569.646	-21.071	-0.274	0.170
-568.631	481.334	-0.031	-0.072
-567.617	128.819	0.235	0.303
-566.602	-60.567	0.363	0.156
-565.588	234.086	0.108	-0.180
-564.573	630.372	0.094	0.242
-563.558	34.089	0.226	-0.200
-562.544	-130.869	-0.213	0.029
-561.529	69.230	0.160	0.166
-560.515	-13.897	-0.038	-0.025
-559.500	71.373	-0.236	-0.248
-558.485	-107.608	0.184	-0.041
-557.471	-117.594	0.174	0.032
-556.456	-5.789	-0.360	-0.250
-555.442	800.000	0.090	0.267
-554.427	-200.000	-0.034	0.325
-553.412	800.000	-0.046	0.149
-552.398	-122.772	-0.280	-0.046
-551.383	112.131	0.148	0.181
-550.369	262.284	-0.035	-0.062
-549.354	-145.286	0.158	-0.014
-548.339	87.981	0.111	0.125
-547.325	-74.115	-0.150	0.055
-546.310	-199.243	0.167	0.001
-545.296	-51.358	-0.192	0.091
-544.281	800.000	0.056	0.187
-543.266	292.200	0.198	-0.365
-542.252	184.904	0.085	0.128
-541.237	-61.594	0.113	0.048
-540.223	-149.729	-0.103	0.008
-539.208	-33.598	0.120	0.067
-538.193	239.228	0.143	-0.241
-537.179	-99.821	0.137	-0.035
-536.164	130.895	0.021	0.027
-535.150	-47.006	-0.289	0.143
-534.135	-59.473	-0.147	-0.064
-533.121	-150.913	0.368	0.028
-532.106	-159.715	-0.199	-0.011
-531.091	144.973	-0.193	-0.262
-530.077	33.744	-0.083	-0.073
-529.062	-86.997	-0.233	-0.072
-528.048	137.555	0.246	-0.325
-527.033	-200.000	0.084	-0.418
-526.018	-77.262	-0.072	-0.025
-525.004	100.676	0.195	-0.230
-523.989	800.000	-0.101	-0.339
-522.975	1.257	0.075	-0.054
-521.960	-71.508	-0.452	-0.171
-520.945	-96.269	-0.068	0.018
-519.931	-44.182	0.225	-0.114
-518.916	800.000	0.166	0.528
-517.902	98.007	0.105	-0.122
-516.887	43.372	0.115	-0.107
-515.872	171.313	0.161	-0.234
-514.858	-200.000	-0.034	0.439
-513.843	-90.783	0.069	-0.020
-512.829	-142.399	-0.226	-0.022
-511.814	-32.163	0.163	0.092
-510.799	721.082	-0.080	-0.215
-509.785	-200.000	0.065	-0.603
-508.770	28.997	-0.269	-0.231
-507.756	-200.000	0.025	-0.251
-506.741	800.000	0.020	-0.058
-505.726	-30.302	0.172	-0.099
-504.712	-200.000	-0.050	0.664
-503.697	736.538	0.062	0.169
-502.683	-200.000	-0.008	-0.177
-501.668	206.830	0.060	-0.094
-500.653	800.000	-0.066	-0.270
-499.639	18.081	0.340	-0.274
-498.624	252.250	-0.142	-0.244
-497.610	235.986	0.193	0.323
-496.595	59.571	-0.278	-0.277
-495.581	-90.545	-0.219	0.064
-494.566	800.000	0.067	0.250
-493.551	111.086	0.028	-0.034
-492.537	-200.000	-0.006	0.103
-491.522	-46.113	-0.122	-0.061
-490.508	243.802	-0.350	-0.593
-489.493	1.365	-0.117	0.085
-488.478	-200.000	-0.002	0.182
-487.464	-119.690	0.191	0.033
-486.449	-108.381	0.237	-0.052
-485.435	-2.437	-0.126	-0.090
-484.420	352.194	-0.140	-0.281
-483.405	-40.593	-0.354	-0.186
-482.391	-4.291	-0.178	0.124
-481.376	-200.000	0.030	-0.142
-480.362	68.513	-0.232	-0.241
-479.347	-73.539	-0.005	0.002
-478.332	-117.553	0.249	-0.045
-477.318	-145.891	-0.195	-0.018
-476.303	738.461	-0.041	-0.111
-475.289	19.250	-0.184	-0.149
-474.274	42.772	0.374	0.345
-473.259	354.450	0.138	-0.276
-472.245	800.000	0.100	0.292
-471.230	-190.673	0.357	-0.004
-470.216	580.580	-0.106	-0.263
-469.201	-45.339	0.035	0.017
-468.186	-35.900	-0.092	-0.050
-467.172	252.417	-0.095	0.164
-466.157	800.000	0.036	0.142
-465.143	382.383	0.202	-0.420
-464.128	174.638	-0.128	0.187
-463.113	4.949	0.143	0.106
-462.099	-200.000	-0.022	-0.102
-461.084	94.109	0.263	0.301
-460.070	160.612	0.278	0.392
-459.055	201.974	-0.120	0.188
-458.040	-14.378	-0.122	0.080
-457.026	-200.000	0.018	-0.159
-456.011	36.003	-0.012	0.011
-454.997	-59.453	0.197	-0.085
-453.982	575.097	-0.042	-0.103
-452.968	800.000	-0.088	0.261
-451.953	319.239	-0.060	-0.114
-450.938	-200.000	-0.003	-0.140
-449.924	-58.135	0.040	0.018
-448.909	-140.967	0.203	-0.021
-447.895	83.124	-0.055	0.061
-446.880	121.581	0.150	0.189
-445.865	-66.449	-0.139	-0.056
-444.851	-200.000	0.043	-0.252
-443.836	-200.000	0.034	0.244
-442.822	-70.829	0.138	0.053
-441.807	-17.113	-0.293	0.187
-440.792	379.835	-0.062	-0.128
-439.778	-200.000	-0.008	0.505
-438.763	-77.947	-0.267	-0.093
-437.749	609.659	-0.124	0.312
-436.734	-200.000	0.078	0.634
-435.719	48.691	-0.199	-0.188
-434.705	376.568	-0.076	0.157
-433.690	371.895	-0.083	0.170
-432.676	-200.000	0.021	0.295
-431.661	26.684	0.169	-0.142
-430.646	-44.599	-0.313	-0.158
-429.632	-113.450	0.309	0.061
-428.617	217.825	0.048	-0.077
-427.603	69.805	0.100	0.104
-426.588	384.339	-0.214	-0.445
-425.573	-25.994	-0.083	0.049
-424.559	-107.895	0.158	0.035
-423.544	-136.239	0.365	0.043
-422.530	-99.899	0.121	-0.030
-421.515	-200.000	0.017	-0.139
-420.500	21.437	0.096	0.079
-419.486	-200.000	0.039	-0.182
-418.471	100.299	-0.077	-0.090
-417.457	298.292	0.088	-0.162
-416.442	-200.000	-0.022	-0.124
-415.428	-37.049	-0.242	-0.131
-414.413	621.826	0.020	-0.052
-413.398	285.952	0.081	0.147
-412.384	-78.063	0.147	0.051
-411.369	-14.010	-0.247	0.161
-410.355	743.653	0.034	0.091
-409.340	295.440	0.082	0.150
-408.325	56.489	0.181	-0.177
-407.311	800.000	0.049	0.191
-406.296	42.651	-0.149	0.137
-405.282	800.000	0.023	0.069
-404.267	-65.093	0.304	0.123
-403.252	-43.313	0.115	-0.059
-402.238	40.061	-0.019	0.018
-401.223	154.669	0.100	-0.139
-400.209	-172.789	-0.402	0.013
-399.194	-71.068	0.209	-0.079
-398.179	35.399	-0.291	0.257
-397.165	-200.000	0.012	-0.186
-396.150	-200.000	0.016	-0.145
-395.136	550.478	0.189	-0.457
-394.121	256.652	-0.095	0.164
-393.106	-102.088	0.232	0.056
-392.092	67.103	0.178	0.183
-391.077	169.372	-0.053	0.076
-390.063	-52.131	-0.352	0.164
-389.048	-200.000	-0.009	-0.042
-388.033	127.530	0.099	0.127
-387.019	-200.000	-0.015	-0.186
-386.004	-132.704	-0.207	0.027
-384.990	564.077	-0.105	-0.256
-383.975	800.000	-0.080	-0.352
-382.960	59.540	0.242	0.240
-381.946	225.496	0.042	-0.069
-380.931	320.396	-0.105	-0.201
-379.917	10.661	0.242	-0.186
-378.902	16.766	-0.150	0.119
-377.888	-3.672	0.118	-0.082
-376.873	-200.000	-0.037	0.331
-375.858	-200.000	0.034	0.341
-374.844	-200.000	-0.004	-0.211
-373.829	185.186	-0.189	-0.283
-372.815	343.538	0.206	0.406
-371.800	518.509	0.032	0.075
-370.785	755.563	0.048	-0.131
-369.771	-200.000	-0.023	-0.136
-368.756	458.875	0.050	0.111
-367.742	800.000	0.046	-0.139
-366.727	89.911	0.141	0.159
-365.712	-0.268	0.172	0.123
-364.698	800.000	0.095	0.348
-363.683	96.985	-0.062	0.071
-362.669	-139.287	-0.251	0.027
-361.654	-100.821	-0.166	0.041
-360.639	95.866	0.141	0.162
-359.625	-56.404	-0.113	-0.050
-358.610	28.930	-0.136	-0.116
-357.596	29.308	0.078	0.067
-356.581	-200.000	0.034	0.225
-355.566	-119.872	0.406	0.070
-354.552	-23.279	0.384	0.232
-353.537	-200.000	-0.013	-0.185
-352.523	43.399	0.130	0.120
-351.508	-200.000	0.003	-0.326
-350.493	-12.423	-0.110	0.072
-349.479	-77.684	-0.373	-0.130
-348.464	800.000	-0.026	0.091
-347.450	-200.000	-0.025	0.133
-346.435	-121.445	-0.232	-0.039
-345.420	-11.288	-0.085	-0.056
-344.406	-91.953	-0.210	0.060
-343.391	-115.792	0.257	0.048
-342.377	-200.000	-0.177	-0.000
-341.362	-77.939	0.266	-0.092
-340.348	-72.558	0.209	0.077
-339.333	138.354	-0.160	0.211
-338.318	-16.656	0.178	0.113
-337.304	800.000	0.083	0.280
-336.289	147.782	0.149	0.202
-335.275	-59.124	-0.179	-0.077
-334.260	211.216	-0.173	-0.273
-333.245	162.926	0.048	0.068
-332.231	-9.032	0.147	-0.099
-331.216	-84.866	0.069	-0.022
-330.202	160.141	-0.239	-0.335
-329.187	18.527	0.154	-0.124
-328.172	126.337	-0.176	-0.223
-327.158	63.676	0.130	0.131
-326.143	201.689	-0.185	-0.287
-325.129	-89.267	-0.219	0.065
-324.114	-29.354	0.275	0.158
-323.099	-160.782	0.419	0.022
-322.085	-83.510	-0.315	0.101
-321.070	178.902	0.168	0.246
-320.056	-50.416	0.201	-0.095
-319.041	-131.677	-0.071	-0.009
-318.026	-200.000	-0.067	-0.334
-317.012	-89.643	-0.058	-0.017
-315.997	126.412	0.191	-0.243
-314.983	-200.000	-0.001	0.166
-313.968	70.839	-0.182	-0.189
-312.953	-130.704	-0.067	-0.009
-311.939	-71.309	-0.266	-0.100
-310.924	92.321	-0.342	-0.387
-309.910	-91.604	0.216	-0.062
-308.895	54.111	0.152	0.147
-307.880	353.899	-0.072	0.143
-306.866	10.458	-0.439	0.336
-305.851	14.316	-0.185	0.144
-304.837	94.654	0.054	0.062
-303.822	-54.992	0.185	-0.084
-302.807	53.104	-0.088	0.085
-301.793	-200.000	-0.086	0.603
-300.778	-200.000	0.016	0.138
-299.764	-200.000	0.024	-0.130
-298.749	800.000	-0.082	-0.341
-297.735	86.912	-0.320	-0.354
-296.720	114.965	0.132	0.161
-295.705	-30.089	-0.094	0.054
-294.691	-59.465	-0.267	0.115
-293.676	3.362	-0.304	0.222
-292.662	41.679	-0.118	0.107
-291.647	800.000	0.075	-0.237
-290.632	-58.181	-0.255	0.111
-289.618	147.361	0.197	-0.266
-288.603	-43.121	-0.186	-0.095
-287.589	800.000	-0.014	-0.052
-286.574	-69.619	-0.167	0.064
-285.559	-82.626	-0.316	0.103
-284.545	12.887	0.128	0.099
-283.530	-55.917	-0.173	-0.077
-282.516	-1.341	-0.138	-0.098
-281.501	63.017	-0.101	0.102
-280.486	-49.353	-0.184	-0.088
-279.472	663.865	-0.067	-0.172
-278.457	46.853	-0.179	0.167
-277.443	172.591	0.079	0.114
-276.428	-53.588	-0.190	-0.087
-275.413	-200.000	0.040	0.180
-274.399	-105.373	-0.038	-0.009
-273.384	-165.176	0.252	-0.011
-272.370	-126.313	0.145	-0.022
-271.355	-40.606	-0.387	0.201
-270.340	-200.000	0.015	0.093
-269.326	-90.021	0.138	-0.040
-268.311	-23.385	0.302	0.182
-267.297	483.057	0.030	-0.069
-266.282	800.000	-0.052	0.159
-265.267	149.875	-0.101	0.137
-264.253	201.295	0.060	0.093
-263.238	215.795	0.194	0.308
-262.224	123.367	0.243	-0.306
-261.209	25.648	-0.303	0.252
-260.195	514.429	-0.003	0.006
-259.180	-78.741	-0.163	-0.056
-258.165	-66.369	-0.272	-0.108
-257.151	-44.459	0.047	-0.024
-256.136	800.000	-0.060	0.230
-255.122	-158.791	0.541	0.031
-254.107	93.257	0.088	-0.099
-253.092	-59.321	-0.273	0.118
-252.078	-200.000	-0.062	0.288
-251.063	255.460	-0.052	-0.089
-250.049	-88.819	-0.234	-0.069
-249.034	800.000	0.023	-0.071
-248.019	182.039	-0.095	-0.140
-247.005	327.946	-0.137	-0.264
-245.990	81.116	-0.030	0.033
-244.976	-188.226	0.346	0.004
-243.961	-15.050	0.229	0.147
-242.946	800.000	0.042	-0.157
-241.932	128.052	0.163	-0.207
-240.917	800.000	0.097	0.281
-239.903	77.086	0.207	0.220
-238.888	-73.677	0.183	-0.067
-237.873	40.976	-0.230	0.208
-236.859	-171.357	0.326	0.011
-235.844	-200.000	0.023	0.158
-234.830	-18.002	-0.097	-0.061
-233.815	48.344	0.203	-0.190
-232.800	800.000	0.060	-0.245
-231.786	-138.367	0.305	-0.034
-230.771	-200.000	0.027	-0.149
-229.757	-200.000	-0.039	-0.289
-228.742	118.079	0.258	0.318
-227.727	33.399	-0.184	-0.159
-226.713	-186.179	-0.116	-0.002
-225.698	466.606	0.048	-0.107
-224.684	-127.485	-0.211	0.031
-223.669	64.930	0.111	0.112
-222.655	-69.074	-0.196	-0.075
-221.640	-86.388	0.266	-0.082
-220.625	-14.226	0.242	0.156
-219.611	-171.669	0.352	0.012
-218.596	27.381	0.144	-0.121
-217.582	-3.492	-0.265	-0.185
-216.567	109.317	0.114	0.137
-215.552	272.346	-0.189	0.333
-214.538	800.000	-0.067	0.210
-213.523	58.060	0.048	-0.047
-212.509	-135.776	0.156	0.019
-211.494	-128.503	-0.276	-0.039
-210.479	-200.000	-0.053	-0.261
-209.465	-152.753	0.247	0.018
-208.450	92.444	0.196	-0.221
-207.436	-200.000	-0.025	0.283
-206.421	144.487	0.252	0.337
-205.406	49.524	-0.260	-0.245
-204.392	83.422	-0.211	-0.229
-203.377	-88.296	-0.152	0.045
-202.363	54.607	0.352	0.339
-201.348	-57.141	0.255	0.112
-200.333	-200.000	0.003	-0.368
-199.319	-34.852	0.281	-0.154
-198.304	41.494	-0.047	0.043
-197.290	-200.000	-0.012	0.125
-196.275	-86.016	-0.141	-0.044
-195.260	28.170	0.372	0.314
-194.246	326.611	0.112	-0.213
-193.231	-125.443	-0.110	-0.017
-192.217	-200.000	-0.001	-0.088
-191.202	-200.000	0.039	0.185
-190.187	-200.000	-0.003	-0.093
-189.173	-189.336	-0.291	0.003
-188.158	-200.000	-0.003	-0.263
-187.144	108.305	-0.189	-0.226
-186.129	390.947	0.148	0.306
-185.114	-200.000	0.005	0.094
-184.100	8.532	-0.327	0.246
-183.085	-46.191	0.205	0.101
-182.071	800.000	0.087	-0.328
-181.056	-200.000	-0.012	0.124
-180.042	-77.575	-0.117	-0.041
-179.027	-200.000	-0.003	0.327
-178.012	-53.049	-0.144	-0.066
-176.998	103.076	-0.128	-0.150
-175.983	-14.885	0.446	-0.286
-174.969	-31.599	-0.113	-0.063
-173.954	-29.604	0.113	-0.064
-172.939	-90.643	-0.145	-0.042
-171.925	-89.780	-0.357	-0.104
-170.910	-128.164	-0.304	0.043
-169.896	-200.000	-0.027	-0.162
-168.881	793.135	0.119	-0.327
-167.866	-125.555	0.164	-0.025
-166.852	30.191	0.450	-0.383
-165.837	92.069	-0.066	-0.075
-164.823	-57.359	0.353	-0.155
-163.808	-89.882	-0.306	0.089
-162.793	16.615	-0.166	0.131
-161.779	800.000	0.161	0.491
-160.764	-66.146	-0.470	0.187
-159.750	420.667	0.102	-0.219
-158.735	-13.599	-0.113	-0.073
-157.720	-200.000	0.009	0.086
-156.706	67.754	-0.193	-0.197
-155.691	-75.119	0.315	-0.112
-154.677	-111.334	0.364	-0.074
-153.662	-15.123	-0.094	0.060
-152.647	90.377	0.077	0.086
-151.633	26.668	-0.155	-0.130
-150.618	800.000	0.035	-0.130
-149.604	-153.566	0.186	-0.013
-148.589	-59.361	-0.070	-0.030
-147.574	-200.000	0.003	0.261
-146.560	-0.247	0.169	0.120
-145.545	-200.000	-0.025	-0.315
-144.531	-103.146	0.081	-0.019
-143.516	-167.318	0.283	0.011
-142.502	800.000	-0.049	-0.140
-141.487	232.349	0.051	-0.084
-140.472	-37.819	0.035	-0.019
-139.458	-3.938	-0.169	-0.117
-138.443	800.000	0.056	-0.233
-137.429	-148.871	-0.132	0.011
-136.414	-138.350	-0.123	0.014
-135.399	63.530	0.149	-0.149
-134.385	93.250	0.025	0.028
-133.370	133.752	0.171	-0.221
-132.356	-66.884	0.420	0.165
-131.341	406.704	-0.136	0.285
-130.326	800.000	-0.051	0.212
-129.312	-200.000	-0.001	-0.048
-128.297	-61.583	0.251	0.105
-127.283	-79.292	0.241	0.081
-126.268	-26.670	0.147	0.086
-125.253	-86.200	0.097	0.030
-124.239	-79.540	-0.263	0.088
-123.224	98.424	-0.196	-0.225
-122.210	-20.880	0.139	0.085
-121.195	-200.000	-0.027	-0.305
