DTS Sentinel unit serial number:	SN413079Multiplexer serial number:	ORYXHardware model number:	OX4-SRSoftware version number:	ORYX F/W v4.00 Oryx Data Collector v3.7.2.0data status	okinstallation	princeton_trtdifferential loss correction	single-endedforward channel	channel 1reverse channel	N/Adate	2019/09/15time	05:38:35forward acquisition time	60.00reverse acquisition time	0.00gamma	496.2192k internal	0.2325k external	0.2325temperature offset calibration	0.9991default loss term (dB/km)	0.3790temperature slope calibration	1.0000multiplexer offset coefficient	1.0000multiplexer slope coefficient	1.0000fibre end	0.00T internal ref (°C)	30.62T ext. ref 1 (°C)	4.76T ext. ref 2 (°C)	25.76length (m)	temperature (°C)	Stokes	anti-Stokes-747.200	-90.139	-0.085	-0.025
-746.185	-63.562	-0.154	-0.064
-745.171	-113.397	-0.638	-0.126
-744.156	-74.686	0.173	0.063
-743.142	-116.022	0.455	0.085
-742.127	527.395	-0.047	0.112
-741.112	-70.718	-0.177	0.068
-740.098	191.813	-0.181	0.275
-739.083	800.000	-0.037	0.139
-738.069	-34.507	-0.139	0.077
-737.054	298.949	-0.087	0.161
-736.039	800.000	-0.029	0.124
-735.025	-150.627	0.262	0.020
-734.010	800.000	-0.124	-0.346
-732.996	800.000	-0.136	-0.511
-731.981	800.000	0.027	-0.087
-730.966	-180.027	-0.262	-0.006
-729.952	37.762	-0.405	-0.363
-728.937	12.254	-0.053	0.041
-727.923	-66.078	0.213	0.086
-726.908	800.000	-0.046	-0.173
-725.894	346.564	-0.048	-0.096
-724.879	-7.083	-0.093	0.064
-723.864	132.484	0.043	-0.056
-722.850	207.972	-0.079	0.124
-721.835	131.584	0.196	-0.254
-720.821	-127.118	-0.442	0.065
-719.806	-80.444	0.111	-0.037
-718.791	-19.698	-0.249	-0.155
-717.777	-42.548	-0.135	-0.069
-716.762	-200.000	0.022	0.164
-715.748	-171.328	0.261	0.009
-714.733	128.531	0.078	0.100
-713.718	800.000	-0.079	-0.241
-712.704	-44.029	-0.121	-0.061
-711.689	800.000	-0.033	-0.139
-710.675	-29.544	0.117	-0.067
-709.660	-17.438	0.167	0.106
-708.645	-200.000	0.055	-0.441
-707.631	-65.512	0.168	-0.068
-706.616	-31.389	-0.331	-0.187
-705.602	-200.000	0.008	-0.589
-704.587	800.000	0.080	-0.297
-703.572	-4.894	-0.082	-0.057
-702.558	-113.590	-0.277	0.054
-701.543	97.316	-0.214	-0.247
-700.529	-189.771	-0.309	-0.004
-699.514	565.777	-0.018	0.044
-698.499	146.487	0.229	-0.310
-697.485	132.992	-0.167	0.218
-696.470	-200.000	-0.007	0.333
-695.456	-6.572	0.206	-0.141
-694.441	-37.274	0.197	0.106
-693.426	-200.000	-0.013	0.175
-692.412	313.884	-0.079	0.149
-691.397	-109.983	-0.351	-0.074
-690.383	27.127	-0.079	-0.067
-689.368	800.000	0.066	0.260
-688.354	-124.557	0.241	0.038
-687.339	52.158	0.342	-0.328
-686.324	-122.254	-0.428	-0.070
-685.310	100.641	-0.307	-0.359
-684.295	480.582	-0.103	0.234
-683.281	422.937	0.096	-0.208
-682.266	-76.215	-0.087	-0.031
-681.251	-74.602	0.087	0.032
-680.237	-200.000	-0.053	0.280
-679.222	-154.091	0.197	0.013
-678.208	66.209	0.092	0.095
-677.193	-200.000	0.004	-0.118
-676.178	9.912	-0.181	-0.139
-675.164	549.284	0.076	-0.183
-674.149	-200.000	-0.056	-0.263
-673.135	-94.884	0.364	0.099
-672.120	-147.276	-0.087	0.007
-671.105	405.478	-0.093	0.198
-670.091	141.614	0.013	-0.017
-669.076	90.370	-0.172	0.194
-668.062	2.662	-0.166	-0.121
-667.047	-61.684	-0.111	0.047
-666.032	-138.452	0.072	0.008
-665.018	337.483	-0.104	-0.204
-664.003	355.793	-0.056	-0.112
-662.989	-7.183	-0.462	-0.315
-661.974	-33.265	0.145	-0.081
-660.959	-96.650	0.127	-0.034
-659.945	-89.457	0.225	-0.066
-658.930	250.112	0.132	-0.225
-657.916	-112.852	0.191	0.038
-656.901	-168.916	-0.273	0.010
-655.886	800.000	0.061	0.228
-654.872	-200.000	0.009	0.165
-653.857	-101.087	-0.434	-0.107
-652.843	-200.000	-0.032	0.153
-651.828	353.786	-0.078	0.156
-650.814	23.830	0.153	0.127
-649.799	-183.586	0.370	0.006
-648.784	-59.297	0.202	-0.088
-647.770	-6.052	0.105	0.072
-646.755	-33.632	0.018	-0.010
-645.741	56.512	0.262	-0.256
-644.726	-129.348	-0.377	-0.053
-643.711	17.474	-0.237	-0.189
-642.697	-200.000	0.005	-0.066
-641.682	-200.000	0.004	0.242
-640.668	-56.117	-0.114	0.051
-639.653	-32.477	-0.193	0.108
-638.638	-101.894	0.455	0.110
-637.624	280.324	-0.049	0.088
-636.609	-54.974	-0.276	-0.125
-635.595	-200.000	0.005	0.044
-634.580	54.797	-0.126	0.122
-633.565	-100.352	-0.276	0.069
-632.551	-2.252	0.170	0.120
-631.536	-92.046	-0.148	0.042
-630.522	99.468	0.101	-0.117
-629.507	-200.000	0.027	-0.143
-628.492	-10.215	0.122	-0.081
-627.478	-101.722	-0.194	0.047
-626.463	-157.192	-0.084	0.005
-625.449	554.177	0.136	-0.328
-624.434	17.329	0.392	-0.313
-623.419	59.691	-0.104	0.103
-622.405	-108.460	-0.111	-0.024
-621.390	359.748	0.083	-0.167
-620.376	230.331	-0.104	-0.170
-619.361	-53.018	-0.146	0.068
-618.346	566.597	-0.024	0.059
-617.332	480.037	0.058	-0.132
-616.317	452.580	-0.052	0.115
-615.303	-101.343	-0.458	-0.112
-614.288	-45.121	0.150	-0.075
-613.273	7.118	-0.134	0.100
-612.259	24.147	-0.113	-0.094
-611.244	-36.434	-0.410	-0.221
-610.230	800.000	-0.073	-0.243
-609.215	-102.719	-0.333	-0.080
-608.201	-200.000	0.058	-0.304
-607.186	-163.747	-0.418	-0.020
-606.171	-146.509	0.160	0.014
-605.157	96.041	0.036	-0.041
-604.142	-116.129	0.078	-0.014
-603.128	55.252	-0.238	-0.231
-602.113	88.595	-0.363	0.405
-601.098	800.000	-0.016	-0.059
-600.084	800.000	0.048	-0.142
-599.069	-200.000	0.023	-0.105
-598.055	-115.734	0.491	-0.092
-597.040	249.209	0.131	-0.222
-596.025	-69.120	-0.119	-0.046
-595.011	800.000	-0.063	-0.254
-593.996	-117.460	-0.075	0.014
-592.982	33.503	0.287	-0.250
-591.967	70.424	-0.170	0.176
-590.952	-117.038	0.260	0.048
-589.938	-199.749	-0.305	-0.002
-588.923	535.005	-0.070	0.167
-587.909	-37.649	0.327	-0.175
-586.894	-200.000	0.027	-0.183
-585.879	-135.136	0.029	-0.003
-584.865	-195.295	0.239	0.002
-583.850	-117.396	-0.255	-0.046
-582.836	-109.655	0.477	0.101
-581.821	-37.314	-0.246	0.132
-580.806	3.470	0.222	-0.162
-579.792	800.000	-0.167	-0.509
-578.777	-50.135	0.074	0.035
-577.763	58.696	-0.192	0.189
-576.748	-200.000	0.041	-0.225
-575.733	-105.558	0.030	0.007
-574.719	-31.332	-0.418	0.236
-573.704	-200.000	-0.002	0.088
-572.690	-143.640	-0.175	0.017
-571.675	-35.277	-0.191	-0.104
-570.661	-200.000	-0.020	-0.193
-569.646	800.000	-0.035	-0.110
-568.631	88.286	-0.125	0.139
-567.617	-148.552	-0.204	-0.017
-566.602	144.993	0.108	-0.145
-565.588	226.399	0.115	-0.187
-564.573	221.839	0.096	-0.154
-563.558	-186.232	-0.107	-0.002
-562.544	-24.207	0.109	0.065
-561.529	800.000	0.144	-0.400
-560.515	-200.000	-0.034	0.193
-559.500	-43.052	-0.071	-0.036
-558.485	115.034	-0.096	0.117
-557.471	187.311	-0.100	0.149
-556.456	-200.000	0.014	0.373
-555.442	-147.289	0.097	-0.008
-554.427	-26.418	0.166	-0.097
-553.412	66.652	-0.151	-0.153
-552.398	-200.000	0.021	0.187
-551.383	676.330	-0.088	0.229
-550.369	-200.000	0.032	-0.234
-549.354	344.987	-0.137	-0.269
-548.339	576.255	0.154	-0.376
-547.325	-85.355	0.092	-0.029
-546.310	-177.552	-0.449	-0.011
-545.296	-14.839	-0.203	-0.131
-544.281	-84.283	0.574	0.182
-543.266	24.308	0.081	0.067
-542.252	-200.000	-0.022	0.104
-541.237	45.089	-0.090	-0.083
-540.223	278.880	0.168	-0.300
-539.208	28.742	-0.400	0.339
-538.193	-200.000	0.034	0.265
-537.179	327.829	0.102	0.196
-536.164	62.886	-0.130	-0.130
-535.150	-200.000	-0.080	-0.356
-534.135	170.089	-0.024	-0.034
-533.121	-80.109	0.213	0.072
-532.106	102.270	0.098	-0.114
-531.091	478.555	0.080	-0.182
-530.077	184.912	0.311	0.462
-529.062	138.746	0.093	0.122
-528.048	170.516	-0.185	-0.264
-527.033	-137.782	0.214	-0.024
-526.018	-98.987	0.195	0.050
-525.004	-128.603	-0.601	-0.085
-523.989	-49.329	-0.241	0.115
-522.975	-200.000	-0.010	-0.109
-521.960	-55.587	0.387	0.173
-520.945	-200.000	0.003	-0.065
-519.931	311.002	0.131	-0.245
-518.916	-55.353	-0.271	-0.122
-517.902	800.000	0.144	0.453
-516.887	800.000	-0.077	-0.334
-515.872	-200.000	-0.054	-0.351
-514.858	529.941	0.041	-0.098
-513.843	106.240	-0.115	0.137
-512.829	-200.000	0.028	0.131
-511.814	-41.386	0.426	0.219
-510.799	120.949	-0.066	-0.082
-509.785	292.953	-0.087	-0.159
-508.770	335.831	0.227	-0.440
-507.756	-200.000	-0.047	0.285
-506.741	-43.310	0.294	0.148
-505.726	86.444	-0.217	-0.239
-504.712	-185.004	-0.033	0.001
-503.697	-200.000	0.001	-0.143
-502.683	137.471	-0.088	0.115
-501.668	207.815	-0.030	0.047
-500.653	-76.537	0.327	0.115
-499.639	-200.000	0.006	-0.156
-498.624	6.023	-0.230	0.170
-497.610	-111.178	-0.350	0.072
-496.595	-152.097	-0.197	-0.014
-495.581	114.889	0.138	0.168
-494.566	540.416	0.062	0.147
-493.551	-200.000	-0.046	0.355
-492.537	65.562	-0.232	0.235
-491.522	-84.404	-0.100	0.031
-490.508	259.837	0.169	-0.292
-489.493	-47.210	-0.190	-0.093
-488.478	800.000	-0.077	-0.277
-487.464	-84.591	0.515	0.162
-486.449	95.174	-0.294	0.335
-485.435	27.485	-0.276	0.232
-484.420	164.579	-0.034	0.048
-483.405	800.000	-0.027	0.112
-482.391	108.523	0.210	0.250
-481.376	67.000	0.337	0.343
-480.362	747.452	-0.127	0.343
-479.347	-106.131	-0.505	-0.113
-478.332	340.941	0.151	0.295
-477.318	-137.092	0.260	0.030
-476.303	91.705	0.136	-0.153
-475.289	423.330	0.151	0.324
-474.274	537.169	-0.039	-0.092
-473.259	-30.142	-0.191	-0.108
-472.245	-44.505	-0.036	0.018
-471.230	3.122	-0.258	0.188
-470.216	-200.000	0.012	0.150
-469.201	-84.674	0.020	-0.006
-468.186	-200.000	-0.021	0.096
-467.172	800.000	-0.055	0.155
-466.157	-11.960	0.182	-0.119
-465.143	-200.000	-0.039	-0.174
-464.128	-42.928	-0.196	-0.099
-463.113	-164.981	-0.290	-0.013
-462.099	-160.948	0.307	-0.016
-461.084	-79.267	0.063	-0.021
-460.070	484.749	0.072	-0.164
-459.055	800.000	0.036	-0.123
-458.040	-146.798	0.261	0.022
-457.026	-97.943	0.269	0.069
-456.011	-13.426	0.195	-0.126
-454.997	159.461	0.083	0.115
-453.982	-200.000	0.013	0.105
-452.968	150.896	0.147	0.199
-451.953	-102.200	-0.122	0.029
-450.938	-129.783	-0.395	-0.054
-449.924	-200.000	0.014	0.386
-448.909	-113.712	-0.226	0.044
-447.895	-12.163	0.259	-0.169
-446.880	-68.681	0.381	0.147
-445.865	-102.477	0.162	0.039
-444.851	800.000	-0.023	-0.067
-443.836	253.511	0.188	-0.320
-442.822	-51.123	0.273	-0.128
-441.807	-29.591	-0.138	0.079
-440.792	81.073	0.022	-0.024
-439.778	483.100	0.010	0.023
-438.763	-167.235	0.128	-0.005
-437.749	63.104	-0.323	0.323
-436.734	800.000	0.048	-0.146
-435.719	36.790	0.210	0.185
-434.705	98.345	-0.145	0.167
-433.690	-62.353	-0.191	0.079
-432.676	-54.223	0.412	0.186
-431.661	-131.574	0.237	0.031
-430.646	-67.911	-0.128	0.050
-429.632	-38.660	0.143	0.075
-428.617	-93.128	0.187	-0.052
-427.603	-45.753	-0.263	-0.130
-426.588	-200.000	-0.007	-0.103
-425.573	-200.000	0.006	-0.194
-424.559	-200.000	-0.005	-0.087
-423.544	583.010	-0.101	-0.246
-422.530	-57.448	0.344	-0.150
-421.515	366.592	-0.085	-0.170
-420.500	-200.000	0.003	0.044
-419.486	3.921	0.127	-0.093
-418.471	800.000	-0.058	-0.203
-417.457	-66.069	0.241	0.096
-416.442	54.681	0.194	0.186
-415.428	189.061	-0.155	-0.231
-414.413	370.371	-0.087	-0.175
-413.398	390.004	0.185	-0.382
-412.384	-96.263	-0.120	-0.032
-411.369	-21.395	0.241	-0.146
-410.355	-33.967	0.215	-0.118
-409.340	-138.203	-0.093	-0.010
-408.325	279.473	0.126	-0.224
-407.311	288.221	-0.032	-0.057
-406.296	262.242	0.043	0.075
-405.282	714.133	-0.166	0.437
-404.267	197.225	0.204	0.310
-403.252	-200.000	0.002	-0.046
-402.238	-200.000	-0.046	0.372
-401.223	140.177	0.247	0.325
-400.209	-200.000	-0.003	0.065
-399.194	113.526	0.259	-0.313
-398.179	92.912	0.071	-0.080
-397.165	97.284	-0.054	-0.062
-396.150	-15.371	-0.368	0.234
-395.136	-114.333	0.133	-0.026
-394.121	800.000	-0.040	0.125
-393.106	-200.000	-0.025	0.190
-392.092	800.000	0.067	-0.187
-391.077	36.867	-0.158	-0.139
-390.063	-55.912	-0.245	-0.109
-389.048	-81.181	0.467	0.153
-388.033	800.000	0.010	-0.039
-387.019	-25.998	0.156	0.091
-386.004	370.611	0.063	0.126
-384.990	-3.638	-0.125	-0.086
-383.975	-168.197	0.243	0.009
-382.960	-155.561	-0.124	0.008
-381.946	93.975	0.044	0.049
-380.931	-24.526	-0.130	0.077
-379.917	59.418	0.116	0.113
-378.902	-16.711	-0.166	-0.105
-377.888	-200.000	-0.029	0.329
-376.873	-90.356	0.538	-0.155
-375.858	754.649	-0.054	-0.146
-374.844	800.000	-0.044	0.136
-373.829	-138.370	0.741	-0.081
-372.815	800.000	0.034	-0.097
-371.800	-80.709	0.022	0.007
-370.785	19.830	0.095	0.076
-369.771	92.185	-0.088	0.099
-368.756	234.596	-0.077	-0.127
-367.742	330.893	0.046	0.087
-366.727	800.000	0.048	-0.136
-365.712	76.175	0.083	-0.088
-364.698	-162.190	-0.213	0.011
-363.683	-11.756	0.395	0.258
-362.669	-1.487	-0.172	0.121
-361.654	298.198	-0.119	0.217
-360.639	800.000	-0.031	0.126
-359.625	43.752	0.113	0.102
-358.610	2.045	-0.222	0.159
-357.596	-151.206	0.337	-0.025
-356.581	-115.973	0.169	0.031
-355.566	-131.099	-0.121	0.016
-354.552	90.237	0.210	0.234
-353.537	-18.833	0.215	0.133
-352.523	800.000	0.034	0.096
-351.508	116.392	0.164	0.200
-350.493	-200.000	0.011	-0.106
-349.479	77.099	-0.148	-0.156
-348.464	-200.000	-0.031	-0.244
-347.450	425.071	-0.072	0.153
-346.435	-28.535	0.292	-0.167
-345.420	-18.265	-0.226	0.140
-344.406	-169.850	-0.127	0.005
-343.391	-126.627	0.189	-0.028
-342.377	320.259	0.072	0.137
-341.362	-2.370	-0.164	-0.115
-340.348	800.000	-0.052	-0.185
-339.333	-87.811	0.026	0.008
-338.318	800.000	0.052	-0.187
-337.304	358.990	-0.126	0.250
-336.289	321.374	-0.147	-0.277
-335.275	90.024	-0.244	0.271
-334.260	-152.243	0.168	-0.012
-333.245	800.000	-0.020	-0.063
-332.231	800.000	0.033	-0.141
-331.216	592.324	-0.074	-0.181
-330.202	84.941	0.166	-0.181
-329.187	-137.753	0.081	0.009
-328.172	-159.953	0.182	0.010
-327.158	115.752	-0.061	-0.074
-326.143	-200.000	-0.028	0.294
-325.129	475.184	-0.063	0.141
-324.114	123.266	-0.167	0.208
-323.099	800.000	0.126	-0.425
-322.085	-105.057	-0.186	-0.042
-321.070	800.000	0.035	0.115
-320.056	118.172	-0.144	0.176
-319.041	85.614	0.153	0.167
-318.026	800.000	-0.015	-0.053
-317.012	-65.511	0.182	-0.073
-315.997	128.791	0.119	0.150
-314.983	62.197	-0.124	0.123
-313.968	-153.793	-0.398	-0.027
-312.953	41.550	-0.006	0.006
-311.939	-70.860	0.259	-0.097
-310.924	264.571	0.078	-0.135
-309.910	58.361	-0.175	0.170
-308.895	59.844	-0.257	-0.251
-307.880	-200.000	-0.010	0.093
-306.866	-86.138	-0.125	-0.038
-305.851	-27.012	0.163	-0.094
-304.837	78.285	0.226	0.239
-303.822	-86.272	-0.187	0.057
-302.807	-200.000	-0.027	0.145
-301.793	29.828	-0.109	0.092
-300.778	-84.664	0.187	0.058
-299.764	-147.294	0.089	0.007
-298.749	-38.497	0.248	-0.130
-297.735	211.611	-0.054	-0.085
-296.720	158.826	-0.314	0.432
-295.705	-83.333	-0.032	-0.010
-294.691	9.317	0.223	0.167
-293.676	-45.998	0.489	-0.239
-292.662	-72.561	-0.118	-0.043
-291.647	157.729	0.067	-0.092
-290.632	800.000	0.069	0.238
-289.618	-11.153	0.352	0.230
-288.603	16.573	0.079	-0.062
-287.589	-200.000	0.043	0.286
-286.574	-159.769	-0.323	-0.018
-285.559	-135.910	-0.215	0.025
-284.545	617.824	-0.060	-0.150
-283.530	800.000	0.060	-0.173
-282.516	101.849	-0.010	-0.011
-281.501	-20.714	-0.070	-0.043
-280.486	-104.320	0.176	0.040
-279.472	267.075	0.106	-0.183
-278.457	-133.723	0.134	-0.017
-277.443	-23.901	0.147	0.087
-276.428	100.940	0.241	0.278
-275.413	-200.000	-0.004	0.130
-274.399	4.454	0.158	0.115
-273.384	-146.668	0.355	-0.030
-272.370	58.184	-0.110	-0.106
-271.355	-51.692	0.449	0.207
-270.340	-107.867	-0.177	0.038
-269.326	386.820	0.062	0.127
-268.311	15.854	0.096	0.075
-267.297	-135.867	-0.074	-0.009
-266.282	-140.025	-0.178	0.019
-265.267	161.655	0.173	0.240
-264.253	114.562	0.130	0.157
-263.238	7.107	-0.105	-0.078
-262.224	-54.291	-0.113	-0.051
-261.209	169.806	-0.099	-0.140
-260.195	-200.000	0.012	0.112
-259.180	62.284	0.190	-0.187
-258.165	-79.348	0.060	-0.020
-257.151	-150.129	-0.169	0.013
-256.136	129.557	0.034	0.044
-255.122	-95.446	-0.216	0.057
-254.107	-86.931	-0.230	0.070
-253.092	361.247	-0.048	-0.096
-252.078	-102.855	0.316	-0.074
-251.063	192.916	-0.099	0.148
-250.049	196.070	-0.185	-0.279
-249.034	-200.000	0.030	-0.184
-248.019	-200.000	-0.038	-0.256
-247.005	199.602	-0.199	0.302
-245.990	-69.138	-0.123	-0.047
-244.976	-200.000	-0.051	0.306
-243.961	-200.000	-0.013	0.193
-242.946	-95.501	-0.281	0.075
-241.932	259.873	0.145	-0.247
-240.917	800.000	-0.026	0.105
-239.903	800.000	-0.148	0.443
-238.888	11.036	0.102	-0.077
-237.873	800.000	-0.086	-0.276
-236.859	-74.882	-0.192	0.068
-235.844	-105.827	-0.300	-0.067
-234.830	40.192	-0.154	-0.137
-233.815	-200.000	0.001	-0.422
-232.800	-65.093	-0.068	0.027
-231.786	421.934	-0.189	-0.402
-230.771	7.769	-0.077	-0.057
-229.757	-200.000	0.010	0.124
-228.742	235.472	0.107	0.176
-227.727	-2.286	-0.132	0.092
-226.713	-47.914	-0.265	-0.127
-225.698	-200.000	-0.029	-0.159
-224.684	329.446	0.084	-0.160
-223.669	800.000	-0.082	-0.317
-222.655	-42.360	-0.189	-0.095
-221.640	21.920	-0.197	0.159
-220.625	78.478	0.253	0.267
-219.611	193.313	-0.079	0.118
-218.596	719.591	-0.032	0.084
-217.582	216.013	0.167	0.262
-216.567	800.000	-0.082	0.241
-215.552	310.129	0.031	-0.057
-214.538	84.170	0.161	0.174
-213.523	319.958	-0.037	-0.070
-212.509	-8.660	0.261	-0.173
-211.494	103.100	-0.123	-0.143
-210.479	-26.787	-0.218	-0.126
-209.465	-29.894	-0.190	0.107
-208.450	800.000	0.127	0.349
-207.436	180.112	-0.147	-0.213
-206.421	-200.000	0.004	0.097
-205.406	-200.000	0.056	-0.502
-204.392	-36.684	0.198	-0.105
-203.377	-200.000	-0.019	-0.271
-202.363	-121.397	-0.014	0.002
-201.348	-166.441	-0.251	-0.010
-200.333	-147.724	-0.288	0.024
-199.319	800.000	0.059	0.239
-198.304	14.588	-0.370	-0.285
-197.290	161.954	0.148	-0.205
-196.275	192.099	-0.176	0.262
-195.260	34.727	-0.170	0.147
-194.246	-200.000	0.004	0.042
-193.231	800.000	0.080	-0.334
-192.217	-200.000	0.012	0.205
-191.202	-138.600	0.285	-0.031
-190.187	-200.000	-0.013	0.201
-189.173	-200.000	0.017	0.115
-188.158	-13.168	-0.196	0.126
-187.144	15.466	0.022	0.017
-186.129	-8.686	0.031	0.021
-185.114	800.000	-0.026	-0.089
-184.100	40.717	0.236	-0.210
-183.085	358.617	-0.106	-0.210
-182.071	17.299	-0.055	0.043
-181.056	158.817	0.117	0.160
-180.042	-50.785	-0.078	-0.036
-179.027	-200.000	0.009	-0.336
-178.012	258.385	0.193	-0.328
-176.998	-129.692	0.137	-0.019
-175.983	-200.000	0.016	0.076
-174.969	135.932	0.056	0.073
-173.954	800.000	0.066	0.241
-172.939	-178.707	-0.216	-0.005
-171.925	127.598	0.192	0.241
-170.910	58.263	0.116	-0.112
-169.896	800.000	-0.065	-0.190
-168.881	-54.566	-0.326	-0.145
-167.866	-200.000	-0.000	-0.096
-166.852	-94.294	-0.653	-0.176
-165.837	-171.499	0.310	-0.010
-164.823	364.227	-0.076	-0.151
-163.808	-131.328	0.068	0.009
-162.793	-200.000	-0.064	-0.295
-161.779	-83.851	0.194	-0.061
-160.764	-64.661	-0.200	0.080
-159.750	7.601	-0.218	0.161
-158.735	-168.112	0.290	0.011
-157.720	590.396	0.157	0.381
-156.706	121.232	-0.207	-0.254
-155.691	255.085	-0.165	0.279
-154.677	577.244	-0.091	0.220
-153.662	-29.623	-0.322	0.181
-152.647	-200.000	0.088	0.383
-151.633	-4.650	-0.277	-0.189
-150.618	19.037	-0.027	-0.021
-149.604	69.000	-0.081	-0.082
-148.589	-2.285	-0.106	0.073
-147.574	7.170	0.198	-0.145
-146.560	-78.070	0.321	-0.109
-145.545	570.047	0.096	0.231
-144.531	-153.800	0.079	-0.005
-143.516	77.676	-0.275	-0.289
-142.502	63.970	-0.273	-0.270
-141.487	-63.656	0.086	-0.035
-140.472	-113.148	-0.186	0.036
-139.458	-66.215	0.083	-0.032
-138.443	-86.397	-0.105	-0.032
-137.429	172.560	-0.092	0.130
-136.414	-94.683	-0.166	-0.044
-135.399	-62.705	-0.128	-0.052
-134.385	-34.082	0.270	0.146
-133.370	-200.000	-0.023	-0.127
-132.356	800.000	-0.031	-0.088
-131.341	163.441	-0.043	-0.059
-130.326	784.349	0.050	0.135
-129.312	-200.000	0.012	0.098
-128.297	-132.990	0.299	-0.037
-127.283	-179.475	-0.299	-0.006
-126.268	-2.401	0.088	0.061
-125.253	-200.000	-0.010	-0.391
-124.239	90.325	0.147	0.162
-123.224	800.000	0.007	0.027
-122.210	171.164	0.138	-0.194
