DTS Sentinel unit serial number:	SN413079Multiplexer serial number:	ORYXHardware model number:	OX4-SRSoftware version number:	ORYX F/W v4.00 Oryx Data Collector v3.7.2.0data status	okinstallation	princeton_trtdifferential loss correction	single-endedforward channel	channel 1reverse channel	N/Adate	2019/09/13time	00:54:35forward acquisition time	60.00reverse acquisition time	0.00gamma	496.2192k internal	0.2330k external	0.2330temperature offset calibration	1.0140default loss term (dB/km)	0.3790temperature slope calibration	1.0000multiplexer offset coefficient	1.0000multiplexer slope coefficient	1.0000fibre end	0.00T internal ref (°C)	28.14T ext. ref 1 (°C)	3.64T ext. ref 2 (°C)	22.61length (m)	temperature (°C)	Stokes	anti-Stokes-747.200	128.019	0.090	-0.115
-746.185	4.796	0.064	0.048
-745.171	76.869	-0.137	0.147
-744.156	382.136	0.044	-0.090
-743.142	-200.000	0.011	0.120
-742.127	318.285	0.063	-0.120
-741.112	5.815	-0.316	0.235
-740.098	-147.359	0.206	0.018
-739.083	800.000	0.141	-0.433
-738.069	6.446	-0.146	0.109
-737.054	800.000	-0.038	0.162
-736.039	-55.510	-0.213	0.096
-735.025	-96.088	-0.189	0.051
-734.010	17.632	-0.180	0.144
-732.996	188.669	0.012	0.019
-731.981	92.953	-0.151	-0.172
-730.966	-111.593	0.148	0.030
-729.952	-108.706	-0.192	-0.041
-728.937	800.000	0.051	-0.178
-727.923	-41.751	-0.174	-0.090
-726.908	-200.000	0.050	-0.240
-725.894	-159.689	-0.301	-0.017
-724.879	197.763	0.171	-0.263
-723.864	800.000	-0.028	0.100
-722.850	201.125	-0.275	-0.426
-721.835	-200.000	-0.047	-0.231
-720.821	800.000	0.025	-0.075
-719.806	-93.351	0.211	0.059
-718.791	54.835	0.050	-0.048
-717.777	-62.906	-0.342	-0.142
-716.762	618.761	-0.052	-0.132
-715.748	634.613	-0.128	-0.327
-714.733	464.543	0.126	-0.284
-713.718	268.204	0.090	0.158
-712.704	-23.953	-0.252	0.152
-711.689	-107.567	-0.151	-0.033
-710.675	-200.000	-0.053	-0.407
-709.660	29.707	0.278	-0.238
-708.645	271.917	-0.153	-0.271
-707.631	-54.724	-0.412	-0.187
-706.616	63.462	-0.100	-0.101
-705.602	-197.258	-0.288	0.002
-704.587	-200.000	0.159	-0.001
-703.572	160.586	-0.114	-0.160
-702.558	-159.880	-0.505	0.028
-701.543	-200.000	0.027	0.159
-700.529	74.884	-0.312	-0.330
-699.514	-200.000	-0.066	0.320
-698.499	-130.363	-0.162	-0.022
-697.485	-200.000	0.031	0.152
-696.470	800.000	0.008	-0.026
-695.456	-33.743	0.351	-0.194
-694.441	-22.470	-0.177	0.108
-693.426	-120.340	0.103	0.018
-692.412	10.260	0.131	0.100
-691.397	81.011	0.329	-0.357
-690.383	15.924	-0.175	-0.139
-689.368	99.118	-0.284	0.329
-688.354	-34.366	-0.129	-0.071
-687.339	-95.376	-0.212	0.057
-686.324	26.285	-0.136	-0.114
-685.310	-200.000	0.006	-0.265
-684.295	-91.325	-0.143	0.041
-683.281	115.161	-0.236	0.289
-682.266	57.882	-0.219	-0.216
-681.251	148.461	-0.242	0.328
-680.237	-16.126	-0.117	-0.074
-679.222	800.000	0.026	-0.077
-678.208	66.377	-0.224	0.228
-677.193	209.628	-0.153	-0.240
-676.178	6.003	0.210	0.156
-675.164	-73.349	-0.223	-0.082
-674.149	-67.673	0.135	-0.053
-673.135	-103.510	0.284	0.067
-672.120	174.509	0.243	0.353
-671.105	-31.387	-0.305	-0.172
-670.091	-186.112	0.186	0.003
-669.076	-150.610	-0.154	0.012
-668.062	421.145	-0.129	0.277
-667.047	10.403	0.127	-0.097
-666.032	120.621	-0.122	0.152
-665.018	153.170	0.097	-0.133
-664.003	-200.000	0.050	-0.243
-662.989	-95.640	-0.045	0.012
-661.974	141.667	0.228	-0.304
-660.959	-111.518	0.152	-0.031
-659.945	55.743	-0.050	-0.048
-658.930	-120.416	-0.198	-0.034
-657.916	-162.266	0.472	0.024
-656.901	-200.000	0.038	0.321
-655.886	-144.608	0.198	0.018
-654.872	-200.000	0.083	-0.371
-653.857	-200.000	-0.030	0.339
-652.843	800.000	-0.100	0.280
-651.828	623.437	0.060	0.153
-650.814	94.494	0.211	-0.240
-649.799	-138.741	-0.293	0.032
-648.784	-102.849	-0.069	0.017
-647.770	-111.981	0.325	-0.066
-646.755	19.188	0.389	0.313
-645.741	65.495	-0.183	0.186
-644.726	554.740	-0.061	-0.148
-643.711	-29.369	0.358	0.205
-642.697	116.614	-0.087	0.107
-641.682	-143.067	-0.238	-0.023
-640.668	452.365	-0.057	-0.127
-639.653	42.034	-0.188	-0.171
-638.638	800.000	-0.073	0.222
-637.624	299.879	0.099	-0.182
-636.609	24.899	-0.156	-0.129
-635.595	-200.000	0.012	0.205
-634.580	104.686	0.184	-0.218
-633.565	-110.349	-0.200	-0.042
-632.551	-96.748	-0.176	-0.046
-631.536	374.473	-0.165	-0.338
-630.522	152.553	-0.029	0.039
-629.507	647.357	0.041	-0.106
-628.492	-200.000	0.030	0.161
-627.478	319.065	0.073	-0.138
-626.463	-200.000	-0.043	0.314
-625.449	28.749	-0.355	-0.301
-624.434	-109.739	0.233	0.049
-623.419	800.000	-0.060	0.192
-622.405	209.739	-0.055	-0.086
-621.390	76.273	-0.123	-0.131
-620.376	507.923	0.156	-0.363
-619.361	4.451	-0.051	-0.037
-618.346	6.756	-0.213	-0.159
-617.332	800.000	0.113	-0.338
-616.317	-113.247	0.215	-0.042
-615.303	156.214	-0.045	-0.062
-614.288	510.316	0.092	-0.214
-613.273	800.000	-0.044	-0.186
-612.259	101.444	-0.253	-0.295
-611.244	-14.712	0.190	0.122
-610.230	-200.000	-0.018	-0.196
-609.215	800.000	0.107	0.441
-608.201	98.062	0.179	-0.206
-607.186	-49.293	-0.158	-0.076
-606.171	77.591	0.059	0.063
-605.157	-35.149	0.137	-0.075
-604.142	-200.000	-0.031	0.294
-603.128	-60.223	0.020	0.008
-602.113	-200.000	-0.014	0.228
-601.098	502.788	0.111	-0.258
-600.084	-135.610	-0.179	-0.021
-599.069	-12.018	-0.170	-0.111
-598.055	-44.241	-0.334	0.168
-597.040	-110.324	-0.238	-0.049
-596.025	49.844	-0.206	-0.195
-595.011	-55.239	0.123	0.056
-593.996	800.000	-0.061	-0.201
-592.982	-153.155	-0.285	-0.020
-591.967	71.204	-0.074	-0.076
-590.952	-200.000	0.022	-0.138
-589.938	620.067	-0.061	-0.154
-588.923	-200.000	0.002	-0.054
-587.909	-77.350	-0.261	-0.091
-586.894	23.717	0.055	-0.045
-585.879	-200.000	0.016	-0.446
-584.865	208.988	0.088	-0.138
-583.850	-17.116	0.187	0.118
-582.836	-57.031	-0.010	-0.004
-581.821	-200.000	-0.017	0.147
-580.806	-200.000	-0.002	-0.041
-579.792	357.050	-0.090	0.179
-578.777	-53.678	0.047	0.022
-577.763	141.255	-0.077	-0.102
-576.748	800.000	0.093	-0.273
-575.733	-37.833	0.264	-0.141
-574.719	59.374	0.232	-0.229
-573.704	70.365	0.254	-0.262
-572.690	-76.301	-0.122	-0.043
-571.675	-120.281	-0.254	0.043
-570.661	548.935	-0.093	0.222
-569.646	270.501	-0.104	-0.183
-568.631	-200.000	0.020	0.172
-567.617	164.061	-0.120	-0.169
-566.602	172.117	0.194	-0.279
-565.588	95.687	-0.218	-0.248
-564.573	-37.392	-0.180	0.096
-563.558	17.434	0.244	0.194
-562.544	800.000	-0.048	-0.173
-561.529	-149.842	-0.359	-0.028
-560.515	-106.162	0.249	-0.056
-559.500	593.289	0.031	0.076
-558.485	-200.000	0.017	-0.279
-557.471	115.122	0.101	0.123
-556.456	-200.000	0.013	-0.251
-555.442	800.000	0.086	-0.264
-554.427	-2.174	-0.237	-0.166
-553.412	-100.668	0.160	0.039
-552.398	-200.000	-0.011	-0.196
-551.383	800.000	0.094	-0.367
-550.369	199.436	0.093	-0.142
-549.354	-140.129	-0.221	-0.023
-548.339	-92.397	-0.256	-0.072
-547.325	-200.000	0.028	0.269
-546.310	467.283	-0.040	-0.089
-545.296	84.623	-0.115	-0.126
-544.281	-116.357	0.549	0.102
-543.266	-158.534	-0.317	0.018
-542.252	800.000	0.049	-0.149
-541.237	-82.254	0.240	0.078
-540.223	-200.000	0.002	-0.179
-539.208	-200.000	0.139	-0.000
-538.193	-200.000	-0.002	-0.083
-537.179	-200.000	-0.021	0.109
-536.164	-139.673	-0.105	-0.011
-535.150	25.923	0.184	0.153
-534.135	26.941	-0.165	-0.138
-533.121	-200.000	0.006	0.068
-532.106	111.799	0.090	-0.109
-531.091	800.000	-0.071	-0.218
-530.077	-80.117	-0.141	0.047
-529.062	-59.581	0.325	-0.139
-528.048	-97.951	0.174	0.045
-527.033	47.201	-0.171	0.159
-526.018	-200.000	-0.019	0.283
-525.004	244.036	-0.136	-0.228
-523.989	800.000	0.013	0.053
-522.975	8.952	-0.149	0.113
-521.960	-144.457	-0.503	-0.047
-520.945	-200.000	-0.022	0.149
-519.931	-26.713	-0.246	0.144
-518.916	95.558	0.171	-0.195
-517.902	800.000	-0.024	-0.097
-516.887	97.342	0.163	0.187
-515.872	85.341	0.087	0.096
-514.858	-40.743	0.164	0.085
-513.843	326.738	-0.101	-0.193
-512.829	577.284	0.111	-0.270
-511.814	-148.593	0.314	0.026
-510.799	-200.000	0.021	0.145
-509.785	487.574	0.108	-0.246
-508.770	-34.379	0.241	-0.132
-507.756	-20.742	-0.119	0.073
-506.741	6.632	0.133	0.098
-505.726	-168.870	-0.133	-0.005
-504.712	35.962	-0.227	-0.199
-503.697	-114.240	-0.250	0.048
-502.683	8.743	0.316	-0.238
-501.668	19.001	-0.159	0.127
-500.653	-150.609	0.027	-0.002
-499.639	107.547	0.081	-0.096
-498.624	800.000	0.077	0.310
-497.610	-200.000	-0.042	0.185
-496.595	-3.404	-0.098	-0.068
-495.581	256.017	-0.042	-0.072
-494.566	800.000	-0.032	-0.136
-493.551	35.013	-0.152	0.133
-492.537	45.256	0.127	0.117
-491.522	-200.000	-0.003	0.182
-490.508	27.127	0.159	0.133
-489.493	80.487	0.065	-0.070
-488.478	-109.906	0.183	0.038
-487.464	300.573	0.126	-0.233
-486.449	800.000	0.069	0.293
-485.435	-120.080	0.091	-0.016
-484.420	-67.698	-0.282	-0.110
-483.405	-42.841	-0.121	-0.062
-482.391	376.709	0.098	0.199
-481.376	36.043	0.213	0.187
-480.362	503.823	-0.092	-0.212
-479.347	-89.372	-0.168	0.049
-478.332	-200.000	0.050	0.257
-477.318	-200.000	-0.019	0.369
-476.303	800.000	-0.055	-0.221
-475.289	-200.000	0.015	-0.326
-474.274	-118.930	0.302	0.053
-473.259	-200.000	0.006	-0.174
-472.245	800.000	0.038	0.141
-471.230	-200.000	0.033	0.165
-470.216	800.000	0.052	-0.225
-469.201	-99.085	0.139	0.035
-468.186	-86.273	-0.124	0.038
-467.172	800.000	-0.074	-0.283
-466.157	-147.720	-0.233	0.019
-465.143	-129.337	0.189	0.026
-464.128	-200.000	0.023	0.133
-463.113	70.306	0.165	0.170
-462.099	144.614	-0.170	-0.226
-461.084	-95.574	0.178	0.047
-460.070	-111.878	-0.285	0.057
-459.055	-200.000	-0.037	0.272
-458.040	800.000	0.024	0.093
-457.026	-5.304	-0.278	-0.190
-456.011	-144.163	0.399	-0.037
-454.997	477.999	0.082	0.185
-453.982	-148.402	0.135	0.011
-452.968	688.962	-0.052	0.136
-451.953	-200.000	0.003	-0.079
-450.938	-62.516	-0.358	0.148
-449.924	-200.000	0.018	0.252
-448.909	613.894	0.045	-0.111
-447.895	-106.116	-0.093	0.021
-446.880	173.233	-0.231	0.331
-445.865	-200.000	-0.079	0.400
-444.851	75.851	0.217	0.228
-443.836	430.973	-0.058	-0.126
-442.822	-200.000	0.010	-0.211
-441.807	-133.874	-0.280	-0.035
-440.792	-105.093	-0.171	-0.039
-439.778	248.758	-0.211	0.356
-438.763	-153.321	0.365	0.025
-437.749	-89.710	0.317	-0.092
-436.734	800.000	-0.097	-0.395
-435.719	-26.423	0.249	0.145
-434.705	661.581	-0.037	0.095
-433.690	-74.037	-0.204	-0.073
-432.676	34.678	0.082	0.071
-431.661	-40.743	0.056	0.029
-430.646	87.822	-0.140	0.155
-429.632	-9.628	-0.367	-0.243
-428.617	-200.000	-0.004	0.112
-427.603	0.073	0.101	-0.071
-426.588	77.748	0.071	-0.075
-425.573	800.000	0.022	-0.095
-424.559	304.483	0.087	0.160
-423.544	175.922	0.030	-0.044
-422.530	-89.288	-0.163	0.048
-421.515	239.178	0.023	0.038
-420.500	-66.483	-0.179	-0.071
-419.486	20.742	-0.047	-0.038
-418.471	800.000	0.080	0.281
-417.457	84.445	0.137	-0.148
-416.442	-6.969	-0.157	0.106
-415.428	65.253	0.072	-0.073
-414.413	-52.726	0.238	-0.109
-413.398	-62.659	-0.149	-0.062
-412.384	-49.826	0.229	0.108
-411.369	-128.494	-0.331	-0.047
-410.355	366.401	-0.074	-0.149
-409.340	213.443	-0.077	0.121
-408.325	-61.622	0.286	0.119
-407.311	115.915	0.073	0.089
-406.296	-10.964	-0.172	0.113
-405.282	-200.000	0.025	0.169
-404.267	91.485	0.140	0.157
-403.252	16.094	-0.357	0.279
-402.238	432.801	0.083	-0.179
-401.223	-126.271	0.184	-0.027
-400.209	-62.685	0.368	0.151
-399.194	341.508	-0.089	0.174
-398.179	-125.363	-0.115	-0.017
-397.165	5.066	0.177	0.130
-396.150	-200.000	0.026	0.208
-395.136	-39.999	-0.043	-0.022
-394.121	82.482	0.090	-0.097
-393.106	56.691	-0.015	0.015
-392.092	800.000	0.132	0.428
-391.077	-130.499	-0.197	-0.027
-390.063	-107.153	0.215	-0.047
-389.048	-20.258	-0.378	-0.231
-388.033	-76.353	0.422	-0.148
-387.019	3.203	-0.311	-0.224
-386.004	332.499	-0.070	-0.134
-384.990	-14.304	0.125	0.080
-383.975	149.850	-0.054	0.072
-382.960	-60.599	0.277	0.117
-381.946	204.752	0.035	0.054
-380.931	572.078	-0.200	0.485
-379.917	178.390	0.184	0.267
-378.902	-200.000	0.071	0.342
-377.888	111.576	-0.236	0.282
-376.873	590.949	0.148	0.363
-375.858	800.000	0.014	-0.053
-374.844	800.000	0.118	0.346
-373.829	-200.000	-0.040	-0.206
-372.815	800.000	0.030	0.101
-371.800	83.773	0.232	-0.251
-370.785	68.970	-0.197	-0.201
-369.771	-161.495	-0.135	0.007
-368.756	85.046	-0.246	0.267
-367.742	-57.717	0.092	0.040
-366.727	-79.080	0.222	0.075
-365.712	800.000	-0.028	0.102
-364.698	-129.551	0.100	-0.014
-363.683	86.951	-0.138	-0.151
-362.669	-200.000	-0.028	-0.187
-361.654	121.397	-0.152	0.187
-360.639	-147.686	0.330	0.028
-359.625	85.986	0.128	0.140
-358.610	800.000	0.087	0.344
-357.596	210.079	-0.087	0.135
-356.581	-98.694	-0.131	-0.033
-355.566	-200.000	-0.063	0.285
-354.552	-200.000	0.000	-0.033
-353.537	-200.000	-0.056	0.263
-352.523	117.847	-0.177	-0.216
-351.508	192.828	-0.168	-0.252
-350.493	-118.043	0.191	-0.034
-349.479	-200.000	0.084	0.403
-348.464	800.000	-0.002	-0.010
-347.450	292.209	-0.150	-0.270
-346.435	-35.304	-0.218	-0.118
-345.420	-35.290	-0.363	0.196
-344.406	-200.000	0.013	-0.272
-343.391	800.000	0.057	-0.240
-342.377	-165.411	-0.245	-0.011
-341.362	-44.635	-0.178	0.088
-340.348	382.581	0.084	-0.171
-339.333	438.370	0.099	-0.214
-338.318	330.379	-0.051	0.096
-337.304	800.000	0.052	-0.166
-336.289	336.961	0.010	0.019
-335.275	-200.000	-0.035	-0.341
-334.260	-104.018	-0.154	-0.036
-333.245	-186.641	0.142	0.002
-332.231	-27.126	0.136	-0.078
-331.216	-148.671	-0.218	0.018
-330.202	-126.377	0.266	-0.039
-329.187	74.752	0.088	0.091
-328.172	93.634	0.243	-0.272
-327.158	-65.676	0.133	0.053
-326.143	-82.075	-0.132	0.043
-325.129	-200.000	-0.009	0.145
-324.114	-8.078	-0.083	0.056
-323.099	800.000	-0.078	-0.217
-322.085	353.379	-0.034	-0.067
-321.070	-93.673	0.204	0.056
-320.056	111.767	-0.306	0.366
-319.041	243.197	0.084	-0.140
-318.026	63.033	-0.126	-0.125
-317.012	223.666	0.086	-0.137
-315.997	74.279	0.153	0.159
-314.983	134.790	0.068	-0.087
-313.968	800.000	0.028	0.079
-312.953	-104.560	0.144	-0.033
-311.939	-82.704	-0.125	0.040
-310.924	553.455	-0.076	0.181
-309.910	62.289	0.205	-0.203
-308.895	-200.000	-0.010	-0.071
-307.880	-107.094	0.054	0.012
-306.866	-200.000	0.029	-0.301
-305.851	800.000	-0.013	0.044
-304.837	800.000	-0.057	0.197
-303.822	800.000	0.008	0.022
-302.807	284.084	-0.141	0.251
-301.793	-51.173	0.071	0.033
-300.778	-92.676	-0.135	-0.037
-299.764	155.578	0.043	0.058
-298.749	-200.000	-0.023	-0.273
-297.735	84.961	-0.090	0.098
-296.720	-162.860	-0.279	-0.013
-295.705	-128.207	0.434	0.061
-294.691	-35.940	-0.102	-0.055
-293.676	-64.259	-0.285	-0.115
-292.662	47.848	0.116	-0.107
-291.647	199.812	-0.121	0.183
-290.632	-200.000	0.066	-0.332
-289.618	-200.000	-0.034	-0.255
-288.603	228.546	0.104	-0.167
-287.589	-54.285	0.139	-0.063
-286.574	-65.692	-0.299	0.118
-285.559	47.699	-0.178	0.164
-284.545	-143.171	0.333	-0.032
-283.530	-50.131	-0.173	0.081
-282.516	-105.653	0.098	-0.022
-281.501	-135.342	0.322	0.038
-280.486	500.399	0.054	0.123
-279.472	-200.000	-0.000	-0.265
-278.457	800.000	-0.157	-0.509
-277.443	-200.000	0.016	-0.208
-276.428	800.000	0.017	0.054
-275.413	-34.234	0.177	-0.096
-274.399	-30.388	0.174	0.097
-273.384	-89.136	-0.217	0.063
-272.370	-139.003	0.048	-0.005
-271.355	-92.672	-0.046	-0.013
-270.340	249.221	-0.155	0.259
-269.326	-200.000	0.031	-0.211
-268.311	208.824	-0.049	0.076
-267.297	54.082	0.281	0.267
-266.282	800.000	-0.058	0.193
-265.267	-176.782	-0.234	-0.006
-264.253	-135.388	-0.185	-0.022
-263.238	-200.000	0.009	-0.168
-262.224	-86.683	0.147	-0.044
-261.209	-200.000	-0.026	0.121
-260.195	-145.458	0.074	-0.007
-259.180	-200.000	0.019	0.095
-258.165	-59.293	0.052	-0.022
-257.151	-101.907	-0.074	0.018
-256.136	230.008	0.155	-0.250
-255.122	8.494	-0.399	-0.297
-254.107	-200.000	-0.020	0.204
-253.092	358.263	0.118	0.232
-252.078	-60.722	-0.150	0.063
-251.063	-105.269	-0.053	0.012
-250.049	-178.557	0.257	0.006
-249.034	3.004	0.090	-0.065
-248.019	800.000	0.068	0.251
-247.005	800.000	0.043	-0.139
-245.990	-200.000	-0.040	0.226
-244.976	-42.162	0.207	0.105
-243.961	-107.697	0.170	-0.037
-242.946	800.000	0.077	0.280
-241.932	313.582	-0.053	0.098
-240.917	228.217	0.083	-0.134
-239.903	-98.542	-0.267	0.067
-238.888	-200.000	-0.003	0.165
-237.873	83.729	0.141	-0.152
-236.859	607.092	0.074	-0.182
-235.844	800.000	-0.034	0.105
-234.830	-152.771	-0.389	-0.027
-233.815	-37.542	0.123	-0.065
-232.800	155.131	-0.120	-0.163
-231.786	-109.872	0.225	-0.047
-230.771	-22.484	-0.126	0.075
-229.757	4.146	0.293	-0.211
-228.742	-55.160	0.450	-0.200
-227.727	1.678	0.109	0.077
-226.713	316.382	-0.217	-0.404
-225.698	800.000	-0.069	0.193
-224.684	800.000	0.068	-0.278
-223.669	317.306	-0.089	-0.166
-222.655	-137.296	-0.332	-0.037
-221.640	-144.614	0.340	0.031
-220.625	800.000	-0.022	0.082
-219.611	108.541	-0.057	0.068
-218.596	-200.000	-0.019	-0.092
-217.582	72.391	-0.020	0.021
-216.567	135.487	-0.015	0.019
-215.552	-200.000	-0.008	0.143
-214.538	17.530	-0.128	-0.101
-213.523	-141.818	-0.172	0.017
-212.509	351.993	0.140	-0.273
-211.494	497.300	0.098	-0.223
-210.479	-200.000	0.064	0.355
-209.465	185.771	-0.148	0.217
-208.450	48.750	-0.073	-0.068
-207.436	497.478	-0.124	0.282
-206.421	-200.000	0.025	-0.262
-205.406	148.471	0.204	0.272
-204.392	-123.294	0.190	0.030
-203.377	-200.000	0.001	0.242
-202.363	470.584	0.066	0.147
-201.348	800.000	-0.045	0.167
-200.333	41.170	-0.228	-0.203
-199.319	67.534	0.052	-0.052
-198.304	-200.000	0.046	0.242
-197.290	14.880	-0.325	-0.251
-196.275	-73.839	0.119	-0.043
-195.260	-200.000	-0.015	0.246
-194.246	-200.000	-0.017	0.134
-193.231	244.295	-0.168	0.278
-192.217	171.651	-0.049	-0.069
-191.202	800.000	-0.051	0.174
-190.187	800.000	0.055	0.222
-189.173	0.480	-0.076	-0.053
-188.158	-68.570	0.271	0.103
-187.144	-79.051	-0.087	0.029
-186.129	29.609	0.457	-0.383
-185.114	177.364	-0.181	-0.259
-184.100	445.473	0.130	0.280
-183.085	-200.000	-0.023	0.138
-182.071	-10.601	-0.170	0.111
-181.056	-73.298	0.206	-0.074
-180.042	105.254	0.239	0.278
-179.027	800.000	-0.009	-0.037
-178.012	285.036	0.020	0.036
-176.998	282.411	0.230	-0.406
-175.983	414.887	0.161	-0.339
-174.969	-55.706	-0.101	0.044
-173.954	2.685	0.569	0.406
-172.939	-200.000	-0.019	-0.179
-171.925	-58.785	-0.165	-0.070
-170.910	765.787	0.169	0.452
-169.896	-133.024	-0.168	0.021
-168.881	-135.702	0.233	-0.027
-167.866	271.730	-0.171	0.298
-166.852	-16.633	-0.180	0.112
-165.837	18.835	-0.142	-0.112
-164.823	314.990	0.048	0.090
-163.808	510.793	0.119	0.273
-162.793	33.496	-0.252	0.215
-161.779	557.688	0.170	0.403
-160.764	800.000	0.080	0.247
-159.750	-200.000	0.029	-0.205
-158.735	210.731	-0.135	-0.208
-157.720	-200.000	0.003	-0.024
-156.706	-119.948	-0.090	-0.015
-155.691	800.000	-0.129	0.373
-154.677	-2.204	0.150	0.104
-153.662	-130.941	-0.168	-0.022
-152.647	-93.560	0.259	-0.071
-151.633	800.000	0.121	-0.420
-150.618	-118.698	0.201	0.035
-149.604	-85.731	0.099	0.030
-148.589	-195.779	0.472	0.003
-147.574	-162.861	0.171	0.008
-146.560	177.999	-0.144	-0.207
-145.545	-10.410	0.082	-0.054
-144.531	-200.000	-0.059	-0.285
-143.516	-40.809	0.271	0.138
-142.502	-120.837	0.291	0.048
-141.487	13.309	-0.198	-0.151
-140.472	36.534	-0.032	0.028
-139.458	-179.367	0.100	-0.002
-138.443	228.765	0.095	0.152
-137.429	-37.740	-0.185	-0.097
-136.414	-200.000	0.017	0.079
-135.399	-200.000	-0.004	-0.020
-134.385	231.530	0.234	0.377
-133.370	358.155	0.063	-0.123
-132.356	-10.241	0.108	0.071
-131.341	-38.462	0.351	-0.182
-130.326	100.970	0.176	-0.202
-129.312	-120.455	-0.152	0.025
-128.297	-50.095	0.175	0.082
-127.283	160.127	-0.130	-0.178
-126.268	46.386	0.241	-0.219
-125.253	-169.932	-0.039	0.001
-124.239	-111.079	-0.135	-0.027
-123.224	22.242	0.234	-0.188
-122.210	719.132	-0.130	0.338
-121.195	-200.000	-0.027	-0.126
