DTS Sentinel unit serial number:	SN413079Multiplexer serial number:	ORYXHardware model number:	OX4-SRSoftware version number:	ORYX F/W v4.00 Oryx Data Collector v3.7.2.0data status	okinstallation	princeton_trtdifferential loss correction	single-endedforward channel	channel 1reverse channel	N/Adate	2019/09/16time	15:50:35forward acquisition time	60.00reverse acquisition time	0.00gamma	496.2192k internal	0.2292k external	0.2292temperature offset calibration	0.9953default loss term (dB/km)	0.3790temperature slope calibration	1.0000multiplexer offset coefficient	1.0000multiplexer slope coefficient	1.0000fibre end	0.00T internal ref (°C)	41.12T ext. ref 1 (°C)	14.82T ext. ref 2 (°C)	35.97length (m)	temperature (°C)	Stokes	anti-Stokes-747.200	144.014	-0.089	-0.122
-746.185	533.714	0.181	0.440
-745.171	518.118	0.081	0.195
-744.156	-200.000	0.009	0.212
-743.142	-200.000	0.011	0.164
-742.127	21.469	-0.126	0.105
-741.112	-200.000	-0.027	0.269
-740.098	-200.000	0.038	0.366
-739.083	-200.000	-0.004	0.176
-738.069	-68.660	0.264	-0.105
-737.054	11.817	0.170	-0.133
-736.039	30.488	-0.159	-0.139
-735.025	-102.813	0.168	-0.041
-734.010	131.117	-0.071	-0.094
-732.996	800.000	-0.070	-0.207
-731.981	417.553	0.110	-0.240
-730.966	-200.000	-0.005	-0.098
-729.952	60.386	-0.235	-0.238
-728.937	-186.675	0.188	0.003
-727.923	799.971	-0.093	-0.263
-726.908	-20.105	0.256	0.161
-725.894	168.102	-0.069	0.101
-724.879	73.206	-0.058	0.062
-723.864	254.195	-0.033	-0.058
-722.850	-138.108	-0.297	0.034
-721.835	-78.186	-0.288	0.101
-720.821	4.816	0.133	-0.100
-719.806	375.128	0.103	-0.214
-718.791	-71.540	-0.167	-0.064
-717.777	-135.107	0.397	-0.049
-716.762	23.527	0.167	0.141
-715.748	355.220	0.047	0.096
-714.733	174.885	0.072	0.106
-713.718	155.586	-0.113	-0.160
-712.704	-85.981	0.125	0.040
-711.689	8.726	0.125	0.096
-710.675	419.140	-0.091	0.199
-709.660	269.717	0.092	0.166
-708.645	800.000	-0.109	-0.319
-707.631	-48.807	-0.403	-0.198
-706.616	57.875	-0.099	0.099
-705.602	800.000	-0.052	0.164
-704.587	-49.329	0.201	-0.098
-703.572	67.638	0.121	-0.127
-702.558	474.923	-0.179	-0.414
-701.543	576.978	-0.010	-0.024
-700.529	-159.484	-0.346	-0.020
-699.514	4.187	-0.087	-0.065
-698.499	67.334	0.081	-0.084
-697.485	-145.906	-0.198	-0.018
-696.470	-79.211	-0.202	0.070
-695.456	96.487	-0.125	-0.146
-694.441	-134.717	-0.138	0.017
-693.426	232.919	0.142	-0.239
-692.412	15.032	-0.215	-0.172
-691.397	260.454	-0.009	-0.015
-690.383	-200.000	-0.021	0.224
-689.368	22.511	-0.127	-0.106
-688.354	-200.000	0.009	-0.056
-687.339	66.344	0.177	0.183
-686.324	-16.559	-0.221	0.143
-685.310	32.183	-0.119	0.105
-684.295	800.000	0.099	0.282
-683.281	800.000	-0.054	0.218
-682.266	66.550	-0.216	-0.224
-681.251	-184.513	-0.299	0.005
-680.237	251.408	0.239	-0.416
-679.222	-200.000	0.005	-0.126
-678.208	91.736	0.034	0.039
-677.193	70.862	0.213	-0.225
-676.178	800.000	-0.112	0.413
-675.164	-180.343	-0.532	0.011
-674.149	-200.000	0.034	0.243
-673.135	-24.919	-0.262	-0.159
-672.120	189.094	0.173	-0.265
-671.105	353.649	0.172	-0.347
-670.091	178.332	-0.146	-0.217
-669.076	-96.416	0.232	0.063
-668.062	-135.193	-0.256	0.031
-667.047	-147.134	-0.079	-0.007
-666.032	-200.000	0.030	0.199
-665.018	-37.449	-0.327	-0.178
-664.003	-200.000	0.025	-0.292
-662.989	-39.115	-0.246	0.132
-661.974	-41.956	-0.264	-0.138
-660.959	-200.000	0.109	-0.514
-659.945	-57.194	-0.218	-0.098
-658.930	249.399	-0.263	0.454
-657.916	192.486	0.219	0.336
-656.901	142.952	-0.149	-0.202
-655.886	391.122	0.098	-0.207
-654.872	-9.897	-0.187	-0.127
-653.857	219.402	0.186	0.303
-652.843	151.012	-0.115	-0.159
-651.828	167.371	0.274	0.397
-650.814	-200.000	0.030	-0.184
-649.799	-200.000	0.042	-0.373
-648.784	-94.820	-0.043	0.012
-647.770	28.503	0.266	-0.229
-646.755	137.980	-0.240	-0.321
-645.741	-27.971	0.266	-0.157
-644.726	0.180	-0.250	-0.182
-643.711	1.919	-0.172	0.126
-642.697	57.477	0.121	0.121
-641.682	316.234	0.122	0.235
-640.668	-96.256	-0.218	0.059
-639.653	-64.525	-0.188	-0.078
-638.638	54.149	0.300	0.294
-637.624	396.658	0.142	-0.302
-636.609	27.200	-0.165	0.141
-635.595	-122.407	0.094	-0.016
-634.580	113.186	-0.185	-0.228
-633.565	-67.508	-0.129	-0.051
-632.551	-99.893	-0.467	-0.119
-631.536	-77.708	-0.220	-0.077
-630.522	-118.067	-0.317	0.058
-629.507	-168.717	0.114	-0.004
-628.492	-36.615	0.289	0.158
-627.478	-125.438	-0.098	0.015
-626.463	-74.191	-0.240	-0.088
-625.449	-118.632	-0.169	0.030
-624.434	290.015	-0.145	0.269
-623.419	-106.169	0.034	0.008
-622.405	-200.000	0.137	-0.000
-621.390	800.000	-0.100	-0.304
-620.376	-40.942	0.217	0.114
-619.361	-110.871	-0.059	-0.012
-618.346	-28.689	-0.074	0.043
-617.332	-161.087	-0.437	-0.023
-616.317	800.000	0.057	-0.204
-615.303	800.000	0.144	-0.494
-614.288	101.710	0.026	-0.031
-613.273	-183.433	0.065	-0.001
-612.259	-6.780	0.083	0.058
-611.244	-93.566	-0.454	-0.128
-610.230	12.163	0.067	-0.053
-609.215	-172.730	-0.367	-0.012
-608.201	296.337	-0.106	0.198
-607.186	-200.000	-0.001	0.121
-606.171	-200.000	0.033	-0.237
-605.157	-149.701	-0.156	0.013
-604.142	3.909	0.144	0.107
-603.128	647.450	0.119	0.311
-602.113	0.945	0.349	-0.255
-601.098	96.700	-0.154	-0.180
-600.084	-200.000	-0.017	0.155
-599.069	-32.929	0.076	-0.043
-598.055	-62.775	-0.245	0.103
-597.040	800.000	-0.047	-0.173
-596.025	120.192	0.183	0.231
-595.011	56.592	-0.184	-0.182
-593.996	318.352	-0.075	0.144
-592.982	-156.868	0.185	-0.012
-591.967	-96.546	0.164	0.044
-590.952	72.355	-0.171	0.181
-589.938	-171.341	-0.120	-0.004
-588.923	-92.886	-0.303	-0.086
-587.909	800.000	0.135	0.544
-586.894	3.465	-0.288	0.214
-585.879	800.000	-0.041	0.130
-584.865	51.602	0.168	0.162
-583.850	14.772	0.162	-0.129
-582.836	-200.000	0.004	0.175
-581.821	-14.520	0.228	-0.149
-580.806	-6.348	0.076	0.053
-579.792	295.246	0.062	-0.115
-578.777	8.741	-0.256	-0.196
-577.763	568.762	0.113	-0.279
-576.748	85.000	-0.157	0.175
-575.733	-109.696	-0.244	0.052
-574.719	-38.531	0.131	-0.070
-573.704	-63.502	-0.185	-0.077
-572.690	-135.645	0.202	0.024
-571.675	-200.000	-0.013	-0.208
-570.661	111.578	-0.027	0.033
-569.646	-173.503	-0.265	-0.008
-568.631	-200.000	-0.011	0.128
-567.617	91.736	-0.194	0.222
-566.602	-70.114	0.068	-0.026
-565.588	134.760	0.240	0.316
-564.573	-70.188	-0.144	-0.056
-563.558	-102.992	-0.247	0.060
-562.544	55.968	-0.136	0.134
-561.529	518.414	-0.030	-0.070
-560.515	-132.972	0.347	-0.045
-559.500	45.404	-0.296	-0.278
-558.485	-102.241	-0.229	-0.056
-557.471	-144.242	0.293	0.028
-556.456	601.547	0.009	0.023
-555.442	66.279	-0.282	0.291
-554.427	-86.584	-0.177	0.055
-553.412	192.290	0.120	-0.184
-552.398	-23.742	0.129	-0.078
-551.383	-66.621	0.236	0.095
-550.369	18.383	0.007	-0.006
-549.354	716.727	-0.084	-0.226
-548.339	-200.000	0.004	0.106
-547.325	-111.282	0.326	0.068
-546.310	-174.873	-0.339	0.010
-545.296	25.109	0.149	-0.126
-544.281	-69.974	0.070	0.027
-543.266	201.566	0.105	0.165
-542.252	800.000	0.035	0.136
-541.237	-45.424	-0.047	-0.024
-540.223	3.215	-0.163	-0.120
-539.208	-53.156	0.454	-0.212
-538.193	-67.530	0.309	-0.123
-537.179	14.894	-0.352	0.279
-536.164	167.835	0.018	0.026
-535.150	800.000	-0.026	-0.114
-534.135	224.040	-0.116	-0.190
-533.121	201.202	-0.146	-0.229
-532.106	17.194	0.267	0.215
-531.091	-200.000	-0.089	-0.467
-530.077	-120.190	-0.209	-0.036
-529.062	251.457	-0.177	-0.306
-528.048	800.000	-0.079	-0.258
-527.033	121.781	0.067	-0.085
-526.018	77.766	-0.102	-0.110
-525.004	-200.000	0.104	0.486
-523.989	-97.599	-0.145	-0.038
-522.975	17.795	0.442	0.357
-521.960	338.845	-0.051	0.100
-520.945	21.580	0.108	-0.089
-519.931	-14.387	0.243	-0.159
-518.916	24.711	0.144	-0.121
-517.902	-55.359	0.321	0.146
-516.887	-200.000	0.034	-0.332
-515.872	417.176	0.166	-0.359
-514.858	-50.798	0.346	0.165
-513.843	-6.934	0.154	-0.106
-512.829	-22.869	0.091	-0.056
-511.814	800.000	0.039	-0.111
-510.799	14.006	0.114	-0.090
-509.785	-126.534	-0.081	-0.012
-508.770	-23.058	-0.064	0.039
-507.756	-117.246	0.288	-0.053
-506.741	564.177	0.119	-0.292
-505.726	800.000	-0.041	-0.149
-504.712	-200.000	0.001	0.199
-503.697	-124.799	0.265	-0.042
-502.683	44.481	-0.215	-0.200
-501.668	375.056	0.052	-0.108
-500.653	179.257	0.087	0.130
-499.639	-200.000	0.019	-0.230
-498.624	-200.000	0.063	0.308
-497.610	106.133	-0.079	0.095
-496.595	312.883	0.168	0.320
-495.581	-200.000	0.075	0.346
-494.566	-4.853	0.171	-0.119
-493.551	-200.000	0.006	0.185
-492.537	228.622	0.096	0.159
-491.522	-146.742	-0.287	-0.025
-490.508	-148.533	0.238	-0.020
-489.493	-200.000	-0.044	0.264
-488.478	132.403	-0.252	-0.330
-487.464	201.684	0.256	0.400
-486.449	35.508	0.157	-0.140
-485.435	-200.000	0.016	0.156
-484.420	112.339	-0.066	0.081
-483.405	800.000	-0.069	-0.224
-482.391	-42.743	-0.305	-0.157
-481.376	-200.000	-0.004	0.081
-480.362	672.535	0.066	-0.173
-479.347	800.000	0.033	0.121
-478.332	-36.422	-0.047	-0.026
-477.318	489.673	-0.082	-0.190
-476.303	784.829	-0.042	-0.115
-475.289	74.221	-0.059	0.062
-474.274	-91.356	-0.114	0.033
-473.259	-31.040	-0.065	-0.037
-472.245	-200.000	-0.111	0.001
-471.230	107.503	0.139	0.167
-470.216	-157.953	0.161	-0.010
-469.201	-200.000	-0.025	-0.166
-468.186	94.286	-0.018	0.021
-467.172	-135.642	-0.278	-0.033
-466.157	375.370	-0.054	0.111
-465.143	343.706	0.063	-0.125
-464.128	-76.225	-0.422	0.151
-463.113	-53.068	-0.245	-0.114
-462.099	-200.000	0.063	0.332
-461.084	800.000	-0.088	0.253
-460.070	-200.000	0.007	0.338
-459.055	-200.000	-0.012	0.074
-458.040	-63.770	-0.110	-0.046
-457.026	89.889	0.151	0.171
-456.011	138.387	-0.103	-0.136
-454.997	-23.366	0.231	0.141
-453.982	-141.296	0.307	-0.032
-452.968	-200.000	0.010	0.119
-451.953	222.826	-0.160	-0.261
-450.938	-200.000	-0.020	-0.147
-449.924	196.990	-0.103	0.159
-448.909	-145.069	0.108	-0.010
-447.895	66.571	0.221	-0.228
-446.880	800.000	0.014	-0.053
-445.865	73.619	0.151	-0.160
-444.851	-200.000	0.004	0.098
-443.836	-91.449	-0.233	0.067
-442.822	303.276	0.116	0.218
-441.807	-154.602	-0.180	-0.012
-440.792	-30.487	-0.240	0.138
-439.778	-200.000	-0.057	0.277
-438.763	23.699	0.079	0.066
-437.749	30.705	0.252	-0.218
-436.734	661.043	-0.127	-0.331
-435.719	-51.651	0.261	0.123
-434.705	-132.534	0.230	0.030
-433.690	800.000	-0.053	0.160
-432.676	-56.984	0.036	0.016
-431.661	270.381	0.097	-0.172
-430.646	-200.000	0.006	-0.052
-429.632	47.122	-0.134	0.126
-428.617	183.144	0.100	0.149
-427.603	-200.000	-0.039	-0.188
-426.588	138.122	-0.072	-0.096
-425.573	133.835	0.104	-0.136
-424.559	-51.132	-0.110	-0.052
-423.544	91.500	0.086	0.098
-422.530	-88.560	0.451	0.136
-421.515	-74.526	-0.079	0.029
-420.500	422.060	0.118	0.255
-419.486	-89.464	0.094	-0.028
-418.471	-200.000	-0.002	0.247
-417.457	-200.000	0.026	0.346
-416.442	-116.212	-0.305	0.057
-415.428	298.516	-0.076	0.142
-414.413	136.664	-0.236	-0.311
-413.398	-200.000	-0.056	-0.268
-412.384	-200.000	0.011	0.124
-411.369	-5.092	0.127	-0.088
-410.355	309.761	-0.087	0.165
-409.340	151.214	-0.164	0.226
-408.325	-200.000	-0.017	-0.211
-407.311	133.609	-0.165	0.216
-406.296	-43.560	-0.225	0.115
-405.282	-39.173	0.307	0.163
-404.267	-59.458	0.095	-0.041
-403.252	-200.000	-0.041	-0.305
-402.238	-12.806	-0.294	0.193
-401.223	196.953	-0.260	-0.400
-400.209	530.160	0.128	0.306
-399.194	214.568	-0.172	-0.275
-398.179	113.653	-0.033	0.041
-397.165	800.000	0.078	-0.230
-396.150	-142.749	0.028	0.003
-395.136	-76.431	-0.262	-0.093
-394.121	-200.000	0.041	-0.217
-393.106	660.088	0.056	-0.146
-392.092	-200.000	-0.001	-0.169
-391.077	39.415	0.222	-0.200
-390.063	-73.497	0.238	-0.088
-389.048	-27.556	-0.209	-0.123
-388.033	-200.000	0.019	-0.228
-387.019	23.127	0.170	0.141
-386.004	534.943	0.087	0.209
-384.990	-26.839	-0.042	0.025
-383.975	420.058	-0.019	-0.040
-382.960	-180.085	0.114	0.002
-381.946	800.000	0.101	-0.303
-380.931	-122.792	0.187	0.030
-379.917	-200.000	0.017	-0.133
-378.902	8.144	-0.186	-0.141
-377.888	-101.957	0.039	-0.010
-376.873	127.350	0.176	-0.225
-375.858	28.737	0.253	0.216
-374.844	10.898	-0.066	0.051
-373.829	800.000	0.007	-0.026
-372.815	-7.592	-0.032	0.022
-371.800	203.972	0.076	0.119
-370.785	-200.000	-0.020	-0.208
-369.771	800.000	0.012	0.051
-368.756	-19.262	0.190	-0.119
-367.742	-30.650	0.380	-0.217
-366.727	531.998	0.073	-0.173
-365.712	84.172	-0.047	0.051
-364.698	-9.935	0.365	-0.245
-363.683	-113.370	0.058	-0.012
-362.669	414.195	-0.044	0.094
-361.654	-67.968	-0.058	-0.023
-360.639	462.833	0.122	0.275
-359.625	-200.000	0.033	0.149
-358.610	645.331	0.045	0.116
-357.596	153.437	-0.090	-0.124
-356.581	167.488	0.063	0.091
-355.566	-165.408	-0.186	0.008
-354.552	-200.000	0.044	0.363
-353.537	-200.000	-0.008	0.138
-352.523	-76.807	-0.317	0.112
-351.508	45.633	0.148	-0.138
-350.493	-200.000	-0.030	0.203
-349.479	97.804	-0.089	0.103
-348.464	-200.000	-0.046	-0.227
-347.450	507.756	0.085	-0.199
-346.435	-109.275	-0.273	-0.058
-345.420	-60.232	-0.247	-0.106
-344.406	35.067	-0.256	-0.225
-343.391	800.000	0.098	-0.329
-342.377	-45.044	0.139	-0.070
-341.362	800.000	0.035	0.134
-340.348	28.330	0.255	-0.217
-339.333	158.017	0.099	-0.139
-338.318	139.276	-0.062	0.082
-337.304	-27.508	-0.275	0.161
-336.289	-154.914	-0.231	0.015
-335.275	11.651	-0.224	-0.173
-334.260	79.275	0.070	0.076
-333.245	-200.000	-0.010	0.051
-332.231	190.197	0.087	0.132
-331.216	318.971	0.143	0.273
-330.202	-200.000	-0.032	0.217
-329.187	-44.167	0.154	0.078
-328.172	18.757	-0.048	-0.039
-327.158	-170.247	0.177	0.006
-326.143	558.688	0.047	0.114
-325.129	-17.280	-0.098	-0.062
-324.114	-200.000	-0.019	-0.264
-323.099	-189.556	0.347	0.004
-322.085	115.562	-0.080	-0.099
-321.070	50.433	-0.199	0.190
-320.056	235.590	0.172	0.286
-319.041	-175.102	0.142	-0.004
-318.026	17.270	-0.219	0.175
-317.012	-148.734	0.231	0.019
-315.997	-74.026	-0.204	-0.074
-314.983	314.066	0.068	-0.129
-313.968	439.890	0.067	-0.148
-312.953	19.296	-0.356	0.287
-311.939	-200.000	-0.035	0.279
-310.924	267.625	-0.184	0.324
-309.910	91.725	-0.079	0.090
-308.895	-110.059	0.126	-0.027
-307.880	12.171	0.186	-0.144
-306.866	-98.702	0.135	-0.035
-305.851	-84.548	0.167	0.053
-304.837	-14.229	-0.105	0.068
-303.822	-98.435	-0.091	-0.024
-302.807	-200.000	-0.076	-0.376
-301.793	800.000	-0.122	-0.359
-300.778	-81.494	-0.205	-0.068
-299.764	-67.602	-0.033	0.013
-298.749	-200.000	-0.038	-0.196
-297.735	-118.493	0.195	-0.035
-296.720	-19.970	0.133	-0.082
-295.705	800.000	-0.033	-0.143
-294.691	-200.000	-0.018	0.087
-293.676	493.641	-0.155	-0.358
-292.662	-146.875	-0.250	-0.022
-291.647	-200.000	-0.021	0.409
-290.632	-98.366	-0.145	0.037
-289.618	-136.408	-0.269	0.032
-288.603	800.000	0.049	0.184
-287.589	359.981	-0.104	0.210
-286.574	-200.000	0.009	0.450
-285.559	-31.674	0.193	-0.109
-284.545	-11.336	0.156	-0.103
-283.530	105.258	-0.118	0.140
-282.516	88.865	0.091	0.102
-281.501	-4.441	-0.119	-0.083
-280.486	-1.743	0.320	0.226
-279.472	-130.638	0.379	-0.051
-278.457	-38.278	-0.351	-0.187
-277.443	800.000	0.065	0.209
-276.428	-200.000	0.021	0.450
-275.413	-200.000	0.003	-0.201
-274.399	-42.179	0.107	-0.055
-273.384	-163.868	0.213	0.010
-272.370	-125.589	-0.110	-0.017
-271.355	-83.356	0.191	-0.062
-270.340	-10.230	-0.219	0.146
-269.326	-159.288	-0.275	0.015
-268.311	61.707	-0.119	0.119
-267.297	-110.688	0.240	0.050
-266.282	433.583	-0.099	-0.217
-265.267	-200.000	0.001	0.506
-264.253	-120.250	-0.162	-0.028
-263.238	800.000	-0.082	0.308
-262.224	800.000	0.045	0.177
-261.209	-109.461	-0.140	-0.030
-260.195	-149.888	0.287	-0.023
-259.180	-86.720	0.032	-0.010
-258.165	-200.000	-0.013	0.087
-257.151	-200.000	-0.068	-0.419
-256.136	138.668	0.229	-0.302
-255.122	60.174	-0.158	0.157
-254.107	800.000	-0.095	-0.396
-253.092	-68.440	-0.162	-0.063
-252.078	-50.586	-0.215	0.102
-251.063	349.929	-0.035	0.069
-250.049	18.465	-0.158	-0.127
-249.034	-121.653	-0.112	0.019
-248.019	-109.629	0.401	0.085
-247.005	294.184	0.079	0.145
-245.990	70.858	-0.121	0.126
-244.976	-88.573	0.062	-0.018
-243.961	-200.000	-0.013	-0.208
-242.946	-200.000	-0.036	-0.193
-241.932	-66.576	0.207	-0.082
-240.917	175.033	-0.115	-0.168
-239.903	294.687	0.047	0.086
-238.888	117.787	0.188	-0.233
-237.873	94.053	-0.099	0.113
-236.859	-16.320	0.112	0.071
-235.844	-37.908	-0.043	-0.023
-234.830	20.658	0.151	-0.123
-233.815	23.690	-0.389	-0.322
-232.800	-128.460	0.165	-0.024
-231.786	800.000	0.138	-0.570
-230.771	-40.431	0.079	-0.041
-229.757	28.729	0.152	-0.129
-228.742	-121.140	-0.098	0.016
-227.727	141.018	-0.101	-0.134
-226.713	-26.609	-0.232	-0.136
-225.698	706.618	-0.095	-0.251
-224.684	-63.667	-0.134	-0.055
-223.669	-140.334	-0.283	-0.030
-222.655	335.081	0.131	0.255
-221.640	-200.000	-0.014	0.247
-220.625	-121.237	-0.102	-0.017
-219.611	-200.000	0.002	0.205
-218.596	-68.210	0.099	0.038
-217.582	1.074	0.213	-0.154
-216.567	16.320	0.331	0.262
-215.552	-90.268	0.044	-0.013
-214.538	-152.403	0.127	-0.009
-213.523	-200.000	-0.051	-0.316
-212.509	339.465	-0.025	0.049
-211.494	399.140	-0.068	-0.142
-210.479	635.220	0.031	-0.078
-209.465	-200.000	0.050	-0.324
-208.450	-200.000	-0.070	0.336
-207.436	55.900	0.208	0.202
-206.421	309.877	0.047	0.087
-205.406	-200.000	-0.020	0.119
-204.392	-14.663	0.231	0.149
-203.377	800.000	0.043	-0.153
-202.363	-42.455	0.136	0.069
-201.348	-124.683	0.136	0.021
-200.333	-63.214	-0.320	0.132
-199.319	60.716	0.021	-0.021
-198.304	-95.322	0.268	-0.072
-197.290	139.302	-0.148	0.195
-196.275	-200.000	-0.036	0.162
-195.260	32.919	0.311	0.269
-194.246	75.021	0.088	-0.093
-193.231	182.058	0.219	-0.322
-192.217	-200.000	0.043	-0.219
-191.202	-200.000	0.061	0.476
-190.187	32.248	-0.044	-0.038
-189.173	-2.411	0.134	0.094
-188.158	-200.000	0.057	-0.357
-187.144	796.129	-0.044	-0.120
-186.129	-118.001	-0.131	0.023
-185.114	800.000	-0.060	0.201
-184.100	-2.996	0.150	-0.105
-183.085	552.836	0.157	0.378
-182.071	159.929	-0.038	-0.053
-181.056	35.231	-0.181	-0.159
-180.042	-57.719	-0.342	0.150
-179.027	84.716	-0.185	0.203
-178.012	-72.294	0.275	-0.102
-176.998	75.577	0.138	-0.146
-175.983	-148.758	0.332	-0.027
-174.969	44.787	0.097	-0.090
-173.954	-20.613	-0.103	-0.063
-172.939	-177.683	0.347	-0.008
-171.925	50.252	0.267	0.253
-170.910	0.910	0.191	0.137
-169.896	-97.324	-0.236	-0.062
-168.881	630.737	0.006	-0.016
-167.866	-96.305	-0.238	0.063
-166.852	116.035	0.112	0.137
-165.837	120.848	-0.133	-0.166
-164.823	167.270	0.184	0.261
-163.808	168.055	-0.040	0.057
-162.793	259.572	0.083	0.144
-161.779	-200.000	-0.023	0.315
-160.764	4.696	-0.177	-0.130
-159.750	-172.155	-0.141	-0.005
-158.735	98.954	0.028	0.033
-157.720	488.550	-0.023	0.053
-156.706	-200.000	-0.023	0.236
-155.691	-95.861	-0.231	-0.062
-154.677	-98.313	-0.204	-0.052
-153.662	-12.619	-0.224	0.146
-152.647	-200.000	-0.042	0.193
-151.633	79.257	-0.210	0.225
-150.618	-115.990	-0.099	-0.019
-149.604	800.000	-0.019	-0.066
-148.589	-73.036	-0.190	-0.070
-147.574	-117.101	-0.324	0.059
-146.560	220.162	-0.096	-0.155
-145.545	-63.519	-0.442	0.182
-144.531	-156.889	0.317	0.019
-143.516	-57.914	-0.117	-0.051
-142.502	-200.000	-0.013	0.108
-141.487	-54.165	0.209	0.095
-140.472	717.862	-0.073	0.194
-139.458	27.355	-0.219	0.184
-138.443	579.801	-0.069	0.169
-137.429	404.668	0.255	0.536
-136.414	-37.990	0.192	0.102
-135.399	-155.152	-0.056	-0.004
-134.385	-120.894	-0.118	0.020
-133.370	580.123	0.051	-0.125
-132.356	262.796	0.034	-0.059
-131.341	-52.569	-0.406	0.188
-130.326	-135.190	0.141	-0.017
-129.312	-150.546	0.444	-0.034
-128.297	-104.448	0.235	0.054
-127.283	43.624	-0.104	-0.095
-126.268	-200.000	-0.073	0.341
-125.253	-200.000	0.050	-0.272
-124.239	308.622	0.148	-0.276
-123.224	715.872	0.068	-0.180
-122.210	-122.005	-0.246	-0.040
-121.195	13.602	0.150	-0.116
