DTS Sentinel unit serial number:	SN413079Multiplexer serial number:	ORYXHardware model number:	OX4-SRSoftware version number:	ORYX F/W v4.00 Oryx Data Collector v3.7.2.0data status	okinstallation	princeton_trtdifferential loss correction	single-endedforward channel	channel 1reverse channel	N/Adate	2019/09/17time	02:50:36forward acquisition time	60.00reverse acquisition time	0.00gamma	496.2192k internal	0.2323k external	0.2323temperature offset calibration	0.9956default loss term (dB/km)	0.3790temperature slope calibration	1.0000multiplexer offset coefficient	1.0000multiplexer slope coefficient	1.0000fibre end	0.00T internal ref (°C)	29.87T ext. ref 1 (°C)	0.12T ext. ref 2 (°C)	24.87length (m)	temperature (°C)	Stokes	anti-Stokes-747.200	-73.983	-0.151	0.055
-746.185	-120.294	0.176	-0.030
-745.171	-200.000	0.046	0.232
-744.156	-141.374	0.224	-0.023
-743.142	-200.000	0.025	0.112
-742.127	345.200	0.145	0.288
-741.112	-70.176	0.215	-0.083
-740.098	-200.000	0.075	0.421
-739.083	100.779	-0.318	0.373
-738.069	53.304	-0.101	0.097
-737.054	-144.219	0.133	-0.013
-736.039	-200.000	-0.039	0.377
-735.025	22.455	0.034	0.028
-734.010	-14.096	-0.118	-0.077
-732.996	186.869	-0.165	0.249
-731.981	37.836	0.076	0.068
-730.966	92.092	-0.233	-0.264
-729.952	454.814	-0.071	-0.160
-728.937	-200.000	0.001	0.136
-727.923	-183.095	-0.111	-0.002
-726.908	-89.546	-0.250	-0.074
-725.894	317.815	0.055	-0.105
-724.879	-133.734	0.104	0.013
-723.864	-132.486	-0.260	0.034
-722.850	-14.301	-0.228	-0.148
-721.835	-200.000	-0.021	-0.102
-720.821	800.000	-0.125	-0.430
-719.806	-133.109	0.225	-0.029
-718.791	-105.222	-0.258	-0.059
-717.777	-200.000	0.040	0.249
-716.762	-184.581	0.277	0.005
-715.748	800.000	-0.049	-0.163
-714.733	-200.000	0.007	0.128
-713.718	-200.000	-0.029	0.395
-712.704	-126.978	0.076	0.011
-711.689	131.072	-0.246	0.319
-710.675	36.745	-0.124	-0.110
-709.660	-86.129	-0.191	-0.060
-708.645	-200.000	0.200	0.000
-707.631	-144.264	-0.257	0.024
-706.616	24.699	-0.295	-0.247
-705.602	108.076	0.054	-0.065
-704.587	57.965	-0.171	-0.169
-703.572	60.485	-0.320	-0.320
-702.558	-200.000	-0.025	-0.198
-701.543	-76.184	0.302	-0.107
-700.529	800.000	0.060	-0.214
-699.514	-31.704	0.121	-0.068
-698.499	-67.750	-0.137	-0.054
-697.485	-200.000	0.010	0.286
-696.470	-84.225	-0.189	0.060
-695.456	-30.276	0.329	0.188
-694.441	-4.066	0.198	-0.138
-693.426	216.061	-0.139	-0.222
-692.412	-200.000	-0.041	0.336
-691.397	800.000	0.084	0.304
-690.383	307.764	0.047	-0.088
-689.368	-3.777	-0.183	0.128
-688.354	-200.000	-0.055	-0.251
-687.339	-122.001	-0.208	-0.034
-686.324	-200.000	0.017	-0.332
-685.310	593.560	-0.085	0.211
-684.295	-145.214	0.178	0.016
-683.281	158.881	0.179	-0.251
-682.266	-93.489	-0.078	0.022
-681.251	-200.000	-0.050	-0.374
-680.237	-87.965	-0.207	0.063
-679.222	474.636	0.066	-0.150
-678.208	-78.738	0.125	0.043
-677.193	-9.839	-0.128	-0.086
-676.178	-44.364	-0.114	-0.058
-675.164	208.541	0.094	-0.148
-674.149	-69.871	0.008	0.003
-673.135	245.921	-0.099	0.168
-672.120	-61.807	-0.284	0.120
-671.105	153.300	-0.295	-0.407
-670.091	296.819	-0.069	0.128
-669.076	238.366	0.032	0.053
-668.062	68.820	-0.203	0.209
-667.047	12.388	0.027	-0.021
-666.032	800.000	0.022	0.082
-665.018	-200.000	-0.021	-0.167
-664.003	800.000	0.040	-0.122
-662.989	46.803	-0.203	-0.190
-661.974	293.232	-0.114	-0.210
-660.959	-156.750	-0.515	-0.032
-659.945	-162.973	-0.138	0.007
-658.930	-45.591	0.206	-0.103
-657.916	-34.765	0.141	0.077
-656.901	133.180	-0.086	-0.112
-655.886	-7.414	-0.113	0.077
-654.872	-200.000	-0.002	-0.045
-653.857	-36.547	0.229	-0.124
-652.843	174.983	-0.165	-0.240
-651.828	-43.793	-0.085	0.043
-650.814	195.336	-0.157	-0.239
-649.799	762.059	0.120	-0.327
-648.784	271.794	0.023	-0.040
-647.770	-200.000	-0.006	0.163
-646.755	-57.695	-0.202	0.089
-645.741	501.808	-0.041	0.095
-644.726	-128.117	0.297	0.043
-643.711	64.455	0.223	0.226
-642.697	-200.000	0.065	0.404
-641.682	590.797	-0.143	-0.354
-640.668	-200.000	0.022	0.143
-639.653	44.637	-0.066	-0.061
-638.638	-122.455	0.080	0.013
-637.624	-135.792	0.087	-0.010
-636.609	-21.436	-0.191	0.117
-635.595	-76.048	-0.113	-0.040
-634.580	-37.116	0.338	0.182
-633.565	7.957	-0.140	-0.105
-632.551	-67.223	-0.122	0.048
-631.536	-106.209	-0.396	0.089
-630.522	629.237	0.046	0.117
-629.507	-30.396	0.167	0.096
-628.492	800.000	-0.052	-0.147
-627.478	-134.520	0.170	-0.021
-626.463	-98.233	-0.131	0.034
-625.449	99.701	-0.079	0.092
-624.434	-200.000	0.034	-0.248
-623.419	-200.000	0.005	0.313
-622.405	-105.648	0.469	0.107
-621.390	800.000	0.113	-0.317
-620.376	-200.000	0.029	0.269
-619.361	-200.000	0.007	0.118
-618.346	-200.000	0.014	0.164
-617.332	-25.151	-0.119	0.071
-616.317	-200.000	-0.018	-0.109
-615.303	-126.049	-0.037	0.006
-614.288	-145.523	0.200	-0.018
-613.273	-152.214	-0.068	-0.005
-612.259	737.609	0.054	0.145
-611.244	800.000	-0.097	0.344
-610.230	452.560	0.112	0.248
-609.215	171.811	-0.116	0.167
-608.201	800.000	0.146	0.450
-607.186	-26.053	-0.038	-0.023
-606.171	-125.602	0.229	0.035
-605.157	-200.000	0.027	0.123
-604.142	49.541	0.093	-0.088
-603.128	161.140	-0.234	0.328
-602.113	-200.000	-0.002	0.042
-601.098	-62.073	0.257	-0.108
-600.084	800.000	-0.019	-0.081
-599.069	-51.676	-0.169	0.079
-598.055	89.278	-0.048	-0.054
-597.040	-142.843	-0.288	-0.028
-596.025	506.304	-0.038	0.088
-595.011	468.244	0.194	-0.436
-593.996	-200.000	-0.032	-0.186
-592.982	-58.809	-0.371	-0.161
-591.967	-16.534	0.243	-0.155
-590.952	249.597	-0.067	0.114
-589.938	800.000	0.045	-0.198
-588.923	-132.694	-0.417	0.054
-587.909	570.014	0.110	-0.270
-586.894	800.000	0.073	0.276
-585.879	-154.140	0.134	-0.009
-584.865	591.975	-0.075	-0.185
-583.850	-27.321	-0.138	-0.080
-582.836	59.283	0.147	0.145
-581.821	-61.053	0.070	-0.030
-580.806	-47.633	0.143	0.070
-579.792	-26.083	-0.211	0.125
-578.777	-126.381	0.058	0.009
-577.763	-79.336	0.210	0.072
-576.748	722.405	0.008	0.022
-575.733	271.230	0.093	-0.164
-574.719	231.480	-0.152	-0.251
-573.704	-55.993	-0.162	-0.072
-572.690	203.764	-0.121	-0.188
-571.675	-27.256	0.217	0.127
-570.661	-39.055	0.244	-0.129
-569.646	-114.293	0.236	-0.046
-568.631	-39.914	-0.081	0.042
-567.617	71.279	-0.197	-0.205
-566.602	77.014	-0.101	0.107
-565.588	-181.985	-0.028	0.001
-564.573	329.003	0.083	0.159
-563.558	-200.000	-0.035	0.160
-562.544	-118.381	0.109	0.019
-561.529	37.871	0.113	-0.101
-560.515	800.000	0.089	-0.263
-559.500	-200.000	0.003	-0.045
-558.485	177.442	-0.078	-0.114
-557.471	-52.099	-0.384	-0.179
-556.456	-200.000	0.083	-0.519
-555.442	16.021	-0.100	-0.079
-554.427	435.913	0.173	0.377
-553.412	-200.000	0.005	0.101
-552.398	70.011	-0.045	-0.046
-551.383	-103.662	0.029	0.007
-550.369	-200.000	0.002	-0.132
-549.354	11.581	-0.154	0.118
-548.339	18.110	-0.248	0.198
-547.325	-103.434	-0.246	0.058
-546.310	4.048	-0.175	0.128
-545.296	-96.152	-0.046	0.012
-544.281	800.000	-0.092	-0.389
-543.266	492.366	-0.040	0.093
-542.252	455.186	0.110	0.245
-541.237	-12.470	-0.061	-0.040
-540.223	-32.966	0.169	0.094
-539.208	0.037	-0.075	0.054
-538.193	-113.785	0.154	0.030
-537.179	113.923	0.046	-0.056
-536.164	-92.471	-0.110	0.031
-535.150	-200.000	-0.025	-0.206
-534.135	-71.823	0.127	-0.048
-533.121	126.720	0.089	0.113
-532.106	800.000	-0.089	-0.248
-531.091	121.779	0.090	-0.113
-530.077	88.278	-0.148	-0.164
-529.062	144.108	-0.193	-0.258
-528.048	-200.000	-0.007	0.168
-527.033	-200.000	-0.023	-0.153
-526.018	-77.577	-0.277	-0.096
-525.004	122.839	-0.168	-0.210
-523.989	-112.893	-0.381	0.076
-522.975	31.239	-0.230	0.198
-521.960	-200.000	0.040	-0.416
-520.945	-133.701	-0.351	-0.044
-519.931	-163.097	0.161	-0.008
-518.916	800.000	-0.072	-0.270
-517.902	800.000	-0.067	0.271
-516.887	-175.930	0.309	-0.008
-515.872	-200.000	0.023	0.276
-514.858	-66.484	0.271	-0.108
-513.843	-200.000	0.055	0.412
-512.829	227.384	0.127	-0.207
-511.814	160.177	0.033	-0.046
-510.799	502.453	0.077	-0.178
-509.785	59.301	0.056	0.055
-508.770	-22.501	0.138	0.083
-507.756	800.000	-0.101	-0.422
-506.741	46.054	0.268	0.248
-505.726	-63.300	-0.243	0.100
-504.712	-59.356	0.163	-0.070
-503.697	346.511	-0.074	-0.146
-502.683	-200.000	0.032	-0.210
-501.668	-81.149	0.272	0.090
-500.653	-200.000	0.009	0.327
-499.639	116.280	0.082	0.100
-498.624	65.746	0.217	-0.219
-497.610	-12.000	0.201	0.131
-496.595	-3.745	-0.217	-0.150
-495.581	264.617	-0.150	-0.261
-494.566	-200.000	0.034	-0.156
-493.551	228.882	-0.033	0.053
-492.537	-108.410	0.199	-0.043
-491.522	-38.028	0.094	0.050
-490.508	-109.216	0.332	-0.071
-489.493	-200.000	-0.002	-0.034
-488.478	800.000	-0.092	0.354
-487.464	10.293	-0.115	-0.088
-486.449	-72.477	-0.150	-0.055
-485.435	89.438	0.135	0.151
-484.420	-109.609	-0.186	0.039
-483.405	170.577	-0.147	-0.211
-482.391	-40.356	0.174	-0.090
-481.376	-200.000	-0.005	-0.114
-480.362	-200.000	-0.009	-0.094
-479.347	-1.321	-0.162	-0.115
-478.332	-200.000	-0.022	-0.175
-477.318	30.082	-0.080	-0.068
-476.303	-45.365	-0.247	-0.122
-475.289	-63.306	0.166	0.068
-474.274	20.262	0.232	-0.187
-473.259	-64.241	-0.438	0.178
-472.245	-5.400	-0.255	-0.175
-471.230	-200.000	-0.012	-0.124
-470.216	-83.925	0.117	-0.037
-469.201	-169.874	-0.222	-0.008
-468.186	144.563	-0.250	0.334
-467.172	-200.000	-0.038	0.367
-466.157	39.727	0.211	-0.189
-465.143	-29.237	0.076	-0.044
-464.128	3.236	-0.060	0.043
-463.113	-85.379	-0.224	0.070
-462.099	800.000	-0.021	0.077
-461.084	-200.000	0.010	0.149
-460.070	109.738	0.041	0.049
-459.055	-117.626	-0.127	0.023
-458.040	-124.370	0.136	0.021
-457.026	395.653	0.134	0.280
-456.011	10.393	0.187	0.142
-454.997	-200.000	0.004	-0.065
-453.982	671.835	-0.032	-0.082
-452.968	800.000	0.059	-0.226
-451.953	25.630	0.133	0.110
-450.938	157.957	-0.158	0.219
-449.924	393.754	0.101	-0.209
-448.909	37.298	-0.154	-0.136
-447.895	-136.423	-0.324	-0.038
-446.880	-121.814	-0.150	0.025
-445.865	315.292	0.171	-0.321
-444.851	-200.000	0.015	0.068
-443.836	256.401	-0.075	-0.129
-442.822	-94.050	0.087	0.024
-441.807	800.000	-0.020	-0.086
-440.792	551.538	0.119	0.285
-439.778	-103.276	0.203	0.048
-438.763	189.866	0.075	0.112
-437.749	-200.000	-0.066	-0.342
-436.734	49.559	0.171	0.160
-435.719	-29.786	-0.219	0.125
-434.705	158.782	-0.056	-0.078
-433.690	-27.156	-0.161	0.093
-432.676	44.588	-0.177	0.162
-431.661	-95.237	-0.118	-0.032
-430.646	-145.530	0.205	0.018
-429.632	-169.801	-0.237	-0.009
-428.617	87.861	-0.128	0.142
-427.603	-137.237	0.307	0.035
-426.588	-92.661	0.148	0.041
-425.573	416.318	-0.062	0.132
-424.559	-200.000	0.038	0.279
-423.544	-106.008	0.252	-0.056
-422.530	106.347	0.126	-0.149
-421.515	-200.000	-0.050	-0.237
-420.500	-90.495	0.284	0.082
-419.486	-140.074	-0.077	0.008
-418.471	54.979	-0.188	-0.181
-417.457	51.904	0.211	-0.201
-416.442	-45.472	-0.029	0.014
-415.428	-200.000	-0.039	0.365
-414.413	800.000	0.041	-0.137
-413.398	-200.000	0.035	-0.299
-412.384	-11.669	0.081	0.053
-411.369	189.977	0.215	0.321
-410.355	-200.000	0.056	0.281
-409.340	-200.000	-0.033	0.348
-408.325	631.321	-0.070	-0.178
-407.311	314.431	0.034	0.064
-406.296	457.289	0.064	-0.143
-405.282	27.211	0.241	0.202
-404.267	-16.379	-0.060	-0.038
-403.252	-8.897	-0.387	-0.259
-402.238	-41.427	0.462	0.237
-401.223	800.000	-0.137	-0.377
-400.209	-200.000	0.030	-0.261
-399.194	284.325	-0.025	0.044
-398.179	-179.455	0.214	-0.005
-397.165	415.210	-0.128	-0.272
-396.150	761.630	0.044	-0.119
-395.136	-48.391	-0.153	0.073
-394.121	-25.901	0.105	0.062
-393.106	-143.105	0.268	-0.026
-392.092	-17.027	-0.379	-0.239
-391.077	-61.955	0.138	0.057
-390.063	-142.467	-0.140	0.014
-389.048	-143.744	-0.236	0.022
-388.033	800.000	0.123	-0.372
-387.019	-89.480	0.008	0.002
-386.004	19.262	-0.278	0.223
-384.990	-32.042	0.084	0.047
-383.975	-200.000	-0.058	0.291
-382.960	800.000	0.029	0.087
-381.946	-74.608	0.272	-0.097
-380.931	-10.989	0.100	0.066
-379.917	-37.974	-0.112	0.059
-378.902	-200.000	0.058	0.306
-377.888	318.364	0.170	-0.320
-376.873	-64.967	-0.155	0.062
-375.858	16.322	-0.096	0.075
-374.844	46.615	0.203	0.188
-373.829	262.349	0.135	-0.234
-372.815	50.135	0.207	0.194
-371.800	32.848	0.163	0.140
-370.785	738.605	-0.116	-0.310
-369.771	-200.000	0.046	-0.251
-368.756	138.534	-0.182	0.237
-367.742	196.250	0.163	0.247
-366.727	172.402	-0.051	-0.073
-365.712	323.550	0.266	-0.505
-364.698	466.625	0.088	-0.195
-363.683	-113.290	-0.284	0.056
-362.669	-19.269	-0.009	0.006
-361.654	-69.534	-0.085	0.032
-360.639	-200.000	0.006	0.169
-359.625	800.000	0.068	-0.220
-358.610	107.358	0.083	-0.098
-357.596	800.000	0.043	0.155
-356.581	-133.023	0.151	0.019
-355.566	800.000	-0.040	0.143
-354.552	149.263	-0.143	-0.193
-353.537	-200.000	-0.002	-0.012
-352.523	800.000	-0.110	0.405
-351.508	-88.631	-0.241	-0.071
-350.493	-80.777	0.109	0.036
-349.479	-71.509	0.276	-0.103
-348.464	-2.792	-0.117	0.082
-347.450	-23.303	0.135	0.081
-346.435	606.771	0.151	-0.374
-345.420	800.000	-0.221	0.620
-344.406	-62.820	-0.386	0.159
-343.391	-38.613	0.245	0.129
-342.377	-200.000	-0.026	0.116
-341.362	137.049	-0.073	-0.095
-340.348	-200.000	0.026	0.161
-339.333	258.906	0.030	-0.051
-338.318	-57.350	-0.176	-0.077
-337.304	-200.000	-0.008	-0.150
-336.289	-111.927	-0.274	0.055
-335.275	-68.594	0.021	0.008
-334.260	-29.660	-0.090	0.051
-333.245	689.562	0.027	-0.071
-332.231	-34.147	0.112	0.061
-331.216	-107.883	0.209	0.045
-330.202	-50.157	0.219	0.103
-329.187	-200.000	0.069	0.310
-328.172	-112.451	0.187	0.037
-327.158	-89.603	0.146	0.043
-326.143	-60.760	0.249	0.105
-325.129	-116.128	0.191	0.035
-324.114	-98.887	0.093	0.024
-323.099	371.188	0.133	0.268
-322.085	-186.268	-0.285	0.004
-321.070	-130.921	-0.218	-0.029
-320.056	-130.183	0.262	0.035
-319.041	-5.185	0.134	0.092
-318.026	-113.884	-0.250	-0.048
-317.012	-200.000	-0.024	0.161
-315.997	-200.000	0.032	0.324
-314.983	359.985	-0.058	0.115
-313.968	415.723	0.077	0.163
-312.953	-139.748	-0.082	0.009
-311.939	4.210	-0.075	0.055
-310.924	-136.389	-0.518	0.060
-309.910	800.000	0.070	-0.276
-308.895	-200.000	0.031	-0.156
-307.880	638.316	-0.115	0.290
-306.866	-200.000	0.092	0.441
-305.851	399.516	-0.161	-0.335
-304.837	-200.000	0.006	-0.249
-303.822	-200.000	-0.002	0.054
-302.807	-122.819	0.517	0.083
-301.793	-56.386	-0.230	0.101
-300.778	249.325	-0.017	0.029
-299.764	26.665	-0.162	0.135
-298.749	-200.000	-0.032	0.189
-297.735	61.344	0.243	-0.240
-296.720	-183.989	-0.308	-0.005
-295.705	74.414	0.210	-0.219
-294.691	-128.364	-0.341	-0.048
-293.676	-27.578	-0.141	0.081
-292.662	-200.000	-0.029	-0.224
-291.647	800.000	-0.081	-0.296
-290.632	800.000	0.068	-0.186
-289.618	-200.000	-0.009	-0.099
-288.603	292.337	0.118	0.214
-287.589	-83.345	-0.531	-0.169
-286.574	-62.607	0.238	-0.098
-285.559	-111.346	0.193	0.039
-284.545	33.115	0.117	-0.101
-283.530	-200.000	-0.023	0.144
-282.516	800.000	0.043	-0.139
-281.501	65.110	-0.114	-0.114
-280.486	21.619	-0.259	-0.209
-279.472	-200.000	-0.017	-0.331
-278.457	-200.000	-0.020	0.245
-277.443	-25.075	-0.375	0.221
-276.428	-65.994	0.167	0.066
-275.413	800.000	-0.010	0.028
-274.399	-200.000	0.053	0.232
-273.384	-11.390	-0.124	0.081
-272.370	-61.969	0.289	0.120
-271.355	-121.192	0.378	-0.063
-270.340	1.771	0.233	0.167
-269.326	303.829	-0.211	0.387
-268.311	-200.000	-0.024	-0.188
-267.297	94.048	-0.165	0.185
-266.282	-200.000	0.015	-0.239
-265.267	-98.578	-0.272	0.069
-264.253	63.220	0.232	-0.231
-263.238	135.698	-0.075	0.097
-262.224	-127.724	-0.196	0.028
-261.209	-61.912	-0.309	0.128
-260.195	-200.000	-0.040	0.265
-259.180	97.915	0.186	0.212
-258.165	232.414	0.049	0.079
-257.151	800.000	-0.060	-0.239
-256.136	410.248	0.136	0.285
-255.122	-168.208	-0.200	0.008
-254.107	-164.208	-0.333	-0.015
-253.092	-200.000	-0.000	-0.031
-252.078	81.413	0.210	-0.225
-251.063	27.928	0.117	-0.098
-250.049	800.000	0.056	0.209
-249.034	-200.000	0.057	-0.319
-248.019	-117.770	0.366	-0.065
-247.005	-67.104	0.100	-0.039
-245.990	-105.081	-0.259	0.059
-244.976	103.401	-0.156	-0.181
-243.961	466.250	0.090	-0.200
-242.946	-171.406	-0.217	-0.007
-241.932	72.716	-0.276	-0.285
-240.917	800.000	0.038	-0.157
-239.903	241.625	0.079	0.130
-238.888	800.000	0.061	-0.184
-237.873	800.000	-0.034	0.101
-236.859	455.309	-0.085	0.186
-235.844	-52.739	-0.059	0.027
-234.830	132.735	-0.056	-0.072
-233.815	-95.713	-0.014	0.004
-232.800	-170.299	-0.177	0.006
-231.786	228.121	-0.262	-0.423
-230.771	3.847	-0.052	-0.037
-229.757	-200.000	-0.015	-0.129
-228.742	162.692	0.264	-0.366
-227.727	46.603	0.147	0.135
-226.713	-77.573	0.142	-0.049
-225.698	-200.000	-0.018	0.247
-224.684	-10.093	-0.115	0.076
-223.669	800.000	0.037	-0.112
-222.655	57.152	0.056	-0.054
-221.640	-200.000	-0.001	-0.106
-220.625	-200.000	0.036	0.633
-219.611	466.741	-0.098	0.217
-218.596	-108.513	0.223	-0.047
-217.582	-109.070	-0.358	-0.075
-216.567	-148.025	0.340	-0.028
-215.552	267.563	-0.085	0.147
-214.538	-200.000	0.039	-0.184
-213.523	45.330	-0.343	-0.313
-212.509	-59.887	0.165	0.070
-211.494	-13.561	0.115	0.074
-210.479	293.109	-0.113	-0.204
-209.465	422.410	0.019	0.040
-208.450	126.097	-0.268	0.336
-207.436	-93.120	0.134	-0.037
-206.421	-70.553	0.168	0.063
-205.406	591.283	0.033	-0.080
-204.392	-129.129	-0.431	-0.060
-203.377	-58.212	-0.094	-0.041
-202.363	-200.000	0.016	-0.170
-201.348	457.115	-0.068	-0.150
-200.333	-94.237	0.320	-0.087
-199.319	-46.901	-0.205	0.099
-198.304	470.024	-0.122	0.271
-197.290	37.715	-0.098	-0.086
-196.275	45.309	0.297	-0.271
-195.260	-40.951	-0.205	0.105
-194.246	-200.000	-0.044	-0.411
-193.231	-200.000	-0.010	-0.196
-192.217	-101.958	-0.190	0.045
-191.202	3.314	-0.209	-0.150
-190.187	-177.434	-0.126	0.003
-189.173	166.378	-0.010	0.014
-188.158	1.363	-0.482	0.343
-187.144	-78.197	0.162	-0.055
-186.129	-27.212	-0.266	0.153
-185.114	-200.000	0.018	-0.196
-184.100	202.365	-0.146	-0.222
-183.085	-92.499	0.391	0.108
-182.071	-101.839	-0.179	0.043
-181.056	-49.206	0.149	-0.070
-180.042	-104.990	0.311	-0.070
-179.027	-71.325	-0.497	-0.184
-178.012	-200.000	-0.010	0.166
-176.998	83.985	0.137	-0.148
-175.983	680.108	0.047	-0.121
-174.969	82.764	0.056	0.060
-173.954	-39.855	0.174	-0.090
-172.939	644.748	-0.102	-0.258
-171.925	800.000	-0.101	0.286
-170.910	-200.000	-0.014	0.093
-169.896	-200.000	0.032	0.273
-168.881	708.456	0.125	0.327
-167.866	-200.000	-0.011	-0.055
-166.852	367.288	0.121	-0.241
-165.837	-22.003	0.109	-0.066
-164.823	14.993	0.401	0.310
-163.808	-130.597	-0.138	0.018
-162.793	103.129	0.182	-0.211
-161.779	91.801	0.205	-0.228
-160.764	800.000	-0.047	-0.195
-159.750	357.134	0.104	0.206
-158.735	161.575	-0.014	0.020
-157.720	-200.000	-0.000	0.215
-156.706	-78.558	0.271	-0.091
-155.691	352.762	0.126	0.247
-154.677	-132.177	0.589	-0.075
-153.662	-200.000	-0.015	-0.119
-152.647	-200.000	0.046	-0.246
-151.633	33.418	0.288	0.247
-150.618	-127.221	0.107	-0.015
-149.604	222.602	-0.119	0.189
-148.589	422.468	-0.068	-0.144
-147.574	-147.510	0.185	0.015
-146.560	-176.388	0.240	0.006
-145.545	618.608	-0.097	0.241
-144.531	43.091	0.188	0.169
-143.516	-92.120	-0.202	-0.056
-142.502	-90.566	0.229	0.065
-141.487	-166.904	0.320	-0.013
-140.472	136.075	0.237	-0.305
-139.458	-21.887	0.156	0.094
-138.443	190.171	-0.174	0.257
-137.429	-105.631	0.066	0.015
-136.414	-143.150	-0.284	-0.027
-135.399	98.686	0.200	0.227
-134.385	-166.377	0.227	0.009
-133.370	153.936	0.117	0.158
-132.356	-119.618	0.360	0.061
-131.341	-32.227	-0.175	-0.097
-130.326	-200.000	0.053	-0.283
-129.312	146.085	0.022	-0.029
-128.297	-78.883	0.113	-0.038
-127.283	-200.000	0.000	-0.071
-126.268	-70.673	0.120	-0.045
-125.253	-147.306	-0.154	0.013
-124.239	-103.305	-0.359	0.083
-123.224	23.441	-0.011	0.009
-122.210	237.715	-0.022	-0.036
