DTS Sentinel unit serial number:	SN413079Multiplexer serial number:	ORYXHardware model number:	OX4-SRSoftware version number:	ORYX F/W v4.00 Oryx Data Collector v3.7.2.0data status	okinstallation	princeton_trtdifferential loss correction	single-endedforward channel	channel 1reverse channel	N/Adate	2019/09/12time	06:28:11forward acquisition time	60.00reverse acquisition time	0.00gamma	496.2192k internal	0.2320k external	0.2320temperature offset calibration	1.0044default loss term (dB/km)	0.3790temperature slope calibration	1.0000multiplexer offset coefficient	1.0000multiplexer slope coefficient	1.0000fibre end	0.00T internal ref (°C)	32.12T ext. ref 1 (°C)	1.57T ext. ref 2 (°C)	27.37length (m)	temperature (°C)	Stokes	anti-Stokes-747.200	-33.962	-0.443	0.247
-746.185	800.000	-0.073	0.303
-745.171	-117.166	-0.410	-0.075
-744.156	-35.859	-0.088	0.048
-743.142	283.202	0.015	-0.027
-742.127	-122.817	-0.253	-0.041
-741.112	-0.459	-0.115	-0.082
-740.098	-40.879	0.149	0.078
-739.083	68.978	-0.178	-0.185
-738.069	637.966	0.112	0.288
-737.054	14.735	-0.218	-0.172
-736.039	-85.828	0.044	-0.014
-735.025	-59.657	0.293	0.127
-734.010	-5.978	-0.156	0.108
-732.996	800.000	0.082	-0.321
-731.981	-185.579	-0.269	0.004
-730.966	-172.770	0.302	0.010
-729.952	-25.852	-0.169	-0.101
-728.937	610.701	-0.078	-0.196
-727.923	800.000	0.023	-0.072
-726.908	670.491	-0.085	-0.222
-725.894	-77.122	-0.482	-0.170
-724.879	-135.379	0.210	-0.025
-723.864	-114.722	0.378	-0.073
-722.850	192.855	-0.203	0.310
-721.835	-200.000	-0.014	-0.160
-720.821	99.088	0.094	0.109
-719.806	85.447	-0.261	0.289
-718.791	77.445	-0.175	-0.189
-717.777	-80.847	0.314	-0.105
-716.762	800.000	-0.029	-0.090
-715.748	800.000	0.052	-0.154
-714.733	13.885	-0.125	0.098
-713.718	-83.978	-0.164	-0.053
-712.704	527.321	0.059	-0.141
-711.689	15.388	-0.164	-0.130
-710.675	-71.950	-0.142	0.053
-709.660	-13.120	-0.125	0.082
-708.645	-200.000	-0.054	-0.380
-707.631	800.000	0.024	0.069
-706.616	132.406	0.163	-0.212
-705.602	-135.516	0.194	-0.023
-704.587	156.560	-0.168	-0.234
-703.572	-27.696	0.042	0.024
-702.558	73.545	0.096	-0.102
-701.543	36.177	0.285	-0.253
-700.529	235.894	-0.045	-0.075
-699.514	-28.661	0.121	0.070
-698.499	-200.000	-0.003	0.033
-697.485	-25.762	-0.140	0.083
-696.470	41.125	0.087	-0.080
-695.456	45.892	0.088	0.083
-694.441	473.510	0.130	-0.295
-693.426	800.000	-0.043	-0.164
-692.412	-166.893	0.083	0.003
-691.397	440.928	-0.086	0.189
-690.383	800.000	0.078	0.295
-689.368	310.551	-0.234	-0.443
-688.354	53.544	-0.052	0.050
-687.339	207.285	0.036	-0.056
-686.324	-97.438	0.149	0.039
-685.310	39.179	-0.094	-0.085
-684.295	-200.000	-0.043	0.259
-683.281	-200.000	0.032	-0.142
-682.266	-172.845	-0.327	0.010
-681.251	-12.264	-0.092	-0.061
-680.237	519.788	0.093	0.221
-679.222	-102.491	-0.368	-0.089
-678.208	-51.451	-0.416	-0.196
-677.193	70.775	-0.103	-0.107
-676.178	89.540	0.109	0.122
-675.164	-200.000	0.022	-0.308
-674.149	-69.394	0.219	-0.085
-673.135	-200.000	-0.058	0.276
-672.120	-200.000	-0.022	0.187
-671.105	-200.000	-0.002	0.287
-670.091	29.858	0.344	0.296
-669.076	-146.773	-0.349	0.030
-668.062	-171.696	-0.059	0.002
-667.047	-0.997	0.172	-0.122
-666.032	800.000	0.032	0.101
-665.018	15.882	-0.305	-0.242
-664.003	54.138	0.293	0.284
-662.989	-200.000	-0.027	-0.159
-661.974	-25.889	-0.237	-0.141
-660.959	800.000	-0.107	-0.374
-659.945	800.000	0.114	-0.328
-658.930	-64.818	0.378	-0.154
-657.916	123.778	-0.143	0.181
-656.901	-200.000	-0.010	-0.201
-655.886	156.458	0.264	0.368
-654.872	800.000	0.105	-0.310
-653.857	800.000	0.093	-0.364
-652.843	-58.839	-0.196	0.085
-651.828	96.793	0.223	-0.258
-650.814	-44.457	-0.141	0.071
-649.799	-200.000	0.042	0.220
-648.784	383.054	0.066	0.137
-647.770	-200.000	-0.005	-0.159
-646.755	-170.283	-0.051	-0.002
-645.741	-200.000	0.008	0.038
-644.726	800.000	-0.008	-0.031
-643.711	800.000	0.016	-0.053
-642.697	-200.000	-0.029	-0.138
-641.682	490.000	-0.145	-0.334
-640.668	-56.788	-0.209	0.093
-639.653	-200.000	0.001	-0.214
-638.638	-33.407	0.070	0.039
-637.624	-200.000	-0.068	-0.389
-636.609	408.971	0.078	-0.167
-635.595	-109.282	0.255	-0.054
-634.580	228.531	0.075	-0.122
-633.565	800.000	-0.051	0.187
-632.551	-132.896	-0.307	-0.039
-631.536	-92.372	0.183	-0.052
-630.522	-79.146	-0.269	-0.092
-629.507	-64.434	-0.196	0.080
-628.492	-200.000	0.019	0.134
-627.478	-88.919	-0.480	-0.143
-626.463	106.678	-0.148	0.176
-625.449	619.712	-0.061	0.155
-624.434	-26.015	-0.217	0.128
-623.419	-134.781	0.151	-0.018
-622.405	-75.666	0.033	0.012
-621.390	127.337	0.046	-0.059
-620.376	168.791	-0.077	-0.111
-619.361	-92.255	-0.244	-0.069
-618.346	-200.000	-0.248	0.001
-617.332	-12.821	0.149	0.098
-616.317	261.696	-0.072	0.125
-615.303	-134.243	-0.210	0.026
-614.288	146.589	0.098	-0.133
-613.273	-101.874	-0.597	0.145
-612.259	-200.000	0.057	0.378
-611.244	-200.000	0.035	-0.300
-610.230	92.404	-0.055	-0.062
-609.215	623.855	0.024	-0.061
-608.201	-46.949	0.240	0.118
-607.186	-200.000	0.015	0.074
-606.171	-200.000	0.018	0.337
-605.157	-200.000	-0.042	-0.210
-604.142	23.424	-0.183	-0.151
-603.128	88.395	-0.218	0.244
-602.113	194.925	0.126	0.192
-601.098	-200.000	0.037	0.340
-600.084	238.423	-0.042	-0.069
-599.069	71.783	-0.173	0.181
-598.055	-116.400	-0.199	0.037
-597.040	165.464	0.106	0.151
-596.025	-200.000	-0.019	-0.178
-595.011	-97.627	-0.367	-0.096
-593.996	179.796	0.140	0.207
-592.982	14.769	-0.294	0.231
-591.967	-137.938	-0.291	0.033
-590.952	-94.352	0.293	-0.080
-589.938	358.060	-0.085	-0.170
-588.923	287.406	-0.101	-0.183
-587.909	634.368	0.094	-0.239
-586.894	58.493	-0.078	0.077
-585.879	-28.064	0.149	-0.086
-584.865	-50.761	0.271	-0.128
-583.850	-138.269	0.337	-0.037
-582.836	-200.000	0.003	0.041
-581.821	19.497	0.060	-0.048
-580.806	-23.397	-0.201	-0.121
-579.792	-182.836	-0.130	0.002
-578.777	-83.843	-0.396	0.127
-577.763	159.988	0.030	0.042
-576.748	130.114	0.129	0.166
-575.733	800.000	0.069	-0.280
-574.719	-200.000	0.009	-0.430
-573.704	-30.284	0.180	-0.103
-572.690	20.200	0.133	-0.107
-571.675	-91.292	-0.175	0.050
-570.661	-200.000	-0.014	0.272
-569.646	-64.752	-0.146	0.059
-568.631	-200.000	0.051	-0.339
-567.617	-200.000	-0.043	0.242
-566.602	-60.527	0.102	0.044
-565.588	-103.031	-0.252	-0.060
-564.573	-200.000	-0.273	0.000
-563.558	34.353	0.176	0.154
-562.544	800.000	0.031	-0.125
-561.529	128.138	-0.051	0.065
-560.515	-64.768	0.136	0.055
-559.500	-88.992	0.265	0.079
-558.485	-116.806	-0.157	0.029
-557.471	800.000	-0.040	0.144
-556.456	-147.947	0.217	0.018
-555.442	560.638	0.077	-0.187
-554.427	762.807	0.021	0.059
-553.412	33.360	-0.283	0.246
-552.398	76.586	-0.159	0.169
-551.383	233.213	-0.034	-0.056
-550.369	-157.596	0.198	0.012
-549.354	66.009	0.164	-0.166
-548.339	64.595	0.342	-0.346
-547.325	84.421	-0.326	0.357
-546.310	-83.168	-0.195	0.063
-545.296	25.930	-0.086	-0.072
-544.281	-200.000	-0.017	-0.288
-543.266	81.284	0.327	-0.354
-542.252	-107.533	-0.466	-0.102
-541.237	-60.561	0.042	0.018
-540.223	-93.198	0.098	0.027
-539.208	240.378	0.111	0.185
-538.193	-27.634	0.431	0.251
-537.179	65.530	-0.116	0.118
-536.164	13.301	0.226	0.176
-535.150	614.108	0.147	0.369
-534.135	-200.000	0.028	-0.241
-533.121	-6.736	0.114	-0.078
-532.106	-200.000	-0.010	-0.174
-531.091	800.000	0.041	-0.158
-530.077	-200.000	-0.005	-0.056
-529.062	98.911	0.067	0.078
-528.048	-95.364	-0.505	0.136
-527.033	61.232	0.173	0.172
-526.018	-69.980	0.388	-0.148
-525.004	-101.780	0.332	-0.081
-523.989	800.000	-0.146	0.410
-522.975	-103.259	-0.298	0.071
-521.960	161.875	0.163	-0.229
-520.945	-166.211	-0.190	-0.008
-519.931	-113.040	0.134	0.026
-518.916	-200.000	0.011	-0.061
-517.902	-200.000	0.011	-0.058
-516.887	-60.381	0.203	0.087
-515.872	215.025	-0.083	-0.132
-514.858	126.694	0.096	-0.122
-513.843	-200.000	-0.004	-0.177
-512.829	33.937	0.057	-0.050
-511.814	84.448	0.142	-0.156
-510.799	-115.816	-0.238	0.045
-509.785	-200.000	-0.023	-0.206
-508.770	-36.030	0.207	-0.112
-507.756	-200.000	0.027	-0.144
-506.741	148.821	0.039	-0.052
-505.726	-58.822	-0.131	0.057
-504.712	-18.606	0.302	-0.189
-503.697	800.000	-0.032	0.113
-502.683	20.914	0.121	0.098
-501.668	1.759	0.110	-0.080
-500.653	800.000	0.006	0.024
-499.639	-62.059	0.280	-0.117
-498.624	214.589	-0.150	0.239
-497.610	-200.000	0.006	-0.079
-496.595	-101.946	-0.341	-0.082
-495.581	5.593	-0.235	0.174
-494.566	554.958	-0.108	-0.261
-493.551	122.912	-0.190	-0.238
-492.537	183.932	0.123	-0.183
-491.522	-126.726	0.283	-0.042
-490.508	800.000	-0.042	-0.168
-489.493	-200.000	-0.018	0.172
-488.478	487.756	-0.074	0.168
-487.464	3.019	0.257	0.187
-486.449	457.868	0.078	-0.174
-485.435	157.916	-0.322	-0.447
-484.420	-200.000	0.157	0.000
-483.405	60.522	-0.076	-0.076
-482.391	118.009	-0.337	-0.416
-481.376	137.313	-0.211	-0.276
-480.362	-14.247	0.310	-0.200
-479.347	-200.000	0.008	-0.191
-478.332	221.156	0.024	-0.038
-477.318	-156.892	0.087	0.005
-476.303	800.000	-0.038	0.153
-475.289	162.476	-0.059	-0.082
-474.274	-79.785	0.214	0.072
-473.259	-76.045	-0.044	-0.016
-472.245	140.053	0.259	0.342
-471.230	318.803	0.094	0.179
-470.216	63.336	-0.237	0.238
-469.201	-135.038	0.168	0.020
-468.186	-28.985	-0.126	-0.073
-467.172	14.609	0.253	-0.198
-466.157	634.798	-0.179	-0.455
-465.143	38.707	0.220	-0.196
-464.128	-123.207	0.221	0.035
-463.113	53.989	0.052	0.050
-462.099	786.759	-0.077	0.212
-461.084	-85.415	-0.203	-0.063
-460.070	129.762	-0.034	-0.043
-459.055	-200.000	-0.016	0.108
-458.040	-200.000	-0.007	0.283
-457.026	-200.000	0.032	-0.214
-456.011	67.693	-0.058	-0.059
-454.997	-79.120	0.397	-0.135
-453.982	-200.000	0.047	0.340
-452.968	-81.206	0.034	-0.011
-451.953	-11.390	0.155	-0.102
-450.938	-200.000	0.012	0.208
-449.924	800.000	0.019	0.068
-448.909	86.083	-0.034	0.037
-447.895	-161.299	-0.121	-0.006
-446.880	-78.071	0.301	0.104
-445.865	-45.969	-0.236	-0.116
-444.851	-55.276	0.078	0.035
-443.836	135.819	0.119	-0.155
-442.822	-61.429	0.227	-0.095
-441.807	147.789	0.120	-0.162
-440.792	-200.000	-0.001	-0.027
-439.778	-49.417	0.122	0.058
-438.763	-200.000	0.011	-0.074
-437.749	-156.971	-0.539	0.033
-436.734	-78.364	0.042	-0.014
-435.719	800.000	0.114	-0.316
-434.705	505.952	0.111	0.258
-433.690	-200.000	0.014	0.342
-432.676	800.000	-0.054	0.229
-431.661	286.391	0.022	0.041
-430.646	-38.842	-0.219	-0.116
-429.632	-200.000	-0.017	0.325
-428.617	-86.012	-0.042	-0.013
-427.603	278.011	0.078	0.138
-426.588	70.939	-0.089	0.092
-425.573	640.168	0.116	-0.294
-424.559	150.273	0.060	-0.081
-423.544	-24.238	-0.292	-0.174
-422.530	-200.000	-0.034	0.278
-421.515	67.861	0.243	0.248
-420.500	168.473	-0.151	-0.215
-419.486	75.893	-0.084	-0.089
-418.471	-200.000	0.022	0.387
-417.457	800.000	-0.110	0.351
-416.442	232.143	0.149	-0.244
-415.428	-111.500	-0.203	0.041
-414.413	-200.000	0.203	-0.000
-413.398	72.947	0.295	-0.307
-412.384	41.295	0.370	0.334
-411.369	-200.000	0.022	-0.123
-410.355	800.000	-0.028	-0.086
-409.340	130.691	0.128	-0.164
-408.325	79.851	-0.160	0.172
-407.311	-107.345	0.258	-0.057
-406.296	68.912	0.096	-0.098
-405.282	-99.508	-0.341	-0.086
-404.267	738.854	-0.075	0.202
-403.252	-33.347	-0.200	-0.111
-402.238	1.032	-0.071	0.051
-401.223	-121.276	-0.232	-0.039
-400.209	155.456	0.081	0.111
-399.194	-77.867	-0.156	-0.054
-398.179	-200.000	-0.007	-0.110
-397.165	153.079	0.127	-0.174
-396.150	100.244	-0.295	0.342
-395.136	706.171	0.025	0.066
-394.121	94.488	0.106	-0.120
-393.106	-200.000	-0.014	-0.092
-392.092	-26.299	-0.040	-0.024
-391.077	-47.423	-0.185	-0.090
-390.063	-5.550	-0.025	0.017
-389.048	630.088	-0.056	0.141
-388.033	39.838	0.242	0.216
-387.019	-200.000	0.005	0.146
-386.004	800.000	-0.071	0.211
-384.990	0.860	-0.045	0.032
-383.975	347.254	0.079	-0.156
-382.960	80.912	0.146	0.157
-381.946	-134.943	-0.137	0.017
-380.931	-33.799	0.474	-0.261
-379.917	86.376	-0.152	0.167
-378.902	93.518	0.122	-0.138
-377.888	-14.416	0.282	0.181
-376.873	-95.499	-0.084	0.023
-375.858	-200.000	0.020	0.205
-374.844	-84.751	-0.108	-0.034
-373.829	240.051	0.189	0.314
-372.815	-6.406	0.347	-0.236
-371.800	474.225	0.109	0.246
-370.785	-200.000	0.043	0.239
-369.771	20.555	-0.261	0.210
-368.756	296.516	-0.140	0.256
-367.742	236.065	-0.134	-0.220
-366.727	-13.831	0.318	-0.205
-365.712	-200.000	0.021	-0.247
-364.698	-51.965	-0.143	0.066
-363.683	-88.806	-0.125	0.037
-362.669	-200.000	-0.009	-0.095
-361.654	161.799	0.253	0.353
-360.639	-138.110	-0.056	0.006
-359.625	16.395	0.167	0.131
-358.610	86.926	-0.034	0.038
-357.596	3.590	0.181	-0.131
-356.581	-200.000	0.018	0.084
-355.566	-200.000	-0.001	0.321
-354.552	-32.941	-0.182	0.101
-353.537	-91.676	-0.095	0.027
-352.523	649.984	0.018	-0.046
-351.508	655.511	-0.053	-0.136
-350.493	800.000	0.075	-0.227
-349.479	-38.793	-0.320	0.168
-348.464	-160.606	0.455	0.024
-347.450	48.784	0.076	-0.071
-346.435	800.000	0.092	0.310
-345.420	-200.000	0.002	-0.236
-344.406	-58.997	-0.396	-0.170
-343.391	20.313	-0.154	0.124
-342.377	800.000	-0.024	-0.084
-341.362	104.631	-0.182	0.214
-340.348	-200.000	0.050	-0.250
-339.333	-33.412	0.344	0.189
-338.318	-35.530	0.136	-0.074
-337.304	501.558	-0.103	0.236
-336.289	-27.394	-0.174	0.101
-335.275	680.245	0.109	0.282
-334.260	-66.607	-0.524	-0.207
-333.245	800.000	-0.040	-0.166
-332.231	-61.138	-0.339	0.142
-331.216	-200.000	-0.062	0.316
-330.202	-200.000	0.011	0.182
-329.187	116.407	-0.115	-0.141
-328.172	-53.621	0.259	-0.118
-327.158	92.949	-0.020	-0.022
-326.143	-90.937	0.046	0.013
-325.129	114.718	0.087	-0.105
-324.114	-75.397	0.230	-0.082
-323.099	-47.067	0.124	0.060
-322.085	-128.620	-0.111	-0.016
-321.070	800.000	-0.062	0.207
-320.056	-157.746	-0.220	0.013
-319.041	110.576	0.091	-0.109
-318.026	347.624	0.069	0.134
-317.012	-109.408	0.066	0.014
-315.997	-62.529	0.121	-0.050
-314.983	217.273	-0.164	0.259
-313.968	-139.552	0.225	0.024
-312.953	22.808	0.049	0.040
-311.939	715.846	0.113	0.299
-310.924	-200.000	0.010	0.322
-309.910	0.591	-0.284	-0.202
-308.895	-10.313	-0.214	0.141
-307.880	-6.590	0.129	-0.087
-306.866	258.946	0.050	-0.086
-305.851	314.111	0.079	0.148
-304.837	-80.944	-0.189	-0.062
-303.822	59.729	-0.209	0.205
-302.807	170.733	-0.171	0.243
-301.793	277.906	0.112	-0.199
-300.778	-46.698	0.291	-0.142
-299.764	-200.000	0.031	-0.358
-298.749	-29.534	-0.394	-0.224
-297.735	315.346	-0.151	-0.283
-296.720	800.000	0.072	-0.224
-295.705	-200.000	0.017	-0.124
-294.691	267.513	-0.029	-0.051
-293.676	-68.691	-0.123	0.047
-292.662	-200.000	0.062	0.302
-291.647	-46.282	-0.268	-0.131
-290.632	330.589	-0.137	0.261
-289.618	526.820	-0.213	0.498
-288.603	-200.000	0.013	0.132
-287.589	87.743	-0.009	0.010
-286.574	527.958	-0.102	-0.240
-285.559	-102.565	0.258	0.061
-284.545	162.672	0.204	-0.285
-283.530	800.000	0.123	0.381
-282.516	149.567	0.065	-0.087
-281.501	-200.000	0.018	-0.318
-280.486	-200.000	0.050	0.353
-279.472	-160.166	0.149	-0.008
-278.457	-136.068	-0.541	-0.063
-277.443	454.216	-0.204	-0.449
-276.428	-200.000	0.008	-0.341
-275.413	800.000	-0.088	0.339
-274.399	800.000	-0.082	-0.326
-273.384	-101.620	0.042	0.010
-272.370	796.319	0.105	-0.287
-271.355	94.515	0.172	-0.194
-270.340	-200.000	-0.014	0.124
-269.326	114.975	0.134	-0.163
-268.311	24.833	0.468	0.385
-267.297	800.000	-0.060	0.186
-266.282	-200.000	-0.036	0.165
-265.267	-150.317	0.204	-0.016
-264.253	11.101	-0.168	-0.128
-263.238	-32.170	-0.334	-0.185
-262.224	800.000	0.088	-0.286
-261.209	56.347	0.277	0.267
-260.195	-97.468	-0.261	-0.067
-259.180	228.069	-0.122	0.197
-258.165	-131.738	-0.551	-0.072
-257.151	86.748	-0.009	-0.009
-256.136	-68.704	0.218	0.083
-255.122	800.000	0.133	0.432
-254.107	17.919	0.145	-0.115
-253.092	618.434	-0.139	-0.347
-252.078	-54.099	-0.200	-0.090
-251.063	34.561	0.115	-0.099
-250.049	-200.000	0.004	-0.130
-249.034	800.000	-0.038	-0.162
-248.019	800.000	0.080	0.250
-247.005	11.440	-0.283	0.215
-245.990	-200.000	-0.016	-0.171
-244.976	146.862	-0.232	-0.310
-243.961	-4.801	0.252	-0.172
-242.946	-144.539	0.289	-0.026
-241.932	-6.896	0.221	0.149
-240.917	-10.362	-0.338	-0.222
-239.903	-200.000	-0.051	-0.224
-238.888	-133.458	-0.044	-0.006
-237.873	176.126	-0.184	0.264
-236.859	30.557	0.245	0.208
-235.844	-76.538	-0.041	0.014
-234.830	312.095	0.044	0.083
-233.815	800.000	0.076	0.228
-232.800	-200.000	-0.029	0.275
-231.786	-10.915	-0.042	0.027
-230.771	-200.000	0.008	0.104
-229.757	-72.121	0.365	-0.134
-228.742	-200.000	0.017	0.202
-227.727	109.117	0.180	-0.214
-226.713	47.763	0.110	0.102
-225.698	51.932	-0.142	0.134
-224.684	-53.429	0.314	0.143
-223.669	25.786	-0.164	-0.135
-222.655	120.836	0.187	0.231
-221.640	-48.687	-0.099	0.047
-220.625	270.552	-0.129	-0.225
-219.611	-95.411	0.225	-0.060
-218.596	9.784	0.349	0.262
-217.582	-136.817	-0.150	0.017
-216.567	55.813	0.212	0.203
-215.552	800.000	0.032	0.093
-214.538	-104.020	-0.429	0.099
-213.523	228.027	0.175	0.282
-212.509	745.510	0.096	-0.256
-211.494	-117.062	-0.445	-0.080
-210.479	-83.218	0.239	0.076
-209.465	188.959	-0.140	0.208
-208.450	-109.122	-0.115	-0.024
-207.436	649.326	0.119	-0.303
-206.421	-200.000	-0.052	-0.673
-205.406	-200.000	-0.046	-0.229
-204.392	-94.214	-0.039	-0.011
-203.377	-73.007	0.334	-0.121
-202.363	800.000	0.060	-0.191
-201.348	-123.776	0.187	0.029
-200.333	-155.268	-0.438	-0.028
-199.319	92.693	-0.112	0.126
-198.304	311.441	-0.109	-0.201
-197.290	87.960	0.127	-0.139
-196.275	-200.000	0.002	-0.101
-195.260	-128.925	0.200	0.028
-194.246	187.200	-0.182	0.269
-193.231	-34.680	-0.346	-0.187
-192.217	-200.000	-0.036	-0.511
-191.202	74.806	0.069	0.072
-190.187	0.404	0.333	0.235
-189.173	800.000	0.026	-0.078
-188.158	-132.948	0.239	-0.030
-187.144	-48.975	0.092	0.044
-186.129	117.411	-0.197	0.240
-185.114	800.000	-0.131	0.480
-184.100	-79.475	0.386	-0.129
-183.085	176.754	-0.225	0.323
-182.071	-88.814	0.255	-0.075
-181.056	581.671	-0.183	-0.443
-180.042	-200.000	-0.021	0.496
-179.027	-200.000	0.000	-0.378
-178.012	218.642	-0.038	-0.060
-176.998	-97.970	0.153	0.039
-175.983	-200.000	0.018	-0.100
-174.969	4.758	-0.152	-0.111
-173.954	-37.990	-0.141	0.074
-172.939	14.365	0.369	-0.285
-171.925	233.520	0.091	-0.149
-170.910	-83.580	0.177	-0.056
-169.896	51.673	-0.224	0.210
-168.881	591.481	-0.072	-0.176
-167.866	411.849	0.031	-0.065
-166.852	-87.238	-0.194	-0.058
-165.837	36.138	-0.107	0.093
-164.823	800.000	-0.013	0.055
-163.808	-200.000	-0.029	-0.176
-162.793	236.941	0.133	0.218
-161.779	-133.621	0.360	0.045
-160.764	-67.386	-0.251	-0.098
-159.750	57.400	0.128	-0.124
-158.735	611.112	-0.013	0.033
-157.720	48.732	-0.121	-0.112
-156.706	-99.649	0.277	0.069
-155.691	800.000	0.093	0.309
-154.677	800.000	0.073	0.255
-153.662	131.872	-0.039	0.049
-152.647	-57.645	0.309	-0.134
-151.633	58.577	-0.183	0.177
-150.618	315.838	0.163	0.304
-149.604	-5.832	-0.152	0.103
-148.589	-43.053	0.284	0.142
-147.574	503.971	0.112	-0.256
-146.560	446.609	-0.034	0.074
-145.545	-61.927	-0.235	0.097
-144.531	-158.621	0.097	0.006
-143.516	17.332	0.169	0.132
-142.502	-186.208	0.257	-0.004
-141.487	108.067	-0.032	0.038
-140.472	97.002	-0.197	0.223
-139.458	-200.000	-0.036	0.347
-138.443	366.726	0.084	0.167
-137.429	-186.928	-0.186	-0.003
-136.414	267.805	0.085	0.147
-135.399	3.543	0.087	0.063
-134.385	-110.079	-0.309	-0.064
-133.370	-200.000	0.009	-0.079
-132.356	242.220	0.112	-0.186
-131.341	121.781	-0.269	-0.331
-130.326	-6.771	-0.265	-0.178
-129.312	-46.983	0.074	0.035
-128.297	-200.000	-0.027	0.237
-127.283	232.629	-0.159	-0.258
-126.268	800.000	-0.058	-0.205
-125.253	-200.000	0.005	-0.182
-124.239	-83.784	0.301	0.095
-123.224	-105.736	-0.134	0.030
-122.210	-168.935	-0.052	-0.002
-121.195	-56.706	0.077	0.034
-120.180	78.973	0.127	0.135
