DTS Sentinel unit serial number:	SN413079Multiplexer serial number:	ORYXHardware model number:	OX4-SRSoftware version number:	ORYX F/W v4.00 Oryx Data Collector v3.7.2.0data status	okinstallation	princeton_trtdifferential loss correction	single-endedforward channel	channel 1reverse channel	N/Adate	2019/09/14time	22:22:35forward acquisition time	60.00reverse acquisition time	0.00gamma	496.2192k internal	0.2319k external	0.2319temperature offset calibration	1.0006default loss term (dB/km)	0.3790temperature slope calibration	1.0000multiplexer offset coefficient	1.0000multiplexer slope coefficient	1.0000fibre end	0.00T internal ref (°C)	32.56T ext. ref 1 (°C)	4.70T ext. ref 2 (°C)	27.57length (m)	temperature (°C)	Stokes	anti-Stokes-747.200	-200.000	-0.052	-0.486
-746.185	-40.059	-0.413	0.218
-745.171	-150.355	-0.318	0.025
-744.156	-200.000	-0.008	0.041
-743.142	9.952	0.152	0.117
-742.127	560.921	0.025	0.062
-741.112	-128.277	0.282	-0.041
-740.098	-64.892	-0.251	0.103
-739.083	-61.707	0.030	-0.013
-738.069	92.623	0.117	0.133
-737.054	-169.745	0.153	-0.006
-736.039	80.247	-0.099	-0.108
-735.025	800.000	0.104	0.323
-734.010	335.335	0.153	0.300
-732.996	141.079	-0.195	-0.261
-731.981	51.655	-0.279	-0.268
-730.966	118.931	0.052	-0.065
-729.952	1.479	-0.061	0.045
-728.937	44.136	-0.042	-0.039
-727.923	402.692	0.039	-0.084
-726.908	800.000	-0.068	-0.230
-725.894	-200.000	0.007	0.078
-724.879	278.222	0.041	0.075
-723.864	433.482	0.170	-0.372
-722.850	-44.892	-0.127	0.064
-721.835	-53.748	0.051	-0.024
-720.821	-61.463	-0.269	-0.114
-719.806	-143.728	-0.289	0.028
-718.791	788.667	-0.085	-0.236
-717.777	-0.796	0.239	-0.171
-716.762	-24.526	-0.099	0.059
-715.748	49.291	0.265	0.252
-714.733	58.862	-0.231	-0.229
-713.718	2.207	0.047	0.034
-712.704	-200.000	-0.050	-0.395
-711.689	-36.379	-0.503	-0.274
-710.675	27.697	0.124	0.105
-709.660	800.000	0.039	0.139
-708.645	707.289	-0.060	-0.160
-707.631	-85.971	0.277	-0.086
-706.616	-52.276	0.206	-0.096
-705.602	-40.761	0.426	-0.223
-704.587	265.121	-0.053	0.094
-703.572	94.886	-0.035	-0.040
-702.558	-200.000	-0.044	-0.218
-701.543	314.822	0.149	-0.284
-700.529	-34.266	0.255	0.141
-699.514	4.150	-0.182	-0.135
-698.499	-81.917	-0.164	-0.054
-697.485	110.410	-0.119	0.145
-696.470	-68.497	-0.251	0.098
-695.456	243.511	-0.021	-0.036
-694.441	51.206	0.227	-0.218
-693.426	-200.000	-0.060	0.278
-692.412	629.243	0.130	0.331
-691.397	39.592	0.130	-0.118
-690.383	529.752	-0.037	-0.089
-689.368	172.800	-0.162	0.236
-688.354	800.000	0.037	-0.126
-687.339	-14.511	0.092	0.060
-686.324	266.928	-0.106	-0.188
-685.310	-200.000	0.069	-0.375
-684.295	-32.423	0.318	0.179
-683.281	-7.624	-0.111	0.075
-682.266	-173.513	-0.055	0.002
-681.251	-114.222	0.033	-0.006
-680.237	-200.000	-0.091	-0.567
-679.222	186.512	-0.120	-0.180
-678.208	-200.000	-0.024	-0.165
-677.193	-87.781	0.392	-0.119
-676.178	-200.000	-0.001	-0.132
-675.164	95.057	0.194	-0.223
-674.149	93.325	0.085	-0.097
-673.135	-166.275	-0.301	0.013
-672.120	-46.990	0.227	-0.112
-671.105	-200.000	-0.051	-0.320
-670.091	43.574	0.063	-0.059
-669.076	229.528	-0.117	-0.193
-668.062	158.869	-0.126	-0.177
-667.047	-45.367	0.115	0.057
-666.032	-139.126	-0.085	0.009
-665.018	-174.819	-0.087	-0.002
-664.003	-200.000	0.020	0.144
-662.989	-67.915	0.170	0.067
-661.974	-97.075	0.174	0.046
-660.959	-164.675	-0.071	-0.003
-659.945	800.000	-0.062	-0.187
-658.930	-117.389	0.116	-0.021
-657.916	800.000	0.007	-0.031
-656.901	-45.968	0.149	0.074
-655.886	197.847	0.134	0.206
-654.872	634.041	0.087	-0.222
-653.857	470.114	-0.139	0.315
-652.843	92.730	-0.171	-0.194
-651.828	6.483	-0.152	0.114
-650.814	800.000	-0.032	-0.095
-649.799	-200.000	-0.047	-0.230
-648.784	109.897	0.173	0.210
-647.770	217.777	-0.042	0.068
-646.755	13.085	0.155	-0.121
-645.741	-78.228	0.271	0.094
-644.726	148.311	-0.079	-0.108
-643.711	142.004	0.175	0.234
-642.697	-62.769	-0.241	0.101
-641.682	-75.214	-0.307	-0.111
-640.668	221.206	-0.068	-0.109
-639.653	553.710	-0.081	-0.195
-638.638	406.655	0.130	0.278
-637.624	32.514	0.119	-0.104
-636.609	-200.000	0.035	0.298
-635.595	459.449	0.133	0.297
-634.580	-105.685	-0.333	0.076
-633.565	66.740	-0.166	0.171
-632.551	-200.000	0.062	-0.297
-631.536	694.022	-0.029	0.076
-630.522	-145.247	-0.188	0.017
-629.507	-172.735	-0.100	0.003
-628.492	800.000	-0.038	-0.152
-627.478	-200.000	0.006	0.074
-626.463	-8.494	-0.149	0.100
-625.449	-200.000	0.023	-0.131
-624.434	511.778	-0.085	0.199
-623.419	47.710	0.101	-0.095
-622.405	-122.336	0.063	-0.010
-621.390	-200.000	0.136	0.000
-620.376	-140.622	-0.211	-0.022
-619.361	-200.000	0.008	0.168
-618.346	-49.355	-0.112	-0.054
-617.332	-96.338	0.245	-0.065
-616.317	270.030	0.037	-0.065
-615.303	249.791	0.139	0.238
-614.288	149.517	0.182	0.248
-613.273	-200.000	0.006	-0.055
-612.259	163.544	0.195	-0.276
-611.244	-87.602	-0.059	-0.018
-610.230	800.000	0.015	0.064
-609.215	11.621	-0.250	0.193
-608.201	153.702	-0.212	0.293
-607.186	23.604	0.038	-0.032
-606.171	-200.000	-0.007	-0.334
-605.157	800.000	0.017	-0.068
-604.142	-200.000	-0.030	-0.220
-603.128	238.860	0.145	0.243
-602.113	800.000	-0.065	0.195
-601.098	800.000	0.097	-0.294
-600.084	-27.930	0.118	-0.069
-599.069	151.688	-0.162	-0.223
-598.055	-179.331	-0.138	-0.003
-597.040	464.721	-0.124	-0.279
-596.025	1.443	-0.230	-0.166
-595.011	-139.331	-0.083	-0.009
-593.996	215.762	-0.101	0.161
-592.982	800.000	0.091	-0.298
-591.967	-186.005	-0.027	-0.000
-590.952	-5.294	-0.095	-0.066
-589.938	313.336	0.136	-0.258
-588.923	-101.611	-0.167	-0.041
-587.909	65.718	-0.241	0.245
-586.894	576.794	-0.049	-0.120
-585.879	574.381	-0.028	0.069
-584.865	279.320	0.061	0.109
-583.850	236.528	-0.225	-0.374
-582.836	293.743	0.084	0.153
-581.821	800.000	0.089	-0.346
-580.806	-108.063	-0.139	-0.030
-579.792	500.804	-0.016	0.037
-578.777	219.151	-0.202	0.324
-577.763	-93.533	0.118	0.033
-576.748	114.973	-0.242	-0.296
-575.733	-137.866	0.417	-0.047
-574.719	-20.625	0.309	0.191
-573.704	-88.021	-0.183	-0.055
-572.690	-95.153	-0.153	-0.042
-571.675	1.477	0.061	0.044
-570.661	-107.945	0.205	0.045
-569.646	64.907	0.098	-0.100
-568.631	62.000	-0.199	0.199
-567.617	-200.000	-0.009	-0.053
-566.602	35.476	0.051	0.045
-565.588	-145.579	0.222	-0.020
-564.573	-200.000	0.023	-0.160
-563.558	-164.081	0.031	-0.001
-562.544	-116.585	0.238	0.044
-561.529	-200.000	0.026	-0.158
-560.515	-200.000	0.024	-0.273
-559.500	-200.000	-0.013	0.275
-558.485	69.524	0.134	-0.138
-557.471	-200.000	-0.002	0.138
-556.456	800.000	-0.093	-0.347
-555.442	256.476	0.217	0.375
-554.427	26.564	-0.185	0.155
-553.412	98.888	0.096	0.111
-552.398	-71.512	-0.230	-0.086
-551.383	71.858	0.136	-0.142
-550.369	800.000	-0.094	0.270
-549.354	-27.646	0.221	-0.129
-548.339	-97.539	0.159	0.042
-547.325	-188.314	0.086	0.001
-546.310	535.501	-0.075	0.179
-545.296	119.556	0.159	0.197
-544.281	437.726	0.143	-0.314
-543.266	340.300	0.117	-0.229
-542.252	-83.961	-0.160	0.051
-541.237	425.096	0.067	-0.145
-540.223	-166.096	0.093	-0.004
-539.208	262.493	-0.060	0.104
-538.193	-25.497	-0.279	-0.165
-537.179	-114.433	-0.035	0.007
-536.164	-200.000	0.014	-0.325
-535.150	-200.000	0.051	0.243
-534.135	800.000	-0.045	-0.191
-533.121	-200.000	-0.042	-0.390
-532.106	26.030	-0.311	-0.260
-531.091	-42.771	-0.026	-0.013
-530.077	223.510	0.201	-0.325
-529.062	336.848	0.063	0.123
-528.048	-96.377	0.268	-0.071
-527.033	-73.046	0.105	0.039
-526.018	-200.000	-0.035	0.251
-525.004	800.000	0.109	-0.473
-523.989	47.067	-0.049	0.045
-522.975	-50.172	-0.127	0.060
-521.960	-48.245	-0.333	0.161
-520.945	-120.972	0.301	-0.051
-519.931	312.281	0.109	0.206
-518.916	-200.000	-0.023	0.127
-517.902	-61.804	-0.066	-0.028
-516.887	-15.690	0.274	-0.175
-515.872	6.069	0.162	-0.121
-514.858	-200.000	0.061	-0.321
-513.843	28.236	-0.365	0.309
-512.829	78.657	0.097	0.104
-511.814	-200.000	-0.035	-0.240
-510.799	-200.000	0.027	0.197
-509.785	-140.249	0.287	0.030
-508.770	98.859	0.183	0.212
-507.756	800.000	-0.142	0.417
-506.741	-200.000	-0.288	-0.001
-505.726	800.000	-0.033	-0.107
-504.712	-104.340	0.103	-0.024
-503.697	800.000	-0.031	-0.117
-502.683	-56.040	-0.161	-0.072
-501.668	-200.000	0.034	-0.293
-500.653	-14.603	0.377	-0.243
-499.639	-132.223	-0.257	0.033
-498.624	-133.325	0.301	0.038
-497.610	-19.334	0.314	-0.195
-496.595	-45.201	-0.111	0.055
-495.581	800.000	0.046	-0.163
-494.566	-200.000	-0.023	-0.222
-493.551	253.245	0.205	-0.350
-492.537	-18.676	-0.041	-0.025
-491.522	-200.000	0.012	0.359
-490.508	-166.054	-0.145	-0.006
-489.493	-148.689	0.195	0.016
-488.478	800.000	-0.073	0.249
-487.464	-200.000	-0.033	-0.244
-486.449	195.944	-0.134	0.205
-485.435	-114.641	0.209	-0.040
-484.420	239.278	0.133	-0.222
-483.405	-51.434	-0.094	0.044
-482.391	-12.035	-0.227	0.149
-481.376	-137.109	0.118	-0.013
-480.362	-51.889	-0.129	-0.060
-479.347	-43.114	-0.124	0.063
-478.332	-148.655	0.242	-0.020
-477.318	-152.604	-0.403	0.029
-476.303	-42.832	0.193	0.098
-475.289	-13.424	0.362	0.235
-474.274	90.501	-0.101	0.114
-473.259	-43.866	0.093	0.047
-472.245	-119.255	-0.158	0.028
-471.230	-8.670	0.145	0.098
-470.216	76.993	0.111	0.118
-469.201	800.000	-0.078	0.216
-468.186	800.000	-0.004	0.014
-467.172	-46.019	0.172	-0.085
-466.157	-67.333	0.107	0.042
-465.143	674.655	-0.096	-0.249
-464.128	9.972	0.199	0.151
-463.113	-200.000	-0.016	-0.262
-462.099	357.871	-0.006	-0.013
-461.084	-21.464	-0.105	0.064
-460.070	601.338	-0.114	-0.282
-459.055	69.717	0.121	0.125
-458.040	23.042	0.153	0.126
-457.026	382.938	-0.090	0.186
-456.011	72.048	-0.089	-0.093
-454.997	800.000	-0.056	0.171
-453.982	-55.942	-0.319	0.142
-452.968	800.000	-0.045	0.126
-451.953	14.143	-0.110	-0.085
-450.938	-13.331	-0.185	-0.120
-449.924	-168.082	0.273	-0.011
-448.909	-141.615	0.168	0.017
-447.895	23.915	-0.086	0.071
-446.880	800.000	-0.056	-0.218
-445.865	-79.107	0.204	-0.069
-444.851	-138.222	0.223	0.025
-443.836	15.621	-0.117	-0.092
-442.822	134.661	-0.091	0.118
-441.807	-200.000	-0.021	-0.104
-440.792	-22.541	-0.083	-0.050
-439.778	311.461	0.066	0.124
-438.763	-29.212	0.285	0.163
-437.749	5.576	-0.117	0.086
-436.734	-200.000	-0.030	-0.141
-435.719	-80.840	-0.058	-0.019
-434.705	789.819	-0.066	-0.182
-433.690	65.049	0.223	-0.225
-432.676	35.860	-0.252	-0.221
-431.661	-200.000	0.013	-0.190
-430.646	-200.000	0.001	-0.019
-429.632	14.671	0.161	-0.126
-428.617	80.454	-0.173	-0.186
-427.603	-113.561	0.300	0.059
-426.588	800.000	-0.048	-0.167
-425.573	24.085	0.176	-0.145
-424.559	-200.000	-0.024	0.417
-423.544	-67.986	0.180	-0.070
-422.530	-50.651	-0.284	0.134
-421.515	-200.000	0.081	0.418
-420.500	-104.119	-0.447	0.104
-419.486	-200.000	-0.066	0.376
-418.471	-25.794	-0.028	-0.016
-417.457	106.865	-0.346	-0.411
-416.442	314.014	0.047	-0.088
-415.428	6.607	-0.477	-0.355
-414.413	32.679	0.262	0.226
-413.398	228.100	0.152	0.246
-412.384	-58.361	-0.285	-0.124
-411.369	179.907	-0.041	-0.060
-410.355	102.568	-0.165	0.193
-409.340	140.086	-0.028	-0.037
-408.325	-161.404	0.334	0.017
-407.311	-52.392	-0.048	-0.022
-406.296	-74.814	0.026	-0.009
-405.282	182.938	-0.130	0.192
-404.267	43.395	0.069	0.063
-403.252	56.725	0.007	-0.007
-402.238	301.200	0.092	0.169
-401.223	-174.318	0.233	0.007
-400.209	-127.358	0.196	0.029
-399.194	-200.000	0.042	-0.210
-398.179	59.858	-0.096	-0.094
-397.165	417.130	-0.093	-0.198
-396.150	30.128	0.283	0.241
-395.136	12.226	-0.319	-0.245
-394.121	58.000	-0.058	0.056
-393.106	-200.000	-0.056	0.280
-392.092	-76.359	-0.336	0.118
-391.077	68.886	-0.203	-0.208
-390.063	165.806	0.049	0.069
-389.048	36.837	-0.217	0.191
-388.033	239.544	-0.044	-0.074
-387.019	-200.000	-0.079	0.000
-386.004	-200.000	0.006	0.124
-384.990	-153.958	-0.221	0.015
-383.975	38.201	0.356	0.316
-382.960	16.274	-0.298	0.234
-381.946	82.295	0.191	0.206
-380.931	226.010	0.100	0.161
-379.917	-200.000	0.074	0.544
-378.902	800.000	-0.063	0.178
-377.888	-101.900	0.041	0.010
-376.873	-45.389	0.157	0.078
-375.858	-200.000	-0.005	-0.130
-374.844	-127.478	-0.344	-0.050
-373.829	-53.167	0.330	0.151
-372.815	399.162	-0.101	0.212
-371.800	-103.675	0.100	-0.023
-370.785	535.018	-0.101	-0.238
-369.771	800.000	0.064	0.203
-368.756	800.000	0.075	0.209
-367.742	45.462	0.077	0.071
-366.727	182.537	-0.040	0.059
-365.712	-200.000	0.029	-0.363
-364.698	126.656	0.175	0.221
-363.683	-123.282	-0.126	-0.020
-362.669	-51.055	-0.148	-0.069
-361.654	87.727	0.133	0.147
-360.639	49.088	0.224	-0.210
-359.625	271.052	-0.358	0.629
-358.610	110.041	0.194	-0.232
-357.596	800.000	0.076	-0.268
-356.581	-126.131	-0.400	-0.060
-355.566	-87.105	0.162	-0.049
-354.552	258.774	0.017	-0.029
-353.537	-55.292	0.221	0.099
-352.523	-103.393	0.179	0.042
-351.508	-4.834	-0.151	0.104
-350.493	-73.834	-0.086	0.031
-349.479	-200.000	0.036	-0.332
-348.464	391.978	0.079	0.163
-347.450	-200.000	0.009	0.069
-346.435	-36.004	-0.294	0.159
-345.420	-141.367	-0.117	-0.012
-344.406	-32.220	0.255	-0.142
-343.391	-83.150	-0.104	0.033
-342.377	73.774	-0.205	-0.214
-341.362	-24.889	-0.191	0.113
-340.348	-200.000	0.030	0.183
-339.333	213.509	-0.120	-0.188
-338.318	800.000	-0.039	0.134
-337.304	-29.580	0.178	0.102
-336.289	-80.539	0.099	-0.033
-335.275	-59.345	-0.056	0.024
-334.260	21.277	0.090	0.073
-333.245	-73.776	0.058	0.021
-332.231	-200.000	0.066	0.300
-331.216	194.750	-0.123	-0.185
-330.202	-152.491	-0.319	0.023
-329.187	-161.756	0.086	0.004
-328.172	-200.000	0.020	-0.436
-327.158	800.000	-0.081	0.224
-326.143	-96.000	0.056	-0.015
-325.129	139.173	-0.078	0.103
-324.114	95.817	0.272	-0.309
-323.099	-43.694	-0.255	0.128
-322.085	-114.687	-0.213	0.041
-321.070	800.000	0.026	0.100
-320.056	800.000	-0.081	-0.271
-319.041	-89.223	-0.338	-0.099
-318.026	121.342	-0.118	0.146
-317.012	-46.171	0.198	-0.097
-315.997	800.000	0.076	0.218
-314.983	148.995	-0.123	0.165
-313.968	369.261	-0.061	0.124
-312.953	-105.801	-0.330	-0.074
-311.939	495.136	0.059	-0.134
-310.924	800.000	0.057	-0.217
-309.910	111.586	0.095	-0.114
-308.895	70.820	-0.130	0.134
-307.880	-200.000	0.016	0.090
-306.866	-121.350	0.296	-0.049
-305.851	-20.206	-0.009	0.006
-304.837	63.726	0.081	0.081
-303.822	78.677	0.061	0.065
-302.807	-54.655	0.348	0.157
-301.793	800.000	-0.093	0.397
-300.778	121.724	0.027	-0.034
-299.764	586.736	0.061	0.148
-298.749	-99.771	0.355	0.088
-297.735	150.186	0.015	-0.020
-296.720	800.000	-0.013	0.040
-295.705	249.810	-0.004	0.006
-294.691	26.040	0.118	0.098
-293.676	73.397	-0.200	0.208
-292.662	24.995	0.280	0.230
-291.647	-114.459	-0.166	-0.032
-290.632	-83.097	-0.099	-0.032
-289.618	206.268	0.136	-0.211
-288.603	213.550	0.180	-0.282
-287.589	468.757	-0.056	0.124
-286.574	68.354	-0.200	-0.204
-285.559	-103.981	0.331	0.077
-284.545	-200.000	-0.013	0.061
-283.530	136.870	0.104	-0.135
-282.516	480.828	0.061	-0.138
-281.501	-112.257	-0.405	0.081
-280.486	-60.660	0.225	0.095
-279.472	180.565	0.175	-0.256
-278.457	-46.903	0.259	0.126
-277.443	-200.000	0.312	0.000
-276.428	800.000	0.050	0.166
-275.413	92.889	0.056	0.063
-274.399	-92.982	-0.207	0.057
-273.384	171.285	-0.184	0.262
-272.370	800.000	0.049	0.189
-271.355	-28.074	0.147	-0.084
-270.340	800.000	0.023	-0.094
-269.326	800.000	-0.094	-0.308
-268.311	190.115	-0.184	0.274
-267.297	32.349	0.126	-0.108
-266.282	-200.000	-0.052	-0.392
-265.267	-53.870	0.092	-0.042
-264.253	137.177	-0.073	0.094
-263.238	14.918	-0.316	0.245
-262.224	83.978	-0.093	-0.101
-261.209	24.346	-0.159	0.131
-260.195	-200.000	0.055	0.273
-259.180	9.723	0.140	0.105
-258.165	20.485	0.111	0.089
-257.151	111.570	-0.205	0.245
-256.136	221.769	-0.040	0.063
-255.122	-17.983	-0.305	-0.190
-254.107	-1.149	-0.026	-0.018
-253.092	529.867	0.080	0.187
-252.078	-40.532	0.200	0.103
-251.063	-42.484	-0.376	0.190
-250.049	416.242	0.057	0.120
-249.034	-52.990	0.218	-0.099
-248.019	-56.142	-0.249	-0.110
-247.005	70.145	0.253	-0.259
-245.990	131.585	-0.025	-0.032
-244.976	464.507	0.101	0.223
-243.961	9.874	-0.200	-0.150
-242.946	109.680	0.041	0.049
-241.932	-200.000	0.063	-0.282
-240.917	168.943	-0.139	-0.197
-239.903	12.342	-0.204	-0.156
-238.888	187.362	0.159	-0.236
-237.873	-200.000	-0.021	0.193
-236.859	-200.000	-0.001	-0.091
-235.844	-110.125	0.027	0.006
-234.830	-200.000	-0.003	-0.037
-233.815	-137.135	0.162	-0.018
-232.800	482.741	0.049	-0.111
-231.786	387.566	-0.030	0.061
-230.771	98.682	0.176	0.201
-229.757	298.114	0.081	-0.148
-228.742	-139.268	-0.322	-0.034
-227.727	-93.748	-0.100	0.027
-226.713	475.903	0.077	0.173
-225.698	-130.414	0.294	-0.039
-224.684	383.378	0.173	-0.353
-223.669	-12.528	0.238	-0.154
-222.655	27.650	0.171	0.143
-221.640	-132.056	0.179	-0.023
-220.625	50.857	-0.270	-0.254
-219.611	-54.140	-0.217	0.098
-218.596	30.640	-0.309	0.262
-217.582	-200.000	0.034	-0.158
-216.567	-182.323	-0.175	-0.003
-215.552	800.000	0.044	0.164
-214.538	-101.688	0.063	-0.015
-213.523	153.044	-0.043	0.059
-212.509	-127.318	0.092	0.013
-211.494	112.848	0.266	-0.319
-210.479	-89.160	0.081	-0.024
-209.465	-51.777	0.201	0.093
-208.450	458.850	-0.067	0.148
-207.436	-90.685	-0.381	0.109
-206.421	48.158	0.215	0.200
-205.406	800.000	-0.117	-0.338
-204.392	43.400	0.254	-0.230
-203.377	94.552	0.088	-0.100
-202.363	-167.419	0.233	0.009
-201.348	-200.000	0.050	0.361
-200.333	-17.045	0.160	0.100
-199.319	-74.384	-0.246	-0.088
-198.304	-171.557	-0.496	-0.016
-197.290	-131.930	-0.175	0.023
-196.275	-42.986	0.232	0.117
-195.260	33.014	-0.145	-0.124
-194.246	800.000	0.094	-0.286
-193.231	25.249	0.216	-0.177
-192.217	800.000	0.086	0.367
-191.202	800.000	-0.056	0.174
-190.187	-65.372	-0.283	-0.113
-189.173	108.786	-0.280	-0.331
-188.158	-14.236	0.201	-0.128
-187.144	-165.254	0.217	-0.009
-186.129	710.629	-0.054	0.142
-185.114	672.613	-0.029	-0.074
-184.100	-200.000	0.047	-0.326
-183.085	-92.564	-0.314	-0.087
-182.071	26.073	-0.118	0.098
-181.056	-28.765	0.233	-0.133
-180.042	-200.000	0.047	-0.224
-179.027	118.336	-0.160	0.195
-178.012	-65.996	-0.239	0.095
-176.998	229.397	-0.144	-0.233
-175.983	-200.000	-0.005	0.087
-174.969	-5.879	-0.181	0.123
-173.954	800.000	0.077	0.295
-172.939	-200.000	0.042	-0.285
-171.925	249.646	0.118	-0.198
-170.910	-200.000	0.032	-0.140
-169.896	-5.738	0.112	-0.076
-168.881	198.675	-0.074	-0.113
-167.866	-151.038	0.137	-0.010
-166.852	-105.139	0.196	0.044
-165.837	5.282	-0.307	-0.224
-164.823	-99.149	0.200	-0.050
-163.808	163.491	-0.164	0.228
-162.793	-24.902	0.181	-0.106
-161.779	155.475	0.061	-0.083
-160.764	-35.083	-0.416	0.224
-159.750	52.615	0.178	-0.168
-158.735	-156.391	-0.107	-0.007
-157.720	-200.000	-0.036	0.375
-156.706	170.793	-0.041	-0.058
-155.691	75.755	-0.155	-0.162
-154.677	-155.760	0.155	0.010
-153.662	232.044	0.093	0.150
-152.647	-9.703	0.186	-0.123
-151.633	-200.000	-0.010	-0.111
-150.618	312.287	0.064	0.119
-149.604	-30.648	-0.205	-0.114
-148.589	-18.118	-0.095	0.058
-147.574	800.000	0.049	0.153
-146.560	-36.808	-0.113	0.060
-145.545	-49.661	-0.155	0.073
-144.531	-2.185	0.049	-0.034
-143.516	-200.000	0.020	-0.134
-142.502	223.855	0.151	0.241
-141.487	-109.227	0.317	0.067
-140.472	-200.000	-0.001	0.119
-139.458	60.602	0.101	-0.099
-138.443	-51.885	-0.240	-0.110
-137.429	461.677	0.108	-0.237
-136.414	-200.000	-0.011	0.089
-135.399	-200.000	0.000	-0.130
-134.385	-35.368	0.272	0.146
-133.370	-115.122	0.114	0.021
-132.356	29.507	-0.105	0.088
-131.341	800.000	0.093	0.309
-130.326	-200.000	-0.003	-0.194
-129.312	800.000	0.016	-0.063
-128.297	800.000	-0.080	0.342
-127.283	-200.000	-0.022	0.289
-126.268	1.041	-0.298	-0.211
-125.253	244.906	-0.159	0.264
-124.239	-114.770	-0.232	-0.044
-123.224	-76.528	0.300	0.104
-122.210	192.919	-0.135	0.202
-121.195	18.398	0.189	-0.149
-120.180	-164.268	-0.392	-0.018
