DTS Sentinel unit serial number:	SN413079Multiplexer serial number:	ORYXHardware model number:	OX4-SRSoftware version number:	ORYX F/W v4.00 Oryx Data Collector v3.7.2.0data status	okinstallation	princeton_trtdifferential loss correction	single-endedforward channel	channel 1reverse channel	N/Adate	2019/09/12time	20:09:34forward acquisition time	15.00reverse acquisition time	0.00gamma	496.2192k internal	0.2324k external	0.2324temperature offset calibration	1.0134default loss term (dB/km)	0.3790temperature slope calibration	1.0000multiplexer offset coefficient	1.0000multiplexer slope coefficient	1.0000fibre end	0.00T internal ref (°C)	31.62T ext. ref 1 (°C)	3.37T ext. ref 2 (°C)	26.26length (m)	temperature (°C)	Stokes	anti-Stokes-747.200	-200.000	-0.166	0.964
-746.185	399.443	0.468	0.990
-745.171	800.000	-0.257	0.774
-744.156	139.926	0.380	-0.505
-743.142	329.976	-0.341	0.662
-742.127	267.007	0.266	-0.469
-741.112	230.595	0.187	0.308
-740.098	75.448	-0.082	-0.088
-739.083	800.000	-0.126	-0.450
-738.069	69.114	0.540	0.560
-737.054	-135.934	0.550	-0.065
-736.039	-200.000	-0.027	-1.110
-735.025	-200.000	0.062	-0.515
-734.010	-1.946	-0.181	0.128
-732.996	44.047	-0.373	-0.345
-731.981	203.606	0.678	-1.058
-730.966	-144.656	0.222	-0.021
-729.952	-45.452	-0.261	-0.130
-728.937	263.564	-0.198	-0.347
-727.923	375.632	0.179	-0.369
-726.908	-86.445	0.542	0.168
-725.894	474.506	0.113	-0.257
-724.879	-42.553	0.590	-0.303
-723.864	21.044	0.156	-0.127
-722.850	-7.472	-0.619	0.422
-721.835	-200.000	-0.181	-0.878
-720.821	296.264	-0.134	-0.248
-719.806	800.000	-0.041	-0.127
-718.791	-200.000	0.055	0.783
-717.777	-41.437	0.691	-0.359
-716.762	-90.596	-0.127	-0.037
-715.748	228.753	0.380	0.625
-714.733	800.000	0.088	-0.345
-713.718	65.198	0.384	0.392
-712.704	800.000	0.277	-0.801
-711.689	27.489	0.722	-0.612
-710.675	-200.000	0.065	0.489
-709.660	-161.825	0.395	-0.020
-708.645	-200.000	-0.105	0.889
-707.631	22.665	0.617	-0.509
-706.616	107.683	0.364	0.437
-705.602	-17.020	0.593	0.377
-704.587	-200.000	0.187	-0.951
-703.572	-168.503	0.502	-0.019
-702.558	-38.272	-0.885	-0.473
-701.543	800.000	0.092	-0.294
-700.529	81.209	-0.116	-0.126
-699.514	557.484	0.486	-1.180
-698.499	-161.353	0.565	-0.029
-697.485	172.044	-0.424	-0.615
-696.470	-38.757	0.432	-0.230
-695.456	-83.180	-0.452	-0.146
-694.441	35.815	-0.663	-0.587
-693.426	-108.358	-1.065	0.231
-692.412	-200.000	0.021	0.740
-691.397	434.606	0.227	0.497
-690.383	200.190	0.157	0.242
-689.368	-200.000	0.003	-0.596
-688.354	800.000	0.045	0.140
-687.339	-2.996	0.618	0.434
-686.324	-73.572	-1.069	0.393
-685.310	84.936	0.568	-0.627
-684.295	-120.879	1.347	-0.228
-683.281	-28.506	0.293	0.170
-682.266	8.371	-0.247	-0.187
-681.251	64.640	-0.040	0.041
-680.237	-127.358	-0.495	-0.073
-679.222	32.621	0.574	0.499
-678.208	179.819	0.402	-0.593
-677.193	-200.000	0.128	0.879
-676.178	-200.000	-0.158	0.957
-675.164	-200.000	-0.036	-0.536
-674.149	-124.882	-0.217	-0.034
-673.135	-100.334	0.566	-0.141
-672.120	-108.793	0.131	-0.028
-671.105	-178.681	0.359	0.008
-670.091	-177.380	-0.477	0.012
-669.076	281.142	0.082	0.148
-668.062	204.505	0.328	-0.512
-667.047	-83.693	-0.443	-0.142
-666.032	-156.081	-0.212	0.014
-665.018	444.709	0.242	0.533
-664.003	58.342	0.127	-0.125
-662.989	-72.828	0.330	0.122
-661.974	126.176	-0.208	0.264
-660.959	125.725	0.703	0.892
-659.945	-56.833	0.823	-0.366
-658.930	-32.916	-0.465	0.260
-657.916	-91.270	-0.626	-0.180
-656.901	800.000	-0.143	0.430
-655.886	42.158	-0.575	-0.525
-654.872	-41.365	-0.840	-0.435
-653.857	-127.056	-0.314	0.046
-652.843	43.924	0.419	-0.386
-651.828	-7.671	-0.897	0.610
-650.814	-100.544	0.591	0.147
-649.799	-50.566	0.962	-0.456
-648.784	141.488	-0.502	-0.668
-647.770	-6.856	0.537	-0.367
-646.755	-200.000	-0.089	0.701
-645.741	247.395	0.332	0.565
-644.726	58.531	-0.138	-0.136
-643.711	-70.830	-0.157	0.059
-642.697	18.316	-0.007	0.006
-641.682	107.682	0.101	0.121
-640.668	800.000	-0.050	0.174
-639.653	155.659	-0.301	0.417
-638.638	252.176	0.532	0.912
-637.624	-160.246	-0.598	0.032
-636.609	-154.062	-0.870	-0.059
-635.595	127.777	-0.439	-0.561
-634.580	800.000	-0.084	-0.364
-633.565	-200.000	0.030	0.782
-632.551	-36.352	1.035	0.561
-631.536	-200.000	-0.088	-0.393
-630.522	800.000	-0.238	-0.702
-629.507	800.000	0.065	0.224
-628.492	-163.793	0.243	0.011
-627.478	-200.000	-0.020	-0.488
-626.463	800.000	0.015	-0.063
-625.449	376.175	0.283	0.581
-624.434	-44.620	0.198	-0.099
-623.419	-200.000	-0.013	0.072
-622.405	179.789	-0.335	-0.494
-621.390	134.728	-0.112	0.146
-620.376	800.000	-0.228	0.820
-619.361	143.413	-0.359	-0.480
-618.346	469.321	0.105	0.236
-617.332	100.608	-0.735	0.857
-616.317	124.314	-0.431	0.544
-615.303	400.874	-0.115	-0.243
-614.288	-147.059	0.256	-0.022
-613.273	-33.571	-0.412	-0.228
-612.259	-15.133	-0.388	0.250
-611.244	-73.550	0.185	0.068
-610.230	-18.653	-0.293	0.183
-609.215	-75.085	0.319	0.115
-608.201	-63.506	0.862	0.355
-607.186	-200.000	0.107	-0.478
-606.171	136.778	0.526	0.690
-605.157	207.747	-0.229	-0.359
-604.142	-200.000	-0.015	-0.805
-603.128	218.009	-0.164	-0.263
-602.113	-200.000	0.031	0.195
-601.098	800.000	-0.144	-0.598
-600.084	800.000	-0.266	0.786
-599.069	16.586	0.649	-0.515
-598.055	-129.677	1.270	-0.176
-597.040	-156.817	-0.310	-0.019
-596.025	-59.831	-0.510	-0.219
-595.011	126.484	0.461	-0.586
-593.996	288.195	0.523	0.951
-592.982	-94.081	-0.230	0.063
-591.967	336.163	0.471	-0.917
-590.952	-31.439	0.591	-0.334
-589.938	295.983	-0.211	-0.388
-588.923	102.440	-0.300	-0.352
-587.909	40.684	-0.739	-0.668
-586.894	-123.462	0.819	0.131
-585.879	800.000	0.271	0.755
-584.865	211.907	-0.158	0.249
-583.850	86.007	-0.190	-0.210
-582.836	556.219	-0.264	-0.637
-581.821	164.906	0.156	0.220
-580.806	721.294	0.269	-0.717
-579.792	189.188	-0.345	0.519
-578.777	-151.829	-0.786	-0.058
-577.763	-93.314	-1.025	0.285
-576.748	-147.702	0.356	-0.030
-575.733	-158.024	-0.706	0.042
-574.719	-8.079	0.214	0.145
-573.704	-200.000	-0.146	1.146
-572.690	-8.099	-0.178	-0.120
-571.675	-200.000	0.099	-0.932
-570.661	6.959	-0.618	0.462
-569.646	-200.000	-0.090	-0.423
-568.631	286.529	0.508	-0.920
-567.617	93.080	0.368	0.417
-566.602	135.013	0.644	0.838
-565.588	316.118	-0.129	-0.245
-564.573	-200.000	-0.178	-0.823
-563.558	109.026	0.304	0.364
-562.544	800.000	-0.124	0.453
-561.529	214.421	-0.651	-1.033
-560.515	-200.000	0.020	-0.178
-559.500	-68.363	0.529	-0.206
-558.485	281.832	0.129	-0.231
-557.471	-59.913	0.256	-0.110
-556.456	-17.533	0.304	0.191
-555.442	-53.849	-0.146	0.067
-554.427	-46.118	0.356	0.176
-553.412	-200.000	0.139	-1.241
-552.398	-65.478	-0.440	0.177
-551.383	-5.391	-0.354	0.244
-550.369	91.008	-0.208	-0.233
-549.354	-71.677	0.749	-0.280
-548.339	262.457	-0.181	0.315
-547.325	-200.000	-0.038	-0.306
-546.310	88.007	-0.399	0.443
-545.296	-184.051	0.276	-0.005
-544.281	-200.000	-0.022	1.008
-543.266	465.392	-0.062	0.138
-542.252	365.128	-0.383	-0.773
-541.237	-72.780	-0.529	-0.195
-540.223	-21.176	0.257	0.157
-539.208	-200.000	-0.154	-0.785
-538.193	-1.338	-0.124	0.088
-537.179	-30.866	-0.223	0.126
-536.164	163.865	-0.319	-0.449
-535.150	800.000	0.164	-0.467
-534.135	-91.917	-0.224	-0.064
-533.121	-33.106	1.088	0.604
-532.106	-77.046	0.601	-0.210
-531.091	-50.094	-0.774	-0.367
-530.077	300.869	0.365	0.674
-529.062	104.488	0.036	0.042
-528.048	33.648	-0.263	-0.229
-527.033	199.306	-0.217	0.334
-526.018	-32.654	0.137	0.076
-525.004	593.724	0.051	-0.125
-523.989	67.956	-0.372	0.380
-522.975	328.345	0.293	-0.562
-521.960	-150.737	-0.157	-0.012
-520.945	-177.133	-0.449	0.011
-519.931	800.000	0.076	0.273
-518.916	800.000	0.197	0.691
-517.902	-66.565	0.204	0.081
-516.887	-55.170	0.169	0.076
-515.872	-200.000	0.011	0.108
-514.858	62.399	-0.904	-0.903
-513.843	800.000	0.077	0.230
-512.829	-200.000	0.200	-1.014
-511.814	-200.000	-0.075	0.621
-510.799	-86.858	-0.966	-0.295
-509.785	-74.946	-0.562	0.202
-508.770	-49.526	0.647	-0.308
-507.756	-7.899	0.233	0.158
-506.741	55.165	-0.438	0.423
-505.726	-36.238	0.590	-0.318
-504.712	-142.834	-0.545	0.053
-503.697	-6.946	0.377	-0.256
-502.683	-200.000	0.026	-0.314
-501.668	-200.000	-0.010	0.183
-500.653	-20.474	0.347	-0.213
-499.639	-46.613	-0.381	-0.187
-498.624	-200.000	-0.063	-0.754
-497.610	-45.075	-0.611	-0.304
-496.595	381.893	0.046	-0.095
-495.581	-200.000	-0.128	-0.720
-494.566	110.818	0.147	0.177
-493.551	159.211	-0.193	-0.269
-492.537	-200.000	0.027	0.265
-491.522	-127.961	0.291	0.042
-490.508	-83.591	-1.054	-0.337
-489.493	-38.399	0.133	0.070
-488.478	-101.957	0.590	0.142
-487.464	133.403	-0.201	-0.260
-486.449	-200.000	-0.043	0.238
-485.435	800.000	0.053	0.153
-484.420	199.310	0.368	0.563
-483.405	742.955	0.032	-0.085
-482.391	-113.576	0.145	0.028
-481.376	-200.000	-0.043	0.682
-480.362	-200.000	-0.135	0.679
-479.347	94.572	0.900	1.021
-478.332	425.105	0.239	-0.514
-477.318	-29.165	-0.629	0.360
-476.303	-10.202	0.273	0.181
-475.289	800.000	-0.185	-0.676
-474.274	-51.310	-0.407	-0.190
-473.259	-32.889	1.192	0.661
-472.245	-124.231	0.837	-0.131
-471.230	800.000	0.114	0.484
-470.216	-35.867	0.656	-0.354
-469.201	291.281	0.302	0.548
-468.186	-74.940	0.522	-0.187
-467.172	10.775	0.302	-0.230
-466.157	29.170	0.258	-0.218
-465.143	36.194	0.508	0.447
-464.128	-74.130	0.487	-0.176
-463.113	123.296	-0.668	-0.836
-462.099	800.000	0.194	0.543
-461.084	-46.780	-0.781	0.382
-460.070	800.000	-0.087	0.308
-459.055	141.987	0.334	-0.441
-458.040	-111.533	0.220	0.045
-457.026	-60.260	0.560	-0.238
-456.011	648.164	0.017	-0.045
-454.997	-91.585	0.353	-0.100
-453.982	-108.857	0.726	-0.155
-452.968	20.881	0.185	-0.150
-451.953	-200.000	-0.113	-0.594
-450.938	-54.404	0.104	-0.047
-449.924	-119.149	-0.711	-0.124
-448.909	-22.858	0.379	-0.228
-447.895	-200.000	0.009	-0.080
-446.880	-200.000	0.073	-0.647
-445.865	-166.975	-0.621	0.025
-444.851	2.442	0.189	-0.137
-443.836	-24.014	-0.108	-0.065
-442.822	-79.813	-0.746	0.250
-441.807	800.000	0.166	0.551
-440.792	78.698	-0.840	0.896
-439.778	-34.398	-0.265	-0.145
-438.763	-16.243	0.349	0.221
-437.749	-200.000	-0.001	0.108
-436.734	5.349	0.782	-0.575
-435.719	235.916	-0.152	0.251
-434.705	800.000	0.226	-0.742
-433.690	541.150	-0.093	0.220
-432.676	-141.956	0.513	0.051
-431.661	-25.443	-0.540	-0.318
-430.646	-79.852	0.538	-0.180
-429.632	487.851	-0.246	-0.560
-428.617	598.394	0.061	0.151
-427.603	-200.000	0.157	0.916
-426.588	-106.141	-0.420	-0.094
-425.573	-103.070	0.783	-0.185
-424.559	44.251	-0.634	0.580
-423.544	-124.024	0.329	0.052
-422.530	286.938	-0.238	0.429
-421.515	121.341	-0.143	0.178
-420.500	655.693	-0.283	0.724
-419.486	-200.000	-0.015	0.348
-418.471	120.694	0.413	-0.511
-417.457	800.000	0.207	-0.852
-416.442	-58.274	-0.188	-0.081
-415.428	26.023	-0.391	-0.325
-414.413	-147.261	1.164	-0.099
-413.398	-74.951	-0.624	-0.223
-412.384	-139.709	0.556	-0.059
-411.369	800.000	-0.079	-0.288
-410.355	-18.653	0.825	-0.512
-409.340	-79.591	1.050	-0.353
-408.325	-200.000	0.019	-0.270
-407.311	-200.000	-0.089	0.546
-406.296	128.992	-0.189	0.240
-405.282	23.751	-0.128	0.105
-404.267	644.574	-0.332	-0.843
-403.252	-68.969	-0.474	-0.182
-402.238	-89.970	-0.939	0.273
-401.223	-61.554	-0.436	0.182
-400.209	-65.343	0.731	-0.293
-399.194	-10.744	-0.614	0.405
-398.179	40.627	-0.308	0.277
-397.165	-11.129	0.092	-0.060
-396.150	5.866	-0.369	-0.272
-395.136	297.729	0.159	0.291
-394.121	-49.077	-0.659	0.314
-393.106	-200.000	0.050	0.906
-392.092	-200.000	0.050	0.324
-391.077	362.351	0.363	0.726
-390.063	178.940	0.475	-0.692
-389.048	5.527	-0.687	0.505
-388.033	475.317	-0.181	0.408
-387.019	113.662	0.164	-0.198
-386.004	800.000	-0.089	-0.275
-384.990	20.699	0.167	-0.135
-383.975	-121.518	0.241	0.040
-382.960	154.656	0.119	0.163
-381.946	201.263	-0.076	-0.117
-380.931	-161.625	0.881	0.045
-379.917	-105.425	0.638	0.144
-378.902	237.686	0.075	0.123
-377.888	59.145	0.488	0.478
-376.873	-200.000	0.002	0.178
-375.858	-71.719	-0.141	0.052
-374.844	532.563	0.582	1.371
-373.829	800.000	-0.108	0.303
-372.815	-33.875	-0.675	0.370
-371.800	116.146	-0.795	-0.968
-370.785	298.367	0.454	-0.830
-369.771	-90.862	0.111	-0.032
-368.756	-51.224	-0.359	0.167
-367.742	319.312	-0.025	0.047
-366.727	800.000	0.058	0.179
-365.712	299.778	0.295	-0.540
-364.698	216.600	0.250	0.395
-363.683	-67.848	0.126	-0.049
-362.669	-20.528	-0.697	0.426
-361.654	800.000	-0.127	0.422
-360.639	-200.000	-0.076	-0.609
-359.625	-22.904	0.321	0.193
-358.610	493.860	0.214	0.489
-357.596	-200.000	-0.122	0.553
-356.581	101.641	0.272	-0.316
-355.566	462.963	0.305	0.676
-354.552	339.471	-0.131	0.254
-353.537	84.267	-0.947	-1.029
-352.523	50.206	0.675	-0.633
-351.508	136.402	0.647	-0.839
-350.493	800.000	-0.151	0.587
-349.479	669.342	0.104	-0.268
-348.464	-0.320	-0.318	0.224
-347.450	-200.000	-0.224	1.022
-346.435	41.135	-0.644	0.578
-345.420	-56.352	0.622	-0.275
-344.406	-92.518	-0.651	0.182
-343.391	-200.000	-0.048	1.068
-342.377	62.884	-0.122	-0.121
-341.362	18.863	0.261	0.208
-340.348	-175.298	0.517	0.014
-339.333	-91.604	-0.923	-0.261
-338.318	-12.107	0.699	0.455
-337.304	2.153	-0.278	0.199
-336.289	-200.000	0.033	-0.175
-335.275	-65.785	-0.779	-0.310
-334.260	-121.319	0.304	-0.050
-333.245	25.004	-0.887	0.731
-332.231	297.264	-0.353	0.644
-331.216	201.397	-0.227	-0.347
-330.202	-31.607	-0.606	-0.338
-329.187	468.700	0.165	0.367
-328.172	-200.000	-0.210	-1.123
-327.158	169.103	-0.557	0.789
-326.143	800.000	0.303	1.070
-325.129	-200.000	0.079	0.559
-324.114	-200.000	0.101	0.539
-323.099	-12.165	-0.430	0.280
-322.085	-88.885	-0.629	-0.185
-321.070	491.244	-0.582	1.322
-320.056	-200.000	-0.263	1.167
-319.041	11.501	-0.030	0.022
-318.026	-130.074	-0.446	-0.060
-317.012	-25.444	0.837	-0.491
-315.997	-134.588	-0.434	-0.053
-314.983	-115.395	-0.796	-0.149
-313.968	-200.000	0.092	-0.807
-312.953	46.899	-0.759	0.700
-311.939	-12.365	-0.574	-0.372
-310.924	-84.342	0.430	-0.135
-309.910	190.893	0.303	-0.453
-308.895	-98.406	0.733	0.186
-307.880	34.401	0.203	-0.176
-306.866	-110.720	0.264	0.054
-305.851	-58.074	-0.232	-0.100
-304.837	-35.174	-0.271	0.146
-303.822	-20.546	-0.201	-0.122
-302.807	701.281	0.068	-0.176
-301.793	800.000	-0.202	0.817
-300.778	-40.255	-0.480	-0.248
-299.764	699.772	0.334	0.871
-298.749	-200.000	0.002	-0.254
-297.735	800.000	0.165	-0.599
-296.720	-88.860	1.037	-0.305
-295.705	49.641	0.413	-0.386
-294.691	-168.001	-0.841	0.033
-293.676	408.583	-0.285	-0.597
-292.662	-2.482	0.503	-0.350
-291.647	-200.000	-0.012	0.891
-290.632	-126.699	0.066	0.010
-289.618	402.738	-0.396	-0.826
-288.603	-200.000	-0.033	0.187
-287.589	194.744	0.395	-0.594
-286.574	243.855	0.233	-0.388
-285.559	320.647	0.220	-0.415
-284.545	115.229	0.460	-0.557
-283.530	178.785	-0.241	-0.350
-282.516	116.284	0.544	0.661
-281.501	111.510	0.452	0.540
-280.486	-161.716	0.383	0.019
-279.472	-121.469	0.527	0.087
-278.457	-14.309	0.429	-0.274
-277.443	800.000	-0.154	-0.632
-276.428	373.045	0.255	-0.514
-275.413	122.165	-0.708	-0.876
-274.399	355.341	-0.158	0.311
-273.384	286.197	0.269	-0.481
-272.370	800.000	0.196	-0.654
-271.355	183.658	-0.146	-0.214
-270.340	161.744	0.235	0.327
-269.326	101.684	-0.208	-0.240
-268.311	-35.572	0.226	-0.122
-267.297	-139.835	-0.553	0.058
-266.282	60.765	-0.319	0.313
-265.267	151.312	-0.145	0.196
-264.253	94.366	0.233	-0.262
-263.238	800.000	-0.092	0.363
-262.224	-112.860	-0.410	-0.081
-261.209	-200.000	-0.048	-0.424
-260.195	800.000	0.073	0.240
-259.180	342.379	0.155	-0.301
-258.165	154.501	-0.466	0.634
-257.151	-157.736	0.674	0.040
-256.136	45.370	0.172	-0.157
-255.122	16.226	-0.480	0.375
-254.107	-88.126	0.466	-0.138
-253.092	-200.000	-0.070	0.342
-252.078	800.000	0.130	0.440
-251.063	-140.463	0.462	0.048
-250.049	140.122	0.475	0.620
-249.034	-103.479	-0.607	0.141
-248.019	84.644	0.633	0.686
-247.005	800.000	0.298	1.084
-245.990	-200.000	-0.087	-0.437
-244.976	-71.834	-0.578	0.213
-243.961	-75.194	-0.463	-0.164
-242.946	-4.471	0.587	-0.401
-241.932	360.303	-0.368	-0.728
-240.917	178.976	-0.154	-0.223
-239.903	-132.718	-0.544	0.069
-238.888	500.977	-0.277	0.632
-237.873	-3.917	-0.546	-0.375
-236.859	1.432	0.559	-0.398
-235.844	2.053	0.698	-0.498
-234.830	216.756	0.409	-0.644
-233.815	-200.000	-0.024	0.350
-232.800	-58.282	0.843	-0.363
-231.786	173.791	-0.358	0.512
-230.771	-35.827	0.572	-0.306
-229.757	-41.993	0.189	0.096
-228.742	-112.042	0.772	0.154
-227.727	45.660	0.747	-0.683
-226.713	-114.740	1.103	0.208
-225.698	-56.585	-0.122	-0.053
-224.684	-108.841	-0.628	-0.133
-223.669	800.000	-0.120	-0.330
-222.655	70.464	0.332	0.340
-221.640	375.690	-0.295	0.596
-220.625	145.494	-0.207	-0.274
-219.611	-189.367	-1.184	0.014
-218.596	-200.000	-0.070	-0.919
-217.582	15.237	-0.395	-0.306
-216.567	-200.000	-0.009	-0.095
-215.552	-86.262	-0.318	-0.097
-214.538	9.052	-0.161	-0.120
-213.523	-200.000	-0.110	0.585
-212.509	47.695	-0.396	0.365
-211.494	-178.902	0.293	0.007
-210.479	428.646	-0.129	0.276
-209.465	375.606	-0.100	0.201
-208.450	-200.000	-0.059	-0.960
-207.436	-155.880	0.625	0.039
-206.421	-44.546	1.385	0.684
-205.406	-58.696	0.169	-0.072
-204.392	344.918	0.184	-0.356
-203.377	800.000	0.153	-0.573
-202.363	-8.830	-0.598	-0.396
-201.348	105.227	-0.029	-0.034
-200.333	21.282	0.081	-0.065
-199.319	-20.269	-0.179	0.109
-198.304	-200.000	-0.138	0.721
-197.290	71.164	0.534	-0.547
-196.275	-200.000	-0.093	0.704
-195.260	-200.000	-0.064	0.595
-194.246	-8.871	-0.329	0.218
-193.231	-97.633	-1.412	0.362
-192.217	-97.400	-0.425	0.109
-191.202	339.703	-0.247	0.475
-190.187	69.482	-0.363	0.369
-189.173	122.135	0.048	-0.059
-188.158	-200.000	0.065	0.575
-187.144	411.528	-0.455	0.954
-186.129	-11.682	0.483	-0.313
-185.114	203.468	-0.403	-0.615
-184.100	-110.549	0.599	-0.123
-183.085	141.748	0.368	-0.482
-182.071	-26.719	-0.321	-0.186
-181.056	84.534	0.236	0.255
-180.042	-183.971	0.690	0.011
-179.027	84.435	0.325	-0.351
-178.012	-200.000	-0.182	-1.347
-176.998	195.592	0.325	-0.488
-175.983	-142.266	0.422	-0.041
-174.969	-200.000	-0.011	-0.300
-173.954	-200.000	0.107	-0.538
-172.939	800.000	-0.261	-0.760
-171.925	-13.580	0.137	0.088
-170.910	128.794	-0.603	0.759
-169.896	614.530	-0.230	0.568
-168.881	44.996	0.074	-0.067
-167.866	-147.416	0.467	-0.039
-166.852	125.279	0.204	0.254
-165.837	-135.016	-0.676	-0.081
-164.823	-26.836	-0.385	0.222
-163.808	-200.000	-0.025	0.410
-162.793	-200.000	-0.006	-0.238
-161.779	70.578	-0.629	0.642
-160.764	22.253	0.603	-0.486
-159.750	64.057	-0.177	-0.176
-158.735	84.593	-0.293	0.317
-157.720	-125.670	-0.248	-0.037
-156.706	-200.000	-0.001	0.167
-155.691	-200.000	-0.037	-0.455
-154.677	-163.080	-0.730	-0.035
-153.662	-198.972	-0.274	-0.001
-152.647	-200.000	0.002	-0.785
-151.633	800.000	0.149	0.433
-150.618	84.201	-0.275	0.296
-149.604	151.995	-0.597	0.803
-148.589	-28.933	0.585	0.332
-147.574	23.498	0.324	-0.263
-146.560	-200.000	0.095	-1.191
-145.545	-137.170	-0.579	0.065
-144.531	569.676	-0.256	-0.615
-143.516	159.452	0.208	0.285
-142.502	-200.000	-0.041	0.479
-141.487	-40.377	0.257	-0.132
-140.472	-184.151	0.169	-0.003
-139.458	383.217	-0.187	-0.379
-138.443	19.182	0.966	0.764
-137.429	800.000	-0.126	-0.457
-136.414	-93.780	0.836	-0.227
-135.399	-116.914	0.820	-0.148
-134.385	-200.000	0.021	-0.097
-133.370	-31.891	-0.128	-0.071
-132.356	-55.665	-0.289	0.128
-131.341	-17.368	0.513	-0.318
-130.326	646.826	0.252	0.634
-129.312	528.590	-0.212	0.493
-128.297	-200.000	-0.014	0.289
-127.283	-200.000	0.033	0.357
-126.268	66.629	-0.385	0.386
-125.253	-200.000	-0.124	-0.727
-124.239	209.762	-0.537	0.830
-123.224	412.769	0.222	0.466
-122.210	79.171	0.717	0.757
-121.195	-200.000	0.040	0.444
