DTS Sentinel unit serial number:	SN413079Multiplexer serial number:	ORYXHardware model number:	OX4-SRSoftware version number:	ORYX F/W v4.00 Oryx Data Collector v3.7.2.0data status	okinstallation	princeton_trtdifferential loss correction	single-endedforward channel	channel 1reverse channel	N/Adate	2019/09/16time	01:10:35forward acquisition time	60.00reverse acquisition time	0.00gamma	496.2192k internal	0.2334k external	0.2334temperature offset calibration	0.9979default loss term (dB/km)	0.3790temperature slope calibration	1.0000multiplexer offset coefficient	1.0000multiplexer slope coefficient	1.0000fibre end	0.00T internal ref (°C)	27.25T ext. ref 1 (°C)	9.81T ext. ref 2 (°C)	21.70length (m)	temperature (°C)	Stokes	anti-Stokes-747.200	-69.515	-0.121	0.046
-746.185	-97.226	0.218	0.057
-745.171	10.947	-0.039	0.030
-744.156	-200.000	-0.025	0.176
-743.142	-25.997	-0.341	0.202
-742.127	204.772	0.178	0.278
-741.112	-124.325	-0.198	0.031
-740.098	11.011	0.162	0.125
-739.083	-83.863	0.168	-0.054
-738.069	259.744	0.151	0.261
-737.054	-200.000	-0.010	0.091
-736.039	-87.754	-0.335	-0.102
-735.025	-10.914	0.259	0.172
-734.010	-200.000	-0.047	0.283
-732.996	-108.716	-0.113	-0.024
-731.981	-72.978	0.275	-0.101
-730.966	363.660	-0.089	0.179
-729.952	-94.512	-0.388	0.106
-728.937	-146.220	-0.136	0.012
-727.923	-200.000	-0.001	-0.202
-726.908	-145.979	-0.221	0.020
-725.894	-200.000	-0.058	-0.321
-724.879	83.621	-0.143	-0.156
-723.864	-122.109	-0.344	-0.057
-722.850	594.049	-0.060	0.149
-721.835	-200.000	0.018	-0.100
-720.821	-194.047	-0.304	0.003
-719.806	800.000	-0.089	0.308
-718.791	47.556	-0.179	-0.168
-717.777	99.846	-0.097	-0.113
-716.762	-20.544	-0.428	-0.264
-715.748	526.589	-0.113	0.266
-714.733	-200.000	-0.062	0.391
-713.718	8.369	0.292	-0.221
-712.704	197.365	-0.057	0.088
-711.689	-200.000	0.419	-0.002
-710.675	115.263	-0.021	-0.026
-709.660	-200.000	0.057	0.315
-708.645	34.640	-0.148	0.130
-707.631	439.409	-0.052	-0.113
-706.616	208.560	-0.135	0.212
-705.602	151.952	-0.089	-0.122
-704.587	800.000	0.023	-0.082
-703.572	309.253	-0.225	0.423
-702.558	-23.879	0.123	-0.074
-701.543	-42.334	0.227	0.116
-700.529	-63.027	-0.077	0.032
-699.514	-200.000	-0.061	-0.462
-698.499	-169.273	0.096	0.004
-697.485	52.821	0.156	-0.150
-696.470	419.072	-0.110	-0.236
-695.456	-90.393	-0.566	0.165
-694.441	561.079	0.137	-0.332
-693.426	-101.268	0.201	-0.049
-692.412	-35.183	0.127	0.069
-691.397	-5.131	-0.144	0.100
-690.383	465.787	0.093	0.209
-689.368	230.963	0.065	-0.108
-688.354	-102.973	-0.462	0.110
-687.339	38.247	0.165	0.147
-686.324	78.350	-0.170	-0.182
-685.310	800.000	-0.036	-0.154
-684.295	-200.000	0.012	0.223
-683.281	-200.000	-0.023	0.334
-682.266	800.000	-0.105	-0.374
-681.251	309.008	-0.072	-0.134
-680.237	-200.000	-0.015	0.224
-679.222	123.840	-0.142	0.179
-678.208	-48.647	-0.157	0.076
-677.193	-200.000	-0.003	-0.048
-676.178	116.882	-0.312	0.384
-675.164	800.000	0.034	0.101
-674.149	800.000	-0.023	0.066
-673.135	103.235	-0.293	-0.345
-672.120	-9.593	-0.176	0.118
-671.105	-41.417	0.435	0.224
-670.091	-82.557	0.132	0.043
-669.076	175.864	-0.240	-0.349
-668.062	25.880	-0.369	0.309
-667.047	451.508	-0.165	0.366
-666.032	-123.128	0.138	0.022
-665.018	-200.000	-0.372	0.001
-664.003	800.000	-0.037	0.162
-662.989	-200.000	0.006	-0.082
-661.974	-200.000	0.073	0.365
-660.959	371.821	0.094	0.192
-659.945	-103.584	-0.311	-0.073
-658.930	-22.005	0.229	0.140
-657.916	-39.088	-0.195	-0.103
-656.901	-163.624	0.198	0.009
-655.886	195.039	-0.046	0.070
-654.872	139.170	-0.350	-0.461
-653.857	5.460	-0.301	-0.222
-652.843	-63.164	0.401	-0.166
-651.828	165.920	0.106	-0.151
-650.814	400.057	0.241	-0.505
-649.799	-106.374	-0.223	0.050
-648.784	800.000	-0.103	-0.291
-647.770	-200.000	-0.004	0.269
-646.755	-69.749	0.247	0.094
-645.741	-200.000	0.025	0.337
-644.726	-53.102	-0.311	-0.143
-643.711	-200.000	0.008	0.296
-642.697	251.165	-0.020	-0.033
-641.682	55.277	-0.097	-0.093
-640.668	-148.063	-0.079	-0.007
-639.653	199.080	0.132	-0.202
-638.638	-200.000	0.106	0.553
-637.624	-169.163	0.392	0.015
-636.609	-34.791	-0.248	-0.136
-635.595	362.834	-0.069	0.138
-634.580	-176.277	-0.039	-0.001
-633.565	800.000	-0.037	-0.158
-632.551	-200.000	-0.053	0.247
-631.536	192.285	0.079	-0.120
-630.522	-82.078	0.174	0.057
-629.507	800.000	0.079	-0.282
-628.492	401.448	0.099	0.208
-627.478	-200.000	-0.050	0.276
-626.463	315.022	-0.113	-0.213
-625.449	2.237	0.150	-0.109
-624.434	66.661	0.128	0.130
-623.419	26.393	0.103	-0.086
-622.405	-200.000	0.001	0.102
-621.390	47.492	-0.195	0.182
-620.376	491.627	-0.106	0.242
-619.361	79.562	-0.203	-0.218
-618.346	525.684	0.035	0.083
-617.332	635.634	0.124	-0.316
-616.317	145.497	-0.061	-0.081
-615.303	-1.120	0.297	0.210
-614.288	9.886	0.117	-0.089
-613.273	-138.360	-0.145	-0.016
-612.259	-200.000	-0.023	-0.295
-611.244	-200.000	0.024	-0.300
-610.230	732.493	-0.049	-0.132
-609.215	357.900	0.110	0.219
-608.201	745.666	0.069	0.185
-607.186	-98.260	0.032	0.008
-606.171	-200.000	0.015	0.110
-605.157	-127.923	0.265	-0.038
-604.142	-70.608	-0.095	-0.036
-603.128	11.211	0.096	-0.074
-602.113	-31.946	0.193	0.108
-601.098	157.123	0.323	-0.447
-600.084	-57.205	0.140	-0.061
-599.069	47.731	0.157	0.147
-598.055	475.151	-0.066	-0.149
-597.040	-184.554	-0.230	-0.004
-596.025	86.077	-0.248	0.273
-595.011	-200.000	0.004	0.146
-593.996	135.956	-0.098	-0.127
-592.982	-90.169	-0.002	-0.001
-591.967	62.392	-0.066	0.066
-590.952	40.558	-0.167	0.151
-589.938	156.200	-0.075	0.103
-588.923	72.164	0.147	0.153
-587.909	-39.117	-0.108	-0.057
-586.894	-113.111	0.274	0.054
-585.879	-105.169	-0.379	-0.087
-584.865	-200.000	0.017	0.173
-583.850	-200.000	-0.030	0.255
-582.836	108.405	-0.220	-0.262
-581.821	-13.884	0.129	0.083
-580.806	-200.000	-0.082	0.384
-579.792	45.787	0.184	-0.170
-578.777	-174.345	0.129	-0.004
-577.763	800.000	0.102	0.331
-576.748	319.651	-0.143	0.270
-575.733	-133.061	-0.240	-0.030
-574.719	93.033	-0.057	0.064
-573.704	-105.937	-0.176	-0.039
-572.690	-117.987	-0.232	-0.041
-571.675	-95.924	0.470	0.125
-570.661	-62.217	-0.187	-0.078
-569.646	-60.376	-0.257	-0.109
-568.631	-200.000	-0.077	0.413
-567.617	262.247	-0.123	-0.213
-566.602	-0.107	-0.076	0.054
-565.588	-48.297	-0.159	-0.077
-564.573	59.771	-0.107	0.105
-563.558	-76.460	-0.271	-0.095
-562.544	-26.371	-0.039	0.023
-561.529	602.291	0.063	-0.156
-560.515	310.010	0.082	0.153
-559.500	335.230	-0.023	0.044
-558.485	800.000	-0.039	0.137
-557.471	-200.000	-0.006	-0.152
-556.456	508.635	-0.050	0.117
-555.442	-52.509	0.101	-0.047
-554.427	-101.597	-0.168	-0.041
-553.412	-117.601	0.197	-0.035
-552.398	-126.826	-0.149	0.022
-551.383	-3.596	0.193	0.134
-550.369	97.638	-0.072	0.083
-549.354	29.674	-0.037	-0.031
-548.339	-94.560	0.317	0.086
-547.325	-118.164	-0.400	0.071
-546.310	652.176	-0.146	-0.374
-545.296	408.421	-0.274	-0.578
-544.281	-200.000	0.021	-0.476
-543.266	-200.000	-0.028	-0.199
-542.252	-60.486	0.163	-0.069
-541.237	693.340	-0.076	-0.199
-540.223	632.508	0.118	-0.298
-539.208	8.855	-0.227	-0.171
-538.193	-14.275	0.158	0.102
-537.179	228.475	0.221	-0.358
-536.164	87.627	0.097	-0.107
-535.150	-200.000	-0.048	0.418
-534.135	-82.503	0.338	0.109
-533.121	125.452	-0.095	0.120
-532.106	-29.742	0.053	0.030
-531.091	800.000	0.138	-0.384
-530.077	-55.919	-0.264	0.118
-529.062	421.120	0.106	0.226
-528.048	-41.827	0.126	-0.064
-527.033	415.548	0.082	-0.173
-526.018	534.876	-0.042	0.098
-525.004	-200.000	-0.101	0.470
-523.989	118.211	-0.107	0.132
-522.975	-119.835	0.241	-0.041
-521.960	800.000	-0.072	0.262
-520.945	31.104	-0.034	-0.029
-519.931	381.714	-0.027	-0.056
-518.916	-200.000	0.009	0.059
-517.902	-83.958	-0.111	0.035
-516.887	-22.368	-0.290	-0.175
-515.872	46.855	-0.124	0.114
-514.858	13.879	-0.108	-0.083
-513.843	-97.729	0.230	-0.059
-512.829	222.315	-0.127	-0.204
-511.814	442.596	0.073	-0.160
-510.799	-185.577	0.019	-0.000
-509.785	68.483	-0.186	-0.190
-508.770	123.011	-0.052	0.064
-507.756	-132.255	0.171	-0.022
-506.741	800.000	-0.029	0.081
-505.726	-37.449	-0.218	-0.116
-504.712	195.868	0.032	-0.049
-503.697	-75.825	0.405	-0.143
-502.683	22.920	0.185	-0.151
-501.668	-129.715	0.105	-0.014
-500.653	-53.280	0.284	-0.130
-499.639	540.394	-0.103	-0.245
-498.624	-0.509	0.238	0.168
-497.610	800.000	-0.047	-0.144
-496.595	-200.000	-0.026	0.139
-495.581	575.530	0.052	-0.127
-494.566	-6.300	-0.210	0.142
-493.551	231.069	-0.157	0.256
-492.537	-31.976	0.138	0.077
-491.522	-104.701	-0.174	0.040
-490.508	800.000	-0.089	0.364
-489.493	-200.000	-0.004	0.019
-488.478	-128.760	0.085	-0.012
-487.464	-101.956	-0.280	0.067
-486.449	800.000	-0.062	0.255
-485.435	800.000	-0.051	-0.212
-484.420	237.023	0.055	-0.090
-483.405	221.705	-0.142	-0.227
-482.391	-1.211	-0.183	-0.128
-481.376	-41.944	0.091	-0.046
-480.362	87.093	-0.115	0.127
-479.347	390.966	-0.049	0.102
-478.332	77.409	-0.183	-0.194
-477.318	-131.437	0.191	0.025
-476.303	-55.884	0.242	0.108
-475.289	-86.164	-0.336	0.103
-474.274	259.461	-0.198	-0.339
-473.259	718.361	-0.122	-0.323
-472.245	-64.034	-0.148	-0.060
-471.230	-56.985	-0.041	0.018
-470.216	28.887	0.054	-0.045
-469.201	-110.446	-0.146	-0.030
-468.186	127.894	0.201	0.254
-467.172	-15.532	0.078	0.050
-466.157	126.230	0.060	0.075
-465.143	271.997	-0.112	-0.195
-464.128	-87.506	0.341	0.103
-463.113	719.549	0.096	-0.254
-462.099	-72.860	0.228	-0.083
-461.084	-98.048	-0.224	-0.057
-460.070	-95.033	0.143	0.038
-459.055	-20.089	-0.073	-0.045
-458.040	213.230	0.165	0.259
-457.026	-28.545	-0.120	-0.069
-456.011	-23.189	0.446	-0.267
-454.997	-200.000	-0.117	-0.550
-453.982	-200.000	0.038	-0.218
-452.968	-123.247	-0.275	0.044
-451.953	-86.756	0.165	-0.050
-450.938	67.118	-0.190	0.192
-449.924	-134.644	0.030	0.004
-448.909	-46.202	-0.326	0.159
-447.895	39.430	-0.344	0.306
-446.880	-169.504	0.450	-0.016
-445.865	-73.168	-0.189	0.069
-444.851	-65.778	0.056	-0.022
-443.836	-27.065	-0.416	-0.241
-442.822	142.675	0.100	0.132
-441.807	131.546	0.102	0.130
-440.792	800.000	-0.071	-0.213
-439.778	-154.336	0.147	-0.010
-438.763	392.336	-0.107	0.221
-437.749	-200.000	-0.027	-0.254
-436.734	50.724	-0.086	0.081
-435.719	-200.000	0.055	0.351
-434.705	-200.000	0.084	-0.459
-433.690	-42.401	-0.248	-0.125
-432.676	-200.000	0.064	-0.302
-431.661	-200.000	-0.014	0.276
-430.646	-2.741	-0.112	-0.078
-429.632	800.000	0.024	-0.093
-428.617	-200.000	-0.002	0.444
-427.603	455.139	0.062	-0.137
-426.588	-200.000	-0.034	0.222
-425.573	-15.038	-0.081	0.051
-424.559	765.762	0.007	0.018
-423.544	800.000	-0.046	0.185
-422.530	266.441	-0.098	0.171
-421.515	25.028	-0.124	0.102
-420.500	10.750	0.146	0.110
-419.486	-67.628	-0.253	-0.098
-418.471	-95.442	0.160	-0.043
-417.457	216.407	0.013	0.020
-416.442	-98.886	-0.252	-0.063
-415.428	412.947	-0.110	0.232
-414.413	446.119	-0.145	0.316
-413.398	-200.000	-0.019	-0.188
-412.384	-7.589	0.228	0.153
-411.369	-39.308	0.364	0.189
-410.355	453.582	0.039	0.086
-409.340	47.873	0.204	-0.189
-408.325	-200.000	-0.074	0.402
-407.311	800.000	-0.060	0.168
-406.296	800.000	0.073	-0.300
-405.282	232.669	0.088	0.143
-404.267	20.383	0.023	0.018
-403.252	-14.215	0.066	0.042
-402.238	88.716	0.152	-0.167
-401.223	123.615	-0.130	-0.161
-400.209	-115.070	-0.009	-0.002
-399.194	2.354	-0.117	0.084
-398.179	112.794	-0.220	-0.265
-397.165	-200.000	0.062	0.294
-396.150	212.989	0.071	0.111
-395.136	157.647	0.209	0.287
-394.121	800.000	-0.031	-0.088
-393.106	-148.536	0.194	-0.016
-392.092	-200.000	-0.027	0.153
-391.077	-77.702	0.237	-0.081
-390.063	303.660	0.160	0.294
-389.048	491.745	-0.136	0.308
-388.033	-195.249	-0.260	-0.002
-387.019	-68.847	0.113	0.043
-386.004	-200.000	-0.018	0.285
-384.990	-105.284	0.254	-0.057
-383.975	19.257	0.261	-0.208
-382.960	-200.000	-0.016	-0.138
-381.946	-155.620	0.366	0.023
-380.931	257.383	-0.136	-0.232
-379.917	-105.601	0.157	0.035
-378.902	-77.666	0.087	-0.030
-377.888	86.335	0.092	-0.100
-376.873	31.404	0.055	-0.047
-375.858	22.567	-0.140	0.114
-374.844	-65.745	0.127	-0.050
-373.829	-200.000	-0.016	0.398
-372.815	-52.684	0.175	-0.080
-371.800	116.216	-0.249	-0.303
-370.785	238.194	0.101	-0.167
-369.771	-200.000	-0.004	-0.070
-368.756	-87.632	0.176	0.053
-367.742	-200.000	-0.041	-0.292
-366.727	-85.955	-0.061	-0.019
-365.712	-200.000	0.039	0.190
-364.698	536.282	-0.108	-0.254
-363.683	87.992	-0.220	-0.242
-362.669	-74.593	0.286	0.102
-361.654	11.745	0.049	-0.037
-360.639	64.790	-0.186	-0.186
-359.625	-74.074	-0.225	-0.081
-358.610	779.028	-0.089	-0.240
-357.596	-200.000	0.017	-0.121
-356.581	-64.421	-0.291	-0.117
-355.566	-130.524	0.389	0.052
-354.552	382.876	-0.112	0.228
-353.537	123.183	-0.055	0.068
-352.523	-160.081	0.240	0.013
-351.508	-122.142	-0.076	-0.012
-350.493	-100.674	-0.091	-0.022
-349.479	-159.893	0.140	0.008
-348.464	201.033	-0.127	0.193
-347.450	164.538	-0.054	0.076
-346.435	-132.977	-0.270	0.034
-345.420	-19.962	-0.264	0.161
-344.406	-78.276	0.072	0.025
-343.391	-148.223	-0.211	-0.017
-342.377	-22.666	-0.165	-0.099
-341.362	156.948	0.138	-0.189
-340.348	-200.000	-0.010	-0.078
-339.333	302.883	0.115	0.211
-338.318	-85.947	0.146	0.045
-337.304	-46.423	0.147	-0.071
-336.289	122.883	-0.355	-0.439
-335.275	-200.000	0.000	-0.011
-334.260	432.464	-0.076	0.162
-333.245	351.347	0.079	-0.154
-332.231	-21.976	0.218	0.131
-331.216	-120.965	-0.215	0.036
-330.202	-88.677	-0.253	0.074
-329.187	-99.489	-0.204	-0.051
-328.172	-200.000	-0.040	0.444
-327.158	84.806	0.109	-0.118
-326.143	-200.000	-0.024	0.157
-325.129	-60.873	-0.062	-0.026
-324.114	-124.616	0.289	-0.044
-323.099	-71.080	0.261	-0.097
-322.085	-21.629	0.189	0.114
-321.070	61.685	-0.054	-0.053
-320.056	222.187	0.226	-0.359
-319.041	-13.190	0.027	-0.017
-318.026	132.204	-0.153	0.194
-317.012	-200.000	0.039	-0.230
-315.997	-53.981	-0.053	0.024
-314.983	-200.000	0.006	0.388
-313.968	800.000	0.061	0.190
-312.953	-200.000	0.002	-0.152
-311.939	122.146	0.098	-0.121
-310.924	105.276	-0.302	-0.353
-309.910	53.093	-0.264	-0.250
-308.895	-91.660	-0.410	0.115
-307.880	109.902	0.071	-0.085
-306.866	-32.383	0.242	-0.133
-305.851	-25.186	0.316	-0.185
-304.837	-29.934	0.143	-0.080
-303.822	-116.653	-0.215	0.039
-302.807	31.228	0.221	-0.187
-301.793	-91.836	0.136	-0.038
-300.778	-3.877	0.104	0.072
-299.764	-73.162	-0.280	0.101
-298.749	-142.088	0.219	-0.022
-297.735	800.000	-0.103	0.359
-296.720	59.162	-0.366	0.356
-295.705	-200.000	0.020	0.128
-294.691	-137.210	0.160	0.018
-293.676	800.000	0.096	0.319
-292.662	149.275	0.173	0.231
-291.647	35.525	-0.213	-0.185
-290.632	-70.750	0.246	-0.092
-289.618	20.572	-0.177	-0.142
-288.603	10.933	-0.086	0.065
-287.589	-127.805	0.303	-0.043
-286.574	-200.000	0.022	0.434
-285.559	-200.000	0.017	0.103
-284.545	210.133	-0.145	-0.224
-283.530	-200.000	-0.016	0.225
-282.516	-119.293	-0.077	-0.013
-281.501	-200.000	-0.014	-0.116
-280.486	-8.118	-0.190	-0.126
-279.472	138.465	-0.126	-0.163
-278.457	-84.885	0.214	0.066
-277.443	-136.315	-0.289	-0.033
-276.428	-136.784	0.437	0.050
-275.413	783.419	-0.095	0.257
-274.399	87.887	0.106	0.116
-273.384	128.395	0.174	0.219
-272.370	-6.496	0.300	-0.202
-271.355	800.000	-0.065	-0.221
-270.340	800.000	-0.087	-0.255
-269.326	-200.000	-0.091	0.399
-268.311	-92.474	-0.327	0.091
-267.297	119.279	-0.097	-0.118
-266.282	-73.939	0.170	0.061
-265.267	560.240	0.050	0.120
-264.253	58.774	-0.129	0.125
-263.238	35.937	0.168	-0.146
-262.224	-52.168	-0.311	-0.142
-261.209	267.872	0.123	-0.212
-260.195	-10.807	0.148	0.097
-259.180	-141.975	-0.229	-0.023
-258.165	-200.000	-0.017	-0.308
-257.151	-19.315	0.294	0.180
-256.136	-82.255	-0.088	0.028
-255.122	214.584	-0.224	-0.350
-254.107	800.000	0.096	0.314
-253.092	473.185	-0.118	0.263
-252.078	-33.883	0.287	-0.156
-251.063	-200.000	0.012	0.122
-250.049	-30.933	-0.190	-0.106
-249.034	-2.034	0.138	0.096
-248.019	338.074	0.088	0.168
-247.005	-129.274	0.183	0.025
-245.990	277.188	0.095	0.167
-244.976	152.443	0.051	0.068
-243.961	-54.730	-0.210	0.094
-242.946	272.747	0.075	-0.130
-241.932	-187.385	0.202	0.003
-240.917	-45.353	-0.182	-0.089
-239.903	630.855	0.084	0.210
-238.888	107.301	-0.149	0.174
-237.873	-200.000	-0.104	0.520
-236.859	-64.996	0.178	-0.071
-235.844	-139.578	-0.157	-0.016
-234.830	592.149	-0.078	-0.190
-233.815	86.707	-0.036	-0.039
-232.800	-200.000	-0.000	0.043
-231.786	800.000	-0.010	-0.043
-230.771	-200.000	-0.024	-0.125
-229.757	-200.000	0.033	0.194
-228.742	-200.000	-0.020	0.189
-227.727	800.000	0.052	-0.212
-226.713	438.082	-0.104	-0.224
-225.698	-8.359	0.342	0.227
-224.684	-131.997	0.037	-0.005
-223.669	219.991	0.139	-0.220
-222.655	-76.521	-0.109	-0.038
-221.640	-200.000	0.016	0.385
-220.625	-83.160	0.110	-0.035
-219.611	-10.662	-0.256	0.166
-218.596	-32.315	0.260	-0.143
-217.582	-93.064	0.090	0.025
-216.567	-200.000	0.026	0.419
-215.552	149.974	0.175	-0.233
-214.538	800.000	-0.084	0.246
-213.523	-152.772	0.317	0.022
-212.509	385.216	0.142	0.287
-211.494	-123.110	0.083	0.013
-210.479	237.728	0.143	0.233
-209.465	422.513	0.094	-0.198
-208.450	-94.383	0.112	0.030
-207.436	-140.115	-0.280	0.029
-206.421	-34.256	-0.177	-0.095
-205.406	69.434	0.204	0.206
-204.392	-200.000	0.031	-0.214
-203.377	13.780	-0.107	-0.082
-202.363	-123.513	0.105	0.016
-201.348	-41.590	-0.107	0.054
-200.333	-50.148	0.180	0.084
-199.319	762.229	0.096	0.255
-198.304	-200.000	-0.031	-0.147
-197.290	-200.000	-0.010	-0.133
-196.275	-17.743	0.311	0.192
-195.260	-13.869	-0.172	-0.110
-194.246	800.000	0.064	-0.228
-193.231	-200.000	0.003	0.243
-192.217	69.334	0.050	-0.051
-191.202	-40.270	-0.243	-0.124
-190.187	-200.000	-0.089	-0.489
-189.173	162.249	0.129	-0.178
-188.158	-200.000	-0.043	-0.248
-187.144	-199.541	0.175	0.001
-186.129	291.194	0.049	-0.088
-185.114	-200.000	0.003	-0.320
-184.100	-66.457	-0.087	0.034
-183.085	800.000	0.093	-0.296
-182.071	193.086	0.148	-0.219
-181.056	567.915	0.085	-0.203
-180.042	-28.584	-0.136	-0.077
-179.027	634.021	-0.058	-0.145
-178.012	55.929	-0.051	0.049
-176.998	-56.985	0.248	0.108
-175.983	-200.000	0.002	-0.189
-174.969	559.056	0.072	-0.170
-173.954	-200.000	0.058	-0.312
-172.939	150.216	-0.111	0.149
-171.925	72.761	0.299	-0.307
-170.910	-200.000	0.008	0.106
-169.896	164.169	0.083	-0.114
-168.881	258.244	-0.076	-0.128
-167.866	-200.000	-0.013	0.059
-166.852	526.222	0.014	-0.033
-165.837	-58.321	-0.106	0.045
-164.823	-86.085	-0.212	-0.064
-163.808	-200.000	0.006	0.046
-162.793	-57.711	-0.252	-0.108
-161.779	-86.407	0.063	0.019
-160.764	-61.569	-0.312	0.129
-159.750	487.364	-0.117	-0.263
-158.735	251.065	0.155	-0.258
-157.720	420.881	0.029	0.060
-156.706	108.069	0.184	0.216
-155.691	-21.938	-0.241	-0.144
-154.677	800.000	0.034	0.101
-153.662	-200.000	-0.067	0.432
-152.647	-5.040	-0.193	0.130
-151.633	431.110	0.058	0.123
-150.618	-94.921	0.206	-0.055
-149.604	-29.205	0.046	-0.026
-148.589	88.810	-0.092	-0.101
-147.574	-200.000	0.074	-0.477
-146.560	352.849	-0.142	0.276
-145.545	32.641	0.209	0.178
-144.531	43.150	-0.219	-0.197
-143.516	-200.000	0.014	-0.317
-142.502	396.746	0.084	-0.172
-141.487	-200.000	-0.058	-0.348
-140.472	800.000	-0.037	0.148
-139.458	56.128	0.189	0.180
-138.443	-27.434	-0.036	0.020
-137.429	-200.000	0.004	-0.296
-136.414	-96.207	0.139	0.036
-135.399	-200.000	-0.022	0.140
-134.385	-200.000	0.003	0.215
-133.370	238.647	-0.165	0.270
-132.356	266.186	-0.156	0.268
-131.341	-200.000	-0.012	-0.135
-130.326	-114.744	-0.059	-0.011
-129.312	462.742	0.078	0.170
-128.297	-200.000	0.010	0.210
-127.283	-142.953	0.144	-0.014
-126.268	-14.315	-0.109	0.069
-125.253	354.044	-0.130	0.254
-124.239	-200.000	0.029	-0.228
-123.224	-29.252	0.156	-0.088
-122.210	-44.489	0.113	-0.055
