DTS Sentinel unit serial number:	SN413079Multiplexer serial number:	ORYXHardware model number:	OX4-SRSoftware version number:	ORYX F/W v4.00 Oryx Data Collector v3.7.2.0data status	okinstallation	princeton_trtdifferential loss correction	single-endedforward channel	channel 1reverse channel	N/Adate	2019/09/16time	03:46:35forward acquisition time	60.00reverse acquisition time	0.00gamma	496.2192k internal	0.2331k external	0.2331temperature offset calibration	0.9981default loss term (dB/km)	0.3790temperature slope calibration	1.0000multiplexer offset coefficient	1.0000multiplexer slope coefficient	1.0000fibre end	0.00T internal ref (°C)	27.56T ext. ref 1 (°C)	10.65T ext. ref 2 (°C)	21.66length (m)	temperature (°C)	Stokes	anti-Stokes-747.200	-200.000	0.051	0.437
-746.185	148.149	-0.193	0.262
-745.171	105.213	0.069	0.082
-744.156	40.779	-0.123	0.111
-743.142	-6.022	0.261	-0.180
-742.127	-132.037	0.007	0.001
-741.112	505.402	0.067	0.156
-740.098	45.100	0.173	0.161
-739.083	75.758	-0.041	0.044
-738.069	800.000	-0.048	-0.153
-737.054	800.000	-0.038	0.143
-736.039	41.080	-0.155	0.141
-735.025	0.945	0.410	0.295
-734.010	-32.170	-0.435	-0.244
-732.996	44.508	0.042	0.039
-731.981	303.800	0.023	-0.043
-730.966	418.398	-0.124	-0.268
-729.952	-124.574	-0.257	0.040
-728.937	-200.000	-0.036	-0.255
-727.923	66.897	-0.029	0.029
-726.908	-200.000	-0.075	-0.342
-725.894	350.449	0.081	0.161
-724.879	22.531	-0.073	0.060
-723.864	27.186	-0.134	-0.113
-722.850	-69.655	-0.273	-0.105
-721.835	-103.603	0.244	0.058
-720.821	-31.450	-0.372	-0.210
-719.806	-70.328	0.188	-0.072
-718.791	128.162	0.104	0.133
-717.777	-104.981	-0.173	0.040
-716.762	-111.482	-0.388	0.079
-715.748	-200.000	-0.004	-0.204
-714.733	-138.924	0.265	0.029
-713.718	800.000	-0.033	-0.126
-712.704	-200.000	0.001	0.244
-711.689	-86.278	0.218	0.068
-710.675	177.654	-0.136	0.199
-709.660	-11.338	0.337	0.223
-708.645	132.252	0.148	-0.191
-707.631	-200.000	-0.004	-0.144
-706.616	453.128	-0.092	-0.204
-705.602	323.304	-0.153	-0.294
-704.587	124.495	0.128	-0.162
-703.572	-200.000	0.082	-0.418
-702.558	-184.252	0.241	0.004
-701.543	-113.205	0.256	0.051
-700.529	171.236	0.184	0.265
-699.514	170.265	-0.322	0.464
-698.499	109.529	0.327	0.393
-697.485	70.433	0.027	0.028
-696.470	19.402	0.021	-0.017
-695.456	-200.000	0.077	0.423
-694.441	440.410	0.162	0.356
-693.426	-116.727	0.186	0.034
-692.412	-132.706	0.319	0.041
-691.397	-123.340	0.262	0.042
-690.383	-200.000	0.034	-0.298
-689.368	67.519	-0.027	0.028
-688.354	-62.925	-0.141	0.059
-687.339	-139.060	0.359	-0.039
-686.324	-200.000	0.048	-0.266
-685.310	-200.000	0.003	-0.317
-684.295	-28.269	0.362	-0.210
-683.281	135.086	0.202	0.263
-682.266	-200.000	0.007	-0.386
-681.251	198.181	0.118	0.181
-680.237	-59.565	0.120	0.052
-679.222	52.434	0.120	0.115
-678.208	-200.000	-0.041	-0.250
-677.193	-145.737	-0.301	-0.027
-676.178	70.541	-0.033	0.034
-675.164	51.024	-0.116	-0.111
-674.149	-122.735	0.334	-0.054
-673.135	-200.000	-0.035	0.165
-672.120	-200.000	0.036	-0.344
-671.105	-153.090	-0.425	-0.030
-670.091	800.000	0.129	-0.398
-669.076	-161.328	-0.290	-0.015
-668.062	266.312	0.044	0.077
-667.047	49.227	-0.081	-0.076
-666.032	427.874	-0.150	-0.324
-665.018	31.181	-0.168	0.144
-664.003	-136.851	0.136	0.016
-662.989	104.549	0.253	0.298
-661.974	-104.393	0.194	0.045
-660.959	119.574	-0.261	0.325
-659.945	-56.001	-0.331	-0.148
-658.930	399.493	0.143	-0.301
-657.916	-200.000	-0.015	-0.073
-656.901	363.787	-0.045	0.091
-655.886	-87.838	0.254	0.077
-654.872	214.089	-0.280	0.445
-653.857	-148.099	-0.229	-0.019
-652.843	800.000	0.086	0.316
-651.828	38.948	0.113	-0.102
-650.814	18.541	0.214	-0.172
-649.799	-200.000	-0.051	-0.320
-648.784	357.391	-0.019	0.037
-647.770	-47.052	-0.093	-0.045
-646.755	-200.000	-0.001	0.045
-645.741	-28.801	-0.113	0.065
-644.726	173.774	-0.075	0.108
-643.711	800.000	-0.066	0.276
-642.697	-69.212	0.113	-0.043
-641.682	-105.386	-0.247	0.056
-640.668	-101.316	0.377	-0.092
-639.653	800.000	0.082	0.306
-638.638	229.007	-0.104	-0.170
-637.624	456.859	0.073	-0.163
-636.609	-47.058	-0.129	0.063
-635.595	-14.931	0.150	-0.096
-634.580	-61.013	-0.405	0.172
-633.565	23.202	0.052	0.043
-632.551	-121.617	0.355	0.059
-631.536	-200.000	0.007	-0.356
-630.522	-200.000	-0.021	-0.332
-629.507	-200.000	0.009	-0.414
-628.492	234.196	0.110	0.182
-627.478	715.457	0.085	-0.226
-626.463	800.000	-0.024	-0.075
-625.449	422.574	-0.055	-0.119
-624.434	15.556	0.208	-0.164
-623.419	-71.559	0.008	0.003
-622.405	-91.068	0.064	0.018
-621.390	-200.000	-0.026	0.187
-620.376	-77.915	0.263	0.091
-619.361	-200.000	-0.013	-0.170
-618.346	-94.148	0.332	-0.091
-617.332	12.762	0.236	-0.182
-616.317	-74.052	-0.228	0.083
-615.303	-200.000	0.061	-0.302
-614.288	-26.885	-0.253	0.148
-613.273	-96.844	-0.288	0.076
-612.259	-110.500	0.317	-0.066
-611.244	800.000	-0.050	-0.179
-610.230	-200.000	-0.027	0.316
-609.215	81.159	-0.162	0.175
-608.201	-75.729	-0.141	0.050
-607.186	-11.704	-0.260	0.171
-606.171	729.553	0.065	0.175
-605.157	-157.829	-0.373	-0.022
-604.142	-200.000	0.055	-0.263
-603.128	-108.132	0.069	0.015
-602.113	640.323	-0.066	-0.168
-601.098	43.222	-0.099	-0.090
-600.084	-200.000	-0.036	-0.209
-599.069	-1.281	-0.330	0.233
-598.055	-53.772	0.162	0.074
-597.040	211.752	-0.109	-0.171
-596.025	-145.330	-0.237	0.021
-595.011	800.000	0.064	0.217
-593.996	124.799	0.163	-0.205
-592.982	-200.000	0.020	0.113
-591.967	800.000	-0.048	-0.133
-590.952	-98.891	-0.137	0.035
-589.938	110.806	-0.046	0.055
-588.923	-12.893	0.158	0.103
-587.909	401.770	-0.188	0.395
-586.894	-200.000	-0.032	-0.175
-585.879	44.021	0.068	0.062
-584.865	38.957	0.061	0.054
-583.850	-120.466	-0.208	0.035
-582.836	-200.000	0.007	-0.297
-581.821	252.236	-0.077	-0.130
-580.806	-184.471	-0.165	-0.003
-579.792	196.833	0.054	0.082
-578.777	-131.410	0.121	0.016
-577.763	-126.905	0.413	0.061
-576.748	-12.308	-0.518	0.338
-575.733	-200.000	0.024	-0.323
-574.719	-132.912	0.113	-0.014
-573.704	-1.536	0.134	-0.094
-572.690	-200.000	0.048	-0.302
-571.675	47.965	-0.247	-0.231
-570.661	800.000	-0.044	0.190
-569.646	150.762	-0.124	0.169
-568.631	90.226	0.089	0.099
-567.617	681.273	0.096	-0.251
-566.602	-126.275	0.177	-0.026
-565.588	800.000	0.066	-0.250
-564.573	158.860	-0.184	0.256
-563.558	-200.000	0.050	0.237
-562.544	480.809	0.039	-0.089
-561.529	473.817	0.140	-0.316
-560.515	81.350	-0.055	0.059
-559.500	800.000	-0.043	0.151
-558.485	-108.899	-0.122	0.026
-557.471	19.681	0.281	0.226
-556.456	187.284	-0.179	0.267
-555.442	88.775	0.109	-0.121
-554.427	-165.042	0.107	0.005
-553.412	0.491	-0.244	0.174
-552.398	78.194	0.165	-0.176
-551.383	32.723	0.239	0.207
-550.369	-117.113	-0.361	-0.066
-549.354	-200.000	0.000	0.385
-548.339	800.000	0.041	0.115
-547.325	502.956	0.039	0.090
-546.310	391.150	0.048	0.100
-545.296	394.227	-0.039	0.081
-544.281	-200.000	0.002	-0.076
-543.266	75.362	0.068	-0.071
-542.252	333.724	-0.082	0.158
-541.237	-3.447	0.276	-0.192
-540.223	-175.199	0.113	-0.003
-539.208	6.732	-0.265	0.197
-538.193	402.178	0.074	0.155
-537.179	-64.140	0.164	-0.067
-536.164	-200.000	-0.026	0.243
-535.150	433.862	0.162	0.350
-534.135	-200.000	-0.034	0.211
-533.121	-104.271	0.122	-0.028
-532.106	-200.000	-0.021	0.300
-531.091	-70.085	-0.435	0.165
-530.077	-200.000	0.075	0.339
-529.062	-200.000	0.024	-0.157
-528.048	-186.151	-0.254	0.004
-527.033	-84.524	-0.201	-0.063
-526.018	-4.569	-0.173	-0.119
-525.004	-200.000	-0.044	0.240
-523.989	106.950	0.177	-0.210
-522.975	158.792	0.092	-0.128
-521.960	800.000	0.095	-0.315
-520.945	419.194	0.197	-0.421
-519.931	-147.034	-0.253	0.022
-518.916	-126.331	-0.043	-0.006
-517.902	5.769	-0.274	0.202
-516.887	-200.000	-0.027	0.254
-515.872	-76.462	0.219	-0.077
-514.858	292.020	-0.085	0.154
-513.843	10.556	0.092	0.070
-512.829	9.916	-0.282	-0.213
-511.814	-199.433	-0.254	0.001
-510.799	139.743	-0.115	-0.151
-509.785	535.075	-0.104	0.245
-508.770	16.384	-0.204	0.160
-507.756	800.000	-0.057	0.172
-506.741	108.750	-0.205	0.244
-505.726	305.999	0.186	-0.344
-504.712	-127.914	-0.324	-0.046
-503.697	-200.000	0.022	0.240
-502.683	235.206	0.091	-0.150
-501.668	-200.000	-0.062	0.309
-500.653	-106.918	0.359	0.079
-499.639	-74.513	-0.114	0.041
-498.624	-176.858	0.174	-0.004
-497.610	251.988	0.218	-0.371
-496.595	747.262	-0.010	-0.026
-495.581	-200.000	-0.016	0.170
-494.566	224.283	-0.143	-0.231
-493.551	536.131	0.176	0.416
-492.537	800.000	-0.022	0.074
-491.522	217.019	0.165	0.261
-490.508	348.721	0.217	-0.426
-489.493	-47.102	0.231	-0.113
-488.478	-76.104	0.416	-0.146
-487.464	321.786	-0.098	-0.186
-486.449	-109.412	0.320	0.067
-485.435	58.134	-0.109	0.106
-484.420	-77.634	-0.078	-0.027
-483.405	-96.332	0.271	0.071
-482.391	367.670	-0.221	0.444
-481.376	-1.601	0.169	0.119
-480.362	61.357	-0.050	0.049
-479.347	329.738	-0.159	-0.305
-478.332	581.285	-0.167	0.408
-477.318	-200.000	0.010	-0.137
-476.303	-200.000	0.002	-0.091
-475.289	-31.384	-0.128	0.072
-474.274	-54.889	0.086	0.038
-473.259	-118.350	-0.308	-0.054
-472.245	-147.453	0.253	0.021
-471.230	584.864	-0.186	0.454
-470.216	-3.370	-0.176	0.122
-469.201	-66.881	-0.234	0.092
-468.186	800.000	-0.008	-0.032
-467.172	93.567	-0.038	-0.043
-466.157	61.072	-0.169	0.167
-465.143	97.729	0.135	-0.155
-464.128	-90.571	0.426	0.123
-463.113	103.444	-0.077	0.090
-462.099	-20.442	0.173	-0.106
-461.084	800.000	-0.053	0.190
-460.070	57.260	-0.079	0.077
-459.055	29.136	0.158	0.134
-458.040	-78.391	-0.203	0.069
-457.026	-200.000	-0.029	0.163
-456.011	800.000	0.021	0.059
-454.997	-200.000	-0.078	0.433
-453.982	-200.000	0.152	0.000
-452.968	800.000	-0.034	-0.129
-451.953	-49.278	0.021	-0.010
-450.938	7.396	-0.125	-0.093
-449.924	510.805	0.051	0.119
-448.909	-200.000	-0.006	0.136
-447.895	316.540	-0.083	0.157
-446.880	-93.856	0.118	-0.032
-445.865	161.077	0.107	-0.149
-444.851	-24.560	-0.146	-0.087
-443.836	25.621	-0.052	-0.043
-442.822	-200.000	0.002	-0.400
-441.807	159.877	0.062	0.086
-440.792	800.000	-0.065	-0.233
-439.778	800.000	-0.071	0.256
-438.763	-1.588	0.146	0.102
-437.749	-113.568	-0.527	0.102
-436.734	-100.184	-0.065	0.016
-435.719	-200.000	0.064	0.296
-434.705	-83.145	0.207	-0.066
-433.690	-200.000	-0.005	0.291
-432.676	-22.463	0.210	-0.127
-431.661	680.802	0.121	-0.314
-430.646	127.823	-0.182	0.229
-429.632	-69.994	0.064	0.024
-428.617	25.663	-0.305	0.253
-427.603	122.206	-0.026	0.033
-426.588	-156.130	-0.071	-0.004
-425.573	382.373	0.158	0.324
-424.559	100.855	0.231	-0.266
-423.544	385.998	0.026	-0.054
-422.530	-114.830	0.603	-0.114
-421.515	97.299	-0.056	-0.064
-420.500	133.327	-0.206	0.265
-419.486	77.340	-0.034	-0.036
-418.471	-35.601	-0.185	0.100
-417.457	-101.330	-0.392	-0.095
-416.442	800.000	0.087	0.323
-415.428	-0.419	0.228	0.161
-414.413	140.709	-0.098	-0.129
-413.398	-200.000	0.028	0.187
-412.384	-52.615	-0.132	0.061
-411.369	226.551	-0.125	0.202
-410.355	-128.051	-0.226	-0.032
-409.340	-145.162	0.332	-0.030
-408.325	-71.588	-0.028	0.010
-407.311	-65.075	-0.261	0.105
-406.296	-49.312	0.048	0.023
-405.282	5.143	-0.265	0.194
-404.267	-106.465	0.168	-0.037
-403.252	-65.468	0.228	0.091
-402.238	-36.617	-0.108	0.058
-401.223	-108.713	-0.111	0.024
-400.209	-197.321	0.144	-0.001
-399.194	800.000	-0.023	0.069
-398.179	146.883	0.157	-0.210
-397.165	-133.718	-0.421	0.052
-396.150	287.228	0.060	0.108
-395.136	349.000	0.109	-0.214
-394.121	800.000	0.043	0.160
-393.106	109.762	0.181	-0.215
-392.092	-164.283	-0.352	-0.016
-391.077	-200.000	-0.023	-0.348
-390.063	-136.418	-0.288	-0.033
-389.048	12.359	0.129	0.098
-388.033	-200.000	-0.039	0.228
-387.019	-141.733	-0.310	0.031
-386.004	53.620	-0.138	-0.132
-384.990	-97.389	-0.310	0.080
-383.975	-200.000	0.005	0.063
-382.960	90.310	0.258	-0.287
-381.946	-72.165	-0.045	-0.017
-380.931	34.675	0.229	-0.198
-379.917	45.683	0.078	0.071
-378.902	-93.127	0.241	-0.066
-377.888	-68.150	0.082	-0.032
-376.873	-105.525	-0.244	0.055
-375.858	-200.000	0.009	-0.190
-374.844	556.289	-0.061	-0.146
-373.829	32.598	0.168	0.144
-372.815	-94.980	0.085	0.023
-371.800	-200.000	-0.006	-0.166
-370.785	648.708	-0.033	0.083
-369.771	-200.000	-0.008	0.051
-368.756	567.999	0.069	-0.165
-367.742	-150.078	-0.252	-0.019
-366.727	-86.219	-0.350	-0.107
-365.712	-130.064	0.069	-0.009
-364.698	385.399	0.038	0.079
-363.683	-83.978	-0.453	-0.143
-362.669	-78.143	0.101	-0.034
-361.654	-35.995	0.219	0.117
-360.639	-96.093	-0.175	0.046
-359.625	20.898	0.201	0.161
-358.610	-103.645	0.324	-0.075
-357.596	800.000	0.065	0.179
-356.581	-98.127	-0.474	0.121
-355.566	800.000	0.134	-0.464
-354.552	-75.781	-0.110	-0.039
-353.537	-65.264	0.218	0.087
-352.523	-186.913	-0.230	0.003
-351.508	800.000	-0.085	0.357
-350.493	538.955	-0.034	-0.081
-349.479	-200.000	0.017	-0.322
-348.464	-128.781	0.137	0.019
-347.450	-95.849	0.312	-0.083
-346.435	109.789	-0.129	-0.154
-345.420	-102.975	0.222	-0.052
-344.406	100.467	-0.152	0.175
-343.391	360.985	0.169	0.336
-342.377	162.210	-0.019	-0.027
-341.362	-200.000	-0.036	0.220
-340.348	-72.525	0.294	0.108
-339.333	-200.000	-0.002	-0.196
-338.318	5.548	0.135	-0.099
-337.304	-200.000	0.006	-0.212
-336.289	398.853	-0.125	0.258
-335.275	-26.223	0.232	0.135
-334.260	26.239	0.123	-0.102
-333.245	-99.139	-0.181	-0.045
-332.231	22.041	-0.113	0.091
-331.216	511.845	-0.096	0.222
-330.202	249.792	0.182	0.306
-329.187	800.000	-0.159	-0.611
-328.172	800.000	0.096	-0.288
-327.158	200.424	0.122	0.185
-326.143	248.890	0.105	-0.176
-325.129	259.430	0.274	-0.469
-324.114	-200.000	0.007	-0.203
-323.099	-6.349	0.189	-0.128
-322.085	800.000	0.171	0.507
-321.070	-50.439	-0.300	0.140
-320.056	-200.000	-0.028	-0.267
-319.041	148.906	0.248	-0.331
-318.026	-33.390	0.163	0.089
-317.012	108.328	-0.123	0.145
-315.997	-200.000	0.036	-0.173
-314.983	-9.765	0.305	0.201
-313.968	786.592	-0.073	0.197
-312.953	1.157	-0.236	-0.168
-311.939	-162.212	0.241	0.012
-310.924	7.779	0.178	-0.132
-309.910	-200.000	0.267	-0.000
-308.895	-78.883	-0.152	0.051
-307.880	53.908	0.186	-0.177
-306.866	-154.352	-0.096	0.006
-305.851	800.000	0.054	-0.204
-304.837	-99.891	0.118	0.029
-303.822	-200.000	-0.004	0.088
-302.807	-156.856	0.371	0.023
-301.793	-165.642	-0.134	-0.006
-300.778	-56.004	0.155	-0.068
-299.764	207.215	0.095	-0.147
-298.749	179.462	-0.095	-0.138
-297.735	-200.000	0.045	-0.328
-296.720	800.000	0.073	0.201
-295.705	91.750	-0.171	-0.190
-294.691	800.000	0.092	-0.305
-293.676	-200.000	-0.001	0.082
-292.662	2.786	-0.239	-0.171
-291.647	-138.351	-0.274	0.030
-290.632	266.201	-0.071	0.123
-289.618	-87.033	-0.121	0.036
-288.603	-1.493	0.191	-0.133
-287.589	286.530	-0.140	-0.249
-286.574	-115.786	0.132	0.024
-285.559	-40.557	0.203	0.104
-284.545	190.370	-0.104	0.155
-283.530	26.273	0.567	-0.468
-282.516	-76.838	0.260	0.090
-281.501	-73.621	0.223	-0.080
-280.486	800.000	0.082	0.356
-279.472	800.000	-0.036	0.139
-278.457	-123.258	0.057	0.009
-277.443	-200.000	-0.022	0.285
-276.428	-200.000	-0.018	0.081
-275.413	-200.000	0.014	-0.083
-274.399	57.500	-0.164	0.159
-273.384	-141.151	-0.045	0.005
-272.370	-123.930	0.106	-0.016
-271.355	-162.417	-0.135	-0.007
-270.340	-112.728	-0.073	-0.014
-269.326	-200.000	-0.048	-0.315
-268.311	-105.245	0.070	0.016
-267.297	-52.893	0.169	-0.077
-266.282	181.221	-0.208	0.302
-265.267	35.350	0.068	-0.059
-264.253	465.456	-0.074	0.164
-263.238	781.953	-0.059	0.161
-262.224	-119.313	-0.179	-0.031
-261.209	16.413	-0.181	-0.141
-260.195	-62.400	0.274	0.113
-259.180	-200.000	-0.038	-0.396
-258.165	170.246	0.132	-0.187
-257.151	42.291	0.154	-0.138
-256.136	-57.581	0.317	-0.137
-255.122	32.905	-0.201	0.172
-254.107	-61.802	0.149	-0.061
-253.092	-167.024	-0.204	0.008
-252.078	-123.025	-0.083	0.013
-251.063	800.000	-0.050	-0.137
-250.049	341.930	0.207	0.399
-249.034	-200.000	-0.005	0.116
-248.019	243.277	-0.101	-0.168
-247.005	142.437	0.104	-0.136
-245.990	-115.930	0.047	0.009
-244.976	155.410	-0.142	0.193
-243.961	-17.585	0.109	0.068
-242.946	-130.854	-0.141	0.019
-241.932	121.263	0.129	0.159
-240.917	-183.583	-0.291	0.005
-239.903	199.093	0.249	-0.377
-238.888	-127.711	0.152	0.022
-237.873	-161.615	-0.320	0.016
-236.859	0.067	0.263	-0.185
-235.844	-19.745	0.284	-0.173
-234.830	85.236	-0.169	0.182
-233.815	61.278	0.155	0.152
-232.800	43.221	0.122	-0.110
-231.786	188.942	0.107	-0.158
-230.771	-54.639	0.147	0.065
-229.757	800.000	-0.121	-0.419
-228.742	-142.572	-0.297	-0.029
-227.727	800.000	0.110	-0.300
-226.713	-200.000	0.040	-0.227
-225.698	-116.500	-0.125	-0.023
-224.684	800.000	0.160	0.445
-223.669	-89.211	0.141	0.041
-222.655	-162.591	0.036	-0.002
-221.640	-1.184	-0.216	-0.150
-220.625	33.444	0.062	0.053
-219.611	-84.633	0.136	-0.042
-218.596	-200.000	-0.012	0.375
-217.582	490.367	-0.077	0.173
-216.567	30.948	-0.094	0.079
-215.552	139.881	0.159	-0.207
-214.538	139.794	-0.128	-0.166
-213.523	202.792	0.123	-0.187
-212.509	-139.260	-0.200	0.021
-211.494	-95.993	0.197	-0.052
-210.479	456.360	0.154	0.337
-209.465	-200.000	0.005	-0.236
-208.450	800.000	-0.018	0.072
-207.436	800.000	-0.128	0.348
-206.421	158.529	0.067	0.092
-205.406	-106.160	-0.299	-0.066
-204.392	-7.915	0.071	-0.047
-203.377	359.524	0.056	0.111
-202.363	531.311	0.004	0.009
-201.348	415.186	-0.102	-0.214
-200.333	192.840	-0.181	-0.270
-199.319	-84.280	0.309	-0.096
-198.304	-170.587	-0.301	0.010
-197.290	65.873	-0.171	0.170
-196.275	71.467	-0.262	-0.268
-195.260	800.000	-0.040	0.123
-194.246	100.155	0.181	0.206
-193.231	462.365	-0.081	-0.178
-192.217	272.087	0.044	-0.076
-191.202	-200.000	-0.018	0.167
-190.187	9.226	0.051	0.038
-189.173	75.024	0.215	0.223
-188.158	-62.703	0.237	-0.097
-187.144	-85.135	-0.254	0.078
-186.129	-143.904	-0.206	-0.019
-185.114	244.154	-0.125	0.207
-184.100	-200.000	0.062	0.450
-183.085	-104.502	0.129	-0.029
-182.071	-148.383	-0.221	0.018
-181.056	-0.552	0.117	0.082
-180.042	-31.234	0.200	0.111
-179.027	134.871	-0.092	-0.118
-178.012	-75.975	0.199	0.069
-176.998	129.154	-0.164	0.206
-175.983	181.954	-0.057	-0.082
-174.969	742.725	0.127	-0.337
-173.954	413.979	-0.068	-0.143
-172.939	-200.000	-0.004	-0.529
-171.925	618.440	0.144	-0.356
-170.910	-200.000	-0.009	-0.108
-169.896	10.328	0.109	-0.082
-168.881	-95.162	0.190	-0.050
-167.866	284.323	-0.108	-0.192
-166.852	-106.982	0.023	-0.005
-165.837	28.416	-0.093	-0.078
-164.823	-200.000	0.085	-0.375
-163.808	-200.000	-0.009	0.107
-162.793	128.453	0.181	0.227
-161.779	-155.655	-0.260	-0.016
-160.764	420.821	0.083	-0.176
-159.750	93.649	0.180	-0.200
-158.735	38.540	-0.121	-0.106
-157.720	-75.951	-0.180	0.063
-156.706	132.478	0.217	-0.276
-155.691	146.841	-0.113	-0.150
-154.677	-110.351	-0.560	0.114
-153.662	54.579	-0.103	-0.097
-152.647	99.954	-0.084	-0.095
-151.633	-131.249	-0.316	-0.041
-150.618	-93.851	-0.408	-0.110
-149.604	-0.742	0.187	0.130
-148.589	800.000	-0.013	0.052
-147.574	10.683	0.185	0.139
-146.560	-99.142	-0.064	-0.016
-145.545	-200.000	-0.004	0.240
-144.531	-200.000	0.000	0.089
-143.516	-124.129	-0.132	0.020
-142.502	97.769	0.008	0.009
-141.487	-200.000	0.042	0.207
-140.472	-200.000	-0.017	0.377
-139.458	-187.139	-0.390	0.005
-138.443	-200.000	0.047	-0.276
-137.429	-154.845	0.447	-0.029
-136.414	-27.310	-0.123	0.070
-135.399	74.415	-0.199	-0.206
-134.385	-80.329	0.168	0.055
-133.370	103.353	-0.188	0.216
-132.356	786.590	-0.092	-0.249
-131.341	-17.399	0.171	0.106
-130.326	252.684	-0.071	0.119
-129.312	87.053	0.132	0.143
-128.297	314.652	-0.260	0.481
-127.283	78.620	-0.120	0.126
-126.268	-77.956	0.328	-0.111
-125.253	84.104	0.053	-0.057
-124.239	800.000	0.052	0.224
-123.224	59.285	0.100	0.097
-122.210	-190.587	0.041	0.000
-121.195	-67.876	0.144	-0.055
-120.180	-65.433	0.218	-0.086
