DTS Sentinel unit serial number:	SN413079Multiplexer serial number:	ORYXHardware model number:	OX4-SRSoftware version number:	ORYX F/W v4.00 Oryx Data Collector v3.7.2.0data status	okinstallation	princeton_trtdifferential loss correction	single-endedforward channel	channel 1reverse channel	N/Adate	2019/09/18time	06:58:35forward acquisition time	60.00reverse acquisition time	0.00gamma	496.2192k internal	0.2339k external	0.2339temperature offset calibration	0.9981default loss term (dB/km)	0.3790temperature slope calibration	1.0000multiplexer offset coefficient	1.0000multiplexer slope coefficient	1.0000fibre end	0.00T internal ref (°C)	23.19T ext. ref 1 (°C)	0.19T ext. ref 2 (°C)	17.10length (m)	temperature (°C)	Stokes	anti-Stokes-747.200	202.642	0.037	0.057
-746.185	800.000	-0.113	0.385
-745.171	-148.341	0.365	-0.030
-744.156	-15.357	0.177	-0.113
-743.142	-152.331	0.303	-0.022
-742.127	-31.534	-0.185	0.104
-741.112	75.654	0.179	0.190
-740.098	39.656	-0.559	0.503
-739.083	317.406	0.174	-0.330
-738.069	-82.397	-0.109	-0.036
-737.054	543.899	0.189	0.451
-736.039	-47.525	-0.152	0.074
-735.025	-56.720	0.238	0.106
-734.010	173.629	-0.417	-0.603
-732.996	145.035	-0.256	-0.343
-731.981	63.312	0.142	0.143
-730.966	-52.048	-0.404	-0.188
-729.952	213.554	-0.204	-0.323
-728.937	800.000	-0.083	-0.337
-727.923	4.589	-0.204	-0.150
-726.908	-200.000	-0.064	-0.521
-725.894	309.873	-0.076	0.143
-724.879	44.020	0.116	-0.106
-723.864	353.217	-0.064	-0.126
-722.850	280.516	-0.105	-0.188
-721.835	-31.654	0.335	-0.189
-720.821	66.594	-0.190	-0.193
-719.806	-80.558	-0.234	0.078
-718.791	800.000	0.036	-0.142
-717.777	-37.535	-0.183	0.098
-716.762	-27.845	-0.259	0.150
-715.748	10.785	-0.055	-0.042
-714.733	-67.778	-0.081	0.032
-713.718	262.791	-0.159	0.276
-712.704	-115.080	0.150	-0.028
-711.689	-195.406	0.264	-0.002
-710.675	-181.321	0.185	0.004
-709.660	163.230	-0.006	0.009
-708.645	135.031	0.168	0.219
-707.631	-116.548	-0.220	0.041
-706.616	-114.925	-0.305	-0.058
-705.602	-200.000	0.009	0.139
-704.587	50.586	-0.256	-0.243
-703.572	800.000	0.070	0.276
-702.558	-24.186	-0.144	0.086
-701.543	-200.000	-0.017	-0.101
-700.529	162.093	0.037	-0.052
-699.514	51.760	0.066	0.063
-698.499	-106.672	-0.299	0.066
-697.485	-68.459	-0.136	0.053
-696.470	-105.664	-0.121	-0.028
-695.456	-200.000	-0.037	-0.168
-694.441	800.000	0.045	0.129
-693.426	-105.070	-0.136	0.031
-692.412	-147.336	-0.155	-0.013
-691.397	-63.352	-0.351	0.145
-690.383	-200.000	-0.001	-0.288
-689.368	-81.133	0.171	0.057
-688.354	48.797	0.169	-0.158
-687.339	80.813	0.156	-0.168
-686.324	-200.000	-0.008	-0.360
-685.310	-62.926	-0.510	-0.211
-684.295	-111.867	-0.120	0.024
-683.281	-142.423	-0.274	0.027
-682.266	-87.849	0.270	0.081
-681.251	282.849	-0.130	0.233
-680.237	413.129	-0.129	-0.274
-679.222	-200.000	-0.025	-0.254
-678.208	196.950	-0.063	-0.097
-677.193	-80.497	0.349	0.116
-676.178	-200.000	0.015	0.073
-675.164	-200.000	-0.012	-0.125
-674.149	33.738	-0.059	-0.051
-673.135	16.649	0.145	-0.114
-672.120	800.000	-0.218	0.604
-671.105	357.298	0.029	0.057
-670.091	-200.000	0.034	-0.219
-669.076	-104.525	-0.498	0.115
-668.062	-87.068	0.180	0.055
-667.047	-1.664	0.165	0.116
-666.032	238.058	-0.168	0.279
-665.018	-200.000	-0.014	0.266
-664.003	-25.424	-0.133	-0.078
-662.989	510.038	0.143	-0.333
-661.974	-200.000	-0.031	-0.229
-660.959	-22.678	0.074	-0.045
-659.945	-200.000	0.021	-0.144
-658.930	-200.000	0.006	-0.103
-657.916	-146.987	-0.174	-0.015
-656.901	-97.325	-0.144	-0.038
-655.886	104.598	0.086	-0.101
-654.872	254.367	0.172	-0.294
-653.857	181.664	-0.036	0.053
-652.843	-102.574	0.417	-0.100
-651.828	-200.000	-0.042	-0.384
-650.814	-17.925	0.250	0.157
-649.799	-19.028	-0.396	0.246
-648.784	-37.271	0.117	0.062
-647.770	-200.000	-0.007	-0.340
-646.755	-31.079	-0.239	0.135
-645.741	-200.000	0.062	0.319
-644.726	-32.975	-0.289	-0.160
-643.711	317.219	0.093	-0.175
-642.697	-200.000	-0.042	0.200
-641.682	-54.827	0.259	-0.117
-640.668	-200.000	0.001	0.049
-639.653	-200.000	0.005	-0.026
-638.638	-200.000	-0.019	0.426
-637.624	-60.121	-0.324	0.138
-636.609	146.053	0.046	-0.061
-635.595	301.295	0.151	0.279
-634.580	-80.106	-0.190	0.064
-633.565	48.288	-0.079	-0.073
-632.551	-2.300	-0.266	-0.186
-631.536	115.378	0.044	0.053
-630.522	-63.336	-0.218	0.090
-629.507	238.150	-0.175	-0.290
-628.492	561.664	0.178	0.429
-627.478	32.303	0.221	0.190
-626.463	-34.978	-0.100	-0.055
-625.449	-6.624	-0.213	-0.145
-624.434	-43.833	-0.130	-0.065
-623.419	-20.780	-0.089	0.054
-622.405	-38.530	0.020	-0.011
-621.390	217.034	0.092	-0.146
-620.376	-143.901	0.060	0.006
-619.361	45.184	-0.232	-0.213
-618.346	800.000	-0.097	-0.363
-617.332	-58.500	0.204	-0.088
-616.317	-90.567	-0.087	-0.025
-615.303	-178.827	-0.246	0.006
-614.288	-200.000	0.002	-0.089
-613.273	404.984	0.122	-0.256
-612.259	73.180	-0.011	-0.011
-611.244	59.308	-0.221	-0.217
-610.230	800.000	0.060	0.165
-609.215	-200.000	-0.071	0.346
-608.201	-39.859	0.137	0.071
-607.186	-80.633	0.085	0.028
-606.171	-69.426	0.188	-0.072
-605.157	-200.000	0.069	0.304
-604.142	-200.000	0.033	-0.149
-603.128	210.764	0.132	-0.207
-602.113	594.489	-0.071	-0.176
-601.098	-128.260	0.212	-0.030
-600.084	-44.807	-0.211	0.105
-599.069	79.619	-0.136	-0.145
-598.055	-200.000	0.067	-0.368
-597.040	-137.457	-0.277	0.031
-596.025	-107.132	0.308	0.068
-595.011	448.137	0.200	-0.439
-593.996	47.158	-0.346	-0.321
-592.982	-75.106	-0.198	-0.071
-591.967	800.000	0.038	-0.156
-590.952	-173.926	0.078	-0.002
-589.938	396.619	0.057	-0.118
-588.923	800.000	-0.079	-0.308
-587.909	800.000	-0.111	0.433
-586.894	-8.315	0.208	0.140
-585.879	-149.249	-0.057	0.005
-584.865	-169.584	0.121	-0.004
-583.850	188.767	0.046	0.068
-582.836	15.599	0.193	-0.151
-581.821	-200.000	-0.018	-0.209
-580.806	-196.947	-0.173	0.001
-579.792	102.194	-0.109	0.127
-578.777	101.900	0.222	-0.258
-577.763	-28.664	-0.226	0.130
-576.748	430.942	-0.073	-0.157
-575.733	-9.623	0.323	-0.214
-574.719	59.335	-0.212	0.208
-573.704	387.918	-0.096	-0.197
-572.690	-55.149	0.222	-0.100
-571.675	-161.654	-0.361	0.018
-570.661	-200.000	0.053	-0.237
-569.646	-123.878	-0.329	-0.052
-568.631	-184.805	0.277	0.004
-567.617	288.497	-0.064	-0.115
-566.602	-94.141	-0.222	0.061
-565.588	800.000	0.029	0.127
-564.573	50.888	0.399	0.376
-563.558	657.249	-0.073	-0.187
-562.544	63.914	-0.188	-0.189
-561.529	10.463	-0.284	0.216
-560.515	16.892	-0.310	0.244
-559.500	9.616	0.186	0.141
-558.485	-200.000	0.039	0.199
-557.471	-144.095	0.284	-0.026
-556.456	800.000	-0.075	-0.209
-555.442	49.701	0.338	0.317
-554.427	255.689	0.119	-0.204
-553.412	-200.000	0.010	-0.176
-552.398	-91.218	0.193	0.055
-551.383	-200.000	0.019	0.128
-550.369	-11.575	0.212	0.139
-549.354	-58.289	0.088	0.038
-548.339	127.368	0.089	-0.113
-547.325	-81.312	0.072	-0.023
-546.310	31.014	0.152	-0.130
-545.296	336.897	-0.190	0.367
-544.281	402.023	0.068	0.143
-543.266	800.000	-0.110	-0.369
-542.252	27.066	-0.268	-0.224
-541.237	-200.000	-0.038	-0.283
-540.223	-164.792	-0.324	0.014
-539.208	-14.943	0.170	0.108
-538.193	-200.000	0.027	-0.128
-537.179	-200.000	0.014	0.093
-536.164	-154.032	0.087	0.006
-535.150	14.268	0.206	-0.159
-534.135	415.295	-0.101	-0.213
-533.121	100.311	-0.114	-0.131
-532.106	-125.104	0.313	-0.048
-531.091	418.998	-0.061	0.130
-530.077	-38.186	-0.236	0.125
-529.062	-76.871	0.273	-0.095
-528.048	-111.495	0.091	-0.018
-527.033	800.000	-0.072	-0.228
-526.018	-16.398	-0.156	-0.098
-525.004	443.792	0.079	0.172
-523.989	-62.580	-0.238	0.098
-522.975	-62.357	0.099	0.041
-521.960	-200.000	-0.027	0.218
-520.945	-23.193	-0.112	-0.067
-519.931	44.167	0.089	-0.081
-518.916	-54.973	-0.148	-0.066
-517.902	-200.000	-0.045	-0.220
-516.887	710.348	0.046	0.120
-515.872	-99.176	-0.370	-0.093
-514.858	366.778	0.167	-0.335
-513.843	32.885	-0.210	0.181
-512.829	-200.000	-0.045	-0.221
-511.814	-59.494	-0.166	-0.071
-510.799	304.364	-0.219	-0.404
-509.785	-31.143	0.458	-0.257
-508.770	151.648	-0.132	0.179
-507.756	67.606	-0.262	0.266
-506.741	-123.432	0.246	0.039
-505.726	367.860	0.034	0.068
-504.712	28.442	-0.199	-0.168
-503.697	-76.748	-0.222	0.077
-502.683	-1.908	-0.384	0.268
-501.668	110.690	0.131	-0.157
-500.653	-43.652	-0.192	-0.096
-499.639	135.720	0.128	0.166
-498.624	-19.539	0.153	0.094
-497.610	169.898	0.045	-0.065
-496.595	-200.000	-0.023	-0.327
-495.581	-200.000	-0.004	0.131
-494.566	-96.047	0.286	-0.075
-493.551	-92.111	-0.260	0.073
-492.537	-200.000	0.030	0.161
-491.522	159.435	-0.109	0.150
-490.508	100.593	-0.096	-0.111
-489.493	-200.000	0.010	-0.107
-488.478	59.182	-0.114	0.111
-487.464	-183.277	0.115	-0.002
-486.449	-144.991	-0.118	-0.011
-485.435	800.000	0.050	-0.182
-484.420	-155.592	-0.202	0.013
-483.405	116.942	0.027	0.033
-482.391	-115.872	-0.411	0.076
-481.376	-32.341	0.070	0.039
-480.362	-136.423	-0.156	-0.018
-479.347	-200.000	-0.027	-0.141
-478.332	42.897	-0.064	0.058
-477.318	-54.199	-0.103	-0.047
-476.303	800.000	-0.100	-0.343
-475.289	-200.000	-0.031	-0.166
-474.274	-59.582	-0.246	0.105
-473.259	800.000	0.097	0.314
-472.245	800.000	-0.037	0.129
-471.230	-156.310	-0.221	0.014
-470.216	800.000	-0.088	-0.357
-469.201	-200.000	0.017	-0.118
-468.186	-200.000	0.041	0.477
-467.172	116.154	0.204	0.248
-466.157	-125.627	0.102	-0.015
-465.143	-137.522	0.576	0.065
-464.128	216.923	-0.123	-0.194
-463.113	-200.000	-0.049	0.373
-462.099	-42.879	-0.281	-0.142
-461.084	-87.893	-0.234	-0.070
-460.070	-200.000	-0.304	0.000
-459.055	-63.333	-0.101	-0.041
-458.040	-33.872	-0.095	-0.052
-457.026	-107.763	0.194	-0.042
-456.011	266.554	0.166	-0.288
-454.997	400.537	-0.036	0.075
-453.982	-170.148	-0.373	-0.013
-452.968	-99.509	-0.169	0.042
-451.953	-126.256	-0.145	0.022
-450.938	-55.106	-0.273	0.122
-449.924	276.461	0.074	-0.130
-448.909	-129.397	-0.244	-0.034
-447.895	-200.000	0.037	-0.177
-446.880	-200.000	0.002	-0.053
-445.865	-17.893	-0.139	-0.087
-444.851	-87.230	0.185	-0.056
-443.836	-200.000	-0.012	-0.121
-442.822	66.643	0.102	0.102
-441.807	319.766	-0.133	-0.250
-440.792	-80.052	0.257	-0.085
-439.778	61.777	-0.071	0.070
-438.763	-154.133	0.510	-0.034
-437.749	-200.000	0.003	0.180
-436.734	800.000	0.024	-0.094
-435.719	152.361	0.206	-0.279
-434.705	-15.030	0.180	-0.115
-433.690	131.185	0.115	0.146
-432.676	47.980	-0.159	0.147
-431.661	97.359	-0.071	0.081
-430.646	800.000	-0.060	0.198
-429.632	-78.596	-0.213	0.072
-428.617	800.000	0.037	0.152
-427.603	20.237	-0.200	0.160
-426.588	-33.417	-0.176	0.096
-425.573	150.602	0.075	0.101
-424.559	109.697	-0.084	0.099
-423.544	-24.692	-0.108	0.064
-422.530	-77.343	0.065	-0.022
-421.515	675.168	-0.070	-0.179
-420.500	800.000	0.059	0.184
-419.486	176.610	0.141	-0.202
-418.471	463.587	-0.080	-0.177
-417.457	-200.000	-0.020	-0.296
-416.442	-200.000	-0.029	-0.185
-415.428	800.000	0.075	0.303
-414.413	-1.766	-0.063	0.044
-413.398	26.869	-0.290	-0.241
-412.384	-67.149	-0.290	-0.113
-411.369	328.666	0.010	-0.019
-410.355	56.558	-0.162	0.156
-409.340	271.653	-0.155	0.271
-408.325	-200.000	0.051	-0.244
-407.311	111.436	-0.131	-0.156
-406.296	1.959	-0.366	-0.261
-405.282	-77.440	0.327	-0.112
-404.267	24.103	0.134	0.110
-403.252	595.051	-0.109	0.267
-402.238	-22.925	-0.085	-0.051
-401.223	-137.827	-0.043	0.005
-400.209	-87.428	-0.235	0.070
-399.194	54.643	0.265	-0.252
-398.179	-200.000	0.193	0.000
-397.165	187.863	0.107	0.158
-396.150	-91.626	-0.207	0.058
-395.136	143.550	0.212	-0.280
-394.121	-66.303	-0.235	0.093
-393.106	337.274	-0.118	0.226
-392.092	578.470	0.010	0.024
-391.077	92.158	0.283	0.316
-390.063	216.548	-0.305	0.479
-389.048	-28.972	0.081	-0.046
-388.033	-200.000	0.004	-0.121
-387.019	-63.896	-0.116	-0.047
-386.004	800.000	0.121	-0.483
-384.990	134.162	0.056	-0.071
-383.975	-7.297	-0.164	0.110
-382.960	11.447	-0.153	0.116
-381.946	-200.000	0.019	0.082
-380.931	184.738	0.007	-0.011
-379.917	-200.000	0.011	-0.100
-378.902	800.000	0.048	-0.141
-377.888	800.000	0.044	0.158
-376.873	-92.039	-0.076	0.021
-375.858	-200.000	0.024	0.309
-374.844	21.655	0.147	-0.119
-373.829	87.092	-0.065	0.071
-372.815	-177.684	0.293	-0.007
-371.800	99.652	-0.161	-0.184
-370.785	-200.000	0.062	0.293
-369.771	139.879	0.108	-0.141
-368.756	415.003	-0.095	0.200
-367.742	-24.189	0.021	0.012
-366.727	60.200	0.314	0.307
-365.712	-200.000	0.027	0.233
-364.698	413.667	-0.042	-0.089
-363.683	3.850	-0.218	0.157
-362.669	-73.506	-0.313	0.113
-361.654	50.953	0.043	0.040
-360.639	284.353	0.065	0.116
-359.625	-57.210	0.152	-0.066
-358.610	144.569	-0.118	-0.156
-357.596	598.633	0.115	0.281
-356.581	-127.274	-0.098	-0.014
-355.566	242.298	0.094	-0.155
-354.552	-115.236	-0.170	-0.032
-353.537	438.500	-0.045	-0.098
-352.523	800.000	-0.040	0.117
-351.508	-102.171	0.232	0.055
-350.493	-200.000	0.057	0.331
-349.479	49.029	0.128	0.118
-348.464	-198.381	0.178	0.001
-347.450	359.351	-0.045	-0.089
-346.435	8.231	0.323	0.239
-345.420	-200.000	-0.034	0.223
-344.406	181.635	-0.173	0.251
-343.391	800.000	0.114	0.354
-342.377	505.985	0.076	0.173
-341.362	-115.112	-0.240	-0.045
-340.348	-157.240	0.259	-0.015
-339.333	-54.009	0.232	0.104
-338.318	-76.131	0.188	0.065
-337.304	-153.639	0.256	-0.017
-336.289	45.738	0.139	-0.126
-335.275	-94.901	-0.101	0.027
-334.260	-200.000	-0.001	0.157
-333.245	-159.236	0.218	-0.012
-332.231	-200.000	0.244	0.000
-331.216	265.074	-0.172	0.295
-330.202	393.941	0.117	-0.240
-329.187	-200.000	-0.002	-0.224
-328.172	30.939	0.152	0.129
-327.158	-59.611	-0.349	0.148
-326.143	-30.041	-0.070	-0.040
-325.129	-200.000	-0.001	0.095
-324.114	-127.935	-0.219	-0.031
-323.099	-73.458	0.128	0.046
-322.085	-17.959	-0.305	-0.189
-321.070	-140.783	-0.387	-0.039
-320.056	-8.120	0.396	0.263
-319.041	-16.179	-0.200	0.125
-318.026	-20.460	0.262	0.159
-317.012	-200.000	-0.020	0.122
-315.997	343.291	-0.049	0.094
-314.983	94.779	0.290	-0.325
-313.968	-50.771	0.116	0.054
-312.953	-151.511	0.229	0.017
-311.939	83.344	0.141	-0.151
-310.924	28.063	0.266	-0.222
-309.910	-104.434	0.136	-0.031
-308.895	249.604	-0.100	-0.166
-307.880	567.619	-0.041	0.097
-306.866	-141.224	-0.251	0.025
-305.851	-142.014	0.132	-0.013
-304.837	800.000	-0.024	-0.099
-303.822	486.782	-0.124	-0.278
-302.807	-38.403	0.082	-0.043
-301.793	17.309	0.042	0.033
-300.778	115.643	-0.286	-0.345
-299.764	0.235	0.081	-0.057
-298.749	800.000	0.075	0.281
-297.735	800.000	0.056	0.155
-296.720	-54.631	0.457	0.204
-295.705	-137.376	0.274	-0.031
-294.691	343.964	0.066	0.128
-293.676	-59.136	0.193	-0.082
-292.662	315.293	-0.033	-0.062
-291.647	-200.000	-0.042	-0.471
-290.632	436.210	0.086	-0.184
-289.618	-53.455	-0.200	-0.090
-288.603	-77.367	0.208	0.071
-287.589	67.367	-0.088	-0.089
-286.574	-96.206	0.294	-0.077
-285.559	87.047	0.074	0.080
-284.545	-79.315	0.270	0.090
-283.530	35.646	-0.202	0.175
-282.516	683.457	-0.142	0.364
-281.501	-200.000	-0.024	-0.169
-280.486	-38.704	0.086	-0.045
-279.472	140.889	0.232	0.302
-278.457	-93.131	-0.296	-0.081
-277.443	-51.415	-0.113	0.052
-276.428	-79.481	-0.171	-0.057
-275.413	-89.725	0.339	-0.098
-274.399	295.244	0.026	-0.047
-273.384	-162.589	-0.281	0.014
-272.370	-200.000	-0.225	0.000
-271.355	-138.835	0.176	-0.019
-270.340	-131.773	-0.076	-0.010
-269.326	800.000	0.044	0.175
-268.311	-34.334	-0.044	-0.024
-267.297	35.190	-0.253	-0.218
-266.282	-70.417	0.540	0.202
-265.267	800.000	-0.156	0.477
-264.253	800.000	0.089	0.294
-263.238	91.662	-0.126	-0.139
-262.224	800.000	-0.054	-0.230
-261.209	-200.000	-0.070	-0.357
-260.195	-200.000	0.021	0.255
-259.180	336.448	-0.118	0.226
-258.165	102.435	-0.110	0.127
-257.151	54.093	0.078	0.074
-256.136	800.000	0.075	0.261
-255.122	68.559	-0.175	0.177
-254.107	-111.618	0.234	0.047
-253.092	-200.000	-0.023	-0.112
-252.078	28.060	0.076	0.063
-251.063	248.111	-0.169	-0.281
-250.049	-200.000	-0.024	0.293
-249.034	800.000	0.063	0.180
-248.019	800.000	0.063	-0.205
-247.005	43.739	-0.290	-0.261
-245.990	-200.000	-0.001	0.062
-244.976	32.784	0.058	-0.049
-243.961	-24.594	0.234	0.137
-242.946	800.000	0.029	-0.101
-241.932	140.928	-0.220	-0.285
-240.917	-200.000	-0.007	-0.311
-239.903	229.401	0.194	-0.312
-238.888	-195.848	-0.271	0.002
-237.873	-200.000	0.063	-0.286
-236.859	-117.702	0.228	-0.040
-235.844	800.000	-0.043	0.179
-234.830	-0.341	0.203	0.142
-233.815	-200.000	0.015	-0.233
-232.800	345.713	0.042	0.080
-231.786	-200.000	-0.054	-0.360
-230.771	176.360	0.171	0.244
-229.757	74.270	-0.030	0.031
-228.742	32.401	0.080	-0.068
-227.727	-185.179	0.257	-0.004
-226.713	-200.000	-0.015	0.456
-225.698	-183.028	-0.369	-0.006
-224.684	88.289	-0.111	0.121
-223.669	-100.597	0.226	-0.055
-222.655	-124.208	-0.211	-0.032
-221.640	331.236	0.106	-0.201
-220.625	-200.000	-0.030	0.430
-219.611	-63.974	0.293	-0.118
-218.596	296.254	-0.075	0.135
-217.582	206.529	-0.128	0.197
-216.567	473.730	-0.165	-0.366
-215.552	121.843	0.172	-0.210
-214.538	-49.840	0.296	-0.138
-213.523	800.000	0.063	-0.204
-212.509	68.372	0.132	0.133
-211.494	324.084	-0.088	-0.164
-210.479	-16.564	0.356	0.221
-209.465	-2.689	-0.338	0.232
-208.450	-71.180	-0.107	-0.039
-207.436	-3.429	-0.135	-0.092
-206.421	493.958	-0.050	0.113
-205.406	-87.012	-0.239	0.071
-204.392	-4.696	0.221	-0.149
-203.377	-88.485	0.216	-0.063
-202.363	638.144	0.072	0.181
-201.348	-17.615	0.284	0.175
-200.333	-52.991	-0.128	0.058
-199.319	190.627	-0.220	0.324
-198.304	94.776	0.042	0.047
-197.290	-200.000	0.030	-0.179
-196.275	334.809	0.120	-0.229
-195.260	-118.570	-0.152	0.026
-194.246	-200.000	0.005	0.316
-193.231	-153.269	-0.528	0.036
-192.217	-200.000	0.034	-0.266
-191.202	7.266	-0.005	-0.004
-190.187	-200.000	0.046	-0.242
-189.173	-200.000	-0.070	-0.492
-188.158	-199.357	0.523	-0.003
-187.144	-151.634	0.241	0.017
-186.129	-33.352	0.121	0.065
-185.114	-200.000	0.062	0.424
-184.100	495.734	0.042	-0.094
-183.085	-15.699	-0.187	-0.117
-182.071	-142.986	-0.122	0.012
-181.056	-116.672	-0.077	-0.014
-180.042	-107.548	0.193	-0.041
-179.027	69.481	0.320	0.324
-178.012	800.000	-0.030	0.099
-176.998	52.897	-0.381	-0.358
-175.983	-200.000	0.009	-0.122
-174.969	-108.232	-0.121	-0.026
-173.954	14.512	0.190	0.146
-172.939	-92.873	0.384	-0.105
-171.925	-72.696	-0.078	0.028
-170.910	-58.636	0.210	0.089
-169.896	-159.452	0.412	0.023
-168.881	-141.578	0.373	-0.037
-167.866	212.176	0.213	0.330
-166.852	48.840	-0.190	0.175
-165.837	774.009	-0.030	0.080
-164.823	122.379	-0.035	0.042
-163.808	-81.072	0.157	-0.051
-162.793	248.317	-0.193	-0.320
-161.779	-107.094	0.084	0.018
-160.764	-200.000	-0.080	0.448
-159.750	-170.582	-0.097	-0.003
-158.735	32.920	0.192	0.163
-157.720	-200.000	0.008	-0.088
-156.706	766.868	0.035	-0.094
-155.691	72.449	0.159	-0.162
-154.677	-200.000	0.030	-0.195
-153.662	-87.835	0.108	0.032
-152.647	88.565	0.149	0.163
-151.633	-52.806	0.278	0.126
-150.618	-119.500	-0.261	0.044
-149.604	35.275	-0.209	-0.179
-148.589	-200.000	-0.013	-0.273
-147.574	-117.840	-0.166	0.029
-146.560	-133.357	-0.187	-0.023
-145.545	302.666	-0.056	-0.102
-144.531	-40.798	0.132	-0.067
-143.516	-200.000	0.039	-0.245
-142.502	-52.919	0.026	-0.012
-141.487	781.633	0.151	0.406
-140.472	752.860	0.113	0.298
-139.458	-66.385	-0.241	0.094
-138.443	59.735	0.278	-0.268
-137.429	-7.015	-0.138	-0.092
-136.414	327.635	0.091	-0.171
-135.399	-33.319	-0.010	0.005
-134.385	-138.225	0.444	-0.048
-133.370	228.084	-0.113	0.180
-132.356	269.921	-0.161	0.277
-131.341	324.191	-0.126	-0.236
-130.326	-36.978	0.156	0.082
-129.312	-37.161	-0.424	0.222
-128.297	531.529	0.085	0.197
-127.283	-45.433	-0.266	0.129
-126.268	410.317	0.092	-0.190
-125.253	-87.845	0.188	0.055
-124.239	456.859	-0.182	0.395
-123.224	106.898	0.205	-0.239
-122.210	-84.696	-0.260	0.080
