DTS Sentinel unit serial number:	SN413079Multiplexer serial number:	ORYXHardware model number:	OX4-SRSoftware version number:	ORYX F/W v4.00 Oryx Data Collector v3.7.2.0data status	okinstallation	princeton_trtdifferential loss correction	single-endedforward channel	channel 1reverse channel	N/Adate	2019/09/13time	21:46:35forward acquisition time	60.00reverse acquisition time	0.00gamma	496.2192k internal	0.2332k external	0.2332temperature offset calibration	1.0081default loss term (dB/km)	0.3790temperature slope calibration	1.0000multiplexer offset coefficient	1.0000multiplexer slope coefficient	1.0000fibre end	0.00T internal ref (°C)	28.12T ext. ref 1 (°C)	3.11T ext. ref 2 (°C)	22.66length (m)	temperature (°C)	Stokes	anti-Stokes-747.200	-116.390	0.329	-0.061
-746.185	-33.712	-0.220	0.122
-745.171	383.098	-0.126	-0.260
-744.156	-42.667	0.191	-0.098
-743.142	278.331	-0.102	-0.182
-742.127	-120.254	-0.103	-0.018
-741.112	-57.951	-0.156	0.069
-740.098	800.000	-0.088	0.283
-739.083	480.870	-0.074	0.170
-738.069	-185.690	-0.359	0.005
-737.054	-200.000	0.036	-0.215
-736.039	11.622	-0.276	-0.213
-735.025	512.899	0.169	0.395
-734.010	-94.421	-0.303	0.083
-732.996	-123.249	-0.298	0.048
-731.981	5.280	0.047	-0.035
-730.966	800.000	-0.037	-0.106
-729.952	-81.268	0.056	-0.019
-728.937	387.187	-0.122	-0.253
-727.923	218.004	-0.221	-0.354
-726.908	-200.000	0.115	-0.536
-725.894	-55.345	0.098	-0.044
-724.879	31.171	-0.087	-0.075
-723.864	-37.930	-0.258	0.138
-722.850	-200.000	-0.022	0.182
-721.835	-38.733	-0.176	0.093
-720.821	-200.000	0.031	0.140
-719.806	-108.665	0.141	-0.030
-718.791	-73.435	0.135	0.049
-717.777	35.117	0.071	-0.063
-716.762	-200.000	0.011	0.050
-715.748	54.840	-0.072	0.070
-714.733	-54.732	-0.414	0.188
-713.718	-9.241	0.279	-0.187
-712.704	-145.530	-0.332	-0.030
-711.689	-145.365	-0.300	-0.027
-710.675	-158.243	-0.269	0.016
-709.660	800.000	0.025	-0.092
-708.645	-200.000	-0.011	0.096
-707.631	403.436	0.134	0.283
-706.616	164.163	-0.115	-0.163
-705.602	458.567	-0.163	-0.365
-704.587	-200.000	0.035	-0.168
-703.572	274.514	0.183	-0.326
-702.558	800.000	0.046	-0.151
-701.543	-168.294	-0.086	-0.003
-700.529	-200.000	0.078	0.376
-699.514	-25.683	-0.177	0.105
-698.499	-130.217	-0.199	0.027
-697.485	800.000	-0.036	-0.143
-696.470	36.052	-0.192	0.170
-695.456	-90.985	-0.241	0.070
-694.441	-127.181	-0.116	0.017
-693.426	579.331	-0.072	-0.177
-692.412	-200.000	0.004	0.093
-691.397	298.273	-0.142	0.261
-690.383	-200.000	0.007	-0.054
-689.368	566.267	0.176	0.430
-688.354	-136.532	-0.374	0.044
-687.339	140.887	0.202	0.268
-686.324	582.606	0.085	0.208
-685.310	245.648	-0.144	-0.243
-684.295	-55.247	0.082	0.037
-683.281	800.000	-0.094	-0.287
-682.266	-200.000	0.046	0.238
-681.251	77.904	0.322	-0.344
-680.237	-200.000	0.060	-0.405
-679.222	-200.000	-0.023	-0.298
-678.208	800.000	-0.057	-0.196
-677.193	-51.019	-0.276	0.130
-676.178	-200.000	-0.041	-0.221
-675.164	-200.000	-0.027	-0.174
-674.149	-84.289	0.099	-0.032
-673.135	-31.639	-0.263	-0.148
-672.120	4.198	-0.164	-0.120
-671.105	-200.000	-0.034	0.254
-670.091	-85.334	0.356	0.112
-669.076	723.209	-0.088	-0.236
-668.062	800.000	-0.033	-0.101
-667.047	-92.428	0.054	-0.015
-666.032	450.128	-0.037	-0.082
-665.018	-200.000	0.021	-0.212
-664.003	548.583	0.040	-0.097
-662.989	203.525	0.077	-0.119
-661.974	800.000	-0.085	-0.364
-660.959	-141.470	0.157	0.016
-659.945	-159.918	0.343	-0.019
-658.930	-128.262	-0.252	0.036
-657.916	201.900	-0.232	-0.359
-656.901	800.000	-0.039	-0.136
-655.886	282.431	-0.118	-0.212
-654.872	-136.209	0.212	0.025
-653.857	173.852	-0.089	0.128
-652.843	27.110	0.123	-0.104
-651.828	99.910	-0.125	-0.146
-650.814	800.000	0.066	0.278
-649.799	-133.284	0.143	0.018
-648.784	-200.000	-0.005	0.206
-647.770	-37.965	0.050	0.026
-646.755	-155.401	-0.152	0.010
-645.741	800.000	-0.058	0.211
-644.726	-179.362	0.145	0.003
-643.711	-166.485	0.210	0.009
-642.697	24.613	0.148	-0.122
-641.682	800.000	0.059	-0.178
-640.668	-63.882	0.078	-0.032
-639.653	329.902	-0.128	-0.247
-638.638	-200.000	0.044	0.207
-637.624	-160.071	-0.223	-0.012
-636.609	111.228	-0.073	0.088
-635.595	-86.219	0.035	-0.011
-634.580	-53.232	-0.127	0.058
-633.565	117.561	0.179	-0.220
-632.551	-32.443	-0.348	-0.194
-631.536	-57.785	0.090	-0.040
-630.522	-38.715	-0.123	-0.065
-629.507	-75.249	-0.328	-0.117
-628.492	-51.939	-0.400	0.187
-627.478	-196.292	0.263	0.002
-626.463	-129.497	0.180	-0.025
-625.449	-97.918	0.040	0.010
-624.434	62.707	0.089	0.089
-623.419	174.350	0.194	0.281
-622.405	472.096	0.028	-0.063
-621.390	-25.288	-0.360	0.213
-620.376	-150.292	-0.220	0.017
-619.361	62.082	0.184	-0.184
-618.346	53.645	-0.367	0.353
-617.332	-200.000	-0.041	-0.204
-616.317	680.546	-0.100	-0.261
-615.303	-200.000	-0.029	-0.220
-614.288	-6.474	0.074	-0.051
-613.273	86.036	-0.074	0.082
-612.259	74.857	0.154	0.162
-611.244	800.000	0.097	-0.374
-610.230	190.601	0.137	0.207
-609.215	-97.404	0.108	-0.028
-608.201	-115.496	-0.308	-0.058
-607.186	-8.745	0.185	0.124
-606.171	-69.675	-0.078	-0.030
-605.157	800.000	-0.078	0.224
-604.142	-171.130	-0.133	-0.005
-603.128	-196.074	-0.291	-0.002
-602.113	25.702	-0.094	0.078
-601.098	-200.000	-0.018	-0.158
-600.084	148.131	0.158	-0.213
-599.069	486.140	-0.170	-0.388
-598.055	-5.934	0.266	-0.182
-597.040	-88.529	0.180	0.054
-596.025	800.000	-0.036	0.147
-595.011	800.000	-0.096	-0.363
-593.996	88.491	0.347	-0.386
-592.982	800.000	-0.013	-0.050
-591.967	-46.997	-0.093	-0.045
-590.952	800.000	0.060	0.224
-589.938	-148.495	0.092	0.008
-588.923	-44.271	-0.184	-0.092
-587.909	-69.269	0.089	0.034
-586.894	-16.433	0.134	-0.085
-585.879	-93.727	0.289	-0.080
-584.865	458.509	0.076	0.170
-583.850	530.012	-0.081	-0.191
-582.836	130.636	-0.078	0.101
-581.821	-200.000	-0.006	0.171
-580.806	279.233	-0.149	0.266
-579.792	177.379	0.241	-0.350
-578.777	800.000	0.041	-0.136
-577.763	-89.893	0.039	0.012
-576.748	-123.144	-0.323	-0.052
-575.733	800.000	0.002	-0.005
-574.719	170.675	0.085	0.122
-573.704	-183.095	-0.179	-0.003
-572.690	-75.744	-0.199	0.071
-571.675	102.284	0.107	-0.125
-570.661	76.133	-0.098	0.103
-569.646	37.500	0.278	0.247
-568.631	-77.599	-0.147	-0.051
-567.617	238.914	0.247	-0.410
-566.602	-200.000	-0.036	0.322
-565.588	81.376	-0.245	-0.265
-564.573	-157.777	0.124	-0.007
-563.558	-200.000	-0.058	0.558
-562.544	90.128	-0.258	-0.289
-561.529	800.000	-0.034	0.096
-560.515	127.768	-0.102	-0.129
-559.500	-78.414	0.040	-0.014
-558.485	800.000	-0.199	-0.599
-557.471	-200.000	-0.032	-0.174
-556.456	-135.533	-0.369	0.044
-555.442	-200.000	0.004	0.207
-554.427	-172.212	0.237	0.008
-553.412	-24.580	0.284	-0.169
-552.398	-41.255	-0.245	-0.126
-551.383	148.872	0.191	0.257
-550.369	-99.795	-0.200	-0.050
-549.354	362.885	-0.197	-0.394
-548.339	74.699	-0.261	0.274
-547.325	267.715	-0.053	-0.093
-546.310	-200.000	0.015	0.090
-545.296	-44.914	0.214	0.107
-544.281	303.404	-0.102	0.189
-543.266	280.672	0.078	-0.140
-542.252	-91.324	0.222	-0.063
-541.237	158.009	-0.214	-0.296
-540.223	-200.000	-0.012	-0.060
-539.208	57.272	-0.148	-0.144
-538.193	-95.116	0.187	-0.050
-537.179	-51.680	0.236	0.110
-536.164	800.000	0.034	-0.141
-535.150	5.570	-0.101	0.075
-534.135	-90.064	0.137	0.040
-533.121	-200.000	0.011	-0.086
-532.106	-127.459	0.164	0.024
-531.091	-74.238	0.072	0.026
-530.077	346.017	0.097	0.191
-529.062	-172.419	0.161	-0.005
-528.048	-116.833	0.125	0.023
-527.033	159.818	-0.192	-0.267
-526.018	-14.252	-0.249	-0.160
-525.004	-6.925	0.078	-0.053
-523.989	378.275	-0.035	0.072
-522.975	-155.718	-0.394	-0.025
-521.960	102.810	0.064	0.075
-520.945	-82.678	-0.252	-0.081
-519.931	301.677	0.137	0.252
-518.916	13.725	0.122	-0.095
-517.902	800.000	0.050	-0.205
-516.887	-136.942	-0.183	-0.021
-515.872	263.894	-0.214	0.372
-514.858	-200.000	0.001	-0.145
-513.843	-62.438	0.203	0.084
-512.829	656.991	-0.106	-0.272
-511.814	-200.000	0.014	0.177
-510.799	-200.000	0.017	0.353
-509.785	77.946	-0.113	0.120
-508.770	163.711	0.144	0.203
-507.756	-200.000	-0.007	-0.095
-506.741	88.131	0.325	0.359
-505.726	141.245	0.077	-0.101
-504.712	96.921	0.161	0.184
-503.697	-19.206	0.341	-0.211
-502.683	-134.174	0.289	-0.036
-501.668	569.498	-0.070	-0.169
-500.653	371.155	0.143	-0.289
-499.639	-125.681	0.068	0.010
-498.624	800.000	-0.075	0.292
-497.610	163.144	-0.233	0.326
-496.595	-113.161	0.262	-0.051
-495.581	160.504	-0.126	0.175
-494.566	-131.364	-0.175	0.023
-493.551	28.085	0.279	-0.235
-492.537	-111.226	-0.399	-0.081
-491.522	752.035	0.097	0.260
-490.508	12.959	0.131	0.101
-489.493	269.017	-0.087	0.153
-488.478	10.815	0.236	0.180
-487.464	-11.041	-0.160	-0.105
-486.449	431.423	0.110	0.237
-485.435	-189.215	0.236	-0.003
-484.420	-200.000	-0.006	0.119
-483.405	27.717	-0.203	0.171
-482.391	438.319	0.034	-0.074
-481.376	-200.000	0.018	0.186
-480.362	-36.520	0.043	-0.023
-479.347	688.501	-0.008	0.020
-478.332	-47.954	-0.130	0.063
-477.318	-92.276	0.233	0.065
-476.303	-1.927	-0.197	0.138
-475.289	449.385	-0.170	-0.373
-474.274	108.768	0.130	-0.154
-473.259	-35.326	0.120	-0.065
-472.245	216.823	0.032	0.051
-471.230	1.965	0.224	-0.161
-470.216	-113.985	-0.066	-0.013
-469.201	-23.069	0.264	-0.158
-468.186	119.388	-0.125	-0.154
-467.172	-200.000	-0.269	-0.000
-466.157	-1.421	0.094	-0.066
-465.143	38.436	0.152	0.135
-464.128	-149.318	0.074	0.006
-463.113	189.617	0.092	0.137
-462.099	110.103	-0.017	0.020
-461.084	-200.000	-0.002	0.228
-460.070	247.716	0.209	-0.351
-459.055	758.201	0.053	-0.142
-458.040	-113.628	-0.127	-0.025
-457.026	-35.174	-0.109	0.059
-456.011	-200.000	0.035	0.291
-454.997	676.434	-0.121	0.314
-453.982	231.460	0.116	-0.189
-452.968	78.441	0.184	0.195
-451.953	-4.893	0.180	-0.124
-450.938	-37.243	-0.175	0.093
-449.924	-200.000	-0.031	-0.284
-448.909	-5.554	-0.174	-0.118
-447.895	-200.000	-0.017	0.139
-446.880	-200.000	0.026	0.230
-445.865	170.911	0.096	0.136
-444.851	-134.412	0.212	0.026
-443.836	22.962	-0.109	-0.089
-442.822	-39.040	-0.206	-0.108
-441.807	-36.929	-0.068	-0.036
-440.792	-164.727	0.201	-0.009
-439.778	78.327	0.160	-0.170
-438.763	-45.943	-0.170	0.083
-437.749	364.278	-0.094	-0.187
-436.734	0.867	0.234	0.167
-435.719	149.815	-0.150	-0.203
-434.705	798.341	0.111	0.303
-433.690	-200.000	0.015	0.354
-432.676	800.000	-0.060	-0.178
-431.661	398.648	-0.143	-0.298
-430.646	122.061	0.130	0.162
-429.632	-31.563	0.079	-0.044
-428.617	-62.489	-0.297	-0.123
-427.603	800.000	0.019	0.067
-426.588	102.849	-0.220	-0.256
-425.573	-62.135	0.103	0.043
-424.559	-47.509	0.286	-0.138
-423.544	-81.483	0.106	-0.035
-422.530	72.790	-0.137	-0.142
-421.515	-76.252	-0.260	0.091
-420.500	-200.000	0.040	-0.420
-419.486	-15.414	-0.195	0.124
-418.471	-174.404	-0.092	-0.003
-417.457	168.976	-0.128	-0.181
-416.442	465.886	-0.035	-0.078
-415.428	-37.340	-0.186	0.099
-414.413	-200.000	-0.031	0.207
-413.398	580.573	0.101	0.247
-412.384	187.428	-0.034	-0.050
-411.369	92.181	0.108	-0.121
-410.355	586.258	-0.065	-0.158
-409.340	419.291	-0.181	-0.386
-408.325	-0.160	0.463	-0.327
-407.311	132.633	-0.167	-0.213
-406.296	310.033	0.093	-0.172
-405.282	45.907	0.085	-0.078
-404.267	-200.000	0.009	0.120
-403.252	78.803	-0.191	-0.203
-402.238	216.461	0.074	-0.117
-401.223	195.461	0.132	-0.199
-400.209	800.000	0.079	-0.240
-399.194	357.764	-0.099	0.197
-398.179	-172.303	-0.146	0.005
-397.165	189.154	0.107	0.160
-396.150	-46.714	0.165	-0.080
-395.136	-84.775	-0.206	0.064
-394.121	150.426	0.064	-0.086
-393.106	-142.510	-0.266	0.026
-392.092	-200.000	0.007	0.105
-391.077	180.966	0.069	0.101
-390.063	-138.308	0.272	-0.030
-389.048	-30.188	-0.144	0.081
-388.033	-200.000	0.012	0.327
-387.019	800.000	0.052	-0.215
-386.004	-200.000	-0.061	-0.000
-384.990	290.602	-0.166	0.299
-383.975	-200.000	-0.002	-0.058
-382.960	800.000	0.075	-0.255
-381.946	-40.389	0.214	-0.110
-380.931	88.994	0.062	0.069
-379.917	-15.376	-0.158	-0.100
-378.902	-200.000	0.003	-0.070
-377.888	-104.139	0.330	0.076
-376.873	-151.257	-0.127	0.009
-375.858	-200.000	0.030	-0.251
-374.844	226.290	0.075	-0.121
-373.829	0.678	0.184	0.130
-372.815	-200.000	-0.047	0.420
-371.800	145.796	0.036	0.048
-370.785	203.245	-0.083	-0.127
-369.771	85.074	0.182	-0.198
-368.756	-17.907	0.159	-0.099
-367.742	796.510	-0.098	-0.268
-366.727	800.000	0.057	0.236
-365.712	-36.974	-0.211	0.112
-364.698	-103.563	0.141	0.033
-363.683	800.000	-0.057	0.171
-362.669	551.888	0.065	0.154
-361.654	54.971	0.142	-0.136
-360.639	-99.546	0.141	-0.035
-359.625	73.341	-0.330	-0.343
-358.610	-200.000	0.042	-0.253
-357.596	-200.000	-0.003	0.440
-356.581	11.506	0.043	0.032
-355.566	776.996	-0.039	-0.106
-354.552	-24.093	0.129	0.076
-353.537	354.724	0.013	-0.025
-352.523	86.478	-0.126	0.138
-351.508	-46.992	-0.284	-0.138
-350.493	-140.148	-0.114	0.012
-349.479	-52.905	0.126	-0.057
-348.464	231.639	-0.071	-0.116
-347.450	-94.982	-0.105	0.028
-346.435	-48.016	0.244	-0.117
-345.420	326.420	-0.150	-0.284
-344.406	-126.014	-0.181	-0.027
-343.391	800.000	0.017	-0.064
-342.377	-91.029	-0.092	0.026
-341.362	-200.000	-0.018	-0.078
-340.348	-200.000	-0.022	0.463
-339.333	-40.630	0.349	0.179
-338.318	-115.968	-0.217	0.040
-337.304	-163.815	-0.174	0.008
-336.289	-107.158	0.263	-0.057
-335.275	574.785	-0.095	-0.230
-334.260	-17.012	0.159	0.100
-333.245	-119.165	0.150	0.026
-332.231	135.730	0.042	0.054
-331.216	7.928	0.322	-0.239
-330.202	187.639	-0.053	-0.078
-329.187	-89.119	0.115	0.034
-328.172	-17.056	-0.173	-0.108
-327.158	-200.000	-0.005	0.071
-326.143	121.519	-0.071	-0.088
-325.129	-200.000	-0.018	0.275
-324.114	800.000	0.072	0.259
-323.099	63.455	0.114	0.114
-322.085	-200.000	-0.006	-0.103
-321.070	-82.115	-0.113	-0.037
-320.056	-45.473	-0.038	0.019
-319.041	-48.565	-0.045	-0.022
-318.026	-130.082	0.138	-0.019
-317.012	456.292	-0.018	-0.040
-315.997	-44.430	0.164	0.081
-314.983	-185.092	-0.338	0.005
-313.968	-200.000	-0.020	-0.293
-312.953	800.000	-0.062	-0.217
-311.939	800.000	-0.024	0.084
-310.924	-81.536	0.283	0.092
-309.910	-200.000	-0.019	-0.138
-308.895	667.219	-0.156	-0.399
-307.880	-33.957	0.162	-0.088
-306.866	800.000	0.049	-0.160
-305.851	800.000	-0.024	-0.080
-304.837	-200.000	-0.022	0.209
-303.822	27.632	-0.076	-0.063
-302.807	-178.519	0.209	0.005
-301.793	-11.745	-0.159	-0.104
-300.778	63.075	-0.117	-0.115
-299.764	-101.373	-0.157	-0.038
-298.749	172.290	-0.107	-0.152
-297.735	-70.755	0.158	0.059
-296.720	246.290	0.060	-0.101
-295.705	800.000	0.090	-0.256
-294.691	-200.000	-0.020	-0.345
-293.676	-200.000	-0.013	-0.171
-292.662	193.896	0.088	0.131
-291.647	-82.904	-0.108	-0.034
-290.632	800.000	0.136	-0.415
-289.618	800.000	0.152	-0.425
-288.603	-97.565	-0.140	-0.036
-287.589	-150.966	0.357	0.027
-286.574	15.081	0.136	0.106
-285.559	-107.977	-0.286	-0.062
-284.545	-34.236	0.313	0.170
-283.530	-32.936	-0.198	0.109
-282.516	-10.443	-0.160	-0.105
-281.501	-123.202	0.164	0.026
-280.486	-168.256	0.368	-0.014
-279.472	83.343	-0.153	0.164
-278.457	342.934	-0.052	-0.100
-277.443	478.667	0.081	-0.180
-276.428	-139.549	0.376	0.040
-275.413	55.535	0.121	-0.116
-274.399	251.090	-0.129	0.217
-273.384	-18.688	0.258	0.159
-272.370	-200.000	0.023	-0.167
-271.355	285.365	-0.145	0.258
-270.340	800.000	-0.088	0.314
-269.326	-200.000	-0.018	0.240
-268.311	-14.508	-0.112	0.071
-267.297	800.000	0.039	0.167
-266.282	-51.172	-0.276	-0.128
-265.267	-85.954	-0.176	0.054
-264.253	-148.018	-0.250	0.021
-263.238	-146.927	0.311	0.026
-262.224	77.932	-0.231	0.243
-261.209	240.302	0.133	0.219
-260.195	-164.346	0.291	-0.013
-259.180	-200.000	-0.007	0.216
-258.165	-2.387	0.213	0.148
-257.151	-200.000	-0.045	0.561
-256.136	34.210	-0.106	0.091
-255.122	-200.000	0.013	0.294
-254.107	-119.485	-0.387	0.066
-253.092	45.960	-0.232	0.212
-252.078	297.914	0.142	-0.258
-251.063	-200.000	-0.007	-0.081
-250.049	34.705	0.183	-0.158
-249.034	109.035	-0.135	-0.159
-248.019	240.274	-0.046	-0.076
-247.005	-22.304	0.064	0.038
-245.990	154.519	-0.008	0.011
-244.976	-79.315	-0.151	0.050
-243.961	-83.802	-0.207	0.065
-242.946	83.568	-0.162	0.174
-241.932	274.552	-0.052	0.092
-240.917	-200.000	-0.029	0.139
-239.903	-200.000	0.022	-0.187
-238.888	-38.550	-0.141	-0.074
-237.873	-19.738	-0.263	-0.160
-236.859	225.930	0.080	-0.127
-235.844	800.000	-0.045	0.174
-234.830	-161.354	0.181	-0.009
-233.815	800.000	-0.049	0.134
-232.800	-86.849	0.086	0.026
-231.786	206.431	-0.110	0.169
-230.771	800.000	-0.021	0.065
-229.757	221.632	-0.192	-0.304
-228.742	18.992	0.236	0.187
-227.727	-132.960	-0.352	0.044
-226.713	153.004	-0.093	-0.125
-225.698	216.913	0.066	-0.103
-224.684	-200.000	0.048	0.428
-223.669	800.000	-0.110	0.312
-222.655	-74.419	0.186	0.066
-221.640	-92.941	0.070	0.019
-220.625	-200.000	0.022	0.257
-219.611	554.248	0.102	0.243
-218.596	-200.000	-0.022	-0.131
-217.582	-200.000	0.018	0.329
-216.567	73.083	0.186	0.192
-215.552	447.257	-0.057	0.123
-214.538	800.000	-0.084	0.330
-213.523	320.260	0.066	0.123
-212.509	-200.000	0.001	-0.384
-211.494	49.516	0.100	-0.093
-210.479	286.756	-0.143	0.254
-209.465	800.000	-0.089	0.329
-208.450	-9.879	-0.318	-0.209
-207.436	129.028	0.157	-0.198
-206.421	38.257	-0.144	-0.126
-205.406	-44.321	-0.091	0.045
-204.392	-200.000	0.015	0.066
-203.377	197.790	-0.221	0.332
-202.363	-200.000	0.044	0.238
-201.348	-8.318	0.189	-0.125
-200.333	112.396	-0.095	0.113
-199.319	397.179	-0.128	0.264
-198.304	325.700	-0.065	0.123
-197.290	737.165	-0.078	-0.206
-196.275	-121.811	-0.126	-0.021
-195.260	-12.958	0.328	0.210
-194.246	573.805	0.086	0.206
-193.231	140.850	0.052	-0.067
-192.217	800.000	0.059	-0.175
-191.202	753.529	-0.090	0.238
-190.187	-62.629	-0.306	0.125
-189.173	-200.000	0.052	-0.321
-188.158	280.980	0.057	-0.100
-187.144	-50.429	-0.139	0.064
-186.129	-24.788	0.200	-0.117
-185.114	-1.726	-0.417	0.289
-184.100	61.476	0.370	-0.362
-183.085	439.311	-0.163	0.350
-182.071	-50.704	-0.049	0.023
-181.056	-39.140	0.430	0.223
-180.042	-95.951	-0.016	0.004
-179.027	-200.000	0.035	-0.347
-178.012	-200.000	0.018	-0.179
-176.998	250.292	0.143	0.238
-175.983	5.743	-0.082	-0.059
-174.969	-34.823	0.154	0.083
-173.954	196.326	-0.163	-0.244
-172.939	7.984	-0.049	0.036
-171.925	-82.404	0.086	-0.028
-170.910	-64.835	0.249	-0.099
-169.896	-92.155	-0.116	-0.032
-168.881	-167.126	-0.227	0.009
-167.866	7.661	0.119	-0.088
-166.852	187.832	-0.139	-0.205
-165.837	116.497	0.128	0.154
-164.823	-71.857	0.065	0.024
-163.808	15.112	-0.191	0.147
-162.793	800.000	0.084	0.318
-161.779	800.000	0.087	-0.343
-160.764	-70.265	0.302	-0.113
-159.750	-15.555	-0.123	0.077
-158.735	5.111	0.115	0.084
-157.720	101.043	-0.055	-0.063
-156.706	41.412	-0.379	0.338
-155.691	-200.000	0.024	0.134
-154.677	248.287	-0.058	0.096
-153.662	-106.818	-0.328	-0.071
-152.647	-123.661	0.252	0.039
-151.633	-143.635	0.481	-0.045
-150.618	354.319	-0.123	-0.241
-149.604	-174.496	0.302	-0.009
-148.589	800.000	0.068	-0.255
-147.574	-58.820	0.077	0.033
-146.560	131.801	-0.011	-0.015
-145.545	-18.440	0.081	0.050
-144.531	322.880	-0.232	0.434
-143.516	-113.134	0.218	0.042
-142.502	800.000	-0.013	0.053
-141.487	-25.266	-0.059	0.034
-140.472	33.436	0.222	-0.189
-139.458	565.984	0.112	-0.267
-138.443	-200.000	0.004	-0.166
-137.429	-29.463	0.177	0.099
-136.414	-136.285	0.165	0.019
-135.399	-45.654	-0.125	-0.061
-134.385	-40.202	0.025	-0.013
-133.370	368.676	0.115	-0.228
-132.356	800.000	-0.146	-0.416
-131.341	80.349	-0.076	0.080
-130.326	215.046	-0.072	-0.112
-129.312	245.851	-0.157	0.260
-128.297	37.067	-0.090	-0.078
-127.283	53.226	0.261	0.246
-126.268	-200.000	-0.037	-0.186
-125.253	-200.000	-0.022	-0.102
-124.239	-113.562	-0.199	-0.038
-123.224	79.906	-0.146	0.154
-122.210	264.624	0.250	0.428
