DTS Sentinel unit serial number:	SN413079Multiplexer serial number:	ORYXHardware model number:	OX4-SRSoftware version number:	ORYX F/W v4.00 Oryx Data Collector v3.7.2.0data status	okinstallation	princeton_trtdifferential loss correction	single-endedforward channel	channel 1reverse channel	N/Adate	2019/09/16time	00:42:35forward acquisition time	60.00reverse acquisition time	0.00gamma	496.2192k internal	0.2334k external	0.2334temperature offset calibration	0.9974default loss term (dB/km)	0.3790temperature slope calibration	1.0000multiplexer offset coefficient	1.0000multiplexer slope coefficient	1.0000fibre end	0.00T internal ref (°C)	27.45T ext. ref 1 (°C)	9.63T ext. ref 2 (°C)	21.48length (m)	temperature (°C)	Stokes	anti-Stokes-747.200	-180.610	-0.042	0.001
-746.185	-200.000	0.036	0.197
-745.171	359.913	-0.089	-0.179
-744.156	108.769	-0.337	0.405
-743.142	-113.956	-0.138	0.027
-742.127	61.776	-0.063	0.063
-741.112	31.092	-0.281	0.243
-740.098	-121.780	-0.194	-0.032
-739.083	-112.171	-0.125	0.025
-738.069	102.552	-0.160	0.189
-737.054	135.684	0.320	-0.419
-736.039	-200.000	-0.011	-0.122
-735.025	-88.883	0.327	0.097
-734.010	-192.071	-0.187	-0.002
-732.996	-27.986	-0.077	-0.045
-731.981	-91.597	-0.129	0.037
-730.966	15.332	0.267	0.210
-729.952	-181.123	-0.231	-0.005
-728.937	-60.728	-0.178	-0.076
-727.923	23.395	0.052	0.043
-726.908	-200.000	0.029	-0.477
-725.894	-200.000	0.071	0.366
-724.879	-200.000	0.054	0.297
-723.864	-159.121	-0.196	0.011
-722.850	-170.112	0.374	0.013
-721.835	-40.143	0.080	-0.042
-720.821	-31.997	-0.153	0.086
-719.806	-123.892	0.050	0.008
-718.791	800.000	0.030	-0.125
-717.777	800.000	-0.064	0.202
-716.762	184.868	-0.202	0.301
-715.748	-63.581	-0.135	0.056
-714.733	121.908	0.029	0.037
-713.718	-195.176	0.082	-0.001
-712.704	-16.673	-0.154	-0.098
-711.689	-101.195	-0.220	-0.054
-710.675	-200.000	0.009	0.052
-709.660	115.579	-0.074	-0.090
-708.645	-200.000	0.009	0.153
-707.631	800.000	0.101	0.302
-706.616	297.322	-0.109	-0.200
-705.602	398.573	0.013	0.027
-704.587	-200.000	0.006	0.076
-703.572	-123.667	-0.193	0.031
-702.558	-47.603	-0.334	0.163
-701.543	-200.000	-0.020	-0.089
-700.529	-200.000	0.010	-0.448
-699.514	77.057	0.078	-0.083
-698.499	66.842	0.172	-0.175
-697.485	-120.463	-0.120	0.020
-696.470	-58.263	-0.173	0.076
-695.456	-122.002	-0.103	-0.017
-694.441	48.523	-0.115	0.109
-693.426	-200.000	0.001	0.382
-692.412	-85.449	0.051	0.016
-691.397	119.974	0.129	0.161
-690.383	131.456	-0.223	0.287
-689.368	-152.151	0.009	-0.001
-688.354	-97.365	-0.096	0.025
-687.339	-7.341	0.060	0.041
-686.324	40.442	0.083	-0.075
-685.310	-77.201	0.365	0.127
-684.295	24.541	0.215	-0.179
-683.281	-200.000	-0.013	0.165
-682.266	88.006	0.141	0.157
-681.251	-45.381	-0.215	0.107
-680.237	800.000	0.074	-0.221
-679.222	47.145	-0.054	-0.050
-678.208	-95.277	-0.265	-0.071
-677.193	149.295	0.003	0.004
-676.178	-25.193	0.223	-0.133
-675.164	-35.533	-0.081	0.044
-674.149	800.000	0.077	-0.228
-673.135	-65.927	-0.325	0.130
-672.120	-178.444	0.103	-0.002
-671.105	440.274	-0.149	-0.327
-670.091	800.000	0.135	0.409
-669.076	800.000	0.061	-0.168
-668.062	67.575	-0.028	-0.029
-667.047	260.508	-0.041	-0.072
-666.032	-12.997	0.081	-0.053
-665.018	-16.243	0.317	-0.202
-664.003	-12.642	0.102	-0.067
-662.989	-48.782	-0.266	0.128
-661.974	60.676	0.067	-0.066
-660.959	167.197	0.196	0.279
-659.945	-200.000	0.000	0.226
-658.930	-88.427	-0.098	0.029
-657.916	222.558	-0.189	-0.305
-656.901	-200.000	-0.047	-0.237
-655.886	-116.593	0.225	0.041
-654.872	800.000	-0.041	0.177
-653.857	-135.226	0.052	-0.006
-652.843	-116.067	0.071	-0.013
-651.828	-120.374	0.132	-0.022
-650.814	-67.252	0.111	0.044
-649.799	-111.667	0.165	0.034
-648.784	15.453	0.131	0.103
-647.770	486.524	0.098	-0.224
-646.755	-119.181	-0.367	0.064
-645.741	-56.583	0.197	0.087
-644.726	50.515	-0.290	0.275
-643.711	-24.806	0.059	-0.035
-642.697	800.000	0.086	0.319
-641.682	574.547	-0.138	0.338
-640.668	-47.820	-0.148	-0.072
-639.653	-88.162	-0.079	0.024
-638.638	-200.000	0.017	0.332
-637.624	-155.279	-0.187	0.012
-636.609	151.300	-0.134	0.183
-635.595	-100.064	0.423	0.106
-634.580	-4.223	-0.073	-0.051
-633.565	-97.427	0.412	-0.107
-632.551	-200.000	0.019	-0.111
-631.536	-117.856	-0.069	0.012
-630.522	-93.416	-0.106	0.029
-629.507	-55.443	-0.150	0.068
-628.492	206.281	0.028	-0.044
-627.478	-149.668	-0.085	0.007
-626.463	800.000	0.118	0.368
-625.449	800.000	-0.021	-0.079
-624.434	36.254	0.111	-0.098
-623.419	-3.001	-0.338	0.236
-622.405	-162.934	0.232	0.011
-621.390	-200.000	0.006	-0.088
-620.376	136.825	-0.109	0.143
-619.361	-200.000	0.019	-0.220
-618.346	-50.132	0.261	0.124
-617.332	131.184	-0.129	0.165
-616.317	-0.739	0.151	-0.107
-615.303	-200.000	0.002	-0.074
-614.288	2.323	-0.074	0.053
-613.273	36.824	0.071	-0.062
-612.259	-200.000	0.024	0.190
-611.244	-60.171	-0.088	-0.038
-610.230	-13.937	0.033	0.021
-609.215	-196.721	0.338	-0.002
-608.201	665.791	-0.022	-0.056
-607.186	-103.682	-0.103	-0.024
-606.171	144.903	0.080	0.106
-605.157	145.692	-0.191	0.255
-604.142	70.686	-0.153	0.158
-603.128	422.082	0.091	-0.196
-602.113	-98.476	-0.372	0.095
-601.098	168.936	-0.082	-0.118
-600.084	-76.223	0.233	-0.082
-599.069	800.000	-0.028	-0.103
-598.055	78.524	0.325	-0.347
-597.040	-27.729	-0.180	0.104
-596.025	-56.609	-0.203	0.090
-595.011	-200.000	-0.039	0.383
-593.996	39.959	-0.206	-0.185
-592.982	7.464	0.174	0.130
-591.967	800.000	-0.108	-0.389
-590.952	-200.000	-0.038	-0.330
-589.938	151.228	-0.073	0.099
-588.923	342.434	-0.054	0.106
-587.909	-200.000	-0.002	-0.172
-586.894	-98.557	-0.220	-0.056
-585.879	-84.345	0.289	0.091
-584.865	-24.002	-0.191	-0.114
-583.850	800.000	0.105	-0.349
-582.836	-157.079	0.205	0.012
-581.821	427.702	-0.072	0.156
-580.806	-200.000	-0.044	0.263
-579.792	39.762	-0.216	-0.194
-578.777	375.768	0.034	-0.070
-577.763	-20.037	0.323	-0.199
-576.748	-126.541	0.180	0.027
-575.733	205.386	0.253	0.392
-574.719	561.637	0.027	0.064
-573.704	95.218	0.156	-0.178
-572.690	13.377	-0.259	0.201
-571.675	347.373	-0.095	-0.187
-570.661	250.647	-0.135	0.228
-569.646	326.603	0.205	-0.391
-568.631	659.829	-0.047	-0.120
-567.617	-164.627	-0.167	0.008
-566.602	90.717	-0.119	0.134
-565.588	-129.845	-0.164	0.023
-564.573	46.348	0.253	0.234
-563.558	-200.000	-0.046	-0.246
-562.544	-59.415	0.132	-0.057
-561.529	800.000	-0.054	-0.167
-560.515	224.688	0.089	0.143
-559.500	-0.144	-0.406	-0.288
-558.485	-31.740	-0.431	0.241
-557.471	-28.479	-0.152	-0.087
-556.456	-81.990	0.120	0.039
-555.442	-200.000	0.005	0.143
-554.427	-97.011	0.345	-0.090
-553.412	-152.249	-0.135	0.010
-552.398	3.015	-0.197	0.143
-551.383	201.851	0.068	-0.105
-550.369	-115.794	-0.180	0.034
-549.354	-24.321	-0.137	-0.081
-548.339	9.326	-0.080	0.061
-547.325	-109.193	-0.309	0.065
-546.310	44.535	0.095	0.087
-545.296	99.012	-0.117	-0.135
-544.281	-36.822	-0.258	-0.138
-543.266	-67.098	-0.117	-0.046
-542.252	800.000	0.047	-0.177
-541.237	86.005	0.063	-0.070
-540.223	-45.472	-0.150	0.074
-539.208	-29.539	-0.237	0.135
-538.193	89.568	-0.100	-0.111
-537.179	-116.381	-0.420	0.077
-536.164	112.764	0.058	0.071
-535.150	2.337	0.195	0.140
-534.135	300.635	0.025	0.045
-533.121	-125.594	-0.242	-0.037
-532.106	196.663	-0.204	-0.310
-531.091	55.947	0.133	0.129
-530.077	-36.535	-0.179	-0.096
-529.062	-200.000	0.031	-0.148
-528.048	-101.528	0.257	-0.062
-527.033	800.000	0.080	0.231
-526.018	-109.146	-0.304	-0.064
-525.004	-107.508	-0.356	-0.078
-523.989	141.094	-0.123	-0.162
-522.975	136.423	0.168	0.219
-521.960	27.598	0.134	0.112
-520.945	800.000	-0.073	0.200
-519.931	-28.413	-0.246	0.142
-518.916	31.630	-0.298	-0.255
-517.902	-100.555	-0.080	0.020
-516.887	-32.684	-0.254	-0.141
-515.872	-22.004	0.170	-0.103
-514.858	258.556	0.055	-0.095
-513.843	0.037	-0.371	0.263
-512.829	800.000	-0.057	0.182
-511.814	-108.647	0.344	0.074
-510.799	-118.818	0.251	0.044
-509.785	-68.610	-0.245	0.094
-508.770	11.057	-0.201	-0.153
-507.756	-75.848	0.115	0.041
-506.741	-128.672	-0.321	-0.045
-505.726	800.000	0.059	-0.249
-504.712	800.000	-0.012	0.047
-503.697	188.647	0.137	0.204
-502.683	130.383	0.059	0.075
-501.668	-164.806	-0.342	-0.015
-500.653	357.452	0.041	-0.082
-499.639	-4.595	0.219	-0.150
-498.624	432.666	-0.136	-0.294
-497.610	-146.025	0.135	-0.012
-496.595	421.679	0.056	0.119
-495.581	-45.878	0.064	0.032
-494.566	-56.844	-0.142	0.062
-493.551	-169.736	-0.182	-0.007
-492.537	-57.806	-0.386	-0.168
-491.522	-16.302	0.163	0.103
-490.508	101.349	0.222	0.258
-489.493	-140.499	0.109	-0.011
-488.478	21.046	0.243	0.196
-487.464	-89.065	0.273	0.080
-486.449	-200.000	0.060	-0.411
-485.435	-200.000	-0.048	-0.486
-484.420	39.592	-0.237	-0.211
-483.405	-123.773	-0.117	0.018
-482.391	800.000	0.038	-0.149
-481.376	-90.275	-0.053	-0.015
-480.362	336.459	-0.048	0.092
-479.347	-68.040	0.308	0.119
-478.332	90.058	-0.230	-0.255
-477.318	-200.000	-0.050	0.327
-476.303	-111.061	-0.260	-0.053
-475.289	-200.000	-0.093	-0.445
-474.274	-122.650	-0.114	-0.018
-473.259	34.528	-0.038	-0.033
-472.245	18.871	-0.078	-0.062
-471.230	66.533	-0.150	0.152
-470.216	266.078	0.263	0.456
-469.201	147.314	-0.028	0.037
-468.186	33.906	0.131	-0.113
-467.172	231.311	0.063	-0.103
-466.157	-161.843	-0.468	-0.024
-465.143	-88.541	0.120	-0.036
-464.128	-118.025	0.197	0.035
-463.113	60.001	0.162	0.159
-462.099	-200.000	-0.014	0.265
-461.084	98.618	-0.207	-0.238
-460.070	800.000	-0.032	0.103
-459.055	-200.000	0.049	0.405
-458.040	-2.233	-0.117	0.081
-457.026	-141.216	0.113	0.011
-456.011	599.441	0.155	0.382
-454.997	-153.133	-0.119	-0.008
-453.982	-19.067	-0.459	0.283
-452.968	7.167	-0.150	0.111
-451.953	149.258	0.121	-0.163
-450.938	189.284	0.064	-0.096
-449.924	17.354	-0.213	-0.168
-448.909	429.549	0.101	-0.218
-447.895	-74.538	0.193	0.069
-446.880	756.080	0.121	-0.326
-445.865	96.954	0.043	-0.049
-444.851	-85.170	-0.072	0.022
-443.836	-200.000	-0.080	0.358
-442.822	56.754	0.354	0.342
-441.807	249.081	0.125	-0.210
-440.792	-200.000	0.050	0.286
-439.778	-200.000	-0.002	-0.412
-438.763	57.480	-0.089	0.086
-437.749	523.391	-0.121	-0.281
-436.734	77.162	-0.156	0.164
-435.719	-200.000	0.030	-0.205
-434.705	-30.975	0.225	0.126
-433.690	-146.709	0.132	-0.011
-432.676	72.349	-0.169	-0.175
-431.661	-200.000	-0.001	0.147
-430.646	-106.419	-0.211	0.047
-429.632	15.745	0.189	0.147
-428.617	-39.723	0.262	0.136
-427.603	147.452	-0.025	-0.033
-426.588	-76.683	0.125	-0.044
-425.573	-22.003	-0.338	-0.204
-424.559	-39.065	-0.252	0.132
-423.544	30.131	-0.024	-0.020
-422.530	-115.332	-0.492	-0.092
-421.515	-153.427	-0.155	-0.011
-420.500	35.905	0.193	-0.169
-419.486	-1.260	-0.242	0.169
-418.471	-183.366	0.147	-0.003
-417.457	-70.270	-0.213	0.080
-416.442	-152.802	-0.249	0.018
-415.428	800.000	0.052	-0.179
-414.413	4.068	-0.072	-0.052
-413.398	410.162	-0.112	0.236
-412.384	201.710	0.186	-0.284
-411.369	-93.072	0.076	0.021
-410.355	462.317	0.050	-0.110
-409.340	-200.000	0.031	-0.183
-408.325	360.672	-0.059	-0.117
-407.311	15.378	0.075	-0.058
-406.296	-146.720	0.149	-0.013
-405.282	-12.139	0.127	-0.082
-404.267	-147.873	0.400	0.033
-403.252	307.909	0.156	-0.289
-402.238	-4.837	-0.085	0.058
-401.223	-182.306	0.232	0.004
-400.209	58.573	-0.188	-0.183
-399.194	-1.351	-0.163	0.114
-398.179	-182.064	0.072	-0.001
-397.165	-200.000	0.006	-0.387
-396.150	147.783	-0.197	-0.264
-395.136	-8.171	0.243	0.162
-394.121	109.150	0.185	0.219
-393.106	198.007	0.247	-0.374
-392.092	345.159	-0.068	-0.132
-391.077	20.609	-0.101	-0.081
-390.063	166.431	0.104	0.147
-389.048	-200.000	0.002	0.032
-388.033	-158.249	0.195	0.011
-387.019	800.000	0.028	-0.087
-386.004	800.000	0.127	-0.377
-384.990	-173.646	-0.285	0.008
-383.975	800.000	-0.021	-0.060
-382.960	-89.467	0.028	0.008
-381.946	-72.117	-0.125	0.046
-380.931	-67.758	0.169	-0.065
-379.917	-5.036	0.135	0.092
-378.902	339.705	0.072	-0.139
-377.888	129.547	0.088	0.111
-376.873	-200.000	0.009	0.185
-375.858	174.824	0.150	-0.215
-374.844	800.000	0.138	0.415
-373.829	296.395	0.069	0.126
-372.815	45.823	0.170	-0.156
-371.800	4.177	-0.043	0.031
-370.785	-110.350	0.242	-0.050
-369.771	-23.315	-0.123	0.073
-368.756	800.000	0.020	-0.055
-367.742	-11.252	0.160	0.105
-366.727	-6.287	0.297	-0.201
-365.712	-122.669	-0.322	-0.052
-364.698	265.126	0.087	0.151
-363.683	159.569	-0.159	0.220
-362.669	-200.000	-0.013	0.079
-361.654	-139.897	-0.111	-0.012
-360.639	-108.795	0.381	-0.081
-359.625	-200.000	-0.036	0.194
-358.610	-100.095	0.238	-0.059
-357.596	455.050	-0.178	0.391
-356.581	-23.362	0.164	-0.098
-355.566	714.181	0.059	0.154
-354.552	787.302	0.219	0.594
-353.537	-200.000	0.003	-0.236
-352.523	66.260	0.237	0.238
-351.508	800.000	-0.015	-0.052
-350.493	55.174	-0.105	0.100
-349.479	-200.000	0.100	0.699
-348.464	778.860	0.080	0.217
-347.450	-144.979	0.429	-0.039
-346.435	-200.000	-0.024	-0.257
-345.420	410.374	-0.033	-0.069
-344.406	-91.565	0.056	-0.016
-343.391	800.000	0.069	-0.209
-342.377	-42.063	-0.304	-0.154
-341.362	-88.523	0.282	0.083
-340.348	-200.000	-0.002	0.157
-339.333	-24.374	-0.133	-0.078
-338.318	425.296	-0.080	0.170
-337.304	77.799	-0.198	0.209
-336.289	800.000	-0.081	-0.268
-335.275	-200.000	0.000	-0.229
-334.260	-200.000	0.000	-0.039
-333.245	37.952	-0.094	-0.083
-332.231	-20.274	0.238	-0.145
-331.216	10.805	0.013	0.010
-330.202	-200.000	-0.068	0.569
-329.187	163.299	0.034	0.048
-328.172	-121.262	-0.187	-0.031
-327.158	-200.000	0.008	-0.096
-326.143	385.940	0.098	0.199
-325.129	-80.055	-0.187	-0.062
-324.114	498.577	-0.050	0.114
-323.099	682.553	0.110	-0.283
-322.085	149.239	0.203	0.272
-321.070	667.797	-0.058	-0.147
-320.056	53.485	0.237	0.224
-319.041	-88.616	-0.190	0.056
-318.026	-94.803	0.260	0.070
-317.012	-200.000	-0.243	-0.000
-315.997	125.570	0.123	-0.154
-314.983	800.000	0.056	-0.164
-313.968	-106.927	-0.078	-0.017
-312.953	-184.216	-0.083	-0.001
-311.939	-200.000	0.012	0.095
-310.924	159.916	0.026	-0.036
-309.910	-71.706	-0.129	-0.048
-308.895	-164.868	-0.101	-0.004
-307.880	94.232	-0.063	0.070
-306.866	-200.000	0.023	0.205
-305.851	195.655	-0.176	-0.265
-304.837	-200.000	0.018	-0.181
-303.822	560.477	0.027	-0.063
-302.807	-200.000	-0.043	0.284
-301.793	48.276	-0.418	0.386
-300.778	109.005	0.115	-0.136
-299.764	800.000	-0.022	0.097
-298.749	-200.000	-0.066	-0.287
-297.735	81.322	0.098	0.104
-296.720	-200.000	-0.009	0.049
-295.705	-107.273	-0.121	-0.026
-294.691	244.236	0.067	-0.111
-293.676	-200.000	-0.004	0.057
-292.662	-40.175	0.140	-0.072
-291.647	-82.025	-0.294	0.095
-290.632	235.423	-0.100	0.164
-289.618	-200.000	0.005	-0.118
-288.603	73.435	-0.112	0.115
-287.589	-149.311	-0.195	-0.015
-286.574	-200.000	0.030	-0.218
-285.559	-200.000	0.014	0.198
-284.545	-87.700	-0.083	-0.025
-283.530	800.000	0.074	-0.244
-282.516	429.671	-0.040	0.086
-281.501	-65.536	0.469	-0.186
-280.486	11.722	0.290	0.220
-279.472	162.580	0.079	0.110
-278.457	49.685	0.231	0.215
-277.443	-166.774	0.434	-0.018
-276.428	159.253	0.077	-0.106
-275.413	-96.286	-0.095	-0.025
-274.399	-21.857	0.109	0.066
-273.384	520.309	-0.103	0.239
-272.370	-154.470	-0.200	0.013
-271.355	-5.226	0.209	0.142
-270.340	800.000	0.061	-0.173
-269.326	48.537	0.340	-0.315
-268.311	517.784	0.065	-0.150
-267.297	204.586	0.162	0.247
-266.282	-200.000	-0.005	0.124
-265.267	685.949	0.068	0.175
-264.253	-200.000	-0.053	0.234
-263.238	-39.127	0.331	-0.172
-262.224	432.002	0.103	-0.219
-261.209	800.000	-0.076	-0.216
-260.195	-200.000	0.000	0.028
-259.180	315.500	0.130	-0.242
-258.165	-200.000	0.043	-0.202
-257.151	-75.626	-0.102	0.036
-256.136	277.003	-0.032	0.055
-255.122	-82.253	-0.121	-0.039
-254.107	-200.000	-0.006	-0.321
-253.092	3.378	0.279	0.201
-252.078	-34.338	0.336	-0.182
-251.063	40.634	-0.311	-0.276
-250.049	3.125	-0.220	-0.158
-249.034	74.887	0.126	0.131
-248.019	167.387	-0.061	0.085
-247.005	-162.152	-0.219	0.011
-245.990	-3.413	0.041	0.028
-244.976	-200.000	0.005	0.062
-243.961	-19.661	-0.326	-0.198
-242.946	800.000	0.045	-0.171
-241.932	168.662	0.147	-0.206
-240.917	421.592	-0.187	-0.395
-239.903	74.600	0.125	-0.130
-238.888	-200.000	0.011	-0.217
-237.873	800.000	-0.051	0.166
-236.859	149.217	-0.208	0.278
-235.844	-30.554	-0.225	0.126
-234.830	-112.595	0.294	-0.058
-233.815	-200.000	-0.008	0.072
-232.800	-82.569	0.114	0.036
-231.786	110.154	0.199	-0.235
-230.771	-72.051	0.085	-0.031
-229.757	-58.993	0.162	-0.069
-228.742	-200.000	-0.007	-0.083
-227.727	-116.181	0.313	-0.057
-226.713	87.337	0.130	-0.142
-225.698	800.000	-0.047	-0.175
-224.684	-106.078	-0.256	-0.057
-223.669	-200.000	-0.044	-0.235
-222.655	-23.002	-0.090	-0.053
-221.640	37.301	-0.145	-0.127
-220.625	-200.000	-0.053	-0.234
-219.611	72.896	-0.090	0.092
-218.596	42.572	-0.155	-0.139
-217.582	251.504	0.119	0.200
-216.567	-200.000	-0.079	-0.365
-215.552	27.115	0.060	0.050
-214.538	800.000	0.116	-0.385
-213.523	509.899	-0.062	0.143
-212.509	-162.525	0.138	-0.007
-211.494	402.011	-0.126	-0.260
-210.479	85.079	0.247	0.267
-209.465	604.890	0.099	-0.242
-208.450	-51.886	0.344	0.157
-207.436	800.000	0.024	0.085
-206.421	277.307	0.194	0.339
-205.406	-200.000	-0.010	-0.203
-204.392	-112.724	-0.118	-0.023
-203.377	-200.000	-0.031	-0.237
-202.363	-9.645	0.094	0.062
-201.348	88.155	-0.143	-0.156
-200.333	23.150	-0.246	0.199
-199.319	-93.138	-0.063	-0.017
-198.304	153.486	-0.120	0.161
-197.290	107.150	0.221	0.258
-196.275	316.128	-0.108	-0.200
-195.260	-104.271	0.346	0.079
-194.246	-200.000	-0.020	-0.237
-193.231	-151.148	0.207	0.015
-192.217	-84.360	0.346	-0.108
-191.202	352.983	0.105	0.205
-190.187	175.252	0.058	0.083
-189.173	24.322	-0.209	-0.170
-188.158	-154.269	0.291	0.019
-187.144	-17.638	0.224	0.139
-186.129	-142.049	0.246	-0.024
-185.114	800.000	-0.025	0.089
-184.100	-69.234	-0.286	0.108
-183.085	-185.861	-0.263	0.004
-182.071	-107.129	0.179	0.039
-181.056	-91.324	0.115	0.032
-180.042	-109.479	-0.159	-0.033
-179.027	124.808	0.044	-0.054
-178.012	83.493	-0.197	-0.211
-176.998	7.539	0.016	-0.012
-175.983	-200.000	0.090	0.500
-174.969	-200.000	-0.007	0.130
-173.954	-200.000	-0.036	0.329
-172.939	-200.000	0.028	-0.234
-171.925	10.995	-0.169	0.127
-170.910	-67.564	-0.176	0.068
-169.896	-14.805	0.073	-0.046
-168.881	603.587	0.164	0.401
-167.866	-68.322	-0.241	-0.092
-166.852	-96.987	-0.492	0.127
-165.837	-26.923	-0.114	0.065
-164.823	-7.385	0.238	0.158
-163.808	-16.914	0.212	0.132
-162.793	-144.361	0.246	-0.022
-161.779	-81.895	0.371	-0.119
-160.764	-89.166	-0.337	-0.098
-159.750	-86.358	0.282	0.085
-158.735	654.558	-0.066	-0.166
-157.720	-200.000	0.057	0.372
-156.706	-200.000	-0.025	0.125
-155.691	-33.043	-0.086	-0.047
-154.677	-200.000	-0.028	-0.150
-153.662	-63.615	-0.395	-0.159
-152.647	396.643	0.064	0.132
-151.633	-149.779	0.213	0.016
-150.618	100.746	-0.161	0.184
-149.604	-200.000	-0.008	0.141
-148.589	338.377	0.093	-0.177
-147.574	-160.838	0.062	0.003
-146.560	16.673	0.151	-0.117
-145.545	166.679	0.098	0.136
-144.531	88.260	0.059	0.064
-143.516	7.394	-0.173	-0.127
-142.502	123.595	0.234	0.289
-141.487	513.029	0.092	-0.211
-140.472	-164.066	-0.176	0.008
-139.458	800.000	-0.133	0.467
-138.443	341.316	-0.187	0.359
-137.429	130.918	0.108	0.136
-136.414	-139.975	0.255	-0.026
-135.399	190.625	0.167	0.246
-134.385	-91.245	-0.118	0.033
-133.370	-190.674	-0.427	-0.004
-132.356	-200.000	-0.045	0.292
-131.341	-200.000	-0.035	0.268
-130.326	-4.211	-0.185	0.125
-129.312	76.466	-0.176	0.183
-128.297	-162.666	0.213	-0.010
-127.283	177.407	0.080	-0.114
-126.268	-200.000	-0.006	0.404
-125.253	21.039	-0.243	0.194
-124.239	-81.221	0.116	-0.038
-123.224	-200.000	-0.029	0.173
-122.210	146.009	0.267	0.351
-121.195	-68.648	-0.214	-0.081
