DTS Sentinel unit serial number:	SN413079Multiplexer serial number:	ORYXHardware model number:	OX4-SRSoftware version number:	ORYX F/W v4.00 Oryx Data Collector v3.7.2.0data status	okinstallation	princeton_trtdifferential loss correction	single-endedforward channel	channel 1reverse channel	N/Adate	2019/09/18time	23:50:35forward acquisition time	60.00reverse acquisition time	0.00gamma	496.2192k internal	0.2343k external	0.2343temperature offset calibration	1.0021default loss term (dB/km)	0.3790temperature slope calibration	1.0000multiplexer offset coefficient	1.0000multiplexer slope coefficient	1.0000fibre end	0.00T internal ref (°C)	23.28T ext. ref 1 (°C)	0.76T ext. ref 2 (°C)	16.16length (m)	temperature (°C)	Stokes	anti-Stokes-747.200	-200.000	-0.018	0.182
-746.185	189.123	0.041	0.061
-745.171	733.291	-0.055	-0.148
-744.156	-107.463	-0.044	0.010
-743.142	-136.326	0.122	-0.014
-742.127	800.000	-0.110	0.373
-741.112	-200.000	-0.025	0.155
-740.098	116.081	0.065	-0.080
-739.083	100.027	-0.251	0.291
-738.069	77.662	0.156	0.167
-737.054	800.000	0.114	0.315
-736.039	177.063	-0.139	0.203
-735.025	800.000	-0.061	0.250
-734.010	168.189	-0.295	-0.421
-732.996	-200.000	0.016	-0.153
-731.981	-117.762	-0.098	0.018
-730.966	82.371	-0.119	0.129
-729.952	39.607	-0.098	-0.088
-728.937	-108.275	-0.132	0.029
-727.923	664.238	0.073	-0.189
-726.908	-200.000	-0.018	0.243
-725.894	467.794	0.103	0.231
-724.879	-1.612	0.311	-0.219
-723.864	72.610	-0.054	0.056
-722.850	308.608	0.093	-0.173
-721.835	-104.094	0.294	-0.068
-720.821	-200.000	0.037	0.261
-719.806	195.158	-0.153	-0.232
-718.791	-200.000	0.048	0.242
-717.777	-200.000	0.059	0.317
-716.762	59.660	-0.326	-0.322
-715.748	-104.156	0.086	0.020
-714.733	-192.018	-0.363	-0.004
-713.718	11.474	-0.170	-0.130
-712.704	36.491	-0.224	0.197
-711.689	-200.000	0.031	-0.177
-710.675	250.795	-0.117	0.200
-709.660	38.485	0.297	-0.264
-708.645	-200.000	0.054	-0.359
-707.631	-148.893	-0.168	0.014
-706.616	-52.554	0.231	-0.107
-705.602	-66.004	-0.261	-0.104
-704.587	29.813	-0.122	0.104
-703.572	-10.625	0.370	-0.245
-702.558	336.321	0.061	-0.118
-701.543	-200.000	-0.006	0.125
-700.529	-95.098	-0.077	-0.021
-699.514	-147.641	0.259	-0.022
-698.499	-45.979	0.034	-0.017
-697.485	-200.000	-0.021	-0.218
-696.470	-116.031	0.274	0.051
-695.456	800.000	-0.084	-0.310
-694.441	-200.000	-0.035	-0.398
-693.426	145.786	-0.150	-0.201
-692.412	22.480	0.250	-0.204
-691.397	-187.595	0.149	0.002
-690.383	80.040	-0.204	-0.219
-689.368	370.202	0.010	-0.020
-688.354	58.803	0.224	0.220
-687.339	181.703	-0.172	-0.253
-686.324	-147.906	-0.129	0.011
-685.310	-200.000	0.027	-0.217
-684.295	-107.454	-0.222	-0.049
-683.281	287.694	0.288	-0.520
-682.266	-9.175	-0.176	0.118
-681.251	-106.118	-0.267	0.060
-680.237	27.363	-0.082	0.068
-679.222	-200.000	0.052	0.412
-678.208	800.000	0.104	-0.408
-677.193	-5.800	-0.174	-0.119
-676.178	101.750	-0.021	-0.024
-675.164	21.643	-0.084	-0.068
-674.149	-109.586	-0.112	0.024
-673.135	464.461	0.135	-0.302
-672.120	-64.478	0.161	-0.065
-671.105	-59.359	-0.118	-0.051
-670.091	-200.000	0.208	0.001
-669.076	-200.000	0.053	-0.258
-668.062	72.078	-0.094	0.097
-667.047	257.462	0.099	-0.171
-666.032	280.311	-0.184	-0.329
-665.018	-2.076	0.103	-0.072
-664.003	-61.445	-0.055	-0.023
-662.989	30.166	-0.093	-0.079
-661.974	-33.326	0.139	0.077
-660.959	-69.429	0.201	0.077
-659.945	393.892	-0.071	0.147
-658.930	106.698	-0.261	0.310
-657.916	-27.407	0.078	-0.045
-656.901	224.870	-0.069	-0.111
-655.886	369.045	0.059	-0.119
-654.872	63.246	0.085	-0.085
-653.857	306.949	-0.131	-0.243
-652.843	-14.450	0.154	0.099
-651.828	-17.832	0.141	0.088
-650.814	-200.000	0.017	-0.097
-649.799	-52.218	-0.152	0.071
-648.784	-79.505	-0.205	-0.069
-647.770	-80.818	-0.224	0.074
-646.755	-93.145	-0.250	-0.070
-645.741	-34.223	-0.073	0.040
-644.726	-200.000	0.003	0.294
-643.711	-109.578	-0.437	0.092
-642.697	800.000	0.038	-0.135
-641.682	-200.000	0.041	-0.191
-640.668	-200.000	0.063	-0.376
-639.653	800.000	-0.065	0.205
-638.638	-200.000	0.072	0.352
-637.624	-44.428	0.279	-0.139
-636.609	526.542	-0.061	-0.143
-635.595	385.603	0.098	-0.201
-634.580	-151.838	0.468	-0.034
-633.565	227.357	0.072	-0.117
-632.551	-166.488	-0.546	0.023
-631.536	-118.667	0.271	0.048
-630.522	19.838	0.173	-0.139
-629.507	-129.301	-0.097	-0.013
-628.492	130.591	-0.038	0.049
-627.478	-146.104	0.053	0.005
-626.463	67.865	-0.091	0.093
-625.449	162.884	-0.163	-0.228
-624.434	-61.241	0.226	0.095
-623.419	-63.238	-0.426	-0.175
-622.405	273.758	-0.219	-0.387
-621.390	-107.813	0.033	-0.007
-620.376	520.006	0.064	-0.150
-619.361	198.455	0.211	0.321
-618.346	2.207	-0.204	-0.147
-617.332	800.000	-0.027	0.113
-616.317	800.000	-0.043	-0.185
-615.303	367.368	0.153	0.308
-614.288	-61.450	-0.210	0.088
-613.273	800.000	0.030	-0.101
-612.259	800.000	-0.145	0.446
-611.244	800.000	-0.146	-0.411
-610.230	385.193	-0.169	-0.347
-609.215	24.230	0.144	0.119
-608.201	-146.258	0.267	0.023
-607.186	800.000	0.034	-0.122
-606.171	386.735	0.184	0.378
-605.157	39.926	0.371	0.332
-604.142	-102.361	-0.190	0.045
-603.128	353.188	0.058	-0.114
-602.113	549.013	0.132	0.314
-601.098	-200.000	0.000	-0.088
-600.084	-200.000	0.010	0.252
-599.069	-200.000	-0.039	0.270
-598.055	-112.639	-0.319	-0.063
-597.040	-63.897	0.215	0.088
-596.025	-20.195	-0.033	0.021
-595.011	77.196	-0.209	-0.221
-593.996	44.840	-0.164	-0.151
-592.982	75.642	0.328	-0.345
-591.967	-200.000	0.002	-0.268
-590.952	-24.490	-0.135	-0.080
-589.938	73.834	-0.108	0.113
-588.923	800.000	0.020	0.078
-587.909	-75.261	-0.102	0.036
-586.894	108.763	-0.110	0.130
-585.879	-200.000	0.023	0.421
-584.865	240.450	-0.065	0.107
-583.850	540.051	-0.103	0.243
-582.836	-58.002	-0.237	0.103
-581.821	-200.000	-0.006	0.306
-580.806	-200.000	-0.028	0.219
-579.792	-200.000	0.072	0.449
-578.777	-54.028	-0.392	-0.177
-577.763	800.000	0.028	0.102
-576.748	-165.440	-0.135	-0.006
-575.733	-90.317	0.186	-0.054
-574.719	-200.000	-0.017	-0.226
-573.704	800.000	0.028	0.083
-572.690	-114.679	-0.158	0.030
-571.675	104.919	0.087	-0.102
-570.661	71.511	0.231	-0.238
-569.646	255.635	0.130	-0.222
-568.631	-129.016	0.271	-0.038
-567.617	-15.873	-0.123	0.078
-566.602	84.369	-0.121	-0.131
-565.588	-4.732	-0.250	-0.172
-564.573	-200.000	-0.029	-0.164
-563.558	-0.869	0.320	-0.225
-562.544	-105.546	-0.330	0.075
-561.529	-63.713	0.065	0.026
-560.515	56.678	-0.165	-0.159
-559.500	-200.000	0.031	-0.318
-558.485	-200.000	0.040	0.286
-557.471	-117.544	0.222	0.040
-556.456	800.000	0.053	0.207
-555.442	-33.995	0.102	-0.056
-554.427	-66.181	-0.033	0.013
-553.412	-200.000	0.018	-0.098
-552.398	77.348	0.083	-0.088
-551.383	112.775	0.065	0.078
-550.369	511.072	0.101	0.233
-549.354	302.992	0.007	0.013
-548.339	-57.399	0.162	-0.071
-547.325	14.688	-0.221	0.172
-546.310	-9.298	0.164	-0.109
-545.296	-200.000	-0.018	-0.173
-544.281	-91.712	-0.172	0.049
-543.266	-35.155	-0.250	-0.135
-542.252	-74.337	-0.290	-0.104
-541.237	-200.000	-0.049	-0.242
-540.223	-33.601	0.144	-0.079
-539.208	-165.827	-0.157	0.007
-538.193	-94.154	0.248	0.067
-537.179	-200.000	0.018	-0.241
-536.164	-11.741	-0.156	-0.102
-535.150	-5.370	0.168	0.115
-534.135	-51.255	-0.112	0.052
-533.121	30.616	-0.052	0.045
-532.106	106.487	-0.157	-0.185
-531.091	-41.215	-0.364	0.187
-530.077	90.910	0.119	-0.133
-529.062	150.688	0.101	0.136
-528.048	152.811	-0.118	0.160
-527.033	93.901	0.163	-0.183
-526.018	359.881	-0.070	-0.140
-525.004	-200.000	-0.003	0.204
-523.989	82.492	0.091	0.098
-522.975	272.141	0.037	-0.064
-521.960	-109.720	0.279	0.058
-520.945	311.590	-0.100	-0.186
-519.931	800.000	0.092	-0.396
-518.916	-4.774	-0.099	0.068
-517.902	207.536	-0.151	0.234
-516.887	629.729	0.007	0.018
-515.872	53.886	-0.015	-0.015
-514.858	-200.000	0.013	0.062
-513.843	-4.551	-0.378	-0.259
-512.829	800.000	0.081	0.230
-511.814	-38.966	-0.119	0.062
-510.799	150.894	-0.094	-0.127
-509.785	800.000	-0.038	0.127
-508.770	-155.509	0.166	-0.011
-507.756	229.694	0.013	-0.022
-506.741	414.956	0.109	-0.231
-505.726	-65.119	0.340	-0.136
-504.712	-200.000	0.008	-0.188
-503.697	-155.986	-0.281	0.018
-502.683	-1.831	-0.221	-0.154
-501.668	-112.739	0.319	-0.063
-500.653	130.010	-0.084	0.107
-499.639	-157.496	-0.213	0.013
-498.624	202.390	0.031	-0.047
-497.610	-200.000	-0.007	0.058
-496.595	-0.930	0.227	-0.160
-495.581	-194.703	-0.045	0.000
-494.566	-69.131	-0.186	-0.071
-493.551	-77.205	-0.110	0.038
-492.537	144.314	-0.065	-0.086
-491.522	221.878	-0.148	0.235
-490.508	103.565	0.240	-0.279
-489.493	577.660	-0.127	-0.308
-488.478	14.712	0.254	-0.197
-487.464	169.530	-0.172	-0.243
-486.449	-149.106	0.102	-0.008
-485.435	800.000	-0.082	0.266
-484.420	3.788	0.147	0.106
-483.405	318.203	-0.094	-0.177
-482.391	-56.612	0.254	-0.111
-481.376	-200.000	-0.059	-0.298
-480.362	-110.913	-0.356	-0.073
-479.347	-23.050	-0.252	-0.150
-478.332	-122.774	0.308	0.049
-477.318	-200.000	-0.022	-0.265
-476.303	-189.990	-0.138	0.002
-475.289	131.203	-0.194	0.247
-474.274	745.044	0.125	-0.332
-473.259	-142.851	0.201	-0.019
-472.245	737.033	0.132	-0.351
-471.230	254.397	-0.062	-0.106
-470.216	-200.000	0.052	0.251
-469.201	-200.000	-0.035	0.172
-468.186	-93.417	-0.100	0.027
-467.172	334.996	0.055	0.105
-466.157	-165.984	-0.471	0.020
-465.143	800.000	0.021	0.087
-464.128	324.207	0.113	0.213
-463.113	800.000	-0.068	0.265
-462.099	143.076	-0.170	-0.224
-461.084	-30.073	0.170	0.096
-460.070	-44.513	-0.250	0.124
-459.055	99.048	0.167	-0.191
-458.040	-55.867	0.072	-0.032
-457.026	-75.924	0.508	-0.178
-456.011	161.250	-0.184	0.255
-454.997	-25.789	-0.194	-0.113
-453.982	-200.000	0.005	0.077
-452.968	87.291	0.075	0.082
-451.953	-144.633	-0.284	-0.026
-450.938	47.987	-0.262	0.242
-449.924	446.221	0.060	0.131
-448.909	800.000	-0.104	-0.378
-447.895	47.406	-0.139	-0.128
-446.880	7.135	-0.253	-0.187
-445.865	77.260	0.125	-0.132
-444.851	376.219	-0.077	0.157
-443.836	800.000	0.008	0.028
-442.822	513.160	0.144	-0.333
-441.807	521.136	-0.031	0.072
-440.792	-200.000	0.002	0.134
-439.778	688.791	0.061	-0.158
-438.763	-200.000	-0.041	0.228
-437.749	-12.902	-0.136	-0.087
-436.734	-72.738	-0.232	-0.085
-435.719	-69.246	-0.123	-0.047
-434.705	800.000	0.067	0.195
-433.690	-13.414	0.266	-0.171
-432.676	9.586	-0.220	0.165
-431.661	-81.126	0.211	0.069
-430.646	-200.000	0.029	-0.323
-429.632	-122.666	-0.140	-0.022
-428.617	46.936	0.035	0.033
-427.603	800.000	0.121	0.350
-426.588	-200.000	-0.011	-0.062
-425.573	118.125	-0.148	0.181
-424.559	549.157	0.130	0.308
-423.544	-116.896	-0.167	0.030
-422.530	364.684	-0.179	0.356
-421.515	194.385	0.104	-0.156
-420.500	15.210	0.265	-0.206
-419.486	-113.856	0.042	0.008
-418.471	-121.412	-0.066	0.011
-417.457	607.448	-0.150	-0.370
-416.442	695.113	0.147	-0.381
-415.428	-200.000	0.008	0.132
-414.413	-200.000	-0.009	0.070
-413.398	-18.236	0.148	-0.092
-412.384	-200.000	0.010	-0.179
-411.369	415.632	0.152	0.321
-410.355	-134.407	-0.222	-0.027
-409.340	-49.954	-0.107	0.050
-408.325	-56.784	-0.085	0.037
-407.311	-200.000	-0.019	0.135
-406.296	-200.000	-0.008	-0.072
-405.282	-1.106	-0.049	0.034
-404.267	-29.634	-0.329	0.186
-403.252	294.957	0.099	0.180
-402.238	410.494	0.009	-0.018
-401.223	-120.697	-0.157	0.026
-400.209	20.036	-0.284	0.226
-399.194	-87.845	-0.241	0.072
-398.179	-77.683	-0.148	0.050
-397.165	-96.453	0.088	-0.023
-396.150	267.844	0.028	0.048
-395.136	-200.000	0.312	0.000
-394.121	800.000	0.042	-0.132
-393.106	437.174	-0.104	0.223
-392.092	157.827	-0.190	0.260
-391.077	-101.334	0.205	-0.049
-390.063	-83.904	-0.278	-0.087
-389.048	102.485	0.104	-0.120
-388.033	9.545	0.216	-0.162
-387.019	-105.632	-0.315	0.071
-386.004	21.615	0.266	0.214
-384.990	-3.426	0.170	-0.117
-383.975	44.754	0.137	-0.125
-382.960	-184.419	-0.233	0.004
-381.946	21.554	-0.116	0.093
-380.931	800.000	-0.066	-0.242
-379.917	169.486	-0.102	0.144
-378.902	800.000	0.032	0.118
-377.888	678.645	0.094	0.241
-376.873	656.295	-0.062	0.158
-375.858	-23.025	0.116	-0.069
-374.844	-87.395	0.278	-0.083
-373.829	-127.740	0.269	0.038
-372.815	448.859	0.100	0.218
-371.800	-147.228	-0.216	-0.018
-370.785	388.801	-0.023	-0.047
-369.771	-137.173	0.091	0.010
-368.756	800.000	-0.046	0.128
-367.742	800.000	-0.077	-0.299
-366.727	800.000	-0.058	-0.210
-365.712	368.047	0.240	0.478
-364.698	152.242	0.157	0.211
-363.683	58.781	0.252	-0.244
-362.669	92.977	0.080	0.089
-361.654	800.000	-0.120	-0.341
-360.639	43.738	-0.113	-0.102
-359.625	-200.000	0.015	0.112
-358.610	-200.000	-0.030	0.133
-357.596	-200.000	-0.014	0.083
-356.581	237.011	0.102	0.167
-355.566	-89.618	0.120	-0.035
-354.552	163.150	0.063	0.087
-353.537	-22.884	-0.272	0.162
-352.523	452.910	-0.066	-0.144
-351.508	239.652	-0.019	0.031
-350.493	270.444	0.045	-0.078
-349.479	800.000	0.066	-0.199
-348.464	-107.213	-0.216	0.047
-347.450	-59.027	0.263	0.112
-346.435	-170.678	-0.134	-0.005
-345.420	756.128	0.115	-0.306
-344.406	20.002	-0.049	0.039
-343.391	115.916	0.085	0.102
-342.377	-115.608	-0.250	-0.046
-341.362	-18.554	0.100	-0.061
-340.348	175.822	0.102	0.146
-339.333	-143.997	-0.369	0.034
-338.318	-114.043	0.400	-0.076
-337.304	134.765	-0.041	0.053
-336.289	-109.687	0.210	-0.044
-335.275	118.449	0.069	0.084
-334.260	800.000	-0.156	-0.436
-333.245	109.139	0.148	0.175
-332.231	44.358	-0.127	-0.115
-331.216	785.594	0.059	-0.159
-330.202	-147.046	0.238	0.020
-329.187	-15.674	0.342	0.215
-328.172	93.824	-0.199	-0.222
-327.158	-29.870	-0.038	0.021
-326.143	-200.000	-0.004	0.019
-325.129	-200.000	-0.016	-0.084
-324.114	-78.974	-0.123	-0.041
-323.099	800.000	-0.080	0.295
-322.085	-200.000	0.045	0.339
-321.070	-15.402	0.226	0.142
-320.056	167.326	-0.186	0.261
-319.041	-200.000	-0.024	0.148
-318.026	-140.384	0.181	0.019
-317.012	-200.000	-0.104	-0.588
-315.997	-58.099	0.157	-0.067
-314.983	-200.000	0.054	0.257
-313.968	33.771	0.017	-0.015
-312.953	12.737	-0.077	0.058
-311.939	-114.329	0.262	-0.050
-310.924	5.588	0.193	-0.140
-309.910	800.000	-0.054	-0.188
-308.895	-14.130	0.089	-0.057
-307.880	45.096	0.110	-0.100
-306.866	-35.711	-0.159	0.085
-305.851	-116.957	-0.074	-0.013
-304.837	151.621	0.192	-0.257
-303.822	-200.000	0.053	0.253
-302.807	-164.773	-0.313	0.014
-301.793	-21.831	-0.209	0.125
-300.778	-122.104	-0.177	0.029
-299.764	37.682	-0.071	0.062
-298.749	-159.455	0.087	0.005
-297.735	-200.000	0.042	-0.193
-296.720	43.255	0.167	0.150
-295.705	-31.271	-0.337	0.187
-294.691	-98.906	0.079	0.020
-293.676	800.000	-0.075	-0.221
-292.662	-114.963	0.372	0.070
-291.647	-8.141	0.102	-0.068
-290.632	52.679	0.317	0.298
-289.618	-125.949	-0.216	-0.032
-288.603	379.524	-0.094	-0.189
-287.589	72.429	-0.116	0.119
-286.574	273.095	-0.069	-0.119
-285.559	-26.349	-0.176	0.102
-284.545	-16.736	-0.258	0.161
-283.530	273.820	0.048	0.083
-282.516	-104.278	0.141	0.032
-281.501	-155.912	-0.089	-0.006
-280.486	-100.621	-0.104	0.025
-279.472	-200.000	-0.036	-0.168
-278.457	-97.251	-0.084	0.022
-277.443	800.000	-0.040	0.151
-276.428	-200.000	-0.011	0.085
-275.413	561.907	0.130	-0.308
-274.399	-152.030	-0.353	0.025
-273.384	-59.193	-0.210	-0.089
-272.370	416.516	0.149	0.313
-271.355	-200.000	0.000	-0.126
-270.340	800.000	-0.082	-0.321
-269.326	-118.917	-0.292	0.050
-268.311	-20.641	0.477	0.288
-267.297	-200.000	-0.017	-0.131
-266.282	390.717	0.055	-0.112
-265.267	-71.930	0.120	-0.044
-264.253	91.761	0.183	-0.202
-263.238	-200.000	-0.014	0.218
-262.224	583.889	-0.057	0.138
-261.209	-87.979	0.112	-0.033
-260.195	743.785	-0.069	-0.183
-259.180	-123.506	0.660	-0.103
-258.165	195.271	-0.138	0.206
-257.151	-25.052	0.254	-0.148
-256.136	14.839	-0.038	-0.029
-255.122	270.900	0.253	-0.437
-254.107	-120.169	-0.238	0.040
-253.092	521.320	0.189	0.436
-252.078	119.108	-0.059	-0.071
-251.063	-9.816	-0.100	-0.066
-250.049	605.629	-0.176	0.431
-249.034	-79.127	0.109	0.036
-248.019	-115.415	0.196	0.036
-247.005	-47.774	-0.296	0.141
-245.990	295.836	-0.067	-0.121
-244.976	-46.270	0.210	-0.101
-243.961	-110.735	-0.118	-0.024
-242.946	60.997	-0.304	0.296
-241.932	309.123	0.354	0.649
-240.917	215.767	-0.051	-0.080
-239.903	800.000	0.048	-0.147
-238.888	-152.164	0.268	-0.019
-237.873	2.921	-0.029	-0.021
-236.859	-200.000	0.015	0.392
-235.844	29.465	0.030	0.025
-234.830	-14.666	-0.055	-0.035
-233.815	800.000	0.071	0.218
-232.800	6.013	-0.268	-0.195
-231.786	-8.587	-0.040	-0.026
-230.771	-114.038	0.274	0.052
-229.757	-2.634	0.203	-0.140
-228.742	-44.706	-0.178	-0.087
-227.727	382.019	-0.115	-0.233
-226.713	-109.407	-0.155	-0.032
-225.698	-200.000	0.010	-0.287
-224.684	-9.821	0.239	-0.156
-223.669	68.159	-0.187	0.188
-222.655	-200.000	-0.021	-0.287
-221.640	169.236	-0.069	-0.097
-220.625	800.000	-0.130	0.489
-219.611	-72.305	0.088	-0.032
-218.596	785.318	-0.103	0.277
-217.582	181.948	0.165	-0.239
-216.567	-75.119	0.531	-0.186
-215.552	-200.000	-0.006	-0.244
-214.538	87.006	0.163	-0.177
-213.523	531.292	0.170	0.395
-212.509	68.874	-0.189	-0.190
-211.494	-50.448	0.184	-0.085
-210.479	8.027	0.084	0.062
-209.465	-200.000	-0.001	0.020
-208.450	266.904	0.159	0.272
-207.436	118.713	0.028	-0.033
-206.421	110.877	0.226	-0.266
-205.406	-200.000	0.033	0.259
-204.392	-74.431	0.451	-0.159
-203.377	-99.776	0.282	0.069
-202.363	-68.102	0.302	0.115
-201.348	800.000	-0.075	-0.302
-200.333	-200.000	0.005	-0.210
-199.319	-119.025	-0.175	0.030
-198.304	-25.826	-0.077	0.044
-197.290	185.459	-0.114	-0.166
-196.275	-138.459	0.095	0.010
-195.260	-200.000	-0.028	-0.309
-194.246	226.972	0.210	-0.334
-193.231	-68.661	-0.061	0.023
-192.217	29.050	-0.066	0.055
-191.202	-73.245	0.151	0.054
-190.187	-96.311	0.094	-0.024
-189.173	-151.489	0.456	0.033
-188.158	800.000	0.036	0.137
-187.144	-153.338	0.284	-0.019
-186.129	-200.000	0.004	0.181
-185.114	-15.902	0.103	0.064
-184.100	-200.000	0.038	0.398
-183.085	-81.783	-0.042	-0.014
-182.071	800.000	-0.072	0.292
-181.056	-23.545	0.191	0.112
-180.042	-200.000	0.017	0.098
-179.027	-83.876	0.031	-0.010
-178.012	800.000	0.029	-0.094
-176.998	-43.263	0.276	-0.137
-175.983	-36.004	-0.274	-0.145
-174.969	137.630	-0.280	0.358
-173.954	53.676	-0.269	-0.253
-172.939	-200.000	-0.020	-0.208
-171.925	290.614	-0.170	-0.302
-170.910	58.125	0.033	0.032
-169.896	-53.256	-0.103	0.046
-168.881	192.903	-0.094	-0.139
-167.866	-116.062	-0.120	0.022
-166.852	-32.121	0.194	0.106
-165.837	-54.724	0.192	-0.085
-164.823	-69.906	0.130	0.049
-163.808	-200.000	0.042	0.274
-162.793	-83.112	0.131	0.041
-161.779	360.578	0.081	0.159
-160.764	-200.000	-0.013	-0.248
-159.750	12.465	-0.265	0.200
-158.735	-51.097	-0.311	0.143
-157.720	-60.653	0.241	0.100
-156.706	-23.225	0.163	-0.096
-155.691	613.393	0.045	0.109
-154.677	-9.671	-0.071	0.046
-153.662	-130.500	-0.053	-0.007
-152.647	800.000	-0.082	0.311
-151.633	-200.000	0.002	0.143
-150.618	-200.000	-0.049	-0.220
-149.604	-200.000	-0.022	-0.771
-148.589	7.114	-0.186	0.135
-147.574	-200.000	-0.019	0.107
-146.560	-71.577	0.275	0.101
-145.545	-49.812	-0.237	0.110
-144.531	237.354	-0.022	-0.036
-143.516	439.877	-0.172	-0.367
-142.502	-200.000	-0.024	-0.225
-141.487	-47.450	0.148	0.071
-140.472	789.501	-0.102	0.274
-139.458	-200.000	-0.022	-0.308
-138.443	127.350	-0.165	-0.205
-137.429	800.000	0.062	0.259
-136.414	-100.600	0.311	-0.075
-135.399	282.810	-0.268	-0.471
-134.385	311.598	0.131	-0.239
-133.370	-135.375	0.262	-0.031
-132.356	221.679	0.096	0.152
-131.341	-157.579	-0.265	-0.016
-130.326	461.839	0.151	0.330
-129.312	188.338	0.126	-0.184
-128.297	-86.665	0.270	-0.081
-127.283	-200.000	0.003	-0.212
-126.268	-200.000	0.023	0.161
-125.253	-59.402	-0.116	-0.049
-124.239	166.359	-0.080	0.110
-123.224	521.955	0.151	0.346
-122.210	-11.841	0.165	-0.106
-121.195	-92.612	0.179	0.049
