DTS Sentinel unit serial number:	SN413079Multiplexer serial number:	ORYXHardware model number:	OX4-SRSoftware version number:	ORYX F/W v4.00 Oryx Data Collector v3.7.2.0data status	okinstallation	princeton_trtdifferential loss correction	single-endedforward channel	channel 1reverse channel	N/Adate	2019/09/15time	07:14:35forward acquisition time	60.00reverse acquisition time	0.00gamma	496.2192k internal	0.2325k external	0.2325temperature offset calibration	0.9998default loss term (dB/km)	0.3790temperature slope calibration	1.0000multiplexer offset coefficient	1.0000multiplexer slope coefficient	1.0000fibre end	0.00T internal ref (°C)	30.55T ext. ref 1 (°C)	4.87T ext. ref 2 (°C)	25.79length (m)	temperature (°C)	Stokes	anti-Stokes-747.200	-173.850	0.136	0.004
-746.185	46.708	-0.238	0.223
-745.171	-57.096	0.273	0.121
-744.156	-200.000	-0.005	-0.052
-743.142	167.526	0.115	0.165
-742.127	304.461	0.135	0.253
-741.112	311.860	0.075	-0.142
-740.098	-98.011	-0.198	0.052
-739.083	-1.140	-0.354	-0.252
-738.069	-89.892	-0.396	-0.117
-737.054	-174.282	-0.348	0.010
-736.039	-107.992	-0.238	0.052
-735.025	54.869	-0.181	0.176
-734.010	-53.690	-0.181	-0.084
-732.996	-21.757	0.158	-0.097
-731.981	163.598	0.176	-0.250
-730.966	149.322	-0.093	-0.127
-729.952	-200.000	-0.026	-0.142
-728.937	-200.000	-0.083	0.392
-727.923	800.000	-0.044	-0.176
-726.908	-200.000	0.005	-0.137
-725.894	183.609	-0.123	-0.183
-724.879	118.272	-0.351	-0.436
-723.864	17.059	0.295	-0.236
-722.850	-170.970	0.180	-0.006
-721.835	589.739	0.090	-0.224
-720.821	-191.516	-0.243	-0.002
-719.806	-200.000	0.004	-0.152
-718.791	-2.612	-0.158	0.112
-717.777	223.032	-0.080	-0.130
-716.762	-200.000	0.023	-0.256
-715.748	85.226	-0.167	-0.185
-714.733	712.627	-0.156	-0.416
-713.718	66.326	-0.071	0.073
-712.704	800.000	-0.078	-0.285
-711.689	800.000	0.060	0.213
-710.675	800.000	0.062	-0.216
-709.660	-155.085	0.132	-0.009
-708.645	-64.370	0.112	0.046
-707.631	5.633	0.132	-0.098
-706.616	383.712	0.008	0.017
-705.602	9.672	0.154	-0.117
-704.587	-200.000	-0.001	-0.072
-703.572	-67.731	-0.100	-0.039
-702.558	-5.335	-0.279	-0.193
-701.543	-122.968	0.222	0.036
-700.529	534.342	0.116	0.276
-699.514	38.927	-0.257	0.231
-698.499	0.450	-0.126	-0.091
-697.485	-89.401	0.215	0.064
-696.470	-128.499	-0.407	-0.058
-695.456	-200.000	0.027	0.327
-694.441	77.078	0.078	-0.083
-693.426	260.158	0.086	-0.149
-692.412	-200.000	-0.035	0.191
-691.397	-40.984	-0.271	-0.141
-690.383	31.025	-0.339	-0.293
-689.368	65.500	-0.288	-0.294
-688.354	-59.987	-0.155	-0.066
-687.339	657.590	0.014	0.036
-686.324	-9.352	0.052	-0.035
-685.310	319.901	-0.081	-0.154
-684.295	160.374	-0.089	0.125
-683.281	155.941	0.094	-0.131
-682.266	-95.432	-0.233	-0.063
-681.251	262.235	-0.074	0.129
-680.237	719.326	0.072	-0.193
-679.222	556.614	0.052	-0.126
-678.208	-164.645	-0.142	0.006
-677.193	-8.298	0.126	0.086
-676.178	-200.000	0.046	0.418
-675.164	-130.291	-0.323	0.044
-674.149	-15.384	-0.318	0.204
-673.135	322.323	0.143	-0.274
-672.120	800.000	-0.073	-0.205
-671.105	-94.807	0.245	-0.067
-670.091	352.769	0.030	-0.061
-669.076	-57.307	0.426	0.189
-668.062	-200.000	0.027	-0.323
-667.047	106.137	-0.087	0.104
-666.032	-96.171	0.274	0.073
-665.018	800.000	-0.023	0.081
-664.003	-115.375	0.156	0.030
-662.989	38.914	-0.199	-0.179
-661.974	238.863	-0.037	-0.062
-660.959	-200.000	0.238	0.001
-659.945	-135.806	0.158	0.019
-658.930	-10.367	-0.321	-0.214
-657.916	-42.190	0.412	-0.212
-656.901	-48.385	0.049	0.024
-655.886	-200.000	0.004	-0.030
-654.872	-60.374	-0.142	0.061
-653.857	-150.968	0.199	-0.015
-652.843	272.459	0.145	-0.258
-651.828	-184.182	-0.477	-0.008
-650.814	69.828	-0.115	0.119
-649.799	-23.285	-0.031	-0.019
-648.784	-200.000	-0.017	0.118
-647.770	-70.015	-0.183	0.070
-646.755	-200.000	0.005	0.326
-645.741	-69.313	0.218	-0.084
-644.726	-33.216	0.098	0.054
-643.711	-194.458	-0.195	-0.002
-642.697	-91.277	0.295	-0.085
-641.682	-122.220	0.307	-0.050
-640.668	-200.000	-0.020	-0.117
-639.653	6.223	-0.494	-0.368
-638.638	189.997	-0.211	0.318
-637.624	-200.000	-0.059	0.336
-636.609	-62.868	0.237	-0.099
-635.595	-114.389	-0.188	0.036
-634.580	319.335	0.152	-0.289
-633.565	110.404	-0.108	-0.130
-632.551	389.586	-0.051	0.107
-631.536	-3.207	-0.022	0.015
-630.522	-200.000	0.073	0.342
-629.507	-200.000	-0.026	-0.254
-628.492	-37.002	-0.271	-0.146
-627.478	-139.679	-0.331	-0.035
-626.463	800.000	0.035	0.117
-625.449	-19.925	0.200	-0.124
-624.434	-160.304	0.281	-0.015
-623.419	302.126	0.189	-0.351
-622.405	25.425	-0.091	0.076
-621.390	62.220	0.191	-0.192
-620.376	-102.156	0.150	-0.036
-619.361	-121.642	0.343	0.057
-618.346	-166.232	-0.187	-0.008
-617.332	138.299	-0.063	-0.083
-616.317	53.803	-0.082	0.079
-615.303	800.000	-0.017	0.055
-614.288	-132.174	0.239	0.031
-613.273	-98.852	-0.096	0.024
-612.259	304.237	0.083	0.154
-611.244	373.204	-0.086	0.175
-610.230	-34.462	-0.091	-0.050
-609.215	-200.000	-0.002	-0.203
-608.201	201.517	0.160	0.247
-607.186	-86.914	0.277	0.085
-606.171	-200.000	0.038	-0.226
-605.157	-75.890	0.295	0.105
-604.142	-25.726	-0.360	-0.213
-603.128	337.215	-0.075	-0.146
-602.113	333.427	-0.048	-0.094
-601.098	800.000	0.053	-0.187
-600.084	67.466	-0.076	0.078
-599.069	81.162	0.186	0.201
-598.055	-200.000	-0.027	0.406
-597.040	-200.000	0.014	0.077
-596.025	326.993	-0.042	0.080
-595.011	-150.109	-0.447	0.035
-593.996	35.332	-0.155	0.137
-592.982	249.656	0.021	0.036
-591.967	111.125	-0.177	0.214
-590.952	-75.168	0.145	0.052
-589.938	394.070	-0.044	-0.092
-588.923	501.603	-0.051	-0.117
-587.909	130.643	0.220	-0.284
-586.894	-48.020	-0.110	-0.053
-585.879	-200.000	-0.003	-0.441
-584.865	145.084	-0.081	-0.108
-583.850	-87.255	0.290	0.088
-582.836	-32.818	0.057	0.032
-581.821	-51.747	0.209	0.098
-580.806	-38.638	0.119	-0.063
-579.792	-4.175	0.185	-0.128
-578.777	-19.495	-0.073	-0.045
-577.763	5.933	-0.110	-0.081
-576.748	-131.286	-0.087	-0.012
-575.733	-200.000	0.038	0.349
-574.719	-149.523	0.166	0.013
-573.704	-191.117	-0.551	0.006
-572.690	182.063	0.138	0.204
-571.675	-200.000	0.034	0.332
-570.661	-200.000	-0.044	-0.284
-569.646	-156.077	0.044	-0.003
-568.631	-135.427	-0.352	0.042
-567.617	-16.004	-0.226	0.144
-566.602	800.000	-0.018	0.051
-565.588	18.240	0.199	0.159
-564.573	1.714	-0.046	0.033
-563.558	731.783	-0.098	-0.262
-562.544	-50.176	0.225	0.107
-561.529	597.814	-0.127	0.315
-560.515	-106.745	0.280	0.062
-559.500	-120.463	0.108	0.018
-558.485	402.547	0.038	-0.080
-557.471	-102.131	-0.157	0.038
-556.456	-49.488	-0.142	-0.068
-555.442	-1.999	0.288	-0.203
-554.427	524.906	0.030	-0.072
-553.412	-29.886	0.278	0.159
-552.398	-186.494	-0.306	0.004
-551.383	29.209	0.191	0.163
-550.369	800.000	-0.034	0.127
-549.354	-20.777	-0.058	-0.036
-548.339	800.000	0.024	0.067
-547.325	-134.229	0.291	-0.036
-546.310	26.416	0.161	-0.135
-545.296	53.284	-0.226	0.217
-544.281	-200.000	0.002	0.244
-543.266	190.819	0.141	0.213
-542.252	-200.000	-0.009	-0.051
-541.237	-135.180	-0.238	-0.029
-540.223	768.772	0.015	0.041
-539.208	800.000	0.079	-0.330
-538.193	165.015	-0.175	0.247
-537.179	63.615	-0.195	-0.196
-536.164	124.999	0.050	0.063
-535.150	19.070	0.115	-0.092
-534.135	138.921	-0.214	-0.282
-533.121	249.827	-0.095	0.162
-532.106	177.902	-0.012	-0.018
-531.091	-200.000	-0.005	-0.114
-530.077	-108.342	0.168	-0.036
-529.062	-37.057	0.249	0.134
-528.048	755.468	-0.082	-0.222
-527.033	-200.000	-0.023	-0.318
-526.018	-86.929	0.238	-0.073
-525.004	90.856	-0.279	-0.313
-523.989	-109.714	0.321	0.068
-522.975	341.535	0.122	0.239
-521.960	211.085	-0.129	0.203
-520.945	108.007	-0.129	-0.154
-519.931	292.466	-0.079	-0.144
-518.916	461.776	-0.130	-0.290
-517.902	72.885	0.132	0.138
-516.887	24.560	0.108	0.090
-515.872	-81.432	0.054	0.018
-514.858	-200.000	-0.008	-0.221
-513.843	163.964	-0.272	-0.383
-512.829	-2.272	0.104	-0.073
-511.814	-4.354	-0.342	0.236
-510.799	93.794	0.157	-0.177
-509.785	-200.000	0.010	0.208
-508.770	356.720	-0.198	0.395
-507.756	248.952	-0.137	0.233
-506.741	112.732	0.225	-0.273
-505.726	800.000	-0.097	-0.409
-504.712	79.568	-0.123	-0.132
-503.697	-200.000	0.002	0.357
-502.683	-51.160	0.199	0.093
-501.668	58.149	-0.129	0.127
-500.653	-142.955	0.103	0.010
-499.639	-200.000	0.005	0.260
-498.624	-87.879	-0.139	0.042
-497.610	413.796	0.158	-0.337
-496.595	-200.000	0.006	-0.205
-495.581	275.638	-0.063	0.111
-494.566	398.418	-0.093	-0.195
-493.551	800.000	-0.022	-0.084
-492.537	0.279	-0.318	0.227
-491.522	-156.583	-0.284	-0.018
-490.508	800.000	0.127	0.369
-489.493	602.110	0.066	-0.163
-488.478	292.641	-0.118	0.214
-487.464	51.562	0.228	0.217
-486.449	-175.776	-0.242	-0.006
-485.435	26.381	-0.047	0.039
-484.420	197.434	0.038	0.058
-483.405	-43.386	-0.385	0.194
-482.391	347.326	-0.178	-0.351
-481.376	-200.000	-0.002	0.164
-480.362	-88.249	-0.296	0.089
-479.347	-35.486	0.123	0.067
-478.332	-28.240	-0.222	0.128
-477.318	44.329	0.199	-0.182
-476.303	-200.000	0.021	0.133
-475.289	26.801	0.249	0.208
-474.274	165.337	0.126	0.177
-473.259	33.353	-0.025	0.022
-472.245	-200.000	0.012	-0.160
-471.230	800.000	-0.079	-0.227
-470.216	351.091	-0.076	-0.150
-469.201	-200.000	0.010	-0.043
-468.186	-144.002	0.308	-0.029
-467.172	215.882	-0.119	0.188
-466.157	626.468	-0.215	0.542
-465.143	-200.000	-0.029	0.218
-464.128	23.935	0.236	0.195
-463.113	-64.443	-0.135	-0.055
-462.099	800.000	0.024	-0.076
-461.084	-14.410	-0.238	-0.153
-460.070	800.000	0.059	-0.185
-459.055	463.458	-0.146	-0.325
-458.040	73.417	-0.029	-0.030
-457.026	-113.432	0.361	-0.071
-456.011	-93.616	-0.207	0.057
-454.997	12.482	-0.168	-0.129
-453.982	-79.366	-0.104	0.035
-452.968	-167.443	0.073	-0.003
-451.953	-200.000	-0.002	0.057
-450.938	-200.000	0.024	0.178
-449.924	-200.000	-0.018	-0.086
-448.909	356.585	-0.050	0.100
-447.895	-106.901	-0.220	-0.049
-446.880	-182.371	0.471	-0.009
-445.865	316.080	-0.094	0.178
-444.851	-129.029	-0.293	-0.041
-443.836	526.565	0.100	-0.236
-442.822	66.374	0.108	0.109
-441.807	800.000	-0.059	-0.229
-440.792	-146.858	0.037	0.003
-439.778	-69.228	0.138	-0.053
-438.763	-101.871	-0.265	0.064
-437.749	800.000	-0.012	-0.039
-436.734	-112.787	0.050	0.010
-435.719	-124.628	0.131	-0.020
-434.705	-51.917	-0.217	-0.101
-433.690	12.147	0.177	0.136
-432.676	296.550	-0.041	0.074
-431.661	-88.345	-0.318	-0.095
-430.646	-153.609	-0.256	-0.018
-429.632	-51.057	0.072	0.033
-428.617	-160.645	-0.167	-0.009
-427.603	687.833	-0.055	-0.143
-426.588	2.921	-0.167	0.121
-425.573	-103.484	0.178	-0.042
-424.559	-82.544	-0.106	-0.034
-423.544	37.399	0.068	-0.060
-422.530	15.036	-0.098	-0.076
-421.515	-114.627	-0.348	-0.066
-420.500	-200.000	0.058	-0.400
-419.486	-13.647	0.166	-0.107
-418.471	157.216	-0.128	0.177
-417.457	-49.305	-0.397	-0.189
-416.442	800.000	-0.069	-0.195
-415.428	800.000	0.069	-0.226
-414.413	72.099	0.095	0.099
-413.398	-61.894	-0.129	-0.054
-412.384	-200.000	0.019	-0.473
-411.369	60.862	-0.193	0.190
-410.355	-134.298	-0.062	0.008
-409.340	-13.415	-0.222	0.143
-408.325	165.251	-0.068	0.096
-407.311	90.571	-0.190	-0.212
-406.296	800.000	0.076	0.263
-405.282	-97.185	-0.289	0.075
-404.267	330.723	-0.237	0.455
-403.252	-150.281	-0.219	-0.017
-402.238	190.756	-0.180	0.270
-401.223	-27.169	-0.164	0.095
-400.209	-133.316	0.360	-0.045
-399.194	-66.780	-0.164	-0.065
-398.179	-154.177	0.078	-0.005
-397.165	-68.696	-0.335	0.129
-396.150	407.800	-0.133	0.280
-395.136	-200.000	0.006	0.087
-394.121	190.502	0.108	-0.161
-393.106	-200.000	-0.013	0.121
-392.092	-51.115	0.171	0.080
-391.077	-200.000	0.026	-0.183
-390.063	-89.975	-0.238	-0.069
-389.048	-47.147	-0.249	0.121
-388.033	-59.731	-0.348	-0.148
-387.019	800.000	-0.087	-0.269
-386.004	-112.534	-0.091	-0.018
-384.990	-149.462	0.202	-0.016
-383.975	-200.000	0.105	-0.503
-382.960	18.567	-0.136	0.108
-381.946	-175.860	0.271	0.007
-380.931	-158.824	-0.245	-0.014
-379.917	-200.000	-0.007	-0.155
-378.902	800.000	-0.056	-0.178
-377.888	-33.253	0.034	0.019
-376.873	122.552	0.240	-0.299
-375.858	-97.387	-0.395	0.102
-374.844	-62.055	0.135	0.056
-373.829	133.992	-0.085	-0.110
-372.815	178.328	-0.066	-0.096
-371.800	-200.000	0.014	-0.147
-370.785	598.038	0.047	-0.117
-369.771	-120.488	0.395	-0.067
-368.756	-56.098	0.103	0.046
-367.742	-200.000	0.005	-0.049
-366.727	9.905	0.182	0.137
-365.712	444.652	-0.122	0.266
-364.698	-181.720	-0.089	0.002
-363.683	800.000	0.019	-0.078
-362.669	-200.000	-0.007	0.117
-361.654	-8.499	0.147	-0.098
-360.639	17.465	0.173	0.137
-359.625	-200.000	-0.051	0.263
-358.610	800.000	0.042	-0.174
-357.596	-200.000	0.037	0.413
-356.581	96.293	0.118	-0.134
-355.566	18.927	-0.125	0.100
-354.552	-149.294	0.158	-0.013
-353.537	-85.076	0.007	-0.002
-352.523	-101.759	-0.117	0.028
-351.508	-58.734	-0.074	0.032
-350.493	-87.342	-0.279	-0.084
-349.479	50.716	-0.333	-0.313
-348.464	-200.000	0.034	0.186
-347.450	671.746	-0.024	0.062
-346.435	800.000	-0.084	0.264
-345.420	-200.000	-0.038	0.171
-344.406	800.000	0.038	0.128
-343.391	-200.000	0.101	0.495
-342.377	800.000	0.067	-0.258
-341.362	69.219	-0.146	-0.149
-340.348	-97.394	0.167	0.043
-339.333	-43.015	0.161	-0.081
-338.318	-144.253	0.232	0.021
-337.304	-94.883	0.250	0.067
-336.289	-82.320	-0.144	0.047
-335.275	-88.697	0.251	0.074
-334.260	1.910	0.425	-0.304
-333.245	-24.829	-0.268	-0.158
-332.231	645.007	-0.005	-0.012
-331.216	-200.000	-0.008	0.109
-330.202	-30.564	0.282	-0.159
-329.187	7.890	0.189	-0.141
-328.172	-12.515	0.103	-0.067
-327.158	512.366	0.073	0.168
-326.143	-88.598	-0.167	0.049
-325.129	2.826	0.105	0.076
-324.114	66.392	0.077	-0.078
-323.099	-51.109	-0.334	0.156
-322.085	-200.000	0.002	0.106
-321.070	-29.406	0.143	0.081
-320.056	800.000	0.073	0.212
-319.041	-45.276	0.192	-0.095
-318.026	-75.995	0.209	-0.073
-317.012	88.734	0.050	-0.055
-315.997	-25.999	-0.098	-0.057
-314.983	800.000	-0.056	0.163
-313.968	-156.503	0.191	-0.012
-312.953	7.637	0.319	-0.237
-311.939	-32.576	0.122	0.068
-310.924	-4.761	-0.037	-0.025
-309.910	-30.285	-0.399	0.225
-308.895	-200.000	-0.003	0.156
-307.880	544.737	-0.158	0.375
-306.866	-38.638	-0.052	0.027
-305.851	-87.754	-0.137	0.041
-304.837	267.088	-0.109	-0.189
-303.822	-65.545	0.228	0.091
-302.807	278.245	-0.170	0.301
-301.793	-200.000	0.022	-0.322
-300.778	54.984	0.188	-0.180
-299.764	-200.000	-0.003	0.054
-298.749	-64.019	-0.013	-0.005
-297.735	-156.805	0.201	0.012
-296.720	112.324	-0.204	0.245
-295.705	-8.277	0.152	0.101
-294.691	-50.001	0.102	0.048
-293.676	27.886	0.114	-0.096
-292.662	45.826	0.169	0.155
-291.647	116.370	0.340	0.414
-290.632	3.631	-0.183	-0.132
-289.618	69.243	-0.056	0.057
-288.603	-74.111	-0.306	0.110
-287.589	800.000	0.110	-0.476
-286.574	-102.849	-0.104	-0.025
-285.559	-70.579	0.254	0.095
-284.545	-13.314	0.066	0.042
-283.530	800.000	0.121	-0.331
-282.516	800.000	0.078	-0.281
-281.501	431.596	0.038	-0.081
-280.486	19.645	0.155	-0.124
-279.472	29.902	0.293	-0.247
-278.457	-200.000	-0.053	0.307
-277.443	-63.633	-0.128	0.052
-276.428	30.897	0.159	-0.135
-275.413	-200.000	-0.012	0.114
-274.399	-46.619	0.071	-0.034
-273.384	-200.000	-0.028	0.161
-272.370	702.750	-0.073	0.192
-271.355	800.000	0.052	-0.175
-270.340	232.911	0.047	0.076
-269.326	660.319	0.128	-0.328
-268.311	309.847	0.076	-0.140
-267.297	-200.000	-0.103	-0.529
-266.282	565.275	0.054	0.130
-265.267	216.457	0.203	0.320
-264.253	-200.000	-0.005	0.256
-263.238	-100.756	0.085	-0.021
-262.224	-76.360	0.181	-0.063
-261.209	84.529	-0.147	-0.159
-260.195	-200.000	0.012	-0.216
-259.180	-200.000	0.019	0.138
-258.165	41.555	-0.172	0.154
-257.151	-200.000	0.025	-0.165
-256.136	-27.029	0.092	0.053
-255.122	-113.608	-0.136	-0.026
-254.107	313.214	-0.088	-0.163
-253.092	-200.000	0.003	-0.053
-252.078	-161.329	-0.103	0.005
-251.063	-5.788	-0.072	0.049
-250.049	-185.762	0.146	-0.002
-249.034	413.094	0.087	-0.184
-248.019	142.026	0.065	-0.085
-247.005	158.180	-0.187	0.257
-245.990	42.030	-0.033	0.030
-244.976	-113.446	-0.063	0.012
-243.961	-40.926	0.121	0.062
-242.946	-61.509	-0.228	0.095
-241.932	800.000	0.099	-0.276
-240.917	-86.366	-0.099	-0.030
-239.903	-67.624	0.201	0.078
-238.888	-200.000	0.000	0.101
-237.873	79.820	0.255	-0.271
-236.859	-135.938	0.235	-0.027
-235.844	293.536	-0.216	0.390
-234.830	-32.691	-0.293	0.161
-233.815	-85.180	-0.185	-0.057
-232.800	-60.810	-0.259	-0.108
-231.786	-76.559	0.151	0.053
-230.771	-179.841	0.415	0.009
-229.757	800.000	-0.063	-0.177
-228.742	-17.000	-0.349	-0.218
-227.727	-134.441	-0.189	0.023
-226.713	-96.378	-0.117	0.031
-225.698	-135.535	0.256	-0.030
-224.684	113.644	-0.055	0.066
-223.669	-200.000	-0.011	-0.265
-222.655	47.954	0.200	0.185
-221.640	-8.383	0.323	0.215
-220.625	287.538	0.062	0.111
-219.611	7.155	-0.086	-0.064
-218.596	101.727	0.090	0.103
-217.582	800.000	0.103	0.396
-216.567	-121.415	-0.194	0.032
-215.552	25.051	0.100	0.082
-214.538	-102.789	0.190	0.045
-213.523	-12.234	-0.271	-0.176
-212.509	39.717	0.199	0.176
-211.494	-200.000	-0.000	-0.060
-210.479	174.781	-0.039	-0.056
-209.465	21.858	-0.050	0.040
-208.450	48.147	0.040	-0.037
-207.436	-46.841	0.315	-0.152
-206.421	-17.478	0.207	0.129
-205.406	-154.070	0.209	0.014
-204.392	-200.000	-0.006	-0.037
-203.377	-200.000	0.028	-0.166
-202.363	-200.000	0.026	-0.171
-201.348	156.963	0.138	0.189
-200.333	268.873	0.209	-0.362
-199.319	800.000	0.029	0.102
-198.304	-8.100	0.140	0.093
-197.290	27.048	0.202	0.167
-196.275	126.449	0.077	0.097
-195.260	166.884	-0.084	-0.118
-194.246	-144.688	-0.218	-0.020
-193.231	-22.168	0.018	-0.011
-192.217	-147.794	-0.310	0.026
-191.202	800.000	-0.023	0.067
-190.187	-24.463	0.158	0.093
-189.173	-110.867	0.675	-0.137
-188.158	-78.936	-0.153	-0.051
-187.144	-200.000	-0.010	0.356
-186.129	-200.000	0.008	0.139
-185.114	800.000	-0.125	-0.393
-184.100	-74.953	-0.328	-0.116
-183.085	591.865	0.086	-0.210
-182.071	-4.407	0.173	-0.118
-181.056	35.828	-0.128	-0.111
-180.042	291.672	-0.045	-0.081
-179.027	291.543	0.184	-0.331
-178.012	-125.131	-0.219	0.033
-176.998	79.024	-0.113	0.119
-175.983	684.810	0.127	-0.328
-174.969	800.000	-0.022	-0.088
-173.954	-200.000	0.042	0.217
-172.939	41.691	0.247	0.221
-171.925	57.599	0.103	0.099
-170.910	33.931	-0.054	-0.046
-169.896	61.099	0.202	0.198
-168.881	-96.318	0.107	-0.028
-167.866	-191.890	-0.145	0.001
-166.852	131.901	0.077	0.098
-165.837	219.986	-0.083	0.131
-164.823	-139.710	0.427	0.045
-163.808	251.486	0.105	-0.176
-162.793	-96.810	-0.222	-0.057
-161.779	-200.000	0.009	0.176
-160.764	800.000	0.045	-0.148
-159.750	-188.053	-0.229	-0.003
-158.735	-25.029	-0.134	-0.079
-157.720	800.000	-0.029	-0.099
-156.706	-1.468	-0.236	-0.164
-155.691	-46.989	0.157	-0.076
-154.677	-146.118	-0.211	0.018
-153.662	-47.595	0.157	-0.075
-152.647	115.719	-0.105	0.127
-151.633	-12.674	0.319	0.205
-150.618	-200.000	-0.027	-0.172
-149.604	635.555	-0.070	-0.175
-148.589	-29.732	-0.039	-0.022
-147.574	-36.495	-0.257	-0.136
-146.560	-198.436	0.144	0.001
-145.545	800.000	0.007	-0.022
-144.531	-200.000	0.036	-0.192
-143.516	-107.462	-0.321	0.069
-142.502	455.643	0.023	0.051
-141.487	172.550	0.092	-0.131
-140.472	161.894	-0.102	0.141
-139.458	360.622	-0.014	0.028
-138.443	19.287	0.111	-0.088
-137.429	800.000	-0.034	0.130
-136.414	355.937	-0.059	0.116
-135.399	800.000	0.011	-0.049
-134.385	118.343	0.222	-0.270
-133.370	-200.000	-0.020	-0.373
-132.356	-171.526	-0.157	-0.005
-131.341	-88.067	-0.119	0.035
-130.326	130.089	0.172	-0.217
-129.312	-184.185	-0.059	0.001
-128.297	-153.918	-0.083	-0.006
-127.283	137.297	0.158	0.203
-126.268	59.859	0.240	-0.234
-125.253	-82.032	0.253	-0.081
-124.239	751.875	-0.097	-0.258
-123.224	21.519	0.198	-0.158
-122.210	-176.067	0.254	0.007
-121.195	-67.644	0.279	-0.108
