DTS Sentinel unit serial number:	SN413079Multiplexer serial number:	ORYXHardware model number:	OX4-SRSoftware version number:	ORYX F/W v4.00 Oryx Data Collector v3.7.2.0data status	okinstallation	princeton_trtdifferential loss correction	single-endedforward channel	channel 1reverse channel	N/Adate	2019/09/12time	19:05:34forward acquisition time	15.00reverse acquisition time	0.00gamma	496.2192k internal	0.2320k external	0.2320temperature offset calibration	1.0104default loss term (dB/km)	0.3790temperature slope calibration	1.0000multiplexer offset coefficient	1.0000multiplexer slope coefficient	1.0000fibre end	0.00T internal ref (°C)	32.69T ext. ref 1 (°C)	3.04T ext. ref 2 (°C)	27.17length (m)	temperature (°C)	Stokes	anti-Stokes-747.200	-18.447	-0.169	0.107
-746.185	-107.083	0.864	-0.193
-745.171	-45.975	-0.901	-0.450
-744.156	-200.000	-0.531	0.003
-743.142	-140.559	-0.667	0.070
-742.127	-200.000	-0.026	0.495
-741.112	-30.505	-0.153	-0.087
-740.098	-54.637	-0.331	-0.151
-739.083	800.000	0.170	0.656
-738.069	-139.058	-0.038	-0.004
-737.054	-88.045	-0.640	0.194
-736.039	-142.870	-0.966	0.095
-735.025	376.039	0.407	0.840
-734.010	81.282	0.298	-0.325
-732.996	-166.595	-0.677	-0.028
-731.981	-200.000	-0.048	-0.315
-730.966	61.566	0.370	-0.372
-729.952	800.000	-0.150	0.598
-728.937	800.000	0.062	0.198
-727.923	317.337	-0.358	-0.685
-726.908	-163.023	1.060	-0.052
-725.894	225.429	0.031	0.051
-724.879	-200.000	0.061	-0.307
-723.864	658.876	0.195	-0.507
-722.850	243.822	-0.414	0.701
-721.835	139.126	0.470	-0.625
-720.821	-70.188	-0.336	-0.129
-719.806	29.024	-0.389	0.333
-718.791	-131.969	-0.431	0.057
-717.777	469.331	0.123	-0.279
-716.762	-200.000	-0.019	-0.634
-715.748	-90.087	-0.709	-0.209
-714.733	-130.486	0.379	-0.052
-713.718	-200.000	0.009	0.561
-712.704	50.136	-0.577	-0.550
-711.689	651.334	0.177	0.458
-710.675	-35.199	0.607	-0.334
-709.660	-51.460	-0.331	-0.156
-708.645	-29.661	0.271	0.156
-707.631	10.440	-0.349	-0.268
-706.616	-60.181	-0.574	0.247
-705.602	196.831	0.189	-0.292
-704.587	8.484	-0.488	-0.371
-703.572	15.774	1.079	0.857
-702.558	32.162	-0.031	0.027
-701.543	164.472	0.079	0.113
-700.529	8.736	-0.276	-0.210
-699.514	-200.000	0.057	-0.491
-698.499	-200.000	0.026	0.121
-697.485	-196.877	-0.091	0.001
-696.470	261.131	0.147	-0.257
-695.456	800.000	0.127	-0.378
-694.441	-147.516	-0.655	0.056
-693.426	-200.000	0.026	0.141
-692.412	-200.000	0.001	0.231
-691.397	307.175	0.104	-0.196
-690.383	173.255	0.213	0.310
-689.368	-11.455	0.138	-0.091
-688.354	449.285	0.088	0.197
-687.339	-157.899	0.422	0.025
-686.324	49.959	-0.340	0.323
-685.310	800.000	0.175	0.516
-684.295	217.554	-0.435	0.699
-683.281	-173.742	-0.418	0.013
-682.266	-143.849	-0.741	-0.071
-681.251	227.995	-0.185	0.304
-680.237	-31.164	-0.510	0.290
-679.222	31.886	-0.390	-0.339
-678.208	62.028	0.134	0.135
-677.193	95.695	-0.252	0.290
-676.178	-81.979	-0.373	0.123
-675.164	-72.308	-0.255	-0.095
-674.149	16.642	0.342	-0.273
-673.135	-200.000	0.007	0.338
-672.120	259.839	-0.256	-0.446
-671.105	-14.248	-0.200	-0.130
-670.091	800.000	0.169	0.592
-669.076	-200.000	-0.046	0.519
-668.062	0.584	0.510	-0.368
-667.047	152.766	-0.675	-0.930
-666.032	2.486	-0.196	-0.143
-665.018	284.278	0.228	-0.414
-664.003	270.363	0.323	-0.572
-662.989	800.000	-0.119	0.379
-661.974	-200.000	-0.035	0.368
-660.959	800.000	0.082	-0.245
-659.945	110.163	-0.218	0.264
-658.930	-13.845	0.817	-0.533
-657.916	366.797	-0.381	0.774
-656.901	-138.942	0.357	-0.039
-655.886	58.982	-0.619	0.614
-654.872	417.037	-0.151	0.325
-653.857	-110.740	-0.430	-0.089
-652.843	-88.173	-0.722	0.218
-651.828	-57.291	-0.475	-0.211
-650.814	800.000	0.145	-0.478
-649.799	-76.358	0.664	-0.236
-648.784	-92.687	-0.453	-0.128
-647.770	-66.263	-0.526	0.211
-646.755	-107.450	0.809	0.179
-645.741	-57.476	0.500	0.221
-644.726	220.491	-0.545	-0.881
-643.711	-124.750	0.231	-0.036
-642.697	-200.000	-0.077	-0.475
-641.682	-200.000	-0.036	0.533
-640.668	0.218	-0.571	0.410
-639.653	508.314	0.287	-0.672
-638.638	38.660	-0.579	0.521
-637.624	228.928	-0.282	0.464
-636.609	-200.000	-0.050	-0.477
-635.595	47.571	0.406	0.382
-634.580	11.101	-0.341	-0.263
-633.565	749.301	-0.126	0.342
-632.551	-15.286	0.402	-0.259
-631.536	-200.000	-0.144	0.997
-630.522	-158.914	0.585	0.034
-629.507	707.977	-0.234	0.622
-628.492	-200.000	0.042	-0.867
-627.478	515.286	-0.251	-0.590
-626.463	-200.000	0.072	1.242
-625.449	507.267	-0.232	0.542
-624.434	57.102	-0.490	0.481
-623.419	-16.050	0.237	0.151
-622.405	275.283	-0.338	0.603
-621.390	-79.689	-0.197	-0.067
-620.376	49.592	0.338	-0.320
-619.361	800.000	-0.164	-0.497
-618.346	233.882	0.148	-0.245
-617.332	-200.000	-0.010	0.336
-616.317	-200.000	0.080	-0.615
-615.303	-200.000	-0.075	-0.516
-614.288	-14.721	0.410	-0.265
-613.273	62.301	0.155	-0.156
-612.259	-191.924	0.999	-0.010
-611.244	800.000	-0.093	-0.301
-610.230	-178.689	0.796	0.018
-609.215	224.609	-0.331	0.538
-608.201	54.760	-0.461	0.447
-607.186	336.909	0.276	-0.539
-606.171	-109.774	-0.396	-0.084
-605.157	455.056	0.179	0.399
-604.142	204.664	0.209	0.327
-603.128	-31.260	0.531	0.301
-602.113	-25.158	-0.464	0.277
-601.098	82.697	-0.621	0.679
-600.084	520.332	0.150	0.354
-599.069	100.118	0.166	0.194
-598.055	-12.030	0.551	-0.363
-597.040	-200.000	-0.094	-0.581
-596.025	100.294	-0.063	0.074
-595.011	65.375	0.135	0.138
-593.996	-56.498	0.833	0.371
-592.982	-200.000	0.031	0.987
-591.967	-200.000	-0.124	-1.109
-590.952	-189.772	-0.642	0.007
-589.938	-190.397	-0.230	-0.003
-588.923	-51.515	-0.365	-0.171
-587.909	774.339	0.173	-0.475
-586.894	53.371	0.429	-0.413
-585.879	-82.213	-1.025	-0.336
-584.865	102.936	-0.222	0.261
-583.850	70.633	0.561	-0.583
-582.836	-61.847	-0.854	-0.359
-581.821	800.000	-0.092	0.387
-580.806	-200.000	-0.085	-0.378
-579.792	52.686	-0.438	-0.421
-578.777	-120.551	0.522	0.089
-577.763	14.334	0.323	-0.253
-576.748	-47.550	-0.490	-0.239
-575.733	-133.691	1.209	-0.152
-574.719	169.296	-0.484	0.694
-573.704	668.532	0.088	0.228
-572.690	-90.204	-0.219	0.064
-571.675	218.479	-0.349	-0.560
-570.661	216.143	-0.410	-0.655
-569.646	170.657	0.470	-0.676
-568.631	559.668	-0.449	-1.090
-567.617	210.237	0.354	-0.558
-566.602	-17.325	0.482	-0.305
-565.588	-1.970	0.166	0.117
-564.573	-3.190	-0.450	0.315
-563.558	41.392	0.059	0.053
-562.544	-121.620	0.549	-0.091
-561.529	-5.275	0.611	0.422
-560.515	800.000	-0.111	0.387
-559.500	-200.000	-0.096	0.519
-558.485	383.551	0.312	-0.645
-557.471	-153.692	0.541	0.037
-556.456	-9.111	0.594	0.399
-555.442	-200.000	-0.082	0.604
-554.427	-103.591	-0.204	-0.048
-553.412	200.071	0.327	-0.505
-552.398	87.830	-0.420	0.467
-551.383	50.412	-0.370	0.351
-550.369	-2.385	-0.445	-0.313
-549.354	-78.875	0.381	-0.130
-548.339	-82.337	0.414	0.135
-547.325	-8.398	0.516	-0.348
-546.310	-99.655	-0.424	-0.107
-545.296	-25.864	0.256	0.151
-544.281	-200.000	0.040	0.223
-543.266	5.412	0.551	0.408
-542.252	800.000	-0.035	-0.104
-541.237	-124.334	-0.553	-0.087
-540.223	-26.449	-0.611	-0.359
-539.208	-26.689	-0.652	0.383
-538.193	97.090	-0.152	-0.175
-537.179	84.675	-0.358	-0.394
-536.164	-200.000	0.051	-0.664
-535.150	22.853	-0.403	-0.331
-534.135	349.302	0.234	-0.464
-533.121	280.027	0.130	0.233
-532.106	35.332	0.759	-0.667
-531.091	-200.000	-0.024	0.219
-530.077	800.000	-0.223	-0.659
-529.062	274.234	0.294	-0.521
-528.048	-22.381	0.469	-0.285
-527.033	-200.000	0.177	-0.796
-526.018	800.000	-0.174	0.579
-525.004	72.796	0.917	0.960
-523.989	108.165	0.189	0.226
-522.975	-151.873	0.360	0.026
-521.960	56.782	0.308	0.300
-520.945	-13.531	0.105	-0.068
-519.931	-142.749	-0.333	0.033
-518.916	-148.011	-0.723	0.060
-517.902	16.141	-0.804	0.635
-516.887	-49.324	0.508	0.243
-515.872	-97.083	0.396	0.104
-514.858	-200.000	0.072	-0.564
-513.843	60.662	0.296	-0.295
-512.829	320.911	-0.383	-0.730
-511.814	51.588	0.208	-0.198
-510.799	115.965	-0.169	0.207
-509.785	39.097	0.061	-0.055
-508.770	42.073	0.972	-0.884
-507.756	-96.722	0.183	0.048
-506.741	242.370	-0.244	-0.409
-505.726	-82.774	-0.451	0.146
-504.712	800.000	-0.119	0.357
-503.697	-9.751	-0.339	0.226
-502.683	-109.890	-0.081	-0.017
-501.668	36.985	0.104	0.092
-500.653	-200.000	-0.082	0.626
-499.639	-148.169	1.099	0.091
-498.624	800.000	-0.071	0.218
-497.610	-200.000	0.041	-0.385
-496.595	-119.721	0.022	-0.004
-495.581	-79.209	-0.485	0.165
-494.566	-155.033	-0.444	-0.029
-493.551	783.376	0.086	-0.235
-492.537	96.463	-0.441	-0.505
-491.522	151.647	0.491	0.670
-490.508	-18.418	0.571	-0.357
-489.493	-64.658	-0.233	0.095
-488.478	272.245	-0.277	0.489
-487.464	-105.274	-0.192	0.044
-486.449	202.739	0.305	-0.472
-485.435	-121.106	0.538	-0.090
-484.420	800.000	0.381	1.172
-483.405	-141.851	0.189	-0.019
-482.391	-200.000	-0.053	-0.478
-481.376	30.381	-0.813	0.695
-480.362	58.432	0.262	0.258
-479.347	800.000	-0.230	0.641
-478.332	-200.000	0.075	0.660
-477.318	11.064	0.632	0.484
-476.303	-109.874	-0.360	-0.076
-475.289	-101.857	-0.627	-0.152
-474.274	-84.159	-0.152	-0.048
-473.259	800.000	0.219	0.793
-472.245	-200.000	-0.036	-0.615
-471.230	800.000	-0.205	-0.834
-470.216	37.694	-0.301	0.268
-469.201	-34.856	1.221	-0.667
-468.186	-92.663	-0.279	-0.078
-467.172	-200.000	-0.017	0.780
-466.157	759.197	-0.101	0.274
-465.143	-33.377	0.460	0.254
-464.128	317.656	0.154	-0.292
-463.113	51.449	0.574	0.545
-462.099	79.630	0.181	-0.194
-461.084	450.353	0.080	0.176
-460.070	-200.000	0.120	-0.760
-459.055	-128.447	0.428	0.061
-458.040	551.220	-0.575	1.380
-457.026	124.132	-0.455	0.571
-456.011	-13.645	0.184	-0.119
-454.997	-100.237	1.075	-0.267
-453.982	-58.108	-0.581	-0.253
-452.968	800.000	-0.155	-0.459
-451.953	-200.000	-0.067	-0.608
-450.938	-63.807	0.415	-0.170
-449.924	-200.000	0.048	0.528
-448.909	-200.000	-0.019	-0.286
-447.895	-91.496	-0.546	-0.156
-446.880	-200.000	-0.012	0.428
-445.865	16.325	-0.105	-0.083
-444.851	-37.612	0.745	-0.397
-443.836	409.836	0.266	0.564
-442.822	800.000	-0.180	-0.754
-441.807	-102.679	0.226	-0.054
-440.792	-15.759	-1.073	-0.683
-439.778	-200.000	0.025	0.143
-438.763	234.674	-0.454	0.749
-437.749	-6.026	0.198	0.135
-436.734	-84.974	-0.701	0.220
-435.719	356.103	-0.232	0.461
-434.705	277.879	-0.222	-0.396
-433.690	-126.065	0.315	0.047
-432.676	169.119	-0.259	0.370
-431.661	-4.202	0.387	-0.268
-430.646	504.728	0.194	-0.450
-429.632	170.352	0.389	0.556
-428.617	-175.953	-0.761	0.020
-427.603	800.000	-0.126	-0.389
-426.588	234.144	-0.714	-1.176
-425.573	-200.000	0.083	-0.829
-424.559	317.723	0.113	-0.214
-423.544	-172.828	0.604	0.019
-422.530	140.362	0.495	-0.652
-421.515	240.199	-0.339	0.564
-420.500	19.067	0.186	-0.149
-419.486	-7.937	-0.410	-0.276
-418.471	42.321	0.322	0.292
-417.457	-55.890	0.768	-0.342
-416.442	-123.303	-0.418	-0.067
-415.428	-115.239	-0.660	0.125
-414.413	-200.000	0.056	-1.396
-413.398	800.000	-0.123	0.516
-412.384	-116.855	0.140	-0.026
-411.369	23.514	0.048	0.039
-410.355	-31.669	0.220	0.123
-409.340	29.425	-0.287	0.243
-408.325	8.984	-0.250	-0.188
-407.311	256.050	0.168	0.287
-406.296	53.062	0.847	0.809
-405.282	-96.675	-0.331	0.087
-404.267	165.535	-0.440	-0.621
-403.252	12.950	-0.684	0.528
-402.238	26.365	-0.302	0.252
-401.223	-200.000	0.081	0.606
-400.209	146.346	0.139	0.187
-399.194	800.000	0.242	0.722
-398.179	101.248	0.329	-0.382
-397.165	15.257	0.236	0.185
-396.150	195.713	0.422	-0.640
-395.136	-200.000	-0.291	-1.328
-394.121	-88.002	0.457	0.137
-393.106	102.159	-0.708	-0.825
-392.092	-32.582	-0.213	-0.118
-391.077	390.014	0.492	1.017
-390.063	-200.000	0.175	-1.023
-389.048	120.935	-0.098	-0.121
-388.033	-200.000	-0.109	-1.023
-387.019	-200.000	-0.113	-0.703
-386.004	800.000	0.155	0.606
-384.990	-189.942	-0.473	-0.005
-383.975	-105.721	-0.428	-0.097
-382.960	-101.576	-0.647	0.157
-381.946	-168.522	-0.604	0.023
-380.931	-116.735	0.308	-0.056
-379.917	55.622	0.676	-0.653
-378.902	800.000	0.240	0.741
-377.888	-200.000	-0.011	0.253
-376.873	-100.843	0.611	0.150
-375.858	294.637	-0.094	0.171
-374.844	-16.837	-0.203	-0.128
-373.829	-13.778	0.512	0.330
-372.815	177.570	0.401	-0.583
-371.800	-28.013	0.479	-0.276
-370.785	158.403	0.235	-0.325
-369.771	510.835	0.090	0.208
-368.756	-156.365	0.108	0.007
-367.742	-159.142	-0.465	-0.026
-366.727	-30.240	-0.469	0.266
-365.712	363.499	0.196	0.393
-364.698	181.670	-0.507	-0.743
-363.683	800.000	-0.150	0.586
-362.669	-52.506	0.559	-0.258
-361.654	-200.000	0.025	0.628
-360.639	8.734	0.315	-0.236
-359.625	-124.671	0.057	0.009
-358.610	7.851	0.345	-0.258
-357.596	-30.818	0.700	0.394
-356.581	-200.000	-0.120	-0.876
-355.566	-55.513	-0.442	0.197
-354.552	-125.173	0.278	0.042
-353.537	-90.637	0.551	-0.159
-352.523	453.753	0.243	0.536
-351.508	-200.000	-0.093	0.967
-350.493	42.699	0.120	-0.109
-349.479	74.722	-0.277	0.290
-348.464	800.000	0.241	-0.867
-347.450	-139.272	0.117	-0.013
-346.435	-200.000	-0.021	-1.064
-345.420	453.512	-0.354	-0.781
-344.406	800.000	-0.108	-0.425
-343.391	93.356	0.385	0.433
-342.377	-127.927	-0.559	0.080
-341.362	-200.000	0.069	0.654
-340.348	800.000	-0.117	0.416
-339.333	-200.000	0.157	1.228
-338.318	-29.932	-0.297	0.168
-337.304	153.256	-0.178	0.243
-336.289	-200.000	-0.073	1.201
-335.275	343.725	0.153	-0.298
-334.260	116.024	-0.316	-0.385
-333.245	223.273	-0.464	-0.745
-332.231	-125.747	-1.039	0.156
-331.216	190.206	-0.315	-0.471
-330.202	360.735	-0.388	-0.774
-329.187	-98.211	-0.111	-0.028
-328.172	3.437	-0.804	-0.583
-327.158	-200.000	-0.041	1.157
-326.143	344.995	0.157	-0.307
-325.129	-200.000	-0.021	-0.132
-324.114	407.831	0.392	0.824
-323.099	-147.179	0.388	-0.033
-322.085	-149.704	0.029	0.002
-321.070	-200.000	-0.019	-0.330
-320.056	487.638	0.201	-0.456
-319.041	-58.895	0.618	-0.266
-318.026	-83.805	0.640	-0.203
-317.012	-140.799	0.708	0.073
-315.997	66.328	-0.483	0.488
-314.983	-32.639	0.517	-0.286
-313.968	-32.059	0.405	0.226
-312.953	-13.802	0.423	-0.272
-311.939	-200.000	-0.011	0.335
-310.924	-108.001	-0.408	0.088
-309.910	-1.039	0.308	-0.217
-308.895	454.118	-0.097	-0.213
-307.880	-200.000	-0.064	0.808
-306.866	-92.486	0.224	-0.063
-305.851	17.373	-0.854	0.674
-304.837	-200.000	0.127	0.829
-303.822	800.000	-0.192	0.760
-302.807	-22.485	-0.524	0.315
-301.793	-105.504	-0.391	0.088
-300.778	35.781	0.196	0.171
-299.764	245.417	-0.501	0.839
-298.749	-123.338	-0.266	-0.042
-297.735	-37.091	-0.555	-0.295
-296.720	-106.943	-0.331	-0.073
-295.705	-200.000	-0.010	0.374
-294.691	-54.217	-0.169	-0.076
-293.676	187.345	0.408	0.604
-292.662	-22.115	0.394	-0.237
-291.647	-56.931	-0.560	0.246
-290.632	-200.000	-0.006	-0.262
-289.618	-28.065	-0.777	0.447
-288.603	-200.000	-0.025	-0.438
-287.589	-104.613	-0.450	0.103
-286.574	-10.397	0.577	0.380
-285.559	-14.895	-0.739	0.471
-284.545	216.445	0.054	0.086
-283.530	410.280	0.264	-0.555
-282.516	22.895	0.386	0.314
-281.501	358.928	-0.153	-0.303
-280.486	9.524	-0.510	-0.384
-279.472	800.000	-0.149	0.620
-278.457	800.000	-0.229	-0.738
-277.443	800.000	-0.058	-0.199
-276.428	-92.346	-0.449	-0.126
-275.413	109.215	-0.092	-0.109
-274.399	-200.000	-0.002	0.271
-273.384	-60.498	0.531	-0.224
-272.370	-155.216	-0.967	0.063
-271.355	14.167	-0.267	-0.206
-270.340	161.555	0.346	-0.481
-269.326	134.439	0.203	-0.262
-268.311	800.000	0.140	-0.563
-267.297	-7.047	0.590	-0.398
-266.282	24.412	0.502	0.412
-265.267	148.658	0.108	-0.145
-264.253	501.100	0.404	-0.925
-263.238	-200.000	-0.052	0.279
-262.224	1.735	-0.784	0.560
-261.209	101.949	0.018	-0.021
-260.195	-74.473	-0.539	-0.193
-259.180	411.718	0.146	0.307
-258.165	-93.162	-0.426	-0.118
-257.151	183.725	0.485	0.711
-256.136	153.445	-0.152	-0.207
-255.122	20.786	0.347	-0.279
-254.107	-68.256	-0.233	-0.090
-253.092	-200.000	-0.013	-0.215
-252.078	800.000	0.189	-0.558
-251.063	-41.920	0.238	-0.121
-250.049	-142.393	0.683	-0.067
-249.034	-1.965	0.738	-0.515
-248.019	39.848	-0.291	0.259
-247.005	-156.722	0.935	-0.057
-245.990	-68.121	0.551	0.213
-244.976	113.176	-0.019	0.022
-243.961	-200.000	0.066	-0.391
-242.946	27.771	-0.588	0.491
-241.932	-29.816	0.625	-0.354
-240.917	-60.597	0.555	0.234
-239.903	112.246	-0.394	0.472
-238.888	800.000	0.097	0.334
-237.873	-36.737	0.975	-0.519
-236.859	-19.345	0.150	-0.093
-235.844	-200.000	0.107	-0.571
-234.830	-43.920	0.232	0.116
-233.815	-108.884	0.205	-0.043
-232.800	-41.965	0.238	0.121
-231.786	-200.000	0.039	0.239
-230.771	800.000	-0.286	-0.819
-229.757	-138.728	0.159	-0.017
-228.742	-166.178	-0.871	0.037
-227.727	-110.090	-1.025	0.212
-226.713	477.730	-0.217	-0.487
-225.698	31.084	-0.201	-0.171
-224.684	320.514	-0.099	-0.187
-223.669	-94.896	0.504	-0.135
-222.655	-199.826	0.724	0.004
-221.640	800.000	-0.225	0.902
-220.625	-20.807	-0.570	-0.347
-219.611	2.808	0.609	0.438
-218.596	-200.000	-0.032	0.198
-217.582	38.382	-0.458	-0.405
-216.567	-37.756	-0.301	0.159
-215.552	-100.489	0.660	-0.162
-214.538	-110.234	-0.019	0.004
-213.523	251.724	-0.294	-0.497
-212.509	-90.317	-0.205	0.059
-211.494	-30.576	-0.249	0.140
-210.479	-57.993	1.374	-0.594
-209.465	128.570	-0.212	0.268
-208.450	249.416	0.337	0.565
-207.436	-200.000	0.003	-0.372
-206.421	-17.567	0.687	0.428
-205.406	-20.455	-1.219	0.742
-204.392	-176.972	-1.029	-0.026
-203.377	-163.968	0.366	-0.017
-202.363	403.628	-0.156	-0.325
-201.348	344.945	0.201	0.391
-200.333	-200.000	0.014	0.656
-199.319	800.000	0.295	1.127
-198.304	-200.000	-0.078	-0.412
-197.290	-71.633	-1.216	0.450
-196.275	-89.634	0.342	0.099
-195.260	-172.735	-0.123	-0.004
-194.246	-102.300	0.936	0.223
-193.231	-200.000	-0.052	0.432
-192.217	800.000	0.274	-0.781
-191.202	350.065	-0.119	-0.233
-190.187	800.000	0.121	0.418
-189.173	-6.978	-0.231	-0.155
-188.158	392.922	0.365	-0.752
-187.144	-144.771	0.518	-0.047
-186.129	-200.000	0.055	0.790
-185.114	-62.954	-0.705	0.288
-184.100	-200.000	0.017	-0.392
-183.085	382.060	-0.067	0.137
-182.071	-200.000	-0.042	-0.231
-181.056	-10.637	-0.143	-0.093
-180.042	-200.000	0.011	0.923
-179.027	-132.188	0.541	-0.069
-178.012	364.187	-0.666	1.326
-176.998	-200.000	0.154	-0.712
-175.983	213.079	0.330	0.515
-174.969	-200.000	0.170	0.880
-173.954	698.050	-0.199	0.516
-172.939	-134.833	0.534	-0.064
-171.925	-200.000	-0.161	-0.779
-170.910	38.751	-0.279	0.247
-169.896	-200.000	-0.666	-0.003
-168.881	-128.112	-0.981	0.139
-167.866	-200.000	-0.025	0.529
-166.852	-56.152	-0.181	-0.080
-165.837	55.271	-0.809	0.774
-164.823	-9.186	-0.315	-0.209
-163.808	-66.985	-1.233	0.481
-162.793	-172.038	-0.304	-0.010
-161.779	346.780	-0.032	0.063
-160.764	-60.656	0.202	-0.085
-159.750	-155.888	0.111	0.007
-158.735	15.492	0.762	-0.592
-157.720	-200.000	-0.085	-0.518
-156.706	800.000	0.027	0.084
-155.691	99.911	-0.085	-0.097
-154.677	800.000	-0.058	0.188
-153.662	114.025	-0.432	-0.519
-152.647	-79.783	-0.380	-0.127
-151.633	-200.000	0.137	-0.688
-150.618	-200.000	0.152	1.281
-149.604	800.000	-0.222	-0.645
-148.589	627.414	-0.292	-0.728
-147.574	-140.600	-0.309	0.032
-146.560	-200.000	-0.084	-0.829
-145.545	18.527	0.248	0.196
-144.531	51.419	0.183	0.172
-143.516	77.234	0.475	0.499
-142.502	12.074	0.136	-0.104
-141.487	-61.174	0.916	-0.382
-140.472	319.129	-0.190	-0.356
-139.458	-46.160	1.161	-0.564
-138.443	-200.000	0.033	0.347
-137.429	-85.995	-0.260	0.079
-136.414	-111.016	0.500	-0.101
-135.399	-35.465	-0.185	-0.099
-134.385	30.332	0.458	0.386
-133.370	800.000	-0.206	-0.870
-132.356	595.902	0.065	0.158
-131.341	-200.000	-0.093	-0.707
-130.326	-39.924	0.248	-0.128
-129.312	-142.417	-0.465	-0.045
-128.297	-200.000	-0.064	-0.662
-127.283	-139.678	-0.025	0.003
-126.268	33.905	-0.357	-0.307
-125.253	-200.000	0.036	0.183
-124.239	186.995	0.502	0.738
-123.224	-200.000	-0.007	0.546
-122.210	-61.509	0.739	-0.306
