DTS Sentinel unit serial number:	SN413079Multiplexer serial number:	ORYXHardware model number:	OX4-SRSoftware version number:	ORYX F/W v4.00 Oryx Data Collector v3.7.2.0data status	okinstallation	princeton_trtdifferential loss correction	single-endedforward channel	channel 1reverse channel	N/Adate	2019/09/12time	16:36:11forward acquisition time	60.00reverse acquisition time	0.00gamma	496.2192k internal	0.2306k external	0.2306temperature offset calibration	1.0091default loss term (dB/km)	0.3790temperature slope calibration	1.0000multiplexer offset coefficient	1.0000multiplexer slope coefficient	1.0000fibre end	0.00T internal ref (°C)	36.98T ext. ref 1 (°C)	2.64T ext. ref 2 (°C)	29.59length (m)	temperature (°C)	Stokes	anti-Stokes-747.200	-54.182	0.198	-0.092
-746.185	376.581	-0.067	-0.139
-745.171	-40.057	0.209	-0.111
-744.156	-76.990	-0.128	0.045
-743.142	120.375	-0.144	-0.182
-742.127	28.340	-0.332	0.286
-741.112	24.457	-0.178	-0.150
-740.098	-200.000	0.006	0.138
-739.083	42.028	-0.169	-0.156
-738.069	-2.664	0.298	0.212
-737.054	-14.596	0.046	-0.030
-736.039	-10.431	-0.272	-0.183
-735.025	-2.306	-0.089	-0.064
-734.010	-36.781	-0.119	-0.065
-732.996	-63.929	-0.181	0.075
-731.981	-191.070	-0.129	0.001
-730.966	540.605	-0.132	-0.318
-729.952	-200.000	-0.014	-0.173
-728.937	415.233	-0.148	-0.321
-727.923	800.000	-0.170	-0.501
-726.908	571.883	-0.055	-0.136
-725.894	-129.894	-0.135	0.019
-724.879	-200.000	0.009	-0.139
-723.864	28.495	0.162	-0.139
-722.850	-164.456	-0.329	-0.015
-721.835	-53.028	-0.145	0.068
-720.821	51.760	0.113	0.109
-719.806	-8.138	0.084	-0.057
-718.791	722.183	-0.108	-0.291
-717.777	800.000	-0.140	-0.419
-716.762	51.564	0.141	-0.136
-715.748	-200.000	0.036	0.306
-714.733	800.000	0.060	-0.224
-713.718	-200.000	-0.004	-0.205
-712.704	464.169	-0.044	-0.100
-711.689	143.912	-0.131	-0.177
-710.675	16.488	-0.138	0.111
-709.660	25.343	0.367	0.310
-708.645	-200.000	-0.007	0.301
-707.631	800.000	0.137	0.409
-706.616	230.268	0.077	-0.128
-705.602	207.999	0.101	-0.160
-704.587	800.000	-0.068	-0.220
-703.572	-97.224	0.031	0.008
-702.558	-130.185	0.406	0.056
-701.543	-16.040	-0.318	-0.206
-700.529	-53.148	0.261	0.122
-699.514	-162.298	-0.094	0.005
-698.499	37.647	0.294	0.265
-697.485	34.947	0.263	0.233
-696.470	-200.000	-0.026	-0.152
-695.456	78.103	0.024	0.026
-694.441	-159.032	-0.065	0.004
-693.426	-200.000	-0.034	0.377
-692.412	-71.131	0.238	0.091
-691.397	327.182	0.133	-0.259
-690.383	252.860	0.076	-0.132
-689.368	800.000	0.074	-0.226
-688.354	48.387	-0.197	-0.187
-687.339	3.251	-0.044	0.032
-686.324	-22.677	-0.130	-0.079
-685.310	-200.000	0.010	-0.309
-684.295	800.000	0.047	0.148
-683.281	-200.000	-0.021	0.123
-682.266	-200.000	-0.001	0.107
-681.251	-114.030	-0.229	-0.045
-680.237	-22.811	0.129	-0.079
-679.222	-38.984	-0.198	0.106
-678.208	800.000	-0.026	0.110
-677.193	-32.400	0.160	-0.091
-676.178	487.735	-0.077	-0.178
-675.164	800.000	-0.110	-0.339
-674.149	-14.651	0.139	0.090
-673.135	11.095	0.197	-0.152
-672.120	101.222	0.165	-0.195
-671.105	701.277	0.099	-0.264
-670.091	-200.000	-0.002	0.041
-669.076	-200.000	-0.004	0.312
-668.062	-190.556	-0.066	-0.001
-667.047	800.000	-0.032	0.096
-666.032	-124.541	0.118	-0.019
-665.018	380.240	0.017	0.036
-664.003	76.202	-0.098	0.105
-662.989	-87.687	-0.146	-0.045
-661.974	377.699	-0.069	0.142
-660.959	344.952	-0.030	0.060
-659.945	-200.000	0.087	-0.000
-658.930	54.543	-0.255	-0.250
-657.916	-193.005	-0.275	-0.003
-656.901	79.021	0.040	-0.043
-655.886	475.273	0.081	-0.185
-654.872	-136.470	0.101	-0.012
-653.857	-81.284	-0.205	0.069
-652.843	148.692	-0.107	-0.147
-651.828	-64.985	0.262	0.107
-650.814	148.595	-0.223	-0.305
-649.799	-143.216	0.230	0.022
-648.784	-10.440	-0.053	-0.036
-647.770	-77.410	-0.246	0.087
-646.755	-200.000	0.034	0.156
-645.741	-106.873	0.207	0.046
-644.726	386.080	0.069	-0.145
-643.711	295.349	0.070	-0.130
-642.697	-200.000	0.011	0.070
-641.682	-26.505	-0.027	-0.016
-640.668	-71.495	0.133	0.050
-639.653	324.274	0.092	-0.179
-638.638	800.000	-0.027	0.094
-637.624	-9.911	0.176	0.118
-636.609	58.435	0.270	-0.268
-635.595	-58.175	-0.094	0.042
-634.580	-142.873	-0.334	-0.033
-633.565	-58.010	-0.041	-0.018
-632.551	87.929	0.198	-0.222
-631.536	47.858	-0.202	-0.191
-630.522	135.340	0.101	0.133
-629.507	-126.678	0.105	-0.016
-628.492	273.953	-0.193	-0.346
-627.478	-0.357	0.180	0.130
-626.463	463.694	0.024	0.054
-625.449	-200.000	-0.006	-0.143
-624.434	190.428	-0.187	-0.285
-623.419	15.380	-0.051	-0.041
-622.405	-99.055	-0.387	-0.099
-621.390	-200.000	0.073	0.360
-620.376	-131.490	-0.118	0.016
-619.361	-184.899	-0.249	-0.004
-618.346	-59.912	-0.227	-0.098
-617.332	-112.785	-0.272	-0.055
-616.317	-200.000	-0.046	-0.255
-615.303	-200.000	0.019	-0.145
-614.288	800.000	0.073	-0.311
-613.273	-135.319	0.280	-0.034
-612.259	-121.584	-0.262	-0.044
-611.244	282.888	-0.081	0.147
-610.230	-119.132	0.173	0.031
-609.215	248.983	0.071	-0.122
-608.201	165.272	-0.244	-0.349
-607.186	483.704	0.047	-0.109
-606.171	-164.333	0.477	0.022
-605.157	-51.900	0.286	0.134
-604.142	18.961	-0.180	-0.146
-603.128	-16.042	-0.057	-0.037
-602.113	3.243	0.177	0.130
-601.098	-200.000	-0.033	-0.197
-600.084	-21.170	-0.169	-0.105
-599.069	274.838	-0.044	0.078
-598.055	-33.367	0.179	-0.100
-597.040	-200.000	0.050	0.276
-596.025	-67.379	-0.498	0.198
-595.011	452.898	-0.049	-0.110
-593.996	-64.289	0.259	-0.106
-592.982	-32.558	-0.149	-0.084
-591.967	-73.966	-0.292	0.107
-590.952	-200.000	0.034	0.258
-589.938	-88.994	0.241	0.072
-588.923	-134.853	-0.414	-0.051
-587.909	-95.260	0.165	0.045
-586.894	-162.430	-0.180	-0.009
-585.879	800.000	0.152	0.458
-584.865	-84.103	-0.205	0.066
-583.850	-200.000	-0.000	-0.223
-582.836	141.917	-0.216	0.290
-581.821	-65.147	0.171	0.070
-580.806	-200.000	0.020	0.450
-579.792	-108.280	0.186	-0.041
-578.777	-179.582	-0.349	-0.008
-577.763	192.252	0.046	0.071
-576.748	-200.000	0.009	0.372
-575.733	-200.000	-0.024	0.200
-574.719	-83.894	-0.482	-0.155
-573.704	-20.819	0.105	-0.065
-572.690	-200.000	-0.007	0.086
-571.675	-35.978	-0.282	-0.154
-570.661	173.677	0.185	-0.270
-569.646	787.235	0.082	-0.226
-568.631	-96.406	-0.038	0.010
-567.617	-42.283	-0.137	-0.071
-566.602	-200.000	-0.088	-0.433
-565.588	-180.916	0.333	-0.007
-564.573	-146.321	-0.263	0.023
-563.558	-94.093	-0.060	0.017
-562.544	114.471	-0.155	-0.190
-561.529	512.157	-0.103	0.243
-560.515	2.676	-0.158	-0.116
-559.500	-157.767	0.275	0.016
-558.485	-200.000	-0.003	-0.104
-557.471	-53.885	0.218	0.100
-556.456	-200.000	-0.008	-0.199
-555.442	42.948	0.219	-0.202
-554.427	-110.448	0.227	0.048
-553.412	-104.245	0.311	-0.073
-552.398	-29.615	-0.143	-0.083
-551.383	-141.593	0.149	0.015
-550.369	-120.180	0.499	0.086
-549.354	800.000	0.065	-0.244
-548.339	434.541	-0.051	-0.112
-547.325	-112.612	-0.222	-0.045
-546.310	-200.000	-0.014	-0.079
-545.296	14.634	-0.125	0.099
-544.281	800.000	0.035	-0.100
-543.266	-103.234	-0.269	-0.064
-542.252	-41.413	-0.164	0.085
-541.237	123.155	0.114	0.144
-540.223	-117.472	-0.140	-0.025
-539.208	-81.534	-0.120	-0.040
-538.193	-200.000	0.020	-0.166
-537.179	-58.335	0.089	0.039
-536.164	-83.409	-0.416	0.134
-535.150	-13.364	-0.084	0.055
-534.135	-52.822	-0.179	0.083
-533.121	225.573	-0.078	-0.128
-532.106	758.306	-0.102	-0.278
-531.091	-152.805	0.252	-0.018
-530.077	-99.304	-0.258	-0.066
-529.062	-95.832	-0.210	0.057
-528.048	689.843	-0.040	0.104
-527.033	-50.324	0.116	0.056
-526.018	-200.000	-0.009	0.239
-525.004	-62.842	-0.256	0.107
-523.989	-200.000	0.015	-0.138
-522.975	-39.714	0.166	0.088
-521.960	178.884	-0.083	0.122
-520.945	-28.195	-0.161	0.094
-519.931	18.579	-0.439	0.354
-518.916	-77.270	0.253	-0.089
-517.902	-38.653	0.247	0.132
-516.887	-3.684	0.157	-0.110
-515.872	-200.000	-0.038	-0.238
-514.858	153.424	0.229	-0.316
-513.843	-85.701	-0.272	-0.085
-512.829	-200.000	-0.019	0.131
-511.814	64.021	0.242	-0.245
-510.799	-172.750	-0.340	0.011
-509.785	-200.000	0.025	-0.468
-508.770	89.306	0.013	-0.015
-507.756	-163.609	-0.231	0.011
-506.741	-200.000	-0.002	0.248
-505.726	-122.345	-0.199	0.033
-504.712	800.000	0.015	-0.063
-503.697	-160.728	-0.066	-0.004
-502.683	-200.000	-0.031	0.197
-501.668	-200.000	0.002	0.296
-500.653	89.302	0.120	-0.135
-499.639	-94.630	0.326	-0.089
-498.624	-27.112	0.266	0.156
-497.610	283.457	-0.100	-0.180
-496.595	-4.149	0.331	-0.231
-495.581	60.603	0.185	-0.185
-494.566	22.359	-0.250	-0.206
-493.551	-69.355	-0.165	-0.064
-492.537	800.000	-0.108	0.307
-491.522	140.794	0.166	0.221
-490.508	23.800	0.165	0.137
-489.493	-50.300	-0.341	-0.163
-488.478	454.831	0.041	0.092
-487.464	-183.902	0.412	0.007
-486.449	72.891	0.061	0.064
-485.435	423.003	0.137	-0.297
-484.420	141.284	0.264	-0.352
-483.405	-200.000	-0.022	0.366
-482.391	64.334	-0.113	-0.115
-481.376	-112.952	0.106	0.021
-480.362	177.649	-0.165	-0.242
-479.347	421.869	-0.088	-0.191
-478.332	-26.593	0.257	-0.152
-477.318	191.033	0.117	-0.177
-476.303	60.637	-0.283	0.282
-475.289	7.722	0.231	0.174
-474.274	87.203	0.043	-0.048
-473.259	-200.000	0.062	-0.372
-472.245	112.655	0.153	-0.187
-471.230	-91.931	0.270	0.077
-470.216	96.806	0.089	0.103
-469.201	-200.000	0.014	0.089
-468.186	108.480	-0.286	0.343
-467.172	-200.000	0.038	0.190
-466.157	-87.718	-0.245	-0.074
-465.143	469.131	-0.102	0.231
-464.128	-200.000	0.069	-0.494
-463.113	-200.000	-0.001	-0.017
-462.099	-93.050	-0.228	0.064
-461.084	-77.011	0.227	0.080
-460.070	-14.422	-0.297	0.192
-459.055	800.000	-0.051	0.169
-458.040	-105.573	0.162	-0.037
-457.026	47.518	-0.080	0.075
-456.011	-113.370	-0.173	-0.034
-454.997	-18.462	0.262	0.164
-453.982	-200.000	-0.001	0.067
-452.968	-200.000	-0.017	0.315
-451.953	274.410	-0.182	0.324
-450.938	-54.929	0.235	-0.107
-449.924	55.760	0.198	0.193
-448.909	800.000	0.078	0.270
-447.895	130.449	0.149	0.192
-446.880	-149.828	0.171	-0.013
-445.865	-200.000	-0.002	0.047
-444.851	278.131	-0.297	0.531
-443.836	-200.000	-0.015	0.225
-442.822	800.000	0.080	-0.278
-441.807	128.733	0.126	0.162
-440.792	-59.316	0.226	-0.098
-439.778	-126.508	0.213	-0.032
-438.763	-59.043	-0.104	-0.045
-437.749	224.274	-0.046	-0.075
-436.734	-200.000	-0.015	-0.254
-435.719	-200.000	-0.007	-0.036
-434.705	-120.098	0.243	0.042
-433.690	351.754	-0.091	0.182
-432.676	61.449	-0.133	0.133
-431.661	-200.000	0.045	0.658
-430.646	217.536	0.040	0.064
-429.632	407.662	-0.121	-0.258
-428.617	-76.929	-0.172	-0.061
-427.603	693.246	-0.023	0.060
-426.588	-200.000	0.079	0.355
-425.573	92.948	-0.216	-0.245
-424.559	-200.000	0.042	-0.306
-423.544	-200.000	0.004	-0.082
-422.530	-153.000	-0.205	-0.015
-421.515	-23.884	-0.044	0.027
-420.500	800.000	-0.023	0.091
-419.486	-104.805	0.226	0.052
-418.471	9.172	0.106	-0.081
-417.457	800.000	-0.050	-0.142
-416.442	-72.701	-0.216	0.080
-415.428	311.183	-0.010	0.019
-414.413	-200.000	0.027	0.132
-413.398	-51.195	0.126	-0.059
-412.384	-200.000	-0.066	-0.311
-411.369	25.841	-0.096	-0.080
-410.355	-132.489	0.184	-0.024
-409.340	391.770	-0.126	-0.262
-408.325	-200.000	-0.299	-0.001
-407.311	-13.970	-0.287	-0.186
-406.296	-99.964	-0.110	0.027
-405.282	12.120	0.261	0.201
-404.267	-67.486	0.212	-0.084
-403.252	-8.316	-0.388	0.262
-402.238	-94.756	-0.079	0.022
-401.223	-77.210	-0.375	-0.131
-400.209	-90.009	0.461	0.135
-399.194	-200.000	-0.022	0.250
-398.179	-36.095	0.104	0.056
-397.165	557.937	-0.071	0.171
-396.150	196.365	-0.149	-0.228
-395.136	-183.189	0.242	-0.004
-394.121	38.848	-0.127	-0.114
-393.106	245.834	0.133	-0.225
-392.092	-13.598	-0.287	-0.187
-391.077	-159.179	0.192	0.011
-390.063	140.836	-0.094	-0.124
-389.048	-27.321	0.322	-0.188
-388.033	-75.647	0.136	-0.048
-387.019	-156.537	0.428	-0.027
-386.004	663.445	-0.025	0.065
-384.990	-200.000	-0.048	-0.261
-383.975	-200.000	-0.018	0.330
-382.960	-145.059	-0.266	-0.024
-381.946	33.847	0.097	0.085
-380.931	2.306	0.081	0.059
-379.917	-200.000	0.014	-0.107
-378.902	-200.000	0.035	-0.330
-377.888	-200.000	-0.012	-0.307
-376.873	-3.447	0.083	0.058
-375.858	607.714	-0.097	0.243
-374.844	178.598	0.237	0.347
-373.829	70.383	0.200	0.207
-372.815	545.794	-0.059	0.143
-371.800	800.000	0.037	-0.108
-370.785	-200.000	0.013	0.062
-369.771	-63.632	0.184	-0.075
-368.756	68.530	-0.202	0.208
-367.742	-97.408	-0.255	-0.067
-366.727	204.635	-0.056	-0.088
-365.712	-200.000	-0.002	-0.023
-364.698	397.788	0.020	0.043
-363.683	208.319	-0.191	-0.299
-362.669	192.993	0.094	0.143
-361.654	302.070	-0.099	0.184
-360.639	-91.565	0.299	0.085
-359.625	349.805	0.055	0.108
-358.610	97.620	-0.081	-0.093
-357.596	-108.183	-0.038	-0.008
-356.581	254.607	-0.217	0.372
-355.566	-167.923	0.139	-0.005
-354.552	-140.850	-0.305	-0.031
-353.537	363.815	-0.018	0.036
-352.523	-200.000	0.002	0.047
-351.508	40.839	-0.164	0.148
-350.493	-111.042	0.494	-0.102
-349.479	-112.281	0.236	0.047
-348.464	-200.000	0.022	-0.101
-347.450	69.233	0.265	0.273
-346.435	-73.699	0.056	-0.020
-345.420	800.000	0.069	-0.296
-344.406	800.000	0.101	0.319
-343.391	-10.848	0.220	-0.145
-342.377	-200.000	0.016	0.178
-341.362	-17.766	-0.387	-0.243
-340.348	-125.140	0.343	-0.053
-339.333	-45.470	0.296	0.147
-338.318	143.609	0.188	0.251
-337.304	3.996	0.187	-0.137
-336.289	138.220	-0.053	-0.070
-335.275	-43.363	0.246	-0.125
-334.260	82.477	0.112	0.121
-333.245	800.000	0.035	-0.127
-332.231	116.668	0.155	-0.191
-331.216	141.428	-0.027	0.035
-330.202	-119.415	-0.298	-0.052
-329.187	-5.167	0.177	0.122
-328.172	-17.426	-0.103	0.065
-327.158	-24.051	-0.277	-0.166
-326.143	-11.988	-0.181	-0.119
-325.129	-24.611	-0.294	-0.175
-324.114	-117.163	-0.259	0.047
-323.099	193.476	-0.094	-0.143
-322.085	-83.500	0.124	-0.040
-321.070	-1.361	0.052	0.037
-320.056	36.820	0.158	-0.140
-319.041	-179.079	0.245	0.006
-318.026	-25.404	-0.323	0.191
-317.012	-81.239	0.140	-0.046
-315.997	-200.000	-0.006	0.387
-314.983	-164.072	-0.163	-0.008
-313.968	800.000	0.093	-0.297
-312.953	-18.527	0.115	-0.072
-311.939	137.072	-0.041	-0.054
-310.924	43.944	0.295	0.270
-309.910	-200.000	0.055	0.374
-308.895	-79.880	0.211	-0.071
-307.880	71.413	-0.102	0.106
-306.866	-47.458	-0.190	0.092
-305.851	-200.000	-0.019	0.275
-304.837	-200.000	-0.027	0.000
-303.822	643.496	0.032	0.082
-302.807	800.000	0.020	-0.080
-301.793	36.320	-0.219	-0.193
-300.778	65.974	0.072	0.073
-299.764	168.881	0.144	0.205
-298.749	-200.000	-0.024	0.292
-297.735	20.738	0.044	0.036
-296.720	-200.000	0.036	0.311
-295.705	4.212	-0.253	0.185
-294.691	-115.296	0.048	-0.009
-293.676	-110.025	0.235	-0.049
-292.662	-52.468	0.175	0.081
-291.647	800.000	0.105	-0.356
-290.632	-200.000	0.061	0.403
-289.618	28.432	-0.216	-0.183
-288.603	-83.692	0.308	0.098
-287.589	-8.520	-0.235	-0.158
-286.574	-96.354	0.365	0.096
-285.559	800.000	0.084	0.290
-284.545	-200.000	0.001	0.048
-283.530	-200.000	-0.029	-0.264
-282.516	-98.899	0.226	0.057
-281.501	252.626	-0.171	0.291
-280.486	800.000	-0.079	-0.225
-279.472	-100.872	0.243	-0.060
-278.457	250.152	-0.058	0.098
-277.443	-110.281	0.313	0.065
-276.428	24.029	-0.117	0.096
-275.413	-200.000	-0.034	0.289
-274.399	-200.000	0.006	0.153
-273.384	33.562	0.055	-0.048
-272.370	530.479	0.059	-0.138
-271.355	12.258	-0.139	0.107
-270.340	-57.635	-0.481	0.210
-269.326	-143.852	-0.065	0.006
-268.311	239.895	-0.055	-0.091
-267.297	99.503	0.179	-0.207
-266.282	482.281	-0.063	0.144
-265.267	-200.000	-0.026	0.202
-264.253	636.512	-0.037	0.095
-263.238	-200.000	-0.017	0.223
-262.224	-42.840	-0.217	-0.110
-261.209	-75.489	0.129	-0.046
-260.195	182.127	0.229	0.337
-259.180	469.445	0.118	-0.264
-258.165	-200.000	-0.035	0.185
-257.151	800.000	0.098	0.292
-256.136	172.537	0.158	0.227
-255.122	-200.000	0.039	0.193
-254.107	-40.092	-0.307	-0.160
-253.092	-200.000	0.008	-0.134
-252.078	-200.000	-0.010	0.061
-251.063	800.000	-0.091	-0.306
-250.049	-72.800	0.214	-0.079
-249.034	-89.374	0.281	-0.082
-248.019	-0.959	0.286	0.202
-247.005	-10.739	0.197	-0.130
-245.990	321.574	-0.069	0.130
-244.976	157.730	-0.123	-0.170
-243.961	43.083	-0.159	0.145
-242.946	317.473	-0.105	-0.198
-241.932	157.818	-0.134	-0.185
-240.917	800.000	-0.038	0.160
-239.903	-17.681	-0.090	0.056
-238.888	-200.000	-0.022	-0.205
-237.873	-200.000	-0.026	-0.348
-236.859	-1.849	0.228	-0.160
-235.844	800.000	-0.018	0.056
-234.830	-70.292	0.045	-0.017
-233.815	-48.320	-0.031	-0.015
-232.800	67.556	-0.201	-0.205
-231.786	510.669	-0.071	0.164
-230.771	-53.513	-0.137	0.062
-229.757	595.569	0.074	0.182
-228.742	-125.766	0.183	-0.028
-227.727	234.480	-0.090	0.148
-226.713	-200.000	0.009	-0.058
-225.698	-200.000	0.009	-0.153
-224.684	-89.678	0.199	-0.058
-223.669	-200.000	0.010	0.103
-222.655	800.000	-0.015	-0.060
-221.640	-71.718	0.378	-0.141
-220.625	-200.000	0.021	0.104
-219.611	-70.843	0.097	0.036
-218.596	-200.000	-0.012	-0.092
-217.582	106.460	-0.057	-0.068
-216.567	168.396	-0.125	0.177
-215.552	165.379	0.106	0.150
-214.538	-200.000	-0.030	-0.285
-213.523	-147.017	0.191	0.016
-212.509	-155.207	-0.324	-0.021
-211.494	-124.428	0.311	-0.048
-210.479	28.720	0.162	-0.137
-209.465	-70.883	-0.245	0.092
-208.450	-200.000	0.020	0.173
-207.436	-99.715	0.207	-0.052
-206.421	-143.619	-0.076	0.007
-205.406	56.254	-0.186	0.180
-204.392	-200.000	-0.062	0.000
-203.377	-1.876	0.165	-0.115
-202.363	-132.650	-0.087	-0.011
-201.348	800.000	0.153	-0.512
-200.333	308.724	-0.135	-0.251
-199.319	136.386	-0.238	-0.309
-198.304	-200.000	-0.008	0.124
-197.290	-113.624	0.290	-0.056
-196.275	116.413	-0.129	0.158
-195.260	-35.416	0.251	0.136
-194.246	593.631	0.107	-0.263
-193.231	6.485	-0.153	-0.113
-192.217	3.629	-0.084	-0.061
-191.202	122.938	-0.157	-0.196
-190.187	-200.000	-0.036	0.186
-189.173	224.362	0.027	-0.044
-188.158	-52.528	-0.021	-0.010
-187.144	-20.040	0.259	0.159
-186.129	-85.720	-0.070	-0.022
-185.114	-187.832	0.227	-0.003
-184.100	-87.425	-0.396	0.119
-183.085	-13.573	-0.253	-0.163
-182.071	-5.740	0.175	-0.120
-181.056	456.140	-0.135	-0.298
-180.042	-8.374	-0.238	-0.159
-179.027	-80.622	-0.048	-0.016
-178.012	30.415	0.195	0.166
-176.998	-54.680	0.298	0.134
-175.983	800.000	0.057	0.194
-174.969	-200.000	-0.023	-0.321
-173.954	72.966	-0.210	-0.219
-172.939	-60.094	-0.230	0.098
-171.925	500.697	-0.082	0.188
-170.910	70.632	0.135	-0.139
-169.896	98.027	-0.257	-0.294
-168.881	-102.165	-0.136	-0.032
-167.866	-37.648	-0.254	-0.135
-166.852	-85.124	-0.130	-0.040
-165.837	-160.176	-0.032	-0.002
-164.823	-153.446	-0.443	0.031
-163.808	73.324	0.089	0.092
-162.793	-24.885	0.305	-0.180
-161.779	207.546	0.037	-0.057
-160.764	555.413	-0.061	-0.147
-159.750	-50.752	0.195	0.091
-158.735	-145.502	-0.188	0.017
-157.720	-200.000	-0.049	0.231
-156.706	12.461	-0.088	0.068
-155.691	214.567	-0.097	-0.152
-154.677	19.290	0.030	-0.024
-153.662	-110.310	0.026	-0.005
-152.647	240.004	-0.047	0.078
-151.633	336.328	-0.187	0.360
-150.618	341.408	0.053	0.102
-149.604	662.031	-0.007	0.019
-148.589	-24.895	-0.058	0.034
-147.574	800.000	0.049	-0.203
-146.560	262.961	0.033	-0.057
-145.545	-104.735	0.308	-0.070
-144.531	800.000	0.052	-0.179
-143.516	-1.540	0.255	-0.178
-142.502	800.000	0.099	0.320
-141.487	28.350	0.083	-0.070
-140.472	271.316	-0.125	-0.220
-139.458	323.783	-0.108	0.205
-138.443	-62.888	0.323	0.133
-137.429	-200.000	0.116	-0.000
-136.414	-96.690	0.536	0.140
-135.399	13.792	0.058	0.045
-134.385	31.919	0.181	-0.155
-133.370	155.107	0.090	-0.123
-132.356	800.000	0.023	0.062
-131.341	-97.274	-0.143	0.037
-130.326	-200.000	0.014	0.203
-129.312	129.142	-0.115	-0.145
-128.297	-86.535	0.194	-0.059
-127.283	579.645	-0.091	-0.220
-126.268	143.074	-0.224	-0.296
-125.253	-200.000	-0.004	0.200
-124.239	-200.000	0.007	-0.151
-123.224	-91.094	0.263	-0.075
-122.210	-116.428	0.238	-0.044
