DTS Sentinel unit serial number:	SN413079Multiplexer serial number:	ORYXHardware model number:	OX4-SRSoftware version number:	ORYX F/W v4.00 Oryx Data Collector v3.7.2.0data status	okinstallation	princeton_trtdifferential loss correction	single-endedforward channel	channel 1reverse channel	N/Adate	2019/09/12time	21:02:35forward acquisition time	60.00reverse acquisition time	0.00gamma	496.2192k internal	0.2325k external	0.2325temperature offset calibration	1.0145default loss term (dB/km)	0.3790temperature slope calibration	1.0000multiplexer offset coefficient	1.0000multiplexer slope coefficient	1.0000fibre end	0.00T internal ref (°C)	30.81T ext. ref 1 (°C)	3.58T ext. ref 2 (°C)	25.31length (m)	temperature (°C)	Stokes	anti-Stokes-747.200	-23.641	0.450	0.272
-746.185	25.418	-0.140	-0.117
-745.171	-200.000	-0.029	-0.215
-744.156	488.565	0.064	0.148
-743.142	173.574	0.266	-0.388
-742.127	89.535	0.167	0.188
-741.112	-97.719	-0.505	0.132
-740.098	800.000	-0.087	0.291
-739.083	-200.000	-0.055	0.373
-738.069	761.244	-0.064	0.176
-737.054	592.010	0.086	-0.213
-736.039	128.405	-0.212	-0.272
-735.025	-61.252	0.091	-0.039
-734.010	240.954	-0.129	-0.218
-732.996	480.123	-0.097	-0.222
-731.981	301.990	-0.128	0.239
-730.966	49.272	-0.069	0.066
-729.952	-113.157	-0.136	0.027
-728.937	168.860	0.081	-0.117
-727.923	-200.000	0.035	-0.393
-726.908	237.871	-0.019	-0.032
-725.894	-130.250	-0.261	-0.036
-724.879	-81.581	-0.327	-0.108
-723.864	-59.569	-0.097	-0.042
-722.850	47.002	-0.240	-0.225
-721.835	800.000	0.070	-0.231
-720.821	-91.733	-0.248	-0.071
-719.806	-200.000	0.008	-0.047
-718.791	-144.917	-0.175	0.016
-717.777	-38.114	-0.307	-0.164
-716.762	791.431	0.028	-0.077
-715.748	800.000	0.044	-0.147
-714.733	8.287	0.142	0.108
-713.718	97.439	0.233	-0.270
-712.704	351.207	-0.035	-0.071
-711.689	64.898	0.093	-0.094
-710.675	-200.000	0.104	-0.469
-709.660	167.226	-0.171	-0.245
-708.645	-23.626	0.202	-0.122
-707.631	-21.949	0.035	0.021
-706.616	800.000	0.008	-0.025
-705.602	-128.734	-0.438	0.062
-704.587	-200.000	0.009	0.147
-703.572	-97.891	0.067	0.017
-702.558	-32.951	-0.133	-0.074
-701.543	-72.340	0.107	-0.040
-700.529	-44.507	0.097	-0.049
-699.514	156.687	0.162	0.226
-698.499	96.804	0.096	0.111
-697.485	-83.821	0.161	0.052
-696.470	402.175	-0.039	0.082
-695.456	800.000	-0.037	-0.129
-694.441	77.627	-0.257	-0.276
-693.426	-148.848	-0.376	0.031
-692.412	-79.880	0.149	-0.050
-691.397	-150.824	-0.178	-0.014
-690.383	13.325	-0.122	0.095
-689.368	48.206	0.072	-0.068
-688.354	-151.238	0.252	-0.019
-687.339	187.078	-0.023	-0.034
-686.324	260.219	0.031	-0.054
-685.310	144.309	-0.254	-0.341
-684.295	37.740	0.414	-0.370
-683.281	29.833	0.192	0.164
-682.266	-200.000	0.026	-0.232
-681.251	141.530	0.107	0.143
-680.237	84.505	0.071	-0.078
-679.222	-86.694	-0.221	0.068
-678.208	163.114	0.069	-0.097
-677.193	-22.660	-0.363	-0.221
-676.178	6.502	-0.157	-0.117
-675.164	90.380	-0.135	0.152
-674.149	-127.802	0.279	-0.040
-673.135	-26.900	0.120	-0.070
-672.120	-152.150	-0.170	-0.012
-671.105	-200.000	0.003	0.066
-670.091	-22.478	0.104	0.064
-669.076	42.185	-0.261	-0.239
-668.062	136.318	0.133	-0.175
-667.047	-200.000	-0.000	0.318
-666.032	-59.542	0.035	-0.015
-665.018	-34.288	0.453	-0.250
-664.003	63.809	-0.101	-0.102
-662.989	-169.477	0.365	0.013
-661.974	-200.000	0.024	0.299
-660.959	-63.373	0.080	0.033
-659.945	-105.439	-0.155	0.035
-658.930	-72.230	-0.082	-0.031
-657.916	800.000	0.077	-0.312
-656.901	74.915	-0.202	-0.214
-655.886	84.834	-0.177	-0.195
-654.872	-59.600	0.187	0.081
-653.857	374.649	-0.119	0.244
-652.843	395.957	-0.048	-0.101
-651.828	260.848	-0.189	-0.328
-650.814	800.000	-0.064	0.209
-649.799	800.000	-0.055	0.223
-648.784	800.000	-0.072	-0.307
-647.770	-200.000	-0.010	-0.082
-646.755	-41.727	-0.106	0.055
-645.741	23.687	0.118	0.098
-644.726	-136.028	0.326	-0.039
-643.711	-142.609	0.287	0.028
-642.697	664.321	-0.096	0.248
-641.682	144.405	0.186	-0.249
-640.668	-66.736	-0.259	0.103
-639.653	495.220	-0.089	0.206
-638.638	-21.476	0.178	-0.109
-637.624	-50.787	-0.181	0.086
-636.609	800.000	-0.130	-0.383
-635.595	146.641	0.237	0.320
-634.580	-200.000	0.027	-0.479
-633.565	-200.000	0.000	-0.082
-632.551	-200.000	0.017	-0.148
-631.536	533.875	0.013	0.032
-630.522	0.234	0.128	-0.092
-629.507	-151.628	-0.085	-0.006
-628.492	-116.635	0.357	-0.066
-627.478	581.827	-0.018	-0.046
-626.463	199.034	0.141	-0.216
-625.449	-165.010	0.257	0.011
-624.434	181.480	-0.298	-0.441
-623.419	13.126	0.362	-0.281
-622.405	655.342	-0.112	0.288
-621.390	800.000	0.021	-0.060
-620.376	-67.241	-0.283	0.112
-619.361	361.614	-0.098	-0.197
-618.346	800.000	0.056	-0.199
-617.332	-91.928	-0.259	-0.074
-616.317	-200.000	-0.013	-0.201
-615.303	-51.500	-0.083	0.039
-614.288	267.048	0.056	0.098
-613.273	-200.000	0.033	-0.156
-612.259	260.180	-0.038	0.066
-611.244	89.012	-0.169	0.189
-610.230	-147.461	0.125	0.011
-609.215	-175.121	-0.169	-0.005
-608.201	-200.000	-0.046	0.252
-607.186	82.589	0.142	-0.155
-606.171	280.368	0.210	0.377
-605.157	623.392	0.051	-0.128
-604.142	391.434	0.094	-0.196
-603.128	-200.000	-0.041	-0.357
-602.113	-200.000	-0.012	0.103
-601.098	403.102	0.031	0.066
-600.084	61.117	-0.068	-0.068
-599.069	-109.520	-0.221	-0.047
-598.055	-200.000	-0.042	0.298
-597.040	-68.489	0.311	-0.121
-596.025	-139.136	-0.209	0.023
-595.011	-200.000	0.034	0.202
-593.996	-200.000	-0.032	-0.290
-592.982	-200.000	-0.034	-0.210
-591.967	-66.770	-0.288	-0.114
-590.952	303.126	-0.032	0.059
-589.938	-200.000	0.039	-0.287
-588.923	133.830	0.169	0.219
-587.909	-85.382	-0.182	0.057
-586.894	148.203	-0.247	-0.334
-585.879	242.498	0.004	-0.006
-584.865	-200.000	-0.013	-0.171
-583.850	800.000	-0.077	0.243
-582.836	-121.619	-0.122	-0.020
-581.821	-200.000	-0.059	0.377
-580.806	-200.000	-0.012	0.150
-579.792	71.205	-0.267	0.278
-578.777	800.000	-0.027	0.089
-577.763	-78.684	-0.199	0.068
-576.748	-141.020	0.291	-0.030
-575.733	486.116	0.020	0.045
-574.719	-13.372	0.174	0.113
-573.704	778.869	-0.147	-0.404
-572.690	43.737	-0.089	-0.082
-571.675	720.624	-0.050	0.134
-570.661	152.005	-0.242	0.331
-569.646	800.000	0.084	-0.295
-568.631	-21.062	0.131	0.080
-567.617	43.184	-0.179	-0.163
-566.602	-195.115	0.287	-0.002
-565.588	-200.000	0.013	-0.393
-564.573	-72.414	-0.276	0.102
-563.558	-200.000	-0.036	0.179
-562.544	-137.929	-0.079	-0.009
-561.529	408.752	0.215	0.456
-560.515	-46.657	-0.186	-0.091
-559.500	88.856	-0.074	-0.083
-558.485	-104.995	0.103	-0.024
-557.471	-57.907	0.226	-0.099
-556.456	-114.523	0.292	0.056
-555.442	37.433	0.224	0.199
-554.427	-20.114	-0.133	-0.082
-553.412	52.922	0.177	0.170
-552.398	-200.000	-0.050	-0.234
-551.383	-200.000	0.058	0.285
-550.369	-200.000	0.059	-0.274
-549.354	-15.722	-0.227	-0.145
-548.339	32.884	0.124	-0.107
-547.325	250.948	0.104	0.176
-546.310	-33.811	-0.239	0.132
-545.296	121.939	-0.116	0.145
-544.281	-81.292	-0.073	0.024
-543.266	-200.000	-0.036	-0.158
-542.252	-151.001	-0.108	-0.008
-541.237	684.351	0.017	0.046
-540.223	-126.613	0.393	-0.058
-539.208	669.679	-0.077	0.200
-538.193	-148.106	-0.381	-0.032
-537.179	-66.196	0.228	-0.091
-536.164	125.056	0.091	-0.115
-535.150	-200.000	-0.029	-0.414
-534.135	71.353	0.194	-0.202
-533.121	115.027	0.146	-0.178
-532.106	162.878	-0.293	0.411
-531.091	6.955	0.287	0.214
-530.077	-192.245	-0.473	0.005
-529.062	312.198	0.188	-0.354
-528.048	61.629	0.107	0.106
-527.033	-62.133	-0.046	0.019
-526.018	-200.000	-0.014	-0.155
-525.004	-176.737	-0.102	-0.003
-523.989	-200.000	0.046	0.202
-522.975	-200.000	0.035	0.339
-521.960	-37.714	0.178	0.095
-520.945	14.141	0.057	-0.045
-519.931	508.752	-0.037	-0.085
-518.916	-68.381	0.186	-0.072
-517.902	-139.257	-0.315	0.034
-516.887	223.243	-0.082	0.132
-515.872	50.762	0.193	0.183
-514.858	200.542	0.203	-0.312
-513.843	-156.022	-0.292	-0.019
-512.829	-101.989	0.313	0.075
-511.814	7.550	0.131	-0.098
-510.799	-200.000	0.014	0.332
-509.785	489.227	0.050	0.115
-508.770	90.200	-0.107	-0.120
-507.756	570.100	-0.082	-0.199
-506.741	-200.000	-0.001	0.193
-505.726	-200.000	-0.041	-0.399
-504.712	43.962	-0.215	-0.197
-503.697	199.801	-0.161	0.247
-502.683	-84.939	-0.345	-0.108
-501.668	-60.784	-0.204	0.086
-500.653	-79.356	0.067	-0.023
-499.639	-64.988	0.230	0.093
-498.624	346.252	-0.038	0.076
-497.610	-200.000	-0.001	0.036
-496.595	590.176	-0.102	-0.251
-495.581	-14.711	-0.308	0.198
-494.566	-200.000	-0.014	-0.125
-493.551	-200.000	-0.040	-0.219
-492.537	607.024	0.112	-0.279
-491.522	351.247	0.076	0.150
-490.508	33.658	0.114	-0.099
-489.493	525.722	0.080	-0.187
-488.478	-131.592	0.409	-0.054
-487.464	95.196	0.124	0.141
-486.449	-42.964	0.187	-0.095
-485.435	800.000	0.086	-0.311
-484.420	-200.000	-0.011	-0.174
-483.405	-200.000	-0.010	0.104
-482.391	575.110	0.119	0.289
-481.376	368.112	0.104	-0.210
-480.362	-127.044	-0.431	-0.063
-479.347	-200.000	-0.031	-0.182
-478.332	79.670	0.111	-0.119
-477.318	-127.143	-0.182	0.027
-476.303	60.152	-0.216	-0.213
-475.289	-151.447	-0.171	0.013
-474.274	-77.925	-0.333	-0.115
-473.259	77.633	0.134	0.142
-472.245	-153.394	0.108	0.007
-471.230	97.224	-0.081	0.093
-470.216	-43.921	-0.176	-0.088
-469.201	71.266	-0.209	0.216
-468.186	-102.352	0.229	-0.055
-467.172	240.014	0.169	0.282
-466.157	-162.154	0.361	-0.018
-465.143	11.786	-0.300	-0.230
-464.128	800.000	0.066	0.207
-463.113	-94.984	-0.156	-0.042
-462.099	59.612	-0.045	0.044
-461.084	-200.000	-0.008	0.073
-460.070	800.000	-0.074	0.291
-459.055	147.962	0.057	0.077
-458.040	40.093	-0.128	-0.114
-457.026	-126.384	0.263	-0.039
-456.011	-170.134	-0.250	0.009
-454.997	272.102	0.050	-0.087
-453.982	88.930	-0.037	0.041
-452.968	-200.000	0.043	-0.215
-451.953	-37.366	-0.097	-0.052
-450.938	205.171	0.035	-0.054
-449.924	-200.000	-0.045	0.401
-448.909	-200.000	0.007	0.239
-447.895	-23.819	-0.300	-0.179
-446.880	68.423	-0.193	0.197
-445.865	-200.000	0.050	-0.226
-444.851	400.797	0.042	0.089
-443.836	-200.000	-0.025	0.239
-442.822	119.169	0.272	-0.335
-441.807	-84.787	-0.052	0.016
-440.792	312.247	0.062	0.116
-439.778	172.668	0.154	0.221
-438.763	-200.000	-0.005	-0.385
-437.749	548.495	-0.116	-0.277
-436.734	-200.000	-0.155	-0.001
-435.719	800.000	0.094	-0.314
-434.705	-200.000	-0.047	-0.268
-433.690	239.937	-0.225	0.374
-432.676	-64.433	0.141	0.057
-431.661	-12.366	0.064	-0.042
-430.646	243.276	0.149	-0.249
-429.632	367.080	-0.141	-0.283
-428.617	-88.598	-0.264	-0.078
-427.603	-133.945	-0.254	-0.031
-426.588	-104.524	-0.466	-0.107
-425.573	161.015	-0.127	-0.177
-424.559	160.869	-0.202	0.281
-423.544	-43.241	-0.289	0.146
-422.530	515.803	0.052	-0.122
-421.515	161.354	0.038	-0.052
-420.500	67.314	0.145	0.147
-419.486	-67.027	0.406	0.160
-418.471	-11.607	-0.287	-0.188
-417.457	-1.147	-0.231	-0.163
-416.442	-61.327	-0.364	-0.152
-415.428	-200.000	-0.017	-0.338
-414.413	201.434	0.151	-0.232
-413.398	-64.519	0.126	0.051
-412.384	-200.000	0.006	0.150
-411.369	-144.405	-0.168	0.016
-410.355	-200.000	0.013	-0.108
-409.340	-191.202	-0.297	0.003
-408.325	-69.864	-0.171	0.065
-407.311	-94.934	-0.301	0.081
-406.296	-200.000	0.004	-0.279
-405.282	107.762	0.070	-0.083
-404.267	-71.069	0.311	0.116
-403.252	40.536	-0.126	0.113
-402.238	-48.999	-0.299	0.143
-401.223	414.612	0.059	-0.126
-400.209	-200.000	0.017	0.261
-399.194	5.802	0.101	0.074
-398.179	10.703	-0.167	0.127
-397.165	-46.197	0.187	0.092
-396.150	-94.391	0.274	0.074
-395.136	285.063	0.069	-0.123
-394.121	-110.236	0.197	-0.041
-393.106	-131.532	-0.132	-0.017
-392.092	564.220	0.100	0.240
-391.077	136.828	0.111	0.144
-390.063	310.571	0.123	-0.229
-389.048	-150.111	-0.180	0.014
-388.033	493.607	-0.143	0.327
-387.019	19.745	-0.247	0.198
-386.004	285.024	-0.085	-0.153
-384.990	288.719	0.102	-0.184
-383.975	-200.000	-0.015	0.113
-382.960	-69.319	0.145	-0.055
-381.946	299.472	0.098	0.179
-380.931	-93.957	-0.359	-0.098
-379.917	-115.970	0.188	-0.035
-378.902	-68.059	0.258	-0.100
-377.888	180.041	0.139	-0.203
-376.873	-13.529	-0.051	0.033
-375.858	-200.000	0.006	-0.106
-374.844	18.763	-0.073	0.058
-373.829	-86.497	-0.272	0.083
-372.815	-49.216	0.232	0.110
-371.800	-124.455	-0.060	0.009
-370.785	-43.097	0.043	0.022
-369.771	-112.136	0.171	0.034
-368.756	14.271	0.069	0.054
-367.742	364.505	0.126	0.251
-366.727	-41.268	0.215	0.110
-365.712	-200.000	0.001	0.049
-364.698	57.669	-0.157	0.153
-363.683	-111.792	-0.428	0.086
-362.669	-162.044	0.209	0.010
-361.654	-78.239	0.137	0.047
-360.639	254.206	-0.103	0.175
-359.625	-66.451	-0.502	0.198
-358.610	401.610	0.055	-0.114
-357.596	-63.300	0.285	0.117
-356.581	80.678	0.127	-0.136
-355.566	-106.810	0.287	-0.063
-354.552	-29.008	-0.133	-0.076
-353.537	-116.523	-0.102	0.019
-352.523	-200.000	-0.020	0.217
-351.508	89.221	-0.169	0.187
-350.493	-200.000	-0.006	-0.080
-349.479	-109.527	-0.351	0.074
-348.464	-200.000	0.018	0.161
-347.450	110.027	-0.150	-0.179
-346.435	14.619	-0.268	-0.208
-345.420	-200.000	-0.002	0.136
-344.406	-200.000	0.013	0.175
-343.391	800.000	-0.050	-0.186
-342.377	-104.096	0.253	0.059
-341.362	147.503	-0.011	-0.015
-340.348	77.543	-0.112	-0.119
-339.333	-6.468	-0.034	-0.023
-338.318	-200.000	-0.013	0.181
-337.304	-147.201	-0.080	0.007
-336.289	800.000	0.039	-0.141
-335.275	-58.633	0.206	-0.089
-334.260	198.017	-0.047	-0.072
-333.245	-200.000	0.020	-0.148
-332.231	-200.000	0.007	0.171
-331.216	800.000	-0.037	-0.141
-330.202	355.829	0.168	0.332
-329.187	90.919	0.323	0.359
-328.172	-95.054	-0.177	0.048
-327.158	-109.893	0.088	0.018
-326.143	-129.050	0.235	-0.033
-325.129	-200.000	-0.002	0.071
-324.114	201.400	-0.029	-0.045
-323.099	55.107	-0.144	-0.138
-322.085	48.096	0.179	0.166
-321.070	-200.000	-0.086	0.377
-320.056	-41.194	-0.054	-0.028
-319.041	522.248	0.145	-0.337
-318.026	91.157	0.153	-0.170
-317.012	-130.944	0.176	-0.023
-315.997	-116.870	0.321	-0.058
-314.983	-200.000	-0.036	0.240
-313.968	193.344	-0.222	-0.333
-312.953	-200.000	-0.046	0.356
-311.939	-63.198	0.192	0.079
-310.924	-105.480	-0.239	-0.054
-309.910	-200.000	-0.057	0.349
-308.895	60.214	0.025	0.024
-307.880	555.638	0.073	0.174
-306.866	247.071	0.070	-0.118
-305.851	-200.000	0.001	0.389
-304.837	-99.234	0.327	0.082
-303.822	146.174	0.082	0.109
-302.807	614.368	-0.090	-0.223
-301.793	-32.796	-0.118	-0.065
-300.778	-112.100	-0.434	-0.087
-299.764	27.820	-0.067	-0.056
-298.749	-115.666	0.364	0.068
-297.735	233.942	-0.028	-0.045
-296.720	-116.482	0.126	-0.023
-295.705	112.457	0.274	0.328
-294.691	-15.562	0.137	-0.087
-293.676	-129.859	-0.175	-0.024
-292.662	-23.571	0.317	-0.189
-291.647	-176.943	-0.116	-0.003
-290.632	-25.498	0.063	0.037
-289.618	256.420	0.223	0.380
-288.603	164.321	-0.074	0.103
-287.589	311.063	-0.162	0.301
-286.574	800.000	0.019	0.059
-285.559	80.165	-0.095	0.101
-284.545	-136.458	0.118	-0.014
-283.530	-200.000	-0.055	0.574
-282.516	-130.219	0.271	0.037
-281.501	124.334	-0.198	-0.246
-280.486	-200.000	-0.002	-0.202
-279.472	226.922	0.302	0.486
-278.457	-200.000	0.000	-0.103
-277.443	362.973	-0.058	0.115
-276.428	-185.009	-0.098	0.002
-275.413	164.205	0.120	0.167
-274.399	115.801	0.182	-0.221
-273.384	-64.007	0.180	0.073
-272.370	245.629	-0.084	0.140
-271.355	800.000	0.062	-0.232
-270.340	9.843	0.083	-0.062
-269.326	-133.875	0.283	0.035
-268.311	-94.676	-0.097	0.026
-267.297	-200.000	0.046	-0.210
-266.282	-200.000	0.032	-0.369
-265.267	-200.000	-0.001	0.077
-264.253	-49.369	0.433	0.204
-263.238	800.000	0.027	0.108
-262.224	-23.556	0.121	-0.072
-261.209	12.894	0.168	-0.129
-260.195	284.982	-0.098	-0.175
-259.180	-4.254	-0.342	-0.234
-258.165	-200.000	-0.063	-0.337
-257.151	490.621	0.068	-0.155
-256.136	-171.578	-0.098	-0.003
-255.122	436.925	0.050	0.109
-254.107	313.961	0.081	-0.151
-253.092	-200.000	-0.027	0.260
-252.078	-65.992	-0.041	-0.016
-251.063	185.301	-0.052	0.077
-250.049	134.141	-0.155	0.199
-249.034	88.849	-0.115	-0.127
-248.019	-200.000	-0.017	0.155
-247.005	-4.906	0.324	0.221
-245.990	-76.217	-0.151	0.053
-244.976	-136.997	-0.305	-0.035
-243.961	-13.611	0.072	0.046
-242.946	-25.629	-0.118	-0.069
-241.932	-91.710	-0.069	-0.019
-240.917	-99.563	0.512	0.127
-239.903	59.569	0.053	-0.052
-238.888	-128.922	0.167	-0.023
-237.873	286.143	0.108	-0.194
-236.859	-200.000	0.009	-0.138
-235.844	-200.000	0.075	0.475
-234.830	422.800	0.109	0.231
-233.815	114.199	-0.300	0.361
-232.800	-2.463	0.100	-0.069
-231.786	744.478	-0.102	0.272
-230.771	270.588	-0.141	-0.245
-229.757	-81.477	-0.134	0.044
-228.742	34.994	-0.151	0.131
-227.727	19.313	0.176	0.140
-226.713	26.634	-0.287	-0.237
-225.698	125.889	0.247	-0.308
-224.684	-200.000	-0.032	-0.321
-223.669	-142.157	0.234	-0.023
-222.655	-106.014	0.225	-0.050
-221.640	776.692	0.082	-0.223
-220.625	-64.672	0.159	-0.064
-219.611	-16.895	0.214	0.134
-218.596	159.950	-0.080	0.110
-217.582	-200.000	0.013	-0.160
-216.567	-200.000	-0.011	-0.178
-215.552	-192.463	-0.348	-0.003
-214.538	-119.480	0.110	-0.019
-213.523	191.867	0.247	-0.368
-212.509	27.380	0.183	-0.152
-211.494	688.958	0.137	0.353
-210.479	-3.537	0.241	0.165
-209.465	-33.373	-0.054	-0.029
-208.450	792.218	0.113	-0.306
-207.436	129.221	-0.285	0.359
-206.421	-200.000	0.023	0.114
-205.406	-120.224	-0.163	0.028
-204.392	18.445	-0.132	0.104
-203.377	33.469	-0.139	0.119
-202.363	-200.000	0.023	-0.132
-201.348	-82.963	0.276	0.088
-200.333	41.667	0.084	0.075
-199.319	-13.623	0.202	0.129
-198.304	539.599	-0.067	-0.158
-197.290	280.962	0.086	0.153
-196.275	31.400	-0.183	0.155
-195.260	85.431	-0.129	-0.140
-194.246	-173.985	0.217	0.006
-193.231	19.162	0.178	0.141
-192.217	-200.000	-0.017	-0.155
-191.202	-5.986	-0.318	0.215
-190.187	800.000	-0.084	-0.310
-189.173	-82.333	0.265	-0.085
-188.158	-200.000	0.030	-0.233
-187.144	-45.048	-0.302	0.148
-186.129	-7.857	0.130	0.087
-185.114	-146.732	0.148	0.013
-184.100	-53.150	0.122	-0.055
-183.085	-113.463	0.165	0.032
-182.071	-156.940	-0.284	0.017
-181.056	75.477	-0.142	0.147
-180.042	604.808	0.148	0.365
-179.027	-12.891	-0.160	0.102
-178.012	-200.000	0.046	0.264
-176.998	308.189	0.052	-0.095
-175.983	-126.124	0.392	0.058
-174.969	-200.000	-0.003	-0.270
-173.954	-200.000	0.027	-0.386
-172.939	-92.519	0.067	-0.019
-171.925	-166.320	0.234	-0.010
-170.910	-200.000	0.027	-0.115
-169.896	-47.154	-0.138	-0.066
-168.881	155.700	-0.058	-0.079
-167.866	447.178	0.072	0.157
-166.852	-4.545	0.128	-0.088
-165.837	78.487	-0.169	0.178
-164.823	800.000	0.006	0.021
-163.808	457.372	-0.034	-0.075
-162.793	-200.000	0.015	0.294
-161.779	-150.836	-0.343	0.026
-160.764	152.553	-0.157	-0.211
-159.750	-168.092	-0.191	0.007
-158.735	-59.284	0.227	-0.096
-157.720	-119.466	-0.288	0.049
-156.706	-20.182	0.248	0.151
-155.691	-200.000	0.045	-0.316
-154.677	288.458	-0.051	-0.092
-153.662	-10.170	-0.291	0.191
-152.647	-33.059	-0.223	-0.122
-151.633	800.000	0.015	-0.041
-150.618	800.000	0.091	0.270
-149.604	-200.000	-0.006	-0.346
-148.589	568.516	0.062	-0.149
-147.574	-200.000	0.076	0.409
-146.560	261.084	0.068	-0.116
-145.545	-200.000	-0.045	-0.374
-144.531	-200.000	-0.006	-0.491
-143.516	54.968	0.099	-0.094
-142.502	249.347	-0.167	-0.279
-141.487	84.432	0.160	0.172
-140.472	11.294	0.092	0.069
-139.458	61.971	0.101	-0.099
-138.443	104.839	0.123	-0.143
-137.429	62.866	0.107	-0.106
-136.414	-52.360	0.333	0.152
-135.399	631.095	-0.050	0.124
-134.385	-200.000	-0.011	0.312
-133.370	-2.200	0.102	0.071
-132.356	145.095	-0.076	-0.100
-131.341	319.255	0.115	-0.216
-130.326	12.030	0.064	0.048
-129.312	258.004	0.044	0.075
-128.297	-200.000	0.013	-0.063
-127.283	166.753	0.032	-0.045
-126.268	207.714	0.078	0.119
-125.253	217.431	0.157	0.247
-124.239	-200.000	-0.026	0.185
-123.224	46.533	0.050	0.046
-122.210	-200.000	0.035	-0.240
