DTS Sentinel unit serial number:	SN413079Multiplexer serial number:	ORYXHardware model number:	OX4-SRSoftware version number:	ORYX F/W v4.00 Oryx Data Collector v3.7.2.0data status	okinstallation	princeton_trtdifferential loss correction	single-endedforward channel	channel 1reverse channel	N/Adate	2019/09/18time	14:34:35forward acquisition time	60.00reverse acquisition time	0.00gamma	496.2192k internal	0.2310k external	0.2310temperature offset calibration	0.9986default loss term (dB/km)	0.3790temperature slope calibration	1.0000multiplexer offset coefficient	1.0000multiplexer slope coefficient	1.0000fibre end	0.00T internal ref (°C)	34.50T ext. ref 1 (°C)	0.70T ext. ref 2 (°C)	31.93length (m)	temperature (°C)	Stokes	anti-Stokes-747.200	-200.000	0.036	0.173
-746.185	135.170	-0.260	0.343
-745.171	-108.478	0.193	0.042
-744.156	118.326	0.228	0.285
-743.142	-61.976	0.262	0.111
-742.127	165.870	-0.135	-0.195
-741.112	-200.000	0.039	-0.216
-740.098	800.000	0.069	0.276
-739.083	-53.239	-0.153	0.071
-738.069	718.839	-0.065	0.176
-737.054	-200.000	0.030	-0.311
-736.039	267.525	-0.145	-0.258
-735.025	134.151	0.111	-0.146
-734.010	134.777	-0.310	-0.408
-732.996	-168.835	0.365	-0.014
-731.981	-200.000	-0.045	-0.512
-730.966	62.859	0.138	0.140
-729.952	-200.000	-0.002	0.022
-728.937	154.610	-0.184	0.257
-727.923	136.397	-0.150	0.199
-726.908	-200.000	0.023	-0.133
-725.894	-12.092	-0.029	0.019
-724.879	412.113	-0.198	-0.428
-723.864	-98.417	-0.297	-0.077
-722.850	-104.137	0.121	-0.029
-721.835	-20.057	-0.191	0.119
-720.821	440.181	0.016	-0.036
-719.806	-200.000	0.025	-0.292
-718.791	-128.617	-0.321	-0.046
-717.777	-181.654	-0.320	0.006
-716.762	11.657	-0.073	0.057
-715.748	20.822	0.115	-0.095
-714.733	-200.000	0.001	-0.297
-713.718	-85.389	0.336	-0.106
-712.704	201.754	-0.066	0.104
-711.689	80.511	-0.341	-0.372
-710.675	341.762	-0.063	-0.124
-709.660	-64.381	0.195	-0.080
-708.645	800.000	0.026	-0.084
-707.631	192.541	0.112	-0.171
-706.616	-32.605	0.332	-0.187
-705.602	-118.819	-0.139	0.025
-704.587	-87.784	0.106	-0.033
-703.572	-7.994	-0.124	-0.085
-702.558	29.208	-0.291	-0.250
-701.543	-149.820	0.154	0.012
-700.529	-78.605	-0.237	0.082
-699.514	800.000	0.054	0.221
-698.499	-42.013	-0.170	0.088
-697.485	-75.903	0.238	-0.085
-696.470	-200.000	-0.021	0.123
-695.456	374.447	-0.139	0.287
-694.441	-90.265	0.309	0.091
-693.426	100.779	0.217	-0.255
-692.412	-200.000	0.019	0.403
-691.397	-200.000	-0.034	-0.418
-690.383	0.715	-0.086	-0.062
-689.368	597.215	0.047	-0.118
-688.354	-71.151	-0.153	-0.058
-687.339	153.130	-0.102	-0.142
-686.324	55.736	0.252	-0.247
-685.310	627.433	-0.084	0.216
-684.295	-200.000	-0.022	-0.129
-683.281	-74.841	-0.306	-0.111
-682.266	-200.000	0.039	-0.204
-681.251	-200.000	-0.048	-0.214
-680.237	-175.381	0.331	-0.009
-679.222	-145.539	0.138	0.013
-678.208	384.309	-0.072	-0.149
-677.193	163.078	0.156	-0.223
-676.178	28.263	-0.296	-0.253
-675.164	-146.334	0.396	0.035
-674.149	204.055	-0.143	-0.224
-673.135	800.000	-0.023	-0.081
-672.120	-111.009	0.142	-0.030
-671.105	-86.210	-0.222	0.069
-670.091	466.099	-0.104	0.235
-669.076	-200.000	-0.016	-0.177
-668.062	-103.597	-0.081	-0.019
-667.047	355.730	0.092	0.185
-666.032	-115.831	-0.339	-0.064
-665.018	551.925	0.026	0.062
-664.003	217.868	0.133	-0.215
-662.989	-200.000	-0.022	-0.278
-661.974	5.170	-0.325	0.242
-660.959	-200.000	0.042	-0.436
-659.945	-200.000	-0.012	0.062
-658.930	210.729	-0.186	0.295
-657.916	-200.000	0.036	0.182
-656.901	-30.693	-0.223	0.128
-655.886	314.335	-0.129	-0.246
-654.872	-32.843	-0.218	-0.123
-653.857	-98.949	-0.301	0.077
-652.843	-200.000	0.004	0.076
-651.828	800.000	-0.030	-0.099
-650.814	-100.210	-0.266	0.067
-649.799	155.682	0.167	-0.232
-648.784	800.000	0.120	-0.450
-647.770	800.000	0.044	0.192
-646.755	28.790	-0.171	0.147
-645.741	46.171	-0.013	-0.012
-644.726	-94.108	-0.106	0.029
-643.711	19.738	-0.173	0.141
-642.697	-105.929	-0.209	0.048
-641.682	569.530	0.107	0.263
-640.668	252.841	0.032	-0.056
-639.653	-15.344	-0.050	-0.033
-638.638	-200.000	-0.020	0.156
-637.624	208.643	-0.046	-0.073
-636.609	-200.000	0.005	0.059
-635.595	142.826	-0.168	-0.225
-634.580	745.232	-0.045	0.122
-633.565	54.936	0.034	0.033
-632.551	-200.000	-0.014	0.284
-631.536	-20.286	-0.108	0.067
-630.522	460.436	-0.267	-0.601
-629.507	800.000	0.026	0.104
-628.492	667.410	-0.021	-0.056
-627.478	-200.000	0.014	-0.079
-626.463	491.869	0.070	0.163
-625.449	-143.474	0.265	0.026
-624.434	111.746	0.111	0.135
-623.419	-141.725	0.164	-0.017
-622.405	800.000	-0.034	-0.120
-621.390	7.770	0.175	-0.133
-620.376	312.422	0.153	0.290
-619.361	800.000	0.097	-0.324
-618.346	143.434	0.103	0.138
-617.332	-200.000	-0.001	0.019
-616.317	-53.833	-0.190	0.088
-615.303	391.580	-0.021	0.044
-614.288	-133.498	0.331	-0.042
-613.273	269.724	0.084	-0.150
-612.259	-75.634	-0.328	0.118
-611.244	23.474	0.153	0.127
-610.230	263.067	-0.192	-0.337
-609.215	-71.077	0.328	0.124
-608.201	122.635	0.252	-0.319
-607.186	-200.000	-0.010	0.155
-606.171	-24.461	0.099	0.060
-605.157	-56.281	0.158	0.071
-604.142	369.907	0.061	-0.125
-603.128	-33.791	-0.167	-0.093
-602.113	-200.000	0.064	0.427
-601.098	800.000	-0.078	-0.318
-600.084	561.966	-0.167	0.407
-599.069	-200.000	-0.014	0.159
-598.055	-88.459	0.108	0.033
-597.040	-9.218	0.235	-0.159
-596.025	-65.405	-0.047	0.019
-595.011	-104.330	-0.138	0.032
-593.996	69.129	0.193	0.201
-592.982	645.238	0.088	0.226
-591.967	-120.683	0.524	0.089
-590.952	-200.000	0.010	0.358
-589.938	-99.371	0.248	-0.063
-588.923	-36.050	-0.219	-0.119
-587.909	157.743	0.162	-0.227
-586.894	-200.000	0.030	0.181
-585.879	51.548	-0.137	-0.131
-584.865	-128.043	-0.366	0.053
-583.850	-167.358	0.279	0.011
-582.836	14.025	0.132	0.104
-581.821	-19.775	0.029	0.018
-580.806	20.404	-0.067	0.055
-579.792	-13.589	-0.114	-0.075
-578.777	-50.506	-0.160	-0.076
-577.763	800.000	-0.068	-0.203
-576.748	-175.253	-0.208	-0.006
-575.733	71.009	-0.164	0.171
-574.719	-167.972	-0.124	-0.005
-573.704	253.062	-0.264	-0.454
-572.690	-200.000	0.011	0.107
-571.675	27.521	0.259	0.220
-570.661	-25.552	0.117	0.070
-569.646	119.630	0.124	-0.154
-568.631	335.766	-0.144	-0.281
-567.617	-33.823	-0.429	-0.238
-566.602	31.307	-0.128	0.111
-565.588	284.743	0.103	0.188
-564.573	-14.180	-0.113	-0.074
-563.558	-2.092	-0.275	0.195
-562.544	604.369	-0.084	0.211
-561.529	65.592	-0.227	0.232
-560.515	-12.221	0.043	-0.029
-559.500	-200.000	-0.032	-0.203
-558.485	-137.313	-0.337	-0.039
-557.471	-200.000	-0.014	-0.190
-556.456	27.625	-0.130	0.110
-555.442	-15.980	-0.252	0.161
-554.427	800.000	0.014	0.044
-553.412	-78.144	-0.683	-0.237
-552.398	35.655	0.139	0.123
-551.383	-200.000	0.019	0.159
-550.369	255.036	0.094	-0.162
-549.354	439.193	-0.133	-0.292
-548.339	-70.641	0.172	-0.065
-547.325	584.049	-0.048	0.118
-546.310	475.679	-0.181	0.411
-545.296	466.333	0.090	0.204
-544.281	-86.799	0.496	0.153
-543.266	-143.458	-0.351	-0.034
-542.252	61.969	-0.365	0.367
-541.237	-21.840	-0.088	-0.054
-540.223	279.440	-0.126	0.227
-539.208	-37.087	-0.102	-0.055
-538.193	71.711	-0.122	0.127
-537.179	800.000	-0.089	0.346
-536.164	-200.000	0.029	-0.442
-535.150	111.231	0.151	-0.183
-534.135	-5.048	-0.065	0.045
-533.121	-200.000	0.067	0.312
-532.106	800.000	0.069	0.218
-531.091	-56.517	0.124	0.055
-530.077	-102.567	-0.273	-0.066
-529.062	-102.380	0.076	0.018
-528.048	-98.404	0.112	0.029
-527.033	180.123	0.183	0.270
-526.018	-84.665	-0.165	-0.052
-525.004	54.062	-0.405	-0.392
-523.989	800.000	-0.090	0.277
-522.975	-165.582	0.457	-0.020
-521.960	337.031	-0.047	0.093
-520.945	-84.529	-0.317	-0.101
-519.931	-200.000	0.034	-0.171
-518.916	800.000	0.067	-0.194
-517.902	16.832	-0.265	-0.211
-516.887	-32.785	0.183	-0.103
-515.872	-22.900	-0.054	-0.033
-514.858	233.935	0.166	-0.275
-513.843	173.453	-0.024	0.035
-512.829	319.206	0.092	-0.176
-511.814	800.000	-0.127	0.547
-510.799	800.000	-0.033	-0.115
-509.785	-13.815	-0.172	-0.112
-508.770	-134.204	-0.323	-0.040
-507.756	-25.862	-0.221	-0.131
-506.741	200.958	-0.172	-0.266
-505.726	253.197	0.090	0.154
-504.712	75.496	0.161	0.171
-503.697	-49.707	0.173	0.083
-502.683	-163.948	0.242	0.011
-501.668	96.882	-0.186	-0.214
-500.653	-53.998	0.216	0.099
-499.639	-200.000	-0.005	0.035
-498.624	-200.000	0.011	0.145
-497.610	193.597	0.257	-0.391
-496.595	-17.086	0.108	0.068
-495.581	-200.000	0.026	-0.214
-494.566	8.050	-0.203	-0.153
-493.551	369.906	0.044	-0.090
-492.537	47.913	-0.105	0.098
-491.522	-110.862	-0.440	0.091
-490.508	-95.411	0.199	-0.054
-489.493	-157.728	0.340	-0.020
-488.478	-74.512	0.154	0.056
-487.464	-105.756	-0.015	0.003
-486.449	403.760	-0.034	-0.071
-485.435	78.494	0.061	0.066
-484.420	-200.000	0.042	-0.253
-483.405	-200.000	-0.004	0.075
-482.391	800.000	-0.055	0.176
-481.376	380.675	-0.086	0.178
-480.362	-13.706	0.406	0.264
-479.347	29.901	-0.162	0.139
-478.332	-74.680	0.261	0.094
-477.318	74.368	0.142	-0.149
-476.303	-98.591	-0.217	-0.056
-475.289	-62.593	-0.032	0.013
-474.274	-200.000	0.051	0.278
-473.259	-81.660	-0.197	-0.065
-472.245	-62.111	-0.353	-0.148
-471.230	3.547	0.097	-0.071
-470.216	314.710	-0.148	-0.279
-469.201	-125.932	-0.166	0.025
-468.186	32.425	0.316	0.274
-467.172	-200.000	0.033	0.245
-466.157	-66.071	-0.271	0.108
-465.143	410.647	-0.083	-0.177
-464.128	-99.580	-0.294	-0.074
-463.113	393.292	-0.110	0.230
-462.099	800.000	-0.067	0.229
-461.084	-6.356	-0.078	0.053
-460.070	36.378	0.208	-0.184
-459.055	800.000	0.065	0.189
-458.040	-200.000	0.031	-0.162
-457.026	-50.072	-0.131	-0.062
-456.011	281.350	0.182	-0.327
-454.997	-33.165	0.240	0.134
-453.982	-173.992	0.079	-0.002
-452.968	398.333	0.045	-0.096
-451.953	152.320	0.203	0.278
-450.938	800.000	-0.049	-0.160
-449.924	331.487	0.047	-0.091
-448.909	541.787	-0.094	-0.225
-447.895	33.150	0.077	-0.067
-446.880	253.110	0.093	0.159
-445.865	-79.781	0.109	-0.037
-444.851	-96.179	0.167	0.045
-443.836	265.492	-0.067	-0.117
-442.822	2.376	-0.097	0.071
-441.807	282.126	-0.165	-0.296
-440.792	59.728	-0.223	0.221
-439.778	-35.121	0.317	-0.173
-438.763	-92.017	0.224	-0.064
-437.749	34.496	-0.351	-0.308
-436.734	800.000	-0.040	-0.171
-435.719	800.000	0.078	-0.268
-434.705	87.222	-0.138	-0.153
-433.690	8.953	-0.112	-0.084
-432.676	253.871	-0.066	-0.113
-431.661	218.882	0.062	-0.100
-430.646	-180.136	0.301	-0.006
-429.632	93.520	0.032	0.037
-428.617	-200.000	0.062	0.326
-427.603	-164.139	0.172	-0.008
-426.588	-144.391	-0.254	0.024
-425.573	-200.000	-0.007	0.055
-424.559	30.217	-0.037	0.031
-423.544	-18.682	-0.165	-0.103
-422.530	332.418	0.115	-0.222
-421.515	34.477	0.230	-0.201
-420.500	472.588	0.073	0.165
-419.486	451.785	0.063	0.139
-418.471	-1.126	0.122	-0.086
-417.457	-110.350	-0.151	-0.032
-416.442	-152.723	0.283	-0.020
-415.428	253.518	-0.140	0.240
-414.413	-200.000	0.038	0.342
-413.398	-200.000	-0.010	0.207
-412.384	-16.259	-0.099	-0.063
-411.369	-99.741	-0.114	-0.029
-410.355	-200.000	-0.002	0.108
-409.340	-22.928	0.169	-0.102
-408.325	-200.000	-0.025	-0.401
-407.311	490.601	0.123	0.282
-406.296	800.000	-0.081	-0.289
-405.282	48.784	-0.204	-0.192
-404.267	-8.732	0.280	-0.188
-403.252	25.755	0.280	-0.233
-402.238	48.021	0.198	0.185
-401.223	6.878	-0.041	0.030
-400.209	-60.373	-0.196	-0.084
-399.194	-24.225	-0.241	0.144
-398.179	800.000	-0.081	-0.268
-397.165	-103.363	0.060	-0.014
-396.150	-200.000	-0.002	0.188
-395.136	656.338	-0.124	-0.318
-394.121	-200.000	0.059	-0.447
-393.106	800.000	-0.067	-0.203
-392.092	215.150	-0.272	-0.432
-391.077	144.936	-0.136	-0.182
-390.063	-200.000	-0.022	0.247
-389.048	-77.384	0.282	0.098
-388.033	117.098	-0.193	0.237
-387.019	-102.709	0.323	-0.077
-386.004	-122.239	0.265	-0.043
-384.990	-65.509	-0.131	0.053
-383.975	-200.000	-0.083	-0.467
-382.960	-69.523	0.183	0.070
-381.946	112.367	0.189	-0.229
-380.931	209.540	0.137	0.215
-379.917	-126.465	-0.105	0.016
-378.902	79.900	-0.091	-0.098
-377.888	305.901	-0.072	-0.134
-376.873	800.000	0.068	0.260
-375.858	-200.000	0.024	-0.173
-374.844	-32.826	-0.071	0.039
-373.829	-200.000	-0.024	0.230
-372.815	-190.227	-0.112	0.001
-371.800	-200.000	-0.003	-0.031
-370.785	-200.000	-0.048	0.278
-369.771	-200.000	0.017	0.216
-368.756	155.292	-0.218	-0.300
-367.742	-200.000	-0.329	-0.000
-366.727	40.458	0.147	-0.133
-365.712	-18.696	0.144	-0.090
-364.698	-200.000	0.071	-0.474
-363.683	800.000	-0.033	-0.123
-362.669	-200.000	0.001	0.299
-361.654	-163.376	0.448	0.021
-360.639	119.615	-0.125	0.155
-359.625	83.773	0.080	-0.088
-358.610	-160.205	-0.138	0.007
-357.596	44.272	0.162	0.149
-356.581	90.627	0.159	-0.178
-355.566	-41.557	-0.069	-0.035
-354.552	162.546	-0.111	0.156
-353.537	-74.060	-0.277	-0.100
-352.523	-69.199	-0.395	0.152
-351.508	13.811	0.136	0.106
-350.493	-38.330	0.134	-0.071
-349.479	-5.739	0.067	-0.046
-348.464	-45.916	-0.213	-0.105
-347.450	-119.359	-0.195	-0.034
-346.435	-174.347	-0.418	0.012
-345.420	42.516	0.175	0.159
-344.406	-38.820	0.142	0.075
-343.391	144.356	0.221	-0.295
-342.377	123.042	0.054	0.068
-341.362	144.420	0.149	0.199
-340.348	24.266	0.312	0.258
-339.333	-101.455	0.051	0.012
-338.318	-200.000	0.010	-0.083
-337.304	-158.600	0.395	0.023
-336.289	-200.000	0.049	0.394
-335.275	-55.002	-0.171	-0.077
-334.260	-38.888	0.041	0.022
-333.245	-150.514	0.380	-0.029
-332.231	-131.782	0.080	-0.010
-331.216	98.158	-0.191	-0.219
-330.202	198.552	-0.151	0.231
-329.187	-134.057	0.223	-0.028
-328.172	-37.309	-0.235	0.125
-327.158	412.446	-0.099	-0.210
-326.143	-81.850	-0.288	-0.094
-325.129	-12.108	-0.426	0.279
-324.114	-130.384	0.104	0.014
-323.099	800.000	0.082	-0.241
-322.085	107.981	-0.221	-0.263
-321.070	75.590	0.077	0.082
-320.056	-152.234	-0.055	-0.004
-319.041	274.933	-0.083	0.147
-318.026	220.865	-0.230	0.368
-317.012	-200.000	0.017	-0.081
-315.997	54.271	-0.178	-0.172
-314.983	800.000	-0.078	0.244
-313.968	-200.000	0.036	-0.205
-312.953	12.407	-0.077	-0.059
-311.939	79.548	-0.140	0.150
-310.924	98.135	-0.213	-0.245
-309.910	152.693	0.087	0.119
-308.895	800.000	-0.011	-0.036
-307.880	-143.021	0.223	0.022
-306.866	800.000	0.097	0.290
-305.851	205.547	-0.022	-0.034
-304.837	657.621	0.086	0.220
-303.822	27.604	0.108	0.091
-302.807	7.819	0.172	-0.128
-301.793	274.134	-0.120	-0.213
-300.778	222.074	0.093	0.150
-299.764	-170.651	-0.218	-0.008
-298.749	-60.073	0.146	0.062
-297.735	439.352	0.089	-0.195
-296.720	98.336	-0.134	0.154
-295.705	800.000	0.030	-0.098
-294.691	-34.384	-0.403	-0.221
-293.676	-99.463	0.368	0.093
-292.662	-200.000	0.010	-0.551
-291.647	151.783	0.163	0.221
-290.632	-57.641	-0.281	0.123
-289.618	-149.544	-0.319	-0.025
-288.603	469.936	0.035	0.079
-287.589	131.692	0.127	-0.163
-286.574	-200.000	0.041	0.214
-285.559	57.416	0.360	0.350
-284.545	-179.673	-0.206	0.004
-283.530	-97.778	0.168	0.043
-282.516	800.000	0.034	0.107
-281.501	51.175	-0.135	0.128
-280.486	-11.156	0.210	0.138
-279.472	253.094	0.127	-0.216
-278.457	10.877	-0.118	0.090
-277.443	-88.642	-0.095	-0.028
-276.428	-39.275	-0.181	-0.095
-275.413	311.090	0.076	-0.142
-274.399	22.434	0.276	-0.225
-273.384	-181.648	0.287	0.006
-272.370	-59.729	-0.135	0.058
-271.355	-168.476	-0.231	0.009
-270.340	-173.068	-0.159	-0.005
-269.326	-95.541	-0.280	0.075
-268.311	800.000	0.096	-0.337
-267.297	-69.518	-0.188	-0.072
-266.282	655.026	0.054	-0.137
-265.267	-79.959	-0.312	-0.104
-264.253	504.606	0.088	-0.204
-263.238	-107.770	-0.098	-0.021
-262.224	-28.518	-0.258	0.148
-261.209	-90.584	-0.233	-0.067
-260.195	13.982	-0.208	-0.161
-259.180	27.598	0.078	0.065
-258.165	45.449	-0.151	-0.139
-257.151	-36.890	-0.079	0.042
-256.136	198.674	-0.043	0.065
-255.122	133.536	-0.053	0.068
-254.107	-178.482	0.373	0.009
-253.092	-200.000	0.013	0.115
-252.078	800.000	0.041	0.122
-251.063	-197.663	-0.178	0.001
-250.049	-70.673	0.108	-0.041
-249.034	226.640	0.045	-0.073
-248.019	-66.836	-0.075	-0.030
-247.005	-95.730	-0.209	-0.056
-245.990	7.054	0.120	-0.089
-244.976	8.211	-0.089	-0.066
-243.961	-87.480	0.131	0.039
-242.946	379.933	0.047	-0.095
-241.932	800.000	-0.033	0.126
-240.917	-76.512	-0.189	-0.066
-239.903	-46.708	-0.226	-0.110
-238.888	311.346	0.104	0.194
-237.873	800.000	0.026	0.076
-236.859	187.018	-0.280	0.416
-235.844	119.045	0.060	0.074
-234.830	74.860	-0.065	0.068
-233.815	40.871	0.050	-0.045
-232.800	-71.721	-0.161	0.060
-231.786	13.159	0.220	-0.170
-230.771	576.841	-0.081	-0.197
-229.757	1.301	0.128	-0.092
-228.742	-200.000	-0.021	0.113
-227.727	-143.795	0.388	-0.037
-226.713	1.209	0.054	0.039
-225.698	80.882	0.096	0.103
-224.684	-116.442	0.202	-0.037
-223.669	-200.000	-0.012	0.254
-222.655	-6.493	0.169	0.115
-221.640	54.797	-0.107	-0.102
-220.625	800.000	0.077	-0.213
-219.611	-73.693	-0.125	-0.045
-218.596	118.199	-0.072	0.089
-217.582	-88.784	-0.147	0.043
-216.567	4.814	0.333	-0.244
-215.552	-200.000	0.046	0.309
-214.538	-1.335	0.307	-0.216
-213.523	-110.895	0.207	0.042
-212.509	13.356	0.398	-0.307
-211.494	-160.954	-0.142	0.007
-210.479	-151.334	0.197	0.015
-209.465	139.668	-0.227	-0.297
-208.450	100.477	0.054	0.063
-207.436	-149.701	-0.474	-0.037
-206.421	-44.123	0.202	0.101
-205.406	83.901	-0.034	-0.037
-204.392	43.629	0.111	0.101
-203.377	55.580	-0.014	0.013
-202.363	-200.000	-0.026	0.404
-201.348	36.553	-0.047	-0.041
-200.333	326.041	0.052	-0.099
-199.319	-79.126	0.114	0.038
-198.304	-15.090	-0.262	0.167
-197.290	-200.000	0.010	0.457
-196.275	-200.000	0.019	-0.200
-195.260	-66.093	-0.131	-0.052
-194.246	-34.353	-0.270	-0.147
-193.231	185.687	0.308	0.454
-192.217	34.709	0.118	-0.103
-191.202	800.000	0.127	-0.357
-190.187	-138.475	0.343	0.037
-189.173	-200.000	0.036	0.190
-188.158	-200.000	-0.004	0.067
-187.144	-14.976	0.120	-0.077
-186.129	-54.573	-0.014	-0.006
-185.114	475.689	-0.094	0.211
-184.100	-131.401	0.322	-0.042
-183.085	60.908	-0.203	-0.200
-182.071	-51.348	0.215	0.100
-181.056	-159.193	0.308	-0.017
-180.042	75.652	0.374	0.393
-179.027	152.167	0.176	0.239
-178.012	258.063	0.140	-0.240
-176.998	465.664	-0.145	0.322
-175.983	20.830	0.083	0.066
-174.969	-147.312	0.055	0.005
-173.954	318.962	-0.038	0.071
-172.939	800.000	-0.037	-0.119
-171.925	-200.000	-0.005	0.179
-170.910	16.363	0.327	0.256
-169.896	3.802	-0.139	0.101
-168.881	3.344	-0.186	0.135
-167.866	-4.653	0.159	0.109
-166.852	-200.000	0.064	-0.358
-165.837	-200.000	-0.052	0.270
-164.823	-64.599	0.129	0.052
-163.808	-181.089	-0.162	-0.003
-162.793	-11.564	-0.168	0.110
-161.779	174.497	0.070	0.101
-160.764	-119.358	-0.236	-0.041
-159.750	49.693	-0.056	-0.052
-158.735	-146.747	-0.057	0.005
-157.720	-144.631	0.190	0.017
-156.706	22.354	0.293	-0.238
-155.691	369.409	-0.024	-0.048
-154.677	795.722	0.138	-0.377
-153.662	800.000	-0.092	-0.336
-152.647	-77.750	0.554	-0.190
-151.633	-200.000	-0.008	0.422
-150.618	-128.354	-0.287	0.041
-149.604	800.000	-0.061	-0.223
-148.589	800.000	-0.100	-0.388
-147.574	800.000	0.054	-0.194
-146.560	-173.760	-0.287	0.008
-145.545	800.000	0.027	-0.112
-144.531	-51.734	-0.276	0.128
-143.516	17.109	0.107	0.085
-142.502	-79.713	0.072	-0.024
-141.487	-118.220	-0.238	-0.042
-140.472	445.393	-0.165	0.359
-139.458	-43.948	0.184	0.092
-138.443	-24.994	0.219	0.129
-137.429	-200.000	-0.019	0.145
-136.414	-47.267	-0.225	0.109
-135.399	650.663	0.023	0.058
-134.385	-200.000	-0.004	-0.108
-133.370	265.957	-0.087	-0.150
-132.356	120.947	-0.273	0.336
-131.341	37.432	-0.107	0.094
-130.326	-78.916	-0.101	0.034
-129.312	283.927	0.108	0.193
-128.297	800.000	-0.061	-0.223
-127.283	-140.826	0.230	0.024
-126.268	-104.194	-0.070	-0.016
-125.253	-112.603	0.356	0.070
-124.239	-200.000	-0.066	0.391
-123.224	800.000	0.048	-0.163
-122.210	-69.411	0.100	-0.038
-121.195	520.593	0.130	-0.303
