DTS Sentinel unit serial number:	SN413079Multiplexer serial number:	ORYXHardware model number:	OX4-SRSoftware version number:	ORYX F/W v4.00 Oryx Data Collector v3.7.2.0data status	okinstallation	princeton_trtdifferential loss correction	single-endedforward channel	channel 1reverse channel	N/Adate	2019/09/18time	16:50:35forward acquisition time	60.00reverse acquisition time	0.00gamma	496.2192k internal	0.2292k external	0.2292temperature offset calibration	1.0001default loss term (dB/km)	0.3790temperature slope calibration	1.0000multiplexer offset coefficient	1.0000multiplexer slope coefficient	1.0000fibre end	0.00T internal ref (°C)	40.00T ext. ref 1 (°C)	0.88T ext. ref 2 (°C)	34.72length (m)	temperature (°C)	Stokes	anti-Stokes-747.200	50.968	-0.118	-0.114
-746.185	167.342	-0.145	0.210
-745.171	19.333	-0.053	-0.044
-744.156	-16.930	-0.285	-0.184
-743.142	-136.741	0.204	-0.024
-742.127	22.149	-0.218	0.182
-741.112	800.000	-0.131	0.508
-740.098	-187.636	-0.059	-0.001
-739.083	16.833	0.060	0.048
-738.069	800.000	0.095	0.292
-737.054	151.354	-0.040	0.055
-736.039	-39.442	-0.217	-0.116
-735.025	-200.000	0.145	-0.001
-734.010	188.389	-0.140	0.214
-732.996	0.476	-0.210	-0.154
-731.981	82.733	-0.287	0.319
-730.966	27.887	0.185	-0.160
-729.952	800.000	-0.075	-0.306
-728.937	27.535	-0.285	-0.245
-727.923	-143.118	-0.206	0.020
-726.908	-200.000	-0.026	0.187
-725.894	-46.515	0.163	-0.082
-724.879	-95.355	0.294	0.081
-723.864	62.393	-0.086	0.088
-722.850	113.466	0.239	-0.296
-721.835	-54.569	-0.357	-0.165
-720.821	227.900	-0.077	-0.129
-719.806	-87.994	-0.085	-0.026
-718.791	-56.632	-0.171	-0.078
-717.777	-115.420	-0.144	-0.028
-716.762	-176.085	-0.303	0.008
-715.748	-48.781	-0.296	0.145
-714.733	-198.206	-0.270	-0.002
-713.718	-94.227	-0.134	-0.037
-712.704	-50.470	0.444	-0.214
-711.689	23.881	-0.174	0.147
-710.675	14.067	-0.154	0.122
-709.660	-130.159	0.028	0.004
-708.645	193.518	0.074	0.114
-707.631	66.608	-0.114	0.118
-706.616	-92.975	0.153	-0.044
-705.602	-200.000	0.015	-0.114
-704.587	15.458	-0.038	0.030
-703.572	174.608	0.055	0.082
-702.558	-200.000	-0.008	0.158
-701.543	-41.140	-0.378	0.199
-700.529	-120.170	0.294	-0.051
-699.514	-24.577	0.267	-0.162
-698.499	-53.293	0.107	0.050
-697.485	-200.000	0.040	0.187
-696.470	-24.959	0.225	-0.136
-695.456	-200.000	0.006	0.081
-694.441	800.000	-0.007	-0.019
-693.426	6.787	-0.188	-0.143
-692.412	-153.741	0.089	-0.006
-691.397	800.000	0.136	0.419
-690.383	-121.431	-0.263	0.045
-689.368	16.463	-0.216	0.174
-688.354	31.430	-0.197	0.173
-687.339	-53.837	0.552	0.257
-686.324	-90.984	-0.186	0.055
-685.310	-171.547	0.090	0.003
-684.295	-95.561	-0.187	0.051
-683.281	77.671	-0.216	0.235
-682.266	-126.849	-0.040	-0.006
-681.251	144.236	-0.057	0.078
-680.237	-103.247	0.118	-0.028
-679.222	-160.167	-0.254	0.014
-678.208	565.826	0.132	-0.327
-677.193	622.154	-0.019	-0.048
-676.178	42.605	-0.096	-0.089
-675.164	-101.566	-0.265	-0.066
-674.149	-125.892	0.390	0.060
-673.135	-54.689	-0.205	-0.094
-672.120	-24.968	-0.171	0.103
-671.105	800.000	0.041	0.172
-670.091	-200.000	0.024	0.227
-669.076	-200.000	-0.026	-0.120
-668.062	146.113	-0.066	-0.091
-667.047	520.228	-0.117	0.281
-666.032	115.800	-0.063	-0.079
-665.018	800.000	-0.119	0.403
-664.003	-200.000	0.017	0.135
-662.989	-73.841	-0.192	-0.071
-661.974	-200.000	-0.025	-0.171
-660.959	209.053	0.193	-0.308
-659.945	800.000	-0.098	-0.402
-658.930	-200.000	0.083	0.435
-657.916	123.793	-0.131	0.167
-656.901	-29.969	-0.069	-0.040
-655.886	28.751	-0.121	0.105
-654.872	-6.110	-0.122	-0.085
-653.857	530.906	0.126	-0.303
-652.843	-43.270	-0.322	0.166
-651.828	178.374	0.106	0.158
-650.814	-200.000	-0.053	-0.236
-649.799	-10.870	-0.186	-0.126
-648.784	-20.316	0.271	-0.170
-647.770	387.371	0.027	0.058
-646.755	-112.537	0.193	0.039
-645.741	148.715	-0.095	0.131
-644.726	-40.080	0.206	0.110
-643.711	66.570	0.098	-0.101
-642.697	-35.699	-0.140	-0.078
-641.682	-111.667	0.110	0.023
-640.668	-87.905	-0.039	-0.012
-639.653	-154.416	-0.309	0.021
-638.638	29.110	-0.302	0.261
-637.624	-131.244	-0.136	-0.018
-636.609	358.693	-0.073	-0.149
-635.595	-69.887	0.053	-0.020
-634.580	-70.035	0.375	-0.145
-633.565	-45.911	0.103	-0.052
-632.551	117.748	0.084	-0.105
-631.536	-200.000	-0.017	-0.194
-630.522	-122.445	0.107	0.018
-629.507	-54.110	0.071	-0.033
-628.492	432.734	-0.088	-0.195
-627.478	-151.334	0.336	0.026
-626.463	-168.495	-0.204	-0.008
-625.449	103.471	-0.118	0.140
-624.434	-200.000	-0.026	0.210
-623.419	-147.543	0.289	0.025
-622.405	-200.000	-0.022	0.194
-621.390	-104.330	-0.414	0.098
-620.376	258.553	0.110	0.194
-619.361	-34.583	-0.167	-0.093
-618.346	18.764	0.258	-0.210
-617.332	101.925	-0.168	-0.200
-616.317	800.000	-0.048	-0.202
-615.303	-158.087	-0.146	-0.009
-614.288	-200.000	-0.023	-0.576
-613.273	-45.900	0.161	0.081
-612.259	-57.374	-0.059	-0.026
-611.244	89.521	0.084	0.095
-610.230	0.787	-0.208	-0.152
-609.215	345.952	-0.029	0.059
-608.201	-200.000	0.022	-0.252
-607.186	287.200	-0.092	0.169
-606.171	-90.285	-0.290	0.086
-605.157	194.815	-0.084	-0.129
-604.142	-46.388	0.061	-0.030
-603.128	-86.293	-0.298	0.093
-602.113	-74.983	0.421	-0.154
-601.098	-128.480	0.205	-0.030
-600.084	-200.000	-0.045	-0.237
-599.069	-100.553	-0.094	-0.024
-598.055	-200.000	-0.017	-0.209
-597.040	-200.000	-0.054	-0.315
-596.025	-200.000	-0.026	-0.235
-595.011	6.844	-0.134	-0.102
-593.996	-108.108	-0.114	-0.025
-592.982	-200.000	-0.048	0.264
-591.967	123.767	0.176	-0.225
-590.952	-200.000	0.015	-0.145
-589.938	-200.000	-0.006	-0.132
-588.923	800.000	-0.069	0.231
-587.909	56.898	0.172	0.171
-586.894	19.103	-0.058	0.047
-585.879	118.486	-0.075	0.094
-584.865	-118.178	-0.285	-0.052
-583.850	-200.000	-0.015	-0.281
-582.836	341.789	0.269	-0.536
-581.821	78.257	0.140	-0.152
-580.806	-200.000	-0.040	0.201
-579.792	109.195	-0.252	0.307
-578.777	-132.038	0.299	0.040
-577.763	-136.099	-0.365	-0.044
-576.748	75.542	-0.225	0.242
-575.733	-151.076	-0.380	0.029
-574.719	184.808	0.091	0.137
-573.704	185.257	0.095	0.143
-572.690	36.548	0.128	0.115
-571.675	-200.000	-0.002	0.030
-570.661	81.153	-0.109	0.119
-569.646	-7.150	-0.406	-0.280
-568.631	-57.431	-0.221	-0.099
-567.617	-200.000	-0.006	-0.145
-566.602	-110.336	-0.218	-0.046
-565.588	297.849	-0.121	-0.227
-564.573	-200.000	-0.020	-0.116
-563.558	800.000	0.068	0.225
-562.544	74.122	0.136	-0.145
-561.529	-200.000	0.002	0.255
-560.515	170.247	0.084	-0.123
-559.500	-114.430	-0.174	-0.034
-558.485	-104.762	-0.267	0.063
-557.471	-4.191	-0.443	-0.312
-556.456	-200.000	-0.038	-0.184
-555.442	-47.442	0.049	-0.024
-554.427	83.340	0.042	-0.047
-553.412	29.085	-0.121	0.104
-552.398	-200.000	0.016	0.107
-551.383	4.027	-0.108	0.081
-550.369	800.000	-0.042	0.154
-549.354	-200.000	0.009	-0.040
-548.339	27.315	-0.020	-0.017
-547.325	-200.000	-0.015	0.087
-546.310	327.613	0.170	0.332
-545.296	-14.673	-0.073	0.048
-544.281	-200.000	-0.004	-0.158
-543.266	-120.629	-0.249	0.043
-542.252	-8.253	0.196	0.134
-541.237	-95.768	-0.189	0.051
-540.223	733.201	0.136	0.369
-539.208	-49.007	0.111	0.054
-538.193	-85.216	-0.275	-0.087
-537.179	-147.983	0.238	0.020
-536.164	-24.042	-0.272	0.165
-535.150	-158.148	-0.066	-0.004
-534.135	-73.099	-0.402	-0.150
-533.121	188.235	-0.179	-0.272
-532.106	504.134	-0.039	0.092
-531.091	399.534	-0.059	0.125
-530.077	-3.657	-0.072	0.051
-529.062	-148.459	0.304	-0.025
-528.048	-16.641	0.298	-0.191
-527.033	-200.000	0.003	0.017
-526.018	31.298	0.124	0.108
-525.004	163.597	0.107	0.153
-523.989	800.000	0.046	0.136
-522.975	58.030	-0.259	-0.258
-521.960	87.795	-0.192	0.216
-520.945	-76.068	-0.090	-0.032
-519.931	800.000	-0.061	0.177
-518.916	-129.772	0.070	0.010
-517.902	166.775	-0.122	0.175
-516.887	-68.039	0.272	-0.108
-515.872	11.218	-0.181	0.140
-514.858	445.700	-0.167	0.372
-513.843	78.230	0.123	0.133
-512.829	-116.047	-0.117	-0.022
-511.814	800.000	-0.080	-0.290
-510.799	-200.000	0.049	-0.292
-509.785	-200.000	0.040	-0.390
-508.770	-200.000	0.015	0.084
-507.756	-178.589	0.299	0.007
-506.741	34.308	-0.236	-0.208
-505.726	-106.721	0.238	0.054
-504.712	-22.697	0.208	-0.127
-503.697	-124.823	0.141	-0.022
-502.683	58.845	-0.386	0.385
-501.668	157.670	0.113	-0.159
-500.653	99.018	-0.134	-0.157
-499.639	284.869	0.032	0.058
-498.624	-106.864	-0.238	0.053
-497.610	-100.436	-0.273	-0.069
-496.595	-200.000	-0.019	0.249
-495.581	-161.861	0.124	-0.006
-494.566	-200.000	0.004	-0.029
-493.551	-163.613	0.174	0.008
-492.537	459.406	0.053	0.119
-491.522	800.000	0.076	-0.253
-490.508	-62.789	-0.115	0.048
-489.493	-23.139	0.154	0.094
-488.478	14.085	0.036	0.028
-487.464	-11.874	0.192	0.128
-486.449	504.025	0.030	-0.070
-485.435	465.595	0.039	0.089
-484.420	478.742	0.086	0.197
-483.405	243.113	0.162	0.275
-482.391	-102.139	0.263	0.064
-481.376	83.717	0.088	0.098
-480.362	800.000	0.061	-0.234
-479.347	71.613	-0.109	-0.115
-478.332	26.312	-0.068	0.058
-477.318	-107.229	-0.158	-0.035
-476.303	-200.000	-0.026	-0.230
-475.289	-200.000	-0.002	-0.079
-474.274	-200.000	-0.000	0.003
-473.259	-39.728	-0.088	0.046
-472.245	-146.081	0.117	0.010
-471.230	-200.000	0.003	0.427
-470.216	227.100	0.217	0.356
-469.201	245.727	-0.173	0.294
-468.186	800.000	0.053	0.182
-467.172	56.845	-0.144	0.142
-466.157	-57.384	-0.263	0.117
-465.143	-200.000	0.018	0.120
-464.128	-200.000	-0.020	0.322
-463.113	-71.431	-0.286	0.108
-462.099	800.000	-0.057	-0.178
-461.084	-12.918	0.306	0.202
-460.070	33.200	0.244	0.214
-459.055	170.837	0.079	0.114
-458.040	800.000	0.084	0.249
-457.026	374.825	-0.038	-0.079
-456.011	97.082	-0.134	-0.156
-454.997	-6.432	0.066	-0.046
-453.982	-144.912	-0.086	-0.008
-452.968	800.000	0.034	-0.128
-451.953	137.822	0.241	0.320
-450.938	87.685	0.100	0.112
-449.924	-63.681	0.218	-0.090
-448.909	-115.124	-0.233	0.045
-447.895	-200.000	0.357	0.002
-446.880	114.618	0.235	0.290
-445.865	277.580	0.109	0.197
-444.851	-200.000	-0.275	-0.001
-443.836	-200.000	-0.025	0.142
-442.822	-200.000	-0.034	0.159
-441.807	-200.000	0.007	-0.094
-440.792	67.954	-0.281	0.291
-439.778	-73.148	-0.142	-0.052
-438.763	800.000	0.048	-0.196
-437.749	-117.943	-0.084	0.015
-436.734	-200.000	-0.023	0.199
-435.719	62.966	0.069	0.070
-434.705	5.721	-0.207	0.155
-433.690	800.000	-0.060	0.236
-432.676	-48.961	-0.272	0.132
-431.661	-200.000	-0.050	-0.419
-430.646	289.104	0.106	-0.194
-429.632	54.727	-0.034	0.033
-428.617	-69.198	0.472	0.184
-427.603	-82.901	0.290	0.095
-426.588	-69.471	0.059	-0.023
-425.573	-200.000	0.001	0.170
-424.559	37.023	-0.089	0.080
-423.544	-6.164	0.090	0.062
-422.530	-200.000	0.078	-0.401
-421.515	742.950	0.206	0.560
-420.500	71.999	0.081	-0.085
-419.486	-200.000	0.017	-0.437
-418.471	-66.159	0.226	0.091
-417.457	3.988	0.175	0.129
-416.442	-200.000	-0.020	0.173
-415.428	-200.000	0.001	-0.058
-414.413	336.529	-0.070	-0.138
-413.398	73.639	0.225	0.238
-412.384	800.000	-0.071	-0.218
-411.369	170.542	-0.112	0.163
-410.355	-51.846	0.133	0.063
-409.340	123.195	0.088	0.112
-408.325	-116.520	-0.153	0.029
-407.311	251.863	-0.219	-0.377
-406.296	-139.313	-0.182	-0.020
-405.282	-200.000	-0.005	-0.072
-404.267	118.245	0.133	-0.165
-403.252	800.000	-0.032	-0.129
-402.238	410.473	0.113	-0.242
-401.223	415.618	-0.063	-0.136
-400.209	17.112	-0.111	-0.089
-399.194	497.755	-0.120	0.279
-398.179	87.685	-0.102	0.114
-397.165	-43.454	0.250	-0.128
-396.150	800.000	-0.011	-0.032
-395.136	-56.325	0.346	-0.155
-394.121	-53.507	-0.102	0.047
-393.106	42.792	-0.361	-0.332
-392.092	-100.339	-0.165	-0.041
-391.077	109.831	-0.128	-0.155
-390.063	-200.000	0.042	-0.347
-389.048	-31.260	-0.143	-0.082
-388.033	-200.000	0.042	-0.488
-387.019	119.680	-0.074	0.092
-386.004	109.522	0.021	-0.026
-384.990	-200.000	0.134	0.000
-383.975	-82.519	0.076	-0.025
-382.960	51.105	0.147	0.140
-381.946	-12.526	-0.139	-0.092
-380.931	48.116	0.407	-0.384
-379.917	-36.087	-0.229	-0.125
-378.902	57.294	-0.195	-0.192
-377.888	430.053	0.119	-0.260
-376.873	-200.000	-0.030	0.167
-375.858	276.895	0.082	0.147
-374.844	432.536	0.047	0.104
-373.829	325.260	0.134	0.259
-372.815	-143.866	-0.083	-0.008
-371.800	-200.000	-0.020	0.305
-370.785	476.421	-0.154	0.351
-369.771	-200.000	0.008	0.144
-368.756	383.186	0.053	0.111
-367.742	402.411	0.156	0.330
-366.727	-91.979	-0.160	0.046
-365.712	75.283	0.306	0.326
-364.698	664.424	-0.099	-0.258
-363.683	-67.342	-0.197	-0.078
-362.669	191.817	0.092	-0.139
-361.654	-200.000	0.054	-0.000
-360.639	800.000	0.006	-0.019
-359.625	-161.943	0.222	0.011
-358.610	800.000	0.119	-0.375
-357.596	29.866	-0.231	-0.199
-356.581	-119.098	0.246	0.043
-355.566	-101.524	0.108	0.027
-354.552	8.798	-0.119	-0.090
-353.537	236.673	0.101	-0.169
-352.523	-200.000	-0.010	0.048
-351.508	-126.991	-0.111	-0.016
-350.493	368.122	0.075	-0.154
-349.479	-107.883	0.059	-0.013
-348.464	-114.050	0.353	0.069
-347.450	231.472	0.032	0.053
-346.435	26.875	-0.408	-0.345
-345.420	-200.000	-0.023	-0.191
-344.406	-115.448	0.166	-0.032
-343.391	-55.429	-0.061	-0.028
-342.377	-200.000	-0.022	0.263
-341.362	11.314	0.163	0.126
-340.348	-200.000	-0.010	-0.091
-339.333	-200.000	0.010	0.238
-338.318	-200.000	-0.002	-0.016
-337.304	418.146	0.065	-0.139
-336.289	52.209	-0.111	0.107
-335.275	-2.475	0.194	0.137
-334.260	309.337	0.095	-0.179
-333.245	-91.498	-0.413	0.119
-332.231	232.195	0.026	0.043
-331.216	-200.000	-0.006	-0.221
-330.202	119.261	0.088	-0.109
-329.187	-200.000	0.004	-0.376
-328.172	-200.000	-0.028	-0.187
-327.158	800.000	-0.096	0.267
-326.143	-105.592	0.045	0.010
-325.129	-116.912	0.109	0.020
-324.114	-60.495	0.446	0.191
-323.099	-32.491	0.280	0.157
-322.085	236.329	-0.078	0.130
-321.070	-200.000	0.079	-0.360
-320.056	-89.696	0.194	-0.057
-319.041	163.631	0.171	-0.243
-318.026	73.191	-0.158	-0.167
-317.012	-200.000	0.012	-0.076
-315.997	303.600	0.114	0.212
-314.983	-200.000	0.040	-0.217
-313.968	800.000	-0.028	0.094
-312.953	-9.576	-0.150	0.101
-311.939	-109.047	-0.148	0.032
-310.924	50.798	-0.287	-0.274
-309.910	-200.000	0.014	0.132
-308.895	275.663	-0.052	0.093
-307.880	16.474	-0.167	0.133
-306.866	-200.000	0.025	-0.183
-305.851	441.509	-0.140	-0.308
-304.837	-9.867	0.161	-0.108
-303.822	-55.624	-0.165	0.074
-302.807	800.000	-0.005	-0.022
-301.793	-88.285	-0.023	-0.007
-300.778	-152.547	-0.086	-0.006
-299.764	160.771	-0.166	0.234
-298.749	66.880	-0.206	0.211
-297.735	15.597	0.198	0.157
-296.720	-104.852	-0.456	0.105
-295.705	49.084	-0.204	0.193
-294.691	179.391	-0.119	0.176
-293.676	-46.418	-0.260	-0.129
-292.662	164.322	0.093	0.132
-291.647	-157.931	0.099	-0.006
-290.632	-200.000	-0.054	-0.280
-289.618	-20.064	0.138	-0.085
-288.603	-200.000	-0.013	0.186
-287.589	77.667	0.224	0.240
-286.574	17.063	0.191	0.152
-285.559	-168.509	-0.044	-0.002
-284.545	-85.131	0.241	-0.076
-283.530	-157.369	0.170	0.010
-282.516	-100.706	0.107	-0.027
-281.501	-27.850	-0.199	0.116
-280.486	484.631	0.111	0.253
-279.472	464.384	0.090	-0.202
-278.457	-200.000	-0.019	-0.234
-277.443	508.311	-0.153	-0.356
-276.428	319.516	0.245	-0.467
-275.413	142.700	0.116	0.155
-274.399	-117.685	-0.164	-0.030
-273.384	-6.236	-0.199	0.137
-272.370	564.664	0.070	0.169
-271.355	-161.635	0.233	0.012
-270.340	72.031	0.067	0.070
-269.326	-200.000	0.002	0.160
-268.311	199.473	-0.052	-0.080
-267.297	-49.472	0.130	-0.062
-266.282	-0.803	-0.172	-0.122
-265.267	203.380	-0.067	0.104
-264.253	-23.545	0.133	0.080
-263.238	-80.072	-0.337	-0.113
-262.224	21.708	-0.056	0.046
-261.209	-48.010	-0.135	0.066
-260.195	213.911	-0.037	-0.059
-259.180	800.000	0.055	0.188
-258.165	-107.397	0.401	-0.088
-257.151	-200.000	0.042	-0.189
-256.136	-16.619	0.148	-0.094
-255.122	312.745	0.107	0.202
-254.107	-32.518	-0.205	0.115
-253.092	91.782	0.126	0.142
-252.078	800.000	-0.140	-0.441
-251.063	-200.000	-0.005	0.176
-250.049	-200.000	-0.014	0.143
-249.034	88.039	-0.189	0.210
-248.019	-49.681	0.076	-0.036
-247.005	-200.000	-0.001	-0.120
-245.990	698.211	0.169	0.447
-244.976	-40.528	-0.190	0.099
-243.961	-200.000	-0.035	-0.477
-242.946	800.000	0.166	-0.481
-241.932	272.745	-0.094	-0.166
-240.917	40.518	0.166	0.150
-239.903	-105.577	0.020	-0.005
-238.888	-7.493	-0.159	0.108
-237.873	123.507	0.063	-0.079
-236.859	-111.343	0.038	0.008
-235.844	442.144	0.055	-0.120
-234.830	-200.000	0.005	-0.195
-233.815	29.193	0.097	-0.083
-232.800	289.157	-0.109	0.198
-231.786	640.679	0.053	0.134
-230.771	89.190	0.260	0.290
-229.757	87.813	0.174	-0.194
-228.742	800.000	-0.051	0.198
-227.727	800.000	0.054	0.200
-226.713	-200.000	-0.058	0.293
-225.698	-32.090	-0.356	-0.200
-224.684	800.000	0.149	-0.421
-223.669	-5.451	0.302	0.208
-222.655	-54.015	-0.064	-0.029
-221.640	307.065	-0.156	-0.291
-220.625	-88.007	0.103	0.031
-219.611	800.000	-0.073	-0.269
-218.596	2.330	0.025	-0.018
-217.582	-63.575	0.202	-0.083
-216.567	259.751	0.128	0.222
-215.552	-200.000	0.006	-0.034
-214.538	-87.619	-0.227	-0.069
-213.523	462.940	-0.112	-0.251
-212.509	-100.888	-0.176	0.043
-211.494	-54.409	-0.113	0.051
-210.479	185.627	0.128	-0.190
-209.465	-72.853	-0.194	0.072
-208.450	93.911	-0.133	-0.151
-207.436	-112.336	-0.306	0.061
-206.421	-63.028	0.111	-0.046
-205.406	-200.000	-0.009	0.391
-204.392	-94.958	0.136	0.037
-203.377	-176.090	0.162	-0.004
-202.363	-103.171	0.206	-0.049
-201.348	-200.000	0.048	-0.323
-200.333	-200.000	0.011	-0.077
-199.319	-25.511	0.053	-0.032
-198.304	-160.488	-0.173	-0.009
-197.290	634.579	-0.052	0.133
-196.275	800.000	0.018	-0.052
-195.260	186.178	0.092	-0.138
-194.246	26.954	-0.221	0.185
-193.231	236.166	0.139	0.231
-192.217	-101.557	-0.182	0.044
-191.202	-200.000	0.010	0.200
-190.187	800.000	0.025	0.082
-189.173	73.603	0.089	0.094
-188.158	-130.776	0.187	-0.025
-187.144	-60.831	0.164	-0.069
-186.129	-27.611	0.158	-0.092
-185.114	108.314	-0.103	0.124
-184.100	290.230	0.160	0.290
-183.085	-147.147	-0.254	0.022
-182.071	-200.000	-0.001	-0.169
-181.056	-20.974	-0.218	-0.134
-180.042	-200.000	-0.005	-0.147
-179.027	-117.972	0.071	0.013
-178.012	599.251	-0.038	-0.095
-176.998	12.487	0.191	0.148
-175.983	17.804	0.068	-0.054
-174.969	-157.756	-0.217	0.013
-173.954	-88.403	0.318	0.095
-172.939	-153.851	0.175	-0.012
-171.925	-200.000	0.020	-0.143
-170.910	-200.000	0.024	-0.196
-169.896	-200.000	-0.029	-0.152
-168.881	-70.093	0.225	0.086
-167.866	-200.000	0.043	0.218
-166.852	-80.343	0.518	-0.173
-165.837	145.463	-0.163	-0.218
-164.823	10.501	0.338	0.257
-163.808	299.073	0.170	0.313
-162.793	-169.998	-0.128	-0.005
-161.779	-82.914	-0.121	0.039
-160.764	-108.906	-0.527	-0.113
-159.750	-200.000	0.021	-0.199
-158.735	-200.000	-0.002	-0.246
-157.720	65.510	-0.110	0.111
-156.706	-200.000	-0.024	0.217
-155.691	800.000	0.117	0.337
-154.677	-76.256	0.259	0.091
-153.662	-116.210	0.247	-0.046
-152.647	-200.000	-0.027	-0.219
-151.633	-67.195	-0.312	0.123
-150.618	-11.060	0.084	-0.056
-149.604	-81.462	-0.095	-0.031
-148.589	-83.791	0.130	0.042
-147.574	266.857	-0.115	-0.201
-146.560	-178.215	-0.297	0.007
-145.545	-41.026	0.162	0.084
-144.531	-35.813	-0.081	-0.044
-143.516	-200.000	0.017	0.168
-142.502	200.273	-0.322	-0.495
-141.487	389.137	0.141	0.291
-140.472	-88.029	0.288	0.087
-139.458	-84.160	0.104	0.033
-138.443	-14.960	-0.481	0.309
-137.429	-101.591	-0.417	-0.101
-136.414	320.351	0.097	-0.184
-135.399	-162.923	-0.408	-0.020
-134.385	523.216	-0.090	0.210
-133.370	187.503	0.207	0.308
-132.356	105.514	-0.099	-0.117
-131.341	174.427	-0.139	-0.201
-130.326	-24.947	0.292	-0.173
-129.312	18.727	-0.160	0.128
-128.297	-41.624	-0.043	0.022
-127.283	-153.043	0.132	-0.009
-126.268	451.817	0.033	0.074
-125.253	-101.345	-0.145	-0.035
-124.239	319.574	0.291	-0.551
-123.224	188.509	-0.174	0.261
-122.210	800.000	-0.078	0.257
