DTS Sentinel unit serial number:	SN413079Multiplexer serial number:	ORYXHardware model number:	OX4-SRSoftware version number:	ORYX F/W v4.00 Oryx Data Collector v3.7.2.0data status	okinstallation	princeton_trtdifferential loss correction	single-endedforward channel	channel 1reverse channel	N/Adate	2019/09/16time	15:26:35forward acquisition time	60.00reverse acquisition time	0.00gamma	496.2192k internal	0.2292k external	0.2292temperature offset calibration	0.9949default loss term (dB/km)	0.3790temperature slope calibration	1.0000multiplexer offset coefficient	1.0000multiplexer slope coefficient	1.0000fibre end	0.00T internal ref (°C)	41.12T ext. ref 1 (°C)	14.66T ext. ref 2 (°C)	37.49length (m)	temperature (°C)	Stokes	anti-Stokes-747.200	154.432	0.143	-0.201
-746.185	800.000	0.039	-0.121
-745.171	82.602	0.188	0.209
-744.156	800.000	-0.128	0.423
-743.142	403.807	0.150	-0.322
-742.127	759.807	-0.034	0.095
-741.112	-7.093	0.182	0.126
-740.098	-88.254	0.366	0.112
-739.083	-200.000	0.056	-0.387
-738.069	-200.000	0.049	0.285
-737.054	-56.361	-0.116	0.053
-736.039	-200.000	0.006	-0.126
-735.025	105.213	0.150	0.181
-734.010	-58.340	0.096	-0.043
-732.996	-40.996	-0.150	-0.079
-731.981	5.565	-0.269	0.203
-730.966	-200.000	-0.076	0.408
-729.952	-105.684	-0.031	0.007
-728.937	82.929	-0.150	-0.167
-727.923	-20.795	0.132	-0.083
-726.908	-125.811	-0.337	0.052
-725.894	234.022	-0.042	-0.070
-724.879	669.534	-0.108	-0.287
-723.864	800.000	0.081	-0.303
-722.850	244.034	-0.069	0.119
-721.835	800.000	0.025	-0.081
-720.821	-38.361	-0.068	-0.037
-719.806	67.778	0.115	-0.120
-718.791	-146.706	0.205	-0.018
-717.777	800.000	0.100	0.375
-716.762	87.849	0.329	-0.373
-715.748	527.908	-0.106	-0.255
-714.733	68.365	0.098	0.102
-713.718	-95.258	-0.073	0.020
-712.704	87.555	-0.212	0.240
-711.689	-200.000	-0.045	-0.233
-710.675	25.568	0.099	-0.084
-709.660	125.579	-0.122	0.158
-708.645	800.000	-0.060	0.174
-707.631	3.956	0.242	0.181
-706.616	104.355	0.118	0.142
-705.602	-119.634	-0.370	0.065
-704.587	-47.427	0.435	0.216
-703.572	-12.938	-0.110	-0.073
-702.558	208.701	0.265	-0.423
-701.543	258.422	-0.069	0.122
-700.529	-200.000	0.003	0.287
-699.514	-77.639	-0.226	-0.080
-698.499	800.000	0.086	0.261
-697.485	-90.300	-0.184	-0.055
-696.470	-200.000	0.047	0.219
-695.456	-98.124	0.330	0.087
-694.441	800.000	0.117	-0.462
-693.426	-200.000	0.003	-0.172
-692.412	-200.000	-0.028	-0.156
-691.397	-200.000	-0.033	-0.214
-690.383	-200.000	-0.033	-0.216
-689.368	-121.362	-0.145	-0.025
-688.354	-5.035	0.266	0.187
-687.339	-200.000	-0.019	0.247
-686.324	-108.341	0.200	-0.044
-685.310	-200.000	-0.008	0.052
-684.295	-77.885	0.105	-0.037
-683.281	-112.490	0.295	-0.060
-682.266	-54.005	0.077	-0.036
-681.251	-55.352	0.131	0.060
-680.237	-200.000	-0.070	-0.313
-679.222	-200.000	-0.018	0.182
-678.208	154.800	0.230	0.322
-677.193	212.947	0.217	0.349
-676.178	553.575	0.131	0.322
-675.164	604.065	0.094	0.239
-674.149	800.000	-0.066	0.267
-673.135	-149.588	0.094	0.008
-672.120	50.954	-0.276	0.267
-671.105	-31.061	-0.170	0.098
-670.091	-112.804	0.213	0.043
-669.076	-37.602	0.021	0.011
-668.062	72.052	-0.244	0.260
-667.047	-57.417	0.301	0.135
-666.032	-200.000	0.245	-0.000
-665.018	392.221	-0.081	-0.171
-664.003	-200.000	0.020	-0.105
-662.989	-200.000	-0.015	-0.248
-661.974	800.000	0.015	-0.048
-660.959	-91.931	0.090	0.026
-659.945	122.303	-0.298	-0.380
-658.930	-25.871	0.344	-0.207
-657.916	-0.464	-0.162	0.117
-656.901	25.074	-0.114	-0.097
-655.886	-132.446	-0.159	0.021
-654.872	-200.000	-0.079	0.588
-653.857	5.178	0.137	-0.103
-652.843	4.131	0.030	0.023
-651.828	698.616	0.047	-0.126
-650.814	233.776	0.197	0.330
-649.799	-140.581	0.218	0.023
-648.784	215.594	-0.016	-0.027
-647.770	-121.754	-0.073	0.012
-646.755	-38.801	-0.222	-0.119
-645.741	-10.897	0.295	-0.199
-644.726	800.000	0.097	-0.277
-643.711	22.168	-0.093	-0.078
-642.697	-40.755	-0.168	-0.089
-641.682	-61.488	0.268	-0.115
-640.668	-23.293	0.035	-0.022
-639.653	-75.920	-0.251	-0.091
-638.638	-102.744	-0.365	-0.089
-637.624	-67.893	0.078	-0.031
-636.609	150.856	0.079	0.109
-635.595	-45.573	0.217	-0.110
-634.580	-59.681	-0.306	0.134
-633.565	-17.665	0.106	-0.068
-632.551	-61.805	0.225	-0.096
-631.536	800.000	-0.048	0.144
-630.522	-200.000	0.030	-0.299
-629.507	-69.718	0.311	-0.121
-628.492	361.960	0.096	0.197
-627.478	-200.000	0.078	0.446
-626.463	93.118	0.112	-0.130
-625.449	166.296	0.162	-0.234
-624.434	-200.000	0.046	-0.228
-623.419	800.000	0.102	0.387
-622.405	48.901	-0.116	-0.111
-621.390	-200.000	0.030	0.344
-620.376	180.622	0.081	0.121
-619.361	800.000	-0.077	-0.281
-618.346	69.784	0.032	-0.034
-617.332	-27.779	0.134	0.079
-616.317	21.242	0.196	-0.162
-615.303	-33.236	0.155	0.088
-614.288	-117.802	-0.096	0.018
-613.273	-53.374	-0.213	-0.099
-612.259	104.366	0.080	-0.096
-611.244	406.234	0.040	-0.087
-610.230	-89.751	-0.102	-0.030
-609.215	77.249	-0.167	-0.181
-608.201	304.997	0.127	0.240
-607.186	385.823	-0.125	0.262
-606.171	-200.000	0.047	0.366
-605.157	-43.156	0.120	-0.062
-604.142	-77.240	0.091	-0.032
-603.128	-20.113	-0.245	0.154
-602.113	26.186	-0.101	-0.086
-601.098	154.587	0.057	0.080
-600.084	-105.158	0.039	-0.009
-599.069	-60.827	0.137	-0.059
-598.055	-200.000	-0.020	-0.249
-597.040	-15.419	0.107	0.070
-596.025	-77.043	0.170	0.060
-595.011	-93.053	-0.445	0.126
-593.996	-84.299	-0.126	0.041
-592.982	-19.056	0.102	-0.065
-591.967	4.158	-0.105	-0.078
-590.952	-27.575	0.103	-0.061
-589.938	-158.623	-0.239	0.014
-588.923	291.674	-0.193	-0.357
-587.909	-200.000	0.038	-0.310
-586.894	39.326	-0.090	-0.082
-585.879	800.000	0.037	-0.122
-584.865	-10.797	-0.086	0.058
-583.850	-109.071	0.323	0.070
-582.836	170.892	-0.039	-0.057
-581.821	178.401	0.134	0.199
-580.806	-200.000	-0.033	-0.381
-579.792	-51.849	0.121	0.057
-578.777	37.425	-0.198	-0.178
-577.763	-200.000	-0.006	-0.183
-576.748	20.683	-0.056	-0.046
-575.733	19.394	-0.273	-0.223
-574.719	575.864	-0.012	0.030
-573.704	-44.982	0.286	-0.145
-572.690	-126.935	-0.487	-0.073
-571.675	180.316	0.087	0.129
-570.661	800.000	0.054	-0.198
-569.646	-200.000	0.013	-0.065
-568.631	-155.556	0.162	-0.011
-567.617	-172.881	0.258	-0.008
-566.602	-200.000	-0.044	0.216
-565.588	174.073	-0.159	0.233
-564.573	-4.888	0.139	0.097
-563.558	-46.530	-0.271	-0.135
-562.544	-200.000	-0.032	0.215
-561.529	-146.150	-0.386	-0.035
-560.515	-116.186	-0.155	0.029
-559.500	285.307	-0.020	0.037
-558.485	-100.923	-0.088	0.022
-557.471	128.373	-0.087	0.113
-556.456	-11.502	0.110	0.074
-555.442	233.804	-0.092	-0.153
-554.427	-12.717	0.141	-0.093
-553.412	53.611	-0.137	-0.134
-552.398	-44.515	-0.053	0.027
-551.383	128.283	0.036	0.046
-550.369	800.000	-0.084	-0.342
-549.354	165.156	0.288	-0.413
-548.339	298.777	0.082	0.152
-547.325	-74.202	0.120	0.044
-546.310	62.002	0.336	-0.341
-545.296	-108.289	0.058	0.013
-544.281	800.000	-0.073	-0.206
-543.266	-11.929	0.070	-0.046
-542.252	15.944	0.224	-0.179
-541.237	227.833	-0.151	-0.250
-540.223	492.522	-0.094	0.219
-539.208	509.696	-0.138	-0.326
-538.193	-200.000	-0.004	0.051
-537.179	633.647	-0.052	-0.133
-536.164	-14.858	-0.272	0.177
-535.150	79.762	0.087	-0.095
-534.135	211.424	0.126	-0.202
-533.121	413.472	-0.135	0.292
-532.106	318.473	0.064	-0.123
-531.091	520.826	-0.058	-0.137
-530.077	800.000	0.030	0.094
-529.062	-200.000	-0.004	-0.081
-528.048	-200.000	-0.018	0.098
-527.033	72.830	-0.099	-0.105
-526.018	30.613	0.138	-0.120
-525.004	379.938	-0.162	0.337
-523.989	66.087	-0.139	-0.143
-522.975	178.853	-0.122	0.181
-521.960	-185.430	-0.357	-0.006
-520.945	-62.964	-0.150	0.063
-519.931	7.657	-0.214	0.162
-518.916	116.965	-0.316	0.394
-517.902	76.482	0.184	0.198
-516.887	-200.000	-0.007	0.171
-515.872	800.000	-0.041	0.167
-514.858	650.081	0.104	-0.270
-513.843	-141.651	-0.076	-0.008
-512.829	-91.085	0.262	-0.076
-511.814	13.732	-0.199	0.157
-510.799	-66.543	0.115	-0.046
-509.785	-74.561	0.310	0.113
-508.770	-200.000	-0.033	-0.489
-507.756	-200.000	0.008	-0.097
-506.741	-200.000	0.011	0.262
-505.726	-135.935	-0.124	0.015
-504.712	10.966	0.100	-0.078
-503.697	-60.716	0.251	-0.108
-502.683	-117.118	0.260	0.048
-501.668	-8.054	0.345	0.236
-500.653	800.000	0.051	-0.218
-499.639	264.184	-0.163	-0.287
-498.624	-168.396	-0.125	-0.005
-497.610	-23.945	-0.200	-0.121
-496.595	-151.940	0.241	0.018
-495.581	-200.000	0.037	0.175
-494.566	800.000	-0.097	-0.289
-493.551	-97.238	-0.325	-0.086
-492.537	285.174	-0.156	-0.285
-491.522	-95.350	-0.190	0.052
-490.508	-104.236	-0.379	0.089
-489.493	-45.057	-0.031	0.016
-488.478	-129.303	0.218	-0.031
-487.464	-136.765	-0.189	-0.022
-486.449	-155.525	-0.065	-0.004
-485.435	-133.433	0.267	-0.034
-484.420	-68.166	0.106	0.042
-483.405	800.000	-0.038	-0.149
-482.391	-1.879	-0.192	-0.137
-481.376	800.000	-0.016	0.053
-480.362	412.175	0.108	-0.232
-479.347	-100.474	0.227	0.057
-478.332	-200.000	-0.018	-0.296
-477.318	76.333	-0.047	0.050
-476.303	228.269	-0.155	0.256
-475.289	-200.000	0.032	0.152
-474.274	73.592	0.162	0.172
-473.259	-200.000	-0.061	-0.307
-472.245	281.721	-0.115	0.209
-471.230	-200.000	0.000	0.081
-470.216	-50.838	0.298	-0.142
-469.201	-200.000	0.025	-0.344
-468.186	119.453	0.118	-0.147
-467.172	-200.000	-0.016	-0.318
-466.157	-148.484	-0.263	-0.022
-465.143	-165.866	-0.193	0.008
-464.128	2.097	-0.328	-0.240
-463.113	-24.694	0.096	0.058
-462.099	-200.000	-0.056	-0.254
-461.084	800.000	0.036	-0.140
-460.070	-38.270	0.148	0.080
-459.055	82.066	-0.029	0.032
-458.040	131.694	-0.252	-0.328
-457.026	800.000	0.028	-0.087
-456.011	-58.781	-0.080	-0.035
-454.997	800.000	-0.082	-0.261
-453.982	298.364	-0.077	0.143
-452.968	800.000	0.074	-0.237
-451.953	-165.596	0.175	-0.008
-450.938	-140.594	0.241	0.025
-449.924	-200.000	0.126	0.000
-448.909	-26.697	-0.141	0.084
-447.895	-107.686	-0.323	0.071
-446.880	-148.389	-0.237	0.020
-445.865	800.000	-0.079	-0.224
-444.851	172.001	-0.090	-0.131
-443.836	74.592	-0.153	-0.163
-442.822	364.728	0.033	0.067
-441.807	130.338	0.106	0.137
-440.792	-200.000	0.024	-0.198
-439.778	-91.267	-0.321	-0.093
-438.763	-109.591	0.314	-0.067
-437.749	-200.000	-0.010	-0.251
-436.734	24.483	0.074	0.062
-435.719	-200.000	0.017	0.327
-434.705	-33.008	-0.176	0.099
-433.690	-200.000	-0.017	0.111
-432.676	104.103	0.197	-0.234
-431.661	134.244	-0.211	0.276
-430.646	448.002	-0.028	-0.063
-429.632	567.492	0.087	-0.212
-428.617	-15.227	0.181	0.117
-427.603	542.714	0.085	0.205
-426.588	38.538	-0.158	0.142
-425.573	43.151	-0.109	0.100
-424.559	800.000	-0.078	-0.297
-423.544	21.932	0.141	0.117
-422.530	-7.568	0.191	-0.131
-421.515	17.056	0.100	0.080
-420.500	460.413	-0.065	0.146
-419.486	670.412	0.140	-0.366
-418.471	-200.000	-0.057	-0.275
-417.457	-200.000	-0.003	-0.081
-416.442	77.798	0.202	0.218
-415.428	-200.000	0.094	-0.000
-414.413	22.019	-0.258	-0.212
-413.398	-142.661	-0.201	-0.020
-412.384	800.000	0.060	-0.201
-411.369	189.250	-0.167	-0.253
-410.355	393.744	-0.166	-0.348
-409.340	-147.804	0.195	-0.016
-408.325	-131.041	0.381	0.051
-407.311	-200.000	0.044	-0.394
-406.296	298.733	-0.048	0.089
-405.282	-23.018	0.217	0.132
-404.267	-63.881	-0.169	0.070
-403.252	-9.559	0.281	0.189
-402.238	-41.824	-0.305	0.158
-401.223	1.735	-0.099	-0.072
-400.209	-32.940	0.544	-0.305
-399.194	800.000	0.074	-0.237
-398.179	138.718	-0.085	-0.113
-397.165	-200.000	0.022	-0.195
-396.150	-44.598	-0.160	0.081
-395.136	-36.144	-0.101	0.055
-394.121	141.154	-0.113	-0.151
-393.106	100.080	0.206	0.241
-392.092	17.226	0.075	-0.060
-391.077	511.082	0.086	0.201
-390.063	-117.565	0.198	0.036
-389.048	-16.420	0.307	0.197
-388.033	98.679	-0.160	-0.186
-387.019	194.818	0.112	0.172
-386.004	-115.683	-0.100	0.019
-384.990	238.615	0.083	0.139
-383.975	800.000	0.032	0.120
-382.960	-67.405	-0.116	-0.046
-381.946	206.988	-0.115	0.180
-380.931	-57.605	0.445	-0.197
-379.917	-121.020	-0.348	0.059
-378.902	-132.962	-0.142	0.018
-377.888	-81.472	-0.212	-0.070
-376.873	-53.201	-0.124	0.057
-375.858	69.285	-0.018	-0.019
-374.844	-106.579	-0.089	0.020
-373.829	558.974	0.042	-0.103
-372.815	44.787	-0.111	0.103
-371.800	-76.566	-0.134	0.048
-370.785	800.000	-0.038	-0.165
-369.771	-200.000	0.006	0.323
-368.756	-18.832	0.220	-0.138
-367.742	239.007	0.044	-0.074
-366.727	506.027	0.130	0.305
-365.712	-200.000	-0.018	0.223
-364.698	196.799	-0.153	0.235
-363.683	-200.000	0.003	0.287
-362.669	800.000	0.071	0.215
-361.654	-136.811	0.227	0.026
-360.639	-96.297	0.390	-0.104
-359.625	84.383	0.073	0.080
-358.610	800.000	0.064	-0.200
-357.596	-200.000	0.000	0.294
-356.581	-93.585	-0.105	-0.029
-355.566	29.018	-0.093	0.079
-354.552	198.244	0.084	0.129
-353.537	-200.000	0.032	0.148
-352.523	800.000	-0.065	0.242
-351.508	-200.000	-0.020	-0.323
-350.493	-146.179	0.066	0.006
-349.479	800.000	0.062	0.175
-348.464	-112.938	0.598	0.119
-347.450	-180.947	0.136	0.003
-346.435	-51.947	-0.272	0.128
-345.420	-148.309	-0.017	0.001
-344.406	-85.131	-0.081	0.026
-343.391	25.863	0.185	0.155
-342.377	701.071	-0.057	-0.151
-341.362	-40.056	-0.130	-0.068
-340.348	181.311	-0.075	0.111
-339.333	-200.000	0.001	-0.165
-338.318	-36.726	0.113	0.061
-337.304	95.216	-0.168	0.193
-336.289	46.932	0.137	0.128
-335.275	-95.104	0.477	-0.130
-334.260	-58.512	-0.248	0.108
-333.245	97.812	0.209	0.242
-332.231	-15.359	0.063	0.041
-331.216	195.796	0.070	-0.106
-330.202	541.487	0.053	0.126
-329.187	85.679	-0.161	-0.178
-328.172	185.971	0.109	0.164
-327.158	-200.000	0.051	0.309
-326.143	77.910	-0.091	0.098
-325.129	-41.981	0.187	-0.096
-324.114	-200.000	0.026	0.278
-323.099	-60.397	-0.231	-0.099
-322.085	395.317	-0.135	-0.284
-321.070	-53.156	-0.224	-0.104
-320.056	-149.129	-0.380	-0.031
-319.041	49.461	-0.295	0.280
-318.026	16.374	-0.316	-0.251
-317.012	1.747	-0.215	-0.156
-315.997	-93.074	0.130	-0.036
-314.983	33.544	0.237	0.207
-313.968	-200.000	0.009	0.047
-312.953	346.104	0.063	0.125
-311.939	481.572	0.114	0.261
-310.924	800.000	0.070	0.241
-309.910	780.618	0.184	0.507
-308.895	-16.028	-0.173	0.111
-307.880	569.015	-0.061	-0.150
-306.866	124.134	0.137	-0.173
-305.851	-25.517	0.139	0.083
-304.837	-69.872	0.225	-0.086
-303.822	235.327	-0.194	-0.322
-302.807	800.000	0.060	0.242
-301.793	91.707	0.077	-0.087
-300.778	-159.940	-0.382	0.021
-299.764	-200.000	0.011	-0.066
-298.749	255.826	-0.167	0.288
-297.735	-74.657	0.189	-0.068
-296.720	-200.000	-0.003	-0.122
-295.705	-192.459	-0.382	0.004
-294.691	69.686	-0.180	0.187
-293.676	211.505	0.088	0.139
-292.662	156.842	0.300	-0.417
-291.647	-108.845	-0.234	-0.050
-290.632	800.000	0.032	-0.099
-289.618	-200.000	-0.084	0.369
-288.603	191.438	-0.095	-0.144
-287.589	-2.365	-0.083	0.059
-286.574	16.430	-0.191	-0.152
-285.559	800.000	-0.028	0.107
-284.545	-195.506	0.235	0.002
-283.530	-145.190	-0.285	0.026
-282.516	-21.562	0.224	0.138
-281.501	-103.767	0.351	-0.083
-280.486	-200.000	-0.024	0.178
-279.472	-174.351	0.226	0.007
-278.457	-86.069	-0.247	0.077
-277.443	800.000	-0.066	0.234
-276.428	-76.441	0.202	0.071
-275.413	-140.366	-0.225	-0.024
-274.399	30.840	-0.291	0.250
-273.384	274.470	-0.083	-0.147
-272.370	-200.000	0.001	0.193
-271.355	800.000	-0.054	0.211
-270.340	-101.229	0.181	0.044
-269.326	-13.968	-0.191	0.124
-268.311	800.000	-0.096	-0.386
-267.297	-149.528	-0.125	0.010
-266.282	3.047	0.296	0.216
-265.267	13.619	0.193	0.151
-264.253	-141.378	-0.214	0.022
-263.238	-140.390	-0.251	0.026
-262.224	8.258	-0.194	0.146
-261.209	-20.045	0.206	0.128
-260.195	-200.000	-0.002	0.126
-259.180	216.708	0.071	0.114
-258.165	-152.174	0.213	-0.015
-257.151	155.521	-0.190	-0.263
-256.136	-200.000	-0.049	-0.307
-255.122	-200.000	-0.048	-0.317
-254.107	-200.000	0.006	0.151
-253.092	800.000	0.053	-0.207
-252.078	124.484	-0.226	0.286
-251.063	800.000	-0.112	0.334
-250.049	800.000	-0.080	0.275
-249.034	-107.268	-0.168	-0.037
-248.019	-18.926	-0.181	-0.113
-247.005	127.211	0.249	-0.317
-245.990	251.625	0.263	-0.449
-244.976	-200.000	0.007	0.266
-243.961	-119.527	-0.032	-0.006
-242.946	126.290	-0.399	0.506
-241.932	-170.751	0.265	0.009
-240.917	-111.364	0.229	-0.047
-239.903	17.526	0.152	-0.122
-238.888	286.174	0.163	0.294
-237.873	506.426	0.143	0.333
-236.859	-7.893	0.237	0.160
-235.844	117.526	0.159	0.196
-234.830	-200.000	0.012	0.108
-233.815	800.000	0.037	-0.117
-232.800	-200.000	0.060	-0.409
-231.786	-200.000	-0.027	-0.195
-230.771	-114.690	0.288	0.055
-229.757	-82.844	0.166	0.054
-228.742	727.803	-0.061	-0.164
-227.727	-34.549	-0.228	-0.125
-226.713	-5.949	0.078	0.054
-225.698	-200.000	-0.015	-0.091
-224.684	-31.496	-0.083	0.047
-223.669	-170.177	0.128	0.005
-222.655	150.055	0.105	0.142
-221.640	-73.730	-0.499	-0.182
-220.625	-58.378	0.243	-0.106
-219.611	-14.633	-0.212	0.136
-218.596	77.482	0.295	0.315
-217.582	-61.759	-0.048	0.020
-216.567	36.328	0.214	0.189
-215.552	180.241	0.052	0.076
-214.538	800.000	0.082	-0.272
-213.523	-76.708	0.369	0.130
-212.509	-73.512	-0.234	0.086
-211.494	-17.327	0.107	0.068
-210.479	-128.783	-0.332	0.047
-209.465	-160.561	0.087	-0.005
-208.450	-1.324	0.108	0.077
-207.436	-31.069	-0.127	-0.072
-206.421	1.940	0.128	0.092
-205.406	800.000	-0.038	0.153
-204.392	-80.249	-0.116	0.039
-203.377	800.000	-0.090	-0.249
-202.363	-155.056	-0.427	0.028
-201.348	-139.205	-0.142	0.015
-200.333	446.611	0.164	-0.361
-199.319	128.276	-0.107	0.136
-198.304	18.594	0.112	-0.090
-197.290	9.966	0.169	0.128
-196.275	-167.802	0.285	-0.011
-195.260	378.787	-0.128	0.263
-194.246	-55.624	-0.106	0.048
-193.231	-15.795	-0.032	-0.020
-192.217	-167.438	0.296	0.012
-191.202	-31.401	-0.173	-0.098
-190.187	-156.016	-0.166	-0.011
-189.173	461.211	0.108	0.241
-188.158	249.409	-0.046	-0.079
-187.144	-34.917	-0.271	-0.148
-186.129	2.454	0.165	0.120
-185.114	187.459	0.103	-0.154
-184.100	-90.995	0.452	0.130
-183.085	-200.000	-0.047	-0.226
-182.071	800.000	0.019	0.081
-181.056	-35.257	0.358	-0.195
-180.042	-40.979	0.029	-0.015
-179.027	-109.766	0.294	-0.062
-178.012	104.490	-0.145	0.170
-176.998	-200.000	0.022	0.226
-175.983	-82.200	0.272	0.089
-174.969	800.000	-0.053	-0.184
-173.954	-37.458	-0.340	-0.182
-172.939	411.593	-0.084	0.178
-171.925	-187.663	-0.391	-0.005
-170.910	455.177	-0.104	0.230
-169.896	382.146	0.075	0.154
-168.881	354.179	0.074	0.148
-167.866	-28.961	0.486	0.279
-166.852	-200.000	0.006	-0.049
-165.837	177.812	-0.149	-0.217
-164.823	-137.067	0.074	-0.009
-163.808	800.000	-0.105	0.295
-162.793	94.741	0.108	0.123
-161.779	668.316	-0.068	0.175
-160.764	-22.290	-0.107	-0.065
-159.750	143.465	0.111	-0.148
-158.735	-200.000	-0.018	0.220
-157.720	-16.137	-0.244	0.155
-156.706	141.491	-0.166	-0.220
-155.691	-72.658	-0.098	-0.036
-154.677	52.852	0.149	0.142
-153.662	29.999	-0.131	-0.112
-152.647	46.946	0.333	0.310
-151.633	35.850	-0.016	-0.014
-150.618	-85.281	-0.271	0.085
-149.604	800.000	0.072	0.199
-148.589	273.631	0.108	-0.190
-147.574	-49.816	0.317	-0.151
-146.560	-69.157	0.246	-0.095
-145.545	-184.229	0.160	-0.003
-144.531	-125.530	0.241	-0.037
-143.516	68.911	-0.145	0.149
-142.502	-36.467	0.083	0.045
-141.487	662.422	0.119	0.308
-140.472	-200.000	-0.039	0.171
-139.458	-91.913	0.131	0.037
-138.443	-106.247	-0.365	0.082
-137.429	-77.709	0.434	0.150
-136.414	-55.272	0.403	0.181
-135.399	321.061	-0.126	0.239
-134.385	800.000	-0.025	-0.080
-133.370	-106.283	-0.129	-0.029
-132.356	-53.535	-0.220	-0.100
-131.341	141.501	-0.043	-0.056
-130.326	-34.076	0.427	0.235
-129.312	-61.116	-0.253	-0.107
-128.297	16.484	-0.076	-0.060
-127.283	800.000	-0.071	0.268
-126.268	800.000	0.066	0.201
-125.253	-36.854	0.105	-0.056
-124.239	1.304	0.177	-0.127
-123.224	30.908	-0.188	-0.161
-122.210	-27.917	-0.161	0.093
-121.195	-36.059	-0.608	0.328
-120.180	174.528	0.172	-0.248
