DTS Sentinel unit serial number:	SN413079Multiplexer serial number:	ORYXHardware model number:	OX4-SRSoftware version number:	ORYX F/W v4.00 Oryx Data Collector v3.7.2.0data status	okinstallation	princeton_trtdifferential loss correction	single-endedforward channel	channel 1reverse channel	N/Adate	2019/09/18time	02:10:35forward acquisition time	60.00reverse acquisition time	0.00gamma	496.2192k internal	0.2341k external	0.2341temperature offset calibration	0.9982default loss term (dB/km)	0.3790temperature slope calibration	1.0000multiplexer offset coefficient	1.0000multiplexer slope coefficient	1.0000fibre end	0.00T internal ref (°C)	22.87T ext. ref 1 (°C)	0.16T ext. ref 2 (°C)	16.71length (m)	temperature (°C)	Stokes	anti-Stokes-747.200	-80.403	0.063	-0.021
-746.185	-200.000	0.047	0.241
-745.171	-48.219	-0.127	0.062
-744.156	392.989	-0.118	0.246
-743.142	-200.000	-0.020	0.220
-742.127	732.145	-0.083	-0.222
-741.112	114.454	-0.073	-0.089
-740.098	800.000	0.098	0.273
-739.083	-69.095	0.464	-0.179
-738.069	211.341	0.096	0.152
-737.054	2.798	0.076	0.055
-736.039	-144.688	-0.496	-0.046
-735.025	-134.443	0.242	0.030
-734.010	-81.633	-0.463	-0.152
-732.996	-15.653	-0.150	-0.096
-731.981	141.956	-0.121	-0.160
-730.966	800.000	-0.073	0.307
-729.952	257.937	-0.059	-0.101
-728.937	-26.397	-0.113	0.066
-727.923	-200.000	-0.000	-0.030
-726.908	-6.760	-0.342	-0.233
-725.894	-72.774	-0.226	0.083
-724.879	-50.453	-0.192	-0.091
-723.864	-26.396	0.154	0.091
-722.850	319.690	0.027	0.051
-721.835	-200.000	-0.017	-0.499
-720.821	-86.577	-0.167	-0.051
-719.806	800.000	-0.066	0.256
-718.791	-200.000	0.004	-0.137
-717.777	42.988	0.111	-0.101
-716.762	-30.043	0.155	0.088
-715.748	-152.986	0.463	-0.033
-714.733	-123.520	-0.071	0.011
-713.718	-200.000	0.010	-0.165
-712.704	19.980	0.181	0.146
-711.689	-88.429	-0.263	-0.079
-710.675	-55.729	0.209	0.093
-709.660	-200.000	0.062	-0.303
-708.645	-96.753	-0.283	0.074
-707.631	-101.897	0.142	-0.034
-706.616	148.718	-0.149	0.202
-705.602	-191.144	0.243	-0.003
-704.587	-14.072	0.136	0.088
-703.572	155.639	-0.123	-0.169
-702.558	41.927	0.231	-0.210
-701.543	-200.000	-0.003	-0.276
-700.529	-200.000	-0.021	-0.119
-699.514	-54.302	0.303	0.138
-698.499	-51.067	0.232	-0.109
-697.485	-200.000	0.072	-0.343
-696.470	220.898	-0.183	-0.294
-695.456	-200.000	-0.011	0.102
-694.441	-104.634	-0.284	-0.066
-693.426	-39.292	-0.274	-0.144
-692.412	-48.938	-0.295	-0.142
-691.397	33.958	-0.099	0.086
-690.383	800.000	-0.074	-0.279
-689.368	17.346	-0.227	-0.181
-688.354	-102.591	-0.094	-0.023
-687.339	101.114	-0.090	-0.105
-686.324	-80.945	0.113	-0.037
-685.310	223.625	0.140	-0.225
-684.295	-127.297	-0.626	0.091
-683.281	39.965	-0.172	0.155
-682.266	294.560	0.126	-0.230
-681.251	17.572	-0.160	0.127
-680.237	629.378	-0.023	0.059
-679.222	-46.233	-0.355	0.175
-678.208	-53.742	0.416	0.190
-677.193	380.252	0.104	-0.212
-676.178	300.379	-0.084	0.155
-675.164	-130.854	0.070	-0.009
-674.149	66.461	-0.185	-0.188
-673.135	-37.774	-0.076	-0.040
-672.120	-35.160	-0.071	-0.039
-671.105	-167.919	-0.125	-0.005
-670.091	678.446	0.045	0.118
-669.076	33.705	-0.326	0.283
-668.062	45.566	0.108	0.099
-667.047	63.775	0.322	0.323
-666.032	-97.026	0.113	0.029
-665.018	80.966	0.096	0.103
-664.003	-200.000	0.006	0.028
-662.989	120.324	0.160	-0.199
-661.974	254.728	-0.166	-0.283
-660.959	800.000	0.051	-0.205
-659.945	23.558	0.057	-0.047
-658.930	-103.343	0.432	0.102
-657.916	126.615	-0.108	-0.137
-656.901	651.210	-0.111	0.284
-655.886	-51.571	0.153	-0.071
-654.872	84.686	0.211	-0.231
-653.857	-200.000	-0.034	0.578
-652.843	201.665	0.074	-0.114
-651.828	800.000	-0.093	-0.275
-650.814	560.539	0.126	-0.303
-649.799	-21.447	0.126	-0.077
-648.784	800.000	-0.093	0.334
-647.770	96.090	0.064	-0.073
-646.755	160.541	-0.132	-0.184
-645.741	325.386	0.177	-0.337
-644.726	800.000	-0.009	-0.038
-643.711	46.785	0.028	-0.026
-642.697	800.000	-0.070	-0.215
-641.682	-94.684	-0.246	0.067
-640.668	540.890	0.088	0.209
-639.653	22.672	0.124	0.101
-638.638	390.713	-0.109	0.227
-637.624	800.000	0.044	-0.190
-636.609	-68.518	-0.364	0.141
-635.595	800.000	0.061	0.246
-634.580	-52.941	-0.222	-0.102
-633.565	178.788	0.155	0.226
-632.551	-188.857	-0.258	0.003
-631.536	15.637	0.292	0.229
-630.522	-200.000	-0.005	-0.099
-629.507	800.000	-0.138	0.473
-628.492	-200.000	-0.040	-0.191
-627.478	269.192	0.081	0.142
-626.463	-200.000	-0.068	0.465
-625.449	-141.754	-0.201	-0.020
-624.434	7.076	-0.076	-0.056
-623.419	251.739	-0.124	0.211
-622.405	86.879	0.106	0.117
-621.390	-127.326	0.166	-0.024
-620.376	-74.187	-0.336	0.121
-619.361	-200.000	0.050	-0.255
-618.346	-71.012	-0.182	0.068
-617.332	553.258	-0.087	-0.209
-616.317	262.163	0.183	-0.316
-615.303	-72.288	-0.454	0.168
-614.288	-46.427	-0.080	0.039
-613.273	-200.000	0.063	0.367
-612.259	-82.110	-0.245	-0.080
-611.244	-99.336	0.209	-0.053
-610.230	-37.056	-0.259	0.139
-609.215	160.395	-0.117	-0.163
-608.201	-150.894	-0.500	0.038
-607.186	-30.732	0.055	0.031
-606.171	345.412	-0.067	-0.131
-605.157	-73.176	-0.324	-0.118
-604.142	-6.886	-0.092	-0.062
-603.128	-200.000	-0.023	-0.117
-602.113	-80.967	-0.290	0.096
-601.098	-200.000	0.009	0.385
-600.084	68.200	0.155	0.158
-599.069	-35.891	-0.169	-0.091
-598.055	-52.875	0.112	-0.051
-597.040	-100.391	0.342	-0.084
-596.025	294.738	-0.067	-0.123
-595.011	123.325	0.187	0.234
-593.996	800.000	-0.050	0.195
-592.982	21.608	0.379	0.307
-591.967	190.644	-0.095	-0.142
-590.952	-200.000	0.017	0.091
-589.938	-117.773	0.046	-0.008
-588.923	12.280	-0.260	0.199
-587.909	39.269	-0.196	0.175
-586.894	800.000	0.085	-0.281
-585.879	128.363	-0.232	-0.295
-584.865	-69.180	-0.261	-0.100
-583.850	-71.063	-0.147	-0.055
-582.836	-150.879	-0.022	0.002
-581.821	31.096	-0.251	0.214
-580.806	-40.277	0.037	-0.019
-579.792	-85.415	0.180	0.056
-578.777	330.457	-0.121	0.233
-577.763	-88.485	0.398	-0.118
-576.748	800.000	0.075	0.320
-575.733	468.012	-0.230	-0.514
-574.719	793.961	0.029	0.080
-573.704	65.876	0.241	-0.243
-572.690	-200.000	-0.021	0.179
-571.675	-94.596	0.165	-0.045
-570.661	-90.862	0.085	-0.024
-569.646	-116.664	0.098	-0.018
-568.631	-200.000	0.013	0.085
-567.617	235.039	-0.105	-0.172
-566.602	-146.083	0.307	0.027
-565.588	-200.000	0.018	-0.346
-564.573	-48.201	0.147	-0.071
-563.558	148.136	-0.086	-0.115
-562.544	800.000	-0.091	-0.255
-561.529	-24.876	0.217	0.128
-560.515	22.254	-0.228	-0.185
-559.500	-52.181	-0.331	-0.153
-558.485	-0.754	-0.102	-0.072
-557.471	-123.069	0.148	0.024
-556.456	-126.672	-0.252	-0.037
-555.442	-200.000	-0.001	-0.097
-554.427	22.494	0.168	-0.137
-553.412	-189.094	0.188	0.002
-552.398	183.192	0.056	-0.083
-551.383	58.419	0.054	-0.053
-550.369	-200.000	0.001	-0.193
-549.354	188.166	0.120	0.178
-548.339	19.059	0.157	-0.125
-547.325	323.661	0.086	-0.163
-546.310	-200.000	0.008	-0.319
-545.296	-200.000	-0.034	-0.168
-544.281	-200.000	0.001	0.075
-543.266	-63.318	-0.308	0.126
-542.252	143.733	0.106	0.140
-541.237	-200.000	-0.042	-0.195
-540.223	-200.000	-0.046	0.564
-539.208	-42.393	0.097	0.049
-538.193	76.483	-0.035	0.037
-537.179	237.084	0.152	0.251
-536.164	-186.831	-0.057	0.001
-535.150	-200.000	0.065	0.331
-534.135	-76.438	0.149	0.052
-533.121	136.673	-0.294	-0.382
-532.106	97.331	-0.157	-0.179
-531.091	-108.024	-0.235	-0.051
-530.077	557.792	0.021	-0.050
-529.062	32.960	0.337	0.290
-528.048	-200.000	0.036	0.254
-527.033	197.014	-0.087	0.132
-526.018	-83.254	-0.177	0.057
-525.004	4.330	0.144	-0.104
-523.989	-55.348	0.025	0.011
-522.975	128.956	-0.220	-0.278
-521.960	285.411	0.099	0.177
-520.945	16.529	0.161	-0.126
-519.931	-200.000	0.009	-0.325
-518.916	422.094	-0.150	-0.319
-517.902	-42.658	-0.179	-0.091
-516.887	149.232	-0.058	0.078
-515.872	202.943	-0.144	-0.221
-514.858	110.068	-0.036	-0.043
-513.843	-121.355	0.123	-0.020
-512.829	398.395	0.154	0.321
-511.814	-66.347	-0.200	0.079
-510.799	-23.821	-0.373	-0.222
-509.785	72.520	0.189	-0.196
-508.770	-21.016	-0.087	0.053
-507.756	-129.244	0.236	-0.033
-506.741	153.906	-0.172	-0.235
-505.726	72.800	0.091	-0.094
-504.712	333.878	-0.135	-0.259
-503.697	-8.123	-0.202	-0.135
-502.683	52.526	-0.189	0.179
-501.668	-154.826	0.209	0.014
-500.653	263.659	0.137	-0.237
-499.639	69.538	-0.137	0.140
-498.624	265.913	-0.119	0.205
-497.610	657.510	-0.123	0.313
-496.595	-49.292	-0.013	-0.006
-495.581	519.529	-0.092	0.214
-494.566	-200.000	-0.017	0.270
-493.551	576.911	0.082	-0.198
-492.537	15.965	0.174	-0.136
-491.522	-200.000	0.032	-0.244
-490.508	-200.000	-0.067	-0.300
-489.493	-56.288	-0.037	-0.016
-488.478	-200.000	-0.034	-0.210
-487.464	-200.000	-0.026	0.136
-486.449	800.000	-0.012	-0.037
-485.435	-151.871	-0.061	-0.004
-484.420	-200.000	-0.010	0.194
-483.405	-122.593	0.248	0.040
-482.391	-200.000	0.215	-0.001
-481.376	-102.399	-0.152	0.036
-480.362	-58.861	-0.119	-0.051
-479.347	-116.260	0.301	0.055
-478.332	-73.763	-0.121	0.044
-477.318	800.000	-0.062	-0.243
-476.303	116.288	0.086	-0.105
-475.289	-53.070	-0.102	-0.046
-474.274	-46.876	0.253	0.122
-473.259	86.515	0.183	-0.200
-472.245	-200.000	0.008	-0.145
-471.230	800.000	-0.013	-0.042
-470.216	-200.000	0.018	0.185
-469.201	3.977	-0.194	-0.141
-468.186	188.943	0.168	-0.249
-467.172	-156.125	0.222	0.014
-466.157	72.640	0.175	0.181
-465.143	84.038	-0.238	-0.258
-464.128	-155.271	0.129	-0.008
-463.113	-158.830	-0.196	-0.011
-462.099	-127.255	-0.235	0.034
-461.084	-130.742	0.072	-0.010
-460.070	-104.201	-0.224	0.052
-459.055	76.865	-0.249	0.262
-458.040	-200.000	0.024	-0.108
-457.026	-36.170	-0.374	-0.200
-456.011	-24.607	0.169	0.100
-454.997	17.656	-0.074	0.058
-453.982	168.917	0.266	-0.376
-452.968	768.848	-0.055	0.149
-451.953	800.000	-0.044	0.149
-450.938	-137.705	-0.154	-0.017
-449.924	-13.331	0.218	-0.140
-448.909	94.104	-0.086	0.096
-447.895	-79.716	0.170	0.057
-446.880	-200.000	0.069	-0.311
-445.865	259.390	-0.091	-0.156
-444.851	123.663	0.144	-0.179
-443.836	-96.967	0.328	-0.085
-442.822	-40.659	-0.090	-0.046
-441.807	299.082	0.072	0.131
-440.792	152.594	-0.123	0.167
-439.778	-45.136	-0.362	0.178
-438.763	795.085	0.054	-0.148
-437.749	116.070	0.090	0.110
-436.734	-34.217	-0.285	0.155
-435.719	800.000	0.031	0.120
-434.705	118.950	-0.224	0.274
-433.690	-200.000	0.058	0.278
-432.676	151.575	-0.256	-0.346
-431.661	800.000	-0.101	-0.421
-430.646	0.723	-0.319	0.226
-429.632	390.702	0.087	0.179
-428.617	-95.688	0.038	-0.010
-427.603	132.661	0.189	-0.241
-426.588	-142.669	0.284	0.028
-425.573	210.342	-0.133	0.207
-424.559	-200.000	0.010	0.205
-423.544	160.495	-0.185	0.255
-422.530	-55.746	0.126	-0.056
-421.515	-200.000	-0.081	0.452
-420.500	151.117	-0.064	0.086
-419.486	-200.000	0.027	-0.247
-418.471	-169.944	0.048	0.002
-417.457	800.000	-0.066	-0.191
-416.442	22.128	0.235	-0.190
-415.428	-104.131	0.234	0.054
-414.413	-110.515	-0.427	0.087
-413.398	-54.872	0.189	0.084
-412.384	-66.781	-0.158	-0.062
-411.369	-34.639	0.201	0.109
-410.355	-84.766	-0.158	-0.049
-409.340	227.406	-0.049	0.078
-408.325	208.407	-0.118	0.183
-407.311	-200.000	-0.060	-0.320
-406.296	138.949	-0.039	-0.051
-405.282	-97.678	0.069	0.018
-404.267	-200.000	0.018	-0.292
-403.252	-155.370	0.134	0.009
-402.238	271.053	0.090	-0.157
-401.223	532.278	0.144	0.338
-400.209	417.154	-0.069	-0.146
-399.194	800.000	-0.042	-0.142
-398.179	-200.000	0.028	-0.439
-397.165	304.779	0.151	0.278
-396.150	-32.711	0.352	-0.193
-395.136	-10.499	-0.094	0.062
-394.121	-71.076	-0.205	0.076
-393.106	-200.000	0.014	0.133
-392.092	-98.438	0.065	-0.017
-391.077	114.673	0.412	-0.497
-390.063	-3.525	0.224	-0.154
-389.048	-54.821	0.086	0.038
-388.033	-200.000	0.019	0.135
-387.019	-136.623	-0.361	-0.041
-386.004	800.000	-0.083	-0.229
-384.990	444.832	0.129	0.281
-383.975	800.000	0.131	-0.362
-382.960	-27.580	0.114	-0.065
-381.946	-126.057	-0.091	0.014
-380.931	-79.505	0.056	0.019
-379.917	28.474	0.169	-0.141
-378.902	162.473	-0.048	-0.066
-377.888	229.154	0.044	-0.070
-376.873	4.429	0.264	0.191
-375.858	332.953	0.230	0.439
-374.844	-200.000	-0.032	-0.184
-373.829	800.000	-0.011	0.034
-372.815	8.194	0.125	-0.092
-371.800	-70.528	0.204	-0.076
-370.785	108.873	0.297	-0.350
-369.771	61.668	0.086	0.085
-368.756	-9.711	-0.266	-0.175
-367.742	-161.207	-0.197	0.010
-366.727	225.602	-0.076	-0.121
-365.712	-126.580	0.043	0.006
-364.698	332.908	0.114	-0.217
-363.683	-200.000	-0.031	0.166
-362.669	-67.939	-0.223	-0.086
-361.654	-108.343	0.167	0.036
-360.639	-40.871	0.119	0.061
-359.625	689.509	-0.042	-0.108
-358.610	289.918	0.105	-0.189
-357.596	-175.708	-0.154	-0.004
-356.581	800.000	0.128	-0.361
-355.566	54.721	0.067	-0.064
-354.552	-27.772	-0.127	-0.072
-353.537	48.787	-0.095	-0.088
-352.523	69.751	-0.229	0.232
-351.508	-111.475	-0.306	-0.062
-350.493	800.000	0.043	-0.128
-349.479	245.961	0.130	0.216
-348.464	107.219	-0.128	-0.151
-347.450	800.000	0.076	0.247
-346.435	-161.535	0.091	-0.005
-345.420	-27.254	-0.275	-0.158
-344.406	-200.000	-0.034	0.207
-343.391	399.247	0.024	0.050
-342.377	179.515	0.041	0.060
-341.362	91.657	-0.247	0.274
-340.348	-112.920	0.154	0.030
-339.333	-33.918	0.165	-0.090
-338.318	-85.963	-0.213	-0.065
-337.304	-129.017	0.459	-0.063
-336.289	403.675	-0.084	-0.175
-335.275	61.248	-0.298	-0.292
-334.260	-107.071	0.283	-0.062
-333.245	-200.000	-0.026	0.135
-332.231	-200.000	-0.042	0.222
-331.216	800.000	-0.076	0.229
-330.202	-83.031	0.249	0.079
-329.187	179.095	0.112	-0.162
-328.172	-128.976	-0.045	0.006
-327.158	-159.339	-0.176	-0.010
-326.143	683.056	-0.127	0.326
-325.129	-200.000	-0.031	0.197
-324.114	-167.854	0.195	0.008
-323.099	409.096	-0.001	0.003
-322.085	-77.328	0.436	0.149
-321.070	-200.000	0.038	-0.294
-320.056	56.510	0.269	-0.258
-319.041	38.602	-0.315	-0.277
-318.026	-200.000	0.017	0.163
-317.012	172.861	-0.058	-0.083
-315.997	-42.281	0.180	-0.090
-314.983	800.000	-0.042	0.119
-313.968	800.000	-0.031	0.129
-312.953	61.717	0.225	-0.221
-311.939	126.776	-0.154	-0.192
-310.924	92.240	0.093	-0.104
-309.910	-79.095	-0.103	0.035
-308.895	132.042	-0.055	-0.069
-307.880	651.553	-0.084	0.212
-306.866	206.055	-0.166	0.255
-305.851	-62.721	0.221	-0.090
-304.837	766.962	-0.059	-0.157
-303.822	-200.000	-0.013	0.220
-302.807	74.405	-0.154	0.159
-301.793	-76.776	-0.107	0.037
-300.778	-38.828	0.239	-0.124
-299.764	-200.000	-0.018	-0.409
-298.749	-200.000	0.041	-0.199
-297.735	618.447	0.072	-0.177
-296.720	-8.509	0.146	-0.096
-295.705	-79.885	-0.111	0.037
-294.691	-11.026	-0.116	0.076
-293.676	-200.000	0.023	-0.404
-292.662	641.942	0.126	0.317
-291.647	424.393	-0.096	0.203
-290.632	-200.000	0.072	-0.379
-289.618	-200.000	0.011	0.069
-288.603	326.948	0.048	-0.091
-287.589	-128.587	-0.127	-0.018
-286.574	-38.989	-0.112	-0.058
-285.559	345.790	-0.079	0.152
-284.545	327.794	-0.086	0.162
-283.530	294.141	0.242	-0.435
-282.516	-109.075	0.502	0.105
-281.501	385.627	0.013	0.027
-280.486	-69.102	-0.430	0.163
-279.472	165.249	-0.098	-0.137
-278.457	-200.000	-0.009	-0.163
-277.443	-200.000	0.013	0.065
-276.428	358.852	-0.045	0.089
-275.413	279.593	0.046	0.081
-274.399	-200.000	-0.052	-0.326
-273.384	-200.000	-0.066	-0.335
-272.370	86.857	0.401	-0.436
-271.355	800.000	0.062	0.255
-270.340	77.638	0.170	-0.178
-269.326	-163.043	-0.153	-0.007
-268.311	-98.371	0.185	-0.047
-267.297	-64.149	-0.284	0.114
-266.282	28.149	0.149	-0.124
-265.267	9.214	0.424	0.315
-264.253	-200.000	0.044	0.391
-263.238	369.676	-0.045	0.090
-262.224	-105.630	-0.155	0.034
-261.209	70.068	0.081	-0.082
-260.195	-41.105	0.096	-0.049
-259.180	139.807	-0.109	0.142
-258.165	195.069	0.171	0.255
-257.151	-200.000	-0.047	-0.244
-256.136	-73.839	-0.270	-0.097
-255.122	-47.568	0.181	-0.086
-254.107	61.430	0.125	0.122
-253.092	-39.800	-0.318	0.163
-252.078	-200.000	0.052	0.316
-251.063	72.100	0.167	-0.171
-250.049	165.591	-0.088	-0.122
-249.034	486.838	-0.017	0.038
-248.019	75.839	0.198	0.206
-247.005	-82.132	0.229	-0.073
-245.990	148.973	0.060	-0.080
-244.976	-88.680	0.167	-0.049
-243.961	-124.671	-0.242	0.037
-242.946	-46.874	0.175	-0.084
-241.932	-106.309	0.170	0.037
-240.917	-200.000	0.016	0.150
-239.903	-200.000	-0.030	-0.453
-238.888	471.866	-0.067	0.148
-237.873	800.000	-0.016	-0.062
-236.859	8.870	-0.102	0.076
-235.844	508.261	-0.103	-0.236
-234.830	-11.906	-0.195	0.126
-233.815	-123.417	-0.283	0.044
-232.800	477.750	-0.072	0.160
-231.786	83.348	-0.140	-0.149
-230.771	-162.229	0.408	0.020
-229.757	800.000	0.031	0.109
-228.742	64.166	0.190	-0.188
-227.727	104.158	0.113	0.131
-226.713	168.418	-0.203	-0.284
-225.698	487.333	-0.081	0.181
-224.684	-74.137	0.225	-0.080
-223.669	-68.415	-0.214	-0.082
-222.655	42.551	0.280	0.250
-221.640	-6.571	0.175	0.117
-220.625	-200.000	0.012	0.283
-219.611	14.076	0.178	0.136
-218.596	800.000	0.046	-0.151
-217.582	21.028	-0.212	-0.168
-216.567	-200.000	0.022	0.101
-215.552	228.363	0.263	-0.421
-214.538	-200.000	0.053	-0.270
-213.523	-72.470	0.387	0.140
-212.509	-27.681	0.173	0.099
-211.494	-200.000	0.003	-0.151
-210.479	-67.501	0.337	-0.130
-209.465	165.526	0.094	-0.130
-208.450	800.000	-0.091	0.251
-207.436	457.866	0.143	0.311
-206.421	-66.675	-0.086	0.033
-205.406	290.308	-0.056	0.100
-204.392	134.111	-0.140	0.178
-203.377	800.000	0.063	0.245
-202.363	-34.585	-0.214	0.115
-201.348	207.172	-0.168	0.258
-200.333	-31.265	-0.341	-0.188
-199.319	-48.865	-0.393	-0.185
-198.304	-137.142	0.220	-0.025
-197.290	800.000	-0.044	-0.157
-196.275	800.000	0.087	-0.265
-195.260	68.629	-0.224	0.225
-194.246	157.078	-0.103	0.140
-193.231	563.058	0.154	0.366
-192.217	355.759	0.079	0.154
-191.202	-103.765	-0.111	0.026
-190.187	105.805	0.138	0.160
-189.173	77.802	-0.055	-0.058
-188.158	133.055	-0.113	0.144
-187.144	-200.000	0.006	0.131
-186.129	-58.185	-0.098	0.042
-185.114	-200.000	-0.015	0.254
-184.100	486.821	0.132	0.295
-183.085	-200.000	-0.015	0.171
-182.071	-200.000	0.029	-0.206
-181.056	-25.804	0.192	-0.111
-180.042	-35.811	-0.108	0.057
-179.027	461.505	0.165	-0.360
-178.012	-144.336	-0.220	-0.020
-176.998	-100.226	-0.136	-0.033
-175.983	800.000	0.029	0.095
-174.969	-200.000	0.026	0.370
-173.954	6.323	0.041	0.030
-172.939	-176.133	-0.111	0.003
-171.925	-92.736	0.346	0.095
-170.910	-200.000	-0.057	0.256
-169.896	-8.588	-0.083	0.055
-168.881	-46.356	0.331	0.159
-167.866	302.496	-0.358	0.649
-166.852	-38.171	0.297	0.154
-165.837	252.645	0.221	-0.369
-164.823	257.916	0.170	-0.286
-163.808	800.000	-0.042	-0.127
-162.793	-200.000	-0.009	0.471
-161.779	286.479	-0.178	-0.315
-160.764	24.964	-0.144	0.117
-159.750	412.041	0.064	0.133
-158.735	-124.277	0.219	0.034
-157.720	800.000	-0.149	0.558
-156.706	-123.130	0.044	0.007
-155.691	800.000	-0.140	0.409
-154.677	233.391	0.129	-0.207
-153.662	-54.256	0.469	0.209
-152.647	33.460	-0.065	0.055
-151.633	-7.761	-0.413	0.273
-150.618	186.905	0.079	-0.115
-149.604	22.457	0.194	0.155
-148.589	-76.968	-0.042	0.014
-147.574	-34.815	0.139	0.075
-146.560	535.758	-0.131	0.305
-145.545	-87.023	-0.324	-0.097
-144.531	-176.746	-0.270	0.007
-143.516	48.610	0.160	-0.147
-142.502	800.000	-0.031	-0.120
-141.487	-12.722	-0.362	-0.231
-140.472	3.283	0.237	0.169
-139.458	-3.926	0.132	0.090
-138.443	393.483	-0.048	-0.098
-137.429	-122.571	-0.360	-0.057
-136.414	325.725	-0.069	0.129
-135.399	-39.788	0.345	-0.176
-134.385	15.032	0.129	0.099
-133.370	-57.733	-0.173	-0.074
-132.356	800.000	-0.075	0.259
-131.341	800.000	0.008	-0.031
-130.326	800.000	-0.056	-0.156
-129.312	-13.721	0.305	0.193
-128.297	107.655	0.046	-0.054
-127.283	511.301	0.078	-0.179
-126.268	-136.708	0.060	-0.007
-125.253	-157.701	0.018	-0.001
-124.239	-200.000	-0.014	-0.239
-123.224	-37.012	0.275	0.144
-122.210	-35.965	0.085	-0.045
-121.195	-148.922	0.241	0.019
