DTS Sentinel unit serial number:	SN413079Multiplexer serial number:	ORYXHardware model number:	OX4-SRSoftware version number:	ORYX F/W v4.00 Oryx Data Collector v3.7.2.0data status	okinstallation	princeton_trtdifferential loss correction	single-endedforward channel	channel 1reverse channel	N/Adate	2019/09/18time	17:54:35forward acquisition time	60.00reverse acquisition time	0.00gamma	496.2192k internal	0.2294k external	0.2294temperature offset calibration	1.0014default loss term (dB/km)	0.3790temperature slope calibration	1.0000multiplexer offset coefficient	1.0000multiplexer slope coefficient	1.0000fibre end	0.00T internal ref (°C)	39.98T ext. ref 1 (°C)	0.91T ext. ref 2 (°C)	30.97length (m)	temperature (°C)	Stokes	anti-Stokes-747.200	158.666	0.237	0.336
-746.185	-200.000	-0.006	-0.322
-745.171	-23.063	0.167	0.103
-744.156	26.061	0.102	0.087
-743.142	-3.250	-0.114	0.081
-742.127	-24.088	0.293	0.179
-741.112	461.806	0.066	0.149
-740.098	-56.297	-0.164	-0.074
-739.083	-43.717	-0.205	0.106
-738.069	-100.010	-0.288	-0.073
-737.054	-61.531	0.239	-0.103
-736.039	-22.397	-0.261	-0.161
-735.025	-200.000	-0.013	0.187
-734.010	24.796	0.121	-0.103
-732.996	-96.484	0.148	0.040
-731.981	-82.905	-0.220	-0.072
-730.966	-1.284	0.074	0.053
-729.952	248.122	-0.040	0.070
-728.937	235.949	-0.128	-0.217
-727.923	-116.238	-0.331	-0.063
-726.908	-33.252	0.458	-0.259
-725.894	-39.650	0.222	-0.119
-724.879	-200.000	0.021	-0.222
-723.864	-113.972	-0.162	-0.032
-722.850	-160.932	-0.377	0.020
-721.835	-121.438	0.213	-0.036
-720.821	300.199	-0.037	-0.070
-719.806	-200.000	-0.480	0.000
-718.791	-16.136	0.327	-0.213
-717.777	-134.378	-0.240	-0.030
-716.762	800.000	-0.075	-0.225
-715.748	115.661	-0.150	0.187
-714.733	94.439	0.062	0.072
-713.718	259.787	0.091	-0.160
-712.704	215.309	0.094	-0.152
-711.689	-200.000	0.021	-0.164
-710.675	-142.645	-0.181	0.018
-709.660	-200.000	-0.002	0.051
-708.645	94.686	0.098	-0.113
-707.631	119.652	-0.278	-0.352
-706.616	9.442	-0.141	-0.109
-705.602	-1.851	0.171	-0.123
-704.587	-164.799	-0.228	-0.010
-703.572	800.000	0.028	-0.108
-702.558	800.000	-0.027	0.100
-701.543	219.933	-0.139	0.227
-700.529	-200.000	-0.033	-0.330
-699.514	-57.044	-0.108	0.049
-698.499	126.493	-0.153	0.198
-697.485	79.988	-0.066	0.072
-696.470	635.673	-0.054	-0.139
-695.456	-137.030	0.315	0.037
-694.441	395.460	0.199	-0.425
-693.426	-51.479	0.134	0.064
-692.412	-155.592	0.268	0.018
-691.397	225.271	-0.269	0.444
-690.383	-70.543	-0.177	0.068
-689.368	800.000	0.065	-0.217
-688.354	-124.626	-0.378	0.060
-687.339	392.365	0.148	0.314
-686.324	-112.274	-0.304	0.062
-685.310	800.000	-0.024	0.080
-684.295	-124.657	-0.365	-0.058
-683.281	-144.520	0.297	0.028
-682.266	15.361	-0.376	-0.301
-681.251	-59.155	-0.208	-0.091
-680.237	-63.769	-0.180	-0.075
-679.222	-175.176	0.296	-0.008
-678.208	-200.000	-0.029	-0.430
-677.193	132.230	-0.320	-0.421
-676.178	-21.838	-0.202	0.125
-675.164	-174.333	0.029	0.001
-674.149	-105.542	0.576	-0.133
-673.135	426.443	-0.064	-0.141
-672.120	800.000	-0.072	0.294
-671.105	-16.071	-0.055	0.036
-670.091	241.690	-0.031	-0.052
-669.076	-139.071	-0.087	0.010
-668.062	114.905	-0.078	0.097
-667.047	99.154	0.248	0.292
-666.032	175.272	0.135	-0.199
-665.018	800.000	0.019	-0.083
-664.003	603.012	-0.123	0.311
-662.989	392.300	0.134	-0.284
-661.974	-174.652	0.208	0.006
-660.959	-28.448	0.155	-0.091
-659.945	1.800	0.286	0.210
-658.930	178.386	-0.171	-0.254
-657.916	28.571	-0.149	0.129
-656.901	-200.000	-0.010	0.303
-655.886	196.360	-0.122	-0.189
-654.872	53.110	-0.067	0.066
-653.857	153.089	0.249	0.347
-652.843	-37.290	0.354	0.193
-651.828	8.364	-0.169	0.130
-650.814	-200.000	0.034	-0.161
-649.799	800.000	-0.043	0.166
-648.784	-0.640	-0.124	0.090
-647.770	-77.291	-0.237	0.084
-646.755	447.667	-0.054	0.121
-645.741	293.829	0.130	0.242
-644.726	152.294	0.234	-0.326
-643.711	-98.016	0.047	0.012
-642.697	-63.747	-0.088	-0.037
-641.682	-78.015	0.224	-0.079
-640.668	-29.869	0.139	0.081
-639.653	175.693	-0.150	-0.222
-638.638	-200.000	-0.030	-0.426
-637.624	-38.790	-0.282	-0.151
-636.609	-96.824	0.204	-0.055
-635.595	-200.000	0.001	0.040
-634.580	592.239	-0.118	-0.296
-633.565	-96.603	-0.382	-0.103
-632.551	-200.000	0.039	-0.217
-631.536	-84.374	0.213	0.069
-630.522	-200.000	0.053	0.241
-629.507	729.098	-0.059	0.159
-628.492	-45.006	0.165	0.084
-627.478	217.435	0.115	0.186
-626.463	-59.933	-0.297	0.129
-625.449	-200.000	0.017	0.079
-624.434	21.125	-0.129	-0.106
-623.419	-200.000	-0.025	0.122
-622.405	-83.688	0.242	-0.079
-621.390	-178.088	-0.108	0.003
-620.376	-62.555	0.344	-0.145
-619.361	-33.847	-0.302	-0.169
-618.346	216.238	-0.066	-0.106
-617.332	-48.873	-0.246	-0.120
-616.317	2.393	-0.360	0.265
-615.303	-200.000	0.003	0.389
-614.288	-130.434	0.331	0.046
-613.273	-200.000	-0.013	0.181
-612.259	228.255	-0.075	0.125
-611.244	11.165	-0.173	-0.135
-610.230	53.996	-0.088	0.086
-609.215	800.000	-0.143	-0.445
-608.201	800.000	-0.067	0.267
-607.186	238.867	-0.124	0.210
-606.171	72.557	0.164	0.174
-605.157	-200.000	-0.013	-0.413
-604.142	117.092	-0.078	0.098
-603.128	81.728	-0.120	0.132
-602.113	379.650	0.027	0.056
-601.098	47.692	0.165	0.157
-600.084	184.662	0.036	0.054
-599.069	-104.836	0.132	0.031
-598.055	104.006	0.137	-0.164
-597.040	800.000	-0.025	0.109
-596.025	-143.207	-0.070	-0.007
-595.011	68.023	0.048	-0.050
-593.996	738.663	-0.053	0.144
-592.982	-80.585	-0.073	0.025
-591.967	15.134	0.245	-0.196
-590.952	219.469	-0.072	-0.117
-589.938	-25.546	0.129	0.077
-588.923	-152.311	0.155	-0.011
-587.909	226.785	0.026	0.043
-586.894	-151.321	-0.167	-0.013
-585.879	-167.847	-0.146	-0.006
-584.865	-31.917	-0.215	-0.123
-583.850	-200.000	-0.008	0.074
-582.836	800.000	0.084	-0.316
-581.821	-57.304	-0.125	0.056
-580.806	800.000	0.086	0.275
-579.792	800.000	0.060	-0.183
-578.777	-200.000	-0.012	-0.166
-577.763	-200.000	-0.055	0.260
-576.748	-74.976	0.134	-0.049
-575.733	79.822	-0.127	0.138
-574.719	36.617	-0.076	-0.068
-573.704	603.845	0.155	-0.392
-572.690	64.043	-0.235	-0.240
-571.675	-171.144	0.198	0.007
-570.661	-200.000	0.008	-0.270
-569.646	151.729	0.145	0.201
-568.631	800.000	-0.050	0.141
-567.617	-39.639	0.135	0.072
-566.602	48.559	-0.173	0.165
-565.588	-137.903	-0.217	-0.025
-564.573	-24.911	-0.106	0.064
-563.558	-66.691	-0.404	0.162
-562.544	153.354	0.128	-0.178
-561.529	268.046	0.098	-0.174
-560.515	6.915	-0.084	0.064
-559.500	69.665	-0.101	-0.106
-558.485	-200.000	-0.039	-0.282
-557.471	-106.859	-0.433	-0.097
-556.456	-96.093	0.092	0.025
-555.442	168.175	-0.148	0.214
-554.427	-8.139	0.169	-0.115
-553.412	-60.580	-0.282	0.121
-552.398	-150.223	0.283	0.022
-551.383	-59.306	0.355	-0.155
-550.369	-102.937	-0.600	-0.145
-549.354	-170.818	0.093	0.003
-548.339	-55.431	0.142	-0.064
-547.325	-200.000	0.006	-0.135
-546.310	411.256	0.131	-0.283
-545.296	57.763	-0.202	0.201
-544.281	-65.154	-0.051	-0.021
-543.266	-89.632	0.245	-0.073
-542.252	-50.528	-0.169	0.081
-541.237	154.444	0.197	0.274
-540.223	-171.645	0.140	0.005
-539.208	29.561	-0.131	-0.113
-538.193	-36.776	-0.277	0.151
-537.179	224.619	0.053	-0.086
-536.164	-200.000	0.005	-0.310
-535.150	-168.007	0.448	0.018
-534.135	-81.794	-0.328	0.109
-533.121	21.675	-0.126	-0.104
-532.106	286.892	-0.257	-0.471
-531.091	-148.496	-0.236	0.020
-530.077	17.212	-0.103	-0.083
-529.062	-200.000	0.018	0.162
-528.048	89.745	-0.074	-0.084
-527.033	-200.000	-0.036	-0.251
-526.018	145.736	-0.077	-0.105
-525.004	108.291	-0.254	0.307
-523.989	65.844	0.240	-0.247
-522.975	800.000	-0.023	-0.073
-521.960	19.948	0.322	-0.264
-520.945	-7.757	-0.232	-0.159
-519.931	713.672	0.124	0.334
-518.916	-130.538	0.174	-0.024
-517.902	800.000	-0.097	-0.398
-516.887	38.024	0.153	-0.138
-515.872	-161.087	-0.133	0.007
-514.858	-198.281	0.272	0.002
-513.843	322.231	-0.096	-0.185
-512.829	800.000	0.030	-0.094
-511.814	-200.000	0.007	0.163
-510.799	-200.000	0.115	0.600
-509.785	-166.678	-0.044	0.002
-508.770	99.453	0.175	-0.205
-507.756	364.536	0.057	0.116
-506.741	-145.208	-0.213	0.020
-505.726	-200.000	0.011	0.288
-504.712	767.962	0.177	-0.487
-503.697	22.464	0.078	0.064
-502.683	-154.326	-0.219	0.015
-501.668	-41.229	0.115	0.060
-500.653	-103.246	0.074	0.018
-499.639	-58.306	0.318	0.140
-498.624	-18.804	0.124	0.078
-497.610	800.000	-0.045	-0.147
-496.595	800.000	-0.017	0.058
-495.581	-148.506	-0.237	-0.020
-494.566	90.479	-0.048	0.054
-493.551	-4.914	0.154	-0.107
-492.537	-200.000	0.010	-0.243
-491.522	179.994	0.146	0.217
-490.508	-124.886	0.165	-0.026
-489.493	68.404	-0.065	-0.068
-488.478	-128.532	0.298	-0.043
-487.464	-1.804	0.195	-0.139
-486.449	-59.366	-0.394	0.172
-485.435	-12.099	-0.310	0.205
-484.420	177.743	-0.258	0.381
-483.405	-145.190	-0.138	-0.013
-482.391	73.990	-0.085	-0.090
-481.376	-200.000	-0.012	0.114
-480.362	6.334	0.342	-0.257
-479.347	800.000	0.101	-0.294
-478.332	-200.000	0.025	0.368
-477.318	23.528	-0.221	-0.184
-476.303	-74.713	0.416	-0.151
-475.289	-200.000	-0.031	0.239
-474.274	-101.462	-0.388	0.096
-473.259	800.000	-0.091	0.329
-472.245	725.284	0.029	-0.079
-471.230	602.084	0.082	-0.205
-470.216	800.000	-0.015	0.042
-469.201	323.254	-0.175	-0.337
-468.186	-80.648	-0.352	-0.119
-467.172	430.861	-0.048	0.106
-466.157	-200.000	-0.013	-0.157
-465.143	41.461	-0.025	-0.023
-464.128	-200.000	0.014	-0.183
-463.113	705.600	0.086	-0.230
-462.099	-114.944	-0.212	-0.041
-461.084	-200.000	0.042	0.328
-460.070	-74.845	-0.043	-0.016
-459.055	-200.000	0.061	-0.420
-458.040	633.279	-0.058	-0.150
-457.026	57.992	-0.495	-0.491
-456.011	38.791	-0.070	-0.063
-454.997	259.088	-0.119	0.208
-453.982	23.577	0.044	0.036
-452.968	159.827	-0.144	0.203
-451.953	53.496	0.225	0.218
-450.938	-27.758	-0.241	0.141
-449.924	800.000	0.089	0.314
-448.909	-87.911	0.443	0.135
-447.895	193.717	0.140	-0.215
-446.880	-200.000	-0.013	0.061
-445.865	-137.804	-0.123	0.014
-444.851	800.000	0.064	0.220
-443.836	113.582	-0.101	-0.124
-442.822	-109.802	0.236	-0.050
-441.807	-82.968	0.198	-0.065
-440.792	411.379	0.185	0.397
-439.778	-41.915	-0.189	-0.098
-438.763	-200.000	-0.076	0.442
-437.749	-54.627	0.363	0.166
-436.734	800.000	0.013	0.056
-435.719	-137.755	0.186	0.021
-434.705	-96.942	0.275	0.073
-433.690	-72.116	0.160	0.060
-432.676	106.003	-0.296	0.354
-431.661	17.901	-0.187	-0.151
-430.646	-29.906	-0.135	0.078
-429.632	29.625	0.147	0.126
-428.617	-119.328	-0.120	0.021
-427.603	-200.000	-0.017	-0.149
-426.588	488.481	0.044	0.100
-425.573	-23.157	-0.160	0.097
-424.559	26.312	-0.296	0.250
-423.544	485.483	0.050	-0.114
-422.530	800.000	0.043	0.137
-421.515	-13.932	-0.223	-0.145
-420.500	39.604	-0.198	-0.180
-419.486	-37.835	-0.257	0.138
-418.471	800.000	-0.005	-0.018
-417.457	266.273	0.217	0.382
-416.442	184.910	0.056	-0.084
-415.428	-128.648	-0.312	-0.045
-414.413	304.290	0.012	0.022
-413.398	-18.979	-0.389	0.244
-412.384	-117.693	0.120	0.022
-411.369	-103.852	0.215	0.051
-410.355	160.686	-0.044	-0.062
-409.340	793.296	0.043	-0.118
-408.325	536.788	0.113	-0.270
-407.311	800.000	0.089	0.329
-406.296	-42.469	0.120	-0.062
-405.282	-80.546	-0.174	0.058
-404.267	-200.000	-0.026	0.130
-403.252	-147.707	0.127	-0.011
-402.238	255.751	-0.026	-0.045
-401.223	91.264	0.290	0.328
-400.209	713.377	-0.062	-0.167
-399.194	-52.732	-0.099	-0.046
-398.179	800.000	-0.011	0.034
-397.165	293.994	0.199	-0.367
-396.150	-100.875	0.299	-0.074
-395.136	-132.590	-0.195	0.025
-394.121	-84.287	-0.180	-0.058
-393.106	800.000	-0.016	0.056
-392.092	429.028	0.016	-0.034
-391.077	-200.000	-0.004	-0.265
-390.063	70.923	-0.144	-0.151
-389.048	-200.000	0.012	-0.204
-388.033	66.895	-0.250	-0.256
-387.019	239.508	0.196	-0.329
-386.004	250.854	0.076	0.131
-384.990	4.828	-0.113	-0.084
-383.975	167.673	0.081	0.116
-382.960	-178.699	0.220	-0.005
-381.946	-140.278	0.030	-0.003
-380.931	373.409	-0.056	0.116
-379.917	114.963	0.279	-0.343
-378.902	-175.414	0.255	-0.007
-377.888	-130.249	0.320	0.044
-376.873	64.756	-0.215	0.219
-375.858	-44.559	-0.114	-0.057
-374.844	800.000	0.081	-0.281
-373.829	-123.131	0.097	-0.016
-372.815	800.000	0.086	0.249
-371.800	468.052	-0.089	0.202
-370.785	-62.179	-0.176	-0.074
-369.771	800.000	-0.023	-0.068
-368.756	798.743	0.108	0.300
-367.742	800.000	0.021	0.060
-366.727	335.623	-0.152	0.297
-365.712	800.000	0.149	0.424
-364.698	800.000	0.078	-0.223
-363.683	-122.347	-0.539	-0.089
-362.669	325.949	0.102	0.196
-361.654	800.000	0.028	-0.100
-360.639	-2.643	-0.130	0.092
-359.625	-200.000	-0.060	-0.338
-358.610	-200.000	0.015	0.076
-357.596	324.307	0.228	0.438
-356.581	363.866	-0.179	-0.362
-355.566	-114.883	-0.194	-0.037
-354.552	-100.686	0.201	-0.050
-353.537	51.007	0.128	-0.122
-352.523	-95.278	-0.255	0.069
-351.508	-200.000	-0.017	0.147
-350.493	800.000	0.082	-0.280
-349.479	-105.362	0.586	-0.134
-348.464	-13.568	-0.247	0.161
-347.450	-126.999	0.061	0.009
-346.435	800.000	0.026	0.088
-345.420	46.508	0.142	0.132
-344.406	-115.701	-0.227	0.043
-343.391	-83.872	0.210	0.067
-342.377	-67.204	0.057	0.023
-341.362	-91.035	-0.303	0.088
-340.348	800.000	-0.114	-0.397
-339.333	57.117	-0.273	-0.268
-338.318	-200.000	0.018	-0.574
-337.304	-200.000	-0.014	-0.224
-336.289	76.353	0.141	-0.150
-335.275	-161.035	-0.044	0.002
-334.260	-96.108	-0.037	-0.010
-333.245	79.081	-0.076	0.082
-332.231	25.244	0.338	-0.282
-331.216	-200.000	0.014	-0.189
-330.202	48.053	0.104	0.098
-329.187	-200.000	0.033	-0.438
-328.172	-47.186	-0.370	-0.181
-327.158	-188.990	-0.054	-0.001
-326.143	-30.267	0.240	-0.137
-325.129	-43.821	0.146	0.074
-324.114	493.715	0.156	0.359
-323.099	-9.062	-0.134	0.090
-322.085	-56.307	-0.275	0.123
-321.070	-76.095	-0.164	0.058
-320.056	-134.524	0.227	-0.028
-319.041	167.227	-0.082	-0.118
-318.026	432.142	0.157	0.342
-317.012	-138.559	-0.229	0.025
-315.997	110.065	-0.061	-0.074
-314.983	-96.285	0.144	0.038
-313.968	-200.000	0.011	0.070
-312.953	-200.000	0.003	-0.117
-311.939	85.929	-0.153	0.170
-310.924	2.690	0.067	0.049
-309.910	-119.086	0.073	-0.013
-308.895	-200.000	0.015	-0.276
-307.880	-200.000	-0.016	-0.166
-306.866	-103.719	-0.157	-0.037
-305.851	-57.927	0.101	-0.044
-304.837	55.521	-0.202	0.197
-303.822	-51.599	-0.149	0.070
-302.807	-93.742	0.259	-0.072
-301.793	727.398	-0.033	0.089
-300.778	-20.683	0.382	0.236
-299.764	-122.939	-0.177	0.029
-298.749	-70.819	0.292	0.111
-297.735	24.946	-0.386	0.322
-296.720	-105.634	0.158	0.036
-295.705	-147.391	0.094	0.008
-294.691	800.000	0.045	0.126
-293.676	196.789	0.041	-0.063
-292.662	-200.000	-0.018	-0.085
-291.647	-128.799	0.064	0.009
-290.632	-200.000	-0.017	0.360
-289.618	-1.067	-0.157	-0.111
-288.603	-200.000	0.007	-0.087
-287.589	-200.000	0.009	0.195
-286.574	-200.000	0.046	0.393
-285.559	-34.185	-0.273	-0.151
-284.545	255.635	0.075	0.130
-283.530	297.435	0.066	0.121
-282.516	44.384	0.126	0.116
-281.501	800.000	0.019	0.060
-280.486	-200.000	-0.011	-0.165
-279.472	33.668	0.196	0.171
-278.457	65.620	0.210	-0.213
-277.443	-113.356	0.222	-0.044
-276.428	545.668	-0.055	-0.132
-275.413	84.246	0.169	-0.185
-274.399	53.773	0.237	-0.229
-273.384	800.000	-0.086	-0.297
-272.370	-76.449	0.359	-0.127
-271.355	653.839	-0.131	0.338
-270.340	182.583	0.181	0.268
-269.326	-130.236	0.196	0.027
-268.311	-200.000	0.015	0.070
-267.297	-200.000	-0.001	-0.022
-266.282	154.907	0.220	-0.304
-265.267	94.427	-0.235	0.268
-264.253	163.168	-0.097	0.137
-263.238	205.106	-0.109	-0.169
-262.224	41.180	0.143	0.130
-261.209	-151.244	0.105	-0.008
-260.195	81.344	-0.161	-0.174
-259.180	171.375	0.089	0.127
-258.165	-70.933	0.353	0.133
-257.151	-54.698	0.171	0.077
-256.136	95.304	0.129	-0.148
-255.122	134.532	0.184	-0.240
-254.107	-69.217	0.341	-0.132
-253.092	531.564	0.099	-0.236
-252.078	-200.000	0.038	-0.201
-251.063	-71.188	0.143	0.054
-250.049	49.874	0.142	0.134
-249.034	90.330	0.217	-0.244
-248.019	800.000	0.042	0.130
-247.005	-109.334	-0.021	0.005
-245.990	-105.018	-0.148	-0.034
-244.976	284.000	0.117	-0.211
-243.961	800.000	-0.083	-0.278
-242.946	-89.208	-0.249	0.074
-241.932	771.555	0.062	-0.170
-240.917	-200.000	0.008	0.079
-239.903	800.000	-0.058	0.173
-238.888	633.505	0.057	-0.144
-237.873	131.869	0.088	0.114
-236.859	178.967	0.040	0.059
-235.844	-116.427	-0.105	0.019
-234.830	-200.000	-0.004	0.126
-233.815	-200.000	-0.005	0.025
-232.800	-126.477	0.187	0.028
-231.786	-60.359	0.167	0.071
-230.771	-200.000	0.034	0.255
-229.757	800.000	-0.059	0.237
-228.742	-200.000	0.038	-0.255
-227.727	-29.004	0.144	0.083
-226.713	-38.502	-0.178	-0.094
-225.698	-112.797	-0.291	-0.058
-224.684	214.042	-0.201	-0.318
-223.669	9.921	-0.051	0.039
-222.655	-25.848	-0.213	-0.126
-221.640	248.261	-0.205	0.348
-220.625	9.327	-0.229	0.173
-219.611	111.755	-0.127	0.154
-218.596	122.457	-0.067	-0.084
-217.582	-29.232	0.119	0.068
-216.567	-59.278	0.052	-0.022
-215.552	78.705	0.377	0.404
-214.538	27.463	-0.108	0.091
-213.523	63.970	-0.155	-0.157
-212.509	-93.898	0.158	-0.044
-211.494	-92.177	0.248	-0.070
-210.479	-200.000	0.015	0.170
-209.465	-155.698	0.140	0.009
-208.450	106.766	0.135	0.160
-207.436	800.000	0.047	0.156
-206.421	256.427	0.138	-0.238
-205.406	44.254	-0.164	0.150
-204.392	800.000	0.162	0.449
-203.377	-200.000	0.023	0.250
-202.363	-88.268	-0.475	0.142
-201.348	800.000	-0.055	-0.180
-200.333	414.646	-0.055	0.118
-199.319	557.881	0.045	-0.110
-198.304	-104.954	0.340	0.078
-197.290	42.089	0.254	0.231
-196.275	800.000	-0.071	-0.235
-195.260	53.319	0.237	-0.227
-194.246	119.605	-0.326	0.404
-193.231	-68.158	0.022	0.009
-192.217	2.265	-0.406	-0.294
-191.202	-117.524	0.378	-0.068
-190.187	36.159	-0.067	-0.059
-189.173	-138.657	0.087	-0.010
-188.158	-200.000	-0.120	0.000
-187.144	-88.098	0.131	-0.039
-186.129	-52.179	0.346	-0.161
-185.114	-48.047	-0.250	-0.121
-184.100	800.000	0.142	-0.485
-183.085	394.214	0.044	0.092
-182.071	51.692	-0.133	-0.127
-181.056	-187.885	0.098	0.001
-180.042	427.225	0.053	-0.114
-179.027	58.414	-0.267	-0.262
-178.012	211.982	-0.159	0.251
-176.998	-200.000	-0.047	-0.211
-175.983	-170.987	0.029	0.001
-174.969	91.387	0.045	-0.050
-173.954	75.399	0.059	-0.062
-172.939	-135.524	-0.224	0.027
-171.925	54.033	0.086	-0.082
-170.910	-200.000	0.014	0.300
-169.896	41.117	-0.106	0.096
-168.881	-148.912	-0.078	-0.006
-167.866	-200.000	0.023	0.165
-166.852	-151.325	-0.102	-0.008
-165.837	-200.000	-0.072	0.355
-164.823	76.996	-0.193	0.205
-163.808	-116.424	0.435	0.080
-162.793	482.019	-0.038	0.086
-161.779	-146.116	0.208	0.018
-160.764	-40.832	0.097	0.050
-159.750	-91.607	-0.024	0.007
-158.735	-75.092	-0.101	-0.036
-157.720	85.104	-0.086	-0.094
-156.706	-200.000	-0.021	-0.121
-155.691	-72.720	-0.281	0.103
-154.677	613.121	-0.088	0.221
-153.662	-183.675	-0.085	0.001
-152.647	-200.000	0.020	0.136
-151.633	800.000	-0.053	0.157
-150.618	105.965	0.179	0.212
-149.604	86.618	-0.131	0.144
-148.589	-51.633	-0.155	0.072
-147.574	-79.648	-0.089	0.030
-146.560	-141.019	-0.172	0.018
-145.545	-200.000	0.013	0.445
-144.531	61.417	-0.275	0.273
-143.516	15.905	0.057	-0.045
-142.502	-200.000	-0.045	0.286
-141.487	-20.845	-0.150	0.092
-140.472	800.000	-0.064	0.250
-139.458	106.271	0.191	0.226
-138.443	387.664	-0.075	0.154
-137.429	774.759	-0.081	-0.220
-136.414	28.086	0.300	-0.253
-135.399	437.576	-0.027	0.059
-134.385	-63.565	-0.395	-0.162
-133.370	-71.666	0.345	-0.129
-132.356	-43.816	0.072	-0.036
-131.341	-200.000	0.021	0.320
-130.326	176.476	0.067	-0.097
-129.312	-103.041	0.185	-0.044
-128.297	-200.000	0.100	0.000
-127.283	-106.700	0.203	-0.045
-126.268	36.849	-0.179	-0.158
-125.253	50.391	0.165	0.156
-124.239	-126.249	-0.210	-0.031
-123.224	12.782	-0.106	0.082
-122.210	95.777	-0.289	-0.329
-121.195	800.000	0.101	-0.291
-120.180	-200.000	0.003	0.182
