DTS Sentinel unit serial number:	SN413079Multiplexer serial number:	ORYXHardware model number:	OX4-SRSoftware version number:	ORYX F/W v4.00 Oryx Data Collector v3.7.2.0data status	okinstallation	princeton_trtdifferential loss correction	single-endedforward channel	channel 1reverse channel	N/Adate	2019/09/19time	01:34:35forward acquisition time	60.00reverse acquisition time	0.00gamma	496.2192k internal	0.2345k external	0.2345temperature offset calibration	1.0018default loss term (dB/km)	0.3790temperature slope calibration	1.0000multiplexer offset coefficient	1.0000multiplexer slope coefficient	1.0000fibre end	0.00T internal ref (°C)	21.53T ext. ref 1 (°C)	0.70T ext. ref 2 (°C)	14.94length (m)	temperature (°C)	Stokes	anti-Stokes-747.200	800.000	0.032	0.116
-746.185	197.754	-0.267	0.408
-745.171	3.439	0.184	0.134
-744.156	50.965	-0.154	0.146
-743.142	-58.274	-0.333	0.145
-742.127	-87.164	-0.131	0.040
-741.112	74.770	-0.044	0.046
-740.098	-200.000	0.005	0.081
-739.083	800.000	0.035	-0.100
-738.069	-200.000	0.033	0.206
-737.054	-200.000	-0.055	0.369
-736.039	-83.426	-0.228	-0.073
-735.025	72.729	0.234	0.244
-734.010	-200.000	-0.014	0.102
-732.996	-99.890	-0.399	-0.100
-731.981	294.419	-0.163	-0.298
-730.966	14.704	0.130	-0.101
-729.952	-200.000	0.007	0.238
-728.937	-56.299	-0.213	-0.095
-727.923	365.566	0.052	0.104
-726.908	-113.846	-0.245	-0.048
-725.894	-16.781	-0.161	-0.102
-724.879	-102.389	0.316	0.076
-723.864	-51.603	-0.282	-0.132
-722.850	262.387	-0.154	0.266
-721.835	318.361	-0.124	-0.234
-720.821	52.638	-0.120	0.114
-719.806	-73.387	-0.156	0.057
-718.791	-166.155	0.188	-0.008
-717.777	111.114	-0.022	0.027
-716.762	-153.616	0.184	0.013
-715.748	-200.000	-0.062	-0.341
-714.733	-123.128	-0.237	0.038
-713.718	-24.899	0.166	-0.099
-712.704	-171.080	0.156	-0.005
-711.689	159.147	0.033	-0.045
-710.675	-114.312	0.219	0.042
-709.660	800.000	0.012	0.052
-708.645	-200.000	-0.078	-0.455
-707.631	-200.000	0.003	0.252
-706.616	614.264	-0.099	-0.247
-705.602	99.232	0.072	0.083
-704.587	102.830	-0.130	-0.152
-703.572	316.851	0.111	0.209
-702.558	32.186	0.265	-0.228
-701.543	576.602	-0.077	-0.188
-700.529	-200.000	0.012	0.121
-699.514	-50.414	0.145	0.068
-698.499	183.082	-0.110	0.162
-697.485	800.000	-0.027	0.109
-696.470	-109.701	0.368	0.077
-695.456	-200.000	0.053	0.282
-694.441	-200.000	0.007	-0.355
-693.426	137.030	-0.173	-0.226
-692.412	6.954	-0.134	0.100
-691.397	153.279	0.116	0.159
-690.383	800.000	-0.128	-0.445
-689.368	-200.000	-0.001	0.196
-688.354	355.778	-0.153	0.303
-687.339	487.956	-0.042	0.095
-686.324	2.649	0.299	-0.216
-685.310	-20.906	-0.084	-0.051
-684.295	-200.000	-0.005	-0.119
-683.281	-44.996	0.156	0.077
-682.266	-89.710	-0.244	-0.071
-681.251	70.532	-0.153	-0.158
-680.237	-93.656	-0.134	-0.037
-679.222	250.129	0.022	-0.037
-678.208	314.425	0.234	-0.439
-677.193	-47.139	-0.259	-0.126
-676.178	19.902	0.105	-0.085
-675.164	17.701	0.186	-0.148
-674.149	-84.425	0.299	-0.094
-673.135	340.369	-0.155	-0.302
-672.120	-104.587	0.106	0.024
-671.105	89.239	-0.087	0.097
-670.091	-112.262	0.281	-0.056
-669.076	291.055	-0.149	0.270
-668.062	214.978	-0.121	-0.191
-667.047	-200.000	0.043	-0.315
-666.032	250.717	-0.038	-0.065
-665.018	-113.441	0.252	-0.049
-664.003	-2.211	-0.290	-0.203
-662.989	800.000	0.058	-0.212
-661.974	-197.489	0.083	0.001
-660.959	-200.000	-0.008	0.034
-659.945	800.000	-0.096	0.321
-658.930	-119.621	0.081	0.014
-657.916	-84.700	0.076	0.024
-656.901	-9.485	-0.128	-0.085
-655.886	-113.558	-0.015	0.003
-654.872	-200.000	0.054	0.299
-653.857	41.732	-0.156	-0.141
-652.843	-109.331	-0.166	0.035
-651.828	150.241	0.146	0.198
-650.814	140.162	-0.208	-0.274
-649.799	33.527	0.088	-0.077
-648.784	-138.368	-0.280	-0.031
-647.770	-96.603	0.096	-0.025
-646.755	-3.148	-0.140	-0.097
-645.741	5.606	0.141	-0.104
-644.726	-22.476	0.059	-0.036
-643.711	-70.232	0.239	0.090
-642.697	-200.000	-0.058	0.376
-641.682	7.355	-0.155	-0.115
-640.668	-109.440	0.314	0.066
-639.653	800.000	0.045	-0.128
-638.638	-200.000	0.064	-0.286
-637.624	364.401	-0.158	0.317
-636.609	-200.000	0.028	0.388
-635.595	564.807	0.099	0.240
-634.580	55.753	-0.150	-0.145
-633.565	-67.702	0.395	0.154
-632.551	60.252	0.146	-0.144
-631.536	-200.000	-0.100	-0.484
-630.522	-200.000	0.008	0.038
-629.507	-97.861	-0.129	-0.033
-628.492	-140.688	0.165	-0.017
-627.478	-61.309	0.290	-0.122
-626.463	-25.379	0.264	0.156
-625.449	-64.395	0.133	0.054
-624.434	116.670	0.140	-0.171
-623.419	201.782	-0.108	-0.166
-622.405	-15.453	0.087	-0.055
-621.390	-200.000	-0.006	0.178
-620.376	-5.564	0.250	0.171
-619.361	-81.069	-0.167	-0.055
-618.346	-200.000	0.021	-0.240
-617.332	-29.323	-0.312	-0.178
-616.317	800.000	-0.076	-0.250
-615.303	-73.096	0.217	-0.079
-614.288	64.027	0.070	-0.070
-613.273	99.910	-0.175	-0.202
-612.259	131.988	0.097	-0.125
-611.244	22.073	-0.127	-0.103
-610.230	-107.389	-0.483	-0.106
-609.215	-48.493	0.177	-0.085
-608.201	10.561	-0.208	-0.158
-607.186	-50.247	0.295	0.139
-606.171	90.623	-0.188	0.210
-605.157	-106.865	0.104	0.023
-604.142	450.245	0.153	-0.336
-603.128	34.031	-0.237	0.205
-602.113	-69.627	-0.156	-0.060
-601.098	24.687	-0.126	0.104
-600.084	-95.860	0.153	-0.041
-599.069	63.154	-0.383	0.382
-598.055	-49.422	0.148	-0.070
-597.040	70.343	-0.126	-0.130
-596.025	-200.000	-0.052	-0.414
-595.011	627.040	-0.104	0.262
-593.996	248.365	0.043	0.072
-592.982	-4.726	-0.137	-0.094
-591.967	-200.000	-0.035	0.362
-590.952	-117.586	0.380	0.068
-589.938	-76.964	-0.522	-0.181
-588.923	329.462	0.156	0.299
-587.909	725.559	0.122	0.323
-586.894	83.398	0.041	-0.045
-585.879	591.063	0.143	-0.351
-584.865	-130.647	-0.120	0.016
-583.850	-138.333	-0.141	-0.015
-582.836	-200.000	-0.017	-0.146
-581.821	-168.703	-0.348	-0.013
-580.806	594.710	-0.036	0.088
-579.792	800.000	0.023	0.083
-578.777	-162.038	-0.250	0.013
-577.763	87.248	0.094	0.103
-576.748	-71.668	0.213	-0.079
-575.733	221.677	-0.110	0.176
-574.719	14.240	-0.278	0.215
-573.704	-200.000	0.043	0.276
-572.690	93.073	0.087	0.098
-571.675	65.402	-0.119	0.120
-570.661	39.023	-0.242	-0.215
-569.646	800.000	0.099	-0.341
-568.631	742.219	-0.104	-0.279
-567.617	800.000	0.145	0.432
-566.602	800.000	0.025	-0.075
-565.588	10.376	0.209	-0.158
-564.573	137.136	0.078	-0.101
-563.558	6.193	0.162	0.119
-562.544	450.094	0.076	0.166
-561.529	-47.849	0.187	0.090
-560.515	774.553	0.142	0.386
-559.500	-126.536	-0.119	-0.018
-558.485	22.427	0.328	-0.266
-557.471	-153.261	-0.275	-0.019
-556.456	346.517	0.029	0.057
-555.442	-200.000	0.018	0.180
-554.427	347.739	-0.055	-0.107
-553.412	-200.000	0.084	-0.579
-552.398	800.000	-0.171	-0.648
-551.383	-97.694	0.270	-0.069
-550.369	9.854	0.089	-0.067
-549.354	-63.162	0.448	0.183
-548.339	-29.938	-0.224	-0.126
-547.325	800.000	0.047	-0.142
-546.310	242.912	0.065	-0.108
-545.296	-115.700	-0.375	-0.070
-544.281	-68.533	0.317	-0.122
-543.266	14.470	0.202	0.157
-542.252	800.000	-0.020	0.078
-541.237	203.886	0.046	0.071
-540.223	-200.000	-0.029	-0.279
-539.208	-166.528	-0.285	0.012
-538.193	-106.545	-0.193	-0.043
-537.179	-137.156	-0.150	0.017
-536.164	-26.352	0.179	-0.104
-535.150	-83.039	-0.128	0.041
-534.135	603.753	-0.134	0.331
-533.121	-159.036	-0.305	-0.017
-532.106	66.183	0.086	-0.087
-531.091	-55.367	-0.130	-0.058
-530.077	-200.000	-0.056	-0.359
-529.062	-200.000	0.014	-0.126
-528.048	174.577	-0.178	-0.256
-527.033	-37.859	0.042	0.022
-526.018	53.406	-0.253	0.241
-525.004	-20.951	-0.373	-0.227
-523.989	-75.287	-0.222	0.079
-522.975	800.000	0.081	-0.340
-521.960	-48.513	0.151	0.072
-520.945	172.808	0.019	0.027
-519.931	649.578	0.054	-0.137
-518.916	-7.254	0.092	0.062
-517.902	-190.433	-0.255	-0.003
-516.887	60.205	-0.104	0.102
-515.872	-66.960	0.163	0.064
-514.858	82.035	0.152	-0.164
-513.843	-54.621	-0.206	0.092
-512.829	800.000	-0.049	0.211
-511.814	34.753	-0.161	0.140
-510.799	143.603	0.188	-0.249
-509.785	-59.291	-0.192	-0.082
-508.770	30.237	-0.129	0.109
-507.756	81.112	-0.158	0.169
-506.741	404.967	0.158	0.330
-505.726	-135.215	0.224	0.027
-504.712	-200.000	-0.008	-0.303
-503.697	230.318	-0.050	-0.081
-502.683	-144.115	0.356	0.033
-501.668	800.000	-0.031	-0.117
-500.653	-200.000	0.015	-0.310
-499.639	-62.862	0.294	-0.121
-498.624	20.004	0.120	0.096
-497.610	-59.966	0.194	-0.082
-496.595	-0.179	-0.339	0.239
-495.581	-140.552	0.340	-0.035
-494.566	-200.000	-0.017	0.099
-493.551	733.607	-0.099	0.262
-492.537	-200.000	-0.036	-0.398
-491.522	800.000	0.099	0.343
-490.508	-160.801	-0.301	-0.016
-489.493	-21.838	-0.110	-0.066
-488.478	228.943	0.178	0.287
-487.464	277.575	0.052	0.092
-486.449	-200.000	0.028	0.213
-485.435	-49.981	-0.198	0.093
-484.420	-69.275	-0.395	-0.150
-483.405	-68.543	-0.114	-0.044
-482.391	-200.000	0.067	-0.358
-481.376	63.715	-0.258	0.256
-480.362	83.911	0.286	0.309
-479.347	118.190	0.290	0.355
-478.332	-155.612	0.150	-0.010
-477.318	145.123	-0.253	-0.335
-476.303	-68.988	-0.022	-0.009
-475.289	-200.000	-0.009	-0.064
-474.274	6.150	-0.263	-0.193
-473.259	-29.021	0.343	0.195
-472.245	20.947	0.100	-0.080
-471.230	95.515	-0.051	0.058
-470.216	-115.860	-0.173	-0.032
-469.201	55.308	0.278	0.266
-468.186	111.103	0.136	-0.163
-467.172	462.154	-0.131	0.289
-466.157	131.026	-0.255	-0.324
-465.143	800.000	-0.086	-0.240
-464.128	-63.712	-0.228	-0.092
-463.113	-200.000	-0.020	-0.148
-462.099	-75.002	0.280	0.099
-461.084	-101.224	-0.290	-0.070
-460.070	-200.000	0.026	0.346
-459.055	94.255	-0.054	-0.061
-458.040	513.591	-0.029	-0.068
-457.026	-101.353	-0.079	-0.019
-456.011	800.000	0.020	-0.072
-454.997	546.796	0.064	-0.150
-453.982	117.840	0.113	0.137
-452.968	-72.227	-0.345	-0.127
-451.953	-123.314	-0.143	0.023
-450.938	673.731	0.012	-0.031
-449.924	-100.723	-0.087	0.021
-448.909	-200.000	-0.058	0.318
-447.895	27.297	0.008	-0.007
-446.880	143.717	-0.101	0.133
-445.865	800.000	0.013	0.043
-444.851	-200.000	0.045	0.408
-443.836	-36.732	0.264	-0.140
-442.822	127.563	0.125	-0.158
-441.807	800.000	0.157	0.437
-440.792	-34.024	0.269	-0.146
-439.778	107.960	-0.206	0.243
-438.763	-8.920	-0.273	-0.181
-437.749	733.709	0.083	0.219
-436.734	-200.000	-0.057	-0.323
-435.719	226.946	0.160	-0.257
-434.705	84.531	0.082	-0.089
-433.690	-44.427	-0.248	-0.123
-432.676	800.000	-0.024	-0.069
-431.661	-200.000	-0.065	0.000
-430.646	457.921	-0.132	0.290
-429.632	-86.759	-0.412	-0.125
-428.617	-106.250	0.097	0.021
-427.603	206.185	-0.260	0.400
-426.588	-83.758	0.163	-0.051
-425.573	-180.684	0.093	0.002
-424.559	-200.000	0.016	0.230
-423.544	800.000	-0.059	0.215
-422.530	-48.179	0.281	0.134
-421.515	-200.000	0.009	-0.154
-420.500	376.145	-0.215	0.433
-419.486	265.226	-0.164	-0.283
-418.471	-84.607	0.166	-0.052
-417.457	-97.293	0.136	-0.035
-416.442	663.508	-0.073	-0.186
-415.428	-39.628	-0.158	0.082
-414.413	-116.650	-0.272	-0.049
-413.398	-22.144	-0.111	0.066
-412.384	800.000	-0.115	0.344
-411.369	-135.839	-0.104	0.012
-410.355	-69.930	0.183	-0.069
-409.340	511.819	-0.086	0.197
-408.325	-12.035	0.301	0.195
-407.311	-56.974	0.133	0.058
-406.296	-52.549	0.255	-0.116
-405.282	88.585	0.085	0.093
-404.267	-82.959	0.065	-0.021
-403.252	-46.902	0.079	0.038
-402.238	9.012	-0.109	-0.081
-401.223	-164.040	0.242	0.011
-400.209	-18.544	-0.166	-0.102
-399.194	-113.974	0.131	0.025
-398.179	197.383	0.105	-0.158
-397.165	13.641	0.188	-0.144
-396.150	-160.649	-0.457	-0.024
-395.136	-92.812	0.192	0.053
-394.121	14.881	0.068	-0.052
-393.106	800.000	-0.078	0.222
-392.092	-90.137	-0.235	0.067
-391.077	-79.059	-0.114	0.038
-390.063	65.492	0.088	-0.088
-389.048	-200.000	-0.063	-0.420
-388.033	-200.000	-0.010	-0.107
-387.019	158.105	0.070	0.095
-386.004	-200.000	-0.027	-0.146
-384.990	149.411	-0.059	0.079
-383.975	457.076	0.096	-0.210
-382.960	44.363	-0.032	0.029
-381.946	16.847	0.064	-0.050
-380.931	52.199	0.175	0.164
-379.917	-43.694	0.140	0.069
-378.902	219.742	-0.112	0.177
-377.888	-200.000	-0.002	-0.089
-376.873	156.970	0.077	-0.106
-375.858	-54.052	-0.325	-0.146
-374.844	334.562	0.099	0.188
-373.829	-87.536	0.111	-0.033
-372.815	379.142	-0.048	0.097
-371.800	-150.369	0.114	-0.009
-370.785	-166.805	0.298	0.012
-369.771	225.294	-0.122	0.195
-368.756	-144.380	-0.270	0.025
-367.742	-197.278	0.656	-0.004
-366.727	800.000	-0.099	0.345
-365.712	-93.633	0.251	0.068
-364.698	384.851	0.024	0.048
-363.683	-200.000	-0.006	0.043
-362.669	45.683	0.100	0.091
-361.654	49.028	0.090	0.083
-360.639	800.000	0.047	0.151
-359.625	-200.000	-0.032	-0.163
-358.610	-123.918	0.139	-0.022
-357.596	-200.000	-0.012	-0.104
-356.581	-61.360	-0.208	-0.086
-355.566	-200.000	-0.013	-0.139
-354.552	-66.759	-0.252	-0.098
-353.537	-109.740	-0.247	-0.051
-352.523	-43.059	-0.272	-0.136
-351.508	-200.000	0.013	0.059
-350.493	-66.089	0.144	-0.056
-349.479	142.799	-0.176	-0.230
-348.464	305.961	0.038	-0.070
-347.450	-194.842	-0.145	0.001
-346.435	603.318	0.017	-0.041
-345.420	275.783	0.064	-0.111
-344.406	-200.000	0.042	-0.232
-343.391	800.000	0.045	-0.192
-342.377	121.527	0.239	0.294
-341.362	149.664	-0.070	-0.094
-340.348	800.000	-0.103	0.289
-339.333	-166.029	-0.104	-0.004
-338.318	-200.000	0.003	0.109
-337.304	518.346	-0.190	-0.438
-336.289	-43.520	-0.152	0.076
-335.275	-75.613	0.070	-0.024
-334.260	151.790	-0.069	-0.093
-333.245	-200.000	-0.007	-0.048
-332.231	-89.044	0.133	-0.039
-331.216	-164.211	-0.198	0.009
-330.202	685.271	-0.086	-0.221
-329.187	-131.546	-0.188	-0.024
-328.172	-177.007	0.106	0.003
-327.158	800.000	-0.016	-0.057
-326.143	27.340	0.200	-0.165
-325.129	-94.128	0.262	0.071
-324.114	-200.000	-0.035	0.163
-323.099	800.000	-0.040	-0.160
-322.085	-38.132	-0.123	-0.064
-321.070	-70.554	-0.104	-0.039
-320.056	-200.000	-0.014	-0.096
-319.041	-0.368	-0.109	0.076
-318.026	-200.000	0.031	0.138
-317.012	210.564	0.163	-0.252
-315.997	-200.000	-0.021	-0.219
-314.983	-46.446	0.268	-0.129
-313.968	646.634	0.213	0.535
-312.953	-9.038	0.123	0.081
-311.939	361.323	0.036	0.072
-310.924	800.000	-0.093	0.384
-309.910	-149.811	0.314	-0.024
-308.895	614.489	0.048	-0.119
-307.880	-82.124	0.273	-0.087
-306.866	94.872	-0.035	0.039
-305.851	-15.736	-0.159	-0.100
-304.837	-175.700	0.440	0.012
-303.822	-166.116	0.105	0.004
-302.807	-200.000	-0.021	-0.302
-301.793	28.954	0.141	0.118
-300.778	800.000	-0.028	-0.121
-299.764	-200.000	0.102	-0.473
-298.749	149.090	0.101	-0.135
-297.735	-90.148	-0.267	0.076
-296.720	-27.505	0.403	0.230
-295.705	112.337	0.093	0.111
-294.691	36.188	-0.276	0.239
-293.676	361.663	0.032	-0.063
-292.662	800.000	0.038	0.124
-291.647	-53.495	0.249	0.112
-290.632	132.498	0.065	0.082
-289.618	446.036	-0.065	0.141
-288.603	800.000	-0.085	-0.318
-287.589	22.881	0.128	0.103
-286.574	800.000	0.098	0.384
-285.559	-90.076	-0.225	-0.064
-284.545	800.000	-0.052	-0.201
-283.530	554.453	0.075	0.177
-282.516	152.183	-0.083	0.111
-281.501	-144.677	-0.332	-0.030
-280.486	-105.193	0.113	-0.025
-279.472	-57.566	-0.277	0.119
-278.457	-13.184	-0.101	-0.064
-277.443	-127.275	0.181	0.026
-276.428	321.455	-0.067	0.124
-275.413	346.994	0.065	-0.127
-274.399	20.735	-0.020	-0.016
-273.384	-27.928	-0.021	-0.012
-272.370	-119.127	-0.005	0.001
-271.355	547.293	-0.033	-0.078
-270.340	53.076	0.106	-0.100
-269.326	390.842	0.144	0.294
-268.311	-147.416	0.058	0.005
-267.297	-101.205	0.034	0.008
-266.282	112.607	-0.119	0.142
-265.267	92.504	0.185	0.205
-264.253	800.000	0.079	0.233
-263.238	800.000	0.021	0.084
-262.224	150.109	0.094	-0.125
-261.209	263.150	0.212	-0.362
-260.195	-116.496	-0.166	0.030
-259.180	431.188	0.126	0.267
-258.165	79.841	0.125	0.132
-257.151	92.438	0.043	0.047
-256.136	-200.000	0.047	-0.217
-255.122	-109.323	-0.189	0.039
-254.107	-167.558	0.373	0.015
-253.092	79.427	-0.172	-0.181
-252.078	50.455	-0.130	-0.121
-251.063	800.000	-0.035	-0.135
-250.049	-122.418	-0.049	-0.008
-249.034	88.217	-0.193	-0.211
-248.019	-189.287	-0.262	0.003
-247.005	-29.235	-0.366	0.206
-245.990	-4.665	-0.309	0.209
-244.976	729.626	0.092	-0.242
-243.961	800.000	-0.081	0.328
-242.946	-200.000	0.009	-0.100
-241.932	660.720	0.091	-0.229
-240.917	-134.274	0.100	0.012
-239.903	36.560	-0.220	0.190
-238.888	-200.000	0.005	-0.094
-237.873	-61.158	0.201	0.083
-236.859	143.542	0.050	-0.065
-235.844	-125.227	-0.303	0.045
-234.830	-200.000	0.012	0.212
-233.815	-64.515	0.204	0.081
-232.800	-200.000	-0.001	-0.115
-231.786	764.937	-0.064	-0.170
-230.771	-113.454	-0.167	0.032
-229.757	-137.764	-0.099	-0.011
-228.742	-5.339	0.159	0.107
-227.727	141.431	-0.030	0.039
-226.713	62.781	-0.089	0.088
-225.698	-25.373	-0.083	-0.048
-224.684	-82.453	-0.226	0.072
-223.669	10.243	0.573	0.427
-222.655	645.420	0.023	-0.057
-221.640	-62.773	-0.477	0.194
-220.625	-200.000	0.003	0.067
-219.611	800.000	0.040	-0.146
-218.596	41.768	-0.165	-0.146
-217.582	-200.000	-0.053	0.271
-216.567	800.000	0.035	0.113
-215.552	-24.288	0.150	0.088
-214.538	155.660	0.244	0.330
-213.523	544.961	0.131	-0.307
-212.509	289.451	-0.073	0.130
-211.494	655.342	-0.048	-0.122
-210.479	-81.082	-0.077	-0.025
-209.465	-61.113	0.169	0.070
-208.450	137.439	0.067	-0.085
-207.436	118.895	-0.058	0.070
-206.421	-5.843	-0.166	0.111
-205.406	412.729	-0.031	0.064
-204.392	383.748	0.167	-0.338
-203.377	-62.891	0.094	0.038
-202.363	-141.621	0.182	0.018
-201.348	35.761	-0.090	-0.077
-200.333	26.023	0.131	-0.107
-199.319	-59.012	-0.194	0.082
-198.304	390.907	0.067	-0.137
-197.290	-5.424	0.128	0.086
-196.275	-129.814	0.111	0.015
-195.260	251.878	0.112	0.187
-194.246	-174.151	0.227	0.006
-193.231	241.018	-0.065	-0.105
-192.217	-200.000	0.040	-0.311
-191.202	213.639	0.152	-0.235
-190.187	234.997	-0.069	0.112
-189.173	-139.916	-0.275	0.028
-188.158	74.260	0.339	-0.349
-187.144	112.290	0.063	0.075
-186.129	800.000	0.027	-0.076
-185.114	-200.000	-0.036	0.205
-184.100	-170.147	-0.401	0.014
-183.085	236.046	-0.029	-0.047
-182.071	-97.874	0.193	-0.049
-181.056	800.000	-0.066	-0.235
-180.042	-1.485	0.158	0.109
-179.027	64.219	-0.103	0.101
-178.012	-200.000	0.073	-0.326
-176.998	181.781	0.162	0.234
-175.983	-88.382	-0.238	0.070
-174.969	238.479	0.149	-0.242
-173.954	-200.000	-0.023	-0.124
-172.939	-200.000	-0.003	0.167
-171.925	-12.697	-0.246	-0.157
-170.910	25.297	-0.038	0.030
-169.896	-3.962	-0.350	0.237
-168.881	-103.428	0.479	-0.110
-167.866	-129.283	0.103	-0.014
-166.852	4.159	-0.249	0.179
-165.837	136.746	-0.183	-0.233
-164.823	800.000	-0.077	0.276
-163.808	-72.842	0.015	-0.006
-162.793	800.000	0.071	0.221
-161.779	-118.900	-0.302	-0.052
-160.764	-52.421	0.352	-0.159
-159.750	-120.742	0.014	0.002
-158.735	800.000	0.066	0.189
-157.720	-152.919	0.281	0.019
-156.706	49.284	-0.115	-0.105
-155.691	-200.000	-0.006	0.052
-154.677	-127.063	-0.151	-0.022
-153.662	235.531	-0.135	0.218
-152.647	136.851	0.067	0.085
-151.633	26.652	0.294	0.240
-150.618	-145.482	-0.246	-0.022
-149.604	800.000	-0.114	-0.336
-148.589	0.861	0.253	-0.177
-147.574	-89.839	0.188	0.054
-146.560	-200.000	0.011	-0.272
-145.545	20.995	-0.131	0.104
-144.531	52.096	0.265	-0.247
-143.516	-0.937	0.080	0.055
-142.502	-200.000	0.030	0.559
-141.487	112.708	0.288	0.341
-140.472	19.568	-0.196	0.154
-139.458	-108.069	0.359	-0.076
-138.443	152.995	-0.116	-0.156
-137.429	107.557	-0.054	-0.063
-136.414	257.338	0.120	-0.202
-135.399	800.000	0.051	0.206
-134.385	-200.000	-0.025	-0.337
-133.370	-122.317	-0.122	0.019
-132.356	228.955	0.113	0.180
-131.341	122.236	0.123	0.150
-130.326	-135.905	-0.222	0.026
-129.312	-97.097	0.242	-0.062
-128.297	-111.131	-0.128	0.026
-127.283	-75.983	0.267	-0.092
-126.268	30.777	0.159	0.133
-125.253	116.314	-0.065	0.078
-124.239	13.969	-0.191	-0.145
-123.224	249.242	-0.106	0.176
-122.210	-200.000	-0.034	0.204
-121.195	74.455	-0.059	0.060
