DTS Sentinel unit serial number:	SN413079Multiplexer serial number:	ORYXHardware model number:	OX4-SRSoftware version number:	ORYX F/W v4.00 Oryx Data Collector v3.7.2.0data status	okinstallation	princeton_trtdifferential loss correction	single-endedforward channel	channel 1reverse channel	N/Adate	2019/09/14time	08:38:35forward acquisition time	60.00reverse acquisition time	0.00gamma	496.2192k internal	0.2326k external	0.2326temperature offset calibration	1.0076default loss term (dB/km)	0.3790temperature slope calibration	1.0000multiplexer offset coefficient	1.0000multiplexer slope coefficient	1.0000fibre end	0.00T internal ref (°C)	28.81T ext. ref 1 (°C)	3.66T ext. ref 2 (°C)	26.26length (m)	temperature (°C)	Stokes	anti-Stokes-747.200	-200.000	0.020	-0.091
-746.185	153.838	-0.115	0.159
-745.171	9.522	-0.213	-0.162
-744.156	-134.535	0.074	0.009
-743.142	273.081	-0.081	0.144
-742.127	-76.219	-0.449	0.160
-741.112	103.584	-0.053	-0.063
-740.098	19.884	0.162	0.132
-739.083	-101.482	-0.456	0.112
-738.069	-45.753	-0.269	0.134
-737.054	105.893	-0.153	0.183
-736.039	286.131	-0.111	-0.202
-735.025	25.589	-0.120	0.100
-734.010	-48.266	0.151	-0.073
-732.996	-42.284	0.212	-0.109
-731.981	26.545	-0.180	-0.152
-730.966	800.000	0.070	0.239
-729.952	143.437	-0.093	0.125
-728.937	683.948	-0.013	-0.034
-727.923	-98.999	-0.278	0.071
-726.908	-6.742	-0.157	-0.108
-725.894	800.000	0.050	-0.163
-724.879	-77.642	0.089	-0.031
-723.864	-200.000	-0.027	-0.187
-722.850	636.775	-0.121	-0.308
-721.835	800.000	0.035	0.150
-720.821	-192.352	-0.178	0.002
-719.806	1.691	-0.368	0.267
-718.791	-200.000	-0.023	-0.187
-717.777	-100.219	-0.126	-0.031
-716.762	-58.808	-0.093	0.041
-715.748	241.187	-0.134	-0.225
-714.733	-63.709	0.159	0.066
-713.718	68.800	0.123	0.127
-712.704	35.632	-0.159	-0.141
-711.689	310.873	-0.065	-0.123
-710.675	800.000	0.051	0.145
-709.660	239.912	-0.023	0.039
-708.645	-17.410	0.135	0.086
-707.631	800.000	-0.072	-0.219
-706.616	222.652	0.129	0.210
-705.602	800.000	0.054	-0.166
-704.587	-200.000	-0.010	0.120
-703.572	223.640	0.174	0.283
-702.558	-200.000	0.035	0.270
-701.543	800.000	-0.098	-0.294
-700.529	15.248	0.257	-0.203
-699.514	-135.246	-0.220	0.027
-698.499	800.000	0.033	0.129
-697.485	-65.706	0.114	0.046
-696.470	-125.882	0.336	0.051
-695.456	-200.000	-0.061	0.373
-694.441	-87.686	-0.145	0.044
-693.426	-200.000	0.016	0.261
-692.412	800.000	0.070	0.212
-691.397	-53.365	0.162	0.075
-690.383	-86.028	0.078	-0.024
-689.368	-200.000	0.021	-0.106
-688.354	-77.642	-0.091	-0.032
-687.339	50.034	-0.195	0.185
-686.324	101.966	-0.236	0.277
-685.310	191.137	-0.038	-0.057
-684.295	305.746	0.079	-0.148
-683.281	9.748	-0.093	0.071
-682.266	-60.262	-0.313	0.134
-681.251	-86.091	-0.371	-0.115
-680.237	-200.000	0.077	-0.577
-679.222	-53.896	-0.027	-0.013
-678.208	248.428	-0.127	0.216
-677.193	-2.695	0.234	-0.165
-676.178	568.444	-0.036	0.087
-675.164	171.289	0.155	-0.224
-674.149	10.826	0.285	-0.219
-673.135	-167.848	0.488	0.019
-672.120	310.467	0.105	-0.198
-671.105	800.000	-0.054	-0.191
-670.091	182.333	-0.160	-0.238
-669.076	-200.000	0.023	0.320
-668.062	800.000	-0.068	-0.282
-667.047	75.558	0.174	0.185
-666.032	-200.000	0.021	0.173
-665.018	331.484	0.113	0.219
-664.003	144.810	-0.080	-0.108
-662.989	-90.200	0.104	-0.030
-661.974	800.000	-0.019	0.073
-660.959	800.000	0.041	0.170
-659.945	598.799	-0.050	-0.125
-658.930	-200.000	0.008	0.303
-657.916	10.300	0.010	0.008
-656.901	16.005	0.095	0.075
-655.886	-39.428	-0.051	0.027
-654.872	18.211	-0.174	0.139
-653.857	5.129	0.202	-0.149
-652.843	800.000	0.036	-0.124
-651.828	623.531	-0.044	0.112
-650.814	-90.559	0.271	0.079
-649.799	-27.170	0.174	0.102
-648.784	72.460	-0.065	0.068
-647.770	-8.364	-0.068	-0.046
-646.755	-166.710	-0.096	-0.004
-645.741	108.360	-0.131	0.158
-644.726	800.000	0.056	0.168
-643.711	-38.506	0.204	-0.108
-642.697	-200.000	0.009	0.143
-641.682	-5.163	0.270	0.187
-640.668	-92.723	0.326	-0.092
-639.653	43.431	0.085	-0.078
-638.638	-67.939	-0.254	-0.100
-637.624	-59.211	0.080	-0.035
-636.609	800.000	-0.039	0.132
-635.595	223.980	0.077	0.125
-634.580	-200.000	0.003	0.283
-633.565	62.091	-0.045	-0.045
-632.551	95.147	-0.049	0.057
-631.536	-23.032	0.085	0.052
-630.522	65.570	0.038	0.039
-629.507	-81.199	-0.158	-0.052
-628.492	50.295	-0.125	-0.119
-627.478	800.000	0.023	-0.097
-626.463	-121.890	-0.293	0.048
-625.449	-138.460	-0.065	0.007
-624.434	118.242	-0.173	-0.214
-623.419	37.040	-0.065	0.057
-622.405	415.822	0.043	-0.091
-621.390	-55.582	0.039	-0.018
-620.376	64.821	0.151	-0.153
-619.361	160.875	0.205	0.288
-618.346	800.000	0.059	-0.245
-617.332	50.209	0.154	-0.146
-616.317	-177.375	-0.270	-0.007
-615.303	-15.739	0.122	-0.078
-614.288	-119.593	0.126	-0.022
-613.273	-125.129	-0.102	-0.016
-612.259	-200.000	0.013	0.072
-611.244	326.379	-0.019	0.036
-610.230	800.000	-0.091	-0.305
-609.215	800.000	0.112	-0.363
-608.201	157.045	0.218	-0.303
-607.186	66.449	0.112	-0.114
-606.171	247.803	-0.121	-0.205
-605.157	-200.000	0.039	0.374
-604.142	-118.093	-0.106	-0.019
-603.128	-121.872	-0.141	-0.023
-602.113	-174.974	0.238	-0.007
-601.098	-28.326	-0.311	-0.180
-600.084	-109.984	-0.046	-0.010
-599.069	150.458	-0.149	0.202
-598.055	800.000	-0.076	0.251
-597.040	630.820	0.118	-0.300
-596.025	-200.000	-0.021	0.126
-595.011	162.140	0.211	-0.296
-593.996	-200.000	-0.030	-0.242
-592.982	-64.118	-0.107	-0.044
-591.967	-97.787	0.231	-0.060
-590.952	-40.451	-0.239	0.124
-589.938	17.436	0.012	-0.010
-588.923	-200.000	0.003	-0.154
-587.909	800.000	-0.020	0.070
-586.894	800.000	-0.046	0.137
-585.879	-59.712	0.211	-0.091
-584.865	-200.000	0.000	-0.431
-583.850	800.000	-0.071	0.235
-582.836	-16.049	0.120	0.077
-581.821	538.977	-0.076	0.180
-580.806	5.801	0.141	-0.105
-579.792	-19.406	-0.189	-0.117
-578.777	-200.000	0.020	0.131
-577.763	36.762	-0.108	0.095
-576.748	-200.000	0.018	-0.326
-575.733	-60.188	0.056	-0.024
-574.719	-93.296	0.253	0.070
-573.704	176.901	0.022	-0.032
-572.690	-200.000	-0.075	0.463
-571.675	341.575	-0.235	0.459
-570.661	800.000	-0.091	0.258
-569.646	-27.555	-0.102	0.060
-568.631	11.690	0.086	0.066
-567.617	133.273	-0.140	-0.181
-566.602	608.736	-0.059	0.148
-565.588	44.072	0.181	-0.166
-564.573	-78.026	0.108	0.037
-563.558	-96.139	-0.186	0.050
-562.544	-200.000	-0.014	0.138
-561.529	-101.014	0.120	-0.029
-560.515	-35.248	-0.117	0.064
-559.500	-28.560	-0.312	-0.180
-558.485	-200.000	0.050	0.241
-557.471	-3.666	-0.172	-0.120
-556.456	240.974	-0.132	0.220
-555.442	800.000	-0.081	-0.352
-554.427	-98.447	-0.127	-0.033
-553.412	-200.000	0.042	0.256
-552.398	800.000	0.016	0.071
-551.383	106.651	0.188	-0.223
-550.369	-85.715	0.293	0.091
-549.354	221.606	-0.141	0.227
-548.339	-172.378	-0.393	0.013
-547.325	-97.466	-0.176	-0.046
-546.310	-86.391	0.145	-0.044
-545.296	-200.000	-0.110	-0.487
-544.281	-200.000	0.073	-0.416
-543.266	-131.898	-0.141	-0.018
-542.252	-200.000	-0.078	-0.400
-541.237	80.662	-0.077	0.083
-540.223	51.952	-0.319	-0.304
-539.208	800.000	0.052	0.227
-538.193	129.210	0.176	0.225
-537.179	-200.000	-0.001	-0.232
-536.164	800.000	-0.073	0.215
-535.150	309.570	-0.121	0.226
-534.135	800.000	0.103	-0.297
-533.121	-88.966	0.271	-0.080
-532.106	-200.000	-0.072	-0.484
-531.091	-35.806	-0.242	-0.131
-530.077	243.503	-0.115	0.193
-529.062	-35.968	0.075	-0.040
-528.048	-80.885	0.125	-0.041
-527.033	96.849	0.021	-0.025
-526.018	2.893	-0.300	-0.218
-525.004	-89.735	-0.271	-0.079
-523.989	-178.350	0.352	0.008
-522.975	-66.609	0.481	-0.191
-521.960	201.232	-0.056	0.086
-520.945	94.286	-0.121	-0.137
-519.931	195.832	0.057	-0.086
-518.916	196.418	0.214	0.326
-517.902	-25.488	-0.278	-0.164
-516.887	-70.952	0.123	0.046
-515.872	800.000	0.089	0.257
-514.858	27.099	-0.159	0.134
-513.843	262.187	-0.112	-0.194
-512.829	800.000	-0.027	-0.076
-511.814	800.000	-0.097	-0.275
-510.799	-90.685	-0.244	0.070
-509.785	222.036	-0.118	0.190
-508.770	-149.230	-0.288	0.023
-507.756	-73.538	-0.124	0.045
-506.741	175.034	0.230	0.332
-505.726	800.000	0.037	0.135
-504.712	254.275	-0.113	0.194
-503.697	-200.000	-0.001	-0.184
-502.683	61.082	0.052	-0.052
-501.668	169.698	0.062	-0.088
-500.653	-200.000	-0.006	-0.069
-499.639	23.347	0.159	0.131
-498.624	-200.000	0.011	-0.054
-497.610	-9.963	0.400	-0.266
-496.595	800.000	-0.042	0.157
-495.581	27.732	-0.298	0.250
-494.566	309.736	0.042	0.079
-493.551	-161.434	0.068	-0.004
-492.537	800.000	0.012	0.034
-491.522	-45.179	-0.218	-0.108
-490.508	-71.297	0.121	0.045
-489.493	260.058	0.142	0.245
-488.478	-11.278	-0.200	0.131
-487.464	-200.000	0.035	-0.288
-486.449	-200.000	-0.004	0.225
-485.435	-78.229	-0.197	-0.068
-484.420	-168.220	0.126	-0.005
-483.405	-56.954	0.347	-0.153
-482.391	412.939	0.064	-0.135
-481.376	274.081	-0.092	-0.162
-480.362	-75.179	0.062	0.022
-479.347	-108.498	0.038	-0.008
-478.332	-72.264	0.234	-0.087
-477.318	26.662	0.257	0.214
-476.303	-94.259	-0.085	-0.023
-475.289	-9.319	0.242	-0.162
-474.274	117.023	-0.165	0.202
-473.259	-150.474	-0.269	-0.021
-472.245	-150.867	0.285	0.022
-471.230	-200.000	-0.016	-0.125
-470.216	160.980	-0.019	-0.027
-469.201	67.899	-0.111	0.113
-468.186	68.459	0.092	-0.094
-467.172	-176.637	0.304	0.008
-466.157	21.857	-0.344	0.279
-465.143	8.801	-0.292	0.220
-464.128	-105.715	0.101	0.023
-463.113	-132.256	-0.505	0.065
-462.099	-118.304	-0.462	0.082
-461.084	-99.578	0.166	-0.041
-460.070	116.961	0.064	0.079
-459.055	-114.439	-0.062	-0.012
-458.040	800.000	0.042	0.124
-457.026	24.203	0.085	-0.070
-456.011	-130.915	-0.123	-0.016
-454.997	53.841	-0.204	0.195
-453.982	-200.000	-0.005	0.160
-452.968	-200.000	-0.046	0.218
-451.953	800.000	-0.016	-0.053
-450.938	511.049	-0.160	-0.371
-449.924	800.000	-0.127	0.511
-448.909	-200.000	0.048	-0.502
-447.895	-84.356	-0.161	-0.051
-446.880	34.498	-0.062	0.054
-445.865	800.000	-0.072	0.212
-444.851	-112.672	-0.282	0.056
-443.836	-200.000	-0.055	0.247
-442.822	536.141	0.088	0.209
-441.807	-122.327	0.206	0.034
-440.792	-35.293	-0.109	-0.059
-439.778	-139.982	0.085	-0.009
-438.763	800.000	-0.072	-0.210
-437.749	334.497	0.033	0.063
-436.734	303.711	0.051	-0.093
-435.719	800.000	0.038	0.137
-434.705	-10.834	0.171	0.113
-433.690	-200.000	0.014	-0.255
-432.676	35.015	0.132	0.115
-431.661	571.865	0.120	0.291
-430.646	-18.863	-0.280	-0.174
-429.632	800.000	-0.099	-0.289
-428.617	99.145	-0.182	0.209
-427.603	800.000	-0.030	-0.114
-426.588	-44.675	0.057	0.028
-425.573	24.822	-0.173	0.143
-424.559	153.710	0.312	-0.425
-423.544	800.000	-0.086	-0.326
-422.530	-16.935	-0.201	-0.127
-421.515	-72.629	-0.202	0.074
-420.500	-96.204	0.180	0.048
-419.486	-116.196	-0.156	-0.029
-418.471	-143.467	-0.307	0.029
-417.457	539.548	0.065	-0.155
-416.442	-158.745	-0.132	-0.008
-415.428	-56.987	-0.116	0.051
-414.413	-200.000	0.027	-0.298
-413.398	-27.237	-0.222	0.129
-412.384	-111.070	-0.289	0.059
-411.369	49.335	-0.171	-0.160
-410.355	10.062	-0.159	0.120
-409.340	111.207	-0.213	-0.255
-408.325	695.051	-0.098	-0.256
-407.311	-31.392	0.139	-0.078
-406.296	-65.876	-0.093	0.037
-405.282	-200.000	0.003	0.018
-404.267	-200.000	0.085	0.575
-403.252	83.436	-0.086	0.093
-402.238	800.000	0.134	-0.404
-401.223	-104.899	-0.188	0.043
-400.209	175.456	-0.052	0.076
-399.194	-54.293	0.277	0.125
-398.179	-200.000	-0.030	0.359
-397.165	800.000	0.044	-0.138
-396.150	-146.702	-0.061	0.005
-395.136	-112.437	0.211	0.042
-394.121	-82.370	0.297	0.096
-393.106	164.617	0.137	-0.193
-392.092	800.000	0.070	-0.226
-391.077	-88.478	0.159	-0.047
-390.063	-22.709	-0.048	-0.029
-389.048	-200.000	-0.112	-0.506
-388.033	-129.468	0.075	-0.010
-387.019	-52.641	-0.135	-0.062
-386.004	-200.000	0.052	0.304
-384.990	712.524	0.108	-0.283
-383.975	-48.464	-0.423	0.202
-382.960	79.736	0.029	-0.031
-381.946	109.176	-0.272	0.324
-380.931	-200.000	0.042	0.220
-379.917	-121.210	-0.102	0.017
-378.902	224.721	0.129	-0.207
-377.888	-137.385	-0.161	-0.018
-376.873	71.572	0.038	0.039
-375.858	-134.589	0.321	0.039
-374.844	78.061	0.032	-0.034
-373.829	86.240	-0.213	0.233
-372.815	90.907	0.131	-0.146
-371.800	227.222	0.091	0.147
-370.785	-107.898	0.153	0.033
-369.771	-59.484	0.340	-0.145
-368.756	-150.634	0.094	-0.007
-367.742	-96.181	-0.352	0.093
-366.727	800.000	0.013	0.044
-365.712	331.819	0.065	0.125
-364.698	14.210	-0.190	0.147
-363.683	399.198	0.095	-0.197
-362.669	-67.345	-0.195	0.076
-361.654	43.698	0.125	0.114
-360.639	-200.000	-0.008	0.091
-359.625	-96.071	-0.041	0.011
-358.610	130.411	0.211	-0.269
-357.596	275.467	-0.176	0.309
-356.581	315.051	0.135	-0.254
-355.566	-131.747	0.386	0.050
-354.552	-54.697	-0.432	0.194
-353.537	800.000	-0.031	0.114
-352.523	800.000	-0.065	-0.267
-351.508	-102.165	0.390	-0.093
-350.493	23.992	-0.149	0.122
-349.479	62.496	0.042	-0.042
-348.464	-200.000	0.050	0.295
-347.450	44.185	-0.021	0.019
-346.435	-110.035	-0.029	-0.006
-345.420	-71.770	0.531	0.197
-344.406	0.686	0.258	-0.183
-343.391	-92.333	-0.301	0.084
-342.377	66.850	0.153	-0.155
-341.362	-200.000	0.032	-0.323
-340.348	-200.000	-0.066	-0.416
-339.333	-200.000	-0.004	-0.072
-338.318	-65.289	-0.239	0.095
-337.304	217.390	-0.084	-0.133
-336.289	2.987	0.131	0.094
-335.275	-200.000	-0.016	0.109
-334.260	-134.897	0.358	-0.043
-333.245	241.452	-0.077	0.127
-332.231	-7.382	0.188	0.126
-331.216	156.619	0.169	-0.231
-330.202	42.774	0.071	0.064
-329.187	-57.636	-0.145	-0.063
-328.172	800.000	0.066	0.190
-327.158	57.857	-0.146	-0.142
-326.143	-130.585	-0.561	0.075
-325.129	22.599	-0.045	-0.037
-324.114	72.195	0.283	-0.292
-323.099	-124.296	0.570	-0.088
-322.085	-82.407	-0.076	0.025
-321.070	-98.787	0.129	-0.033
-320.056	-200.000	0.034	-0.159
-319.041	-163.591	-0.201	-0.009
-318.026	-200.000	0.004	-0.370
-317.012	161.690	0.131	-0.182
-315.997	-112.384	-0.123	-0.024
-314.983	-76.583	-0.056	-0.019
-313.968	-51.351	0.198	0.092
-312.953	-4.555	-0.193	-0.132
-311.939	-86.851	-0.181	-0.055
-310.924	-69.097	-0.278	0.106
-309.910	-200.000	0.004	0.185
-308.895	403.303	-0.052	0.108
-307.880	-88.826	0.317	0.093
-306.866	-200.000	-0.006	0.028
-305.851	-93.970	-0.205	-0.056
-304.837	15.262	-0.124	-0.097
-303.822	-69.998	0.293	-0.111
-302.807	101.596	0.027	0.032
-301.793	800.000	0.101	0.330
-300.778	98.492	-0.328	-0.375
-299.764	93.824	0.186	0.208
-298.749	81.107	-0.177	-0.189
-297.735	-10.548	0.232	-0.152
-296.720	-158.782	0.255	-0.014
-295.705	7.995	-0.133	-0.099
-294.691	-200.000	0.003	-0.030
-293.676	187.017	0.158	0.233
-292.662	-34.953	0.206	0.111
-291.647	-0.698	0.046	-0.032
-290.632	-167.173	-0.238	-0.010
-289.618	265.966	0.152	-0.262
-288.603	-200.000	0.068	-0.415
-287.589	-47.511	0.090	0.043
-286.574	-26.525	0.054	-0.031
-285.559	800.000	0.055	0.193
-284.545	-79.966	-0.207	0.069
-283.530	-57.187	-0.168	-0.073
-282.516	-40.515	0.324	0.167
-281.501	-200.000	0.009	-0.243
-280.486	82.282	-0.103	-0.110
-279.472	15.673	-0.223	0.174
-278.457	136.369	0.161	-0.208
-277.443	229.042	-0.115	0.187
-276.428	33.037	-0.042	0.036
-275.413	584.111	0.081	-0.197
-274.399	-132.938	0.334	-0.042
-273.384	800.000	-0.055	0.159
-272.370	176.825	0.158	0.228
-271.355	289.278	0.046	-0.083
-270.340	-200.000	0.307	0.001
-269.326	-140.805	0.223	0.023
-268.311	-28.616	-0.123	0.070
-267.297	-200.000	0.043	0.277
-266.282	-29.643	0.311	0.176
-265.267	800.000	0.042	0.175
-264.253	248.649	-0.055	-0.093
-263.238	-89.294	0.270	-0.079
-262.224	-200.000	0.043	-0.252
-261.209	161.500	0.013	-0.018
-260.195	119.756	-0.253	0.310
-259.180	800.000	-0.038	-0.132
-258.165	344.686	-0.087	0.169
-257.151	-46.649	0.049	-0.024
-256.136	-41.091	0.192	-0.098
-255.122	63.717	0.088	0.087
-254.107	-104.150	-0.360	-0.083
-253.092	145.464	0.096	-0.127
-252.078	-200.000	0.037	0.193
-251.063	131.588	-0.018	-0.023
-250.049	-155.631	0.375	-0.024
-249.034	384.295	0.029	-0.059
-248.019	54.864	0.251	0.239
-247.005	-15.717	-0.150	-0.095
-245.990	-173.630	0.384	-0.011
-244.976	-121.200	-0.034	0.006
-243.961	-200.000	0.014	0.137
-242.946	-200.000	0.008	0.152
-241.932	-200.000	-0.037	0.220
-240.917	697.184	-0.124	0.322
-239.903	-9.817	-0.109	-0.072
-238.888	-200.000	0.033	0.257
-237.873	-200.000	0.005	-0.093
-236.859	110.657	-0.054	0.064
-235.844	-33.676	-0.418	-0.228
-234.830	394.518	0.063	-0.129
-233.815	-200.000	-0.011	0.070
-232.800	-57.278	0.142	-0.062
-231.786	113.143	-0.121	-0.145
-230.771	797.448	-0.048	-0.130
-229.757	292.082	-0.102	0.184
-228.742	8.127	0.245	0.182
-227.727	44.951	0.197	0.179
-226.713	442.046	0.124	0.268
-225.698	72.399	0.359	0.369
-224.684	-200.000	0.059	0.260
-223.669	10.453	0.278	-0.209
-222.655	800.000	0.011	-0.041
-221.640	-128.501	-0.307	0.043
-220.625	118.445	-0.009	0.011
-219.611	-144.464	-0.109	0.010
-218.596	-121.276	0.589	0.097
-217.582	-200.000	-0.010	0.395
-216.567	-200.000	0.047	0.224
-215.552	-41.111	0.096	0.049
-214.538	800.000	0.020	-0.085
-213.523	475.752	0.063	-0.142
-212.509	-74.870	0.125	-0.044
-211.494	-144.337	-0.129	-0.012
-210.479	-200.000	-0.012	0.086
-209.465	800.000	-0.069	-0.200
-208.450	318.181	-0.112	-0.210
-207.436	61.042	-0.201	0.197
-206.421	-45.720	-0.160	-0.078
-205.406	-200.000	0.094	0.447
-204.392	130.109	-0.145	-0.183
-203.377	-30.543	0.151	0.084
-202.363	425.125	0.128	0.272
-201.348	-200.000	-0.016	0.161
-200.333	451.618	-0.070	-0.153
-199.319	-118.827	-0.289	-0.050
-198.304	-200.000	-0.036	0.261
-197.290	-67.935	-0.143	0.055
-196.275	438.752	-0.112	-0.241
-195.260	80.830	0.178	0.190
-194.246	-200.000	-0.015	0.087
-193.231	-200.000	0.058	-0.302
-192.217	193.760	-0.044	0.066
-191.202	-132.967	0.093	0.012
-190.187	-111.367	0.133	-0.027
-189.173	-53.608	0.069	-0.031
-188.158	200.386	-0.185	0.280
-187.144	-200.000	-0.007	0.178
-186.129	502.834	-0.089	0.203
-185.114	121.152	-0.091	0.111
-184.100	227.951	-0.128	-0.206
-183.085	755.858	0.116	0.309
-182.071	800.000	0.130	-0.460
-181.056	-200.000	-0.053	-0.391
-180.042	-77.526	0.204	-0.070
-179.027	30.663	0.136	0.115
-178.012	-200.000	-0.009	0.121
-176.998	282.222	0.090	-0.160
-175.983	4.104	0.198	-0.143
-174.969	-21.539	0.247	-0.148
-173.954	28.321	-0.219	-0.183
-172.939	-23.032	0.086	-0.051
-171.925	268.016	-0.215	0.371
-170.910	30.531	-0.280	-0.236
-169.896	800.000	0.050	0.201
-168.881	35.517	0.220	0.191
-167.866	-79.153	0.089	0.030
-166.852	212.001	-0.080	-0.124
-165.837	19.614	0.069	0.054
-164.823	-26.004	0.224	-0.130
-163.808	-99.365	0.332	-0.082
-162.793	-102.964	-0.182	0.042
-161.779	-200.000	-0.074	-0.331
-160.764	-160.519	-0.246	-0.013
-159.750	-77.137	-0.100	-0.034
-158.735	-200.000	-0.131	0.000
-157.720	-16.191	0.184	-0.115
-156.706	10.044	-0.096	-0.072
-155.691	-62.229	-0.086	-0.035
-154.677	-200.000	-0.071	0.377
-153.662	533.280	0.036	-0.083
-152.647	-200.000	-0.022	-0.106
-151.633	420.210	-0.042	-0.089
-150.618	-89.805	0.111	-0.032
-149.604	12.929	-0.077	0.058
-148.589	180.110	-0.178	0.257
-147.574	800.000	-0.147	0.505
-146.560	-21.443	-0.142	0.085
-145.545	51.194	0.305	-0.285
-144.531	800.000	-0.085	0.279
-143.516	-200.000	-0.044	0.201
-142.502	30.339	0.240	0.202
-141.487	-200.000	-0.042	-0.206
-140.472	800.000	0.051	-0.194
-139.458	-200.000	-0.015	-0.230
-138.443	218.345	-0.179	0.281
-137.429	129.978	0.053	0.066
-136.414	-200.000	0.008	0.264
-135.399	-110.742	0.434	0.088
-134.385	-128.902	-0.141	-0.020
-133.370	800.000	0.025	0.103
-132.356	66.386	-0.072	0.072
-131.341	800.000	-0.082	0.273
-130.326	-69.053	0.393	-0.149
-129.312	-158.471	-0.456	-0.026
-128.297	-80.059	0.175	-0.058
-127.283	153.402	0.213	0.287
-126.268	-17.071	0.064	0.040
-125.253	-200.000	-0.036	0.430
-124.239	-96.289	-0.043	0.011
-123.224	-122.408	0.316	0.051
-122.210	7.858	0.234	0.172
-121.195	-109.577	-0.180	0.037
-120.180	-54.308	0.112	-0.050
