DTS Sentinel unit serial number:	SN413079Multiplexer serial number:	ORYXHardware model number:	OX4-SRSoftware version number:	ORYX F/W v4.00 Oryx Data Collector v3.7.2.0data status	okinstallation	princeton_trtdifferential loss correction	single-endedforward channel	channel 1reverse channel	N/Adate	2019/09/17time	05:02:35forward acquisition time	60.00reverse acquisition time	0.00gamma	496.2192k internal	0.2324k external	0.2324temperature offset calibration	0.9960default loss term (dB/km)	0.3790temperature slope calibration	1.0000multiplexer offset coefficient	1.0000multiplexer slope coefficient	1.0000fibre end	0.00T internal ref (°C)	29.50T ext. ref 1 (°C)	0.14T ext. ref 2 (°C)	23.92length (m)	temperature (°C)	Stokes	anti-Stokes-747.200	-90.795	0.134	0.039
-746.185	-122.865	-0.154	-0.025
-745.171	320.996	-0.157	0.301
-744.156	47.238	-0.329	-0.309
-743.142	-100.364	-0.210	-0.053
-742.127	237.218	-0.131	0.219
-741.112	-200.000	0.004	-0.107
-740.098	-200.000	0.037	0.237
-739.083	-7.766	0.324	0.221
-738.069	-2.230	-0.171	-0.121
-737.054	185.288	0.154	-0.230
-736.039	179.948	-0.051	0.075
-735.025	-200.000	0.029	0.251
-734.010	-200.000	0.009	-0.086
-732.996	800.000	0.051	-0.144
-731.981	-67.691	-0.282	-0.111
-730.966	39.362	-0.161	-0.145
-729.952	226.265	0.166	-0.271
-728.937	259.218	-0.138	-0.240
-727.923	-200.000	0.006	0.071
-726.908	8.588	-0.101	-0.077
-725.894	37.991	-0.196	-0.176
-724.879	-110.094	0.109	-0.023
-723.864	800.000	0.054	-0.159
-722.850	-27.425	-0.237	-0.139
-721.835	-200.000	-0.016	-0.081
-720.821	-49.897	-0.047	0.022
-719.806	226.920	-0.049	-0.081
-718.791	669.180	-0.045	-0.117
-717.777	-102.811	-0.115	-0.028
-716.762	-75.548	-0.113	0.041
-715.748	29.663	0.292	0.250
-714.733	-68.465	-0.228	-0.089
-713.718	-111.733	-0.119	-0.024
-712.704	-137.164	0.165	-0.019
-711.689	12.897	-0.153	-0.120
-710.675	87.935	0.233	-0.260
-709.660	151.775	-0.066	0.091
-708.645	356.362	-0.157	-0.316
-707.631	-200.000	0.014	-0.222
-706.616	-106.499	-0.188	-0.042
-705.602	-144.169	0.241	0.023
-704.587	-24.876	0.034	0.021
-703.572	-200.000	0.039	-0.488
-702.558	-200.000	-0.003	0.197
-701.543	-90.709	-0.237	-0.069
-700.529	200.904	0.135	-0.209
-699.514	-52.969	-0.263	-0.122
-698.499	-200.000	0.007	0.306
-697.485	-99.260	0.272	-0.069
-696.470	-96.682	-0.192	0.051
-695.456	106.981	0.301	0.360
-694.441	-200.000	0.009	0.219
-693.426	-79.525	0.209	-0.071
-692.412	-161.787	-0.185	-0.009
-691.397	542.403	-0.123	-0.296
-690.383	-56.975	-0.292	-0.130
-689.368	-4.001	-0.063	-0.044
-688.354	34.273	-0.339	0.298
-687.339	722.708	-0.026	0.069
-686.324	64.915	0.255	0.260
-685.310	345.539	-0.142	0.282
-684.295	800.000	0.008	-0.029
-683.281	20.306	-0.209	-0.170
-682.266	-149.524	-0.149	-0.012
-681.251	-53.388	0.403	0.186
-680.237	800.000	-0.065	0.194
-679.222	-138.262	0.147	-0.016
-678.208	203.716	-0.062	0.096
-677.193	800.000	0.053	0.195
-676.178	-200.000	-0.017	0.125
-675.164	-115.329	0.190	-0.036
-674.149	130.420	-0.072	-0.092
-673.135	-82.513	-0.255	-0.083
-672.120	-49.139	-0.102	-0.049
-671.105	800.000	0.060	0.211
-670.091	-74.680	0.252	0.091
-669.076	-200.000	0.016	0.143
-668.062	47.020	0.047	-0.044
-667.047	-38.335	-0.064	-0.034
-666.032	-85.692	0.333	0.104
-665.018	357.046	0.115	-0.230
-664.003	111.446	0.256	-0.311
-662.989	359.813	0.046	-0.092
-661.974	141.809	-0.056	-0.074
-660.959	-200.000	-0.013	0.282
-659.945	-74.100	0.121	-0.044
-658.930	-111.931	-0.146	0.030
-657.916	187.969	0.156	-0.234
-656.901	-200.000	0.006	-0.114
-655.886	-200.000	-0.017	-0.226
-654.872	6.434	-0.143	0.107
-653.857	40.257	0.155	-0.140
-652.843	-200.000	0.023	0.181
-651.828	-3.351	0.099	-0.070
-650.814	534.284	-0.041	-0.098
-649.799	-21.077	0.154	-0.095
-648.784	238.728	-0.118	-0.198
-647.770	-65.631	-0.318	0.128
-646.755	-66.706	-0.176	0.070
-645.741	-106.369	-0.071	-0.016
-644.726	48.562	0.026	0.025
-643.711	-128.427	-0.084	0.012
-642.697	185.899	-0.049	-0.073
-641.682	18.919	-0.087	0.070
-640.668	81.948	-0.224	0.244
-639.653	-200.000	0.022	-0.428
-638.638	62.311	0.071	0.072
-637.624	-73.739	-0.099	-0.036
-636.609	-114.720	-0.095	0.018
-635.595	-50.100	0.350	0.167
-634.580	800.000	0.057	-0.199
-633.565	-102.344	-0.203	0.049
-632.551	257.743	-0.241	0.417
-631.536	262.416	-0.103	0.179
-630.522	-128.250	-0.214	0.031
-629.507	769.773	-0.037	-0.102
-628.492	110.327	0.160	0.193
-627.478	210.097	0.070	-0.110
-626.463	62.841	-0.186	0.187
-625.449	-84.939	-0.149	0.047
-624.434	158.355	0.052	-0.073
-623.419	21.653	0.238	-0.194
-622.405	287.192	-0.059	-0.107
-621.390	800.000	0.026	0.094
-620.376	800.000	-0.078	-0.303
-619.361	460.063	0.157	-0.352
-618.346	-200.000	-0.037	0.271
-617.332	5.920	0.182	0.136
-616.317	-200.000	0.036	-0.364
-615.303	496.235	0.065	0.150
-614.288	-200.000	-0.016	0.329
-613.273	31.944	-0.073	-0.063
-612.259	800.000	-0.100	0.349
-611.244	800.000	-0.053	0.164
-610.230	-105.418	-0.120	-0.028
-609.215	-90.265	0.229	-0.067
-608.201	-200.000	-0.111	0.489
-607.186	519.449	-0.075	0.177
-606.171	800.000	0.010	-0.038
-605.157	-200.000	0.001	-0.037
-604.142	212.121	-0.093	-0.148
-603.128	-200.000	-0.004	-0.079
-602.113	-124.295	-0.116	-0.018
-601.098	26.206	-0.086	-0.072
-600.084	106.102	0.064	0.076
-599.069	26.955	-0.349	-0.294
-598.055	561.837	-0.163	-0.395
-597.040	-200.000	-0.038	-0.230
-596.025	800.000	0.053	0.171
-595.011	619.373	-0.126	-0.318
-593.996	-200.000	0.035	0.183
-592.982	461.049	-0.143	-0.319
-591.967	-119.502	-0.390	0.068
-590.952	-35.240	-0.488	0.267
-589.938	98.247	-0.144	0.166
-588.923	62.606	0.162	0.163
-587.909	-146.622	-0.428	-0.037
-586.894	-94.758	0.108	-0.029
-585.879	-200.000	0.078	-0.374
-584.865	-71.305	0.134	-0.050
-583.850	100.038	-0.094	0.109
-582.836	162.750	0.070	-0.099
-581.821	732.818	-0.102	0.274
-580.806	-39.080	0.297	0.157
-579.792	-200.000	0.066	0.393
-578.777	-35.729	-0.257	0.140
-577.763	251.242	0.057	0.097
-576.748	800.000	0.069	-0.244
-575.733	388.501	-0.113	0.235
-574.719	44.250	-0.144	-0.132
-573.704	-70.261	0.269	0.103
-572.690	3.233	-0.173	0.126
-571.675	-200.000	0.021	-0.125
-570.661	375.691	0.110	0.224
-569.646	97.908	-0.016	-0.018
-568.631	800.000	-0.050	0.197
-567.617	106.978	0.150	0.179
-566.602	179.161	0.155	-0.227
-565.588	44.021	-0.110	0.101
-564.573	-91.769	0.388	-0.110
-563.558	-200.000	0.045	-0.212
-562.544	70.742	-0.118	-0.122
-561.529	-104.584	-0.071	0.016
-560.515	210.203	-0.088	-0.138
-559.500	-25.476	-0.314	-0.186
-558.485	-35.596	0.207	-0.113
-557.471	-200.000	-0.015	-0.215
-556.456	-200.000	-0.027	0.194
-555.442	71.878	0.249	0.259
-554.427	169.233	0.149	0.212
-553.412	-62.698	-0.175	-0.073
-552.398	-70.383	-0.051	0.019
-551.383	80.430	-0.166	-0.179
-550.369	-200.000	0.002	0.034
-549.354	-168.533	0.143	0.005
-548.339	532.258	-0.059	0.139
-547.325	-29.484	-0.073	-0.042
-546.310	422.044	0.154	-0.331
-545.296	335.635	0.173	-0.337
-544.281	-36.405	-0.192	-0.104
-543.266	-200.000	0.005	0.118
-542.252	675.512	-0.129	-0.335
-541.237	-121.184	0.236	0.040
-540.223	182.813	0.198	-0.293
-539.208	-200.000	0.028	0.147
-538.193	-57.627	-0.107	0.047
-537.179	62.310	-0.063	0.063
-536.164	30.143	-0.164	-0.140
-535.150	-27.941	-0.315	0.182
-534.135	-92.009	0.227	0.064
-533.121	443.835	-0.075	-0.165
-532.106	-79.872	-0.223	0.075
-531.091	120.056	-0.082	-0.102
-530.077	-200.000	-0.021	0.173
-529.062	-200.000	0.012	0.151
-528.048	758.272	0.151	0.408
-527.033	-135.237	0.084	-0.010
-526.018	-99.663	0.337	0.085
-525.004	-3.470	0.121	0.085
-523.989	2.960	0.125	-0.091
-522.975	-58.862	0.265	0.115
-521.960	43.751	-0.114	-0.104
-520.945	328.886	-0.125	-0.240
-519.931	155.383	0.059	0.081
-518.916	-70.044	0.300	-0.114
-517.902	-44.345	-0.087	-0.044
-516.887	-134.353	-0.214	-0.026
-515.872	372.955	-0.117	-0.238
-514.858	122.068	0.168	0.210
-513.843	30.338	0.077	0.066
-512.829	-200.000	-0.012	0.276
-511.814	-200.000	-0.025	-0.415
-510.799	-200.000	-0.025	0.116
-509.785	-200.000	0.014	-0.164
-508.770	184.979	0.103	0.153
-507.756	800.000	-0.068	-0.252
-506.741	13.127	-0.148	0.115
-505.726	-8.046	-0.111	0.075
-504.712	560.430	-0.048	-0.117
-503.697	113.596	-0.022	-0.027
-502.683	-200.000	0.005	0.100
-501.668	-200.000	0.002	-0.069
-500.653	-136.190	0.354	0.041
-499.639	-174.995	0.342	0.010
-498.624	-191.319	0.120	-0.001
-497.610	-48.284	-0.211	-0.102
-496.595	526.726	0.110	0.259
-495.581	-200.000	0.045	0.333
-494.566	69.406	-0.262	-0.270
-493.551	-200.000	0.029	0.275
-492.537	234.334	0.241	0.397
-491.522	-200.000	0.009	0.061
-490.508	800.000	0.039	-0.159
-489.493	464.461	-0.150	-0.336
-488.478	624.036	0.118	-0.297
-487.464	101.900	0.106	0.123
-486.449	-200.000	-0.076	0.471
-485.435	324.811	-0.027	0.052
-484.420	-44.720	-0.336	0.168
-483.405	-159.470	-0.271	-0.015
-482.391	-180.010	-0.159	0.003
-481.376	-29.825	-0.289	0.165
-480.362	693.820	-0.098	0.258
-479.347	-117.777	-0.245	0.044
-478.332	334.125	0.165	-0.320
-477.318	-44.508	0.109	0.054
-476.303	362.056	0.039	-0.077
-475.289	800.000	-0.036	0.152
-474.274	-75.685	-0.196	-0.070
-473.259	205.510	0.035	0.054
-472.245	108.576	-0.061	0.073
-471.230	-200.000	-0.033	0.245
-470.216	-10.304	0.223	-0.148
-469.201	43.342	0.322	0.294
-468.186	-200.000	0.042	0.197
-467.172	221.361	-0.321	0.515
-466.157	-93.742	-0.150	0.041
-465.143	4.618	-0.141	-0.103
-464.128	-61.175	0.177	0.075
-463.113	-90.787	-0.098	0.028
-462.099	182.089	0.137	-0.202
-461.084	-28.016	0.088	-0.051
-460.070	-70.528	-0.286	0.108
-459.055	38.566	0.254	-0.226
-458.040	54.177	0.135	-0.130
-457.026	-55.907	0.291	0.130
-456.011	-41.678	0.143	-0.073
-454.997	476.247	-0.099	-0.224
-453.982	-79.985	-0.095	0.032
-452.968	-5.637	0.205	0.140
-451.953	-178.449	0.101	0.002
-450.938	-120.760	-0.065	0.011
-449.924	24.120	0.122	-0.101
-448.909	26.752	-0.148	-0.124
-447.895	671.428	-0.036	0.094
-446.880	-110.191	-0.097	0.020
-445.865	200.783	0.104	-0.159
-444.851	174.310	0.183	-0.263
-443.836	-76.917	-0.186	-0.065
-442.822	424.940	-0.121	0.260
-441.807	113.918	-0.110	0.133
-440.792	-33.533	0.070	-0.039
-439.778	-16.785	0.213	0.134
-438.763	-200.000	0.050	-0.274
-437.749	32.687	0.086	-0.075
-436.734	276.775	0.098	-0.174
-435.719	-112.181	0.175	0.035
-434.705	10.575	0.243	0.185
-433.690	4.955	-0.464	-0.340
-432.676	-53.172	-0.294	-0.135
-431.661	128.430	0.047	-0.060
-430.646	307.874	-0.070	0.130
-429.632	468.767	-0.124	0.277
-428.617	-200.000	-0.022	0.216
-427.603	319.530	-0.033	0.062
-426.588	-23.498	0.035	-0.021
-425.573	61.719	-0.267	0.265
-424.559	64.761	-0.218	-0.219
-423.544	-200.000	0.010	-0.336
-422.530	19.863	-0.174	-0.140
-421.515	32.489	0.121	0.105
-420.500	-26.012	0.149	0.087
-419.486	-144.002	0.413	-0.039
-418.471	316.244	-0.144	-0.270
-417.457	-172.171	0.217	0.007
-416.442	17.852	-0.241	0.191
-415.428	-48.120	-0.533	0.256
-414.413	-94.272	0.266	0.072
-413.398	-110.440	0.194	0.040
-412.384	79.920	0.141	0.151
-411.369	-83.972	-0.168	0.053
-410.355	64.823	-0.098	-0.099
-409.340	-65.391	-0.312	-0.125
-408.325	43.904	0.307	-0.280
-407.311	3.980	0.156	-0.114
-406.296	-76.962	-0.202	0.070
-405.282	10.923	0.168	-0.128
-404.267	-200.000	0.014	0.298
-403.252	-107.418	-0.246	-0.054
-402.238	296.338	-0.184	-0.336
-401.223	-36.227	0.183	0.099
-400.209	-200.000	-0.033	0.428
-399.194	11.730	0.186	0.142
-398.179	-32.184	0.318	0.177
-397.165	329.922	0.123	0.237
-396.150	241.820	0.120	0.200
-395.136	-48.153	0.192	0.092
-394.121	-200.000	0.007	0.297
-393.106	-200.000	-0.022	-0.194
-392.092	800.000	-0.053	-0.150
-391.077	-200.000	-0.041	0.511
-390.063	-93.729	-0.323	-0.089
-389.048	-20.489	-0.242	0.148
-388.033	61.543	-0.088	0.087
-387.019	-93.742	-0.212	-0.058
-386.004	578.604	0.021	0.050
-384.990	800.000	0.021	0.077
-383.975	-110.157	-0.249	-0.052
-382.960	587.301	0.073	-0.178
-381.946	-31.280	0.235	-0.132
-380.931	343.354	0.059	-0.115
-379.917	-162.523	0.087	-0.004
-378.902	800.000	-0.024	0.095
-377.888	-198.804	0.316	-0.002
-376.873	68.286	0.032	-0.032
-375.858	-88.899	-0.200	0.059
-374.844	-200.000	0.004	-0.026
-373.829	-104.617	0.205	-0.047
-372.815	800.000	0.140	0.407
-371.800	9.136	-0.157	-0.118
-370.785	-80.182	0.182	0.061
-369.771	-88.074	0.528	-0.158
-368.756	800.000	0.166	-0.495
-367.742	488.389	0.041	-0.094
-366.727	-200.000	-0.025	-0.333
-365.712	800.000	-0.083	0.261
-364.698	254.390	-0.039	0.067
-363.683	55.413	-0.346	-0.333
-362.669	-200.000	0.006	-0.102
-361.654	-120.443	-0.112	0.019
-360.639	-200.000	-0.001	0.082
-359.625	55.763	-0.241	0.233
-358.610	297.348	0.041	-0.075
-357.596	-200.000	0.019	0.178
-356.581	-200.000	-0.006	0.074
-355.566	576.316	-0.150	-0.365
-354.552	-87.318	0.236	-0.071
-353.537	15.483	-0.409	-0.319
-352.523	-119.358	0.371	0.064
-351.508	-98.903	0.158	-0.040
-350.493	-67.518	0.077	-0.030
-349.479	-136.678	-0.288	-0.033
-348.464	-86.142	-0.261	0.080
-347.450	52.977	0.323	-0.307
-346.435	-36.823	0.256	-0.137
-345.420	800.000	0.012	-0.044
-344.406	612.360	0.116	-0.288
-343.391	-113.483	-0.285	-0.056
-342.377	345.822	-0.034	-0.066
-341.362	21.769	0.133	-0.107
-340.348	36.704	-0.090	0.079
-339.333	256.431	-0.158	-0.270
-338.318	-88.279	0.412	0.122
-337.304	-106.932	0.207	0.046
-336.289	41.016	0.218	-0.195
-335.275	-200.000	0.000	-0.325
-334.260	578.595	0.066	-0.159
-333.245	-42.410	-0.170	-0.086
-332.231	-49.486	0.163	0.077
-331.216	197.599	0.076	-0.115
-330.202	266.036	0.066	0.114
-329.187	145.866	-0.088	0.118
-328.172	-15.394	-0.102	0.065
-327.158	216.949	-0.115	0.182
-326.143	22.408	-0.028	0.023
-325.129	58.238	-0.133	0.129
-324.114	800.000	-0.054	0.158
-323.099	-200.000	0.013	0.126
-322.085	-15.509	-0.161	-0.102
-321.070	800.000	0.040	0.171
-320.056	-59.725	-0.198	-0.084
-319.041	590.728	0.088	-0.216
-318.026	60.631	0.227	-0.223
-317.012	582.555	0.110	0.267
-315.997	34.022	-0.033	-0.028
-314.983	515.554	-0.059	-0.137
-313.968	-96.496	0.248	0.065
-312.953	42.482	0.264	-0.238
-311.939	-124.146	-0.149	0.023
-310.924	-200.000	-0.000	-0.045
-309.910	-32.208	-0.197	0.109
-308.895	-27.689	0.204	-0.117
-307.880	-200.000	0.014	-0.399
-306.866	-67.463	0.247	0.096
-305.851	-134.944	-0.289	0.035
-304.837	-73.737	0.449	0.162
-303.822	56.018	-0.045	0.043
-302.807	337.175	-0.025	-0.049
-301.793	-200.000	0.029	0.136
-300.778	8.863	0.072	-0.054
-299.764	383.253	0.144	-0.294
-298.749	-200.000	-0.010	0.241
-297.735	43.834	-0.200	0.182
-296.720	412.987	0.100	-0.211
-295.705	167.002	-0.231	-0.325
-294.691	-152.180	0.390	-0.028
-293.676	-103.830	0.144	-0.033
-292.662	5.986	0.078	-0.057
-291.647	541.519	-0.025	-0.058
-290.632	-30.623	0.166	0.093
-289.618	107.428	0.159	-0.187
-288.603	519.440	-0.084	0.195
-287.589	800.000	-0.026	0.087
-286.574	83.250	-0.172	0.186
-285.559	-102.431	-0.155	-0.037
-284.545	800.000	0.142	0.523
-283.530	21.556	0.147	-0.118
-282.516	4.455	0.132	0.096
-281.501	800.000	0.138	-0.462
-280.486	182.448	0.042	0.061
-279.472	-15.075	0.200	-0.127
-278.457	-78.823	0.140	-0.047
-277.443	32.332	-0.211	-0.180
-276.428	-200.000	-0.027	0.254
-275.413	-19.042	-0.248	0.153
-274.399	181.891	-0.048	-0.071
-273.384	-200.000	-0.001	-0.230
-272.370	224.310	0.097	-0.156
-271.355	800.000	-0.019	-0.063
-270.340	800.000	0.057	-0.228
-269.326	-34.709	0.070	0.038
-268.311	-101.585	0.277	0.067
-267.297	800.000	0.070	0.278
-266.282	-28.301	0.116	0.066
-265.267	39.681	-0.116	0.103
-264.253	-129.799	0.183	-0.025
-263.238	-127.315	0.186	-0.027
-262.224	800.000	-0.100	0.364
-261.209	-88.986	-0.299	0.088
-260.195	-65.477	0.313	-0.125
-259.180	-24.608	0.079	-0.047
-258.165	-31.525	-0.305	0.170
-257.151	-107.981	-0.149	-0.032
-256.136	525.617	0.140	0.326
-255.122	-116.163	-0.129	-0.024
-254.107	791.706	-0.031	-0.085
-253.092	-73.478	0.050	-0.018
-252.078	-47.160	0.232	-0.112
-251.063	-181.658	-0.029	0.001
-250.049	40.985	0.103	-0.092
-249.034	561.670	-0.109	-0.262
-248.019	-98.475	0.262	0.066
-247.005	-54.010	0.168	0.076
-245.990	43.126	0.066	0.059
-244.976	30.668	-0.151	-0.128
-243.961	-200.000	-0.072	0.335
-242.946	445.718	-0.077	-0.167
-241.932	-83.359	-0.190	-0.060
-240.917	-47.536	0.200	0.096
-239.903	239.702	0.102	-0.168
-238.888	800.000	-0.064	0.262
-237.873	-160.833	0.337	-0.018
-236.859	-168.687	0.292	0.011
-235.844	91.017	0.083	-0.092
-234.830	-90.409	-0.265	-0.076
-233.815	-68.835	-0.086	0.033
-232.800	-68.649	0.305	-0.117
-231.786	-94.800	-0.027	0.007
-230.771	730.472	0.135	0.358
-229.757	-141.760	-0.409	0.041
-228.742	294.015	-0.051	-0.092
-227.727	-110.661	-0.142	-0.029
-226.713	-62.847	0.169	0.069
-225.698	-64.261	-0.284	0.115
-224.684	-200.000	-0.025	-0.180
-223.669	133.456	-0.082	0.105
-222.655	108.037	-0.075	-0.088
-221.640	401.222	0.083	-0.172
-220.625	-200.000	0.008	-0.137
-219.611	-101.562	0.082	-0.020
-218.596	29.078	0.117	-0.098
-217.582	-128.241	-0.023	0.003
-216.567	-28.232	0.171	0.098
-215.552	800.000	0.021	0.077
-214.538	121.026	0.175	0.215
-213.523	800.000	0.064	-0.233
-212.509	-102.172	-0.300	-0.071
-211.494	-112.536	-0.315	-0.062
-210.479	27.358	0.278	-0.231
-209.465	21.770	-0.083	-0.066
-208.450	-129.217	0.316	-0.044
-207.436	800.000	-0.034	-0.125
-206.421	-164.807	0.290	0.013
-205.406	-104.007	-0.259	0.060
-204.392	-135.016	-0.177	0.021
-203.377	-97.181	-0.109	-0.028
-202.363	10.790	-0.113	0.085
-201.348	-85.079	-0.295	0.091
-200.333	681.969	0.047	0.122
-199.319	-158.300	0.339	0.019
-198.304	247.435	0.083	-0.139
-197.290	104.852	-0.226	-0.264
-196.275	-118.181	-0.138	0.024
-195.260	-147.866	-0.251	0.021
-194.246	-200.000	0.003	0.079
-193.231	800.000	0.061	-0.221
-192.217	712.039	0.051	-0.133
-191.202	-200.000	-0.000	-0.381
-190.187	58.483	0.306	-0.296
-189.173	800.000	0.177	0.496
-188.158	3.700	-0.171	-0.123
-187.144	-95.891	-0.704	0.185
-186.129	-33.814	0.203	-0.111
-185.114	123.277	-0.164	-0.203
-184.100	107.201	0.156	-0.183
-183.085	34.265	-0.260	0.224
-182.071	-44.250	0.025	-0.012
-181.056	800.000	0.117	0.401
-180.042	37.609	-0.093	-0.082
-179.027	-17.471	0.065	0.040
-178.012	800.000	0.084	-0.234
-176.998	-87.333	-0.167	0.050
-175.983	4.636	0.122	0.088
-174.969	-47.647	-0.098	-0.047
-173.954	725.729	-0.040	-0.106
-172.939	-53.210	0.316	0.143
-171.925	-122.873	-0.149	-0.024
-170.910	-200.000	0.102	0.459
-169.896	123.445	0.091	0.113
-168.881	-200.000	0.016	-0.301
-167.866	53.069	-0.158	-0.149
-166.852	-177.793	0.314	0.007
-165.837	-108.751	-0.102	-0.022
-164.823	-170.995	-0.090	0.003
-163.808	134.195	-0.000	-0.000
-162.793	477.334	0.037	-0.082
-161.779	11.857	0.124	0.094
-160.764	800.000	0.071	0.298
-159.750	13.055	-0.147	-0.113
-158.735	-168.653	0.275	0.010
-157.720	-120.976	0.097	0.016
-156.706	-33.494	-0.188	0.103
-155.691	-83.390	-0.297	-0.094
-154.677	110.484	-0.117	-0.139
-153.662	-200.000	-0.029	0.260
-152.647	102.412	0.086	0.099
-151.633	165.734	-0.087	0.121
-150.618	30.772	0.276	0.233
-149.604	340.647	0.134	-0.257
-148.589	800.000	0.075	0.286
-147.574	516.735	-0.024	0.055
-146.560	58.412	-0.158	0.153
-145.545	-71.336	-0.152	-0.056
-144.531	-86.875	-0.129	-0.039
-143.516	800.000	0.081	-0.260
-142.502	-176.433	0.147	0.004
-141.487	31.189	0.171	-0.144
-140.472	-150.501	-0.018	0.001
-139.458	800.000	0.100	0.344
-138.443	-87.188	0.221	0.066
-137.429	800.000	0.085	0.321
-136.414	420.025	-0.061	0.128
-135.399	800.000	0.075	-0.312
-134.385	-200.000	-0.018	0.338
-133.370	720.639	0.049	-0.129
-132.356	-11.642	-0.266	-0.173
-131.341	-200.000	-0.021	0.438
-130.326	-56.919	-0.295	0.128
-129.312	144.567	-0.188	-0.248
-128.297	800.000	0.097	-0.303
-127.283	-78.526	-0.109	-0.037
-126.268	-134.689	0.093	-0.011
-125.253	-200.000	0.071	0.463
-124.239	62.402	-0.136	0.134
-123.224	56.412	0.202	0.193
-122.210	267.708	0.057	-0.098
-121.195	50.372	0.168	-0.157
