DTS Sentinel unit serial number:	SN413079Multiplexer serial number:	ORYXHardware model number:	OX4-SRSoftware version number:	ORYX F/W v4.00 Oryx Data Collector v3.7.2.0data status	okinstallation	princeton_trtdifferential loss correction	single-endedforward channel	channel 1reverse channel	N/Adate	2019/09/13time	06:42:35forward acquisition time	60.00reverse acquisition time	0.00gamma	496.2192k internal	0.2335k external	0.2335temperature offset calibration	1.0160default loss term (dB/km)	0.3790temperature slope calibration	1.0000multiplexer offset coefficient	1.0000multiplexer slope coefficient	1.0000fibre end	0.00T internal ref (°C)	26.02T ext. ref 1 (°C)	4.11T ext. ref 2 (°C)	20.67length (m)	temperature (°C)	Stokes	anti-Stokes-747.200	-100.387	-0.447	-0.111
-746.185	50.788	-0.231	0.219
-745.171	-42.789	0.044	-0.023
-744.156	245.784	-0.132	0.223
-743.142	229.300	0.076	0.125
-742.127	-42.613	0.222	-0.113
-741.112	-200.000	-0.001	-0.075
-740.098	-136.989	-0.332	-0.038
-739.083	41.095	-0.071	-0.065
-738.069	-200.000	0.098	0.474
-737.054	-200.000	-0.006	0.123
-736.039	-46.565	-0.136	-0.067
-735.025	800.000	0.054	0.168
-734.010	13.092	-0.296	-0.230
-732.996	800.000	0.038	-0.127
-731.981	114.660	0.256	0.314
-730.966	-42.197	0.103	-0.053
-729.952	-200.000	-0.005	-0.037
-728.937	98.364	-0.106	-0.123
-727.923	-74.573	0.319	0.115
-726.908	-200.000	0.013	-0.155
-725.894	-4.181	-0.147	0.102
-724.879	800.000	0.008	-0.028
-723.864	596.467	-0.128	-0.318
-722.850	-200.000	-0.017	0.091
-721.835	293.446	-0.125	0.229
-720.821	800.000	-0.014	-0.054
-719.806	206.491	0.200	0.312
-718.791	126.135	-0.066	0.084
-717.777	73.209	0.248	0.260
-716.762	318.611	-0.073	-0.139
-715.748	145.443	-0.056	-0.076
-714.733	55.533	-0.180	-0.175
-713.718	216.255	0.087	0.139
-712.704	92.049	0.151	-0.170
-711.689	-114.676	-0.264	0.051
-710.675	-40.017	0.184	-0.096
-709.660	-200.000	0.048	-0.353
-708.645	-200.000	0.001	0.154
-707.631	0.317	-0.114	0.081
-706.616	800.000	0.051	0.170
-705.602	395.713	-0.127	0.266
-704.587	-116.378	-0.170	0.032
-703.572	1.086	0.067	-0.048
-702.558	-200.000	0.007	-0.071
-701.543	46.419	-0.213	-0.198
-700.529	-76.548	0.150	-0.053
-699.514	138.657	-0.237	-0.312
-698.499	59.151	-0.143	-0.141
-697.485	-172.223	0.127	-0.004
-696.470	-20.361	0.343	0.212
-695.456	-188.346	0.475	0.006
-694.441	-21.355	-0.128	0.078
-693.426	-94.174	-0.310	-0.085
-692.412	-200.000	0.006	-0.248
-691.397	217.120	-0.009	-0.014
-690.383	800.000	-0.066	-0.182
-689.368	39.866	0.222	0.200
-688.354	-87.456	0.139	0.042
-687.339	-136.833	-0.190	-0.022
-686.324	-32.737	-0.059	0.033
-685.310	234.270	-0.086	-0.142
-684.295	-108.556	-0.321	-0.069
-683.281	114.474	-0.113	0.137
-682.266	-163.420	-0.172	0.008
-681.251	-13.263	0.198	-0.129
-680.237	228.681	0.200	0.327
-679.222	-124.353	-0.348	-0.054
-678.208	72.774	0.209	0.218
-677.193	-200.000	0.022	0.116
-676.178	532.186	0.151	-0.359
-675.164	118.651	0.393	0.487
-674.149	-139.130	-0.360	0.039
-673.135	-15.058	0.156	-0.100
-672.120	76.219	0.257	-0.272
-671.105	800.000	0.064	-0.275
-670.091	-81.867	-0.099	0.033
-669.076	-78.196	-0.139	-0.048
-668.062	72.390	0.118	-0.123
-667.047	-25.425	-0.157	-0.093
-666.032	-200.000	-0.016	-0.350
-665.018	546.863	0.022	0.052
-664.003	-35.534	0.157	-0.085
-662.989	99.380	-0.303	-0.351
-661.974	800.000	0.049	-0.214
-660.959	59.002	-0.171	-0.168
-659.945	-138.616	0.112	-0.012
-658.930	-86.245	0.108	0.033
-657.916	-10.094	-0.353	0.235
-656.901	118.599	0.120	0.148
-655.886	79.858	-0.268	-0.288
-654.872	-18.811	0.137	-0.085
-653.857	26.265	-0.161	0.135
-652.843	341.546	0.043	0.084
-651.828	-112.278	0.100	-0.020
-650.814	-114.454	-0.098	-0.019
-649.799	220.178	0.257	0.413
-648.784	-67.405	-0.165	-0.065
-647.770	46.545	0.238	-0.221
-646.755	-200.000	0.075	0.000
-645.741	-90.470	-0.319	-0.093
-644.726	800.000	0.022	0.080
-643.711	-138.323	0.152	0.017
-642.697	19.289	0.209	0.168
-641.682	800.000	0.101	-0.335
-640.668	449.360	0.189	0.417
-639.653	12.770	-0.179	0.138
-638.638	-200.000	-0.063	-0.448
-637.624	576.824	-0.107	-0.261
-636.609	121.659	-0.205	-0.256
-635.595	-86.367	0.185	-0.057
-634.580	60.993	-0.170	-0.168
-633.565	-200.000	0.002	0.040
-632.551	122.036	-0.233	-0.291
-631.536	800.000	0.075	-0.255
-630.522	197.156	-0.006	0.009
-629.507	-75.658	-0.146	-0.052
-628.492	-57.209	-0.116	-0.051
-627.478	-64.578	-0.226	0.092
-626.463	-35.629	-0.387	-0.210
-625.449	35.300	-0.060	-0.052
-624.434	99.869	-0.200	-0.232
-623.419	-200.000	-0.024	-0.448
-622.405	-118.024	-0.155	0.028
-621.390	800.000	0.017	-0.049
-620.376	30.863	0.075	0.064
-619.361	211.660	0.091	0.143
-618.346	172.374	-0.048	-0.068
-617.332	-200.000	0.050	-0.296
-616.317	577.357	0.095	0.232
-615.303	-30.958	0.146	-0.082
-614.288	648.589	-0.075	0.193
-613.273	701.179	-0.128	0.336
-612.259	76.891	-0.128	0.136
-611.244	800.000	0.115	-0.365
-610.230	-21.346	-0.132	0.080
-609.215	-117.722	0.289	0.052
-608.201	213.023	0.050	0.080
-607.186	131.943	-0.103	-0.133
-606.171	186.735	0.113	-0.168
-605.157	-200.000	-0.004	0.026
-604.142	37.569	0.041	0.037
-603.128	50.573	0.090	0.086
-602.113	6.155	-0.197	-0.146
-601.098	-39.234	-0.098	0.052
-600.084	-200.000	0.018	0.108
-599.069	-109.517	0.294	0.062
-598.055	-119.594	0.443	0.076
-597.040	-135.300	-0.369	-0.044
-596.025	-105.099	0.107	0.024
-595.011	77.798	-0.056	0.060
-593.996	-200.000	0.009	0.079
-592.982	-48.460	0.166	0.080
-591.967	-121.043	-0.184	0.031
-590.952	-156.069	-0.175	0.011
-589.938	-90.358	0.225	-0.065
-588.923	800.000	0.073	0.211
-587.909	-116.241	-0.264	-0.049
-586.894	-122.222	-0.154	0.025
-585.879	38.136	0.173	-0.154
-584.865	-200.000	0.019	0.283
-583.850	32.270	0.332	-0.286
-582.836	10.637	-0.226	-0.172
-581.821	125.072	0.210	-0.264
-580.806	-66.840	-0.230	-0.091
-579.792	-194.433	0.398	0.003
-578.777	98.842	0.048	0.056
-577.763	449.371	-0.044	0.097
-576.748	4.282	0.173	-0.126
-575.733	41.882	0.157	-0.142
-574.719	-200.000	0.040	0.176
-573.704	-95.690	-0.106	-0.028
-572.690	-200.000	0.000	-0.128
-571.675	-200.000	0.015	0.262
-570.661	-200.000	-0.003	-0.181
-569.646	449.511	0.109	0.241
-568.631	-200.000	-0.001	0.289
-567.617	-200.000	0.022	-0.126
-566.602	-200.000	0.010	-0.432
-565.588	800.000	-0.078	0.282
-564.573	-22.114	-0.155	0.094
-563.558	216.568	-0.045	0.072
-562.544	207.865	0.110	-0.171
-561.529	800.000	0.036	0.141
-560.515	-76.189	-0.090	-0.032
-559.500	-74.602	0.269	0.097
-558.485	-98.322	-0.099	-0.025
-557.471	-132.282	-0.114	0.015
-556.456	-200.000	-0.379	0.001
-555.442	-54.412	-0.026	-0.012
-554.427	-163.544	0.219	-0.010
-553.412	384.348	0.128	0.262
-552.398	108.954	-0.231	0.275
-551.383	-142.487	0.061	0.006
-550.369	-43.581	-0.076	-0.038
-549.354	-20.649	-0.365	0.223
-548.339	-103.476	0.346	-0.081
-547.325	-52.147	-0.166	-0.077
-546.310	-75.085	0.074	-0.027
-545.296	800.000	0.024	-0.106
-544.281	215.660	0.123	-0.195
-543.266	-21.959	0.345	0.209
-542.252	649.645	-0.121	0.307
-541.237	101.841	-0.250	-0.291
-540.223	-128.063	0.320	-0.046
-539.208	-85.508	-0.243	0.075
-538.193	265.389	0.105	0.183
-537.179	13.603	0.165	-0.128
-536.164	21.008	-0.211	-0.171
-535.150	-79.262	0.267	-0.090
-534.135	155.776	-0.028	0.039
-533.121	228.447	0.038	0.062
-532.106	241.471	-0.032	0.053
-531.091	-110.484	0.201	-0.041
-530.077	15.805	-0.174	-0.136
-529.062	60.148	-0.092	-0.091
-528.048	-75.812	-0.389	0.137
-527.033	-5.613	-0.294	-0.201
-526.018	800.000	-0.021	0.065
-525.004	-200.000	0.021	-0.098
-523.989	104.512	0.071	-0.083
-522.975	-14.797	-0.140	0.090
-521.960	71.067	0.205	0.212
-520.945	800.000	-0.089	0.270
-519.931	-26.775	-0.179	0.104
-518.916	-75.244	0.309	0.110
-517.902	-200.000	-0.029	-0.146
-516.887	-123.040	-0.268	0.043
-515.872	329.440	-0.088	0.169
-514.858	-117.156	0.113	0.021
-513.843	-200.000	-0.014	0.369
-512.829	-74.293	-0.230	0.083
-511.814	-64.008	-0.217	0.088
-510.799	-200.000	-0.024	0.223
-509.785	114.488	-0.069	0.084
-508.770	283.815	0.021	-0.037
-507.756	106.282	0.304	-0.358
-506.741	-200.000	0.046	-0.226
-505.726	-63.054	-0.354	-0.146
-504.712	-90.689	-0.158	0.045
-503.697	-200.000	0.014	0.183
-502.683	-200.000	0.082	-0.597
-501.668	-200.000	-0.000	-0.223
-500.653	160.964	0.064	-0.089
-499.639	800.000	0.023	0.071
-498.624	-110.738	-0.287	-0.059
-497.610	-112.588	-0.274	0.054
-496.595	39.374	0.057	0.050
-495.581	77.068	-0.293	-0.310
-494.566	-94.504	0.272	-0.074
-493.551	-200.000	0.022	-0.097
-492.537	128.821	0.187	-0.238
-491.522	595.219	-0.038	0.094
-490.508	223.052	-0.202	0.324
-489.493	797.262	-0.131	-0.360
-488.478	800.000	0.082	-0.284
-487.464	28.977	0.181	-0.153
-486.449	75.360	0.197	0.207
-485.435	-89.415	-0.043	-0.013
-484.420	123.445	0.254	-0.317
-483.405	-28.270	-0.187	0.108
-482.391	800.000	0.034	0.098
-481.376	22.165	0.055	0.044
-480.362	-24.543	0.258	-0.153
-479.347	195.622	-0.044	-0.067
-478.332	-200.000	-0.017	0.239
-477.318	-200.000	0.051	-0.294
-476.303	-71.437	0.234	0.087
-475.289	34.733	-0.204	0.177
-474.274	-93.125	0.261	0.072
-473.259	-62.378	0.235	-0.097
-472.245	-132.015	0.325	0.042
-471.230	19.569	0.203	-0.162
-470.216	-200.000	-0.026	-0.168
-469.201	277.283	-0.018	-0.031
-468.186	542.862	0.107	0.254
-467.172	163.956	-0.105	0.147
-466.157	-200.000	0.041	-0.197
-465.143	-30.818	-0.299	-0.168
-464.128	757.739	-0.071	-0.191
-463.113	-200.000	0.038	-0.182
-462.099	800.000	0.099	-0.343
-461.084	3.486	-0.290	-0.210
-460.070	-86.835	0.208	0.063
-459.055	456.502	-0.080	0.177
-458.040	126.865	0.149	0.187
-457.026	-72.846	0.225	-0.082
-456.011	-107.778	-0.322	-0.070
-454.997	20.024	-0.293	0.235
-453.982	697.412	-0.060	-0.157
-452.968	-200.000	0.015	0.073
-451.953	154.475	-0.094	0.128
-450.938	800.000	-0.022	-0.093
-449.924	27.164	-0.135	0.113
-448.909	192.399	-0.136	0.203
-447.895	-41.227	-0.325	0.166
-446.880	-200.000	0.017	0.269
-445.865	-200.000	-0.009	0.113
-444.851	-66.643	-0.371	0.146
-443.836	800.000	0.094	-0.391
-442.822	-200.000	0.014	0.183
-441.807	-200.000	-0.035	-0.156
-440.792	-64.144	0.208	-0.084
-439.778	14.085	0.294	0.227
-438.763	82.644	0.187	0.202
-437.749	-104.024	0.062	0.014
-436.734	-10.076	0.143	-0.095
-435.719	-104.030	-0.356	0.082
-434.705	-107.711	0.222	-0.048
-433.690	-30.787	0.102	0.057
-432.676	-69.437	0.251	-0.096
-431.661	800.000	-0.038	-0.139
-430.646	800.000	-0.131	-0.383
-429.632	249.035	-0.023	0.038
-428.617	454.342	0.034	-0.074
-427.603	418.968	-0.046	-0.097
-426.588	477.917	0.151	-0.339
-425.573	-197.158	0.268	0.002
-424.559	-42.169	0.345	-0.175
-423.544	65.237	-0.079	-0.079
-422.530	-112.583	-0.258	-0.051
-421.515	120.292	0.072	0.089
-420.500	218.247	0.108	-0.170
-419.486	-167.722	-0.206	0.008
-418.471	369.445	-0.176	0.353
-417.457	-111.479	-0.235	-0.047
-416.442	27.404	0.147	0.122
-415.428	-6.777	-0.262	0.177
-414.413	43.822	0.106	0.096
-413.398	800.000	0.030	-0.088
-412.384	800.000	0.020	0.072
-411.369	165.476	-0.017	-0.024
-410.355	241.563	-0.088	-0.147
-409.340	-0.826	0.268	0.188
-408.325	-200.000	0.287	0.000
-407.311	221.123	0.158	0.251
-406.296	-200.000	-0.020	-0.240
-405.282	-14.068	-0.162	-0.104
-404.267	466.360	0.115	-0.256
-403.252	-200.000	0.200	0.001
-402.238	-118.119	-0.122	-0.022
-401.223	-43.084	0.212	0.106
-400.209	38.741	-0.163	0.144
-399.194	260.473	0.084	0.143
-398.179	-157.158	-0.240	0.014
-397.165	142.125	-0.028	0.036
-396.150	546.712	-0.024	-0.056
-395.136	96.519	0.075	-0.085
-394.121	-28.855	0.470	0.267
-393.106	136.172	-0.030	0.039
-392.092	354.571	0.146	0.288
-391.077	40.410	-0.249	0.222
-390.063	95.671	-0.037	0.041
-389.048	-200.000	0.052	0.346
-388.033	76.377	-0.046	0.048
-387.019	-152.160	0.191	0.014
-386.004	-157.950	-0.387	0.023
-384.990	-57.009	0.066	0.029
-383.975	4.737	0.258	0.188
-382.960	-29.363	-0.213	-0.121
-381.946	-38.694	-0.297	-0.155
-380.931	-54.239	0.226	-0.102
-379.917	151.731	0.191	0.258
-378.902	-30.582	-0.083	0.046
-377.888	133.588	-0.176	0.225
-376.873	800.000	-0.064	-0.212
-375.858	-50.748	0.085	0.040
-374.844	-200.000	0.006	0.087
-373.829	-156.759	0.162	-0.010
-372.815	-36.148	-0.370	-0.198
-371.800	-200.000	0.006	0.098
-370.785	-29.956	-0.175	-0.098
-369.771	-200.000	0.053	0.317
-368.756	-119.531	-0.199	-0.034
-367.742	100.602	-0.062	-0.071
-366.727	-138.743	0.082	0.009
-365.712	125.855	-0.249	0.311
-364.698	-200.000	0.029	0.217
-363.683	85.831	0.289	0.315
-362.669	460.267	0.226	0.499
-361.654	-58.043	-0.065	-0.028
-360.639	114.179	-0.106	-0.127
-359.625	-200.000	-0.034	-0.280
-358.610	-106.128	-0.050	-0.011
-357.596	1.125	-0.161	0.114
-356.581	-134.030	-0.150	-0.018
-355.566	-200.000	-0.052	0.343
-354.552	37.382	-0.043	-0.037
-353.537	-8.015	0.610	0.407
-352.523	800.000	0.084	-0.269
-351.508	-200.000	0.017	-0.120
-350.493	432.270	0.060	0.128
-349.479	-106.848	-0.089	-0.020
-348.464	-200.000	0.041	0.257
-347.450	-82.483	0.153	-0.049
-346.435	-133.098	0.363	0.045
-345.420	99.887	0.017	-0.020
-344.406	-137.551	0.215	-0.024
-343.391	359.683	-0.147	-0.290
-342.377	-159.193	0.220	0.012
-341.362	-162.275	-0.276	-0.014
-340.348	800.000	0.085	0.301
-339.333	-74.996	0.097	-0.035
-338.318	-200.000	0.018	0.344
-337.304	-104.568	0.225	0.051
-336.289	245.319	0.084	-0.140
-335.275	669.538	0.100	-0.255
-334.260	-16.361	0.112	-0.070
-333.245	800.000	-0.067	0.211
-332.231	-173.101	-0.174	-0.005
-331.216	-176.573	-0.214	-0.005
-330.202	177.930	-0.043	-0.062
-329.187	309.223	-0.029	-0.053
-328.172	488.978	-0.127	0.287
-327.158	-83.892	-0.311	-0.098
-326.143	-60.454	0.196	0.082
-325.129	299.338	0.124	-0.227
-324.114	-200.000	0.100	0.000
-323.099	647.012	0.100	0.252
-322.085	-176.087	0.219	0.006
-321.070	143.179	-0.088	0.116
-320.056	23.374	0.112	-0.091
-319.041	-104.392	-0.183	0.042
-318.026	13.788	-0.125	-0.096
-317.012	-97.865	0.075	-0.019
-315.997	505.150	0.103	-0.235
-314.983	800.000	-0.045	-0.166
-313.968	-16.284	-0.043	0.027
-312.953	240.085	0.101	-0.166
-311.939	-80.695	-0.156	-0.051
-310.924	-46.467	-0.019	-0.009
-309.910	235.851	-0.182	-0.297
-308.895	24.174	0.186	-0.152
-307.880	-94.368	0.236	0.064
-306.866	178.678	0.115	0.166
-305.851	-200.000	-0.036	-0.281
-304.837	-200.000	0.040	-0.196
-303.822	48.428	0.139	-0.128
-302.807	-36.766	0.228	0.121
-301.793	-200.000	-0.071	0.503
-300.778	-103.147	0.190	0.044
-299.764	-22.315	-0.396	-0.237
-298.749	-100.705	-0.386	0.094
-297.735	-149.884	0.080	-0.006
-296.720	-10.461	0.090	-0.059
-295.705	3.480	-0.234	-0.169
-294.691	504.230	-0.135	0.308
-293.676	800.000	0.025	-0.076
-292.662	-49.817	-0.178	-0.083
-291.647	95.896	-0.044	0.049
-290.632	-200.000	-0.017	0.234
-289.618	800.000	-0.016	0.045
-288.603	-125.745	-0.305	0.045
-287.589	2.781	-0.126	0.090
-286.574	800.000	0.036	-0.114
-285.559	-188.265	-0.374	-0.005
-284.545	800.000	-0.041	-0.131
-283.530	-200.000	0.002	0.038
-282.516	320.452	-0.057	0.108
-281.501	-37.844	-0.229	-0.120
-280.486	-200.000	-0.008	0.130
-279.472	342.103	-0.051	0.099
-278.457	-200.000	-0.022	-0.126
-277.443	259.399	-0.125	0.212
-276.428	-169.726	0.277	-0.010
-275.413	-112.089	-0.296	0.059
-274.399	800.000	-0.015	-0.051
-273.384	-200.000	0.027	0.167
-272.370	82.523	-0.024	0.025
-271.355	-66.424	-0.084	-0.033
-270.340	62.402	0.099	-0.098
-269.326	-89.353	-0.284	-0.082
-268.311	-144.158	-0.239	0.022
-267.297	-45.571	0.420	0.205
-266.282	-61.765	-0.129	0.053
-265.267	-39.896	0.191	0.098
-264.253	-200.000	0.026	-0.293
-263.238	-89.559	-0.288	-0.083
-262.224	800.000	0.009	0.026
-261.209	145.646	-0.064	-0.084
-260.195	-10.353	0.336	0.219
-259.180	800.000	-0.081	-0.317
-258.165	-200.000	-0.026	-0.124
-257.151	-200.000	0.037	-0.423
-256.136	-88.959	-0.126	-0.037
-255.122	800.000	-0.037	-0.109
-254.107	128.083	0.218	-0.273
-253.092	89.044	0.045	0.049
-252.078	-200.000	0.052	-0.406
-251.063	67.090	0.156	0.157
-250.049	17.923	-0.145	-0.113
-249.034	-64.164	-0.146	-0.059
-248.019	-114.498	0.043	0.008
-247.005	551.985	-0.074	-0.176
-245.990	-200.000	-0.003	-0.186
-244.976	-109.298	0.324	-0.068
-243.961	-114.123	0.291	0.055
-242.946	800.000	-0.049	-0.168
-241.932	-200.000	-0.004	-0.055
-240.917	-99.468	0.109	0.027
-239.903	-128.295	-0.136	-0.019
-238.888	57.740	0.135	-0.130
-237.873	-69.106	0.266	0.101
-236.859	9.285	-0.049	0.037
-235.844	800.000	-0.148	0.445
-234.830	-31.408	-0.030	-0.017
-233.815	136.456	-0.124	-0.159
-232.800	-125.250	-0.453	0.068
-231.786	-200.000	0.012	0.137
-230.771	-200.000	-0.001	-0.045
-229.757	-200.000	0.061	-0.288
-228.742	234.582	0.200	0.325
-227.727	-125.742	0.091	0.014
-226.713	-23.794	-0.193	0.114
-225.698	-121.808	-0.230	0.037
-224.684	530.552	-0.117	-0.273
-223.669	476.501	0.154	0.343
-222.655	-161.706	-0.126	-0.006
-221.640	-96.773	-0.124	-0.032
-220.625	241.911	0.053	-0.086
-219.611	-55.159	0.325	0.144
-218.596	67.041	0.132	0.133
-217.582	24.624	0.317	-0.258
-216.567	-200.000	-0.010	-0.193
-215.552	-7.472	0.110	0.074
-214.538	800.000	-0.128	-0.440
-213.523	374.454	-0.055	-0.110
-212.509	229.500	0.151	0.243
-211.494	400.325	0.086	0.178
-210.479	-200.000	-0.006	0.243
-209.465	-86.152	-0.063	0.019
-208.450	-7.699	-0.142	0.095
-207.436	85.123	-0.076	-0.082
-206.421	-103.680	0.361	0.083
-205.406	-200.000	0.003	0.296
-204.392	-200.000	0.047	0.204
-203.377	-67.941	-0.159	-0.061
-202.363	-200.000	-0.032	0.256
-201.348	-200.000	-0.016	-0.384
-200.333	162.235	0.056	0.078
-199.319	-103.858	0.124	0.028
-198.304	800.000	-0.121	-0.406
-197.290	800.000	0.111	0.342
-196.275	553.453	-0.076	0.180
-195.260	30.616	-0.146	0.123
-194.246	-200.000	-0.069	0.300
-193.231	-200.000	-0.014	0.084
-192.217	31.330	-0.165	-0.139
-191.202	187.329	0.190	-0.278
-190.187	195.963	-0.130	-0.194
-189.173	-1.247	0.197	0.137
-188.158	800.000	-0.049	0.157
-187.144	-177.335	0.199	-0.005
-186.129	-200.000	-0.021	-0.308
-185.114	272.729	-0.170	0.294
-184.100	-64.534	-0.021	0.009
-183.085	-54.101	-0.226	0.101
-182.071	-165.516	-0.116	0.005
-181.056	-200.000	0.009	-0.147
-180.042	-72.222	-0.247	0.090
-179.027	-17.243	0.210	0.130
-178.012	15.004	0.113	0.087
-176.998	-114.711	0.214	0.040
-175.983	-200.000	-0.027	-0.147
-174.969	44.252	0.034	-0.030
-173.954	90.886	0.238	0.262
-172.939	-69.591	0.042	-0.016
-171.925	220.481	0.139	0.219
-170.910	90.163	0.285	-0.313
-169.896	-4.339	-0.308	0.209
-168.881	151.177	-0.058	0.077
-167.866	-96.839	0.074	0.019
-166.852	466.943	-0.148	0.325
-165.837	107.338	0.290	0.339
-164.823	-200.000	0.045	-0.474
-163.808	-28.878	0.158	-0.089
-162.793	-10.549	0.161	0.105
-161.779	54.637	0.235	-0.223
-160.764	-48.572	0.265	-0.125
-159.750	267.653	-0.173	-0.298
-158.735	-83.527	-0.338	0.106
-157.720	434.516	0.113	-0.241
-156.706	196.891	-0.081	0.122
-155.691	-200.000	-0.003	-0.055
-154.677	7.136	0.072	-0.052
-153.662	-198.627	-0.066	0.000
-152.647	239.069	-0.203	0.331
-151.633	-98.112	-0.071	0.018
-150.618	-84.812	0.220	0.068
-149.604	498.965	-0.023	0.052
-148.589	-70.969	-0.168	0.062
-147.574	-200.000	-0.068	0.355
-146.560	-67.857	0.283	0.108
-145.545	-35.650	-0.113	-0.060
-144.531	384.041	-0.073	0.147
-143.516	498.835	0.082	0.186
-142.502	-164.009	-0.165	-0.008
-141.487	269.214	0.275	0.474
-140.472	-47.066	0.185	0.089
-139.458	-117.284	-0.156	-0.028
-138.443	204.234	-0.027	0.041
-137.429	-99.788	-0.119	0.029
-136.414	-200.000	0.008	0.046
-135.399	-39.490	0.048	-0.025
-134.385	-200.000	-0.045	-0.450
-133.370	28.240	-0.321	-0.266
-132.356	241.803	0.104	0.170
-131.341	86.626	0.169	-0.183
-130.326	103.106	-0.020	-0.023
-129.312	139.776	0.214	0.276
-128.297	-65.524	-0.115	0.045
-127.283	467.293	-0.097	-0.213
-126.268	-91.526	0.378	0.106
-125.253	-170.625	-0.068	0.002
-124.239	-84.459	0.332	0.103
-123.224	159.801	-0.055	0.075
-122.210	285.213	-0.060	-0.106
-121.195	-200.000	0.025	0.374
