DTS Sentinel unit serial number:	SN413079Multiplexer serial number:	ORYXHardware model number:	OX4-SRSoftware version number:	ORYX F/W v4.00 Oryx Data Collector v3.7.2.0data status	okinstallation	princeton_trtdifferential loss correction	single-endedforward channel	channel 1reverse channel	N/Adate	2019/09/15time	03:42:35forward acquisition time	60.00reverse acquisition time	0.00gamma	496.2192k internal	0.2324k external	0.2324temperature offset calibration	0.9985default loss term (dB/km)	0.3790temperature slope calibration	1.0000multiplexer offset coefficient	1.0000multiplexer slope coefficient	1.0000fibre end	0.00T internal ref (°C)	30.98T ext. ref 1 (°C)	4.60T ext. ref 2 (°C)	25.89length (m)	temperature (°C)	Stokes	anti-Stokes-747.200	207.917	-0.141	0.223
-746.185	-41.223	-0.077	0.040
-745.171	-200.000	-0.011	0.184
-744.156	-68.885	0.370	-0.144
-743.142	200.277	0.098	-0.151
-742.127	-200.000	-0.076	-0.338
-741.112	205.664	0.151	0.236
-740.098	800.000	0.065	-0.196
-739.083	-56.074	0.240	-0.108
-738.069	24.431	-0.240	0.200
-737.054	-96.435	0.148	-0.039
-736.039	125.787	-0.142	-0.181
-735.025	8.017	-0.206	0.156
-734.010	85.220	0.209	0.232
-732.996	-23.319	0.082	-0.049
-731.981	-27.887	-0.073	-0.043
-730.966	785.197	-0.074	-0.204
-729.952	58.703	-0.250	-0.248
-728.937	354.126	-0.086	0.172
-727.923	-194.517	-0.366	0.003
-726.908	-75.447	0.165	-0.059
-725.894	110.347	0.094	-0.113
-724.879	-29.819	0.233	-0.134
-723.864	-106.660	-0.144	0.032
-722.850	39.788	-0.228	-0.206
-721.835	-200.000	-0.005	-0.089
-720.821	-6.190	-0.157	0.108
-719.806	41.682	-0.556	-0.508
-718.791	21.498	-0.042	-0.034
-717.777	-200.000	0.029	-0.322
-716.762	-161.939	-0.420	-0.021
-715.748	-200.000	0.009	0.239
-714.733	263.510	0.115	-0.202
-713.718	-8.400	0.310	0.210
-712.704	-200.000	-0.010	-0.062
-711.689	-152.978	0.262	-0.019
-710.675	179.843	-0.057	-0.085
-709.660	628.752	0.102	0.260
-708.645	-200.000	-0.044	0.293
-707.631	-200.000	0.024	0.135
-706.616	209.093	0.160	-0.252
-705.602	-166.021	0.189	0.008
-704.587	730.511	-0.113	0.305
-703.572	-76.558	0.291	-0.103
-702.558	-200.000	0.046	-0.230
-701.543	-24.133	-0.242	-0.146
-700.529	65.227	-0.028	-0.028
-699.514	-64.400	-0.143	-0.059
-698.499	-57.979	-0.176	0.077
-697.485	77.761	0.103	0.111
-696.470	-131.653	0.286	0.038
-695.456	-142.749	0.192	-0.019
-694.441	-155.381	0.261	0.017
-693.426	-200.000	0.049	-0.295
-692.412	140.236	-0.098	0.130
-691.397	-9.933	0.205	0.137
-690.383	659.450	-0.137	-0.355
-689.368	-200.000	-0.043	-0.313
-688.354	658.311	-0.048	-0.125
-687.339	800.000	-0.049	0.209
-686.324	-70.896	0.230	-0.087
-685.310	-92.332	-0.247	-0.070
-684.295	-97.862	-0.136	0.035
-683.281	-150.132	-0.124	-0.010
-682.266	27.542	-0.255	-0.216
-681.251	-48.255	-0.212	0.103
-680.237	-123.102	0.107	-0.017
-679.222	511.022	0.147	0.344
-678.208	-200.000	0.029	0.206
-677.193	-26.743	-0.322	-0.190
-676.178	-28.313	-0.194	-0.112
-675.164	213.875	-0.127	-0.202
-674.149	-200.000	0.048	0.499
-673.135	92.312	0.253	0.287
-672.120	191.870	0.050	-0.075
-671.105	800.000	-0.028	0.089
-670.091	800.000	-0.047	-0.136
-669.076	800.000	-0.036	-0.153
-668.062	-10.594	-0.255	0.170
-667.047	-50.493	-0.280	-0.133
-666.032	-99.691	0.234	0.059
-665.018	-28.995	-0.105	-0.061
-664.003	15.628	-0.240	-0.190
-662.989	-55.204	-0.430	0.195
-661.974	800.000	0.114	-0.395
-660.959	-57.577	0.098	-0.043
-659.945	207.125	-0.210	-0.329
-658.930	-200.000	-0.045	-0.222
-657.916	-200.000	-0.004	-0.049
-656.901	-200.000	-0.010	-0.066
-655.886	-35.848	0.212	-0.115
-654.872	474.402	-0.027	-0.062
-653.857	-4.984	0.273	0.189
-652.843	168.653	-0.201	-0.289
-651.828	800.000	0.063	-0.243
-650.814	-200.000	-0.015	-0.145
-649.799	-200.000	0.037	-0.271
-648.784	800.000	-0.069	0.271
-647.770	-66.355	-0.206	0.082
-646.755	234.499	-0.179	-0.298
-645.741	0.143	-0.172	0.123
-644.726	-200.000	0.039	-0.304
-643.711	60.961	-0.424	-0.424
-642.697	800.000	0.120	-0.363
-641.682	425.326	-0.159	-0.345
-640.668	219.487	0.154	-0.248
-639.653	268.205	0.104	0.183
-638.638	315.306	-0.105	0.199
-637.624	800.000	0.132	0.445
-636.609	-59.985	-0.037	-0.016
-635.595	-35.158	-0.075	0.041
-634.580	-26.400	0.023	0.014
-633.565	166.345	0.214	-0.305
-632.551	-154.348	-0.279	0.019
-631.536	-43.404	0.245	-0.125
-630.522	94.217	0.121	0.139
-629.507	565.274	-0.061	0.148
-628.492	39.808	-0.067	-0.060
-627.478	233.432	-0.158	-0.261
-626.463	-57.034	0.195	-0.086
-625.449	39.339	-0.303	-0.272
-624.434	95.748	0.071	-0.082
-623.419	25.448	-0.080	0.067
-622.405	186.874	-0.178	-0.267
-621.390	24.711	0.205	0.170
-620.376	-195.555	-0.117	0.001
-619.361	-103.676	-0.386	0.091
-618.346	-200.000	-0.123	0.000
-617.332	-200.000	-0.029	-0.320
-616.317	720.406	0.159	0.424
-615.303	-2.422	0.145	-0.102
-614.288	-0.048	-0.242	0.173
-613.273	-168.890	-0.196	0.007
-612.259	-200.000	0.005	0.205
-611.244	-200.000	-0.020	-0.422
-610.230	30.127	-0.111	0.095
-609.215	45.616	-0.136	-0.127
-608.201	349.881	-0.034	0.068
-607.186	30.699	0.174	-0.150
-606.171	78.612	-0.189	0.203
-605.157	-66.364	0.243	-0.097
-604.142	-162.809	-0.243	-0.012
-603.128	-38.069	-0.088	-0.047
-602.113	-33.844	-0.245	0.136
-601.098	462.323	-0.084	0.189
-600.084	-103.293	0.232	-0.055
-599.069	-147.878	0.343	-0.029
-598.055	-200.000	-0.023	-0.213
-597.040	-14.620	0.152	-0.098
-596.025	-110.207	-0.112	-0.023
-595.011	45.441	-0.125	0.116
-593.996	420.495	0.058	-0.125
-592.982	-19.869	0.144	-0.089
-591.967	762.390	-0.146	-0.396
-590.952	-42.626	0.207	-0.106
-589.938	-128.687	0.074	0.011
-588.923	-24.726	-0.180	0.107
-587.909	-48.449	0.208	-0.100
-586.894	22.190	-0.385	-0.315
-585.879	21.102	0.228	-0.186
-584.865	320.775	0.036	0.069
-583.850	135.377	-0.105	0.136
-582.836	-98.741	0.093	0.024
-581.821	-119.472	0.131	0.023
-580.806	-48.819	-0.182	0.088
-579.792	357.757	0.071	-0.141
-578.777	-200.000	0.058	0.300
-577.763	-41.689	0.008	-0.004
-576.748	-42.858	-0.235	0.120
-575.733	5.312	-0.066	0.049
-574.719	-200.000	-0.061	-0.313
-573.704	800.000	0.033	0.093
-572.690	-97.532	-0.132	-0.034
-571.675	-105.627	-0.275	0.063
-570.661	-200.000	-0.037	-0.179
-569.646	736.830	0.051	-0.137
-568.631	800.000	0.092	-0.273
-567.617	48.373	0.198	0.186
-566.602	590.371	0.092	0.227
-565.588	9.782	0.117	-0.089
-564.573	138.864	0.176	-0.231
-563.558	55.913	0.169	-0.164
-562.544	-126.332	-0.126	-0.019
-561.529	-78.127	0.184	0.063
-560.515	-116.561	0.309	0.057
-559.500	-200.000	-0.026	0.154
-558.485	-200.000	-0.007	-0.274
-557.471	-30.141	-0.273	-0.156
-556.456	-74.106	0.345	0.125
-555.442	279.657	-0.115	-0.206
-554.427	-131.143	0.298	0.040
-553.412	-165.280	0.319	0.014
-552.398	314.670	0.087	0.164
-551.383	-134.993	0.107	0.013
-550.369	-99.805	-0.010	-0.003
-549.354	399.578	0.076	-0.159
-548.339	-107.925	0.103	-0.022
-547.325	160.707	0.144	-0.201
-546.310	561.514	0.125	0.302
-545.296	-65.611	0.244	-0.098
-544.281	-200.000	0.026	0.253
-543.266	97.546	0.129	0.149
-542.252	102.934	0.230	-0.270
-541.237	129.791	0.263	0.337
-540.223	800.000	0.046	0.159
-539.208	-42.200	-0.283	-0.145
-538.193	-33.576	-0.080	-0.044
-537.179	-108.455	0.183	0.039
-536.164	-200.000	0.018	-0.190
-535.150	643.509	0.067	0.171
-534.135	126.925	-0.013	0.016
-533.121	14.425	0.022	-0.017
-532.106	-200.000	-0.042	0.189
-531.091	22.102	0.173	-0.142
-530.077	193.778	0.181	0.274
-529.062	-5.130	0.189	0.130
-528.048	-200.000	0.495	0.002
-527.033	800.000	-0.057	-0.193
-526.018	-200.000	0.057	0.365
-525.004	-154.304	-0.223	-0.015
-523.989	-200.000	0.017	0.207
-522.975	-100.324	-0.277	-0.069
-521.960	-119.776	-0.266	0.046
-520.945	293.503	0.243	-0.445
-519.931	753.075	0.110	0.298
-518.916	-2.929	-0.166	0.116
-517.902	225.081	-0.092	0.150
-516.887	-200.000	0.029	0.219
-515.872	28.111	0.356	0.301
-514.858	26.989	-0.025	-0.021
-513.843	-103.292	0.161	-0.038
-512.829	-200.000	-0.062	0.453
-511.814	-36.364	0.202	0.109
-510.799	800.000	-0.049	-0.177
-509.785	-200.000	0.000	-0.076
-508.770	-85.453	-0.491	0.153
-507.756	10.204	-0.167	-0.127
-506.741	27.222	-0.259	-0.217
-505.726	-95.133	0.267	0.072
-504.712	-116.118	-0.174	-0.032
-503.697	93.929	0.177	0.201
-502.683	239.378	0.076	-0.127
-501.668	-66.444	-0.196	-0.078
-500.653	-200.000	0.016	0.201
-499.639	-34.805	-0.187	-0.102
-498.624	238.091	-0.097	-0.162
-497.610	-103.748	0.372	0.087
-496.595	-176.706	-0.298	-0.008
-495.581	116.670	-0.108	0.133
-494.566	306.513	-0.156	0.289
-493.551	-200.000	0.068	0.351
-492.537	523.686	0.095	0.223
-491.522	-126.484	0.148	0.022
-490.508	-3.099	-0.180	-0.125
-489.493	443.387	-0.089	0.195
-488.478	38.620	0.251	-0.224
-487.464	608.405	0.175	-0.438
-486.449	-24.391	-0.109	0.065
-485.435	294.311	0.035	-0.063
-484.420	-181.831	-0.258	-0.005
-483.405	800.000	-0.088	0.246
-482.391	-4.213	-0.231	-0.160
-481.376	-174.937	-0.224	-0.006
-480.362	-200.000	-0.001	-0.046
-479.347	-147.790	0.167	-0.014
-478.332	40.410	0.103	0.093
-477.318	-153.248	0.203	-0.014
-476.303	83.888	0.158	0.172
-475.289	22.122	0.052	0.042
-474.274	-140.428	0.114	0.012
-473.259	-200.000	0.006	-0.183
-472.245	4.976	-0.170	-0.125
-471.230	-200.000	0.050	0.241
-470.216	-179.255	-0.206	0.005
-469.201	40.900	-0.106	-0.096
-468.186	-200.000	0.042	-0.341
-467.172	-38.667	-0.431	0.227
-466.157	151.249	-0.111	0.150
-465.143	62.666	0.092	-0.092
-464.128	-5.108	0.197	-0.135
-463.113	-6.979	0.163	0.111
-462.099	-24.878	-0.090	0.053
-461.084	-200.000	0.017	0.121
-460.070	639.031	0.128	0.324
-459.055	-13.687	0.351	-0.227
-458.040	-200.000	0.020	-0.190
-457.026	-200.000	-0.063	-0.501
-456.011	486.869	-0.044	-0.100
-454.997	29.403	0.172	-0.146
-453.982	-200.000	0.037	0.310
-452.968	80.806	-0.053	0.057
-451.953	78.485	-0.189	0.202
-450.938	348.185	-0.071	0.140
-449.924	-200.000	-0.025	-0.478
-448.909	-104.889	-0.127	0.029
-447.895	395.453	-0.056	-0.116
-446.880	-164.410	-0.169	0.008
-445.865	48.383	0.308	-0.288
-444.851	183.886	0.147	0.217
-443.836	88.670	0.226	0.251
-442.822	-139.669	-0.167	-0.018
-441.807	-54.233	0.201	0.091
-440.792	495.494	-0.014	0.032
-439.778	252.207	-0.217	-0.368
-438.763	-127.469	-0.209	0.030
-437.749	-120.379	0.298	-0.051
-436.734	262.231	-0.105	-0.181
-435.719	-32.284	0.363	0.202
-434.705	-63.595	0.205	0.084
-433.690	449.929	0.046	0.102
-432.676	-200.000	0.004	0.415
-431.661	-40.133	0.102	-0.053
-430.646	-147.165	-0.209	0.018
-429.632	19.277	0.095	-0.076
-428.617	250.023	0.136	0.229
-427.603	-46.178	0.081	0.040
-426.588	-137.235	-0.457	-0.052
-425.573	-200.000	0.004	-0.181
-424.559	99.510	0.138	-0.160
-423.544	-35.910	0.166	0.089
-422.530	800.000	-0.065	-0.239
-421.515	-200.000	0.006	-0.116
-420.500	-200.000	0.056	0.248
-419.486	37.903	-0.229	-0.203
-418.471	-127.203	0.140	0.020
-417.457	762.231	0.125	0.337
-416.442	-200.000	0.059	0.377
-415.428	51.880	-0.016	0.015
-414.413	-164.427	-0.045	0.002
-413.398	-140.348	-0.120	0.012
-412.384	-200.000	-0.003	0.214
-411.369	-200.000	-0.014	0.368
-410.355	800.000	-0.053	-0.180
-409.340	-200.000	-0.041	-0.314
-408.325	32.183	0.236	0.203
-407.311	-172.768	0.032	0.001
-406.296	83.060	-0.033	-0.036
-405.282	120.907	0.195	0.241
-404.267	-57.163	0.058	-0.025
-403.252	2.691	0.155	0.112
-402.238	800.000	-0.034	-0.146
-401.223	107.256	0.120	0.142
-400.209	17.032	0.161	-0.127
-399.194	-131.358	0.160	0.021
-398.179	15.474	-0.020	0.015
-397.165	800.000	-0.031	-0.101
-396.150	684.395	-0.053	0.139
-395.136	30.621	0.205	-0.175
-394.121	68.557	-0.165	-0.168
-393.106	-200.000	0.001	-0.687
-392.092	-46.688	-0.152	0.074
-391.077	-90.002	-0.264	-0.077
-390.063	9.480	0.022	0.017
-389.048	-101.177	0.241	-0.059
-388.033	-200.000	-0.003	0.016
-387.019	76.627	0.257	-0.272
-386.004	-114.336	-0.085	-0.016
-384.990	97.230	-0.181	-0.206
-383.975	19.364	0.172	0.138
-382.960	-157.239	0.363	-0.022
-381.946	-175.938	-0.094	0.002
-380.931	-107.527	0.283	0.062
-379.917	-5.829	0.211	0.144
-378.902	-49.789	0.252	-0.119
-377.888	-90.497	0.215	0.062
-376.873	-107.857	-0.312	-0.068
-375.858	182.980	0.209	0.307
-374.844	5.256	0.053	-0.039
-373.829	-18.765	0.369	-0.229
-372.815	-69.066	-0.220	0.084
-371.800	-124.739	-0.213	-0.033
-370.785	424.502	-0.146	0.313
-369.771	-200.000	-0.008	-0.048
-368.756	-103.379	-0.071	0.017
-367.742	79.324	-0.153	-0.163
-366.727	49.062	0.224	0.209
-365.712	-122.450	-0.283	-0.046
-364.698	-200.000	-0.030	-0.175
-363.683	102.110	0.105	0.122
-362.669	117.977	-0.255	0.312
-361.654	105.587	0.018	-0.021
-360.639	-87.171	-0.343	0.104
-359.625	-119.090	0.428	0.074
-358.610	-16.482	0.157	0.099
-357.596	-121.082	0.469	-0.078
-356.581	-36.123	-0.147	0.079
-355.566	12.742	-0.542	-0.416
-354.552	-55.570	0.338	0.151
-353.537	-108.099	-0.170	-0.037
-352.523	33.152	0.395	0.340
-351.508	-200.000	-0.030	-0.235
-350.493	-147.041	0.161	-0.014
-349.479	800.000	0.032	0.119
-348.464	-147.818	0.472	-0.039
-347.450	427.342	0.052	-0.112
-346.435	-178.667	0.455	0.010
-345.420	-30.771	0.245	-0.138
-344.406	-200.000	-0.003	-0.169
-343.391	10.558	-0.099	-0.075
-342.377	-46.632	0.110	-0.054
-341.362	137.299	0.144	0.187
-340.348	-200.000	-0.061	0.344
-339.333	-29.155	0.091	-0.052
-338.318	-74.741	-0.147	0.052
-337.304	800.000	0.032	-0.103
-336.289	-200.000	0.028	-0.133
-335.275	2.275	0.168	-0.120
-334.260	96.913	0.319	0.363
-333.245	-99.902	0.046	0.011
-332.231	226.056	-0.126	-0.204
-331.216	-134.781	0.040	-0.005
-330.202	672.014	0.017	0.043
-329.187	-65.322	0.271	0.108
-328.172	410.103	0.088	0.186
-327.158	20.060	-0.349	-0.280
-326.143	-9.135	-0.170	0.113
-325.129	406.367	-0.125	-0.261
-324.114	207.631	-0.268	-0.415
-323.099	78.067	-0.171	0.181
-322.085	-88.589	0.171	-0.051
-321.070	25.320	-0.250	-0.206
-320.056	92.171	-0.209	-0.234
-319.041	-158.749	-0.180	0.010
-318.026	116.279	-0.160	0.194
-317.012	28.220	0.106	0.089
-315.997	-148.902	-0.170	0.014
-314.983	250.454	-0.171	0.288
-313.968	-76.708	0.249	-0.086
-312.953	-9.578	0.250	0.166
-311.939	92.533	0.183	0.205
-310.924	-39.377	-0.093	-0.048
-309.910	-14.209	0.214	0.137
-308.895	800.000	-0.010	0.038
-307.880	190.918	-0.184	-0.275
-306.866	161.798	-0.118	0.164
-305.851	-200.000	0.007	0.085
-304.837	-158.640	-0.118	-0.007
-303.822	370.509	-0.143	-0.287
-302.807	-118.769	-0.163	0.028
-301.793	-200.000	-0.005	-0.112
-300.778	-200.000	-0.032	0.193
-299.764	119.006	0.048	0.059
-298.749	-139.916	-0.282	-0.030
-297.735	658.282	0.014	0.037
-296.720	-200.000	0.002	0.108
-295.705	71.832	-0.135	0.139
-294.691	106.996	0.060	0.070
-293.676	-19.101	-0.380	0.234
-292.662	-99.664	0.223	0.056
-291.647	-200.000	0.028	0.150
-290.632	-131.686	0.384	-0.050
-289.618	21.886	0.129	-0.104
-288.603	-92.542	-0.055	-0.015
-287.589	-2.146	0.119	0.083
-286.574	190.921	-0.099	0.148
-285.559	800.000	0.061	-0.204
-284.545	-200.000	0.038	0.172
-283.530	-200.000	0.047	0.395
-282.516	9.354	-0.273	-0.205
-281.501	43.791	0.079	0.071
-280.486	47.758	-0.270	-0.249
-279.472	210.212	-0.092	-0.144
-278.457	-46.583	-0.352	-0.171
-277.443	143.922	-0.230	0.304
-276.428	-200.000	0.053	0.287
-275.413	381.867	-0.100	0.205
-274.399	54.581	-0.306	0.292
-273.384	-131.843	-0.025	0.003
-272.370	549.094	-0.046	-0.110
-271.355	-16.309	-0.062	-0.039
-270.340	111.496	0.297	0.355
-269.326	51.121	-0.159	0.150
-268.311	31.921	-0.076	0.065
-267.297	308.505	0.037	0.069
-266.282	-133.364	-0.365	0.046
-265.267	283.657	0.065	-0.116
-264.253	-78.912	0.424	-0.143
-263.238	-193.604	0.189	0.002
-262.224	234.331	-0.033	-0.054
-261.209	-67.694	0.225	-0.087
-260.195	-67.513	0.065	0.025
-259.180	-128.197	0.147	-0.021
-258.165	-100.924	-0.371	-0.090
-257.151	-148.469	-0.302	0.024
-256.136	-60.641	-0.267	0.112
-255.122	-104.014	-0.177	-0.041
-254.107	352.316	-0.184	-0.361
-253.092	53.486	-0.160	-0.152
-252.078	232.025	0.060	-0.097
-251.063	372.677	-0.130	-0.262
-250.049	-200.000	-0.030	-0.176
-249.034	-58.039	-0.290	0.125
-248.019	-200.000	-0.036	0.212
-247.005	800.000	-0.106	0.360
-245.990	75.595	-0.152	-0.159
-244.976	-19.109	0.169	-0.104
-243.961	-200.000	-0.004	-0.402
-242.946	-32.958	-0.128	-0.070
-241.932	-31.986	-0.086	0.048
-240.917	-102.486	-0.264	-0.062
-239.903	-31.231	-0.290	0.162
-238.888	328.704	-0.117	0.223
-237.873	-8.057	0.247	-0.165
-236.859	57.527	-0.101	0.098
-235.844	294.001	-0.038	-0.069
-234.830	-11.591	-0.058	0.038
-233.815	44.808	0.111	-0.101
-232.800	-91.055	-0.189	0.054
-231.786	800.000	0.012	0.045
-230.771	260.101	-0.030	-0.052
-229.757	800.000	-0.047	0.184
-228.742	152.544	-0.096	-0.129
-227.727	69.968	-0.176	-0.180
-226.713	-85.997	-0.379	-0.116
-225.698	272.403	-0.088	0.153
-224.684	-200.000	-0.007	-0.203
-223.669	-103.911	0.275	0.064
-222.655	-200.000	-0.000	-0.010
-221.640	80.723	0.097	0.104
-220.625	-16.014	-0.442	0.278
-219.611	133.882	0.044	-0.057
-218.596	-123.160	-0.221	-0.035
-217.582	-200.000	-0.010	-0.057
-216.567	155.371	-0.040	-0.055
-215.552	-107.433	-0.306	-0.066
-214.538	94.929	0.312	-0.352
-213.523	-200.000	-0.017	0.090
-212.509	-29.148	-0.152	-0.086
-211.494	208.064	-0.062	-0.096
-210.479	132.157	0.184	0.234
-209.465	-50.512	0.075	-0.035
-208.450	-107.372	0.228	-0.049
-207.436	800.000	-0.047	-0.171
-206.421	-94.092	0.267	0.072
-205.406	-200.000	0.028	0.255
-204.392	261.525	-0.100	-0.171
-203.377	-200.000	-0.019	-0.271
-202.363	-43.891	0.082	0.041
-201.348	800.000	0.121	-0.493
-200.333	27.852	-0.110	0.091
-199.319	-200.000	0.079	0.470
-198.304	86.585	-0.044	0.048
-197.290	-64.177	-0.255	-0.103
-196.275	-72.881	0.239	-0.087
-195.260	-200.000	-0.024	-0.354
-194.246	-157.917	-0.156	-0.009
-193.231	-153.139	-0.305	-0.021
-192.217	-88.349	0.311	-0.092
-191.202	-81.293	-0.149	0.049
-190.187	-51.551	0.052	0.024
-189.173	8.950	0.102	0.076
-188.158	-200.000	0.060	0.264
-187.144	800.000	-0.017	-0.049
-186.129	-8.430	-0.147	-0.097
-185.114	800.000	-0.094	0.322
-184.100	28.258	-0.082	0.068
-183.085	117.031	0.083	-0.101
-182.071	-119.073	-0.253	0.044
-181.056	-24.817	0.146	-0.086
-180.042	-147.480	-0.141	-0.012
-179.027	-58.275	-0.115	0.050
-178.012	-5.761	0.067	-0.045
-176.998	-31.940	0.297	0.164
-175.983	-134.915	0.097	-0.012
-174.969	377.684	-0.114	-0.229
-173.954	-41.895	0.284	0.143
-172.939	-102.002	-0.291	-0.069
-171.925	64.348	-0.334	-0.332
-170.910	-61.179	-0.212	-0.088
-169.896	61.947	0.181	0.179
-168.881	-105.173	0.141	0.032
-167.866	-161.173	-0.156	-0.008
-166.852	-78.406	0.382	-0.129
-165.837	800.000	-0.068	-0.216
-164.823	32.863	-0.074	-0.063
-163.808	-56.166	-0.119	0.052
-162.793	-114.784	-0.202	0.038
-161.779	-119.564	-0.286	0.049
-160.764	-66.791	0.094	-0.037
-159.750	481.006	-0.056	-0.125
-158.735	-109.244	0.350	0.073
-157.720	-37.375	0.317	0.167
-156.706	800.000	-0.039	0.150
-155.691	800.000	0.081	0.309
-154.677	-21.645	0.215	0.129
-153.662	648.309	0.083	0.208
-152.647	465.067	0.043	0.094
-151.633	-43.536	0.351	0.175
-150.618	-119.504	0.275	0.047
-149.604	39.118	-0.110	-0.097
-148.589	-174.098	0.284	-0.008
-147.574	-122.693	-0.117	-0.019
-146.560	-43.126	-0.268	0.134
-145.545	-200.000	-0.007	-0.170
-144.531	-124.470	0.306	0.047
-143.516	-99.684	0.143	0.035
-142.502	153.563	0.186	0.251
-141.487	-21.197	-0.250	0.150
-140.472	342.534	-0.047	-0.090
-139.458	673.948	-0.077	-0.197
-138.443	419.134	0.133	-0.280
-137.429	555.341	-0.127	0.301
-136.414	88.372	0.139	0.152
-135.399	-200.000	-0.019	0.364
-134.385	800.000	0.020	-0.066
-133.370	151.211	0.247	-0.332
-132.356	258.550	-0.073	0.124
-131.341	-200.000	-0.042	0.185
-130.326	188.365	0.259	0.381
-129.312	-103.287	0.121	-0.028
-128.297	140.022	0.020	0.026
-127.283	-200.000	-0.005	0.048
-126.268	-194.171	-0.235	0.002
-125.253	-200.000	-0.022	0.394
-124.239	-200.000	0.005	-0.041
-123.224	457.653	0.050	0.109
-122.210	230.787	0.122	0.196
-121.195	759.125	0.070	0.187
