DTS Sentinel unit serial number:	SN413079Multiplexer serial number:	ORYXHardware model number:	OX4-SRSoftware version number:	ORYX F/W v4.00 Oryx Data Collector v3.7.2.0data status	okinstallation	princeton_trtdifferential loss correction	single-endedforward channel	channel 1reverse channel	N/Adate	2019/09/12time	04:08:11forward acquisition time	60.00reverse acquisition time	0.00gamma	496.2192k internal	0.2323k external	0.2323temperature offset calibration	1.0084default loss term (dB/km)	0.3790temperature slope calibration	1.0000multiplexer offset coefficient	1.0000multiplexer slope coefficient	1.0000fibre end	0.00T internal ref (°C)	31.98T ext. ref 1 (°C)	2.22T ext. ref 2 (°C)	25.87length (m)	temperature (°C)	Stokes	anti-Stokes-747.200	-151.945	0.482	0.036
-746.185	800.000	-0.017	0.070
-745.171	138.718	0.135	-0.180
-744.156	800.000	-0.040	0.150
-743.142	63.560	0.116	-0.118
-742.127	147.850	-0.342	0.466
-741.112	36.899	0.006	-0.005
-740.098	-15.655	-0.112	0.072
-739.083	-184.997	0.015	0.000
-738.069	-16.188	0.051	-0.033
-737.054	84.083	-0.239	-0.264
-736.039	131.192	0.074	-0.095
-735.025	151.071	-0.137	0.188
-734.010	73.434	0.216	0.228
-732.996	-200.000	0.030	0.235
-731.981	-44.693	-0.113	-0.057
-730.966	800.000	-0.040	-0.159
-729.952	-29.408	0.255	-0.148
-728.937	-200.000	0.017	0.279
-727.923	-200.000	0.008	0.041
-726.908	382.481	-0.156	-0.323
-725.894	-88.600	-0.195	-0.059
-724.879	800.000	-0.067	0.245
-723.864	-110.169	0.100	0.021
-722.850	337.353	-0.141	-0.277
-721.835	4.303	0.178	-0.132
-720.821	356.140	-0.116	-0.233
-719.806	480.718	-0.117	-0.268
-718.791	213.455	0.250	-0.399
-717.777	-32.947	0.330	0.185
-716.762	200.143	0.165	-0.256
-715.748	325.550	-0.142	-0.274
-714.733	800.000	0.073	-0.279
-713.718	-200.000	-0.062	0.380
-712.704	-24.077	-0.318	-0.192
-711.689	-200.000	-0.018	0.141
-710.675	-52.173	-0.083	-0.039
-709.660	-42.505	-0.475	-0.244
-708.645	211.394	0.023	-0.036
-707.631	800.000	-0.135	-0.402
-706.616	161.485	0.159	-0.225
-705.602	51.019	0.181	0.173
-704.587	-43.328	-0.350	-0.178
-703.572	-68.512	0.297	0.116
-702.558	-83.533	-0.117	-0.038
-701.543	-200.000	0.010	-0.150
-700.529	-65.480	0.089	0.036
-699.514	-153.066	0.415	0.029
-698.499	800.000	0.101	-0.298
-697.485	190.489	-0.102	0.155
-696.470	103.559	0.149	-0.176
-695.456	0.256	-0.217	-0.156
-694.441	-200.000	0.066	-0.338
-693.426	70.963	0.091	-0.095
-692.412	165.736	-0.245	-0.349
-691.397	101.162	0.061	0.072
-690.383	-81.955	-0.228	0.075
-689.368	-171.181	-0.150	0.005
-688.354	4.084	0.045	0.033
-687.339	-136.505	0.057	-0.007
-686.324	70.191	0.185	-0.193
-685.310	-44.058	0.251	-0.127
-684.295	208.893	-0.136	0.214
-683.281	-200.000	-0.027	0.283
-682.266	-200.000	0.032	0.355
-681.251	-56.305	-0.119	-0.053
-680.237	62.520	-0.178	-0.179
-679.222	-26.894	-0.236	-0.139
-678.208	-200.000	0.053	-0.486
-677.193	104.581	0.269	-0.319
-676.178	122.127	-0.239	-0.300
-675.164	800.000	0.045	0.159
-674.149	93.494	-0.277	-0.316
-673.135	26.464	0.017	0.015
-672.120	-12.550	-0.084	-0.055
-671.105	554.310	-0.024	-0.059
-670.091	-30.783	0.021	-0.012
-669.076	-156.045	-0.228	-0.015
-668.062	-40.658	-0.420	0.219
-667.047	211.663	-0.085	0.134
-666.032	386.589	-0.167	0.348
-665.018	143.171	0.096	0.128
-664.003	800.000	0.027	-0.096
-662.989	-113.950	-0.194	0.038
-661.974	800.000	0.127	-0.408
-660.959	82.627	0.213	-0.233
-659.945	672.292	-0.127	0.332
-658.930	-133.146	0.163	-0.021
-657.916	800.000	0.054	-0.215
-656.901	-57.996	0.125	0.055
-655.886	32.279	0.060	-0.052
-654.872	-23.656	0.391	0.236
-653.857	-103.594	-0.355	-0.084
-652.843	13.801	0.198	-0.155
-651.828	800.000	-0.080	0.265
-650.814	-200.000	0.006	0.057
-649.799	-90.039	0.280	0.082
-648.784	663.157	-0.090	0.234
-647.770	82.349	-0.222	0.242
-646.755	-34.288	0.256	0.141
-645.741	-123.686	-0.134	-0.021
-644.726	-200.000	0.044	-0.213
-643.711	-200.000	-0.030	-0.154
-642.697	242.110	0.102	-0.171
-641.682	-87.946	-0.081	0.024
-640.668	-65.337	-0.166	0.067
-639.653	44.525	-0.247	-0.228
-638.638	-200.000	-0.016	-0.197
-637.624	-120.695	0.186	-0.032
-636.609	-8.463	-0.172	-0.116
-635.595	-199.409	0.328	0.002
-634.580	152.635	-0.089	-0.122
-633.565	297.406	-0.105	0.193
-632.551	363.149	-0.103	-0.209
-631.536	800.000	0.080	0.250
-630.522	530.788	0.049	-0.116
-629.507	-133.649	-0.078	0.010
-628.492	-23.134	0.147	-0.089
-627.478	800.000	-0.021	0.079
-626.463	800.000	-0.122	0.368
-625.449	-3.694	-0.104	0.073
-624.434	377.703	-0.177	0.363
-623.419	17.233	-0.270	-0.215
-622.405	-42.836	0.241	-0.123
-621.390	-34.295	0.062	-0.034
-620.376	74.789	-0.106	-0.112
-619.361	125.920	0.108	0.138
-618.346	-36.875	0.236	-0.127
-617.332	-51.464	0.161	-0.075
-616.317	15.657	0.225	-0.177
-615.303	-200.000	0.022	-0.171
-614.288	23.345	0.146	-0.120
-613.273	-200.000	-0.043	-0.210
-612.259	-200.000	0.019	-0.281
-611.244	-46.146	-0.193	-0.095
-610.230	465.252	0.060	0.134
-609.215	212.329	0.181	-0.287
-608.201	-35.362	0.109	-0.059
-607.186	-200.000	0.039	-0.213
-606.171	-200.000	-0.023	0.201
-605.157	800.000	-0.018	-0.064
-604.142	-58.378	-0.019	-0.008
-603.128	282.853	-0.061	-0.111
-602.113	605.089	-0.148	-0.371
-601.098	-22.742	0.242	-0.147
-600.084	-97.105	0.174	0.046
-599.069	208.675	0.108	-0.170
-598.055	-53.986	-0.337	-0.154
-597.040	-200.000	0.000	-0.269
-596.025	-28.842	0.064	-0.037
-595.011	-71.254	-0.060	-0.023
-593.996	-86.949	-0.115	-0.035
-592.982	-88.041	-0.064	0.019
-591.967	27.120	0.301	-0.254
-590.952	424.701	0.103	-0.222
-589.938	800.000	0.116	-0.351
-588.923	-200.000	-0.029	-0.187
-587.909	800.000	0.103	-0.367
-586.894	19.182	0.114	-0.092
-585.879	800.000	-0.113	0.383
-584.865	-143.203	0.234	-0.023
-583.850	-131.522	0.141	0.019
-582.836	-51.220	-0.128	-0.060
-581.821	800.000	-0.173	-0.568
-580.806	162.535	0.238	0.335
-579.792	-76.318	0.062	0.022
-578.777	800.000	0.108	-0.329
-577.763	-92.064	-0.085	-0.024
-576.748	315.243	-0.028	0.052
-575.733	-32.624	-0.313	0.175
-574.719	-37.725	0.235	-0.125
-573.704	170.196	0.149	0.214
-572.690	-151.809	-0.297	-0.022
-571.675	131.828	0.062	-0.080
-570.661	-127.028	0.329	-0.048
-569.646	85.709	-0.094	-0.104
-568.631	-200.000	-0.036	0.200
-567.617	-103.314	0.299	0.071
-566.602	-30.348	0.152	0.086
-565.588	-165.600	0.168	0.007
-564.573	-138.860	-0.147	-0.016
-563.558	-200.000	0.012	0.139
-562.544	12.629	0.098	-0.076
-561.529	-109.201	0.196	-0.042
-560.515	105.615	-0.069	-0.082
-559.500	58.894	-0.095	0.094
-558.485	800.000	0.095	0.286
-557.471	-0.829	0.326	0.232
-556.456	-56.030	-0.151	-0.067
-555.442	-118.619	0.249	-0.044
-554.427	239.430	-0.079	0.132
-553.412	-10.274	0.268	-0.178
-552.398	93.973	-0.035	-0.039
-551.383	-8.459	-0.302	-0.204
-550.369	800.000	-0.054	0.188
-549.354	-173.370	-0.245	0.007
-548.339	32.503	-0.092	-0.080
-547.325	-90.517	0.169	0.049
-546.310	800.000	-0.027	-0.112
-545.296	479.329	0.098	-0.222
-544.281	75.503	-0.075	0.079
-543.266	224.701	0.130	0.210
-542.252	800.000	0.059	0.169
-541.237	-120.989	0.306	0.052
-540.223	800.000	-0.104	-0.354
-539.208	800.000	0.015	-0.060
-538.193	-95.105	-0.185	-0.050
-537.179	-200.000	0.040	0.206
-536.164	-24.599	0.270	0.161
-535.150	-200.000	0.018	-0.502
-534.135	451.824	-0.135	0.298
-533.121	-200.000	0.013	-0.275
-532.106	58.397	0.062	-0.061
-531.091	126.892	0.051	-0.064
-530.077	6.423	-0.367	0.273
-529.062	-128.706	0.112	0.016
-528.048	60.518	0.217	0.215
-527.033	149.475	-0.143	0.194
-526.018	-51.519	-0.223	0.104
-525.004	655.181	0.101	0.259
-523.989	15.851	0.130	-0.103
-522.975	-160.083	-0.510	0.028
-521.960	594.635	-0.120	0.297
-520.945	-83.750	0.097	-0.031
-519.931	-58.140	0.268	-0.117
-518.916	-200.000	-0.028	-0.131
-517.902	-72.712	-0.268	-0.099
-516.887	-200.000	0.008	-0.257
-515.872	-196.002	-0.287	0.002
-514.858	153.140	0.124	0.169
-513.843	-163.819	0.315	-0.015
-512.829	-156.627	0.245	0.015
-511.814	-200.000	-0.017	0.135
-510.799	120.923	0.185	-0.230
-509.785	-54.875	0.228	-0.103
-508.770	-200.000	0.021	-0.155
-507.756	-105.831	0.319	0.072
-506.741	-112.761	0.079	0.016
-505.726	479.449	-0.048	0.109
-504.712	-200.000	-0.011	-0.090
-503.697	-200.000	0.003	-0.174
-502.683	449.179	-0.034	0.076
-501.668	72.866	-0.200	0.208
-500.653	-162.846	0.141	0.007
-499.639	-200.000	-0.009	0.159
-498.624	92.794	-0.037	0.041
-497.610	-200.000	0.008	-0.323
-496.595	-200.000	0.038	-0.188
-495.581	-200.000	-0.036	-0.292
-494.566	-187.404	-0.169	0.002
-493.551	-200.000	-0.063	-0.339
-492.537	-200.000	-0.034	-0.437
-491.522	-46.683	-0.221	0.108
-490.508	-162.987	-0.126	0.006
-489.493	-170.012	0.451	-0.016
-488.478	-132.978	0.241	0.031
-487.464	-44.397	0.198	0.099
-486.449	-200.000	-0.015	0.255
-485.435	-0.841	0.219	-0.155
-484.420	68.558	0.074	0.076
-483.405	-103.738	-0.170	0.040
-482.391	-22.460	-0.335	0.203
-481.376	256.601	0.228	-0.392
-480.362	-200.000	0.031	0.221
-479.347	237.671	-0.132	0.220
-478.332	95.260	0.277	0.316
-477.318	-170.859	-0.124	0.004
-476.303	800.000	-0.085	-0.334
-475.289	34.375	-0.094	-0.082
-474.274	-110.511	-0.208	-0.043
-473.259	16.887	0.063	-0.050
-472.245	-53.655	-0.555	-0.254
-471.230	-200.000	-0.016	-0.176
-470.216	69.390	-0.208	0.214
-469.201	800.000	-0.219	-0.604
-468.186	-200.000	0.026	-0.131
-467.172	-148.684	-0.182	0.015
-466.157	-200.000	-0.011	0.112
-465.143	800.000	0.080	-0.271
-464.128	-200.000	-0.041	0.205
-463.113	239.877	0.106	-0.176
-462.099	-200.000	0.054	-0.291
-461.084	-35.057	0.258	0.140
-460.070	135.291	0.161	0.209
-459.055	-112.960	-0.244	-0.048
-458.040	11.779	0.039	-0.030
-457.026	-127.530	0.101	-0.015
-456.011	800.000	0.049	-0.171
-454.997	-200.000	0.005	-0.203
-453.982	43.805	-0.219	0.200
-452.968	84.620	-0.140	-0.153
-451.953	202.794	-0.116	-0.179
-450.938	-167.472	0.347	-0.014
-449.924	123.498	-0.142	-0.177
-448.909	332.969	0.056	-0.109
-447.895	651.794	-0.089	-0.227
-446.880	800.000	-0.070	-0.221
-445.865	366.951	0.055	-0.110
-444.851	90.881	0.115	0.128
-443.836	-200.000	-0.025	0.126
-442.822	75.050	-0.173	0.181
-441.807	124.937	-0.111	-0.139
-440.792	-20.496	0.256	-0.157
-439.778	-200.000	0.003	0.198
-438.763	435.277	0.058	0.126
-437.749	-43.506	-0.194	0.098
-436.734	-21.339	0.217	-0.132
-435.719	99.069	0.323	0.372
-434.705	800.000	0.094	0.266
-433.690	147.835	-0.266	-0.358
-432.676	29.185	0.109	0.092
-431.661	-107.134	-0.302	0.066
-430.646	57.999	0.019	0.019
-429.632	18.065	-0.203	0.161
-428.617	-200.000	-0.030	-0.229
-427.603	-143.614	0.184	-0.017
-426.588	-200.000	-0.025	0.223
-425.573	72.136	-0.055	-0.058
-424.559	800.000	-0.147	0.529
-423.544	-200.000	-0.017	-0.264
-422.530	136.200	-0.148	-0.192
-421.515	292.387	-0.075	-0.136
-420.500	-48.889	0.184	0.088
-419.486	272.844	-0.080	0.140
-418.471	102.265	0.200	-0.233
-417.457	-99.843	0.109	-0.027
-416.442	376.225	-0.097	0.198
-415.428	61.219	0.116	0.115
-414.413	130.987	-0.121	-0.155
-413.398	-35.937	-0.236	-0.127
-412.384	198.569	0.158	-0.242
-411.369	-69.160	0.199	0.076
-410.355	-51.375	0.179	0.083
-409.340	229.154	-0.132	0.214
-408.325	-32.120	0.258	0.144
-407.311	-138.284	-0.170	0.019
-406.296	-200.000	0.019	0.457
-405.282	-78.819	-0.220	-0.075
-404.267	-156.397	-0.161	-0.010
-403.252	-71.132	-0.215	-0.081
-402.238	800.000	0.068	-0.223
-401.223	554.987	-0.089	0.214
-400.209	-175.716	-0.229	-0.006
-399.194	-47.268	-0.080	-0.039
-398.179	23.121	-0.135	-0.110
-397.165	660.159	0.014	0.036
-396.150	-65.951	-0.102	0.041
-395.136	33.656	-0.119	-0.103
-394.121	754.749	-0.047	-0.127
-393.106	-138.076	0.070	0.008
-392.092	-200.000	-0.013	-0.347
-391.077	-45.979	0.035	0.017
-390.063	-21.332	0.213	-0.130
-389.048	-70.146	0.099	-0.037
-388.033	-146.642	-0.180	0.016
-387.019	-200.000	-0.012	0.239
-386.004	-122.382	-0.009	0.001
-384.990	-86.111	-0.210	-0.065
-383.975	-200.000	0.017	0.499
-382.960	244.167	0.124	0.207
-381.946	44.723	0.253	-0.232
-380.931	-200.000	-0.010	0.333
-379.917	325.992	-0.103	0.196
-378.902	-200.000	-0.004	-0.145
-377.888	800.000	0.104	0.302
-376.873	-120.065	-0.272	0.046
-375.858	-160.965	-0.183	0.010
-374.844	-106.688	0.163	-0.036
-373.829	187.196	-0.202	-0.300
-372.815	-200.000	-0.016	-0.319
-371.800	101.506	-0.184	0.213
-370.785	-55.403	-0.251	0.112
-369.771	-71.036	-0.257	0.096
-368.756	-83.923	-0.169	0.053
-367.742	-44.704	0.078	0.039
-366.727	497.471	-0.101	0.231
-365.712	-70.585	0.387	0.146
-364.698	-100.541	-0.425	0.105
-363.683	-119.696	0.527	0.090
-362.669	410.199	-0.073	0.154
-361.654	399.911	0.073	0.153
-360.639	-200.000	0.018	-0.178
-359.625	-65.803	-0.223	0.089
-358.610	74.594	0.184	0.193
-357.596	39.404	-0.346	0.308
-356.581	38.159	-0.076	-0.067
-355.566	-200.000	-0.007	-0.080
-354.552	800.000	-0.027	0.080
-353.537	-200.000	0.016	0.206
-352.523	262.153	0.024	0.042
-351.508	16.506	-0.095	0.074
-350.493	-200.000	-0.015	-0.074
-349.479	-0.072	-0.280	-0.198
-348.464	68.609	-0.393	-0.401
-347.450	-80.202	0.177	-0.059
-346.435	800.000	0.073	0.213
-345.420	-83.458	0.055	-0.018
-344.406	-115.709	-0.404	-0.075
-343.391	-200.000	-0.039	-0.188
-342.377	-200.000	-0.058	-0.429
-341.362	800.000	-0.118	0.437
-340.348	138.111	0.077	-0.100
-339.333	-113.262	-0.071	-0.014
-338.318	-111.175	-0.071	-0.014
-337.304	-58.800	0.126	-0.054
-336.289	77.346	-0.239	-0.253
-335.275	266.613	-0.069	-0.120
-334.260	4.441	-0.078	-0.057
-333.245	-108.188	-0.103	-0.022
-332.231	800.000	-0.064	0.263
-331.216	154.685	-0.126	0.172
-330.202	-100.396	-0.144	-0.036
-329.187	-200.000	0.020	0.234
-328.172	-68.100	0.299	0.116
-327.158	7.042	0.103	-0.076
-326.143	3.313	0.267	0.193
-325.129	162.311	0.027	-0.038
-324.114	462.255	-0.121	-0.268
-323.099	3.441	-0.160	0.116
-322.085	-172.149	-0.298	0.010
-321.070	196.824	-0.253	0.383
-320.056	800.000	0.021	-0.062
-319.041	-77.889	0.189	0.065
-318.026	-200.000	0.002	0.158
-317.012	103.858	0.187	-0.219
-315.997	800.000	0.038	-0.139
-314.983	800.000	-0.025	-0.079
-313.968	-176.827	-0.269	-0.007
-312.953	-200.000	0.015	-0.227
-311.939	10.744	-0.206	0.156
-310.924	-77.824	-0.070	-0.024
-309.910	-14.695	-0.101	-0.064
-308.895	144.586	0.196	-0.260
-307.880	-177.674	0.211	0.005
-306.866	37.509	0.106	-0.093
-305.851	198.638	-0.062	0.095
-304.837	625.955	-0.024	-0.061
-303.822	41.502	0.058	0.052
-302.807	-47.008	-0.253	0.123
-301.793	-79.404	-0.292	-0.098
-300.778	404.128	0.045	0.094
-299.764	-128.651	-0.335	0.047
-298.749	800.000	-0.092	-0.294
-297.735	800.000	0.054	0.204
-296.720	-200.000	0.017	0.186
-295.705	407.189	-0.083	-0.173
-294.691	-200.000	0.010	0.139
-293.676	501.616	0.214	-0.491
-292.662	-155.587	-0.266	0.017
-291.647	-10.559	0.419	0.275
-290.632	70.643	-0.246	0.253
-289.618	-82.190	0.452	0.146
-288.603	406.982	-0.182	-0.381
-287.589	-200.000	-0.008	-0.082
-286.574	-57.622	0.261	-0.113
-285.559	-7.081	-0.015	0.010
-284.545	-95.349	-0.249	0.066
-283.530	-17.858	-0.403	-0.251
-282.516	-200.000	0.011	0.231
-281.501	-200.000	0.005	0.153
-280.486	-200.000	0.009	0.064
-279.472	-200.000	0.035	0.173
-278.457	800.000	-0.138	-0.513
-277.443	24.237	0.234	-0.192
-276.428	-6.900	-0.171	0.115
-275.413	609.293	-0.041	0.102
-274.399	-80.603	-0.212	0.070
-273.384	800.000	-0.042	0.154
-272.370	121.360	-0.268	-0.331
-271.355	-29.492	-0.131	-0.074
-270.340	800.000	-0.020	0.075
-269.326	-77.872	0.203	-0.070
-268.311	-158.473	0.099	-0.006
-267.297	-111.527	0.336	-0.068
-266.282	-52.913	-0.264	0.120
-265.267	355.756	0.116	0.230
-264.253	366.138	0.085	-0.169
-263.238	800.000	0.090	-0.385
-262.224	627.418	0.089	-0.223
-261.209	-158.775	-0.082	0.005
-260.195	206.359	-0.097	0.150
-259.180	-84.193	-0.110	0.035
-258.165	46.267	0.109	0.100
-257.151	-100.062	0.301	0.074
-256.136	-128.938	0.316	-0.044
-255.122	-124.567	0.247	-0.038
-254.107	-22.045	0.390	-0.234
-253.092	-200.000	0.001	-0.071
-252.078	-80.956	-0.074	0.024
-251.063	136.917	0.110	0.143
-250.049	-200.000	-0.009	0.313
-249.034	800.000	0.075	-0.264
-248.019	-96.128	0.045	-0.012
-247.005	-163.046	0.312	-0.015
-245.990	751.985	-0.096	0.256
-244.976	-200.000	-0.002	-0.032
-243.961	238.235	0.076	-0.125
-242.946	-39.967	0.243	0.126
-241.932	28.915	-0.310	0.261
-240.917	-140.224	-0.376	-0.039
-239.903	27.544	0.217	-0.181
-238.888	-200.000	0.034	-0.150
-237.873	-110.510	-0.284	-0.058
-236.859	61.781	-0.081	-0.080
-235.844	0.883	-0.160	-0.113
-234.830	305.016	-0.108	0.199
-233.815	-127.306	0.269	0.039
-232.800	-87.653	0.312	0.093
-231.786	-128.506	-0.103	-0.014
-230.771	-32.496	-0.141	0.078
-229.757	204.108	0.108	-0.166
-228.742	452.135	-0.109	0.239
-227.727	180.990	-0.041	-0.060
-226.713	253.800	0.062	-0.105
-225.698	-170.370	0.130	-0.005
-224.684	197.103	0.112	0.170
-223.669	3.521	0.099	-0.072
-222.655	-200.000	0.005	0.105
-221.640	291.332	-0.246	0.443
-220.625	-112.518	0.447	0.088
-219.611	-76.216	0.274	-0.096
-218.596	-200.000	-0.002	0.068
-217.582	139.037	-0.183	0.238
-216.567	567.025	0.118	0.284
-215.552	800.000	0.013	0.041
-214.538	-200.000	0.047	0.292
-213.523	-9.089	0.170	-0.112
-212.509	-200.000	0.019	0.181
-211.494	334.922	0.067	0.128
-210.479	687.340	0.022	-0.057
-209.465	-200.000	0.033	-0.174
-208.450	-176.765	0.184	0.005
-207.436	-101.658	-0.315	0.076
-206.421	-200.000	0.023	0.382
-205.406	-200.000	0.004	0.199
-204.392	80.574	-0.114	-0.122
-203.377	800.000	0.073	-0.221
-202.363	-200.000	0.024	0.279
-201.348	-147.386	-0.132	-0.011
-200.333	-200.000	-0.035	0.193
-199.319	-135.274	-0.241	-0.029
-198.304	800.000	0.065	0.239
-197.290	-104.066	0.152	0.035
-196.275	-134.263	0.141	-0.017
-195.260	-200.000	0.028	0.265
-194.246	412.739	-0.018	0.039
-193.231	-115.777	-0.414	0.077
-192.217	12.240	-0.056	-0.043
-191.202	-200.000	-0.067	0.384
-190.187	-59.060	0.132	-0.057
-189.173	-170.682	-0.133	0.005
-188.158	-114.786	-0.093	-0.018
-187.144	305.084	0.220	0.404
-186.129	-200.000	-0.062	-0.481
-185.114	-60.561	-0.278	-0.117
-184.100	-95.838	0.134	0.035
-183.085	-33.455	0.514	0.280
-182.071	-200.000	0.007	0.271
-181.056	-86.210	0.269	0.082
-180.042	-200.000	-0.014	0.204
-179.027	-59.079	-0.391	0.166
-178.012	-61.939	0.094	-0.039
-176.998	-200.000	0.002	-0.120
-175.983	-108.614	0.220	0.047
-174.969	-200.000	-0.046	0.212
-173.954	208.481	-0.052	0.081
-172.939	383.833	0.139	0.284
-171.925	800.000	-0.053	-0.205
-170.910	-200.000	-0.003	0.070
-169.896	-133.630	0.033	-0.004
-168.881	216.774	0.234	0.368
-167.866	-200.000	-0.014	0.074
-166.852	-90.921	0.240	0.068
-165.837	-200.000	0.023	-0.106
-164.823	-65.163	-0.172	-0.068
-163.808	-61.283	0.184	0.076
-162.793	-119.075	0.287	-0.050
-161.779	1.363	0.298	0.211
-160.764	800.000	-0.080	-0.284
-159.750	-88.911	-0.256	-0.075
-158.735	-69.307	0.362	-0.137
-157.720	800.000	0.024	0.077
-156.706	800.000	-0.101	-0.312
-155.691	-25.111	-0.254	0.149
-154.677	-102.041	-0.277	0.066
-153.662	39.816	0.274	0.242
-152.647	-152.987	0.055	0.004
-151.633	338.032	-0.157	0.301
-150.618	168.721	-0.125	-0.176
-149.604	-104.506	0.332	0.076
-148.589	114.703	-0.081	0.097
-147.574	223.120	-0.075	0.119
-146.560	137.659	-0.154	0.199
-145.545	-200.000	0.008	-0.234
-144.531	539.718	-0.038	-0.090
-143.516	-124.010	0.383	0.059
-142.502	28.088	0.194	0.161
-141.487	46.230	-0.184	-0.168
-140.472	-35.393	0.117	-0.063
-139.458	-98.321	-0.310	-0.078
-138.443	305.133	0.145	0.265
-137.429	297.549	-0.117	-0.213
-136.414	-200.000	0.050	0.460
-135.399	-38.508	0.235	-0.123
-134.385	-84.332	-0.031	-0.010
-133.370	-127.439	0.096	-0.014
-132.356	-14.477	0.076	-0.048
-131.341	-57.370	-0.128	0.055
-130.326	-92.688	-0.109	-0.030
-129.312	-141.623	-0.086	-0.009
-128.297	-44.871	0.086	-0.042
-127.283	-2.214	0.112	0.078
-126.268	-200.000	-0.019	0.208
-125.253	-105.399	-0.214	0.048
-124.239	-200.000	-0.007	-0.290
-123.224	-173.013	0.062	-0.002
