DTS Sentinel unit serial number:	SN413079Multiplexer serial number:	ORYXHardware model number:	OX4-SRSoftware version number:	ORYX F/W v4.00 Oryx Data Collector v3.7.2.0data status	okinstallation	princeton_trtdifferential loss correction	single-endedforward channel	channel 1reverse channel	N/Adate	2019/09/13time	02:18:35forward acquisition time	60.00reverse acquisition time	0.00gamma	496.2192k internal	0.2332k external	0.2332temperature offset calibration	1.0155default loss term (dB/km)	0.3790temperature slope calibration	1.0000multiplexer offset coefficient	1.0000multiplexer slope coefficient	1.0000fibre end	0.00T internal ref (°C)	27.53T ext. ref 1 (°C)	3.91T ext. ref 2 (°C)	22.33length (m)	temperature (°C)	Stokes	anti-Stokes-747.200	-200.000	0.027	0.155
-746.185	188.656	-0.275	0.415
-745.171	800.000	0.094	0.304
-744.156	-120.481	-0.129	0.022
-743.142	61.814	-0.129	-0.129
-742.127	-200.000	-0.005	-0.141
-741.112	465.353	0.040	0.089
-740.098	-78.066	-0.305	-0.106
-739.083	78.916	-0.069	0.074
-738.069	116.677	-0.119	0.146
-737.054	800.000	-0.022	-0.086
-736.039	-133.713	-0.087	-0.011
-735.025	-3.535	0.160	0.112
-734.010	800.000	-0.095	-0.329
-732.996	-199.214	0.157	-0.001
-731.981	18.781	-0.122	-0.098
-730.966	-66.879	0.104	0.041
-729.952	671.026	-0.172	-0.448
-728.937	-54.011	0.124	0.057
-727.923	160.340	0.092	-0.129
-726.908	52.618	0.167	-0.161
-725.894	90.814	0.141	0.159
-724.879	-96.881	-0.096	-0.025
-723.864	800.000	0.043	-0.120
-722.850	-116.975	-0.471	-0.086
-721.835	-200.000	0.021	-0.335
-720.821	-18.735	-0.254	-0.159
-719.806	-200.000	-0.088	-0.541
-718.791	-26.404	-0.139	-0.082
-717.777	-200.000	0.020	-0.463
-716.762	-200.000	0.055	-0.316
-715.748	218.975	-0.155	-0.248
-714.733	312.855	0.040	0.076
-713.718	800.000	0.058	-0.215
-712.704	308.750	0.085	0.159
-711.689	284.072	0.129	-0.234
-710.675	21.306	-0.255	0.208
-709.660	-122.270	-0.181	0.030
-708.645	423.141	-0.052	-0.111
-707.631	-30.452	0.162	-0.093
-706.616	593.825	-0.125	0.311
-705.602	-144.363	-0.055	-0.005
-704.587	-134.318	-0.389	0.048
-703.572	-200.000	0.023	-0.205
-702.558	-27.248	-0.093	0.055
-701.543	-91.391	-0.134	-0.039
-700.529	473.633	0.033	-0.074
-699.514	20.075	-0.056	-0.046
-698.499	17.614	0.275	0.220
-697.485	16.091	-0.373	-0.295
-696.470	23.117	-0.207	-0.170
-695.456	-200.000	-0.063	0.313
-694.441	-0.325	0.098	-0.070
-693.426	-200.000	-0.100	-0.487
-692.412	-112.899	0.212	-0.042
-691.397	115.647	0.120	-0.147
-690.383	118.527	-0.266	-0.330
-689.368	21.325	0.256	-0.209
-688.354	-121.570	-0.271	0.045
-687.339	-108.324	-0.184	-0.040
-686.324	800.000	-0.073	0.284
-685.310	733.769	-0.076	-0.205
-684.295	17.839	-0.109	0.087
-683.281	489.186	-0.052	0.120
-682.266	85.552	-0.046	0.050
-681.251	-141.830	-0.311	-0.031
-680.237	266.892	-0.199	0.349
-679.222	-15.012	0.203	0.131
-678.208	-52.915	-0.284	0.131
-677.193	-20.782	0.228	-0.140
-676.178	-200.000	0.005	-0.059
-675.164	91.646	0.115	0.129
-674.149	110.690	0.069	-0.084
-673.135	-30.072	-0.172	-0.098
-672.120	52.664	0.110	-0.105
-671.105	144.929	0.243	-0.326
-670.091	51.195	-0.057	0.054
-669.076	-200.000	-0.019	-0.099
-668.062	-89.590	-0.150	0.044
-667.047	170.318	0.078	-0.112
-666.032	-98.350	-0.229	-0.059
-665.018	-136.110	-0.164	0.019
-664.003	-50.399	-0.111	0.052
-662.989	20.853	-0.319	0.259
-661.974	-200.000	0.063	-0.293
-660.959	135.975	-0.078	-0.101
-659.945	-136.395	0.109	-0.013
-658.930	-23.707	-0.437	-0.263
-657.916	-112.424	0.156	0.031
-656.901	22.637	0.046	-0.038
-655.886	735.911	-0.102	-0.274
-654.872	-189.577	0.315	-0.004
-653.857	800.000	-0.080	-0.322
-652.843	-200.000	0.002	-0.541
-651.828	396.388	0.129	0.269
-650.814	800.000	-0.030	-0.102
-649.799	-143.726	0.193	-0.018
-648.784	-156.520	-0.332	0.021
-647.770	-113.834	0.448	0.087
-646.755	560.878	-0.052	-0.125
-645.741	80.321	-0.065	0.070
-644.726	265.279	-0.101	0.176
-643.711	378.865	-0.185	-0.379
-642.697	-200.000	0.039	-0.172
-641.682	24.958	0.135	0.113
-640.668	516.163	-0.079	0.186
-639.653	-18.944	0.125	-0.078
-638.638	-151.701	0.146	-0.011
-637.624	-37.765	-0.073	-0.039
-636.609	800.000	0.080	0.318
-635.595	-200.000	0.009	0.307
-634.580	-78.403	0.306	0.105
-633.565	-19.129	0.252	0.157
-632.551	79.191	-0.140	0.150
-631.536	-200.000	0.011	0.222
-630.522	-200.000	0.023	0.146
-629.507	800.000	0.031	0.107
-628.492	800.000	0.142	0.396
-627.478	-101.869	-0.319	-0.077
-626.463	-200.000	-0.037	0.452
-625.449	-157.538	-0.064	-0.004
-624.434	-75.031	0.257	0.092
-623.419	-200.000	0.034	0.215
-622.405	-112.430	0.267	0.053
-621.390	-134.726	0.232	-0.028
-620.376	-64.063	-0.375	-0.153
-619.361	-200.000	-0.064	-0.291
-618.346	-61.054	0.095	0.040
-617.332	-135.924	-0.082	0.010
-616.317	-147.537	0.355	-0.030
-615.303	25.042	-0.139	-0.115
-614.288	800.000	0.065	-0.189
-613.273	-87.527	-0.152	-0.046
-612.259	-29.642	0.206	0.118
-611.244	110.743	-0.275	0.332
-610.230	-77.201	-0.175	0.061
-609.215	-57.352	0.171	0.075
-608.201	-200.000	-0.028	0.152
-607.186	-109.934	0.307	-0.064
-606.171	6.288	-0.214	0.159
-605.157	-147.570	-0.166	0.014
-604.142	207.448	0.156	-0.244
-603.128	-63.617	-0.241	0.099
-602.113	-7.980	0.091	0.061
-601.098	-200.000	-0.008	0.180
-600.084	-200.000	0.019	0.201
-599.069	-24.874	-0.099	0.059
-598.055	38.598	0.192	0.172
-597.040	245.982	-0.011	0.018
-596.025	-71.457	-0.437	-0.164
-595.011	-103.338	-0.122	0.029
-593.996	-151.258	-0.331	0.025
-592.982	57.670	0.341	-0.333
-591.967	-54.671	0.136	0.062
-590.952	176.699	-0.247	-0.360
-589.938	800.000	0.039	-0.120
-588.923	170.453	-0.144	-0.206
-587.909	-106.829	-0.197	0.044
-586.894	-177.418	0.107	-0.003
-585.879	54.180	0.145	-0.140
-584.865	-4.316	-0.158	0.110
-583.850	77.169	0.126	-0.133
-582.836	-51.215	0.051	0.024
-581.821	130.354	-0.114	-0.146
-580.806	-43.194	-0.160	-0.081
-579.792	55.765	-0.066	-0.064
-578.777	-50.759	-0.378	-0.178
-577.763	799.960	0.069	-0.190
-576.748	-141.243	0.096	-0.010
-575.733	-22.561	0.318	-0.192
-574.719	-100.595	0.366	-0.090
-573.704	-56.736	-0.260	-0.115
-572.690	-16.815	-0.341	0.215
-571.675	44.169	0.087	-0.080
-570.661	535.526	0.079	0.187
-569.646	68.998	0.233	-0.239
-568.631	-89.832	0.157	-0.046
-567.617	800.000	0.073	-0.202
-566.602	316.384	0.079	0.149
-565.588	-200.000	0.025	0.412
-564.573	-141.041	-0.127	-0.013
-563.558	800.000	0.041	0.172
-562.544	78.169	0.234	0.249
-561.529	152.346	-0.167	0.228
-560.515	-65.774	-0.120	-0.048
-559.500	-200.000	0.016	0.082
-558.485	-13.830	-0.225	-0.145
-557.471	59.629	0.091	-0.090
-556.456	132.627	0.176	-0.227
-555.442	62.321	-0.192	-0.191
-554.427	307.881	0.107	-0.199
-553.412	800.000	-0.023	0.099
-552.398	-148.217	0.111	-0.009
-551.383	-14.710	-0.071	-0.045
-550.369	800.000	0.080	-0.229
-549.354	800.000	0.069	-0.297
-548.339	-200.000	0.012	-0.060
-547.325	84.557	-0.131	0.144
-546.310	-197.986	0.333	0.002
-545.296	83.195	-0.295	-0.320
-544.281	613.198	0.112	0.280
-543.266	396.921	0.082	0.170
-542.252	-13.080	-0.237	0.154
-541.237	75.799	-0.243	-0.257
-540.223	-200.000	0.026	-0.254
-539.208	564.771	0.090	0.218
-538.193	-200.000	0.030	-0.188
-537.179	-89.138	0.113	0.033
-536.164	-105.143	-0.354	-0.081
-535.150	-196.973	-0.266	-0.002
-534.135	8.775	0.219	-0.165
-533.121	99.964	-0.203	0.235
-532.106	-200.000	0.016	0.084
-531.091	-128.849	0.421	-0.059
-530.077	728.914	-0.055	-0.147
-529.062	-31.642	0.233	-0.130
-528.048	-52.854	-0.348	0.160
-527.033	5.346	0.067	-0.049
-526.018	373.240	-0.206	0.417
-525.004	800.000	0.082	-0.271
-523.989	-62.299	0.281	-0.117
-522.975	-1.612	0.232	0.163
-521.960	462.129	-0.136	-0.304
-520.945	-20.876	0.153	-0.093
-519.931	-99.365	-0.090	0.023
-518.916	-200.000	-0.020	0.128
-517.902	-34.778	0.171	0.093
-516.887	-200.000	0.001	-0.031
-515.872	258.258	0.052	0.089
-514.858	14.710	0.171	-0.133
-513.843	-60.046	0.160	0.068
-512.829	323.453	0.061	-0.117
-511.814	28.910	0.199	0.169
-510.799	588.316	-0.051	0.125
-509.785	-200.000	-0.014	-0.167
-508.770	95.390	0.216	-0.245
-507.756	113.925	-0.139	-0.168
-506.741	-70.047	0.330	-0.125
-505.726	330.394	0.212	-0.407
-504.712	82.486	-0.073	-0.079
-503.697	-54.057	0.342	-0.155
-502.683	15.160	0.157	-0.123
-501.668	-20.114	-0.240	-0.147
-500.653	800.000	-0.063	0.246
-499.639	800.000	0.102	0.318
-498.624	98.796	0.073	0.084
-497.610	-121.163	0.311	0.052
-496.595	-109.263	0.160	0.034
-495.581	436.025	-0.089	0.192
-494.566	-43.539	-0.223	-0.112
-493.551	85.813	-0.011	-0.012
-492.537	211.992	0.048	0.075
-491.522	-200.000	0.013	-0.180
-490.508	-47.274	-0.066	-0.032
-489.493	-200.000	-0.015	-0.075
-488.478	-200.000	-0.008	-0.067
-487.464	125.749	0.112	0.141
-486.449	-5.714	-0.134	-0.092
-485.435	-138.293	0.321	-0.035
-484.420	-108.312	-0.128	-0.027
-483.405	-200.000	0.038	0.227
-482.391	-59.418	-0.146	-0.062
-481.376	-51.204	0.226	-0.105
-480.362	4.349	-0.101	-0.074
-479.347	-200.000	-0.026	-0.169
-478.332	-146.816	0.175	0.015
-477.318	800.000	-0.061	-0.186
-476.303	84.672	-0.338	-0.369
-475.289	-31.445	0.180	0.101
-474.274	-200.000	-0.021	-0.355
-473.259	-200.000	0.087	-0.388
-472.245	433.079	-0.083	0.179
-471.230	-23.561	0.127	-0.076
-470.216	7.378	0.050	-0.038
-469.201	96.279	-0.106	0.120
-468.186	216.625	0.048	-0.077
-467.172	-200.000	-0.017	-0.292
-466.157	-98.895	-0.117	-0.030
-465.143	-1.013	-0.512	0.360
-464.128	-17.120	0.123	-0.077
-463.113	800.000	0.032	-0.108
-462.099	313.420	0.122	0.228
-461.084	59.706	0.212	0.209
-460.070	-65.241	0.282	0.113
-459.055	800.000	-0.015	0.047
-458.040	98.823	-0.319	0.367
-457.026	235.470	0.083	0.136
-456.011	-6.945	0.110	-0.075
-454.997	-162.990	0.140	0.007
-453.982	-3.157	-0.339	0.235
-452.968	-82.500	-0.249	-0.080
-451.953	-121.609	0.101	0.017
-450.938	800.000	-0.051	0.191
-449.924	399.917	0.172	-0.358
-448.909	-96.511	0.148	0.039
-447.895	-6.578	0.224	-0.152
-446.880	-200.000	0.029	0.201
-445.865	-141.905	-0.152	-0.015
-444.851	800.000	0.087	0.298
-443.836	-51.617	-0.200	-0.093
-442.822	800.000	-0.071	-0.256
-441.807	-200.000	-0.001	-0.125
-440.792	-200.000	-0.027	-0.132
-439.778	-200.000	0.007	-0.185
-438.763	-76.387	-0.297	0.104
-437.749	-4.280	0.109	0.075
-436.734	265.147	-0.125	-0.217
-435.719	-55.814	0.292	0.130
-434.705	-200.000	0.011	0.255
-433.690	-122.334	-0.239	-0.039
-432.676	800.000	0.128	-0.401
-431.661	-50.732	0.076	0.035
-430.646	-162.367	0.070	0.003
-429.632	-200.000	-0.027	-0.140
-428.617	800.000	0.054	-0.180
-427.603	1.827	0.049	-0.035
-426.588	-18.529	-0.262	0.162
-425.573	-114.150	-0.152	-0.029
-424.559	302.964	-0.123	0.226
-423.544	-71.626	0.279	0.103
-422.530	-118.203	-0.527	0.093
-421.515	800.000	0.033	-0.107
-420.500	175.836	-0.117	-0.169
-419.486	-28.685	0.292	0.167
-418.471	-154.714	0.276	-0.018
-417.457	-99.382	-0.226	0.057
-416.442	-5.241	0.093	-0.064
-415.428	242.309	0.153	-0.255
-414.413	411.923	-0.058	0.122
-413.398	-200.000	0.049	-0.368
-412.384	-200.000	0.032	-0.232
-411.369	100.526	-0.219	-0.253
-410.355	284.893	-0.132	0.236
-409.340	-146.208	-0.171	-0.015
-408.325	-54.252	-0.106	0.048
-407.311	71.725	0.301	-0.311
-406.296	-76.243	0.343	-0.120
-405.282	-38.973	-0.240	0.125
-404.267	-96.508	0.078	-0.020
-403.252	26.274	-0.035	-0.029
-402.238	4.756	-0.119	-0.087
-401.223	-20.630	-0.178	-0.109
-400.209	-89.907	0.256	0.074
-399.194	734.797	0.077	0.205
-398.179	-123.751	0.255	0.040
-397.165	333.255	-0.072	0.138
-396.150	-158.240	-0.398	0.023
-395.136	-200.000	0.013	0.189
-394.121	-1.456	-0.073	0.051
-393.106	-16.297	-0.081	-0.051
-392.092	139.115	0.078	-0.102
-391.077	448.945	0.089	-0.195
-390.063	585.516	-0.061	0.148
-389.048	-69.588	0.239	0.091
-388.033	800.000	0.059	-0.236
-387.019	-79.757	0.287	0.096
-386.004	193.174	0.220	0.330
-384.990	33.474	0.339	-0.292
-383.975	643.968	-0.023	0.059
-382.960	-200.000	0.036	-0.165
-381.946	132.054	0.118	0.151
-380.931	-79.983	-0.106	-0.035
-379.917	-200.000	-0.011	-0.086
-378.902	-143.852	-0.334	-0.031
-377.888	224.985	0.148	-0.237
-376.873	191.430	-0.080	-0.120
-375.858	71.633	-0.134	0.139
-374.844	-95.107	-0.294	-0.079
-373.829	-9.643	0.361	0.239
-372.815	267.225	-0.107	0.185
-371.800	467.554	-0.001	-0.002
-370.785	219.229	0.186	0.295
-369.771	-193.309	-0.296	0.003
-368.756	-135.608	-0.250	0.029
-367.742	-200.000	0.035	0.318
-366.727	-98.276	0.135	0.034
-365.712	741.267	-0.145	-0.385
-364.698	-200.000	0.012	-0.060
-363.683	215.559	-0.084	0.132
-362.669	172.654	0.121	-0.172
-361.654	-121.338	0.526	-0.087
-360.639	194.105	0.087	0.131
-359.625	-54.290	-0.121	-0.054
-358.610	-200.000	-0.005	0.253
-357.596	-66.675	-0.073	0.029
-356.581	-91.173	-0.145	0.041
-355.566	-107.166	-0.082	0.018
-354.552	-200.000	-0.006	0.185
-353.537	38.478	0.127	0.112
-352.523	31.898	0.323	-0.275
-351.508	-98.720	-0.418	0.106
-350.493	120.908	-0.142	0.175
-349.479	-104.265	-0.156	-0.036
-348.464	800.000	-0.044	-0.133
-347.450	13.894	-0.257	-0.198
-346.435	793.020	-0.083	0.225
-345.420	236.212	-0.063	0.104
-344.406	-43.003	0.195	-0.098
-343.391	-80.156	0.360	0.120
-342.377	-200.000	-0.016	-0.119
-341.362	421.723	0.140	0.298
-340.348	6.625	-0.205	0.151
-339.333	127.474	-0.081	0.101
-338.318	-200.000	-0.005	-0.082
-337.304	36.546	-0.044	-0.038
-336.289	-62.618	-0.145	0.059
-335.275	800.000	0.023	-0.081
-334.260	-68.181	-0.199	0.077
-333.245	-167.487	-0.283	0.011
-332.231	93.090	0.304	-0.341
-331.216	33.950	0.096	-0.083
-330.202	-54.481	0.347	-0.156
-329.187	-36.348	-0.307	-0.164
-328.172	198.534	-0.160	-0.243
-327.158	-17.960	-0.109	0.068
-326.143	-200.000	0.027	-0.237
-325.129	-200.000	-0.037	0.242
-324.114	-149.571	0.495	-0.039
-323.099	-200.000	0.056	0.350
-322.085	-154.828	0.247	-0.016
-321.070	281.860	-0.123	-0.219
-320.056	30.663	-0.159	0.135
-319.041	-124.884	-0.165	-0.025
-318.026	-5.812	-0.211	0.143
-317.012	800.000	0.031	-0.116
-315.997	239.474	-0.157	0.258
-314.983	2.124	0.126	-0.090
-313.968	-200.000	0.064	0.291
-312.953	800.000	-0.077	0.228
-311.939	-137.566	-0.267	0.030
-310.924	11.064	-0.170	0.128
-309.910	-200.000	-0.029	0.230
-308.895	-41.252	0.099	0.051
-307.880	-98.056	-0.064	0.016
-306.866	-57.318	-0.123	0.054
-305.851	-90.704	-0.078	-0.022
-304.837	-147.229	-0.211	0.018
-303.822	8.968	-0.203	-0.151
-302.807	36.565	0.247	-0.216
-301.793	-46.306	-0.266	0.129
-300.778	34.131	0.166	0.143
-299.764	330.606	0.065	-0.124
-298.749	-200.000	0.021	0.103
-297.735	-129.270	-0.039	0.005
-296.720	-142.684	0.365	0.035
-295.705	108.953	0.123	-0.146
-294.691	8.750	-0.212	0.158
-293.676	-51.377	-0.320	-0.148
-292.662	161.166	-0.160	0.221
-291.647	-126.840	-0.345	0.050
-290.632	-200.000	-0.263	-0.001
-289.618	137.420	0.131	-0.169
-288.603	-200.000	-0.003	0.052
-287.589	-47.917	-0.231	-0.110
-286.574	79.379	0.317	-0.336
-285.559	800.000	0.057	-0.226
-284.545	-145.710	-0.186	-0.016
-283.530	-103.620	-0.096	-0.022
-282.516	-200.000	-0.042	-0.319
-281.501	443.270	-0.129	0.279
-280.486	419.552	-0.090	-0.191
-279.472	43.425	-0.380	-0.343
-278.457	-200.000	0.024	-0.400
-277.443	266.885	-0.119	0.205
-276.428	-200.000	0.087	0.000
-275.413	-21.369	0.257	0.155
-274.399	-165.129	0.155	-0.007
-273.384	-135.955	0.315	-0.037
-272.370	-103.661	-0.097	-0.023
-271.355	-200.000	-0.024	0.166
-270.340	-200.000	0.035	0.256
-269.326	44.713	-0.086	0.078
-268.311	800.000	0.013	-0.040
-267.297	48.603	-0.228	0.211
-266.282	326.668	-0.051	-0.096
-265.267	-156.020	-0.628	0.039
-264.253	-84.667	0.200	0.062
-263.238	288.231	0.101	0.181
-262.224	-116.147	0.317	0.058
-261.209	-52.729	-0.132	-0.060
-260.195	29.030	-0.159	-0.133
-259.180	151.033	0.165	0.222
-258.165	-20.486	-0.104	0.063
-257.151	-200.000	-0.007	0.235
-256.136	13.598	0.115	-0.089
-255.122	800.000	0.090	0.340
-254.107	260.109	0.033	-0.057
-253.092	-130.837	-0.267	-0.035
-252.078	800.000	0.025	-0.069
-251.063	800.000	-0.137	0.390
-250.049	-117.767	-0.288	0.051
-249.034	-57.928	-0.292	-0.126
-248.019	40.419	-0.191	-0.169
-247.005	235.134	-0.140	0.228
-245.990	-200.000	0.020	-0.186
-244.976	55.096	-0.175	-0.167
-243.961	-29.370	0.158	-0.089
-242.946	95.427	-0.206	0.232
-241.932	774.890	-0.101	-0.272
-240.917	-31.648	-0.082	0.045
-239.903	800.000	0.018	-0.053
-238.888	700.432	0.157	0.408
-237.873	-13.890	-0.059	0.037
-236.859	621.694	0.047	0.117
-235.844	-38.550	0.280	-0.146
-234.830	2.511	-0.140	-0.100
-233.815	77.309	-0.048	-0.051
-232.800	-200.000	0.069	-0.329
-231.786	-21.524	0.447	0.269
-230.771	-33.978	0.210	-0.114
-229.757	-89.663	-0.113	-0.033
-228.742	-200.000	0.008	0.048
-227.727	-132.708	0.235	-0.030
-226.713	-169.434	-0.241	-0.009
-225.698	-113.274	-0.312	0.061
-224.684	800.000	0.097	0.285
-223.669	-200.000	0.047	-0.206
-222.655	28.942	0.138	-0.116
-221.640	-42.151	0.026	0.013
-220.625	486.915	-0.126	-0.283
-219.611	800.000	0.124	0.360
-218.596	-191.482	-0.186	0.002
-217.582	-47.210	-0.061	0.029
-216.567	800.000	0.069	-0.291
-215.552	103.177	0.079	-0.091
-214.538	351.419	0.135	-0.264
-213.523	800.000	0.036	-0.146
-212.509	-200.000	0.018	-0.123
-211.494	44.702	-0.060	-0.055
-210.479	800.000	0.058	0.162
-209.465	-200.000	-0.012	0.066
-208.450	-87.942	0.232	-0.069
-207.436	-200.000	-0.030	0.144
-206.421	-77.562	-0.352	0.120
-205.406	624.126	-0.016	-0.040
-204.392	78.064	0.178	0.187
-203.377	-22.641	-0.149	0.089
-202.363	-192.085	0.179	0.002
-201.348	-72.314	-0.340	-0.124
-200.333	84.260	0.137	0.148
-199.319	-200.000	-0.020	0.335
-198.304	256.383	0.229	0.387
-197.290	50.131	0.243	-0.226
-196.275	87.733	0.298	0.325
-195.260	-83.025	-0.191	0.061
-194.246	194.812	0.140	-0.209
-193.231	720.498	-0.048	-0.125
-192.217	-94.744	-0.178	-0.048
-191.202	-47.995	0.357	0.170
-190.187	-148.066	-0.350	-0.029
-189.173	800.000	-0.074	0.235
-188.158	426.971	0.038	0.080
-187.144	740.750	0.169	-0.447
-186.129	-33.775	0.142	-0.077
-185.114	-200.000	0.119	0.574
-184.100	45.413	-0.183	-0.166
-183.085	92.774	-0.076	-0.084
-182.071	-76.208	0.370	-0.128
-181.056	-90.844	-0.141	0.040
-180.042	27.681	0.425	0.352
-179.027	329.419	-0.085	0.161
-178.012	-77.317	-0.139	0.048
-176.998	-19.785	-0.137	0.083
-175.983	800.000	0.061	-0.251
-174.969	-200.000	0.048	-0.411
-173.954	-78.099	-0.054	0.018
-172.939	134.145	0.113	-0.144
-171.925	147.201	0.188	0.249
-170.910	-200.000	-0.020	0.122
-169.896	24.441	0.328	-0.267
-168.881	800.000	-0.068	0.248
-167.866	-21.994	-0.130	0.078
-166.852	42.916	0.087	-0.078
-165.837	-46.049	-0.140	0.068
-164.823	167.637	-0.146	0.205
-163.808	143.239	-0.125	-0.164
-162.793	-86.479	-0.142	0.043
-161.779	-134.733	-0.102	0.012
-160.764	135.203	0.212	-0.271
-159.750	-200.000	0.058	-0.558
-158.735	-200.000	-0.004	-0.334
-157.720	313.127	0.074	0.137
-156.706	72.720	0.086	0.088
-155.691	396.366	0.037	-0.077
-154.677	800.000	-0.142	0.554
-153.662	412.533	-0.063	0.131
-152.647	-5.526	-0.103	-0.070
-151.633	-123.264	0.395	0.062
-150.618	800.000	-0.106	0.417
-149.604	800.000	0.053	0.216
-148.589	72.126	0.153	0.157
-147.574	-200.000	0.023	-0.149
-146.560	-24.720	-0.291	-0.170
-145.545	-200.000	0.005	0.076
-144.531	-200.000	0.022	0.274
-143.516	-33.341	0.175	0.095
-142.502	709.661	-0.025	0.066
-141.487	-140.187	0.165	0.017
-140.472	127.567	-0.086	-0.107
-139.458	800.000	-0.057	-0.235
-138.443	138.081	0.065	0.083
-137.429	-81.370	-0.227	-0.073
-136.414	-109.368	-0.320	0.067
-135.399	-200.000	-0.023	-0.155
-134.385	-138.816	-0.270	0.029
-133.370	-200.000	-0.008	0.107
-132.356	800.000	-0.025	0.076
-131.341	529.901	0.122	0.282
-130.326	206.553	-0.080	0.123
-129.312	-140.455	0.250	0.026
-128.297	-130.382	0.301	-0.040
-127.283	-27.045	0.072	0.042
-126.268	-89.429	-0.244	-0.071
-125.253	193.336	0.084	-0.125
-124.239	800.000	-0.098	0.342
-123.224	134.302	-0.113	-0.144
-122.210	-25.219	0.369	-0.215
-121.195	-88.475	-0.068	0.020
