DTS Sentinel unit serial number:	SN413079Multiplexer serial number:	ORYXHardware model number:	OX4-SRSoftware version number:	ORYX F/W v4.00 Oryx Data Collector v3.7.2.0data status	okinstallation	princeton_trtdifferential loss correction	single-endedforward channel	channel 1reverse channel	N/Adate	2019/09/13time	07:10:35forward acquisition time	60.00reverse acquisition time	0.00gamma	496.2192k internal	0.2335k external	0.2335temperature offset calibration	1.0158default loss term (dB/km)	0.3790temperature slope calibration	1.0000multiplexer offset coefficient	1.0000multiplexer slope coefficient	1.0000fibre end	0.00T internal ref (°C)	26.02T ext. ref 1 (°C)	4.14T ext. ref 2 (°C)	21.31length (m)	temperature (°C)	Stokes	anti-Stokes-747.200	-200.000	-0.022	0.233
-746.185	39.523	-0.117	-0.105
-745.171	29.314	-0.070	-0.060
-744.156	11.768	-0.242	0.187
-743.142	21.935	-0.166	-0.136
-742.127	53.529	-0.164	-0.158
-741.112	-200.000	-0.007	-0.038
-740.098	-107.641	-0.163	0.036
-739.083	-149.449	0.286	0.023
-738.069	-75.853	0.145	0.052
-737.054	-65.218	-0.344	-0.139
-736.039	11.808	-0.435	0.335
-735.025	-91.787	0.406	0.116
-734.010	-200.000	-0.011	-0.618
-732.996	-11.169	-0.186	-0.123
-731.981	-136.006	0.184	-0.022
-730.966	-69.918	-0.286	0.110
-729.952	-200.000	-0.065	-0.285
-728.937	26.425	-0.173	0.145
-727.923	195.475	-0.048	0.074
-726.908	92.521	-0.144	-0.163
-725.894	-127.706	0.143	-0.021
-724.879	150.363	-0.209	0.285
-723.864	800.000	-0.043	-0.121
-722.850	-200.000	-0.008	-0.314
-721.835	-2.559	0.244	0.172
-720.821	18.373	-0.091	0.073
-719.806	82.581	-0.144	0.157
-718.791	-134.964	0.237	0.029
-717.777	296.934	-0.191	0.351
-716.762	23.413	0.066	-0.055
-715.748	-200.000	-0.034	-0.207
-714.733	33.847	0.144	0.125
-713.718	800.000	-0.052	-0.175
-712.704	28.608	0.118	-0.100
-711.689	33.057	0.132	0.115
-710.675	800.000	0.029	0.091
-709.660	800.000	0.079	0.234
-708.645	-200.000	-0.028	-0.202
-707.631	-200.000	0.000	0.102
-706.616	-200.000	-0.017	0.228
-705.602	284.078	0.269	-0.485
-704.587	-59.824	-0.235	-0.101
-703.572	-111.968	-0.186	0.038
-702.558	-175.667	0.633	-0.017
-701.543	-128.800	0.295	0.042
-700.529	-78.865	-0.332	-0.113
-699.514	-83.018	0.182	-0.059
-698.499	-12.063	0.168	0.110
-697.485	-200.000	0.097	-0.549
-696.470	-200.000	0.213	-0.000
-695.456	-60.647	-0.318	-0.135
-694.441	356.258	-0.098	0.197
-693.426	-200.000	-0.006	-0.160
-692.412	68.678	0.119	-0.123
-691.397	-200.000	0.052	0.289
-690.383	-174.440	-0.168	0.005
-689.368	691.846	0.066	-0.172
-688.354	-90.176	0.292	0.085
-687.339	-121.639	-0.165	0.027
-686.324	-122.206	-0.271	0.044
-685.310	-90.531	-0.256	-0.074
-684.295	203.968	-0.098	0.152
-683.281	-90.932	-0.551	0.159
-682.266	-63.295	0.211	-0.087
-681.251	249.541	0.122	0.207
-680.237	800.000	0.085	0.249
-679.222	-42.107	-0.041	-0.021
-678.208	-200.000	-0.053	-0.256
-677.193	800.000	0.059	0.216
-676.178	77.123	0.317	-0.337
-675.164	-200.000	-0.025	-0.273
-674.149	208.452	-0.125	0.195
-673.135	476.656	-0.145	-0.328
-672.120	-168.557	-0.205	0.008
-671.105	800.000	-0.009	0.038
-670.091	-155.770	-0.330	-0.021
-669.076	-200.000	0.039	-0.500
-668.062	238.627	-0.021	0.035
-667.047	-39.532	-0.015	-0.008
-666.032	-119.522	-0.251	-0.044
-665.018	-155.788	-0.106	0.007
-664.003	-46.036	-0.118	-0.058
-662.989	-200.000	-0.006	0.237
-661.974	-200.000	-0.002	-0.269
-660.959	209.250	0.173	-0.272
-659.945	-200.000	-0.010	0.277
-658.930	-200.000	0.073	-0.356
-657.916	-6.575	-0.196	0.133
-656.901	-108.287	0.303	-0.065
-655.886	-71.718	-0.253	-0.094
-654.872	800.000	-0.032	0.121
-653.857	-142.594	-0.125	-0.012
-652.843	150.147	0.130	-0.177
-651.828	-111.874	0.046	-0.009
-650.814	800.000	0.074	0.240
-649.799	-154.295	-0.338	0.023
-648.784	179.406	-0.159	0.233
-647.770	-55.435	-0.314	-0.141
-646.755	263.479	0.214	0.372
-645.741	-92.504	-0.290	0.082
-644.726	-200.000	-0.025	0.190
-643.711	-200.000	-0.016	0.250
-642.697	-80.062	-0.262	-0.088
-641.682	-33.342	-0.104	-0.057
-640.668	800.000	-0.065	0.286
-639.653	30.087	0.028	-0.024
-638.638	0.502	-0.257	-0.184
-637.624	-200.000	0.010	-0.302
-636.609	-91.284	0.260	-0.075
-635.595	61.481	-0.179	0.178
-634.580	-13.224	-0.187	-0.121
-633.565	800.000	0.046	-0.153
-632.551	-198.651	0.288	0.002
-631.536	355.760	0.083	-0.166
-630.522	-55.750	0.354	0.158
-629.507	800.000	-0.074	0.315
-628.492	800.000	-0.033	0.094
-627.478	-55.162	0.050	-0.022
-626.463	-112.686	0.167	0.033
-625.449	165.706	0.046	-0.065
-624.434	116.265	0.070	0.086
-623.419	-111.673	-0.252	0.051
-622.405	-143.465	-0.148	-0.014
-621.390	-52.634	-0.136	0.063
-620.376	787.469	-0.066	-0.181
-619.361	-144.099	0.362	0.034
-618.346	-200.000	-0.030	-0.166
-617.332	-73.863	-0.224	0.081
-616.317	-200.000	-0.028	-0.199
-615.303	-16.498	0.123	-0.078
-614.288	800.000	0.059	0.165
-613.273	48.607	0.163	0.153
-612.259	-200.000	-0.048	-0.277
-611.244	599.864	0.138	-0.343
-610.230	294.261	-0.045	-0.082
-609.215	-200.000	-0.033	0.250
-608.201	376.825	0.098	-0.199
-607.186	79.916	-0.193	0.207
-606.171	-54.171	0.265	0.120
-605.157	-70.355	-0.221	-0.084
-604.142	73.134	-0.152	0.159
-603.128	-200.000	-0.055	0.568
-602.113	-137.336	-0.254	-0.029
-601.098	-136.155	0.120	0.014
-600.084	-199.263	0.087	-0.000
-599.069	-65.191	-0.206	-0.083
-598.055	-45.165	-0.318	-0.158
-597.040	2.805	-0.084	-0.061
-596.025	-200.000	0.012	-0.239
-595.011	-35.547	-0.077	-0.042
-593.996	16.735	0.189	0.150
-592.982	800.000	0.033	0.127
-591.967	-38.936	0.202	-0.106
-590.952	-101.582	0.290	0.070
-589.938	66.704	0.187	0.190
-588.923	-106.864	0.189	-0.042
-587.909	27.272	-0.204	0.171
-586.894	21.007	0.075	0.060
-585.879	800.000	0.054	0.163
-584.865	27.009	0.222	-0.186
-583.850	36.698	0.095	-0.084
-582.836	800.000	-0.019	0.064
-581.821	2.765	-0.202	0.146
-580.806	-200.000	0.037	0.423
-579.792	-200.000	-0.010	0.234
-578.777	-110.437	-0.086	-0.018
-577.763	-89.609	-0.370	0.108
-576.748	95.805	0.225	0.256
-575.733	325.533	0.108	0.207
-574.719	-36.615	-0.465	0.250
-573.704	-57.213	0.076	0.033
-572.690	-200.000	-0.055	0.355
-571.675	-116.204	0.251	0.046
-570.661	213.545	0.100	0.157
-569.646	-149.120	0.158	-0.013
-568.631	800.000	0.028	0.082
-567.617	-67.860	0.125	0.049
-566.602	800.000	-0.022	-0.097
-565.588	-97.120	-0.072	-0.019
-564.573	-8.397	-0.088	0.059
-563.558	-33.546	0.154	-0.085
-562.544	-69.317	-0.062	0.024
-561.529	-200.000	-0.062	0.273
-560.515	-200.000	0.004	-0.241
-559.500	-200.000	0.013	-0.271
-558.485	-200.000	0.015	0.079
-557.471	800.000	-0.105	-0.371
-556.456	-200.000	0.014	0.094
-555.442	-200.000	-0.023	-0.277
-554.427	-200.000	-0.009	0.276
-553.412	-35.969	0.172	0.093
-552.398	574.148	0.098	-0.239
-551.383	-164.254	0.282	-0.013
-550.369	-200.000	-0.035	-0.189
-549.354	543.164	-0.046	0.110
-548.339	-30.774	0.024	-0.013
-547.325	-94.815	0.201	-0.054
-546.310	305.875	-0.151	-0.279
-545.296	-144.362	-0.337	-0.031
-544.281	-200.000	-0.095	-0.462
-543.266	52.022	0.322	-0.306
-542.252	-198.969	-0.483	0.003
-541.237	374.009	0.169	0.343
-540.223	-90.772	0.284	-0.082
-539.208	-94.589	0.324	0.088
-538.193	610.722	0.067	-0.166
-537.179	-98.559	0.227	0.058
-536.164	-174.789	-0.239	-0.007
-535.150	120.599	-0.078	0.097
-534.135	-4.404	0.188	-0.130
-533.121	143.420	0.124	0.165
-532.106	344.126	-0.107	-0.209
-531.091	-200.000	-0.000	-0.059
-530.077	800.000	-0.081	-0.235
-529.062	800.000	0.078	-0.258
-528.048	800.000	-0.100	-0.299
-527.033	-87.509	0.229	0.069
-526.018	-105.318	0.262	-0.059
-525.004	-200.000	0.010	0.258
-523.989	800.000	0.124	0.357
-522.975	-54.260	-0.242	0.109
-521.960	37.604	-0.135	-0.119
-520.945	-200.000	0.021	-0.233
-519.931	-200.000	0.025	-0.151
-518.916	113.254	0.053	-0.064
-517.902	198.743	-0.098	-0.150
-516.887	417.764	0.207	0.440
-515.872	-200.000	0.009	-0.070
-514.858	107.418	-0.236	0.279
-513.843	-34.135	0.178	0.097
-512.829	182.949	0.091	0.134
-511.814	-200.000	-0.018	-0.322
-510.799	-22.765	0.089	0.053
-509.785	-200.000	0.042	-0.333
-508.770	-173.415	-0.094	-0.003
-507.756	-200.000	-0.055	-0.508
-506.741	800.000	0.023	-0.091
-505.726	202.377	-0.151	-0.232
-504.712	-5.902	0.094	0.064
-503.697	-3.202	-0.050	0.035
-502.683	535.975	0.068	-0.160
-501.668	-200.000	-0.005	-0.291
-500.653	24.866	0.224	0.185
-499.639	249.515	-0.051	0.086
-498.624	56.232	0.110	0.106
-497.610	-41.691	-0.060	-0.031
-496.595	82.853	-0.321	-0.348
-495.581	209.735	0.093	-0.145
-494.566	-178.764	-0.282	-0.006
-493.551	107.551	0.288	-0.341
-492.537	-46.207	0.325	0.159
-491.522	220.196	-0.069	-0.110
-490.508	111.269	-0.128	-0.153
-489.493	-151.088	0.152	0.011
-488.478	-28.354	-0.162	0.093
-487.464	366.958	-0.118	-0.236
-486.449	-138.424	0.103	0.011
-485.435	800.000	0.044	-0.164
-484.420	448.411	-0.013	0.028
-483.405	50.717	0.354	0.333
-482.391	172.780	0.151	-0.217
-481.376	738.605	-0.066	0.177
-480.362	38.830	-0.204	-0.181
-479.347	-162.524	0.243	-0.012
-478.332	-113.284	0.290	0.057
-477.318	329.942	0.111	-0.213
-476.303	40.467	-0.338	0.302
-475.289	-120.271	0.226	-0.038
-474.274	800.000	0.050	0.142
-473.259	116.353	0.127	-0.155
-472.245	48.931	-0.114	0.106
-471.230	330.224	-0.162	-0.310
-470.216	182.170	-0.061	0.089
-469.201	-154.757	-0.448	0.029
-468.186	78.263	-0.096	0.102
-467.172	-170.001	0.279	0.010
-466.157	800.000	0.034	-0.103
-465.143	-55.016	-0.194	-0.087
-464.128	-112.229	-0.277	-0.055
-463.113	195.217	0.167	0.252
-462.099	569.673	-0.100	-0.241
-461.084	-150.082	0.201	-0.015
-460.070	-198.367	-0.107	-0.001
-459.055	236.365	0.041	0.068
-458.040	-165.447	-0.287	-0.012
-457.026	800.000	0.026	-0.105
-456.011	-21.667	-0.085	-0.052
-454.997	410.490	0.070	0.148
-453.982	-200.000	-0.057	-0.290
-452.968	167.261	-0.045	0.063
-451.953	800.000	0.036	0.124
-450.938	800.000	0.014	-0.054
-449.924	-97.050	0.156	0.041
-448.909	-200.000	0.014	0.277
-447.895	71.813	-0.086	-0.089
-446.880	-72.306	0.096	0.035
-445.865	-111.319	0.325	0.066
-444.851	-200.000	0.013	0.063
-443.836	102.812	0.071	0.082
-442.822	-14.292	-0.023	0.015
-441.807	25.758	-0.071	-0.058
-440.792	-200.000	0.006	0.288
-439.778	-17.728	-0.247	-0.154
-438.763	-0.221	0.174	0.123
-437.749	-62.169	-0.293	-0.121
-436.734	-200.000	0.027	0.278
-435.719	-189.507	-0.385	0.004
-434.705	800.000	-0.114	0.319
-433.690	-200.000	-0.028	0.137
-432.676	-84.828	0.174	0.054
-431.661	-65.860	-0.280	-0.111
-430.646	600.366	-0.062	-0.153
-429.632	-145.248	0.382	0.034
-428.617	800.000	-0.096	0.377
-427.603	-200.000	0.013	0.165
-426.588	-200.000	0.007	-0.130
-425.573	-90.009	0.088	-0.026
-424.559	800.000	0.093	0.274
-423.544	-122.332	-0.321	-0.052
-422.530	-115.408	0.153	-0.029
-421.515	371.114	-0.125	0.253
-420.500	-136.455	0.267	-0.031
-419.486	-111.514	0.048	-0.010
-418.471	41.064	-0.131	0.118
-417.457	800.000	0.135	-0.428
-416.442	-25.479	-0.147	0.086
-415.428	-119.645	-0.383	0.066
-414.413	206.075	0.065	0.101
-413.398	240.109	-0.165	-0.273
-412.384	-10.240	0.060	-0.040
-411.369	-200.000	-0.013	0.067
-410.355	800.000	0.064	-0.182
-409.340	-58.733	-0.146	-0.063
-408.325	-23.111	0.143	-0.085
-407.311	800.000	0.123	-0.340
-406.296	-55.605	-0.033	-0.015
-405.282	-200.000	-0.232	-0.001
-404.267	-200.000	-0.008	0.039
-403.252	-79.508	-0.187	-0.063
-402.238	759.618	-0.100	-0.268
-401.223	-46.491	-0.126	-0.061
-400.209	508.802	-0.127	-0.294
-399.194	244.890	-0.158	0.263
-398.179	324.483	-0.102	-0.192
-397.165	-200.000	0.032	0.198
-396.150	800.000	0.023	-0.098
-395.136	800.000	-0.081	-0.313
-394.121	597.841	0.065	-0.160
-393.106	792.891	-0.065	-0.177
-392.092	800.000	-0.142	0.404
-391.077	800.000	-0.050	0.148
-390.063	-200.000	0.046	0.267
-389.048	-66.953	-0.197	-0.077
-388.033	-1.002	0.210	0.147
-387.019	-200.000	0.031	-0.229
-386.004	473.468	0.051	0.114
-384.990	-167.719	0.031	-0.001
-383.975	204.652	-0.049	0.075
-382.960	645.478	-0.006	0.014
-381.946	473.775	0.108	0.240
-380.931	91.244	-0.252	-0.280
-379.917	-121.412	0.128	-0.021
-378.902	-115.297	-0.180	0.034
-377.888	46.600	-0.069	-0.063
-376.873	-14.322	-0.326	-0.208
-375.858	-66.703	-0.395	-0.155
-374.844	-200.000	-0.046	-0.293
-373.829	206.079	0.092	-0.141
-372.815	800.000	-0.058	-0.189
-371.800	-112.540	0.093	0.018
-370.785	-200.000	0.036	-0.234
-369.771	-200.000	-0.021	-0.118
-368.756	-110.847	0.248	0.051
-367.742	156.469	-0.246	-0.336
-366.727	119.003	0.148	-0.181
-365.712	-133.826	-0.195	0.024
-364.698	413.601	0.054	-0.115
-363.683	-200.000	-0.090	-0.494
-362.669	-171.242	-0.174	-0.006
-361.654	100.366	-0.184	-0.212
-360.639	-166.453	-0.154	0.006
-359.625	265.357	0.112	0.193
-358.610	443.881	0.085	-0.185
-357.596	-7.732	-0.118	-0.079
-356.581	70.249	0.157	-0.161
-355.566	-37.889	0.177	0.093
-354.552	101.743	-0.149	0.172
-353.537	800.000	-0.044	0.170
-352.523	-143.368	0.016	-0.002
-351.508	-51.202	-0.155	0.072
-350.493	450.539	-0.049	0.106
-349.479	-200.000	0.046	-0.224
-348.464	-83.168	0.097	0.031
-347.450	-21.944	-0.148	0.089
-346.435	87.207	0.084	0.092
-345.420	-92.300	0.125	-0.035
-344.406	-96.726	-0.171	-0.045
-343.391	517.176	0.098	0.226
-342.377	36.371	-0.326	-0.285
-341.362	17.014	-0.135	-0.106
-340.348	93.994	-0.216	0.242
-339.333	-134.555	0.234	0.028
-338.318	800.000	0.064	-0.180
-337.304	-95.810	0.123	-0.032
-336.289	800.000	-0.011	-0.047
-335.275	-200.000	0.024	-0.309
-334.260	433.875	0.066	-0.142
-333.245	-200.000	0.012	-0.173
-332.231	12.206	0.069	0.052
-331.216	-42.810	0.160	0.080
-330.202	-33.211	-0.187	-0.102
-329.187	523.108	0.075	0.173
-328.172	-200.000	-0.009	0.109
-327.158	21.195	0.141	0.113
-326.143	-104.609	0.234	0.053
-325.129	-8.560	-0.165	0.109
-324.114	122.030	-0.185	0.229
-323.099	-200.000	0.002	-0.043
-322.085	573.138	-0.086	-0.207
-321.070	-133.570	-0.183	0.023
-320.056	234.657	0.041	-0.067
-319.041	42.045	0.090	-0.081
-318.026	297.851	0.122	0.221
-317.012	-154.526	-0.166	0.011
-315.997	-15.475	0.094	-0.060
-314.983	-52.469	0.073	-0.033
-313.968	-9.727	-0.245	0.162
-312.953	-75.135	0.077	0.027
-311.939	800.000	0.141	-0.580
-310.924	132.754	0.081	-0.103
-309.910	-120.415	0.018	-0.003
-308.895	173.258	0.185	0.263
-307.880	-9.836	0.120	0.079
-306.866	-91.606	-0.116	-0.033
-305.851	-200.000	0.035	0.358
-304.837	-79.085	0.178	-0.060
-303.822	-65.956	-0.125	-0.049
-302.807	9.123	0.111	-0.083
-301.793	210.495	0.193	-0.300
-300.778	-200.000	-0.012	-0.125
-299.764	-124.539	0.200	-0.031
-298.749	-156.141	-0.333	0.021
-297.735	43.009	0.240	0.216
-296.720	178.439	0.145	0.209
-295.705	69.145	0.054	-0.055
-294.691	41.527	0.161	0.144
-293.676	-66.993	0.151	0.059
-292.662	-145.245	0.212	-0.019
-291.647	-53.816	-0.160	-0.072
-290.632	800.000	0.051	-0.194
-289.618	-69.117	-0.241	-0.092
-288.603	-0.178	0.175	0.123
-287.589	-103.350	0.167	0.039
-286.574	237.024	-0.231	0.377
-285.559	-12.627	0.086	-0.055
-284.545	56.116	-0.118	-0.113
-283.530	30.850	-0.086	0.072
-282.516	9.287	0.210	-0.157
-281.501	-200.000	-0.021	-0.224
-280.486	-25.633	-0.128	-0.075
-279.472	-102.491	-0.262	0.062
-278.457	-57.115	-0.108	0.047
-277.443	-134.975	-0.038	0.005
-276.428	-20.370	0.135	0.082
-275.413	274.494	0.023	0.040
-274.399	62.474	-0.263	0.259
-273.384	60.410	0.261	0.255
-272.370	464.343	-0.028	0.061
-271.355	-109.107	0.111	0.023
-270.340	771.042	-0.044	0.118
-269.326	-101.729	-0.283	0.068
-268.311	-200.000	0.017	0.099
-267.297	62.606	-0.087	0.085
-266.282	-101.637	0.124	0.030
-265.267	-60.657	0.254	0.106
-264.253	-200.000	0.033	-0.226
-263.238	660.600	0.081	0.205
-262.224	-37.936	0.160	-0.084
-261.209	-58.025	0.395	0.170
-260.195	-22.293	0.106	-0.063
-259.180	-200.000	0.022	-0.121
-258.165	800.000	0.028	0.086
-257.151	-200.000	0.069	0.320
-256.136	481.455	-0.079	-0.177
-255.122	-53.550	0.412	0.186
-254.107	16.317	-0.142	0.111
-253.092	-200.000	-0.016	-0.198
-252.078	202.998	0.068	-0.104
-251.063	338.719	0.081	-0.155
-250.049	215.473	-0.135	-0.211
-249.034	-90.713	0.174	-0.050
-248.019	-89.647	-0.165	0.048
-247.005	-26.340	0.350	0.202
-245.990	386.801	-0.017	0.035
-244.976	-200.000	0.011	-0.236
-243.961	-140.239	-0.118	-0.012
-242.946	68.200	0.058	-0.059
-241.932	507.299	-0.021	-0.048
-240.917	-114.662	0.352	0.066
-239.903	-70.201	-0.208	0.078
-238.888	19.057	0.121	-0.095
-237.873	35.894	0.332	0.287
-236.859	-32.750	-0.130	0.071
-235.844	-78.128	-0.029	-0.010
-234.830	-200.000	0.023	0.152
-233.815	800.000	0.104	-0.307
-232.800	269.002	0.034	0.058
-231.786	358.782	-0.060	-0.119
-230.771	-80.681	-0.141	0.046
-229.757	210.927	0.099	-0.154
-228.742	-128.821	-0.256	-0.035
-227.727	800.000	-0.050	0.165
-226.713	-70.364	0.070	-0.026
-225.698	-21.979	-0.050	0.030
-224.684	-29.990	-0.130	0.073
-223.669	140.501	-0.032	-0.042
-222.655	800.000	-0.045	0.172
-221.640	-200.000	0.013	0.140
-220.625	-108.903	0.217	0.046
-219.611	9.725	0.220	-0.165
-218.596	800.000	-0.071	-0.216
-217.582	-49.258	-0.156	-0.074
-216.567	591.177	0.111	0.269
-215.552	380.688	-0.104	0.211
-214.538	-152.026	0.075	-0.005
-213.523	-99.455	0.158	-0.039
-212.509	-0.906	0.101	0.071
-211.494	35.837	0.210	-0.182
-210.479	73.669	-0.374	-0.386
-209.465	-200.000	-0.013	0.074
-208.450	191.375	-0.119	0.176
-207.436	-53.478	0.232	-0.105
-206.421	-25.520	-0.068	0.040
-205.406	-41.475	-0.176	0.089
-204.392	713.766	-0.173	-0.451
-203.377	-51.476	-0.151	0.069
-202.363	149.510	0.101	-0.134
-201.348	-12.994	-0.182	-0.116
-200.333	-135.907	-0.154	0.018
-199.319	34.180	-0.289	0.248
-198.304	-94.278	0.147	-0.040
-197.290	246.178	0.042	-0.070
-196.275	-200.000	0.003	-0.214
-195.260	419.561	-0.143	0.301
-194.246	159.666	-0.184	0.252
-193.231	-18.183	-0.056	0.035
-192.217	-139.975	0.356	0.037
-191.202	-59.489	-0.191	0.081
-190.187	297.572	-0.141	0.255
-189.173	284.671	0.184	0.326
-188.158	-200.000	0.000	0.166
-187.144	74.165	0.140	-0.144
-186.129	109.530	0.148	0.174
-185.114	-44.335	-0.112	0.055
-184.100	222.906	-0.038	-0.061
-183.085	40.334	0.245	-0.217
-182.071	800.000	0.120	0.372
-181.056	-129.089	0.155	0.021
-180.042	695.362	-0.020	0.051
-179.027	-155.759	-0.429	0.027
-178.012	-200.000	0.089	-0.481
-176.998	161.811	0.083	-0.114
-175.983	-200.000	0.006	0.118
-174.969	-51.478	-0.383	0.176
-173.954	393.234	0.033	-0.067
-172.939	-141.913	0.299	0.029
-171.925	18.573	0.138	0.109
-170.910	-28.471	0.201	-0.114
-169.896	-98.623	-0.175	-0.044
-168.881	505.321	0.166	0.377
-167.866	-200.000	0.010	-0.323
-166.852	-96.805	0.236	0.061
-165.837	-200.000	0.015	0.175
-164.823	93.916	-0.118	-0.132
-163.808	800.000	-0.070	-0.234
-162.793	61.896	-0.249	0.244
-161.779	-192.614	0.375	0.003
-160.764	290.643	0.067	-0.119
-159.750	-200.000	0.004	0.223
-158.735	800.000	0.099	0.338
-157.720	-10.684	-0.205	0.133
-156.706	30.467	0.050	0.042
-155.691	126.574	-0.064	0.080
-154.677	637.800	-0.096	0.239
-153.662	283.667	0.049	0.086
-152.647	-200.000	0.010	-0.113
-151.633	601.168	0.091	0.222
-150.618	-200.000	-0.045	0.267
-149.604	96.481	-0.074	0.083
-148.589	257.667	-0.095	0.160
-147.574	28.345	0.146	-0.121
-146.560	-7.939	-0.178	-0.118
-145.545	-200.000	0.003	0.193
-144.531	-112.485	-0.096	-0.019
-143.516	141.437	-0.156	-0.202
-142.502	-73.866	-0.097	-0.034
-141.487	48.361	-0.110	-0.101
-140.472	678.132	0.047	-0.119
-139.458	-200.000	0.023	-0.238
-138.443	-94.729	0.302	-0.080
-137.429	800.000	-0.059	-0.186
-136.414	-44.884	0.140	0.068
-135.399	7.777	0.148	0.109
-134.385	800.000	-0.046	-0.151
-133.370	146.787	-0.140	-0.184
-132.356	24.802	-0.091	0.074
-131.341	-85.435	-0.306	0.094
-130.326	159.164	0.155	-0.212
-129.312	295.469	0.117	0.210
-128.297	800.000	-0.131	0.400
-127.283	-41.463	0.129	0.065
-126.268	-128.587	-0.053	0.007
-125.253	120.032	0.098	-0.119
-124.239	-200.000	0.017	0.164
-123.224	800.000	-0.073	0.275
-122.210	0.009	0.180	0.126
