DTS Sentinel unit serial number:	SN413079Multiplexer serial number:	ORYXHardware model number:	OX4-SRSoftware version number:	ORYX F/W v4.00 Oryx Data Collector v3.7.2.0data status	okinstallation	princeton_trtdifferential loss correction	single-endedforward channel	channel 1reverse channel	N/Adate	2019/09/18time	01:58:35forward acquisition time	60.00reverse acquisition time	0.00gamma	496.2192k internal	0.2341k external	0.2341temperature offset calibration	0.9976default loss term (dB/km)	0.3790temperature slope calibration	1.0000multiplexer offset coefficient	1.0000multiplexer slope coefficient	1.0000fibre end	0.00T internal ref (°C)	22.94T ext. ref 1 (°C)	0.17T ext. ref 2 (°C)	16.66length (m)	temperature (°C)	Stokes	anti-Stokes-747.200	15.399	0.068	0.054
-746.185	-75.814	-0.295	-0.105
-745.171	-36.563	-0.170	-0.092
-744.156	-45.756	-0.178	0.088
-743.142	277.599	0.194	0.346
-742.127	167.352	-0.239	-0.340
-741.112	-124.949	-0.072	0.011
-740.098	800.000	0.076	0.213
-739.083	259.217	0.043	0.074
-738.069	-137.876	-0.432	0.048
-737.054	800.000	0.024	-0.098
-736.039	-200.000	0.001	-0.103
-735.025	-200.000	0.013	0.114
-734.010	-168.353	-0.301	0.012
-732.996	342.451	-0.035	0.068
-731.981	-14.943	-0.188	-0.121
-730.966	-15.154	0.228	0.146
-729.952	39.496	-0.267	-0.239
-728.937	-74.765	0.153	-0.055
-727.923	193.826	-0.005	-0.008
-726.908	15.546	-0.235	-0.185
-725.894	30.006	-0.341	-0.292
-724.879	-46.688	-0.330	0.162
-723.864	207.681	-0.089	-0.140
-722.850	-49.497	-0.147	-0.070
-721.835	-55.604	-0.128	0.057
-720.821	800.000	-0.061	0.240
-719.806	9.797	-0.206	0.156
-718.791	-200.000	-0.041	-0.304
-717.777	335.788	-0.136	0.265
-716.762	-49.255	0.146	-0.070
-715.748	-108.291	0.219	-0.047
-714.733	-109.883	0.275	0.058
-713.718	-137.715	-0.428	-0.048
-712.704	43.337	0.116	0.106
-711.689	-200.000	-0.026	-0.202
-710.675	-105.619	-0.158	0.036
-709.660	-15.341	-0.098	0.062
-708.645	-200.000	-0.007	0.138
-707.631	265.650	0.050	0.087
-706.616	95.900	-0.105	-0.120
-705.602	-7.031	-0.287	-0.195
-704.587	184.179	0.189	-0.280
-703.572	114.242	-0.177	-0.215
-702.558	-5.330	-0.204	0.140
-701.543	275.601	-0.118	-0.209
-700.529	4.509	0.138	0.102
-699.514	-200.000	0.013	0.087
-698.499	-107.848	0.222	0.048
-697.485	800.000	-0.068	0.201
-696.470	41.044	0.151	0.136
-695.456	27.859	-0.063	-0.053
-694.441	800.000	0.057	-0.203
-693.426	-117.993	-0.174	0.031
-692.412	13.361	-0.270	-0.209
-691.397	-62.692	0.181	-0.075
-690.383	-200.000	-0.030	0.146
-689.368	-172.032	0.223	-0.007
-688.354	-105.550	0.077	0.018
-687.339	110.800	-0.192	0.231
-686.324	-83.674	0.143	0.046
-685.310	267.080	-0.111	0.193
-684.295	-200.000	-0.007	-0.198
-683.281	-200.000	0.064	-0.286
-682.266	-86.906	0.124	-0.038
-681.251	-8.616	-0.405	0.272
-680.237	74.739	0.066	0.069
-679.222	-79.410	0.199	0.067
-678.208	-157.731	-0.239	-0.014
-677.193	-76.484	0.332	0.117
-676.178	800.000	-0.042	0.122
-675.164	-200.000	0.028	-0.163
-674.149	-200.000	-0.037	0.384
-673.135	-98.434	0.024	-0.006
-672.120	507.472	-0.091	0.211
-671.105	11.664	-0.364	-0.279
-670.091	-105.576	-0.192	-0.043
-669.076	800.000	-0.031	-0.133
-668.062	382.904	-0.092	-0.190
-667.047	-103.566	0.270	0.063
-666.032	594.370	-0.034	-0.084
-665.018	800.000	0.072	-0.225
-664.003	203.195	0.048	-0.074
-662.989	209.588	0.129	-0.202
-661.974	-200.000	-0.036	-0.244
-660.959	-64.694	-0.174	0.070
-659.945	-104.105	-0.268	0.062
-658.930	77.764	0.194	0.207
-657.916	124.563	0.147	0.185
-656.901	248.403	0.057	-0.097
-655.886	799.942	0.077	-0.213
-654.872	92.775	-0.088	-0.100
-653.857	208.621	-0.104	0.163
-652.843	447.844	-0.106	0.233
-651.828	-7.492	-0.197	0.133
-650.814	-19.508	0.284	-0.176
-649.799	66.354	0.046	-0.047
-648.784	-49.313	-0.118	0.056
-647.770	165.169	-0.144	-0.203
-646.755	414.576	-0.034	0.072
-645.741	-122.427	-0.276	-0.045
-644.726	513.503	0.173	-0.402
-643.711	278.539	-0.242	0.430
-642.697	267.710	-0.182	0.319
-641.682	122.520	-0.032	-0.040
-640.668	800.000	0.025	0.110
-639.653	-32.218	-0.348	0.194
-638.638	-66.300	-0.320	-0.127
-637.624	-1.838	0.246	-0.173
-636.609	-200.000	-0.143	0.000
-635.595	-68.823	0.375	-0.144
-634.580	426.222	0.221	-0.475
-633.565	-55.229	0.285	-0.128
-632.551	-176.858	0.225	0.006
-631.536	-200.000	-0.016	-0.078
-630.522	-200.000	0.008	-0.069
-629.507	527.927	0.146	0.344
-628.492	-12.343	0.081	0.053
-627.478	-132.004	0.262	0.034
-626.463	-200.000	-0.016	-0.147
-625.449	42.478	0.067	0.061
-624.434	9.030	-0.117	0.088
-623.419	-200.000	0.013	-0.109
-622.405	-200.000	-0.004	0.270
-621.390	419.726	-0.034	-0.073
-620.376	52.463	0.274	-0.261
-619.361	800.000	-0.067	-0.185
-618.346	540.905	-0.158	-0.375
-617.332	-144.897	0.285	0.026
-616.317	52.367	-0.180	-0.172
-615.303	-200.000	0.023	-0.247
-614.288	-50.668	-0.387	-0.182
-613.273	-5.369	-0.118	0.081
-612.259	504.751	0.146	-0.336
-611.244	138.797	-0.059	0.078
-610.230	-111.528	-0.038	0.008
-609.215	-90.180	0.300	0.087
-608.201	-90.191	-0.164	0.048
-607.186	-44.678	0.158	-0.079
-606.171	-17.029	-0.035	0.022
-605.157	80.919	-0.188	0.202
-604.142	228.051	-0.150	-0.244
-603.128	-11.685	-0.026	-0.017
-602.113	-8.021	-0.400	-0.269
-601.098	-89.674	0.510	0.149
-600.084	-200.000	-0.019	-0.265
-599.069	329.948	-0.114	0.219
-598.055	-8.121	-0.123	-0.083
-597.040	-200.000	-0.011	0.188
-596.025	334.303	-0.138	0.267
-595.011	582.233	-0.122	-0.299
-593.996	88.934	-0.049	-0.054
-592.982	227.055	0.072	-0.117
-591.967	-25.211	-0.129	-0.076
-590.952	-64.175	0.054	-0.022
-589.938	-13.384	0.014	0.009
-588.923	-200.000	0.008	0.113
-587.909	-46.713	-0.196	-0.095
-586.894	-0.940	0.132	0.093
-585.879	-113.181	-0.149	-0.029
-584.865	-158.356	-0.253	-0.015
-583.850	-53.128	-0.219	0.100
-582.836	-129.468	0.248	0.034
-581.821	-141.919	0.159	0.016
-580.806	-51.597	0.018	0.009
-579.792	-53.390	-0.192	-0.088
-578.777	-35.194	0.235	-0.127
-577.763	219.486	0.185	0.295
-576.748	-200.000	-0.023	-0.412
-575.733	162.830	0.044	0.062
-574.719	93.357	-0.133	0.150
-573.704	23.604	-0.077	0.063
-572.690	281.432	0.180	-0.320
-571.675	198.482	0.147	-0.225
-570.661	-200.000	-0.019	-0.269
-569.646	18.509	0.264	0.210
-568.631	800.000	-0.104	-0.381
-567.617	-85.504	0.267	-0.083
-566.602	-200.000	0.010	0.100
-565.588	-115.542	0.155	0.029
-564.573	800.000	0.064	-0.210
-563.558	-200.000	-0.088	-0.475
-562.544	632.890	0.185	0.466
-561.529	-200.000	-0.030	-0.280
-560.515	800.000	0.080	0.269
-559.500	-159.520	0.347	0.019
-558.485	9.170	0.150	-0.113
-557.471	67.697	-0.018	-0.018
-556.456	800.000	-0.075	-0.260
-555.442	-200.000	0.012	-0.371
-554.427	-200.000	0.035	0.176
-553.412	-200.000	0.043	-0.230
-552.398	-24.945	-0.055	0.032
-551.383	-200.000	-0.069	0.433
-550.369	800.000	0.075	-0.253
-549.354	346.206	-0.142	0.278
-548.339	-123.390	-0.224	-0.036
-547.325	-125.436	0.270	0.041
-546.310	-7.040	0.113	0.076
-545.296	-200.000	0.036	-0.264
-544.281	-104.447	-0.178	-0.041
-543.266	-2.161	-0.249	0.174
-542.252	15.466	-0.042	-0.033
-541.237	-151.933	-0.136	-0.010
-540.223	-200.000	-0.024	0.129
-539.208	789.654	-0.173	0.474
-538.193	401.691	-0.058	-0.121
-537.179	-118.150	0.089	0.016
-536.164	7.849	-0.097	0.072
-535.150	238.862	0.061	0.100
-534.135	-51.254	-0.404	-0.188
-533.121	-200.000	0.093	-0.454
-532.106	47.940	-0.159	0.148
-531.091	636.699	-0.104	-0.262
-530.077	-97.438	0.095	-0.024
-529.062	308.783	0.178	-0.331
-528.048	260.055	0.107	-0.184
-527.033	295.785	0.041	0.075
-526.018	-200.000	0.024	0.123
-525.004	-2.013	0.192	-0.134
-523.989	-117.233	0.278	0.050
-522.975	-200.000	-0.005	0.046
-521.960	800.000	-0.041	0.162
-520.945	-63.476	-0.523	-0.214
-519.931	9.582	-0.183	-0.138
-518.916	800.000	0.051	0.184
-517.902	88.245	-0.070	0.077
-516.887	639.135	0.080	0.202
-515.872	-200.000	0.000	-0.144
-514.858	21.334	-0.301	0.243
-513.843	800.000	-0.038	0.118
-512.829	-200.000	0.019	0.121
-511.814	4.943	0.105	-0.077
-510.799	207.793	-0.043	0.066
-509.785	800.000	-0.103	0.286
-508.770	-200.000	-0.190	0.000
-507.756	47.735	0.091	0.085
-506.741	95.750	-0.127	-0.144
-505.726	219.777	-0.007	-0.011
-504.712	124.027	0.080	-0.100
-503.697	-12.367	0.118	0.077
-502.683	48.593	-0.130	-0.121
-501.668	47.796	0.072	-0.067
-500.653	-38.363	0.178	0.094
-499.639	136.401	0.126	0.164
-498.624	800.000	0.105	-0.296
-497.610	31.520	0.192	0.164
-496.595	27.120	-0.209	0.174
-495.581	-122.900	-0.089	0.014
-494.566	-88.520	0.149	0.044
-493.551	13.098	-0.097	-0.075
-492.537	47.033	0.132	-0.122
-491.522	-200.000	0.002	-0.308
-490.508	800.000	-0.028	-0.087
-489.493	108.921	0.181	0.215
-488.478	-200.000	-0.001	0.134
-487.464	-200.000	0.007	0.261
-486.449	-166.001	-0.227	-0.010
-485.435	29.366	0.055	0.046
-484.420	-60.451	-0.196	0.082
-483.405	-62.951	-0.147	-0.060
-482.391	-161.036	-0.139	-0.007
-481.376	-106.438	-0.219	0.048
-480.362	363.882	-0.219	0.436
-479.347	-200.000	-0.056	-0.253
-478.332	329.163	0.089	0.170
-477.318	22.822	-0.172	0.139
-476.303	-163.373	0.183	0.009
-475.289	3.592	-0.148	-0.107
-474.274	-1.277	0.439	-0.307
-473.259	-200.000	-0.002	-0.352
-472.245	117.949	-0.118	0.144
-471.230	-108.574	0.417	-0.089
-470.216	-79.980	-0.228	0.076
-469.201	-200.000	0.016	-0.073
-468.186	631.759	0.024	-0.060
-467.172	-144.520	0.262	-0.024
-466.157	44.110	0.240	0.218
-465.143	-200.000	0.016	-0.246
-464.128	-98.374	-0.227	-0.058
-463.113	36.250	0.059	0.051
-462.099	-200.000	0.014	-0.333
-461.084	800.000	-0.030	0.093
-460.070	234.875	-0.189	0.308
-459.055	800.000	0.154	-0.444
-458.040	800.000	-0.057	0.214
-457.026	93.269	-0.022	-0.025
-456.011	234.319	0.073	0.119
-454.997	124.733	-0.027	-0.034
-453.982	-172.288	0.151	0.005
-452.968	-200.000	0.007	0.052
-451.953	550.406	-0.053	0.126
-450.938	800.000	0.008	-0.027
-449.924	119.188	0.141	0.173
-448.909	-84.386	-0.264	0.083
-447.895	-26.826	-0.271	0.157
-446.880	43.804	-0.054	-0.049
-445.865	-85.039	0.163	0.051
-444.851	191.956	0.059	-0.087
-443.836	63.013	0.081	-0.080
-442.822	-89.114	0.407	-0.119
-441.807	-73.726	-0.171	-0.062
-440.792	-41.836	-0.138	-0.070
-439.778	50.013	-0.305	0.285
-438.763	800.000	0.044	0.136
-437.749	102.641	0.143	0.166
-436.734	-200.000	0.006	-0.175
-435.719	-58.747	-0.169	0.072
-434.705	-183.025	-0.293	-0.005
-433.690	-163.769	0.336	0.016
-432.676	-54.633	-0.160	0.071
-431.661	800.000	-0.063	-0.264
-430.646	800.000	0.025	-0.097
-429.632	-70.892	-0.145	0.054
-428.617	411.093	-0.054	0.114
-427.603	4.352	-0.309	0.224
-426.588	-3.176	-0.192	0.133
-425.573	-152.892	0.400	-0.028
-424.559	-200.000	-0.034	0.283
-423.544	73.889	0.039	0.041
-422.530	161.564	-0.287	0.397
-421.515	-154.082	0.186	0.013
-420.500	-25.112	-0.129	-0.075
-419.486	97.782	0.094	0.107
-418.471	-200.000	-0.015	-0.309
-417.457	800.000	0.016	-0.050
-416.442	468.559	-0.195	0.433
-415.428	-40.046	0.217	0.112
-414.413	-8.736	-0.236	-0.156
-413.398	-200.000	-0.014	0.286
-412.384	37.357	0.076	0.067
-411.369	606.873	-0.122	0.301
-410.355	-200.000	0.036	0.206
-409.340	-200.000	0.014	0.441
-408.325	-116.364	0.359	0.066
-407.311	18.151	-0.141	-0.111
-406.296	-200.000	-0.030	-0.134
-405.282	-89.692	0.140	0.041
-404.267	800.000	-0.065	-0.235
-403.252	-68.719	-0.247	-0.095
-402.238	-200.000	0.009	0.072
-401.223	-105.432	0.170	0.038
-400.209	-147.962	0.329	0.027
-399.194	-73.939	0.324	-0.116
-398.179	-188.524	-0.064	0.001
-397.165	-36.479	0.242	-0.129
-396.150	-172.554	0.249	0.008
-395.136	458.581	0.069	0.151
-394.121	168.685	-0.247	0.348
-393.106	-98.670	-0.131	-0.033
-392.092	-79.486	0.203	-0.068
-391.077	-87.867	0.072	-0.021
-390.063	-165.120	0.294	-0.013
-389.048	-31.862	-0.176	-0.098
-388.033	188.296	-0.035	0.052
-387.019	800.000	0.064	0.200
-386.004	800.000	-0.040	0.161
-384.990	189.032	0.159	0.235
-383.975	800.000	0.061	-0.235
-382.960	-156.848	0.360	0.022
-381.946	-166.558	0.239	0.010
-380.931	800.000	0.056	-0.201
-379.917	281.382	-0.125	-0.222
-378.902	800.000	0.085	-0.308
-377.888	424.163	-0.125	0.265
-376.873	-38.140	0.264	-0.138
-375.858	-162.586	0.191	-0.009
-374.844	-200.000	-0.010	0.061
-373.829	388.200	0.092	-0.189
-372.815	472.857	-0.196	0.435
-371.800	-59.226	0.209	-0.089
-370.785	-136.158	0.258	0.030
-369.771	230.068	-0.191	-0.309
-368.756	-200.000	0.034	0.178
-367.742	800.000	-0.086	0.353
-366.727	-25.958	-0.310	-0.180
-365.712	-200.000	-0.043	-0.265
-364.698	-200.000	0.001	-0.188
-363.683	338.008	-0.064	0.123
-362.669	-44.933	0.261	0.128
-361.654	-73.818	0.199	0.071
-360.639	186.593	0.203	-0.299
-359.625	281.771	0.071	0.126
-358.610	-112.421	0.179	0.035
-357.596	318.499	-0.242	-0.453
-356.581	176.528	0.135	-0.194
-355.566	0.692	0.302	-0.213
-354.552	182.313	0.133	-0.194
-353.537	-70.225	-0.303	0.114
-352.523	245.930	-0.203	0.337
-351.508	347.662	-0.054	0.105
-350.493	738.553	0.091	-0.240
-349.479	69.299	0.248	-0.252
-348.464	-126.015	-0.375	-0.056
-347.450	-117.472	0.078	-0.014
-346.435	-79.646	0.168	-0.056
-345.420	-13.426	-0.089	-0.057
-344.406	236.432	0.124	0.203
-343.391	-89.081	-0.188	0.055
-342.377	-131.574	-0.259	-0.034
-341.362	800.000	-0.083	0.286
-340.348	554.602	-0.135	0.321
-339.333	24.628	-0.198	-0.162
-338.318	800.000	0.053	0.217
-337.304	391.273	-0.111	0.227
-336.289	18.594	0.116	0.091
-335.275	-200.000	-0.007	-0.049
-334.260	-99.496	0.043	-0.011
-333.245	636.779	0.098	0.247
-332.231	-16.050	-0.278	0.174
-331.216	27.321	0.238	0.197
-330.202	-112.705	0.214	-0.042
-329.187	-200.000	-0.014	0.126
-328.172	-18.774	0.183	0.112
-327.158	800.000	-0.059	0.195
-326.143	-0.998	0.169	-0.118
-325.129	309.651	-0.142	0.261
-324.114	800.000	-0.055	0.197
-323.099	-70.695	-0.325	0.121
-322.085	779.571	0.153	-0.413
-321.070	800.000	-0.151	-0.517
-320.056	-140.921	-0.340	0.034
-319.041	-118.017	-0.213	0.038
-318.026	-21.138	0.194	0.117
-317.012	104.351	0.197	0.228
-315.997	551.436	-0.186	-0.441
-314.983	274.113	0.095	-0.166
-313.968	-82.544	0.218	0.070
-312.953	124.001	-0.393	0.486
-311.939	800.000	0.021	0.090
-310.924	585.207	0.100	0.241
-309.910	32.044	0.168	0.142
-308.895	-18.767	-0.203	-0.125
-307.880	-15.913	-0.078	-0.049
-306.866	-113.195	-0.256	0.050
-305.851	-68.261	-0.262	0.101
-304.837	-13.439	-0.169	-0.108
-303.822	-200.000	0.034	0.285
-302.807	620.928	0.046	0.113
-301.793	-200.000	0.004	0.110
-300.778	348.897	-0.068	-0.132
-299.764	-200.000	-0.016	-0.081
-298.749	221.581	0.139	0.220
-297.735	407.716	0.036	0.075
-296.720	26.851	0.169	0.140
-295.705	327.379	-0.266	-0.502
-294.691	-110.671	-0.050	-0.010
-293.676	72.840	-0.208	0.214
-292.662	-128.212	-0.157	-0.022
-291.647	-200.000	-0.010	-0.046
-290.632	-179.618	0.185	-0.004
-289.618	800.000	-0.141	0.570
-288.603	679.351	0.051	-0.129
-287.589	34.962	-0.235	0.202
-286.574	-29.335	0.162	0.091
-285.559	55.595	-0.145	0.138
-284.545	800.000	-0.040	0.112
-283.530	93.198	-0.122	-0.136
-282.516	78.777	0.156	-0.164
-281.501	800.000	-0.096	-0.268
-280.486	52.795	0.218	0.206
-279.472	-157.574	-0.175	0.010
-278.457	-200.000	-0.012	-0.176
-277.443	148.724	0.162	0.215
-276.428	800.000	-0.099	-0.276
-275.413	13.941	0.051	-0.039
-274.399	633.410	0.070	-0.176
-273.384	-200.000	0.000	-0.403
-272.370	-49.835	0.160	0.075
-271.355	700.133	-0.099	0.256
-270.340	-2.255	-0.101	0.070
-269.326	-46.099	0.196	0.095
-268.311	800.000	0.057	0.157
-267.297	-134.075	-0.070	0.008
-266.282	-200.000	-0.033	-0.238
-265.267	-116.326	-0.350	-0.064
-264.253	633.146	0.037	-0.093
-263.238	-200.000	0.007	-0.103
-262.224	-26.714	0.361	-0.208
-261.209	-37.533	0.265	-0.139
-260.195	61.814	-0.148	0.145
-259.180	-168.896	-0.425	-0.016
-258.165	-61.295	-0.459	0.190
-257.151	-200.000	0.034	0.203
-256.136	-59.431	-0.086	-0.036
-255.122	23.242	0.111	0.090
-254.107	-10.588	-0.211	-0.137
-253.092	320.804	-0.123	0.230
-252.078	9.606	-0.289	0.215
-251.063	50.671	0.205	0.191
-250.049	-128.400	0.172	-0.024
-249.034	800.000	-0.073	-0.224
-248.019	128.103	-0.095	-0.119
-247.005	-200.000	0.025	-0.153
-245.990	-159.168	0.223	0.012
-244.976	-34.152	-0.152	-0.082
-243.961	684.903	0.018	-0.047
-242.946	-167.082	0.185	-0.007
-241.932	-200.000	0.000	0.473
-240.917	-12.985	-0.102	-0.065
-239.903	25.474	-0.125	-0.102
-238.888	-58.516	0.180	-0.077
-237.873	-55.975	0.402	-0.176
-236.859	386.001	-0.116	0.235
-235.844	161.092	-0.140	0.192
-234.830	-137.414	-0.271	-0.030
-233.815	14.613	-0.123	-0.095
-232.800	294.155	0.042	-0.075
-231.786	58.645	0.183	-0.176
-230.771	-104.454	-0.170	-0.039
-229.757	-91.048	0.072	-0.020
-228.742	-128.467	0.358	-0.050
-227.727	-30.569	-0.351	-0.195
-226.713	73.488	0.168	0.173
-225.698	-127.284	0.160	0.023
-224.684	-200.000	0.075	-0.366
-223.669	370.500	0.034	0.068
-222.655	175.327	0.144	-0.205
-221.640	-106.821	0.142	0.031
-220.625	350.365	-0.046	0.090
-219.611	622.239	-0.024	0.060
-218.596	21.854	0.106	0.085
-217.582	-69.015	-0.321	-0.122
-216.567	-70.759	-0.205	0.076
-215.552	-55.878	-0.036	0.016
-214.538	162.946	-0.109	-0.150
-213.523	64.819	-0.357	0.353
-212.509	44.296	0.121	0.109
-211.494	-147.526	0.337	-0.028
-210.479	247.398	-0.028	0.047
-209.465	36.978	0.143	0.124
-208.450	-27.422	-0.191	-0.109
-207.436	-67.916	-0.324	0.124
-206.421	-150.465	-0.177	-0.013
-205.406	20.963	-0.178	-0.142
-204.392	-144.242	0.094	0.009
-203.377	76.234	0.244	0.254
-202.363	-14.326	-0.122	-0.077
-201.348	90.028	0.145	0.159
-200.333	-104.355	-0.150	-0.034
-199.319	-112.722	-0.222	0.043
-198.304	-58.441	0.115	0.049
-197.290	-200.000	0.014	-0.185
-196.275	-123.990	0.216	-0.033
-195.260	81.202	-0.245	-0.259
-194.246	-17.315	0.169	0.104
-193.231	-47.562	0.294	0.140
-192.217	-200.000	-0.009	0.122
-191.202	-74.685	-0.255	-0.090
-190.187	-45.435	0.240	0.117
-189.173	-89.586	-0.036	-0.011
-188.158	-95.710	0.319	-0.084
-187.144	-200.000	-0.025	-0.284
-186.129	533.810	0.073	-0.170
-185.114	-16.866	-0.280	0.174
-184.100	-200.000	-0.056	0.463
-183.085	-36.874	-0.211	-0.111
-182.071	-90.095	0.223	-0.064
-181.056	-163.829	0.154	-0.007
-180.042	244.160	0.150	-0.247
-179.027	-200.000	-0.053	-0.234
-178.012	800.000	0.054	0.190
-176.998	-48.784	0.257	0.121
-175.983	-160.832	0.128	-0.007
-174.969	-85.937	-0.124	-0.038
-173.954	-200.000	-0.009	0.157
-172.939	724.246	0.068	0.177
-171.925	-27.145	0.417	0.238
-170.910	-14.921	0.101	0.063
-169.896	-200.000	0.035	-0.204
-168.881	-200.000	0.061	-0.347
-167.866	-200.000	0.067	-0.485
-166.852	154.928	0.215	-0.290
-165.837	31.892	-0.283	-0.239
-164.823	-153.775	0.231	-0.016
-163.808	-200.000	-0.031	-0.195
-162.793	-119.929	0.285	0.048
-161.779	-200.000	0.010	-0.241
-160.764	139.321	0.068	-0.087
-159.750	-84.271	0.184	-0.057
-158.735	10.382	-0.329	0.245
-157.720	-30.267	-0.050	0.028
-156.706	-127.353	0.211	0.030
-155.691	148.038	-0.122	0.162
-154.677	-61.090	-0.200	0.083
-153.662	-158.848	0.196	-0.011
-152.647	84.186	-0.062	0.067
-151.633	48.436	-0.051	0.047
-150.618	471.150	-0.049	-0.107
-149.604	-51.258	0.239	0.109
-148.589	-69.258	-0.111	-0.042
-147.574	-140.026	0.151	-0.016
-146.560	-131.893	-0.344	0.044
-145.545	-200.000	0.042	0.253
-144.531	-57.830	-0.267	-0.114
-143.516	28.223	-0.060	-0.050
-142.502	800.000	0.018	0.066
-141.487	239.929	0.118	0.193
-140.472	2.836	0.309	0.219
-139.458	-200.000	-0.017	-0.152
-138.443	143.799	0.172	0.224
-137.429	-200.000	-0.002	0.067
-136.414	0.007	0.131	-0.091
-135.399	394.152	-0.082	-0.167
-134.385	189.623	0.064	0.094
-133.370	-3.440	-0.278	-0.189
-132.356	-142.379	0.344	0.033
-131.341	-66.971	-0.169	-0.065
-130.326	283.148	0.087	-0.152
-129.312	69.439	-0.135	0.136
-128.297	729.746	0.100	-0.260
-127.283	280.064	-0.101	-0.176
-126.268	-84.205	0.291	0.090
-125.253	129.010	-0.070	0.087
-124.239	-91.278	-0.663	-0.186
-123.224	-24.256	-0.195	0.114
-122.210	-102.645	-0.306	0.071
-121.195	313.751	0.153	0.282
