DTS Sentinel unit serial number:	SN413079Multiplexer serial number:	ORYXHardware model number:	OX4-SRSoftware version number:	ORYX F/W v4.00 Oryx Data Collector v3.7.2.0data status	okinstallation	princeton_trtdifferential loss correction	single-endedforward channel	channel 1reverse channel	N/Adate	2019/09/11time	08:28:11forward acquisition time	60.00reverse acquisition time	0.00gamma	496.2192k internal	0.2317k external	0.2317temperature offset calibration	0.9950default loss term (dB/km)	0.3790temperature slope calibration	1.0000multiplexer offset coefficient	1.0000multiplexer slope coefficient	1.0000fibre end	0.00T internal ref (°C)	33.03T ext. ref 1 (°C)	0.09T ext. ref 2 (°C)	30.76length (m)	temperature (°C)	Stokes	anti-Stokes-747.200	28.380	0.206	0.176
-746.185	-200.000	0.007	0.264
-745.171	-7.481	0.018	-0.012
-744.156	-117.222	-0.286	0.053
-743.142	-14.219	0.211	0.138
-742.127	-200.000	0.032	0.154
-741.112	-200.000	-0.001	-0.050
-740.098	-200.000	-0.030	-0.143
-739.083	95.660	-0.131	-0.151
-738.069	-74.636	-0.118	0.043
-737.054	183.987	0.040	-0.060
-736.039	295.165	-0.141	0.262
-735.025	740.321	-0.150	0.407
-734.010	-200.000	-0.005	-0.078
-732.996	342.390	0.120	0.238
-731.981	359.298	0.134	-0.271
-730.966	-200.000	0.034	-0.405
-729.952	800.000	-0.023	-0.083
-728.937	1.877	-0.130	0.095
-727.923	42.928	-0.194	0.179
-726.908	-22.785	-0.104	0.064
-725.894	800.000	-0.094	-0.271
-724.879	-162.950	0.085	-0.004
-723.864	-105.658	-0.227	-0.052
-722.850	-53.259	0.189	0.088
-721.835	-8.159	0.083	-0.057
-720.821	505.116	0.136	-0.319
-719.806	574.679	0.060	0.147
-718.791	279.379	0.062	-0.112
-717.777	-49.313	0.214	-0.103
-716.762	29.468	0.187	-0.161
-715.748	-32.048	-0.136	-0.077
-714.733	-51.585	0.123	-0.058
-713.718	334.462	0.054	0.106
-712.704	-134.359	0.143	0.018
-711.689	-77.888	-0.293	-0.102
-710.675	-126.243	0.209	0.032
-709.660	-55.630	0.066	-0.030
-708.645	-200.000	0.005	-0.156
-707.631	63.007	0.143	-0.145
-706.616	-200.000	-0.005	0.150
-705.602	800.000	0.108	0.353
-704.587	205.721	0.045	0.071
-703.572	-200.000	0.022	-0.180
-702.558	89.283	-0.195	0.220
-701.543	-127.423	-0.150	-0.022
-700.529	-141.209	-0.254	-0.026
-699.514	-200.000	-0.012	-0.059
-698.499	-179.486	-0.207	0.005
-697.485	-143.376	0.069	0.007
-696.470	-106.499	-0.623	-0.140
-695.456	110.519	-0.211	-0.256
-694.441	-74.011	-0.299	0.110
-693.426	4.547	-0.445	-0.330
-692.412	-109.623	0.289	0.062
-691.397	-78.496	-0.433	-0.150
-690.383	-165.702	-0.221	0.010
-689.368	74.298	0.147	-0.157
-688.354	29.324	-0.023	-0.020
-687.339	800.000	0.101	-0.409
-686.324	-200.000	-0.010	-0.331
-685.310	-200.000	0.017	0.224
-684.295	-131.146	-0.031	-0.004
-683.281	800.000	-0.032	-0.101
-682.266	-9.480	-0.114	0.077
-681.251	-200.000	-0.039	0.220
-680.237	150.574	0.156	0.214
-679.222	173.737	0.190	-0.278
-678.208	-200.000	0.045	0.300
-677.193	161.118	-0.186	0.263
-676.178	-54.293	-0.192	0.088
-675.164	-64.197	-0.134	0.055
-674.149	-25.664	0.164	0.098
-673.135	-143.592	-0.361	0.035
-672.120	243.851	-0.046	-0.079
-671.105	-64.689	0.178	0.073
-670.091	-200.000	-0.006	-0.193
-669.076	354.868	0.086	-0.172
-668.062	-200.000	0.048	0.288
-667.047	-141.975	-0.246	-0.025
-666.032	66.454	-0.113	-0.116
-665.018	-8.623	-0.161	0.109
-664.003	195.877	0.109	-0.167
-662.989	32.873	-0.327	0.286
-661.974	97.986	-0.076	0.088
-660.959	252.609	0.025	-0.044
-659.945	175.147	0.102	-0.149
-658.930	-98.368	0.268	0.069
-657.916	13.977	-0.100	-0.079
-656.901	-114.359	-0.373	-0.072
-655.886	800.000	-0.018	0.052
-654.872	202.277	-0.144	-0.224
-653.857	458.030	0.044	-0.098
-652.843	-200.000	0.059	-0.400
-651.828	-104.107	-0.119	-0.028
-650.814	200.429	0.017	0.026
-649.799	3.903	0.113	-0.084
-648.784	-79.532	-0.180	-0.061
-647.770	-200.000	-0.050	-0.319
-646.755	-86.369	-0.230	0.071
-645.741	44.437	-0.106	0.098
-644.726	-200.000	0.010	0.258
-643.711	-108.628	0.126	-0.027
-642.697	-31.198	-0.161	0.091
-641.682	-73.181	-0.122	-0.045
-640.668	-74.011	-0.469	-0.172
-639.653	-133.240	0.128	-0.016
-638.638	198.815	0.209	-0.323
-637.624	-56.653	0.061	0.027
-636.609	4.028	-0.152	-0.112
-635.595	86.407	0.104	0.116
-634.580	225.354	0.159	0.260
-633.565	800.000	-0.046	-0.193
-632.551	800.000	0.054	0.173
-631.536	-78.387	0.380	0.131
-630.522	152.753	0.084	0.115
-629.507	265.251	-0.068	0.119
-628.492	-200.000	0.011	0.086
-627.478	664.319	-0.077	-0.201
-626.463	-200.000	-0.019	0.123
-625.449	204.104	-0.068	-0.107
-624.434	-90.369	-0.581	0.170
-623.419	-150.684	0.277	-0.021
-622.405	-174.448	0.230	-0.007
-621.390	97.332	-0.160	0.186
-620.376	800.000	0.026	0.101
-619.361	12.739	0.074	0.057
-618.346	-95.403	-0.338	-0.091
-617.332	-56.291	-0.189	0.085
-616.317	-104.971	0.399	-0.092
-615.303	410.971	-0.047	0.100
-614.288	362.127	-0.180	-0.364
-613.273	798.901	0.125	0.348
-612.259	-37.286	-0.128	-0.069
-611.244	40.665	-0.136	-0.123
-610.230	-200.000	-0.014	-0.068
-609.215	-127.646	-0.446	-0.065
-608.201	-200.000	-0.060	0.331
-607.186	-100.100	0.372	0.093
-606.171	93.937	-0.148	-0.169
-605.157	491.281	-0.019	-0.043
-604.142	-75.995	0.260	0.093
-603.128	-149.775	-0.243	-0.019
-602.113	800.000	0.019	0.057
-601.098	359.356	0.103	0.207
-600.084	-200.000	-0.046	0.334
-599.069	800.000	-0.036	0.135
-598.055	123.407	-0.046	-0.058
-597.040	800.000	0.186	0.537
-596.025	800.000	0.057	-0.180
-595.011	40.465	-0.141	0.127
-593.996	13.563	-0.098	0.077
-592.982	-56.484	-0.325	-0.145
-591.967	-9.731	-0.213	-0.143
-590.952	88.519	0.200	-0.223
-589.938	-13.947	0.252	0.164
-588.923	7.746	-0.172	0.130
-587.909	-45.740	0.035	0.017
-586.894	-23.412	0.289	-0.175
-585.879	-67.215	-0.362	-0.143
-584.865	-199.156	-0.086	-0.000
-583.850	800.000	-0.081	-0.318
-582.836	521.708	-0.120	0.283
-581.821	-30.395	0.430	-0.246
-580.806	44.383	0.109	0.101
-579.792	-191.889	-0.208	-0.002
-578.777	663.020	-0.164	-0.425
-577.763	735.035	0.062	0.168
-576.748	-87.447	0.332	0.101
-575.733	-200.000	0.045	0.298
-574.719	-13.664	-0.228	-0.148
-573.704	504.543	0.186	-0.432
-572.690	1.006	0.073	0.053
-571.675	264.523	-0.048	0.084
-570.661	-182.312	-0.166	0.003
-569.646	-200.000	-0.025	-0.170
-568.631	226.129	-0.101	0.165
-567.617	178.740	-0.163	-0.239
-566.602	800.000	-0.021	0.078
-565.588	-200.000	0.028	0.406
-564.573	11.785	0.036	-0.028
-563.558	-187.714	0.109	-0.001
-562.544	564.888	0.180	-0.439
-561.529	-43.886	-0.205	0.104
-560.515	-164.846	0.240	0.011
-559.500	114.658	0.250	0.306
-558.485	760.131	-0.162	-0.441
-557.471	-57.889	-0.335	-0.147
-556.456	230.289	-0.069	0.113
-555.442	-188.111	-0.084	0.001
-554.427	46.822	0.116	-0.109
-553.412	425.210	-0.046	-0.100
-552.398	-19.713	-0.089	-0.055
-551.383	147.144	-0.026	-0.035
-550.369	-154.301	0.283	0.019
-549.354	51.620	-0.144	0.137
-548.339	-32.423	0.209	-0.117
-547.325	800.000	0.067	-0.265
-546.310	173.517	0.024	-0.034
-545.296	24.092	-0.148	-0.123
-544.281	112.385	0.120	-0.145
-543.266	-100.365	-0.362	0.090
-542.252	-200.000	0.008	0.144
-541.237	457.432	-0.037	0.082
-540.223	-200.000	0.025	-0.631
-539.208	-98.549	0.113	-0.029
-538.193	-131.408	-0.235	-0.031
-537.179	-41.277	0.283	0.146
-536.164	-200.000	-0.028	-0.271
-535.150	-156.396	0.150	0.009
-534.135	-83.642	0.188	-0.060
-533.121	-200.000	0.037	-0.293
-532.106	-163.716	-0.192	-0.009
-531.091	194.766	-0.067	0.102
-530.077	381.992	0.020	0.041
-529.062	86.555	-0.043	-0.048
-528.048	-200.000	-0.001	-0.034
-527.033	-5.025	0.089	0.062
-526.018	107.159	-0.008	-0.010
-525.004	688.599	-0.070	-0.184
-523.989	83.271	0.032	0.035
-522.975	-200.000	-0.017	-0.082
-521.960	304.396	-0.032	0.060
-520.945	19.098	0.128	0.103
-519.931	-200.000	0.008	0.133
-518.916	-14.538	0.025	0.016
-517.902	-156.274	0.300	-0.019
-516.887	437.948	0.162	-0.356
-515.872	-93.704	0.186	-0.052
-514.858	763.895	0.064	0.174
-513.843	-70.624	-0.169	0.064
-512.829	603.176	0.131	-0.327
-511.814	800.000	0.028	-0.080
-510.799	-106.410	0.172	0.039
-509.785	266.614	-0.041	0.071
-508.770	4.268	-0.158	-0.116
-507.756	103.882	0.140	-0.165
-506.741	603.654	0.077	0.193
-505.726	-99.352	-0.115	0.029
-504.712	-127.144	-0.262	-0.038
-503.697	-20.882	0.129	-0.079
-502.683	-132.661	-0.240	0.031
-501.668	37.640	-0.122	-0.109
-500.653	215.621	-0.133	-0.212
-499.639	-200.000	0.005	0.214
-498.624	-200.000	0.036	-0.263
-497.610	-132.658	0.217	0.028
-496.595	143.118	0.159	-0.212
-495.581	-140.881	0.210	0.022
-494.566	60.904	0.070	0.069
-493.551	800.000	-0.066	-0.201
-492.537	800.000	-0.072	0.245
-491.522	-100.798	0.168	-0.041
-490.508	-76.960	-0.184	-0.065
-489.493	-123.519	0.186	0.030
-488.478	21.826	0.084	-0.069
-487.464	730.442	-0.100	0.269
-486.449	-200.000	0.044	-0.292
-485.435	-126.442	-0.180	0.027
-484.420	-200.000	-0.048	0.306
-483.405	800.000	-0.052	-0.196
-482.391	454.338	-0.061	-0.136
-481.376	68.166	0.052	0.053
-480.362	41.511	0.162	-0.147
-479.347	536.148	0.045	0.108
-478.332	-29.477	0.106	0.061
-477.318	800.000	0.053	0.154
-476.303	248.397	0.209	0.354
-475.289	-121.332	-0.082	-0.014
-474.274	62.308	0.045	-0.045
-473.259	-153.402	-0.279	0.019
-472.245	307.692	-0.084	0.157
-471.230	121.114	0.165	0.206
-470.216	11.883	-0.294	0.227
-469.201	33.115	-0.200	-0.174
-468.186	9.433	0.181	-0.137
-467.172	39.598	-0.150	-0.135
-466.157	54.298	0.043	0.042
-465.143	-5.566	-0.058	-0.040
-464.128	-200.000	-0.002	0.300
-463.113	-80.669	-0.342	-0.114
-462.099	221.133	-0.044	-0.071
-461.084	-17.375	0.224	-0.141
-460.070	-153.965	0.365	-0.025
-459.055	-33.073	-0.170	0.094
-458.040	-77.800	0.165	0.057
-457.026	298.035	-0.188	0.346
-456.011	397.596	0.097	0.202
-454.997	-200.000	0.014	0.133
-453.982	45.847	0.183	-0.169
-452.968	-20.417	-0.108	0.067
-451.953	-68.695	-0.352	-0.136
-450.938	500.707	-0.142	-0.328
-449.924	-200.000	-0.013	-0.192
-448.909	161.962	0.259	0.364
-447.895	490.746	0.139	-0.318
-446.880	309.606	0.163	0.305
-445.865	800.000	0.019	0.055
-444.851	34.687	0.256	0.224
-443.836	54.097	-0.161	-0.155
-442.822	-148.458	0.085	0.007
-441.807	117.747	0.107	-0.132
-440.792	-76.676	-0.349	-0.122
-439.778	800.000	0.021	0.077
-438.763	203.563	-0.133	-0.206
-437.749	-200.000	-0.018	0.107
-436.734	-26.539	0.180	0.106
-435.719	-21.549	-0.225	-0.137
-434.705	267.902	0.132	0.232
-433.690	800.000	-0.057	0.172
-432.676	137.720	-0.099	0.130
-431.661	-200.000	-0.015	0.331
-430.646	112.394	0.047	0.057
-429.632	-200.000	-0.037	0.473
-428.617	-81.108	-0.189	0.063
-427.603	112.331	0.088	-0.106
-426.588	317.801	0.121	-0.229
-425.573	-35.137	0.093	0.050
-424.559	-200.000	0.020	-0.133
-423.544	-200.000	0.013	-0.188
-422.530	800.000	0.016	0.046
-421.515	145.885	-0.134	-0.179
-420.500	255.291	0.246	-0.421
-419.486	12.624	-0.077	0.059
-418.471	-170.153	-0.465	0.016
-417.457	-113.897	0.033	0.006
-416.442	-108.962	-0.334	-0.071
-415.428	-20.267	0.126	0.077
-414.413	-122.124	0.219	0.036
-413.398	-77.251	-0.213	0.074
-412.384	-155.496	0.143	-0.009
-411.369	-112.280	-0.355	-0.071
-410.355	-200.000	0.016	-0.301
-409.340	800.000	0.125	0.353
-408.325	800.000	0.032	-0.131
-407.311	-25.706	-0.074	-0.044
-406.296	-200.000	-0.018	-0.219
-405.282	800.000	0.017	-0.068
-404.267	460.559	-0.053	0.119
-403.252	98.891	0.075	-0.086
-402.238	-200.000	0.040	-0.275
-401.223	-198.350	-0.071	-0.000
-400.209	141.590	0.189	0.250
-399.194	-64.351	0.122	0.050
-398.179	800.000	-0.097	0.268
-397.165	126.114	0.168	-0.213
-396.150	286.536	0.022	0.039
-395.136	60.764	0.099	0.098
-394.121	257.840	-0.175	-0.300
-393.106	800.000	0.137	-0.421
-392.092	-111.080	-0.242	-0.049
-391.077	-159.788	-0.122	0.007
-390.063	-68.273	-0.199	0.077
-389.048	-2.180	0.383	0.269
-388.033	-90.807	0.341	0.098
-387.019	216.878	0.063	0.100
-386.004	-143.110	0.146	0.014
-384.990	-45.225	-0.277	0.137
-383.975	-46.869	0.158	0.077
-382.960	-84.835	0.427	0.134
-381.946	23.651	-0.004	0.004
-380.931	135.986	-0.250	0.326
-379.917	94.264	0.083	0.094
-378.902	-10.777	-0.240	-0.158
-377.888	-200.000	-0.031	-0.156
-376.873	-200.000	-0.020	-0.154
-375.858	11.487	0.264	-0.202
-374.844	309.051	-0.055	0.103
-373.829	-49.080	0.255	0.122
-372.815	107.205	-0.282	0.335
-371.800	97.267	0.088	-0.101
-370.785	-32.555	-0.125	-0.069
-369.771	-52.779	0.422	0.194
-368.756	-131.916	0.153	-0.020
-367.742	-69.274	0.119	0.045
-366.727	-85.197	-0.409	0.128
-365.712	450.010	0.057	-0.126
-364.698	-172.038	0.238	-0.008
-363.683	445.285	-0.123	0.270
-362.669	102.444	0.225	0.262
-361.654	-93.737	-0.350	-0.096
-360.639	71.447	-0.258	0.267
-359.625	-200.000	-0.018	0.173
-358.610	-45.483	-0.323	0.159
-357.596	160.607	0.072	0.100
-356.581	-131.090	0.163	-0.022
-355.566	-120.648	0.244	-0.041
-354.552	61.379	0.173	-0.172
-353.537	-39.581	-0.074	-0.038
-352.523	-200.000	0.022	-0.230
-351.508	104.319	-0.159	0.186
-350.493	215.071	0.035	0.056
-349.479	298.128	-0.086	-0.157
-348.464	68.226	-0.126	0.128
-347.450	76.380	0.180	0.190
-346.435	23.532	-0.300	0.246
-345.420	-102.556	-0.221	-0.053
-344.406	-64.921	0.019	0.007
-343.391	-126.735	-0.323	0.048
-342.377	-117.399	-0.187	-0.034
-341.362	-160.406	0.353	-0.019
-340.348	144.705	-0.170	0.226
-339.333	16.740	-0.172	-0.136
-338.318	56.778	-0.227	0.221
-337.304	353.922	-0.156	0.309
-336.289	-41.070	-0.268	-0.138
-335.275	131.359	-0.229	-0.293
-334.260	-18.715	0.277	0.172
-333.245	-86.580	0.203	0.062
-332.231	-3.681	0.122	0.084
-331.216	-40.767	-0.222	-0.114
-330.202	800.000	0.099	-0.318
-329.187	-4.607	-0.247	0.170
-328.172	436.217	-0.025	0.055
-327.158	525.947	0.059	-0.139
-326.143	-85.613	0.128	-0.040
-325.129	75.417	0.262	-0.275
-324.114	-71.442	-0.131	-0.049
-323.099	-75.925	-0.142	0.050
-322.085	38.354	0.101	0.089
-321.070	322.502	-0.141	0.268
-320.056	-200.000	-0.026	0.170
-319.041	-62.656	0.116	-0.048
-318.026	28.832	-0.274	-0.232
-317.012	234.018	0.031	-0.050
-315.997	-70.968	0.231	0.087
-314.983	29.428	0.106	-0.090
-313.968	800.000	0.081	-0.265
-312.953	800.000	-0.061	-0.208
-311.939	800.000	0.131	0.424
-310.924	-97.226	0.165	0.043
-309.910	-0.025	0.153	0.109
-308.895	-65.166	-0.240	-0.096
-307.880	125.176	0.268	-0.336
-306.866	800.000	-0.044	0.134
-305.851	-146.521	-0.211	0.018
-304.837	-200.000	-0.003	0.127
-303.822	-134.667	0.358	0.043
-302.807	1.642	-0.171	0.123
-301.793	44.787	0.112	0.102
-300.778	800.000	-0.039	-0.114
-299.764	234.950	-0.139	0.229
-298.749	2.966	0.099	-0.072
-297.735	15.174	0.128	-0.099
-296.720	-134.162	-0.314	-0.038
-295.705	136.497	-0.110	0.143
-294.691	361.816	-0.123	0.246
-293.676	-200.000	-0.010	-0.050
-292.662	-52.101	0.273	0.126
-291.647	5.075	0.119	-0.087
-290.632	685.886	0.023	0.061
-289.618	-168.281	-0.279	0.011
-288.603	-144.103	0.093	-0.009
-287.589	-24.267	0.137	0.081
-286.574	-200.000	-0.019	-0.271
-285.559	613.489	0.130	-0.323
-284.545	-48.607	-0.143	-0.068
-283.530	-88.986	-0.202	-0.059
-282.516	800.000	0.047	-0.128
-281.501	-199.160	-0.258	0.001
-280.486	7.403	0.085	-0.063
-279.472	-129.860	0.100	0.014
-278.457	375.668	0.103	0.209
-277.443	-200.000	-0.039	0.199
-276.428	-200.000	0.038	0.202
-275.413	-200.000	-0.013	0.113
-274.399	12.366	-0.176	-0.135
-273.384	32.692	0.137	-0.118
-272.370	800.000	-0.090	0.332
-271.355	169.471	0.080	-0.114
-270.340	68.383	0.296	-0.302
-269.326	195.860	-0.028	-0.042
-268.311	-171.691	-0.332	-0.011
-267.297	800.000	0.052	-0.144
-266.282	-68.783	-0.167	0.064
-265.267	-200.000	0.031	0.227
-264.253	-200.000	-0.041	-0.281
-263.238	-200.000	0.101	-0.578
-262.224	213.243	0.068	0.106
-261.209	291.746	-0.229	0.414
-260.195	-72.598	0.191	-0.070
-259.180	-49.114	-0.051	-0.024
-258.165	-72.493	-0.163	-0.060
-257.151	-30.966	0.165	0.093
-256.136	108.826	0.083	-0.098
-255.122	-47.190	-0.216	0.105
-254.107	93.985	0.206	-0.232
-253.092	800.000	0.082	-0.266
-252.078	-81.380	0.133	0.044
-251.063	-71.981	0.083	0.030
-250.049	383.550	0.145	0.297
-249.034	-10.016	-0.223	0.147
-248.019	174.557	0.259	-0.372
-247.005	800.000	-0.042	-0.157
-245.990	-152.815	0.137	-0.010
-244.976	-120.319	0.218	-0.037
-243.961	29.872	0.115	-0.097
-242.946	307.484	-0.085	-0.157
-241.932	-164.425	0.227	-0.010
-240.917	-66.842	-0.314	-0.123
-239.903	-115.822	-0.294	0.055
-238.888	19.087	-0.162	0.129
-237.873	-32.061	-0.183	0.102
-236.859	-55.173	-0.091	-0.041
-235.844	454.507	-0.024	0.053
-234.830	-101.278	-0.114	-0.028
-233.815	185.946	-0.101	0.150
-232.800	48.644	-0.127	-0.119
-231.786	800.000	0.042	-0.151
-230.771	28.467	0.051	-0.043
-229.757	27.511	0.100	-0.084
-228.742	-35.765	0.254	0.137
-227.727	217.285	-0.101	0.160
-226.713	63.838	-0.167	0.167
-225.698	4.782	0.069	-0.051
-224.684	-200.000	0.010	-0.252
-223.669	-200.000	0.009	-0.285
-222.655	515.179	-0.146	-0.339
-221.640	-144.668	0.107	0.010
-220.625	168.910	0.092	-0.130
-219.611	-164.600	-0.181	0.008
-218.596	-96.449	0.193	0.051
-217.582	-200.000	-0.000	0.246
-216.567	62.225	-0.074	0.073
-215.552	-110.903	0.259	-0.053
-214.538	38.474	-0.141	-0.124
-213.523	5.723	-0.039	-0.028
-212.509	106.924	-0.181	-0.213
-211.494	23.270	0.399	0.325
-210.479	27.893	0.333	0.278
-209.465	-141.324	-0.444	0.045
-208.450	55.057	0.195	-0.186
-207.436	110.217	-0.156	0.186
-206.421	78.510	0.188	0.200
-205.406	-200.000	-0.016	-0.188
-204.392	-15.554	0.302	-0.191
-203.377	-41.192	-0.142	-0.073
-202.363	15.553	0.330	-0.257
-201.348	55.931	-0.172	0.165
-200.333	-70.525	0.076	-0.029
-199.319	800.000	-0.098	0.310
-198.304	-25.887	-0.122	-0.071
-197.290	-96.854	-0.432	-0.112
-196.275	93.885	-0.070	-0.079
-195.260	0.006	-0.140	0.099
-194.246	255.716	-0.112	0.191
-193.231	33.570	0.100	-0.086
-192.217	-162.605	0.187	0.009
-191.202	130.346	-0.224	-0.284
-190.187	-28.482	0.204	0.117
-189.173	-22.516	0.040	-0.024
-188.158	-142.904	-0.065	0.006
-187.144	149.656	0.180	0.242
-186.129	-75.389	0.144	-0.051
-185.114	-200.000	-0.008	-0.044
-184.100	-194.451	0.155	0.001
-183.085	-60.024	-0.161	0.068
-182.071	-200.000	-0.005	0.111
-181.056	182.394	0.024	-0.036
-180.042	4.975	0.210	0.153
-179.027	235.764	0.134	0.219
-178.012	61.811	-0.062	-0.061
-176.998	147.270	-0.108	0.144
-175.983	120.837	0.247	-0.304
-174.969	-200.000	0.051	0.343
-173.954	-103.699	0.151	0.035
-172.939	-39.013	-0.272	0.142
-171.925	-153.725	-0.103	0.007
-170.910	-124.358	0.132	0.020
-169.896	70.300	0.175	-0.179
-168.881	28.062	-0.073	0.061
-167.866	286.334	0.053	-0.095
-166.852	-173.515	0.260	-0.008
-165.837	-88.575	0.042	0.013
-164.823	-54.410	-0.340	0.153
-163.808	-54.564	-0.169	0.076
-162.793	-74.643	0.197	-0.070
-161.779	-200.000	0.036	-0.279
-160.764	73.895	0.267	-0.277
-159.750	-53.183	0.290	0.132
-158.735	-200.000	-0.032	-0.165
-157.720	-200.000	0.024	-0.103
-156.706	339.368	-0.054	0.103
-155.691	100.423	0.082	-0.094
-154.677	-121.351	-0.132	0.022
-153.662	663.800	0.109	0.279
-152.647	-89.054	0.259	-0.076
-151.633	-200.000	-0.023	0.274
-150.618	-8.579	-0.048	-0.032
-149.604	-200.000	-0.045	0.282
-148.589	-35.970	-0.163	-0.087
-147.574	-42.486	-0.107	0.054
-146.560	51.077	0.138	-0.130
-145.545	415.226	0.014	0.029
-144.531	-36.241	-0.120	0.064
-143.516	-122.115	0.411	-0.067
-142.502	-140.693	0.431	0.044
-141.487	1.281	0.105	0.075
-140.472	-115.360	0.136	-0.025
-139.458	214.951	-0.146	-0.229
-138.443	-48.457	-0.071	-0.034
-137.429	489.454	-0.131	0.296
-136.414	346.158	-0.079	-0.153
-135.399	-22.952	0.153	-0.091
-134.385	0.637	0.042	0.029
-133.370	-117.158	0.056	0.010
-132.356	606.632	-0.217	-0.534
-131.341	92.991	0.272	0.304
-130.326	103.853	0.216	-0.251
-129.312	129.536	-0.189	-0.238
-128.297	-83.832	-0.299	0.094
-127.283	-199.530	-0.051	-0.000
-126.268	14.655	0.102	0.079
-125.253	-47.599	0.115	-0.055
-124.239	-24.256	-0.232	0.137
-123.224	-200.000	0.003	0.092
-122.210	238.696	0.247	-0.405
-121.195	610.459	0.115	-0.283
-120.180	-67.678	-0.078	0.030
