DTS Sentinel unit serial number:	SN413079Multiplexer serial number:	ORYXHardware model number:	OX4-SRSoftware version number:	ORYX F/W v4.00 Oryx Data Collector v3.7.2.0data status	okinstallation	princeton_trtdifferential loss correction	single-endedforward channel	channel 1reverse channel	N/Adate	2019/09/16time	18:10:35forward acquisition time	60.00reverse acquisition time	0.00gamma	496.2192k internal	0.2302k external	0.2302temperature offset calibration	0.9969default loss term (dB/km)	0.3790temperature slope calibration	1.0000multiplexer offset coefficient	1.0000multiplexer slope coefficient	1.0000fibre end	0.00T internal ref (°C)	37.28T ext. ref 1 (°C)	15.70T ext. ref 2 (°C)	30.87length (m)	temperature (°C)	Stokes	anti-Stokes-747.200	800.000	0.044	-0.180
-746.185	15.543	-0.321	-0.257
-745.171	-64.027	0.127	0.053
-744.156	-200.000	0.013	-0.250
-743.142	-200.000	0.010	0.233
-742.127	-200.000	0.004	0.131
-741.112	29.743	-0.152	0.132
-740.098	285.666	-0.166	0.306
-739.083	329.067	-0.034	0.067
-738.069	64.014	-0.323	0.331
-737.054	9.226	-0.233	-0.179
-736.039	800.000	-0.071	-0.225
-735.025	51.763	-0.066	0.064
-734.010	-54.879	-0.038	0.018
-732.996	-200.000	-0.034	-0.345
-731.981	-53.595	-0.177	-0.083
-730.966	-83.090	-0.331	0.109
-729.952	-112.473	-0.087	0.018
-728.937	-154.150	-0.205	0.014
-727.923	-127.191	-0.442	0.066
-726.908	3.598	-0.283	-0.210
-725.894	573.508	0.205	-0.510
-724.879	222.058	0.167	0.274
-723.864	800.000	0.034	0.099
-722.850	248.315	0.100	0.173
-721.835	800.000	0.046	0.157
-720.821	-111.471	-0.193	0.040
-719.806	-200.000	-0.006	0.053
-718.791	-200.000	-0.003	-0.146
-717.777	-200.000	0.029	0.186
-716.762	267.284	-0.148	-0.264
-715.748	-73.051	-0.125	-0.047
-714.733	-39.319	0.085	-0.046
-713.718	152.202	-0.052	0.072
-712.704	-107.515	-0.198	-0.044
-711.689	168.701	0.062	0.091
-710.675	-200.000	-0.004	0.241
-709.660	-13.102	0.256	-0.169
-708.645	29.230	0.200	-0.173
-707.631	-6.493	-0.022	0.015
-706.616	-200.000	0.018	-0.373
-705.602	-11.690	-0.122	0.081
-704.587	88.580	-0.050	0.057
-703.572	800.000	0.138	-0.512
-702.558	586.640	-0.027	-0.068
-701.543	481.790	-0.188	0.435
-700.529	355.498	-0.036	-0.074
-699.514	-200.000	0.062	-0.293
-698.499	483.680	-0.063	-0.147
-697.485	284.689	0.113	-0.207
-696.470	-7.188	0.207	0.143
-695.456	-200.000	0.040	-0.316
-694.441	769.668	-0.198	-0.547
-693.426	434.591	0.084	-0.186
-692.412	-129.298	-0.090	-0.013
-691.397	-89.378	-0.275	0.082
-690.383	-200.000	0.019	0.355
-689.368	-52.625	-0.053	0.025
-688.354	-21.919	0.156	0.096
-687.339	-87.677	-0.229	0.070
-686.324	-47.454	0.220	0.109
-685.310	-114.483	-0.214	0.042
-684.295	-200.000	-0.001	-0.106
-683.281	-15.599	-0.126	-0.082
-682.266	800.000	0.095	0.339
-681.251	-167.250	-0.100	-0.004
-680.237	115.757	0.091	-0.113
-679.222	-200.000	-0.022	-0.265
-678.208	689.217	-0.137	0.365
-677.193	486.400	-0.109	0.252
-676.178	8.864	-0.182	-0.140
-675.164	800.000	-0.075	0.215
-674.149	-82.706	0.106	0.035
-673.135	-23.792	0.219	-0.133
-672.120	29.293	-0.140	-0.121
-671.105	-200.000	0.053	0.290
-670.091	135.226	0.133	0.175
-669.076	-200.000	-0.017	-0.115
-668.062	-140.862	0.140	-0.015
-667.047	-7.361	-0.124	0.085
-666.032	-26.148	-0.233	0.139
-665.018	48.289	0.176	0.168
-664.003	506.999	0.077	-0.181
-662.989	579.064	-0.098	-0.243
-661.974	66.230	-0.183	-0.189
-660.959	-200.000	0.012	-0.206
-659.945	-200.000	0.063	0.363
-658.930	35.877	0.426	0.380
-657.916	800.000	-0.076	0.226
-656.901	-200.000	-0.001	0.026
-655.886	-83.499	-0.112	-0.036
-654.872	-45.717	0.304	-0.153
-653.857	305.343	-0.088	-0.166
-652.843	-200.000	-0.023	-0.374
-651.828	657.905	-0.091	-0.237
-650.814	-74.320	-0.224	0.082
-649.799	52.459	0.072	0.070
-648.784	-170.112	-0.141	0.005
-647.770	50.330	-0.153	0.146
-646.755	29.677	-0.114	-0.099
-645.741	76.274	-0.143	0.154
-644.726	-80.978	0.189	-0.063
-643.711	-16.323	-0.064	0.041
-642.697	411.007	0.097	0.208
-641.682	-126.430	-0.222	-0.034
-640.668	-200.000	-0.003	-0.235
-639.653	-119.901	0.227	0.040
-638.638	-42.300	-0.065	-0.034
-637.624	-164.839	-0.033	0.002
-636.609	63.674	-0.139	0.141
-635.595	-181.579	-0.202	-0.004
-634.580	618.985	0.123	0.314
-633.565	-200.000	0.034	-0.216
-632.551	72.525	-0.228	-0.241
-631.536	378.667	-0.169	-0.350
-630.522	-128.721	0.160	-0.023
-629.507	-52.678	-0.242	0.113
-628.492	800.000	0.119	-0.468
-627.478	-134.763	0.158	0.019
-626.463	800.000	-0.052	-0.164
-625.449	383.454	0.063	0.131
-624.434	800.000	-0.059	-0.202
-623.419	97.752	0.114	0.133
-622.405	-75.359	-0.029	0.010
-621.390	192.858	-0.073	-0.112
-620.376	39.083	-0.277	-0.251
-619.361	-189.983	-0.192	-0.002
-618.346	102.763	-0.068	0.081
-617.332	-76.437	0.206	-0.074
-616.317	-131.652	0.207	-0.028
-615.303	-17.749	-0.149	-0.095
-614.288	-75.361	-0.156	-0.056
-613.273	285.924	0.074	-0.136
-612.259	-200.000	0.016	0.083
-611.244	-200.000	-0.031	-0.229
-610.230	237.968	0.149	-0.250
-609.215	198.460	-0.071	-0.110
-608.201	439.266	0.159	-0.351
-607.186	-97.677	0.152	0.040
-606.171	-200.000	-0.019	0.468
-605.157	-24.528	0.180	0.109
-604.142	-200.000	-0.058	-0.276
-603.128	203.013	0.206	-0.322
-602.113	9.577	0.033	-0.025
-601.098	86.686	-0.063	0.071
-600.084	-0.314	-0.326	-0.235
-599.069	116.892	-0.054	0.067
-598.055	23.540	-0.029	-0.024
-597.040	-200.000	-0.067	0.308
-596.025	284.929	-0.101	-0.184
-595.011	-200.000	0.005	-0.191
-593.996	509.579	0.088	-0.206
-592.982	800.000	-0.109	-0.483
-591.967	-34.897	-0.249	-0.138
-590.952	128.697	0.065	-0.084
-589.938	66.336	0.072	-0.074
-588.923	697.880	-0.076	0.203
-587.909	-69.762	0.298	-0.115
-586.894	437.801	0.117	0.258
-585.879	800.000	0.031	0.133
-584.865	800.000	-0.043	-0.126
-583.850	-180.986	0.337	0.007
-582.836	51.016	-0.081	0.077
-581.821	394.259	0.097	0.205
-580.806	-94.043	0.222	0.062
-579.792	-6.612	0.250	0.172
-578.777	-171.179	-0.129	-0.004
-577.763	154.754	0.082	-0.115
-576.748	-157.094	-0.227	0.014
-575.733	180.377	0.027	0.041
-574.719	-146.038	-0.051	-0.005
-573.704	-200.000	0.055	-0.298
-572.690	14.737	-0.035	0.028
-571.675	-149.165	0.523	-0.042
-570.661	-200.000	-0.042	-0.265
-569.646	-122.068	-0.197	-0.033
-568.631	-200.000	-0.011	0.214
-567.617	-140.976	-0.134	-0.014
-566.602	228.872	-0.060	0.098
-565.588	-121.209	0.351	-0.059
-564.573	-12.622	-0.099	0.065
-563.558	-25.628	0.060	0.036
-562.544	-119.866	-0.376	0.066
-561.529	-25.651	0.067	0.040
-560.515	1.296	0.287	0.208
-559.500	-5.055	0.100	0.070
-558.485	87.083	0.069	-0.077
-557.471	270.603	0.072	0.127
-556.456	-126.294	-0.185	0.028
-555.442	800.000	-0.075	0.226
-554.427	-25.292	0.165	0.099
-553.412	-73.759	-0.419	-0.154
-552.398	608.755	0.017	0.043
-551.383	42.164	0.089	-0.082
-550.369	69.413	-0.193	0.201
-549.354	229.875	-0.165	0.273
-548.339	-45.460	-0.209	0.105
-547.325	800.000	-0.079	-0.235
-546.310	800.000	0.024	-0.093
-545.296	-200.000	-0.008	-0.109
-544.281	800.000	0.042	-0.139
-543.266	-82.379	-0.166	0.055
-542.252	-183.657	-0.289	-0.005
-541.237	-92.630	-0.214	-0.061
-540.223	-81.613	-0.227	-0.076
-539.208	800.000	-0.029	-0.113
-538.193	617.946	-0.149	-0.379
-537.179	800.000	-0.117	-0.405
-536.164	265.371	-0.169	0.298
-535.150	-116.378	-0.191	0.036
-534.135	800.000	-0.068	-0.192
-533.121	-200.000	-0.011	0.262
-532.106	105.272	0.237	-0.283
-531.091	-73.316	-0.159	-0.059
-530.077	-11.428	0.352	0.234
-529.062	-200.000	0.004	-0.032
-528.048	-49.174	-0.335	-0.162
-527.033	-30.181	0.313	-0.180
-526.018	32.117	0.333	-0.290
-525.004	-69.401	-0.432	0.167
-523.989	-20.059	-0.449	0.280
-522.975	800.000	-0.056	0.162
-521.960	-59.879	-0.379	0.164
-520.945	315.835	-0.082	0.155
-519.931	-178.696	0.300	-0.007
-518.916	143.280	0.250	-0.337
-517.902	-5.322	-0.099	0.069
-516.887	678.091	0.088	-0.230
-515.872	-105.023	-0.172	-0.040
-514.858	-120.541	-0.339	-0.058
-513.843	-18.493	0.195	-0.123
-512.829	-110.950	-0.307	0.064
-511.814	-165.867	-0.199	0.009
-510.799	191.580	-0.169	0.257
-509.785	-200.000	-0.012	0.264
-508.770	-200.000	0.027	0.326
-507.756	-28.612	-0.217	-0.126
-506.741	790.714	-0.092	0.254
-505.726	85.700	0.132	0.147
-504.712	447.244	-0.109	-0.243
-503.697	-64.293	0.261	0.107
-502.683	133.306	-0.086	-0.112
-501.668	-156.616	-0.350	-0.022
-500.653	55.763	-0.214	0.210
-499.639	-83.019	-0.106	0.034
-498.624	488.802	0.103	0.238
-497.610	2.363	-0.176	0.129
-496.595	-106.930	0.258	0.058
-495.581	-119.408	0.146	-0.026
-494.566	800.000	-0.102	-0.339
-493.551	124.327	0.143	-0.182
-492.537	10.727	0.315	0.242
-491.522	-200.000	0.049	0.307
-490.508	-200.000	-0.032	0.240
-489.493	-90.306	-0.165	0.048
-488.478	-200.000	-0.034	0.300
-487.464	-134.172	-0.158	0.020
-486.449	-200.000	0.023	0.224
-485.435	-200.000	0.023	-0.192
-484.420	-18.329	-0.048	0.030
-483.405	281.359	-0.024	-0.043
-482.391	-200.000	0.031	0.346
-481.376	-200.000	-0.041	-0.320
-480.362	-200.000	-0.033	0.274
-479.347	471.784	-0.139	-0.315
-478.332	-200.000	0.035	0.179
-477.318	108.705	0.100	-0.120
-476.303	51.382	-0.076	-0.073
-475.289	-36.757	0.079	-0.043
-474.274	67.430	-0.182	0.187
-473.259	-69.989	-0.298	-0.115
-472.245	800.000	-0.071	0.304
-471.230	292.103	0.145	-0.266
-470.216	-200.000	-0.035	-0.215
-469.201	-98.698	-0.032	0.008
-468.186	-60.688	0.263	-0.112
-467.172	-27.598	-0.280	0.164
-466.157	284.999	0.129	0.234
-465.143	-103.192	0.477	-0.114
-464.128	800.000	0.043	-0.128
-463.113	202.914	0.034	0.052
-462.099	800.000	0.054	0.197
-461.084	230.507	-0.136	0.223
-460.070	463.285	-0.103	-0.233
-459.055	-200.000	-0.068	0.307
-458.040	42.909	0.092	0.085
-457.026	-16.803	0.062	-0.040
-456.011	35.373	-0.276	-0.244
-454.997	-200.000	0.018	0.112
-453.982	-126.944	0.119	0.018
-452.968	-200.000	0.004	0.035
-451.953	-200.000	0.069	-0.342
-450.938	-154.485	0.214	0.014
-449.924	-200.000	-0.013	-0.173
-448.909	14.126	-0.298	0.234
-447.895	-66.509	0.298	0.119
-446.880	342.759	-0.117	-0.231
-445.865	-77.874	-0.339	0.118
-444.851	297.611	-0.091	0.168
-443.836	-28.871	0.164	-0.095
-442.822	285.703	-0.085	-0.154
-441.807	-145.478	-0.543	0.049
-440.792	92.152	-0.120	0.136
-439.778	-94.269	-0.195	-0.054
-438.763	-50.651	0.266	0.126
-437.749	-200.000	0.002	-0.035
-436.734	-47.602	-0.289	0.142
-435.719	394.288	0.127	-0.266
-434.705	-99.071	0.072	0.018
-433.690	342.533	-0.068	0.134
-432.676	-22.522	-0.115	0.070
-431.661	349.089	0.123	-0.244
-430.646	278.784	0.158	-0.284
-429.632	-155.299	0.207	0.014
-428.617	800.000	0.091	0.270
-427.603	745.153	0.028	-0.075
-426.588	-91.351	-0.371	-0.107
-425.573	-107.864	-0.123	-0.027
-424.559	109.855	0.198	0.239
-423.544	-200.000	-0.015	-0.140
-422.530	563.539	-0.020	-0.048
-421.515	-200.000	0.012	0.068
-420.500	-27.382	-0.172	-0.100
-419.486	709.566	-0.091	0.242
-418.471	20.764	-0.029	0.024
-417.457	-200.000	-0.017	0.138
-416.442	-56.325	0.101	-0.045
-415.428	131.822	0.149	0.193
-414.413	25.940	0.248	0.208
-413.398	-143.470	0.262	0.025
-412.384	-48.503	0.101	-0.049
-411.369	189.063	-0.175	0.263
-410.355	-200.000	0.017	-0.306
-409.340	-33.927	-0.116	-0.064
-408.325	-200.000	-0.038	-0.193
-407.311	-19.227	-0.284	-0.177
-406.296	-42.620	-0.145	0.074
-405.282	-0.265	-0.365	0.261
-404.267	-200.000	-0.004	0.065
-403.252	-145.887	0.444	-0.040
-402.238	-93.415	-0.314	-0.087
-401.223	471.079	-0.034	0.076
-400.209	800.000	-0.041	0.144
-399.194	371.901	0.184	-0.376
-398.179	-200.000	0.043	0.331
-397.165	-200.000	-0.036	0.354
-396.150	-12.848	0.083	-0.054
-395.136	195.692	0.066	-0.101
-394.121	11.064	0.242	0.186
-393.106	-138.539	-0.441	-0.049
-392.092	-71.454	0.388	-0.146
-391.077	-114.256	-0.053	-0.010
-390.063	105.745	0.079	0.094
-389.048	-191.918	0.087	-0.001
-388.033	-4.688	-0.182	0.126
-387.019	-200.000	0.028	0.217
-386.004	-200.000	0.072	-0.369
-384.990	-41.186	-0.189	-0.098
-383.975	-5.868	-0.094	0.064
-382.960	-124.676	-0.234	0.036
-381.946	800.000	-0.019	-0.072
-380.931	27.088	-0.110	0.093
-379.917	-157.987	-0.205	-0.012
-378.902	-97.795	0.212	-0.055
-377.888	361.083	-0.113	-0.228
-376.873	15.715	0.104	0.082
-375.858	105.107	-0.140	-0.166
-374.844	-28.607	-0.070	-0.040
-373.829	-54.585	-0.053	-0.024
-372.815	-114.951	0.229	0.044
-371.800	36.493	-0.051	-0.045
-370.785	-200.000	0.000	-0.248
-369.771	-144.191	-0.151	0.014
-368.756	184.565	0.053	0.079
-367.742	800.000	-0.055	-0.206
-366.727	53.328	-0.234	0.225
-365.712	400.797	-0.100	0.212
-364.698	-124.654	0.184	0.029
-363.683	37.424	-0.129	-0.115
-362.669	-35.705	-0.205	0.112
-361.654	146.812	-0.072	-0.097
-360.639	-87.845	-0.131	-0.040
-359.625	800.000	0.017	0.062
-358.610	-110.603	0.203	-0.042
-357.596	800.000	-0.077	-0.274
-356.581	-200.000	-0.016	-0.169
-355.566	18.820	0.140	-0.112
-354.552	-200.000	0.057	-0.366
-353.537	305.550	0.222	0.415
-352.523	-200.000	-0.010	-0.229
-351.508	238.810	-0.179	-0.299
-350.493	-19.979	-0.198	0.123
-349.479	-200.000	-0.024	-0.216
-348.464	-194.701	-0.391	-0.003
-347.450	-135.618	0.083	-0.010
-346.435	-72.270	-0.113	-0.042
-345.420	60.593	0.147	0.146
-344.406	-30.576	0.332	-0.188
-343.391	25.868	0.270	0.226
-342.377	-38.742	-0.086	-0.046
-341.362	-200.000	0.014	-0.076
-340.348	-6.304	-0.078	0.053
-339.333	557.289	-0.064	-0.155
-338.318	-78.106	-0.231	0.080
-337.304	15.690	-0.208	-0.164
-336.289	-24.447	-0.059	0.035
-335.275	45.491	-0.069	0.064
-334.260	-18.777	0.341	0.213
-333.245	-93.532	0.179	-0.050
-332.231	19.251	0.092	-0.074
-331.216	-200.000	0.002	0.032
-330.202	11.355	-0.205	-0.158
-329.187	800.000	0.038	-0.113
-328.172	-200.000	0.072	-0.325
-327.158	-71.751	0.023	-0.009
-326.143	-200.000	0.019	0.130
-325.129	124.565	-0.079	-0.100
-324.114	-0.737	-0.197	-0.140
-323.099	-43.758	0.169	-0.085
-322.085	800.000	-0.022	-0.092
-321.070	-1.548	0.076	0.054
-320.056	800.000	0.110	0.303
-319.041	519.333	-0.044	-0.104
-318.026	-61.956	-0.151	-0.063
-317.012	257.496	-0.236	0.407
-315.997	-167.348	-0.170	0.007
-314.983	31.409	0.120	0.103
-313.968	-200.000	-0.014	0.278
-312.953	-158.742	-0.098	-0.006
-311.939	76.099	-0.066	0.070
-310.924	8.158	0.177	0.133
-309.910	334.450	-0.089	-0.173
-308.895	-53.948	0.410	0.187
-307.880	-17.231	0.231	-0.146
-306.866	-200.000	-0.049	-0.268
-305.851	-200.000	-0.040	-0.389
-304.837	266.489	-0.236	-0.414
-303.822	353.094	0.184	-0.365
-302.807	-155.815	0.147	0.009
-301.793	610.837	0.024	-0.059
-300.778	-53.837	-0.025	-0.011
-299.764	86.864	0.109	0.120
-298.749	106.868	-0.049	0.058
-297.735	-120.335	-0.183	0.031
-296.720	305.147	0.077	-0.144
-295.705	-130.251	0.321	0.044
-294.691	-200.000	0.027	0.152
-293.676	27.888	-0.253	-0.213
-292.662	-156.311	-0.034	0.002
-291.647	-200.000	-0.014	0.091
-290.632	-15.533	0.242	-0.155
-289.618	-64.377	0.252	0.103
-288.603	4.977	-0.105	-0.077
-287.589	-200.000	0.042	0.507
-286.574	49.051	-0.315	0.296
-285.559	540.012	-0.122	-0.290
-284.545	-58.268	0.212	0.092
-283.530	136.536	0.060	0.078
-282.516	24.368	0.326	0.270
-281.501	61.268	-0.327	0.326
-280.486	-92.239	-0.038	0.011
-279.472	-147.633	0.241	-0.020
-278.457	66.710	-0.105	-0.107
-277.443	-95.467	0.062	-0.017
-276.428	-144.075	0.432	0.041
-275.413	-2.240	-0.119	0.083
-274.399	-200.000	-0.037	-0.206
-273.384	511.180	0.070	-0.162
-272.370	-200.000	0.003	0.039
-271.355	110.969	0.160	0.193
-270.340	3.919	0.155	-0.113
-269.326	139.721	0.231	-0.305
-268.311	-47.458	-0.181	0.088
-267.297	124.224	0.269	-0.339
-266.282	-92.328	0.150	0.042
-265.267	57.413	-0.084	0.082
-264.253	56.807	0.131	0.128
-263.238	-50.172	0.322	-0.152
-262.224	-8.918	-0.190	0.127
-261.209	-20.042	0.103	-0.063
-260.195	-20.723	0.362	0.222
-259.180	-139.684	-0.354	-0.038
-258.165	-200.000	-0.000	-0.149
-257.151	440.013	0.098	0.214
-256.136	-200.000	0.038	-0.229
-255.122	800.000	-0.041	-0.147
-254.107	-200.000	-0.004	0.180
-253.092	-178.400	-0.219	0.005
-252.078	-48.586	-0.244	0.117
-251.063	800.000	0.177	-0.492
-250.049	-33.741	0.186	0.102
-249.034	-81.854	-0.165	-0.054
-248.019	353.839	0.134	-0.265
-247.005	800.000	0.096	-0.369
-245.990	444.527	0.138	-0.302
-244.976	-45.338	0.294	0.146
-243.961	-156.457	-0.547	-0.034
-242.946	-108.202	0.326	0.070
-241.932	-68.653	0.227	-0.088
-240.917	-87.055	0.149	-0.045
-239.903	-200.000	0.028	-0.202
-238.888	-47.764	0.015	-0.007
-237.873	-200.000	0.023	0.221
-236.859	6.271	0.223	-0.165
-235.844	-200.000	-0.017	0.254
-234.830	800.000	0.046	0.156
-233.815	-200.000	-0.014	-0.186
-232.800	800.000	-0.072	0.216
-231.786	13.886	0.118	0.091
-230.771	112.432	-0.275	0.333
-229.757	-200.000	0.038	0.190
-228.742	-132.983	-0.060	-0.008
-227.727	-54.965	0.299	-0.135
-226.713	79.184	-0.180	0.192
-225.698	428.831	-0.069	-0.148
-224.684	-37.818	-0.190	0.101
-223.669	-46.128	0.205	-0.101
-222.655	-33.029	-0.254	0.141
-221.640	331.447	-0.142	-0.273
-220.625	584.269	0.111	-0.273
-219.611	-48.672	0.090	0.043
-218.596	6.046	0.130	0.096
-217.582	-89.636	-0.193	-0.056
-216.567	-18.580	0.263	-0.164
-215.552	116.866	0.143	0.175
-214.538	-200.000	-0.003	0.287
-213.523	-61.512	0.311	0.130
-212.509	45.345	0.295	-0.271
-211.494	-145.726	0.474	0.042
-210.479	-177.657	0.143	0.003
-209.465	51.074	0.076	-0.072
-208.450	-80.469	-0.179	0.060
-207.436	-25.403	0.121	0.071
-206.421	49.396	-0.088	0.082
-205.406	795.806	0.051	0.140
-204.392	489.880	-0.136	-0.310
-203.377	-200.000	0.001	0.008
-202.363	-11.579	0.167	0.109
-201.348	800.000	-0.099	0.292
-200.333	-13.211	-0.207	0.134
-199.319	407.738	0.042	0.089
-198.304	388.124	-0.064	0.132
-197.290	800.000	-0.063	0.209
-196.275	800.000	0.061	0.228
-195.260	-78.986	0.136	0.046
-194.246	51.010	0.075	0.071
-193.231	-83.778	0.118	0.038
-192.217	355.321	0.180	0.357
-191.202	-45.913	0.063	-0.031
-190.187	-97.707	-0.258	0.067
-189.173	256.141	0.036	0.061
-188.158	219.136	0.076	-0.122
-187.144	26.945	-0.132	-0.111
-186.129	-200.000	-0.021	0.134
-185.114	-72.897	-0.168	0.061
-184.100	800.000	0.064	-0.243
-183.085	800.000	0.042	0.121
-182.071	118.406	0.126	0.154
-181.056	766.526	0.131	-0.355
-180.042	-110.942	0.225	0.046
-179.027	-200.000	-0.057	0.344
-178.012	-46.538	0.076	-0.037
-176.998	800.000	0.033	0.138
-175.983	45.650	-0.090	0.083
-174.969	-161.017	-0.099	-0.005
-173.954	304.908	0.183	0.339
-172.939	-39.794	0.212	0.110
-171.925	199.455	0.057	0.087
-170.910	318.347	-0.093	-0.176
-169.896	157.699	-0.070	-0.097
-168.881	-110.537	-0.133	-0.027
-167.866	50.907	0.082	-0.078
-166.852	-44.236	0.131	-0.066
-165.837	800.000	-0.042	0.174
-164.823	-183.537	0.201	0.003
-163.808	-57.805	0.208	-0.091
-162.793	127.672	0.128	-0.162
-161.779	-102.202	0.088	-0.021
-160.764	800.000	-0.034	-0.129
-159.750	800.000	0.102	0.367
-158.735	-200.000	-0.003	0.300
-157.720	-107.425	-0.400	0.087
-156.706	-162.753	0.260	0.013
-155.691	-158.314	0.263	-0.015
-154.677	-66.375	0.177	0.070
-153.662	10.456	0.148	0.113
-152.647	387.436	0.040	0.083
-151.633	-106.891	0.161	0.036
-150.618	47.231	0.087	0.081
-149.604	-92.901	-0.289	-0.080
-148.589	118.131	0.133	-0.163
-147.574	445.320	0.042	-0.091
-146.560	-33.359	-0.319	-0.176
-145.545	407.912	-0.107	-0.226
-144.531	-50.560	-0.166	0.078
-143.516	-59.656	-0.124	0.053
-142.502	-200.000	0.173	-0.000
-141.487	-200.000	0.009	0.086
-140.472	-145.404	0.322	0.029
-139.458	296.720	0.016	-0.029
-138.443	-55.669	-0.045	-0.020
-137.429	-188.312	-0.062	0.001
-136.414	800.000	0.072	0.226
-135.399	-51.085	0.134	-0.063
-134.385	-200.000	-0.058	-0.510
-133.370	-19.219	-0.346	0.214
-132.356	-45.357	-0.239	-0.118
-131.341	77.244	0.118	-0.125
-130.326	-200.000	0.037	-0.188
-129.312	7.257	-0.183	-0.136
-128.297	-200.000	-0.013	0.155
-127.283	-65.341	-0.190	-0.076
-126.268	-60.009	0.086	0.036
-125.253	656.218	0.168	-0.430
-124.239	-93.867	-0.172	-0.047
-123.224	260.981	0.031	-0.053
-122.210	-98.825	0.246	0.062
-121.195	18.115	0.128	-0.101
