DTS Sentinel unit serial number:	SN413079Multiplexer serial number:	ORYXHardware model number:	OX4-SRSoftware version number:	ORYX F/W v4.00 Oryx Data Collector v3.7.2.0data status	okinstallation	princeton_trtdifferential loss correction	single-endedforward channel	channel 1reverse channel	N/Adate	2019/09/17time	04:10:35forward acquisition time	60.00reverse acquisition time	0.00gamma	496.2192k internal	0.2323k external	0.2323temperature offset calibration	0.9962default loss term (dB/km)	0.3790temperature slope calibration	1.0000multiplexer offset coefficient	1.0000multiplexer slope coefficient	1.0000fibre end	0.00T internal ref (°C)	29.83T ext. ref 1 (°C)	0.13T ext. ref 2 (°C)	24.31length (m)	temperature (°C)	Stokes	anti-Stokes-747.200	197.947	0.063	0.098
-746.185	-200.000	-0.018	0.156
-745.171	624.135	0.187	0.476
-744.156	177.869	0.133	0.195
-743.142	24.037	-0.100	0.083
-742.127	88.087	0.416	0.466
-741.112	800.000	-0.112	0.429
-740.098	602.744	-0.092	0.232
-739.083	9.509	-0.253	-0.194
-738.069	-7.442	-0.276	0.189
-737.054	-200.000	0.001	-0.198
-736.039	554.801	-0.107	-0.259
-735.025	170.495	-0.135	0.196
-734.010	-175.960	0.118	-0.003
-732.996	-146.961	0.382	-0.033
-731.981	39.425	-0.287	-0.260
-730.966	169.333	-0.225	-0.324
-729.952	303.396	0.061	0.115
-728.937	800.000	-0.045	0.174
-727.923	173.165	0.049	0.071
-726.908	-200.000	0.030	-0.576
-725.894	-113.087	-0.359	0.072
-724.879	319.300	-0.115	-0.220
-723.864	-44.069	0.194	-0.098
-722.850	-200.000	-0.005	-0.120
-721.835	181.640	0.027	-0.040
-720.821	800.000	0.101	-0.369
-719.806	-111.191	-0.260	-0.054
-718.791	-89.706	-0.123	-0.036
-717.777	34.123	-0.115	-0.101
-716.762	52.130	0.211	0.203
-715.748	168.277	-0.215	-0.309
-714.733	-85.002	-0.294	0.093
-713.718	47.995	-0.231	-0.218
-712.704	-200.000	-0.019	-0.242
-711.689	341.061	0.110	-0.218
-710.675	-41.336	0.254	0.132
-709.660	-46.597	0.042	-0.021
-708.645	21.876	-0.060	0.049
-707.631	-200.000	-0.035	0.216
-706.616	13.815	0.116	-0.091
-705.602	-200.000	0.035	-0.271
-704.587	-41.985	-0.310	-0.160
-703.572	-32.479	-0.037	-0.021
-702.558	-37.050	0.108	0.058
-701.543	-108.523	-0.321	0.070
-700.529	-143.099	0.107	-0.010
-699.514	567.605	-0.013	-0.032
-698.499	-200.000	-0.010	-0.112
-697.485	-120.222	-0.096	-0.017
-696.470	60.578	0.061	-0.061
-695.456	-200.000	-0.009	0.088
-694.441	-200.000	0.008	-0.234
-693.426	229.541	-0.071	-0.117
-692.412	-9.075	0.163	-0.110
-691.397	332.224	-0.137	0.266
-690.383	-200.000	0.003	-0.170
-689.368	-91.819	-0.319	0.091
-688.354	636.250	-0.024	-0.061
-687.339	500.666	-0.145	0.337
-686.324	489.487	-0.118	0.272
-685.310	-136.922	-0.257	-0.030
-684.295	347.579	0.041	-0.082
-683.281	800.000	0.154	0.488
-682.266	654.629	-0.058	-0.150
-681.251	-150.520	-0.303	0.023
-680.237	242.393	-0.136	-0.229
-679.222	-63.343	0.043	-0.018
-678.208	-133.775	-0.028	-0.004
-677.193	67.532	-0.080	0.082
-676.178	91.341	-0.093	-0.106
-675.164	800.000	-0.020	-0.078
-674.149	456.613	-0.105	0.235
-673.135	75.468	0.049	-0.052
-672.120	-22.605	0.077	-0.047
-671.105	608.830	0.028	-0.070
-670.091	-200.000	0.018	0.108
-669.076	-143.262	0.351	0.034
-668.062	-5.744	0.217	0.150
-667.047	-200.000	0.052	-0.347
-666.032	98.169	0.073	0.085
-665.018	-200.000	0.038	0.227
-664.003	-200.000	-0.035	-0.395
-662.989	73.356	-0.112	0.118
-661.974	-76.809	0.379	-0.133
-660.959	202.954	-0.166	0.258
-659.945	277.116	0.173	-0.309
-658.930	639.086	0.076	-0.193
-657.916	-123.021	0.203	0.033
-656.901	245.280	0.095	-0.161
-655.886	-132.358	-0.118	0.015
-654.872	-38.993	-0.399	0.211
-653.857	176.628	0.131	0.191
-652.843	118.597	-0.032	-0.040
-651.828	-119.059	0.466	0.082
-650.814	-200.000	0.028	-0.176
-649.799	800.000	-0.040	-0.173
-648.784	128.048	-0.151	-0.193
-647.770	560.443	0.100	0.243
-646.755	-15.771	0.032	-0.021
-645.741	277.380	-0.094	0.168
-644.726	-200.000	-0.001	0.248
-643.711	-160.518	-0.185	-0.010
-642.697	-200.000	-0.029	0.268
-641.682	-200.000	-0.009	-0.144
-640.668	-78.293	0.553	-0.191
-639.653	7.813	-0.152	-0.114
-638.638	-101.579	-0.068	-0.017
-637.624	-16.213	-0.224	-0.143
-636.609	-15.962	0.199	0.127
-635.595	800.000	-0.036	-0.112
-634.580	533.083	0.099	0.235
-633.565	-145.660	0.223	0.020
-632.551	-194.545	0.125	0.001
-631.536	800.000	0.086	-0.353
-630.522	60.007	-0.139	-0.138
-629.507	64.343	0.040	0.040
-628.492	124.536	-0.107	0.135
-627.478	-200.000	-0.059	-0.346
-626.463	303.118	0.084	0.156
-625.449	67.862	-0.131	-0.134
-624.434	5.600	-0.158	0.118
-623.419	555.317	0.042	0.101
-622.405	-200.000	-0.003	0.067
-621.390	-41.125	-0.234	-0.122
-620.376	-105.476	-0.261	-0.060
-619.361	23.157	-0.169	-0.140
-618.346	-75.694	0.374	0.134
-617.332	240.649	0.092	-0.155
-616.317	17.960	-0.472	-0.378
-615.303	-0.344	-0.211	-0.150
-614.288	279.553	0.168	0.301
-613.273	23.926	0.061	-0.051
-612.259	-62.683	-0.180	0.075
-611.244	160.672	0.101	-0.142
-610.230	98.310	-0.316	-0.365
-609.215	53.851	0.216	-0.208
-608.201	-137.067	0.026	-0.003
-607.186	18.581	0.093	0.074
-606.171	-200.000	-0.017	-0.237
-605.157	442.050	0.146	0.321
-604.142	49.839	0.057	-0.054
-603.128	-149.879	0.334	-0.026
-602.113	-179.654	0.118	-0.003
-601.098	-200.000	-0.019	-0.102
-600.084	-50.205	-0.089	-0.042
-599.069	118.027	-0.030	0.038
-598.055	-63.188	0.133	-0.055
-597.040	79.144	-0.177	0.191
-596.025	165.503	-0.067	-0.095
-595.011	87.655	0.259	-0.288
-593.996	162.292	-0.074	0.105
-592.982	-14.699	-0.084	0.054
-591.967	-49.450	-0.114	0.055
-590.952	-154.000	0.285	0.019
-589.938	18.925	0.145	-0.117
-588.923	-103.769	0.019	0.004
-587.909	-57.451	0.270	0.119
-586.894	363.636	0.116	-0.234
-585.879	156.888	-0.056	-0.077
-584.865	-200.000	-0.076	-0.334
-583.850	-45.357	-0.033	0.016
-582.836	-91.503	0.061	0.017
-581.821	800.000	0.100	0.387
-580.806	-200.000	-0.038	0.182
-579.792	-36.199	-0.109	0.059
-578.777	-200.000	-0.034	-0.317
-577.763	250.339	-0.076	0.130
-576.748	31.818	-0.092	0.080
-575.733	-15.257	-0.034	-0.022
-574.719	151.549	0.121	0.166
-573.704	-200.000	-0.018	-0.146
-572.690	383.887	0.063	0.130
-571.675	343.418	-0.056	0.110
-570.661	-51.331	-0.173	-0.081
-569.646	800.000	-0.075	-0.304
-568.631	-167.831	0.455	0.018
-567.617	-200.000	-0.045	0.293
-566.602	607.154	-0.059	0.148
-565.588	273.890	0.127	0.225
-564.573	-16.839	0.214	-0.136
-563.558	1.516	0.240	0.174
-562.544	800.000	-0.154	-0.434
-561.529	-22.858	-0.322	0.195
-560.515	-111.271	0.201	0.041
-559.500	-200.000	0.048	-0.246
-558.485	-143.282	-0.305	-0.029
-557.471	-200.000	-0.044	-0.250
-556.456	-77.798	-0.059	0.020
-555.442	124.388	0.118	0.149
-554.427	7.528	0.117	-0.088
-553.412	-153.021	-0.285	-0.020
-552.398	44.414	0.123	0.113
-551.383	-151.341	-0.115	0.009
-550.369	-46.656	-0.128	-0.063
-549.354	99.971	0.254	0.295
-548.339	-10.064	0.095	0.064
-547.325	-200.000	-0.032	-0.185
-546.310	-123.302	-0.292	-0.047
-545.296	-118.299	0.158	0.028
-544.281	-200.000	0.023	-0.209
-543.266	-200.000	0.031	0.172
-542.252	-55.823	-0.110	0.049
-541.237	-154.891	0.139	0.009
-540.223	-200.000	-0.033	-0.204
-539.208	-43.312	-0.079	-0.040
-538.193	-119.480	-0.258	0.045
-537.179	110.594	-0.125	0.151
-536.164	20.879	0.356	0.289
-535.150	-119.964	-0.392	0.068
-534.135	-51.479	-0.075	0.035
-533.121	52.226	-0.191	0.182
-532.106	-46.344	0.178	-0.087
-531.091	27.932	0.033	0.028
-530.077	1.746	-0.331	-0.239
-529.062	-34.293	0.200	0.110
-528.048	502.100	-0.055	-0.127
-527.033	-105.029	-0.042	-0.010
-526.018	4.464	-0.223	-0.164
-525.004	800.000	-0.050	-0.187
-523.989	66.542	-0.127	0.130
-522.975	135.206	-0.166	-0.216
-521.960	-39.929	-0.252	0.132
-520.945	-200.000	0.007	0.230
-519.931	-43.037	-0.169	-0.086
-518.916	-7.126	0.218	-0.148
-517.902	800.000	0.021	0.079
-516.887	161.549	-0.225	0.315
-515.872	-200.000	0.071	0.396
-514.858	-200.000	0.033	-0.315
-513.843	-10.211	0.182	0.121
-512.829	-200.000	-0.041	0.352
-511.814	698.492	-0.051	0.135
-510.799	-5.091	-0.097	-0.067
-509.785	374.611	-0.094	-0.191
-508.770	-200.000	-0.012	-0.055
-507.756	358.395	0.121	0.241
-506.741	-76.867	-0.219	-0.077
-505.726	-73.950	0.375	-0.136
-504.712	109.521	-0.178	0.213
-503.697	800.000	0.028	0.093
-502.683	-200.000	-0.028	0.432
-501.668	-81.846	0.358	-0.117
-500.653	-83.614	-0.228	-0.073
-499.639	43.632	0.103	-0.094
-498.624	-200.000	-0.030	-0.330
-497.610	800.000	0.038	0.131
-496.595	-200.000	0.092	-0.543
-495.581	52.587	-0.131	-0.125
-494.566	-17.512	0.077	-0.048
-493.551	800.000	0.031	0.130
-492.537	-200.000	-0.020	-0.141
-491.522	-200.000	0.021	-0.173
-490.508	24.226	0.222	0.183
-489.493	-200.000	-0.031	-0.226
-488.478	-89.835	-0.137	0.040
-487.464	-77.364	-0.199	-0.069
-486.449	246.391	0.116	-0.195
-485.435	-200.000	0.037	-0.250
-484.420	800.000	0.015	0.046
-483.405	-119.097	0.407	0.071
-482.391	-185.408	-0.032	-0.000
-481.376	-200.000	-0.026	0.212
-480.362	800.000	0.037	-0.139
-479.347	-29.976	0.134	-0.076
-478.332	-18.049	0.148	-0.093
-477.318	-68.290	0.294	0.114
-476.303	-200.000	0.006	0.032
-475.289	184.516	0.143	0.211
-474.274	14.397	0.276	0.215
-473.259	707.236	0.131	0.347
-472.245	-94.283	0.191	0.052
-471.230	159.701	0.125	0.174
-470.216	-200.000	0.047	-0.307
-469.201	-200.000	-0.016	0.089
-468.186	166.193	0.049	0.070
-467.172	-86.106	-0.134	0.041
-466.157	-118.044	0.401	-0.072
-465.143	800.000	0.073	-0.270
-464.128	-94.664	0.157	0.043
-463.113	-39.886	-0.178	-0.093
-462.099	231.469	0.196	-0.320
-461.084	-200.000	0.012	0.058
-460.070	-54.360	-0.251	0.114
-459.055	101.192	-0.176	0.204
-458.040	401.970	-0.067	-0.141
-457.026	163.001	-0.131	0.183
-456.011	-200.000	0.013	-0.300
-454.997	251.791	0.183	-0.311
-453.982	-49.695	-0.041	-0.019
-452.968	800.000	0.075	0.269
-451.953	34.840	0.075	0.066
-450.938	-0.301	-0.161	-0.114
-449.924	-71.469	0.209	-0.078
-448.909	349.084	0.168	-0.330
-447.895	-11.036	0.208	0.137
-446.880	-48.221	-0.201	0.097
-445.865	454.728	0.108	0.239
-444.851	-91.945	0.328	-0.093
-443.836	169.485	0.096	0.137
-442.822	213.981	0.190	-0.299
-441.807	8.995	-0.152	0.115
-440.792	0.528	-0.483	-0.344
-439.778	494.606	0.189	0.434
-438.763	-92.092	0.168	-0.047
-437.749	26.036	-0.433	0.361
-436.734	-69.758	0.179	0.068
-435.719	12.823	-0.164	-0.126
-434.705	49.559	-0.178	0.167
-433.690	-200.000	0.053	-0.377
-432.676	-99.925	0.312	-0.078
-431.661	-119.632	-0.284	-0.049
-430.646	-200.000	-0.004	0.022
-429.632	517.816	-0.177	-0.414
-428.617	-119.709	-0.131	0.023
-427.603	-200.000	0.000	0.225
-426.588	91.372	0.078	0.088
-425.573	-200.000	-0.000	0.248
-424.559	-84.082	0.091	0.029
-423.544	-93.705	-0.228	0.063
-422.530	-120.491	0.188	-0.032
-421.515	91.362	-0.180	0.201
-420.500	-103.905	0.344	-0.080
-419.486	257.060	-0.003	-0.006
-418.471	449.360	0.117	-0.258
-417.457	-136.503	0.233	0.027
-416.442	282.979	-0.153	0.273
-415.428	-18.731	0.137	-0.085
-414.413	800.000	0.054	0.174
-413.398	64.267	-0.054	0.054
-412.384	26.826	-0.177	-0.148
-411.369	2.570	0.052	0.038
-410.355	57.730	0.140	-0.136
-409.340	-45.464	0.163	-0.081
-408.325	297.383	-0.268	0.491
-407.311	631.952	0.028	-0.071
-406.296	20.993	0.174	0.141
-405.282	-44.690	0.195	0.097
-404.267	800.000	-0.062	-0.179
-403.252	177.224	0.116	-0.168
-402.238	453.827	0.030	-0.066
-401.223	109.680	-0.084	0.101
-400.209	-87.716	0.182	0.055
-399.194	180.395	0.044	0.064
-398.179	127.125	-0.276	0.349
-397.165	215.635	0.150	0.237
-396.150	111.772	0.275	-0.331
-395.136	239.076	-0.094	0.156
-394.121	-200.000	0.019	0.274
-393.106	207.253	0.055	-0.085
-392.092	800.000	-0.040	0.135
-391.077	-100.388	-0.159	-0.039
-390.063	531.947	0.152	-0.357
-389.048	-200.000	0.025	-0.220
-388.033	52.229	-0.261	-0.248
-387.019	241.466	0.044	-0.073
-386.004	610.636	0.068	0.168
-384.990	89.452	-0.023	-0.025
-383.975	149.543	-0.248	0.334
-382.960	-8.171	0.194	0.130
-381.946	271.695	-0.031	-0.055
-380.931	207.679	0.185	-0.287
-379.917	-121.825	-0.464	-0.076
-378.902	800.000	-0.037	0.119
-377.888	795.330	-0.125	-0.343
-376.873	20.247	0.350	0.281
-375.858	-200.000	0.023	0.120
-374.844	530.950	0.179	-0.421
-373.829	774.448	0.124	-0.338
-372.815	800.000	0.120	-0.380
-371.800	-185.074	0.057	0.001
-370.785	-155.186	0.134	0.009
-369.771	-200.000	0.065	0.305
-368.756	25.497	0.203	-0.168
-367.742	522.330	0.079	0.185
-366.727	800.000	0.036	-0.123
-365.712	-47.464	0.199	-0.096
-364.698	19.662	0.145	0.116
-363.683	-54.354	-0.161	-0.073
-362.669	-150.939	-0.471	0.035
-361.654	293.338	0.048	0.088
-360.639	-200.000	-0.026	0.156
-359.625	258.187	-0.191	-0.327
-358.610	-200.000	0.018	-0.166
-357.596	178.719	-0.076	0.110
-356.581	-66.739	-0.078	0.031
-355.566	602.647	0.184	-0.454
-354.552	536.323	0.081	0.192
-353.537	-88.770	0.280	-0.083
-352.523	-129.471	-0.217	0.030
-351.508	-51.829	0.164	-0.076
-350.493	242.451	-0.090	-0.151
-349.479	-200.000	-0.025	-0.175
-348.464	-22.976	-0.230	-0.138
-347.450	-78.886	-0.306	0.104
-346.435	-68.503	0.484	0.187
-345.420	-134.489	-0.096	0.012
-344.406	131.113	0.054	-0.069
-343.391	10.788	-0.179	-0.136
-342.377	165.380	0.051	-0.072
-341.362	-200.000	-0.007	-0.073
-340.348	-44.926	-0.045	0.023
-339.333	-37.626	-0.066	-0.035
-338.318	-200.000	-0.029	-0.233
-337.304	74.506	-0.140	-0.147
-336.289	800.000	0.028	0.108
-335.275	800.000	-0.066	0.274
-334.260	-74.382	-0.181	0.065
-333.245	37.923	-0.125	-0.111
-332.231	-142.095	-0.173	-0.017
-331.216	-18.452	-0.136	0.085
-330.202	119.396	-0.077	-0.095
-329.187	155.004	0.137	0.187
-328.172	5.498	0.091	-0.066
-327.158	-200.000	-0.007	0.211
-326.143	-200.000	0.032	-0.158
-325.129	-200.000	0.009	-0.040
-324.114	-8.077	-0.289	-0.194
-323.099	159.633	0.097	0.134
-322.085	-46.441	-0.436	0.213
-321.070	-134.288	0.244	0.030
-320.056	91.284	0.136	-0.152
-319.041	-200.000	0.010	0.204
-318.026	445.446	-0.028	-0.062
-317.012	-43.090	-0.078	-0.039
-315.997	-200.000	-0.030	-0.491
-314.983	-21.589	-0.043	0.026
-313.968	41.439	-0.227	0.204
-312.953	800.000	0.087	0.239
-311.939	199.123	0.122	-0.186
-310.924	-137.658	-0.235	0.026
-309.910	-116.406	0.060	0.011
-308.895	251.449	-0.182	0.307
-307.880	-180.613	0.347	0.007
-306.866	-200.000	-0.008	0.176
-305.851	317.958	0.043	-0.081
-304.837	64.072	0.065	-0.065
-303.822	-146.891	0.165	0.014
-302.807	44.537	-0.261	0.238
-301.793	97.467	-0.147	-0.168
-300.778	-45.583	0.229	-0.113
-299.764	-19.935	-0.311	-0.191
-298.749	800.000	0.061	0.199
-297.735	213.351	-0.150	-0.235
-296.720	-130.218	-0.184	-0.025
-295.705	-5.564	0.242	0.165
-294.691	-200.000	-0.024	-0.118
-293.676	-111.994	-0.223	-0.045
-292.662	800.000	0.066	-0.215
-291.647	-100.711	0.197	-0.048
-290.632	-120.196	-0.158	0.027
-289.618	63.231	-0.310	0.308
-288.603	213.222	-0.089	0.140
-287.589	223.764	-0.059	0.094
-286.574	-200.000	0.029	0.233
-285.559	138.468	-0.070	-0.092
-284.545	619.047	0.126	0.313
-283.530	791.142	0.019	-0.053
-282.516	27.334	0.146	-0.122
-281.501	11.219	0.157	-0.119
-280.486	800.000	0.119	-0.430
-279.472	-116.579	-0.103	-0.019
-278.457	434.934	0.116	0.250
-277.443	-2.096	-0.318	-0.222
-276.428	-4.366	-0.163	0.112
-275.413	218.027	-0.133	-0.211
-274.399	-150.995	0.284	-0.021
-273.384	-200.000	0.056	0.375
-272.370	-200.000	0.112	0.582
-271.355	236.573	0.117	0.191
-270.340	55.732	-0.070	0.067
-269.326	-140.327	0.121	0.013
-268.311	0.205	-0.096	0.068
-267.297	-200.000	-0.010	0.163
-266.282	-76.733	-0.169	-0.059
-265.267	118.254	-0.207	0.253
-264.253	-130.622	-0.033	0.004
-263.238	-34.786	-0.345	0.187
-262.224	129.286	-0.065	-0.082
-261.209	-194.738	-0.071	0.001
-260.195	58.348	0.088	-0.085
-259.180	-200.000	0.049	0.232
-258.165	-31.745	0.240	0.133
-257.151	-138.649	0.316	-0.034
-256.136	-200.000	0.212	-0.001
-255.122	-200.000	0.032	0.280
-254.107	98.475	0.267	-0.305
-253.092	800.000	0.073	0.262
-252.078	33.461	0.055	-0.047
-251.063	-116.345	-0.237	-0.043
-250.049	437.923	-0.071	0.152
-249.034	-29.950	-0.420	0.237
-248.019	38.151	-0.206	0.182
-247.005	-200.000	-0.078	0.425
-245.990	-142.831	0.168	-0.016
-244.976	-114.931	-0.352	-0.066
-243.961	-200.000	0.014	0.214
-242.946	800.000	-0.061	0.178
-241.932	-200.000	-0.051	-0.000
-240.917	-200.000	0.018	-0.200
-239.903	-24.147	0.336	0.199
-238.888	592.747	0.139	0.341
-237.873	-200.000	-0.002	-0.038
-236.859	-110.089	0.210	-0.044
-235.844	-94.115	-0.204	-0.055
-234.830	-17.001	-0.208	-0.130
-233.815	552.908	0.041	-0.098
-232.800	-200.000	0.027	0.210
-231.786	146.739	-0.099	0.132
-230.771	-67.123	-0.103	-0.040
-229.757	-200.000	-0.002	-0.073
-228.742	-127.065	0.337	-0.049
-227.727	148.210	-0.209	0.279
-226.713	-200.000	-0.061	-0.284
-225.698	-73.395	-0.074	0.027
-224.684	154.935	-0.201	-0.273
-223.669	-200.000	0.007	-0.229
-222.655	-200.000	-0.023	0.165
-221.640	130.727	-0.118	0.150
-220.625	-100.024	-0.163	-0.040
-219.611	-75.335	0.239	0.084
-218.596	-5.757	0.109	-0.074
-217.582	45.915	0.124	-0.113
-216.567	37.120	-0.020	-0.018
-215.552	-65.002	0.171	0.068
-214.538	143.154	0.137	-0.181
-213.523	-175.808	0.241	0.006
-212.509	-116.407	0.074	0.014
-211.494	-30.254	-0.182	-0.102
-210.479	-200.000	-0.020	0.319
-209.465	-90.900	-0.273	0.078
-208.450	175.945	0.208	-0.298
-207.436	-80.307	0.101	-0.033
-206.421	749.042	-0.047	-0.126
-205.406	16.697	-0.197	-0.154
-204.392	100.990	-0.050	0.057
-203.377	-88.930	0.265	0.078
-202.363	29.989	0.228	-0.192
-201.348	620.397	-0.082	0.204
-200.333	-160.698	-0.256	0.013
-199.319	-135.238	0.225	0.027
-198.304	-22.945	0.043	-0.026
-197.290	255.143	0.048	-0.082
-196.275	19.196	0.226	-0.179
-195.260	127.405	0.045	0.057
-194.246	-200.000	0.006	-0.176
-193.231	102.767	0.212	0.246
-192.217	93.226	-0.290	0.325
-191.202	-64.973	-0.089	0.035
-190.187	-107.249	0.091	0.020
-189.173	533.548	-0.118	0.276
-188.158	-0.842	0.195	-0.137
-187.144	-181.486	-0.554	-0.011
-186.129	-200.000	0.007	0.083
-185.114	350.948	-0.237	0.464
-184.100	7.078	0.046	0.034
-183.085	203.709	-0.129	-0.197
-182.071	82.029	0.140	-0.150
-181.056	800.000	-0.061	0.218
-180.042	399.180	0.176	0.365
-179.027	-109.593	-0.352	-0.073
-178.012	420.427	-0.290	-0.614
-176.998	20.557	-0.175	-0.140
-175.983	58.527	-0.188	0.182
-174.969	-18.604	0.157	0.097
-173.954	207.936	-0.117	0.180
-172.939	-20.864	-0.196	0.119
-171.925	428.551	0.053	0.112
-170.910	-155.270	-0.169	0.011
-169.896	105.401	0.088	0.103
-168.881	-102.234	-0.431	0.102
-167.866	800.000	0.024	0.084
-166.852	-189.126	-0.239	0.003
-165.837	-64.627	0.342	0.137
-164.823	28.275	0.234	-0.195
-163.808	-95.422	0.182	-0.048
-162.793	800.000	0.026	-0.087
-161.779	-200.000	-0.026	-0.258
-160.764	800.000	0.163	-0.451
-159.750	-196.468	0.184	-0.001
-158.735	286.496	0.102	-0.181
-157.720	310.042	0.181	0.334
-156.706	-65.150	-0.238	0.095
-155.691	-200.000	-0.011	-0.085
-154.677	199.803	0.170	-0.257
-153.662	176.725	0.273	-0.392
-152.647	800.000	-0.024	0.099
-151.633	800.000	-0.122	-0.418
-150.618	144.316	-0.167	-0.220
-149.604	-36.934	0.058	-0.031
-148.589	800.000	-0.060	0.169
-147.574	-200.000	-0.001	-0.162
-146.560	-92.950	0.291	-0.080
-145.545	1.317	0.204	0.144
-144.531	-200.000	-0.060	-0.000
-143.516	216.774	0.159	-0.249
-142.502	-84.385	0.693	-0.216
-141.487	11.718	0.192	-0.145
-140.472	12.198	0.123	0.094
-139.458	-200.000	-0.002	0.038
-138.443	15.521	-0.288	0.223
-137.429	800.000	-0.029	0.079
-136.414	-95.630	0.120	-0.032
-135.399	-200.000	0.019	0.092
-134.385	-46.693	-0.155	0.075
-133.370	459.457	-0.036	0.079
-132.356	-54.839	0.103	-0.046
-131.341	-113.655	-0.059	-0.011
-130.326	800.000	0.017	0.048
-129.312	144.656	-0.159	0.209
-128.297	-54.685	0.221	-0.098
-127.283	-15.864	0.453	-0.285
-126.268	2.952	-0.196	-0.140
-125.253	216.571	-0.063	0.098
-124.239	-200.000	-0.240	-0.001
-123.224	-200.000	0.079	0.459
-122.210	-200.000	-0.034	0.515
-121.195	295.518	-0.123	0.222
