DTS Sentinel unit serial number:	SN413079Multiplexer serial number:	ORYXHardware model number:	OX4-SRSoftware version number:	ORYX F/W v4.00 Oryx Data Collector v3.7.2.0data status	okinstallation	princeton_trtdifferential loss correction	single-endedforward channel	channel 1reverse channel	N/Adate	2019/09/14time	11:10:35forward acquisition time	60.00reverse acquisition time	0.00gamma	496.2192k internal	0.2298k external	0.2298temperature offset calibration	1.0077default loss term (dB/km)	0.3790temperature slope calibration	1.0000multiplexer offset coefficient	1.0000multiplexer slope coefficient	1.0000fibre end	0.00T internal ref (°C)	36.39T ext. ref 1 (°C)	4.44T ext. ref 2 (°C)	33.98length (m)	temperature (°C)	Stokes	anti-Stokes-747.200	-56.068	-0.245	-0.112
-746.185	-178.080	-0.252	0.006
-745.171	800.000	-0.056	0.210
-744.156	82.441	-0.328	0.364
-743.142	-36.274	-0.222	0.122
-742.127	800.000	0.078	0.254
-741.112	-153.896	-0.372	0.026
-740.098	-157.800	0.360	0.022
-739.083	333.921	0.055	0.109
-738.069	78.156	0.250	0.272
-737.054	800.000	-0.032	0.094
-736.039	-135.298	-0.115	-0.014
-735.025	800.000	0.073	-0.230
-734.010	-95.940	-0.339	-0.092
-732.996	-184.513	-0.292	0.005
-731.981	-132.855	-0.155	-0.020
-730.966	-61.217	-0.222	-0.095
-729.952	402.161	0.158	-0.339
-728.937	-48.406	-0.151	0.074
-727.923	425.818	0.238	-0.524
-726.908	514.826	0.059	-0.139
-725.894	-200.000	0.010	-0.259
-724.879	13.113	-0.204	0.161
-723.864	314.250	-0.097	-0.187
-722.850	-200.000	0.022	-0.109
-721.835	182.531	-0.172	-0.259
-720.821	-135.546	-0.101	0.012
-719.806	-197.827	-0.194	0.001
-718.791	154.777	0.221	-0.310
-717.777	-189.427	-0.150	0.002
-716.762	-157.447	-0.175	-0.011
-715.748	88.421	-0.084	-0.095
-714.733	-200.000	0.001	0.070
-713.718	177.943	-0.016	0.025
-712.704	-200.000	0.015	-0.088
-711.689	329.279	0.174	-0.340
-710.675	-95.762	-0.098	-0.027
-709.660	-200.000	-0.032	-0.293
-708.645	-61.323	0.531	-0.228
-707.631	-121.971	0.378	-0.063
-706.616	134.727	0.079	0.104
-705.602	-50.204	0.143	0.069
-704.587	68.431	-0.191	-0.200
-703.572	427.762	-0.244	-0.537
-702.558	298.855	-0.147	-0.275
-701.543	-132.267	0.239	-0.031
-700.529	-24.648	-0.119	-0.072
-699.514	387.334	0.213	-0.448
-698.499	-200.000	-0.212	0.000
-697.485	115.414	0.336	-0.418
-696.470	104.862	-0.163	-0.196
-695.456	251.590	-0.120	0.208
-694.441	-67.911	-0.315	0.125
-693.426	-101.824	-0.247	0.061
-692.412	-200.000	-0.053	-0.292
-691.397	-21.764	-0.033	0.020
-690.383	-200.000	0.003	-0.032
-689.368	284.056	-0.072	0.131
-688.354	-200.000	-0.004	-0.088
-687.339	-79.655	0.140	-0.048
-686.324	116.026	0.036	0.045
-685.310	800.000	-0.058	-0.206
-684.295	164.846	-0.133	-0.191
-683.281	-200.000	-0.067	0.351
-682.266	-200.000	0.019	-0.333
-681.251	-96.248	0.170	-0.046
-680.237	81.290	0.046	0.051
-679.222	-113.095	0.304	-0.061
-678.208	-87.800	-0.167	-0.051
-677.193	-132.901	-0.108	0.014
-676.178	68.609	-0.216	-0.226
-675.164	270.051	0.200	0.359
-674.149	755.294	0.048	-0.131
-673.135	-200.000	0.001	-0.066
-672.120	-200.000	0.017	-0.305
-671.105	800.000	0.055	0.167
-670.091	91.905	0.138	-0.158
-669.076	-200.000	0.032	0.146
-668.062	-112.632	0.351	0.071
-667.047	-0.618	0.076	0.055
-666.032	119.188	-0.015	-0.019
-665.018	-24.635	0.155	0.094
-664.003	-95.038	0.260	-0.071
-662.989	85.992	0.077	-0.086
-661.974	-123.985	-0.145	-0.023
-660.959	174.824	-0.145	0.213
-659.945	508.797	0.057	-0.135
-658.930	800.000	0.077	-0.226
-657.916	2.492	-0.144	0.106
-656.901	171.254	-0.105	-0.153
-655.886	22.112	-0.029	-0.024
-654.872	18.211	0.029	-0.024
-653.857	-38.723	-0.202	-0.108
-652.843	-75.430	0.341	0.124
-651.828	-200.000	-0.024	-0.318
-650.814	-142.805	-0.154	-0.015
-649.799	-186.463	-0.180	0.003
-648.784	-200.000	0.002	0.084
-647.770	-1.746	-0.034	-0.024
-646.755	68.439	-0.105	-0.109
-645.741	-116.173	-0.114	-0.021
-644.726	229.453	-0.100	-0.166
-643.711	-49.807	0.124	0.060
-642.697	86.650	-0.090	-0.101
-641.682	800.000	-0.018	0.073
-640.668	-200.000	0.026	-0.366
-639.653	800.000	0.066	-0.275
-638.638	-88.749	0.284	-0.086
-637.624	-154.087	-0.201	-0.014
-636.609	-38.057	-0.213	-0.115
-635.595	-51.310	0.383	0.182
-634.580	-58.749	-0.158	0.069
-633.565	-146.302	-0.096	0.009
-632.551	34.895	0.061	-0.054
-631.536	-107.050	-0.181	-0.041
-630.522	-105.974	-0.095	0.022
-629.507	788.622	0.091	0.255
-628.492	-17.775	-0.100	-0.064
-627.478	128.950	0.219	-0.284
-626.463	771.577	-0.028	-0.076
-625.449	-60.454	0.062	0.027
-624.434	-200.000	-0.004	-0.191
-623.419	-101.838	-0.224	0.055
-622.405	-47.283	0.129	0.064
-621.390	-43.702	-0.096	0.049
-620.376	54.878	0.271	0.266
-619.361	-81.255	-0.089	-0.030
-618.346	-59.956	-0.219	-0.095
-617.332	-71.769	-0.185	-0.070
-616.317	646.053	0.151	0.391
-615.303	45.004	-0.090	-0.085
-614.288	800.000	0.056	-0.224
-613.273	230.974	0.077	0.128
-612.259	-80.960	-0.108	0.036
-611.244	-200.000	-0.041	-0.231
-610.230	-200.000	-0.027	0.443
-609.215	367.606	0.074	0.153
-608.201	-128.424	-0.349	-0.050
-607.186	-22.545	-0.111	-0.068
-606.171	-143.640	-0.277	-0.027
-605.157	85.014	0.199	0.222
-604.142	225.570	0.067	0.109
-603.128	194.877	-0.080	-0.123
-602.113	81.332	-0.232	0.255
-601.098	182.139	0.037	0.056
-600.084	-59.466	0.178	0.078
-599.069	-129.286	-0.295	0.042
-598.055	-91.174	0.312	0.091
-597.040	-2.112	-0.118	0.084
-596.025	-112.669	-0.290	0.059
-595.011	-41.923	-0.257	0.134
-593.996	-153.920	-0.264	-0.018
-592.982	-200.000	-0.020	-0.323
-591.967	-136.055	0.308	0.037
-590.952	132.164	0.138	0.181
-589.938	81.185	-0.394	0.432
-588.923	-66.656	0.140	-0.056
-587.909	-200.000	0.015	-0.194
-586.894	-0.841	0.147	0.106
-585.879	-92.370	-0.049	-0.014
-584.865	189.856	-0.277	-0.421
-583.850	93.476	0.037	0.042
-582.836	149.412	-0.036	0.050
-581.821	-6.917	0.176	-0.122
-580.806	-49.205	0.201	0.098
-579.792	-200.000	-0.039	0.406
-578.777	382.641	-0.100	0.208
-577.763	-200.000	-0.023	0.156
-576.748	-136.719	0.118	0.014
-575.733	-200.000	-0.028	-0.134
-574.719	369.846	-0.051	0.104
-573.704	-200.000	0.014	0.134
-572.690	318.587	0.155	-0.298
-571.675	-84.227	-0.103	0.033
-570.661	-128.551	-0.374	-0.054
-569.646	-142.048	-0.244	-0.025
-568.631	54.753	-0.205	0.200
-567.617	601.127	-0.140	-0.353
-566.602	35.124	-0.089	0.079
-565.588	-10.972	-0.300	0.201
-564.573	800.000	-0.044	-0.124
-563.558	11.286	0.065	-0.050
-562.544	93.759	-0.351	-0.404
-561.529	246.152	-0.119	-0.203
-560.515	14.990	-0.043	-0.034
-559.500	-200.000	-0.003	0.373
-558.485	-200.000	0.007	-0.352
-557.471	-104.002	0.162	0.038
-556.456	117.288	0.228	0.284
-555.442	478.829	0.090	0.208
-554.427	280.125	0.103	-0.186
-553.412	-68.558	-0.192	-0.075
-552.398	-95.403	0.284	-0.077
-551.383	-4.603	0.025	-0.018
-550.369	87.204	-0.086	-0.097
-549.354	-15.741	-0.145	-0.094
-548.339	-75.263	0.137	0.050
-547.325	-200.000	0.013	-0.084
-546.310	-124.674	0.434	0.068
-545.296	800.000	0.068	-0.250
-544.281	124.645	0.104	0.133
-543.266	-85.764	0.135	-0.042
-542.252	-200.000	-0.002	-0.047
-541.237	-69.950	-0.356	-0.137
-540.223	483.252	0.202	-0.465
-539.208	101.072	0.128	0.151
-538.193	-200.000	0.034	0.256
-537.179	136.463	-0.148	-0.196
-536.164	127.952	-0.063	0.082
-535.150	-200.000	-0.002	-0.544
-534.135	363.509	0.108	-0.220
-533.121	-200.000	0.003	-0.036
-532.106	-164.884	0.109	-0.005
-531.091	204.288	0.086	0.135
-530.077	47.239	0.217	0.205
-529.062	562.119	-0.010	-0.024
-528.048	424.859	0.204	0.444
-527.033	-2.335	-0.119	0.085
-526.018	317.944	-0.065	-0.124
-525.004	91.212	0.156	-0.177
-523.989	321.903	-0.068	-0.131
-522.975	203.554	0.035	-0.054
-521.960	20.232	0.076	-0.062
-520.945	466.286	0.116	0.264
-519.931	-200.000	0.061	0.414
-518.916	-86.182	0.235	0.073
-517.902	-109.194	-0.286	-0.062
-516.887	-84.930	0.248	-0.079
-515.872	138.179	-0.070	-0.093
-514.858	-200.000	0.007	0.290
-513.843	-119.281	-0.145	0.025
-512.829	212.511	0.082	-0.131
-511.814	-200.000	-0.008	0.085
-510.799	-29.180	0.072	0.042
-509.785	-59.501	0.277	-0.120
-508.770	371.258	-0.100	-0.204
-507.756	254.099	0.138	-0.239
-506.741	233.806	0.211	-0.352
-505.726	-84.179	0.096	-0.031
-504.712	-200.000	-0.048	-0.287
-503.697	-200.000	0.251	-0.000
-502.683	-82.436	0.186	-0.061
-501.668	59.545	0.097	0.096
-500.653	146.489	-0.153	-0.208
-499.639	-45.506	0.209	0.105
-498.624	-58.083	-0.320	0.141
-497.610	8.380	0.264	-0.201
-496.595	-69.395	0.202	0.078
-495.581	131.258	-0.079	-0.103
-494.566	-161.100	-0.261	-0.014
-493.551	-200.000	-0.001	-0.004
-492.537	-200.000	-0.057	-0.286
-491.522	104.559	-0.049	0.058
-490.508	196.519	0.136	0.209
-489.493	800.000	-0.072	-0.299
-488.478	-81.226	0.214	-0.071
-487.464	800.000	-0.058	-0.235
-486.449	-200.000	0.086	0.396
-485.435	-49.315	-0.256	0.123
-484.420	-40.382	-0.347	0.182
-483.405	-200.000	-0.042	0.215
-482.391	-200.000	-0.033	0.189
-481.376	318.482	-0.049	0.094
-480.362	230.214	-0.119	-0.196
-479.347	-21.248	-0.078	-0.048
-478.332	286.706	0.086	-0.156
-477.318	-152.461	-0.134	0.010
-476.303	800.000	-0.041	-0.145
-475.289	324.802	0.031	-0.060
-474.274	337.052	-0.028	-0.054
-473.259	-200.000	-0.032	0.230
-472.245	198.712	0.128	-0.197
-471.230	-44.532	0.040	0.020
-470.216	102.347	-0.145	-0.171
-469.201	195.407	-0.048	0.074
-468.186	-200.000	0.008	0.148
-467.172	-27.799	0.091	-0.054
-466.157	-123.533	-0.186	-0.030
-465.143	-2.791	-0.324	0.229
-464.128	-108.727	0.139	-0.030
-463.113	-104.750	-0.046	-0.011
-462.099	800.000	-0.026	0.075
-461.084	-76.379	0.168	-0.060
-460.070	191.045	0.140	-0.212
-459.055	254.362	0.163	-0.282
-458.040	-27.411	0.159	-0.093
-457.026	-4.307	0.041	-0.029
-456.011	-140.180	-0.042	-0.004
-454.997	25.752	-0.175	-0.147
-453.982	211.133	0.175	0.277
-452.968	-138.168	0.059	-0.007
-451.953	-200.000	0.029	-0.345
-450.938	97.987	-0.011	0.013
-449.924	-50.312	0.133	0.063
-448.909	22.737	0.289	0.239
-447.895	-35.253	-0.257	0.141
-446.880	800.000	0.081	0.270
-445.865	180.952	-0.140	0.207
-444.851	150.803	0.109	-0.150
-443.836	-200.000	-0.038	0.189
-442.822	-115.629	-0.080	-0.015
-441.807	-74.292	-0.304	0.111
-440.792	-56.590	0.326	0.146
-439.778	-200.000	0.001	0.409
-438.763	-19.793	0.179	-0.111
-437.749	237.623	-0.064	0.106
-436.734	-200.000	-0.061	0.514
-435.719	101.616	-0.167	0.197
-434.705	-186.991	-0.036	-0.001
-433.690	116.717	0.188	-0.233
-432.676	526.045	-0.104	-0.247
-431.661	-65.997	-0.056	0.023
-430.646	-61.114	0.258	-0.110
-429.632	-200.000	0.011	-0.212
-428.617	357.362	0.111	-0.223
-427.603	-45.036	0.448	0.225
-426.588	-45.658	0.104	-0.052
-425.573	-108.662	-0.337	0.073
-424.559	-86.838	-0.303	-0.093
-423.544	169.418	0.147	0.211
-422.530	-12.432	0.282	0.186
-421.515	-93.107	-0.420	0.118
-420.500	800.000	-0.036	-0.105
-419.486	-133.256	-0.106	-0.014
-418.471	527.701	0.074	-0.176
-417.457	-200.000	-0.000	-0.085
-416.442	-200.000	0.009	0.045
-415.428	219.629	-0.071	-0.115
-414.413	246.353	0.092	-0.156
-413.398	-59.314	0.142	-0.062
-412.384	-65.332	-0.096	-0.039
-411.369	49.537	-0.069	-0.066
-410.355	-12.117	-0.139	0.092
-409.340	169.626	-0.045	0.065
-408.325	-104.446	-0.099	0.023
-407.311	-200.000	0.011	-0.168
-406.296	70.186	-0.092	0.096
-405.282	-127.985	0.190	0.027
-404.267	-164.270	0.146	-0.007
-403.252	318.813	0.039	-0.075
-402.238	-133.405	-0.106	-0.013
-401.223	-200.000	0.080	-0.370
-400.209	-200.000	-0.028	-0.221
-399.194	-156.251	0.455	0.029
-398.179	31.552	0.052	0.045
-397.165	-24.057	0.204	-0.123
-396.150	44.318	0.084	0.078
-395.136	-57.928	-0.120	0.053
-394.121	-43.357	0.208	0.106
-393.106	800.000	-0.050	-0.218
-392.092	-58.271	-0.056	0.024
-391.077	-13.530	-0.063	-0.041
-390.063	-200.000	0.061	-0.345
-389.048	-200.000	-0.342	-0.001
-388.033	-16.603	0.182	-0.116
-387.019	-45.250	0.104	0.052
-386.004	800.000	0.049	0.168
-384.990	-200.000	-0.009	0.074
-383.975	187.712	-0.169	0.253
-382.960	19.257	0.224	-0.181
-381.946	-200.000	-0.019	0.119
-380.931	-95.489	0.124	-0.033
-379.917	-26.213	0.316	0.187
-378.902	332.875	-0.043	-0.083
-377.888	-58.217	0.213	-0.093
-376.873	5.085	-0.146	-0.108
-375.858	-127.635	-0.167	-0.024
-374.844	60.446	0.201	-0.200
-373.829	-200.000	-0.035	0.169
-372.815	315.950	0.060	-0.115
-371.800	-131.452	-0.157	-0.021
-370.785	-69.749	-0.063	-0.024
-369.771	267.648	0.055	-0.097
-368.756	800.000	-0.065	-0.223
-367.742	-200.000	0.054	0.363
-366.727	-175.522	0.484	0.013
-365.712	-200.000	-0.008	-0.225
-364.698	800.000	0.107	-0.334
-363.683	192.652	0.202	-0.307
-362.669	800.000	0.135	-0.436
-361.654	800.000	0.053	0.160
-360.639	4.341	-0.195	0.144
-359.625	43.417	0.079	0.072
-358.610	142.081	0.088	0.117
-357.596	374.003	0.107	0.219
-356.581	696.043	0.166	0.439
-355.566	-36.220	-0.273	0.148
-354.552	72.529	0.018	0.019
-353.537	-200.000	-0.031	0.432
-352.523	194.128	-0.099	0.151
-351.508	489.146	0.043	0.099
-350.493	-200.000	-0.014	0.091
-349.479	-143.917	-0.125	0.012
-348.464	211.743	0.109	0.173
-347.450	439.063	0.095	0.209
-346.435	-19.359	-0.155	0.097
-345.420	232.664	0.114	0.188
-344.406	-68.503	0.172	-0.067
-343.391	4.374	0.204	0.150
-342.377	800.000	0.090	0.319
-341.362	32.498	-0.149	-0.130
-340.348	-200.000	0.003	0.079
-339.333	800.000	-0.046	-0.196
-338.318	17.451	-0.158	-0.126
-337.304	-200.000	0.051	0.431
-336.289	-109.788	0.056	0.012
-335.275	-109.005	0.330	0.071
-334.260	273.582	0.175	0.310
-333.245	-123.074	-0.209	-0.034
-332.231	-106.940	0.304	-0.068
-331.216	-10.460	-0.196	-0.130
-330.202	-176.368	0.120	0.003
-329.187	103.397	-0.126	-0.148
-328.172	-115.038	0.177	0.034
-327.158	-96.169	0.175	-0.047
-326.143	82.645	-0.194	-0.212
-325.129	-200.000	-0.034	-0.232
-324.114	-12.904	0.212	-0.139
-323.099	154.775	-0.158	-0.218
-322.085	-111.825	0.195	0.040
-321.070	-200.000	-0.014	0.401
-320.056	67.929	-0.192	0.197
-319.041	800.000	0.079	-0.278
-318.026	-131.405	-0.481	-0.064
-317.012	86.071	0.186	0.206
-315.997	-95.859	0.277	0.074
-314.983	95.837	-0.242	0.277
-313.968	800.000	-0.033	-0.139
-312.953	-85.278	-0.181	-0.057
-311.939	-49.047	0.186	0.090
-310.924	-100.548	0.279	-0.069
-309.910	137.584	0.133	0.175
-308.895	800.000	-0.080	0.224
-307.880	-10.335	0.155	-0.104
-306.866	-41.706	-0.282	-0.145
-305.851	-37.665	0.107	0.057
-304.837	-98.114	-0.040	0.010
-303.822	255.672	-0.100	-0.173
-302.807	-187.465	-0.018	0.000
-301.793	99.128	0.098	-0.113
-300.778	-75.537	0.327	-0.117
-299.764	800.000	0.071	0.291
-298.749	-90.772	-0.504	-0.146
-297.735	-200.000	-0.105	-0.479
-296.720	319.102	0.029	-0.056
-295.705	-120.683	0.420	-0.071
-294.691	-11.069	-0.020	-0.013
-293.676	97.898	0.055	0.063
-292.662	518.476	0.176	-0.413
-291.647	-200.000	-0.001	0.006
-290.632	-200.000	-0.044	-0.254
-289.618	-184.684	0.231	0.004
-288.603	800.000	-0.039	0.140
-287.589	800.000	0.113	0.339
-286.574	-129.810	-0.048	0.007
-285.559	91.370	-0.201	-0.226
-284.545	5.743	-0.049	0.037
-283.530	1.908	-0.157	-0.114
-282.516	-200.000	0.050	0.225
-281.501	-200.000	0.014	0.256
-280.486	-200.000	0.066	-0.296
-279.472	-200.000	-0.054	0.438
-278.457	800.000	-0.067	-0.227
-277.443	-200.000	-0.053	0.247
-276.428	-47.680	0.180	0.088
-275.413	-200.000	-0.011	0.158
-274.399	800.000	0.040	-0.141
-273.384	297.886	-0.068	0.126
-272.370	515.287	-0.133	-0.312
-271.355	-85.233	-0.307	-0.096
-270.340	-20.594	0.070	0.043
-269.326	-200.000	-0.022	-0.162
-268.311	114.926	0.160	-0.196
-267.297	6.407	0.084	-0.063
-266.282	-200.000	-0.020	0.299
-265.267	262.648	0.068	0.119
-264.253	99.845	-0.251	0.292
-263.238	-114.721	-0.025	-0.005
-262.224	800.000	-0.117	-0.338
-261.209	-188.652	0.120	-0.001
-260.195	53.251	0.254	0.244
-259.180	105.863	0.143	0.170
-258.165	-200.000	-0.003	0.160
-257.151	-49.870	0.088	-0.042
-256.136	-191.939	-0.250	-0.002
-255.122	42.589	-0.292	-0.266
-254.107	-119.730	-0.092	0.016
-253.092	156.455	-0.049	0.067
-252.078	20.881	0.085	0.069
-251.063	-115.576	0.388	-0.073
-250.049	620.201	0.033	0.084
-249.034	174.337	0.272	-0.394
-248.019	-200.000	0.010	-0.115
-247.005	-200.000	-0.015	0.093
-245.990	-200.000	-0.020	0.221
-244.976	-87.401	-0.088	-0.027
-243.961	-59.292	0.348	-0.150
-242.946	58.213	0.238	-0.234
-241.932	48.988	-0.119	0.112
-240.917	-113.241	-0.215	0.042
-239.903	-102.257	-0.058	-0.014
-238.888	-111.148	-0.059	-0.012
-237.873	800.000	0.012	-0.051
-236.859	24.809	-0.245	-0.203
-235.844	130.891	-0.233	-0.299
-234.830	-200.000	-0.007	0.049
-233.815	215.752	0.040	0.063
-232.800	75.873	-0.090	0.095
-231.786	24.979	0.101	0.084
-230.771	-200.000	-0.005	0.399
-229.757	159.485	-0.142	-0.198
-228.742	78.691	0.100	0.107
-227.727	27.227	0.097	-0.081
-226.713	-32.333	-0.037	0.021
-225.698	114.756	-0.038	-0.047
-224.684	800.000	0.067	-0.229
-223.669	0.000	-0.184	0.131
-222.655	106.324	-0.022	0.026
-221.640	-56.233	-0.213	0.095
-220.625	-194.233	-0.219	0.002
-219.611	70.570	0.194	0.201
-218.596	-200.000	0.014	0.246
-217.582	-54.669	-0.409	0.185
-216.567	49.616	0.176	0.166
-215.552	33.308	0.053	0.046
-214.538	10.592	-0.220	-0.168
-213.523	-161.710	-0.264	0.013
-212.509	-109.355	0.168	-0.036
-211.494	19.509	0.250	0.201
-210.479	-53.660	-0.220	-0.101
-209.465	550.269	0.136	0.326
-208.450	-200.000	-0.017	0.233
-207.436	800.000	-0.020	0.088
-206.421	218.749	-0.111	-0.177
-205.406	18.234	0.242	-0.193
-204.392	133.128	-0.140	-0.181
-203.377	-114.730	-0.151	-0.029
-202.363	-156.562	0.263	0.016
-201.348	-33.433	0.060	0.033
-200.333	-200.000	-0.018	-0.257
-199.319	-148.069	-0.160	-0.013
-198.304	-200.000	0.033	-0.156
-197.290	459.281	0.093	-0.207
-196.275	769.228	-0.050	0.137
-195.260	22.373	0.204	-0.167
-194.246	196.173	-0.128	0.195
-193.231	102.217	0.176	-0.205
-192.217	100.986	0.133	0.154
-191.202	117.502	-0.177	0.217
-190.187	-98.917	-0.209	-0.053
-189.173	14.119	-0.388	-0.302
-188.158	-92.767	-0.127	0.035
-187.144	-119.520	-0.053	-0.009
-186.129	370.741	0.182	0.368
-185.114	-15.233	0.235	-0.150
-184.100	620.818	-0.128	0.323
-183.085	-200.000	-0.014	0.206
-182.071	-200.000	-0.075	-0.424
-181.056	169.384	-0.133	0.189
-180.042	137.795	0.091	0.119
-179.027	76.626	-0.176	0.186
-178.012	-90.834	-0.104	-0.030
-176.998	-200.000	-0.008	-0.223
-175.983	-162.829	-0.186	0.009
-174.969	142.140	0.134	0.178
-173.954	-200.000	0.013	-0.156
-172.939	-166.578	0.188	0.008
-171.925	-98.239	-0.112	0.029
-170.910	-94.030	-0.070	-0.019
-169.896	-29.918	0.507	0.288
-168.881	50.414	-0.188	-0.177
-167.866	-91.282	0.347	-0.099
-166.852	16.630	-0.047	-0.037
-165.837	216.665	0.070	0.111
-164.823	116.352	-0.113	0.138
-163.808	328.477	0.114	-0.219
-162.793	-1.517	0.020	0.014
-161.779	51.504	-0.052	-0.049
-160.764	-89.013	-0.272	0.080
-159.750	-85.288	-0.450	0.140
-158.735	-200.000	-0.004	0.103
-157.720	-104.742	0.078	0.018
-156.706	102.453	-0.159	-0.186
-155.691	445.616	-0.012	0.027
-154.677	800.000	0.065	-0.222
-153.662	-106.887	-0.168	-0.037
-152.647	-82.843	-0.238	-0.077
-151.633	-128.594	-0.255	-0.036
-150.618	-200.000	-0.035	-0.190
-149.604	-200.000	-0.026	0.161
-148.589	-109.394	0.143	-0.030
-147.574	-48.985	-0.283	-0.135
-146.560	24.040	-0.203	-0.167
-145.545	194.839	-0.171	0.259
-144.531	-181.865	-0.136	-0.003
-143.516	-114.604	0.433	-0.083
-142.502	730.390	0.104	0.277
-141.487	-95.322	0.283	0.076
-140.472	205.580	0.077	-0.119
-139.458	-200.000	-0.001	-0.171
-138.443	-51.402	0.265	-0.123
-137.429	-94.660	0.042	-0.011
-136.414	74.823	-0.188	-0.198
-135.399	313.760	-0.101	0.190
-134.385	-93.486	0.082	0.023
-133.370	-160.448	0.125	0.007
-132.356	407.576	-0.083	0.174
-131.341	-200.000	-0.003	0.055
-130.326	140.215	-0.140	-0.183
-129.312	-104.629	0.167	0.038
-128.297	-32.467	0.251	-0.140
-127.283	-132.944	-0.215	-0.027
-126.268	-152.551	-0.101	-0.007
-125.253	453.332	-0.047	0.104
-124.239	-200.000	0.023	0.179
-123.224	280.949	-0.098	-0.174
