DTS Sentinel unit serial number:	SN413079Multiplexer serial number:	ORYXHardware model number:	OX4-SRSoftware version number:	ORYX F/W v4.00 Oryx Data Collector v3.7.2.0data status	okinstallation	princeton_trtdifferential loss correction	single-endedforward channel	channel 1reverse channel	N/Adate	2019/09/18time	21:06:35forward acquisition time	60.00reverse acquisition time	0.00gamma	496.2192k internal	0.2340k external	0.2340temperature offset calibration	1.0038default loss term (dB/km)	0.3790temperature slope calibration	1.0000multiplexer offset coefficient	1.0000multiplexer slope coefficient	1.0000fibre end	0.00T internal ref (°C)	26.23T ext. ref 1 (°C)	1.08T ext. ref 2 (°C)	18.04length (m)	temperature (°C)	Stokes	anti-Stokes-747.200	-54.917	0.332	0.150
-746.185	-200.000	0.095	0.525
-745.171	-200.000	-0.054	0.336
-744.156	95.940	-0.160	-0.184
-743.142	-200.000	-0.068	0.491
-742.127	-91.933	0.166	-0.047
-741.112	-127.153	-0.319	-0.047
-740.098	-21.725	-0.291	0.177
-739.083	-5.284	-0.179	0.123
-738.069	-108.394	0.055	-0.012
-737.054	22.020	-0.201	0.164
-736.039	-200.000	-0.016	0.260
-735.025	618.264	0.056	0.140
-734.010	82.173	-0.193	-0.210
-732.996	-41.118	-0.342	0.177
-731.981	-200.000	-0.025	0.255
-730.966	40.962	-0.111	0.101
-729.952	-200.000	0.027	-0.537
-728.937	644.336	0.051	0.130
-727.923	406.261	-0.128	-0.272
-726.908	100.748	-0.190	0.222
-725.894	146.480	-0.086	0.116
-724.879	-200.000	-0.054	-0.314
-723.864	-47.593	0.183	0.089
-722.850	-87.203	-0.308	0.094
-721.835	135.038	-0.041	-0.054
-720.821	262.734	0.143	-0.248
-719.806	4.903	-0.096	0.071
-718.791	-119.605	-0.188	0.033
-717.777	800.000	-0.115	0.354
-716.762	-179.148	-0.213	0.005
-715.748	-39.234	0.193	-0.102
-714.733	73.025	0.046	-0.049
-713.718	329.614	-0.112	-0.216
-712.704	-47.706	-0.187	0.091
-711.689	-32.941	-0.145	0.081
-710.675	-193.587	0.240	-0.002
-709.660	-200.000	0.051	-0.395
-708.645	132.167	-0.216	0.278
-707.631	-200.000	-0.024	-0.190
-706.616	196.591	0.173	-0.264
-705.602	-200.000	-0.025	0.259
-704.587	-200.000	0.001	0.016
-703.572	800.000	-0.048	0.176
-702.558	-59.039	-0.087	-0.038
-701.543	-200.000	-0.001	-0.362
-700.529	191.812	-0.061	-0.093
-699.514	-200.000	0.009	-0.078
-698.499	6.701	0.194	-0.144
-697.485	-137.632	-0.077	-0.009
-696.470	144.990	0.195	-0.261
-695.456	-42.909	-0.126	-0.064
-694.441	-200.000	-0.004	-0.205
-693.426	-200.000	0.028	0.311
-692.412	-200.000	0.067	0.402
-691.397	189.746	0.064	-0.096
-690.383	800.000	-0.006	-0.019
-689.368	166.935	0.044	-0.062
-688.354	420.041	-0.086	-0.185
-687.339	289.447	0.172	-0.312
-686.324	208.495	-0.055	-0.087
-685.310	-75.812	0.323	0.115
-684.295	-92.656	-0.148	0.041
-683.281	-21.260	-0.035	-0.021
-682.266	175.857	0.061	-0.089
-681.251	64.644	-0.201	0.203
-680.237	432.424	0.207	0.450
-679.222	-2.924	-0.288	0.201
-678.208	147.704	0.175	-0.236
-677.193	62.955	-0.242	0.243
-676.178	-200.000	-0.008	0.188
-675.164	-200.000	-0.026	0.163
-674.149	-181.624	-0.221	-0.004
-673.135	635.893	-0.126	-0.319
-672.120	-76.511	-0.360	-0.127
-671.105	-5.122	-0.033	-0.023
-670.091	56.822	-0.104	0.101
-669.076	186.529	-0.213	-0.317
-668.062	-200.000	-0.024	0.150
-667.047	80.434	0.231	0.248
-666.032	800.000	-0.058	0.191
-665.018	4.008	-0.171	-0.125
-664.003	-108.437	0.148	0.032
-662.989	562.969	0.003	0.008
-661.974	-167.718	-0.166	0.007
-660.959	55.928	0.051	0.050
-659.945	-61.049	0.122	0.051
-658.930	753.837	0.039	-0.107
-657.916	149.244	-0.045	-0.061
-656.901	-126.734	0.215	0.032
-655.886	800.000	-0.092	0.267
-654.872	-94.844	-0.114	-0.031
-653.857	-88.049	0.192	0.058
-652.843	-114.299	0.489	0.094
-651.828	-200.000	-0.008	-0.073
-650.814	-43.894	0.228	-0.115
-649.799	-24.258	0.177	-0.106
-648.784	-50.537	0.393	-0.185
-647.770	358.079	0.069	-0.137
-646.755	-200.000	0.049	-0.238
-645.741	-63.388	-0.091	-0.037
-644.726	-200.000	0.008	-0.116
-643.711	-133.443	0.364	0.046
-642.697	-129.546	0.180	0.025
-641.682	-200.000	0.014	-0.221
-640.668	135.595	0.054	-0.070
-639.653	-200.000	0.012	-0.303
-638.638	57.961	0.089	0.087
-637.624	119.947	-0.204	-0.253
-636.609	265.702	0.126	-0.220
-635.595	493.339	-0.135	-0.309
-634.580	28.874	-0.300	0.254
-633.565	-150.524	-0.157	-0.012
-632.551	-200.000	0.016	0.188
-631.536	219.922	0.057	-0.091
-630.522	-19.446	-0.220	-0.136
-629.507	325.989	0.216	-0.414
-628.492	337.226	-0.042	0.081
-627.478	222.217	-0.075	0.121
-626.463	149.787	0.010	-0.014
-625.449	-200.000	-0.022	-0.142
-624.434	9.493	0.412	-0.311
-623.419	-200.000	0.012	-0.072
-622.405	-95.534	-0.062	0.017
-621.390	-200.000	-0.008	-0.045
-620.376	-112.301	0.249	0.050
-619.361	-107.384	0.234	-0.051
-618.346	406.702	-0.170	-0.358
-617.332	-18.961	-0.169	0.105
-616.317	70.982	0.171	-0.176
-615.303	-116.070	-0.101	0.019
-614.288	-178.717	0.234	0.005
-613.273	209.036	-0.111	0.174
-612.259	800.000	-0.032	0.121
-611.244	800.000	-0.046	-0.135
-610.230	772.263	0.102	-0.276
-609.215	-105.520	0.179	-0.041
-608.201	218.034	-0.313	-0.499
-607.186	-200.000	-0.018	-0.188
-606.171	-186.526	0.323	0.005
-605.157	56.268	-0.211	0.204
-604.142	-107.059	-0.044	-0.010
-603.128	206.535	0.161	0.250
-602.113	320.572	-0.100	-0.190
-601.098	-200.000	0.012	0.225
-600.084	179.426	0.215	-0.314
-599.069	-81.791	-0.164	0.054
-598.055	19.419	-0.114	0.091
-597.040	100.966	0.250	0.290
-596.025	-200.000	-0.007	0.228
-595.011	-68.122	0.026	-0.010
-593.996	20.378	-0.186	-0.150
-592.982	-98.447	-0.066	0.017
-591.967	-200.000	-0.032	-0.292
-590.952	272.387	-0.131	-0.231
-589.938	-15.114	-0.115	0.073
-588.923	-159.475	-0.161	0.009
-587.909	436.750	-0.033	0.072
-586.894	800.000	0.096	0.350
-585.879	-75.939	0.201	0.071
-584.865	325.096	-0.184	0.350
-583.850	588.702	0.104	0.255
-582.836	-112.068	0.019	0.004
-581.821	-151.196	0.187	-0.014
-580.806	-55.667	-0.050	0.022
-579.792	-110.379	-0.390	-0.081
-578.777	320.980	0.079	-0.150
-577.763	371.956	0.100	-0.203
-576.748	-200.000	0.057	-0.298
-575.733	-30.051	-0.348	-0.197
-574.719	630.256	-0.179	-0.451
-573.704	303.767	0.158	0.291
-572.690	84.683	0.136	0.148
-571.675	164.677	-0.086	0.121
-570.661	-193.836	0.211	-0.002
-569.646	-153.939	-0.099	-0.007
-568.631	800.000	-0.064	0.176
-567.617	-26.389	-0.181	0.106
-566.602	-52.770	0.199	-0.091
-565.588	-200.000	-0.038	0.217
-564.573	-83.949	-0.092	-0.029
-563.558	294.380	0.123	-0.224
-562.544	210.472	0.119	-0.187
-561.529	185.596	0.085	-0.126
-560.515	-4.710	-0.129	0.088
-559.500	800.000	-0.038	-0.110
-558.485	67.294	0.151	-0.154
-557.471	105.285	0.069	-0.081
-556.456	43.283	0.167	-0.152
-555.442	-200.000	-0.001	0.177
-554.427	-176.669	-0.193	0.005
-553.412	-112.630	0.045	0.009
-552.398	-73.742	0.050	-0.018
-551.383	-113.332	-0.103	0.020
-550.369	315.085	0.101	0.189
-549.354	153.644	0.107	0.145
-548.339	-18.756	-0.268	0.166
-547.325	-21.417	0.299	-0.181
-546.310	-97.379	0.166	0.043
-545.296	459.422	-0.115	0.254
-544.281	523.126	-0.121	-0.284
-543.266	-33.728	0.177	0.097
-542.252	-200.000	-0.082	-0.415
-541.237	-200.000	-0.007	0.119
-540.223	-200.000	0.032	0.163
-539.208	-200.000	0.004	0.101
-538.193	800.000	0.089	0.319
-537.179	-57.271	-0.397	0.174
-536.164	-127.091	0.084	-0.012
-535.150	630.320	0.058	0.146
-534.135	-107.476	-0.058	0.013
-533.121	588.430	-0.101	0.248
-532.106	-52.280	0.327	0.151
-531.091	108.868	0.068	0.081
-530.077	-19.226	-0.451	0.278
-529.062	112.447	0.185	-0.223
-528.048	241.243	0.061	-0.101
-527.033	-163.364	-0.028	0.001
-526.018	-56.292	-0.306	-0.135
-525.004	38.994	-0.223	0.198
-523.989	51.109	0.234	0.220
-522.975	-22.929	-0.080	0.048
-521.960	379.495	-0.160	-0.326
-520.945	-102.265	0.304	0.073
-519.931	-107.191	-0.227	0.050
-518.916	-200.000	-0.049	-0.277
-517.902	-118.701	-0.306	-0.054
-516.887	-135.083	0.341	-0.041
-515.872	-200.000	0.049	-0.383
-514.858	13.011	0.180	0.138
-513.843	800.000	-0.028	0.091
-512.829	289.776	0.047	-0.084
-511.814	-200.000	0.046	-0.340
-510.799	-141.799	0.340	0.034
-509.785	330.648	-0.029	0.056
-508.770	-200.000	0.011	-0.290
-507.756	-142.428	-0.193	0.019
-506.741	-200.000	-0.002	0.258
-505.726	-179.706	0.144	-0.003
-504.712	-200.000	-0.016	-0.287
-503.697	459.424	-0.134	-0.296
-502.683	118.516	0.064	0.079
-501.668	-200.000	-0.007	-0.440
-500.653	303.198	0.138	-0.253
-499.639	348.659	0.144	-0.281
-498.624	-5.394	0.384	0.262
-497.610	207.498	0.079	-0.123
-496.595	-200.000	-0.040	-0.387
-495.581	-63.417	-0.055	0.023
-494.566	-150.088	-0.406	0.031
-493.551	206.795	-0.079	-0.122
-492.537	202.198	-0.158	0.241
-491.522	255.089	-0.050	-0.084
-490.508	271.026	0.113	0.197
-489.493	-63.122	-0.181	-0.074
-488.478	-87.014	-0.198	0.060
-487.464	-200.000	0.011	0.160
-486.449	67.883	0.094	0.095
-485.435	317.269	0.088	0.166
-484.420	800.000	0.047	-0.137
-483.405	-74.524	0.201	-0.072
-482.391	-83.983	0.151	-0.048
-481.376	-200.000	0.108	-0.486
-480.362	-68.027	0.221	0.086
-479.347	-0.325	-0.138	-0.097
-478.332	172.865	-0.046	-0.066
-477.318	-99.897	-0.126	0.031
-476.303	800.000	-0.043	-0.134
-475.289	-200.000	0.023	0.451
-474.274	193.374	-0.109	0.164
-473.259	98.093	-0.128	0.146
-472.245	-60.503	-0.055	0.023
-471.230	-134.891	-0.299	-0.036
-470.216	800.000	-0.087	0.254
-469.201	-200.000	0.024	-0.319
-468.186	565.816	0.147	-0.354
-467.172	266.779	-0.055	-0.096
-466.157	-70.385	0.283	-0.106
-465.143	-18.882	-0.027	-0.016
-464.128	800.000	0.045	0.181
-463.113	512.921	0.042	-0.097
-462.099	-48.295	0.127	-0.061
-461.084	-133.449	-0.188	-0.023
-460.070	-62.753	-0.205	-0.084
-459.055	-128.082	0.336	0.048
-458.040	792.179	-0.032	0.086
-457.026	576.083	-0.233	0.565
-456.011	-29.783	-0.091	0.052
-454.997	-174.615	0.106	0.003
-453.982	36.986	0.171	-0.150
-452.968	-132.411	0.302	-0.039
-451.953	-112.025	0.348	-0.069
-450.938	12.020	-0.370	-0.282
-449.924	-124.827	-0.470	0.072
-448.909	-23.841	0.158	0.093
-447.895	-127.307	0.038	0.005
-446.880	93.620	-0.138	0.155
-445.865	116.758	0.166	0.202
-444.851	56.324	0.249	0.239
-443.836	-18.756	-0.182	-0.112
-442.822	-48.391	-0.227	0.108
-441.807	-200.000	0.015	-0.170
-440.792	89.927	0.133	-0.147
-439.778	-200.000	0.046	-0.288
-438.763	67.594	0.158	-0.160
-437.749	-45.153	0.289	0.142
-436.734	-41.825	0.194	0.098
-435.719	-200.000	0.019	0.193
-434.705	57.963	0.174	-0.168
-433.690	-106.140	0.278	0.062
-432.676	800.000	-0.035	-0.101
-431.661	-167.185	0.077	0.003
-430.646	-200.000	-0.046	-0.316
-429.632	9.600	-0.141	-0.106
-428.617	800.000	-0.115	-0.391
-427.603	-200.000	-0.066	0.318
-426.588	-200.000	0.002	0.364
-425.573	800.000	0.078	-0.219
-424.559	662.074	-0.049	0.125
-423.544	56.455	-0.109	0.105
-422.530	-127.713	0.075	-0.011
-421.515	800.000	-0.104	0.348
-420.500	132.908	0.150	0.192
-419.486	-144.397	0.349	-0.032
-418.471	-64.100	-0.213	-0.086
-417.457	-100.314	0.143	0.035
-416.442	391.691	-0.087	-0.178
-415.428	66.156	-0.278	-0.279
-414.413	97.605	0.128	-0.146
-413.398	524.282	-0.074	-0.171
-412.384	64.444	-0.277	0.276
-411.369	178.933	0.101	-0.146
-410.355	-200.000	-0.008	0.262
-409.340	618.053	0.064	-0.160
-408.325	138.054	-0.265	-0.344
-407.311	-200.000	-0.092	-0.440
-406.296	98.064	-0.046	-0.053
-405.282	227.501	-0.134	-0.215
-404.267	800.000	-0.076	0.214
-403.252	-132.272	-0.453	-0.058
-402.238	17.629	-0.234	-0.184
-401.223	800.000	-0.045	0.155
-400.209	-15.229	-0.127	0.081
-399.194	21.977	-0.533	0.430
-398.179	-160.356	0.274	0.015
-397.165	-200.000	-0.036	0.185
-396.150	148.934	0.101	-0.135
-395.136	651.067	-0.067	0.169
-394.121	-51.163	-0.074	0.034
-393.106	-136.748	0.138	-0.016
-392.092	61.883	0.105	-0.104
-391.077	800.000	0.110	0.415
-390.063	316.472	0.023	-0.044
-389.048	-128.903	0.128	0.018
-388.033	-23.305	0.184	0.109
-387.019	-168.195	-0.605	-0.023
-386.004	126.686	-0.078	0.098
-384.990	61.228	-0.152	-0.149
-383.975	-91.310	-0.248	-0.070
-382.960	800.000	0.072	0.289
-381.946	127.593	-0.077	-0.097
-380.931	800.000	0.121	0.362
-379.917	-200.000	-0.025	-0.171
-378.902	404.449	0.051	-0.106
-377.888	-200.000	-0.104	0.561
-376.873	59.731	0.236	-0.230
-375.858	-39.991	0.112	-0.058
-374.844	-200.000	0.019	-0.153
-373.829	315.317	-0.116	0.216
-372.815	800.000	0.073	0.234
-371.800	22.058	-0.302	-0.244
-370.785	-200.000	0.011	0.057
-369.771	-108.910	-0.389	-0.082
-368.756	-86.130	0.065	-0.020
-367.742	-158.853	0.400	-0.023
-366.727	800.000	0.118	-0.398
-365.712	-65.596	0.143	0.057
-364.698	-42.422	-0.406	-0.205
-363.683	342.750	-0.061	0.117
-362.669	-146.086	0.455	0.040
-361.654	-200.000	-0.010	0.065
-360.639	-200.000	-0.014	-0.091
-359.625	-41.590	-0.207	-0.105
-358.610	142.986	0.059	-0.077
-357.596	-161.550	0.109	0.006
-356.581	18.658	0.295	0.233
-355.566	166.348	-0.042	0.059
-354.552	-200.000	-0.041	-0.223
-353.537	604.399	-0.134	0.330
-352.523	-200.000	-0.089	0.466
-351.508	-27.926	0.330	-0.189
-350.493	-200.000	-0.008	0.055
-349.479	149.025	-0.078	0.104
-348.464	-128.645	-0.382	-0.053
-347.450	5.857	0.191	-0.139
-346.435	-100.051	0.133	-0.033
-345.420	-200.000	0.013	-0.228
-344.406	-41.520	-0.063	0.032
-343.391	63.723	-0.042	0.042
-342.377	-143.330	0.311	0.029
-341.362	-200.000	0.051	0.274
-340.348	-173.734	0.081	-0.002
-339.333	40.888	0.121	0.108
-338.318	-68.754	-0.402	-0.153
-337.304	-46.638	-0.148	-0.072
-336.289	20.743	-0.252	0.202
-335.275	-200.000	-0.014	-0.241
-334.260	800.000	-0.025	0.079
-333.245	140.480	-0.142	0.185
-332.231	-71.004	-0.137	-0.051
-331.216	-200.000	-0.035	-0.181
-330.202	-111.643	-0.257	0.051
-329.187	-162.430	0.619	-0.030
-328.172	110.036	-0.185	-0.219
-327.158	118.884	-0.165	0.201
-326.143	-39.791	0.162	-0.084
-325.129	-200.000	0.010	0.107
-324.114	800.000	0.076	-0.269
-323.099	-200.000	0.004	0.159
-322.085	83.377	0.119	0.128
-321.070	78.995	-0.091	-0.096
-320.056	-48.894	0.050	-0.024
-319.041	-125.505	-0.304	0.046
-318.026	-200.000	-0.066	-0.381
-317.012	93.664	0.113	0.126
-315.997	-82.487	-0.281	0.090
-314.983	800.000	0.032	-0.096
-313.968	-200.000	-0.006	-0.043
-312.953	312.112	0.201	-0.372
-311.939	800.000	0.058	0.164
-310.924	800.000	-0.124	0.367
-309.910	-115.274	-0.507	-0.094
-308.895	204.403	0.241	0.369
-307.880	-200.000	0.010	0.243
-306.866	-150.792	0.074	0.006
-305.851	-77.049	-0.150	-0.052
-304.837	-200.000	0.020	0.235
-303.822	319.565	-0.077	0.144
-302.807	56.935	-0.192	0.184
-301.793	106.728	-0.157	-0.183
-300.778	33.706	0.325	0.278
-299.764	10.422	-0.221	0.166
-298.749	-200.000	0.002	-0.129
-297.735	66.098	-0.219	-0.219
-296.720	537.791	-0.113	0.265
-295.705	-46.242	0.306	0.148
-294.691	-15.317	0.164	-0.104
-293.676	-200.000	0.061	0.322
-292.662	27.745	0.050	-0.042
-291.647	-200.000	0.060	0.409
-290.632	-200.000	-0.015	-0.203
-289.618	-200.000	0.036	-0.184
-288.603	-112.246	-0.232	-0.046
-287.589	-159.263	-0.113	0.006
-286.574	-45.098	0.145	0.071
-285.559	-146.937	-0.133	0.011
-284.545	278.059	-0.187	0.328
-283.530	-171.828	0.226	0.007
-282.516	-116.991	0.218	-0.039
-281.501	271.668	0.114	0.198
-280.486	800.000	0.193	0.557
-279.472	-63.114	-0.285	0.116
-278.457	451.229	-0.170	0.371
-277.443	-60.546	0.034	0.014
-276.428	-73.899	0.603	-0.215
-275.413	-200.000	0.027	0.170
-274.399	800.000	0.082	0.227
-273.384	759.541	0.065	0.173
-272.370	-114.820	-0.160	0.030
-271.355	-100.445	-0.396	-0.097
-270.340	-113.957	-0.142	-0.027
-269.326	12.995	0.113	0.086
-268.311	800.000	0.084	0.272
-267.297	226.203	-0.030	0.048
-266.282	-168.679	0.172	0.006
-265.267	-119.293	0.566	0.097
-264.253	800.000	-0.025	0.097
-263.238	-97.303	-0.255	0.065
-262.224	110.027	0.217	0.256
-261.209	800.000	0.028	0.096
-260.195	800.000	0.095	-0.385
-259.180	-17.585	-0.091	0.056
-258.165	110.082	-0.075	0.089
-257.151	-97.682	-0.186	0.048
-256.136	-183.939	-0.297	0.005
-255.122	-194.445	0.171	-0.001
-254.107	-200.000	0.043	0.380
-253.092	145.893	-0.164	0.216
-252.078	800.000	0.123	0.402
-251.063	388.472	0.016	0.033
-250.049	-97.705	0.215	-0.055
-249.034	-153.458	0.113	0.008
-248.019	-132.784	0.179	0.022
-247.005	-26.464	-0.090	0.052
-245.990	-21.592	0.090	0.054
-244.976	106.918	-0.118	0.138
-243.961	800.000	-0.113	0.328
-242.946	32.907	0.313	-0.266
-241.932	-106.058	-0.221	0.049
-240.917	-63.286	-0.082	-0.033
-239.903	25.624	-0.141	0.115
-238.888	87.787	0.079	-0.086
-237.873	264.015	0.155	-0.265
-236.859	115.513	-0.163	-0.196
-235.844	-53.646	0.040	-0.018
-234.830	4.056	0.255	0.183
-233.815	-6.098	-0.360	-0.242
-232.800	70.179	0.206	0.209
-231.786	47.199	-0.301	-0.275
-230.771	-143.863	-0.144	-0.013
-229.757	-200.000	-0.002	0.025
-228.742	-200.000	0.001	-0.059
-227.727	377.729	-0.087	0.175
-226.713	132.980	0.079	-0.101
-225.698	-135.082	-0.263	0.031
-224.684	329.606	0.085	0.160
-223.669	92.907	0.386	0.428
-222.655	362.195	-0.066	0.130
-221.640	-200.000	-0.023	-0.105
-220.625	800.000	-0.064	0.190
-219.611	-23.166	0.470	0.278
-218.596	-103.972	0.086	-0.020
-217.582	-68.743	-0.385	-0.146
-216.567	133.540	-0.078	0.100
-215.552	193.279	0.171	0.255
-214.538	45.364	-0.140	0.127
-213.523	-87.392	-0.177	-0.053
-212.509	113.221	0.105	-0.126
-211.494	48.513	-0.164	-0.151
-210.479	-200.000	-0.035	-0.190
-209.465	-10.897	-0.059	0.038
-208.450	105.553	0.020	0.023
-207.436	31.546	-0.258	0.218
-206.421	-36.558	-0.033	-0.018
-205.406	140.980	0.088	0.114
-204.392	-200.000	0.032	0.251
-203.377	-111.139	0.250	-0.050
-202.363	208.501	0.112	-0.172
-201.348	-77.125	-0.142	-0.048
-200.333	-140.464	-0.583	0.060
-199.319	800.000	-0.055	0.184
-198.304	-89.573	0.301	0.087
-197.290	-96.048	0.248	-0.065
-196.275	-200.000	-0.067	-0.404
-195.260	-96.530	-0.580	-0.150
-194.246	-110.269	0.318	0.065
-193.231	199.045	-0.071	-0.106
-192.217	56.100	-0.129	0.123
-191.202	800.000	-0.075	-0.231
-190.187	327.616	0.072	-0.135
-189.173	-200.000	0.008	-0.047
-188.158	-200.000	-0.018	-0.422
-187.144	467.649	0.032	0.071
-186.129	76.042	0.108	0.112
-185.114	-153.970	0.103	0.007
-184.100	288.594	0.079	0.139
-183.085	-27.916	0.263	0.149
-182.071	179.104	0.118	-0.169
-181.056	-117.498	0.235	0.042
-180.042	-96.643	0.121	0.031
-179.027	338.567	-0.136	-0.260
-178.012	78.241	-0.129	-0.135
-176.998	-94.704	-0.582	-0.155
-175.983	69.829	0.156	-0.158
-174.969	-128.162	0.177	-0.025
-173.954	1.144	-0.095	-0.067
-172.939	47.665	0.079	-0.072
-171.925	800.000	0.025	0.069
-170.910	-200.000	0.001	0.014
-169.896	91.829	0.055	0.061
-168.881	-200.000	-0.032	-0.294
-167.866	6.294	0.100	-0.073
-166.852	-200.000	-0.020	-0.233
-165.837	-63.601	-0.059	-0.024
-164.823	-108.682	0.067	-0.014
-163.808	7.359	-0.041	0.030
-162.793	-48.067	0.256	0.121
-161.779	-39.786	-0.310	0.159
-160.764	-73.846	0.367	-0.131
-159.750	-200.000	-0.027	-0.170
-158.735	94.795	-0.096	-0.107
-157.720	-79.598	-0.133	-0.044
-156.706	-80.086	0.244	0.080
-155.691	-167.568	0.069	-0.003
-154.677	113.005	0.174	0.207
-153.662	-98.127	-0.099	0.025
-152.647	-85.957	0.401	-0.121
-151.633	-35.963	-0.216	-0.115
-150.618	-122.891	0.296	0.047
-149.604	3.707	0.066	-0.047
-148.589	-200.000	-0.120	-0.624
-147.574	-200.000	-0.075	-0.375
-146.560	-168.102	-0.085	-0.003
-145.545	-46.093	-0.331	-0.160
-144.531	561.294	-0.133	0.314
-143.516	677.162	0.056	0.143
-142.502	-47.288	-0.125	-0.059
-141.487	-56.978	0.248	-0.107
-140.472	800.000	0.079	-0.245
-139.458	317.701	0.120	-0.222
-138.443	410.637	0.092	0.192
-137.429	193.660	-0.128	0.189
-136.414	6.615	-0.075	-0.054
-135.399	261.201	0.035	-0.059
-134.385	-120.561	-0.016	-0.003
-133.370	-71.561	-0.219	-0.080
-132.356	-170.236	-0.227	-0.008
-131.341	-79.894	0.186	-0.061
-130.326	-200.000	-0.039	0.264
-129.312	-89.838	0.338	0.097
-128.297	-120.035	-0.144	-0.024
-127.283	-57.960	0.069	0.030
-126.268	416.172	0.145	0.303
-125.253	161.001	0.018	-0.024
-124.239	-200.000	-0.047	-0.303
-123.224	-92.844	0.196	-0.053
-122.210	350.543	0.073	-0.140
