DTS Sentinel unit serial number:	SN413079Multiplexer serial number:	ORYXHardware model number:	OX4-SRSoftware version number:	ORYX F/W v4.00 Oryx Data Collector v3.7.2.0data status	okinstallation	princeton_trtdifferential loss correction	single-endedforward channel	channel 1reverse channel	N/Adate	2019/09/12time	19:40:34forward acquisition time	15.00reverse acquisition time	0.00gamma	496.2192k internal	0.2322k external	0.2322temperature offset calibration	1.0139default loss term (dB/km)	0.3790temperature slope calibration	1.0000multiplexer offset coefficient	1.0000multiplexer slope coefficient	1.0000fibre end	0.00T internal ref (°C)	32.06T ext. ref 1 (°C)	3.38T ext. ref 2 (°C)	26.69length (m)	temperature (°C)	Stokes	anti-Stokes-747.200	482.710	-0.494	1.135
-746.185	-64.784	0.672	0.275
-745.171	2.536	-0.231	0.169
-744.156	-35.898	-0.739	0.404
-743.142	135.052	-0.162	0.212
-742.127	467.956	-0.122	0.276
-741.112	367.511	0.267	-0.544
-740.098	53.503	0.242	-0.235
-739.083	-81.007	-0.341	0.114
-738.069	-71.746	-0.903	0.340
-737.054	526.595	-0.318	0.757
-736.039	68.697	-0.236	0.245
-735.025	47.674	-0.186	0.176
-734.010	-200.000	-0.130	-0.676
-732.996	800.000	-0.080	-0.299
-731.981	-14.806	0.591	-0.383
-730.966	84.122	-0.394	0.435
-729.952	-200.000	0.007	0.866
-728.937	-200.000	-0.016	-0.775
-727.923	18.333	-0.412	-0.332
-726.908	800.000	-0.147	0.616
-725.894	48.934	-0.459	0.435
-724.879	159.460	0.154	-0.216
-723.864	18.379	0.076	-0.061
-722.850	-93.356	0.896	0.251
-721.835	694.718	-0.128	-0.340
-720.821	57.019	0.592	0.583
-719.806	494.429	-0.169	-0.392
-718.791	23.188	-0.263	0.218
-717.777	-37.293	-0.181	0.097
-716.762	-200.000	0.062	-0.578
-715.748	-200.000	0.029	-0.339
-714.733	-200.000	0.146	0.909
-713.718	800.000	-0.172	0.529
-712.704	-87.339	-0.622	0.190
-711.689	-122.787	0.895	0.146
-710.675	-200.000	-0.009	-0.137
-709.660	-103.354	-0.337	0.080
-708.645	-200.000	0.157	1.255
-707.631	96.047	0.258	-0.297
-706.616	-21.826	1.172	-0.719
-705.602	486.745	0.171	0.394
-704.587	800.000	0.221	0.848
-703.572	394.104	-0.231	0.485
-702.558	-87.214	-0.514	-0.158
-701.543	9.964	0.091	-0.070
-700.529	150.390	-0.435	-0.596
-699.514	-180.928	-0.657	-0.013
-698.499	114.108	0.385	-0.472
-697.485	800.000	-0.260	0.789
-696.470	-200.000	0.073	0.560
-695.456	12.411	0.321	-0.250
-694.441	0.521	0.203	0.146
-693.426	-200.000	0.090	-0.662
-692.412	800.000	0.096	-0.273
-691.397	146.123	0.757	1.024
-690.383	-47.270	-0.303	0.149
-689.368	-200.000	0.139	-0.794
-688.354	-4.378	-0.636	0.444
-687.339	800.000	0.249	-1.021
-686.324	-95.201	-0.236	0.064
-685.310	173.290	0.203	-0.295
-684.295	-200.000	-0.340	0.000
-683.281	145.652	-0.186	0.251
-682.266	13.625	-0.203	0.159
-681.251	-44.878	0.803	0.403
-680.237	487.084	-0.055	0.127
-679.222	-59.967	1.247	0.537
-678.208	-23.387	-0.535	0.324
-677.193	-27.069	-0.255	0.150
-676.178	85.005	0.403	0.446
-675.164	-200.000	-0.026	-0.546
-674.149	-127.696	0.247	-0.036
-673.135	449.787	-0.227	-0.504
-672.120	-22.564	0.359	-0.219
-671.105	-200.000	0.004	0.336
-670.091	-185.152	-0.596	-0.009
-669.076	-62.683	0.804	0.336
-668.062	-195.881	0.772	0.006
-667.047	174.710	-0.266	0.388
-666.032	238.310	-0.366	0.612
-665.018	43.390	0.640	0.589
-664.003	752.847	-0.068	0.186
-662.989	132.091	-0.330	-0.428
-661.974	800.000	-0.016	-0.047
-660.959	800.000	-0.141	-0.402
-659.945	-159.633	0.133	0.007
-658.930	486.002	-0.300	-0.690
-657.916	-49.516	-0.663	0.318
-656.901	-70.108	-0.154	-0.059
-655.886	156.161	0.308	0.428
-654.872	-45.351	-0.468	-0.234
-653.857	-200.000	0.010	-0.106
-652.843	77.127	0.590	0.631
-651.828	-9.967	-0.224	0.150
-650.814	-200.000	-0.010	0.293
-649.799	26.432	0.162	0.136
-648.784	-200.000	0.028	-0.300
-647.770	-200.000	0.015	0.605
-646.755	3.023	-0.630	-0.461
-645.741	-101.534	-0.067	-0.016
-644.726	-101.666	1.033	-0.252
-643.711	-93.572	0.965	0.269
-642.697	118.302	0.252	0.313
-641.682	326.672	0.325	0.627
-640.668	-139.264	-0.707	-0.077
-639.653	72.677	-0.173	-0.182
-638.638	-98.000	-0.755	-0.196
-637.624	20.312	0.499	0.405
-636.609	434.949	-0.283	0.620
-635.595	-92.220	-0.286	-0.081
-634.580	800.000	-0.146	-0.493
-633.565	-42.782	0.953	-0.487
-632.551	-200.000	0.060	0.332
-631.536	-200.000	0.013	0.673
-630.522	-31.947	0.941	-0.530
-629.507	21.162	-0.530	0.433
-628.492	-97.779	0.663	0.172
-627.478	-127.408	0.438	0.064
-626.463	215.577	-0.166	0.266
-625.449	-67.770	0.318	-0.125
-624.434	110.357	0.342	-0.414
-623.419	-200.000	0.112	0.729
-622.405	679.730	-0.027	-0.071
-621.390	16.990	-0.706	-0.563
-620.376	5.802	0.061	-0.045
-619.361	-200.000	-0.011	0.310
-618.346	-53.717	-0.722	-0.332
-617.332	-27.335	-0.781	0.457
-616.317	83.969	-0.181	0.199
-615.303	-200.000	0.001	0.718
-614.288	-200.000	-0.030	0.688
-613.273	-39.454	0.332	-0.175
-612.259	800.000	-0.145	-0.521
-611.244	800.000	-0.147	-0.633
-610.230	-80.443	-0.333	-0.112
-609.215	142.080	0.266	-0.354
-608.201	288.871	-0.135	0.245
-607.186	-89.330	0.286	-0.085
-606.171	153.498	0.393	0.540
-605.157	293.846	0.221	-0.405
-604.142	800.000	0.101	-0.366
-603.128	290.862	-0.329	0.600
-602.113	126.148	-0.353	-0.449
-601.098	253.052	-0.136	-0.233
-600.084	243.621	-0.334	0.562
-599.069	-71.816	0.487	-0.182
-598.055	-38.533	-0.285	-0.152
-597.040	439.603	-0.247	0.542
-596.025	174.190	0.625	-0.908
-595.011	-200.000	-0.077	-0.564
-593.996	-94.862	0.933	0.254
-592.982	521.670	0.172	-0.406
-591.967	46.574	-0.344	-0.321
-590.952	-200.000	-0.137	-0.676
-589.938	-81.111	-0.943	-0.313
-588.923	406.006	-0.263	-0.558
-587.909	-200.000	0.043	0.243
-586.894	-26.002	0.331	0.196
-585.879	-13.143	-0.821	0.536
-584.865	-98.077	0.355	0.092
-583.850	-121.440	0.816	0.136
-582.836	-200.000	0.107	0.558
-581.821	-178.855	0.413	0.009
-580.806	800.000	0.189	0.699
-579.792	-130.245	-0.879	-0.120
-578.777	-200.000	0.115	0.546
-577.763	-146.621	-0.820	0.071
-576.748	-200.000	-0.003	0.669
-575.733	41.181	-0.612	-0.555
-574.719	243.887	-0.374	-0.630
-573.704	-67.123	-0.441	0.174
-572.690	-33.685	-0.180	0.100
-571.675	34.088	0.190	0.166
-570.661	-32.722	0.387	0.216
-569.646	59.709	-0.244	0.241
-568.631	-34.515	0.367	0.202
-567.617	84.805	-0.267	0.294
-566.602	-113.829	0.424	0.083
-565.588	-30.916	-0.593	0.336
-564.573	105.525	-0.571	-0.677
-563.558	-39.510	0.483	0.254
-562.544	-12.868	-0.536	-0.350
-561.529	-115.766	0.886	-0.166
-560.515	212.478	-0.241	-0.382
-559.500	613.512	0.123	-0.308
-558.485	33.276	0.422	-0.368
-557.471	2.503	-0.688	-0.500
-556.456	-28.419	-0.482	-0.279
-555.442	-12.466	0.102	0.067
-554.427	116.612	-0.220	0.271
-553.412	-200.000	-0.087	-0.516
-552.398	40.437	-0.239	-0.216
-551.383	-117.056	0.637	-0.117
-550.369	-59.846	-0.971	0.417
-549.354	150.977	-0.108	0.147
-548.339	-3.218	-0.433	-0.302
-547.325	800.000	-0.035	-0.150
-546.310	-116.534	0.651	0.120
-545.296	24.227	-0.523	-0.433
-544.281	3.520	0.549	0.401
-543.266	-200.000	0.021	0.408
-542.252	800.000	0.130	0.532
-541.237	430.272	-0.592	-1.283
-540.223	42.020	0.406	-0.369
-539.208	503.523	0.180	-0.417
-538.193	-200.000	0.130	1.406
-537.179	-128.119	0.391	0.056
-536.164	-123.683	-0.672	0.107
-535.150	-27.471	-0.687	-0.400
-534.135	142.496	0.525	0.698
-533.121	-98.084	0.545	0.141
-532.106	-200.000	-0.065	-0.679
-531.091	-78.689	-1.057	0.362
-530.077	-168.024	0.503	-0.020
-529.062	-200.000	-0.048	-0.283
-528.048	-111.527	-0.509	-0.104
-527.033	-56.272	0.632	-0.281
-526.018	95.597	-0.200	0.228
-525.004	125.368	-0.660	0.833
-523.989	-91.690	-0.342	-0.098
-522.975	-37.547	-0.586	-0.313
-521.960	-19.701	-0.394	0.244
-520.945	800.000	0.059	0.214
-519.931	-200.000	0.034	-0.298
-518.916	16.389	-0.371	-0.293
-517.902	-99.057	-0.318	0.081
-516.887	-200.000	-0.003	0.093
-515.872	-82.895	0.309	-0.100
-514.858	-188.126	0.345	0.004
-513.843	228.748	-0.257	0.419
-512.829	-55.079	-0.248	-0.112
-511.814	-200.000	0.030	-0.810
-510.799	-35.742	-0.345	0.187
-509.785	351.527	0.058	-0.114
-508.770	-39.852	0.230	0.120
-507.756	-200.000	0.012	-0.498
-506.741	-155.920	0.187	-0.012
-505.726	-200.000	-0.110	0.689
-504.712	800.000	-0.063	0.175
-503.697	166.332	-0.004	-0.006
-502.683	800.000	0.188	-0.532
-501.668	800.000	-0.066	-0.199
-500.653	-77.573	0.238	0.082
-499.639	48.210	-0.286	-0.268
-498.624	780.500	-0.056	0.153
-497.610	-66.336	-0.299	0.119
-496.595	-200.000	0.012	-0.207
-495.581	800.000	0.090	-0.355
-494.566	267.667	0.046	0.081
-493.551	-69.827	0.745	-0.285
-492.537	-46.949	0.484	-0.236
-491.522	-6.075	-0.499	-0.341
-490.508	-25.421	0.517	0.306
-489.493	-70.932	-0.262	0.099
-488.478	36.648	0.138	0.122
-487.464	-164.799	-0.678	-0.030
-486.449	-38.366	-0.534	-0.283
-485.435	51.625	0.097	0.092
-484.420	-120.826	-0.164	0.028
-483.405	27.690	-0.663	0.559
-482.391	-180.511	-0.628	0.013
-481.376	4.567	0.373	-0.274
-480.362	-110.553	-0.679	-0.141
-479.347	-132.905	0.252	-0.032
-478.332	-200.000	-0.267	-1.241
-477.318	800.000	-0.052	-0.162
-476.303	-200.000	-0.005	-0.589
-475.289	19.538	-0.254	0.204
-474.274	-135.283	-0.219	0.026
-473.259	324.243	0.477	-0.911
-472.245	-137.493	-0.265	0.030
-471.230	-112.564	-0.332	-0.066
-470.216	-200.000	-0.104	0.526
-469.201	236.144	0.598	0.988
-468.186	800.000	-0.101	-0.398
-467.172	-200.000	-0.024	-0.287
-466.157	-59.778	-0.348	0.149
-465.143	110.734	-0.475	-0.571
-464.128	43.693	-0.721	-0.659
-463.113	217.936	0.218	-0.348
-462.099	32.673	-0.659	-0.570
-461.084	422.686	-0.150	0.322
-460.070	16.189	0.217	-0.171
-459.055	132.881	0.138	0.178
-458.040	5.903	-0.485	0.359
-457.026	800.000	-0.107	0.319
-456.011	40.865	0.340	0.306
-454.997	-90.919	0.418	-0.120
-453.982	-200.000	-0.007	-0.399
-452.968	374.052	0.132	0.268
-451.953	-200.000	0.062	0.437
-450.938	800.000	0.337	-0.958
-449.924	-200.000	-0.072	-0.844
-448.909	-200.000	0.033	-0.240
-447.895	800.000	0.156	-0.594
-446.880	800.000	-0.303	-1.043
-445.865	455.760	0.166	-0.368
-444.851	217.785	-0.131	0.209
-443.836	-36.036	0.434	0.234
-442.822	-58.928	-0.518	0.223
-441.807	13.663	0.337	-0.261
-440.792	-55.797	-0.081	0.036
-439.778	800.000	-0.133	-0.557
-438.763	-49.328	0.224	-0.107
-437.749	-25.372	-1.118	0.660
-436.734	-113.375	-0.192	0.038
-435.719	97.243	0.300	-0.344
-434.705	449.017	0.318	0.701
-433.690	-196.680	-0.531	0.004
-432.676	-200.000	0.129	1.102
-431.661	-96.704	0.412	0.108
-430.646	-2.848	-0.601	-0.419
-429.632	-30.231	0.141	0.080
-428.617	-93.568	0.390	-0.108
-427.603	63.230	0.230	-0.230
-426.588	-147.753	0.951	-0.079
-425.573	28.427	-0.399	-0.336
-424.559	0.285	-0.529	0.377
-423.544	237.007	0.238	-0.394
-422.530	-67.890	-0.124	0.048
-421.515	-94.835	0.814	-0.220
-420.500	721.830	0.219	-0.582
-419.486	561.659	-0.167	-0.402
-418.471	41.817	0.480	0.434
-417.457	-154.629	-0.801	0.053
-416.442	-200.000	-0.133	-0.836
-415.428	-49.489	0.733	0.349
-414.413	-36.803	1.172	0.627
-413.398	167.681	-0.391	0.555
-412.384	-126.524	-0.427	0.063
-411.369	-84.484	0.536	-0.169
-410.355	-80.764	0.321	0.106
-409.340	800.000	0.248	0.996
-408.325	800.000	-0.032	0.133
-407.311	-200.000	0.188	-0.843
-406.296	550.031	0.233	-0.556
-405.282	548.721	0.278	-0.664
-404.267	800.000	-0.157	0.458
-403.252	-200.000	0.107	0.795
-402.238	-79.475	0.506	0.171
-401.223	60.725	0.583	0.577
-400.209	-58.225	-0.503	-0.219
-399.194	800.000	0.455	-1.518
-398.179	121.736	0.113	0.141
-397.165	-200.000	0.074	0.328
-396.150	-65.365	-0.102	-0.041
-395.136	-200.000	0.048	0.384
-394.121	-126.985	0.913	-0.134
-393.106	-38.705	-0.388	-0.204
-392.092	35.614	-0.428	-0.375
-391.077	266.765	0.194	0.337
-390.063	-103.232	-0.430	-0.101
-389.048	-200.000	0.033	0.582
-388.033	-23.520	-0.496	-0.296
-387.019	65.137	-0.248	0.250
-386.004	-200.000	-0.056	-0.711
-384.990	110.947	-0.435	-0.522
-383.975	-53.236	-0.377	-0.173
-382.960	-83.785	-0.520	0.165
-381.946	67.183	-0.552	-0.560
-380.931	-63.936	0.829	0.337
-379.917	-140.489	-0.283	-0.029
-378.902	-51.037	0.638	0.298
-377.888	112.706	-0.418	0.504
-376.873	23.314	0.495	0.405
-375.858	-83.545	-0.546	0.174
-374.844	-200.000	-0.053	0.486
-373.829	-66.080	0.912	-0.363
-372.815	408.792	0.116	0.244
-371.800	-12.235	0.461	0.300
-370.785	-81.876	0.577	0.188
-369.771	-111.489	0.467	-0.095
-368.756	-200.000	-0.042	0.323
-367.742	0.311	0.199	-0.141
-366.727	-166.005	-0.409	-0.017
-365.712	800.000	-0.228	0.958
-364.698	-79.783	-1.123	0.376
-363.683	-108.839	-0.677	0.144
-362.669	-200.000	0.062	0.409
-361.654	-45.458	0.153	-0.076
-360.639	354.795	0.249	-0.494
-359.625	404.710	-0.290	0.609
-358.610	800.000	0.134	-0.410
-357.596	-56.044	-0.121	0.054
-356.581	-200.000	-0.018	-0.102
-355.566	-164.493	0.344	-0.016
-354.552	-200.000	-0.011	-0.832
-353.537	-200.000	0.080	0.422
-352.523	101.388	-0.646	-0.749
-351.508	9.741	-0.855	-0.645
-350.493	800.000	0.334	-1.017
-349.479	-200.000	0.011	-0.767
-348.464	-6.734	0.181	0.122
-347.450	-79.718	0.700	-0.235
-346.435	249.138	-0.172	-0.289
-345.420	-200.000	0.032	-0.582
-344.406	146.997	-0.315	0.422
-343.391	17.831	0.459	-0.363
-342.377	-41.498	-0.634	-0.324
-341.362	-47.810	-0.256	0.124
-340.348	-128.962	0.541	0.075
-339.333	130.262	-0.282	-0.360
-338.318	-162.000	-0.776	-0.039
-337.304	800.000	-0.142	0.408
-336.289	-200.000	-0.024	0.143
-335.275	-200.000	-0.011	0.289
-334.260	-126.885	-0.439	0.064
-333.245	-16.545	-0.160	0.101
-332.231	800.000	0.052	0.174
-331.216	297.433	0.431	-0.787
-330.202	-16.022	0.081	-0.051
-329.187	148.598	-0.404	-0.543
-328.172	800.000	-0.057	-0.208
-327.158	-10.185	0.387	-0.255
-326.143	125.006	-0.427	0.535
-325.129	93.870	0.505	-0.569
-324.114	163.981	0.451	0.631
-323.099	800.000	0.097	0.276
-322.085	-30.790	-0.875	0.492
-321.070	-122.698	-0.612	-0.098
-320.056	135.004	0.206	-0.266
-319.041	-175.473	0.518	-0.014
-318.026	-15.345	-0.150	0.095
-317.012	-152.162	0.809	-0.058
-315.997	-78.885	0.638	0.216
-314.983	-63.515	-0.180	-0.074
-313.968	-158.519	-0.475	-0.027
-312.953	-162.410	0.572	0.028
-311.939	-200.000	-0.078	0.369
-310.924	0.372	-0.501	0.356
-309.910	-200.000	-0.091	-0.605
-308.895	-135.459	-0.659	0.078
-307.880	457.077	-0.156	-0.345
-306.866	33.208	-0.081	-0.070
-305.851	215.496	0.105	0.165
-304.837	-121.980	-0.419	-0.068
-303.822	-5.598	0.464	-0.316
-302.807	37.354	-0.546	-0.480
-301.793	-200.000	0.097	-0.553
-300.778	-113.373	-1.156	0.225
-299.764	-25.644	0.872	0.511
-298.749	-50.515	0.608	0.285
-297.735	232.158	0.374	0.609
-296.720	-64.111	-0.647	-0.262
-295.705	800.000	0.020	0.071
-294.691	-25.317	-0.737	0.433
-293.676	65.631	-0.277	0.278
-292.662	632.767	0.048	0.122
-291.647	-148.647	0.722	-0.058
-290.632	-49.900	0.771	0.363
-289.618	-31.839	0.483	0.269
-288.603	-162.757	-0.318	0.015
-287.589	301.192	0.348	0.638
-286.574	86.420	0.226	0.247
-285.559	-83.452	0.656	-0.208
-284.545	328.480	0.118	0.224
-283.530	3.800	-0.459	0.333
-282.516	71.376	0.325	0.334
-281.501	19.147	0.247	-0.197
-280.486	34.839	0.346	-0.300
-279.472	-200.000	0.029	0.543
-278.457	253.151	0.056	0.094
-277.443	-92.493	0.230	-0.064
-276.428	-99.639	0.515	-0.128
-275.413	-139.407	-0.212	0.023
-274.399	218.637	0.353	-0.560
-273.384	-200.000	0.019	0.910
-272.370	-104.025	-0.271	0.063
-271.355	53.519	0.252	0.240
-270.340	531.921	-0.106	-0.249
-269.326	242.080	0.196	0.325
-268.311	217.121	0.492	-0.777
-267.297	649.634	0.254	-0.644
-266.282	-47.237	0.614	0.296
-265.267	-4.479	-0.707	-0.484
-264.253	-163.698	-0.605	-0.028
-263.238	-44.915	-0.665	0.328
-262.224	-105.476	-0.325	-0.073
-261.209	-63.949	0.466	0.189
-260.195	-200.000	0.113	0.993
-259.180	396.733	0.276	0.571
-258.165	800.000	-0.012	-0.045
-257.151	312.905	0.412	0.767
-256.136	800.000	0.204	0.598
-255.122	87.089	0.445	0.487
-254.107	163.512	-0.490	-0.683
-253.092	145.326	0.289	0.384
-252.078	-42.739	0.633	0.319
-251.063	-127.800	0.915	0.131
-250.049	17.917	-0.171	0.135
-249.034	-200.000	0.011	-0.484
-248.019	-108.361	0.724	0.155
-247.005	528.060	0.271	0.633
-245.990	-200.000	0.764	0.000
-244.976	35.327	0.370	-0.321
-243.961	-134.380	-0.567	-0.069
-242.946	122.791	0.620	-0.768
-241.932	-200.000	0.053	-0.821
-240.917	-200.000	-0.078	-0.553
-239.903	-200.000	-0.018	0.728
-238.888	130.475	0.221	-0.281
-237.873	-145.575	-0.480	-0.043
-236.859	-38.228	-0.247	0.130
-235.844	244.993	-0.390	0.650
-234.830	-5.546	0.411	0.279
-233.815	-200.000	0.079	-0.757
-232.800	-160.675	1.022	-0.054
-231.786	49.614	0.854	0.796
-230.771	135.722	-0.305	-0.393
-229.757	-17.455	0.580	0.361
-228.742	80.819	0.080	0.086
-227.727	-145.721	-0.998	0.088
-226.713	-20.830	0.545	0.331
-225.698	-91.807	-0.464	-0.131
-224.684	-88.823	0.903	0.265
-223.669	-79.260	0.853	0.286
-222.655	306.148	0.200	0.367
-221.640	127.869	-0.183	-0.230
-220.625	-104.416	-0.225	0.052
-219.611	346.434	-0.085	-0.166
-218.596	11.196	0.263	-0.199
-217.582	-200.000	-0.053	-0.350
-216.567	-13.100	0.414	0.266
-215.552	-80.024	-0.475	0.158
-214.538	-84.252	0.618	0.194
-213.523	25.331	-0.297	0.244
-212.509	-46.714	-0.154	0.075
-211.494	-150.466	0.759	0.058
-210.479	-113.945	-0.252	-0.048
-209.465	-56.716	-0.634	0.278
-208.450	-171.236	-0.363	0.012
-207.436	37.368	-0.528	0.463
-206.421	-87.148	0.269	-0.081
-205.406	490.168	0.061	0.138
-204.392	-125.769	-0.544	-0.081
-203.377	-127.580	-0.145	-0.021
-202.363	-49.704	-0.396	0.186
-201.348	17.874	-0.452	-0.356
-200.333	-131.144	-0.630	0.083
-199.319	-21.437	0.618	-0.373
-198.304	-53.149	0.383	-0.174
-197.290	149.922	0.573	-0.768
-196.275	-200.000	0.068	-0.352
-195.260	-180.983	-0.737	0.015
-194.246	85.253	-1.121	1.216
-193.231	50.200	-0.663	0.619
-192.217	124.449	0.125	-0.155
-191.202	-38.862	-0.188	0.098
-190.187	-122.988	0.522	-0.083
-189.173	51.617	-0.318	0.299
-188.158	800.000	-0.327	0.922
-187.144	-143.174	0.387	0.037
-186.129	45.508	0.175	-0.160
-185.114	-200.000	0.133	-0.602
-184.100	-200.000	-0.113	0.616
-183.085	800.000	0.371	-1.068
-182.071	-29.123	-0.704	0.399
-181.056	-117.203	0.718	-0.129
-180.042	12.204	1.055	0.803
-179.027	215.258	-0.543	0.852
-178.012	67.710	-0.096	0.097
-176.998	-31.142	0.696	0.388
-175.983	640.164	-0.065	-0.164
-174.969	-92.824	-0.748	-0.207
-173.954	64.080	0.308	-0.306
-172.939	800.000	-0.357	1.264
-171.925	800.000	-0.258	-0.816
-170.910	-118.472	-0.650	-0.114
-169.896	-200.000	0.000	0.863
-168.881	800.000	-0.063	0.206
-167.866	24.419	-0.559	-0.456
-166.852	128.731	0.571	0.718
-165.837	50.570	-0.216	0.202
-164.823	-159.239	0.545	-0.030
-163.808	800.000	0.006	0.015
-162.793	3.748	0.532	-0.384
-161.779	-121.943	0.781	-0.127
-160.764	-200.000	-0.089	-0.972
-159.750	104.470	0.120	-0.140
-158.735	800.000	0.046	0.191
-157.720	-0.092	-0.327	0.230
-156.706	-69.043	0.732	-0.278
-155.691	-66.281	0.345	0.136
-154.677	42.866	-0.585	-0.526
-153.662	-26.891	-0.588	0.339
-152.647	250.256	-0.131	-0.220
-151.633	-200.000	0.080	-0.546
-150.618	-53.324	1.208	-0.547
-149.604	6.522	-0.525	-0.385
-148.589	800.000	-0.171	-0.512
-147.574	264.405	0.751	1.291
-146.560	-155.255	1.162	0.075
-145.545	-67.201	0.808	0.314
-144.531	-168.102	0.614	-0.024
-143.516	800.000	0.140	0.383
-142.502	78.827	0.478	-0.505
-141.487	-151.754	0.331	0.024
-140.472	-19.831	0.692	0.422
-139.458	-0.158	0.851	0.597
-138.443	51.325	-0.685	-0.642
-137.429	-119.663	0.210	-0.036
-136.414	-36.382	0.416	-0.221
-135.399	144.592	-0.546	0.720
-134.385	46.338	0.389	0.356
-133.370	119.283	-0.861	-1.052
-132.356	247.127	-0.297	-0.494
-131.341	7.913	0.288	-0.213
-130.326	407.703	-0.111	-0.232
-129.312	1.699	0.513	0.365
-128.297	135.969	0.099	0.127
-127.283	-64.961	0.909	-0.362
-126.268	79.312	0.441	0.466
-125.253	800.000	-0.213	0.854
-124.239	187.842	-0.378	-0.556
-123.224	6.655	0.891	-0.654
-122.210	478.404	-0.245	-0.547
-121.195	-36.470	0.836	-0.444
-120.180	-200.000	-0.024	-0.227
