DTS Sentinel unit serial number:	SN413079Multiplexer serial number:	ORYXHardware model number:	OX4-SRSoftware version number:	ORYX F/W v4.00 Oryx Data Collector v3.7.2.0data status	okinstallation	princeton_trtdifferential loss correction	single-endedforward channel	channel 1reverse channel	N/Adate	2019/09/19time	14:46:35forward acquisition time	60.00reverse acquisition time	0.00gamma	496.2192k internal	0.2318k external	0.2318temperature offset calibration	1.0019default loss term (dB/km)	0.3790temperature slope calibration	1.0000multiplexer offset coefficient	1.0000multiplexer slope coefficient	1.0000fibre end	0.00T internal ref (°C)	32.69T ext. ref 1 (°C)	1.10T ext. ref 2 (°C)	29.66length (m)	temperature (°C)	Stokes	anti-Stokes-747.200	-101.769	0.538	0.132
-746.185	-48.768	-0.176	0.086
-745.171	228.214	-0.012	-0.021
-744.156	-191.381	0.070	-0.001
-743.142	-35.533	0.160	-0.088
-742.127	-53.926	0.122	0.056
-741.112	-44.367	-0.220	-0.112
-740.098	-177.841	0.160	0.004
-739.083	-120.594	0.116	0.020
-738.069	-74.272	-0.369	0.135
-737.054	-6.183	-0.243	-0.168
-736.039	-72.706	-0.068	0.025
-735.025	-200.000	-0.006	-0.234
-734.010	527.558	-0.057	0.135
-732.996	-90.868	0.254	-0.074
-731.981	800.000	-0.004	0.015
-730.966	518.100	-0.215	-0.509
-729.952	220.329	0.143	-0.231
-728.937	247.492	0.064	0.109
-727.923	10.753	-0.171	0.132
-726.908	-140.008	0.329	0.035
-725.894	-200.000	0.012	-0.248
-724.879	-38.465	0.031	-0.017
-723.864	-200.000	0.065	0.346
-722.850	-139.664	-0.049	0.005
-721.835	-25.300	-0.240	-0.144
-720.821	-200.000	0.032	-0.445
-719.806	-24.470	-0.190	-0.114
-718.791	-200.000	0.001	0.028
-717.777	593.023	-0.047	-0.118
-716.762	-42.705	-0.389	0.200
-715.748	86.228	-0.128	0.143
-714.733	-200.000	0.054	-0.254
-713.718	-130.330	0.173	0.024
-712.704	800.000	-0.111	-0.313
-711.689	106.479	-0.244	-0.292
-710.675	28.216	0.151	-0.129
-709.660	-62.412	-0.107	-0.045
-708.645	738.870	-0.054	0.147
-707.631	-200.000	0.007	0.148
-706.616	-164.605	-0.114	0.005
-705.602	-42.652	-0.353	0.181
-704.587	-200.000	-0.010	-0.306
-703.572	480.239	-0.148	0.338
-702.558	791.479	0.093	0.259
-701.543	677.972	-0.005	-0.014
-700.529	32.349	0.055	-0.048
-699.514	44.864	0.078	0.073
-698.499	-200.000	-0.021	0.105
-697.485	-200.000	0.054	0.245
-696.470	95.924	-0.166	-0.192
-695.456	-129.887	0.130	0.018
-694.441	218.967	0.095	0.153
-693.426	321.718	0.135	0.260
-692.412	800.000	0.092	0.281
-691.397	-24.995	-0.450	0.270
-690.383	-20.069	-0.319	0.199
-689.368	339.807	-0.053	0.103
-688.354	800.000	0.045	0.154
-687.339	-160.320	0.406	-0.022
-686.324	800.000	-0.048	0.137
-685.310	106.935	-0.311	0.373
-684.295	112.440	0.140	0.170
-683.281	65.347	-0.091	0.093
-682.266	358.108	0.104	-0.210
-681.251	-21.566	0.234	-0.144
-680.237	23.713	0.129	-0.107
-679.222	11.022	0.297	-0.229
-678.208	-138.100	0.152	-0.017
-677.193	-10.842	0.158	0.105
-676.178	170.542	-0.173	0.250
-675.164	800.000	0.102	0.302
-674.149	271.084	-0.082	-0.145
-673.135	-47.608	-0.086	0.042
-672.120	-200.000	-0.011	-0.336
-671.105	-200.000	-0.013	-0.246
-670.091	-165.212	-0.254	0.011
-669.076	-200.000	0.023	-0.304
-668.062	109.787	-0.072	-0.088
-667.047	76.633	-0.222	0.238
-666.032	-200.000	0.033	0.339
-665.018	-142.444	0.152	-0.015
-664.003	171.396	-0.073	-0.105
-662.989	184.278	0.031	-0.047
-661.974	-158.525	0.156	0.009
-660.959	-200.000	0.025	0.206
-659.945	-43.419	0.119	0.060
-658.930	-75.105	0.215	-0.078
-657.916	237.334	0.092	-0.154
-656.901	-200.000	0.032	-0.232
-655.886	31.676	0.174	-0.151
-654.872	168.984	0.114	-0.164
-653.857	-200.000	0.001	-0.130
-652.843	-153.817	-0.146	-0.010
-651.828	304.852	0.079	0.147
-650.814	-128.671	-0.219	-0.031
-649.799	800.000	-0.098	-0.393
-648.784	209.893	0.110	0.174
-647.770	385.422	-0.157	-0.326
-646.755	-52.107	-0.321	-0.150
-645.741	-200.000	-0.021	0.232
-644.726	800.000	0.092	0.288
-643.711	176.117	0.138	0.202
-642.697	12.071	0.081	0.063
-641.682	-94.171	-0.024	0.007
-640.668	-18.042	-0.148	-0.094
-639.653	-200.000	-0.047	-0.215
-638.638	-110.696	0.120	-0.025
-637.624	-200.000	0.024	0.299
-636.609	-200.000	-0.001	0.243
-635.595	800.000	-0.079	0.241
-634.580	399.816	-0.041	-0.086
-633.565	332.793	0.127	0.248
-632.551	-200.000	-0.020	-0.117
-631.536	17.010	-0.254	-0.203
-630.522	375.835	0.039	-0.081
-629.507	800.000	0.021	-0.087
-628.492	117.057	-0.083	0.102
-627.478	708.023	0.072	-0.193
-626.463	-200.000	-0.001	-0.318
-625.449	3.847	-0.128	-0.095
-624.434	-49.390	-0.322	-0.155
-623.419	62.864	0.173	0.175
-622.405	443.005	0.113	-0.249
-621.390	11.196	0.051	0.039
-620.376	-1.760	0.173	0.123
-619.361	159.331	0.030	-0.042
-618.346	-95.257	-0.184	-0.050
-617.332	800.000	0.049	-0.182
-616.317	349.780	0.061	-0.121
-615.303	40.207	-0.124	0.113
-614.288	135.144	-0.194	0.254
-613.273	-200.000	0.006	0.100
-612.259	-142.420	0.280	0.028
-611.244	-51.414	0.297	-0.140
-610.230	800.000	0.039	-0.159
-609.215	-15.985	0.079	-0.050
-608.201	69.581	-0.084	-0.087
-607.186	-200.000	0.004	-0.164
-606.171	-200.000	-0.003	-0.182
-605.157	3.815	0.285	-0.210
-604.142	-60.476	-0.077	-0.033
-603.128	130.970	-0.253	-0.326
-602.113	-99.266	0.094	0.024
-601.098	-66.920	-0.170	-0.068
-600.084	800.000	0.099	0.418
-599.069	-200.000	-0.016	0.172
-598.055	22.514	0.381	-0.313
-597.040	-11.717	0.152	0.100
-596.025	-94.082	-0.305	0.084
-595.011	800.000	-0.055	-0.178
-593.996	9.147	0.258	-0.196
-592.982	800.000	-0.044	-0.172
-591.967	8.248	-0.260	-0.197
-590.952	-88.419	0.362	0.109
-589.938	800.000	0.048	-0.182
-588.923	-121.665	0.058	-0.010
-587.909	800.000	-0.042	-0.134
-586.894	-44.403	-0.108	0.054
-585.879	616.632	0.060	0.152
-584.865	-74.864	-0.216	-0.078
-583.850	-64.335	0.389	-0.159
-582.836	800.000	-0.083	0.256
-581.821	-200.000	-0.005	-0.026
-580.806	20.107	0.192	0.156
-579.792	-138.139	0.197	-0.022
-578.777	-43.077	0.209	0.107
-577.763	800.000	-0.113	0.419
-576.748	-71.841	-0.364	-0.136
-575.733	-144.031	0.240	-0.023
-574.719	-111.259	0.183	-0.038
-573.704	-200.000	-0.007	-0.057
-572.690	-86.596	-0.196	0.060
-571.675	487.197	0.075	-0.171
-570.661	37.255	-0.227	-0.202
-569.646	-10.148	0.175	0.117
-568.631	18.812	0.254	-0.204
-567.617	-43.442	0.186	-0.094
-566.602	359.782	0.097	-0.195
-565.588	-94.281	-0.367	0.101
-564.573	278.360	-0.085	-0.152
-563.558	11.484	0.396	-0.305
-562.544	-95.699	0.238	-0.064
-561.529	-200.000	-0.051	0.326
-560.515	-143.884	0.146	0.014
-559.500	-200.000	0.003	0.078
-558.485	800.000	-0.032	0.111
-557.471	-18.439	0.153	0.096
-556.456	-200.000	-0.014	-0.179
-555.442	800.000	0.037	-0.112
-554.427	200.015	-0.180	0.277
-553.412	-113.810	-0.147	0.029
-552.398	280.720	0.094	-0.169
-551.383	16.818	-0.145	0.116
-550.369	-25.280	0.241	0.143
-549.354	235.231	0.023	0.037
-548.339	162.118	0.084	0.119
-547.325	-200.000	0.036	0.230
-546.310	-78.568	0.420	0.144
-545.296	800.000	-0.042	0.179
-544.281	203.539	-0.034	0.053
-543.266	-177.049	-0.229	-0.006
-542.252	-75.285	0.321	-0.115
-541.237	-176.570	-0.103	-0.003
-540.223	-6.896	0.242	0.165
-539.208	800.000	0.035	0.143
-538.193	141.860	-0.100	0.133
-537.179	-45.880	0.243	-0.121
-536.164	-144.038	-0.305	-0.029
-535.150	-140.071	-0.156	-0.016
-534.135	14.549	0.152	0.119
-533.121	-75.006	-0.385	0.138
-532.106	465.145	-0.115	-0.258
-531.091	-84.259	-0.378	-0.120
-530.077	95.778	-0.185	-0.212
-529.062	347.207	0.014	-0.028
-528.048	-99.741	0.358	0.090
-527.033	132.796	0.276	-0.357
-526.018	-200.000	0.024	-0.239
-525.004	-138.320	0.185	0.021
-523.989	40.299	0.149	0.135
-522.975	-50.703	0.204	0.096
-521.960	800.000	-0.022	0.083
-520.945	-180.991	-0.259	0.005
-519.931	-200.000	-0.045	0.324
-518.916	800.000	0.055	-0.221
-517.902	293.498	0.202	-0.370
-516.887	-149.084	-0.120	0.010
-515.872	93.161	-0.123	0.139
-514.858	-200.000	-0.001	0.283
-513.843	-58.117	-0.191	-0.084
-512.829	-200.000	0.011	-0.218
-511.814	-33.114	-0.309	-0.172
-510.799	28.934	-0.125	0.106
-509.785	-123.094	0.045	0.007
-508.770	-114.768	-0.511	-0.098
-507.756	205.163	-0.026	0.040
-506.741	330.670	-0.096	-0.185
-505.726	-58.148	-0.246	0.108
-504.712	86.001	0.218	0.241
-503.697	-200.000	0.040	0.328
-502.683	445.212	0.026	-0.058
-501.668	800.000	-0.120	0.374
-500.653	-200.000	-0.002	-0.157
-499.639	493.919	0.119	-0.274
-498.624	124.385	-0.048	0.060
-497.610	-85.045	-0.333	0.105
-496.595	149.039	-0.141	0.192
-495.581	72.397	0.131	0.137
-494.566	-193.060	0.097	-0.001
-493.551	-170.823	-0.420	0.014
-492.537	65.627	-0.229	0.232
-491.522	150.092	0.138	0.188
-490.508	-76.670	-0.122	0.043
-489.493	800.000	-0.054	0.212
-488.478	-140.886	-0.441	0.045
-487.464	-200.000	0.042	0.254
-486.449	-67.572	-0.163	0.064
-485.435	-200.000	0.048	-0.265
-484.420	-200.000	0.006	-0.159
-483.405	-83.007	0.143	0.046
-482.391	22.873	0.219	-0.179
-481.376	540.088	-0.043	-0.103
-480.362	152.434	0.073	0.101
-479.347	-200.000	0.003	-0.146
-478.332	-200.000	-0.052	-0.278
-477.318	-200.000	-0.042	-0.227
-476.303	-200.000	-0.026	0.289
-475.289	800.000	0.058	0.252
-474.274	-121.545	0.259	0.043
-473.259	800.000	0.047	-0.158
-472.245	-200.000	-0.034	-0.155
-471.230	800.000	-0.035	0.147
-470.216	97.608	0.144	-0.165
-469.201	800.000	0.082	0.332
-468.186	148.968	0.122	-0.165
-467.172	296.778	-0.097	-0.178
-466.157	-71.415	-0.384	-0.144
-465.143	-200.000	0.003	-0.302
-464.128	-37.819	-0.170	-0.091
-463.113	-53.550	0.179	0.082
-462.099	295.927	-0.124	-0.227
-461.084	-200.000	0.024	0.243
-460.070	-122.139	0.181	0.030
-459.055	19.389	0.104	0.084
-458.040	-200.000	0.001	-0.090
-457.026	-43.626	-0.160	0.081
-456.011	-200.000	0.016	0.340
-454.997	-200.000	0.019	-0.115
-453.982	-149.854	-0.231	-0.018
-452.968	-200.000	0.028	0.159
-451.953	501.577	-0.075	0.174
-450.938	-85.727	-0.115	-0.036
-449.924	160.730	0.145	0.203
-448.909	-161.205	0.307	-0.016
-447.895	81.829	0.120	0.129
-446.880	710.568	0.049	-0.129
-445.865	-200.000	-0.016	0.070
-444.851	344.946	-0.143	-0.281
-443.836	68.946	-0.076	0.078
-442.822	-124.125	0.105	0.017
-441.807	-122.911	-0.289	0.047
-440.792	36.521	-0.143	0.126
-439.778	28.062	0.127	-0.107
-438.763	-200.000	0.008	-0.400
-437.749	92.523	-0.198	-0.223
-436.734	-38.228	-0.290	-0.154
-435.719	-59.200	-0.118	-0.051
-434.705	146.076	0.164	-0.220
-433.690	128.713	-0.022	-0.028
-432.676	-167.208	-0.125	0.005
-431.661	-145.483	0.159	0.014
-430.646	800.000	-0.106	0.327
-429.632	54.121	0.129	-0.124
-428.617	-200.000	-0.038	-0.238
-427.603	207.205	-0.171	0.267
-426.588	-200.000	0.031	0.138
-425.573	-107.277	0.213	0.047
-424.559	-78.909	-0.165	0.056
-423.544	800.000	0.056	-0.220
-422.530	-123.591	0.110	0.017
-421.515	800.000	0.159	0.489
-420.500	-112.869	0.263	-0.052
-419.486	285.716	-0.024	-0.043
-418.471	-200.000	-0.026	-0.230
-417.457	-132.158	-0.402	0.052
-416.442	-114.635	-0.299	-0.057
-415.428	770.746	0.028	-0.076
-414.413	-47.036	0.360	-0.175
-413.398	124.687	0.156	0.196
-412.384	-129.438	-0.266	-0.037
-411.369	253.866	0.094	-0.160
-410.355	11.525	0.088	-0.067
-409.340	-25.808	0.141	0.083
-408.325	-43.046	0.177	0.090
-407.311	-120.059	0.192	-0.033
-406.296	-49.407	-0.046	-0.022
-405.282	-200.000	-0.031	-0.178
-404.267	135.480	0.118	-0.153
-403.252	-200.000	0.050	-0.434
-402.238	54.832	0.113	0.109
-401.223	-0.546	0.182	0.129
-400.209	574.584	0.039	-0.096
-399.194	353.947	0.073	-0.145
-398.179	141.072	0.095	0.126
-397.165	-96.670	-0.031	0.008
-396.150	-48.814	0.135	-0.065
-395.136	-21.641	0.442	0.269
-394.121	-55.099	-0.404	-0.182
-393.106	-29.688	-0.281	-0.160
-392.092	616.313	-0.087	-0.217
-391.077	800.000	-0.037	-0.112
-390.063	-85.413	0.065	0.020
-389.048	326.266	0.056	-0.106
-388.033	800.000	-0.047	-0.199
-387.019	79.604	-0.084	0.090
-386.004	-153.083	0.144	0.010
-384.990	260.659	0.068	-0.118
-383.975	-200.000	0.007	-0.456
-382.960	8.670	-0.054	-0.041
-381.946	-94.150	0.061	-0.017
-380.931	-200.000	-0.005	-0.325
-379.917	-48.481	0.378	0.181
-378.902	-200.000	-0.012	-0.670
-377.888	-200.000	0.016	-0.100
-376.873	-10.151	-0.283	-0.188
-375.858	800.000	-0.037	-0.103
-374.844	87.753	0.320	0.354
-373.829	176.668	-0.316	0.459
-372.815	-54.854	0.390	0.175
-371.800	-200.000	-0.005	0.128
-370.785	5.208	-0.178	0.131
-369.771	21.277	-0.213	-0.173
-368.756	-200.000	0.043	-0.190
-367.742	800.000	-0.029	-0.113
-366.727	91.333	-0.154	0.172
-365.712	800.000	-0.071	-0.298
-364.698	-109.249	-0.267	0.057
-363.683	-200.000	-0.061	0.323
-362.669	-11.014	-0.286	0.188
-361.654	-135.019	0.426	0.051
-360.639	-200.000	-0.161	0.001
-359.625	-11.791	-0.149	-0.097
-358.610	800.000	0.066	0.231
-357.596	53.268	0.085	0.081
-356.581	-200.000	-0.022	0.325
-355.566	-200.000	-0.012	-0.180
-354.552	-6.876	0.102	0.069
-353.537	-54.320	0.211	-0.095
-352.523	-111.989	-0.201	-0.040
-351.508	150.527	-0.144	-0.195
-350.493	161.207	0.041	-0.057
-349.479	-200.000	0.002	0.065
-348.464	95.722	0.139	0.159
-347.450	-43.645	0.342	0.172
-346.435	164.539	0.083	-0.117
-345.420	800.000	0.044	-0.160
-344.406	-200.000	0.016	-0.180
-343.391	-81.396	0.171	-0.056
-342.377	-200.000	0.028	-0.166
-341.362	-200.000	0.012	0.078
-340.348	-101.486	0.176	-0.043
-339.333	-7.786	0.137	0.092
-338.318	131.516	-0.163	0.209
-337.304	-200.000	-0.004	0.118
-336.289	-93.483	-0.089	0.025
-335.275	800.000	0.031	-0.110
-334.260	-158.501	0.052	0.003
-333.245	51.474	-0.138	0.131
-332.231	800.000	-0.067	0.249
-331.216	800.000	-0.089	0.299
-330.202	-77.575	-0.271	-0.094
-329.187	-15.030	-0.098	0.063
-328.172	800.000	-0.095	-0.351
-327.158	95.988	-0.151	-0.171
-326.143	-4.067	-0.193	0.133
-325.129	89.272	0.193	0.214
-324.114	-200.000	0.006	0.057
-323.099	240.376	-0.114	-0.190
-322.085	-62.862	0.176	-0.072
-321.070	-55.787	-0.122	0.054
-320.056	-39.075	-0.144	-0.075
-319.041	-200.000	0.031	0.617
-318.026	-200.000	0.009	0.135
-317.012	35.205	0.197	0.172
-315.997	148.526	-0.096	0.129
-314.983	-126.203	0.163	0.024
-313.968	-59.599	0.123	0.052
-312.953	190.992	0.101	-0.152
-311.939	170.256	0.082	0.117
-310.924	36.205	-0.220	0.193
-309.910	118.747	-0.088	0.108
-308.895	156.793	-0.160	0.219
-307.880	-40.534	-0.269	-0.139
-306.866	262.395	0.023	0.040
-305.851	-200.000	0.023	-0.280
-304.837	86.768	0.176	0.193
-303.822	386.100	0.041	-0.084
-302.807	321.833	-0.080	-0.152
-301.793	688.329	-0.063	0.165
-300.778	-200.000	-0.009	0.246
-299.764	107.894	-0.185	-0.219
-298.749	0.520	0.216	0.153
-297.735	-126.968	0.099	-0.015
-296.720	-200.000	-0.027	0.446
-295.705	-161.521	-0.490	-0.025
-294.691	-96.275	0.275	-0.072
-293.676	-200.000	-0.009	-0.065
-292.662	-84.502	-0.227	-0.071
-291.647	-72.434	0.500	0.184
-290.632	152.874	-0.146	0.199
-289.618	-200.000	-0.020	-0.114
-288.603	416.110	-0.146	0.310
-287.589	658.105	-0.076	0.195
-286.574	-28.953	-0.248	-0.142
-285.559	509.985	-0.062	0.143
-284.545	-158.016	0.192	-0.011
-283.530	-89.227	-0.237	-0.069
-282.516	29.528	-0.106	0.089
-281.501	800.000	-0.161	0.601
-280.486	-200.000	-0.043	-0.196
-279.472	85.523	0.169	-0.185
-278.457	-200.000	-0.021	0.256
-277.443	-57.790	-0.327	0.142
-276.428	-133.503	-0.296	0.037
-275.413	-53.201	-0.310	-0.142
-274.399	149.471	-0.145	-0.195
-273.384	-38.176	0.173	-0.091
-272.370	-200.000	0.026	-0.206
-271.355	-200.000	0.014	0.085
-270.340	-113.237	-0.133	0.026
-269.326	347.797	0.233	-0.456
-268.311	800.000	-0.043	-0.121
-267.297	419.709	0.099	0.212
-266.282	485.842	0.074	0.168
-265.267	-56.816	0.166	-0.073
-264.253	-29.095	0.076	-0.043
-263.238	-78.659	0.200	0.068
-262.224	-200.000	-0.022	0.250
-261.209	108.868	-0.078	-0.093
-260.195	800.000	0.068	-0.266
-259.180	13.206	-0.165	0.127
-258.165	26.659	-0.151	0.125
-257.151	-148.631	-0.153	0.012
-256.136	-200.000	0.005	-0.062
-255.122	-200.000	0.028	-0.378
-254.107	382.235	-0.152	-0.309
-253.092	40.686	0.024	0.021
-252.078	-200.000	-0.001	-0.103
-251.063	671.099	0.064	-0.165
-250.049	16.093	-0.113	-0.088
-249.034	621.985	0.034	-0.085
-248.019	-82.506	-0.042	0.014
-247.005	97.702	-0.021	-0.024
-245.990	-200.000	-0.042	-0.220
-244.976	-157.558	0.465	0.028
-243.961	752.577	0.092	-0.248
-242.946	118.968	-0.233	-0.286
-241.932	641.222	-0.218	0.551
-240.917	800.000	0.091	-0.360
-239.903	-144.920	-0.266	-0.024
-238.888	765.514	0.111	-0.299
-237.873	-200.000	-0.012	-0.239
-236.859	45.309	0.413	0.378
-235.844	-10.146	0.070	0.046
-234.830	27.719	-0.226	0.189
-233.815	5.105	0.268	-0.196
-232.800	123.088	-0.077	-0.096
-231.786	-64.856	0.352	0.141
-230.771	-200.000	-0.034	0.293
-229.757	21.326	-0.304	0.245
-228.742	-200.000	-0.015	0.129
-227.727	-150.301	-0.245	0.019
-226.713	-16.704	0.114	-0.071
-225.698	-4.299	0.143	-0.098
-224.684	-200.000	0.002	-0.351
-223.669	203.220	0.187	0.286
-222.655	-32.306	0.338	0.187
-221.640	174.767	0.024	0.034
-220.625	-115.671	0.240	0.045
-219.611	255.715	0.067	-0.114
-218.596	-70.933	0.108	0.040
-217.582	17.052	-0.279	-0.219
-216.567	-200.000	-0.020	-0.308
-215.552	679.745	0.140	0.361
-214.538	-158.041	0.129	-0.008
-213.523	130.648	-0.209	0.266
-212.509	-89.102	0.185	0.054
-211.494	672.391	-0.054	0.138
-210.479	-66.238	-0.060	-0.024
-209.465	800.000	0.068	-0.262
-208.450	49.088	-0.039	-0.036
-207.436	-44.169	-0.158	0.079
-206.421	-87.947	-0.082	0.024
-205.406	29.308	0.275	-0.232
-204.392	99.580	-0.034	0.038
-203.377	-147.574	0.211	-0.018
-202.363	-89.977	0.171	0.049
-201.348	-143.221	-0.124	-0.012
-200.333	153.360	0.190	0.257
-199.319	-144.333	-0.151	-0.014
-198.304	-39.096	0.214	-0.111
-197.290	16.689	-0.290	-0.228
-196.275	-200.000	0.019	0.304
-195.260	42.537	0.185	-0.167
-194.246	42.811	-0.149	0.135
-193.231	-36.528	-0.176	-0.094
-192.217	35.155	-0.096	0.084
-191.202	-2.898	-0.280	0.194
-190.187	-200.000	0.001	-0.091
-189.173	-29.733	0.285	-0.161
-188.158	800.000	-0.070	0.302
-187.144	-41.094	-0.106	0.054
-186.129	21.913	0.061	-0.049
-185.114	-200.000	-0.014	0.126
-184.100	-200.000	-0.037	0.281
-183.085	-90.142	0.191	0.055
-182.071	-200.000	0.000	0.143
-181.056	-38.004	0.255	-0.134
-180.042	-170.729	0.125	-0.004
-179.027	-144.813	-0.082	0.007
-178.012	-62.838	-0.019	-0.008
-176.998	-31.789	-0.223	-0.124
-175.983	-200.000	-0.033	0.163
-174.969	273.775	0.022	-0.038
-173.954	-200.000	-0.045	0.245
-172.939	-115.700	0.339	-0.063
-171.925	-121.281	0.212	0.035
-170.910	-27.323	0.392	0.226
-169.896	-200.000	-0.010	-0.256
-168.881	-200.000	-0.017	-0.197
-167.866	-6.957	0.199	-0.134
-166.852	98.222	-0.268	0.305
-165.837	-200.000	-0.000	0.159
-164.823	-6.611	0.021	0.014
-163.808	239.958	0.115	0.190
-162.793	-81.465	-0.267	0.087
-161.779	-10.946	0.180	0.117
-160.764	437.838	-0.093	0.201
-159.750	35.902	0.187	-0.163
-158.735	-4.119	0.268	0.184
-157.720	-17.870	-0.043	0.027
-156.706	-200.000	0.042	-0.261
-155.691	672.153	0.039	0.101
-154.677	-144.891	-0.154	-0.014
-153.662	-132.073	-0.207	0.027
-152.647	-121.941	-0.201	-0.033
-151.633	-37.379	-0.228	-0.121
-150.618	97.050	-0.112	-0.127
-149.604	-114.001	0.229	-0.044
-148.589	-38.157	0.163	0.085
-147.574	295.882	0.091	0.165
-146.560	2.830	-0.095	0.068
-145.545	-64.075	0.174	-0.070
-144.531	3.620	-0.118	-0.085
-143.516	58.954	0.220	-0.214
-142.502	14.461	-0.118	-0.091
-141.487	87.966	-0.128	-0.140
-140.472	-94.021	-0.130	-0.035
-139.458	31.143	-0.101	0.086
-138.443	99.761	0.193	0.221
-137.429	-200.000	-0.035	0.170
-136.414	-200.000	0.028	0.184
-135.399	-68.304	0.334	0.128
-134.385	-137.377	-0.269	-0.030
-133.370	72.719	0.180	0.186
-132.356	800.000	0.080	-0.324
-131.341	125.598	0.042	-0.052
-130.326	-200.000	0.025	-0.165
-129.312	-97.090	-0.103	-0.027
-128.297	211.648	-0.096	-0.149
-127.283	-158.603	0.147	0.008
-126.268	-200.000	-0.006	-0.155
-125.253	-110.957	-0.094	0.019
-124.239	-102.885	0.261	0.061
-123.224	136.735	-0.037	-0.047
-122.210	-29.161	-0.014	-0.008
