DTS Sentinel unit serial number:	SN413079Multiplexer serial number:	ORYXHardware model number:	OX4-SRSoftware version number:	ORYX F/W v4.00 Oryx Data Collector v3.7.2.0data status	okinstallation	princeton_trtdifferential loss correction	single-endedforward channel	channel 1reverse channel	N/Adate	2019/09/12time	14:48:11forward acquisition time	60.00reverse acquisition time	0.00gamma	496.2192k internal	0.2293k external	0.2293temperature offset calibration	1.0051default loss term (dB/km)	0.3790temperature slope calibration	1.0000multiplexer offset coefficient	1.0000multiplexer slope coefficient	1.0000fibre end	0.00T internal ref (°C)	40.25T ext. ref 1 (°C)	2.31T ext. ref 2 (°C)	37.10length (m)	temperature (°C)	Stokes	anti-Stokes-747.200	-125.013	0.120	0.019
-746.185	-200.000	-0.038	0.288
-745.171	436.886	0.146	-0.325
-744.156	-200.000	0.004	0.169
-743.142	389.633	-0.102	-0.217
-742.127	419.664	0.091	-0.198
-741.112	-12.039	-0.137	-0.092
-740.098	-200.000	0.002	0.219
-739.083	-48.814	-0.268	-0.132
-738.069	286.992	-0.096	0.177
-737.054	581.495	0.133	-0.334
-736.039	-200.000	-0.034	0.223
-735.025	-122.881	-0.167	-0.028
-734.010	-200.000	-0.009	-0.247
-732.996	800.000	0.075	0.215
-731.981	129.605	-0.241	-0.315
-730.966	-15.500	-0.244	-0.159
-729.952	268.348	0.105	-0.188
-728.937	-200.000	-0.034	0.185
-727.923	-163.135	0.139	0.007
-726.908	-85.627	-0.302	-0.096
-725.894	258.164	-0.101	-0.178
-724.879	632.951	-0.046	-0.120
-723.864	108.921	0.223	-0.273
-722.850	-91.658	-0.152	-0.044
-721.835	166.425	-0.103	-0.149
-720.821	264.234	0.131	0.233
-719.806	-200.000	-0.024	-0.132
-718.791	131.203	-0.161	-0.211
-717.777	-98.982	0.406	-0.105
-716.762	139.130	-0.130	-0.175
-715.748	-200.000	0.015	0.348
-714.733	-200.000	0.034	-0.155
-713.718	72.950	0.061	-0.066
-712.704	-21.137	0.270	0.169
-711.689	-79.071	-0.344	-0.119
-710.675	-200.000	-0.019	0.108
-709.660	-200.000	0.045	0.291
-708.645	800.000	0.091	0.272
-707.631	800.000	-0.074	-0.259
-706.616	-117.296	-0.090	-0.017
-705.602	-200.000	0.064	-0.453
-704.587	-75.598	0.056	-0.020
-703.572	-79.686	-0.163	0.056
-702.558	391.241	-0.018	0.039
-701.543	726.531	-0.135	0.367
-700.529	89.810	-0.184	0.210
-699.514	185.752	-0.181	-0.275
-698.499	800.000	-0.046	0.170
-697.485	-38.572	-0.259	0.140
-696.470	-200.000	0.001	0.225
-695.456	-200.000	0.016	-0.337
-694.441	321.735	-0.031	0.061
-693.426	134.158	0.083	-0.110
-692.412	148.595	-0.063	-0.087
-691.397	800.000	0.038	0.132
-690.383	-18.174	0.190	-0.121
-689.368	-148.932	-0.076	0.006
-688.354	-200.000	0.039	-0.199
-687.339	-3.478	-0.291	0.207
-686.324	-200.000	-0.075	-0.000
-685.310	-98.702	0.116	-0.030
-684.295	-200.000	-0.052	0.283
-683.281	-51.406	-0.221	0.105
-682.266	-68.307	0.151	0.060
-681.251	80.414	0.197	0.216
-680.237	56.443	0.177	0.176
-679.222	-11.172	-0.106	0.071
-678.208	59.722	0.228	0.229
-677.193	191.905	0.186	-0.286
-676.178	321.625	-0.081	0.157
-675.164	-200.000	0.152	0.000
-674.149	-176.047	-0.371	-0.010
-673.135	-16.632	0.143	0.092
-672.120	691.677	-0.040	-0.106
-671.105	347.371	-0.206	0.413
-670.091	167.996	0.198	0.287
-669.076	132.888	0.258	0.339
-668.062	-15.958	-0.270	-0.175
-667.047	-86.263	-0.219	0.069
-666.032	-85.774	-0.133	0.042
-665.018	175.907	0.075	-0.111
-664.003	-200.000	0.027	0.130
-662.989	800.000	0.137	-0.429
-661.974	196.730	-0.097	-0.151
-660.959	-18.877	-0.082	0.052
-659.945	271.252	0.129	-0.231
-658.930	-35.373	-0.134	0.074
-657.916	-9.453	0.193	0.131
-656.901	283.005	-0.096	0.177
-655.886	321.741	-0.047	-0.092
-654.872	-200.000	-0.003	-0.363
-653.857	33.400	-0.222	-0.197
-652.843	-200.000	0.010	0.265
-651.828	800.000	0.101	-0.313
-650.814	-78.918	0.042	-0.015
-649.799	2.033	0.239	-0.176
-648.784	-64.203	-0.238	0.099
-647.770	-90.170	-0.160	-0.048
-646.755	72.746	0.019	0.020
-645.741	-200.000	0.030	0.222
-644.726	356.993	-0.186	0.377
-643.711	-200.000	-0.013	0.355
-642.697	620.268	0.040	0.102
-641.682	-200.000	-0.036	-0.389
-640.668	94.036	-0.200	0.231
-639.653	-48.743	0.123	-0.060
-638.638	62.659	-0.268	-0.273
-637.624	777.880	-0.114	0.319
-636.609	-90.315	0.121	0.036
-635.595	574.560	0.046	0.113
-634.580	-165.962	-0.082	0.004
-633.565	20.683	-0.345	-0.285
-632.551	207.173	-0.160	0.254
-631.536	-200.000	0.016	0.227
-630.522	800.000	0.082	-0.311
-629.507	-69.417	0.290	0.113
-628.492	-39.713	-0.204	-0.109
-627.478	197.334	-0.154	-0.240
-626.463	800.000	-0.056	0.220
-625.449	-8.905	-0.150	-0.103
-624.434	-117.672	-0.132	-0.024
-623.419	171.284	-0.197	0.288
-622.405	-162.318	-0.082	0.004
-621.390	406.402	-0.130	0.279
-620.376	-63.584	0.128	0.054
-619.361	-200.000	-0.007	0.088
-618.346	0.910	-0.475	0.347
-617.332	-128.440	-0.141	0.020
-616.317	26.610	0.138	0.118
-615.303	236.923	-0.073	-0.124
-614.288	-65.355	-0.116	0.048
-613.273	800.000	-0.066	0.205
-612.259	-93.396	0.119	0.034
-611.244	-190.056	-0.164	0.002
-610.230	76.341	0.190	-0.205
-609.215	720.931	-0.078	0.210
-608.201	-200.000	0.014	-0.074
-607.186	-33.456	-0.058	-0.032
-606.171	112.443	0.228	-0.281
-605.157	-200.000	0.012	0.163
-604.142	-80.792	-0.209	-0.071
-603.128	256.907	0.120	-0.209
-602.113	216.215	-0.027	0.044
-601.098	-200.000	0.002	0.132
-600.084	12.819	-0.161	-0.127
-599.069	800.000	0.079	0.302
-598.055	666.824	0.049	0.129
-597.040	-163.339	-0.179	0.009
-596.025	-87.333	-0.182	-0.056
-595.011	-34.657	-0.211	0.118
-593.996	228.920	0.097	0.161
-592.982	789.267	0.049	0.136
-591.967	800.000	-0.043	0.143
-590.952	730.055	-0.058	0.157
-589.938	48.218	-0.291	-0.277
-588.923	47.735	0.272	0.258
-587.909	-45.109	0.245	-0.124
-586.894	480.190	0.102	0.235
-585.879	-200.000	-0.010	-0.193
-584.865	-82.889	0.419	0.137
-583.850	70.206	-0.208	0.218
-582.836	485.164	-0.081	0.188
-581.821	-10.136	-0.306	0.207
-580.806	63.529	0.196	0.200
-579.792	59.295	-0.235	0.235
-578.777	384.825	-0.150	0.313
-577.763	-115.731	0.147	0.028
-576.748	-12.769	0.369	-0.245
-575.733	114.354	-0.168	0.208
-574.719	800.000	0.087	0.247
-573.704	-87.210	-0.133	0.041
-572.690	-200.000	-0.019	0.152
-571.675	-200.000	-0.022	0.198
-570.661	4.140	0.323	0.240
-569.646	-56.553	0.121	0.054
-568.631	-200.000	0.017	0.221
-567.617	-110.576	-0.187	0.039
-566.602	196.988	0.117	0.181
-565.588	-200.000	-0.033	-0.159
-564.573	-179.760	-0.165	-0.004
-563.558	-158.843	-0.059	-0.003
-562.544	-66.833	-0.128	-0.051
-561.529	800.000	0.030	-0.097
-560.515	-85.628	-0.201	0.063
-559.500	35.263	0.232	0.206
-558.485	-104.960	0.267	0.062
-557.471	353.163	0.148	0.299
-556.456	-200.000	0.048	-0.256
-555.442	-121.113	0.137	-0.023
-554.427	80.927	0.054	0.059
-553.412	251.463	-0.044	0.076
-552.398	-62.297	-0.123	0.052
-551.383	160.674	0.054	-0.077
-550.369	101.160	-0.123	-0.146
-549.354	-146.620	0.349	-0.031
-548.339	50.514	-0.145	0.139
-547.325	-169.679	0.278	-0.010
-546.310	-116.431	0.123	-0.023
-545.296	-160.191	-0.132	-0.007
-544.281	-200.000	-0.036	-0.382
-543.266	-110.562	0.077	0.016
-542.252	17.616	0.026	-0.021
-541.237	98.963	0.103	-0.120
-540.223	90.244	0.083	-0.094
-539.208	-68.930	-0.087	-0.034
-538.193	741.810	0.028	0.075
-537.179	-120.043	-0.450	-0.078
-536.164	-27.808	0.166	-0.098
-535.150	-169.890	-0.416	-0.015
-534.135	229.099	0.144	-0.238
-533.121	800.000	-0.096	-0.342
-532.106	-6.361	-0.236	-0.163
-531.091	57.209	-0.237	0.235
-530.077	-34.294	0.173	-0.096
-529.062	-114.316	0.517	-0.101
-528.048	-200.000	-0.041	-0.229
-527.033	-0.059	0.241	0.174
-526.018	136.292	0.049	0.064
-525.004	410.924	-0.063	-0.136
-523.989	385.252	0.057	-0.118
-522.975	-111.171	-0.400	-0.083
-521.960	800.000	-0.045	-0.168
-520.945	498.670	0.135	0.315
-519.931	217.793	-0.095	-0.154
-518.916	-48.914	0.166	-0.081
-517.902	-161.214	0.384	-0.020
-516.887	73.016	0.222	0.235
-515.872	-64.354	-0.222	-0.092
-514.858	-51.092	0.249	-0.119
-513.843	-200.000	0.003	-0.210
-512.829	-65.133	0.155	-0.063
-511.814	-157.963	-0.217	0.013
-510.799	300.625	0.154	-0.288
-509.785	-200.000	0.002	0.064
-508.770	171.218	-0.163	-0.237
-507.756	-79.200	0.115	-0.040
-506.741	-139.946	-0.241	-0.026
-505.726	-63.596	-0.123	-0.051
-504.712	800.000	-0.097	-0.280
-503.697	227.339	0.156	-0.257
-502.683	248.009	0.038	-0.065
-501.668	147.456	-0.247	0.337
-500.653	800.000	0.087	0.380
-499.639	-39.942	-0.414	0.219
-498.624	-112.783	0.240	0.048
-497.610	-28.414	-0.182	-0.106
-496.595	750.613	-0.037	-0.100
-495.581	-13.349	0.307	-0.202
-494.566	-147.813	-0.046	0.004
-493.551	800.000	0.209	-0.630
-492.537	-108.428	-0.402	-0.088
-491.522	243.737	-0.204	-0.346
-490.508	56.467	-0.052	-0.051
-489.493	73.326	-0.102	0.108
-488.478	234.469	0.092	-0.153
-487.464	-200.000	-0.009	-0.205
-486.449	-85.462	0.207	0.065
-485.435	800.000	0.043	0.150
-484.420	67.190	-0.072	-0.074
-483.405	-77.970	0.199	-0.069
-482.391	-158.411	-0.245	0.014
-481.376	230.849	-0.071	0.117
-480.362	-43.511	0.210	-0.107
-479.347	-200.000	0.024	0.125
-478.332	1.470	0.045	-0.033
-477.318	-200.000	-0.002	-0.220
-476.303	-200.000	0.008	0.248
-475.289	6.303	0.219	0.165
-474.274	800.000	-0.075	-0.228
-473.259	-36.228	-0.062	0.034
-472.245	346.816	0.034	0.067
-471.230	-200.000	0.003	0.046
-470.216	-200.000	0.032	-0.340
-469.201	251.092	0.148	-0.254
-468.186	83.237	-0.080	0.088
-467.172	-200.000	-0.026	0.162
-466.157	167.066	-0.121	-0.174
-465.143	-200.000	0.013	0.114
-464.128	-63.593	0.219	-0.091
-463.113	-200.000	0.053	-0.236
-462.099	-59.795	0.435	-0.188
-461.084	151.000	0.292	-0.402
-460.070	-27.331	-0.096	0.057
-459.055	-162.924	-0.192	-0.009
-458.040	-200.000	0.024	0.232
-457.026	-68.848	-0.129	-0.051
-456.011	-200.000	-0.012	-0.166
-454.997	800.000	0.022	0.097
-453.982	147.969	-0.055	-0.075
-452.968	-200.000	0.004	0.017
-451.953	290.478	-0.049	-0.089
-450.938	71.047	-0.099	0.104
-449.924	-128.221	0.277	-0.040
-448.909	103.308	-0.047	0.055
-447.895	-16.712	0.225	-0.144
-446.880	-130.835	-0.135	-0.018
-445.865	-133.508	-0.173	-0.022
-444.851	-2.176	0.134	0.095
-443.836	-200.000	-0.005	0.108
-442.822	-116.172	0.264	-0.049
-441.807	-200.000	-0.034	0.288
-440.792	287.945	0.097	0.177
-439.778	51.555	0.187	-0.179
-438.763	-200.000	0.017	-0.114
-437.749	546.814	-0.122	0.296
-436.734	489.387	0.115	0.265
-435.719	401.411	0.031	0.065
-434.705	-137.463	-0.149	0.017
-433.690	-46.981	-0.215	-0.106
-432.676	122.234	-0.193	-0.244
-431.661	-25.866	-0.159	0.095
-430.646	800.000	0.051	-0.185
-429.632	-179.277	0.218	-0.005
-428.617	243.472	0.094	0.159
-427.603	-141.228	0.212	-0.022
-426.588	-106.593	-0.153	-0.034
-425.573	317.788	-0.090	0.171
-424.559	-200.000	0.001	-0.213
-423.544	-32.995	0.074	0.041
-422.530	-200.000	0.000	-0.007
-421.515	-132.950	-0.125	0.016
-420.500	45.366	0.246	-0.229
-419.486	1.768	0.092	-0.067
-418.471	800.000	-0.098	0.424
-417.457	-3.158	0.142	0.100
-416.442	34.531	0.177	-0.156
-415.428	196.958	-0.040	-0.061
-414.413	-59.505	-0.200	-0.087
-413.398	-122.472	-0.134	-0.022
-412.384	-200.000	-0.078	0.000
-411.369	229.818	0.178	0.294
-410.355	207.716	0.176	0.278
-409.340	-18.133	0.040	-0.026
-408.325	-73.484	0.266	-0.098
-407.311	800.000	-0.077	0.221
-406.296	77.251	-0.204	-0.219
-405.282	537.735	0.132	-0.316
-404.267	-200.000	0.006	0.101
-403.252	92.279	0.164	-0.186
-402.238	466.604	0.048	-0.108
-401.223	-96.454	0.397	0.106
-400.209	-41.365	0.168	-0.087
-399.194	-200.000	-0.018	-0.295
-398.179	129.838	-0.058	0.075
-397.165	-10.769	0.180	0.120
-396.150	-113.696	0.327	-0.064
-395.136	-200.000	-0.020	0.236
-394.121	-117.762	-0.139	-0.025
-393.106	23.114	0.219	0.181
-392.092	-200.000	0.049	0.298
-391.077	-80.891	-0.330	0.110
-390.063	17.568	-0.158	0.127
-389.048	-26.999	0.244	-0.144
-388.033	583.871	-0.075	0.185
-387.019	-200.000	0.037	-0.210
-386.004	185.806	0.199	-0.299
-384.990	-200.000	0.005	-0.145
-383.975	171.333	0.061	-0.089
-382.960	-12.739	0.062	0.041
-381.946	101.241	0.097	0.114
-380.931	-100.868	-0.294	-0.073
-379.917	800.000	0.065	-0.262
-378.902	352.005	-0.022	-0.044
-377.888	93.216	-0.172	-0.196
-376.873	-200.000	0.085	0.427
-375.858	-26.303	0.203	-0.120
-374.844	-6.454	-0.180	-0.123
-373.829	-94.261	-0.269	0.074
-372.815	289.368	-0.096	-0.175
-371.800	319.044	0.204	0.390
-370.785	-200.000	-0.012	0.351
-369.771	-99.345	-0.308	-0.078
-368.756	-145.400	0.387	-0.035
-367.742	166.681	-0.046	-0.066
-366.727	137.648	-0.295	-0.390
-365.712	800.000	0.051	0.148
-364.698	-43.970	-0.144	0.073
-363.683	69.446	-0.115	0.120
-362.669	525.864	0.085	0.201
-361.654	668.959	0.074	0.192
-360.639	-200.000	-0.033	0.337
-359.625	-130.443	-0.156	-0.021
-358.610	29.281	0.186	-0.159
-357.596	254.600	0.154	-0.265
-356.581	179.589	0.156	-0.230
-355.566	-142.092	0.097	0.010
-354.552	288.420	-0.082	-0.150
-353.537	-133.376	0.183	0.023
-352.523	-200.000	-0.031	0.312
-351.508	769.310	0.089	-0.243
-350.493	-200.000	-0.030	-0.361
-349.479	493.494	0.063	0.145
-348.464	471.727	-0.116	-0.264
-347.450	-129.227	-0.195	-0.027
-346.435	105.521	-0.140	-0.167
-345.420	-200.000	0.018	-0.118
-344.406	233.485	0.093	0.153
-343.391	800.000	-0.040	-0.162
-342.377	94.219	-0.109	0.124
-341.362	-200.000	0.038	0.213
-340.348	103.681	-0.136	-0.161
-339.333	800.000	-0.035	0.140
-338.318	23.158	0.053	0.044
-337.304	-104.951	0.281	0.065
-336.289	-200.000	0.020	0.159
-335.275	-78.135	-0.136	-0.047
-334.260	-35.291	-0.253	0.139
-333.245	-96.074	-0.053	-0.014
-332.231	-200.000	0.038	-0.225
-331.216	162.037	-0.068	0.096
-330.202	149.958	-0.106	-0.145
-329.187	-100.185	0.451	0.113
-328.172	-108.260	0.168	-0.037
-327.158	-117.338	0.235	0.043
-326.143	-61.825	-0.484	0.204
-325.129	152.712	0.220	0.302
-324.114	-32.154	0.089	0.050
-323.099	-67.992	0.122	-0.048
-322.085	394.185	0.144	0.301
-321.070	-200.000	0.042	-0.226
-320.056	353.212	-0.240	-0.479
-319.041	-74.552	-0.128	-0.046
-318.026	800.000	-0.097	0.284
-317.012	35.218	-0.197	-0.174
-315.997	266.316	-0.108	-0.189
-314.983	-86.602	-0.380	-0.117
-313.968	-75.407	-0.176	0.063
-312.953	800.000	-0.038	-0.117
-311.939	-19.389	0.196	-0.122
-310.924	-137.407	0.305	-0.035
-309.910	-200.000	-0.061	-0.313
-308.895	50.481	-0.328	0.312
-307.880	62.662	0.216	0.217
-306.866	-200.000	-0.013	0.115
-305.851	7.194	0.215	0.161
-304.837	-31.388	-0.303	-0.171
-303.822	24.262	-0.057	0.047
-302.807	15.295	0.058	0.046
-301.793	330.277	0.056	-0.108
-300.778	-73.174	-0.322	0.119
-299.764	-162.484	0.280	-0.014
-298.749	-42.945	0.311	0.159
-297.735	-200.000	-0.038	-0.198
-296.720	540.025	0.077	0.185
-295.705	-200.000	-0.018	0.172
-294.691	-200.000	0.018	-0.237
-293.676	163.311	-0.109	0.153
-292.662	-200.000	0.011	-0.049
-291.647	-86.570	-0.180	-0.056
-290.632	-6.558	0.036	0.025
-289.618	319.953	0.132	-0.251
-288.603	-71.282	-0.158	-0.059
-287.589	-105.521	-0.467	0.106
-286.574	-90.721	0.042	-0.012
-285.559	-1.944	0.152	0.107
-284.545	-138.245	0.133	-0.015
-283.530	-200.000	0.003	-0.260
-282.516	-34.510	0.477	-0.263
-281.501	419.631	0.190	-0.408
-280.486	-37.921	0.053	0.028
-279.472	-125.749	0.135	0.020
-278.457	-134.656	-0.215	0.026
-277.443	-200.000	0.072	-0.374
-276.428	53.015	0.205	-0.197
-275.413	-58.276	-0.156	0.068
-274.399	133.105	-0.122	0.159
-273.384	-72.773	-0.049	0.018
-272.370	-200.000	-0.064	-0.479
-271.355	-47.953	-0.073	0.036
-270.340	-158.683	-0.284	-0.016
-269.326	55.475	0.138	0.134
-268.311	800.000	-0.096	-0.305
-267.297	359.350	0.020	-0.039
-266.282	60.157	0.108	0.107
-265.267	-137.866	0.068	0.008
-264.253	-48.131	-0.219	-0.106
-263.238	800.000	0.070	-0.226
-262.224	50.809	-0.099	0.094
-261.209	800.000	-0.118	-0.358
-260.195	185.594	-0.146	-0.218
-259.180	42.130	-0.178	0.162
-258.165	-200.000	0.062	0.370
-257.151	59.299	0.116	0.115
-256.136	-200.000	0.031	0.172
-255.122	94.845	-0.119	0.136
-254.107	-95.132	0.035	0.009
-253.092	800.000	-0.041	0.149
-252.078	212.956	-0.143	0.226
-251.063	493.179	0.189	-0.434
-250.049	233.682	0.125	-0.207
-249.034	44.085	0.238	-0.219
-248.019	236.738	0.071	-0.117
-247.005	150.791	-0.120	0.163
-245.990	173.674	-0.091	0.132
-244.976	800.000	-0.076	-0.241
-243.961	452.488	-0.073	-0.162
-242.946	-155.253	0.182	0.012
-241.932	-100.504	-0.259	-0.064
-240.917	-72.226	0.173	-0.064
-239.903	-143.321	-0.302	0.029
-238.888	533.459	0.046	0.110
-237.873	-200.000	0.049	-0.324
-236.859	-200.000	0.078	-0.375
-235.844	108.697	0.217	-0.260
-234.830	-4.072	0.173	0.120
-233.815	-89.893	-0.131	-0.039
-232.800	-183.054	-0.041	-0.001
-231.786	92.290	-0.163	-0.184
-230.771	-74.376	0.096	-0.035
-229.757	225.907	0.146	-0.238
-228.742	295.512	0.221	0.407
-227.727	-200.000	-0.271	-0.001
-226.713	-71.826	0.342	-0.128
-225.698	547.471	-0.051	0.121
-224.684	800.000	0.034	0.146
-223.669	-3.604	-0.146	-0.102
-222.655	-40.837	-0.152	-0.079
-221.640	-7.881	-0.291	0.197
-220.625	297.648	-0.208	-0.383
-219.611	12.120	0.324	0.250
-218.596	545.736	-0.204	0.489
-217.582	800.000	-0.073	0.310
-216.567	-130.897	-0.310	-0.042
-215.552	-200.000	0.004	0.367
-214.538	557.107	-0.174	0.421
-213.523	-200.000	0.017	-0.122
-212.509	-200.000	0.026	-0.122
-211.494	48.893	0.140	0.132
-210.479	521.872	-0.115	0.272
-209.465	390.517	0.151	-0.314
-208.450	362.964	0.171	0.345
-207.436	-27.489	0.197	-0.115
-206.421	-79.567	-0.033	0.011
-205.406	800.000	-0.103	0.380
-204.392	-53.393	0.136	-0.062
-203.377	225.230	0.068	0.111
-202.363	420.659	-0.136	0.291
-201.348	-200.000	-0.150	0.681
-200.333	133.511	0.117	0.151
-199.319	-94.948	-0.312	0.085
-198.304	118.435	-0.286	-0.353
-197.290	221.387	0.035	-0.056
-196.275	-200.000	-0.001	0.184
-195.260	611.859	0.067	-0.167
-194.246	-81.789	-0.271	-0.089
-193.231	-200.000	-0.015	-0.079
-192.217	-72.219	0.236	-0.088
-191.202	376.446	0.034	-0.069
-190.187	-159.426	-0.135	-0.008
-189.173	517.470	-0.045	0.105
-188.158	-90.301	0.537	0.156
-187.144	-118.948	-0.197	0.035
-186.129	-54.000	-0.195	-0.089
-185.114	148.911	0.053	0.072
-184.100	65.471	0.374	-0.379
-183.085	-59.431	0.241	0.104
-182.071	140.877	-0.043	0.057
-181.056	-74.778	0.102	0.037
-180.042	-90.883	0.241	0.069
-179.027	-112.491	-0.217	0.043
-178.012	33.385	0.411	0.357
-176.998	-50.141	0.300	-0.142
-175.983	95.786	-0.230	-0.263
-174.969	800.000	0.027	-0.103
-173.954	-200.000	-0.004	0.177
-172.939	269.729	-0.159	0.279
-171.925	327.467	0.065	0.126
-170.910	-200.000	0.042	-0.290
-169.896	-167.672	-0.280	-0.011
-168.881	-108.987	-0.244	0.052
-167.866	-200.000	-0.029	-0.196
-166.852	-111.098	0.084	-0.017
-165.837	318.712	0.017	-0.032
-164.823	-57.313	0.382	-0.168
-163.808	-23.608	0.226	0.136
-162.793	800.000	0.090	-0.309
-161.779	-103.301	-0.383	0.090
-160.764	187.215	-0.153	-0.228
-159.750	24.378	0.149	0.123
-158.735	-9.758	-0.158	-0.105
-157.720	-122.056	0.284	-0.047
-156.706	145.057	-0.055	0.073
-155.691	-30.572	-0.176	-0.100
-154.677	-78.643	-0.184	-0.063
-153.662	688.149	0.071	0.186
-152.647	-116.895	0.176	0.032
-151.633	-108.273	0.073	-0.016
-150.618	-122.683	-0.243	0.039
-149.604	295.966	0.093	-0.171
-148.589	-77.073	-0.189	0.066
-147.574	121.280	-0.203	-0.253
-146.560	72.799	-0.093	-0.097
-145.545	695.170	-0.062	-0.162
-144.531	-146.963	-0.174	-0.015
-143.516	572.002	0.082	-0.201
-142.502	800.000	-0.034	0.113
-141.487	59.758	0.108	-0.107
-140.472	-18.838	-0.251	-0.156
-139.458	55.225	-0.075	-0.073
-138.443	-31.982	-0.167	0.094
-137.429	800.000	0.045	0.193
-136.414	-200.000	-0.048	0.235
-135.399	-150.911	-0.265	0.020
-134.385	141.100	-0.117	0.154
-133.370	6.083	0.473	-0.350
-132.356	-200.000	0.068	-0.302
-131.341	-200.000	0.012	0.080
-130.326	196.128	-0.155	0.235
-129.312	-200.000	-0.073	0.344
-128.297	153.175	0.080	0.109
-127.283	-116.667	0.187	-0.034
-126.268	-3.856	-0.259	-0.180
-125.253	26.397	-0.300	-0.251
-124.239	-200.000	0.023	0.244
-123.224	193.158	0.210	0.318
-122.210	-13.434	0.379	0.245
