DTS Sentinel unit serial number:	SN413079Multiplexer serial number:	ORYXHardware model number:	OX4-SRSoftware version number:	ORYX F/W v4.00 Oryx Data Collector v3.7.2.0data status	okinstallation	princeton_trtdifferential loss correction	single-endedforward channel	channel 1reverse channel	N/Adate	2019/09/14time	18:46:35forward acquisition time	60.00reverse acquisition time	0.00gamma	496.2192k internal	0.2305k external	0.2305temperature offset calibration	1.0036default loss term (dB/km)	0.3790temperature slope calibration	1.0000multiplexer offset coefficient	1.0000multiplexer slope coefficient	1.0000fibre end	0.00T internal ref (°C)	36.08T ext. ref 1 (°C)	4.89T ext. ref 2 (°C)	29.84length (m)	temperature (°C)	Stokes	anti-Stokes-747.200	517.176	0.081	0.194
-746.185	27.921	-0.059	0.050
-745.171	330.638	-0.069	-0.134
-744.156	444.508	-0.074	0.165
-743.142	-79.346	-0.330	-0.114
-742.127	800.000	-0.042	-0.136
-741.112	582.032	-0.079	0.197
-740.098	-59.453	-0.135	0.059
-739.083	800.000	0.041	-0.134
-738.069	466.959	0.176	0.401
-737.054	546.446	-0.101	0.245
-736.039	800.000	-0.133	0.448
-735.025	582.021	-0.028	-0.071
-734.010	40.713	0.042	0.038
-732.996	-68.225	0.338	-0.134
-731.981	-59.913	-0.174	-0.076
-730.966	-47.464	-0.020	-0.010
-729.952	-200.000	-0.005	0.131
-728.937	-171.514	-0.192	0.006
-727.923	-114.803	-0.063	0.012
-726.908	-140.559	-0.268	-0.028
-725.894	52.382	-0.185	-0.179
-724.879	-3.003	-0.061	0.043
-723.864	16.316	0.139	-0.112
-722.850	-111.036	0.158	-0.033
-721.835	-26.429	0.241	0.144
-720.821	800.000	-0.051	0.151
-719.806	-19.389	-0.257	-0.162
-718.791	586.471	0.060	0.150
-717.777	29.197	0.215	0.186
-716.762	5.025	0.204	-0.152
-715.748	316.731	-0.075	0.144
-714.733	48.827	-0.144	-0.138
-713.718	-200.000	-0.018	0.098
-712.704	-138.675	-0.150	0.017
-711.689	9.074	0.172	0.132
-710.675	-121.416	0.243	0.041
-709.660	247.522	-0.060	-0.103
-708.645	234.267	-0.117	0.197
-707.631	329.572	0.116	0.226
-706.616	-74.383	0.094	-0.035
-705.602	-109.251	-0.360	-0.078
-704.587	301.640	-0.031	0.057
-703.572	-69.979	-0.216	0.084
-702.558	-165.968	0.022	-0.001
-701.543	800.000	-0.061	-0.269
-700.529	-47.846	0.079	0.039
-699.514	-50.963	-0.334	0.159
-698.499	-64.240	0.132	-0.055
-697.485	-200.000	-0.034	0.259
-696.470	157.510	-0.105	-0.147
-695.456	-45.764	-0.218	0.110
-694.441	-85.073	0.068	0.022
-693.426	-39.123	0.113	0.060
-692.412	-75.446	0.348	0.126
-691.397	-200.000	-0.020	0.373
-690.383	-200.000	-0.000	-0.062
-689.368	-39.184	0.234	0.125
-688.354	127.101	-0.166	0.214
-687.339	-53.725	-0.141	0.065
-686.324	800.000	0.132	-0.432
-685.310	800.000	0.034	-0.106
-684.295	-108.631	-0.177	-0.039
-683.281	-200.000	-0.002	0.166
-682.266	-200.000	0.029	0.364
-681.251	-2.694	-0.215	0.153
-680.237	263.149	-0.157	-0.277
-679.222	-200.000	0.013	-0.242
-678.208	16.482	0.040	-0.032
-677.193	-76.799	-0.130	-0.046
-676.178	800.000	-0.136	-0.508
-675.164	677.952	-0.087	0.229
-674.149	-200.000	0.033	-0.185
-673.135	-56.580	-0.167	-0.075
-672.120	-65.733	0.178	-0.072
-671.105	-151.481	-0.173	0.013
-670.091	367.926	0.162	-0.333
-669.076	597.262	0.116	-0.291
-668.062	-20.009	0.256	-0.161
-667.047	-114.688	0.169	0.033
-666.032	169.281	-0.093	-0.135
-665.018	34.247	0.225	0.199
-664.003	-153.543	-0.357	-0.025
-662.989	381.811	-0.098	-0.204
-661.974	-200.000	-0.023	-0.111
-660.959	262.851	0.051	0.089
-659.945	88.226	-0.028	-0.032
-658.930	-87.031	0.206	0.064
-657.916	103.268	-0.182	-0.217
-656.901	-14.711	0.201	-0.131
-655.886	-95.703	-0.093	0.025
-654.872	288.952	0.054	-0.099
-653.857	278.704	-0.221	0.400
-652.843	-40.531	-0.279	0.147
-651.828	-76.772	-0.258	-0.091
-650.814	75.260	0.180	-0.193
-649.799	-200.000	0.041	-0.370
-648.784	-87.735	0.286	0.087
-647.770	-74.234	-0.340	0.125
-646.755	348.705	0.042	-0.084
-645.741	-73.263	-0.115	0.043
-644.726	77.392	-0.188	-0.203
-643.711	-72.765	-0.170	0.064
-642.697	-82.634	0.146	-0.048
-641.682	-141.404	-0.145	-0.015
-640.668	800.000	0.048	0.136
-639.653	23.131	0.052	-0.043
-638.638	-83.161	0.112	-0.036
-637.624	25.911	0.247	-0.209
-636.609	-108.552	-0.119	-0.026
-635.595	800.000	0.022	0.069
-634.580	-151.940	0.245	0.018
-633.565	135.747	-0.095	-0.126
-632.551	368.631	0.188	-0.385
-631.536	170.447	0.057	-0.083
-630.522	-3.062	0.190	0.134
-629.507	70.534	0.090	0.094
-628.492	-200.000	-0.005	-0.233
-627.478	-75.069	0.228	0.083
-626.463	0.222	0.032	-0.023
-625.449	14.585	-0.065	0.052
-624.434	800.000	0.089	0.265
-623.419	-45.678	0.090	-0.045
-622.405	800.000	0.042	0.152
-621.390	-200.000	0.111	-0.506
-620.376	-130.623	0.144	-0.020
-619.361	-96.460	0.230	0.061
-618.346	-200.000	0.017	0.233
-617.332	431.614	0.033	-0.072
-616.317	51.287	-0.160	-0.154
-615.303	-74.431	0.192	-0.070
-614.288	-136.798	-0.213	-0.025
-613.273	-200.000	-0.066	-0.318
-612.259	71.241	-0.121	0.127
-611.244	352.809	0.120	0.240
-610.230	304.924	-0.069	-0.130
-609.215	-15.458	0.222	0.143
-608.201	449.175	0.138	0.309
-607.186	35.697	0.026	0.023
-606.171	-200.000	-0.044	-0.332
-605.157	163.172	0.123	-0.176
-604.142	13.013	-0.046	-0.036
-603.128	98.610	-0.048	0.056
-602.113	-75.014	-0.187	0.068
-601.098	149.923	-0.082	0.112
-600.084	-200.000	-0.014	0.482
-599.069	-61.540	0.309	-0.131
-598.055	3.755	0.458	0.339
-597.040	-93.669	0.513	-0.143
-596.025	-142.779	-0.493	-0.049
-595.011	312.626	0.064	0.121
-593.996	-120.211	0.222	0.038
-592.982	-200.000	-0.049	0.217
-591.967	-80.066	0.095	-0.032
-590.952	200.768	-0.076	0.119
-589.938	-26.394	0.337	0.200
-588.923	-66.673	-0.049	0.020
-587.909	178.940	-0.167	-0.246
-586.894	75.535	0.098	0.105
-585.879	50.025	-0.293	-0.279
-584.865	-45.528	0.253	-0.127
-583.850	800.000	-0.116	0.418
-582.836	101.737	-0.105	0.124
-581.821	-200.000	-0.163	0.000
-580.806	-200.000	0.011	-0.173
-579.792	-120.735	0.136	-0.023
-578.777	-135.725	-0.080	0.010
-577.763	178.951	0.032	0.048
-576.748	-61.452	0.355	-0.151
-575.733	501.727	-0.062	0.144
-574.719	-200.000	-0.017	0.094
-573.704	39.739	-0.096	-0.087
-572.690	-200.000	0.053	0.288
-571.675	-137.419	0.192	0.022
-570.661	87.443	-0.129	-0.144
-569.646	800.000	-0.049	0.173
-568.631	-65.122	0.169	0.069
-567.617	80.135	-0.097	0.106
-566.602	378.533	-0.048	0.099
-565.588	800.000	-0.055	-0.233
-564.573	-200.000	-0.052	0.237
-563.558	797.172	-0.028	0.077
-562.544	193.762	-0.065	-0.099
-561.529	-200.000	0.006	0.234
-560.515	-200.000	0.063	0.297
-559.500	696.570	-0.093	-0.248
-558.485	-108.528	0.152	-0.033
-557.471	308.809	0.045	0.085
-556.456	800.000	-0.080	-0.308
-555.442	-200.000	0.049	-0.404
-554.427	46.795	-0.188	0.176
-553.412	-142.712	0.152	0.015
-552.398	364.717	-0.111	-0.226
-551.383	16.147	0.268	0.214
-550.369	59.424	0.034	0.034
-549.354	-21.548	0.193	-0.119
-548.339	106.269	-0.269	0.322
-547.325	-70.575	0.413	0.158
-546.310	26.194	-0.099	0.084
-545.296	800.000	-0.093	-0.341
-544.281	800.000	-0.082	-0.269
-543.266	513.667	0.065	0.154
-542.252	-39.961	-0.232	0.122
-541.237	97.123	-0.042	0.049
-540.223	-200.000	0.026	-0.246
-539.208	-200.000	0.061	-0.287
-538.193	-200.000	-0.018	-0.172
-537.179	68.174	-0.142	-0.147
-536.164	-58.565	-0.292	-0.128
-535.150	-115.883	-0.180	0.034
-534.135	-30.187	0.123	-0.071
-533.121	-149.911	0.126	-0.010
-532.106	-181.406	0.184	0.004
-531.091	-25.077	-0.409	0.245
-530.077	-118.119	-0.033	0.006
-529.062	-44.826	-0.147	-0.074
-528.048	-45.908	0.241	0.120
-527.033	390.456	0.230	-0.480
-526.018	-200.000	0.021	-0.222
-525.004	-200.000	0.003	-0.160
-523.989	-156.543	0.203	0.013
-522.975	-99.022	-0.222	0.057
-521.960	-200.000	-0.010	-0.183
-520.945	-200.000	-0.035	-0.194
-519.931	800.000	-0.050	0.149
-518.916	-200.000	-0.009	0.257
-517.902	30.208	-0.176	0.152
-516.887	78.621	0.048	-0.051
-515.872	-95.998	0.213	-0.057
-514.858	-5.627	-0.261	0.180
-513.843	86.710	-0.101	-0.113
-512.829	61.327	0.068	-0.069
-511.814	-115.564	0.326	-0.062
-510.799	73.779	0.154	-0.163
-509.785	13.108	-0.218	-0.170
-508.770	562.233	-0.153	0.374
-507.756	800.000	0.147	0.471
-506.741	558.661	0.183	-0.445
-505.726	313.629	0.052	-0.098
-504.712	-38.397	0.207	0.111
-503.697	-136.379	-0.201	0.024
-502.683	258.168	-0.096	-0.166
-501.668	269.609	-0.073	-0.130
-500.653	269.360	-0.062	-0.110
-499.639	800.000	0.055	0.235
-498.624	-149.189	0.186	-0.015
-497.610	-112.995	-0.141	0.028
-496.595	-200.000	-0.018	-0.185
-495.581	-200.000	0.006	0.058
-494.566	137.373	-0.098	-0.129
-493.551	-200.000	-0.017	0.224
-492.537	800.000	0.020	-0.086
-491.522	-100.648	0.066	0.016
-490.508	-109.644	-0.418	-0.089
-489.493	201.524	0.072	0.111
-488.478	-153.827	-0.319	-0.022
-487.464	47.828	-0.032	0.030
-486.449	-80.275	0.087	-0.029
-485.435	-53.598	-0.476	-0.219
-484.420	-200.000	-0.045	0.199
-483.405	25.251	-0.070	-0.059
-482.391	-111.516	0.294	0.060
-481.376	-70.696	-0.301	0.114
-480.362	89.409	0.170	0.191
-479.347	-200.000	-0.027	0.137
-478.332	-83.420	-0.335	-0.108
-477.318	-11.880	-0.003	-0.002
-476.303	-142.944	0.117	-0.011
-475.289	79.262	0.286	-0.309
-474.274	-200.000	0.000	0.189
-473.259	-18.298	-0.326	0.205
-472.245	2.549	0.198	-0.144
-471.230	92.733	-0.125	-0.142
-470.216	9.103	0.225	0.171
-469.201	-148.700	-0.036	0.003
-468.186	-20.612	-0.468	0.290
-467.172	-125.141	0.119	0.018
-466.157	265.705	-0.011	-0.020
-465.143	-5.027	-0.276	0.191
-464.128	134.792	0.188	-0.246
-463.113	-136.533	-0.290	0.034
-462.099	-14.879	0.257	-0.166
-461.084	800.000	-0.041	-0.126
-460.070	-130.017	-0.335	-0.046
-459.055	118.439	-0.084	0.104
-458.040	277.535	-0.067	-0.121
-457.026	415.689	0.058	0.125
-456.011	-158.904	0.308	0.018
-454.997	528.113	-0.049	-0.117
-453.982	55.485	0.085	-0.083
-452.968	-48.630	0.266	-0.129
-451.953	-112.615	-0.286	-0.057
-450.938	-200.000	0.013	-0.158
-449.924	7.947	0.163	0.123
-448.909	-200.000	0.006	-0.237
-447.895	88.109	0.140	-0.156
-446.880	102.797	0.148	0.174
-445.865	134.904	-0.120	-0.157
-444.851	507.990	0.049	-0.114
-443.836	295.754	0.032	0.059
-442.822	800.000	0.060	0.193
-441.807	2.570	-0.348	-0.254
-440.792	197.777	0.268	0.412
-439.778	-200.000	0.151	-0.000
-438.763	800.000	-0.027	-0.106
-437.749	-200.000	-0.041	-0.207
-436.734	53.856	-0.100	-0.097
-435.719	-168.935	-0.252	0.009
-434.705	154.886	0.232	-0.321
-433.690	-8.332	-0.060	0.040
-432.676	11.999	0.081	0.063
-431.661	571.623	-0.072	0.175
-430.646	389.011	-0.039	-0.082
-429.632	-82.208	0.158	0.052
-428.617	-87.255	-0.277	-0.084
-427.603	318.757	-0.163	0.311
-426.588	-200.000	0.014	0.313
-425.573	-200.000	-0.023	0.183
-424.559	-46.162	0.126	-0.062
-423.544	72.670	-0.172	-0.180
-422.530	-200.000	-0.016	-0.125
-421.515	113.415	0.091	-0.111
-420.500	800.000	-0.019	0.058
-419.486	-127.929	-0.147	0.021
-418.471	800.000	-0.022	0.096
-417.457	-80.340	0.131	-0.044
-416.442	-200.000	-0.022	0.379
-415.428	62.666	0.136	-0.137
-414.413	-103.077	-0.241	0.057
-413.398	-114.592	-0.265	0.051
-412.384	-59.931	0.151	0.065
-411.369	-200.000	-0.019	0.369
-410.355	256.921	-0.069	0.120
-409.340	92.461	0.064	-0.072
-408.325	800.000	-0.061	0.198
-407.311	709.476	-0.046	0.122
-406.296	-73.628	-0.130	0.047
-405.282	-51.125	-0.044	0.021
-404.267	-162.094	-0.343	0.017
-403.252	-37.094	-0.106	0.057
-402.238	-200.000	-0.006	-0.325
-401.223	-98.371	-0.375	-0.097
-400.209	-72.623	-0.213	0.079
-399.194	-75.326	-0.057	-0.020
-398.179	-1.088	0.145	0.103
-397.165	-71.793	-0.245	-0.092
-396.150	-115.600	-0.201	0.038
-395.136	-173.092	0.289	-0.009
-394.121	-32.737	0.183	0.102
-393.106	-71.274	-0.112	0.042
-392.092	129.632	0.163	0.209
-391.077	-51.165	0.111	0.052
-390.063	-95.988	0.138	0.037
-389.048	169.315	0.027	-0.039
-388.033	148.660	-0.180	-0.244
-387.019	-118.574	0.042	0.007
-386.004	-200.000	-0.003	-0.121
-384.990	800.000	0.049	-0.173
-383.975	-61.469	-0.256	-0.108
-382.960	800.000	0.031	-0.098
-381.946	45.262	0.183	0.169
-380.931	-135.787	-0.350	-0.041
-379.917	-161.819	-0.328	-0.017
-378.902	88.823	-0.140	-0.156
-377.888	205.762	0.086	-0.134
-376.873	681.503	0.058	-0.152
-375.858	-26.978	0.136	-0.079
-374.844	-35.463	-0.260	0.141
-373.829	-5.055	0.217	-0.150
-372.815	-33.422	-0.147	-0.082
-371.800	-80.416	0.207	0.069
-370.785	-112.906	-0.339	0.067
-369.771	33.318	-0.112	-0.098
-368.756	800.000	0.051	-0.189
-367.742	800.000	0.041	-0.167
-366.727	34.579	-0.150	-0.131
-365.712	-132.816	0.112	0.014
-364.698	3.370	0.142	0.104
-363.683	-38.255	0.051	0.027
-362.669	240.824	0.240	0.401
-361.654	800.000	-0.051	0.198
-360.639	-69.608	-0.230	-0.088
-359.625	-30.197	0.239	-0.136
-358.610	22.607	0.192	0.158
-357.596	-39.552	0.167	-0.088
-356.581	-130.739	-0.253	-0.034
-355.566	-41.991	0.297	-0.152
-354.552	5.211	-0.201	-0.148
-353.537	-100.910	-0.256	-0.063
-352.523	108.312	-0.112	-0.134
-351.508	-122.535	-0.193	-0.031
-350.493	502.258	0.071	0.165
-349.479	336.495	0.038	-0.074
-348.464	-200.000	-0.021	-0.169
-347.450	-200.000	-0.018	0.186
-346.435	-200.000	-0.001	0.245
-345.420	-79.259	0.138	-0.047
-344.406	-138.384	0.222	0.024
-343.391	-200.000	-0.005	-0.201
-342.377	185.019	-0.234	-0.347
-341.362	-59.434	-0.330	-0.142
-340.348	0.459	0.202	0.145
-339.333	-185.924	0.336	0.005
-338.318	-200.000	0.014	-0.286
-337.304	-162.660	-0.276	-0.014
-336.289	-76.479	-0.280	0.099
-335.275	-148.006	-0.263	-0.022
-334.260	-135.151	0.194	-0.023
-333.245	-98.259	0.293	0.075
-332.231	624.329	0.139	0.352
-331.216	-200.000	-0.033	-0.351
-330.202	-5.942	-0.279	-0.191
-329.187	100.065	-0.118	-0.137
-328.172	-102.440	0.140	0.034
-327.158	-200.000	0.034	0.242
-326.143	-71.464	0.067	0.025
-325.129	800.000	-0.052	0.187
-324.114	-141.209	-0.236	-0.024
-323.099	-15.891	-0.109	-0.069
-322.085	29.073	0.068	-0.058
-321.070	71.955	-0.166	0.173
-320.056	-200.000	0.048	-0.214
-319.041	-103.695	-0.077	0.018
-318.026	137.619	0.124	0.162
-317.012	85.931	-0.072	-0.079
-315.997	158.967	-0.219	-0.304
-314.983	-200.000	-0.027	0.285
-313.968	-96.661	-0.369	0.097
-312.953	230.515	-0.113	0.186
-311.939	-200.000	0.034	0.179
-310.924	-97.734	-0.280	0.072
-309.910	800.000	0.087	-0.284
-308.895	696.500	-0.118	-0.310
-307.880	187.120	0.008	-0.012
-306.866	-112.409	0.190	0.038
-305.851	800.000	-0.069	-0.282
-304.837	-200.000	-0.008	0.211
-303.822	16.719	-0.266	0.211
-302.807	-110.631	-0.305	0.063
-301.793	-124.494	-0.083	-0.013
-300.778	800.000	0.102	0.352
-299.764	150.432	-0.211	-0.287
-298.749	-200.000	0.052	0.306
-297.735	-34.977	-0.251	0.137
-296.720	-111.410	0.259	0.053
-295.705	-74.327	0.449	0.162
-294.691	143.324	-0.106	-0.141
-293.676	36.651	0.142	0.126
-292.662	72.780	0.234	0.244
-291.647	-21.356	0.108	0.066
-290.632	130.427	-0.262	0.335
-289.618	464.204	0.064	-0.143
-288.603	103.560	0.184	-0.216
-287.589	-200.000	0.029	-0.237
-286.574	-113.169	-0.171	0.034
-285.559	-200.000	0.032	-0.313
-284.545	800.000	0.054	0.194
-283.530	-65.832	0.110	-0.044
-282.516	-200.000	0.048	-0.371
-281.501	-75.891	0.112	0.040
-280.486	800.000	0.039	-0.167
-279.472	-200.000	-0.030	0.165
-278.457	66.988	-0.060	0.061
-277.443	-200.000	-0.057	0.460
-276.428	-1.303	0.247	0.175
-275.413	-200.000	0.009	-0.197
-274.399	46.704	0.093	-0.087
-273.384	435.035	0.224	-0.487
-272.370	15.378	-0.140	0.110
-271.355	124.674	0.323	0.406
-270.340	264.266	-0.201	-0.349
-269.326	357.778	-0.040	-0.080
-268.311	234.802	0.125	0.206
-267.297	-12.685	-0.043	-0.028
-266.282	184.596	0.095	-0.140
-265.267	-200.000	-0.003	0.063
-264.253	-200.000	-0.002	0.314
-263.238	171.360	0.168	0.241
-262.224	-200.000	0.013	-0.167
-261.209	-200.000	0.042	-0.219
-260.195	50.131	0.117	-0.111
-259.180	-200.000	0.008	-0.167
-258.165	800.000	0.037	0.134
-257.151	-23.541	0.372	-0.223
-256.136	49.166	-0.123	-0.115
-255.122	-74.526	0.226	-0.081
-254.107	162.614	0.202	-0.282
-253.092	800.000	0.075	0.207
-252.078	-52.403	-0.136	-0.063
-251.063	708.051	0.046	-0.122
-250.049	-73.410	-0.206	0.075
-249.034	3.692	-0.219	0.160
-248.019	-200.000	0.003	-0.095
-247.005	-19.327	-0.245	0.152
-245.990	53.186	-0.101	-0.096
-244.976	34.460	0.073	-0.063
-243.961	226.697	0.167	0.271
-242.946	800.000	-0.031	0.130
-241.932	351.683	0.149	-0.294
-240.917	-155.253	0.412	-0.027
-239.903	57.412	-0.087	-0.084
-238.888	54.205	-0.153	0.147
-237.873	166.941	-0.172	-0.243
-236.859	-4.457	0.267	-0.184
-235.844	242.763	-0.191	-0.320
-234.830	-200.000	0.006	0.416
-233.815	-157.575	-0.188	-0.011
-232.800	-159.678	-0.165	-0.009
-231.786	-172.487	0.346	0.011
-230.771	800.000	0.091	0.284
-229.757	-200.000	0.017	-0.087
-228.742	-100.324	-0.331	0.082
-227.727	78.776	0.217	-0.232
-226.713	-89.997	-0.158	-0.046
-225.698	-134.104	-0.368	-0.045
-224.684	-139.942	0.042	-0.004
-223.669	800.000	0.045	0.185
-222.655	-63.854	0.193	0.079
-221.640	-116.458	0.203	0.037
-220.625	800.000	-0.018	0.074
-219.611	621.191	-0.094	0.237
-218.596	-75.518	-0.244	-0.087
-217.582	-200.000	0.011	0.113
-216.567	23.938	-0.161	0.133
-215.552	137.235	-0.048	0.062
-214.538	797.987	0.131	0.361
-213.523	-200.000	0.036	0.189
-212.509	-146.414	-0.079	-0.007
-211.494	14.616	-0.080	0.062
-210.479	-110.510	-0.188	-0.039
-209.465	-175.826	-0.237	0.006
-208.450	635.645	0.043	-0.109
-207.436	472.044	0.031	-0.069
-206.421	91.688	0.197	-0.221
-205.406	9.915	0.148	-0.112
-204.392	499.409	-0.137	-0.315
-203.377	51.444	-0.322	-0.305
-202.363	127.377	0.147	0.186
-201.348	-147.557	-0.150	0.013
-200.333	180.747	0.254	-0.372
-199.319	-200.000	0.030	0.353
-198.304	-113.187	0.092	0.018
-197.290	-200.000	-0.017	-0.152
-196.275	102.887	0.053	-0.062
-195.260	103.954	-0.185	-0.216
-194.246	406.384	0.170	0.358
-193.231	-91.017	0.212	0.061
-192.217	102.939	-0.178	-0.207
-191.202	-93.366	0.356	-0.098
-190.187	48.466	0.132	-0.123
-189.173	285.957	0.248	0.445
-188.158	-200.000	-0.002	-0.047
-187.144	-62.197	-0.128	0.053
-186.129	-93.428	-0.116	0.032
-185.114	-121.095	0.300	0.050
-184.100	800.000	0.033	0.094
-183.085	-16.451	-0.139	-0.088
-182.071	-43.921	0.347	-0.174
-181.056	-200.000	-0.002	-0.286
-180.042	-200.000	0.009	0.332
-179.027	-200.000	-0.036	0.199
-178.012	-200.000	0.026	0.318
-176.998	107.222	0.199	-0.236
-175.983	-123.284	-0.157	-0.025
-174.969	199.539	-0.126	-0.193
-173.954	530.273	-0.164	0.387
-172.939	800.000	-0.053	0.220
-171.925	-134.343	-0.112	0.014
-170.910	-157.302	-0.149	-0.009
-169.896	-103.091	0.387	0.091
-168.881	-200.000	0.025	0.258
-167.866	800.000	-0.015	0.057
-166.852	53.732	0.167	0.159
-165.837	140.620	0.069	-0.090
-164.823	-60.474	0.395	-0.167
-163.808	-200.000	0.026	0.404
-162.793	-200.000	-0.069	0.361
-161.779	-152.506	0.094	-0.007
-160.764	-200.000	-0.032	-0.273
-159.750	-131.340	-0.067	-0.009
-158.735	19.504	0.162	0.130
-157.720	-163.827	0.189	-0.009
-156.706	-164.471	-0.330	0.015
-155.691	382.652	0.090	-0.184
-154.677	22.794	0.172	-0.140
-153.662	-35.501	0.467	0.252
-152.647	32.176	0.070	0.060
-151.633	-24.514	-0.282	0.167
-150.618	-89.417	-0.332	0.097
-149.604	-83.373	0.026	-0.008
-148.589	193.315	0.100	-0.150
-147.574	-25.848	-0.082	0.048
-146.560	292.551	0.075	-0.136
-145.545	-37.255	0.280	0.149
-144.531	800.000	-0.075	-0.230
-143.516	-200.000	0.042	0.319
-142.502	-200.000	-0.015	-0.325
-141.487	-200.000	-0.003	-0.062
-140.472	-45.744	-0.251	-0.123
-139.458	-105.509	0.282	0.064
-138.443	800.000	-0.063	-0.190
-137.429	-75.837	0.224	-0.079
-136.414	19.403	-0.146	-0.117
-135.399	-132.810	-0.110	0.014
-134.385	-79.943	0.278	-0.093
-133.370	-127.922	-0.137	0.020
-132.356	-200.000	0.003	-0.115
-131.341	-20.944	0.190	0.116
-130.326	-145.516	0.136	0.012
-129.312	-84.243	0.153	0.048
-128.297	97.180	-0.198	-0.225
-127.283	234.109	0.041	0.066
-126.268	-57.760	0.238	-0.103
-125.253	800.000	0.027	-0.094
-124.239	-96.642	0.059	0.016
-123.224	800.000	0.140	-0.462
-122.210	-200.000	0.008	-0.165
