DTS Sentinel unit serial number:	SN413079Multiplexer serial number:	ORYXHardware model number:	OX4-SRSoftware version number:	ORYX F/W v4.00 Oryx Data Collector v3.7.2.0data status	okinstallation	princeton_trtdifferential loss correction	single-endedforward channel	channel 1reverse channel	N/Adate	2019/09/12time	00:04:11forward acquisition time	60.00reverse acquisition time	0.00gamma	496.2192k internal	0.2318k external	0.2318temperature offset calibration	1.0074default loss term (dB/km)	0.3790temperature slope calibration	1.0000multiplexer offset coefficient	1.0000multiplexer slope coefficient	1.0000fibre end	0.00T internal ref (°C)	33.69T ext. ref 1 (°C)	2.01T ext. ref 2 (°C)	28.16length (m)	temperature (°C)	Stokes	anti-Stokes-747.200	-130.367	0.288	-0.040
-746.185	-46.697	-0.119	-0.059
-745.171	87.495	0.048	-0.054
-744.156	19.606	-0.314	-0.255
-743.142	71.348	-0.191	-0.200
-742.127	-170.709	0.130	-0.005
-741.112	11.377	0.237	-0.184
-740.098	571.854	-0.170	0.419
-739.083	464.825	-0.083	0.188
-738.069	-200.000	-0.029	0.230
-737.054	-62.523	-0.094	0.040
-736.039	1.379	-0.407	-0.296
-735.025	372.498	0.139	0.286
-734.010	29.096	-0.198	-0.170
-732.996	-71.587	-0.134	-0.051
-731.981	-132.563	-0.300	-0.039
-730.966	111.172	0.036	0.044
-729.952	800.000	-0.061	-0.194
-728.937	-0.606	-0.281	-0.202
-727.923	-200.000	-0.017	-0.101
-726.908	14.995	0.160	0.126
-725.894	171.374	-0.164	-0.238
-724.879	-14.843	-0.173	-0.112
-723.864	22.712	-0.239	0.198
-722.850	-200.000	-0.219	-0.000
-721.835	-127.924	-0.079	-0.012
-720.821	388.950	-0.026	0.054
-719.806	294.570	0.060	-0.111
-718.791	417.278	0.029	0.063
-717.777	21.369	-0.132	-0.108
-716.762	-200.000	0.005	-0.083
-715.748	54.165	0.205	0.200
-714.733	-27.262	0.516	0.304
-713.718	-200.000	-0.005	-0.223
-712.704	441.317	-0.226	0.501
-711.689	72.163	-0.189	-0.199
-710.675	800.000	0.094	0.340
-709.660	-182.156	-0.168	-0.003
-708.645	152.539	-0.277	-0.383
-707.631	-29.692	0.144	0.083
-706.616	44.446	-0.149	0.138
-705.602	58.487	-0.346	0.343
-704.587	-38.022	-0.324	0.174
-703.572	-118.007	-0.226	0.041
-702.558	-120.154	0.335	0.058
-701.543	-118.686	-0.257	-0.046
-700.529	-200.000	-0.007	-0.328
-699.514	298.480	-0.062	-0.115
-698.499	-168.267	-0.073	-0.003
-697.485	161.450	-0.052	-0.073
-696.470	-200.000	-0.008	-0.226
-695.456	541.177	-0.239	-0.576
-694.441	-20.433	-0.145	0.090
-693.426	-22.478	0.185	-0.113
-692.412	-42.859	0.239	-0.123
-691.397	-200.000	0.015	-0.223
-690.383	21.242	0.250	-0.205
-689.368	302.860	0.044	0.083
-688.354	-96.280	0.246	0.066
-687.339	-200.000	0.017	0.227
-686.324	241.666	-0.147	-0.248
-685.310	208.791	-0.075	-0.118
-684.295	22.454	0.058	0.048
-683.281	800.000	-0.051	0.212
-682.266	327.200	0.133	-0.257
-681.251	77.426	0.065	-0.069
-680.237	800.000	-0.074	-0.226
-679.222	629.806	0.128	-0.326
-678.208	403.236	0.042	0.089
-677.193	-108.724	0.093	-0.020
-676.178	155.203	0.211	-0.293
-675.164	80.412	-0.094	-0.102
-674.149	-54.508	0.062	-0.028
-673.135	257.359	-0.138	-0.239
-672.120	489.970	-0.055	-0.127
-671.105	-104.635	0.014	-0.003
-670.091	-147.462	0.400	0.034
-669.076	171.210	-0.135	0.195
-668.062	6.600	-0.238	-0.179
-667.047	69.710	-0.278	0.289
-666.032	183.185	0.073	0.109
-665.018	-21.484	-0.225	0.139
-664.003	800.000	0.106	-0.468
-662.989	49.547	0.079	-0.075
-661.974	-40.518	-0.281	-0.147
-660.959	68.762	0.181	-0.187
-659.945	-200.000	0.041	-0.210
-658.930	128.541	-0.036	0.047
-657.916	-15.832	0.243	0.156
-656.901	-112.905	0.339	0.068
-655.886	74.348	0.092	-0.097
-654.872	-127.400	-0.080	0.012
-653.857	32.955	0.113	-0.099
-652.843	0.249	-0.058	-0.042
-651.828	-87.060	-0.379	-0.116
-650.814	-126.774	-0.218	-0.032
-649.799	-189.955	-0.076	0.001
-648.784	-200.000	-0.043	0.228
-647.770	39.229	0.131	-0.118
-646.755	210.330	0.116	0.183
-645.741	-115.392	-0.256	-0.049
-644.726	-105.364	-0.083	-0.019
-643.711	-14.035	0.136	0.088
-642.697	599.532	0.036	-0.089
-641.682	-65.273	-0.138	0.056
-640.668	-162.203	-0.396	0.020
-639.653	95.865	-0.197	0.226
-638.638	800.000	-0.045	0.174
-637.624	96.843	-0.216	0.249
-636.609	800.000	-0.033	-0.102
-635.595	70.673	-0.201	0.210
-634.580	-200.000	0.033	-0.162
-633.565	-200.000	0.027	-0.231
-632.551	-188.691	-0.162	0.002
-631.536	-180.356	0.348	-0.007
-630.522	329.843	0.175	-0.339
-629.507	-82.898	0.574	0.187
-628.492	-148.338	0.046	0.004
-627.478	-83.161	0.158	-0.051
-626.463	177.855	-0.051	0.075
-625.449	-200.000	0.021	-0.157
-624.434	257.360	0.077	0.133
-623.419	-200.000	0.008	-0.229
-622.405	800.000	-0.042	-0.175
-621.390	48.616	-0.551	-0.521
-620.376	-107.501	-0.505	0.111
-619.361	-200.000	-0.004	-0.063
-618.346	-200.000	-0.006	0.145
-617.332	-127.927	0.156	-0.023
-616.317	-24.047	-0.292	0.176
-615.303	204.297	0.121	-0.188
-614.288	-32.437	0.299	0.168
-613.273	221.801	-0.219	-0.354
-612.259	-56.603	0.359	-0.160
-611.244	-71.572	0.185	-0.070
-610.230	-200.000	-0.049	-0.224
-609.215	214.011	-0.142	0.226
-608.201	85.424	0.072	0.080
-607.186	709.923	-0.084	-0.225
-606.171	-35.631	-0.179	-0.098
-605.157	438.072	0.073	-0.161
-604.142	339.263	-0.100	0.197
-603.128	800.000	-0.069	-0.231
-602.113	-200.000	-0.009	0.112
-601.098	-32.548	0.145	0.081
-600.084	59.195	0.076	0.075
-599.069	79.163	0.157	-0.170
-598.055	9.918	0.328	0.251
-597.040	800.000	-0.034	0.105
-596.025	39.918	-0.155	-0.140
-595.011	147.910	-0.031	0.042
-593.996	-83.898	-0.169	-0.054
-592.982	87.388	-0.121	-0.135
-591.967	800.000	0.027	-0.095
-590.952	321.284	-0.056	0.106
-589.938	-200.000	-0.006	-0.333
-588.923	33.667	-0.219	-0.191
-587.909	-92.729	0.264	-0.074
-586.894	-82.278	-0.143	-0.047
-585.879	-74.039	0.040	0.015
-584.865	76.826	0.168	0.179
-583.850	696.563	-0.061	-0.162
-582.836	-200.000	0.009	-0.054
-581.821	-156.923	-0.124	-0.008
-580.806	11.183	0.040	-0.031
-579.792	142.452	0.065	-0.087
-578.777	-66.551	0.220	-0.088
-577.763	-8.263	0.059	0.040
-576.748	407.938	-0.056	0.119
-575.733	800.000	0.102	-0.291
-574.719	122.637	0.006	-0.008
-573.704	800.000	0.080	0.248
-572.690	160.974	0.172	0.242
-571.675	119.291	-0.018	-0.022
-570.661	748.859	-0.132	-0.359
-569.646	-47.869	-0.110	0.054
-568.631	-38.539	0.164	0.087
-567.617	211.615	0.266	-0.421
-566.602	41.597	0.061	0.055
-565.588	-121.620	0.143	-0.024
-564.573	170.421	0.096	0.139
-563.558	487.247	-0.035	-0.081
-562.544	-19.135	0.329	0.205
-561.529	-57.969	0.149	0.066
-560.515	-52.917	0.139	0.064
-559.500	346.476	-0.140	0.277
-558.485	-118.822	0.436	-0.077
-557.471	98.520	-0.146	-0.169
-556.456	228.656	0.058	-0.095
-555.442	30.702	-0.056	0.049
-554.427	-64.114	-0.236	-0.097
-553.412	-79.659	-0.189	-0.064
-552.398	782.219	-0.050	0.138
-551.383	-200.000	0.036	0.206
-550.369	14.172	0.188	-0.147
-549.354	517.025	-0.026	-0.061
-548.339	-200.000	-0.043	-0.284
-547.325	-18.291	0.231	0.145
-546.310	201.437	-0.168	-0.259
-545.296	-200.000	-0.058	-0.301
-544.281	201.170	0.197	0.305
-543.266	800.000	-0.106	0.311
-542.252	-140.826	0.087	0.009
-541.237	-112.564	-0.414	-0.083
-540.223	-107.473	-0.026	-0.006
-539.208	41.605	0.224	-0.204
-538.193	-133.497	-0.080	-0.010
-537.179	107.797	0.069	0.082
-536.164	-75.140	-0.243	0.087
-535.150	-18.993	0.105	0.066
-534.135	800.000	0.057	0.212
-533.121	444.553	0.070	0.153
-532.106	35.499	-0.248	-0.219
-531.091	353.779	-0.022	-0.045
-530.077	395.908	-0.092	0.192
-529.062	-200.000	0.025	-0.277
-528.048	-200.000	0.010	-0.451
-527.033	-200.000	-0.042	-0.359
-526.018	-94.140	-0.177	-0.049
-525.004	-111.454	-0.127	-0.026
-523.989	-69.180	-0.230	0.089
-522.975	311.473	0.075	-0.141
-521.960	100.071	-0.112	-0.130
-520.945	42.295	-0.246	-0.225
-519.931	-71.842	-0.248	-0.093
-518.916	-142.229	0.361	0.036
-517.902	-200.000	-0.009	0.123
-516.887	-77.043	0.199	-0.070
-515.872	92.437	-0.108	-0.122
-514.858	552.987	-0.046	-0.110
-513.843	-102.843	-0.251	0.060
-512.829	-100.421	0.418	0.104
-511.814	-60.273	0.409	-0.175
-510.799	-113.657	0.137	0.027
-509.785	-200.000	0.022	0.243
-508.770	419.420	0.097	0.209
-507.756	337.955	-0.109	-0.213
-506.741	800.000	0.032	-0.129
-505.726	27.263	-0.069	-0.058
-504.712	-72.311	-0.084	-0.031
-503.697	800.000	-0.073	-0.244
-502.683	514.635	0.102	-0.239
-501.668	-126.713	0.266	0.039
-500.653	-116.061	0.537	0.100
-499.639	110.212	-0.032	-0.038
-498.624	-79.001	0.334	0.114
-497.610	-200.000	-0.001	0.338
-496.595	437.934	-0.250	-0.547
-495.581	-81.741	0.011	0.004
-494.566	-62.328	-0.177	0.074
-493.551	-200.000	0.055	0.241
-492.537	-200.000	-0.001	-0.204
-491.522	-200.000	0.004	-0.034
-490.508	-104.415	0.081	-0.019
-489.493	0.982	-0.052	-0.037
-488.478	-200.000	0.012	-0.480
-487.464	-0.535	-0.076	0.054
-486.449	-200.000	0.024	0.256
-485.435	-54.683	-0.333	-0.151
-484.420	131.590	-0.074	0.095
-483.405	-137.909	-0.167	0.019
-482.391	-5.957	0.030	0.020
-481.376	800.000	0.084	0.362
-480.362	-19.987	0.355	0.220
-479.347	-200.000	0.017	0.093
-478.332	-105.962	0.172	0.039
-477.318	186.472	0.094	0.140
-476.303	195.178	0.188	0.285
-475.289	-168.965	0.282	-0.011
-474.274	53.998	-0.209	0.201
-473.259	-200.000	0.023	0.166
-472.245	-20.670	-0.091	-0.056
-471.230	-200.000	-0.025	-0.172
-470.216	148.317	-0.149	0.202
-469.201	650.118	0.076	0.195
-468.186	-143.527	0.365	-0.035
-467.172	11.741	0.215	-0.165
-466.157	-100.970	-0.172	0.042
-465.143	-200.000	0.012	-0.098
-464.128	-181.340	-0.184	-0.004
-463.113	-200.000	-0.045	0.374
-462.099	-200.000	0.009	-0.139
-461.084	122.802	-0.242	-0.303
-460.070	-200.000	0.041	0.272
-459.055	-17.166	0.026	0.016
-458.040	641.326	0.130	0.333
-457.026	163.159	-0.045	-0.063
-456.011	-200.000	-0.008	-0.165
-454.997	75.946	-0.195	-0.206
-453.982	65.076	0.070	-0.071
-452.968	540.581	-0.106	0.252
-451.953	-184.635	-0.263	0.004
-450.938	-200.000	0.011	0.229
-449.924	-168.450	0.362	-0.014
-448.909	800.000	-0.071	0.201
-447.895	-200.000	0.007	0.408
-446.880	-200.000	0.005	0.198
-445.865	-66.877	-0.122	0.048
-444.851	-200.000	0.024	-0.116
-443.836	-55.888	0.228	0.102
-442.822	800.000	-0.033	-0.118
-441.807	94.494	-0.187	0.212
-440.792	800.000	-0.071	-0.243
-439.778	101.933	-0.133	0.155
-438.763	223.491	-0.030	-0.049
-437.749	-92.547	0.042	0.012
-436.734	-200.000	-0.047	0.388
-435.719	-200.000	0.030	-0.187
-434.705	-158.205	0.219	-0.013
-433.690	76.312	0.134	-0.142
-432.676	103.518	-0.036	-0.042
-431.661	-81.638	-0.208	0.068
-430.646	-4.851	0.247	-0.170
-429.632	-200.000	0.016	0.081
-428.617	-200.000	0.015	0.212
-427.603	97.952	0.115	0.132
-426.588	49.133	0.180	0.169
-425.573	800.000	0.063	-0.189
-424.559	-103.482	0.071	-0.017
-423.544	-87.034	-0.332	-0.101
-422.530	-149.939	-0.055	0.004
-421.515	233.189	-0.048	-0.079
-420.500	245.930	-0.054	-0.091
-419.486	62.622	-0.170	0.170
-418.471	-62.479	0.419	0.174
-417.457	-41.963	-0.327	-0.167
-416.442	208.599	0.043	-0.067
-415.428	-33.377	-0.178	-0.098
-414.413	-200.000	0.046	0.251
-413.398	-51.414	-0.180	0.084
-412.384	1.321	-0.153	0.110
-411.369	484.040	0.182	-0.413
-410.355	-200.000	0.026	0.190
-409.340	353.553	0.166	-0.328
-408.325	464.038	-0.080	-0.178
-407.311	800.000	0.112	-0.324
-406.296	28.498	-0.105	0.089
-405.282	155.833	-0.227	-0.312
-404.267	800.000	0.082	0.259
-403.252	97.243	-0.103	-0.118
-402.238	434.078	-0.087	-0.188
-401.223	87.214	0.154	-0.170
-400.209	188.038	0.042	-0.062
-399.194	498.200	-0.050	-0.114
-398.179	104.374	0.276	0.324
-397.165	131.394	-0.119	-0.153
-396.150	180.686	0.310	-0.455
-395.136	481.249	0.138	0.314
-394.121	-200.000	-0.007	0.063
-393.106	-114.985	0.047	-0.009
-392.092	203.604	0.120	-0.186
-391.077	-200.000	0.010	0.109
-390.063	800.000	-0.032	-0.103
-389.048	800.000	-0.043	0.139
-388.033	-4.390	-0.276	0.190
-387.019	-200.000	-0.082	-0.398
-386.004	-200.000	0.053	0.255
-384.990	219.875	0.151	-0.242
-383.975	-200.000	0.001	-0.191
-382.960	88.632	-0.013	-0.015
-381.946	294.051	-0.054	0.099
-380.931	-200.000	0.018	0.150
-379.917	524.293	-0.159	0.374
-378.902	-169.208	-0.211	-0.008
-377.888	212.009	-0.193	-0.304
-376.873	-200.000	0.022	0.353
-375.858	-32.314	0.197	0.110
-374.844	-200.000	-0.029	0.143
-373.829	-54.444	0.313	0.141
-372.815	-129.684	0.112	-0.015
-371.800	-200.000	-0.449	0.001
-370.785	55.946	0.114	-0.110
-369.771	128.645	0.096	0.122
-368.756	201.099	0.060	0.093
-367.742	554.271	0.144	0.346
-366.727	-177.143	-0.129	0.003
-365.712	-31.649	0.323	0.181
-364.698	296.096	0.077	0.141
-363.683	-90.950	-0.155	0.044
-362.669	7.927	-0.095	0.071
-361.654	60.946	-0.090	-0.089
-360.639	-157.683	-0.089	-0.005
-359.625	38.265	-0.128	0.114
-358.610	-128.899	-0.111	-0.016
-357.596	259.592	0.293	-0.503
-356.581	-111.356	0.203	-0.041
-355.566	800.000	0.047	0.138
-354.552	-131.758	-0.189	0.025
-353.537	-97.075	-0.191	0.050
-352.523	-0.559	-0.208	0.147
-351.508	-152.556	-0.260	0.019
-350.493	-85.154	0.332	0.104
-349.479	-38.754	0.087	0.046
-348.464	573.948	-0.080	-0.195
-347.450	-156.467	0.313	0.019
-346.435	13.307	0.032	-0.025
-345.420	50.899	0.151	0.142
-344.406	24.499	0.463	0.382
-343.391	-200.000	-0.013	-0.108
-342.377	-76.950	-0.319	0.111
-341.362	-29.502	-0.171	-0.097
-340.348	-75.540	0.403	0.143
-339.333	150.784	-0.173	0.235
-338.318	-29.634	-0.093	0.053
-337.304	477.122	0.188	0.422
-336.289	-48.639	0.116	0.055
-335.275	-88.806	0.248	0.073
-334.260	-56.464	0.218	0.096
-333.245	158.942	0.227	-0.314
-332.231	50.530	0.133	0.125
-331.216	39.691	0.129	0.115
-330.202	-70.481	0.248	0.094
-329.187	-115.865	0.321	0.060
-328.172	-44.871	0.064	0.032
-327.158	22.014	-0.105	0.085
-326.143	800.000	0.051	0.171
-325.129	389.276	-0.079	0.164
-324.114	107.000	0.152	0.179
-323.099	-200.000	0.064	0.285
-322.085	-200.000	0.008	-0.050
-321.070	36.324	-0.253	-0.222
-320.056	550.038	-0.066	-0.158
-319.041	-200.000	-0.035	0.175
-318.026	-200.000	0.003	0.058
-317.012	8.186	0.105	-0.078
-315.997	-75.368	-0.092	0.033
-314.983	-200.000	-0.029	-0.258
-313.968	11.563	0.280	0.213
-312.953	-70.958	-0.078	-0.029
-311.939	-15.072	0.238	0.151
-310.924	180.692	0.283	0.413
-309.910	66.814	-0.077	-0.078
-308.895	389.495	-0.025	0.052
-307.880	371.395	0.056	0.112
-306.866	-200.000	-0.032	-0.187
-305.851	-136.956	-0.130	0.015
-304.837	62.188	-0.257	0.255
-303.822	236.552	0.179	-0.296
-302.807	-200.000	-0.009	-0.081
-301.793	-200.000	-0.016	-0.105
-300.778	-200.000	-0.068	-0.313
-299.764	2.966	-0.045	-0.033
-298.749	393.173	-0.132	-0.273
-297.735	541.729	0.185	-0.439
-296.720	800.000	0.058	0.239
-295.705	-115.997	-0.141	-0.026
-294.691	-122.632	-0.220	-0.036
-293.676	374.019	0.062	-0.125
-292.662	17.347	-0.260	0.205
-291.647	-16.042	-0.230	0.145
-290.632	707.066	0.107	0.280
-289.618	-169.895	0.260	-0.009
-288.603	69.321	-0.094	-0.096
-287.589	136.743	-0.156	0.202
-286.574	121.727	0.024	0.030
-285.559	194.906	-0.131	-0.198
-284.545	3.718	0.178	0.129
-283.530	-90.820	0.132	-0.038
-282.516	-200.000	-0.009	0.046
-281.501	310.142	-0.031	-0.057
-280.486	311.428	0.120	0.223
-279.472	171.032	-0.075	0.107
-278.457	-21.976	-0.100	-0.060
-277.443	-200.000	0.054	-0.296
-276.428	195.238	0.145	-0.219
-275.413	494.036	-0.085	0.193
-274.399	800.000	0.033	0.132
-273.384	42.147	-0.358	0.323
-272.370	-84.042	-0.390	-0.123
-271.355	-187.495	-0.140	0.002
-270.340	675.372	0.054	-0.138
-269.326	52.959	0.179	-0.171
-268.311	45.186	-0.156	-0.143
-267.297	-63.470	-0.074	-0.030
-266.282	-46.536	0.233	-0.113
-265.267	349.258	0.015	0.029
-264.253	250.363	-0.033	-0.055
-263.238	-32.459	-0.270	0.149
-262.224	67.890	0.216	-0.220
-261.209	80.003	-0.059	0.063
-260.195	-200.000	-0.006	-0.336
-259.180	-51.153	-0.215	-0.100
-258.165	-193.219	-0.173	-0.002
-257.151	800.000	-0.042	0.132
-256.136	800.000	0.075	-0.221
-255.122	-114.240	0.214	0.041
-254.107	-71.707	-0.095	-0.035
-253.092	108.125	-0.133	-0.158
-252.078	-84.156	-0.049	0.016
-251.063	-160.099	0.087	0.005
-250.049	-200.000	0.067	-0.293
-249.034	-200.000	-0.040	-0.216
-248.019	-150.114	-0.257	-0.020
-247.005	-73.831	-0.225	-0.081
-245.990	107.772	-0.081	-0.096
-244.976	-200.000	0.009	-0.222
-243.961	348.784	0.113	0.222
-242.946	-145.296	-0.244	0.022
-241.932	-200.000	0.000	0.261
-240.917	-12.319	-0.335	0.217
-239.903	134.513	0.091	-0.117
-238.888	-125.171	0.231	-0.035
-237.873	-99.496	0.040	-0.010
-236.859	27.361	0.409	-0.341
-235.844	-200.000	0.001	0.071
-234.830	306.362	-0.172	-0.318
-233.815	303.388	0.126	0.231
-232.800	-200.000	-0.011	0.059
-231.786	-30.807	-0.226	-0.127
-230.771	-120.211	0.138	-0.023
-229.757	158.651	0.044	0.060
-228.742	-39.442	-0.298	-0.155
-227.727	800.000	0.060	-0.247
-226.713	-184.045	0.291	-0.005
-225.698	140.829	0.082	-0.108
-224.684	108.352	-0.214	-0.254
-223.669	-35.022	0.161	0.087
-222.655	-104.179	-0.199	-0.046
-221.640	-200.000	0.082	0.443
-220.625	188.520	-0.190	0.282
-219.611	108.156	-0.125	-0.148
-218.596	390.528	0.096	-0.198
-217.582	-52.594	-0.210	0.096
-216.567	-200.000	-0.036	0.317
-215.552	103.085	0.258	0.299
-214.538	0.943	0.169	0.120
-213.523	195.391	0.077	-0.115
-212.509	-53.615	0.309	-0.140
-211.494	91.506	-0.240	0.267
-210.479	-200.000	-0.061	0.368
-209.465	174.263	0.123	0.176
-208.450	278.494	-0.263	0.465
-207.436	304.251	0.051	0.093
-206.421	-127.297	-0.456	-0.066
-205.406	92.365	0.100	-0.112
-204.392	-200.000	0.035	0.195
-203.377	52.916	0.006	-0.006
-202.363	-50.748	-0.233	-0.109
-201.348	-69.387	-0.327	-0.125
-200.333	498.530	0.034	-0.078
-199.319	-200.000	-0.044	-0.220
-198.304	800.000	-0.072	-0.229
-197.290	149.610	-0.206	-0.277
-196.275	800.000	-0.037	0.149
-195.260	-52.548	-0.218	-0.100
-194.246	277.506	-0.187	-0.329
-193.231	-41.887	0.184	0.094
-192.217	-200.000	-0.029	-0.172
-191.202	231.823	-0.099	-0.161
-190.187	800.000	0.114	0.378
-189.173	93.407	-0.268	0.301
-188.158	-136.657	0.154	-0.018
-187.144	-68.536	0.237	0.091
-186.129	800.000	-0.090	0.294
-185.114	800.000	0.024	0.071
-184.100	235.456	0.150	-0.246
-183.085	732.808	-0.053	-0.140
-182.071	422.244	0.148	0.315
-181.056	800.000	0.149	-0.411
-180.042	743.249	-0.073	0.195
-179.027	-72.753	-0.384	-0.140
-178.012	-200.000	-0.006	-0.098
-176.998	275.703	-0.127	0.223
-175.983	517.023	-0.097	0.225
-174.969	800.000	0.054	-0.176
-173.954	-101.155	-0.343	-0.083
-172.939	-156.033	0.230	-0.014
-171.925	-31.589	0.090	-0.050
-170.910	-33.759	0.184	-0.100
-169.896	-73.043	0.091	-0.033
-168.881	-200.000	0.045	-0.248
-167.866	-68.329	-0.204	-0.078
-166.852	-161.030	-0.248	0.013
-165.837	-200.000	0.003	0.415
-164.823	-13.180	0.112	-0.072
-163.808	199.944	0.398	0.604
-162.793	-146.469	-0.201	0.017
-161.779	19.821	-0.206	-0.165
-160.764	800.000	-0.039	-0.143
-159.750	-183.448	0.065	0.001
-158.735	93.916	-0.220	0.247
-157.720	-35.012	0.131	0.071
-156.706	305.113	0.127	0.233
-155.691	204.086	0.146	0.224
-154.677	-200.000	-0.028	-0.438
-153.662	-200.000	0.029	-0.292
-152.647	-137.205	0.239	-0.027
-151.633	-25.559	-0.391	-0.228
-150.618	234.025	0.180	0.293
-149.604	253.404	0.019	-0.031
-148.589	-200.000	-0.009	0.310
-147.574	175.798	-0.122	0.174
-146.560	-54.562	0.298	-0.134
-145.545	121.007	-0.108	-0.133
-144.531	-200.000	0.018	-0.114
-143.516	169.540	0.235	-0.332
-142.502	-72.688	-0.100	-0.037
-141.487	74.468	0.119	0.123
-140.472	274.243	-0.047	0.082
-139.458	-119.191	0.114	0.020
-138.443	-156.507	-0.114	-0.007
-137.429	-200.000	-0.002	-0.143
-136.414	286.209	0.115	-0.205
-135.399	-96.177	-0.333	0.087
-134.385	-22.504	-0.326	-0.195
-133.370	29.060	-0.175	-0.147
-132.356	-98.025	-0.076	0.019
-131.341	367.555	-0.138	0.276
-130.326	-200.000	0.049	-0.268
-129.312	95.068	0.199	0.224
-128.297	-78.187	0.261	-0.089
-127.283	12.067	0.046	0.035
-126.268	-186.170	0.312	-0.004
-125.253	312.906	-0.085	-0.157
-124.239	-200.000	-0.039	-0.206
-123.224	-59.338	-0.227	-0.096
-122.210	-65.455	0.200	0.079
