DTS Sentinel unit serial number:	SN413079Multiplexer serial number:	ORYXHardware model number:	OX4-SRSoftware version number:	ORYX F/W v4.00 Oryx Data Collector v3.7.2.0data status	okinstallation	princeton_trtdifferential loss correction	single-endedforward channel	channel 1reverse channel	N/Adate	2019/09/18time	21:30:35forward acquisition time	60.00reverse acquisition time	0.00gamma	496.2192k internal	0.2340k external	0.2340temperature offset calibration	1.0016default loss term (dB/km)	0.3790temperature slope calibration	1.0000multiplexer offset coefficient	1.0000multiplexer slope coefficient	1.0000fibre end	0.00T internal ref (°C)	25.25T ext. ref 1 (°C)	0.82T ext. ref 2 (°C)	18.31length (m)	temperature (°C)	Stokes	anti-Stokes-747.200	2.537	0.085	-0.062
-746.185	-68.043	-0.238	-0.093
-745.171	-62.148	0.201	-0.084
-744.156	389.478	-0.087	0.180
-743.142	-101.221	-0.073	-0.018
-742.127	48.763	0.058	0.055
-741.112	339.092	-0.129	-0.251
-740.098	333.077	0.108	0.210
-739.083	-200.000	-0.004	-0.028
-738.069	147.419	0.126	0.169
-737.054	-32.109	0.112	0.063
-736.039	-58.423	0.112	-0.049
-735.025	-53.819	0.164	0.075
-734.010	-200.000	-0.297	0.000
-732.996	242.735	-0.070	-0.118
-731.981	-67.029	-0.311	0.123
-730.966	800.000	-0.083	0.248
-729.952	-200.000	-0.024	-0.217
-728.937	-46.486	0.170	-0.084
-727.923	160.617	-0.146	0.205
-726.908	317.621	-0.047	0.089
-725.894	18.172	0.111	-0.088
-724.879	446.245	-0.109	-0.240
-723.864	-146.592	0.358	-0.031
-722.850	-153.168	-0.389	0.027
-721.835	1.515	-0.196	0.142
-720.821	138.799	-0.173	0.228
-719.806	-200.000	0.051	0.333
-718.791	-200.000	-0.033	-0.202
-717.777	-200.000	-0.008	-0.198
-716.762	-90.862	0.057	-0.017
-715.748	-57.655	-0.169	0.074
-714.733	-200.000	-0.037	0.252
-713.718	-165.399	-0.183	-0.008
-712.704	35.832	0.151	-0.133
-711.689	103.610	-0.214	0.251
-710.675	-200.000	0.046	-0.293
-709.660	-200.000	-0.023	-0.170
-708.645	146.231	0.100	0.135
-707.631	131.052	-0.175	-0.225
-706.616	-200.000	-0.048	-0.263
-705.602	83.665	0.147	-0.160
-704.587	97.825	-0.044	-0.051
-703.572	-99.223	0.146	-0.037
-702.558	-200.000	0.025	-0.199
-701.543	-200.000	-0.053	-0.319
-700.529	-30.576	0.212	-0.120
-699.514	26.680	-0.078	-0.066
-698.499	-158.718	0.398	0.023
-697.485	-66.312	-0.187	0.074
-696.470	45.046	0.216	0.199
-695.456	13.587	0.207	-0.161
-694.441	800.000	0.061	0.242
-693.426	18.288	0.043	0.034
-692.412	28.909	-0.192	0.163
-691.397	9.417	0.182	0.138
-690.383	472.908	0.149	-0.335
-689.368	-200.000	0.006	-0.397
-688.354	-168.154	0.138	-0.005
-687.339	-72.802	-0.100	-0.037
-686.324	507.200	0.159	-0.369
-685.310	-200.000	-0.049	0.232
-684.295	105.544	0.082	0.097
-683.281	198.748	-0.341	0.522
-682.266	79.482	-0.264	0.283
-681.251	245.385	0.121	-0.204
-680.237	25.655	-0.137	-0.114
-679.222	-21.187	0.206	0.126
-678.208	-122.280	0.259	0.042
-677.193	33.298	0.167	0.145
-676.178	19.111	-0.191	-0.153
-675.164	18.957	0.122	0.098
-674.149	-111.415	-0.074	-0.015
-673.135	-123.181	-0.196	-0.031
-672.120	-191.017	0.154	0.002
-671.105	-200.000	-0.008	0.436
-670.091	179.611	0.276	0.404
-669.076	98.417	-0.257	-0.296
-668.062	-200.000	0.001	-0.022
-667.047	319.732	-0.198	-0.375
-666.032	710.817	-0.044	-0.116
-665.018	43.762	0.156	0.143
-664.003	568.106	-0.177	-0.428
-662.989	-27.370	-0.242	0.141
-661.974	138.469	0.146	0.191
-660.959	-150.818	0.174	0.013
-659.945	-10.204	0.021	0.014
-658.930	18.528	-0.115	0.092
-657.916	-11.560	0.077	0.051
-656.901	-112.850	0.163	-0.032
-655.886	318.420	0.024	-0.046
-654.872	-33.359	0.469	0.259
-653.857	544.060	-0.086	0.206
-652.843	57.953	-0.171	-0.167
-651.828	-4.106	0.204	-0.141
-650.814	48.637	-0.036	-0.034
-649.799	0.256	0.175	0.125
-648.784	-200.000	0.055	-0.315
-647.770	-195.244	-0.135	0.001
-646.755	-54.215	-0.174	-0.079
-645.741	49.165	0.076	-0.071
-644.726	-85.563	-0.369	0.115
-643.711	306.009	-0.046	-0.085
-642.697	-149.485	0.126	-0.010
-641.682	10.715	-0.182	-0.138
-640.668	59.849	0.162	0.159
-639.653	24.565	-0.116	-0.096
-638.638	-200.000	-0.009	0.106
-637.624	-111.161	0.233	0.048
-636.609	-136.548	-0.135	-0.016
-635.595	-200.000	0.001	-0.051
-634.580	-1.829	0.179	-0.126
-633.565	175.715	-0.221	-0.320
-632.551	-122.944	-0.169	-0.027
-631.536	-166.659	0.233	0.010
-630.522	114.811	0.243	0.296
-629.507	-86.283	-0.047	-0.015
-628.492	-68.782	-0.446	0.172
-627.478	59.720	0.061	-0.060
-626.463	-160.701	0.067	-0.004
-625.449	-108.878	0.039	-0.008
-624.434	800.000	-0.109	-0.371
-623.419	192.741	0.121	0.183
-622.405	331.474	0.010	0.019
-621.390	-127.976	0.067	0.010
-620.376	-178.704	0.182	0.004
-619.361	-49.591	0.183	0.087
-618.346	651.929	-0.081	-0.207
-617.332	-145.843	-0.087	0.008
-616.317	24.083	-0.159	0.131
-615.303	-119.409	0.350	0.061
-614.288	4.714	-0.153	0.112
-613.273	-137.063	-0.091	0.010
-612.259	-102.169	0.163	0.039
-611.244	-95.151	0.204	-0.055
-610.230	318.661	-0.017	-0.033
-609.215	69.231	-0.219	-0.224
-608.201	245.156	-0.105	-0.176
-607.186	-184.468	-0.249	-0.004
-606.171	-164.603	0.276	0.012
-605.157	124.331	-0.021	-0.027
-604.142	-61.116	0.235	-0.099
-603.128	13.351	-0.162	0.125
-602.113	16.594	0.289	-0.228
-601.098	-200.000	-0.059	-0.321
-600.084	286.847	0.121	-0.217
-599.069	-86.806	-0.331	0.101
-598.055	19.519	0.126	0.101
-597.040	128.144	-0.163	0.207
-596.025	-37.390	-0.015	0.008
-595.011	-200.000	0.009	-0.285
-593.996	22.632	-0.123	0.100
-592.982	385.069	-0.130	0.267
-591.967	-200.000	-0.020	0.128
-590.952	137.707	-0.078	0.101
-589.938	-112.010	0.209	-0.042
-588.923	-200.000	-0.018	-0.159
-587.909	800.000	-0.047	-0.193
-586.894	-4.248	-0.133	-0.092
-585.879	800.000	-0.090	0.289
-584.865	-200.000	-0.004	0.229
-583.850	-200.000	-0.003	-0.204
-582.836	-200.000	0.007	0.084
-581.821	235.703	0.070	0.116
-580.806	800.000	0.084	0.331
-579.792	-75.329	-0.372	0.132
-578.777	40.020	-0.106	-0.095
-577.763	346.848	0.235	-0.460
-576.748	800.000	-0.134	0.482
-575.733	-6.923	-0.337	-0.228
-574.719	-174.863	0.243	0.007
-573.704	800.000	-0.040	-0.115
-572.690	-71.913	-0.173	-0.064
-571.675	-200.000	0.018	0.164
-570.661	-60.235	0.066	0.028
-569.646	-138.915	-0.192	-0.021
-568.631	800.000	0.029	0.091
-567.617	93.556	-0.011	-0.012
-566.602	115.709	-0.202	0.245
-565.588	800.000	0.050	0.188
-564.573	52.537	0.440	0.418
-563.558	206.222	-0.096	0.149
-562.544	261.593	-0.071	0.123
-561.529	-111.269	-0.233	0.047
-560.515	-42.632	-0.180	0.091
-559.500	-92.511	0.195	-0.055
-558.485	64.872	0.173	0.174
-557.471	-41.434	-0.106	-0.054
-556.456	-200.000	0.003	0.253
-555.442	-60.604	0.206	0.087
-554.427	-124.418	0.125	-0.019
-553.412	-87.263	0.145	-0.044
-552.398	800.000	-0.053	-0.209
-551.383	-154.968	0.352	0.023
-550.369	-200.000	-0.020	-0.158
-549.354	74.127	0.253	0.264
-548.339	411.698	-0.046	0.097
-547.325	8.019	-0.095	-0.071
-546.310	231.087	-0.008	0.013
-545.296	-180.483	0.433	-0.009
-544.281	-200.000	0.015	0.165
-543.266	800.000	0.061	-0.189
-542.252	-200.000	-0.064	-0.303
-541.237	-42.989	-0.236	0.119
-540.223	-200.000	-0.052	-0.230
-539.208	-40.193	0.090	0.047
-538.193	-14.989	-0.273	0.174
-537.179	-24.457	0.237	-0.141
-536.164	-200.000	-0.035	-0.160
-535.150	-62.988	-0.120	0.049
-534.135	295.922	0.124	0.226
-533.121	209.598	0.039	-0.060
-532.106	89.586	-0.248	0.275
-531.091	-131.253	-0.199	-0.026
-530.077	-199.522	0.341	0.002
-529.062	77.390	-0.100	0.105
-528.048	-96.306	-0.048	-0.013
-527.033	26.304	0.198	-0.165
-526.018	800.000	-0.096	0.357
-525.004	-14.271	0.246	-0.158
-523.989	6.577	0.149	-0.110
-522.975	-200.000	0.010	-0.142
-521.960	15.110	0.025	-0.019
-520.945	-200.000	-0.083	0.497
-519.931	-35.564	0.427	-0.230
-518.916	135.608	0.075	-0.097
-517.902	800.000	-0.052	0.223
-516.887	280.503	0.214	-0.380
-515.872	262.922	0.153	0.265
-514.858	-113.990	-0.313	0.060
-513.843	627.430	-0.092	0.230
-512.829	386.670	0.043	0.088
-511.814	-200.000	0.056	-0.404
-510.799	-54.968	0.156	-0.070
-509.785	-172.145	-0.310	0.010
-508.770	77.765	-0.162	-0.171
-507.756	207.546	-0.172	0.267
-506.741	462.613	-0.078	0.173
-505.726	-98.885	-0.145	-0.037
-504.712	-32.729	-0.182	-0.101
-503.697	-134.387	0.294	-0.036
-502.683	-79.852	0.122	0.041
-501.668	161.774	-0.178	-0.247
-500.653	-200.000	0.005	-0.039
-499.639	78.030	-0.102	0.108
-498.624	-9.953	-0.038	0.025
-497.610	-81.764	-0.100	-0.033
-496.595	269.010	-0.084	-0.146
-495.581	-78.218	0.140	-0.048
-494.566	50.408	-0.180	-0.169
-493.551	800.000	0.077	-0.295
-492.537	515.695	0.092	0.214
-491.522	320.737	0.211	-0.397
-490.508	431.100	-0.048	-0.102
-489.493	-85.116	-0.340	-0.106
-488.478	-200.000	-0.026	-0.124
-487.464	800.000	-0.067	0.231
-486.449	196.222	-0.024	-0.036
-485.435	-141.494	-0.170	0.017
-484.420	-75.163	0.182	-0.065
-483.405	-200.000	-0.017	0.316
-482.391	800.000	-0.078	0.286
-481.376	20.340	-0.090	-0.072
-480.362	-82.628	0.235	-0.076
-479.347	576.474	0.151	-0.365
-478.332	176.761	0.080	0.115
-477.318	131.543	0.269	-0.344
-476.303	-177.936	0.370	-0.009
-475.289	130.544	-0.055	0.070
-474.274	-45.095	-0.106	-0.052
-473.259	-200.000	0.005	-0.280
-472.245	386.708	0.155	-0.318
-471.230	-200.000	0.004	-0.311
-470.216	-129.264	-0.268	-0.037
-469.201	-22.034	0.073	0.044
-468.186	-36.523	-0.129	0.069
-467.172	-200.000	0.003	-0.079
-466.157	-36.317	-0.151	0.081
-465.143	345.379	-0.133	-0.260
-464.128	-122.204	0.064	0.010
-463.113	-110.866	0.026	0.005
-462.099	800.000	0.120	-0.395
-461.084	-200.000	-0.012	-0.142
-460.070	60.865	-0.102	-0.101
-459.055	197.606	0.129	-0.195
-458.040	57.107	0.225	-0.218
-457.026	-153.451	-0.160	-0.011
-456.011	265.113	0.117	-0.202
-454.997	-130.677	0.093	-0.012
-453.982	800.000	0.076	0.271
-452.968	2.279	-0.252	0.181
-451.953	-94.553	0.350	0.094
-450.938	39.290	0.057	-0.051
-449.924	106.642	-0.099	0.116
-448.909	-28.966	0.159	0.091
-447.895	61.900	0.053	-0.052
-446.880	-162.671	-0.257	-0.013
-445.865	273.665	0.050	0.087
-444.851	-147.580	0.272	0.023
-443.836	800.000	-0.033	-0.134
-442.822	-200.000	-0.001	0.202
-441.807	37.028	0.196	-0.171
-440.792	-98.550	-0.038	-0.010
-439.778	-101.643	0.258	-0.062
-438.763	-137.581	-0.306	-0.034
-437.749	800.000	-0.115	0.346
-436.734	800.000	0.032	0.129
-435.719	-200.000	-0.020	0.093
-434.705	-187.982	-0.091	0.001
-433.690	-200.000	0.034	-0.229
-432.676	800.000	-0.045	0.133
-431.661	-95.115	0.107	0.029
-430.646	800.000	-0.038	0.112
-429.632	-141.094	-0.323	-0.033
-428.617	800.000	0.022	-0.071
-427.603	-126.126	-0.028	-0.004
-426.588	49.970	0.188	0.176
-425.573	-161.965	-0.125	-0.006
-424.559	-94.634	0.242	-0.065
-423.544	444.564	-0.190	0.413
-422.530	800.000	-0.026	-0.075
-421.515	192.175	-0.295	0.440
-420.500	120.668	-0.022	-0.028
-419.486	-200.000	0.057	-0.378
-418.471	295.516	-0.064	-0.116
-417.457	-54.064	0.181	0.082
-416.442	-116.709	-0.070	-0.013
-415.428	800.000	0.062	0.179
-414.413	-72.616	-0.181	-0.066
-413.398	480.356	0.145	0.325
-412.384	667.160	-0.069	-0.176
-411.369	-150.518	-0.084	0.006
-410.355	-200.000	-0.037	0.180
-409.340	177.116	-0.107	0.154
-408.325	-200.000	0.020	0.150
-407.311	8.724	0.152	-0.113
-406.296	91.526	-0.241	0.268
-405.282	38.009	0.097	0.085
-404.267	-200.000	0.026	-0.304
-403.252	-200.000	0.054	-0.316
-402.238	522.460	0.178	-0.414
-401.223	91.563	0.182	0.202
-400.209	-200.000	-0.069	0.400
-399.194	-80.414	0.177	0.059
-398.179	17.808	-0.065	0.052
-397.165	470.238	0.145	0.323
-396.150	71.408	0.144	-0.148
-395.136	94.877	0.111	0.125
-394.121	-200.000	-0.013	-0.188
-393.106	-48.578	0.080	-0.038
-392.092	-63.435	-0.108	-0.044
-391.077	800.000	-0.009	-0.025
-390.063	156.907	-0.248	0.339
-389.048	800.000	-0.042	-0.151
-388.033	-76.153	0.267	-0.093
-387.019	-25.457	-0.268	-0.157
-386.004	149.065	0.303	-0.406
-384.990	-89.050	0.140	0.041
-383.975	248.678	0.111	0.187
-382.960	800.000	-0.060	-0.222
-381.946	800.000	-0.075	-0.240
-380.931	-60.695	-0.229	-0.096
-379.917	35.754	-0.091	0.079
-378.902	-129.993	0.277	0.037
-377.888	800.000	0.070	-0.218
-376.873	-200.000	-0.026	-0.140
-375.858	32.385	-0.085	0.072
-374.844	-140.637	0.357	0.037
-373.829	9.616	0.112	0.084
-372.815	-92.574	0.227	0.063
-371.800	43.610	-0.108	-0.098
-370.785	-86.499	0.310	-0.094
-369.771	-31.519	-0.295	0.164
-368.756	800.000	0.009	0.026
-367.742	24.603	0.274	-0.224
-366.727	375.572	0.137	-0.275
-365.712	-77.372	0.237	0.081
-364.698	-76.569	0.202	0.070
-363.683	-132.528	0.217	0.028
-362.669	-200.000	0.009	0.202
-361.654	-122.739	0.259	0.041
-360.639	-139.574	-0.213	-0.022
-359.625	-34.390	-0.075	-0.041
-358.610	-21.504	0.312	-0.188
-357.596	332.106	0.138	-0.264
-356.581	309.464	0.115	-0.212
-355.566	676.353	-0.054	0.137
-354.552	464.662	-0.189	-0.416
-353.537	-200.000	-0.051	-0.296
-352.523	309.601	0.020	-0.037
-351.508	4.313	0.160	-0.115
-350.493	-36.013	-0.202	-0.108
-349.479	800.000	-0.079	0.324
-348.464	800.000	0.025	0.106
-347.450	30.864	0.177	-0.150
-346.435	-200.000	0.012	-0.465
-345.420	99.264	0.147	-0.168
-344.406	-200.000	0.014	-0.352
-343.391	-147.516	0.089	-0.007
-342.377	-98.565	-0.246	0.062
-341.362	221.313	-0.053	0.085
-340.348	-200.000	0.000	-0.104
-339.333	-93.711	-0.107	0.029
-338.318	-200.000	-0.031	0.279
-337.304	-123.008	-0.122	-0.019
-336.289	105.817	-0.160	0.186
-335.275	-144.242	-0.041	-0.004
-334.260	-74.735	-0.132	0.047
-333.245	-31.942	-0.143	0.079
-332.231	800.000	-0.122	-0.395
-331.216	-116.334	-0.412	-0.075
-330.202	90.922	-0.057	0.063
-329.187	105.316	0.235	0.273
-328.172	129.507	-0.097	-0.122
-327.158	79.469	-0.139	0.147
-326.143	-52.960	0.150	0.068
-325.129	-174.432	0.121	-0.003
-324.114	543.916	-0.121	0.285
-323.099	51.189	-0.357	0.334
-322.085	141.701	-0.114	-0.149
-321.070	-200.000	0.037	0.262
-320.056	-200.000	0.004	0.171
-319.041	537.744	0.065	0.151
-318.026	40.052	0.291	0.258
-317.012	69.958	-0.215	-0.218
-315.997	240.651	-0.129	0.213
-314.983	1.117	0.125	0.088
-313.968	-27.969	-0.144	0.082
-312.953	595.268	0.061	0.148
-311.939	-200.000	0.017	0.215
-310.924	-200.000	0.012	-0.248
-309.910	-23.561	0.240	-0.142
-308.895	170.219	0.073	0.103
-307.880	-200.000	-0.010	-0.200
-306.866	-93.647	-0.160	-0.044
-305.851	297.211	0.058	-0.105
-304.837	124.476	0.197	-0.244
-303.822	-200.000	-0.029	-0.159
-302.807	-107.172	-0.077	0.017
-301.793	800.000	0.037	0.117
-300.778	800.000	-0.174	-0.497
-299.764	-160.893	-0.134	0.007
-298.749	-160.737	0.185	-0.010
-297.735	-125.721	0.143	0.021
-296.720	-169.589	-0.277	0.010
-295.705	-52.881	-0.158	-0.072
-294.691	800.000	0.098	0.356
-293.676	-42.044	-0.028	0.014
-292.662	-200.000	0.032	0.162
-291.647	304.302	0.068	-0.124
-290.632	-101.452	-0.310	0.074
-289.618	9.401	-0.197	-0.147
-288.603	161.783	-0.064	-0.088
-287.589	320.338	0.038	0.070
-286.574	800.000	-0.100	0.382
-285.559	-200.000	0.108	-0.466
-284.545	800.000	0.137	-0.443
-283.530	-121.880	0.324	-0.053
-282.516	206.492	-0.144	0.221
-281.501	-200.000	0.013	-0.295
-280.486	-200.000	-0.084	-0.369
-279.472	-106.160	-0.195	-0.043
-278.457	14.067	0.194	0.149
-277.443	97.478	-0.318	0.359
-276.428	85.869	0.055	-0.060
-275.413	-200.000	0.019	0.116
-274.399	-200.000	-0.012	0.080
-273.384	70.312	0.075	0.076
-272.370	-200.000	0.020	-0.255
-271.355	-77.494	-0.176	0.060
-270.340	145.494	0.129	-0.170
-269.326	35.279	-0.127	-0.110
-268.311	-122.680	-0.070	0.011
-267.297	216.843	0.110	0.172
-266.282	224.788	0.127	-0.203
-265.267	-26.681	0.199	-0.114
-264.253	-200.000	-0.021	0.308
-263.238	-30.818	-0.138	-0.077
-262.224	231.916	0.042	0.068
-261.209	197.485	-0.154	0.232
-260.195	74.745	0.056	0.058
-259.180	-35.775	-0.033	0.018
-258.165	13.920	0.208	0.159
-257.151	-120.889	-0.378	0.063
-256.136	-189.389	0.105	-0.001
-255.122	-200.000	-0.043	-0.202
-254.107	800.000	0.094	0.299
-253.092	-95.655	-0.095	0.025
-252.078	800.000	-0.083	-0.295
-251.063	26.784	0.195	0.161
-250.049	-91.080	-0.186	0.053
-249.034	45.811	0.200	-0.182
-248.019	-75.244	-0.028	0.010
-247.005	121.144	-0.084	0.103
-245.990	-200.000	-0.001	0.276
-244.976	-31.300	0.158	0.087
-243.961	-126.529	0.160	-0.023
-242.946	296.415	-0.139	-0.250
-241.932	661.195	-0.068	-0.173
-240.917	194.518	-0.160	0.239
-239.903	343.324	-0.040	0.078
-238.888	461.802	0.067	-0.147
-237.873	57.731	-0.178	0.172
-236.859	800.000	-0.040	0.142
-235.844	-188.926	0.140	-0.002
-234.830	-79.531	-0.294	-0.098
-233.815	-112.850	0.187	-0.036
-232.800	-32.532	-0.298	-0.163
-231.786	240.512	0.163	0.267
-230.771	-131.322	-0.358	0.047
-229.757	-120.431	0.295	0.049
-228.742	32.163	-0.108	0.092
-227.727	800.000	0.145	0.404
-226.713	745.153	0.096	0.254
-225.698	545.848	0.160	-0.375
-224.684	201.131	-0.010	0.015
-223.669	-200.000	-0.009	-0.053
-222.655	155.201	-0.055	-0.075
-221.640	51.412	0.028	0.026
-220.625	-200.000	-0.001	0.209
-219.611	-23.310	0.258	-0.152
-218.596	-0.982	0.189	0.131
-217.582	-200.000	-0.025	0.178
-216.567	-200.000	-0.019	0.356
-215.552	48.342	0.114	-0.105
-214.538	-109.361	-0.095	-0.020
-213.523	-27.500	-0.122	0.070
-212.509	-50.632	0.170	0.078
-211.494	-200.000	-0.023	0.254
-210.479	-14.873	0.317	0.200
-209.465	-29.016	0.171	0.096
-208.450	627.896	-0.108	0.269
-207.436	371.524	0.089	-0.176
-206.421	-121.965	-0.259	0.042
-205.406	336.601	0.111	0.211
-204.392	290.153	-0.159	0.283
-203.377	-19.072	-0.138	0.084
-202.363	800.000	-0.018	-0.058
-201.348	-131.322	0.389	-0.051
-200.333	-116.200	-0.187	0.034
-199.319	-70.533	-0.282	0.105
-198.304	220.241	-0.127	-0.200
-197.290	402.483	-0.146	0.302
-196.275	66.517	-0.029	0.029
-195.260	-190.716	-0.059	-0.001
-194.246	12.155	0.121	0.091
-193.231	-37.110	0.360	0.189
-192.217	445.792	-0.135	0.290
-191.202	2.677	0.073	0.052
-190.187	103.841	-0.224	-0.259
-189.173	262.961	0.117	-0.198
-188.158	249.792	-0.084	-0.139
-187.144	338.202	-0.120	-0.229
-186.129	-200.000	0.018	0.113
-185.114	-70.860	0.109	-0.040
-184.100	96.078	-0.012	-0.013
-183.085	96.519	-0.129	-0.145
-182.071	-200.000	-0.018	0.326
-181.056	800.000	-0.052	-0.214
-180.042	52.811	0.341	0.320
-179.027	767.679	0.083	-0.222
-178.012	433.188	0.140	0.299
-176.998	-43.269	0.175	-0.087
-175.983	-19.054	0.194	-0.118
-174.969	-104.739	-0.157	0.035
-173.954	414.793	0.056	-0.116
-172.939	-200.000	-0.054	-0.484
-171.925	-87.727	-0.175	-0.052
-170.910	140.960	-0.095	0.123
-169.896	460.724	0.263	0.574
-168.881	137.979	-0.070	0.089
-167.866	64.716	-0.177	0.175
-166.852	-37.733	0.140	-0.073
-165.837	36.543	-0.168	-0.145
-164.823	-89.482	-0.051	0.015
-163.808	232.136	0.110	0.176
-162.793	-200.000	-0.030	0.146
-161.779	-98.730	-0.331	-0.083
-160.764	-48.543	-0.266	0.125
-159.750	-20.215	0.185	-0.112
-158.735	0.268	-0.261	0.183
-157.720	9.357	-0.161	0.119
-156.706	-200.000	-0.063	-0.333
-155.691	16.677	-0.044	0.034
-154.677	-48.028	0.073	-0.035
-153.662	412.853	-0.134	-0.278
-152.647	-200.000	-0.062	-0.396
-151.633	295.986	-0.130	-0.234
-150.618	27.285	0.128	0.105
-149.604	643.630	-0.017	-0.042
-148.589	-24.622	0.454	-0.265
-147.574	-200.000	0.080	-0.406
-146.560	-58.164	-0.083	-0.036
-145.545	120.502	0.176	0.214
-144.531	800.000	-0.033	0.098
-143.516	308.888	-0.164	0.300
-142.502	-76.411	-0.214	0.074
-141.487	-32.483	-0.168	-0.092
-140.472	-200.000	0.049	0.241
-139.458	-170.754	0.119	0.004
-138.443	-126.571	0.288	-0.042
-137.429	-200.000	0.018	-0.082
-136.414	-164.036	-0.091	0.004
-135.399	306.025	0.230	0.418
-134.385	-50.911	-0.194	0.089
-133.370	156.828	-0.070	0.095
-132.356	-200.000	0.012	-0.289
-131.341	-200.000	0.004	-0.203
-130.326	-131.057	0.344	-0.045
-129.312	-96.560	0.075	-0.019
-128.297	178.586	0.098	0.140
-127.283	68.430	-0.125	0.125
-126.268	-67.601	0.088	0.034
-125.253	-200.000	-0.049	0.234
-124.239	266.516	0.054	-0.092
-123.224	76.020	-0.138	-0.143
-122.210	-200.000	0.011	0.190
-121.195	-122.229	0.154	0.025
