DTS Sentinel unit serial number:	SN413079Multiplexer serial number:	ORYXHardware model number:	OX4-SRSoftware version number:	ORYX F/W v4.00 Oryx Data Collector v3.7.2.0data status	okinstallation	princeton_trtdifferential loss correction	single-endedforward channel	channel 1reverse channel	N/Adate	2019/09/13time	19:58:35forward acquisition time	60.00reverse acquisition time	0.00gamma	496.2192k internal	0.2329k external	0.2329temperature offset calibration	1.0092default loss term (dB/km)	0.3790temperature slope calibration	1.0000multiplexer offset coefficient	1.0000multiplexer slope coefficient	1.0000fibre end	0.00T internal ref (°C)	29.83T ext. ref 1 (°C)	3.34T ext. ref 2 (°C)	24.22length (m)	temperature (°C)	Stokes	anti-Stokes-747.200	252.078	-0.059	0.102
-746.185	-27.714	0.243	-0.142
-745.171	396.269	-0.088	-0.186
-744.156	-48.516	-0.419	0.203
-743.142	191.188	-0.090	0.136
-742.127	301.442	-0.062	0.115
-741.112	-108.131	-0.198	0.043
-740.098	-28.098	-0.233	0.136
-739.083	-200.000	0.026	-0.417
-738.069	-55.888	-0.181	-0.081
-737.054	128.813	0.101	0.130
-736.039	-7.585	0.091	0.062
-735.025	-53.261	0.068	-0.031
-734.010	15.591	-0.179	-0.142
-732.996	31.954	-0.373	-0.323
-731.981	-164.744	0.532	0.024
-730.966	242.546	-0.016	-0.027
-729.952	-59.328	-0.431	-0.187
-728.937	512.913	-0.090	0.212
-727.923	471.087	0.127	-0.288
-726.908	-200.000	0.043	0.342
-725.894	-77.925	0.091	0.032
-724.879	96.954	-0.087	0.100
-723.864	783.406	-0.099	-0.273
-722.850	-105.672	0.350	0.080
-721.835	64.739	-0.181	0.184
-720.821	22.381	-0.207	0.171
-719.806	-128.492	-0.031	-0.004
-718.791	-52.626	-0.155	0.072
-717.777	78.493	-0.063	0.067
-716.762	-200.000	-0.008	-0.099
-715.748	201.261	-0.137	-0.212
-714.733	-200.000	-0.021	-0.256
-713.718	16.410	0.249	-0.198
-712.704	177.743	0.010	-0.014
-711.689	54.000	-0.200	0.193
-710.675	598.173	-0.105	0.262
-709.660	-200.000	-0.014	-0.250
-708.645	405.977	0.142	-0.302
-707.631	-200.000	-0.089	0.449
-706.616	-167.819	-0.202	-0.008
-705.602	251.377	-0.288	-0.492
-704.587	229.073	-0.103	-0.168
-703.572	-84.201	0.184	-0.059
-702.558	236.586	-0.169	-0.281
-701.543	-200.000	-0.056	0.281
-700.529	423.792	0.105	0.227
-699.514	-99.919	0.196	-0.049
-698.499	800.000	-0.032	0.115
-697.485	-200.000	-0.032	0.230
-696.470	-200.000	-0.009	0.058
-695.456	54.307	0.285	0.276
-694.441	-173.681	-0.322	-0.010
-693.426	433.951	-0.124	0.272
-692.412	-200.000	0.019	-0.140
-691.397	86.378	0.101	-0.111
-690.383	378.094	-0.038	0.078
-689.368	-200.000	-0.019	-0.141
-688.354	357.446	0.224	0.449
-687.339	-200.000	0.003	-0.412
-686.324	-137.279	0.387	0.044
-685.310	175.049	0.134	0.195
-684.295	-8.435	-0.050	0.034
-683.281	-82.526	-0.234	-0.076
-682.266	800.000	-0.025	-0.078
-681.251	800.000	-0.055	0.189
-680.237	489.957	-0.016	0.036
-679.222	631.812	-0.050	-0.127
-678.208	-101.616	-0.058	-0.014
-677.193	-60.073	0.230	0.099
-676.178	194.084	0.038	0.058
-675.164	174.786	-0.136	-0.198
-674.149	539.734	0.099	-0.238
-673.135	800.000	0.028	0.106
-672.120	92.339	-0.185	0.210
-671.105	-159.865	-0.165	-0.009
-670.091	145.129	0.135	-0.182
-669.076	-158.816	-0.223	-0.013
-668.062	173.410	0.064	-0.092
-667.047	-200.000	0.026	0.163
-666.032	-128.212	-0.375	-0.054
-665.018	-158.946	0.253	-0.014
-664.003	-59.316	0.081	0.035
-662.989	-178.770	0.036	0.001
-661.974	310.235	0.079	0.149
-660.959	800.000	-0.069	0.259
-659.945	-119.095	-0.231	0.041
-658.930	-200.000	-0.082	0.408
-657.916	187.769	-0.162	-0.243
-656.901	-26.344	-0.167	-0.098
-655.886	-179.522	-0.222	0.005
-654.872	275.651	0.084	0.150
-653.857	-147.713	0.176	-0.015
-652.843	86.078	0.063	0.069
-651.828	-200.000	0.017	-0.162
-650.814	-30.261	0.148	-0.084
-649.799	-133.009	-0.279	0.036
-648.784	-78.722	-0.199	-0.068
-647.770	-45.982	0.246	-0.122
-646.755	-200.000	-0.006	-0.250
-645.741	-127.296	-0.119	-0.017
-644.726	-200.000	0.041	0.240
-643.711	-200.000	0.002	-0.158
-642.697	-93.274	-0.138	0.039
-641.682	-119.593	-0.372	-0.065
-640.668	285.226	0.086	-0.156
-639.653	86.781	-0.279	0.309
-638.638	-200.000	-0.028	0.266
-637.624	-162.562	0.033	0.002
-636.609	402.298	-0.056	0.118
-635.595	-15.218	-0.216	-0.139
-634.580	800.000	0.124	-0.436
-633.565	-168.351	-0.222	0.009
-632.551	90.126	-0.108	-0.122
-631.536	167.363	-0.170	0.242
-630.522	-200.000	-0.003	-0.033
-629.507	-200.000	0.015	-0.139
-628.492	800.000	0.055	0.202
-627.478	-66.627	-0.406	0.161
-626.463	-200.000	-0.008	-0.392
-625.449	-153.489	0.280	-0.019
-624.434	480.457	0.164	0.373
-623.419	127.560	0.074	0.094
-622.405	-116.357	-0.290	-0.054
-621.390	58.180	-0.244	0.240
-620.376	-26.933	-0.191	0.112
-619.361	-200.000	-0.048	-0.304
-618.346	-200.000	0.001	-0.094
-617.332	800.000	0.073	-0.267
-616.317	32.217	0.126	-0.109
-615.303	118.573	0.129	0.160
-614.288	-107.579	0.218	0.048
-613.273	76.970	0.274	0.291
-612.259	-98.041	-0.299	-0.077
-611.244	-200.000	0.057	-0.292
-610.230	-77.904	0.243	-0.084
-609.215	800.000	0.059	-0.249
-608.201	456.767	0.100	-0.222
-607.186	-200.000	-0.045	-0.262
-606.171	105.368	-0.196	-0.232
-605.157	-98.910	0.135	-0.034
-604.142	-118.401	-0.082	0.015
-603.128	800.000	-0.028	0.107
-602.113	-46.558	0.182	-0.090
-601.098	-79.136	-0.130	0.044
-600.084	-93.636	0.084	0.023
-599.069	215.189	-0.082	-0.130
-598.055	-112.789	0.082	-0.016
-597.040	-200.000	-0.002	0.187
-596.025	800.000	-0.035	-0.108
-595.011	-57.959	-0.061	-0.027
-593.996	-24.384	0.182	0.109
-592.982	-126.913	0.202	-0.030
-591.967	-120.299	-0.131	-0.022
-590.952	553.392	0.146	-0.352
-589.938	347.084	0.040	0.079
-588.923	255.935	0.130	-0.224
-587.909	-70.407	0.270	-0.102
-586.894	-92.823	0.352	0.099
-585.879	-178.755	0.191	-0.004
-584.865	-200.000	0.068	-0.460
-583.850	89.203	0.168	-0.187
-582.836	-200.000	0.002	0.247
-581.821	-96.406	-0.085	0.022
-580.806	59.512	-0.201	0.198
-579.792	50.887	-0.299	0.284
-578.777	3.463	-0.140	0.102
-577.763	-111.792	-0.051	0.010
-576.748	58.949	-0.130	0.128
-575.733	-200.000	0.129	0.568
-574.719	-59.756	-0.392	-0.168
-573.704	-116.507	-0.200	-0.037
-572.690	-111.229	0.502	-0.103
-571.675	-200.000	-0.066	0.289
-570.661	-7.713	0.206	-0.139
-569.646	-77.197	0.220	-0.077
-568.631	-189.799	0.119	-0.001
-567.617	-56.263	0.205	-0.091
-566.602	-38.744	0.143	0.076
-565.588	13.902	0.058	-0.045
-564.573	59.135	0.108	0.106
-563.558	-66.895	-0.216	0.086
-562.544	-8.107	-0.018	-0.012
-561.529	77.095	-0.072	-0.077
-560.515	-118.700	-0.122	-0.022
-559.500	-115.110	0.061	-0.012
-558.485	-200.000	0.049	-0.265
-557.471	74.006	-0.108	0.113
-556.456	-200.000	-0.003	-0.255
-555.442	-140.716	0.314	0.032
-554.427	-34.889	-0.453	-0.247
-553.412	300.680	0.114	-0.210
-552.398	-198.093	0.098	0.001
-551.383	-74.270	0.178	0.064
-550.369	800.000	0.100	-0.435
-549.354	-157.934	-0.287	-0.017
-548.339	-50.477	-0.113	0.053
-547.325	86.824	0.342	0.377
-546.310	-48.735	-0.131	-0.063
-545.296	323.424	-0.155	0.296
-544.281	-117.913	0.096	-0.017
-543.266	14.904	-0.106	-0.083
-542.252	-200.000	-0.042	-0.274
-541.237	65.393	-0.051	0.052
-540.223	4.279	0.126	-0.092
-539.208	443.191	0.058	0.127
-538.193	-183.512	-0.396	-0.007
-537.179	-17.717	0.321	-0.201
-536.164	90.896	0.220	-0.246
-535.150	-133.765	-0.173	-0.022
-534.135	800.000	0.049	-0.144
-533.121	-78.843	-0.195	-0.067
-532.106	-200.000	-0.027	0.477
-531.091	-75.045	0.059	-0.021
-530.077	20.465	-0.219	0.177
-529.062	31.547	0.067	0.057
-528.048	-95.896	0.085	0.023
-527.033	80.633	0.082	0.089
-526.018	-147.538	-0.159	-0.013
-525.004	-32.891	-0.138	-0.077
-523.989	-12.943	-0.246	-0.160
-522.975	369.667	-0.066	-0.133
-521.960	42.704	-0.119	0.109
-520.945	-121.963	-0.354	0.058
-519.931	-86.284	0.265	-0.081
-518.916	-171.919	-0.148	-0.005
-517.902	144.309	0.185	-0.246
-516.887	352.918	0.126	0.250
-515.872	-200.000	0.054	-0.293
-514.858	66.306	0.012	-0.013
-513.843	-200.000	0.062	0.394
-512.829	-144.864	0.242	-0.022
-511.814	-64.981	0.037	0.015
-510.799	-200.000	-0.016	0.144
-509.785	267.591	-0.040	0.070
-508.770	300.998	-0.078	-0.143
-507.756	106.824	-0.155	0.184
-506.741	265.773	0.034	-0.059
-505.726	-145.947	0.190	-0.017
-504.712	-200.000	-0.098	-0.682
-503.697	800.000	0.022	-0.064
-502.683	-200.000	-0.016	-0.170
-501.668	-72.780	0.126	0.046
-500.653	12.733	0.212	0.163
-499.639	-200.000	-0.008	0.136
-498.624	-187.987	0.375	0.005
-497.610	398.739	0.132	-0.275
-496.595	6.898	0.125	0.093
-495.581	800.000	-0.091	-0.254
-494.566	17.655	0.297	-0.236
-493.551	-200.000	0.008	0.140
-492.537	181.197	-0.048	-0.070
-491.522	312.039	0.054	0.101
-490.508	800.000	0.035	0.103
-489.493	91.630	0.062	-0.070
-488.478	-35.632	-0.145	-0.078
-487.464	-168.761	-0.252	-0.010
-486.449	511.174	-0.026	-0.060
-485.435	-129.632	-0.041	-0.006
-484.420	336.021	0.027	-0.053
-483.405	-151.144	0.145	0.011
-482.391	-200.000	0.009	-0.353
-481.376	-15.540	-0.105	0.067
-480.362	800.000	-0.130	0.494
-479.347	800.000	0.162	-0.549
-478.332	-200.000	0.040	-0.378
-477.318	451.429	-0.194	0.427
-476.303	-128.902	-0.167	-0.023
-475.289	-200.000	0.003	0.101
-474.274	148.596	0.329	-0.443
-473.259	430.767	0.197	0.425
-472.245	800.000	0.042	0.163
-471.230	472.937	0.217	0.486
-470.216	-63.494	-0.089	0.036
-469.201	-20.554	-0.246	0.150
-468.186	0.509	-0.079	0.057
-467.172	-21.207	-0.402	-0.245
-466.157	22.075	0.192	0.156
-465.143	-34.351	-0.115	-0.063
-464.128	178.574	0.122	0.178
-463.113	-150.046	-0.182	-0.014
-462.099	90.470	-0.184	0.205
-461.084	188.878	-0.190	-0.283
-460.070	-200.000	-0.016	0.317
-459.055	-166.939	0.094	0.004
-458.040	-113.211	0.246	0.048
-457.026	155.360	-0.051	-0.070
-456.011	-116.182	-0.368	-0.068
-454.997	202.910	0.187	0.288
-453.982	-177.049	0.057	0.001
-452.968	-121.631	0.280	-0.046
-451.953	691.128	0.059	0.154
-450.938	-67.977	0.106	0.041
-449.924	800.000	0.087	0.253
-448.909	52.985	-0.066	0.063
-447.895	-90.874	0.214	-0.061
-446.880	90.777	-0.143	-0.159
-445.865	7.021	-0.057	0.042
-444.851	18.073	0.092	0.073
-443.836	6.048	-0.320	-0.236
-442.822	-151.538	0.131	0.010
-441.807	-200.000	0.026	-0.167
-440.792	-13.565	0.233	0.150
-439.778	45.639	0.208	0.191
-438.763	249.101	-0.046	0.078
-437.749	-81.500	0.202	-0.066
-436.734	-83.716	-0.247	0.078
-435.719	-200.000	-0.037	0.369
-434.705	-200.000	0.011	0.161
-433.690	-173.007	0.089	-0.003
-432.676	-184.683	0.242	-0.004
-431.661	-200.000	0.008	-0.158
-430.646	-67.771	-0.215	0.084
-429.632	27.255	0.140	0.117
-428.617	-118.320	0.587	-0.104
-427.603	-200.000	-0.005	-0.100
-426.588	-156.645	0.234	-0.014
-425.573	84.592	-0.144	-0.157
-424.559	-87.717	-0.398	-0.119
-423.544	800.000	-0.089	0.256
-422.530	-122.110	0.194	0.032
-421.515	-79.723	0.241	0.081
-420.500	484.636	0.107	0.242
-419.486	-41.322	0.490	-0.251
-418.471	118.229	-0.305	0.374
-417.457	-45.225	-0.323	-0.160
-416.442	-200.000	0.054	-0.270
-415.428	-99.140	0.372	-0.094
-414.413	-79.551	0.246	-0.083
-413.398	-137.552	-0.227	-0.025
-412.384	294.978	0.106	-0.193
-411.369	-67.406	-0.383	0.149
-410.355	-100.435	0.077	-0.019
-409.340	-86.502	-0.158	0.048
-408.325	143.370	-0.123	0.163
-407.311	108.466	-0.132	0.156
-406.296	800.000	-0.059	-0.164
-405.282	173.319	-0.197	-0.282
-404.267	32.956	-0.034	0.029
-403.252	406.872	-0.045	0.094
-402.238	313.210	-0.145	-0.271
-401.223	-104.796	0.383	-0.087
-400.209	308.784	0.105	-0.196
-399.194	-143.782	-0.128	-0.012
-398.179	-101.072	-0.214	0.052
-397.165	173.802	0.187	-0.268
-396.150	93.263	-0.272	0.305
-395.136	-91.981	0.360	0.101
-394.121	361.358	-0.067	0.134
-393.106	-200.000	-0.008	-0.148
-392.092	212.859	0.106	-0.167
-391.077	-81.668	0.119	0.039
-390.063	31.483	0.129	-0.110
-389.048	82.405	-0.152	0.163
-388.033	-20.296	-0.133	0.081
-387.019	-0.103	0.188	0.133
-386.004	-150.112	0.470	-0.036
-384.990	-92.756	-0.344	-0.096
-383.975	-89.747	-0.166	-0.048
-382.960	-66.177	-0.145	-0.057
-381.946	-200.000	-0.019	0.145
-380.931	-200.000	-0.016	-0.201
-379.917	-145.995	-0.149	-0.013
-378.902	800.000	-0.177	0.504
-377.888	217.244	0.165	0.262
-376.873	-200.000	-0.030	0.163
-375.858	66.031	-0.122	0.123
-374.844	-58.951	-0.118	-0.051
-373.829	-14.067	0.128	-0.082
-372.815	800.000	0.155	0.501
-371.800	196.337	-0.078	0.118
-370.785	36.381	-0.055	0.048
-369.771	236.266	0.091	0.149
-368.756	-69.000	0.338	0.129
-367.742	-82.629	0.351	0.113
-366.727	-134.087	0.152	-0.019
-365.712	-105.519	0.153	-0.034
-364.698	38.262	-0.170	-0.150
-363.683	-25.581	-0.059	-0.035
-362.669	287.196	-0.178	0.318
-361.654	24.016	0.103	-0.084
-360.639	-4.130	-0.073	-0.050
-359.625	-118.492	0.063	0.011
-358.610	-200.000	-0.032	0.214
-357.596	191.138	0.093	0.139
-356.581	-132.026	0.315	-0.041
-355.566	120.405	-0.210	-0.259
-354.552	-39.702	0.333	-0.173
-353.537	41.819	0.142	0.128
-352.523	784.207	-0.095	0.258
-351.508	11.695	-0.249	0.190
-350.493	173.669	0.187	0.267
-349.479	199.259	0.202	0.308
-348.464	800.000	-0.098	0.315
-347.450	131.243	-0.110	0.141
-346.435	-38.130	0.131	0.069
-345.420	-78.439	0.192	-0.065
-344.406	-200.000	-0.024	-0.351
-343.391	-27.461	-0.152	0.088
-342.377	32.307	-0.245	0.210
-341.362	117.230	-0.360	-0.438
-340.348	-200.000	0.002	-0.019
-339.333	-60.877	-0.192	0.080
-338.318	-130.784	-0.140	0.019
-337.304	172.650	-0.032	0.046
-336.289	44.038	-0.118	-0.107
-335.275	800.000	-0.017	-0.050
-334.260	800.000	-0.032	-0.129
-333.245	-39.873	-0.199	-0.103
-332.231	-200.000	-0.052	0.308
-331.216	800.000	-0.032	0.107
-330.202	-200.000	-0.023	-0.193
-329.187	-13.740	0.149	0.096
-328.172	-23.381	0.278	-0.166
-327.158	800.000	-0.061	0.175
-326.143	166.991	-0.110	-0.154
-325.129	-200.000	-0.001	0.024
-324.114	631.977	0.112	0.281
-323.099	247.443	-0.066	0.111
-322.085	-200.000	-0.024	0.318
-321.070	-200.000	0.021	0.141
-320.056	-10.644	0.073	-0.048
-319.041	-200.000	0.006	-0.120
-318.026	-200.000	0.018	-0.235
-317.012	12.371	-0.450	0.344
-315.997	678.570	-0.110	-0.283
-314.983	281.261	0.100	-0.178
-313.968	270.113	0.112	0.194
-312.953	33.809	-0.158	-0.136
-311.939	159.503	-0.150	-0.207
-310.924	4.316	-0.166	-0.121
-309.910	28.354	-0.170	-0.142
-308.895	502.411	-0.158	-0.362
-307.880	-52.157	-0.129	0.059
-306.866	-156.030	0.201	-0.013
-305.851	138.889	-0.243	-0.316
-304.837	-200.000	-0.005	-0.063
-303.822	-200.000	-0.021	-0.153
-302.807	16.126	-0.263	-0.205
-301.793	489.725	-0.145	0.329
-300.778	-200.000	0.035	0.227
-299.764	10.902	0.243	-0.184
-298.749	45.794	-0.129	0.119
-297.735	800.000	0.153	0.430
-296.720	-10.750	0.422	0.276
-295.705	-51.019	-0.191	0.089
-294.691	-200.000	0.029	0.137
-293.676	73.547	0.139	-0.144
-292.662	0.267	0.130	0.092
-291.647	800.000	0.038	-0.155
-290.632	-36.944	-0.141	0.075
-289.618	-46.813	-0.159	-0.077
-288.603	79.473	-0.193	0.205
-287.589	-97.350	-0.281	-0.072
-286.574	-200.000	0.010	-0.381
-285.559	-100.473	-0.162	-0.040
-284.545	178.900	-0.123	-0.178
-283.530	542.056	-0.174	0.410
-282.516	-159.635	-0.352	0.019
-281.501	-187.209	-0.095	0.001
-280.486	206.267	0.042	0.064
-279.472	53.376	-0.276	-0.262
-278.457	-164.564	0.165	0.007
-277.443	-74.988	-0.179	0.064
-276.428	-200.000	0.054	-0.234
-275.413	-38.011	-0.251	0.132
-274.399	-200.000	-0.007	-0.178
-273.384	138.088	-0.077	0.100
-272.370	-200.000	-0.005	0.177
-271.355	800.000	0.078	-0.319
-270.340	-93.567	-0.015	-0.004
-269.326	437.620	0.038	-0.082
-268.311	-100.883	0.100	-0.024
-267.297	400.779	0.114	0.236
-266.282	-106.918	0.375	-0.082
-265.267	68.917	0.213	-0.216
-264.253	-91.663	-0.239	0.067
-263.238	59.638	-0.192	0.187
-262.224	-200.000	-0.005	-0.053
-261.209	37.242	0.208	-0.183
-260.195	-200.000	0.031	0.193
-259.180	28.098	0.231	0.193
-258.165	800.000	-0.093	-0.282
-257.151	796.182	0.105	-0.287
-256.136	39.803	0.037	-0.033
-255.122	-129.593	-0.381	-0.052
-254.107	6.909	0.097	-0.071
-253.092	26.423	0.107	-0.088
-252.078	-94.264	-0.144	0.039
-251.063	-12.306	-0.229	-0.148
-250.049	-91.471	-0.215	-0.061
-249.034	410.531	0.163	0.341
-248.019	-101.340	0.428	-0.103
-247.005	-200.000	-0.011	-0.112
-245.990	-65.145	-0.077	0.031
-244.976	192.066	-0.073	0.109
-243.961	90.782	0.043	-0.047
-242.946	-20.795	0.263	-0.160
-241.932	800.000	-0.047	-0.144
-240.917	800.000	-0.020	-0.078
-239.903	640.828	0.084	-0.211
-238.888	340.809	-0.131	-0.253
-237.873	-112.838	-0.024	0.005
-236.859	-143.387	-0.092	-0.009
-235.844	120.975	0.082	-0.100
-234.830	222.086	0.120	0.191
-233.815	-26.999	-0.048	0.027
-232.800	-197.934	0.035	-0.000
-231.786	-200.000	-0.013	0.191
-230.771	12.145	0.204	0.155
-229.757	46.222	0.115	0.105
-228.742	-51.421	-0.091	0.042
-227.727	215.425	0.046	0.072
-226.713	-30.004	-0.202	-0.114
-225.698	-14.766	-0.177	-0.112
-224.684	-38.452	0.220	-0.115
-223.669	76.508	0.074	-0.077
-222.655	-200.000	0.002	-0.020
-221.640	-83.368	-0.194	0.062
-220.625	132.564	0.035	0.045
-219.611	-79.879	0.313	-0.104
-218.596	-105.991	-0.244	0.054
-217.582	-97.201	-0.109	-0.028
-216.567	261.291	-0.045	0.076
-215.552	-200.000	-0.029	0.242
-214.538	31.905	-0.144	0.123
-213.523	-98.054	0.203	0.051
-212.509	117.924	-0.116	0.141
-211.494	-90.213	0.249	0.071
-210.479	22.351	0.078	0.063
-209.465	-137.306	0.214	0.024
-208.450	800.000	-0.075	-0.235
-207.436	-87.692	-0.084	-0.025
-206.421	22.591	0.161	-0.130
-205.406	100.015	-0.186	0.213
-204.392	-161.230	-0.073	-0.004
-203.377	106.118	-0.137	-0.160
-202.363	-143.202	0.229	0.022
-201.348	-144.503	0.143	-0.013
-200.333	-200.000	-0.090	0.501
-199.319	-30.833	0.194	-0.108
-198.304	-200.000	-0.002	0.096
-197.290	64.192	0.200	0.199
-196.275	-200.000	0.002	-0.095
-195.260	800.000	0.059	0.165
-194.246	800.000	0.088	-0.258
-193.231	-57.334	0.117	0.051
-192.217	-131.463	-0.228	0.030
-191.202	132.107	0.089	-0.112
-190.187	27.651	0.282	-0.234
-189.173	428.970	0.032	-0.067
-188.158	28.240	-0.174	-0.145
-187.144	199.049	-0.099	0.150
-186.129	-200.000	0.001	-0.194
-185.114	69.024	-0.096	-0.098
-184.100	800.000	0.030	-0.118
-183.085	175.759	-0.093	-0.133
-182.071	800.000	-0.072	0.218
-181.056	-24.259	-0.240	-0.141
-180.042	690.261	-0.103	-0.267
-179.027	-200.000	0.011	-0.153
-178.012	-67.256	0.240	0.093
-176.998	-200.000	0.045	-0.223
-175.983	800.000	-0.094	0.327
-174.969	79.122	0.137	-0.144
-173.954	5.152	0.055	-0.040
-172.939	178.736	-0.228	0.328
-171.925	140.231	-0.070	-0.091
-170.910	70.101	0.227	0.231
-169.896	279.079	-0.088	-0.155
-168.881	800.000	-0.123	0.447
-167.866	363.461	0.091	0.181
-166.852	-116.047	0.389	-0.071
-165.837	237.324	0.092	-0.150
-164.823	376.207	0.040	0.080
-163.808	379.291	-0.018	0.036
-162.793	408.290	0.080	0.166
-161.779	573.543	-0.015	0.036
-160.764	531.603	0.072	-0.168
-159.750	48.708	-0.175	-0.161
-158.735	-200.000	0.028	0.216
-157.720	-200.000	0.002	-0.312
-156.706	223.838	0.122	0.193
-155.691	-108.767	0.269	-0.057
-154.677	-200.000	-0.032	0.177
-153.662	-97.043	-0.206	0.053
-152.647	150.783	-0.087	-0.117
-151.633	-200.000	-0.021	0.127
-150.618	60.717	-0.121	0.118
-149.604	-200.000	0.009	0.392
-148.589	292.036	0.187	0.334
-147.574	-21.481	-0.251	-0.150
-146.560	-200.000	0.033	-0.251
-145.545	800.000	0.023	0.066
-144.531	-153.135	-0.336	-0.023
-143.516	-31.526	0.284	-0.157
-142.502	-2.162	0.169	0.117
-141.487	-200.000	0.027	-0.190
-140.472	-94.556	0.194	-0.052
-139.458	-200.000	0.008	-0.063
-138.443	-87.868	-0.137	-0.041
-137.429	461.469	-0.044	0.098
-136.414	59.582	-0.113	-0.109
-135.399	-200.000	0.022	0.281
-134.385	-136.310	-0.171	0.020
-133.370	-200.000	-0.043	-0.526
-132.356	-3.901	0.208	-0.142
-131.341	113.416	0.251	0.300
-130.326	-86.852	-0.198	0.059
-129.312	-200.000	0.036	0.226
-128.297	468.207	-0.102	-0.224
-127.283	60.587	-0.100	-0.097
-126.268	800.000	0.088	0.255
-125.253	200.758	-0.147	0.223
-124.239	-20.142	0.153	-0.092
-123.224	220.639	0.090	-0.142
-122.210	-120.910	-0.173	0.029
