DTS Sentinel unit serial number:	SN413079Multiplexer serial number:	ORYXHardware model number:	OX4-SRSoftware version number:	ORYX F/W v4.00 Oryx Data Collector v3.7.2.0data status	okinstallation	princeton_trtdifferential loss correction	single-endedforward channel	channel 1reverse channel	N/Adate	2019/09/19time	07:50:35forward acquisition time	60.00reverse acquisition time	0.00gamma	496.2192k internal	0.2342k external	0.2342temperature offset calibration	1.0005default loss term (dB/km)	0.3790temperature slope calibration	1.0000multiplexer offset coefficient	1.0000multiplexer slope coefficient	1.0000fibre end	0.00T internal ref (°C)	19.62T ext. ref 1 (°C)	0.55T ext. ref 2 (°C)	14.91length (m)	temperature (°C)	Stokes	anti-Stokes-747.200	190.009	-0.113	0.169
-746.185	-200.000	0.041	0.182
-745.171	-87.330	-0.229	-0.070
-744.156	220.114	-0.094	0.151
-743.142	-200.000	-0.002	0.387
-742.127	203.004	-0.048	-0.074
-741.112	-78.862	0.413	0.141
-740.098	33.032	-0.224	0.194
-739.083	-132.551	-0.431	-0.055
-738.069	-151.663	-0.279	-0.021
-737.054	-200.000	0.019	0.095
-736.039	-104.182	-0.301	-0.070
-735.025	-200.000	0.008	-0.177
-734.010	-61.178	-0.289	-0.122
-732.996	747.867	-0.092	-0.248
-731.981	-16.530	0.175	0.111
-730.966	259.388	-0.153	0.264
-729.952	-200.000	0.026	-0.162
-728.937	-200.000	-0.022	0.163
-727.923	-46.667	-0.201	0.099
-726.908	187.480	0.020	0.030
-725.894	96.481	-0.109	0.125
-724.879	-87.490	-0.105	-0.032
-723.864	-121.266	0.068	0.011
-722.850	-83.649	-0.148	-0.047
-721.835	70.209	0.112	0.116
-720.821	-99.616	-0.137	0.034
-719.806	30.558	-0.066	0.056
-718.791	-200.000	0.017	0.176
-717.777	800.000	0.080	0.282
-716.762	-72.904	-0.173	-0.063
-715.748	453.648	-0.175	-0.387
-714.733	45.069	0.448	-0.413
-713.718	-52.815	-0.185	0.085
-712.704	16.923	-0.074	-0.058
-711.689	112.019	0.315	0.380
-710.675	800.000	0.128	0.522
-709.660	-89.726	-0.215	-0.063
-708.645	-43.397	-0.095	0.048
-707.631	-158.317	-0.096	-0.006
-706.616	-100.082	-0.249	-0.062
-705.602	150.392	0.034	-0.047
-704.587	-200.000	0.005	0.052
-703.572	-37.854	-0.387	0.206
-702.558	1.071	0.073	-0.053
-701.543	-200.000	0.032	0.168
-700.529	800.000	0.024	0.072
-699.514	-75.116	-0.155	-0.056
-698.499	-117.111	-0.115	-0.021
-697.485	34.014	-0.205	-0.179
-696.470	50.245	0.185	0.175
-695.456	-60.401	-0.269	0.114
-694.441	68.219	-0.130	-0.133
-693.426	-200.000	-0.020	0.277
-692.412	277.580	-0.113	-0.201
-691.397	527.915	0.057	-0.133
-690.383	178.881	0.061	0.089
-689.368	-200.000	-0.049	0.216
-688.354	-102.619	-0.056	0.013
-687.339	-94.382	0.471	0.129
-686.324	-200.000	0.010	-0.073
-685.310	157.702	-0.126	-0.174
-684.295	800.000	-0.043	0.162
-683.281	-5.282	0.334	0.229
-682.266	20.559	0.123	0.100
-681.251	800.000	0.077	-0.281
-680.237	-200.000	0.012	-0.059
-679.222	-200.000	-0.021	0.092
-678.208	800.000	-0.050	0.188
-677.193	800.000	0.011	0.038
-676.178	672.273	-0.076	-0.197
-675.164	-34.961	-0.041	0.023
-674.149	-102.581	-0.217	0.052
-673.135	-39.187	-0.227	0.119
-672.120	97.920	-0.086	0.099
-671.105	-200.000	-0.026	-0.351
-670.091	213.010	-0.077	-0.121
-669.076	725.585	-0.097	-0.258
-668.062	800.000	-0.147	-0.524
-667.047	800.000	-0.090	-0.343
-666.032	-87.416	-0.301	0.091
-665.018	369.974	0.138	-0.278
-664.003	236.908	-0.147	-0.244
-662.989	-200.000	-0.034	-0.210
-661.974	-200.000	-0.027	0.211
-660.959	143.581	-0.109	0.145
-659.945	-200.000	-0.035	0.329
-658.930	-200.000	0.034	-0.193
-657.916	36.635	-0.078	0.069
-656.901	-24.123	-0.254	0.151
-655.886	-23.440	-0.131	-0.078
-654.872	-200.000	0.025	0.123
-653.857	-65.613	-0.315	0.126
-652.843	-91.278	0.134	-0.038
-651.828	386.971	-0.029	0.060
-650.814	800.000	0.036	-0.147
-649.799	185.497	0.074	0.110
-648.784	-84.979	-0.362	0.113
-647.770	102.314	-0.160	-0.186
-646.755	325.350	0.125	-0.238
-645.741	83.103	-0.325	-0.353
-644.726	-200.000	0.003	0.039
-643.711	800.000	0.041	-0.120
-642.697	800.000	0.045	0.148
-641.682	-83.268	-0.608	-0.195
-640.668	-67.980	-0.223	0.087
-639.653	-182.378	0.123	-0.002
-638.638	-184.528	-0.516	0.008
-637.624	763.269	0.100	-0.271
-636.609	-109.598	0.276	0.058
-635.595	-150.996	-0.269	-0.020
-634.580	123.190	0.238	-0.297
-633.565	800.000	0.142	-0.405
-632.551	274.054	0.120	-0.212
-631.536	-200.000	-0.030	-0.154
-630.522	68.858	0.156	0.160
-629.507	92.836	-0.202	0.227
-628.492	-66.630	0.194	0.077
-627.478	297.596	0.260	0.476
-626.463	-80.739	-0.380	0.126
-625.449	162.653	0.112	-0.156
-624.434	-46.857	0.049	-0.024
-623.419	1.000	-0.250	0.179
-622.405	466.621	0.075	-0.168
-621.390	-37.477	0.118	-0.063
-620.376	-99.607	-0.177	0.044
-619.361	-4.335	-0.114	0.078
-618.346	-9.812	-0.146	-0.097
-617.332	800.000	-0.065	0.248
-616.317	18.150	-0.152	0.121
-615.303	-101.369	-0.119	0.029
-614.288	-25.153	-0.187	-0.110
-613.273	17.403	-0.075	0.060
-612.259	94.732	0.136	-0.154
-611.244	-49.564	-0.157	0.075
-610.230	-111.447	-0.208	-0.042
-609.215	4.534	-0.106	0.078
-608.201	107.727	-0.317	0.376
-607.186	-200.000	0.007	-0.337
-606.171	30.076	-0.108	0.092
-605.157	15.425	-0.219	-0.171
-604.142	67.457	0.362	0.368
-603.128	11.929	-0.265	-0.203
-602.113	-8.788	-0.106	-0.071
-601.098	-191.818	-0.406	0.004
-600.084	-52.830	-0.315	0.145
-599.069	401.076	0.131	-0.273
-598.055	800.000	-0.046	-0.174
-597.040	800.000	-0.024	0.086
-596.025	52.195	0.300	-0.285
-595.011	-44.279	0.115	0.057
-593.996	-166.074	0.155	0.007
-592.982	-42.550	0.129	-0.066
-591.967	182.188	0.134	-0.196
-590.952	199.825	0.022	0.034
-589.938	100.127	0.200	-0.231
-588.923	109.111	-0.127	-0.152
-587.909	129.365	-0.133	0.170
-586.894	-100.952	-0.123	-0.030
-585.879	69.189	-0.272	-0.279
-584.865	171.882	0.127	0.181
-583.850	-103.338	0.061	0.014
-582.836	201.518	0.132	-0.202
-581.821	-117.857	-0.159	-0.028
-580.806	-147.411	-0.153	0.013
-579.792	-200.000	0.190	0.001
-578.777	250.040	-0.197	0.333
-577.763	-65.297	-0.117	-0.047
-576.748	800.000	-0.081	0.295
-575.733	-38.350	-0.249	0.131
-574.719	-41.728	0.060	-0.031
-573.704	9.811	0.330	-0.249
-572.690	185.020	0.133	-0.196
-571.675	-200.000	-0.024	-0.174
-570.661	48.615	-0.099	-0.093
-569.646	-57.580	0.163	-0.071
-568.631	4.274	0.183	-0.133
-567.617	204.279	0.075	0.115
-566.602	-200.000	-0.021	-0.307
-565.588	-13.101	-0.042	0.027
-564.573	800.000	-0.136	-0.533
-563.558	298.615	0.108	-0.198
-562.544	36.600	-0.221	0.194
-561.529	412.154	0.165	-0.349
-560.515	10.420	0.135	0.102
-559.500	-51.854	-0.383	-0.177
-558.485	128.546	0.250	-0.317
-557.471	53.424	0.219	0.209
-556.456	-104.812	0.279	0.064
-555.442	800.000	-0.112	-0.333
-554.427	800.000	-0.066	-0.211
-553.412	1.679	0.052	-0.037
-552.398	34.937	-0.307	-0.267
-551.383	-121.267	-0.082	0.014
-550.369	-72.823	-0.112	-0.041
-549.354	-200.000	-0.022	-0.170
-548.339	-200.000	0.015	0.079
-547.325	-62.578	-0.277	0.114
-546.310	13.791	0.193	0.149
-545.296	62.231	0.421	-0.418
-544.281	-95.594	-0.173	-0.046
-543.266	-42.914	-0.230	-0.116
-542.252	247.859	-0.073	0.122
-541.237	-162.387	-0.244	0.012
-540.223	340.818	0.141	-0.273
-539.208	291.063	0.021	-0.037
-538.193	-200.000	-0.025	0.138
-537.179	648.794	0.042	-0.107
-536.164	-17.075	0.355	-0.222
-535.150	-92.172	-0.344	-0.096
-534.135	-135.054	0.070	-0.008
-533.121	-2.108	0.247	0.172
-532.106	-89.172	0.100	-0.029
-531.091	-160.028	-0.367	-0.020
-530.077	-65.150	0.117	0.047
-529.062	-200.000	-0.113	0.000
-528.048	-200.000	-0.016	-0.345
-527.033	246.521	-0.180	0.302
-526.018	139.216	0.207	-0.270
-525.004	-152.866	-0.181	-0.013
-523.989	9.618	-0.118	-0.089
-522.975	-200.000	0.068	-0.307
-521.960	800.000	-0.055	0.197
-520.945	599.421	0.057	0.140
-519.931	-3.392	-0.134	0.092
-518.916	-200.000	-0.073	0.327
-517.902	800.000	0.121	0.356
-516.887	39.682	-0.074	-0.066
-515.872	97.840	0.221	0.252
-514.858	-158.354	-0.147	0.008
-513.843	800.000	0.012	-0.051
-512.829	-122.045	-0.112	-0.018
-511.814	-43.258	0.086	-0.043
-510.799	568.357	0.084	0.202
-509.785	96.929	0.180	-0.205
-508.770	-85.480	0.377	-0.116
-507.756	421.106	0.053	0.112
-506.741	89.455	-0.111	0.123
-505.726	-132.145	-0.139	0.018
-504.712	800.000	-0.070	0.238
-503.697	-155.929	-0.092	-0.006
-502.683	-62.603	0.154	0.063
-501.668	-200.000	-0.024	-0.329
-500.653	147.302	0.071	0.095
-499.639	-109.221	0.191	-0.040
-498.624	-95.611	0.289	0.077
-497.610	-112.273	0.203	-0.040
-496.595	279.596	0.053	-0.094
-495.581	152.050	-0.155	0.210
-494.566	800.000	-0.042	0.164
-493.551	46.928	-0.297	0.274
-492.537	-32.024	-0.266	-0.148
-491.522	800.000	0.139	0.485
-490.508	-8.819	-0.054	0.036
-489.493	212.382	0.175	-0.273
-488.478	45.595	-0.065	-0.059
-487.464	1.474	-0.051	0.036
-486.449	514.951	-0.079	-0.184
-485.435	-66.125	-0.226	0.089
-484.420	800.000	0.189	0.560
-483.405	73.408	0.124	-0.128
-482.391	-200.000	-0.048	0.213
-481.376	-134.872	0.240	-0.029
-480.362	-44.180	-0.162	-0.081
-479.347	25.995	0.122	0.101
-478.332	198.972	0.225	-0.342
-477.318	464.055	-0.124	-0.274
-476.303	61.121	0.148	0.146
-475.289	-18.856	-0.225	0.139
-474.274	-86.910	0.352	-0.106
-473.259	-200.000	0.002	-0.163
-472.245	-200.000	0.013	-0.164
-471.230	163.074	-0.106	0.147
-470.216	32.605	-0.164	0.141
-469.201	137.885	-0.140	-0.182
-468.186	154.216	-0.248	-0.338
-467.172	-55.183	-0.261	-0.116
-466.157	72.977	0.151	-0.157
-465.143	-105.580	-0.221	0.050
-464.128	-141.553	0.346	-0.035
-463.113	-65.181	-0.260	-0.104
-462.099	-16.138	-0.347	-0.218
-461.084	225.307	0.032	-0.051
-460.070	120.169	-0.198	0.244
-459.055	80.408	0.101	-0.108
-458.040	62.908	-0.261	0.259
-457.026	-122.604	-0.253	-0.041
-456.011	-134.398	-0.217	0.026
-454.997	-200.000	-0.006	-0.143
-453.982	432.428	0.011	-0.024
-452.968	-200.000	0.069	0.456
-451.953	-7.482	0.284	-0.191
-450.938	-200.000	0.042	0.251
-449.924	765.415	0.043	0.117
-448.909	-200.000	0.003	0.060
-447.895	175.443	-0.076	-0.109
-446.880	-42.889	0.254	-0.128
-445.865	-5.100	-0.138	-0.094
-444.851	109.049	-0.133	0.157
-443.836	800.000	0.011	0.038
-442.822	81.179	0.065	-0.070
-441.807	16.004	-0.162	-0.126
-440.792	800.000	-0.020	0.069
-439.778	-8.194	0.202	-0.135
-438.763	4.441	0.159	-0.115
-437.749	-200.000	-0.029	0.343
-436.734	-159.239	0.301	0.017
-435.719	-8.401	-0.308	-0.205
-434.705	21.755	0.111	0.090
-433.690	-190.059	0.083	0.001
-432.676	-38.379	0.221	-0.116
-431.661	-200.000	0.064	-0.381
-430.646	11.591	0.115	-0.087
-429.632	800.000	-0.032	0.089
-428.617	-200.000	-0.016	-0.103
-427.603	244.467	-0.086	-0.142
-426.588	800.000	-0.033	0.098
-425.573	316.764	-0.150	-0.280
-424.559	-187.134	0.233	-0.003
-423.544	-138.188	-0.093	-0.010
-422.530	122.014	0.119	-0.147
-421.515	-167.685	0.090	-0.004
-420.500	-27.096	0.195	-0.112
-419.486	-123.324	-0.356	-0.056
-418.471	-111.270	-0.342	0.069
-417.457	-73.273	-0.308	-0.112
-416.442	296.766	0.165	0.299
-415.428	800.000	0.011	0.033
-414.413	137.190	0.161	0.208
-413.398	-200.000	0.027	0.275
-412.384	-59.508	-0.134	0.057
-411.369	150.470	0.189	0.254
-410.355	-33.938	-0.111	0.060
-409.340	28.097	-0.174	0.145
-408.325	-30.567	-0.290	0.163
-407.311	45.186	0.040	-0.037
-406.296	-106.340	0.440	0.097
-405.282	23.151	-0.036	0.029
-404.267	1.916	0.172	0.123
-403.252	-0.695	-0.143	-0.100
-402.238	91.022	-0.288	0.319
-401.223	6.495	0.103	-0.076
-400.209	21.358	0.231	0.186
-399.194	800.000	0.098	0.342
-398.179	-200.000	0.000	-0.005
-397.165	139.700	0.109	0.142
-396.150	-66.942	0.113	0.044
-395.136	264.634	-0.125	-0.216
-394.121	-127.832	-0.228	0.032
-393.106	278.170	0.169	0.297
-392.092	75.179	0.127	-0.132
-391.077	666.890	0.012	0.030
-390.063	132.666	-0.155	-0.198
-389.048	633.164	-0.128	-0.321
-388.033	-62.647	-0.267	0.109
-387.019	61.518	-0.189	0.185
-386.004	-59.153	0.062	0.027
-384.990	24.739	0.261	-0.213
-383.975	-200.000	-0.024	-0.232
-382.960	800.000	-0.065	-0.193
-381.946	-200.000	-0.003	0.469
-380.931	20.226	0.173	0.138
-379.917	-62.473	-0.231	-0.095
-378.902	-200.000	-0.019	-0.424
-377.888	-187.001	-0.188	-0.003
-376.873	-186.540	0.213	0.003
-375.858	-46.036	-0.122	0.059
-374.844	-200.000	-0.021	-0.188
-373.829	-200.000	0.016	0.141
-372.815	-23.134	0.206	0.123
-371.800	456.023	0.049	-0.107
-370.785	-200.000	-0.013	0.254
-369.771	-200.000	-0.011	0.098
-368.756	-143.745	0.250	0.023
-367.742	-200.000	-0.025	0.189
-366.727	-200.000	0.028	0.256
-365.712	-81.788	-0.088	-0.028
-364.698	-117.569	0.223	0.040
-363.683	150.509	-0.132	0.177
-362.669	259.375	0.093	0.159
-361.654	-19.063	0.198	0.122
-360.639	-48.569	0.088	-0.042
-359.625	167.110	0.079	-0.111
-358.610	232.439	-0.126	-0.204
-357.596	16.289	-0.180	-0.140
-356.581	-34.489	-0.184	-0.099
-355.566	-54.759	0.259	-0.115
-354.552	1.548	0.272	0.193
-353.537	426.661	0.054	0.115
-352.523	-200.000	-0.007	-0.287
-351.508	314.096	-0.084	0.156
-350.493	-145.120	-0.212	0.019
-349.479	800.000	-0.036	0.100
-348.464	-110.231	0.231	0.048
-347.450	400.460	0.176	-0.365
-346.435	251.752	-0.276	0.463
-345.420	404.705	-0.035	0.072
-344.406	-96.537	0.214	0.056
-343.391	215.951	-0.069	-0.108
-342.377	62.040	-0.213	0.209
-341.362	-200.000	-0.007	0.046
-340.348	462.291	-0.215	0.472
-339.333	82.244	0.193	0.206
-338.318	-1.861	-0.149	-0.103
-337.304	290.127	0.189	-0.339
-336.289	-154.630	0.239	-0.016
-335.275	190.264	-0.089	0.132
-334.260	-87.396	-0.113	-0.034
-333.245	213.408	-0.120	-0.188
-332.231	-157.987	0.217	-0.013
-331.216	145.653	-0.127	-0.168
-330.202	-200.000	-0.026	-0.392
-329.187	34.537	-0.178	0.153
-328.172	800.000	0.088	-0.283
-327.158	-69.412	-0.328	0.124
-326.143	-116.108	-0.348	0.064
-325.129	-200.000	-0.016	-0.154
-324.114	800.000	-0.088	0.240
-323.099	-47.364	0.131	0.063
-322.085	471.218	0.149	0.331
-321.070	-64.769	0.337	0.135
-320.056	-48.880	0.181	0.086
-319.041	-83.886	-0.218	-0.069
-318.026	166.143	0.100	0.139
-317.012	-83.401	0.251	-0.079
-315.997	-23.746	-0.228	0.135
-314.983	-38.722	-0.158	-0.082
-313.968	776.321	0.045	0.121
-312.953	800.000	0.076	0.234
-311.939	15.650	0.064	0.049
-310.924	-200.000	0.005	0.281
-309.910	-200.000	0.009	0.123
-308.895	-45.543	0.147	0.072
-307.880	-200.000	-0.004	0.187
-306.866	51.576	0.059	-0.055
-305.851	-200.000	-0.002	-0.156
-304.837	-200.000	-0.027	-0.315
-303.822	9.241	-0.227	-0.169
-302.807	107.655	0.105	0.123
-301.793	-200.000	0.023	-0.155
-300.778	-200.000	0.012	-0.066
-299.764	-89.595	0.441	0.127
-298.749	154.361	0.220	-0.297
-297.735	755.253	-0.059	0.158
-296.720	-200.000	0.001	0.176
-295.705	-169.432	0.182	0.007
-294.691	498.032	0.169	0.383
-293.676	800.000	0.112	0.369
-292.662	21.406	-0.106	-0.085
-291.647	-75.647	0.197	-0.069
-290.632	-117.527	-0.283	0.050
-289.618	-120.739	0.261	0.043
-288.603	87.379	0.136	-0.149
-287.589	-134.545	-0.372	0.045
-286.574	-200.000	0.013	0.434
-285.559	18.188	-0.290	0.228
-284.545	-200.000	0.051	0.373
-283.530	10.182	0.328	0.246
-282.516	65.677	0.153	-0.153
-281.501	-200.000	0.063	-0.301
-280.486	-48.153	0.022	0.010
-279.472	691.073	0.141	0.364
-278.457	-200.000	0.008	0.123
-277.443	21.659	0.240	0.193
-276.428	-69.793	0.211	-0.079
-275.413	800.000	0.041	-0.156
-274.399	800.000	-0.100	-0.311
-273.384	800.000	0.041	-0.121
-272.370	211.644	0.154	0.239
-271.355	231.007	-0.050	0.080
-270.340	179.537	0.203	-0.293
-269.326	-62.748	-0.205	0.084
-268.311	-122.812	0.130	0.021
-267.297	378.797	0.114	0.229
-266.282	-200.000	-0.004	-0.122
-265.267	-85.177	-0.170	0.052
-264.253	800.000	0.045	-0.166
-263.238	-200.000	-0.034	-0.201
-262.224	235.653	-0.070	-0.113
-261.209	126.510	-0.026	-0.032
-260.195	-200.000	-0.002	0.084
-259.180	231.633	-0.173	-0.279
-258.165	-112.800	-0.193	-0.038
-257.151	-142.739	0.121	0.012
-256.136	26.009	-0.114	-0.093
-255.122	-200.000	0.007	-0.313
-254.107	539.184	0.070	0.163
-253.092	-200.000	0.015	0.270
-252.078	23.538	0.143	0.115
-251.063	-108.080	-0.298	-0.063
-250.049	45.170	0.251	0.227
-249.034	-200.000	-0.044	-0.243
-248.019	32.595	-0.231	-0.196
-247.005	24.698	0.336	-0.273
-245.990	-108.245	-0.096	-0.020
-244.976	-55.230	-0.205	-0.091
-243.961	-59.527	0.042	-0.018
-242.946	-200.000	-0.015	-0.066
-241.932	450.910	0.012	-0.026
-240.917	-95.570	0.146	0.039
-239.903	-22.064	-0.146	-0.087
-238.888	-20.190	0.147	-0.089
-237.873	29.222	-0.145	0.121
-236.859	236.757	-0.211	0.343
-235.844	-100.664	-0.074	-0.018
-234.830	-121.508	0.336	0.055
-233.815	9.761	-0.140	-0.104
-232.800	-37.587	0.113	-0.059
-231.786	800.000	0.005	0.017
-230.771	-17.242	-0.315	-0.195
-229.757	120.404	0.175	-0.213
-228.742	155.059	-0.208	0.281
-227.727	-200.000	0.013	-0.132
-226.713	6.810	-0.244	-0.178
-225.698	85.825	0.258	0.278
-224.684	237.199	0.057	0.093
-223.669	112.249	-0.159	-0.189
-222.655	-81.520	0.261	-0.084
-221.640	89.055	-0.461	-0.504
-220.625	-49.623	0.360	0.168
-219.611	-200.000	-0.030	0.157
-218.596	-200.000	0.017	0.200
-217.582	645.735	0.115	0.288
-216.567	57.001	0.169	0.162
-215.552	458.470	0.146	0.319
-214.538	-200.000	-0.057	0.400
-213.523	612.059	-0.021	0.052
-212.509	-67.378	0.217	0.084
-211.494	-200.000	-0.015	-0.086
-210.479	-68.910	0.094	0.036
-209.465	-47.970	0.199	-0.095
-208.450	-200.000	-0.084	0.365
-207.436	-94.752	0.206	0.055
-206.421	191.704	-0.092	0.136
-205.406	-62.334	-0.464	0.190
-204.392	241.109	0.245	-0.402
-203.377	-200.000	0.005	-0.032
-202.363	800.000	0.066	-0.207
-201.348	-112.706	-0.151	0.030
-200.333	350.166	-0.073	0.141
-199.319	295.238	0.114	-0.205
-198.304	-50.356	0.136	0.063
-197.290	-200.000	0.037	-0.257
-196.275	457.220	-0.162	0.352
-195.260	5.994	0.230	-0.167
-194.246	-200.000	0.048	0.265
-193.231	-171.542	0.232	0.008
-192.217	629.585	0.115	-0.286
-191.202	1.438	-0.049	-0.035
-190.187	-200.000	-0.018	-0.207
-189.173	-42.115	-0.326	0.163
-188.158	162.710	0.097	-0.134
-187.144	92.803	0.166	0.183
-186.129	18.079	-0.122	-0.095
-185.114	109.660	0.236	0.278
-184.100	-6.177	-0.294	0.197
-183.085	-7.004	0.030	-0.020
-182.071	-35.350	0.217	-0.115
-181.056	-49.886	0.254	0.118
-180.042	-173.961	0.413	0.012
-179.027	-1.301	0.195	-0.135
-178.012	-141.873	-0.172	0.017
-176.998	-71.257	0.030	-0.011
-175.983	222.338	0.211	-0.332
-174.969	203.055	-0.066	-0.100
-173.954	15.881	0.119	-0.092
-172.939	-149.712	0.045	-0.003
-171.925	800.000	0.101	-0.376
-170.910	-200.000	-0.058	0.302
-169.896	-200.000	0.057	-0.433
-168.881	25.638	0.264	0.215
-167.866	-150.568	0.149	0.011
-166.852	442.117	-0.036	-0.077
-165.837	-200.000	-0.008	0.053
-164.823	-95.646	-0.303	-0.079
-163.808	468.028	0.136	-0.299
-162.793	45.058	0.055	0.049
-161.779	-200.000	-0.001	0.230
-160.764	-63.955	-0.083	-0.033
-159.750	-85.470	-0.064	-0.020
-158.735	116.266	0.094	-0.113
-157.720	-200.000	0.012	0.181
-156.706	162.834	-0.106	0.146
-155.691	375.402	-0.094	-0.187
-154.677	71.784	0.218	0.222
-153.662	17.531	-0.151	0.118
-152.647	16.098	-0.165	0.127
-151.633	800.000	0.060	0.168
-150.618	280.080	0.149	0.261
-149.604	-200.000	-0.537	0.003
-148.589	567.569	-0.020	-0.048
-147.574	-169.199	-0.136	0.005
-146.560	114.929	0.068	-0.081
-145.545	99.599	0.147	-0.166
-144.531	-200.000	-0.011	0.183
-143.516	-28.712	-0.143	-0.080
-142.502	-4.367	-0.164	-0.111
-141.487	-80.815	0.224	-0.073
-140.472	-66.358	0.067	0.026
-139.458	-200.000	-0.015	0.173
-138.443	-20.185	-0.407	0.245
-137.429	194.644	0.190	0.281
-136.414	17.891	-0.166	0.129
-135.399	152.134	0.181	0.241
-134.385	-200.000	-0.009	-0.118
-133.370	-21.874	-0.170	0.101
-132.356	800.000	-0.103	0.313
-131.341	-81.277	0.108	0.035
-130.326	254.205	0.075	0.126
-129.312	32.231	-0.283	0.238
-128.297	800.000	-0.006	-0.018
-127.283	-142.188	0.259	-0.025
-126.268	9.916	-0.018	-0.014
-125.253	51.522	0.134	0.124
-124.239	-200.000	0.012	0.170
-123.224	-200.000	0.005	-0.127
-122.210	125.063	-0.024	-0.029
-121.195	800.000	-0.064	0.189
-120.180	-200.000	-0.074	-0.322
