DTS Sentinel unit serial number:	SN413079Multiplexer serial number:	ORYXHardware model number:	OX4-SRSoftware version number:	ORYX F/W v4.00 Oryx Data Collector v3.7.2.0data status	okinstallation	princeton_trtdifferential loss correction	single-endedforward channel	channel 1reverse channel	N/Adate	2019/09/16time	10:38:35forward acquisition time	60.00reverse acquisition time	0.00gamma	496.2192k internal	0.2304k external	0.2304temperature offset calibration	0.9963default loss term (dB/km)	0.3790temperature slope calibration	1.0000multiplexer offset coefficient	1.0000multiplexer slope coefficient	1.0000fibre end	0.00T internal ref (°C)	35.73T ext. ref 1 (°C)	12.62T ext. ref 2 (°C)	33.71length (m)	temperature (°C)	Stokes	anti-Stokes-747.200	393.648	0.140	0.297
-746.185	-200.000	0.021	0.227
-745.171	-30.010	0.317	0.184
-744.156	268.548	0.070	0.126
-743.142	132.197	0.222	-0.291
-742.127	38.364	-0.204	0.185
-741.112	800.000	0.081	0.260
-740.098	527.889	-0.121	0.290
-739.083	796.704	0.062	0.174
-738.069	-200.000	0.070	0.376
-737.054	53.515	0.219	0.214
-736.039	-3.301	-0.144	-0.102
-735.025	55.030	0.079	-0.078
-734.010	86.625	-0.186	-0.209
-732.996	-132.612	-0.137	-0.018
-731.981	430.654	-0.231	0.510
-730.966	603.836	-0.140	0.355
-729.952	-53.797	0.196	0.091
-728.937	800.000	0.094	-0.379
-727.923	64.976	-0.213	-0.219
-726.908	-200.000	0.068	0.410
-725.894	43.546	-0.265	-0.247
-724.879	-200.000	0.067	0.311
-723.864	-160.382	0.271	0.015
-722.850	-149.859	0.326	0.026
-721.835	-117.401	-0.143	-0.026
-720.821	-77.721	-0.283	-0.100
-719.806	47.410	-0.223	-0.212
-718.791	25.352	-0.108	0.091
-717.777	34.401	0.015	-0.014
-716.762	-200.000	-0.019	0.152
-715.748	123.923	0.174	-0.222
-714.733	-9.974	0.199	-0.135
-713.718	-163.703	-0.049	0.002
-712.704	-61.917	0.349	-0.149
-711.689	-8.885	-0.189	0.129
-710.675	-29.661	0.120	-0.069
-709.660	-46.833	0.380	0.189
-708.645	-27.022	-0.240	0.142
-707.631	117.747	-0.131	0.163
-706.616	-81.511	-0.179	0.060
-705.602	-161.848	0.210	0.011
-704.587	-158.603	-0.063	-0.004
-703.572	35.979	-0.036	0.032
-702.558	-22.879	0.085	0.052
-701.543	-27.505	-0.147	-0.087
-700.529	7.022	-0.096	-0.073
-699.514	224.093	0.319	0.524
-698.499	-72.883	0.295	-0.110
-697.485	-88.633	0.203	-0.061
-696.470	-200.000	0.058	0.271
-695.456	-200.000	-0.026	-0.121
-694.441	-136.859	-0.125	0.015
-693.426	756.246	0.043	-0.118
-692.412	800.000	0.035	-0.102
-691.397	-127.945	0.413	-0.060
-690.383	36.443	0.335	-0.301
-689.368	386.579	0.096	-0.201
-688.354	62.192	-0.317	-0.321
-687.339	-20.792	0.182	-0.114
-686.324	250.634	-0.041	0.072
-685.310	489.853	0.074	-0.172
-684.295	11.334	-0.143	0.111
-683.281	-200.000	0.030	-0.221
-682.266	35.790	-0.151	-0.135
-681.251	-53.783	0.424	0.196
-680.237	-200.000	-0.011	0.078
-679.222	78.456	0.088	-0.095
-678.208	4.324	-0.206	-0.154
-677.193	-62.641	0.084	-0.035
-676.178	-114.811	-0.189	0.037
-675.164	-127.895	0.221	0.032
-674.149	14.254	-0.117	-0.093
-673.135	-200.000	-0.018	-0.288
-672.120	696.948	0.103	0.276
-671.105	800.000	-0.064	0.217
-670.091	-161.789	-0.098	0.005
-669.076	49.446	0.160	0.153
-668.062	-49.752	0.219	0.106
-667.047	-1.824	-0.106	-0.075
-666.032	67.786	-0.073	-0.076
-665.018	800.000	-0.142	0.411
-664.003	87.546	-0.283	-0.319
-662.989	800.000	-0.060	0.174
-661.974	324.410	0.071	0.137
-660.959	-49.462	0.207	0.100
-659.945	686.168	0.033	0.088
-658.930	220.942	0.162	0.264
-657.916	453.009	-0.060	-0.135
-656.901	-0.581	-0.166	-0.119
-655.886	800.000	-0.063	-0.194
-654.872	-113.570	-0.272	-0.054
-653.857	-200.000	0.031	0.296
-652.843	72.978	-0.313	-0.332
-651.828	800.000	0.069	-0.237
-650.814	-200.000	-0.016	-0.242
-649.799	-96.116	0.231	0.062
-648.784	800.000	-0.092	0.274
-647.770	18.546	-0.206	0.167
-646.755	-200.000	0.013	-0.100
-645.741	94.740	-0.023	0.027
-644.726	-81.535	-0.250	-0.083
-643.711	3.177	-0.031	0.023
-642.697	-112.804	-0.299	0.060
-641.682	-200.000	0.021	0.301
-640.668	-49.194	0.288	0.140
-639.653	6.051	-0.313	-0.235
-638.638	67.642	-0.049	-0.051
-637.624	415.862	-0.162	-0.350
-636.609	-200.000	0.062	-0.310
-635.595	549.781	-0.103	0.250
-634.580	-68.407	0.179	0.071
-633.565	17.604	-0.117	0.094
-632.551	123.981	-0.071	0.091
-631.536	106.335	-0.159	-0.191
-630.522	-200.000	0.054	-0.246
-629.507	353.990	-0.203	0.408
-628.492	-148.584	0.089	0.007
-627.478	316.055	0.036	0.070
-626.463	-36.944	-0.205	-0.111
-625.449	-200.000	-0.019	-0.137
-624.434	-181.336	0.224	-0.004
-623.419	800.000	-0.078	0.239
-622.405	-89.210	-0.124	0.037
-621.390	-86.663	0.304	-0.094
-620.376	163.288	-0.096	-0.136
-619.361	800.000	0.023	0.093
-618.346	692.590	0.061	-0.161
-617.332	28.143	-0.150	-0.129
-616.317	81.602	-0.083	0.091
-615.303	-200.000	0.050	0.457
-614.288	-200.000	0.003	0.179
-613.273	36.801	0.248	-0.222
-612.259	-200.000	-0.013	-0.443
-611.244	424.982	-0.067	0.146
-610.230	-200.000	-0.030	-0.325
-609.215	84.647	0.206	0.229
-608.201	800.000	-0.087	0.361
-607.186	251.918	-0.161	0.278
-606.171	199.407	-0.158	0.246
-605.157	-200.000	-0.037	-0.251
-604.142	268.638	-0.011	-0.020
-603.128	264.493	-0.124	0.219
-602.113	-15.377	0.271	-0.176
-601.098	-13.444	-0.257	0.169
-600.084	220.578	-0.218	0.354
-599.069	-112.734	0.304	-0.061
-598.055	567.349	-0.069	0.169
-597.040	-200.000	0.024	0.348
-596.025	-25.791	0.111	0.066
-595.011	-200.000	0.012	-0.065
-593.996	-17.321	-0.280	-0.179
-592.982	-19.418	-0.232	0.145
-591.967	-79.376	0.063	0.022
-590.952	-34.471	0.398	-0.221
-589.938	-13.855	-0.092	0.060
-588.923	323.788	-0.136	-0.263
-587.909	-56.246	0.216	0.097
-586.894	-69.098	-0.426	-0.166
-585.879	534.394	-0.129	-0.310
-584.865	-28.391	0.164	-0.096
-583.850	-147.895	-0.018	-0.002
-582.836	-23.469	-0.194	-0.118
-581.821	-144.700	-0.252	-0.023
-580.806	800.000	-0.020	0.088
-579.792	358.630	0.011	-0.022
-578.777	-39.750	-0.214	-0.113
-577.763	10.275	0.314	-0.242
-576.748	-17.442	0.231	0.147
-575.733	-200.000	-0.081	0.366
-574.719	800.000	0.031	-0.125
-573.704	-111.882	-0.329	0.067
-572.690	-200.000	-0.030	-0.223
-571.675	-33.136	0.204	0.114
-570.661	-85.130	0.216	0.068
-569.646	-200.000	-0.062	0.286
-568.631	63.122	-0.096	-0.097
-567.617	-126.745	-0.409	-0.061
-566.602	-200.000	-0.065	-0.305
-565.588	530.239	0.155	-0.369
-564.573	-148.744	0.353	0.029
-563.558	-67.433	0.357	-0.142
-562.544	55.160	-0.370	-0.362
-561.529	-59.033	-0.167	-0.073
-560.515	-200.000	0.012	-0.060
-559.500	-200.000	0.015	-0.075
-558.485	-183.134	-0.107	-0.002
-557.471	158.985	0.017	0.024
-556.456	-51.939	-0.168	-0.079
-555.442	667.108	-0.028	0.073
-554.427	-48.068	-0.120	-0.059
-553.412	-150.634	0.273	0.021
-552.398	-10.230	-0.081	0.054
-551.383	-70.134	0.241	-0.093
-550.369	-178.014	-0.271	-0.007
-549.354	800.000	0.048	0.184
-548.339	116.321	-0.104	-0.128
-547.325	-39.545	0.388	0.205
-546.310	157.275	0.162	-0.226
-545.296	-200.000	0.048	0.235
-544.281	-200.000	0.010	0.307
-543.266	398.996	-0.068	0.145
-542.252	18.841	0.379	0.307
-541.237	-200.000	0.015	-0.278
-540.223	345.539	0.092	0.182
-539.208	184.378	-0.132	-0.198
-538.193	143.862	-0.101	-0.136
-537.179	-200.000	0.012	0.057
-536.164	22.256	0.092	-0.076
-535.150	-93.797	-0.300	0.083
-534.135	40.047	-0.056	0.051
-533.121	173.411	0.111	0.161
-532.106	-18.027	-0.076	0.048
-531.091	-67.553	0.092	0.036
-530.077	-117.008	-0.308	-0.057
-529.062	800.000	0.070	0.224
-528.048	185.817	-0.156	-0.235
-527.033	-200.000	0.051	0.342
-526.018	-200.000	0.470	-0.001
-525.004	-142.767	0.409	0.040
-523.989	141.661	-0.088	-0.117
-522.975	277.659	0.130	-0.234
-521.960	-200.000	0.010	0.091
-520.945	-200.000	0.041	0.194
-519.931	-33.562	0.058	0.032
-518.916	800.000	-0.058	-0.224
-517.902	91.629	0.181	0.205
-516.887	765.792	0.104	-0.286
-515.872	-161.812	0.104	-0.005
-514.858	90.987	0.182	-0.205
-513.843	-92.718	-0.275	-0.078
-512.829	108.827	0.233	-0.281
-511.814	-138.011	-0.624	-0.070
-510.799	33.262	-0.113	0.099
-509.785	-200.000	-0.020	0.260
-508.770	-81.925	0.261	-0.086
-507.756	737.970	-0.123	0.334
-506.741	800.000	0.050	0.147
-505.726	70.268	0.272	0.284
-504.712	-43.502	-0.138	0.070
-503.697	800.000	-0.077	0.244
-502.683	7.321	0.342	-0.258
-501.668	-200.000	0.015	-0.227
-500.653	-67.528	-0.177	-0.070
-499.639	246.783	-0.142	-0.242
-498.624	-143.668	-0.169	-0.016
-497.610	672.923	-0.050	-0.131
-496.595	-16.097	-0.089	0.057
-495.581	-200.000	0.007	-0.540
-494.566	-140.601	0.135	-0.014
-493.551	-161.454	-0.077	-0.004
-492.537	-110.384	-0.346	0.072
-491.522	76.244	0.157	0.167
-490.508	-104.287	-0.479	-0.112
-489.493	-200.000	-0.005	-0.222
-488.478	-13.174	0.137	-0.090
-487.464	-146.246	0.132	-0.012
-486.449	800.000	-0.033	-0.116
-485.435	-200.000	0.011	-0.141
-484.420	-28.515	-0.075	-0.044
-483.405	119.144	0.056	0.070
-482.391	240.803	-0.069	-0.116
-481.376	-146.113	0.177	0.016
-480.362	-200.000	-0.060	-0.267
-479.347	354.200	0.153	-0.306
-478.332	48.290	0.096	-0.090
-477.318	-109.164	0.142	0.030
-476.303	-101.127	-0.269	-0.066
-475.289	58.596	0.022	0.022
-474.274	465.339	0.086	-0.194
-473.259	800.000	-0.091	-0.354
-472.245	41.019	-0.225	0.204
-471.230	-99.655	0.194	-0.049
-470.216	-40.556	0.369	-0.193
-469.201	-121.011	-0.262	-0.044
-468.186	-200.000	-0.022	-0.256
-467.172	125.428	0.171	0.217
-466.157	261.574	0.098	0.170
-465.143	72.638	0.146	-0.153
-464.128	-110.039	0.305	0.064
-463.113	-68.745	0.196	0.076
-462.099	323.294	0.104	0.200
-461.084	-200.000	-0.016	-0.159
-460.070	-200.000	0.012	0.135
-459.055	500.868	0.112	0.260
-458.040	-56.912	-0.146	-0.065
-457.026	-142.435	0.232	-0.023
-456.011	-116.532	-0.241	-0.045
-454.997	172.443	-0.102	-0.147
-453.982	-96.860	0.441	0.117
-452.968	-176.652	-0.237	0.006
-451.953	-200.000	0.016	-0.236
-450.938	371.936	0.117	0.239
-449.924	149.539	-0.281	0.384
-448.909	-40.510	-0.023	0.012
-447.895	84.031	0.131	0.145
-446.880	336.360	-0.066	0.129
-445.865	157.020	0.151	-0.210
-444.851	-109.364	-0.095	-0.020
-443.836	7.234	-0.102	0.077
-442.822	-105.109	0.075	-0.017
-441.807	-38.113	-0.083	-0.044
-440.792	-43.281	-0.113	0.058
-439.778	-200.000	-0.031	0.280
-438.763	105.369	0.069	0.082
-437.749	358.914	-0.105	-0.210
-436.734	-93.524	-0.327	-0.091
-435.719	629.197	-0.108	0.274
-434.705	-72.411	0.173	-0.064
-433.690	18.268	-0.204	0.164
-432.676	-200.000	0.055	-0.305
-431.661	24.556	0.421	-0.351
-430.646	-200.000	0.010	-0.240
-429.632	7.658	-0.223	0.168
-428.617	-95.425	-0.216	0.058
-427.603	-18.864	-0.187	0.117
-426.588	49.343	-0.084	-0.079
-425.573	800.000	0.088	-0.265
-424.559	-20.503	-0.274	0.169
-423.544	-67.408	-0.250	-0.099
-422.530	-200.000	0.040	0.421
-421.515	-200.000	-0.007	0.281
-420.500	122.792	-0.207	0.261
-419.486	-134.620	0.165	-0.020
-418.471	-16.688	0.176	-0.112
-417.457	-134.312	-0.153	-0.019
-416.442	-82.543	-0.163	0.053
-415.428	-113.961	0.091	-0.018
-414.413	688.332	-0.082	0.214
-413.398	136.531	-0.128	0.168
-412.384	-200.000	0.076	-0.342
-411.369	-101.043	0.098	0.024
-410.355	-187.724	-0.316	0.004
-409.340	-16.675	0.171	-0.109
-408.325	18.274	-0.071	0.057
-407.311	-154.220	0.170	0.012
-406.296	-28.418	0.158	-0.092
-405.282	167.863	0.116	0.166
-404.267	-200.000	-0.004	0.133
-403.252	5.362	0.165	-0.122
-402.238	1.713	-0.087	0.063
-401.223	546.300	-0.097	0.232
-400.209	-200.000	-0.038	-0.198
-399.194	-20.164	-0.078	0.048
-398.179	-118.536	-0.059	0.011
-397.165	461.022	0.127	-0.284
-396.150	-44.124	0.051	-0.026
-395.136	45.063	-0.271	-0.251
-394.121	-200.000	-0.019	0.168
-393.106	-133.579	0.124	0.016
-392.092	-96.994	-0.235	0.062
-391.077	-7.829	0.284	-0.193
-390.063	-200.000	0.065	0.392
-389.048	-200.000	0.033	-0.485
-388.033	-18.252	-0.180	-0.113
-387.019	-63.110	-0.114	-0.047
-386.004	9.215	-0.118	0.090
-384.990	-200.000	-0.044	-0.264
-383.975	-200.000	0.035	0.330
-382.960	424.613	0.081	0.174
-381.946	-85.873	-0.284	-0.088
-380.931	363.744	-0.030	-0.060
-379.917	160.839	0.272	0.382
-378.902	-138.815	-0.185	-0.020
-377.888	45.771	0.148	-0.138
-376.873	-3.884	0.030	0.021
-375.858	800.000	-0.129	-0.408
-374.844	537.453	0.083	0.198
-373.829	-200.000	0.004	0.061
-372.815	231.776	0.104	0.171
-371.800	-35.072	-0.243	0.133
-370.785	800.000	0.140	0.527
-369.771	-162.705	0.070	0.003
-368.756	-66.199	-0.107	-0.043
-367.742	-152.722	-0.158	-0.011
-366.727	198.818	-0.014	0.022
-365.712	-124.727	0.163	0.025
-364.698	-19.503	-0.039	0.024
-363.683	-200.000	0.003	-0.060
-362.669	-26.398	0.283	0.166
-361.654	-157.842	0.107	-0.006
-360.639	19.770	-0.210	0.169
-359.625	800.000	-0.032	-0.131
-358.610	-100.784	0.204	0.050
-357.596	-100.207	-0.240	-0.060
-356.581	5.883	-0.167	-0.124
-355.566	69.356	0.038	-0.039
-354.552	800.000	-0.053	-0.219
-353.537	5.273	0.199	-0.147
-352.523	0.634	-0.182	0.131
-351.508	-57.861	0.219	-0.096
-350.493	24.999	-0.135	0.113
-349.479	13.312	-0.134	-0.104
-348.464	800.000	-0.083	-0.233
-347.450	277.184	0.207	-0.368
-346.435	26.639	-0.049	0.041
-345.420	-153.569	0.279	0.019
-344.406	124.244	0.306	-0.386
-343.391	290.181	0.085	0.154
-342.377	8.619	-0.255	0.192
-341.362	-200.000	-0.045	-0.247
-340.348	-200.000	0.071	0.367
-339.333	-5.362	0.188	-0.130
-338.318	-200.000	0.025	-0.157
-337.304	-25.533	0.038	0.023
-336.289	-47.727	0.106	0.052
-335.275	797.254	-0.059	0.162
-334.260	-103.344	-0.083	-0.020
-333.245	800.000	-0.071	0.265
-332.231	-200.000	-0.017	-0.235
-331.216	-200.000	0.075	-0.382
-330.202	-29.346	-0.139	-0.080
-329.187	-13.136	0.204	-0.133
-328.172	745.214	0.050	0.134
-327.158	-47.024	-0.164	0.080
-326.143	800.000	0.027	-0.115
-325.129	-200.000	-0.077	-0.383
-324.114	619.773	-0.120	-0.301
-323.099	-64.532	-0.169	-0.069
-322.085	-175.228	-0.015	0.000
-321.070	-109.576	0.205	0.043
-320.056	800.000	0.053	-0.191
-319.041	-42.556	-0.242	-0.124
-318.026	49.488	0.134	-0.126
-317.012	800.000	-0.051	-0.162
-315.997	800.000	0.031	0.107
-314.983	-82.175	0.224	-0.073
-313.968	60.744	0.216	-0.214
-312.953	-147.384	0.562	0.048
-311.939	186.037	0.061	-0.091
-310.924	-33.409	0.206	-0.114
-309.910	-149.600	-0.257	0.020
-308.895	-107.547	-0.125	-0.027
-307.880	-115.901	0.177	-0.033
-306.866	-200.000	0.015	0.127
-305.851	-26.048	-0.170	-0.100
-304.837	-37.553	0.064	-0.034
-303.822	94.080	0.059	0.067
-302.807	-59.526	0.416	-0.179
-301.793	-167.056	-0.164	-0.007
-300.778	-74.260	0.189	-0.068
-299.764	-82.231	-0.107	-0.035
-298.749	-79.175	0.266	-0.090
-297.735	204.049	0.126	-0.195
-296.720	-12.166	0.236	-0.155
-295.705	645.856	-0.089	0.228
-294.691	181.467	0.176	-0.258
-293.676	800.000	0.034	0.119
-292.662	-74.761	-0.109	-0.039
-291.647	-74.157	0.043	0.015
-290.632	184.818	-0.136	-0.201
-289.618	121.419	0.167	-0.208
-288.603	-12.340	0.151	-0.099
-287.589	706.265	-0.131	0.347
-286.574	-57.171	0.069	0.030
-285.559	-200.000	-0.068	0.365
-284.545	-149.126	0.200	0.016
-283.530	-200.000	-0.006	0.096
-282.516	800.000	0.054	0.207
-281.501	-200.000	-0.067	-0.374
-280.486	69.082	0.144	-0.148
-279.472	86.253	-0.272	-0.299
-278.457	30.070	0.138	-0.118
-277.443	238.543	-0.089	0.148
-276.428	-103.922	-0.259	0.060
-275.413	14.936	0.137	-0.107
-274.399	464.631	-0.082	0.184
-273.384	-53.505	-0.151	0.069
-272.370	-55.041	0.239	0.108
-271.355	-93.401	0.264	0.073
-270.340	800.000	0.073	0.203
-269.326	-60.286	0.149	0.063
-268.311	73.865	0.143	0.150
-267.297	15.633	-0.221	-0.174
-266.282	439.985	0.058	-0.128
-265.267	-200.000	0.007	0.123
-264.253	100.819	-0.163	-0.189
-263.238	24.965	0.328	-0.272
-262.224	-200.000	-0.051	-0.260
-261.209	54.295	-0.091	0.088
-260.195	-200.000	-0.051	0.242
-259.180	759.879	-0.093	-0.253
-258.165	427.057	-0.089	0.193
-257.151	-56.636	0.313	0.138
-256.136	72.209	0.247	0.257
-255.122	-15.156	0.099	0.063
-254.107	-200.000	-0.020	0.123
-253.092	-109.919	-0.218	0.046
-252.078	443.795	0.055	0.121
-251.063	-200.000	0.039	0.335
-250.049	-200.000	-0.011	-0.085
-249.034	800.000	-0.084	0.336
-248.019	591.469	-0.084	0.206
-247.005	-200.000	-0.104	-0.509
-245.990	412.999	0.074	0.158
-244.976	-81.447	0.241	0.079
-243.961	-74.023	-0.155	-0.056
-242.946	-25.362	-0.320	-0.189
-241.932	-49.966	-0.186	0.088
-240.917	-200.000	-0.005	0.177
-239.903	-2.259	-0.143	-0.100
-238.888	81.252	0.087	0.094
-237.873	-137.725	-0.351	0.039
-236.859	-119.222	0.037	-0.006
-235.844	-137.542	-0.228	-0.026
-234.830	282.287	-0.109	0.195
-233.815	177.893	-0.096	-0.140
-232.800	-200.000	0.054	0.241
-231.786	-200.000	-0.005	0.203
-230.771	-70.264	0.109	0.041
-229.757	-75.202	0.166	0.059
-228.742	-200.000	-0.083	0.516
-227.727	565.892	-0.064	0.154
-226.713	-83.088	-0.036	-0.012
-225.698	475.649	0.115	0.259
-224.684	-30.264	-0.309	0.175
-223.669	-200.000	-0.019	-0.128
-222.655	-58.869	-0.147	-0.064
-221.640	-64.627	-0.247	-0.100
-220.625	10.195	-0.037	0.028
-219.611	800.000	-0.008	-0.031
-218.596	-200.000	-0.101	0.601
-217.582	57.219	0.126	0.122
-216.567	800.000	0.017	-0.051
-215.552	-81.595	-0.326	0.107
-214.538	-200.000	0.014	-0.373
-213.523	-70.641	-0.238	-0.090
-212.509	-69.924	-0.332	-0.126
-211.494	127.010	0.177	-0.224
-210.479	83.073	-0.164	-0.178
-209.465	138.408	-0.128	0.167
-208.450	-51.522	-0.157	0.073
-207.436	17.165	0.123	-0.097
-206.421	-107.633	-0.127	0.028
-205.406	-200.000	-0.074	-0.353
-204.392	-125.057	-0.057	0.009
-203.377	73.037	-0.219	0.228
-202.363	177.508	-0.132	-0.192
-201.348	23.490	-0.178	-0.146
-200.333	50.500	0.150	-0.141
-199.319	-111.640	0.299	0.060
-198.304	-37.871	0.089	0.047
-197.290	-10.693	0.258	-0.170
-196.275	-28.890	0.304	-0.174
-195.260	-169.057	-0.123	-0.005
-194.246	800.000	-0.096	-0.275
-193.231	85.263	-0.054	0.059
-192.217	-167.812	0.254	-0.010
-191.202	-200.000	-0.028	0.548
-190.187	241.324	0.181	0.301
-189.173	-67.764	0.091	-0.035
-188.158	303.293	0.081	0.149
-187.144	-200.000	-0.008	0.250
-186.129	256.710	0.068	0.117
-185.114	-105.999	0.153	0.034
-184.100	-51.615	-0.139	-0.065
-183.085	201.806	0.173	0.266
-182.071	-46.660	0.144	0.070
-181.056	-136.737	0.518	-0.059
-180.042	-200.000	-0.004	0.084
-179.027	248.712	-0.167	0.281
-178.012	-63.216	0.110	-0.045
-176.998	75.165	0.140	-0.147
-175.983	-200.000	0.041	0.299
-174.969	-200.000	0.056	0.303
-173.954	27.010	-0.272	-0.227
-172.939	-40.071	-0.208	-0.108
-171.925	-98.082	-0.077	0.020
-170.910	-15.543	-0.227	0.144
-169.896	800.000	0.064	0.253
-168.881	-150.261	0.212	-0.016
-167.866	646.311	-0.083	0.212
-166.852	-75.532	0.460	0.163
-165.837	21.293	-0.220	-0.178
-164.823	-162.341	-0.207	0.010
-163.808	-87.240	0.122	0.037
-162.793	-21.309	0.328	-0.199
-161.779	195.108	0.064	-0.097
-160.764	-138.946	-0.197	0.021
-159.750	119.315	0.149	-0.183
-158.735	-62.575	0.254	0.105
-157.720	-40.987	0.236	0.121
-156.706	-67.224	-0.182	-0.071
-155.691	132.687	0.166	0.213
-154.677	-75.049	0.075	-0.027
-153.662	-68.668	0.111	-0.043
-152.647	800.000	-0.095	-0.290
-151.633	-49.560	-0.125	-0.059
-150.618	-79.055	0.355	-0.120
-149.604	378.779	-0.068	-0.138
-148.589	34.480	0.053	0.046
-147.574	-91.192	-0.089	-0.025
-146.560	126.226	0.168	-0.212
-145.545	35.172	-0.185	0.161
-144.531	800.000	-0.044	0.155
-143.516	800.000	0.102	0.295
-142.502	-3.530	0.200	0.139
-141.487	-42.937	-0.122	-0.062
-140.472	-5.059	-0.121	-0.083
-139.458	380.857	-0.057	-0.117
-138.443	27.174	0.290	-0.242
-137.429	-200.000	0.057	0.367
-136.414	349.145	-0.067	-0.132
-135.399	191.248	0.037	0.055
-134.385	-119.307	0.334	-0.058
-133.370	442.769	0.082	0.178
-132.356	-200.000	0.007	-0.125
-131.341	234.674	0.050	0.082
-130.326	293.779	-0.013	-0.023
-129.312	800.000	-0.046	0.147
-128.297	-200.000	0.018	-0.125
-127.283	-122.608	-0.124	0.020
-126.268	200.786	0.011	0.016
-125.253	57.753	-0.070	-0.068
-124.239	-38.696	-0.458	0.240
-123.224	800.000	-0.070	0.225
-122.210	119.505	-0.083	-0.102
-121.195	410.840	0.030	-0.063
