DTS Sentinel unit serial number:	SN413079Multiplexer serial number:	ORYXHardware model number:	OX4-SRSoftware version number:	ORYX F/W v4.00 Oryx Data Collector v3.7.2.0data status	okinstallation	princeton_trtdifferential loss correction	single-endedforward channel	channel 1reverse channel	N/Adate	2019/09/16time	04:18:35forward acquisition time	60.00reverse acquisition time	0.00gamma	496.2192k internal	0.2332k external	0.2332temperature offset calibration	0.9980default loss term (dB/km)	0.3790temperature slope calibration	1.0000multiplexer offset coefficient	1.0000multiplexer slope coefficient	1.0000fibre end	0.00T internal ref (°C)	27.34T ext. ref 1 (°C)	10.78T ext. ref 2 (°C)	21.38length (m)	temperature (°C)	Stokes	anti-Stokes-747.200	-160.791	0.263	-0.014
-746.185	-59.412	-0.496	0.215
-745.171	336.404	0.225	-0.440
-744.156	-52.724	-0.328	0.152
-743.142	-124.311	0.265	0.042
-742.127	71.379	-0.311	0.325
-741.112	-102.641	-0.187	0.045
-740.098	-77.019	-0.026	0.009
-739.083	-200.000	0.049	0.272
-738.069	-56.427	0.140	0.063
-737.054	-200.000	0.035	0.236
-736.039	-176.480	0.224	0.006
-735.025	-200.000	0.044	0.330
-734.010	-143.084	-0.352	0.034
-732.996	-200.000	0.000	0.065
-731.981	-200.000	-0.088	-0.388
-730.966	-85.819	-0.395	-0.123
-729.952	134.096	-0.208	-0.272
-728.937	364.548	0.107	-0.216
-727.923	-15.336	-0.209	-0.135
-726.908	-64.232	0.086	-0.035
-725.894	454.102	0.131	-0.293
-724.879	470.709	-0.103	0.233
-723.864	-168.939	-0.163	0.006
-722.850	160.473	-0.064	0.090
-721.835	-200.000	0.044	-0.201
-720.821	-107.489	-0.149	-0.033
-719.806	-200.000	0.036	-0.164
-718.791	-200.000	0.012	-0.062
-717.777	-96.868	0.307	0.081
-716.762	76.961	-0.197	0.210
-715.748	-171.717	-0.269	-0.009
-714.733	111.763	-0.069	-0.083
-713.718	-200.000	0.082	0.409
-712.704	175.213	0.042	0.061
-711.689	-197.309	-0.263	0.002
-710.675	800.000	0.068	0.282
-709.660	9.044	0.060	-0.046
-708.645	502.497	0.102	-0.238
-707.631	-27.828	-0.285	0.166
-706.616	338.661	-0.082	-0.161
-705.602	-200.000	-0.003	0.046
-704.587	110.249	0.198	0.239
-703.572	-200.000	0.009	-0.202
-702.558	-116.849	-0.217	-0.040
-701.543	-200.000	0.005	-0.085
-700.529	631.651	0.087	-0.221
-699.514	-42.091	-0.163	0.084
-698.499	94.560	0.085	0.097
-697.485	-34.125	-0.361	-0.199
-696.470	-65.886	0.142	-0.057
-695.456	38.216	0.083	-0.074
-694.441	-200.000	-0.019	-0.271
-693.426	470.187	0.052	-0.117
-692.412	7.694	-0.210	-0.158
-691.397	-23.814	0.140	-0.084
-690.383	-200.000	0.018	0.162
-689.368	-163.903	-0.308	0.014
-688.354	800.000	-0.063	-0.202
-687.339	-61.508	-0.173	-0.073
-686.324	-126.507	0.166	-0.025
-685.310	61.716	-0.193	0.193
-684.295	-103.591	-0.014	-0.003
-683.281	800.000	-0.045	-0.167
-682.266	-160.796	0.184	0.010
-681.251	-23.945	-0.311	-0.187
-680.237	206.689	0.075	-0.117
-679.222	-200.000	-0.026	0.122
-678.208	-163.586	-0.310	0.015
-677.193	45.161	-0.169	-0.156
-676.178	65.683	-0.194	-0.197
-675.164	671.513	-0.168	-0.437
-674.149	124.898	-0.223	0.281
-673.135	-154.626	0.178	0.012
-672.120	12.630	-0.291	-0.225
-671.105	-200.000	0.020	0.224
-670.091	-200.000	-0.064	0.417
-669.076	179.441	0.107	-0.157
-668.062	-160.124	0.161	0.009
-667.047	-121.757	-0.453	0.075
-666.032	-18.986	-0.154	0.096
-665.018	337.837	0.088	0.172
-664.003	-200.000	0.003	-0.023
-662.989	-200.000	-0.014	-0.421
-661.974	32.477	-0.172	0.149
-660.959	48.549	-0.080	-0.075
-659.945	-200.000	0.004	-0.228
-658.930	800.000	-0.095	0.316
-657.916	236.311	-0.050	0.083
-656.901	204.423	-0.278	0.432
-655.886	-55.190	0.184	-0.083
-654.872	-24.469	-0.175	0.105
-653.857	13.727	-0.097	-0.075
-652.843	-200.000	-0.039	0.238
-651.828	-200.000	0.034	-0.167
-650.814	800.000	0.089	0.362
-649.799	167.016	0.044	-0.062
-648.784	-39.840	0.047	-0.024
-647.770	800.000	-0.050	0.196
-646.755	-147.360	-0.099	-0.008
-645.741	47.094	-0.078	-0.073
-644.726	248.539	-0.040	0.067
-643.711	410.856	0.261	0.555
-642.697	-32.940	0.230	0.128
-641.682	180.280	-0.272	-0.399
-640.668	-66.689	-0.281	-0.111
-639.653	-169.707	-0.119	0.004
-638.638	-116.248	0.281	0.052
-637.624	360.747	0.106	-0.212
-636.609	-147.710	0.354	0.030
-635.595	30.430	0.117	0.100
-634.580	539.693	-0.128	-0.305
-633.565	22.926	-0.111	-0.091
-632.551	-45.261	-0.134	0.067
-631.536	-28.574	0.079	-0.046
-630.522	105.301	0.191	-0.226
-629.507	-53.149	-0.120	0.055
-628.492	800.000	0.092	0.287
-627.478	800.000	-0.074	-0.231
-626.463	189.665	-0.173	-0.259
-625.449	175.288	0.069	0.101
-624.434	184.822	-0.097	-0.144
-623.419	-144.076	-0.402	-0.038
-622.405	388.912	0.132	-0.274
-621.390	-200.000	0.007	0.212
-620.376	-101.013	-0.118	-0.029
-619.361	-200.000	0.025	-0.134
-618.346	167.943	-0.077	0.110
-617.332	-200.000	0.055	-0.310
-616.317	-200.000	0.003	0.222
-615.303	800.000	-0.035	0.115
-614.288	-138.770	0.060	0.007
-613.273	-200.000	0.016	-0.156
-612.259	-129.420	0.113	-0.016
-611.244	85.631	0.301	-0.331
-610.230	-98.479	-0.309	0.079
-609.215	-27.752	0.219	-0.127
-608.201	-200.000	-0.043	-0.258
-607.186	-44.348	0.371	-0.186
-606.171	26.010	0.100	0.084
-605.157	-138.009	-0.153	0.017
-604.142	569.316	-0.121	0.293
-603.128	704.552	0.029	0.076
-602.113	-102.264	0.396	-0.095
-601.098	-54.549	-0.277	-0.125
-600.084	800.000	0.037	0.105
-599.069	263.332	0.050	0.086
-598.055	-40.505	-0.155	0.080
-597.040	65.478	0.141	0.143
-596.025	229.738	0.103	-0.168
-595.011	393.914	0.051	-0.107
-593.996	-77.516	-0.386	-0.134
-592.982	26.618	-0.131	0.110
-591.967	121.136	0.140	0.175
-590.952	-137.573	-0.267	0.030
-589.938	164.659	-0.106	-0.150
-588.923	44.677	-0.212	0.195
-587.909	120.171	0.108	0.134
-586.894	-147.671	0.269	0.023
-585.879	-103.894	0.276	-0.064
-584.865	-200.000	0.007	-0.084
-583.850	-84.199	-0.473	0.150
-582.836	325.922	0.187	-0.358
-581.821	-50.652	-0.152	-0.072
-580.806	190.375	0.106	0.160
-579.792	0.971	-0.199	-0.143
-578.777	-200.000	-0.038	0.310
-577.763	63.723	0.094	0.094
-576.748	-73.154	0.229	0.084
-575.733	68.827	-0.277	-0.284
-574.719	-39.257	-0.102	0.054
-573.704	78.570	-0.185	-0.197
-572.690	130.620	-0.060	-0.077
-571.675	65.870	0.034	-0.035
-570.661	-200.000	0.013	0.176
-569.646	-200.000	-0.001	0.134
-568.631	-85.648	-0.233	0.072
-567.617	800.000	0.038	-0.114
-566.602	-200.000	-0.002	-0.229
-565.588	-10.192	-0.258	-0.171
-564.573	-136.328	-0.246	0.029
-563.558	102.189	-0.049	-0.058
-562.544	-157.050	0.195	-0.012
-561.529	-200.000	-0.004	0.135
-560.515	-101.624	0.143	-0.035
-559.500	-131.004	-0.236	-0.031
-558.485	-161.488	-0.032	-0.002
-557.471	168.431	-0.119	-0.169
-556.456	-153.045	0.436	-0.031
-555.442	150.392	-0.222	0.301
-554.427	800.000	0.111	-0.455
-553.412	-56.728	-0.093	0.041
-552.398	-120.544	-0.487	-0.082
-551.383	177.308	0.038	-0.056
-550.369	-96.255	-0.286	0.076
-549.354	-79.753	-0.106	-0.036
-548.339	2.735	-0.341	0.247
-547.325	82.383	-0.178	0.193
-546.310	192.168	0.112	-0.168
-545.296	-65.066	-0.244	0.098
-544.281	800.000	0.044	0.137
-543.266	-200.000	-0.038	-0.262
-542.252	-7.878	0.070	-0.047
-541.237	91.904	0.133	0.150
-540.223	-146.382	0.170	-0.015
-539.208	-200.000	0.072	0.372
-538.193	-200.000	0.020	0.095
-537.179	-12.193	-0.083	-0.054
-536.164	55.524	-0.174	-0.168
-535.150	349.240	0.073	-0.143
-534.135	-168.745	0.213	-0.008
-533.121	-19.274	-0.064	0.040
-532.106	-200.000	0.007	-0.186
-531.091	47.239	0.196	-0.182
-530.077	287.349	-0.206	-0.371
-529.062	800.000	-0.080	0.286
-528.048	653.880	0.130	-0.332
-527.033	-99.969	0.202	-0.050
-526.018	800.000	-0.076	0.270
-525.004	-118.345	0.291	0.052
-523.989	-41.329	-0.300	0.154
-522.975	108.556	-0.285	-0.340
-521.960	-1.023	-0.284	-0.200
-520.945	800.000	0.051	0.145
-519.931	-200.000	0.063	0.280
-518.916	21.234	0.079	-0.064
-517.902	-200.000	0.010	-0.119
-516.887	-99.514	0.354	0.089
-515.872	321.377	0.025	-0.047
-514.858	-78.571	-0.222	0.076
-513.843	-200.000	-0.008	0.079
-512.829	-80.272	-0.286	0.095
-511.814	372.783	-0.146	-0.296
-510.799	-27.453	-0.173	0.100
-509.785	403.278	0.106	0.223
-508.770	-14.771	-0.106	-0.068
-507.756	800.000	-0.031	0.123
-506.741	-98.522	-0.295	0.075
-505.726	39.485	-0.212	-0.189
-504.712	386.604	0.179	-0.368
-503.697	-200.000	0.023	-0.108
-502.683	133.445	0.162	-0.209
-501.668	-200.000	-0.037	-0.204
-500.653	-93.354	0.164	0.045
-499.639	-200.000	-0.047	-0.271
-498.624	294.866	-0.049	-0.089
-497.610	800.000	0.027	0.106
-496.595	-92.059	-0.059	-0.017
-495.581	-200.000	0.046	-0.264
-494.566	-120.026	0.130	-0.022
-493.551	-86.690	-0.144	-0.044
-492.537	-38.729	-0.065	-0.034
-491.522	305.509	0.055	0.101
-490.508	-40.146	-0.277	0.144
-489.493	-88.666	0.308	0.091
-488.478	96.320	-0.111	0.126
-487.464	-110.837	-0.291	0.060
-486.449	-200.000	-0.053	0.320
-485.435	-200.000	-0.031	0.318
-484.420	-118.177	0.188	0.033
-483.405	201.605	0.025	-0.038
-482.391	33.203	0.124	-0.107
-481.376	-200.000	-0.034	-0.339
-480.362	-51.599	0.143	-0.066
-479.347	-167.578	-0.131	-0.005
-478.332	191.502	0.088	-0.132
-477.318	-200.000	0.020	0.483
-476.303	-178.327	-0.107	-0.002
-475.289	-200.000	0.024	-0.260
-474.274	-200.000	0.010	-0.095
-473.259	63.394	-0.076	0.075
-472.245	-7.766	0.098	0.066
-471.230	800.000	0.130	0.362
-470.216	-57.347	-0.245	-0.107
-469.201	-105.290	-0.212	-0.048
-468.186	11.958	-0.232	-0.177
-467.172	-79.452	0.293	0.099
-466.157	349.387	0.079	-0.156
-465.143	-200.000	0.003	0.051
-464.128	113.840	-0.144	-0.174
-463.113	800.000	-0.067	-0.271
-462.099	-85.185	-0.231	0.072
-461.084	-200.000	-0.042	-0.378
-460.070	-10.080	-0.105	-0.070
-459.055	800.000	0.015	-0.054
-458.040	-57.259	-0.172	-0.075
-457.026	144.259	0.130	0.173
-456.011	-104.691	-0.123	0.028
-454.997	-158.684	0.292	-0.017
-453.982	800.000	-0.032	-0.117
-452.968	57.188	-0.083	-0.081
-451.953	305.234	0.045	-0.083
-450.938	214.238	0.126	0.199
-449.924	172.426	0.026	0.037
-448.909	50.297	-0.253	0.238
-447.895	451.844	0.103	0.226
-446.880	218.022	-0.071	-0.113
-445.865	-43.578	0.124	-0.062
-444.851	-76.655	-0.260	-0.091
-443.836	137.898	-0.212	-0.277
-442.822	-191.865	0.106	0.001
-441.807	-76.214	0.137	0.048
-440.792	-88.626	-0.183	0.054
-439.778	-32.542	0.240	0.133
-438.763	-68.660	-0.278	0.107
-437.749	-111.249	0.365	0.074
-436.734	22.756	-0.251	0.204
-435.719	352.471	0.106	0.210
-434.705	-75.667	0.193	0.068
-433.690	800.000	-0.065	-0.206
-432.676	198.587	0.112	-0.170
-431.661	-103.749	0.188	0.044
-430.646	-200.000	0.025	0.252
-429.632	800.000	0.007	-0.021
-428.617	206.826	0.038	-0.058
-427.603	-200.000	-0.001	-0.052
-426.588	49.389	0.103	-0.096
-425.573	-43.156	-0.277	0.140
-424.559	-38.626	0.069	-0.036
-423.544	-83.886	0.138	-0.044
-422.530	-200.000	-0.180	-0.000
-421.515	-99.987	-0.036	-0.009
-420.500	102.147	-0.290	0.336
-419.486	26.028	0.134	-0.111
-418.471	-56.488	-0.061	-0.027
-417.457	344.342	0.096	0.187
-416.442	46.928	-0.265	-0.245
-415.428	-200.000	-0.057	-0.263
-414.413	-145.036	-0.053	-0.005
-413.398	3.007	0.161	0.116
-412.384	-70.563	-0.067	-0.025
-411.369	-32.743	0.100	0.055
-410.355	-18.489	0.231	0.143
-409.340	18.717	0.222	-0.176
-408.325	-55.590	0.221	-0.098
-407.311	-121.533	0.124	-0.020
-406.296	-133.312	0.002	0.000
-405.282	10.212	0.153	0.116
-404.267	9.471	-0.302	-0.227
-403.252	800.000	0.098	0.271
-402.238	800.000	0.080	0.240
-401.223	53.099	0.279	0.265
-400.209	-50.096	-0.143	-0.067
-399.194	335.092	-0.068	0.131
-398.179	-200.000	0.024	0.141
-397.165	800.000	-0.037	0.141
-396.150	-200.000	0.008	0.174
-395.136	337.538	-0.092	-0.177
-394.121	800.000	0.058	-0.227
-393.106	-18.475	0.272	0.168
-392.092	47.472	-0.257	0.238
-391.077	72.950	-0.183	0.190
-390.063	800.000	0.144	0.452
-389.048	-27.841	0.114	0.066
-388.033	87.235	0.056	-0.062
-387.019	50.833	-0.250	-0.235
-386.004	-125.603	0.095	0.014
-384.990	50.092	0.034	0.032
-383.975	-67.272	-0.158	0.062
-382.960	800.000	0.048	-0.165
-381.946	-200.000	0.269	0.001
-380.931	-131.299	0.166	0.022
-379.917	-171.480	-0.086	-0.003
-378.902	284.383	-0.065	-0.115
-377.888	383.238	0.075	0.154
-376.873	-145.723	0.161	-0.014
-375.858	-100.819	0.116	0.028
-374.844	110.113	0.082	0.097
-373.829	396.918	-0.126	-0.260
-372.815	44.007	-0.332	0.302
-371.800	-21.798	0.052	-0.032
-370.785	-200.000	0.008	-0.054
-369.771	-200.000	0.051	0.235
-368.756	800.000	0.124	-0.479
-367.742	-128.792	-0.165	-0.023
-366.727	546.125	-0.063	-0.150
-365.712	-127.721	-0.182	-0.026
-364.698	-58.944	0.123	-0.053
-363.683	-200.000	0.014	0.066
-362.669	-97.574	-0.127	0.033
-361.654	23.503	-0.284	0.232
-360.639	-139.520	-0.160	0.017
-359.625	-64.334	-0.331	-0.133
-358.610	281.492	-0.077	0.137
-357.596	-42.101	0.118	-0.060
-356.581	-197.901	0.155	0.001
-355.566	339.955	0.050	0.096
-354.552	29.408	-0.038	0.032
-353.537	-186.498	0.264	-0.004
-352.523	-13.755	0.181	-0.116
-351.508	-105.753	-0.089	-0.020
-350.493	-200.000	-0.003	0.175
-349.479	-129.633	0.357	0.049
-348.464	60.113	0.168	0.164
-347.450	-200.000	-0.028	0.243
-346.435	298.408	0.073	0.134
-345.420	37.491	0.156	0.137
-344.406	-200.000	0.088	-0.563
-343.391	800.000	0.038	-0.117
-342.377	266.416	-0.052	-0.090
-341.362	-145.506	-0.319	0.028
-340.348	-178.905	-0.462	-0.010
-339.333	69.198	-0.019	-0.019
-338.318	-200.000	0.027	-0.204
-337.304	94.542	-0.127	-0.143
-336.289	-200.000	-0.009	0.278
-335.275	165.104	-0.183	0.256
-334.260	-58.343	-0.324	0.139
-333.245	19.935	0.063	-0.050
-332.231	-93.733	-0.188	-0.051
-331.216	515.070	-0.083	0.193
-330.202	-135.675	0.129	0.015
-329.187	631.641	0.062	-0.155
-328.172	800.000	-0.068	-0.292
-327.158	131.953	0.095	0.121
-326.143	148.107	-0.014	-0.018
-325.129	82.963	-0.065	-0.070
-324.114	19.869	-0.076	-0.060
-323.099	-200.000	-0.036	-0.378
-322.085	800.000	-0.179	0.500
-321.070	-159.122	-0.107	-0.006
-320.056	141.094	-0.270	0.353
-319.041	142.660	-0.191	0.252
-318.026	24.836	-0.052	-0.043
-317.012	169.260	0.126	0.178
-315.997	-195.466	0.240	-0.002
-314.983	8.478	-0.165	0.123
-313.968	-67.802	-0.504	0.195
-312.953	-103.281	0.438	-0.102
-311.939	-56.040	0.160	-0.070
-310.924	186.154	-0.242	-0.356
-309.910	800.000	0.048	0.175
-308.895	61.492	0.103	0.101
-307.880	-200.000	-0.012	0.078
-306.866	465.155	0.184	-0.408
-305.851	92.564	-0.100	-0.111
-304.837	-64.912	0.313	-0.125
-303.822	-28.489	0.056	0.032
-302.807	-66.909	0.149	-0.058
-301.793	-164.681	0.137	0.006
-300.778	170.234	0.132	-0.186
-299.764	800.000	0.077	0.238
-298.749	-91.477	0.360	0.102
-297.735	384.264	0.046	-0.094
-296.720	-4.092	0.131	0.090
-295.705	17.486	0.239	-0.188
-294.691	-177.423	0.288	-0.007
-293.676	-200.000	0.031	-0.147
-292.662	181.793	-0.127	-0.185
-291.647	800.000	0.060	0.180
-290.632	800.000	0.101	-0.285
-289.618	-85.106	-0.040	0.013
-288.603	504.701	-0.172	0.392
-287.589	800.000	-0.065	-0.220
-286.574	800.000	-0.073	-0.241
-285.559	-67.324	0.221	-0.086
-284.545	-110.646	-0.372	-0.076
-283.530	201.852	-0.081	-0.123
-282.516	-136.349	-0.192	0.022
-281.501	-80.224	0.221	0.073
-280.486	-171.771	0.253	-0.008
-279.472	-62.699	-0.229	-0.094
-278.457	99.773	-0.197	-0.226
-277.443	184.799	0.255	0.374
-276.428	499.150	-0.182	0.414
-275.413	264.663	0.136	0.234
-274.399	252.665	0.136	-0.229
-273.384	-110.681	-0.151	-0.031
-272.370	1.620	0.356	-0.253
-271.355	-153.716	-0.045	-0.003
-270.340	657.433	-0.136	-0.344
-269.326	-200.000	-0.020	-0.418
-268.311	-17.596	0.115	0.071
-267.297	152.972	-0.105	-0.141
-266.282	-44.733	0.486	0.239
-265.267	-200.000	0.026	-0.207
-264.253	55.870	0.130	0.124
-263.238	431.086	-0.102	0.218
-262.224	313.186	0.147	0.272
-261.209	-89.950	-0.095	-0.027
-260.195	800.000	0.034	0.126
-259.180	-72.077	0.166	-0.061
-258.165	-200.000	-0.006	0.468
-257.151	-22.834	-0.141	0.084
-256.136	64.932	0.134	-0.134
-255.122	-63.955	-0.127	0.051
-254.107	137.819	0.137	0.177
-253.092	-76.986	-0.257	0.089
-252.078	45.145	-0.118	-0.107
-251.063	-200.000	-0.018	-0.185
-250.049	-85.727	0.097	-0.030
-249.034	-143.726	0.221	-0.021
-248.019	-127.115	-0.085	-0.012
-247.005	-99.576	-0.122	-0.030
-245.990	-29.273	-0.184	-0.104
-244.976	800.000	0.040	-0.113
-243.961	78.734	0.205	-0.216
-242.946	286.721	0.092	-0.163
-241.932	466.372	0.152	-0.335
-240.917	-87.922	0.235	-0.070
-239.903	302.869	-0.205	0.374
-238.888	498.556	0.138	0.312
-237.873	224.755	0.154	0.246
-236.859	27.775	-0.226	0.187
-235.844	-64.269	0.339	0.136
-234.830	-200.000	0.040	0.343
-233.815	29.406	0.249	0.209
-232.800	-58.984	0.022	-0.009
-231.786	360.482	0.119	0.234
-230.771	-200.000	0.088	0.406
-229.757	-113.969	0.261	0.050
-228.742	-32.272	0.398	-0.219
-227.727	417.153	0.095	0.201
-226.713	151.376	0.087	0.117
-225.698	-84.314	0.301	0.094
-224.684	-61.974	0.234	0.096
-223.669	210.418	-0.161	0.249
-222.655	-112.205	0.121	0.024
-221.640	-90.672	-0.208	0.059
-220.625	-110.445	-0.188	0.039
-219.611	561.718	-0.097	-0.231
-218.596	40.258	-0.127	-0.113
-217.582	-200.000	0.060	-0.269
-216.567	83.859	0.259	0.278
-215.552	-9.980	-0.249	0.163
-214.538	308.635	-0.041	0.075
-213.523	-41.574	0.204	-0.104
-212.509	296.564	0.074	0.134
-211.494	-139.470	-0.191	0.020
-210.479	-103.117	0.136	-0.032
-209.465	-200.000	-0.033	0.238
-208.450	-31.970	0.176	-0.097
-207.436	7.072	-0.142	-0.104
-206.421	40.736	-0.157	-0.140
-205.406	-7.894	-0.296	0.197
-204.392	55.771	-0.161	0.153
-203.377	308.469	0.139	-0.256
-202.363	9.715	-0.054	0.040
-201.348	278.822	0.101	-0.177
-200.333	-97.996	0.279	0.071
-199.319	-200.000	0.010	0.224
-198.304	43.778	-0.142	0.128
-197.290	800.000	0.090	-0.287
-196.275	215.850	0.149	-0.233
-195.260	-200.000	-0.043	-0.440
-194.246	-50.179	0.066	-0.031
-193.231	117.865	0.104	-0.126
-192.217	-11.148	-0.237	-0.154
-191.202	800.000	0.105	0.296
-190.187	-200.000	0.024	-0.116
-189.173	225.872	-0.045	0.071
-188.158	122.176	0.125	0.154
-187.144	10.759	-0.071	-0.054
-186.129	-159.859	-0.230	-0.012
-185.114	-200.000	-0.004	0.051
-184.100	88.190	0.052	0.057
-183.085	622.335	-0.053	0.131
-182.071	-200.000	0.013	-0.095
-181.056	-200.000	-0.023	-0.164
-180.042	62.082	0.127	-0.124
-179.027	154.002	0.035	-0.048
-178.012	800.000	0.075	-0.260
-176.998	800.000	-0.086	0.317
-175.983	-68.924	0.125	-0.047
-174.969	-200.000	-0.005	-0.176
-173.954	-175.590	0.289	-0.008
-172.939	-112.448	-0.339	0.067
-171.925	800.000	0.047	0.142
-170.910	-200.000	-0.025	-0.261
-169.896	-92.174	0.043	0.012
-168.881	128.619	0.047	-0.059
-167.866	11.530	0.098	-0.074
-166.852	736.202	0.039	0.102
-165.837	-118.483	-0.235	-0.041
-164.823	372.557	0.045	0.089
-163.808	54.723	0.116	-0.110
-162.793	-162.227	-0.223	0.011
-161.779	250.531	-0.116	0.194
-160.764	-31.671	0.391	-0.216
-159.750	-53.785	-0.182	0.082
-158.735	-200.000	-0.084	0.398
-157.720	-41.279	-0.210	0.106
-156.706	42.235	0.263	-0.235
-155.691	-42.800	0.286	0.143
-154.677	-86.789	-0.148	0.044
-153.662	-200.000	-0.002	-0.288
-152.647	168.242	-0.082	0.115
-151.633	-63.923	0.177	0.071
-150.618	-200.000	-0.012	-0.074
-149.604	58.004	0.109	0.105
-148.589	-123.786	0.179	0.028
-147.574	129.587	-0.241	0.303
-146.560	-177.771	0.125	0.003
-145.545	-103.596	0.015	-0.003
-144.531	-200.000	0.001	0.413
-143.516	261.238	-0.086	0.146
-142.502	800.000	0.071	-0.197
-141.487	318.648	0.098	0.182
-140.472	800.000	-0.045	0.132
-139.458	-170.527	-0.288	0.010
-138.443	-41.628	0.217	-0.109
-137.429	-200.000	-0.004	-0.093
-136.414	7.823	0.235	-0.173
-135.399	-200.000	-0.005	0.057
-134.385	15.623	-0.193	-0.149
-133.370	-86.009	0.198	0.060
-132.356	-145.501	-0.124	0.011
-131.341	-200.000	-0.048	-0.300
-130.326	1.108	-0.311	0.219
-129.312	244.248	-0.075	0.123
-128.297	800.000	0.060	-0.205
-127.283	140.275	-0.184	0.238
-126.268	-116.975	0.098	0.018
-125.253	800.000	0.021	-0.059
-124.239	-118.284	-0.142	0.025
-123.224	207.447	0.021	0.032
-122.210	179.798	0.132	0.190
