DTS Sentinel unit serial number:	SN413079Multiplexer serial number:	ORYXHardware model number:	OX4-SRSoftware version number:	ORYX F/W v4.00 Oryx Data Collector v3.7.2.0data status	okinstallation	princeton_trtdifferential loss correction	single-endedforward channel	channel 1reverse channel	N/Adate	2019/09/15time	06:54:35forward acquisition time	60.00reverse acquisition time	0.00gamma	496.2192k internal	0.2325k external	0.2325temperature offset calibration	0.9998default loss term (dB/km)	0.3790temperature slope calibration	1.0000multiplexer offset coefficient	1.0000multiplexer slope coefficient	1.0000fibre end	0.00T internal ref (°C)	30.50T ext. ref 1 (°C)	4.83T ext. ref 2 (°C)	25.52length (m)	temperature (°C)	Stokes	anti-Stokes-747.200	-105.658	0.177	0.041
-746.185	480.615	-0.071	0.161
-745.171	-19.943	-0.268	0.167
-744.156	-104.463	-0.100	-0.023
-743.142	16.077	0.191	0.152
-742.127	46.944	-0.149	0.140
-741.112	800.000	-0.088	-0.374
-740.098	-155.218	-0.216	-0.014
-739.083	800.000	-0.036	0.156
-738.069	-200.000	-0.008	0.150
-737.054	-15.252	0.353	0.228
-736.039	800.000	0.090	0.294
-735.025	-15.303	0.112	-0.072
-734.010	-70.492	-0.373	-0.143
-732.996	3.909	-0.173	-0.128
-731.981	774.743	-0.048	-0.131
-730.966	96.035	-0.145	0.167
-729.952	-200.000	-0.009	0.183
-728.937	800.000	-0.026	-0.099
-727.923	-145.108	-0.329	0.030
-726.908	-152.057	-0.232	-0.017
-725.894	-200.000	-0.331	0.002
-724.879	-82.950	-0.128	0.042
-723.864	51.420	0.187	-0.179
-722.850	800.000	0.032	0.127
-721.835	-53.907	0.178	-0.082
-720.821	-200.000	0.005	-0.174
-719.806	-164.930	-0.818	0.037
-718.791	35.506	-0.190	-0.168
-717.777	800.000	-0.088	0.313
-716.762	-56.164	-0.281	0.126
-715.748	42.955	0.072	-0.066
-714.733	-200.000	0.001	-0.055
-713.718	-69.831	0.080	-0.031
-712.704	-200.000	-0.029	-0.178
-711.689	52.760	-0.060	-0.058
-710.675	295.956	0.103	0.191
-709.660	-149.720	-0.252	0.020
-708.645	-170.944	-0.266	-0.009
-707.631	-56.630	-0.053	-0.024
-706.616	-200.000	-0.021	0.223
-705.602	0.080	-0.309	0.222
-704.587	-200.000	-0.001	-0.004
-703.572	18.097	-0.174	-0.140
-702.558	-62.595	0.610	-0.255
-701.543	234.482	-0.041	0.068
-700.529	72.471	0.176	0.185
-699.514	800.000	0.036	0.120
-698.499	-150.121	-0.182	-0.014
-697.485	110.173	0.208	0.252
-696.470	-4.995	0.168	0.117
-695.456	-65.551	0.204	0.082
-694.441	245.527	-0.114	-0.194
-693.426	-138.807	0.190	-0.021
-692.412	-27.827	-0.251	-0.147
-691.397	651.868	0.187	-0.483
-690.383	800.000	0.094	0.265
-689.368	105.564	-0.187	0.223
-688.354	-5.544	0.223	0.154
-687.339	-7.329	-0.238	-0.163
-686.324	113.706	0.205	-0.251
-685.310	-115.674	-0.150	0.028
-684.295	-200.000	0.010	-0.075
-683.281	-200.000	0.068	-0.383
-682.266	-102.137	0.123	-0.030
-681.251	-97.165	-0.057	-0.015
-680.237	25.523	0.114	-0.095
-679.222	-55.039	-0.314	-0.142
-678.208	297.403	-0.030	0.056
-677.193	-38.192	-0.195	0.104
-676.178	-164.578	0.168	-0.008
-675.164	758.300	0.041	0.111
-674.149	100.405	-0.229	0.268
-673.135	174.766	-0.138	0.202
-672.120	-200.000	0.026	0.191
-671.105	-200.000	-0.015	0.471
-670.091	-40.740	0.230	-0.120
-669.076	-200.000	-0.009	-0.192
-668.062	39.319	-0.026	0.023
-667.047	37.549	-0.272	-0.243
-666.032	-14.115	-0.255	0.166
-665.018	-13.354	-0.315	0.206
-664.003	800.000	0.046	-0.193
-662.989	185.727	-0.128	-0.192
-661.974	-0.353	0.312	-0.223
-660.959	-40.953	-0.202	-0.105
-659.945	-25.891	0.161	0.095
-658.930	-31.164	0.101	0.057
-657.916	49.969	0.252	-0.239
-656.901	-96.964	-0.431	0.114
-655.886	-200.000	-0.035	-0.158
-654.872	141.169	-0.159	-0.211
-653.857	-7.116	-0.049	0.034
-652.843	-200.000	-0.015	-0.145
-651.828	-116.471	-0.371	-0.069
-650.814	-70.652	0.122	0.046
-649.799	72.552	-0.120	-0.125
-648.784	-121.671	-0.078	-0.013
-647.770	376.606	-0.236	-0.484
-646.755	-159.280	-0.559	0.032
-645.741	406.059	0.135	0.286
-644.726	68.136	0.222	0.229
-643.711	-200.000	-0.051	0.406
-642.697	318.509	-0.076	-0.144
-641.682	-200.000	-0.020	0.147
-640.668	-78.378	0.333	0.115
-639.653	-66.218	-0.190	0.076
-638.638	217.936	-0.046	0.073
-637.624	-162.139	0.207	0.010
-636.609	-135.049	-0.064	0.008
-635.595	-125.254	-0.139	0.021
-634.580	152.705	0.287	-0.395
-633.565	-96.324	0.253	0.067
-632.551	-42.508	-0.125	0.064
-631.536	27.299	0.062	0.052
-630.522	-151.089	-0.429	-0.032
-629.507	-111.926	-0.275	0.056
-628.492	67.396	0.069	0.071
-627.478	-59.458	0.170	-0.074
-626.463	-200.000	0.080	-0.464
-625.449	-42.099	0.075	-0.039
-624.434	800.000	0.017	0.073
-623.419	-66.607	0.338	0.135
-622.405	223.413	0.140	-0.226
-621.390	487.380	0.058	0.132
-620.376	491.769	-0.167	0.384
-619.361	-200.000	-0.019	0.169
-618.346	-41.319	-0.093	-0.048
-617.332	-200.000	-0.015	0.130
-616.317	30.470	-0.183	0.157
-615.303	659.411	-0.075	-0.193
-614.288	-200.000	-0.002	-0.026
-613.273	800.000	-0.084	-0.308
-612.259	139.866	-0.132	0.175
-611.244	24.055	0.145	-0.120
-610.230	-2.719	0.114	-0.080
-609.215	-61.757	0.087	0.037
-608.201	-144.091	0.087	0.008
-607.186	334.497	0.109	-0.211
-606.171	-200.000	-0.023	0.298
-605.157	73.659	-0.240	0.253
-604.142	-200.000	-0.037	-0.258
-603.128	-179.186	-0.595	-0.013
-602.113	-200.000	0.013	-0.207
-601.098	-200.000	0.023	-0.335
-600.084	800.000	0.056	-0.157
-599.069	102.968	-0.141	-0.165
-598.055	800.000	-0.039	-0.108
-597.040	239.078	0.128	0.213
-596.025	-41.944	0.101	0.052
-595.011	191.188	0.090	-0.136
-593.996	127.051	-0.096	-0.122
-592.982	109.587	0.179	0.215
-591.967	-94.025	0.162	-0.045
-590.952	-107.524	0.123	0.027
-589.938	-17.955	-0.185	0.116
-588.923	166.086	-0.125	-0.177
-587.909	74.441	0.213	-0.225
-586.894	-20.354	0.113	0.070
-585.879	32.061	-0.258	0.223
-584.865	-4.715	-0.326	-0.226
-583.850	28.734	-0.262	0.222
-582.836	-200.000	-0.022	-0.252
-581.821	-34.824	0.082	0.045
-580.806	10.148	0.179	0.137
-579.792	27.899	-0.227	0.192
-578.777	-200.000	0.004	-0.337
-577.763	-86.017	-0.218	-0.068
-576.748	-200.000	-0.040	0.292
-575.733	416.348	0.051	-0.108
-574.719	-185.517	-0.197	0.003
-573.704	-32.215	-0.386	0.216
-572.690	138.139	-0.031	-0.041
-571.675	-200.000	0.015	-0.210
-570.661	-153.675	0.122	-0.008
-569.646	-45.939	-0.353	-0.175
-568.631	-200.000	0.004	-0.321
-567.617	-86.648	0.120	-0.037
-566.602	800.000	-0.021	-0.083
-565.588	-200.000	0.023	0.107
-564.573	800.000	-0.014	0.055
-563.558	-16.636	0.125	0.079
-562.544	-108.785	-0.314	-0.067
-561.529	-200.000	0.035	0.309
-560.515	-200.000	0.003	0.110
-559.500	-31.858	-0.096	-0.054
-558.485	-34.024	0.231	0.127
-557.471	27.394	-0.275	0.232
-556.456	-90.303	-0.261	0.076
-555.442	64.325	-0.155	-0.156
-554.427	-58.516	0.088	-0.038
-553.412	95.011	0.246	0.281
-552.398	-175.563	-0.184	-0.005
-551.383	142.645	-0.102	-0.135
-550.369	800.000	0.092	0.268
-549.354	-107.632	0.195	0.043
-548.339	-200.000	0.015	0.131
-547.325	-97.431	0.010	-0.003
-546.310	-82.210	-0.125	0.041
-545.296	-189.331	0.282	0.003
-544.281	0.821	0.238	0.171
-543.266	196.175	-0.071	-0.108
-542.252	-99.368	-0.238	0.060
-541.237	-22.019	-0.144	0.088
-540.223	-134.651	-0.288	-0.035
-539.208	6.290	0.238	-0.177
-538.193	10.554	-0.158	-0.121
-537.179	-12.745	0.276	-0.180
-536.164	-140.788	0.227	0.023
-535.150	-200.000	0.000	0.269
-534.135	-127.611	-0.012	0.002
-533.121	800.000	0.053	0.221
-532.106	-136.543	-0.265	0.031
-531.091	112.247	0.123	0.149
-530.077	398.322	0.067	-0.141
-529.062	800.000	0.028	-0.100
-528.048	-104.216	0.100	-0.023
-527.033	-76.385	0.207	0.073
-526.018	214.294	-0.079	0.125
-525.004	800.000	0.054	0.225
-523.989	-142.428	0.076	-0.008
-522.975	114.572	0.246	-0.300
-521.960	140.882	-0.207	-0.273
-520.945	800.000	0.015	0.065
-519.931	165.494	-0.139	0.196
-518.916	93.795	0.101	0.114
-517.902	31.879	-0.094	0.081
-516.887	-107.924	0.250	-0.054
-515.872	800.000	0.062	0.223
-514.858	203.452	0.143	-0.222
-513.843	96.413	-0.100	0.115
-512.829	-200.000	-0.003	0.269
-511.814	800.000	0.080	0.327
-510.799	41.093	0.174	-0.157
-509.785	85.318	0.091	0.100
-508.770	37.931	0.166	0.148
-507.756	726.955	-0.068	0.180
-506.741	800.000	-0.059	0.183
-505.726	-107.055	0.073	-0.016
-504.712	-200.000	0.006	0.223
-503.697	66.670	-0.240	0.244
-502.683	-90.789	-0.055	-0.016
-501.668	26.825	-0.163	-0.136
-500.653	69.549	0.129	0.133
-499.639	-172.949	-0.037	-0.001
-498.624	4.081	0.043	-0.031
-497.610	45.927	0.118	-0.109
-496.595	70.878	-0.156	0.162
-495.581	-161.816	0.110	-0.006
-494.566	-44.040	-0.301	0.151
-493.551	800.000	0.035	-0.109
-492.537	144.964	0.156	0.209
-491.522	-200.000	0.012	-0.161
-490.508	-200.000	0.007	0.063
-489.493	307.403	0.075	0.140
-488.478	-59.952	0.159	-0.068
-487.464	-43.125	-0.319	0.161
-486.449	145.114	0.140	-0.187
-485.435	359.187	-0.018	-0.037
-484.420	-90.455	-0.319	-0.092
-483.405	315.237	0.043	0.081
-482.391	-149.279	0.130	-0.010
-481.376	238.193	0.084	-0.140
-480.362	800.000	0.066	-0.182
-479.347	-66.274	-0.260	-0.103
-478.332	-200.000	0.045	-0.276
-477.318	-200.000	0.019	-0.325
-476.303	-78.520	-0.121	0.041
-475.289	720.622	0.074	-0.198
-474.274	-200.000	-0.038	-0.281
-473.259	82.650	0.405	-0.439
-472.245	-200.000	0.009	0.289
-471.230	-200.000	-0.041	-0.311
-470.216	-195.915	0.259	0.002
-469.201	25.450	0.274	-0.228
-468.186	800.000	-0.024	0.102
-467.172	-200.000	0.015	-0.073
-466.157	-200.000	-0.042	-0.203
-465.143	92.132	-0.060	0.068
-464.128	101.033	-0.123	-0.142
-463.113	60.887	-0.087	-0.086
-462.099	537.381	-0.023	0.055
-461.084	-200.000	0.024	0.133
-460.070	-36.900	-0.262	-0.140
-459.055	-34.447	-0.249	-0.136
-458.040	99.167	-0.259	0.299
-457.026	-139.079	0.151	-0.016
-456.011	-200.000	0.003	0.053
-454.997	-55.510	-0.368	0.165
-453.982	-84.229	0.314	-0.099
-452.968	800.000	0.105	0.431
-451.953	205.136	-0.040	-0.061
-450.938	225.299	-0.125	0.201
-449.924	-47.519	-0.200	-0.097
-448.909	96.922	0.090	0.103
-447.895	-160.903	-0.171	-0.009
-446.880	-19.764	0.101	0.062
-445.865	-86.719	0.044	-0.013
-444.851	-200.000	0.021	0.153
-443.836	246.671	0.175	0.295
-442.822	-173.214	-0.162	0.005
-441.807	605.691	-0.085	-0.211
-440.792	-200.000	0.052	-0.241
-439.778	-200.000	-0.064	-0.457
-438.763	-200.000	-0.004	0.048
-437.749	186.430	-0.218	0.323
-436.734	81.714	0.099	0.107
-435.719	-55.777	-0.113	-0.051
-434.705	769.441	0.087	0.237
-433.690	197.251	0.106	-0.161
-432.676	41.039	0.260	-0.234
-431.661	-90.132	-0.091	-0.027
-430.646	-200.000	-0.039	-0.328
-429.632	278.595	0.056	-0.100
-428.617	647.977	0.026	0.067
-427.603	-38.923	0.094	-0.049
-426.588	-200.000	0.025	-0.146
-425.573	-162.897	-0.390	0.019
-424.559	-200.000	-0.026	-0.384
-423.544	172.613	-0.112	-0.161
-422.530	-92.407	-0.319	0.089
-421.515	800.000	0.050	0.213
-420.500	-200.000	-0.024	0.187
-419.486	-200.000	0.012	-0.056
-418.471	-200.000	0.001	0.132
-417.457	164.952	0.047	0.066
-416.442	-200.000	-0.002	-0.030
-415.428	-200.000	-0.019	0.282
-414.413	47.513	0.194	0.181
-413.398	151.143	-0.209	-0.283
-412.384	688.350	-0.020	-0.053
-411.369	55.417	0.198	-0.191
-410.355	-94.431	-0.267	0.073
-409.340	139.432	-0.269	-0.353
-408.325	-135.103	0.133	0.016
-407.311	-64.233	0.221	0.090
-406.296	-54.455	-0.404	0.182
-405.282	-139.793	0.505	0.053
-404.267	122.318	0.073	0.091
-403.252	-48.480	0.175	0.084
-402.238	-200.000	0.025	-0.242
-401.223	423.087	-0.048	-0.102
-400.209	592.444	0.018	-0.044
-399.194	800.000	-0.086	-0.251
-398.179	-200.000	-0.024	0.175
-397.165	225.601	0.079	0.128
-396.150	92.458	-0.218	0.245
-395.136	130.453	0.399	0.509
-394.121	-54.465	0.148	0.067
-393.106	-200.000	-0.013	-0.216
-392.092	671.600	-0.110	0.283
-391.077	-200.000	0.001	-0.009
-390.063	-160.113	0.130	0.007
-389.048	88.840	-0.129	-0.143
-388.033	518.946	-0.080	0.187
-387.019	-136.326	-0.219	-0.025
-386.004	80.274	-0.110	0.118
-384.990	86.067	0.460	0.504
-383.975	62.128	0.083	0.083
-382.960	-123.963	0.169	0.026
-381.946	13.909	-0.344	-0.266
-380.931	214.658	0.099	-0.157
-379.917	-130.077	0.239	0.033
-378.902	-200.000	0.005	-0.366
-377.888	-141.615	0.324	-0.032
-376.873	-49.436	-0.165	-0.078
-375.858	-200.000	0.035	-0.268
-374.844	221.085	0.032	0.051
-373.829	-200.000	0.005	-0.176
-372.815	52.432	-0.067	0.064
-371.800	206.404	-0.183	0.284
-370.785	-200.000	0.012	-0.090
-369.771	-41.225	-0.120	-0.062
-368.756	29.318	0.145	0.122
-367.742	50.127	-0.093	0.087
-366.727	3.396	-0.252	-0.183
-365.712	250.914	0.151	-0.254
-364.698	213.754	0.288	0.452
-363.683	603.856	0.074	0.183
-362.669	258.225	0.025	-0.042
-361.654	321.653	-0.124	0.235
-360.639	-17.938	0.099	0.062
-359.625	97.152	0.113	-0.129
-358.610	24.873	-0.141	-0.117
-357.596	-41.633	-0.138	-0.070
-356.581	91.018	-0.230	0.256
-355.566	250.297	-0.039	-0.065
-354.552	-88.449	0.109	-0.032
-353.537	-200.000	-0.087	-0.448
-352.523	-200.000	-0.055	0.322
-351.508	39.775	0.086	-0.077
-350.493	-200.000	-0.026	-0.263
-349.479	-200.000	0.027	0.126
-348.464	-171.477	0.132	0.004
-347.450	368.138	-0.029	-0.059
-346.435	-3.001	0.121	0.084
-345.420	42.150	0.042	-0.038
-344.406	145.595	0.116	0.154
-343.391	249.491	0.112	0.189
-342.377	-115.516	0.208	0.039
-341.362	-200.000	0.006	0.349
-340.348	24.774	0.090	-0.074
-339.333	-200.000	0.029	-0.137
-338.318	44.176	0.048	-0.044
-337.304	-86.218	-0.136	0.042
-336.289	48.415	0.071	0.066
-335.275	-121.565	-0.120	-0.020
-334.260	19.389	0.287	0.229
-333.245	-45.831	-0.156	0.077
-332.231	-200.000	-0.063	-0.287
-331.216	291.697	-0.185	-0.335
-330.202	-200.000	0.020	0.206
-329.187	566.902	0.058	0.141
-328.172	74.361	-0.079	0.082
-327.158	-200.000	0.003	-0.049
-326.143	32.387	0.227	0.195
-325.129	-66.111	0.205	-0.081
-324.114	-17.293	-0.454	0.284
-323.099	-127.067	-0.078	0.011
-322.085	5.555	-0.109	-0.080
-321.070	-44.205	0.138	-0.069
-320.056	24.852	0.177	0.145
-319.041	530.633	-0.155	0.362
-318.026	-130.313	-0.100	-0.013
-317.012	-86.695	0.200	0.061
-315.997	239.977	0.094	-0.155
-314.983	-158.018	-0.164	-0.010
-313.968	-4.865	0.174	0.119
-312.953	203.675	0.089	0.137
-311.939	-186.492	0.226	-0.003
-310.924	-103.115	0.187	-0.044
-309.910	800.000	0.084	0.300
-308.895	83.771	-0.111	0.120
-307.880	26.874	-0.022	0.018
-306.866	-97.073	0.250	0.065
-305.851	-200.000	-0.129	0.000
-304.837	166.577	-0.274	-0.385
-303.822	30.706	0.306	-0.259
-302.807	-81.365	0.240	-0.079
-301.793	800.000	-0.032	-0.129
-300.778	8.286	0.090	0.067
-299.764	325.540	0.137	-0.259
-298.749	800.000	0.027	-0.088
-297.735	167.476	-0.024	0.034
-296.720	-3.946	-0.108	-0.074
-295.705	-200.000	0.045	-0.200
-294.691	109.659	-0.048	-0.057
-293.676	341.113	0.205	0.396
-292.662	-10.488	-0.100	-0.066
-291.647	-111.292	0.261	0.053
-290.632	131.959	-0.068	0.087
-289.618	-145.864	-0.058	0.005
-288.603	-200.000	0.097	-0.422
-287.589	-200.000	-0.022	-0.260
-286.574	-16.256	0.095	-0.060
-285.559	148.451	0.182	0.243
-284.545	-21.743	-0.092	0.055
-283.530	254.050	-0.136	-0.230
-282.516	-133.491	-0.251	0.031
-281.501	-37.451	-0.094	-0.050
-280.486	-200.000	-0.022	-0.130
-279.472	-1.353	0.129	0.090
-278.457	35.474	0.140	0.122
-277.443	-200.000	-0.007	0.208
-276.428	356.220	0.040	-0.079
-275.413	-113.101	-0.372	-0.073
-274.399	-200.000	0.031	0.254
-273.384	-134.953	0.368	0.044
-272.370	483.558	-0.034	0.077
-271.355	359.404	0.038	0.076
-270.340	-200.000	-0.013	0.365
-269.326	128.155	-0.073	-0.092
-268.311	-120.180	-0.186	-0.031
-267.297	259.974	-0.093	0.159
-266.282	-200.000	-0.019	0.104
-265.267	74.952	0.096	-0.100
-264.253	108.075	-0.103	-0.121
-263.238	90.005	-0.056	-0.062
-262.224	-106.993	0.210	-0.046
-261.209	-172.824	-0.301	-0.009
-260.195	539.460	0.033	-0.077
-259.180	198.712	0.076	-0.116
-258.165	477.886	0.094	0.210
-257.151	800.000	0.094	0.368
-256.136	-200.000	0.020	-0.307
-255.122	-135.037	-0.034	-0.004
-254.107	4.215	-0.168	0.122
-253.092	-125.480	0.277	-0.042
-252.078	236.376	-0.070	-0.114
-251.063	800.000	-0.013	0.042
-250.049	174.852	-0.166	0.238
-249.034	-158.458	0.346	-0.020
-248.019	-65.106	-0.083	0.033
-247.005	-123.924	0.182	-0.028
-245.990	-46.469	0.146	0.071
-244.976	-69.909	-0.356	0.134
-243.961	800.000	0.024	-0.095
-242.946	-84.362	-0.057	0.018
-241.932	-34.785	-0.277	0.150
-240.917	-106.069	0.148	0.033
-239.903	-70.783	0.275	-0.103
-238.888	800.000	-0.114	-0.448
-237.873	385.408	0.244	-0.497
-236.859	161.996	0.088	0.122
-235.844	800.000	0.032	-0.098
-234.830	218.549	-0.158	-0.249
-233.815	-13.047	0.253	-0.163
-232.800	91.679	-0.163	-0.181
-231.786	-200.000	0.014	0.081
-230.771	19.103	0.101	-0.080
-229.757	330.749	-0.085	-0.163
-228.742	-128.677	0.134	0.019
-227.727	219.651	0.150	-0.237
-226.713	-67.025	0.205	0.080
-225.698	254.395	0.153	-0.258
-224.684	-200.000	-0.015	0.098
-223.669	800.000	-0.017	0.073
-222.655	-108.422	0.314	-0.067
-221.640	64.580	0.105	0.104
-220.625	118.056	0.106	-0.129
-219.611	-91.524	0.288	0.081
-218.596	-183.182	0.233	0.004
-217.582	117.571	0.052	-0.064
-216.567	-5.684	0.126	-0.085
-215.552	78.828	0.118	0.125
-214.538	-74.312	-0.149	0.053
-213.523	122.773	0.020	-0.025
-212.509	-30.730	-0.173	-0.097
-211.494	303.853	-0.020	-0.036
-210.479	-82.894	-0.132	0.042
-209.465	-86.162	0.161	0.049
-208.450	-17.303	0.247	-0.154
-207.436	-140.081	0.335	-0.035
-206.421	800.000	0.053	-0.211
-205.406	143.077	0.224	0.295
-204.392	-9.887	-0.084	0.055
-203.377	800.000	0.026	0.089
-202.363	146.906	-0.168	0.224
-201.348	158.824	0.186	0.255
-200.333	-200.000	0.001	-0.071
-199.319	-99.179	0.096	0.024
-198.304	146.046	0.094	-0.125
-197.290	-67.923	0.389	0.150
-196.275	-87.514	-0.268	0.080
-195.260	-142.642	-0.380	-0.037
-194.246	-52.437	-0.148	0.067
-193.231	42.333	0.090	-0.080
-192.217	-66.146	-0.121	-0.048
-191.202	72.885	-0.065	0.067
-190.187	249.890	-0.270	-0.452
-189.173	58.637	0.200	-0.194
-188.158	-83.138	-0.232	-0.074
-187.144	-174.373	0.168	0.005
-186.129	-185.836	-0.316	0.005
-185.114	-152.987	0.350	0.024
-184.100	-42.241	-0.190	0.096
-183.085	62.277	-0.287	0.283
-182.071	666.558	-0.090	0.229
-181.056	-67.935	0.183	-0.071
-180.042	-200.000	-0.005	-0.060
-179.027	-27.349	0.163	-0.094
-178.012	-121.196	0.117	0.019
-176.998	-73.615	0.183	-0.066
-175.983	-69.485	-0.388	-0.147
-174.969	-45.783	-0.205	-0.100
-173.954	-50.579	-0.166	0.077
-172.939	190.674	-0.154	0.228
-171.925	-32.703	-0.291	0.160
-170.910	-200.000	0.006	-0.098
-169.896	-23.995	-0.324	0.191
-168.881	-0.867	0.045	-0.032
-167.866	145.817	-0.207	-0.274
-166.852	340.070	0.119	-0.228
-165.837	-95.550	0.207	-0.055
-164.823	-65.824	-0.336	-0.132
-163.808	-132.003	-0.099	0.013
-162.793	800.000	0.091	0.349
-161.779	-200.000	0.035	0.202
-160.764	-200.000	-0.038	0.261
-159.750	712.837	-0.093	-0.243
-158.735	54.174	-0.369	-0.350
-157.720	23.287	0.148	-0.120
-156.706	-185.446	-0.214	-0.003
-155.691	-18.014	-0.094	-0.058
-154.677	-3.514	0.108	-0.074
-153.662	800.000	0.043	-0.129
-152.647	-44.499	0.153	-0.075
-151.633	-109.130	-0.218	0.046
-150.618	324.640	-0.185	0.348
-149.604	-200.000	-0.013	0.384
-148.589	-78.336	-0.301	0.102
-147.574	-104.832	-0.197	0.045
-146.560	775.021	0.089	0.239
-145.545	-73.126	-0.299	0.108
-144.531	-138.276	-0.277	-0.030
-143.516	-90.092	-0.369	-0.106
-142.502	170.496	-0.183	-0.258
-141.487	800.000	-0.068	0.265
-140.472	161.845	0.093	0.128
-139.458	27.505	0.171	0.142
-138.443	-200.000	0.035	-0.188
-137.429	-140.741	-0.230	-0.023
-136.414	568.945	0.027	0.064
-135.399	-132.918	0.218	0.027
-134.385	-57.642	0.552	-0.239
-133.370	-79.209	0.286	-0.096
-132.356	454.085	0.097	-0.211
-131.341	52.401	0.228	-0.215
-130.326	-200.000	-0.029	0.188
-129.312	-200.000	0.018	0.109
-128.297	800.000	-0.044	0.169
-127.283	109.067	0.154	-0.181
-126.268	17.581	0.095	0.074
-125.253	145.102	0.069	-0.091
-124.239	800.000	-0.118	0.340
-123.224	212.711	-0.071	0.110
-122.210	-65.270	0.343	-0.136
-121.195	-120.530	0.540	0.090
