DTS Sentinel unit serial number:	SN413079Multiplexer serial number:	ORYXHardware model number:	OX4-SRSoftware version number:	ORYX F/W v4.00 Oryx Data Collector v3.7.2.0data status	okinstallation	princeton_trtdifferential loss correction	single-endedforward channel	channel 1reverse channel	N/Adate	2019/09/12time	01:40:11forward acquisition time	60.00reverse acquisition time	0.00gamma	496.2192k internal	0.2320k external	0.2320temperature offset calibration	1.0079default loss term (dB/km)	0.3790temperature slope calibration	1.0000multiplexer offset coefficient	1.0000multiplexer slope coefficient	1.0000fibre end	0.00T internal ref (°C)	32.87T ext. ref 1 (°C)	2.09T ext. ref 2 (°C)	27.58length (m)	temperature (°C)	Stokes	anti-Stokes-747.200	-87.115	-0.197	-0.061
-746.185	800.000	-0.042	0.171
-745.171	-159.691	0.217	-0.012
-744.156	-103.210	-0.312	0.074
-743.142	549.921	-0.039	0.094
-742.127	-10.645	0.096	0.064
-741.112	-74.559	0.324	-0.118
-740.098	144.847	-0.145	-0.195
-739.083	-156.579	0.316	-0.020
-738.069	135.599	0.306	0.402
-737.054	-44.219	-0.240	-0.122
-736.039	38.318	-0.453	0.407
-735.025	25.779	0.053	-0.045
-734.010	-200.000	-0.328	0.000
-732.996	191.368	-0.172	-0.261
-731.981	286.000	-0.100	0.182
-730.966	-189.226	-0.205	-0.002
-729.952	-132.708	0.228	-0.029
-728.937	172.061	-0.094	-0.136
-727.923	-130.291	0.138	0.019
-726.908	-195.934	0.157	-0.001
-725.894	-200.000	-0.047	-0.474
-724.879	83.170	-0.193	-0.213
-723.864	305.701	0.133	-0.250
-722.850	800.000	-0.143	-0.445
-721.835	115.544	0.057	0.071
-720.821	114.886	0.227	-0.280
-719.806	124.448	-0.127	0.161
-718.791	-161.315	-0.319	-0.017
-717.777	9.571	-0.277	0.212
-716.762	-60.607	0.065	-0.028
-715.748	243.811	0.108	-0.183
-714.733	-106.958	-0.261	-0.058
-713.718	-10.289	-0.099	0.066
-712.704	-71.796	-0.167	0.063
-711.689	98.152	0.133	0.154
-710.675	-30.416	0.085	-0.049
-709.660	562.867	-0.075	0.182
-708.645	-200.000	0.024	-0.163
-707.631	39.875	-0.047	0.043
-706.616	-67.509	0.205	-0.081
-705.602	101.085	0.254	-0.298
-704.587	2.733	-0.062	-0.046
-703.572	-113.403	0.238	0.047
-702.558	82.076	-0.167	0.183
-701.543	109.946	0.100	-0.122
-700.529	800.000	0.085	0.289
-699.514	261.939	-0.180	-0.315
-698.499	-200.000	0.045	0.321
-697.485	-75.237	0.154	-0.055
-696.470	-200.000	-0.074	-0.429
-695.456	592.061	0.056	0.139
-694.441	-200.000	0.028	-0.136
-693.426	-109.533	-0.266	0.057
-692.412	-200.000	-0.003	0.144
-691.397	34.583	-0.183	0.161
-690.383	-200.000	0.002	0.136
-689.368	-26.197	-0.492	-0.291
-688.354	287.115	-0.282	-0.514
-687.339	537.975	0.089	-0.213
-686.324	-68.519	0.021	0.008
-685.310	800.000	-0.076	0.256
-684.295	-151.632	0.184	0.014
-683.281	-28.487	0.116	-0.067
-682.266	-56.372	0.354	-0.159
-681.251	139.789	0.169	-0.224
-680.237	-44.856	-0.226	-0.114
-679.222	800.000	0.046	-0.155
-678.208	90.382	-0.245	0.276
-677.193	119.081	0.201	-0.251
-676.178	466.525	-0.098	-0.222
-675.164	-131.222	0.102	0.014
-674.149	14.791	-0.129	-0.102
-673.135	193.302	-0.024	0.037
-672.120	800.000	0.022	-0.074
-671.105	-200.000	0.010	0.100
-670.091	-61.677	-0.286	-0.121
-669.076	-131.593	0.344	-0.046
-668.062	-200.000	-0.010	0.060
-667.047	182.268	-0.101	-0.150
-666.032	-160.873	0.164	-0.009
-665.018	1.975	-0.178	-0.129
-664.003	-38.033	-0.309	0.165
-662.989	-116.940	-0.157	0.029
-661.974	748.802	0.062	-0.168
-660.959	-200.000	0.010	0.261
-659.945	520.832	-0.063	-0.150
-658.930	-200.000	-0.007	-0.062
-657.916	-200.000	-0.016	-0.100
-656.901	-2.668	-0.219	0.154
-655.886	-1.738	-0.125	-0.089
-654.872	-82.189	0.359	-0.118
-653.857	97.969	0.060	-0.069
-652.843	800.000	-0.098	-0.336
-651.828	-200.000	0.017	0.085
-650.814	63.901	-0.154	0.156
-649.799	800.000	0.114	0.337
-648.784	-0.757	-0.154	0.110
-647.770	224.084	0.172	-0.280
-646.755	243.915	0.138	-0.233
-645.741	270.437	-0.065	-0.115
-644.726	-89.277	-0.230	0.068
-643.711	-154.071	-0.235	0.016
-642.697	800.000	-0.048	-0.159
-641.682	-71.656	0.260	0.098
-640.668	-4.424	0.207	-0.144
-639.653	-200.000	0.015	0.186
-638.638	800.000	-0.074	0.217
-637.624	363.242	0.084	-0.169
-636.609	277.677	0.094	0.169
-635.595	-159.525	-0.163	0.009
-634.580	217.197	0.132	0.212
-633.565	800.000	0.044	-0.144
-632.551	73.721	-0.077	-0.081
-631.536	-200.000	-0.018	-0.392
-630.522	-137.481	-0.156	0.018
-629.507	800.000	0.106	0.357
-628.492	-153.376	0.300	-0.021
-627.478	-6.094	0.158	0.109
-626.463	-200.000	-0.016	-0.188
-625.449	-46.769	0.151	-0.075
-624.434	79.149	-0.143	0.154
-623.419	0.731	-0.174	0.126
-622.405	-13.535	0.137	0.089
-621.390	147.691	0.053	0.071
-620.376	161.913	0.185	0.260
-619.361	41.095	0.176	0.160
-618.346	-41.742	0.264	-0.136
-617.332	-75.997	-0.120	0.043
-616.317	408.988	0.050	0.107
-615.303	12.583	-0.410	-0.318
-614.288	-200.000	0.046	0.210
-613.273	-42.524	0.170	-0.087
-612.259	101.367	0.045	0.052
-611.244	-142.410	-0.343	-0.034
-610.230	155.252	-0.101	-0.139
-609.215	-86.927	-0.073	-0.022
-608.201	-200.000	-0.002	-0.274
-607.186	-6.991	-0.218	0.149
-606.171	-200.000	0.027	0.263
-605.157	292.758	0.106	0.195
-604.142	-19.475	0.122	-0.076
-603.128	-120.544	-0.019	0.003
-602.113	680.713	0.116	-0.304
-601.098	-15.911	0.148	0.094
-600.084	800.000	0.044	0.194
-599.069	22.025	0.219	-0.180
-598.055	-200.000	-0.030	0.240
-597.040	154.781	0.015	-0.021
-596.025	-200.000	-0.000	-0.209
-595.011	-200.000	0.019	0.232
-593.996	720.111	-0.028	0.074
-592.982	-10.812	0.168	-0.112
-591.967	-52.413	-0.152	0.071
-590.952	168.145	0.198	-0.284
-589.938	489.801	0.014	0.033
-588.923	222.322	0.083	0.134
-587.909	603.398	0.069	0.172
-586.894	-200.000	-0.017	-0.117
-585.879	-99.791	0.161	0.040
-584.865	3.501	0.135	0.099
-583.850	-116.073	-0.301	0.056
-582.836	533.654	0.110	-0.261
-581.821	72.935	-0.049	-0.052
-580.806	-200.000	-0.003	0.089
-579.792	-66.322	0.122	-0.049
-578.777	137.187	0.145	0.190
-577.763	800.000	-0.041	0.140
-576.748	800.000	0.085	0.371
-575.733	-111.618	0.405	-0.083
-574.719	-171.355	-0.232	-0.008
-573.704	14.096	-0.206	0.161
-572.690	800.000	-0.020	0.068
-571.675	35.544	-0.202	0.178
-570.661	168.798	0.120	-0.172
-569.646	800.000	-0.104	0.351
-568.631	-200.000	-0.036	0.255
-567.617	-200.000	0.032	-0.307
-566.602	172.509	-0.195	-0.282
-565.588	-153.313	0.311	-0.022
-564.573	-200.000	0.008	-0.179
-563.558	-53.770	0.287	-0.131
-562.544	423.812	0.085	0.184
-561.529	-38.070	0.212	0.113
-560.515	-200.000	0.002	-0.101
-559.500	714.863	0.135	-0.360
-558.485	-89.563	0.173	-0.051
-557.471	800.000	-0.049	-0.199
-556.456	-83.053	-0.534	0.173
-555.442	77.846	0.076	-0.082
-554.427	-181.985	0.223	-0.004
-553.412	-124.198	0.111	0.017
-552.398	-200.000	0.039	-0.233
-551.383	147.929	0.055	0.074
-550.369	-155.766	-0.080	-0.005
-549.354	800.000	0.037	-0.111
-548.339	226.634	0.101	0.165
-547.325	394.110	-0.032	-0.066
-546.310	-79.777	-0.536	-0.181
-545.296	-200.000	0.000	-0.197
-544.281	-3.016	-0.137	0.096
-543.266	-63.829	0.032	0.013
-542.252	-112.619	-0.392	-0.078
-541.237	-39.406	0.071	0.037
-540.223	-106.521	-0.175	0.039
-539.208	158.271	-0.074	0.104
-538.193	-200.000	0.024	-0.168
-537.179	-64.290	0.276	0.113
-536.164	-37.613	-0.278	-0.149
-535.150	-38.751	0.271	0.143
-534.135	-158.680	-0.176	0.010
-533.121	-13.027	0.039	0.025
-532.106	-200.000	0.036	-0.199
-531.091	800.000	-0.050	0.146
-530.077	149.635	0.162	-0.220
-529.062	-122.002	0.240	-0.040
-528.048	113.624	0.247	-0.301
-527.033	80.842	0.071	-0.077
-526.018	44.651	-0.040	0.037
-525.004	-30.963	0.316	-0.179
-523.989	-105.474	-0.103	0.024
-522.975	360.320	0.085	0.171
-521.960	-62.219	0.041	0.017
-520.945	-35.709	-0.065	-0.035
-519.931	-5.144	0.036	0.025
-518.916	-200.000	-0.054	-0.322
-517.902	-0.673	-0.086	-0.061
-516.887	-200.000	-0.003	0.035
-515.872	-110.721	-0.318	-0.066
-514.858	-169.350	0.219	0.008
-513.843	564.455	-0.127	-0.308
-512.829	-69.530	-0.188	-0.072
-511.814	29.630	-0.062	-0.052
-510.799	-16.883	-0.317	-0.201
-509.785	123.737	-0.054	-0.068
-508.770	-143.115	0.234	0.023
-507.756	-157.123	-0.167	-0.010
-506.741	-200.000	0.080	-0.399
-505.726	345.005	-0.085	0.167
-504.712	-200.000	0.001	0.057
-503.697	800.000	0.072	0.234
-502.683	-139.624	-0.192	0.021
-501.668	-200.000	-0.057	0.359
-500.653	71.495	0.121	0.126
-499.639	216.108	-0.045	-0.071
-498.624	37.285	-0.128	0.113
-497.610	-149.076	-0.152	-0.012
-496.595	-12.252	0.058	-0.038
-495.581	125.703	-0.181	0.228
-494.566	-131.290	0.259	-0.034
-493.551	-64.759	-0.152	-0.062
-492.537	800.000	0.046	-0.188
-491.522	123.208	-0.117	-0.146
-490.508	124.085	-0.097	0.122
-489.493	160.967	-0.139	0.195
-488.478	363.458	-0.113	0.227
-487.464	-124.896	-0.149	0.023
-486.449	-200.000	-0.002	-0.049
-485.435	109.969	0.182	-0.218
-484.420	-115.296	0.314	-0.059
-483.405	-83.421	0.224	0.072
-482.391	29.912	-0.120	-0.102
-481.376	800.000	0.024	0.091
-480.362	-200.000	-0.003	0.034
-479.347	-155.559	0.098	-0.006
-478.332	-100.230	0.514	-0.128
-477.318	-148.358	0.301	0.025
-476.303	-200.000	0.007	-0.097
-475.289	-145.913	-0.215	-0.019
-474.274	-14.653	-0.399	-0.257
-473.259	70.237	-0.102	-0.105
-472.245	-139.721	-0.251	-0.027
-471.230	-200.000	-0.006	-0.083
-470.216	800.000	-0.084	0.277
-469.201	800.000	0.070	-0.209
-468.186	-13.842	-0.125	-0.081
-467.172	402.085	-0.085	0.178
-466.157	-200.000	-0.006	0.161
-465.143	396.388	-0.050	0.105
-464.128	-121.208	0.150	0.025
-463.113	-200.000	0.039	0.213
-462.099	152.038	-0.075	0.102
-461.084	-200.000	0.022	-0.371
-460.070	-129.617	-0.061	0.008
-459.055	27.122	0.167	-0.140
-458.040	-69.054	0.240	0.092
-457.026	-22.508	-0.094	-0.057
-456.011	28.634	0.214	0.181
-454.997	-10.323	0.446	0.296
-453.982	-60.711	-0.101	0.043
-452.968	-15.643	0.239	-0.152
-451.953	-100.441	0.050	-0.012
-450.938	-144.749	-0.093	-0.009
-449.924	-66.162	-0.061	-0.024
-448.909	108.265	-0.157	-0.187
-447.895	303.132	0.065	0.120
-446.880	-200.000	0.028	0.320
-445.865	-119.108	0.344	-0.060
-444.851	-200.000	-0.029	-0.430
-443.836	790.134	-0.086	-0.237
-442.822	-106.409	-0.304	0.068
-441.807	-200.000	0.016	-0.089
-440.792	-5.689	-0.336	0.230
-439.778	169.760	-0.146	0.209
-438.763	-200.000	0.018	0.114
-437.749	127.329	-0.085	0.108
-436.734	162.857	0.178	-0.250
-435.719	-133.691	-0.078	-0.010
-434.705	466.169	-0.078	-0.174
-433.690	266.056	0.094	-0.165
-432.676	265.731	-0.133	0.232
-431.661	118.380	0.174	-0.215
-430.646	33.143	-0.215	-0.186
-429.632	77.139	-0.279	0.296
-428.617	40.597	-0.293	0.263
-427.603	113.971	-0.191	0.231
-426.588	-66.326	0.285	0.113
-425.573	85.300	-0.386	-0.423
-424.559	-200.000	0.059	-0.296
-423.544	282.923	-0.051	-0.091
-422.530	-67.771	-0.171	-0.067
-421.515	-200.000	-0.014	0.119
-420.500	800.000	-0.118	0.354
-419.486	800.000	0.178	0.562
-418.471	800.000	-0.059	0.244
-417.457	340.873	0.006	0.012
-416.442	-157.870	0.174	0.010
-415.428	350.748	-0.150	-0.296
-414.413	-15.308	0.209	-0.134
-413.398	84.143	-0.184	0.200
-412.384	274.135	0.137	0.242
-411.369	14.933	0.208	0.162
-410.355	-80.035	0.278	-0.093
-409.340	213.179	0.026	-0.041
-408.325	130.846	-0.113	0.145
-407.311	-103.442	0.241	-0.057
-406.296	56.445	0.213	-0.206
-405.282	-46.275	-0.075	0.037
-404.267	409.565	-0.102	0.216
-403.252	-200.000	0.000	-0.289
-402.238	-150.783	0.366	-0.028
-401.223	-66.334	0.246	-0.098
-400.209	28.180	-0.112	0.094
-399.194	-55.867	0.148	-0.066
-398.179	-93.786	0.169	-0.046
-397.165	-200.000	-0.006	0.076
-396.150	-200.000	0.094	-0.522
-395.136	800.000	-0.005	0.014
-394.121	236.326	0.083	-0.137
-393.106	-44.420	-0.187	-0.093
-392.092	-41.490	-0.042	-0.022
-391.077	-200.000	0.002	-0.250
-390.063	-29.416	-0.060	0.034
-389.048	800.000	0.025	0.080
-388.033	-129.255	0.373	-0.052
-387.019	146.799	0.084	-0.113
-386.004	-136.214	-0.064	0.007
-384.990	-170.583	0.453	-0.016
-383.975	19.022	-0.284	0.227
-382.960	-73.328	0.040	-0.014
-381.946	-109.719	-0.187	-0.039
-380.931	115.366	0.131	0.159
-379.917	-69.137	0.513	-0.197
-378.902	-141.974	-0.110	0.011
-377.888	-158.867	0.422	0.024
-376.873	399.241	0.076	0.158
-375.858	68.350	0.338	-0.345
-374.844	-99.495	0.356	-0.089
-373.829	800.000	0.077	-0.259
-372.815	-67.679	-0.168	-0.065
-371.800	800.000	-0.047	-0.156
-370.785	-200.000	-0.067	-0.333
-369.771	-21.934	-0.127	0.077
-368.756	-159.662	-0.063	0.003
-367.742	160.289	0.081	0.113
-366.727	-139.278	-0.066	-0.007
-365.712	262.189	0.087	0.150
-364.698	613.171	-0.187	-0.465
-363.683	-42.491	0.400	-0.203
-362.669	-200.000	0.000	0.008
-361.654	404.273	0.162	-0.340
-360.639	800.000	0.045	0.195
-359.625	127.911	0.236	0.299
-358.610	239.926	0.095	0.158
-357.596	162.508	0.029	0.040
-356.581	117.976	-0.103	-0.126
-355.566	-5.414	0.135	0.092
-354.552	-200.000	-0.053	0.294
-353.537	57.713	0.264	-0.258
-352.523	22.300	-0.275	0.223
-351.508	-200.000	-0.012	0.483
-350.493	342.377	0.055	0.107
-349.479	41.894	0.214	-0.193
-348.464	732.802	-0.144	0.383
-347.450	800.000	-0.039	-0.147
-346.435	800.000	0.079	0.283
-345.420	46.324	0.049	-0.046
-344.406	-200.000	-0.014	-0.061
-343.391	-116.145	-0.080	0.015
-342.377	-140.759	-0.307	-0.032
-341.362	-170.462	0.181	0.006
-340.348	90.157	-0.071	0.079
-339.333	-91.439	-0.171	-0.049
-338.318	201.891	0.204	-0.313
-337.304	465.776	0.154	-0.344
-336.289	79.793	0.060	-0.064
-335.275	-133.792	0.300	-0.037
-334.260	-200.000	-0.029	-0.236
-333.245	-138.849	0.086	0.009
-332.231	-103.349	-0.187	0.044
-331.216	622.637	0.081	-0.202
-330.202	25.650	-0.102	0.084
-329.187	-49.246	-0.056	0.027
-328.172	-200.000	-0.001	-0.066
-327.158	48.321	-0.127	-0.119
-326.143	155.607	-0.108	0.149
-325.129	170.136	0.140	0.200
-324.114	-200.000	-0.001	0.360
-323.099	800.000	0.112	0.344
-322.085	-115.244	0.125	0.024
-321.070	-175.907	-0.440	-0.012
-320.056	800.000	-0.091	-0.286
-319.041	-67.258	0.327	-0.128
-318.026	-38.568	0.111	0.058
-317.012	-28.092	0.211	0.121
-315.997	735.204	-0.075	-0.201
-314.983	-63.327	0.238	0.097
-313.968	800.000	0.027	-0.105
-312.953	65.491	-0.112	0.113
-311.939	-200.000	0.035	0.417
-310.924	800.000	-0.030	0.105
-309.910	800.000	0.057	0.224
-308.895	-200.000	-0.077	0.426
-307.880	-59.096	-0.167	-0.072
-306.866	800.000	0.102	-0.296
-305.851	-20.864	0.132	-0.080
-304.837	-200.000	0.027	0.269
-303.822	174.229	0.090	-0.129
-302.807	-99.704	0.174	-0.043
-301.793	-23.850	-0.314	-0.187
-300.778	23.166	-0.055	0.045
-299.764	-136.800	-0.088	-0.010
-298.749	-200.000	0.014	-0.174
-297.735	2.797	0.293	-0.211
-296.720	-43.807	0.274	-0.137
-295.705	84.684	0.128	0.139
-294.691	-200.000	-0.055	0.289
-293.676	-101.766	0.444	0.107
-292.662	-144.206	-0.492	0.046
-291.647	-88.452	-0.148	-0.044
-290.632	-143.088	-0.091	-0.009
-289.618	-87.482	-0.098	0.030
-288.603	-169.692	0.113	0.004
-287.589	213.501	0.104	-0.164
-286.574	397.881	-0.071	-0.148
-285.559	-132.124	-0.307	-0.040
-284.545	147.342	-0.067	-0.089
-283.530	-200.000	0.028	0.181
-282.516	-200.000	0.015	-0.144
-281.501	-187.998	-0.169	-0.002
-280.486	25.934	-0.243	0.201
-279.472	-75.837	-0.190	0.067
-278.457	-135.907	-0.280	0.033
-277.443	-118.562	-0.377	-0.066
-276.428	800.000	-0.056	-0.179
-275.413	7.811	-0.162	-0.121
-274.399	141.483	0.243	-0.320
-273.384	-200.000	0.027	0.177
-272.370	-74.589	0.144	0.052
-271.355	255.846	-0.200	0.341
-270.340	87.447	0.043	-0.047
-269.326	31.990	-0.115	-0.098
-268.311	800.000	-0.041	0.145
-267.297	74.727	-0.119	-0.124
-266.282	-44.822	-0.069	0.034
-265.267	-200.000	-0.011	0.389
-264.253	-42.520	-0.107	0.054
-263.238	173.611	-0.178	0.256
-262.224	-174.549	-0.118	-0.003
-261.209	178.733	-0.197	0.285
-260.195	-200.000	0.005	0.112
-259.180	-163.577	0.163	0.008
-258.165	46.164	-0.191	0.175
-257.151	-200.000	0.031	-0.359
-256.136	-200.000	0.013	-0.142
-255.122	-12.462	0.201	-0.130
-254.107	800.000	-0.069	-0.282
-253.092	800.000	0.008	-0.027
-252.078	-200.000	-0.035	-0.171
-251.063	-69.926	0.374	-0.141
-250.049	-30.463	-0.194	-0.109
-249.034	168.838	-0.198	0.281
-248.019	-97.684	-0.338	0.087
-247.005	181.916	-0.254	0.370
-245.990	318.827	-0.186	0.350
-244.976	800.000	-0.057	0.219
-243.961	800.000	0.012	-0.050
-242.946	106.229	-0.128	0.150
-241.932	710.673	0.053	0.138
-240.917	12.147	-0.168	-0.128
-239.903	307.314	-0.166	-0.307
-238.888	-8.346	-0.199	0.132
-237.873	82.233	0.127	-0.137
-236.859	183.675	-0.071	0.105
-235.844	-200.000	-0.005	0.203
-234.830	800.000	-0.072	-0.231
-233.815	43.012	0.193	-0.174
-232.800	332.771	-0.077	0.147
-231.786	45.276	-0.159	0.146
-230.771	-96.819	0.297	-0.077
-229.757	-136.566	-0.280	0.032
-228.742	-171.841	-0.295	0.010
-227.727	193.789	0.127	-0.190
-226.713	-62.523	0.416	-0.171
-225.698	-45.009	-0.115	-0.057
-224.684	-142.344	-0.306	0.030
-223.669	-101.172	0.365	-0.089
-222.655	-82.050	0.236	-0.076
-221.640	800.000	0.059	0.211
-220.625	-200.000	0.012	-0.165
-219.611	-45.711	0.168	-0.082
-218.596	-65.642	0.130	-0.051
-217.582	-200.000	0.067	0.000
-216.567	310.106	-0.101	-0.187
-215.552	88.216	-0.254	0.279
-214.538	621.301	-0.169	-0.421
-213.523	-1.483	-0.215	-0.150
-212.509	-200.000	0.011	0.348
-211.494	-200.000	0.001	0.333
-210.479	-17.783	-0.391	0.243
-209.465	-200.000	0.004	0.229
-208.450	113.070	0.284	0.341
-207.436	-200.000	-0.031	0.269
-206.421	800.000	-0.041	0.156
-205.406	-46.573	0.028	0.013
-204.392	800.000	0.030	-0.099
-203.377	191.767	0.091	0.135
-202.363	-64.174	0.166	0.067
-201.348	717.064	0.216	0.567
-200.333	3.699	0.117	-0.084
-199.319	200.801	-0.034	-0.051
-198.304	116.483	0.119	-0.145
-197.290	-42.877	-0.263	-0.132
-196.275	-140.775	0.342	0.035
-195.260	375.539	-0.084	0.169
-194.246	692.571	-0.139	0.361
-193.231	-200.000	-0.085	0.496
-192.217	-104.148	-0.126	-0.029
-191.202	-200.000	0.057	-0.413
-190.187	-71.110	-0.258	-0.096
-189.173	-63.028	-0.109	0.044
-188.158	-200.000	-0.024	0.118
-187.144	37.535	0.080	0.070
-186.129	-200.000	-0.017	-0.096
-185.114	-159.998	0.059	-0.003
-184.100	479.297	-0.135	-0.304
-183.085	323.420	0.166	-0.314
-182.071	-200.000	0.065	-0.418
-181.056	-2.170	-0.220	0.153
-180.042	246.829	-0.017	-0.028
-179.027	-148.336	-0.101	0.008
-178.012	445.470	-0.130	-0.283
-176.998	800.000	-0.051	-0.142
-175.983	405.098	-0.016	0.033
-174.969	800.000	0.034	0.114
-173.954	-200.000	-0.022	-0.325
-172.939	-46.938	0.402	0.194
-171.925	243.715	0.134	0.223
-170.910	66.513	0.094	-0.095
-169.896	-91.386	-0.484	-0.137
-168.881	55.416	-0.213	0.204
-167.866	800.000	0.080	-0.338
-166.852	431.219	-0.139	-0.297
-165.837	-200.000	-0.043	-0.222
-164.823	-54.344	-0.163	-0.073
-163.808	250.828	-0.063	-0.105
-162.793	4.774	-0.258	0.187
-161.779	494.083	-0.085	0.193
-160.764	19.055	-0.119	-0.094
-159.750	-121.647	-0.221	-0.036
-158.735	64.689	0.171	-0.171
-157.720	-36.617	-0.116	-0.062
-156.706	-200.000	0.010	0.284
-155.691	-190.891	-0.180	-0.002
-154.677	800.000	0.058	-0.231
-153.662	-112.865	0.304	-0.059
-152.647	573.164	-0.101	0.243
-151.633	10.246	-0.070	0.052
-150.618	-200.000	0.004	-0.120
-149.604	27.086	0.259	0.215
-148.589	-200.000	0.000	0.032
-147.574	800.000	-0.120	-0.375
-146.560	-53.302	0.206	0.093
-145.545	-99.560	0.293	-0.073
-144.531	90.856	-0.062	-0.069
-143.516	-40.768	-0.197	0.101
-142.502	312.670	-0.060	-0.112
-141.487	-200.000	-0.009	-0.216
-140.472	-100.327	-0.272	-0.067
-139.458	-0.170	0.315	-0.221
-138.443	800.000	-0.061	0.248
-137.429	-200.000	0.073	-0.367
-136.414	-103.548	0.168	0.039
-135.399	147.630	0.223	0.297
-134.385	-66.564	0.140	0.055
-133.370	34.000	0.204	0.175
-132.356	60.910	-0.180	-0.177
-131.341	-94.210	-0.473	-0.128
-130.326	-200.000	0.016	0.202
-129.312	-69.281	0.279	-0.106
-128.297	800.000	-0.038	-0.123
-127.283	2.115	-0.137	-0.098
-126.268	-87.839	-0.175	-0.052
-125.253	-200.000	0.021	-0.129
-124.239	-99.951	0.263	0.065
-123.224	743.679	-0.076	-0.201
