DTS Sentinel unit serial number:	SN413079Multiplexer serial number:	ORYXHardware model number:	OX4-SRSoftware version number:	ORYX F/W v4.00 Oryx Data Collector v3.7.2.0data status	okinstallation	princeton_trtdifferential loss correction	single-endedforward channel	channel 1reverse channel	N/Adate	2019/09/18time	03:50:35forward acquisition time	60.00reverse acquisition time	0.00gamma	496.2192k internal	0.2339k external	0.2339temperature offset calibration	0.9977default loss term (dB/km)	0.3790temperature slope calibration	1.0000multiplexer offset coefficient	1.0000multiplexer slope coefficient	1.0000fibre end	0.00T internal ref (°C)	23.02T ext. ref 1 (°C)	0.17T ext. ref 2 (°C)	18.06length (m)	temperature (°C)	Stokes	anti-Stokes-747.200	800.000	-0.070	0.262
-746.185	-170.281	-0.375	0.013
-745.171	757.826	-0.111	0.300
-744.156	-0.437	-0.274	-0.195
-743.142	-118.202	-0.367	-0.066
-742.127	800.000	-0.131	0.380
-741.112	9.640	0.132	0.101
-740.098	-200.000	-0.032	0.165
-739.083	-69.973	-0.205	-0.078
-738.069	-106.524	-0.069	0.015
-737.054	-55.296	0.234	0.106
-736.039	117.179	-0.205	0.253
-735.025	325.664	0.034	0.066
-734.010	-93.498	0.120	0.033
-732.996	677.774	-0.050	0.130
-731.981	47.699	0.456	0.426
-730.966	-138.850	0.087	-0.009
-729.952	-2.865	0.099	0.069
-728.937	-122.383	-0.342	0.056
-727.923	-47.496	0.372	-0.181
-726.908	-89.822	0.034	0.010
-725.894	-78.540	-0.175	0.060
-724.879	-161.133	-0.349	-0.018
-723.864	-195.326	-0.015	-0.000
-722.850	-0.260	0.039	-0.028
-721.835	124.360	-0.164	-0.206
-720.821	-38.918	-0.264	-0.139
-719.806	-200.000	-0.009	-0.374
-718.791	-29.136	-0.330	0.190
-717.777	-0.509	-0.105	0.074
-716.762	178.834	-0.057	-0.083
-715.748	49.538	0.217	0.204
-714.733	301.779	-0.107	0.198
-713.718	128.008	0.069	-0.088
-712.704	194.460	-0.031	-0.047
-711.689	-91.499	0.096	0.028
-710.675	221.204	-0.180	0.289
-709.660	22.101	0.213	-0.174
-708.645	-37.697	-0.152	0.081
-707.631	-200.000	-0.029	0.255
-706.616	433.567	-0.054	-0.117
-705.602	158.867	-0.007	0.009
-704.587	-200.000	0.042	-0.279
-703.572	-90.984	-0.061	0.018
-702.558	-108.722	-0.269	0.058
-701.543	-200.000	-0.043	0.246
-700.529	-90.235	-0.115	-0.034
-699.514	-200.000	-0.000	0.314
-698.499	-200.000	0.034	0.373
-697.485	418.315	-0.226	-0.484
-696.470	242.144	-0.189	-0.316
-695.456	800.000	0.093	-0.292
-694.441	46.553	-0.075	0.070
-693.426	2.486	0.126	0.091
-692.412	-200.000	0.007	0.144
-691.397	365.629	0.078	0.156
-690.383	124.239	-0.017	0.022
-689.368	-200.000	-0.007	0.042
-688.354	128.947	0.040	-0.051
-687.339	-4.616	0.213	0.147
-686.324	-74.946	-0.375	0.134
-685.310	89.588	-0.020	-0.023
-684.295	-200.000	-0.010	0.273
-683.281	-74.525	-0.178	-0.064
-682.266	-7.989	-0.132	0.089
-681.251	-200.000	-0.021	0.236
-680.237	800.000	-0.040	-0.173
-679.222	-143.454	-0.154	0.015
-678.208	-200.000	-0.065	0.398
-677.193	205.999	-0.183	-0.285
-676.178	-89.659	-0.087	0.026
-675.164	-200.000	0.000	0.089
-674.149	-139.025	-0.274	-0.030
-673.135	-22.469	0.196	0.119
-672.120	-200.000	-0.076	-0.546
-671.105	165.303	-0.154	-0.218
-670.091	-200.000	-0.024	-0.323
-669.076	317.276	0.195	0.368
-668.062	288.725	0.206	0.373
-667.047	10.581	-0.347	-0.265
-666.032	502.548	0.155	0.359
-665.018	112.394	0.264	-0.319
-664.003	362.626	0.141	-0.283
-662.989	-19.178	0.234	0.145
-661.974	240.919	0.040	-0.067
-660.959	800.000	-0.050	0.166
-659.945	75.562	0.040	0.043
-658.930	36.685	-0.289	-0.255
-657.916	800.000	0.051	-0.206
-656.901	-19.815	0.124	-0.077
-655.886	-113.395	-0.240	-0.047
-654.872	17.687	-0.248	-0.197
-653.857	-56.170	-0.272	-0.121
-652.843	-1.136	-0.224	-0.158
-651.828	15.616	-0.195	-0.153
-650.814	-84.413	0.118	0.037
-649.799	800.000	0.051	0.186
-648.784	48.060	0.163	-0.152
-647.770	-84.210	-0.165	-0.052
-646.755	800.000	-0.013	0.054
-645.741	-90.380	-0.305	-0.088
-644.726	-173.909	0.200	-0.006
-643.711	-136.223	-0.164	0.019
-642.697	-200.000	0.020	-0.127
-641.682	-132.144	0.162	-0.021
-640.668	62.162	0.187	-0.186
-639.653	-200.000	0.031	-0.142
-638.638	-112.232	-0.230	-0.046
-637.624	800.000	0.107	-0.407
-636.609	-23.058	-0.351	0.211
-635.595	-200.000	-0.084	-0.372
-634.580	-156.423	0.327	0.020
-633.565	-200.000	-0.036	-0.295
-632.551	140.494	0.059	-0.077
-631.536	216.006	-0.018	0.028
-630.522	-86.870	-0.185	-0.056
-629.507	800.000	-0.058	-0.168
-628.492	-200.000	-0.096	-0.439
-627.478	-121.354	0.091	-0.015
-626.463	-51.569	-0.051	-0.024
-625.449	-118.921	-0.044	-0.008
-624.434	-131.247	0.093	0.012
-623.419	478.263	0.134	-0.303
-622.405	-105.229	0.090	-0.021
-621.390	-36.164	-0.125	0.067
-620.376	231.720	0.138	-0.227
-619.361	-200.000	0.001	-0.056
-618.346	308.196	-0.178	-0.331
-617.332	-163.704	0.257	0.012
-616.317	108.548	-0.271	-0.323
-615.303	135.340	0.037	-0.048
-614.288	280.044	0.117	-0.209
-613.273	-32.775	0.174	0.096
-612.259	-33.325	-0.330	-0.182
-611.244	3.807	0.168	0.122
-610.230	271.611	-0.068	0.120
-609.215	-35.020	0.074	-0.040
-608.201	160.714	-0.066	0.091
-607.186	-59.840	-0.061	0.026
-606.171	800.000	-0.035	0.151
-605.157	-200.000	0.072	0.350
-604.142	-134.570	-0.283	-0.034
-603.128	101.947	0.099	0.115
-602.113	-55.817	0.210	0.093
-601.098	310.917	-0.187	0.350
-600.084	-152.771	-0.256	0.018
-599.069	-153.589	0.058	-0.004
-598.055	800.000	0.095	0.296
-597.040	59.131	-0.158	0.155
-596.025	-200.000	0.003	-0.059
-595.011	753.175	0.183	0.494
-593.996	75.202	0.078	0.082
-592.982	123.324	-0.124	0.155
-591.967	800.000	-0.043	0.143
-590.952	190.844	-0.015	-0.023
-589.938	-69.023	-0.280	0.108
-588.923	-2.381	-0.467	-0.327
-587.909	-200.000	-0.034	-0.276
-586.894	-12.733	-0.120	-0.078
-585.879	214.298	-0.086	0.136
-584.865	717.131	-0.237	0.627
-583.850	153.531	-0.206	0.282
-582.836	-200.000	0.001	-0.060
-581.821	-46.211	0.207	0.101
-580.806	-174.949	-0.031	-0.001
-579.792	-46.734	0.176	-0.086
-578.777	-129.169	-0.293	-0.041
-577.763	-40.086	-0.207	0.107
-576.748	40.539	-0.098	0.088
-575.733	-161.492	0.104	-0.005
-574.719	-200.000	-0.035	-0.372
-573.704	-107.466	-0.098	-0.021
-572.690	706.205	0.024	0.063
-571.675	37.386	0.099	0.087
-570.661	-200.000	-0.041	0.233
-569.646	-14.883	0.043	-0.028
-568.631	684.699	-0.028	-0.073
-567.617	-140.217	0.129	-0.013
-566.602	-102.286	0.295	-0.071
-565.588	226.254	-0.110	-0.178
-564.573	209.197	0.114	-0.177
-563.558	-90.867	0.035	-0.010
-562.544	9.731	-0.363	0.274
-561.529	3.905	0.070	-0.051
-560.515	-12.987	-0.166	-0.108
-559.500	132.012	0.118	-0.152
-558.485	44.013	0.291	-0.265
-557.471	-200.000	0.008	0.122
-556.456	186.677	0.113	-0.168
-555.442	553.818	-0.013	0.030
-554.427	800.000	-0.069	0.249
-553.412	-200.000	0.032	-0.143
-552.398	-167.220	0.434	-0.017
-551.383	239.609	-0.064	-0.106
-550.369	-65.484	-0.361	0.144
-549.354	-74.000	-0.168	0.061
-548.339	-54.487	-0.215	0.097
-547.325	-200.000	0.009	0.243
-546.310	-149.801	-0.301	0.023
-545.296	-131.876	-0.126	-0.016
-544.281	-8.854	0.079	-0.053
-543.266	114.119	0.032	0.039
-542.252	-95.540	0.229	0.061
-541.237	-66.498	0.225	-0.089
-540.223	-82.419	0.376	0.122
-539.208	-76.307	-0.231	0.081
-538.193	-50.922	0.094	-0.044
-537.179	43.491	-0.036	-0.033
-536.164	230.113	-0.126	0.205
-535.150	-200.000	0.020	0.090
-534.135	411.859	0.147	0.310
-533.121	800.000	-0.040	-0.121
-532.106	-89.443	-0.152	-0.045
-531.091	800.000	-0.041	-0.152
-530.077	-108.526	-0.185	0.040
-529.062	800.000	-0.073	-0.220
-528.048	-200.000	0.007	-0.144
-527.033	41.552	-0.159	-0.144
-526.018	-200.000	-0.000	-0.133
-525.004	-3.642	0.166	0.115
-523.989	-114.355	0.197	-0.038
-522.975	39.202	0.252	0.224
-521.960	-200.000	-0.018	-0.131
-520.945	-79.894	-0.032	-0.011
-519.931	199.924	0.126	0.193
-518.916	739.448	-0.068	-0.182
-517.902	-200.000	-0.018	0.111
-516.887	655.017	0.089	0.227
-515.872	261.860	0.102	-0.175
-514.858	-91.363	-0.136	-0.039
-513.843	-134.552	-0.072	-0.009
-512.829	800.000	-0.067	-0.185
-511.814	-124.208	-0.221	-0.034
-510.799	250.508	0.241	0.407
-509.785	-200.000	0.004	0.178
-508.770	596.175	-0.096	-0.236
-507.756	67.803	0.114	0.115
-506.741	100.732	-0.095	0.109
-505.726	-70.854	-0.438	0.164
-504.712	-131.158	0.111	-0.015
-503.697	-63.069	0.143	-0.059
-502.683	47.373	0.257	-0.238
-501.668	538.933	-0.124	-0.294
-500.653	-113.425	0.094	-0.018
-499.639	-114.830	0.219	-0.042
-498.624	800.000	0.046	0.133
-497.610	71.389	0.263	-0.271
-496.595	331.628	0.104	-0.199
-495.581	-36.292	0.188	0.101
-494.566	-200.000	0.029	-0.128
-493.551	-200.000	-0.002	0.207
-492.537	800.000	-0.068	-0.202
-491.522	800.000	0.085	0.240
-490.508	-200.000	0.030	0.391
-489.493	440.700	0.052	0.113
-488.478	-144.493	-0.364	0.033
-487.464	20.346	-0.380	0.305
-486.449	-200.000	-0.003	-0.036
-485.435	387.765	0.091	-0.188
-484.420	-200.000	0.076	0.477
-483.405	76.152	0.213	-0.224
-482.391	-53.443	0.171	-0.078
-481.376	511.341	-0.114	-0.263
-480.362	-101.166	0.204	-0.050
-479.347	-200.000	0.007	0.111
-478.332	430.399	-0.096	-0.207
-477.318	-14.329	0.260	-0.166
-476.303	8.392	0.238	0.178
-475.289	472.433	0.116	0.260
-474.274	9.215	0.134	-0.100
-473.259	-200.000	-0.048	-0.295
-472.245	-200.000	-0.038	-0.454
-471.230	108.948	-0.142	-0.168
-470.216	127.934	0.171	-0.216
-469.201	133.675	0.194	-0.250
-468.186	-200.000	0.001	0.011
-467.172	-161.276	0.527	-0.027
-466.157	574.886	-0.046	0.112
-465.143	-50.026	0.069	0.033
-464.128	40.092	-0.057	0.051
-463.113	-80.555	-0.149	0.049
-462.099	217.518	0.070	-0.111
-461.084	-66.092	0.039	-0.016
-460.070	-166.186	-0.172	-0.007
-459.055	-48.414	-0.135	0.065
-458.040	136.439	-0.039	0.051
-457.026	98.810	-0.225	0.258
-456.011	-70.815	-0.080	-0.030
-454.997	37.227	0.260	-0.228
-453.982	-200.000	0.006	0.318
-452.968	82.276	0.324	-0.348
-451.953	800.000	-0.067	0.289
-450.938	-13.742	0.393	-0.252
-449.924	142.392	-0.151	-0.199
-448.909	-200.000	0.039	0.276
-447.895	-45.102	0.178	-0.088
-446.880	-137.627	-0.193	-0.022
-445.865	-45.806	-0.275	0.135
-444.851	-2.301	-0.380	-0.264
-443.836	411.966	0.107	0.225
-442.822	-53.202	-0.151	0.069
-441.807	800.000	0.022	-0.073
-440.792	-116.969	0.121	0.022
-439.778	800.000	0.063	0.202
-438.763	168.712	-0.110	-0.156
-437.749	428.176	0.175	-0.375
-436.734	-200.000	-0.076	0.332
-435.719	-95.973	-0.298	0.079
-434.705	-200.000	0.007	-0.060
-433.690	-200.000	-0.008	0.408
-432.676	-200.000	-0.006	-0.044
-431.661	-128.635	0.126	0.018
-430.646	-56.883	-0.195	0.085
-429.632	122.978	0.074	0.092
-428.617	800.000	-0.050	0.141
-427.603	-200.000	0.048	0.291
-426.588	-72.325	-0.136	-0.050
-425.573	-83.677	-0.356	-0.113
-424.559	45.758	0.131	-0.119
-423.544	-96.782	-0.159	0.041
-422.530	-22.692	0.193	0.116
-421.515	-3.353	-0.347	0.239
-420.500	287.734	0.136	0.243
-419.486	65.797	0.061	-0.061
-418.471	634.141	0.041	0.104
-417.457	217.556	0.107	-0.169
-416.442	-44.248	0.120	0.059
-415.428	40.121	-0.298	0.265
-414.413	94.334	-0.163	0.183
-413.398	-200.000	0.030	-0.162
-412.384	-200.000	0.037	-0.245
-411.369	-200.000	-0.048	-0.227
-410.355	86.191	-0.134	0.146
-409.340	-6.099	-0.343	-0.232
-408.325	149.565	0.095	-0.127
-407.311	144.422	-0.060	0.079
-406.296	270.034	-0.110	0.191
-405.282	800.000	-0.052	0.207
-404.267	220.783	0.164	-0.261
-403.252	800.000	0.047	0.149
-402.238	800.000	-0.039	0.138
-401.223	-110.049	-0.262	-0.054
-400.209	-70.779	-0.227	0.085
-399.194	-135.971	0.161	0.019
-398.179	474.204	0.096	-0.214
-397.165	-87.995	0.162	-0.048
-396.150	-200.000	-0.043	0.332
-395.136	-200.000	0.042	0.215
-394.121	-200.000	0.049	-0.220
-393.106	800.000	-0.120	0.349
-392.092	-7.997	-0.444	0.297
-391.077	-48.842	0.153	-0.073
-390.063	-121.904	0.086	-0.014
-389.048	139.278	-0.126	-0.164
-388.033	-128.425	0.265	0.037
-387.019	-115.512	0.296	-0.055
-386.004	-86.288	-0.116	-0.035
-384.990	-38.468	-0.312	-0.163
-383.975	-33.691	0.265	0.144
-382.960	-126.277	0.245	0.036
-381.946	-56.366	-0.146	0.064
-380.931	800.000	-0.047	-0.185
-379.917	-200.000	0.047	0.259
-378.902	-200.000	-0.029	0.173
-377.888	136.180	0.195	-0.252
-376.873	36.199	0.194	-0.169
-375.858	-124.874	-0.049	-0.007
-374.844	28.242	0.201	0.168
-373.829	54.708	-0.357	0.340
-372.815	416.784	0.076	-0.160
-371.800	135.688	-0.053	-0.069
-370.785	-109.095	0.116	-0.024
-369.771	-61.867	-0.298	-0.123
-368.756	-200.000	-0.041	-0.256
-367.742	-23.869	0.142	0.084
-366.727	-41.612	-0.300	0.153
-365.712	-200.000	0.024	-0.356
-364.698	-200.000	0.075	-0.343
-363.683	-200.000	-0.037	-0.330
-362.669	471.325	-0.104	-0.231
-361.654	409.578	-0.137	-0.287
-360.639	205.954	0.028	-0.043
-359.625	-82.657	-0.109	0.035
-358.610	-200.000	-0.011	0.160
-357.596	-58.781	0.176	-0.075
-356.581	162.120	0.294	-0.407
-355.566	199.144	-0.155	0.235
-354.552	-81.646	-0.145	-0.047
-353.537	506.011	-0.182	-0.416
-352.523	84.026	-0.169	0.182
-351.508	187.560	0.227	0.334
-350.493	19.938	-0.083	-0.066
-349.479	-200.000	0.004	0.383
-348.464	-131.201	-0.052	-0.007
-347.450	-92.604	-0.378	0.105
-346.435	-200.000	0.014	-0.059
-345.420	800.000	0.082	0.350
-344.406	102.860	0.220	0.254
-343.391	-115.618	0.217	-0.040
-342.377	800.000	-0.093	-0.369
-341.362	-62.944	0.267	0.109
-340.348	-200.000	0.009	-0.197
-339.333	259.620	-0.085	-0.145
-338.318	-61.026	0.037	-0.016
-337.304	-41.075	-0.203	-0.103
-336.289	283.103	0.158	0.280
-335.275	-116.780	0.167	-0.030
-334.260	235.781	0.153	-0.250
-333.245	800.000	0.033	-0.099
-332.231	-200.000	-0.042	-0.293
-331.216	10.657	0.149	-0.112
-330.202	-40.376	0.076	0.039
-329.187	-19.677	-0.294	-0.180
-328.172	554.057	-0.076	-0.181
-327.158	-82.947	0.235	0.075
-326.143	-22.273	-0.570	0.341
-325.129	-200.000	0.039	0.206
-324.114	-70.155	0.267	-0.100
-323.099	374.351	-0.050	-0.100
-322.085	800.000	0.051	-0.203
-321.070	-5.877	0.155	-0.104
-320.056	-74.123	0.459	0.164
-319.041	-25.081	-0.080	0.047
-318.026	-200.000	-0.006	0.410
-317.012	275.990	0.066	-0.116
-315.997	95.536	0.043	-0.049
-314.983	-81.856	-0.329	0.106
-313.968	0.502	0.017	0.012
-312.953	476.397	-0.119	0.265
-311.939	-200.000	0.051	0.355
-310.924	-200.000	-0.053	-0.312
-309.910	42.898	0.178	-0.160
-308.895	-94.880	0.138	-0.037
-307.880	-127.492	-0.118	0.017
-306.866	-60.739	0.237	0.099
-305.851	91.387	-0.250	0.276
-304.837	-20.914	0.226	0.136
-303.822	-200.000	-0.053	-0.251
-302.807	65.877	-0.027	-0.027
-301.793	332.529	-0.027	-0.052
-300.778	-63.189	-0.147	0.060
-299.764	11.588	0.226	-0.171
-298.749	-200.000	0.041	-0.307
-297.735	-93.195	-0.226	0.062
-296.720	-178.290	0.168	0.004
-295.705	132.165	-0.256	-0.325
-294.691	67.408	-0.049	-0.050
-293.676	-200.000	-0.063	0.331
-292.662	64.400	-0.123	-0.122
-291.647	176.504	0.202	-0.290
-290.632	126.815	-0.227	0.284
-289.618	253.783	-0.102	-0.172
-288.603	-103.819	0.344	0.079
-287.589	-200.000	0.041	0.464
-286.574	-190.529	0.379	0.004
-285.559	-38.464	-0.169	0.088
-284.545	363.002	0.117	0.231
-283.530	64.217	0.227	0.225
-282.516	800.000	0.065	0.223
-281.501	46.177	0.500	0.456
-280.486	-138.600	-0.520	0.056
-279.472	1.081	0.268	0.189
-278.457	-72.971	0.055	0.020
-277.443	397.465	0.090	0.186
-276.428	800.000	0.081	0.224
-275.413	23.811	0.334	0.271
-274.399	-200.000	-0.012	0.256
-273.384	-50.325	0.119	0.056
-272.370	-149.892	-0.337	-0.026
-271.355	-81.550	0.008	0.003
-270.340	146.848	0.129	-0.171
-269.326	144.699	-0.174	-0.228
-268.311	800.000	0.075	-0.226
-267.297	-200.000	-0.065	-0.293
-266.282	-31.131	0.258	0.143
-265.267	118.810	-0.091	-0.111
-264.253	-159.010	-0.219	0.012
-263.238	-101.083	0.085	0.021
-262.224	-0.624	-0.328	-0.229
-261.209	406.671	0.203	0.421
-260.195	-53.223	-0.275	-0.124
-259.180	-200.000	0.016	-0.094
-258.165	-176.204	0.126	-0.003
-257.151	90.031	-0.292	-0.321
-256.136	-174.330	-0.335	0.010
-255.122	606.740	-0.065	0.159
-254.107	-37.575	-0.250	-0.131
-253.092	65.475	0.140	0.139
-252.078	-83.422	0.193	-0.061
-251.063	-200.000	-0.045	-0.251
-250.049	-121.596	-0.421	0.069
-249.034	97.445	0.077	-0.087
-248.019	15.194	0.255	0.196
-247.005	-16.104	-0.229	0.143
-245.990	-43.241	-0.248	-0.124
-244.976	-4.872	-0.125	0.085
-243.961	-119.571	-0.111	-0.019
-242.946	242.348	-0.143	0.236
-241.932	-200.000	-0.027	-0.188
-240.917	-200.000	-0.016	0.092
-239.903	-140.498	-0.337	0.034
-238.888	-17.053	0.293	-0.182
-237.873	-66.109	0.289	-0.113
-236.859	-200.000	-0.003	-0.126
-235.844	-180.412	0.480	0.010
-234.830	-120.360	0.210	-0.035
-233.815	1.782	0.134	-0.095
-232.800	-0.501	-0.082	-0.057
-231.786	26.922	0.124	-0.102
-230.771	-38.022	0.403	-0.210
-229.757	-200.000	0.009	-0.083
-228.742	800.000	-0.096	0.289
-227.727	168.056	-0.153	-0.214
-226.713	-200.000	0.013	0.131
-225.698	152.339	0.256	-0.343
-224.684	259.931	-0.100	-0.171
-223.669	-65.646	-0.313	0.123
-222.655	167.500	-0.096	0.134
-221.640	-200.000	0.037	0.211
-220.625	-88.699	0.200	-0.058
-219.611	35.697	-0.326	0.281
-218.596	372.435	0.085	0.169
-217.582	748.341	0.097	0.257
-216.567	272.897	-0.199	-0.346
-215.552	-20.253	0.102	-0.061
-214.538	270.907	0.097	-0.167
-213.523	-200.000	-0.021	0.213
-212.509	-200.000	0.047	-0.223
-211.494	275.544	-0.029	0.051
-210.479	-200.000	0.016	0.116
-209.465	-68.186	0.428	0.164
-208.450	-84.785	-0.120	-0.037
-207.436	207.201	-0.118	0.181
-206.421	-200.000	-0.077	0.425
-205.406	-200.000	0.051	0.258
-204.392	800.000	-0.063	0.242
-203.377	291.907	-0.125	-0.224
-202.363	-142.805	0.261	-0.025
-201.348	-200.000	0.016	0.227
-200.333	-16.741	-0.310	-0.193
-199.319	-55.432	-0.130	-0.057
-198.304	121.011	-0.085	0.104
-197.290	800.000	-0.035	-0.132
-196.275	-200.000	-0.047	-0.218
-195.260	88.517	0.132	-0.144
-194.246	193.812	0.050	0.074
-193.231	7.766	-0.111	0.082
-192.217	-11.542	-0.108	0.070
-191.202	524.333	0.047	-0.108
-190.187	241.762	-0.080	-0.131
-189.173	405.471	0.007	0.014
-188.158	531.025	-0.101	0.234
-187.144	4.883	-0.231	0.167
-186.129	-200.000	0.003	-0.105
-185.114	-200.000	-0.015	-0.229
-184.100	-114.510	-0.152	0.029
-183.085	-68.440	0.177	-0.067
-182.071	4.891	0.135	0.098
-181.056	800.000	0.150	-0.473
-180.042	-192.115	-0.272	0.003
-179.027	42.395	0.178	0.159
-178.012	209.010	0.178	0.273
-176.998	-183.773	-0.162	0.003
-175.983	-0.917	0.046	-0.032
-174.969	800.000	0.007	-0.025
-173.954	362.033	-0.097	0.191
-172.939	79.871	0.187	-0.197
-171.925	485.882	0.021	0.046
-170.910	800.000	0.064	0.198
-169.896	800.000	-0.001	0.006
-168.881	-45.877	-0.430	-0.208
-167.866	800.000	0.096	0.270
-166.852	5.678	-0.065	0.047
-165.837	20.637	0.069	-0.055
-164.823	-167.328	0.136	0.005
-163.808	-127.478	0.204	-0.029
-162.793	-200.000	0.048	-0.256
-161.779	-200.000	-0.076	0.329
-160.764	-200.000	-0.005	-0.062
-159.750	-129.259	0.207	0.028
-158.735	-39.111	0.321	-0.166
-157.720	800.000	0.058	-0.159
-156.706	-200.000	0.021	0.323
-155.691	220.833	0.227	-0.358
-154.677	86.880	0.155	-0.168
-153.662	-105.781	-0.119	-0.026
-152.647	-52.242	0.367	-0.167
-151.633	11.015	-0.112	-0.084
-150.618	-200.000	0.003	-0.063
-149.604	-172.540	-0.071	-0.002
-148.589	-200.000	0.075	0.323
-147.574	-139.463	-0.233	-0.024
-146.560	-200.000	-0.004	-0.061
-145.545	800.000	-0.018	0.074
-144.531	-100.466	0.171	0.041
-143.516	-1.777	-0.085	0.059
-142.502	-169.930	-0.114	-0.004
-141.487	62.421	0.485	0.475
-140.472	-106.835	-0.269	0.058
-139.458	-53.200	0.079	-0.036
-138.443	495.897	-0.063	-0.141
-137.429	53.945	-0.128	0.120
-136.414	-200.000	0.037	-0.191
-135.399	72.805	-0.169	0.173
-134.385	66.645	0.188	0.187
-133.370	800.000	0.029	-0.089
-132.356	-84.403	-0.315	-0.098
-131.341	40.954	0.339	0.299
-130.326	-75.520	0.146	0.051
-129.312	-99.850	-0.222	0.054
-128.297	-66.626	-0.285	0.111
-127.283	-2.628	0.166	0.114
-126.268	-200.000	0.011	-0.144
-125.253	-57.382	-0.315	-0.135
-124.239	142.019	0.249	-0.323
-123.224	19.853	-0.258	-0.203
-122.210	-200.000	0.008	-0.399
