DTS Sentinel unit serial number:	SN413079Multiplexer serial number:	ORYXHardware model number:	OX4-SRSoftware version number:	ORYX F/W v4.00 Oryx Data Collector v3.7.2.0data status	okinstallation	princeton_trtdifferential loss correction	single-endedforward channel	channel 1reverse channel	N/Adate	2019/09/12time	19:00:34forward acquisition time	15.00reverse acquisition time	0.00gamma	496.2192k internal	0.2320k external	0.2320temperature offset calibration	1.0105default loss term (dB/km)	0.3790temperature slope calibration	1.0000multiplexer offset coefficient	1.0000multiplexer slope coefficient	1.0000fibre end	0.00T internal ref (°C)	32.75T ext. ref 1 (°C)	2.99T ext. ref 2 (°C)	27.31length (m)	temperature (°C)	Stokes	anti-Stokes-747.200	800.000	-0.193	0.558
-746.185	-71.454	-0.984	0.372
-745.171	-84.375	-0.267	-0.085
-744.156	-200.000	0.099	0.527
-743.142	212.678	0.129	-0.206
-742.127	-112.367	-0.563	0.114
-741.112	224.598	0.446	-0.730
-740.098	511.243	-0.257	-0.604
-739.083	84.469	0.377	0.417
-738.069	75.675	0.082	-0.087
-737.054	-142.053	-0.547	-0.055
-736.039	-200.000	0.292	1.408
-735.025	549.483	0.530	1.285
-734.010	-97.450	0.386	0.101
-732.996	800.000	-0.377	1.060
-731.981	800.000	-0.144	0.540
-730.966	-200.000	-0.081	0.620
-729.952	-17.209	0.103	0.066
-728.937	64.939	0.270	0.276
-727.923	-140.819	-0.158	0.016
-726.908	-185.511	0.349	0.005
-725.894	800.000	-0.162	-0.627
-724.879	-99.529	-0.538	-0.137
-723.864	126.438	0.350	0.448
-722.850	10.823	-0.520	0.401
-721.835	-150.062	0.414	-0.033
-720.821	-142.749	-0.675	-0.067
-719.806	114.821	-0.255	-0.315
-718.791	-200.000	0.001	-0.217
-717.777	-90.844	-0.878	-0.256
-716.762	-200.000	-0.064	-0.526
-715.748	-200.000	0.062	-0.374
-714.733	17.610	-0.509	0.408
-713.718	375.555	0.329	-0.678
-712.704	-108.740	-0.146	0.032
-711.689	-200.000	-0.064	0.547
-710.675	800.000	0.265	0.874
-709.660	4.723	-0.233	-0.173
-708.645	227.018	-0.373	0.613
-707.631	-41.571	0.218	-0.113
-706.616	800.000	0.204	-0.669
-705.602	328.244	0.279	-0.541
-704.587	-130.725	0.921	-0.125
-703.572	12.476	-0.345	0.269
-702.558	156.868	-0.228	0.318
-701.543	-22.044	-0.523	-0.321
-700.529	800.000	0.227	-0.837
-699.514	29.668	0.163	0.140
-698.499	-3.581	0.674	0.473
-697.485	-154.127	-0.655	0.045
-696.470	-200.000	-0.161	1.451
-695.456	800.000	-0.120	-0.347
-694.441	800.000	0.274	-0.928
-693.426	-81.324	0.810	-0.270
-692.412	-25.244	-0.271	-0.162
-691.397	602.515	0.521	1.307
-690.383	-48.601	1.585	-0.769
-689.368	197.468	-0.213	-0.329
-688.354	479.539	-0.450	1.030
-687.339	-22.564	-0.244	-0.149
-686.324	37.921	-0.197	-0.177
-685.310	94.530	0.341	-0.391
-684.295	11.312	-0.373	-0.288
-683.281	-200.000	-0.031	-0.896
-682.266	34.273	-0.248	0.218
-681.251	70.955	0.583	0.609
-680.237	-200.000	0.039	-0.209
-679.222	-55.698	0.328	-0.148
-678.208	123.297	0.118	0.149
-677.193	25.745	0.361	-0.303
-676.178	-3.782	-0.166	0.116
-675.164	-200.000	0.013	0.271
-674.149	800.000	-0.221	0.670
-673.135	-200.000	0.126	-0.777
-672.120	119.216	-0.483	-0.603
-671.105	-118.320	-0.396	0.071
-670.091	298.338	0.180	0.333
-669.076	195.178	-0.299	0.457
-668.062	516.990	0.327	-0.770
-667.047	186.847	0.225	0.339
-666.032	-200.000	0.237	1.227
-665.018	-152.744	0.463	-0.033
-664.003	619.199	-0.377	0.955
-662.989	-34.028	0.643	0.357
-661.974	-49.312	0.549	-0.264
-660.959	800.000	-0.155	0.638
-659.945	14.492	-0.341	-0.268
-658.930	800.000	-0.026	0.092
-657.916	58.682	0.612	0.606
-656.901	-144.016	-0.522	0.049
-655.886	-46.214	0.147	-0.073
-654.872	-0.380	0.228	0.163
-653.857	3.095	0.393	0.288
-652.843	7.451	-0.753	-0.567
-651.828	800.000	0.140	0.526
-650.814	70.555	0.142	0.147
-649.799	-114.540	0.694	0.134
-648.784	-200.000	0.017	-0.221
-647.770	-200.000	-0.013	-0.060
-646.755	800.000	0.050	-0.207
-645.741	800.000	0.343	-1.165
-644.726	251.176	-0.441	0.756
-643.711	800.000	-0.190	0.567
-642.697	-77.234	-0.261	0.091
-641.682	-78.274	-0.582	-0.201
-640.668	-28.578	0.759	-0.441
-639.653	281.026	-0.052	0.094
-638.638	162.070	0.272	0.384
-637.624	59.928	-0.558	-0.555
-636.609	-88.871	0.222	0.066
-635.595	-200.000	0.182	-0.000
-634.580	8.476	0.588	0.446
-633.565	-200.000	0.058	-0.968
-632.551	800.000	-0.025	-0.079
-631.536	44.311	-0.232	-0.215
-630.522	24.862	-0.277	-0.231
-629.507	-200.000	-0.051	0.780
-628.492	115.015	0.224	0.275
-627.478	-165.979	-0.777	0.033
-626.463	-29.265	-0.350	-0.202
-625.449	-85.043	0.446	0.141
-624.434	252.387	0.381	-0.654
-623.419	219.069	-0.061	0.098
-622.405	205.029	-0.282	-0.440
-621.390	-28.734	-0.375	0.217
-620.376	397.312	-0.115	0.241
-619.361	26.239	-0.626	0.526
-618.346	-137.822	1.121	-0.126
-617.332	98.011	-0.285	-0.330
-616.317	-157.247	-0.769	-0.047
-615.303	232.635	-0.299	-0.495
-614.288	-76.134	0.484	-0.172
-613.273	-106.556	-0.334	-0.075
-612.259	-194.405	-0.934	0.008
-611.244	-200.000	0.032	0.427
-610.230	-45.797	-0.511	0.254
-609.215	-8.562	0.523	0.353
-608.201	-125.025	-0.413	-0.064
-607.186	162.722	-0.273	-0.385
-606.171	-64.787	0.377	0.154
-605.157	-162.372	0.716	0.036
-604.142	155.167	0.045	0.062
-603.128	800.000	-0.124	0.371
-602.113	382.649	-0.476	-0.985
-601.098	-34.125	0.630	-0.348
-600.084	129.023	-0.079	0.101
-599.069	-200.000	0.126	0.556
-598.055	488.823	0.547	1.258
-597.040	207.284	-0.180	0.282
-596.025	-48.496	-0.479	-0.232
-595.011	89.097	0.342	0.383
-593.996	8.463	0.063	-0.047
-592.982	-5.922	0.990	-0.681
-591.967	-34.852	-0.595	0.327
-590.952	800.000	-0.173	-0.551
-589.938	-54.682	0.669	0.304
-588.923	800.000	0.029	0.098
-587.909	-200.000	0.063	-0.678
-586.894	15.076	-0.430	0.339
-585.879	384.072	0.119	-0.247
-584.865	-54.016	0.738	0.338
-583.850	-95.390	0.745	-0.201
-582.836	-37.942	-0.238	0.127
-581.821	-196.947	-0.548	-0.004
-580.806	-200.000	-0.013	-0.075
-579.792	-84.185	0.911	0.290
-578.777	-158.515	1.002	0.058
-577.763	-101.671	-0.791	-0.193
-576.748	-38.323	-0.732	0.389
-575.733	232.004	-0.696	-1.148
-574.719	800.000	0.164	0.494
-573.704	31.058	0.576	0.497
-572.690	-84.648	0.634	0.201
-571.675	-136.840	-0.253	-0.029
-570.661	-119.301	0.480	0.084
-569.646	-103.943	0.382	0.089
-568.631	266.174	-0.307	-0.538
-567.617	-111.795	0.290	0.059
-566.602	800.000	0.051	0.201
-565.588	-56.213	0.578	-0.258
-564.573	86.115	0.146	-0.161
-563.558	269.397	0.487	-0.858
-562.544	800.000	0.110	-0.470
-561.529	-61.027	0.581	-0.246
-560.515	-49.864	0.643	-0.307
-559.500	-163.830	0.574	-0.027
-558.485	-24.850	0.393	0.234
-557.471	-200.000	-0.054	-0.696
-556.456	47.189	0.374	-0.349
-555.442	-54.177	-0.469	-0.214
-554.427	-148.627	0.621	0.051
-553.412	431.127	0.513	-1.115
-552.398	-31.706	-0.381	-0.215
-551.383	-168.210	-0.383	0.015
-550.369	5.561	-0.551	-0.408
-549.354	800.000	0.123	0.502
-548.339	455.111	0.182	0.405
-547.325	0.522	-0.602	-0.432
-546.310	35.721	0.143	0.126
-545.296	-124.676	0.522	0.081
-544.281	-86.614	0.391	-0.120
-543.266	-200.000	-0.020	0.595
-542.252	271.438	0.465	0.822
-541.237	-40.239	-0.633	-0.331
-540.223	-171.346	0.649	-0.022
-539.208	481.606	-0.180	0.410
-538.193	-200.000	-0.014	-0.287
-537.179	141.302	-0.438	0.582
-536.164	238.955	-0.112	-0.187
-535.150	-19.288	0.598	0.372
-534.135	-137.638	-1.300	-0.147
-533.121	-50.955	-0.179	0.084
-532.106	374.417	-0.109	0.223
-531.091	52.358	1.029	0.985
-530.077	68.717	-0.606	0.624
-529.062	42.636	-0.685	-0.626
-528.048	175.982	-0.302	-0.440
-527.033	-200.000	-0.039	0.211
-526.018	-93.180	-0.122	-0.034
-525.004	-91.829	0.785	-0.224
-523.989	-104.393	-0.297	0.069
-522.975	-200.000	-0.059	0.380
-521.960	0.794	-0.649	-0.466
-520.945	-200.000	0.099	-0.496
-519.931	243.090	-0.224	-0.376
-518.916	-200.000	-0.035	0.563
-517.902	71.063	0.301	-0.313
-516.887	-200.000	-0.003	-0.461
-515.872	-200.000	0.032	-0.806
-514.858	800.000	0.066	-0.285
-513.843	28.593	0.293	0.249
-512.829	78.359	0.096	0.103
-511.814	-4.108	0.176	-0.123
-510.799	232.502	0.576	-0.948
-509.785	20.395	-0.323	-0.261
-508.770	-82.646	-0.464	0.150
-507.756	13.477	-0.676	-0.525
-506.741	538.478	0.529	-1.260
-505.726	-82.258	-0.576	-0.188
-504.712	44.895	-0.528	0.487
-503.697	-83.283	-0.325	0.104
-502.683	-24.869	0.151	-0.090
-501.668	-138.993	-0.727	0.079
-500.653	-14.265	-0.753	0.486
-499.639	-75.446	-0.663	-0.237
-498.624	-200.000	0.027	0.295
-497.610	-35.598	0.614	0.334
-496.595	800.000	0.117	0.448
-495.581	5.048	0.407	-0.300
-494.566	-157.431	-0.396	-0.024
-493.551	-40.865	-0.897	0.465
-492.537	123.705	-0.093	-0.117
-491.522	245.750	0.298	-0.503
-490.508	-141.478	0.526	0.053
-489.493	-200.000	-0.060	-0.879
-488.478	11.497	-0.323	0.248
-487.464	173.473	0.330	-0.477
-486.449	-200.000	-0.054	-0.532
-485.435	142.439	0.422	-0.560
-484.420	-1.213	0.379	-0.268
-483.405	-200.000	-0.098	0.754
-482.391	-32.516	0.544	0.303
-481.376	194.634	0.175	0.266
-480.362	-63.230	-0.633	0.261
-479.347	-200.000	-0.015	-0.901
-478.332	105.462	0.593	-0.702
-477.318	-200.000	-0.031	0.620
-476.303	21.460	-0.560	-0.456
-475.289	340.460	-0.320	0.626
-474.274	17.291	-0.313	0.248
-473.259	608.886	0.251	0.627
-472.245	337.348	-0.310	0.603
-471.230	22.455	-0.547	-0.448
-470.216	47.582	-0.297	0.277
-469.201	-200.000	0.069	0.642
-468.186	-149.017	0.744	0.060
-467.172	-148.863	-0.168	0.014
-466.157	12.329	-0.620	-0.478
-465.143	-200.000	-0.101	-0.950
-464.128	800.000	-0.153	-0.435
-463.113	71.872	0.490	-0.510
-462.099	800.000	-0.051	0.155
-461.084	108.769	0.602	0.720
-460.070	-200.000	-0.003	0.260
-459.055	72.620	0.644	0.672
-458.040	-91.968	-1.370	0.388
-457.026	-58.136	1.167	0.509
-456.011	-200.000	-0.017	0.510
-454.997	-6.552	0.093	0.063
-453.982	-111.083	0.478	-0.098
-452.968	107.918	0.100	-0.120
-451.953	-52.473	-0.548	0.253
-450.938	-200.000	0.144	0.712
-449.924	-63.380	-0.263	-0.108
-448.909	-98.751	-0.099	0.025
-447.895	344.432	-0.180	-0.354
-446.880	-200.000	0.056	0.435
-445.865	69.341	-0.278	-0.285
-444.851	-2.986	0.663	-0.463
-443.836	96.411	0.124	0.142
-442.822	-11.280	0.338	0.223
-441.807	-115.565	0.441	-0.083
-440.792	56.927	-0.546	-0.532
-439.778	227.439	0.287	0.466
-438.763	-51.944	-0.506	-0.235
-437.749	-200.000	0.035	0.663
-436.734	-118.357	0.637	0.113
-435.719	-200.000	0.307	0.001
-434.705	-177.427	0.668	0.016
-433.690	256.206	-0.112	0.191
-432.676	68.001	-0.270	-0.276
-431.661	26.486	-1.020	0.852
-430.646	119.905	0.563	-0.697
-429.632	-200.000	-0.115	-0.944
-428.617	130.842	-0.337	0.431
-427.603	54.858	-0.261	0.252
-426.588	158.230	0.453	0.628
-425.573	-31.358	-0.509	-0.286
-424.559	-113.166	0.306	0.060
-423.544	51.294	0.436	-0.413
-422.530	39.162	-0.401	-0.358
-421.515	9.472	-0.671	0.507
-420.500	-59.057	0.268	0.116
-419.486	313.229	0.266	0.500
-418.471	-6.088	0.322	-0.220
-417.457	800.000	0.079	-0.233
-416.442	-27.585	-0.308	0.178
-415.428	-200.000	-0.039	0.381
-414.413	-97.615	0.635	-0.165
-413.398	-200.000	0.043	-0.271
-412.384	267.415	-0.337	0.588
-411.369	-100.586	0.926	0.228
-410.355	37.707	0.309	0.273
-409.340	-25.568	0.533	-0.314
-408.325	-127.330	-0.234	0.034
-407.311	312.493	0.384	-0.719
-406.296	129.939	-0.654	0.835
-405.282	-200.000	-0.118	-0.699
-404.267	242.916	-0.290	-0.484
-403.252	-76.945	0.665	-0.232
-402.238	-98.899	0.238	0.060
-401.223	37.938	-0.490	0.435
-400.209	61.903	0.457	-0.454
-399.194	222.868	-0.282	0.454
-398.179	67.227	-0.572	-0.582
-397.165	383.062	-0.441	0.904
-396.150	800.000	0.079	-0.283
-395.136	-49.894	-0.621	0.294
-394.121	47.694	-0.338	0.314
-393.106	-101.051	1.057	0.258
-392.092	33.871	-0.116	0.101
-391.077	423.735	-0.035	-0.075
-390.063	-10.418	0.666	0.440
-389.048	302.094	0.077	-0.143
-388.033	-68.455	-0.199	0.077
-387.019	197.244	-0.168	-0.256
-386.004	-8.444	-0.681	-0.457
-384.990	-41.727	-0.190	0.097
-383.975	-30.630	-0.829	-0.468
-382.960	-85.574	0.482	-0.149
-381.946	-10.931	-0.144	0.095
-380.931	-113.194	-0.017	0.003
-379.917	186.126	-0.078	0.116
-378.902	-1.484	-0.674	0.474
-377.888	-87.932	1.186	0.356
-376.873	54.529	-0.168	0.161
-375.858	1.004	-0.359	-0.257
-374.844	93.372	-0.681	0.768
-373.829	127.154	-0.068	0.085
-372.815	-2.857	-0.215	-0.150
-371.800	19.628	-0.252	-0.202
-370.785	-29.214	-0.299	-0.171
-369.771	-5.128	0.645	0.442
-368.756	92.441	0.224	0.251
-367.742	-99.405	-0.233	-0.059
-366.727	82.051	-0.154	0.167
-365.712	126.253	0.228	0.288
-364.698	290.899	0.108	-0.196
-363.683	6.975	0.299	0.222
-362.669	36.623	0.132	-0.116
-361.654	719.788	0.022	0.057
-360.639	-8.158	-0.342	0.229
-359.625	800.000	-0.204	0.795
-358.610	-200.000	-0.088	-0.620
-357.596	-3.148	0.330	-0.229
-356.581	-52.103	-0.354	0.164
-355.566	-60.498	-0.568	-0.241
-354.552	-80.237	-0.371	0.124
-353.537	-74.015	0.592	0.214
-352.523	324.909	-0.132	-0.252
-351.508	54.615	-0.239	0.230
-350.493	800.000	0.024	0.095
-349.479	273.708	0.116	0.204
-348.464	182.046	0.368	0.539
-347.450	-194.368	0.684	0.005
-346.435	-167.689	-0.380	0.015
-345.420	800.000	-0.084	-0.297
-344.406	-124.477	0.531	-0.082
-343.391	141.653	-0.086	0.113
-342.377	205.466	0.590	-0.913
-341.362	269.426	0.252	0.441
-340.348	-38.918	-0.724	0.379
-339.333	800.000	0.377	1.114
-338.318	800.000	-0.294	0.831
-337.304	-200.000	-0.064	-0.317
-336.289	-42.201	-0.150	-0.076
-335.275	102.261	-0.074	0.086
-334.260	261.725	-0.172	-0.297
-333.245	8.226	0.298	-0.223
-332.231	-83.996	0.262	0.083
-331.216	-87.479	0.329	0.099
-330.202	662.150	-0.050	0.128
-329.187	-200.000	0.055	0.530
-328.172	779.887	0.234	0.636
-327.158	-16.185	0.153	0.097
-326.143	140.189	-0.397	0.521
-325.129	-200.000	0.076	0.591
-324.114	4.075	-0.490	-0.357
-323.099	209.571	-0.335	-0.522
-322.085	123.811	0.310	0.388
-321.070	63.392	0.190	0.189
-320.056	-200.000	0.065	-0.377
-319.041	-115.538	0.061	0.011
-318.026	-200.000	-0.102	0.540
-317.012	-200.000	0.075	0.486
-315.997	54.765	-0.654	-0.628
-314.983	800.000	-0.306	1.313
-313.968	-164.753	0.142	-0.006
-312.953	-200.000	0.086	0.868
-311.939	-85.291	0.475	0.148
-310.924	-159.819	0.058	-0.003
-309.910	-28.325	0.927	0.532
-308.895	-200.000	0.003	0.693
-307.880	224.177	-0.290	-0.465
-306.866	-121.994	-0.188	-0.031
-305.851	209.719	0.318	0.496
-304.837	-156.915	0.104	-0.006
-303.822	-43.852	-0.146	0.073
-302.807	-163.169	-0.254	0.012
-301.793	800.000	-0.195	0.669
-300.778	109.431	-0.254	-0.302
-299.764	91.764	0.733	0.819
-298.749	-59.874	-0.858	0.365
-297.735	273.559	0.241	-0.424
-296.720	3.869	-0.329	-0.239
-295.705	35.507	0.547	0.478
-294.691	-200.000	0.014	-0.410
-293.676	800.000	0.201	0.740
-292.662	18.020	-0.653	-0.517
-291.647	-14.309	-0.664	-0.425
-290.632	-31.683	0.582	-0.325
-289.618	154.657	0.388	-0.529
-288.603	800.000	0.164	-0.573
-287.589	449.871	-0.040	0.088
-286.574	-112.596	0.469	-0.093
-285.559	-26.418	-0.258	0.150
-284.545	-141.000	-0.686	-0.070
-283.530	76.418	0.190	0.200
-282.516	-200.000	0.062	0.889
-281.501	46.993	-0.165	0.152
-280.486	45.473	-0.590	0.541
-279.472	-33.344	-0.465	-0.255
-278.457	-33.868	-0.394	-0.215
-277.443	-200.000	0.008	-0.191
-276.428	-113.773	1.069	-0.207
-275.413	63.424	0.651	-0.649
-274.399	-31.269	-0.592	-0.331
-273.384	-104.741	0.423	0.097
-272.370	-62.582	-0.989	-0.408
-271.355	124.011	-0.173	0.216
-270.340	118.834	0.234	0.287
-269.326	531.887	0.136	-0.320
-268.311	346.863	-0.190	-0.372
-267.297	32.009	-0.530	0.454
-266.282	800.000	-0.124	-0.512
-265.267	68.694	-0.530	-0.539
-264.253	-146.661	-0.264	-0.023
-263.238	-200.000	0.011	-0.569
-262.224	157.002	0.545	0.748
-261.209	26.093	-0.673	0.557
-260.195	-200.000	-0.069	0.515
-259.180	-200.000	-0.160	0.922
-258.165	-108.991	0.427	0.090
-257.151	-200.000	0.015	-0.295
-256.136	148.756	0.397	0.532
-255.122	-200.000	-0.099	0.573
-254.107	140.817	0.256	-0.336
-253.092	-15.905	-0.402	-0.254
-252.078	-140.622	0.525	-0.054
-251.063	-200.000	-0.036	-0.158
-250.049	-86.924	-0.087	-0.026
-249.034	119.835	0.377	-0.464
-248.019	-200.000	-0.064	0.848
-247.005	-145.438	0.473	-0.042
-245.990	147.747	0.258	0.345
-244.976	-200.000	0.023	0.348
-243.961	-200.000	0.072	-0.619
-242.946	-23.209	0.699	-0.417
-241.932	90.042	-0.777	-0.861
-240.917	-200.000	-0.225	1.066
-239.903	800.000	0.207	-0.567
-238.888	-71.484	0.387	0.143
-237.873	-185.549	-1.003	-0.015
-236.859	-69.961	-0.665	-0.251
-235.844	420.954	0.102	-0.216
-234.830	-121.204	0.150	-0.025
-233.815	-78.178	0.630	0.215
-232.800	54.369	0.243	-0.232
-231.786	-200.000	0.006	0.091
-230.771	139.072	0.579	-0.754
-229.757	-200.000	-0.028	-0.269
-228.742	408.689	-0.253	-0.530
-227.727	17.962	0.291	-0.230
-226.713	800.000	0.193	-0.780
-225.698	48.861	-0.309	-0.287
-224.684	83.373	0.635	-0.686
-223.669	138.517	0.065	0.084
-222.655	-107.677	0.431	-0.093
-221.640	-200.000	0.009	-0.255
-220.625	206.956	0.355	-0.549
-219.611	605.280	0.194	-0.479
-218.596	-200.000	-0.072	0.492
-217.582	-108.374	-0.110	-0.024
-216.567	-200.000	0.038	0.476
-215.552	-82.015	-0.374	-0.121
-214.538	800.000	0.105	-0.442
-213.523	-94.467	0.652	-0.176
-212.509	-147.346	-0.943	0.079
-211.494	-102.028	-1.021	-0.244
-210.479	231.778	-0.160	-0.260
-209.465	-200.000	0.034	0.534
-208.450	800.000	0.142	0.593
-207.436	800.000	-0.181	0.745
-206.421	-88.606	0.472	-0.139
-205.406	-200.000	0.032	-0.418
-204.392	486.143	0.074	0.168
-203.377	-200.000	0.060	-0.426
-202.363	-28.238	0.296	0.170
-201.348	800.000	0.079	0.289
-200.333	20.349	0.151	-0.121
-199.319	54.633	-0.403	-0.384
-198.304	-134.318	-0.581	-0.071
-197.290	-200.000	0.009	0.106
-196.275	-200.000	0.028	-0.476
-195.260	46.589	-0.351	-0.323
-194.246	154.443	0.446	-0.606
-193.231	-200.000	0.022	-0.252
-192.217	3.963	0.380	0.275
-191.202	-177.472	1.007	0.024
-190.187	165.926	0.290	-0.406
-189.173	-105.038	-0.639	-0.145
-188.158	-200.000	0.010	0.357
-187.144	169.310	0.440	0.622
-186.129	-130.595	-0.376	-0.050
-185.114	-25.775	-0.626	0.365
-184.100	-138.847	-1.188	-0.128
-183.085	-200.000	-0.099	-0.456
-182.071	-86.772	0.283	-0.086
-181.056	164.787	-0.291	-0.407
-180.042	-200.000	-0.107	-0.799
-179.027	800.000	-0.088	0.322
-178.012	-154.698	-0.567	0.037
-176.998	-31.917	-0.194	0.108
-175.983	-24.366	-0.168	-0.099
-174.969	-129.338	-0.330	0.045
-173.954	-200.000	0.248	1.100
-172.939	15.586	0.599	0.465
-171.925	-73.663	-0.725	-0.261
-170.910	800.000	0.147	-0.418
-169.896	800.000	0.032	-0.094
-168.881	72.695	0.755	-0.779
-167.866	-69.734	0.575	0.217
-166.852	-167.584	-0.471	-0.019
-165.837	77.102	0.217	0.228
-164.823	-33.021	-0.855	-0.469
-163.808	204.823	0.438	0.672
-162.793	800.000	-0.184	-0.672
-161.779	140.907	0.261	-0.341
-160.764	-109.627	-0.218	-0.046
-159.750	-37.227	0.263	-0.139
-158.735	-200.000	-0.146	0.680
-157.720	-59.537	-0.426	-0.181
-156.706	800.000	0.124	-0.362
-155.691	-40.908	0.454	0.232
-154.677	-50.846	-0.345	0.160
-153.662	800.000	-0.196	-0.664
-152.647	189.634	0.213	-0.315
-151.633	-200.000	-0.028	0.217
-150.618	-13.272	0.583	0.374
-149.604	-94.596	-0.367	0.099
-148.589	209.877	-0.247	-0.383
-147.574	239.935	0.139	-0.229
-146.560	226.552	0.487	-0.781
-145.545	-129.923	-0.876	-0.119
-144.531	453.228	0.310	0.679
-143.516	16.143	0.287	-0.223
-142.502	-123.680	-0.513	0.080
-141.487	-200.000	-0.059	-0.620
-140.472	-116.074	-0.991	0.182
-139.458	-132.885	0.695	-0.087
-138.443	-200.000	-0.109	-0.842
-137.429	-132.291	0.236	-0.030
-136.414	800.000	-0.079	-0.249
-135.399	800.000	-0.284	-1.161
-134.385	-200.000	0.091	-0.655
-133.370	800.000	0.211	-0.692
-132.356	-86.240	0.171	-0.052
-131.341	72.483	0.520	0.535
-130.326	-200.000	0.002	-0.224
-129.312	-92.776	0.525	-0.145
-128.297	28.010	-0.662	-0.551
-127.283	-189.447	1.268	-0.015
-126.268	-138.065	0.221	-0.024
-125.253	1.725	-0.469	0.334
-124.239	-85.026	0.889	0.275
-123.224	448.359	0.324	-0.704
-122.210	-126.996	-1.031	0.150
-121.195	-200.000	0.084	-0.856
-120.180	8.224	-0.241	-0.179
