DTS Sentinel unit serial number:	SN413079Multiplexer serial number:	ORYXHardware model number:	OX4-SRSoftware version number:	ORYX F/W v4.00 Oryx Data Collector v3.7.2.0data status	okinstallation	princeton_trtdifferential loss correction	single-endedforward channel	channel 1reverse channel	N/Adate	2019/09/14time	16:18:35forward acquisition time	60.00reverse acquisition time	0.00gamma	496.2192k internal	0.2296k external	0.2296temperature offset calibration	1.0070default loss term (dB/km)	0.3790temperature slope calibration	1.0000multiplexer offset coefficient	1.0000multiplexer slope coefficient	1.0000fibre end	0.00T internal ref (°C)	38.19T ext. ref 1 (°C)	5.08T ext. ref 2 (°C)	32.78length (m)	temperature (°C)	Stokes	anti-Stokes-747.200	-87.814	-0.208	-0.064
-746.185	-34.947	-0.454	0.253
-745.171	-121.934	-0.155	-0.026
-744.156	-200.000	-0.000	0.181
-743.142	-146.299	0.369	-0.033
-742.127	-200.000	0.014	-0.080
-741.112	168.095	0.090	0.131
-740.098	357.071	0.121	0.246
-739.083	170.270	0.140	-0.205
-738.069	-126.164	0.156	-0.024
-737.054	207.652	0.136	0.216
-736.039	-138.597	-0.326	-0.037
-735.025	-53.667	0.261	-0.122
-734.010	-17.093	-0.186	-0.120
-732.996	-6.992	-0.234	-0.162
-731.981	757.839	-0.147	-0.406
-730.966	800.000	-0.060	-0.233
-729.952	240.190	-0.092	0.157
-728.937	-160.365	-0.159	-0.009
-727.923	-121.046	-0.330	-0.057
-726.908	-38.126	-0.199	0.108
-725.894	6.533	0.133	0.101
-724.879	-200.000	-0.007	-0.348
-723.864	247.280	-0.147	-0.253
-722.850	112.927	-0.010	-0.012
-721.835	-119.896	-0.161	-0.028
-720.821	18.122	0.087	-0.071
-719.806	42.324	-0.119	-0.110
-718.791	148.076	0.123	0.169
-717.777	241.916	-0.155	0.265
-716.762	-11.459	-0.042	-0.028
-715.748	-16.568	0.114	0.074
-714.733	-119.592	0.176	0.031
-713.718	6.446	-0.278	-0.211
-712.704	215.920	-0.197	-0.320
-711.689	157.325	-0.189	-0.268
-710.675	90.869	-0.077	-0.088
-709.660	-34.989	-0.065	0.036
-708.645	-28.971	0.324	-0.190
-707.631	800.000	-0.092	-0.301
-706.616	-60.959	-0.222	-0.096
-705.602	-114.018	-0.150	-0.030
-704.587	-87.343	0.025	0.008
-703.572	-23.304	0.171	-0.105
-702.558	800.000	-0.024	-0.099
-701.543	-188.841	-0.175	0.002
-700.529	34.121	0.189	-0.168
-699.514	-200.000	-0.014	0.111
-698.499	146.954	-0.040	-0.055
-697.485	275.379	0.045	0.081
-696.470	394.012	-0.071	-0.150
-695.456	-22.961	-0.255	-0.157
-694.441	136.243	0.054	-0.072
-693.426	-200.000	-0.021	-0.139
-692.412	-76.088	0.064	-0.023
-691.397	123.214	0.060	0.077
-690.383	-133.671	-0.245	0.031
-689.368	-40.075	0.198	0.105
-688.354	-58.837	-0.258	-0.114
-687.339	612.472	-0.059	0.150
-686.324	-90.306	-0.287	-0.085
-685.310	-200.000	0.008	0.223
-684.295	-109.937	0.195	-0.042
-683.281	146.174	-0.079	-0.108
-682.266	-19.097	-0.336	-0.213
-681.251	-143.869	-0.557	-0.054
-680.237	216.380	-0.174	0.283
-679.222	-23.864	0.143	-0.087
-678.208	-38.184	-0.440	-0.238
-677.193	-200.000	0.025	0.233
-676.178	228.536	-0.142	0.235
-675.164	-139.104	-0.457	-0.050
-674.149	138.030	0.199	0.266
-673.135	-200.000	0.009	0.295
-672.120	-200.000	-0.029	0.277
-671.105	30.995	-0.140	0.122
-670.091	396.836	-0.064	0.135
-669.076	800.000	0.154	-0.456
-668.062	198.247	0.090	-0.140
-667.047	-200.000	-0.025	0.146
-666.032	-15.141	-0.107	-0.070
-665.018	-200.000	-0.077	-0.363
-664.003	800.000	-0.098	-0.340
-662.989	-200.000	0.036	-0.366
-661.974	-14.897	-0.070	0.046
-660.959	68.793	-0.053	-0.056
-659.945	-200.000	-0.032	0.186
-658.930	-107.895	0.297	-0.066
-657.916	-154.797	-0.128	-0.009
-656.901	690.658	0.226	0.603
-655.886	95.350	0.014	-0.016
-654.872	670.538	-0.090	0.239
-653.857	-93.432	-0.141	-0.040
-652.843	171.345	0.308	0.450
-651.828	92.359	0.150	0.173
-650.814	-110.653	0.289	-0.061
-649.799	-200.000	0.020	-0.140
-648.784	-200.000	-0.031	-0.288
-647.770	-44.970	0.296	0.150
-646.755	526.629	0.067	0.160
-645.741	-200.000	0.034	0.288
-644.726	-200.000	0.257	0.000
-643.711	-200.000	-0.002	-0.111
-642.697	-27.494	0.424	-0.251
-641.682	-200.000	0.021	-0.138
-640.668	173.512	-0.169	-0.249
-639.653	-100.249	-0.081	0.020
-638.638	-32.707	0.261	0.148
-637.624	-101.912	-0.163	-0.040
-636.609	144.697	-0.166	-0.226
-635.595	19.398	-0.143	-0.117
-634.580	3.457	-0.057	0.042
-633.565	-43.883	-0.349	0.178
-632.551	-44.357	-0.195	0.100
-631.536	-200.000	-0.018	-0.100
-630.522	-200.000	0.028	0.139
-629.507	459.757	0.136	-0.308
-628.492	54.794	0.144	-0.142
-627.478	0.587	-0.276	-0.201
-626.463	800.000	0.107	-0.382
-625.449	179.613	-0.170	-0.253
-624.434	-45.518	0.106	-0.053
-623.419	783.769	0.055	-0.154
-622.405	48.001	0.152	-0.145
-621.390	-106.839	0.403	0.091
-620.376	212.831	-0.183	-0.294
-619.361	-31.073	0.138	-0.079
-618.346	291.631	-0.102	0.188
-617.332	85.454	-0.081	-0.091
-616.317	-50.438	-0.151	0.072
-615.303	-117.712	-0.246	0.045
-614.288	51.036	-0.315	0.304
-613.273	8.509	0.092	-0.070
-612.259	-107.991	0.236	-0.052
-611.244	144.430	0.182	-0.248
-610.230	-128.398	-0.180	-0.026
-609.215	-200.000	0.007	0.306
-608.201	-145.236	-0.148	0.014
-607.186	80.909	-0.085	-0.093
-606.171	-200.000	0.019	0.101
-605.157	800.000	0.151	0.462
-604.142	800.000	-0.053	-0.170
-603.128	93.063	0.261	-0.300
-602.113	12.322	-0.213	-0.167
-601.098	-200.000	0.082	0.446
-600.084	-99.703	0.237	0.060
-599.069	-39.024	0.189	-0.101
-598.055	-85.893	0.275	0.086
-597.040	173.541	-0.237	-0.348
-596.025	662.723	0.069	-0.180
-595.011	108.090	0.109	-0.132
-593.996	-194.612	0.160	0.001
-592.982	78.576	0.158	-0.172
-591.967	-200.000	0.028	-0.131
-590.952	92.322	0.184	0.211
-589.938	190.613	-0.196	-0.300
-588.923	-26.372	0.299	0.178
-587.909	32.236	-0.222	0.195
-586.894	-92.587	-0.233	0.066
-585.879	33.512	-0.266	0.235
-584.865	-66.538	-0.177	-0.071
-583.850	-133.139	0.292	0.037
-582.836	-6.202	-0.120	0.084
-581.821	-48.228	-0.034	0.017
-580.806	18.576	0.158	-0.128
-579.792	-39.113	-0.428	-0.228
-578.777	-86.071	0.206	-0.065
-577.763	-72.495	0.200	0.075
-576.748	486.824	-0.131	0.304
-575.733	49.398	-0.426	-0.407
-574.719	-109.265	-0.210	-0.045
-573.704	800.000	0.073	-0.241
-572.690	785.728	-0.040	0.112
-571.675	17.005	-0.087	0.070
-570.661	153.353	0.159	-0.221
-569.646	-57.076	0.282	0.126
-568.631	-86.969	-0.368	0.114
-567.617	-94.993	-0.154	0.042
-566.602	758.409	-0.155	-0.426
-565.588	-141.625	-0.310	-0.032
-564.573	-54.819	0.112	0.051
-563.558	64.764	0.109	0.112
-562.544	-200.000	0.002	-0.011
-561.529	318.797	0.066	0.128
-560.515	-71.884	-0.246	0.093
-559.500	39.872	-0.129	-0.118
-558.485	-180.052	-0.131	0.003
-557.471	466.374	-0.204	0.462
-556.456	428.313	0.109	0.239
-555.442	365.792	-0.062	-0.126
-554.427	-200.000	-0.042	-0.211
-553.412	23.388	-0.375	0.313
-552.398	800.000	0.073	0.230
-551.383	-200.000	-0.023	-0.245
-550.369	-22.610	0.115	-0.071
-549.354	-200.000	0.062	-0.285
-548.339	-65.445	-0.189	-0.077
-547.325	-10.164	-0.199	0.134
-546.310	278.277	-0.157	-0.284
-545.296	-98.853	0.364	0.094
-544.281	-118.498	0.280	0.050
-543.266	-53.396	-0.381	-0.177
-542.252	-48.842	-0.119	-0.058
-541.237	225.134	-0.082	0.135
-540.223	-73.752	-0.085	0.031
-539.208	407.813	-0.126	0.270
-538.193	-117.818	0.117	0.021
-537.179	14.156	0.211	0.167
-536.164	-146.718	-0.271	-0.024
-535.150	-82.171	0.174	-0.057
-534.135	161.407	0.250	-0.355
-533.121	18.277	0.033	-0.027
-532.106	-41.897	-0.035	-0.018
-531.091	360.387	0.064	0.129
-530.077	-81.664	0.153	0.051
-529.062	-112.808	-0.364	0.073
-528.048	399.562	-0.081	0.172
-527.033	-69.179	0.425	0.165
-526.018	800.000	-0.024	-0.086
-525.004	156.152	-0.269	0.376
-523.989	-160.284	-0.022	0.001
-522.975	-64.725	0.316	-0.130
-521.960	-14.162	0.162	-0.106
-520.945	301.880	0.044	-0.083
-519.931	251.332	0.214	-0.368
-518.916	-86.979	-0.326	0.101
-517.902	800.000	-0.040	0.165
-516.887	800.000	0.008	-0.026
-515.872	-82.402	-0.106	-0.035
-514.858	-151.412	0.210	0.016
-513.843	800.000	-0.084	0.304
-512.829	-55.144	0.295	-0.134
-511.814	-14.959	-0.142	-0.092
-510.799	-29.167	-0.162	-0.094
-509.785	9.770	0.049	0.037
-508.770	727.075	0.123	0.333
-507.756	445.647	-0.131	0.291
-506.741	-200.000	0.002	-0.263
-505.726	-200.000	-0.024	-0.195
-504.712	185.069	-0.057	0.086
-503.697	-200.000	0.005	0.029
-502.683	54.369	-0.209	0.204
-501.668	800.000	0.066	0.216
-500.653	-200.000	-0.001	-0.069
-499.639	727.230	-0.026	-0.070
-498.624	109.321	-0.132	0.160
-497.610	-6.492	-0.097	-0.067
-496.595	-107.076	0.207	-0.046
-495.581	-158.447	-0.099	0.006
-494.566	49.962	0.183	-0.174
-493.551	-49.509	0.080	-0.039
-492.537	-83.792	0.084	-0.027
-491.522	-81.636	-0.283	-0.094
-490.508	702.392	0.152	-0.406
-489.493	-98.750	0.271	0.070
-488.478	-75.948	-0.152	0.055
-487.464	-200.000	0.071	-0.333
-486.449	-120.642	-0.071	0.012
-485.435	-47.710	-0.093	0.046
-484.420	-200.000	0.036	-0.223
-483.405	215.091	0.180	-0.288
-482.391	-193.754	0.168	0.001
-481.376	52.364	-0.242	0.233
-480.362	800.000	-0.045	0.163
-479.347	-26.654	-0.151	-0.089
-478.332	-38.651	0.452	-0.242
-477.318	99.490	-0.312	-0.365
-476.303	-200.000	-0.008	0.041
-475.289	800.000	-0.040	0.132
-474.274	800.000	0.048	-0.177
-473.259	800.000	-0.069	-0.278
-472.245	166.944	0.127	-0.182
-471.230	422.576	0.122	0.265
-470.216	-63.301	-0.273	-0.114
-469.201	-27.120	0.296	-0.174
-468.186	301.885	-0.044	0.083
-467.172	747.393	-0.025	-0.068
-466.157	-200.000	0.084	0.373
-465.143	-200.000	0.015	-0.211
-464.128	-110.133	-0.241	-0.051
-463.113	-13.854	0.114	-0.074
-462.099	148.789	0.086	-0.118
-461.084	124.134	-0.197	0.251
-460.070	64.244	0.138	-0.140
-459.055	452.631	-0.095	-0.212
-458.040	-200.000	-0.054	0.250
-457.026	375.708	0.121	-0.249
-456.011	207.075	-0.081	0.128
-454.997	9.741	-0.220	0.169
-453.982	216.433	-0.087	0.140
-452.968	405.584	0.053	0.113
-451.953	-65.291	-0.296	0.121
-450.938	204.544	-0.041	0.064
-449.924	42.962	-0.134	0.124
-448.909	125.634	-0.046	0.059
-447.895	434.620	-0.093	0.205
-446.880	-55.771	0.214	0.097
-445.865	125.594	-0.084	-0.107
-444.851	24.438	0.196	0.164
-443.836	-108.414	0.229	0.050
-442.822	800.000	-0.101	0.319
-441.807	-64.864	-0.093	-0.038
-440.792	17.524	0.129	0.103
-439.778	359.715	0.092	0.185
-438.763	-91.771	0.132	-0.038
-437.749	-124.552	0.150	-0.023
-436.734	387.093	-0.113	0.237
-435.719	-26.191	0.230	-0.137
-434.705	800.000	-0.027	0.117
-433.690	178.564	-0.039	0.058
-432.676	-145.385	-0.072	0.007
-431.661	-151.094	-0.128	-0.010
-430.646	-20.852	-0.169	0.105
-429.632	103.860	-0.106	-0.126
-428.617	-200.000	0.072	0.349
-427.603	-49.559	-0.182	-0.087
-426.588	800.000	-0.038	0.154
-425.573	800.000	-0.056	0.183
-424.559	-200.000	-0.038	0.253
-423.544	-123.000	-0.136	0.022
-422.530	-101.639	0.275	-0.067
-421.515	-53.928	0.126	-0.058
-420.500	183.820	-0.171	-0.255
-419.486	-200.000	0.044	-0.364
-418.471	800.000	-0.082	-0.319
-417.457	-62.272	0.066	0.028
-416.442	-78.152	0.288	-0.100
-415.428	390.297	-0.104	0.218
-414.413	-67.333	-0.132	-0.052
-413.398	140.218	0.107	0.143
-412.384	-105.062	0.475	0.110
-411.369	551.334	-0.069	0.167
-410.355	-200.000	-0.028	0.130
-409.340	235.790	-0.057	-0.095
-408.325	-60.624	0.153	-0.065
-407.311	682.510	-0.019	0.049
-406.296	800.000	0.040	0.138
-405.282	-33.994	0.270	-0.150
-404.267	-32.537	-0.362	-0.203
-403.252	73.572	0.064	-0.068
-402.238	162.771	-0.116	-0.165
-401.223	-29.833	-0.161	0.093
-400.209	-200.000	-0.005	0.158
-399.194	800.000	-0.018	0.061
-398.179	-183.448	-0.094	0.002
-397.165	11.721	0.063	0.048
-396.150	129.502	-0.110	0.141
-395.136	800.000	-0.039	-0.165
-394.121	-72.010	0.118	-0.044
-393.106	228.136	0.138	-0.227
-392.092	-143.947	-0.163	-0.015
-391.077	-25.386	-0.113	-0.068
-390.063	153.210	0.109	0.151
-389.048	-135.112	0.233	-0.028
-388.033	-17.286	-0.142	-0.090
-387.019	203.260	0.062	0.097
-386.004	283.873	0.065	0.117
-384.990	365.312	-0.069	0.140
-383.975	-106.121	0.630	0.143
-382.960	-75.962	0.134	0.048
-381.946	800.000	-0.055	-0.223
-380.931	370.686	0.106	0.216
-379.917	-200.000	0.039	0.328
-378.902	-200.000	0.012	-0.100
-377.888	131.156	0.037	0.048
-376.873	-200.000	-0.003	0.041
-375.858	-67.774	0.199	0.078
-374.844	118.479	0.034	-0.042
-373.829	230.308	-0.217	-0.357
-372.815	-124.988	0.112	-0.017
-371.800	8.233	-0.192	-0.145
-370.785	181.771	0.259	-0.383
-369.771	5.950	-0.160	0.120
-368.756	-157.130	-0.152	0.009
-367.742	156.352	-0.096	-0.133
-366.727	-200.000	0.020	0.348
-365.712	22.161	-0.080	-0.066
-364.698	151.462	0.150	-0.205
-363.683	111.063	-0.025	-0.031
-362.669	-150.923	-0.205	-0.016
-361.654	800.000	0.050	0.166
-360.639	800.000	-0.012	-0.051
-359.625	137.029	0.223	0.294
-358.610	-48.864	0.101	-0.049
-357.596	88.363	-0.292	-0.326
-356.581	-75.281	-0.138	-0.049
-355.566	800.000	-0.088	0.287
-354.552	-200.000	-0.020	0.308
-353.537	399.724	-0.036	-0.075
-352.523	-200.000	-0.077	0.390
-351.508	-80.745	0.303	0.101
-350.493	346.960	-0.133	0.264
-349.479	35.092	0.104	-0.092
-348.464	-94.452	-0.160	-0.044
-347.450	-50.192	0.159	-0.076
-346.435	-53.472	0.321	-0.148
-345.420	-63.021	-0.156	0.065
-344.406	-99.139	0.279	0.071
-343.391	229.413	-0.086	-0.142
-342.377	-136.883	-0.342	-0.040
-341.362	-200.000	0.031	0.252
-340.348	-120.333	0.308	0.053
-339.333	-9.362	-0.213	-0.143
-338.318	-114.219	0.207	-0.040
-337.304	13.069	0.113	-0.088
-336.289	-200.000	0.007	-0.307
-335.275	-178.363	-0.139	-0.003
-334.260	800.000	0.072	0.233
-333.245	-75.827	0.134	-0.048
-332.231	-102.634	-0.229	-0.055
-331.216	800.000	0.012	0.053
-330.202	695.902	0.032	0.083
-329.187	-179.358	-0.047	-0.001
-328.172	27.449	-0.264	-0.223
-327.158	1.377	-0.111	-0.080
-326.143	-66.290	-0.201	-0.081
-325.129	208.834	-0.078	-0.123
-324.114	292.352	0.033	-0.061
-323.099	-65.262	-0.437	0.177
-322.085	210.519	-0.106	-0.168
-321.070	67.570	-0.090	-0.092
-320.056	15.280	0.130	0.102
-319.041	437.160	0.224	0.490
-318.026	9.564	0.217	0.165
-317.012	-135.977	0.119	-0.014
-315.997	31.062	-0.191	-0.164
-314.983	19.417	-0.124	0.100
-313.968	-114.606	0.126	0.024
-312.953	-55.511	0.223	-0.100
-311.939	-55.579	-0.137	-0.062
-310.924	-39.499	-0.266	-0.140
-309.910	159.578	-0.184	-0.257
-308.895	62.371	-0.282	-0.283
-307.880	-200.000	0.029	0.344
-306.866	-129.640	0.086	0.012
-305.851	64.796	-0.180	0.183
-304.837	721.392	0.041	0.109
-303.822	-67.431	0.111	-0.044
-302.807	798.669	-0.074	-0.205
-301.793	206.977	-0.233	-0.366
-300.778	800.000	-0.031	-0.111
-299.764	57.021	-0.158	0.155
-298.749	-200.000	0.036	0.210
-297.735	-55.919	0.242	0.108
-296.720	-26.076	0.087	-0.051
-295.705	-119.287	0.347	-0.061
-294.691	-28.458	-0.274	0.159
-293.676	175.584	0.236	0.344
-292.662	-54.659	0.238	-0.108
-291.647	603.769	0.125	-0.313
-290.632	-141.990	0.322	-0.032
-289.618	-200.000	0.024	0.195
-288.603	-87.008	-0.166	-0.051
-287.589	358.274	-0.092	0.185
-286.574	25.403	-0.154	0.129
-285.559	-113.468	0.379	0.075
-284.545	-200.000	-0.006	0.161
-283.530	-200.000	-0.064	0.409
-282.516	142.062	-0.074	0.099
-281.501	28.146	0.199	0.169
-280.486	201.027	-0.068	-0.104
-279.472	-20.044	0.138	0.086
-278.457	243.976	-0.097	-0.163
-277.443	800.000	0.030	-0.106
-276.428	-150.381	0.048	0.004
-275.413	-200.000	-0.057	-0.318
-274.399	4.700	0.133	-0.098
-273.384	800.000	-0.011	-0.048
-272.370	63.824	-0.292	-0.294
-271.355	-25.267	0.270	0.160
-270.340	29.573	0.213	0.181
-269.326	800.000	-0.046	0.177
-268.311	553.200	0.095	0.229
-267.297	45.431	-0.263	-0.244
-266.282	51.174	0.077	-0.074
-265.267	-200.000	0.013	0.145
-264.253	136.820	0.143	-0.188
-263.238	-200.000	0.051	-0.332
-262.224	112.304	0.088	-0.106
-261.209	19.864	-0.088	0.071
-260.195	-165.038	0.060	0.003
-259.180	-60.952	-0.150	0.063
-258.165	0.094	-0.287	0.205
-257.151	-3.315	-0.221	0.154
-256.136	81.548	0.177	0.192
-255.122	-32.506	0.079	-0.044
-254.107	-200.000	-0.041	-0.242
-253.092	-30.926	0.226	0.128
-252.078	140.609	0.172	0.227
-251.063	237.935	-0.040	-0.067
-250.049	332.271	0.053	-0.103
-249.034	-12.441	-0.123	0.081
-248.019	-34.576	0.093	0.051
-247.005	-24.820	-0.279	-0.166
-245.990	103.114	0.038	0.045
-244.976	-200.000	0.012	0.187
-243.961	-143.767	-0.105	0.010
-242.946	95.516	0.268	0.307
-241.932	-4.775	0.105	0.072
-240.917	-39.419	-0.227	-0.119
-239.903	800.000	0.034	-0.119
-238.888	493.571	0.119	0.272
-237.873	800.000	-0.035	0.151
-236.859	-36.905	-0.098	0.053
-235.844	-157.114	0.200	0.012
-234.830	-47.011	-0.230	0.112
-233.815	-60.054	-0.207	-0.089
-232.800	-126.654	-0.109	-0.016
-231.786	-39.125	0.122	0.064
-230.771	800.000	0.045	-0.161
-229.757	-200.000	-0.024	0.186
-228.742	-200.000	-0.020	0.000
-227.727	-200.000	0.002	-0.017
-226.713	-48.315	-0.443	0.214
-225.698	-200.000	-0.017	0.118
-224.684	-49.689	0.159	0.076
-223.669	403.933	-0.077	-0.162
-222.655	800.000	0.022	-0.086
-221.640	-88.958	-0.252	0.075
-220.625	-75.721	-0.198	-0.070
-219.611	230.168	-0.085	0.139
-218.596	476.335	-0.132	-0.300
-217.582	559.570	0.072	0.175
-216.567	800.000	-0.064	0.218
-215.552	74.122	-0.120	0.126
-214.538	-83.448	0.258	-0.083
-213.523	-69.434	0.020	0.008
-212.509	42.887	-0.114	0.104
-211.494	-96.872	0.224	-0.059
-210.479	-18.060	0.233	0.146
-209.465	-27.303	-0.454	0.265
-208.450	-200.000	-0.016	0.134
-207.436	-3.086	-0.102	-0.071
-206.421	479.379	0.135	-0.307
-205.406	800.000	-0.043	0.160
-204.392	580.248	-0.056	-0.137
-203.377	392.518	-0.157	-0.327
-202.363	42.559	0.090	0.082
-201.348	37.802	-0.136	0.121
-200.333	-161.213	-0.525	-0.027
-199.319	-200.000	-0.036	-0.244
-198.304	170.692	0.180	-0.258
-197.290	-124.442	0.018	0.003
-196.275	-200.000	0.004	-0.084
-195.260	149.183	0.108	-0.146
-194.246	166.557	0.117	0.166
-193.231	-69.486	0.155	0.059
-192.217	427.178	0.111	-0.240
-191.202	-200.000	0.003	-0.286
-190.187	-85.209	0.339	0.106
-189.173	-116.482	0.323	-0.060
-188.158	424.644	-0.114	0.246
-187.144	234.662	0.131	0.216
-186.129	-200.000	0.031	-0.196
-185.114	-114.456	0.256	0.049
-184.100	-47.757	0.404	-0.196
-183.085	108.062	0.189	0.226
-182.071	-200.000	-0.007	-0.206
-181.056	-200.000	0.012	0.058
-180.042	-60.899	-0.031	-0.013
-179.027	-9.864	0.347	0.231
-178.012	-83.892	0.132	-0.042
-176.998	-103.304	-0.319	0.075
-175.983	800.000	-0.089	0.364
-174.969	-200.000	-0.025	-0.164
-173.954	18.526	-0.147	-0.118
-172.939	545.623	0.069	-0.164
-171.925	-3.704	-0.269	-0.187
-170.910	-54.907	0.190	-0.086
-169.896	-200.000	0.060	0.272
-168.881	203.915	0.086	0.132
-167.866	200.723	0.056	-0.085
-166.852	-36.939	-0.177	0.095
-165.837	16.721	0.107	-0.084
-164.823	-45.648	-0.077	-0.038
-163.808	118.024	-0.072	0.089
-162.793	-200.000	-0.009	0.234
-161.779	-6.531	-0.125	-0.085
-160.764	-2.387	0.272	-0.190
-159.750	697.632	0.042	-0.109
-158.735	-80.248	0.104	-0.035
-157.720	-103.080	-0.067	0.016
-156.706	641.107	-0.063	-0.160
-155.691	253.501	0.162	-0.276
-154.677	0.955	0.203	0.145
-153.662	-49.099	0.145	-0.069
-152.647	-0.538	-0.112	0.079
-151.633	417.439	0.004	0.008
-150.618	-65.266	0.430	-0.173
-149.604	800.000	-0.021	0.062
-148.589	-11.230	-0.473	0.311
-147.574	287.085	-0.094	0.170
-146.560	541.263	0.114	-0.270
-145.545	5.550	0.173	-0.127
-144.531	-117.545	-0.275	0.050
-143.516	-110.081	0.380	0.079
-142.502	-134.467	0.381	-0.047
-141.487	-10.204	0.309	-0.204
-140.472	282.527	0.092	0.165
-139.458	-61.692	-0.359	0.150
-138.443	22.744	-0.289	-0.236
-137.429	-200.000	0.027	-0.324
-136.414	177.938	0.084	0.122
-135.399	800.000	-0.011	0.033
-134.385	-2.456	0.100	-0.070
-133.370	19.360	-0.166	-0.133
-132.356	-144.398	-0.122	-0.011
-131.341	26.811	0.151	0.126
-130.326	-66.421	-0.226	-0.089
-129.312	800.000	0.074	0.230
-128.297	149.769	-0.051	0.070
-127.283	142.463	-0.116	0.154
-126.268	-151.468	0.288	-0.021
-125.253	-200.000	-0.051	-0.367
-124.239	800.000	-0.029	0.099
-123.224	-119.979	-0.212	0.036
-122.210	-97.319	-0.527	0.137
-121.195	190.895	0.174	0.261
