DTS Sentinel unit serial number:	SN413079Multiplexer serial number:	ORYXHardware model number:	OX4-SRSoftware version number:	ORYX F/W v4.00 Oryx Data Collector v3.7.2.0data status	okinstallation	princeton_trtdifferential loss correction	single-endedforward channel	channel 1reverse channel	N/Adate	2019/09/15time	17:38:35forward acquisition time	60.00reverse acquisition time	0.00gamma	496.2192k internal	0.2291k external	0.2291temperature offset calibration	0.9933default loss term (dB/km)	0.3790temperature slope calibration	1.0000multiplexer offset coefficient	1.0000multiplexer slope coefficient	1.0000fibre end	0.00T internal ref (°C)	44.87T ext. ref 1 (°C)	6.23T ext. ref 2 (°C)	39.89length (m)	temperature (°C)	Stokes	anti-Stokes-747.200	-151.104	0.265	0.020
-746.185	84.648	-0.095	0.106
-745.171	97.230	0.089	0.104
-744.156	142.881	-0.212	0.288
-743.142	-200.000	-0.015	0.148
-742.127	-45.724	-0.184	0.093
-741.112	-200.000	-0.048	0.255
-740.098	-183.327	-0.313	0.006
-739.083	-78.436	-0.072	0.025
-738.069	-157.958	-0.445	0.027
-737.054	-52.691	-0.200	0.094
-736.039	800.000	-0.058	0.201
-735.025	102.877	-0.143	0.172
-734.010	-39.792	-0.348	-0.186
-732.996	800.000	-0.059	0.184
-731.981	-0.858	0.059	0.043
-730.966	-139.265	0.200	0.022
-729.952	538.061	0.148	-0.361
-728.937	181.014	0.045	-0.068
-727.923	-70.860	-0.236	-0.091
-726.908	-42.029	-0.198	0.104
-725.894	53.141	0.156	0.153
-724.879	200.824	-0.123	0.194
-723.864	-119.891	0.084	-0.015
-722.850	-101.628	0.065	0.016
-721.835	-52.039	-0.169	-0.080
-720.821	-200.000	0.012	0.137
-719.806	49.476	-0.307	-0.296
-718.791	800.000	-0.022	0.084
-717.777	-33.359	0.041	0.023
-716.762	-69.576	-0.113	0.044
-715.748	-109.666	-0.243	0.052
-714.733	270.051	-0.189	-0.341
-713.718	-200.000	-0.019	-0.379
-712.704	18.852	0.168	-0.138
-711.689	-200.000	0.039	-0.202
-710.675	-108.070	-0.141	-0.031
-709.660	350.625	-0.034	-0.068
-708.645	-79.363	-0.209	-0.072
-707.631	800.000	0.051	0.166
-706.616	6.435	-0.161	-0.122
-705.602	34.424	-0.177	-0.158
-704.587	-5.050	-0.079	-0.055
-703.572	-38.446	-0.095	0.052
-702.558	-92.346	-0.070	-0.020
-701.543	800.000	0.078	-0.225
-700.529	-136.121	0.282	0.034
-699.514	503.716	-0.061	0.145
-698.499	-200.000	-0.029	-0.191
-697.485	800.000	0.041	0.117
-696.470	76.133	-0.030	-0.032
-695.456	-119.509	-0.042	-0.007
-694.441	232.807	-0.185	0.311
-693.426	-28.175	0.136	0.080
-692.412	-148.789	0.264	0.022
-691.397	-71.641	0.084	0.032
-690.383	-39.825	0.241	0.129
-689.368	-49.056	-0.071	0.035
-688.354	645.284	-0.064	0.166
-687.339	-86.738	-0.180	-0.056
-686.324	-105.708	-0.379	-0.088
-685.310	-200.000	0.011	-0.262
-684.295	800.000	0.032	0.097
-683.281	123.267	0.051	0.065
-682.266	361.514	0.099	0.203
-681.251	-181.003	-0.041	0.001
-680.237	-200.000	0.079	-0.429
-679.222	-200.000	0.025	-0.118
-678.208	145.487	-0.185	-0.253
-677.193	13.357	-0.064	-0.050
-676.178	-1.629	-0.061	-0.044
-675.164	-200.000	0.035	0.269
-674.149	166.277	-0.193	0.279
-673.135	-123.421	0.185	-0.030
-672.120	-200.000	0.041	0.298
-671.105	112.166	-0.172	0.213
-670.091	678.068	-0.087	0.232
-669.076	-78.142	-0.108	0.038
-668.062	-71.143	0.193	0.074
-667.047	-85.786	-0.261	0.083
-666.032	174.877	-0.005	0.007
-665.018	250.216	0.074	-0.128
-664.003	-200.000	-0.002	-0.026
-662.989	-113.252	0.064	0.013
-661.974	789.229	0.038	-0.107
-660.959	354.488	0.100	-0.203
-659.945	-138.774	0.056	-0.006
-658.930	176.858	0.089	0.132
-657.916	-126.956	0.306	0.046
-656.901	-126.589	-0.083	-0.013
-655.886	-90.315	0.334	-0.099
-654.872	-159.485	0.237	0.013
-653.857	-132.649	-0.310	0.041
-652.843	-42.591	-0.508	-0.264
-651.828	-110.352	0.165	-0.035
-650.814	-200.000	0.058	-0.315
-649.799	335.341	-0.110	0.218
-648.784	173.571	0.062	0.091
-647.770	44.754	0.124	0.116
-646.755	206.303	-0.208	0.330
-645.741	-200.000	-0.003	0.187
-644.726	-179.576	-0.168	0.004
-643.711	-200.000	-0.008	0.112
-642.697	-77.213	0.239	-0.085
-641.682	41.416	0.130	0.120
-640.668	-200.000	0.010	0.047
-639.653	247.053	0.013	0.022
-638.638	377.175	0.118	0.247
-637.624	-76.220	0.161	0.058
-636.609	135.014	-0.125	0.165
-635.595	-200.000	0.024	-0.342
-634.580	-9.882	0.346	-0.235
-633.565	800.000	-0.049	0.143
-632.551	211.828	0.125	-0.201
-631.536	-168.165	-0.418	-0.017
-630.522	136.463	0.188	-0.250
-629.507	800.000	-0.068	-0.304
-628.492	148.417	-0.094	0.129
-627.478	-200.000	0.014	0.110
-626.463	-140.818	0.336	-0.035
-625.449	-200.000	-0.025	0.184
-624.434	-161.831	-0.257	0.013
-623.419	422.805	-0.031	0.067
-622.405	2.774	-0.277	0.205
-621.390	800.000	0.028	0.081
-620.376	-200.000	0.019	0.182
-619.361	-200.000	-0.004	-0.169
-618.346	-73.029	0.401	-0.150
-617.332	64.644	-0.227	-0.233
-616.317	230.255	0.043	0.072
-615.303	-98.671	0.171	0.044
-614.288	-200.000	0.034	-0.246
-613.273	238.731	0.049	-0.083
-612.259	-57.652	0.163	-0.073
-611.244	249.134	0.086	0.149
-610.230	-190.436	-0.218	-0.002
-609.215	-200.000	0.007	0.305
-608.201	-0.629	-0.118	-0.085
-607.186	-84.096	0.221	0.071
-606.171	-114.184	0.223	0.044
-605.157	487.865	-0.025	-0.059
-604.142	196.347	0.044	-0.068
-603.128	12.880	0.148	0.116
-602.113	-145.604	0.241	-0.022
-601.098	-103.558	-0.225	0.054
-600.084	145.707	0.059	-0.081
-599.069	800.000	-0.067	0.236
-598.055	60.440	0.139	-0.140
-597.040	-19.573	0.261	-0.164
-596.025	-93.585	0.335	0.094
-595.011	96.207	-0.207	0.241
-593.996	21.643	0.123	0.102
-592.982	-86.185	-0.264	-0.083
-591.967	9.232	0.032	-0.024
-590.952	800.000	-0.102	0.382
-589.938	379.368	-0.108	-0.226
-588.923	252.634	0.149	-0.259
-587.909	-200.000	-0.002	0.477
-586.894	-154.340	-0.077	-0.005
-585.879	153.202	0.142	-0.197
-584.865	350.652	-0.065	0.132
-583.850	-122.285	-0.290	0.048
-582.836	157.114	-0.157	-0.220
-581.821	6.440	-0.307	-0.232
-580.806	-129.727	-0.142	0.020
-579.792	-61.206	0.100	0.043
-578.777	88.704	0.050	0.057
-577.763	30.136	-0.052	0.045
-576.748	-141.026	-0.288	-0.030
-575.733	-173.163	-0.401	0.013
-574.719	204.130	0.208	-0.328
-573.704	44.920	0.137	0.128
-572.690	-129.076	-0.080	0.011
-571.675	359.889	0.060	-0.123
-570.661	-200.000	0.055	-0.265
-569.646	-200.000	0.020	0.180
-568.631	214.527	0.062	-0.099
-567.617	502.318	0.070	0.164
-566.602	165.308	-0.022	-0.031
-565.588	-141.770	0.168	0.017
-564.573	22.729	-0.176	-0.146
-563.558	-37.785	0.165	0.089
-562.544	-200.000	-0.009	0.201
-561.529	-40.058	0.104	0.055
-560.515	195.431	0.157	-0.242
-559.500	800.000	-0.020	-0.077
-558.485	-200.000	-0.018	-0.176
-557.471	17.712	-0.122	-0.099
-556.456	118.721	-0.257	0.322
-555.442	503.602	-0.098	-0.231
-554.427	253.893	0.179	-0.312
-553.412	7.541	0.105	0.080
-552.398	144.215	-0.164	0.222
-551.383	-170.617	0.193	0.007
-550.369	-53.309	-0.073	-0.034
-549.354	-200.000	0.253	0.000
-548.339	-200.000	-0.009	0.101
-547.325	800.000	0.074	0.305
-546.310	702.027	-0.168	0.450
-545.296	57.119	0.107	-0.106
-544.281	-200.000	0.037	-0.208
-543.266	-200.000	-0.012	0.178
-542.252	374.432	0.113	0.235
-541.237	44.046	-0.217	-0.202
-540.223	641.611	-0.106	-0.276
-539.208	-103.121	0.273	-0.066
-538.193	800.000	0.111	0.315
-537.179	-38.128	-0.125	-0.068
-536.164	-173.182	-0.103	0.003
-535.150	-35.315	0.188	0.104
-534.135	134.261	0.180	-0.236
-533.121	83.742	0.095	-0.105
-532.106	-114.927	0.125	-0.024
-531.091	103.797	-0.260	0.310
-530.077	-14.011	-0.092	0.060
-529.062	-200.000	-0.037	0.000
-528.048	68.351	-0.060	0.062
-527.033	315.453	0.142	0.272
-526.018	800.000	0.033	-0.126
-525.004	-3.493	0.185	-0.130
-523.989	180.893	0.118	0.176
-522.975	18.231	-0.281	0.228
-521.960	-94.011	-0.267	-0.074
-520.945	800.000	0.070	0.262
-519.931	-3.205	-0.199	-0.141
-518.916	442.490	-0.161	-0.359
-517.902	-70.374	-0.296	-0.114
-516.887	15.181	-0.132	-0.105
-515.872	-95.826	0.265	-0.072
-514.858	139.046	-0.167	-0.222
-513.843	103.433	0.171	0.203
-512.829	-20.930	-0.160	-0.100
-511.814	358.657	-0.055	-0.111
-510.799	-160.052	-0.186	0.010
-509.785	-173.471	0.303	0.009
-508.770	800.000	-0.031	-0.112
-507.756	-81.031	-0.160	0.054
-506.741	-67.703	0.238	-0.095
-505.726	-59.295	0.195	0.085
-504.712	-135.016	-0.060	-0.007
-503.697	-200.000	0.032	0.367
-502.683	-57.315	0.329	0.147
-501.668	215.928	-0.122	-0.197
-500.653	-200.000	0.070	-0.316
-499.639	800.000	-0.022	-0.066
-498.624	-168.771	-0.178	-0.007
-497.610	-200.000	-0.042	-0.224
-496.595	107.145	-0.064	0.077
-495.581	406.997	0.064	-0.137
-494.566	-56.285	-0.318	0.143
-493.551	614.690	0.079	-0.201
-492.537	-172.006	0.069	0.002
-491.522	-200.000	0.012	-0.150
-490.508	172.635	-0.175	0.256
-489.493	56.068	0.135	0.133
-488.478	-67.637	0.192	-0.076
-487.464	-200.000	0.026	-0.172
-486.449	230.557	0.227	-0.376
-485.435	-200.000	0.147	0.000
-484.420	-200.000	-0.054	0.324
-483.405	-61.086	0.253	0.108
-482.391	-127.104	-0.060	0.009
-481.376	29.297	-0.345	0.297
-480.362	-55.126	0.221	-0.101
-479.347	281.051	-0.042	-0.077
-478.332	-200.000	0.014	-0.110
-477.318	147.099	0.151	0.206
-476.303	161.519	0.049	0.070
-475.289	107.478	0.196	0.237
-474.274	396.826	0.159	0.336
-473.259	-24.021	0.278	-0.168
-472.245	-200.000	-0.027	-0.134
-471.230	245.109	0.103	0.176
-470.216	41.780	0.285	0.262
-469.201	43.151	0.279	-0.258
-468.186	-100.416	0.022	0.006
-467.172	-200.000	0.017	0.252
-466.157	-96.039	0.034	-0.009
-465.143	-200.000	0.001	-0.250
-464.128	-200.000	0.032	-0.302
-463.113	66.538	0.224	0.231
-462.099	-22.345	-0.154	-0.094
-461.084	-173.345	-0.041	0.001
-460.070	-200.000	0.004	-0.202
-459.055	800.000	0.053	0.178
-458.040	800.000	-0.058	-0.194
-457.026	563.182	-0.032	0.078
-456.011	556.404	-0.113	-0.274
-454.997	800.000	-0.111	0.312
-453.982	-150.468	-0.339	0.026
-452.968	-200.000	-0.012	0.068
-451.953	43.178	-0.342	-0.316
-450.938	379.183	-0.068	-0.141
-449.924	83.167	0.101	0.111
-448.909	635.605	-0.149	-0.382
-447.895	326.893	0.092	-0.178
-446.880	46.218	0.122	0.114
-445.865	-88.526	-0.189	0.057
-444.851	-32.300	-0.046	-0.026
-443.836	13.291	0.230	-0.181
-442.822	-58.145	0.078	0.034
-441.807	-200.000	0.027	0.156
-440.792	-200.000	-0.078	0.436
-439.778	-73.548	0.329	-0.121
-438.763	-112.583	0.155	0.031
-437.749	104.371	0.349	0.415
-436.734	-59.894	-0.347	-0.150
-435.719	119.906	0.162	0.203
-434.705	-136.497	-0.467	0.055
-433.690	-118.653	0.138	-0.025
-432.676	76.889	0.207	0.222
-431.661	-41.507	0.164	0.085
-430.646	12.691	-0.105	-0.082
-429.632	800.000	0.053	0.159
-428.617	-34.938	0.230	0.127
-427.603	-91.071	-0.274	-0.080
-426.588	-200.000	0.001	0.152
-425.573	2.674	-0.424	0.311
-424.559	-76.351	0.156	0.056
-423.544	-110.323	-0.206	0.043
-422.530	613.237	-0.026	-0.066
-421.515	520.797	0.054	0.127
-420.500	800.000	0.009	0.029
-419.486	-113.952	-0.038	0.007
-418.471	29.508	0.098	0.084
-417.457	-83.862	0.384	-0.124
-416.442	66.213	-0.075	0.077
-415.428	-200.000	-0.001	-0.039
-414.413	800.000	0.031	-0.093
-413.398	178.397	0.025	-0.037
-412.384	-9.783	0.034	0.023
-411.369	2.255	-0.066	-0.049
-410.355	-200.000	0.008	-0.338
-409.340	-200.000	-0.032	-0.163
-408.325	542.517	-0.021	-0.052
-407.311	-13.322	-0.130	-0.085
-406.296	-140.423	0.232	0.024
-405.282	-122.796	-0.435	0.071
-404.267	95.065	-0.273	-0.314
-403.252	-134.912	0.039	-0.005
-402.238	-45.380	-0.353	0.177
-401.223	-116.917	-0.217	0.040
-400.209	-99.721	-0.214	-0.054
-399.194	297.875	-0.133	0.246
-398.179	-96.687	-0.204	0.054
-397.165	-99.040	-0.098	0.025
-396.150	-200.000	0.026	-0.158
-395.136	290.188	-0.129	0.236
-394.121	218.289	-0.197	-0.318
-393.106	132.774	-0.167	-0.218
-392.092	628.490	-0.052	0.134
-391.077	-200.000	-0.012	0.318
-390.063	40.423	0.141	0.128
-389.048	148.973	-0.090	-0.122
-388.033	-93.064	-0.169	0.048
-387.019	238.096	-0.053	0.089
-386.004	-51.271	0.057	0.027
-384.990	-200.000	0.016	-0.318
-383.975	-200.000	-0.006	-0.112
-382.960	-82.044	-0.054	-0.018
-381.946	147.984	-0.193	-0.263
-380.931	75.485	0.025	0.026
-379.917	-52.385	0.161	-0.075
-378.902	-200.000	-0.049	-0.243
-377.888	558.262	0.172	0.418
-376.873	-12.917	-0.194	0.128
-375.858	-200.000	-0.016	0.154
-374.844	-126.729	0.323	-0.048
-373.829	800.000	0.037	0.164
-372.815	-96.421	0.292	0.078
-371.800	-36.175	-0.184	0.100
-370.785	800.000	-0.078	-0.262
-369.771	-109.876	-0.148	-0.031
-368.756	-96.921	-0.266	-0.070
-367.742	107.403	-0.093	0.112
-366.727	-200.000	-0.028	0.403
-365.712	-200.000	-0.005	0.182
-364.698	-98.150	-0.356	0.092
-363.683	194.673	-0.183	0.280
-362.669	-32.372	0.165	0.093
-361.654	132.666	-0.111	-0.144
-360.639	-200.000	-0.027	-0.340
-359.625	26.706	0.321	-0.272
-358.610	89.000	-0.175	0.196
-357.596	800.000	-0.114	-0.386
-356.581	232.709	0.097	0.161
-355.566	-175.268	0.152	0.004
-354.552	16.995	-0.134	-0.107
-353.537	67.794	0.120	-0.124
-352.523	-88.637	-0.129	0.039
-351.508	-26.970	-0.262	0.155
-350.493	-25.740	0.045	-0.027
-349.479	-5.519	0.124	-0.086
-348.464	90.392	-0.220	-0.248
-347.450	-200.000	-0.051	-0.232
-346.435	43.463	-0.119	-0.110
-345.420	800.000	-0.044	0.132
-344.406	-120.927	0.248	-0.042
-343.391	-101.694	0.033	-0.008
-342.377	-62.925	0.253	0.105
-341.362	-200.000	0.099	0.539
-340.348	-200.000	-0.006	0.198
-339.333	283.185	-0.035	0.063
-338.318	-27.254	0.185	-0.109
-337.304	239.647	-0.097	-0.163
-336.289	-57.192	-0.303	-0.134
-335.275	-108.343	0.338	-0.073
-334.260	24.486	-0.361	-0.301
-333.245	-77.016	-0.198	0.070
-332.231	800.000	0.059	0.195
-331.216	-77.917	0.125	0.044
-330.202	57.295	-0.114	0.112
-329.187	-200.000	-0.022	-0.141
-328.172	123.411	-0.042	-0.053
-327.158	155.694	-0.175	-0.243
-326.143	33.965	0.188	0.165
-325.129	-143.909	0.261	-0.025
-324.114	-64.308	0.123	0.050
-323.099	-130.328	0.240	0.033
-322.085	10.978	-0.065	0.050
-321.070	800.000	-0.075	-0.266
-320.056	800.000	-0.030	0.119
-319.041	-200.000	-0.025	-0.135
-318.026	-159.750	0.330	-0.018
-317.012	800.000	0.068	0.234
-315.997	800.000	-0.024	-0.078
-314.983	66.774	-0.216	0.221
-313.968	120.951	-0.077	0.097
-312.953	-24.321	0.205	-0.123
-311.939	-60.881	-0.251	-0.107
-310.924	-85.127	0.224	-0.071
-309.910	-128.517	0.251	-0.036
-308.895	-48.597	-0.504	-0.244
-307.880	-199.852	0.152	0.001
-306.866	-61.321	-0.298	0.126
-305.851	800.000	0.089	0.319
-304.837	-169.313	-0.328	0.012
-303.822	-102.850	0.249	0.060
-302.807	-200.000	-0.024	-0.126
-301.793	10.461	0.186	-0.142
-300.778	800.000	-0.033	-0.102
-299.764	-90.699	-0.236	0.069
-298.749	-174.776	-0.120	-0.003
-297.735	335.023	0.063	-0.123
-296.720	607.592	0.200	-0.503
-295.705	21.342	0.290	0.237
-294.691	-27.389	-0.039	-0.023
-293.676	800.000	0.031	-0.134
-292.662	283.552	-0.203	-0.367
-291.647	-167.445	-0.350	0.014
-290.632	-200.000	0.018	-0.299
-289.618	-100.851	-0.220	0.054
-288.603	-137.604	0.125	0.014
-287.589	-92.943	0.061	-0.017
-286.574	-56.458	-0.341	0.152
-285.559	130.536	0.188	0.242
-284.545	-200.000	0.001	-0.174
-283.530	325.959	0.025	-0.048
-282.516	-81.419	0.102	0.034
-281.501	-200.000	-0.055	-0.277
-280.486	800.000	-0.098	-0.368
-279.472	257.462	-0.072	-0.125
-278.457	-19.721	-0.133	-0.082
-277.443	-200.000	0.013	0.331
-276.428	351.210	0.163	-0.323
-275.413	-28.218	-0.139	-0.081
-274.399	-91.144	0.363	-0.105
-273.384	271.856	0.131	0.232
-272.370	56.339	-0.121	0.118
-271.355	41.692	0.204	-0.186
-270.340	-200.000	0.000	-0.026
-269.326	35.886	0.124	0.110
-268.311	109.807	-0.084	0.101
-267.297	4.228	-0.030	-0.022
-266.282	578.828	0.017	0.042
-265.267	54.075	-0.114	-0.110
-264.253	-188.350	0.252	0.003
-263.238	429.186	0.088	-0.190
-262.224	-158.346	0.300	0.018
-261.209	-177.252	0.287	0.007
-260.195	-130.288	-0.144	-0.020
-259.180	305.042	0.089	0.165
-258.165	-41.308	-0.053	-0.028
-257.151	-58.067	-0.199	-0.087
-256.136	-131.724	0.033	-0.004
-255.122	-53.158	-0.093	-0.043
-254.107	26.588	-0.252	-0.211
-253.092	-46.519	0.176	0.087
-252.078	-50.318	0.203	-0.096
-251.063	800.000	0.093	-0.307
-250.049	-200.000	0.045	0.348
-249.034	800.000	0.089	-0.256
-248.019	455.749	0.072	-0.161
-247.005	131.346	-0.274	-0.353
-245.990	-25.313	0.109	0.065
-244.976	5.329	-0.183	0.135
-243.961	-26.966	-0.080	0.047
-242.946	598.345	-0.108	-0.269
-241.932	11.119	0.299	-0.230
-240.917	-200.000	-0.008	0.197
-239.903	-200.000	0.004	0.086
-238.888	-77.358	0.106	0.037
-237.873	-98.100	0.513	0.133
-236.859	594.688	0.110	-0.272
-235.844	12.648	0.170	0.132
-234.830	99.156	-0.098	-0.114
-233.815	-29.613	-0.312	-0.179
-232.800	3.279	0.198	-0.145
-231.786	-200.000	-0.078	-0.459
-230.771	-133.778	-0.332	-0.041
-229.757	-145.990	-0.309	0.027
-228.742	-68.064	0.140	-0.055
-227.727	224.647	-0.109	0.177
-226.713	11.458	-0.074	0.057
-225.698	745.427	-0.042	-0.114
-224.684	-65.644	0.170	0.068
-223.669	-200.000	-0.021	-0.174
-222.655	7.406	0.162	-0.122
-221.640	-140.714	0.466	-0.048
-220.625	233.397	0.017	-0.028
-219.611	105.368	-0.040	-0.047
-218.596	-200.000	-0.029	0.129
-217.582	64.209	-0.238	-0.241
-216.567	89.790	0.103	0.116
-215.552	57.520	0.321	0.314
-214.538	280.578	-0.073	-0.131
-213.523	164.097	0.065	-0.092
-212.509	-89.502	-0.072	-0.021
-211.494	-4.840	0.164	0.114
-210.479	-57.242	-0.217	0.096
-209.465	-200.000	0.003	0.047
-208.450	753.905	-0.061	0.167
-207.436	-109.504	0.190	-0.040
-206.421	-21.448	-0.413	-0.253
-205.406	800.000	-0.111	0.342
-204.392	227.570	0.078	0.127
-203.377	365.902	0.087	0.175
-202.363	282.106	0.118	0.212
-201.348	800.000	-0.101	-0.331
-200.333	-164.367	0.083	-0.004
-199.319	13.265	-0.110	-0.085
-198.304	-12.956	0.169	0.110
-197.290	-200.000	0.026	-0.266
-196.275	-9.707	-0.267	-0.178
-195.260	452.299	0.098	0.218
-194.246	467.298	-0.052	-0.116
-193.231	161.542	0.054	-0.076
-192.217	217.615	0.284	0.454
-191.202	9.071	0.187	0.142
-190.187	175.512	0.169	0.246
-189.173	-200.000	-0.003	0.303
-188.158	-144.402	0.079	-0.007
-187.144	800.000	-0.027	-0.081
-186.129	215.428	-0.062	0.098
-185.114	-131.120	0.219	0.029
-184.100	-47.690	-0.235	-0.114
-183.085	-151.212	0.114	0.009
-182.071	-40.594	-0.239	0.124
-181.056	-131.049	-0.088	0.012
-180.042	-50.680	-0.327	-0.154
-179.027	223.878	-0.065	0.106
-178.012	-97.586	-0.243	0.063
-176.998	-72.188	-0.248	0.092
-175.983	236.727	0.093	-0.155
-174.969	-200.000	0.040	0.267
-173.954	-7.315	0.120	-0.081
-172.939	410.384	0.040	-0.085
-171.925	-100.439	-0.238	-0.059
-170.910	-200.000	0.057	0.364
-169.896	255.979	-0.153	0.263
-168.881	-200.000	0.021	0.141
-167.866	169.438	-0.107	-0.153
-166.852	71.418	-0.322	-0.335
-165.837	-95.792	-0.090	0.024
-164.823	234.207	0.059	0.097
-163.808	-151.687	0.520	-0.038
-162.793	-6.432	0.081	0.055
-161.779	360.736	-0.104	0.209
-160.764	153.135	-0.089	0.122
-159.750	-15.767	0.093	0.059
-158.735	39.068	0.170	0.152
-157.720	800.000	0.050	0.208
-156.706	-68.881	0.281	-0.109
-155.691	-99.758	-0.216	0.054
-154.677	775.660	0.069	0.189
-153.662	11.857	0.131	-0.101
-152.647	-77.504	-0.152	0.053
-151.633	800.000	-0.087	-0.310
-150.618	23.618	-0.263	-0.217
-149.604	167.091	0.167	-0.237
-148.589	-63.649	0.279	0.115
-147.574	153.671	-0.203	0.278
-146.560	-200.000	0.042	-0.188
-145.545	-134.279	-0.152	0.019
-144.531	-161.491	0.350	-0.018
-143.516	112.428	0.072	-0.087
-142.502	343.920	0.085	0.167
-141.487	-31.629	0.287	0.161
-140.472	800.000	0.072	0.258
-139.458	111.770	0.307	0.371
-138.443	38.433	0.128	0.114
-137.429	6.463	0.189	0.140
-136.414	55.593	-0.086	0.083
-135.399	168.159	-0.206	0.294
-134.385	522.066	0.088	0.207
-133.370	-116.580	-0.116	-0.021
-132.356	-79.051	0.091	-0.031
-131.341	-55.548	0.398	0.178
-130.326	31.018	-0.147	0.126
-129.312	59.755	0.247	0.243
-128.297	-127.185	0.246	-0.036
-127.283	-184.145	-0.234	0.004
-126.268	23.607	0.413	-0.340
-125.253	-40.476	0.315	0.164
-124.239	174.875	0.086	0.125
-123.224	-21.970	-0.056	0.034
-122.210	-200.000	0.034	-0.219
-121.195	-200.000	0.061	-0.367
-120.180	-54.083	0.224	-0.102
