DTS Sentinel unit serial number:	SN413079Multiplexer serial number:	ORYXHardware model number:	OX4-SRSoftware version number:	ORYX F/W v4.00 Oryx Data Collector v3.7.2.0data status	okinstallation	princeton_trtdifferential loss correction	single-endedforward channel	channel 1reverse channel	N/Adate	2019/09/16time	13:18:35forward acquisition time	60.00reverse acquisition time	0.00gamma	496.2192k internal	0.2294k external	0.2294temperature offset calibration	0.9946default loss term (dB/km)	0.3790temperature slope calibration	1.0000multiplexer offset coefficient	1.0000multiplexer slope coefficient	1.0000fibre end	0.00T internal ref (°C)	41.30T ext. ref 1 (°C)	13.72T ext. ref 2 (°C)	39.28length (m)	temperature (°C)	Stokes	anti-Stokes-747.200	800.000	0.089	0.327
-746.185	-200.000	0.024	0.476
-745.171	554.331	-0.184	0.452
-744.156	51.500	0.152	0.147
-743.142	-149.696	-0.116	-0.009
-742.127	-200.000	-0.007	0.443
-741.112	142.515	-0.133	0.180
-740.098	215.996	-0.154	0.250
-739.083	152.027	-0.017	0.023
-738.069	53.658	-0.130	0.127
-737.054	-200.000	-0.018	0.345
-736.039	-60.854	-0.212	-0.092
-735.025	-95.121	-0.260	-0.072
-734.010	-195.644	-0.289	0.002
-732.996	-200.000	-0.035	-0.262
-731.981	-144.493	0.255	-0.024
-730.966	800.000	-0.028	-0.087
-729.952	-140.979	0.141	-0.015
-728.937	99.333	0.208	0.245
-727.923	150.651	0.200	0.278
-726.908	-66.289	-0.233	0.095
-725.894	-13.892	0.025	0.017
-724.879	42.725	-0.300	0.279
-723.864	-61.488	0.211	0.090
-722.850	-152.427	-0.033	0.002
-721.835	-200.000	-0.013	0.180
-720.821	44.183	0.264	0.247
-719.806	137.040	-0.218	-0.292
-718.791	94.336	0.049	-0.057
-717.777	86.896	-0.092	-0.104
-716.762	-200.000	-0.022	-0.182
-715.748	-200.000	0.029	-0.352
-714.733	800.000	0.033	-0.098
-713.718	548.934	0.048	-0.118
-712.704	800.000	-0.010	-0.038
-711.689	106.514	-0.131	-0.159
-710.675	550.197	-0.068	0.168
-709.660	-112.768	-0.365	0.074
-708.645	630.749	-0.162	0.419
-707.631	8.191	0.528	0.405
-706.616	-80.020	0.359	0.123
-705.602	-200.000	0.051	0.239
-704.587	-200.000	-0.002	-0.141
-703.572	800.000	-0.097	0.384
-702.558	-44.944	-0.364	0.185
-701.543	335.423	0.058	0.115
-700.529	-99.811	0.189	-0.048
-699.514	-200.000	-0.008	-0.121
-698.499	338.682	-0.193	-0.383
-697.485	-200.000	0.002	-0.050
-696.470	-12.340	0.038	-0.025
-695.456	-138.540	-0.157	0.018
-694.441	530.342	0.066	0.160
-693.426	-200.000	0.363	0.001
-692.412	-5.716	0.010	-0.007
-691.397	416.482	-0.033	-0.073
-690.383	-138.951	0.313	0.035
-689.368	-90.647	-0.184	-0.054
-688.354	191.968	0.073	-0.112
-687.339	140.899	-0.156	-0.211
-686.324	26.532	0.124	-0.106
-685.310	-133.097	-0.394	-0.051
-684.295	-139.894	0.298	0.032
-683.281	-56.832	-0.132	-0.060
-682.266	-60.524	0.103	0.045
-681.251	800.000	-0.049	-0.200
-680.237	-200.000	0.021	0.325
-679.222	-101.931	0.196	-0.048
-678.208	-200.000	-0.052	0.239
-677.193	-26.601	0.200	0.119
-676.178	800.000	-0.012	-0.036
-675.164	252.544	0.057	0.099
-674.149	-50.055	-0.313	-0.151
-673.135	270.523	-0.100	-0.179
-672.120	-138.648	0.131	-0.015
-671.105	-75.339	-0.101	0.037
-670.091	496.503	-0.039	-0.091
-669.076	-23.911	0.060	0.036
-668.062	91.735	0.108	0.123
-667.047	-200.000	-0.081	0.000
-666.032	-101.589	0.195	0.048
-665.018	-11.620	-0.228	0.153
-664.003	-12.343	0.422	-0.281
-662.989	99.038	0.096	-0.113
-661.974	-200.000	0.036	-0.216
-660.959	2.955	-0.132	0.098
-659.945	48.318	-0.376	-0.359
-658.930	-57.827	-0.041	0.018
-657.916	123.835	0.190	-0.243
-656.901	-170.199	0.076	0.003
-655.886	-168.074	0.142	0.006
-654.872	800.000	-0.054	-0.198
-653.857	-82.390	0.311	0.103
-652.843	-200.000	0.020	0.264
-651.828	59.146	0.115	-0.115
-650.814	-23.861	-0.139	-0.084
-649.799	-143.551	0.048	0.005
-648.784	-191.505	0.095	-0.001
-647.770	80.789	-0.045	0.049
-646.755	328.195	0.199	-0.388
-645.741	-4.792	0.234	-0.164
-644.726	-95.905	-0.160	0.044
-643.711	-31.243	-0.241	-0.139
-642.697	-70.783	-0.160	0.061
-641.682	144.669	-0.103	0.141
-640.668	-200.000	0.052	0.470
-639.653	-64.219	0.315	-0.131
-638.638	-133.880	-0.326	0.041
-637.624	390.026	0.150	0.317
-636.609	-200.000	0.010	0.157
-635.595	800.000	0.013	0.040
-634.580	-48.480	0.183	0.090
-633.565	707.549	0.099	-0.266
-632.551	-34.234	0.040	-0.022
-631.536	-163.464	-0.295	0.014
-630.522	245.146	0.019	-0.032
-629.507	-133.821	-0.152	-0.019
-628.492	160.596	0.245	0.348
-627.478	178.039	-0.094	0.140
-626.463	-3.059	0.163	0.116
-625.449	-78.668	-0.199	0.069
-624.434	-27.572	-0.100	-0.059
-623.419	239.511	-0.123	0.208
-622.405	800.000	-0.082	-0.291
-621.390	800.000	-0.018	-0.056
-620.376	303.436	-0.061	0.115
-619.361	380.029	-0.166	-0.346
-618.346	-188.578	0.159	-0.002
-617.332	-200.000	-0.023	0.140
-616.317	-200.000	0.017	-0.131
-615.303	148.023	0.049	-0.068
-614.288	-102.723	-0.197	0.048
-613.273	-48.526	0.165	0.081
-612.259	-200.000	0.032	-0.299
-611.244	-165.002	-0.157	-0.007
-610.230	-200.000	-0.000	-0.064
-609.215	800.000	-0.064	0.230
-608.201	-81.629	-0.197	-0.066
-607.186	389.075	-0.096	-0.202
-606.171	-82.239	-0.226	0.075
-605.157	-84.454	0.033	-0.011
-604.142	121.872	-0.154	-0.195
-603.128	56.842	0.075	-0.074
-602.113	-49.208	0.139	-0.067
-601.098	-63.027	0.129	-0.054
-600.084	249.423	0.169	-0.292
-599.069	7.560	0.346	0.263
-598.055	183.548	-0.277	-0.416
-597.040	-141.784	-0.240	-0.024
-596.025	-149.442	0.078	-0.006
-595.011	248.464	-0.102	-0.176
-593.996	-200.000	0.028	-0.225
-592.982	-141.518	0.199	0.020
-591.967	-92.274	-0.421	-0.121
-590.952	318.447	0.088	-0.170
-589.938	374.451	-0.265	0.548
-588.923	230.132	-0.074	0.124
-587.909	83.005	-0.077	-0.085
-586.894	462.187	0.035	0.079
-585.879	-2.324	-0.048	0.034
-584.865	-119.010	-0.072	-0.013
-583.850	800.000	-0.047	0.194
-582.836	-200.000	-0.012	0.312
-581.821	-200.000	-0.113	-0.665
-580.806	489.186	0.146	-0.339
-579.792	106.388	-0.056	-0.068
-578.777	47.101	0.201	-0.190
-577.763	-103.116	0.279	0.067
-576.748	-200.000	0.066	-0.304
-575.733	122.467	-0.097	0.123
-574.719	340.163	-0.098	-0.194
-573.704	800.000	-0.104	0.364
-572.690	-20.260	0.118	0.074
-571.675	-200.000	-0.011	-0.131
-570.661	-100.425	0.247	0.062
-569.646	39.908	0.074	-0.067
-568.631	800.000	-0.026	0.093
-567.617	-200.000	0.014	0.063
-566.602	223.445	-0.182	-0.298
-565.588	-87.857	-0.160	0.049
-564.573	-142.944	-0.244	-0.024
-563.558	-45.139	-0.355	0.179
-562.544	-81.411	-0.306	0.102
-561.529	216.131	0.025	-0.040
-560.515	138.629	-0.080	0.107
-559.500	-157.649	0.466	0.028
-558.485	641.003	0.059	-0.152
-557.471	-200.000	0.010	-0.208
-556.456	800.000	-0.063	-0.259
-555.442	-95.878	0.272	-0.074
-554.427	-200.000	0.033	0.232
-553.412	-200.000	0.032	0.271
-552.398	800.000	0.037	-0.140
-551.383	-30.806	-0.136	-0.078
-550.369	-151.202	0.028	0.002
-549.354	-118.659	0.262	-0.047
-548.339	124.414	-0.194	-0.247
-547.325	800.000	-0.021	0.064
-546.310	-10.776	0.130	0.087
-545.296	82.100	0.333	-0.366
-544.281	800.000	0.040	-0.129
-543.266	3.097	0.165	0.122
-542.252	-128.711	0.164	-0.023
-541.237	27.531	-0.201	-0.171
-540.223	-46.719	0.088	-0.044
-539.208	-120.747	0.437	0.075
-538.193	174.452	0.114	0.167
-537.179	261.596	0.161	0.284
-536.164	246.375	0.090	0.154
-535.150	-190.604	-0.103	-0.001
-534.135	27.200	0.049	-0.042
-533.121	192.386	0.119	0.182
-532.106	737.238	-0.070	-0.190
-531.091	-200.000	0.006	-0.154
-530.077	47.974	0.169	-0.160
-529.062	101.117	-0.159	-0.187
-528.048	800.000	-0.047	-0.194
-527.033	-149.903	-0.259	-0.021
-526.018	800.000	0.104	0.326
-525.004	169.749	-0.096	0.140
-523.989	522.259	-0.133	0.318
-522.975	48.653	-0.114	-0.109
-521.960	-200.000	0.029	0.251
-520.945	143.103	-0.226	0.305
-519.931	128.901	0.095	0.123
-518.916	-71.488	0.236	0.090
-517.902	224.684	-0.100	0.164
-516.887	157.191	0.339	0.475
-515.872	-74.209	-0.069	-0.025
-514.858	-51.222	0.253	-0.120
-513.843	-200.000	-0.009	-0.081
-512.829	630.718	0.059	-0.152
-511.814	-200.000	-0.020	0.101
-510.799	-73.819	0.068	-0.025
-509.785	359.723	0.086	-0.174
-508.770	50.431	0.165	0.159
-507.756	-61.682	-0.243	0.103
-506.741	205.777	0.083	0.130
-505.726	-200.000	-0.028	0.125
-504.712	11.525	-0.160	0.125
-503.697	-72.667	-0.183	0.068
-502.683	323.071	-0.187	0.362
-501.668	181.939	0.055	-0.082
-500.653	-200.000	0.035	-0.335
-499.639	147.264	0.186	-0.254
-498.624	60.015	-0.310	0.310
-497.610	-73.239	-0.098	-0.036
-496.595	152.774	-0.079	-0.110
-495.581	22.843	0.146	-0.121
-494.566	-200.000	-0.012	0.311
-493.551	800.000	0.021	-0.078
-492.537	131.700	0.263	0.342
-491.522	-77.439	0.193	-0.068
-490.508	-200.000	0.014	0.076
-489.493	118.269	0.049	0.061
-488.478	-185.278	-0.128	0.002
-487.464	-115.554	0.216	-0.041
-486.449	75.940	-0.102	-0.110
-485.435	56.940	-0.212	0.209
-484.420	-63.771	-0.261	0.108
-483.405	107.134	-0.133	-0.160
-482.391	-189.121	0.263	0.003
-481.376	-30.563	-0.322	-0.185
-480.362	-49.720	-0.105	-0.051
-479.347	0.460	-0.009	0.007
-478.332	-186.398	-0.118	-0.002
-477.318	-33.743	0.250	0.139
-476.303	72.357	-0.056	0.059
-475.289	224.863	0.147	0.240
-474.274	-54.943	0.094	0.043
-473.259	10.094	-0.204	-0.157
-472.245	-151.782	-0.227	-0.017
-471.230	-21.972	-0.407	0.250
-470.216	800.000	-0.066	0.284
-469.201	204.919	0.134	-0.211
-468.186	13.276	-0.285	-0.223
-467.172	800.000	0.080	-0.229
-466.157	1.207	-0.131	0.095
-465.143	800.000	0.045	0.146
-464.128	486.429	-0.066	-0.153
-463.113	148.447	-0.091	0.124
-462.099	-19.681	0.269	-0.168
-461.084	800.000	0.046	0.181
-460.070	-200.000	-0.021	-0.165
-459.055	427.373	0.031	-0.067
-458.040	6.229	-0.176	0.132
-457.026	-146.634	0.196	0.017
-456.011	3.703	-0.150	0.110
-454.997	100.402	0.180	-0.211
-453.982	255.221	0.024	-0.042
-452.968	-56.532	-0.281	-0.126
-451.953	-81.908	0.153	0.051
-450.938	-61.063	-0.078	0.033
-449.924	-149.679	-0.426	-0.034
-448.909	185.354	-0.056	-0.084
-447.895	-130.881	0.157	-0.021
-446.880	381.173	0.180	-0.373
-445.865	-171.818	0.097	-0.003
-444.851	461.343	0.172	0.389
-443.836	-29.465	0.220	0.127
-442.822	-46.472	-0.049	-0.024
-441.807	98.006	0.173	0.201
-440.792	14.114	-0.064	-0.051
-439.778	420.550	0.155	0.336
-438.763	246.686	0.238	0.405
-437.749	-129.930	-0.223	-0.031
-436.734	129.959	0.038	-0.049
-435.719	166.795	0.237	-0.340
-434.705	-200.000	-0.016	-0.351
-433.690	-142.977	0.330	0.032
-432.676	-200.000	-0.054	0.328
-431.661	216.151	-0.149	-0.239
-430.646	664.745	-0.086	-0.224
-429.632	-65.432	0.329	0.134
-428.617	22.975	0.347	-0.288
-427.603	-200.000	0.092	-0.413
-426.588	-190.193	-0.493	0.006
-425.573	43.863	-0.129	0.119
-424.559	515.890	0.117	0.276
-423.544	-84.811	0.204	-0.065
-422.530	-65.743	0.408	-0.165
-421.515	800.000	-0.095	-0.361
-420.500	323.099	-0.053	-0.102
-419.486	-151.027	-0.424	0.032
-418.471	800.000	-0.035	0.099
-417.457	-118.490	0.083	-0.015
-416.442	221.846	-0.212	-0.344
-415.428	-188.608	-0.042	-0.001
-414.413	-36.992	-0.110	0.060
-413.398	800.000	-0.032	0.129
-412.384	19.377	0.250	-0.203
-411.369	38.990	0.323	0.291
-410.355	-200.000	0.010	-0.168
-409.340	-200.000	0.013	0.103
-408.325	-140.873	0.213	0.022
-407.311	-153.713	0.279	-0.019
-406.296	-65.203	-0.096	0.039
-405.282	199.924	0.020	0.031
-404.267	-130.902	-0.150	-0.020
-403.252	82.486	-0.219	-0.240
-402.238	270.867	-0.090	0.159
-401.223	233.994	-0.156	-0.259
-400.209	-200.000	0.014	0.205
-399.194	27.302	0.199	0.168
-398.179	-49.610	-0.331	0.159
-397.165	60.242	-0.089	0.088
-396.150	-124.096	0.236	-0.037
-395.136	800.000	-0.021	0.066
-394.121	432.743	-0.050	-0.111
-393.106	800.000	-0.037	-0.155
-392.092	-35.082	-0.207	0.114
-391.077	-30.768	0.167	-0.095
-390.063	-200.000	-0.023	0.375
-389.048	133.332	-0.154	-0.200
-388.033	-200.000	0.013	0.101
-387.019	41.553	-0.161	0.147
-386.004	-200.000	0.029	0.151
-384.990	-57.495	0.150	-0.066
-383.975	11.142	-0.238	0.183
-382.960	31.124	0.078	0.067
-381.946	89.205	0.222	0.249
-380.931	800.000	-0.034	0.134
-379.917	-200.000	0.009	0.152
-378.902	-15.646	-0.195	-0.125
-377.888	-200.000	0.003	0.123
-376.873	-71.405	0.196	-0.074
-375.858	228.854	-0.022	-0.036
-374.844	8.642	0.126	0.095
-373.829	40.043	-0.365	0.331
-372.815	-26.643	-0.217	-0.128
-371.800	-200.000	0.010	-0.239
-370.785	110.195	0.089	0.108
-369.771	-200.000	-0.043	-0.207
-368.756	0.098	0.115	0.082
-367.742	-76.608	-0.171	0.060
-366.727	-200.000	-0.017	-0.198
-365.712	-99.573	-0.049	-0.012
-364.698	800.000	-0.035	0.115
-363.683	68.080	0.201	-0.207
-362.669	76.962	0.075	-0.080
-361.654	532.442	0.068	0.162
-360.639	273.960	0.013	-0.023
-359.625	6.862	0.082	0.062
-358.610	-200.000	-0.048	0.292
-357.596	118.489	0.215	-0.268
-356.581	-112.731	-0.175	-0.035
-355.566	-77.793	0.104	-0.036
-354.552	481.365	0.102	0.232
-353.537	-188.177	0.172	-0.002
-352.523	800.000	0.040	0.128
-351.508	800.000	-0.032	-0.112
-350.493	86.601	-0.304	-0.337
-349.479	-57.580	-0.224	-0.099
-348.464	83.949	-0.035	0.039
-347.450	-200.000	0.034	0.326
-346.435	-68.861	-0.225	0.088
-345.420	-200.000	-0.050	-0.360
-344.406	34.265	-0.061	-0.054
-343.391	-53.494	-0.183	-0.084
-342.377	-53.812	0.042	-0.019
-341.362	800.000	-0.080	-0.232
-340.348	86.398	-0.063	0.070
-339.333	94.354	-0.060	0.068
-338.318	-200.000	-0.051	0.268
-337.304	-93.194	-0.204	-0.057
-336.289	91.528	0.033	-0.037
-335.275	-47.061	0.155	0.076
-334.260	-50.207	0.110	0.052
-333.245	76.518	0.059	0.063
-332.231	-200.000	0.041	0.204
-331.216	634.591	0.090	-0.230
-330.202	-200.000	0.026	-0.211
-329.187	-97.270	-0.367	-0.096
-328.172	-200.000	0.006	-0.262
-327.158	50.072	0.107	0.102
-326.143	-200.000	0.016	-0.087
-325.129	57.751	-0.132	0.130
-324.114	156.552	0.186	0.258
-323.099	-200.000	0.010	0.240
-322.085	800.000	-0.053	-0.211
-321.070	12.088	-0.187	-0.145
-320.056	-200.000	-0.065	-0.358
-319.041	-60.365	-0.160	-0.069
-318.026	-200.000	0.009	0.076
-317.012	249.021	-0.078	0.133
-315.997	47.274	-0.276	-0.259
-314.983	259.887	0.119	-0.206
-313.968	536.097	-0.108	-0.257
-312.953	325.965	-0.052	0.101
-311.939	-156.840	0.510	0.032
-310.924	418.281	-0.113	0.242
-309.910	-200.000	0.019	-0.166
-308.895	-83.460	0.288	-0.093
-307.880	28.018	0.118	-0.100
-306.866	-33.594	0.236	-0.131
-305.851	-92.998	0.254	0.071
-304.837	374.952	0.027	0.056
-303.822	250.098	-0.159	0.271
-302.807	29.258	0.012	0.010
-301.793	50.722	-0.163	-0.155
-300.778	186.629	0.157	-0.236
-299.764	-42.256	0.215	-0.110
-298.749	1.785	-0.215	-0.156
-297.735	-146.697	0.257	-0.022
-296.720	10.454	-0.078	-0.060
-295.705	-200.000	-0.023	0.317
-294.691	-200.000	0.089	-0.439
-293.676	399.181	0.088	-0.185
-292.662	280.923	0.030	-0.053
-291.647	-200.000	0.015	0.228
-290.632	200.279	0.079	0.122
-289.618	20.522	-0.160	0.130
-288.603	495.497	0.071	0.163
-287.589	-141.541	-0.144	0.015
-286.574	705.867	-0.103	0.272
-285.559	236.058	-0.063	0.105
-284.545	-40.964	0.239	-0.124
-283.530	27.315	0.160	0.135
-282.516	-200.000	-0.019	-0.145
-281.501	523.150	0.085	-0.201
-280.486	-161.105	0.371	0.019
-279.472	282.447	-0.093	-0.168
-278.457	24.759	0.248	0.206
-277.443	603.324	0.079	-0.196
-276.428	-200.000	0.030	0.152
-275.413	47.463	0.097	-0.090
-274.399	-124.838	0.240	-0.037
-273.384	-22.272	0.188	-0.115
-272.370	-77.184	-0.424	0.148
-271.355	501.143	0.161	0.372
-270.340	183.001	0.098	0.145
-269.326	800.000	0.044	-0.142
-268.311	-14.890	-0.318	-0.205
-267.297	-200.000	0.006	0.230
-266.282	-200.000	0.002	-0.158
-265.267	137.657	0.174	-0.229
-264.253	123.082	0.061	-0.076
-263.238	90.433	-0.094	0.105
-262.224	-115.757	0.265	0.050
-261.209	800.000	0.099	0.287
-260.195	-200.000	0.013	0.296
-259.180	-28.006	0.237	0.138
-258.165	71.595	-0.125	0.131
-257.151	20.038	0.265	0.214
-256.136	358.297	-0.226	0.453
-255.122	800.000	0.057	0.194
-254.107	800.000	-0.089	0.291
-253.092	70.301	-0.263	0.273
-252.078	-200.000	0.082	-0.379
-251.063	-147.970	-0.191	-0.016
-250.049	670.441	0.021	-0.055
-249.034	800.000	0.035	-0.137
-248.019	-26.857	-0.344	-0.202
-247.005	27.294	-0.165	0.139
-245.990	-36.859	0.026	-0.014
-244.976	31.523	-0.183	0.158
-243.961	-200.000	0.029	-0.845
-242.946	-67.267	-0.307	0.121
-241.932	-38.432	-0.099	0.053
-240.917	-113.838	-0.173	-0.034
-239.903	-97.401	0.172	-0.045
-238.888	-3.248	-0.066	0.046
-237.873	26.107	0.172	-0.144
-236.859	-9.854	-0.084	0.056
-235.844	165.173	0.045	0.063
-234.830	800.000	-0.116	-0.334
-233.815	-200.000	0.010	-0.210
-232.800	-187.437	0.071	0.001
-231.786	-103.767	0.044	-0.010
-230.771	-200.000	-0.066	0.444
-229.757	332.780	-0.123	0.237
-228.742	107.964	0.031	-0.038
-227.727	-3.462	-0.096	0.067
-226.713	142.535	0.131	-0.175
-225.698	174.048	0.123	-0.179
-224.684	370.195	-0.059	-0.120
-223.669	269.752	-0.014	-0.025
-222.655	-200.000	0.021	0.168
-221.640	-200.000	-0.023	0.331
-220.625	109.818	0.219	0.263
-219.611	-200.000	0.011	-0.235
-218.596	-97.875	0.108	0.028
-217.582	-88.156	0.407	-0.122
-216.567	-200.000	0.021	0.198
-215.552	800.000	-0.071	0.197
-214.538	142.713	0.238	-0.316
-213.523	-163.826	0.145	-0.007
-212.509	-42.507	0.118	0.060
-211.494	-4.654	-0.230	-0.159
-210.479	-200.000	-0.017	-0.240
-209.465	-24.964	-0.106	0.063
-208.450	637.821	0.063	0.161
-207.436	-200.000	-0.037	0.203
-206.421	134.487	-0.183	-0.237
-205.406	800.000	0.071	-0.199
-204.392	-200.000	-0.003	-0.025
-203.377	-151.672	-0.293	-0.022
-202.363	-200.000	0.019	0.126
-201.348	-200.000	0.005	0.242
-200.333	146.928	0.117	-0.158
-199.319	-200.000	-0.008	0.317
-198.304	-159.714	0.082	0.005
-197.290	46.225	0.230	0.213
-196.275	800.000	-0.174	-0.497
-195.260	98.658	-0.226	-0.261
-194.246	14.922	-0.125	-0.098
-193.231	-170.440	0.336	0.012
-192.217	-200.000	0.076	-0.347
-191.202	788.934	-0.104	0.287
-190.187	-200.000	-0.001	-0.017
-189.173	-200.000	0.031	-0.273
-188.158	-200.000	-0.042	-0.249
-187.144	-115.126	-0.075	-0.014
-186.129	114.150	-0.017	0.021
-185.114	-91.760	0.166	-0.047
-184.100	-200.000	-0.019	0.174
-183.085	-200.000	0.026	0.178
-182.071	310.815	0.030	0.055
-181.056	59.416	-0.068	-0.067
-180.042	-200.000	0.062	-0.368
-179.027	-120.825	0.146	-0.025
-178.012	-103.360	-0.214	0.050
-176.998	-13.110	-0.177	-0.115
-175.983	57.692	-0.183	-0.179
-174.969	-200.000	-0.011	0.290
-173.954	152.819	-0.226	-0.309
-172.939	-29.069	-0.043	-0.024
-171.925	261.886	-0.077	-0.134
-170.910	-200.000	0.028	0.355
-169.896	-19.999	-0.064	-0.039
-168.881	800.000	-0.102	0.292
-167.866	164.853	-0.155	0.219
-166.852	-157.419	0.343	0.021
-165.837	44.000	0.221	-0.203
-164.823	-88.622	-0.075	0.022
-163.808	-107.653	-0.250	0.055
-162.793	-200.000	-0.002	-0.299
-161.779	800.000	-0.071	-0.225
-160.764	-200.000	0.024	0.197
-159.750	192.523	0.176	0.265
-158.735	-39.616	-0.073	0.038
-157.720	147.890	0.094	0.127
-156.706	-64.937	-0.140	0.057
-155.691	13.431	0.143	0.111
-154.677	-17.773	-0.200	0.126
-153.662	124.012	0.062	-0.078
-152.647	-141.223	0.313	-0.032
-151.633	-200.000	-0.036	0.182
-150.618	185.574	0.202	-0.300
-149.604	-4.436	0.200	-0.138
-148.589	46.615	0.122	-0.113
-147.574	297.235	-0.080	-0.147
-146.560	12.055	0.080	-0.061
-145.545	800.000	0.036	-0.136
-144.531	-30.629	0.293	-0.166
-143.516	800.000	-0.085	-0.248
-142.502	-200.000	-0.006	-0.230
-141.487	-200.000	0.020	0.210
-140.472	-120.504	-0.367	-0.062
-139.458	-113.167	0.233	0.046
-138.443	-46.626	-0.233	0.114
-137.429	-98.578	-0.217	-0.055
-136.414	154.211	0.111	0.152
-135.399	236.669	-0.194	-0.321
-134.385	-200.000	-0.008	0.184
-133.370	-200.000	-0.020	0.276
-132.356	12.056	-0.106	0.081
-131.341	68.886	0.107	-0.109
-130.326	-75.898	0.037	-0.013
-129.312	-129.776	0.474	0.065
-128.297	68.545	0.028	0.029
-127.283	39.201	-0.146	-0.130
-126.268	-200.000	-0.007	0.085
-125.253	-37.130	-0.052	0.028
-124.239	800.000	-0.081	0.329
-123.224	-20.329	-0.186	0.114
-122.210	276.033	0.065	0.115
-121.195	-200.000	-0.006	-0.167
