DTS Sentinel unit serial number:	SN413079Multiplexer serial number:	ORYXHardware model number:	OX4-SRSoftware version number:	ORYX F/W v4.00 Oryx Data Collector v3.7.2.0data status	okinstallation	princeton_trtdifferential loss correction	single-endedforward channel	channel 1reverse channel	N/Adate	2019/09/16time	11:46:35forward acquisition time	60.00reverse acquisition time	0.00gamma	496.2192k internal	0.2296k external	0.2296temperature offset calibration	0.9967default loss term (dB/km)	0.3790temperature slope calibration	1.0000multiplexer offset coefficient	1.0000multiplexer slope coefficient	1.0000fibre end	0.00T internal ref (°C)	38.19T ext. ref 1 (°C)	13.06T ext. ref 2 (°C)	35.47length (m)	temperature (°C)	Stokes	anti-Stokes-747.200	529.416	0.145	-0.350
-746.185	334.381	0.125	0.248
-745.171	110.864	0.129	0.158
-744.156	800.000	-0.068	0.288
-743.142	248.919	0.079	0.137
-742.127	6.190	-0.237	0.180
-741.112	-147.543	0.413	-0.036
-740.098	-129.693	0.171	-0.024
-739.083	73.708	-0.114	0.122
-738.069	-158.135	-0.398	0.024
-737.054	75.633	-0.234	-0.253
-736.039	-43.562	-0.363	-0.187
-735.025	-145.159	0.332	0.031
-734.010	-74.483	-0.309	-0.114
-732.996	-29.280	-0.055	-0.032
-731.981	582.004	-0.055	0.139
-730.966	509.385	-0.117	0.278
-729.952	35.438	-0.117	0.105
-728.937	-200.000	0.006	-0.112
-727.923	-200.000	0.013	0.183
-726.908	-146.688	-0.362	0.032
-725.894	-59.832	0.040	0.018
-724.879	-200.000	0.325	-0.001
-723.864	83.082	0.098	0.109
-722.850	-31.798	0.149	-0.086
-721.835	-200.000	0.013	-0.065
-720.821	-6.122	0.107	-0.075
-719.806	-146.408	-0.224	-0.020
-718.791	451.520	0.043	0.097
-717.777	-115.765	-0.217	0.042
-716.762	-44.944	-0.058	0.029
-715.748	-86.340	-0.319	0.100
-714.733	95.065	-0.242	0.282
-713.718	150.452	-0.024	0.034
-712.704	-200.000	0.016	-0.325
-711.689	-111.402	-0.142	-0.030
-710.675	172.065	-0.205	0.301
-709.660	-27.326	-0.142	0.084
-708.645	-81.449	0.081	-0.027
-707.631	-200.000	0.040	-0.265
-706.616	169.424	-0.033	0.048
-705.602	-69.805	-0.070	-0.027
-704.587	-83.120	-0.492	-0.162
-703.572	58.886	0.131	0.131
-702.558	389.744	0.210	0.443
-701.543	-42.567	-0.134	-0.070
-700.529	-200.000	-0.018	-0.180
-699.514	-71.351	-0.215	-0.082
-698.499	74.769	-0.073	-0.079
-697.485	800.000	-0.121	0.379
-696.470	-181.462	-0.273	-0.005
-695.456	-20.033	-0.236	-0.149
-694.441	740.349	0.105	0.288
-693.426	-156.166	-0.371	-0.024
-692.412	403.541	-0.125	-0.269
-691.397	-112.354	-0.307	-0.063
-690.383	212.271	0.131	-0.211
-689.368	2.862	0.497	-0.368
-688.354	422.910	0.113	-0.247
-687.339	800.000	-0.062	-0.265
-686.324	34.550	-0.019	-0.017
-685.310	-24.848	-0.100	-0.060
-684.295	331.214	-0.123	-0.242
-683.281	271.603	-0.150	-0.270
-682.266	-200.000	0.012	-0.454
-681.251	-200.000	-0.003	0.260
-680.237	13.320	-0.183	0.145
-679.222	188.419	-0.137	-0.209
-678.208	-93.244	0.204	-0.058
-677.193	-200.000	0.042	-0.335
-676.178	495.329	0.199	0.466
-675.164	-200.000	-0.024	0.170
-674.149	-124.615	0.012	-0.002
-673.135	11.907	0.190	-0.149
-672.120	800.000	-0.089	-0.363
-671.105	-110.670	0.209	-0.044
-670.091	76.584	-0.039	-0.043
-669.076	184.999	-0.021	-0.031
-668.062	-200.000	-0.019	0.414
-667.047	-200.000	0.029	-0.154
-666.032	50.421	0.389	-0.374
-665.018	142.735	0.107	-0.145
-664.003	-11.930	0.238	0.159
-662.989	-200.000	0.015	0.190
-661.974	309.867	-0.150	-0.286
-660.959	-28.877	0.169	-0.099
-659.945	-39.408	0.102	-0.054
-658.930	64.201	-0.207	-0.212
-657.916	-125.456	-0.155	0.024
-656.901	-129.623	-0.239	-0.034
-655.886	800.000	0.033	0.107
-654.872	-200.000	0.004	-0.300
-653.857	-101.839	-0.246	0.061
-652.843	-126.041	-0.305	-0.047
-651.828	-50.331	-0.280	0.135
-650.814	386.106	-0.168	-0.353
-649.799	-200.000	0.006	0.342
-648.784	800.000	-0.035	-0.142
-647.770	-200.000	-0.006	0.207
-646.755	-200.000	0.006	0.230
-645.741	-200.000	-0.055	-0.325
-644.726	-200.000	0.018	0.104
-643.711	-41.839	-0.244	-0.127
-642.697	-200.000	-0.064	-0.659
-641.682	800.000	-0.118	0.398
-640.668	205.171	-0.079	0.126
-639.653	366.855	0.115	-0.237
-638.638	-8.072	0.109	-0.075
-637.624	102.030	0.160	-0.190
-636.609	740.104	0.070	-0.191
-635.595	-15.654	0.128	0.083
-634.580	338.470	0.124	0.245
-633.565	-163.248	0.239	0.012
-632.551	95.243	-0.331	-0.383
-631.536	-108.557	-0.193	0.042
-630.522	1.185	0.192	-0.140
-629.507	800.000	-0.042	0.129
-628.492	-49.011	-0.244	-0.119
-627.478	-124.928	0.159	-0.025
-626.463	20.801	0.154	-0.127
-625.449	-166.416	-0.514	-0.022
-624.434	-5.883	-0.033	-0.023
-623.419	-118.085	0.172	0.031
-622.405	165.206	-0.164	-0.236
-621.390	-200.000	0.016	-0.297
-620.376	-42.187	-0.261	-0.136
-619.361	10.972	0.091	-0.070
-618.346	545.127	-0.206	-0.501
-617.332	-25.028	0.320	-0.193
-616.317	276.436	0.087	0.157
-615.303	-76.225	0.270	0.097
-614.288	-200.000	0.009	-0.171
-613.273	-44.590	-0.266	0.135
-612.259	110.456	0.068	0.083
-611.244	258.213	-0.006	-0.010
-610.230	245.657	0.063	0.108
-609.215	72.028	0.173	-0.183
-608.201	-183.133	-0.309	0.006
-607.186	174.932	0.052	0.076
-606.171	800.000	0.044	0.126
-605.157	-181.835	0.049	0.001
-604.142	270.460	0.245	0.438
-603.128	800.000	0.064	0.219
-602.113	-35.038	0.436	-0.241
-601.098	89.367	-0.136	-0.154
-600.084	39.558	0.232	0.211
-599.069	468.653	-0.068	-0.156
-598.055	800.000	0.060	-0.211
-597.040	-136.858	0.284	0.033
-596.025	133.158	-0.066	0.087
-595.011	239.929	-0.126	-0.213
-593.996	-200.000	0.010	-0.056
-592.982	724.445	-0.039	-0.106
-591.967	-200.000	0.070	0.336
-590.952	-200.000	-0.040	0.397
-589.938	-48.053	-0.213	0.105
-588.923	800.000	0.088	0.287
-587.909	561.807	-0.130	0.320
-586.894	-200.000	0.032	0.240
-585.879	244.613	-0.064	0.109
-584.865	-79.392	0.168	0.058
-583.850	-104.034	0.123	0.029
-582.836	-24.238	-0.166	-0.101
-581.821	54.326	-0.154	-0.151
-580.806	800.000	0.047	0.144
-579.792	187.720	-0.157	0.237
-578.777	33.202	0.101	-0.089
-577.763	-141.460	0.261	0.027
-576.748	221.274	-0.122	-0.198
-575.733	31.172	-0.025	0.022
-574.719	-200.000	0.033	-0.296
-573.704	-127.542	-0.162	-0.024
-572.690	-154.503	-0.352	-0.024
-571.675	-122.907	0.180	0.029
-570.661	-163.215	0.115	-0.006
-569.646	-152.151	-0.122	0.009
-568.631	25.527	0.083	-0.070
-567.617	31.149	-0.112	0.098
-566.602	554.112	-0.087	-0.213
-565.588	-114.351	-0.223	-0.043
-564.573	124.798	0.095	0.122
-563.558	41.854	0.102	-0.094
-562.544	-149.271	-0.120	-0.010
-561.529	140.066	0.123	0.165
-560.515	-66.715	0.368	0.148
-559.500	120.608	-0.202	-0.254
-558.485	-200.000	0.036	-0.260
-557.471	-15.001	0.116	-0.075
-556.456	327.822	-0.058	-0.113
-555.442	-200.000	-0.002	0.148
-554.427	-7.823	-0.109	0.074
-553.412	42.411	-0.081	0.075
-552.398	-111.361	-0.306	-0.063
-551.383	146.546	-0.198	0.270
-550.369	-23.466	-0.137	0.084
-549.354	-200.000	-0.047	0.408
-548.339	-3.255	-0.398	0.281
-547.325	-85.605	0.187	0.059
-546.310	437.592	0.096	-0.212
-545.296	-53.569	0.249	0.115
-544.281	-97.912	-0.157	0.041
-543.266	13.195	-0.098	-0.077
-542.252	644.348	-0.085	-0.220
-541.237	192.662	0.118	-0.181
-540.223	-200.000	0.011	0.138
-539.208	800.000	-0.037	-0.165
-538.193	-85.226	-0.070	-0.022
-537.179	-200.000	-0.019	0.132
-536.164	-168.480	-0.205	-0.008
-535.150	-4.557	-0.158	-0.110
-534.135	316.924	0.050	-0.096
-533.121	-63.527	-0.306	0.127
-532.106	800.000	-0.060	-0.195
-531.091	452.599	0.177	-0.397
-530.077	-200.000	-0.003	0.073
-529.062	-146.351	-0.120	-0.011
-528.048	237.305	0.125	-0.210
-527.033	8.352	-0.146	-0.111
-526.018	95.212	-0.081	-0.094
-525.004	199.315	-0.110	-0.171
-523.989	-71.774	-0.213	-0.080
-522.975	225.021	0.099	0.163
-521.960	-83.201	-0.315	-0.103
-520.945	-200.000	-0.023	-0.236
-519.931	-111.869	-0.430	-0.088
-518.916	-161.930	-0.129	0.007
-517.902	173.089	0.161	0.235
-516.887	-159.439	-0.228	-0.013
-515.872	206.015	-0.102	-0.161
-514.858	-11.351	-0.161	-0.108
-513.843	566.124	0.040	0.098
-512.829	-200.000	0.021	-0.112
-511.814	178.719	0.126	0.187
-510.799	47.597	-0.146	0.138
-509.785	159.182	-0.198	-0.279
-508.770	800.000	-0.039	0.140
-507.756	47.540	0.122	-0.115
-506.741	137.091	0.172	0.227
-505.726	169.496	-0.145	0.209
-504.712	107.394	0.138	-0.166
-503.697	-200.000	0.002	-0.129
-502.683	178.644	-0.144	0.212
-501.668	67.081	-0.053	-0.055
-500.653	-123.246	-0.056	0.009
-499.639	-200.000	-0.038	0.174
-498.624	-200.000	0.006	0.069
-497.610	800.000	-0.020	-0.081
-496.595	-25.977	0.115	-0.068
-495.581	-200.000	-0.007	-0.265
-494.566	47.916	-0.080	-0.075
-493.551	-60.508	-0.106	0.046
-492.537	800.000	-0.054	0.173
-491.522	29.213	0.053	-0.045
-490.508	210.080	-0.135	0.214
-489.493	-54.400	0.067	-0.031
-488.478	-66.100	0.096	0.039
-487.464	-78.428	-0.335	0.116
-486.449	-32.335	-0.143	-0.081
-485.435	105.524	-0.086	-0.103
-484.420	-53.689	0.251	-0.116
-483.405	482.877	-0.078	-0.178
-482.391	24.631	0.153	-0.128
-481.376	800.000	0.101	-0.339
-480.362	-48.592	0.060	0.029
-479.347	-200.000	0.019	-0.157
-478.332	186.769	-0.153	0.231
-477.318	-119.423	0.302	0.053
-476.303	-124.317	0.170	-0.027
-475.289	-130.213	-0.269	0.037
-474.274	-200.000	-0.002	0.047
-473.259	-200.000	0.001	0.226
-472.245	96.351	0.021	-0.024
-471.230	50.193	-0.051	-0.049
-470.216	11.954	0.322	0.250
-469.201	-148.394	0.313	-0.026
-468.186	800.000	-0.036	0.122
-467.172	-0.879	-0.156	0.112
-466.157	347.616	-0.074	-0.146
-465.143	-66.627	0.184	-0.074
-464.128	-177.378	-0.319	0.008
-463.113	-200.000	0.026	0.138
-462.099	489.714	0.035	-0.082
-461.084	-85.834	-0.411	0.129
-460.070	-48.933	-0.058	0.028
-459.055	-71.516	0.176	-0.066
-458.040	68.487	-0.263	0.272
-457.026	-164.537	0.050	-0.002
-456.011	-134.035	-0.282	-0.035
-454.997	-103.254	-0.204	-0.049
-453.982	673.861	-0.259	-0.678
-452.968	34.567	-0.195	-0.172
-451.953	800.000	-0.032	-0.129
-450.938	131.129	0.201	-0.260
-449.924	-200.000	-0.002	-0.061
-448.909	312.303	-0.131	-0.249
-447.895	-200.000	0.033	-0.198
-446.880	-144.034	0.413	0.039
-445.865	104.338	0.160	-0.190
-444.851	54.636	0.221	0.215
-443.836	83.353	-0.111	0.122
-442.822	-200.000	-0.064	-0.377
-441.807	74.954	-0.085	0.090
-440.792	-200.000	0.000	-0.181
-439.778	546.941	-0.054	0.131
-438.763	-200.000	0.004	0.026
-437.749	-200.000	0.067	-0.425
-436.734	-69.920	-0.168	0.065
-435.719	-56.913	-0.256	0.114
-434.705	53.163	-0.132	-0.128
-433.690	-200.000	0.226	0.000
-432.676	576.476	-0.049	-0.121
-431.661	360.934	0.051	0.103
-430.646	-200.000	-0.019	-0.202
-429.632	-80.456	0.044	-0.015
-428.617	149.399	-0.158	-0.216
-427.603	-72.398	-0.078	-0.029
-426.588	-15.035	0.147	-0.095
-425.573	-200.000	-0.012	0.307
-424.559	46.290	-0.029	-0.027
-423.544	-83.107	0.200	0.065
-422.530	89.297	-0.177	0.199
-421.515	175.974	-0.245	-0.359
-420.500	-60.640	0.089	-0.038
-419.486	800.000	0.032	-0.108
-418.471	-200.000	0.011	-0.113
-417.457	174.005	0.059	0.085
-416.442	-74.623	-0.251	0.091
-415.428	45.432	0.111	0.103
-414.413	475.977	0.091	0.207
-413.398	176.180	-0.139	0.204
-412.384	-187.412	0.158	0.002
-411.369	34.889	0.202	0.178
-410.355	-200.000	0.025	0.175
-409.340	213.649	0.088	-0.140
-408.325	618.239	0.045	0.115
-407.311	5.228	-0.236	0.176
-406.296	284.500	0.103	-0.187
-405.282	121.709	-0.182	-0.229
-404.267	-89.228	-0.176	-0.052
-403.252	-200.000	0.045	-0.205
-402.238	-200.000	-0.017	0.209
-401.223	-93.446	0.206	-0.057
-400.209	-200.000	0.037	-0.192
-399.194	800.000	-0.045	-0.179
-398.179	800.000	-0.057	0.173
-397.165	-200.000	-0.000	-0.127
-396.150	93.346	-0.175	-0.200
-395.136	-17.326	-0.255	-0.162
-394.121	287.494	-0.080	0.147
-393.106	-66.643	0.243	0.097
-392.092	-200.000	-0.042	0.255
-391.077	-200.000	0.010	0.179
-390.063	-60.039	0.041	-0.018
-389.048	800.000	-0.100	-0.371
-388.033	-33.420	0.312	-0.174
-387.019	-117.152	-0.255	0.047
-386.004	217.043	0.301	0.483
-384.990	-200.000	0.046	-0.213
-383.975	-71.528	-0.182	0.068
-382.960	-33.774	0.021	0.012
-381.946	758.832	-0.143	0.389
-380.931	-23.926	0.317	0.191
-379.917	-108.534	0.110	0.024
-378.902	-54.571	0.121	0.055
-377.888	-15.875	-0.403	0.258
-376.873	473.358	0.053	0.119
-375.858	-200.000	0.005	-0.307
-374.844	155.380	-0.041	-0.057
-373.829	-91.049	-0.159	0.046
-372.815	-21.766	0.232	0.142
-371.800	-147.408	0.156	0.013
-370.785	9.257	-0.211	-0.160
-369.771	162.006	0.044	0.062
-368.756	-1.310	-0.179	-0.127
-367.742	266.639	0.061	0.107
-366.727	36.811	-0.083	-0.074
-365.712	120.252	0.058	-0.073
-364.698	280.719	0.031	0.056
-363.683	-71.787	-0.135	0.051
-362.669	-105.666	0.038	-0.009
-361.654	166.142	0.225	-0.321
-360.639	-183.491	0.244	-0.004
-359.625	197.863	0.079	-0.122
-358.610	-111.442	0.202	0.042
-357.596	-82.464	0.018	0.006
-356.581	31.810	0.072	0.062
-355.566	-188.309	-0.203	0.003
-354.552	-200.000	-0.001	0.187
-353.537	85.958	0.180	0.199
-352.523	582.542	0.191	-0.473
-351.508	-200.000	-0.003	-0.038
-350.493	-29.605	0.092	0.053
-349.479	-150.319	0.298	-0.023
-348.464	-117.897	-0.140	0.025
-347.450	539.201	-0.057	0.137
-346.435	485.461	0.059	0.136
-345.420	800.000	-0.077	-0.324
-344.406	123.167	-0.201	-0.254
-343.391	-134.105	-0.135	-0.017
-342.377	53.669	0.195	0.189
-341.362	445.914	-0.231	0.511
-340.348	-50.276	0.085	0.041
-339.333	95.174	-0.054	-0.062
-338.318	-74.088	-0.184	0.067
-337.304	192.208	0.098	-0.149
-336.289	-89.141	0.207	0.062
-335.275	-69.067	0.073	0.028
-334.260	-78.051	0.081	0.028
-333.245	670.313	-0.051	0.133
-332.231	383.698	-0.151	-0.312
-331.216	-200.000	0.031	0.172
-330.202	-193.175	-0.106	0.001
-329.187	128.664	0.165	-0.212
-328.172	309.750	0.161	0.304
-327.158	171.543	-0.174	0.252
-326.143	431.816	-0.113	0.245
-325.129	800.000	-0.024	0.068
-324.114	537.114	0.133	-0.317
-323.099	37.658	-0.107	-0.095
-322.085	-124.010	-0.101	-0.016
-321.070	450.896	0.116	0.256
-320.056	-133.742	0.066	0.008
-319.041	168.723	-0.056	0.080
-318.026	-50.917	0.156	-0.073
-317.012	-200.000	0.015	0.133
-315.997	167.518	0.104	0.148
-314.983	-173.859	0.213	-0.006
-313.968	-200.000	-0.017	-0.146
-312.953	148.632	0.198	0.269
-311.939	87.235	0.141	-0.156
-310.924	-74.258	0.183	-0.066
-309.910	98.322	-0.086	-0.099
-308.895	-200.000	0.011	-0.087
-307.880	46.049	-0.135	0.125
-306.866	51.612	0.228	0.217
-305.851	-117.800	0.363	0.065
-304.837	29.151	-0.174	-0.148
-303.822	-200.000	0.005	0.418
-302.807	191.538	-0.185	0.279
-301.793	-1.488	0.239	0.169
-300.778	-200.000	-0.001	-0.051
-299.764	224.268	-0.054	-0.088
-298.749	13.812	0.231	0.180
-297.735	800.000	-0.097	-0.279
-296.720	160.045	0.217	0.303
-295.705	144.622	0.060	0.080
-294.691	-119.055	0.205	0.036
-293.676	129.924	0.121	-0.155
-292.662	99.608	-0.135	-0.157
-291.647	-83.588	0.319	-0.102
-290.632	-200.000	-0.009	0.281
-289.618	68.696	-0.200	0.206
-288.603	800.000	-0.052	-0.202
-287.589	197.579	0.099	0.151
-286.574	-65.722	-0.049	-0.020
-285.559	-89.822	-0.093	-0.027
-284.545	-200.000	0.018	-0.254
-283.530	92.144	-0.191	-0.216
-282.516	-200.000	-0.017	0.365
-281.501	784.174	0.113	0.310
-280.486	313.964	0.099	0.188
-279.472	57.104	0.125	-0.123
-278.457	242.916	-0.162	-0.273
-277.443	-162.020	-0.196	-0.010
-276.428	-47.218	0.125	0.061
-275.413	-200.000	-0.026	-0.239
-274.399	115.873	0.059	0.072
-273.384	-200.000	-0.029	0.403
-272.370	-24.598	-0.076	-0.045
-271.355	800.000	-0.040	-0.174
-270.340	-200.000	0.021	-0.216
-269.326	441.545	-0.145	0.317
-268.311	252.103	0.046	0.079
-267.297	-125.308	0.069	0.011
-266.282	709.974	-0.056	0.149
-265.267	193.102	-0.043	-0.065
-264.253	800.000	-0.031	-0.136
-263.238	-8.351	0.143	0.096
-262.224	212.227	-0.042	-0.066
-261.209	-186.328	0.212	-0.003
-260.195	-161.981	0.154	0.008
-259.180	800.000	0.061	0.171
-258.165	-55.543	0.242	0.109
-257.151	90.774	-0.222	0.249
-256.136	-200.000	0.039	-0.220
-255.122	-149.796	0.146	0.011
-254.107	363.096	0.161	-0.323
-253.092	-0.525	0.264	-0.188
-252.078	-165.067	0.225	0.010
-251.063	20.534	0.029	0.023
-250.049	-30.177	0.290	0.165
-249.034	-105.699	0.277	-0.063
-248.019	-200.000	0.020	0.116
-247.005	-110.178	0.254	0.053
-245.990	98.743	0.164	-0.189
-244.976	-200.000	0.014	0.202
-243.961	-109.046	-0.305	0.065
-242.946	668.179	-0.030	0.079
-241.932	800.000	-0.066	0.195
-240.917	131.892	-0.206	-0.265
-239.903	261.825	-0.044	0.076
-238.888	-164.317	0.056	0.003
-237.873	503.024	0.035	0.081
-236.859	-18.670	-0.386	0.241
-235.844	800.000	-0.103	0.315
-234.830	-200.000	-0.001	0.039
-233.815	53.457	0.143	0.138
-232.800	-37.656	0.270	0.144
-231.786	343.269	0.131	0.258
-230.771	-116.027	-0.095	0.018
-229.757	292.265	0.069	0.126
-228.742	-115.010	0.201	-0.038
-227.727	-118.135	-0.419	0.075
-226.713	-58.520	-0.121	-0.053
-225.698	43.847	-0.119	-0.109
-224.684	60.948	0.139	-0.138
-223.669	150.773	0.077	0.105
-222.655	-200.000	0.045	0.315
-221.640	173.530	0.014	-0.021
-220.625	-200.000	-0.045	0.269
-219.611	800.000	0.120	0.397
-218.596	-95.659	0.285	0.076
-217.582	126.513	0.180	-0.228
-216.567	800.000	-0.143	-0.396
-215.552	280.697	0.145	-0.259
-214.538	-25.533	0.165	0.098
-213.523	-151.653	-0.186	-0.014
-212.509	177.158	-0.148	0.215
-211.494	433.684	-0.142	-0.308
-210.479	-81.739	0.028	-0.009
-209.465	145.465	-0.149	-0.200
-208.450	4.092	0.071	-0.052
-207.436	-110.817	-0.124	0.025
-206.421	333.265	-0.111	-0.215
-205.406	-124.509	0.194	-0.030
-204.392	-200.000	-0.014	0.213
-203.377	800.000	0.070	0.195
-202.363	800.000	-0.039	-0.143
-201.348	-125.516	0.178	0.027
-200.333	41.630	0.340	0.308
-199.319	-200.000	-0.053	-0.310
-198.304	5.991	-0.202	0.150
-197.290	-6.302	0.151	0.103
-196.275	-106.600	-0.130	-0.029
-195.260	120.168	0.209	-0.259
-194.246	133.675	-0.047	-0.061
-193.231	-138.264	0.104	0.011
-192.217	307.477	-0.220	0.410
-191.202	800.000	0.133	-0.412
-190.187	-73.495	-0.361	-0.132
-189.173	50.791	-0.067	0.063
-188.158	-18.057	-0.126	-0.079
-187.144	56.458	0.202	-0.196
-186.129	379.378	0.141	-0.288
-185.114	-61.518	0.134	-0.056
-184.100	229.605	-0.142	0.233
-183.085	88.880	0.065	-0.072
-182.071	73.337	0.080	-0.084
-181.056	-145.572	-0.331	0.030
-180.042	349.205	0.110	-0.217
-179.027	-139.694	0.154	0.016
-178.012	41.019	0.273	0.246
-176.998	82.960	0.244	0.266
-175.983	-200.000	0.015	-0.074
-174.969	-200.000	-0.003	0.073
-173.954	-200.000	-0.025	-0.305
-172.939	-96.847	-0.142	0.037
-171.925	-56.630	0.427	-0.189
-170.910	87.534	-0.184	0.203
-169.896	-95.910	-0.067	0.018
-168.881	603.657	-0.024	0.061
-167.866	-34.760	0.245	-0.134
-166.852	74.713	0.171	0.180
-165.837	2.910	-0.179	-0.130
-164.823	-144.744	-0.373	-0.034
-163.808	63.866	-0.102	-0.103
-162.793	134.975	-0.134	0.174
-161.779	-200.000	0.042	0.238
-160.764	-200.000	-0.012	-0.134
-159.750	34.573	-0.148	-0.129
-158.735	-85.938	0.210	0.065
-157.720	100.272	-0.148	0.171
-156.706	-200.000	-0.022	0.158
-155.691	11.857	0.061	-0.047
-154.677	99.932	0.010	-0.012
-153.662	65.862	0.070	-0.071
-152.647	-200.000	-0.011	-0.314
-151.633	-39.415	-0.224	0.117
-150.618	512.625	0.175	0.407
-149.604	-107.512	0.102	-0.022
-148.589	69.711	0.150	-0.154
-147.574	-200.000	-0.021	0.209
-146.560	-70.723	0.400	-0.151
-145.545	-200.000	-0.026	-0.139
-144.531	-200.000	0.001	0.008
-143.516	188.062	0.193	-0.287
-142.502	434.513	-0.067	0.145
-141.487	-200.000	-0.006	0.281
-140.472	-168.534	0.123	-0.005
-139.458	-102.435	-0.344	-0.082
-138.443	355.453	0.158	-0.313
-137.429	182.636	-0.076	-0.112
-136.414	175.767	0.265	0.384
-135.399	-85.843	-0.092	-0.028
-134.385	-19.826	0.027	-0.017
-133.370	643.638	0.096	-0.244
-132.356	-54.466	0.231	-0.104
-131.341	-77.721	0.328	0.113
-130.326	22.545	0.170	0.139
-129.312	-123.709	0.073	0.011
-128.297	800.000	0.072	-0.222
-127.283	800.000	0.117	0.341
-126.268	-60.057	0.272	-0.116
-125.253	42.950	-0.034	0.031
-124.239	248.731	0.097	-0.164
-123.224	800.000	-0.040	-0.149
-122.210	292.166	-0.099	-0.181
