DTS Sentinel unit serial number:	SN413079Multiplexer serial number:	ORYXHardware model number:	OX4-SRSoftware version number:	ORYX F/W v4.00 Oryx Data Collector v3.7.2.0data status	okinstallation	princeton_trtdifferential loss correction	single-endedforward channel	channel 1reverse channel	N/Adate	2019/09/16time	20:58:36forward acquisition time	60.00reverse acquisition time	0.00gamma	496.2192k internal	0.2324k external	0.2324temperature offset calibration	0.9954default loss term (dB/km)	0.3790temperature slope calibration	1.0000multiplexer offset coefficient	1.0000multiplexer slope coefficient	1.0000fibre end	0.00T internal ref (°C)	32.06T ext. ref 1 (°C)	0.06T ext. ref 2 (°C)	25.39length (m)	temperature (°C)	Stokes	anti-Stokes-747.200	-144.067	-0.177	0.017
-746.185	107.813	0.066	0.079
-745.171	800.000	-0.103	0.362
-744.156	-136.016	0.178	0.021
-743.142	800.000	0.008	0.035
-742.127	130.250	-0.117	-0.151
-741.112	421.896	-0.105	0.227
-740.098	443.308	-0.013	-0.029
-739.083	-114.770	-0.133	0.026
-738.069	800.000	0.109	0.353
-737.054	161.514	-0.151	0.213
-736.039	42.012	-0.252	0.231
-735.025	-6.724	0.205	-0.141
-734.010	79.431	0.058	-0.063
-732.996	-86.987	-0.224	0.069
-731.981	-111.401	0.285	-0.059
-730.966	-168.319	-0.192	-0.007
-729.952	800.000	-0.046	-0.203
-728.937	7.222	-0.377	-0.284
-727.923	-88.668	0.161	0.048
-726.908	180.788	-0.091	-0.135
-725.894	-200.000	-0.018	0.109
-724.879	-161.795	0.309	0.016
-723.864	-200.000	0.033	0.151
-722.850	-125.648	-0.154	0.024
-721.835	-10.943	0.042	0.028
-720.821	-133.176	0.167	0.021
-719.806	-108.809	-0.201	-0.043
-718.791	159.950	0.137	-0.193
-717.777	-50.989	0.226	-0.107
-716.762	703.600	-0.057	-0.153
-715.748	-200.000	0.003	-0.221
-714.733	-200.000	-0.040	0.267
-713.718	352.392	-0.097	-0.194
-712.704	-79.109	-0.393	-0.135
-711.689	80.284	-0.078	-0.084
-710.675	136.338	-0.183	0.240
-709.660	-65.471	-0.209	-0.085
-708.645	-28.626	0.365	-0.212
-707.631	105.495	-0.242	-0.288
-706.616	-200.000	-0.034	-0.213
-705.602	564.556	-0.167	0.408
-704.587	2.427	0.246	0.180
-703.572	611.297	0.047	0.117
-702.558	310.733	-0.083	0.157
-701.543	-27.503	0.183	-0.107
-700.529	211.452	0.159	-0.252
-699.514	-29.434	-0.085	0.049
-698.499	800.000	0.032	0.097
-697.485	800.000	0.029	-0.121
-696.470	203.771	0.281	-0.439
-695.456	120.342	0.052	-0.065
-694.441	-200.000	0.014	0.264
-693.426	-83.860	0.088	0.028
-692.412	800.000	-0.118	0.330
-691.397	-45.836	0.153	0.076
-690.383	-200.000	0.010	0.111
-689.368	136.719	-0.156	0.205
-688.354	169.105	-0.217	-0.312
-687.339	-200.000	0.043	0.205
-686.324	-200.000	0.021	-0.095
-685.310	800.000	-0.136	-0.483
-684.295	-82.163	0.318	-0.105
-683.281	800.000	-0.088	-0.332
-682.266	719.148	-0.145	-0.388
-681.251	-128.492	-0.251	0.036
-680.237	-135.566	0.099	0.012
-679.222	384.664	-0.141	0.293
-678.208	-200.000	0.040	-0.346
-677.193	-108.337	-0.243	0.053
-676.178	-200.000	-0.033	-0.281
-675.164	363.975	-0.154	0.312
-674.149	204.783	0.087	-0.135
-673.135	303.299	0.158	-0.294
-672.120	155.100	0.165	-0.228
-671.105	99.542	0.122	-0.142
-670.091	-69.419	-0.050	0.019
-669.076	323.747	-0.034	-0.065
-668.062	-29.001	-0.195	-0.112
-667.047	800.000	0.005	0.016
-666.032	-92.724	-0.365	0.103
-665.018	117.985	0.141	0.175
-664.003	-118.062	0.318	-0.057
-662.989	-105.207	0.107	0.025
-661.974	800.000	-0.060	0.243
-660.959	208.534	-0.133	0.210
-659.945	-200.000	0.007	-0.039
-658.930	-200.000	-0.050	-0.281
-657.916	52.903	0.082	-0.079
-656.901	-44.662	-0.191	-0.096
-655.886	24.265	0.183	0.152
-654.872	800.000	0.091	-0.274
-653.857	-200.000	0.043	-0.359
-652.843	-99.328	-0.088	-0.022
-651.828	261.116	-0.092	-0.160
-650.814	-45.383	0.128	-0.064
-649.799	392.562	0.106	0.222
-648.784	-11.361	0.221	0.146
-647.770	-147.206	-0.136	0.012
-646.755	-3.086	0.203	0.143
-645.741	-133.484	0.063	0.008
-644.726	-119.649	-0.141	0.025
-643.711	671.995	-0.053	-0.138
-642.697	-15.513	0.453	-0.291
-641.682	262.345	-0.063	0.109
-640.668	469.292	-0.029	0.065
-639.653	-7.041	-0.267	-0.182
-638.638	-148.832	-0.105	-0.009
-637.624	-137.352	-0.081	-0.009
-636.609	-91.435	0.151	-0.043
-635.595	-38.561	0.258	0.137
-634.580	800.000	0.014	-0.053
-633.565	-51.092	-0.151	-0.071
-632.551	45.932	0.113	0.105
-631.536	-200.000	-0.022	0.268
-630.522	-14.572	0.222	-0.143
-629.507	521.363	-0.061	-0.143
-628.492	-181.730	-0.428	-0.008
-627.478	572.716	-0.037	-0.090
-626.463	104.265	-0.146	0.173
-625.449	800.000	0.021	-0.063
-624.434	-66.373	0.176	-0.070
-623.419	9.721	0.416	-0.317
-622.405	185.169	-0.218	0.325
-621.390	454.678	0.045	0.100
-620.376	-93.529	0.315	-0.088
-619.361	22.646	-0.171	-0.140
-618.346	800.000	-0.052	0.159
-617.332	-62.307	-0.160	0.067
-616.317	35.368	-0.081	-0.071
-615.303	222.002	0.119	0.192
-614.288	-73.447	0.240	-0.088
-613.273	15.382	-0.126	-0.100
-612.259	-106.037	-0.168	-0.038
-611.244	-95.667	0.322	-0.087
-610.230	109.070	0.134	-0.161
-609.215	-31.007	-0.054	0.031
-608.201	800.000	-0.068	0.198
-607.186	-109.573	0.023	0.005
-606.171	-200.000	-0.004	0.157
-605.157	79.103	0.036	0.039
-604.142	-87.684	0.438	-0.133
-603.128	800.000	-0.104	-0.441
-602.113	-32.089	-0.147	0.083
-601.098	588.897	0.098	-0.243
-600.084	-109.057	-0.167	-0.036
-599.069	-200.000	0.012	-0.150
-598.055	-200.000	0.030	-0.205
-597.040	86.386	0.276	-0.305
-596.025	86.657	0.123	-0.137
-595.011	800.000	-0.080	0.224
-593.996	-4.872	0.169	-0.117
-592.982	-19.387	0.300	0.186
-591.967	-84.478	-0.069	-0.022
-590.952	-176.060	-0.321	-0.009
-589.938	-200.000	-0.051	-0.286
-588.923	136.944	-0.118	0.154
-587.909	-88.944	0.178	0.053
-586.894	-56.438	-0.096	-0.043
-585.879	800.000	-0.045	0.151
-584.865	225.204	-0.064	0.104
-583.850	225.527	0.050	0.082
-582.836	-66.028	-0.224	-0.090
-581.821	-13.180	-0.231	0.151
-580.806	800.000	-0.071	-0.199
-579.792	800.000	0.068	0.190
-578.777	-46.850	-0.149	-0.073
-577.763	-66.986	-0.194	0.077
-576.748	334.294	0.136	0.264
-575.733	304.726	-0.188	0.349
-574.719	-200.000	0.007	0.040
-573.704	-117.705	-0.087	0.016
-572.690	-200.000	-0.016	0.073
-571.675	-200.000	0.001	0.227
-570.661	800.000	-0.057	0.200
-569.646	-133.090	0.232	0.029
-568.631	117.650	0.201	0.249
-567.617	-146.006	0.167	-0.015
-566.602	-200.000	-0.010	0.335
-565.588	-74.674	0.180	0.065
-564.573	-2.810	-0.175	0.123
-563.558	-200.000	-0.012	0.155
-562.544	-200.000	-0.025	0.206
-561.529	-151.730	0.298	0.022
-560.515	-200.000	-0.000	0.235
-559.500	800.000	-0.068	-0.275
-558.485	-200.000	-0.005	-0.111
-557.471	172.321	-0.183	-0.264
-556.456	-200.000	-0.069	-0.314
-555.442	-200.000	0.002	0.301
-554.427	102.771	-0.239	-0.281
-553.412	106.228	0.101	0.120
-552.398	-22.195	-0.147	-0.089
-551.383	30.226	-0.323	0.276
-550.369	80.175	0.182	-0.196
-549.354	800.000	0.034	-0.139
-548.339	-7.022	0.274	0.186
-547.325	164.721	0.049	0.069
-546.310	149.678	0.056	0.076
-545.296	161.464	-0.184	-0.258
-544.281	-65.329	0.062	-0.025
-543.266	14.426	-0.044	0.035
-542.252	231.878	-0.112	-0.184
-541.237	-93.151	0.212	0.059
-540.223	-136.868	-0.080	0.009
-539.208	351.296	0.033	0.065
-538.193	641.461	0.075	-0.191
-537.179	128.819	0.046	-0.059
-536.164	141.157	-0.090	-0.120
-535.150	-200.000	0.008	-0.216
-534.135	160.356	0.188	-0.263
-533.121	82.006	0.084	-0.092
-532.106	125.664	-0.115	0.146
-531.091	265.045	-0.156	0.272
-530.077	194.896	-0.205	-0.311
-529.062	-74.864	0.129	0.046
-528.048	55.146	0.157	0.152
-527.033	-98.886	-0.359	-0.091
-526.018	136.989	0.036	-0.047
-525.004	285.849	0.093	-0.168
-523.989	-129.285	0.093	0.013
-522.975	387.774	-0.095	0.196
-521.960	44.623	0.207	-0.191
-520.945	-74.827	-0.104	0.037
-519.931	800.000	-0.059	-0.193
-518.916	227.089	-0.024	-0.039
-517.902	46.805	-0.091	0.085
-516.887	-200.000	0.003	-0.158
-515.872	82.862	0.119	-0.129
-514.858	6.332	0.312	-0.232
-513.843	-171.454	-0.070	0.002
-512.829	0.434	0.103	-0.074
-511.814	199.637	0.011	-0.017
-510.799	-99.082	0.291	0.074
-509.785	-108.039	0.214	-0.046
-508.770	-200.000	-0.037	-0.175
-507.756	-77.395	0.165	0.057
-506.741	-129.551	0.193	0.027
-505.726	115.433	-0.078	-0.095
-504.712	800.000	-0.046	0.135
-503.697	-199.184	-0.176	-0.001
-502.683	59.315	-0.105	-0.103
-501.668	-100.911	-0.183	0.045
-500.653	21.721	0.133	0.108
-499.639	-92.247	-0.231	-0.065
-498.624	31.306	-0.216	-0.185
-497.610	-102.667	-0.169	-0.040
-496.595	657.978	-0.123	-0.317
-495.581	-56.140	-0.252	0.112
-494.566	3.787	-0.313	-0.229
-493.551	218.458	0.264	-0.421
-492.537	800.000	-0.112	0.425
-491.522	1.786	-0.188	0.135
-490.508	-145.269	0.210	-0.019
-489.493	-56.916	-0.038	-0.017
-488.478	58.499	-0.264	0.259
-487.464	29.115	-0.052	-0.044
-486.449	800.000	-0.056	-0.194
-485.435	160.016	0.091	0.127
-484.420	33.978	-0.102	-0.089
-483.405	-2.975	0.169	-0.118
-482.391	493.546	-0.079	0.181
-481.376	455.027	-0.157	-0.349
-480.362	483.932	-0.073	0.166
-479.347	-100.813	0.205	-0.051
-478.332	15.860	0.179	0.141
-477.318	245.166	-0.191	-0.321
-476.303	800.000	0.055	-0.204
-475.289	111.400	0.194	0.234
-474.274	800.000	0.065	-0.266
-473.259	-8.398	-0.063	0.042
-472.245	-125.926	0.093	-0.014
-471.230	-200.000	0.017	-0.226
-470.216	36.043	0.086	-0.075
-469.201	72.812	-0.190	-0.198
-468.186	207.934	0.128	-0.199
-467.172	9.280	-0.139	-0.105
-466.157	20.628	-0.271	-0.219
-465.143	642.149	0.097	-0.248
-464.128	-200.000	-0.014	-0.150
-463.113	-77.522	0.164	0.057
-462.099	206.799	-0.102	-0.159
-461.084	-200.000	-0.007	0.289
-460.070	-81.045	-0.270	0.089
-459.055	-132.898	0.048	-0.006
-458.040	760.140	-0.126	0.340
-457.026	193.811	-0.133	-0.202
-456.011	168.586	0.171	-0.243
-454.997	-38.550	-0.489	-0.258
-453.982	8.376	0.130	-0.097
-452.968	311.341	0.132	-0.248
-451.953	-67.273	0.569	-0.223
-450.938	-45.856	0.355	0.175
-449.924	-102.112	-0.135	-0.032
-448.909	-118.692	0.060	0.011
-447.895	39.921	-0.152	-0.136
-446.880	-27.030	-0.190	-0.110
-445.865	284.193	0.052	0.093
-444.851	100.456	0.163	0.188
-443.836	800.000	0.105	-0.427
-442.822	37.561	0.143	0.126
-441.807	-80.647	0.289	0.096
-440.792	-29.450	-0.181	-0.103
-439.778	262.969	-0.101	-0.175
-438.763	-200.000	0.018	0.169
-437.749	126.529	-0.181	-0.229
-436.734	-69.630	-0.078	0.030
-435.719	56.879	0.166	-0.161
-434.705	-166.489	-0.144	-0.006
-433.690	270.676	0.079	0.138
-432.676	186.326	0.130	0.193
-431.661	-200.000	-0.013	0.271
-430.646	-95.736	0.222	0.059
-429.632	158.270	-0.126	-0.174
-428.617	-112.850	0.159	-0.032
-427.603	-128.325	-0.045	-0.006
-426.588	-200.000	-0.087	-0.482
-425.573	-125.370	-0.219	0.033
-424.559	68.521	-0.119	0.122
-423.544	174.301	0.126	0.182
-422.530	-23.957	-0.181	-0.108
-421.515	57.537	0.076	0.074
-420.500	-200.000	-0.002	0.136
-419.486	124.154	-0.085	0.107
-418.471	91.439	0.137	0.153
-417.457	242.692	-0.061	0.101
-416.442	11.252	-0.117	0.089
-415.428	6.102	-0.125	0.092
-414.413	-54.847	0.139	0.062
-413.398	-200.000	0.033	-0.219
-412.384	-107.132	0.022	-0.005
-411.369	-130.055	-0.471	-0.064
-410.355	-6.568	0.362	0.246
-409.340	-180.349	0.137	0.003
-408.325	119.527	-0.024	-0.030
-407.311	-87.871	-0.263	0.079
-406.296	-200.000	-0.006	-0.227
-405.282	-111.843	-0.166	0.033
-404.267	-7.817	-0.028	-0.019
-403.252	-115.267	0.070	0.013
-402.238	-200.000	-0.111	0.493
-401.223	416.951	0.050	-0.107
-400.209	-111.825	-0.126	-0.025
-399.194	106.727	0.217	-0.256
-398.179	-67.999	0.230	0.089
-397.165	-155.328	-0.504	-0.033
-396.150	-200.000	-0.038	-0.173
-395.136	-101.325	0.369	0.090
-394.121	-200.000	0.006	-0.110
-393.106	-3.954	-0.281	0.194
-392.092	-61.066	0.196	-0.082
-391.077	59.153	-0.041	-0.041
-390.063	-200.000	-0.020	-0.251
-389.048	-115.885	0.276	0.051
-388.033	-41.805	-0.101	0.051
-387.019	-200.000	0.029	-0.165
-386.004	-57.712	-0.213	-0.093
-384.990	423.424	0.202	0.431
-383.975	-102.003	-0.035	-0.009
-382.960	-90.810	-0.230	0.066
-381.946	118.621	-0.080	-0.098
-380.931	800.000	0.147	-0.450
-379.917	-69.397	-0.157	0.060
-378.902	-129.037	0.171	0.024
-377.888	13.846	-0.049	0.038
-376.873	800.000	0.030	0.084
-375.858	32.141	-0.159	-0.136
-374.844	-200.000	-0.003	0.207
-373.829	-132.414	-0.124	-0.016
-372.815	458.695	-0.059	-0.131
-371.800	800.000	-0.053	0.197
-370.785	800.000	-0.035	0.103
-369.771	-186.743	0.386	-0.005
-368.756	471.277	0.179	-0.400
-367.742	-39.450	0.312	0.163
-366.727	-126.194	-0.088	0.013
-365.712	0.844	-0.274	-0.195
-364.698	185.378	0.131	-0.193
-363.683	252.508	-0.100	-0.169
-362.669	-200.000	0.032	-0.244
-361.654	-35.842	-0.045	0.024
-360.639	74.467	-0.037	-0.039
-359.625	-200.000	-0.006	0.129
-358.610	478.788	0.053	-0.120
-357.596	-37.444	0.254	0.135
-356.581	606.434	-0.077	0.190
-355.566	-200.000	-0.014	0.204
-354.552	154.208	0.168	-0.229
-353.537	24.296	-0.114	-0.094
-352.523	-18.535	0.223	0.138
-351.508	226.199	0.107	0.173
-350.493	-22.127	0.156	0.094
-349.479	-200.000	-0.009	-0.309
-348.464	109.990	-0.148	0.176
-347.450	-46.075	0.097	-0.048
-346.435	225.475	0.162	0.261
-345.420	61.810	0.246	-0.243
-344.406	800.000	0.048	0.147
-343.391	134.123	0.369	0.476
-342.377	-49.807	0.053	-0.025
-341.362	164.464	-0.174	0.244
-340.348	167.360	-0.155	-0.218
-339.333	488.749	0.101	0.230
-338.318	-200.000	0.025	0.110
-337.304	-112.690	0.073	0.014
-336.289	-101.171	0.120	-0.029
-335.275	156.765	-0.155	-0.213
-334.260	-200.000	-0.001	-0.126
-333.245	366.309	0.093	-0.186
-332.231	800.000	-0.031	0.098
-331.216	238.276	0.054	0.089
-330.202	800.000	-0.014	0.040
-329.187	33.674	-0.032	0.027
-328.172	800.000	0.046	-0.194
-327.158	-144.341	0.175	0.016
-326.143	243.824	0.078	-0.130
-325.129	800.000	-0.066	0.200
-324.114	-200.000	-0.012	-0.227
-323.099	593.032	-0.025	0.062
-322.085	-200.000	-0.006	-0.110
-321.070	-16.796	-0.136	0.085
-320.056	800.000	0.091	0.288
-319.041	-145.098	0.177	-0.016
-318.026	63.924	0.283	-0.282
-317.012	-165.992	0.156	0.007
-315.997	-119.350	-0.409	-0.071
-314.983	27.286	0.182	-0.152
-313.968	103.190	0.113	-0.131
-312.953	-200.000	-0.068	0.318
-311.939	-107.692	0.244	0.053
-310.924	265.373	-0.146	-0.252
-309.910	-69.061	0.223	0.085
-308.895	-9.772	-0.243	0.161
-307.880	136.694	0.084	-0.109
-306.866	45.235	-0.068	0.063
-305.851	-200.000	-0.044	0.269
-304.837	-162.449	-0.286	0.014
-303.822	93.370	-0.138	-0.155
-302.807	-15.924	0.239	0.151
-301.793	-34.654	-0.455	0.247
-300.778	-200.000	-0.048	0.217
-299.764	743.537	0.065	0.174
-298.749	12.443	-0.328	0.251
-297.735	84.352	0.210	0.227
-296.720	91.051	0.224	0.250
-295.705	368.021	0.169	0.339
-294.691	-119.765	0.345	-0.059
-293.676	-156.220	0.290	-0.018
-292.662	28.378	-0.173	0.145
-291.647	165.768	-0.215	-0.301
-290.632	18.528	0.268	-0.212
-289.618	-60.774	-0.135	-0.057
-288.603	66.907	0.169	-0.171
-287.589	17.602	-0.222	-0.175
-286.574	177.703	-0.127	-0.184
-285.559	14.519	0.157	0.122
-284.545	-4.085	0.198	0.136
-283.530	-79.783	0.223	-0.074
-282.516	-200.000	-0.051	-0.363
-281.501	-32.595	-0.535	0.295
-280.486	-200.000	0.073	0.385
-279.472	1.914	-0.097	-0.069
-278.457	-163.608	-0.156	-0.007
-277.443	217.360	0.044	-0.069
-276.428	-101.828	-0.202	-0.048
-275.413	62.260	0.065	-0.065
-274.399	-200.000	0.061	0.440
-273.384	-200.000	0.025	0.176
-272.370	368.166	-0.051	0.101
-271.355	68.076	0.121	0.123
-270.340	118.074	-0.106	-0.129
-269.326	556.676	0.043	-0.103
-268.311	-188.822	0.029	-0.000
-267.297	17.004	-0.321	0.252
-266.282	22.285	0.209	-0.169
-265.267	30.247	-0.101	-0.085
-264.253	85.271	-0.185	-0.201
-263.238	-200.000	-0.006	-0.258
-262.224	242.797	0.121	-0.201
-261.209	11.901	-0.062	0.047
-260.195	367.354	0.117	-0.235
-259.180	-148.400	0.236	0.019
-258.165	-51.647	0.179	0.083
-257.151	415.942	0.140	-0.296
-256.136	-120.858	0.249	-0.041
-255.122	286.165	0.153	-0.273
-254.107	-59.296	0.065	-0.028
-253.092	-200.000	0.007	0.220
-252.078	-0.653	-0.169	0.118
-251.063	800.000	0.104	0.307
-250.049	-6.819	-0.259	0.174
-249.034	-1.194	0.257	0.180
-248.019	-29.833	0.136	0.077
-247.005	800.000	0.054	-0.169
-245.990	-116.497	-0.059	0.011
-244.976	9.502	-0.195	0.146
-243.961	75.993	0.161	-0.169
-242.946	-135.382	-0.202	-0.024
-241.932	63.076	-0.129	-0.127
-240.917	-156.500	-0.066	0.004
-239.903	-200.000	0.010	0.154
-238.888	-139.986	-0.177	0.018
-237.873	800.000	-0.015	-0.047
-236.859	171.431	-0.144	0.205
-235.844	800.000	-0.062	-0.184
-234.830	65.246	-0.116	-0.116
-233.815	355.360	0.065	0.127
-232.800	274.122	0.161	0.282
-231.786	-116.630	0.116	0.021
-230.771	92.412	-0.149	0.166
-229.757	-4.331	0.326	-0.223
-228.742	-41.638	-0.226	-0.115
-227.727	163.054	0.124	-0.173
-226.713	-79.083	0.158	-0.053
-225.698	-38.283	0.082	-0.043
-224.684	-200.000	-0.124	0.560
-223.669	206.087	0.098	-0.151
-222.655	-26.684	0.082	-0.047
-221.640	110.898	0.055	0.065
-220.625	800.000	-0.040	0.168
-219.611	37.567	-0.060	-0.053
-218.596	-110.987	0.126	0.026
-217.582	-136.976	-0.244	-0.028
-216.567	112.610	-0.174	-0.208
-215.552	318.486	0.040	-0.074
-214.538	-129.006	0.174	0.024
-213.523	-200.000	0.016	-0.121
-212.509	-200.000	-0.055	-0.317
-211.494	800.000	0.026	0.078
-210.479	168.230	-0.122	-0.172
-209.465	29.936	0.242	0.204
-208.450	530.651	0.164	0.384
-207.436	-200.000	-0.060	0.459
-206.421	800.000	0.117	0.359
-205.406	-200.000	0.015	0.066
-204.392	57.912	-0.142	0.137
-203.377	632.748	0.045	0.114
-202.363	-115.630	-0.235	0.044
-201.348	65.182	-0.298	0.297
-200.333	106.371	-0.159	0.187
-199.319	800.000	-0.165	0.491
-198.304	-49.385	0.303	-0.143
-197.290	190.886	0.271	0.402
-196.275	636.581	0.020	0.050
-195.260	286.156	-0.060	-0.106
-194.246	67.442	0.092	-0.093
-193.231	-200.000	-0.037	0.324
-192.217	-119.938	-0.141	-0.024
-191.202	-71.442	-0.197	-0.073
-190.187	800.000	0.058	-0.168
-189.173	-154.017	-0.306	-0.021
-188.158	-41.139	-0.123	-0.062
-187.144	-139.078	-0.194	-0.021
-186.129	-21.532	0.203	0.122
-185.114	-176.861	-0.370	-0.009
-184.100	84.932	-0.248	-0.268
-183.085	-200.000	-0.004	-0.097
-182.071	-122.136	0.076	-0.012
-181.056	567.098	-0.116	0.278
-180.042	-112.179	-0.377	0.075
-179.027	37.601	0.145	-0.127
-178.012	800.000	-0.077	-0.242
-176.998	23.423	-0.241	-0.196
-175.983	501.086	-0.099	0.226
-174.969	800.000	0.126	-0.512
-173.954	48.362	0.069	0.064
-172.939	180.955	0.125	-0.181
-171.925	588.737	-0.074	-0.179
-170.910	-56.460	0.361	0.158
-169.896	760.630	-0.055	0.146
-168.881	438.160	-0.111	0.239
-167.866	-88.949	0.115	0.034
-166.852	-119.673	-0.060	-0.010
-165.837	-200.000	-0.051	0.340
-164.823	-101.814	0.125	0.030
-163.808	-137.698	-0.114	0.013
-162.793	17.974	-0.074	0.058
-161.779	10.645	-0.225	0.169
-160.764	-168.389	-0.193	-0.007
-159.750	-113.686	0.140	-0.027
-158.735	384.101	0.118	0.240
-157.720	-200.000	-0.029	-0.219
-156.706	-93.154	0.139	0.038
-155.691	-84.340	-0.196	0.061
-154.677	-200.000	-0.004	-0.113
-153.662	-62.934	0.109	-0.044
-152.647	800.000	-0.094	0.269
-151.633	193.680	-0.141	-0.211
-150.618	39.508	-0.122	-0.108
-149.604	472.446	-0.242	-0.538
-148.589	800.000	0.040	-0.155
-147.574	800.000	0.013	-0.052
-146.560	604.958	-0.081	0.200
-145.545	-157.618	0.076	0.004
-144.531	-104.199	-0.189	-0.043
-143.516	-60.500	-0.299	0.125
-142.502	800.000	0.054	-0.214
-141.487	65.887	-0.238	-0.237
-140.472	258.969	0.143	-0.242
-139.458	742.685	0.089	-0.235
-138.443	-22.442	-0.249	-0.149
-137.429	-151.159	0.333	-0.025
-136.414	-200.000	0.010	0.147
-135.399	21.452	0.118	-0.095
-134.385	-200.000	0.014	0.096
-133.370	65.968	0.170	0.170
-132.356	-58.101	0.181	-0.078
-131.341	800.000	-0.043	0.134
-130.326	-200.000	0.026	-0.119
-129.312	-74.467	-0.149	-0.053
-128.297	41.739	-0.140	0.125
-127.283	38.991	-0.087	-0.076
-126.268	128.094	0.167	0.210
-125.253	-200.000	0.077	0.550
-124.239	-55.759	-0.181	-0.080
-123.224	173.340	-0.091	0.129
-122.210	38.147	0.167	-0.147
-121.195	-88.104	0.068	-0.020
