DTS Sentinel unit serial number:	SN413079Multiplexer serial number:	ORYXHardware model number:	OX4-SRSoftware version number:	ORYX F/W v4.00 Oryx Data Collector v3.7.2.0data status	okinstallation	princeton_trtdifferential loss correction	single-endedforward channel	channel 1reverse channel	N/Adate	2019/09/11time	11:08:11forward acquisition time	60.00reverse acquisition time	0.00gamma	496.2192k internal	0.2296k external	0.2296temperature offset calibration	0.9954default loss term (dB/km)	0.3790temperature slope calibration	1.0000multiplexer offset coefficient	1.0000multiplexer slope coefficient	1.0000fibre end	0.00T internal ref (°C)	37.44T ext. ref 1 (°C)	0.18T ext. ref 2 (°C)	33.97length (m)	temperature (°C)	Stokes	anti-Stokes-747.200	-200.000	-0.014	-0.167
-746.185	-72.810	-0.085	-0.032
-745.171	-65.245	0.122	0.050
-744.156	69.647	-0.193	0.203
-743.142	-13.479	-0.121	0.080
-742.127	34.582	-0.174	0.155
-741.112	800.000	0.047	0.167
-740.098	-58.337	0.247	0.110
-739.083	148.176	0.084	0.116
-738.069	-90.225	0.247	0.073
-737.054	800.000	-0.020	-0.080
-736.039	33.552	-0.266	-0.236
-735.025	84.844	0.132	-0.147
-734.010	-200.000	0.006	0.282
-732.996	-148.945	-0.239	0.020
-731.981	-200.000	0.012	-0.156
-730.966	-10.211	0.158	-0.107
-729.952	167.060	-0.132	-0.191
-728.937	-149.921	-0.170	0.014
-727.923	-59.428	0.068	-0.030
-726.908	210.795	-0.132	-0.212
-725.894	-126.097	-0.276	0.042
-724.879	110.956	0.115	-0.141
-723.864	8.651	-0.212	0.163
-722.850	87.485	0.142	-0.161
-721.835	800.000	-0.025	-0.103
-720.821	-0.082	-0.043	-0.031
-719.806	-96.621	0.457	0.123
-718.791	-78.372	-0.232	-0.081
-717.777	-200.000	-0.000	0.083
-716.762	-151.475	-0.314	0.024
-715.748	-172.135	-0.172	-0.006
-714.733	117.263	0.056	0.070
-713.718	-42.413	-0.334	-0.174
-712.704	-5.388	0.181	0.127
-711.689	-65.029	0.172	-0.071
-710.675	688.362	0.058	-0.155
-709.660	-136.483	0.222	0.026
-708.645	17.672	0.110	-0.089
-707.631	338.264	-0.147	0.293
-706.616	800.000	-0.023	-0.090
-705.602	-1.781	-0.133	-0.095
-704.587	-32.508	-0.169	0.096
-703.572	769.587	-0.040	0.111
-702.558	-200.000	0.025	0.276
-701.543	-200.000	-0.012	-0.143
-700.529	-138.231	0.089	0.010
-699.514	-69.705	-0.210	0.082
-698.499	800.000	0.089	-0.278
-697.485	140.074	-0.200	-0.270
-696.470	-129.173	-0.300	-0.043
-695.456	219.370	-0.115	0.187
-694.441	214.462	0.168	-0.271
-693.426	-50.169	0.322	0.156
-692.412	-81.804	0.539	-0.180
-691.397	-37.710	-0.165	-0.090
-690.383	53.905	0.189	0.185
-689.368	7.437	0.133	-0.101
-688.354	-25.897	-0.054	-0.033
-687.339	800.000	0.029	0.100
-686.324	-137.284	-0.343	-0.040
-685.310	163.954	-0.169	-0.242
-684.295	5.733	-0.449	0.338
-683.281	-200.000	0.045	0.287
-682.266	-58.103	0.162	0.072
-681.251	275.111	0.163	0.295
-680.237	50.534	-0.315	-0.303
-679.222	212.765	0.096	-0.155
-678.208	-9.995	0.310	0.210
-677.193	-61.524	-0.121	-0.052
-676.178	-4.557	0.093	-0.065
-675.164	32.085	0.126	-0.111
-674.149	-102.232	-0.263	0.065
-673.135	394.359	-0.048	-0.102
-672.120	-114.992	-0.319	-0.062
-671.105	8.005	-0.363	0.277
-670.091	-140.262	0.041	-0.004
-669.076	66.270	0.196	-0.203
-668.062	68.011	-0.150	-0.157
-667.047	-4.824	-0.290	-0.204
-666.032	-71.189	0.190	0.073
-665.018	-200.000	-0.010	0.214
-664.003	-200.000	0.056	-0.260
-662.989	-200.000	0.037	-0.270
-661.974	235.962	0.184	-0.310
-660.959	-114.140	-0.303	-0.060
-659.945	1.090	-0.230	-0.168
-658.930	-118.816	0.353	-0.063
-657.916	800.000	0.057	0.191
-656.901	308.496	0.067	0.127
-655.886	768.021	-0.121	-0.334
-654.872	79.649	0.150	-0.164
-653.857	-126.605	-0.261	-0.039
-652.843	-35.219	0.053	-0.029
-651.828	25.005	0.156	0.132
-650.814	81.308	0.147	-0.161
-649.799	106.616	0.186	0.225
-648.784	-200.000	0.017	0.172
-647.770	274.877	0.029	-0.053
-646.755	-200.000	-0.046	-0.346
-645.741	0.417	-0.177	-0.129
-644.726	800.000	0.028	-0.116
-643.711	-200.000	-0.015	0.116
-642.697	-42.507	0.230	-0.119
-641.682	-40.396	-0.126	0.066
-640.668	317.531	0.052	0.101
-639.653	6.462	-0.257	0.194
-638.638	-104.593	0.264	-0.062
-637.624	-200.000	0.081	-0.429
-636.609	800.000	-0.090	-0.278
-635.595	800.000	-0.063	0.262
-634.580	800.000	0.012	0.050
-633.565	-200.000	0.017	-0.157
-632.551	178.066	-0.038	0.056
-631.536	-119.159	0.110	-0.020
-630.522	-41.038	0.180	-0.094
-629.507	315.931	-0.096	-0.184
-628.492	-129.668	-0.451	-0.063
-627.478	155.029	0.202	0.283
-626.463	-124.656	0.179	-0.028
-625.449	-74.477	-0.207	-0.076
-624.434	-200.000	-0.023	0.143
-623.419	-72.231	-0.330	0.125
-622.405	134.386	0.071	-0.093
-621.390	-178.850	0.144	0.003
-620.376	-97.451	-0.225	0.059
-619.361	88.616	0.114	0.129
-618.346	309.850	-0.088	-0.168
-617.332	-200.000	0.003	0.204
-616.317	11.947	0.058	0.045
-615.303	-200.000	-0.005	-0.232
-614.288	-132.545	-0.053	0.007
-613.273	-200.000	-0.043	0.250
-612.259	67.172	-0.173	0.179
-611.244	590.942	0.058	0.145
-610.230	142.349	0.142	-0.191
-609.215	-5.362	0.241	-0.168
-608.201	-200.000	-0.055	-0.343
-607.186	385.404	0.067	0.140
-606.171	7.301	0.125	0.095
-605.157	-51.707	-0.125	-0.059
-604.142	-41.921	0.168	-0.087
-603.128	-200.000	0.008	-0.050
-602.113	457.841	-0.049	0.111
-601.098	218.930	-0.069	0.112
-600.084	800.000	-0.018	0.076
-599.069	74.187	0.076	0.081
-598.055	311.146	0.077	0.146
-597.040	-114.651	-0.097	0.019
-596.025	-51.674	-0.159	-0.075
-595.011	-62.192	-0.224	0.095
-593.996	-184.527	0.252	0.004
-592.982	238.379	0.089	0.150
-591.967	-79.731	-0.312	-0.107
-590.952	167.240	-0.060	0.087
-589.938	514.053	0.033	-0.079
-588.923	800.000	-0.038	-0.155
-587.909	86.271	-0.213	0.238
-586.894	-59.341	-0.232	0.101
-585.879	-99.583	-0.348	-0.089
-584.865	-24.761	-0.233	0.141
-583.850	800.000	0.125	0.363
-582.836	384.712	-0.046	-0.097
-581.821	-200.000	-0.006	0.090
-580.806	325.945	0.238	-0.463
-579.792	69.068	-0.296	-0.308
-578.777	800.000	-0.047	0.166
-577.763	92.081	0.144	0.165
-576.748	-34.973	0.268	0.148
-575.733	-142.159	0.438	-0.044
-574.719	-102.811	-0.024	0.006
-573.704	-120.733	-0.214	-0.037
-572.690	-40.913	-0.225	-0.118
-571.675	800.000	0.027	-0.075
-570.661	-9.861	0.068	0.046
-569.646	-200.000	-0.038	0.241
-568.631	-200.000	-0.087	-0.508
-567.617	600.235	-0.100	-0.253
-566.602	4.164	-0.160	0.119
-565.588	800.000	-0.115	0.389
-564.573	-76.300	-0.080	-0.029
-563.558	-159.066	-0.168	-0.010
-562.544	7.650	-0.060	-0.046
-561.529	-200.000	-0.173	0.000
-560.515	624.276	-0.021	-0.053
-559.500	154.378	0.206	0.287
-558.485	800.000	-0.017	-0.066
-557.471	-26.530	-0.052	0.031
-556.456	18.619	-0.073	-0.060
-555.442	16.614	-0.106	0.085
-554.427	-64.715	-0.142	-0.058
-553.412	31.246	0.050	0.043
-552.398	-30.890	0.167	-0.096
-551.383	-162.552	0.178	0.009
-550.369	-124.064	-0.067	0.011
-549.354	-200.000	0.004	0.104
-548.339	3.583	0.150	-0.111
-547.325	-200.000	0.014	0.224
-546.310	-99.747	-0.128	-0.033
-545.296	-200.000	-0.017	0.143
-544.281	-66.521	-0.222	-0.089
-543.266	-19.654	0.165	-0.104
-542.252	-200.000	-0.015	0.314
-541.237	29.081	0.323	-0.277
-540.223	46.889	0.302	-0.284
-539.208	-200.000	0.013	-0.254
-538.193	79.950	0.099	-0.108
-537.179	-143.899	-0.208	0.020
-536.164	312.940	-0.100	0.190
-535.150	-200.000	0.002	0.041
-534.135	479.938	-0.112	0.257
-533.121	-200.000	-0.037	0.430
-532.106	-99.657	0.278	-0.071
-531.091	283.410	0.146	-0.266
-530.077	3.884	-0.151	0.112
-529.062	-135.525	-0.473	-0.057
-528.048	129.749	-0.151	-0.195
-527.033	800.000	-0.111	0.328
-526.018	111.515	-0.442	0.540
-525.004	154.968	0.106	-0.147
-523.989	800.000	0.064	-0.200
-522.975	-23.393	-0.114	-0.069
-521.960	800.000	0.101	-0.428
-520.945	222.217	0.095	-0.154
-519.931	138.694	0.144	0.191
-518.916	-197.480	0.306	0.002
-517.902	-88.447	0.193	0.058
-516.887	-200.000	-0.020	-0.096
-515.872	352.715	-0.086	0.172
-514.858	-109.453	-0.165	0.035
-513.843	-200.000	-0.020	0.150
-512.829	11.924	-0.099	-0.077
-511.814	228.581	-0.079	-0.130
-510.799	-99.620	-0.440	0.112
-509.785	-200.000	0.047	0.351
-508.770	-85.373	0.161	-0.051
-507.756	800.000	0.020	0.073
-506.741	-200.000	-0.019	-0.125
-505.726	-76.335	-0.125	0.044
-504.712	-101.077	-0.295	0.073
-503.697	483.930	0.108	0.248
-502.683	-121.373	0.135	-0.023
-501.668	197.750	0.095	-0.147
-500.653	-106.566	0.260	-0.059
-499.639	800.000	-0.009	-0.031
-498.624	159.759	-0.116	0.164
-497.610	113.573	-0.058	-0.071
-496.595	176.707	0.204	0.300
-495.581	589.546	0.101	0.251
-494.566	-25.871	0.220	0.131
-493.551	800.000	-0.089	0.295
-492.537	142.206	0.055	-0.073
-491.522	-32.300	0.035	-0.020
-490.508	-200.000	-0.001	0.224
-489.493	-29.714	-0.255	0.147
-488.478	171.607	0.059	-0.086
-487.464	772.990	-0.091	0.251
-486.449	648.793	0.115	-0.299
-485.435	-146.996	-0.112	-0.010
-484.420	-130.583	0.034	-0.005
-483.405	-200.000	0.012	0.090
-482.391	726.605	-0.092	0.249
-481.376	-110.930	-0.215	0.045
-480.362	24.666	0.238	-0.199
-479.347	45.979	0.144	-0.135
-478.332	113.524	-0.034	-0.042
-477.318	-131.978	0.097	0.013
-476.303	215.525	0.067	-0.107
-475.289	408.016	-0.118	0.252
-474.274	-61.089	-0.184	0.079
-473.259	467.287	-0.114	-0.258
-472.245	19.879	-0.125	-0.102
-471.230	153.013	0.132	0.182
-470.216	-200.000	-0.036	0.366
-469.201	-143.437	0.120	0.012
-468.186	-200.000	0.003	0.079
-467.172	-94.518	0.226	0.062
-466.157	-90.541	-0.206	0.060
-465.143	66.935	0.246	-0.253
-464.128	800.000	-0.016	-0.065
-463.113	-200.000	-0.072	0.410
-462.099	-91.490	0.291	-0.084
-461.084	-54.690	-0.264	-0.120
-460.070	-200.000	0.006	-0.154
-459.055	-139.598	0.198	0.021
-458.040	-80.175	0.156	-0.053
-457.026	-60.266	-0.292	0.126
-456.011	-153.524	0.155	-0.011
-454.997	-200.000	0.011	0.243
-453.982	-200.000	-0.013	-0.263
-452.968	-47.683	0.347	-0.170
-451.953	-55.971	-0.229	0.103
-450.938	800.000	-0.054	-0.150
-449.924	-200.000	-0.006	0.160
-448.909	-82.146	-0.260	-0.086
-447.895	-200.000	0.013	0.138
-446.880	128.590	0.100	-0.129
-445.865	-123.776	0.227	0.036
-444.851	-200.000	0.004	0.075
-443.836	619.697	-0.066	-0.167
-442.822	-164.308	0.203	0.009
-441.807	-62.255	-0.189	0.079
-440.792	-51.899	-0.072	-0.034
-439.778	103.549	-0.190	0.225
-438.763	-42.158	-0.173	0.089
-437.749	-61.628	-0.102	-0.043
-436.734	-157.905	-0.359	0.021
-435.719	47.014	-0.269	-0.253
-434.705	339.655	-0.025	0.050
-433.690	-63.535	0.027	0.011
-432.676	-97.747	0.318	0.083
-431.661	-4.452	-0.279	0.195
-430.646	241.162	0.149	-0.252
-429.632	-83.016	0.148	0.048
-428.617	800.000	0.059	-0.175
-427.603	-164.747	0.248	-0.011
-426.588	-200.000	0.030	-0.188
-425.573	-7.361	0.169	-0.116
-424.559	-122.694	-0.127	0.021
-423.544	278.021	0.130	0.233
-422.530	101.600	0.124	-0.146
-421.515	-105.052	-0.083	-0.019
-420.500	114.883	-0.184	-0.227
-419.486	-49.683	-0.219	-0.105
-418.471	-195.437	0.153	-0.001
-417.457	165.774	-0.132	-0.189
-416.442	150.315	-0.119	0.163
-415.428	102.109	0.206	-0.243
-414.413	40.251	-0.120	-0.109
-413.398	-107.690	0.105	0.023
-412.384	800.000	0.104	-0.320
-411.369	519.588	-0.154	-0.364
-410.355	-122.769	0.197	-0.032
-409.340	-74.504	-0.290	0.105
-408.325	-200.000	0.023	0.128
-407.311	-137.677	0.136	0.015
-406.296	-70.593	0.195	0.074
-405.282	160.899	0.232	-0.327
-404.267	-3.734	-0.109	0.077
-403.252	-104.988	0.140	0.032
-402.238	-5.740	-0.079	0.055
-401.223	800.000	-0.068	-0.248
-400.209	366.554	-0.155	-0.315
-399.194	57.088	0.185	-0.182
-398.179	6.721	-0.139	-0.104
-397.165	-200.000	-0.019	-0.295
-396.150	800.000	-0.019	-0.065
-395.136	181.865	-0.111	0.165
-394.121	-200.000	-0.001	0.313
-393.106	-89.622	-0.085	-0.025
-392.092	-70.825	-0.164	-0.062
-391.077	800.000	0.044	-0.155
-390.063	-8.324	0.281	-0.190
-389.048	-43.887	0.277	-0.140
-388.033	-181.734	0.248	0.005
-387.019	-6.530	-0.199	0.137
-386.004	29.213	-0.186	0.159
-384.990	-200.000	0.029	-0.213
-383.975	-73.020	-0.256	-0.095
-382.960	32.736	0.102	-0.089
-381.946	800.000	0.127	0.379
-380.931	14.151	0.105	0.082
-379.917	-36.690	0.193	-0.105
-378.902	-200.000	-0.014	0.305
-377.888	-65.996	-0.103	-0.041
-376.873	105.311	-0.298	0.354
-375.858	110.350	0.254	-0.307
-374.844	-10.038	-0.201	-0.134
-373.829	-123.522	-0.120	-0.019
-372.815	87.842	-0.038	-0.042
-371.800	800.000	-0.033	-0.136
-370.785	-117.141	-0.060	-0.011
-369.771	50.622	0.015	0.014
-368.756	800.000	0.097	0.280
-367.742	-175.301	0.206	0.006
-366.727	-57.980	0.312	-0.137
-365.712	800.000	-0.048	0.171
-364.698	0.439	-0.208	-0.150
-363.683	-87.340	0.325	0.099
-362.669	357.654	-0.011	0.021
-361.654	141.291	0.152	-0.202
-360.639	-151.329	0.481	0.036
-359.625	-104.109	-0.163	0.038
-358.610	51.327	-0.149	-0.143
-357.596	44.324	0.291	-0.269
-356.581	-134.210	-0.513	-0.064
-355.566	-101.970	-0.393	-0.095
-354.552	-110.932	0.221	0.046
-353.537	494.532	-0.066	0.152
-352.523	55.678	0.131	-0.128
-351.508	525.239	-0.091	0.217
-350.493	-116.319	-0.339	-0.063
-349.479	-15.435	-0.287	0.185
-348.464	-200.000	-0.023	0.164
-347.450	186.011	-0.193	0.289
-346.435	93.267	-0.181	-0.206
-345.420	-41.437	-0.204	0.106
-344.406	135.493	-0.161	-0.211
-343.391	-200.000	0.006	0.099
-342.377	45.810	-0.178	0.165
-341.362	-16.769	0.143	-0.091
-340.348	800.000	-0.072	0.251
-339.333	62.631	-0.098	0.098
-338.318	800.000	0.031	0.121
-337.304	-72.321	-0.133	0.050
-336.289	-200.000	-0.036	-0.231
-335.275	-30.887	-0.161	-0.091
-334.260	38.001	-0.141	-0.126
-333.245	57.196	0.019	-0.019
-332.231	-48.133	-0.178	0.087
-331.216	238.714	0.235	0.392
-330.202	-200.000	0.012	0.174
-329.187	84.181	-0.141	-0.155
-328.172	370.170	0.079	0.160
-327.158	-200.000	-0.015	-0.152
-326.143	-95.524	0.256	-0.069
-325.129	-147.153	-0.308	-0.026
-324.114	158.599	-0.050	0.070
-323.099	-200.000	0.012	-0.083
-322.085	-79.268	-0.213	-0.073
-321.070	-200.000	0.009	0.061
-320.056	-85.740	-0.245	-0.076
-319.041	143.429	-0.038	-0.050
-318.026	-200.000	0.035	0.285
-317.012	-1.522	0.098	-0.069
-315.997	279.285	0.186	0.333
-314.983	52.345	0.160	0.153
-313.968	800.000	-0.045	0.175
-312.953	-200.000	-0.022	0.131
-311.939	-65.559	-0.174	0.070
-310.924	64.811	-0.167	0.169
-309.910	-200.000	0.013	0.360
-308.895	348.650	-0.107	0.213
-307.880	-200.000	0.063	0.325
-306.866	-200.000	0.040	-0.267
-305.851	-128.619	0.194	0.028
-304.837	-100.896	0.123	-0.030
-303.822	-186.992	-0.514	-0.007
-302.807	-200.000	-0.002	-0.156
-301.793	-105.349	-0.375	-0.086
-300.778	-173.764	0.131	0.004
-299.764	-200.000	0.024	-0.240
-298.749	-200.000	0.026	-0.152
-297.735	-46.611	0.531	0.261
-296.720	-166.459	-0.299	-0.013
-295.705	-200.000	-0.012	0.235
-294.691	-119.905	-0.289	0.050
-293.676	15.783	0.374	0.295
-292.662	-109.854	0.124	0.026
-291.647	14.356	-0.133	-0.104
-290.632	-81.449	-0.271	-0.090
-289.618	-43.299	-0.387	-0.196
-288.603	171.960	0.012	-0.017
-287.589	-126.115	0.432	0.065
-286.574	800.000	-0.035	0.151
-285.559	-150.367	0.229	-0.018
-284.545	12.899	-0.279	0.216
-283.530	194.289	0.129	-0.195
-282.516	-200.000	0.006	0.313
-281.501	-200.000	-0.038	-0.209
-280.486	-175.165	0.360	0.010
-279.472	800.000	0.099	0.344
-278.457	62.707	-0.129	-0.130
-277.443	343.369	-0.049	0.097
-276.428	-134.553	0.284	0.035
-275.413	48.554	0.139	-0.131
-274.399	-108.353	-0.178	-0.039
-273.384	240.975	-0.043	-0.073
-272.370	-150.998	0.254	0.019
-271.355	412.632	-0.032	-0.069
-270.340	757.283	0.133	0.362
-269.326	-1.692	0.209	-0.148
-268.311	-67.252	-0.263	-0.104
-267.297	-200.000	-0.042	-0.187
-266.282	-71.153	0.193	0.073
-265.267	-200.000	0.011	-0.459
-264.253	800.000	0.111	-0.417
-263.238	158.783	-0.056	-0.078
-262.224	-98.987	-0.307	-0.078
-261.209	484.222	-0.094	-0.215
-260.195	228.916	-0.108	-0.177
-259.180	-66.986	0.192	-0.076
-258.165	-22.772	-0.250	-0.151
-257.151	-200.000	-0.010	0.081
-256.136	-158.478	0.224	0.013
-255.122	-145.602	0.212	-0.019
-254.107	85.977	-0.167	-0.184
-253.092	800.000	0.029	0.086
-252.078	83.436	-0.025	0.027
-251.063	190.771	-0.241	-0.363
-250.049	-200.000	0.000	0.007
-249.034	-41.303	0.328	0.169
-248.019	-75.001	0.269	-0.097
-247.005	-53.918	0.165	-0.075
-245.990	-113.797	0.170	0.033
-244.976	27.863	-0.057	0.048
-243.961	300.695	0.162	0.300
-242.946	329.723	-0.064	0.124
-241.932	76.115	0.384	-0.407
-240.917	156.033	-0.093	-0.129
-239.903	-200.000	0.047	-0.222
-238.888	79.770	0.072	-0.077
-237.873	243.583	0.154	-0.259
-236.859	11.361	-0.076	-0.058
-235.844	-129.980	0.183	-0.025
-234.830	800.000	0.046	-0.150
-233.815	277.092	0.280	-0.499
-232.800	123.636	0.164	0.206
-231.786	115.768	0.029	0.035
-230.771	183.746	0.086	0.127
-229.757	-150.067	0.116	-0.009
-228.742	-200.000	0.015	-0.098
-227.727	-110.997	-0.133	-0.027
-226.713	65.616	-0.216	-0.219
-225.698	-49.998	-0.363	-0.172
-224.684	-33.540	0.023	0.013
-223.669	24.479	-0.011	-0.009
-222.655	738.537	-0.117	0.315
-221.640	-200.000	-0.004	-0.226
-220.625	197.572	0.157	0.240
-219.611	-91.519	0.153	0.044
-218.596	-69.819	0.052	0.020
-217.582	-12.802	-0.279	0.182
-216.567	282.695	-0.017	0.031
-215.552	-31.457	-0.166	-0.094
-214.538	-7.721	-0.128	0.087
-213.523	-200.000	0.026	0.175
-212.509	0.847	0.316	0.227
-211.494	-200.000	-0.026	-0.203
-210.479	-200.000	-0.002	-0.242
-209.465	800.000	-0.182	-0.539
-208.450	8.687	0.101	-0.076
-207.436	-200.000	-0.058	0.387
-206.421	7.731	0.129	0.096
-205.406	-21.065	-0.143	-0.087
-204.392	-119.097	0.152	-0.027
-203.377	67.213	0.249	-0.254
-202.363	-7.626	0.260	-0.176
-201.348	142.346	0.073	0.096
-200.333	-184.881	0.084	-0.001
-199.319	-77.368	0.122	0.042
-198.304	189.170	0.151	-0.226
-197.290	58.043	0.186	0.182
-196.275	60.648	-0.093	-0.092
-195.260	301.295	0.077	-0.143
-194.246	201.408	-0.126	0.195
-193.231	9.934	0.073	0.056
-192.217	-197.327	-0.189	-0.001
-191.202	34.543	-0.317	-0.277
-190.187	316.180	-0.130	-0.245
-189.173	-106.457	0.148	-0.033
-188.158	-200.000	-0.004	0.177
-187.144	-39.475	0.235	0.123
-186.129	-200.000	-0.011	-0.083
-185.114	144.828	0.062	0.083
-184.100	69.125	-0.163	0.168
-183.085	-200.000	-0.050	0.295
-182.071	339.015	-0.127	0.248
-181.056	17.145	0.206	0.163
-180.042	-108.428	-0.125	-0.027
-179.027	175.530	-0.146	-0.211
-178.012	57.954	0.132	0.129
-176.998	800.000	0.059	0.204
-175.983	800.000	-0.022	-0.062
-174.969	-27.826	0.251	0.145
-173.954	-200.000	-0.016	0.083
-172.939	18.572	0.283	-0.226
-171.925	4.165	-0.237	0.173
-170.910	57.691	-0.209	0.204
-169.896	-25.646	-0.116	0.069
-168.881	-30.870	-0.172	-0.097
-167.866	730.248	-0.046	0.122
-166.852	-143.462	0.099	0.009
-165.837	-59.059	0.223	0.096
-164.823	5.667	0.290	0.214
-163.808	210.728	0.094	-0.148
-162.793	-29.680	0.170	-0.097
-161.779	-23.947	0.228	-0.137
-160.764	-122.895	0.048	0.008
-159.750	800.000	0.044	0.172
-158.735	-168.394	0.359	-0.014
-157.720	576.260	-0.028	0.067
-156.706	521.046	0.152	-0.356
-155.691	-200.000	0.007	-0.059
-154.677	-181.964	-0.146	-0.003
-153.662	-14.178	0.027	-0.018
-152.647	5.518	0.266	0.196
-151.633	-37.609	0.194	-0.103
-150.618	-200.000	0.004	-0.434
-149.604	-112.492	-0.191	-0.038
-148.589	24.413	-0.192	0.158
-147.574	88.958	-0.069	-0.076
-146.560	800.000	-0.135	-0.382
-145.545	89.356	-0.169	-0.188
-144.531	12.972	-0.130	0.100
-143.516	-5.535	-0.156	0.107
-142.502	-104.278	-0.194	0.045
-141.487	-36.254	0.267	0.144
-140.472	-138.927	-0.294	-0.032
-139.458	-24.631	0.126	0.075
-138.443	-101.581	-0.189	0.046
-137.429	-22.442	-0.109	0.066
-136.414	800.000	-0.025	-0.097
-135.399	-81.154	0.417	0.138
-134.385	-48.661	0.127	0.061
-133.370	-76.008	0.078	0.028
-132.356	800.000	0.053	-0.181
-131.341	-93.179	-0.220	-0.061
-130.326	-61.119	0.220	0.093
-129.312	-77.703	-0.225	0.078
-128.297	-200.000	-0.012	-0.159
-127.283	353.165	0.214	0.423
-126.268	800.000	-0.097	0.379
-125.253	537.803	0.136	0.322
-124.239	800.000	0.070	-0.203
-123.224	450.581	0.049	-0.108
-122.210	87.754	0.148	0.163
-121.195	202.735	-0.074	0.114
