DTS Sentinel unit serial number:	SN413079Multiplexer serial number:	ORYXHardware model number:	OX4-SRSoftware version number:	ORYX F/W v4.00 Oryx Data Collector v3.7.2.0data status	okinstallation	princeton_trtdifferential loss correction	single-endedforward channel	channel 1reverse channel	N/Adate	2019/09/15time	05:06:35forward acquisition time	60.00reverse acquisition time	0.00gamma	496.2192k internal	0.2325k external	0.2325temperature offset calibration	0.9996default loss term (dB/km)	0.3790temperature slope calibration	1.0000multiplexer offset coefficient	1.0000multiplexer slope coefficient	1.0000fibre end	0.00T internal ref (°C)	30.69T ext. ref 1 (°C)	4.82T ext. ref 2 (°C)	25.21length (m)	temperature (°C)	Stokes	anti-Stokes-747.200	63.732	-0.062	-0.063
-746.185	-87.931	0.119	0.036
-745.171	-142.037	0.113	0.011
-744.156	-102.015	-0.118	0.029
-743.142	145.105	0.225	0.304
-742.127	115.167	0.095	-0.117
-741.112	-69.659	0.335	-0.129
-740.098	686.473	0.136	0.358
-739.083	-92.458	0.223	0.063
-738.069	-200.000	0.025	0.124
-737.054	-200.000	-0.034	-0.188
-736.039	-116.670	-0.171	-0.032
-735.025	-200.000	-0.003	0.077
-734.010	3.871	-0.134	-0.098
-732.996	348.942	-0.155	0.309
-731.981	9.870	-0.387	0.296
-730.966	-20.333	0.144	0.089
-729.952	49.483	-0.060	0.057
-728.937	-200.000	0.001	0.180
-727.923	-200.000	-0.014	0.318
-726.908	193.023	-0.127	-0.193
-725.894	3.607	0.125	-0.092
-724.879	-26.556	-0.200	-0.118
-723.864	24.769	-0.182	0.152
-722.850	144.881	0.097	0.130
-721.835	800.000	0.087	-0.362
-720.821	-200.000	0.038	0.255
-719.806	-48.720	0.394	0.191
-718.791	-47.028	-0.156	-0.077
-717.777	500.300	0.090	-0.210
-716.762	127.464	-0.018	-0.024
-715.748	11.421	-0.244	-0.189
-714.733	800.000	-0.029	0.096
-713.718	161.497	0.059	0.083
-712.704	-89.753	-0.401	0.118
-711.689	61.943	0.093	-0.093
-710.675	-200.000	-0.039	0.187
-709.660	800.000	-0.079	-0.252
-708.645	-77.933	-0.422	-0.147
-707.631	-62.514	-0.035	-0.015
-706.616	-104.224	-0.154	-0.036
-705.602	800.000	0.072	0.202
-704.587	-108.911	-0.262	0.056
-703.572	-25.758	-0.162	0.096
-702.558	10.246	0.221	-0.169
-701.543	67.971	-0.109	-0.112
-700.529	-121.842	-0.063	0.010
-699.514	451.773	0.134	0.298
-698.499	800.000	0.066	-0.223
-697.485	-62.335	-0.226	-0.095
-696.470	-19.325	0.099	0.062
-695.456	28.510	-0.278	0.237
-694.441	-167.486	-0.072	-0.003
-693.426	-200.000	-0.002	0.037
-692.412	-7.339	-0.184	0.126
-691.397	-107.756	-0.109	0.024
-690.383	-113.978	-0.295	-0.058
-689.368	-10.632	0.104	-0.069
-688.354	73.820	0.103	-0.109
-687.339	84.209	-0.140	-0.154
-686.324	-118.859	-0.250	0.044
-685.310	327.866	0.080	-0.154
-684.295	-200.000	0.022	-0.112
-683.281	409.901	-0.086	-0.183
-682.266	86.083	0.207	0.229
-681.251	154.421	-0.134	-0.186
-680.237	-92.912	-0.125	0.035
-679.222	-31.626	-0.103	0.058
-678.208	562.121	-0.058	0.142
-677.193	-36.049	-0.058	-0.031
-676.178	-35.502	-0.159	-0.087
-675.164	-88.017	-0.006	-0.002
-674.149	552.677	0.064	0.155
-673.135	68.023	0.099	-0.102
-672.120	33.758	-0.017	-0.015
-671.105	-184.645	0.193	0.003
-670.091	-200.000	0.042	0.191
-669.076	128.944	0.095	0.122
-668.062	588.071	0.143	-0.355
-667.047	234.612	-0.044	0.072
-666.032	-82.979	0.631	-0.205
-665.018	-116.578	0.128	0.024
-664.003	-200.000	-0.020	0.095
-662.989	800.000	-0.084	0.262
-661.974	-63.888	-0.084	-0.034
-660.959	-200.000	0.013	-0.140
-659.945	-200.000	0.036	0.262
-658.930	100.769	0.157	0.183
-657.916	509.226	-0.084	-0.196
-656.901	800.000	0.039	0.153
-655.886	722.813	-0.031	-0.084
-654.872	539.877	-0.035	0.085
-653.857	-94.419	-0.118	-0.032
-652.843	-1.209	0.145	-0.103
-651.828	9.189	0.163	0.124
-650.814	-200.000	0.017	0.125
-649.799	-200.000	-0.018	-0.101
-648.784	-19.587	0.136	-0.084
-647.770	73.763	0.154	-0.162
-646.755	89.606	-0.157	-0.176
-645.741	800.000	-0.035	0.129
-644.726	-200.000	-0.009	-0.149
-643.711	-200.000	0.029	0.252
-642.697	131.945	-0.248	0.320
-641.682	-21.306	-0.384	0.236
-640.668	618.462	-0.156	-0.393
-639.653	-37.716	-0.246	0.132
-638.638	-54.601	0.169	-0.077
-637.624	-50.940	0.103	-0.048
-636.609	106.459	-0.095	0.113
-635.595	-92.718	0.083	-0.023
-634.580	800.000	-0.058	-0.221
-633.565	351.917	0.038	-0.075
-632.551	42.975	-0.123	0.113
-631.536	143.627	0.125	0.168
-630.522	-120.643	-0.228	-0.039
-629.507	13.103	0.133	0.104
-628.492	-8.819	0.120	-0.081
-627.478	800.000	-0.055	0.180
-626.463	-25.793	0.199	-0.118
-625.449	146.149	0.210	-0.282
-624.434	-8.489	-0.176	0.119
-623.419	89.135	-0.158	-0.176
-622.405	292.896	-0.072	0.132
-621.390	126.846	0.325	-0.414
-620.376	17.921	0.109	-0.087
-619.361	231.482	-0.076	0.124
-618.346	-200.000	0.024	0.117
-617.332	-105.847	-0.270	0.061
-616.317	62.269	0.064	0.064
-615.303	135.565	-0.153	-0.200
-614.288	664.790	0.062	0.162
-613.273	-15.775	-0.270	0.173
-612.259	-90.240	-0.519	-0.151
-611.244	-10.637	-0.062	-0.041
-610.230	-60.804	0.269	0.114
-609.215	-200.000	0.008	-0.275
-608.201	-135.131	0.364	-0.044
-607.186	800.000	-0.092	-0.326
-606.171	800.000	-0.040	-0.113
-605.157	-41.983	-0.369	0.190
-604.142	-200.000	-0.010	-0.151
-603.128	315.384	0.115	-0.217
-602.113	97.472	-0.035	-0.041
-601.098	-37.601	0.263	-0.141
-600.084	-181.454	-0.022	-0.000
-599.069	-1.338	0.113	-0.080
-598.055	800.000	0.059	-0.184
-597.040	-66.327	0.249	-0.099
-596.025	-67.905	-0.472	-0.185
-595.011	92.217	-0.016	-0.018
-593.996	108.142	-0.078	-0.094
-592.982	70.235	-0.073	-0.076
-591.967	800.000	0.086	-0.284
-590.952	-200.000	-0.059	-0.286
-589.938	-102.943	0.544	-0.129
-588.923	-15.223	-0.258	0.166
-587.909	-51.494	-0.063	-0.030
-586.894	392.375	-0.112	-0.234
-585.879	-200.000	0.000	0.477
-584.865	-200.000	0.028	0.402
-583.850	12.700	-0.095	-0.073
-582.836	-200.000	-0.009	-0.209
-581.821	-3.510	0.166	-0.116
-580.806	-69.814	-0.280	-0.107
-579.792	7.287	-0.092	0.069
-578.777	-57.010	-0.130	0.057
-577.763	354.524	-0.117	0.233
-576.748	800.000	0.062	0.190
-575.733	96.291	0.058	0.066
-574.719	235.407	0.107	0.178
-573.704	-200.000	0.056	-0.385
-572.690	50.106	-0.089	-0.084
-571.675	-200.000	0.045	0.307
-570.661	115.251	-0.166	0.203
-569.646	-200.000	-0.009	-0.039
-568.631	70.557	0.136	0.141
-567.617	-85.702	-0.432	-0.134
-566.602	-76.230	-0.328	-0.116
-565.588	-200.000	0.002	0.042
-564.573	771.507	0.112	0.306
-563.558	-200.000	0.033	0.170
-562.544	281.329	-0.135	0.242
-561.529	304.470	0.101	0.187
-560.515	-200.000	0.001	0.196
-559.500	40.462	-0.084	-0.076
-558.485	18.219	0.046	0.036
-557.471	48.890	-0.073	0.069
-556.456	267.049	-0.129	0.225
-555.442	-122.956	-0.306	-0.049
-554.427	-167.932	-0.289	-0.011
-553.412	-200.000	0.019	0.202
-552.398	275.262	-0.121	0.215
-551.383	664.917	-0.019	-0.048
-550.369	50.592	0.103	-0.097
-549.354	621.145	0.056	-0.142
-548.339	-119.764	0.072	-0.012
-547.325	214.602	-0.110	0.174
-546.310	-82.943	0.182	-0.059
-545.296	1.982	0.150	-0.108
-544.281	-125.685	-0.017	-0.003
-543.266	-61.993	-0.164	-0.069
-542.252	-126.006	-0.075	0.011
-541.237	-200.000	0.007	-0.140
-540.223	-55.070	0.275	-0.124
-539.208	-9.828	-0.103	0.069
-538.193	581.963	-0.071	-0.174
-537.179	-22.405	-0.165	0.100
-536.164	312.895	0.037	0.069
-535.150	36.372	-0.093	0.082
-534.135	589.719	0.091	0.224
-533.121	-200.000	-0.029	-0.301
-532.106	-50.913	-0.102	0.048
-531.091	-100.500	-0.064	0.016
-530.077	-200.000	-0.029	-0.137
-529.062	-200.000	-0.073	0.336
-528.048	128.751	-0.067	-0.086
-527.033	-65.059	0.101	0.041
-526.018	139.621	-0.095	-0.126
-525.004	-68.370	-0.180	0.070
-523.989	800.000	-0.098	0.295
-522.975	130.083	-0.208	0.266
-521.960	-119.931	0.154	-0.027
-520.945	384.413	-0.070	-0.145
-519.931	-26.180	0.092	-0.054
-518.916	220.926	0.024	-0.038
-517.902	28.891	0.032	-0.027
-516.887	-88.413	-0.104	0.031
-515.872	202.530	0.056	0.086
-514.858	43.658	0.191	-0.174
-513.843	43.797	0.056	0.051
-512.829	214.509	-0.315	0.499
-511.814	-17.715	-0.327	0.205
-510.799	-1.061	-0.011	0.008
-509.785	800.000	-0.049	-0.188
-508.770	-95.945	0.299	-0.080
-507.756	42.878	-0.126	-0.115
-506.741	-200.000	0.002	0.016
-505.726	-16.061	0.167	0.106
-504.712	-123.393	0.274	-0.044
-503.697	-22.171	0.135	0.082
-502.683	-200.000	0.050	-0.276
-501.668	-200.000	0.023	0.446
-500.653	-106.797	-0.322	-0.071
-499.639	-200.000	-0.017	0.130
-498.624	800.000	0.038	-0.155
-497.610	92.879	0.088	0.100
-496.595	800.000	0.085	-0.311
-495.581	-109.951	0.003	-0.001
-494.566	-73.690	0.230	-0.084
-493.551	634.629	-0.136	-0.346
-492.537	-98.049	0.153	0.039
-491.522	-86.837	0.187	-0.057
-490.508	-99.614	-0.034	0.008
-489.493	48.522	0.270	0.252
-488.478	237.567	-0.138	-0.229
-487.464	-200.000	0.052	-0.382
-486.449	-38.652	0.176	0.093
-485.435	278.910	-0.133	-0.237
-484.420	-105.057	0.230	0.053
-483.405	-200.000	-0.014	-0.165
-482.391	379.072	-0.062	-0.126
-481.376	-27.398	-0.109	-0.063
-480.362	80.259	-0.102	-0.110
-479.347	-91.572	0.092	0.026
-478.332	-165.253	0.132	0.006
-477.318	561.982	-0.058	0.141
-476.303	28.166	-0.155	0.131
-475.289	800.000	-0.026	0.075
-474.274	800.000	-0.088	-0.259
-473.259	-11.421	-0.228	-0.150
-472.245	-200.000	-0.014	0.206
-471.230	343.436	0.096	0.188
-470.216	-135.104	0.230	-0.028
-469.201	-24.479	-0.193	0.115
-468.186	-42.645	-0.280	-0.142
-467.172	-111.540	0.278	0.056
-466.157	43.043	-0.070	0.064
-465.143	156.981	-0.252	0.347
-464.128	800.000	0.066	-0.206
-463.113	-41.003	-0.276	-0.142
-462.099	800.000	0.010	-0.037
-461.084	312.804	0.115	-0.216
-460.070	-33.506	-0.271	0.150
-459.055	-85.969	-0.310	-0.096
-458.040	-19.887	0.295	0.182
-457.026	-200.000	0.005	0.085
-456.011	171.384	-0.121	-0.172
-454.997	233.039	0.159	0.261
-453.982	15.038	-0.182	-0.142
-452.968	458.245	0.120	-0.267
-451.953	-200.000	-0.025	-0.199
-450.938	-116.566	0.072	-0.013
-449.924	23.836	0.076	-0.063
-448.909	-164.507	-0.401	0.018
-447.895	-86.600	0.087	-0.027
-446.880	-132.221	-0.223	0.029
-445.865	-13.021	-0.189	0.122
-444.851	-200.000	-0.021	-0.218
-443.836	-78.833	0.131	-0.045
-442.822	-200.000	0.012	0.194
-441.807	178.471	0.133	-0.194
-440.792	-105.916	0.302	-0.068
-439.778	18.240	0.298	0.237
-438.763	260.779	0.090	0.155
-437.749	46.678	-0.229	-0.212
-436.734	-113.560	0.298	0.058
-435.719	219.290	0.106	-0.169
-434.705	33.836	0.260	0.226
-433.690	201.255	0.119	0.183
-432.676	-53.514	-0.184	0.084
-431.661	-200.000	-0.109	0.000
-430.646	-21.732	-0.226	-0.137
-429.632	-200.000	-0.047	0.290
-428.617	83.750	-0.415	0.451
-427.603	-73.837	0.019	0.007
-426.588	800.000	-0.057	0.213
-425.573	503.638	0.147	0.339
-424.559	46.845	0.127	-0.118
-423.544	-187.255	-0.166	0.002
-422.530	289.426	0.144	0.261
-421.515	800.000	0.120	0.336
-420.500	-153.542	-0.092	-0.006
-419.486	-200.000	0.006	0.190
-418.471	176.333	0.209	0.303
-417.457	371.004	-0.145	-0.292
-416.442	-97.713	0.373	0.096
-415.428	493.745	-0.113	0.258
-414.413	-77.412	-0.314	0.109
-413.398	29.488	-0.225	0.191
-412.384	-6.443	0.059	-0.040
-411.369	-167.546	-0.378	0.015
-410.355	186.355	0.196	-0.291
-409.340	341.528	-0.112	-0.217
-408.325	-85.866	-0.232	-0.072
-407.311	392.963	-0.135	-0.279
-406.296	-89.744	-0.037	-0.011
-405.282	-91.307	0.239	0.068
-404.267	-200.000	-0.019	0.173
-403.252	131.381	0.344	-0.440
-402.238	118.511	0.137	-0.169
-401.223	-200.000	0.012	-0.125
-400.209	-120.660	-0.349	0.059
-399.194	-41.156	-0.169	-0.087
-398.179	217.687	-0.107	-0.170
-397.165	-56.001	0.056	0.025
-396.150	-29.576	-0.243	0.138
-395.136	-30.880	0.205	0.115
-394.121	-200.000	0.026	0.173
-393.106	-94.687	0.194	-0.052
-392.092	341.091	-0.093	-0.181
-391.077	-160.521	0.062	0.003
-390.063	-92.114	0.166	0.047
-389.048	44.570	0.051	0.046
-388.033	-200.000	0.057	0.352
-387.019	379.845	-0.076	0.154
-386.004	-65.926	0.260	-0.103
-384.990	601.907	0.116	0.286
-383.975	800.000	0.040	-0.129
-382.960	581.969	0.034	0.082
-381.946	13.321	-0.100	-0.077
-380.931	108.813	0.072	0.086
-379.917	-115.542	-0.032	-0.006
-378.902	752.672	-0.087	0.234
-377.888	476.012	0.147	-0.330
-376.873	-83.518	0.345	0.110
-375.858	-89.808	-0.147	-0.043
-374.844	-200.000	-0.031	-0.291
-373.829	-14.698	-0.198	0.126
-372.815	800.000	-0.008	-0.031
-371.800	-16.828	-0.087	-0.055
-370.785	-41.226	0.203	0.104
-369.771	578.387	-0.148	-0.359
-368.756	800.000	-0.084	0.326
-367.742	64.786	0.064	0.064
-366.727	-80.682	0.361	-0.119
-365.712	-70.182	0.280	0.106
-364.698	31.794	-0.108	0.092
-363.683	-47.079	0.342	0.166
-362.669	-70.476	0.121	-0.046
-361.654	-67.977	0.324	0.126
-360.639	-200.000	0.072	-0.314
-359.625	-149.717	0.179	0.014
-358.610	76.218	-0.058	-0.061
-357.596	520.060	-0.062	0.146
-356.581	381.425	-0.162	0.330
-355.566	-111.546	0.136	0.027
-354.552	-200.000	0.015	-0.283
-353.537	-51.712	-0.273	0.127
-352.523	267.034	0.072	-0.124
-351.508	285.143	0.233	-0.418
-350.493	67.794	-0.145	-0.148
-349.479	-119.094	0.159	0.028
-348.464	-200.000	-0.041	-0.289
-347.450	-200.000	0.034	0.508
-346.435	-71.271	0.169	0.063
-345.420	-82.468	-0.224	-0.072
-344.406	-76.768	0.144	0.050
-343.391	-57.842	0.156	0.068
-342.377	259.413	0.159	0.273
-341.362	-48.486	0.182	-0.087
-340.348	17.648	-0.158	-0.125
-339.333	118.847	-0.171	-0.210
-338.318	-0.059	-0.195	0.138
-337.304	-142.115	-0.242	0.024
-336.289	44.223	0.150	0.137
-335.275	800.000	-0.029	-0.119
-334.260	208.894	0.044	-0.068
-333.245	-25.878	-0.332	-0.194
-332.231	199.866	0.132	-0.201
-331.216	19.296	-0.267	0.213
-330.202	-30.488	0.092	0.052
-329.187	-200.000	0.020	-0.232
-328.172	455.099	-0.108	-0.237
-327.158	123.411	-0.098	0.122
-326.143	800.000	0.083	-0.238
-325.129	17.150	0.228	-0.179
-324.114	462.033	0.124	0.276
-323.099	127.388	0.061	-0.077
-322.085	-200.000	-0.002	-0.106
-321.070	-87.862	-0.206	0.062
-320.056	633.811	-0.099	0.248
-319.041	-158.351	-0.344	-0.020
-318.026	-73.408	-0.034	-0.012
-317.012	-200.000	-0.001	0.232
-315.997	199.572	0.072	-0.109
-314.983	184.258	-0.152	-0.224
-313.968	557.959	0.061	-0.145
-312.953	304.931	0.035	0.065
-311.939	-66.047	0.087	0.034
-310.924	-45.307	-0.066	-0.032
-309.910	-26.410	-0.320	-0.186
-308.895	74.346	-0.150	0.156
-307.880	800.000	-0.061	0.235
-306.866	-185.146	0.081	0.001
-305.851	-16.607	0.332	0.209
-304.837	-100.352	-0.295	0.073
-303.822	-64.477	-0.507	0.204
-302.807	-78.868	0.248	-0.084
-301.793	97.083	-0.037	0.042
-300.778	800.000	-0.064	0.184
-299.764	238.780	-0.228	0.375
-298.749	58.620	0.244	-0.237
-297.735	254.039	0.080	-0.135
-296.720	473.391	0.158	0.354
-295.705	-90.361	0.187	0.054
-294.691	800.000	0.163	0.535
-293.676	372.939	-0.157	0.315
-292.662	-147.489	0.187	-0.016
-291.647	0.073	0.102	-0.072
-290.632	-18.778	-0.395	-0.244
-289.618	800.000	0.073	-0.294
-288.603	-88.653	0.152	-0.045
-287.589	176.736	-0.165	-0.238
-286.574	13.361	0.194	0.149
-285.559	-35.544	0.135	0.073
-284.545	408.397	0.092	-0.192
-283.530	-166.347	0.129	0.005
-282.516	398.359	-0.153	-0.317
-281.501	-63.260	0.156	-0.064
-280.486	800.000	-0.032	-0.104
-279.472	-86.459	-0.140	-0.042
-278.457	-19.567	-0.151	-0.093
-277.443	-36.621	-0.125	-0.067
-276.428	408.131	0.118	0.246
-275.413	-200.000	-0.001	-0.057
-274.399	229.471	0.132	0.213
-273.384	284.551	0.031	-0.056
-272.370	-200.000	-0.019	-0.312
-271.355	-93.446	-0.275	-0.075
-270.340	-33.125	0.031	0.017
-269.326	268.368	-0.170	0.295
-268.311	-79.211	0.090	-0.030
-267.297	-66.550	-0.083	0.033
-266.282	-16.727	-0.074	-0.046
-265.267	-136.941	0.216	-0.024
-264.253	15.645	0.186	-0.145
-263.238	-200.000	-0.004	-0.018
-262.224	800.000	-0.059	0.186
-261.209	-151.155	0.240	0.018
-260.195	76.181	-0.197	0.206
-259.180	398.616	0.112	-0.231
-258.165	253.022	0.146	0.247
-257.151	800.000	-0.077	0.304
-256.136	-200.000	-0.001	0.504
-255.122	208.513	-0.029	-0.045
-254.107	-192.702	0.222	-0.002
-253.092	352.499	0.099	0.195
-252.078	-58.785	-0.252	0.108
-251.063	800.000	0.054	-0.215
-250.049	172.339	-0.225	-0.321
-249.034	116.070	-0.052	-0.063
-248.019	737.104	0.087	0.231
-247.005	-16.869	-0.127	0.079
-245.990	-200.000	-0.001	-0.024
-244.976	-65.434	0.177	0.070
-243.961	-7.655	0.445	-0.297
-242.946	-64.914	0.161	0.064
-241.932	-99.929	0.023	-0.006
-240.917	328.678	0.048	0.092
-239.903	102.586	0.149	-0.172
-238.888	-80.293	0.283	0.094
-237.873	-1.037	-0.055	0.038
-236.859	56.566	0.072	-0.069
-235.844	227.054	-0.084	-0.134
-234.830	-200.000	-0.019	0.228
-233.815	174.755	-0.144	-0.206
-232.800	-200.000	0.008	0.374
-231.786	114.962	0.257	-0.310
-230.771	104.443	0.077	-0.089
-229.757	494.091	-0.105	-0.239
-228.742	-200.000	0.017	-0.240
-227.727	-74.895	0.067	-0.024
-226.713	-153.363	-0.073	-0.005
-225.698	74.449	0.059	-0.061
-224.684	81.631	0.063	-0.068
-223.669	-133.553	0.250	0.031
-222.655	800.000	-0.114	0.339
-221.640	-82.731	-0.178	0.057
-220.625	-91.600	-0.041	-0.012
-219.611	-25.493	0.113	0.066
-218.596	-76.200	-0.295	-0.103
-217.582	457.426	-0.075	-0.165
-216.567	228.743	-0.215	0.346
-215.552	-200.000	-0.027	-0.209
-214.538	463.230	-0.152	-0.335
-213.523	-70.018	0.274	0.103
-212.509	113.711	-0.079	-0.094
-211.494	800.000	0.012	0.049
-210.479	-121.235	0.380	0.063
-209.465	-200.000	0.018	0.172
-208.450	119.594	0.065	0.079
-207.436	366.838	0.107	0.214
-206.421	-200.000	0.015	0.240
-205.406	-49.229	-0.375	-0.177
-204.392	64.537	0.185	-0.185
-203.377	51.210	0.271	0.254
-202.363	74.222	0.166	-0.172
-201.348	12.342	-0.295	-0.225
-200.333	130.425	0.334	0.423
-199.319	-157.820	0.245	-0.014
-198.304	-90.098	-0.080	0.023
-197.290	-140.660	-0.288	0.029
-196.275	-169.945	-0.021	-0.001
-195.260	-90.206	0.490	-0.141
-194.246	-114.091	0.216	0.041
-193.231	-32.290	-0.037	-0.020
-192.217	489.291	0.021	0.046
-191.202	-110.583	0.189	-0.039
-190.187	78.619	-0.065	0.069
-189.173	-65.125	0.200	-0.080
-188.158	13.568	-0.099	0.076
-187.144	-109.224	0.397	0.083
-186.129	107.858	0.052	0.061
-185.114	-200.000	0.005	0.183
-184.100	736.233	-0.052	-0.138
-183.085	-200.000	-0.006	-0.290
-182.071	-200.000	-0.033	0.383
-181.056	-103.717	0.170	0.039
-180.042	90.876	-0.095	-0.105
-179.027	155.730	-0.092	0.125
-178.012	-200.000	-0.032	0.143
-176.998	130.137	-0.239	-0.302
-175.983	-200.000	0.030	0.148
-174.969	-200.000	-0.003	0.015
-173.954	-84.170	0.246	-0.077
-172.939	193.826	0.178	-0.266
-171.925	-200.000	0.004	0.334
-170.910	180.052	-0.070	-0.101
-169.896	140.303	0.186	-0.243
-168.881	-115.557	-0.210	-0.039
-167.866	-168.829	-0.364	0.014
-166.852	-200.000	0.061	-0.293
-165.837	-125.845	-0.395	0.059
-164.823	176.196	-0.137	-0.196
-163.808	-100.396	-0.140	-0.034
-162.793	-111.059	0.077	0.016
-161.779	413.043	0.102	-0.214
-160.764	-200.000	0.024	-0.187
-159.750	187.321	-0.089	-0.131
-158.735	-13.502	-0.057	0.036
-157.720	121.440	0.172	-0.211
-156.706	-143.573	0.302	-0.028
-155.691	-98.277	-0.220	0.056
-154.677	-155.919	0.290	0.018
-153.662	800.000	-0.063	-0.210
-152.647	-35.587	-0.064	0.034
-151.633	-39.273	0.408	-0.211
-150.618	-68.301	-0.342	-0.131
-149.604	123.943	-0.265	0.328
-148.589	-136.495	0.172	-0.020
-147.574	11.771	-0.036	-0.027
-146.560	-45.758	-0.200	-0.097
-145.545	-200.000	0.024	-0.232
-144.531	-69.762	-0.201	0.076
-143.516	176.920	0.082	0.118
-142.502	-61.003	0.254	-0.106
-141.487	221.071	0.116	0.184
-140.472	12.993	0.362	-0.276
-139.458	-81.877	0.240	-0.077
-138.443	-24.062	0.109	0.064
-137.429	-81.888	0.062	-0.020
-136.414	-43.491	-0.208	0.103
-135.399	-200.000	-0.034	-0.349
-134.385	149.096	-0.107	0.142
-133.370	34.024	-0.239	-0.205
-132.356	613.995	-0.015	-0.036
-131.341	-170.026	-0.360	0.013
-130.326	800.000	-0.094	0.311
-129.312	78.077	0.290	0.305
-128.297	502.223	0.165	0.376
-127.283	338.077	0.125	-0.240
-126.268	-24.236	-0.227	0.133
-125.253	-172.516	0.191	0.006
-124.239	29.763	0.140	-0.118
-123.224	800.000	0.064	0.250
-122.210	800.000	0.043	-0.171
-121.195	-13.817	-0.319	-0.203
