DTS Sentinel unit serial number:	SN413079Multiplexer serial number:	ORYXHardware model number:	OX4-SRSoftware version number:	ORYX F/W v4.00 Oryx Data Collector v3.7.2.0data status	okinstallation	princeton_trtdifferential loss correction	single-endedforward channel	channel 1reverse channel	N/Adate	2019/09/13time	02:50:35forward acquisition time	60.00reverse acquisition time	0.00gamma	496.2192k internal	0.2331k external	0.2331temperature offset calibration	1.0163default loss term (dB/km)	0.3790temperature slope calibration	1.0000multiplexer offset coefficient	1.0000multiplexer slope coefficient	1.0000fibre end	0.00T internal ref (°C)	27.44T ext. ref 1 (°C)	4.03T ext. ref 2 (°C)	22.34length (m)	temperature (°C)	Stokes	anti-Stokes-747.200	31.019	0.231	-0.199
-746.185	800.000	-0.064	0.231
-745.171	-69.742	0.288	0.111
-744.156	-118.298	0.306	0.055
-743.142	172.823	-0.133	0.193
-742.127	-184.292	-0.276	0.005
-741.112	-102.425	0.264	0.064
-740.098	-200.000	-0.035	0.278
-739.083	63.652	-0.192	0.194
-738.069	-200.000	0.012	0.282
-737.054	-40.188	0.163	0.085
-736.039	-200.000	-0.001	-0.240
-735.025	-33.156	0.051	0.028
-734.010	800.000	0.095	-0.364
-732.996	627.130	-0.059	0.149
-731.981	-200.000	-0.009	0.039
-730.966	-131.028	0.138	0.019
-729.952	800.000	-0.096	-0.290
-728.937	-44.021	-0.469	-0.237
-727.923	2.328	-0.059	0.043
-726.908	513.237	0.044	-0.103
-725.894	-13.609	-0.100	-0.065
-724.879	132.997	-0.254	-0.330
-723.864	-200.000	0.000	-0.035
-722.850	41.011	0.058	-0.053
-721.835	-109.617	-0.247	-0.052
-720.821	-161.963	0.059	-0.003
-719.806	800.000	-0.045	-0.194
-718.791	26.693	0.349	0.293
-717.777	-110.415	-0.417	0.087
-716.762	23.161	0.285	0.235
-715.748	800.000	-0.085	-0.242
-714.733	-200.000	0.006	0.374
-713.718	-118.930	-0.133	-0.023
-712.704	-163.618	0.072	-0.003
-711.689	-172.508	0.099	-0.003
-710.675	-56.699	-0.148	0.066
-709.660	-200.000	-0.020	0.113
-708.645	-144.328	0.135	-0.013
-707.631	-122.913	0.223	-0.036
-706.616	-80.064	-0.283	0.095
-705.602	132.328	-0.045	-0.059
-704.587	123.365	-0.036	0.046
-703.572	-169.775	0.093	0.003
-702.558	800.000	0.037	0.155
-701.543	139.336	0.051	0.067
-700.529	-199.976	0.056	0.000
-699.514	-109.451	-0.352	-0.075
-698.499	38.028	-0.138	0.123
-697.485	-10.665	-0.103	-0.069
-696.470	-13.263	0.504	0.329
-695.456	-200.000	-0.011	0.106
-694.441	22.550	0.055	0.045
-693.426	-65.202	-0.477	-0.193
-692.412	-200.000	0.029	-0.258
-691.397	210.390	-0.065	-0.103
-690.383	36.895	-0.259	-0.230
-689.368	208.617	-0.144	0.227
-688.354	27.848	-0.282	0.238
-687.339	145.389	0.129	-0.173
-686.324	11.535	0.117	-0.090
-685.310	5.822	0.068	-0.051
-684.295	498.651	-0.041	0.094
-683.281	-32.414	-0.121	0.068
-682.266	584.129	0.144	-0.355
-681.251	128.064	-0.047	-0.060
-680.237	-135.574	0.215	0.026
-679.222	247.216	-0.145	-0.246
-678.208	-76.096	-0.269	0.095
-677.193	-150.582	0.288	0.022
-676.178	-127.121	-0.249	-0.037
-675.164	-3.988	-0.217	0.151
-674.149	-38.700	0.169	0.089
-673.135	-70.101	-0.371	-0.142
-672.120	36.897	0.049	-0.044
-671.105	-48.877	0.159	-0.077
-670.091	-200.000	-0.011	-0.146
-669.076	-145.670	-0.306	0.027
-668.062	-200.000	-0.004	0.045
-667.047	-200.000	0.011	-0.189
-666.032	-118.213	0.148	0.026
-665.018	-200.000	-0.031	-0.260
-664.003	-200.000	0.012	-0.217
-662.989	417.658	-0.084	-0.181
-661.974	-200.000	0.048	0.238
-660.959	-200.000	0.095	0.531
-659.945	-50.877	-0.168	0.079
-658.930	764.010	0.110	-0.300
-657.916	151.062	-0.040	-0.054
-656.901	48.934	0.114	-0.107
-655.886	40.905	0.074	-0.067
-654.872	800.000	-0.011	0.047
-653.857	-86.823	-0.232	-0.071
-652.843	-200.000	-0.031	0.139
-651.828	800.000	-0.100	0.381
-650.814	-81.215	-0.193	0.064
-649.799	-36.154	-0.236	0.127
-648.784	-3.751	0.370	-0.258
-647.770	568.067	-0.026	0.063
-646.755	-200.000	-0.024	0.384
-645.741	-95.791	-0.140	-0.038
-644.726	-200.000	-0.227	-0.000
-643.711	-84.593	-0.450	-0.142
-642.697	353.700	0.027	-0.054
-641.682	-54.182	-0.466	0.212
-640.668	130.697	0.028	-0.036
-639.653	-200.000	-0.050	0.298
-638.638	-178.496	-0.155	-0.004
-637.624	-22.720	-0.043	-0.026
-636.609	800.000	-0.084	0.242
-635.595	436.953	0.070	-0.153
-634.580	70.230	0.152	0.157
-633.565	386.458	-0.033	0.069
-632.551	800.000	0.053	-0.195
-631.536	-87.655	0.094	0.028
-630.522	-79.080	0.507	0.172
-629.507	-80.432	0.309	0.103
-628.492	-75.754	-0.190	0.067
-627.478	235.978	-0.135	0.223
-626.463	262.049	0.136	0.236
-625.449	358.136	-0.099	-0.198
-624.434	-49.539	0.251	0.120
-623.419	-43.386	0.260	-0.131
-622.405	164.274	0.141	-0.199
-621.390	-142.165	0.275	0.027
-620.376	800.000	-0.072	0.232
-619.361	-20.763	-0.205	-0.126
-618.346	738.979	-0.030	0.081
-617.332	-125.535	-0.129	0.020
-616.317	-200.000	-0.027	-0.216
-615.303	-95.824	0.311	-0.083
-614.288	-200.000	0.039	-0.409
-613.273	466.729	0.246	-0.551
-612.259	154.867	-0.140	-0.192
-611.244	107.007	0.121	-0.144
-610.230	-200.000	-0.066	0.325
-609.215	571.436	-0.131	0.319
-608.201	-9.812	-0.050	-0.033
-607.186	261.264	-0.233	-0.404
-606.171	-23.788	-0.063	0.038
-605.157	-86.812	-0.159	-0.049
-604.142	-200.000	-0.006	-0.204
-603.128	-120.135	-0.158	-0.027
-602.113	800.000	-0.040	-0.114
-601.098	-176.053	0.046	-0.001
-600.084	661.226	0.081	0.210
-599.069	-48.086	-0.105	-0.051
-598.055	-31.279	-0.312	0.176
-597.040	800.000	0.122	-0.512
-596.025	421.648	-0.141	-0.303
-595.011	63.908	0.177	-0.178
-593.996	483.389	-0.044	0.099
-592.982	-200.000	-0.005	0.153
-591.967	-94.035	-0.168	0.046
-590.952	17.128	-0.195	-0.155
-589.938	102.731	-0.136	0.160
-588.923	265.670	0.036	-0.064
-587.909	72.509	0.144	0.151
-586.894	-66.438	-0.100	0.040
-585.879	-200.000	0.003	0.285
-584.865	26.827	0.332	-0.278
-583.850	-74.679	-0.216	-0.078
-582.836	491.222	-0.083	0.190
-581.821	432.663	-0.035	-0.077
-580.806	-200.000	0.017	0.236
-579.792	212.925	0.110	0.174
-578.777	-148.948	0.455	-0.037
-577.763	-88.954	0.116	-0.034
-576.748	407.787	0.187	-0.396
-575.733	402.639	-0.043	-0.090
-574.719	-172.679	-0.285	-0.009
-573.704	506.114	0.157	0.363
-572.690	103.347	-0.155	0.182
-571.675	775.126	-0.030	-0.083
-570.661	438.446	-0.077	-0.168
-569.646	-39.394	-0.069	0.036
-568.631	-200.000	0.069	-0.320
-567.617	-200.000	0.021	-0.137
-566.602	42.755	-0.173	0.158
-565.588	61.695	0.207	0.206
-564.573	63.039	-0.107	-0.107
-563.558	78.979	-0.211	-0.226
-562.544	-153.362	-0.246	-0.017
-561.529	800.000	-0.037	0.115
-560.515	-150.384	0.299	0.023
-559.500	574.595	-0.169	-0.413
-558.485	-32.054	-0.213	0.119
-557.471	800.000	0.051	-0.208
-556.456	800.000	0.033	-0.103
-555.442	94.445	-0.365	0.415
-554.427	-32.867	0.223	0.124
-553.412	-141.830	-0.202	-0.020
-552.398	106.031	0.018	-0.021
-551.383	192.724	-0.289	0.436
-550.369	800.000	0.095	0.273
-549.354	-3.736	0.226	0.157
-548.339	87.792	-0.244	-0.270
-547.325	-180.029	-0.106	-0.002
-546.310	-187.149	0.121	-0.002
-545.296	-58.641	0.343	-0.149
-544.281	260.314	0.051	-0.087
-543.266	-145.927	0.173	-0.015
-542.252	384.944	0.116	-0.239
-541.237	-16.842	0.053	-0.034
-540.223	31.389	-0.055	-0.047
-539.208	-127.407	-0.223	-0.032
-538.193	800.000	-0.070	-0.217
-537.179	190.446	0.111	0.166
-536.164	-111.206	-0.176	-0.036
-535.150	17.032	0.145	-0.114
-534.135	532.840	-0.067	-0.158
-533.121	134.324	0.112	-0.145
-532.106	286.822	0.090	0.163
-531.091	17.663	-0.187	0.148
-530.077	-65.304	-0.130	-0.052
-529.062	49.431	0.091	0.085
-528.048	159.001	0.074	-0.103
-527.033	116.830	-0.229	-0.280
-526.018	91.754	-0.052	0.059
-525.004	-80.245	-0.387	-0.129
-523.989	-2.777	0.121	-0.085
-522.975	-92.562	0.295	-0.083
-521.960	-100.642	0.136	-0.034
-520.945	-60.160	0.163	-0.069
-519.931	225.992	0.145	-0.234
-518.916	188.772	-0.109	-0.162
-517.902	35.689	0.045	-0.039
-516.887	25.277	0.168	-0.139
-515.872	217.386	-0.147	0.234
-514.858	20.532	-0.229	-0.185
-513.843	118.517	-0.104	-0.129
-512.829	338.132	0.124	-0.241
-511.814	16.707	-0.066	-0.052
-510.799	800.000	0.036	0.145
-509.785	-45.452	-0.398	0.197
-508.770	-200.000	0.005	-0.321
-507.756	-200.000	0.028	0.199
-506.741	-124.904	0.232	-0.036
-505.726	-164.626	0.069	0.003
-504.712	330.385	-0.168	-0.322
-503.697	-118.887	-0.361	-0.063
-502.683	-145.860	0.209	0.019
-501.668	95.434	-0.094	-0.107
-500.653	-125.357	-0.167	0.025
-499.639	348.613	0.103	-0.203
-498.624	1.020	0.104	0.074
-497.610	-46.060	0.352	-0.173
-496.595	800.000	-0.031	-0.129
-495.581	-161.361	-0.331	0.017
-494.566	-200.000	-0.009	-0.216
-493.551	707.542	-0.160	-0.422
-492.537	800.000	-0.122	-0.371
-491.522	-47.475	0.237	-0.115
-490.508	-99.998	-0.282	0.070
-489.493	-58.359	-0.214	-0.093
-488.478	28.549	-0.401	-0.338
-487.464	800.000	-0.082	0.251
-486.449	-122.630	-0.095	-0.015
-485.435	40.022	0.199	0.178
-484.420	-53.520	0.239	0.109
-483.405	-200.000	-0.040	0.226
-482.391	47.787	0.030	0.028
-481.376	74.877	-0.104	0.109
-480.362	-118.624	0.331	0.058
-479.347	96.641	-0.029	-0.033
-478.332	-40.531	-0.296	-0.153
-477.318	144.991	-0.039	-0.052
-476.303	2.087	-0.046	-0.033
-475.289	-200.000	0.068	0.320
-474.274	23.524	-0.169	-0.138
-473.259	444.725	0.128	-0.280
-472.245	-7.417	0.200	0.135
-471.230	-187.289	-0.067	-0.001
-470.216	93.107	0.200	-0.225
-469.201	-200.000	-0.005	-0.176
-468.186	-158.741	-0.265	0.015
-467.172	245.392	0.120	-0.200
-466.157	-200.000	0.012	0.085
-465.143	-200.000	-0.044	-0.256
-464.128	474.277	-0.159	-0.358
-463.113	-106.135	0.326	0.073
-462.099	-46.466	0.229	0.112
-461.084	-200.000	0.018	-0.121
-460.070	-200.000	-0.009	-0.219
-459.055	177.627	-0.129	0.187
-458.040	18.664	-0.085	0.068
-457.026	287.558	0.106	0.192
-456.011	-3.952	-0.147	-0.101
-454.997	523.517	-0.160	-0.374
-453.982	-158.702	-0.151	-0.009
-452.968	73.674	-0.040	-0.042
-451.953	259.524	0.117	0.200
-450.938	-160.275	0.309	0.017
-449.924	-82.562	-0.126	-0.041
-448.909	-130.937	0.361	0.048
-447.895	-99.491	0.169	0.042
-446.880	-84.436	-0.291	0.092
-445.865	-1.305	-0.379	0.266
-444.851	-3.859	0.081	-0.056
-443.836	-48.305	-0.088	0.042
-442.822	-9.946	0.321	0.212
-441.807	-120.872	-0.080	0.013
-440.792	-200.000	-0.009	0.061
-439.778	800.000	0.033	-0.126
-438.763	-167.824	0.215	0.008
-437.749	800.000	0.069	0.272
-436.734	-200.000	-0.015	0.263
-435.719	61.379	0.036	-0.035
-434.705	-200.000	0.011	-0.194
-433.690	-46.870	-0.146	0.071
-432.676	463.526	0.161	0.357
-431.661	-200.000	0.003	0.051
-430.646	-13.653	0.215	-0.138
-429.632	-200.000	-0.033	-0.159
-428.617	-24.729	0.354	-0.209
-427.603	-173.177	0.211	-0.006
-426.588	-96.703	-0.128	-0.033
-425.573	-158.200	0.379	-0.022
-424.559	-46.828	-0.125	-0.061
-423.544	-51.976	0.116	-0.054
-422.530	-200.000	-0.015	-0.592
-421.515	-40.770	0.205	-0.105
-420.500	-42.524	0.151	-0.077
-419.486	800.000	0.072	0.230
-418.471	-30.646	-0.193	-0.109
-417.457	-144.320	0.106	-0.010
-416.442	114.965	-0.103	-0.124
-415.428	-82.097	-0.402	-0.130
-414.413	-200.000	0.001	0.368
-413.398	-3.902	-0.155	-0.107
-412.384	478.185	-0.084	-0.188
-411.369	-75.430	0.076	-0.027
-410.355	-19.743	0.148	-0.091
-409.340	168.007	0.034	-0.048
-408.325	-200.000	-0.035	-0.222
-407.311	-7.912	-0.282	-0.189
-406.296	270.609	0.125	-0.219
-405.282	-124.945	0.199	0.030
-404.267	177.083	0.086	0.124
-403.252	-42.729	-0.127	0.064
-402.238	25.151	0.134	0.110
-401.223	437.570	0.157	-0.341
-400.209	125.133	0.261	-0.327
-399.194	-200.000	0.026	-0.124
-398.179	-101.538	-0.134	-0.032
-397.165	421.977	-0.094	-0.200
-396.150	13.898	0.011	0.008
-395.136	-90.565	-0.139	0.040
-394.121	-79.449	-0.059	-0.020
-393.106	800.000	0.020	-0.084
-392.092	-139.983	0.120	0.013
-391.077	-200.000	-0.003	0.379
-390.063	-106.195	0.272	-0.061
-389.048	44.164	-0.253	-0.230
-388.033	-49.620	-0.148	-0.070
-387.019	126.695	0.031	-0.039
-386.004	-84.710	-0.272	-0.085
-384.990	163.538	-0.067	-0.093
-383.975	-8.622	-0.085	-0.057
-382.960	-50.762	0.111	-0.052
-381.946	-184.005	0.186	0.003
-380.931	-200.000	-0.035	0.176
-379.917	800.000	-0.099	-0.288
-378.902	-30.903	0.255	-0.143
-377.888	-95.100	0.272	0.073
-376.873	33.551	-0.215	0.186
-375.858	142.381	-0.288	0.380
-374.844	800.000	0.102	0.291
-373.829	-200.000	0.002	-0.160
-372.815	800.000	-0.032	0.119
-371.800	55.826	0.376	0.362
-370.785	89.924	0.051	-0.057
-369.771	800.000	0.026	-0.096
-368.756	-200.000	0.003	-0.177
-367.742	-46.480	0.329	-0.160
-366.727	-29.969	-0.129	0.073
-365.712	-89.995	-0.177	0.051
-364.698	-200.000	0.068	0.301
-363.683	-33.070	0.331	0.182
-362.669	-200.000	0.035	-0.220
-361.654	144.607	0.065	0.086
-360.639	-200.000	-0.027	0.302
-359.625	-200.000	-0.009	0.081
-358.610	440.736	-0.096	0.209
-357.596	-7.546	-0.055	0.037
-356.581	9.219	-0.183	-0.137
-355.566	-200.000	-0.024	0.182
-354.552	573.564	0.163	0.393
-353.537	600.354	-0.116	-0.286
-352.523	-112.183	-0.214	0.043
-351.508	289.446	-0.107	0.193
-350.493	128.061	-0.061	0.077
-349.479	-67.758	-0.374	0.145
-348.464	-135.598	-0.249	-0.029
-347.450	-60.000	0.310	-0.131
-346.435	101.961	0.018	0.021
-345.420	-129.884	0.562	0.076
-344.406	-1.902	0.068	-0.048
-343.391	0.295	-0.177	-0.125
-342.377	-200.000	0.070	-0.521
-341.362	-200.000	-0.069	0.314
-340.348	156.992	-0.145	0.199
-339.333	24.673	0.208	-0.171
-338.318	800.000	0.148	-0.490
-337.304	184.551	0.189	0.277
-336.289	-84.426	-0.201	0.063
-335.275	-200.000	0.030	-0.322
-334.260	220.726	0.069	0.110
-333.245	800.000	0.060	0.200
-332.231	-200.000	0.034	0.151
-331.216	-200.000	-0.028	0.129
-330.202	-76.695	-0.364	-0.126
-329.187	-57.917	-0.027	0.012
-328.172	800.000	-0.057	0.173
-327.158	232.515	-0.034	-0.055
-326.143	31.302	0.112	-0.095
-325.129	210.618	-0.077	-0.120
-324.114	-112.250	0.185	0.037
-323.099	316.966	-0.007	0.014
-322.085	64.639	0.229	-0.228
-321.070	112.260	0.156	0.186
-320.056	-141.168	0.086	0.009
-319.041	-102.641	0.370	-0.087
-318.026	166.556	0.020	-0.029
-317.012	-77.986	-0.063	0.022
-315.997	-102.430	0.375	-0.089
-314.983	-200.000	-0.046	0.220
-313.968	173.715	0.168	0.240
-312.953	-59.411	0.147	-0.063
-311.939	401.009	-0.093	0.192
-310.924	-200.000	-0.029	0.203
-309.910	302.077	-0.079	0.145
-308.895	-200.000	0.071	0.389
-307.880	-112.785	-0.379	0.074
-306.866	73.774	-0.183	-0.190
-305.851	50.886	0.141	-0.133
-304.837	-200.000	-0.038	0.312
-303.822	-158.414	-0.265	-0.015
-302.807	-200.000	-0.069	0.336
-301.793	142.527	0.011	-0.014
-300.778	-153.363	0.168	0.012
-299.764	-101.372	-0.297	0.072
-298.749	216.481	-0.093	-0.147
-297.735	21.164	0.152	0.122
-296.720	62.646	-0.240	-0.237
-295.705	681.883	-0.065	-0.168
-294.691	-200.000	-0.012	-0.304
-293.676	34.718	0.246	-0.213
-292.662	-54.780	0.156	0.070
-291.647	-34.886	0.033	-0.018
-290.632	-93.411	-0.217	0.059
-289.618	-180.188	0.330	-0.007
-288.603	-68.325	0.298	0.115
-287.589	83.807	0.171	0.185
-286.574	-100.644	0.214	-0.052
-285.559	-106.459	0.148	0.033
-284.545	6.739	0.091	0.067
-283.530	-83.928	0.398	-0.125
-282.516	292.762	-0.236	0.426
-281.501	220.488	0.213	-0.338
-280.486	-18.712	-0.094	0.058
-279.472	-136.805	0.119	-0.014
-278.457	51.079	-0.063	0.059
-277.443	29.595	0.191	-0.160
-276.428	173.634	-0.197	0.281
-275.413	-51.331	-0.313	0.145
-274.399	-41.044	-0.165	0.084
-273.384	-200.000	-0.020	0.214
-272.370	-74.799	-0.222	0.079
-271.355	-200.000	0.072	0.447
-270.340	-100.840	-0.070	-0.017
-269.326	157.742	-0.161	0.220
-268.311	-47.005	-0.159	0.077
-267.297	729.373	0.053	0.141
-266.282	-200.000	0.051	0.249
-265.267	800.000	-0.031	-0.126
-264.253	800.000	-0.154	0.597
-263.238	800.000	-0.025	-0.104
-262.224	800.000	0.030	-0.099
-261.209	-104.235	0.197	0.045
-260.195	-150.892	-0.002	0.000
-259.180	-38.766	0.298	0.155
-258.165	674.444	-0.107	0.275
-257.151	-200.000	-0.014	-0.378
-256.136	-108.087	-0.506	-0.108
-255.122	-71.865	-0.168	0.062
-254.107	368.404	-0.185	-0.369
-253.092	-66.282	0.305	-0.120
-252.078	146.573	0.257	0.341
-251.063	44.807	0.174	-0.158
-250.049	-101.129	0.071	0.017
-249.034	18.092	0.133	0.105
-248.019	20.362	-0.190	0.151
-247.005	84.376	0.043	0.046
-245.990	-50.446	0.220	-0.102
-244.976	-107.184	0.246	0.054
-243.961	55.111	-0.267	-0.255
-242.946	-70.819	-0.113	-0.042
-241.932	800.000	0.134	0.474
-240.917	116.157	0.087	-0.105
-239.903	-195.784	-0.170	-0.001
-238.888	25.002	-0.194	-0.158
-237.873	800.000	0.079	0.223
-236.859	-139.613	-0.081	-0.008
-235.844	199.685	-0.129	-0.195
-234.830	36.039	-0.256	-0.222
-233.815	505.146	-0.169	0.387
-232.800	17.740	0.205	-0.161
-231.786	192.553	-0.123	0.184
-230.771	111.240	0.269	0.320
-229.757	626.557	0.060	-0.149
-228.742	-138.212	-0.432	0.047
-227.727	-104.668	0.151	0.034
-226.713	-200.000	-0.016	-0.238
-225.698	-200.000	-0.123	0.000
-224.684	92.940	0.271	0.301
-223.669	-147.549	-0.368	0.031
-222.655	-5.909	-0.212	0.143
-221.640	-94.426	0.356	0.096
-220.625	800.000	0.028	0.081
-219.611	800.000	0.078	-0.272
-218.596	-27.129	-0.106	0.061
-217.582	-182.679	-0.289	0.005
-216.567	293.052	0.045	-0.082
-215.552	800.000	0.008	0.030
-214.538	-60.108	-0.149	-0.063
-213.523	-35.679	0.190	-0.101
-212.509	-92.872	0.073	-0.020
-211.494	712.791	-0.008	0.022
-210.479	-59.058	0.075	0.032
-209.465	104.276	0.255	0.296
-208.450	-49.360	-0.118	-0.056
-207.436	-93.814	0.026	-0.007
-206.421	422.451	0.059	0.124
-205.406	3.345	0.317	0.227
-204.392	0.118	0.094	-0.066
-203.377	162.291	0.060	-0.083
-202.363	84.078	0.157	0.169
-201.348	77.625	0.201	0.211
-200.333	46.072	-0.252	0.230
-199.319	72.752	-0.055	-0.057
-198.304	-112.366	0.268	-0.053
-197.290	495.301	0.036	-0.081
-196.275	-116.221	-0.259	-0.047
-195.260	197.386	0.253	-0.380
-194.246	-124.298	-0.253	0.039
-193.231	-132.902	-0.057	0.007
-192.217	136.371	-0.043	-0.055
-191.202	188.003	0.131	-0.192
-190.187	162.703	0.195	-0.269
-189.173	800.000	0.034	0.131
-188.158	6.883	0.192	0.141
-187.144	-16.228	0.071	-0.044
-186.129	66.526	-0.179	-0.180
-185.114	-11.080	0.205	-0.133
-184.100	255.407	-0.186	0.313
-183.085	-41.402	-0.109	0.055
-182.071	1.261	0.011	-0.007
-181.056	-98.185	-0.358	0.091
-180.042	-200.000	0.023	0.112
-179.027	20.984	-0.213	0.170
-178.012	-200.000	-0.025	0.111
-176.998	-56.845	-0.274	0.119
-175.983	42.691	0.097	-0.087
-174.969	104.462	-0.130	-0.151
-173.954	-61.715	-0.218	0.090
-172.939	-104.945	0.283	0.064
-171.925	16.133	0.237	-0.184
-170.910	-200.000	0.014	0.145
-169.896	-13.531	0.285	0.182
-168.881	-117.124	-0.232	0.042
-167.866	30.896	-0.108	0.091
-166.852	186.739	-0.149	-0.219
-165.837	161.957	0.124	0.171
-164.823	-16.775	0.052	-0.032
-163.808	51.040	-0.215	0.200
-162.793	531.146	-0.135	0.313
-161.779	-0.729	-0.129	-0.090
-160.764	2.739	-0.073	0.052
-159.750	-49.701	0.132	-0.062
-158.735	365.085	0.128	0.253
-157.720	-95.683	-0.253	0.067
-156.706	9.659	-0.123	-0.092
-155.691	98.113	-0.054	-0.061
-154.677	-0.726	-0.179	-0.125
-153.662	13.238	0.387	0.295
-152.647	-135.368	0.130	-0.015
-151.633	-200.000	0.009	0.289
-150.618	-14.954	0.220	-0.139
-149.604	85.238	0.054	0.058
-148.589	24.099	0.231	0.187
-147.574	258.220	0.061	0.103
-146.560	327.761	-0.055	0.104
-145.545	104.776	-0.113	-0.131
-144.531	-58.420	-0.059	-0.025
-143.516	-163.483	0.333	0.016
-142.502	78.982	-0.032	0.034
-141.487	-5.580	-0.145	-0.098
-140.472	161.855	0.177	0.243
-139.458	-81.671	-0.136	0.044
-138.443	800.000	-0.065	0.183
-137.429	800.000	0.110	-0.333
-136.414	-200.000	0.022	-0.121
-135.399	422.967	0.067	-0.142
-134.385	34.097	0.172	-0.147
-133.370	-108.039	0.515	0.110
-132.356	45.642	0.141	0.128
-131.341	-200.000	-0.003	-0.117
-130.326	-27.404	-0.179	-0.102
-129.312	800.000	-0.034	0.100
-128.297	143.556	0.085	0.111
-127.283	-80.694	-0.220	0.072
-126.268	82.222	0.240	0.256
-125.253	-200.000	-0.050	0.312
-124.239	-99.083	-0.332	-0.083
-123.224	156.434	-0.099	-0.134
-122.210	-200.000	-0.007	0.474
-121.195	121.098	-0.170	0.207
