DTS Sentinel unit serial number:	SN413079Multiplexer serial number:	ORYXHardware model number:	OX4-SRSoftware version number:	ORYX F/W v4.00 Oryx Data Collector v3.7.2.0data status	okinstallation	princeton_trtdifferential loss correction	single-endedforward channel	channel 1reverse channel	N/Adate	2019/09/19time	01:26:35forward acquisition time	60.00reverse acquisition time	0.00gamma	496.2192k internal	0.2344k external	0.2344temperature offset calibration	1.0017default loss term (dB/km)	0.3790temperature slope calibration	1.0000multiplexer offset coefficient	1.0000multiplexer slope coefficient	1.0000fibre end	0.00T internal ref (°C)	21.62T ext. ref 1 (°C)	0.70T ext. ref 2 (°C)	15.06length (m)	temperature (°C)	Stokes	anti-Stokes-747.200	293.070	0.069	0.125
-746.185	439.769	0.063	0.138
-745.171	-200.000	0.050	0.245
-744.156	-108.341	-0.122	0.026
-743.142	225.200	0.255	0.414
-742.127	-200.000	-0.023	0.149
-741.112	-200.000	0.003	0.185
-740.098	486.752	-0.046	0.105
-739.083	372.035	-0.157	-0.319
-738.069	-70.474	0.258	0.098
-737.054	-200.000	-0.039	0.206
-736.039	-81.284	-0.095	-0.031
-735.025	-43.207	0.120	0.061
-734.010	-73.898	-0.278	-0.101
-732.996	-96.018	-0.293	0.078
-731.981	-3.971	0.112	0.077
-730.966	-46.357	0.109	0.053
-729.952	-199.807	-0.241	0.001
-728.937	124.495	-0.133	-0.168
-727.923	-153.144	0.028	0.002
-726.908	141.993	-0.139	-0.185
-725.894	-200.000	0.016	-0.076
-724.879	73.501	0.107	0.113
-723.864	-200.000	-0.010	0.084
-722.850	-31.771	-0.168	0.094
-721.835	624.049	0.069	0.174
-720.821	-150.763	-0.185	-0.014
-719.806	204.564	0.125	-0.193
-718.791	-200.000	0.039	-0.174
-717.777	69.954	-0.290	-0.299
-716.762	-7.237	0.146	0.099
-715.748	-200.000	-0.027	-0.258
-714.733	290.495	0.151	0.273
-713.718	-164.850	-0.183	0.008
-712.704	-130.343	0.036	-0.005
-711.689	800.000	-0.064	-0.200
-710.675	354.903	0.169	-0.337
-709.660	-21.449	-0.258	-0.158
-708.645	800.000	0.025	-0.085
-707.631	-76.828	-0.303	-0.106
-706.616	7.252	0.268	-0.200
-705.602	-200.000	-0.003	0.208
-704.587	-200.000	-0.010	-0.058
-703.572	800.000	-0.080	0.298
-702.558	-140.285	0.313	0.033
-701.543	208.412	0.082	-0.128
-700.529	157.310	-0.199	-0.275
-699.514	-111.309	0.325	0.066
-698.499	-120.676	-0.136	0.023
-697.485	-200.000	0.007	-0.162
-696.470	238.045	0.046	-0.076
-695.456	800.000	0.052	0.154
-694.441	322.421	0.154	-0.293
-693.426	-122.441	-0.182	-0.030
-692.412	-200.000	-0.001	0.105
-691.397	800.000	-0.089	0.334
-690.383	-70.496	0.080	-0.030
-689.368	-152.423	0.267	-0.019
-688.354	335.711	-0.043	-0.084
-687.339	800.000	0.020	-0.071
-686.324	-44.971	0.171	0.085
-685.310	98.811	0.240	-0.277
-684.295	-114.490	0.165	0.032
-683.281	800.000	-0.085	-0.315
-682.266	-101.590	-0.177	-0.043
-681.251	-27.169	-0.380	0.221
-680.237	172.707	0.089	-0.128
-679.222	-6.986	0.078	0.053
-678.208	294.894	-0.091	-0.166
-677.193	569.192	0.103	-0.251
-676.178	612.851	0.088	-0.220
-675.164	-114.641	-0.072	-0.014
-674.149	112.006	0.200	-0.241
-673.135	119.729	0.125	0.154
-672.120	-40.932	0.076	0.039
-671.105	800.000	0.010	-0.041
-670.091	-200.000	-0.009	-0.042
-669.076	800.000	-0.051	0.180
-668.062	303.708	-0.054	-0.100
-667.047	20.900	-0.284	0.229
-666.032	327.894	-0.128	0.245
-665.018	88.534	0.204	0.226
-664.003	-2.677	0.104	0.072
-662.989	178.338	0.039	0.056
-661.974	-99.819	-0.145	-0.036
-660.959	-29.631	-0.502	-0.286
-659.945	179.614	-0.350	0.511
-658.930	-48.147	-0.203	0.098
-657.916	-135.938	0.223	-0.026
-656.901	14.889	-0.172	-0.134
-655.886	-188.770	-0.396	0.005
-654.872	6.075	-0.263	0.194
-653.857	-200.000	0.041	0.204
-652.843	127.045	0.124	-0.157
-651.828	-41.040	-0.238	-0.122
-650.814	-50.756	-0.239	0.112
-649.799	-122.374	0.099	0.016
-648.784	800.000	-0.004	0.011
-647.770	-200.000	-0.040	0.289
-646.755	30.911	0.070	0.060
-645.741	-82.761	0.095	0.031
-644.726	106.454	0.187	0.221
-643.711	232.035	0.205	0.336
-642.697	-119.434	0.138	0.024
-641.682	390.028	0.126	0.260
-640.668	-90.997	0.157	0.045
-639.653	-92.063	-0.238	-0.067
-638.638	-161.062	-0.341	-0.018
-637.624	800.000	-0.049	0.198
-636.609	33.373	0.046	-0.040
-635.595	-200.000	-0.015	0.105
-634.580	-56.191	-0.167	0.074
-633.565	-194.326	-0.064	-0.001
-632.551	-200.000	0.004	-0.114
-631.536	-60.629	-0.072	0.030
-630.522	-70.219	0.356	-0.135
-629.507	229.234	0.042	0.069
-628.492	-142.531	0.253	0.025
-627.478	-200.000	-0.022	-0.338
-626.463	800.000	0.100	-0.282
-625.449	-200.000	-0.008	0.058
-624.434	800.000	-0.062	-0.195
-623.419	52.443	0.093	-0.089
-622.405	8.658	-0.212	0.159
-621.390	800.000	-0.065	-0.180
-620.376	30.525	-0.046	-0.039
-619.361	475.548	0.133	0.298
-618.346	20.986	-0.165	0.133
-617.332	-41.998	-0.176	0.090
-616.317	-18.395	0.085	0.053
-615.303	589.196	-0.062	0.152
-614.288	-62.461	-0.395	0.164
-613.273	-44.861	-0.069	0.034
-612.259	-53.431	0.062	0.028
-611.244	-39.385	-0.223	0.116
-610.230	-18.824	-0.163	-0.101
-609.215	82.484	0.068	-0.074
-608.201	303.868	-0.129	0.238
-607.186	12.802	0.069	-0.053
-606.171	-130.177	-0.082	0.011
-605.157	-70.464	0.179	-0.068
-604.142	-200.000	-0.024	0.164
-603.128	38.998	-0.042	0.037
-602.113	772.430	-0.139	0.377
-601.098	8.474	-0.385	-0.288
-600.084	-169.422	0.146	-0.005
-599.069	800.000	-0.055	-0.211
-598.055	-153.422	0.221	-0.015
-597.040	-109.678	-0.156	-0.033
-596.025	-200.000	-0.021	0.094
-595.011	-116.764	-0.465	-0.085
-593.996	-122.095	-0.471	-0.077
-592.982	375.127	0.014	0.028
-591.967	-86.672	0.226	-0.069
-590.952	383.592	-0.092	-0.189
-589.938	7.020	0.230	0.171
-588.923	46.344	0.279	-0.257
-587.909	174.867	-0.140	-0.201
-586.894	-11.131	0.117	-0.077
-585.879	-200.000	-0.003	0.075
-584.865	-200.000	-0.092	0.507
-583.850	63.085	-0.243	0.242
-582.836	163.644	0.029	0.041
-581.821	-64.474	-0.050	0.020
-580.806	138.660	-0.222	-0.290
-579.792	-16.477	0.281	-0.177
-578.777	-5.277	0.292	-0.200
-577.763	-167.203	0.265	-0.011
-576.748	67.337	-0.155	-0.158
-575.733	256.356	0.204	-0.349
-574.719	-95.616	-0.194	0.052
-573.704	-200.000	-0.027	-0.179
-572.690	242.311	-0.073	-0.122
-571.675	114.307	0.184	0.223
-570.661	38.527	0.251	-0.222
-569.646	-130.243	-0.189	-0.026
-568.631	122.013	0.156	-0.193
-567.617	-200.000	-0.033	-0.182
-566.602	367.608	-0.091	-0.183
-565.588	-39.516	-0.277	-0.144
-564.573	-200.000	0.049	-0.490
-563.558	-154.803	0.277	-0.018
-562.544	-200.000	0.062	0.369
-561.529	108.415	0.123	-0.146
-560.515	313.481	-0.106	0.197
-559.500	415.063	-0.056	0.118
-558.485	-168.610	0.371	-0.014
-557.471	-167.656	0.129	0.005
-556.456	-37.793	0.220	0.116
-555.442	-200.000	-0.067	-0.328
-554.427	-200.000	0.052	0.261
-553.412	636.483	0.101	0.256
-552.398	65.169	0.038	0.038
-551.383	38.616	-0.189	0.168
-550.369	55.392	0.282	-0.271
-549.354	-110.187	0.215	-0.045
-548.339	-153.226	-0.226	0.016
-547.325	328.140	0.132	-0.251
-546.310	-200.000	0.031	-0.183
-545.296	110.657	-0.121	0.145
-544.281	-101.761	0.158	0.038
-543.266	-46.053	-0.133	0.065
-542.252	-200.000	-0.032	-0.145
-541.237	-94.418	-0.171	0.046
-540.223	-138.968	0.227	-0.024
-539.208	50.085	-0.098	0.092
-538.193	107.126	0.346	0.409
-537.179	266.031	-0.132	-0.229
-536.164	-10.567	0.081	-0.054
-535.150	14.175	-0.101	-0.078
-534.135	-3.004	-0.228	0.158
-533.121	-200.000	0.013	0.134
-532.106	498.266	0.079	-0.180
-531.091	38.831	-0.063	0.056
-530.077	-9.045	0.217	-0.144
-529.062	197.193	0.066	-0.100
-528.048	-140.851	0.196	0.020
-527.033	-101.959	0.196	-0.047
-526.018	-125.041	-0.269	0.041
-525.004	147.902	0.140	-0.188
-523.989	-4.570	-0.127	0.087
-522.975	800.000	0.106	0.294
-521.960	404.645	-0.103	0.215
-520.945	-40.818	0.126	0.065
-519.931	800.000	0.041	0.117
-518.916	-72.346	-0.144	-0.053
-517.902	800.000	-0.053	0.186
-516.887	208.624	-0.132	0.205
-515.872	-76.187	-0.084	0.029
-514.858	-200.000	-0.021	-0.142
-513.843	156.556	0.220	-0.302
-512.829	337.269	0.099	0.192
-511.814	194.378	0.055	-0.082
-510.799	-70.583	-0.210	0.079
-509.785	-147.717	0.090	0.008
-508.770	-28.627	-0.285	-0.162
-507.756	800.000	0.101	-0.306
-506.741	800.000	0.045	-0.184
-505.726	224.936	0.055	0.088
-504.712	112.479	0.184	0.220
-503.697	800.000	0.048	-0.148
-502.683	32.773	0.126	-0.108
-501.668	190.393	0.181	-0.269
-500.653	-200.000	-0.004	0.153
-499.639	800.000	-0.074	-0.311
-498.624	-25.941	-0.095	-0.056
-497.610	44.206	-0.159	-0.144
-496.595	-77.281	0.300	0.104
-495.581	-80.763	-0.109	0.036
-494.566	-9.532	0.329	-0.217
-493.551	268.291	0.194	-0.337
-492.537	-50.470	0.025	0.012
-491.522	11.392	-0.055	0.042
-490.508	162.951	-0.054	-0.075
-489.493	800.000	0.132	0.383
-488.478	73.062	0.194	-0.201
-487.464	-200.000	0.011	0.062
-486.449	-200.000	0.439	-0.000
-485.435	235.791	0.064	-0.105
-484.420	800.000	0.048	0.175
-483.405	581.468	-0.046	0.112
-482.391	-148.560	-0.191	0.015
-481.376	-19.157	0.342	0.210
-480.362	-26.771	-0.094	0.054
-479.347	-90.076	-0.267	-0.077
-478.332	-200.000	0.044	-0.221
-477.318	-43.286	0.173	-0.087
-476.303	-69.597	-0.183	0.069
-475.289	-127.725	-0.098	-0.014
-474.274	25.462	-0.136	0.112
-473.259	-110.380	0.330	0.068
-472.245	18.929	0.084	0.066
-471.230	-21.934	0.162	-0.097
-470.216	439.772	-0.100	0.217
-469.201	6.989	0.152	0.112
-468.186	71.509	0.198	-0.204
-467.172	172.334	-0.085	-0.122
-466.157	33.827	0.090	0.078
-465.143	-9.215	-0.147	-0.097
-464.128	166.169	-0.119	0.167
-463.113	-91.942	0.091	0.025
-462.099	-85.280	-0.213	-0.066
-461.084	-109.353	-0.086	-0.018
-460.070	-3.737	0.222	0.152
-459.055	356.742	-0.175	-0.344
-458.040	-129.570	0.140	0.019
-457.026	-200.000	0.000	0.167
-456.011	-61.400	0.206	0.086
-454.997	-0.420	0.029	0.021
-453.982	270.580	0.066	0.115
-452.968	62.779	-0.130	-0.128
-451.953	800.000	-0.024	-0.101
-450.938	800.000	0.041	0.149
-449.924	-200.000	-0.015	-0.124
-448.909	26.095	0.267	0.221
-447.895	-200.000	-0.011	-0.233
-446.880	-200.000	0.068	0.407
-445.865	-19.409	0.187	0.115
-444.851	463.888	-0.065	-0.144
-443.836	-87.447	-0.107	0.032
-442.822	-200.000	-0.046	0.247
-441.807	-62.592	-0.262	0.108
-440.792	437.760	-0.024	0.052
-439.778	155.611	-0.052	-0.071
-438.763	321.889	0.092	-0.174
-437.749	-49.699	-0.255	-0.120
-436.734	-135.665	-0.261	-0.031
-435.719	-105.264	-0.177	0.040
-434.705	144.211	-0.185	0.244
-433.690	80.900	0.166	-0.177
-432.676	-57.354	0.200	0.087
-431.661	-19.189	0.130	0.080
-430.646	37.690	0.372	-0.326
-429.632	-113.892	-0.058	0.011
-428.617	-200.000	-0.021	-0.223
-427.603	-33.983	0.526	0.286
-426.588	-200.000	-0.005	0.121
-425.573	86.395	-0.290	0.316
-424.559	-174.520	0.097	-0.003
-423.544	-64.764	-0.307	-0.123
-422.530	277.417	-0.102	0.180
-421.515	-1.405	0.154	-0.108
-420.500	113.271	-0.087	0.105
-419.486	12.394	-0.139	-0.106
-418.471	-41.146	-0.265	0.135
-417.457	-84.396	0.271	0.085
-416.442	-64.185	-0.070	0.028
-415.428	-80.267	0.137	-0.045
-414.413	-83.779	-0.111	-0.035
-413.398	455.184	0.114	-0.250
-412.384	51.718	-0.202	-0.190
-411.369	-44.960	0.053	-0.026
-410.355	-200.000	-0.013	0.332
-409.340	50.258	-0.062	-0.058
-408.325	-200.000	0.002	-0.362
-407.311	800.000	-0.029	-0.112
-406.296	323.981	-0.114	0.215
-405.282	-77.201	0.188	-0.065
-404.267	465.379	-0.132	0.292
-403.252	-91.841	0.359	0.101
-402.238	355.175	-0.110	-0.215
-401.223	188.187	0.024	0.035
-400.209	454.727	0.118	0.259
-399.194	-62.177	0.309	-0.127
-398.179	-119.194	-0.256	-0.044
-397.165	-200.000	-0.034	-0.438
-396.150	713.635	-0.044	0.116
-395.136	-14.121	-0.347	0.221
-394.121	100.535	-0.107	-0.122
-393.106	-14.015	0.135	0.086
-392.092	95.792	0.220	0.248
-391.077	71.237	0.253	-0.259
-390.063	186.588	-0.053	-0.077
-389.048	-148.296	-0.275	0.022
-388.033	-200.000	-0.036	-0.188
-387.019	60.476	-0.167	-0.164
-386.004	78.863	0.172	-0.182
-384.990	61.368	-0.146	-0.144
-383.975	344.942	-0.129	0.250
-382.960	-98.075	-0.094	0.024
-381.946	-200.000	0.009	0.233
-380.931	-16.983	0.091	-0.057
-379.917	-117.180	-0.264	0.047
-378.902	128.674	-0.081	0.101
-377.888	-59.891	-0.212	0.090
-376.873	-182.739	-0.509	0.009
-375.858	-200.000	0.053	-0.386
-374.844	14.928	0.250	0.193
-373.829	-110.755	0.363	0.074
-372.815	-200.000	-0.059	0.328
-371.800	-144.249	0.172	-0.016
-370.785	-125.341	-0.169	-0.025
-369.771	-76.555	0.111	-0.038
-368.756	-182.598	0.163	-0.003
-367.742	-80.947	0.205	0.067
-366.727	78.789	0.192	0.202
-365.712	-74.324	-0.282	0.100
-364.698	-54.117	0.149	0.067
-363.683	-75.362	0.215	-0.076
-362.669	-21.127	0.221	0.133
-361.654	201.206	0.065	-0.099
-360.639	205.991	-0.015	0.022
-359.625	-0.521	-0.147	0.103
-358.610	223.283	-0.020	0.031
-357.596	-200.000	-0.001	-0.014
-356.581	-200.000	0.003	-0.013
-355.566	-137.978	0.153	-0.017
-354.552	118.409	-0.034	-0.041
-353.537	17.174	0.305	0.239
-352.523	169.095	-0.087	0.123
-351.508	754.144	-0.096	-0.257
-350.493	-45.591	-0.536	-0.261
-349.479	-137.199	0.325	-0.036
-348.464	-200.000	-0.308	0.001
-347.450	-151.586	-0.121	-0.009
-346.435	-9.647	-0.103	-0.068
-345.420	-8.216	-0.172	0.114
-344.406	-200.000	-0.070	0.301
-343.391	509.895	-0.197	-0.450
-342.377	-75.139	0.163	-0.057
-341.362	390.050	-0.155	-0.317
-340.348	-50.439	-0.240	-0.112
-339.333	-73.710	-0.010	-0.003
-338.318	-200.000	-0.002	0.187
-337.304	-59.492	-0.220	-0.093
-336.289	84.991	0.113	0.122
-335.275	195.827	-0.126	-0.188
-334.260	-5.319	-0.150	-0.101
-333.245	-29.064	-0.144	-0.082
-332.231	-20.866	0.131	-0.079
-331.216	-146.138	-0.297	0.026
-330.202	-200.000	0.030	-0.198
-329.187	800.000	0.143	0.414
-328.172	-31.030	0.182	-0.101
-327.158	800.000	-0.068	0.281
-326.143	-11.394	0.061	0.040
-325.129	-25.333	-0.243	0.141
-324.114	-116.044	-0.122	0.022
-323.099	-56.643	0.118	-0.051
-322.085	23.983	-0.131	0.107
-321.070	-111.127	-0.175	-0.035
-320.056	-92.735	-0.215	0.059
-319.041	800.000	-0.081	0.233
-318.026	-200.000	-0.012	-0.224
-317.012	69.892	0.197	-0.200
-315.997	-200.000	-0.004	0.180
-314.983	-135.684	-0.208	0.024
-313.968	-19.496	0.278	-0.169
-312.953	-45.021	-0.272	-0.133
-311.939	264.518	-0.090	-0.154
-310.924	-200.000	0.009	0.397
-309.910	-59.757	0.185	0.078
-308.895	308.722	0.101	-0.185
-307.880	187.933	0.086	-0.127
-306.866	-200.000	-0.036	-0.223
-305.851	-68.140	0.314	-0.120
-304.837	-37.740	0.121	0.063
-303.822	-38.808	-0.059	0.031
-302.807	-19.662	0.083	-0.051
-301.793	164.053	0.295	0.408
-300.778	-61.303	0.249	-0.103
-299.764	-200.000	-0.051	-0.290
-298.749	-47.719	0.133	-0.064
-297.735	317.414	-0.110	0.205
-296.720	-129.974	-0.426	-0.057
-295.705	67.441	-0.249	-0.250
-294.691	800.000	-0.007	0.019
-293.676	109.551	-0.103	-0.121
-292.662	-66.210	0.258	-0.101
-291.647	-200.000	0.010	0.077
-290.632	94.354	0.131	0.147
-289.618	-110.549	-0.182	-0.037
-288.603	251.348	-0.122	0.204
-287.589	-153.619	0.247	-0.017
-286.574	191.709	-0.191	-0.283
-285.559	800.000	0.045	0.129
-284.545	-88.593	-0.293	0.086
-283.530	386.423	-0.085	0.174
-282.516	-200.000	-0.056	0.263
-281.501	531.077	0.065	0.152
-280.486	-45.135	0.264	-0.129
-279.472	-45.623	-0.119	-0.058
-278.457	56.523	-0.111	0.106
-277.443	125.936	-0.104	0.129
-276.428	-200.000	-0.094	0.485
-275.413	24.736	0.243	0.198
-274.399	800.000	-0.065	-0.259
-273.384	42.695	0.046	-0.041
-272.370	800.000	-0.041	0.140
-271.355	-104.107	0.050	0.011
-270.340	-92.846	-0.096	0.026
-269.326	-70.966	-0.221	-0.082
-268.311	-200.000	-0.025	-0.125
-267.297	71.534	-0.016	-0.016
-266.282	28.343	0.127	0.105
-265.267	153.370	0.089	0.120
-264.253	-200.000	-0.069	0.361
-263.238	-200.000	0.008	0.594
-262.224	146.273	0.109	0.143
-261.209	-102.996	0.318	-0.074
-260.195	43.117	-0.100	-0.090
-259.180	-40.851	-0.254	-0.129
-258.165	121.680	-0.122	0.149
-257.151	-97.216	-0.304	-0.078
-256.136	-200.000	-0.003	-0.020
-255.122	-134.023	-0.080	0.010
-254.107	-88.148	0.530	0.156
-253.092	-164.687	-0.224	-0.010
-252.078	800.000	0.038	-0.152
-251.063	-200.000	0.048	0.333
-250.049	2.521	0.051	-0.036
-249.034	230.636	0.185	0.297
-248.019	58.172	-0.218	0.209
-247.005	452.156	-0.049	-0.106
-245.990	0.698	0.405	-0.284
-244.976	800.000	-0.055	-0.154
-243.961	43.695	0.217	-0.195
-242.946	-75.721	-0.093	0.032
-241.932	-109.997	0.464	-0.095
-240.917	748.165	0.036	-0.094
-239.903	260.814	-0.158	0.268
-238.888	43.523	-0.131	-0.118
-237.873	-80.344	-0.188	0.062
-236.859	357.131	-0.156	0.305
-235.844	4.722	0.043	-0.031
-234.830	283.081	-0.132	0.232
-233.815	-109.925	0.043	0.009
-232.800	311.114	0.055	0.101
-231.786	21.694	0.162	-0.130
-230.771	800.000	0.073	0.235
-229.757	-74.632	-0.041	0.014
-228.742	1.817	0.133	-0.094
-227.727	99.096	0.230	0.261
-226.713	-159.249	-0.169	-0.009
-225.698	-67.130	-0.203	-0.078
-224.684	-3.186	-0.234	0.160
-223.669	-100.344	0.206	-0.050
-222.655	389.781	0.115	-0.233
-221.640	-200.000	-0.017	0.418
-220.625	17.062	-0.322	-0.251
-219.611	408.697	-0.126	-0.261
-218.596	-71.885	0.208	0.076
-217.582	-200.000	0.019	0.311
-216.567	-200.000	0.002	0.218
-215.552	210.454	0.114	-0.175
-214.538	571.555	0.097	-0.231
-213.523	55.353	-0.098	0.092
-212.509	-200.000	0.014	-0.139
-211.494	-187.383	0.299	0.004
-210.479	304.096	0.133	0.241
-209.465	-200.000	-0.005	-0.263
-208.450	160.094	0.070	-0.095
-207.436	-118.651	-0.170	-0.029
-206.421	-64.534	0.212	-0.084
-205.406	201.329	-0.158	0.238
-204.392	574.708	0.066	0.157
-203.377	800.000	0.050	0.209
-202.363	-200.000	-0.033	-0.226
-201.348	158.395	-0.233	0.316
-200.333	-200.000	0.031	0.168
-199.319	-8.550	-0.466	0.307
-198.304	172.984	-0.141	0.199
-197.290	58.161	-0.041	0.039
-196.275	197.562	-0.142	0.212
-195.260	-26.349	-0.082	0.047
-194.246	256.157	-0.189	-0.318
-193.231	225.665	0.035	-0.056
-192.217	-15.106	-0.268	-0.168
-191.202	-10.767	0.143	-0.093
-190.187	9.042	0.206	-0.152
-189.173	-97.139	0.365	-0.093
-188.158	33.859	-0.083	0.071
-187.144	-118.389	0.194	0.034
-186.129	210.275	-0.104	-0.159
-185.114	-200.000	-0.013	-0.159
-184.100	800.000	-0.047	-0.133
-183.085	320.360	0.104	-0.193
-182.071	235.039	-0.219	-0.354
-181.056	46.856	-0.044	-0.040
-180.042	800.000	0.012	-0.049
-179.027	111.686	-0.185	-0.219
-178.012	-200.000	-0.013	0.281
-176.998	-200.000	-0.008	0.039
-175.983	-165.365	0.163	0.007
-174.969	-54.090	-0.381	-0.170
-173.954	-120.941	0.163	-0.027
-172.939	-168.899	-0.083	0.003
-171.925	-56.900	-0.209	-0.090
-170.910	48.929	0.212	-0.194
-169.896	-200.000	0.005	0.033
-168.881	-25.751	-0.188	-0.108
-167.866	139.867	0.081	0.104
-166.852	-200.000	-0.007	0.202
-165.837	26.298	0.033	-0.027
-164.823	121.147	0.183	0.223
-163.808	-118.899	0.072	0.012
-162.793	498.170	-0.166	-0.373
-161.779	-74.337	0.137	-0.048
-160.764	280.348	0.012	0.020
-159.750	219.572	-0.204	-0.319
-158.735	-200.000	-0.024	-0.289
-157.720	800.000	0.123	-0.385
-156.706	-20.402	-0.108	-0.065
-155.691	-6.112	0.176	-0.117
-154.677	284.066	0.058	-0.101
-153.662	45.255	-0.071	-0.064
-152.647	-200.000	0.009	-0.115
-151.633	194.437	0.164	-0.243
-150.618	6.125	-0.289	0.210
-149.604	-94.581	0.281	-0.075
-148.589	-53.878	-0.386	0.172
-147.574	99.213	-0.083	0.094
-146.560	-187.019	0.204	0.003
-145.545	-98.349	0.227	0.057
-144.531	30.250	-0.428	-0.357
-143.516	272.699	0.103	-0.177
-142.502	800.000	-0.114	-0.391
-141.487	800.000	0.017	-0.047
-140.472	800.000	0.006	0.026
-139.458	55.405	0.170	0.161
-138.443	-200.000	-0.010	0.193
-137.429	124.373	-0.124	0.152
-136.414	77.479	0.008	0.008
-135.399	180.933	0.060	0.086
-134.385	-200.000	-0.048	0.303
-133.370	59.029	-0.113	0.108
-132.356	-200.000	-0.017	0.309
-131.341	-35.258	0.312	-0.166
-130.326	83.741	-0.289	-0.308
-129.312	496.635	0.110	0.247
-128.297	-52.712	-0.210	-0.095
-127.283	358.681	-0.150	0.294
-126.268	46.572	0.213	0.193
-125.253	101.402	0.238	0.271
-124.239	-158.068	0.229	0.013
-123.224	-81.882	-0.358	0.115
-122.210	-36.351	-0.229	-0.121
-121.195	-200.000	-0.006	-0.168
