DTS Sentinel unit serial number:	SN413079Multiplexer serial number:	ORYXHardware model number:	OX4-SRSoftware version number:	ORYX F/W v4.00 Oryx Data Collector v3.7.2.0data status	okinstallation	princeton_trtdifferential loss correction	single-endedforward channel	channel 1reverse channel	N/Adate	2019/09/15time	04:02:35forward acquisition time	60.00reverse acquisition time	0.00gamma	496.2192k internal	0.2323k external	0.2323temperature offset calibration	0.9989default loss term (dB/km)	0.3790temperature slope calibration	1.0000multiplexer offset coefficient	1.0000multiplexer slope coefficient	1.0000fibre end	0.00T internal ref (°C)	30.94T ext. ref 1 (°C)	4.61T ext. ref 2 (°C)	25.87length (m)	temperature (°C)	Stokes	anti-Stokes-747.200	800.000	-0.103	-0.309
-746.185	-200.000	0.012	-0.192
-745.171	-100.999	-0.227	0.056
-744.156	500.031	-0.127	0.295
-743.142	797.415	0.079	-0.219
-742.127	80.271	-0.204	-0.222
-741.112	21.587	-0.139	0.114
-740.098	-164.976	-0.082	0.004
-739.083	181.027	-0.182	-0.270
-738.069	-36.814	-0.199	-0.108
-737.054	289.400	-0.091	-0.166
-736.039	-200.000	-0.001	-0.059
-735.025	-53.851	-0.223	-0.103
-734.010	90.624	0.139	-0.157
-732.996	-170.730	-0.306	-0.011
-731.981	-91.896	-0.159	0.046
-730.966	-26.657	-0.326	-0.193
-729.952	-104.868	0.149	-0.034
-728.937	146.640	0.055	0.075
-727.923	-25.120	-0.255	-0.152
-726.908	18.660	-0.033	-0.027
-725.894	-200.000	-0.041	0.197
-724.879	-143.277	0.112	0.011
-723.864	-200.000	0.029	-0.217
-722.850	129.713	0.054	0.070
-721.835	-200.000	0.007	-0.109
-720.821	-200.000	-0.075	-0.334
-719.806	800.000	-0.054	-0.192
-718.791	800.000	0.003	0.008
-717.777	-129.307	-0.357	0.050
-716.762	-105.379	-0.151	-0.035
-715.748	-159.122	-0.284	0.016
-714.733	-39.422	0.132	-0.070
-713.718	15.440	0.028	-0.022
-712.704	-30.648	-0.046	0.026
-711.689	-200.000	-0.034	-0.203
-710.675	-136.638	0.265	0.031
-709.660	70.660	0.068	0.071
-708.645	-17.529	0.091	0.058
-707.631	-86.908	0.148	0.045
-706.616	-194.273	-0.230	-0.002
-705.602	-17.437	0.156	-0.099
-704.587	125.844	-0.325	0.414
-703.572	318.407	-0.153	-0.293
-702.558	800.000	-0.056	0.181
-701.543	-29.412	-0.125	-0.072
-700.529	498.757	0.043	0.101
-699.514	800.000	-0.076	0.235
-698.499	684.290	0.146	-0.383
-697.485	343.619	-0.162	-0.320
-696.470	-200.000	-0.059	-0.433
-695.456	-10.928	-0.202	0.134
-694.441	800.000	-0.077	-0.229
-693.426	36.204	-0.189	-0.168
-692.412	96.460	0.106	0.122
-691.397	-83.718	-0.049	0.016
-690.383	69.650	-0.149	0.155
-689.368	288.509	-0.121	0.220
-688.354	-43.482	0.039	0.020
-687.339	-200.000	-0.027	0.181
-686.324	141.613	-0.139	-0.185
-685.310	800.000	-0.073	-0.222
-684.295	-21.635	-0.225	0.138
-683.281	81.267	0.163	0.177
-682.266	-200.000	0.012	-0.250
-681.251	-4.413	-0.171	-0.119
-680.237	-69.751	-0.288	-0.111
-679.222	28.219	0.101	0.086
-678.208	-154.781	0.079	-0.005
-677.193	-75.033	-0.114	0.041
-676.178	407.030	0.164	-0.349
-675.164	17.664	0.394	-0.316
-674.149	-17.322	0.258	-0.164
-673.135	-97.620	0.161	0.042
-672.120	-37.992	-0.263	-0.141
-671.105	-70.092	0.040	-0.015
-670.091	239.097	-0.081	-0.136
-669.076	-153.676	-0.302	-0.021
-668.062	800.000	0.068	-0.233
-667.047	-200.000	-0.046	-0.276
-666.032	118.412	0.140	-0.174
-665.018	-200.000	-0.049	-0.374
-664.003	-6.345	0.116	0.080
-662.989	29.617	-0.254	-0.218
-661.974	-149.775	0.143	0.011
-660.959	-200.000	-0.013	-0.158
-659.945	49.496	0.113	-0.107
-658.930	28.740	-0.212	0.181
-657.916	-75.828	-0.244	-0.087
-656.901	-98.425	0.045	0.012
-655.886	800.000	-0.144	0.539
-654.872	-200.000	-0.123	-0.551
-653.857	154.550	-0.156	-0.216
-652.843	-180.850	-0.205	-0.004
-651.828	81.146	0.154	-0.167
-650.814	396.556	0.085	-0.180
-649.799	-155.081	0.397	0.026
-648.784	-200.000	0.026	-0.230
-647.770	-78.753	-0.039	0.014
-646.755	-60.488	-0.496	-0.212
-645.741	13.135	-0.064	-0.050
-644.726	-57.730	0.351	-0.155
-643.711	-89.917	0.083	0.024
-642.697	393.904	0.087	-0.182
-641.682	349.541	-0.090	-0.179
-640.668	-200.000	-0.039	-0.171
-639.653	-41.950	0.121	0.062
-638.638	-53.341	-0.201	-0.092
-637.624	61.848	-0.113	0.113
-636.609	-135.141	0.393	0.047
-635.595	134.218	-0.118	0.154
-634.580	-56.525	-0.257	0.114
-633.565	-173.541	0.085	0.003
-632.551	154.785	-0.129	0.178
-631.536	113.474	-0.209	-0.255
-630.522	-200.000	0.020	-0.219
-629.507	-200.000	0.009	0.064
-628.492	93.466	0.184	-0.210
-627.478	129.516	-0.113	-0.145
-626.463	-89.336	-0.119	-0.035
-625.449	66.770	-0.173	-0.177
-624.434	800.000	-0.149	-0.475
-623.419	312.607	0.027	0.051
-622.405	174.017	-0.062	0.090
-621.390	334.578	-0.119	-0.232
-620.376	800.000	-0.017	-0.068
-619.361	-200.000	0.034	-0.161
-618.346	800.000	-0.052	-0.201
-617.332	-200.000	-0.031	0.308
-616.317	233.678	0.108	-0.178
-615.303	-158.320	-0.159	-0.009
-614.288	-108.581	-0.153	-0.033
-613.273	-200.000	-0.003	-0.091
-612.259	-143.450	-0.037	-0.004
-611.244	-200.000	-0.256	0.001
-610.230	40.431	-0.369	-0.334
-609.215	-65.120	0.085	0.034
-608.201	-42.764	-0.178	0.091
-607.186	196.169	0.129	0.197
-606.171	383.467	0.127	-0.263
-605.157	-121.708	0.187	0.031
-604.142	-200.000	-0.019	-0.176
-603.128	-165.049	0.026	-0.001
-602.113	-200.000	-0.023	-0.145
-601.098	-200.000	0.017	-0.107
-600.084	163.365	0.155	-0.219
-599.069	184.440	-0.081	-0.120
-598.055	-45.672	-0.009	0.004
-597.040	-113.404	-0.370	0.073
-596.025	-41.533	-0.161	-0.083
-595.011	-68.291	-0.352	-0.137
-593.996	528.913	-0.046	-0.109
-592.982	260.718	0.218	-0.378
-591.967	-170.016	-0.233	-0.008
-590.952	254.826	-0.155	-0.265
-589.938	-2.736	0.043	0.030
-588.923	-122.101	0.349	-0.057
-587.909	-91.402	-0.302	-0.087
-586.894	-21.587	-0.266	0.163
-585.879	-200.000	-0.013	-0.143
-584.865	-200.000	-0.005	-0.276
-583.850	-149.531	0.122	-0.010
-582.836	-102.984	0.272	0.065
-581.821	-200.000	0.014	-0.135
-580.806	46.968	-0.346	-0.323
-579.792	11.777	-0.153	0.118
-578.777	-185.273	-0.198	-0.003
-577.763	251.240	-0.109	-0.186
-576.748	-111.204	0.196	0.040
-575.733	800.000	0.035	0.152
-574.719	23.392	-0.108	-0.089
-573.704	234.820	-0.187	-0.310
-572.690	-176.163	0.077	-0.002
-571.675	98.488	0.158	0.182
-570.661	490.356	-0.069	0.158
-569.646	-27.261	0.230	0.134
-568.631	-89.556	0.141	0.042
-567.617	-180.302	0.069	0.001
-566.602	-92.139	0.045	-0.013
-565.588	9.488	-0.065	0.050
-564.573	-113.790	0.010	-0.002
-563.558	41.431	-0.155	-0.141
-562.544	89.511	0.085	-0.095
-561.529	-133.255	-0.281	0.036
-560.515	143.504	-0.054	-0.073
-559.500	-165.984	-0.322	0.014
-558.485	189.949	0.061	-0.091
-557.471	186.037	0.033	0.050
-556.456	66.784	0.208	0.213
-555.442	-200.000	-0.023	-0.126
-554.427	-200.000	0.089	-0.463
-553.412	-200.000	-0.014	0.069
-552.398	-95.608	0.110	0.029
-551.383	23.793	-0.050	0.041
-550.369	-200.000	-0.002	-0.250
-549.354	4.166	0.191	0.140
-548.339	-111.605	0.089	-0.018
-547.325	-74.255	0.237	-0.086
-546.310	-103.183	0.091	-0.022
-545.296	800.000	-0.053	-0.199
-544.281	372.106	0.089	-0.182
-543.266	-200.000	-0.062	-0.312
-542.252	-139.784	-0.439	0.047
-541.237	800.000	0.028	0.113
-540.223	-104.750	-0.201	0.046
-539.208	800.000	0.062	0.219
-538.193	-144.543	0.147	-0.014
-537.179	-109.672	-0.346	-0.073
-536.164	8.056	-0.296	0.223
-535.150	72.775	-0.169	0.177
-534.135	28.658	-0.157	0.133
-533.121	110.440	0.114	0.137
-532.106	101.810	0.091	-0.106
-531.091	-33.967	-0.095	0.053
-530.077	-20.597	0.239	0.147
-529.062	-10.342	-0.179	0.119
-528.048	-118.085	-0.084	-0.015
-527.033	-200.000	-0.067	0.297
-526.018	-67.516	0.244	-0.096
-525.004	-46.226	-0.402	0.198
-523.989	514.936	-0.119	0.279
-522.975	-42.521	0.350	0.179
-521.960	-200.000	0.010	0.044
-520.945	-10.089	0.103	0.068
-519.931	-17.956	-0.226	0.142
-518.916	-25.933	0.179	0.105
-517.902	255.975	-0.062	-0.107
-516.887	-50.844	0.059	-0.028
-515.872	52.806	-0.118	-0.113
-514.858	-148.563	-0.436	-0.036
-513.843	-109.395	0.286	0.061
-512.829	-200.000	0.011	-0.111
-511.814	-59.779	-0.218	-0.094
-510.799	-31.466	0.156	0.088
-509.785	800.000	0.014	-0.054
-508.770	211.625	0.104	-0.164
-507.756	800.000	0.051	0.180
-506.741	128.554	-0.128	0.162
-505.726	595.664	-0.104	0.257
-504.712	-200.000	-0.027	0.289
-503.697	-200.000	-0.016	-0.254
-502.683	60.944	0.159	0.158
-501.668	-88.492	-0.249	-0.074
-500.653	-162.086	0.174	0.009
-499.639	18.554	-0.049	0.040
-498.624	-106.491	-0.167	0.037
-497.610	800.000	0.118	0.357
-496.595	-167.973	0.023	-0.001
-495.581	-170.174	0.064	0.002
-494.566	17.245	-0.203	-0.161
-493.551	800.000	-0.113	0.343
-492.537	-200.000	-0.018	-0.219
-491.522	-128.307	-0.228	-0.032
-490.508	90.638	-0.163	0.183
-489.493	-86.024	0.389	-0.120
-488.478	170.556	-0.102	0.147
-487.464	800.000	0.095	0.278
-486.449	-85.659	-0.120	0.037
-485.435	-122.655	-0.227	-0.037
-484.420	4.315	-0.219	0.160
-483.405	15.233	0.082	0.064
-482.391	800.000	-0.013	0.044
-481.376	217.702	-0.139	0.221
-480.362	-5.744	0.274	0.188
-479.347	511.508	0.048	-0.111
-478.332	-142.415	0.264	0.026
-477.318	181.664	0.047	-0.069
-476.303	13.186	-0.206	0.159
-475.289	-130.624	0.114	-0.015
-474.274	-64.231	0.146	-0.059
-473.259	-40.671	-0.333	-0.172
-472.245	-131.518	0.096	0.013
-471.230	42.839	0.142	0.129
-470.216	-40.288	-0.440	0.229
-469.201	-200.000	-0.035	-0.168
-468.186	-129.178	0.355	-0.049
-467.172	411.674	0.161	-0.341
-466.157	-37.457	-0.194	-0.103
-465.143	752.210	0.057	0.154
-464.128	202.670	-0.178	0.275
-463.113	-13.273	-0.313	-0.203
-462.099	-41.502	0.339	0.174
-461.084	356.750	0.019	-0.037
-460.070	84.461	0.068	-0.074
-459.055	46.102	-0.316	0.293
-458.040	26.658	-0.171	-0.143
-457.026	-200.000	0.050	0.227
-456.011	18.352	-0.113	0.090
-454.997	-112.920	0.263	-0.052
-453.982	43.965	-0.018	0.016
-452.968	452.951	-0.060	0.132
-451.953	150.659	0.008	-0.011
-450.938	18.837	0.120	0.096
-449.924	96.076	0.215	0.245
-448.909	11.922	-0.175	-0.134
-447.895	800.000	0.111	-0.374
-446.880	0.201	-0.286	-0.203
-445.865	800.000	-0.119	0.388
-444.851	292.871	-0.125	0.227
-443.836	-128.241	-0.133	-0.019
-442.822	45.067	-0.104	-0.095
-441.807	-48.968	0.342	-0.164
-440.792	-130.808	0.281	-0.038
-439.778	-200.000	0.023	0.282
-438.763	-49.058	0.183	-0.088
-437.749	37.488	-0.262	-0.231
-436.734	-200.000	-0.054	0.336
-435.719	-26.799	0.245	0.143
-434.705	-200.000	0.038	0.323
-433.690	741.134	-0.057	0.153
-432.676	-34.827	0.211	-0.115
-431.661	-200.000	0.009	-0.124
-430.646	-200.000	0.009	-0.164
-429.632	-32.427	-0.134	-0.074
-428.617	282.572	0.026	-0.046
-427.603	-3.400	-0.223	-0.155
-426.588	-72.477	0.220	0.081
-425.573	189.593	0.238	0.355
-424.559	22.677	-0.177	-0.145
-423.544	488.472	0.070	0.160
-422.530	425.494	-0.129	0.277
-421.515	449.706	-0.219	0.482
-420.500	800.000	0.106	0.379
-419.486	67.065	-0.085	-0.086
-418.471	401.293	0.080	0.168
-417.457	319.854	-0.255	-0.482
-416.442	-200.000	-0.000	-0.198
-415.428	-106.414	0.544	0.121
-414.413	-67.343	0.180	-0.071
-413.398	800.000	-0.052	-0.180
-412.384	70.690	-0.204	0.211
-411.369	-110.802	-0.086	-0.018
-410.355	163.357	0.136	0.190
-409.340	-7.742	-0.154	-0.104
-408.325	-94.843	-0.188	-0.051
-407.311	-80.646	0.302	0.100
-406.296	-200.000	-0.007	0.204
-405.282	68.149	-0.141	-0.144
-404.267	-86.018	0.251	-0.077
-403.252	-7.111	-0.328	-0.222
-402.238	-200.000	0.063	0.316
-401.223	33.400	0.160	0.138
-400.209	189.296	0.128	-0.191
-399.194	800.000	-0.017	0.049
-398.179	514.399	0.070	-0.164
-397.165	-200.000	0.042	-0.279
-396.150	241.864	0.167	0.279
-395.136	13.874	-0.166	0.129
-394.121	-81.307	0.081	-0.027
-393.106	185.286	0.076	0.113
-392.092	-96.324	-0.327	-0.086
-391.077	-45.089	-0.054	0.027
-390.063	89.663	0.191	0.212
-389.048	-75.387	-0.088	0.031
-388.033	-51.733	0.073	0.034
-387.019	-92.444	-0.335	-0.094
-386.004	46.843	0.081	0.075
-384.990	350.459	-0.179	-0.353
-383.975	-68.914	-0.328	-0.126
-382.960	118.133	-0.072	0.088
-381.946	-112.281	-0.240	-0.048
-380.931	-83.376	0.166	-0.053
-379.917	-200.000	0.035	-0.338
-378.902	44.410	0.254	-0.232
-377.888	104.256	-0.093	-0.109
-376.873	-200.000	0.024	-0.219
-375.858	-200.000	-0.037	-0.234
-374.844	524.930	0.117	-0.275
-373.829	-59.993	0.238	0.101
-372.815	-116.079	-0.272	0.050
-371.800	-165.815	-0.262	-0.011
-370.785	345.193	0.103	-0.201
-369.771	-68.370	-0.229	0.089
-368.756	-70.709	-0.443	0.167
-367.742	-200.000	0.045	0.298
-366.727	-200.000	-0.082	0.370
-365.712	800.000	0.097	-0.270
-364.698	-19.723	-0.132	-0.081
-363.683	-147.376	0.111	0.009
-362.669	27.425	-0.247	-0.206
-361.654	800.000	0.158	0.443
-360.639	-35.683	-0.186	-0.100
-359.625	-87.730	-0.262	0.079
-358.610	82.309	-0.015	-0.017
-357.596	38.345	-0.053	-0.047
-356.581	-4.794	0.286	-0.196
-355.566	-200.000	-0.045	-0.296
-354.552	408.725	0.207	0.436
-353.537	-13.545	0.358	0.231
-352.523	-191.249	0.221	-0.002
-351.508	-106.246	0.196	-0.044
-350.493	7.031	0.122	0.090
-349.479	-78.867	0.046	-0.016
-348.464	448.788	-0.060	-0.131
-347.450	6.107	0.256	0.189
-346.435	227.204	0.018	0.029
-345.420	191.392	0.211	0.316
-344.406	87.106	0.153	0.168
-343.391	800.000	0.045	0.159
-342.377	-20.152	0.080	-0.049
-341.362	-91.587	0.106	0.030
-340.348	-200.000	0.034	0.215
-339.333	218.732	-0.226	-0.359
-338.318	-100.034	-0.274	-0.068
-337.304	-17.983	-0.073	0.046
-336.289	-5.891	0.286	0.195
-335.275	720.177	0.023	-0.062
-334.260	800.000	0.074	0.291
-333.245	-132.896	0.219	-0.028
-332.231	-90.794	0.109	0.031
-331.216	715.672	0.074	-0.196
-330.202	-50.158	-0.136	0.064
-329.187	131.749	0.158	0.202
-328.172	-200.000	-0.011	-0.072
-327.158	-26.343	0.231	-0.135
-326.143	800.000	-0.068	-0.213
-325.129	77.437	0.181	0.191
-324.114	-47.721	0.232	0.112
-323.099	-200.000	-0.007	-0.221
-322.085	142.912	0.047	-0.062
-321.070	-129.926	0.113	0.015
-320.056	34.575	-0.039	0.034
-319.041	800.000	0.097	0.268
-318.026	800.000	0.069	-0.250
-317.012	473.219	0.095	-0.212
-315.997	-8.042	-0.246	-0.165
-314.983	800.000	0.113	-0.386
-313.968	408.200	0.149	-0.312
-312.953	178.224	-0.020	-0.029
-311.939	349.726	-0.100	0.197
-310.924	45.954	0.123	0.113
-309.910	-17.977	0.238	-0.148
-308.895	-46.151	0.202	-0.099
-307.880	559.247	0.161	-0.386
-306.866	555.213	-0.066	-0.158
-305.851	-200.000	0.001	-0.181
-304.837	-78.462	-0.074	0.025
-303.822	197.004	-0.074	0.112
-302.807	-180.525	-0.280	-0.006
-301.793	-119.419	0.356	-0.061
-300.778	-200.000	0.009	-0.169
-299.764	-5.847	-0.342	-0.233
-298.749	-21.227	-0.203	0.123
-297.735	-117.073	0.569	-0.103
-296.720	-100.452	0.212	0.052
-295.705	129.493	0.244	-0.309
-294.691	68.661	0.056	-0.057
-293.676	316.693	0.115	0.215
-292.662	-131.872	0.102	0.013
-291.647	800.000	0.029	-0.119
-290.632	800.000	-0.111	-0.413
-289.618	687.301	-0.078	0.202
-288.603	77.327	0.066	0.070
-287.589	-113.359	0.443	0.086
-286.574	-194.806	0.225	-0.002
-285.559	-93.296	0.110	0.030
-284.545	-173.745	0.129	-0.004
-283.530	-154.477	0.320	-0.021
-282.516	-57.038	-0.435	-0.190
-281.501	38.316	0.277	0.245
-280.486	-200.000	0.046	-0.389
-279.472	15.295	-0.208	0.162
-278.457	-200.000	0.041	-0.220
-277.443	-41.573	-0.225	-0.114
-276.428	90.829	0.045	0.049
-275.413	-106.659	0.198	-0.044
-274.399	-68.451	0.142	0.055
-273.384	-200.000	0.001	0.359
-272.370	339.409	-0.078	0.151
-271.355	-200.000	-0.041	0.234
-270.340	41.586	0.204	0.183
-269.326	83.880	0.093	-0.101
-268.311	69.565	-0.109	0.111
-267.297	-65.151	0.297	0.119
-266.282	-200.000	-0.007	0.247
-265.267	-48.845	-0.293	-0.139
-264.253	420.039	-0.148	0.315
-263.238	-200.000	-0.026	-0.252
-262.224	29.727	0.090	0.076
-261.209	-128.044	-0.248	0.035
-260.195	541.650	0.024	-0.056
-259.180	-132.953	-0.263	-0.033
-258.165	-200.000	0.054	0.322
-257.151	300.787	0.179	0.328
-256.136	212.402	-0.114	0.178
-255.122	-67.182	0.136	-0.053
-254.107	-95.311	0.103	-0.027
-253.092	247.749	-0.102	-0.171
-252.078	-200.000	-0.028	0.200
-251.063	-82.534	-0.126	0.040
-250.049	-96.625	0.254	0.066
-249.034	800.000	-0.058	0.190
-248.019	-56.990	0.077	0.034
-247.005	-20.941	-0.193	0.117
-245.990	-97.159	-0.135	-0.035
-244.976	-200.000	-0.034	0.383
-243.961	-25.130	0.202	-0.119
-242.946	-19.062	-0.112	0.069
-241.932	-52.689	0.150	0.069
-240.917	-95.901	0.122	-0.032
-239.903	-122.675	0.117	-0.019
-238.888	210.433	0.050	0.078
-237.873	-74.401	-0.503	-0.180
-236.859	179.885	0.095	0.138
-235.844	-38.478	0.230	0.120
-234.830	-72.764	0.109	-0.040
-233.815	-200.000	0.025	-0.411
-232.800	-161.944	-0.137	-0.007
-231.786	372.373	-0.117	0.236
-230.771	-160.046	0.434	0.023
-229.757	160.035	0.072	-0.099
-228.742	-51.120	0.147	0.068
-227.727	103.002	-0.218	0.253
-226.713	-200.000	-0.025	0.147
-225.698	-16.291	-0.104	0.065
-224.684	-91.537	-0.151	-0.043
-223.669	-1.710	-0.156	-0.109
-222.655	175.720	-0.174	0.250
-221.640	13.255	-0.268	0.205
-220.625	-10.389	0.088	-0.058
-219.611	227.597	0.177	-0.285
-218.596	21.248	-0.338	-0.271
-217.582	800.000	0.041	-0.160
-216.567	800.000	0.015	-0.045
-215.552	670.972	-0.060	0.154
-214.538	21.521	-0.033	0.026
-213.523	-200.000	-0.006	-0.402
-212.509	-36.217	0.270	-0.144
-211.494	-38.399	0.330	0.173
-210.479	-200.000	0.045	0.363
-209.465	59.014	-0.094	-0.092
-208.450	-107.351	0.379	0.082
-207.436	-153.192	-0.563	-0.039
-206.421	-156.027	0.087	0.005
-205.406	-200.000	0.004	0.201
-204.392	-98.109	-0.129	0.033
-203.377	0.340	-0.085	0.060
-202.363	-45.657	0.279	0.137
-201.348	26.793	0.287	0.238
-200.333	-129.606	-0.179	0.024
-199.319	28.002	0.177	0.148
-198.304	-200.000	-0.011	0.136
-197.290	-36.848	0.273	-0.145
-196.275	-200.000	-0.013	0.144
-195.260	30.590	-0.364	-0.308
-194.246	51.542	0.363	-0.341
-193.231	260.837	0.039	-0.067
-192.217	-200.000	0.001	0.377
-191.202	594.083	0.036	-0.087
-190.187	-14.922	-0.353	-0.224
-189.173	-200.000	0.009	-0.202
-188.158	-101.814	0.314	-0.075
-187.144	107.154	-0.152	-0.179
-186.129	65.327	0.147	-0.147
-185.114	44.109	0.029	0.027
-184.100	-57.813	-0.247	0.107
-183.085	60.612	-0.134	-0.132
-182.071	-200.000	0.042	0.197
-181.056	-65.541	-0.275	0.109
-180.042	-200.000	-0.029	0.275
-179.027	800.000	0.033	0.105
-178.012	-14.901	-0.128	0.081
-176.998	800.000	-0.042	-0.161
-175.983	18.652	0.071	-0.056
-174.969	112.850	-0.217	0.260
-173.954	76.970	0.174	0.182
-172.939	31.458	-0.163	-0.138
-171.925	800.000	0.119	-0.345
-170.910	800.000	0.012	0.034
-169.896	-131.301	0.201	-0.026
-168.881	-65.733	0.179	-0.071
-167.866	800.000	0.045	-0.168
-166.852	-108.915	0.186	0.039
-165.837	-52.873	0.302	0.137
-164.823	-200.000	-0.010	-0.094
-163.808	800.000	-0.065	0.214
-162.793	123.747	0.064	0.080
-161.779	36.355	0.267	0.232
-160.764	31.708	-0.087	-0.074
-159.750	218.769	0.032	0.050
-158.735	-110.903	0.258	0.052
-157.720	-200.000	0.008	0.206
-156.706	-18.223	-0.274	0.169
-155.691	-200.000	-0.022	-0.170
-154.677	-14.562	-0.301	-0.191
-153.662	167.319	-0.148	-0.207
-152.647	362.765	0.138	0.273
-151.633	-200.000	0.030	-0.137
-150.618	213.244	0.218	-0.340
-149.604	-200.000	-0.020	-0.164
-148.589	800.000	-0.063	0.242
-147.574	173.691	0.103	0.147
-146.560	129.660	-0.038	0.048
-145.545	259.983	-0.093	0.159
-144.531	-9.894	0.108	-0.071
-143.516	-109.352	-0.433	-0.090
-142.502	210.151	-0.080	-0.123
-141.487	-94.965	-0.324	-0.087
-140.472	551.275	0.111	0.263
-139.458	-200.000	0.020	-0.269
-138.443	-20.144	0.326	0.198
-137.429	800.000	0.030	-0.092
-136.414	-175.284	-0.348	-0.009
-135.399	32.207	-0.046	-0.039
-134.385	-121.618	-0.038	-0.006
-133.370	-77.007	0.437	-0.151
-132.356	-125.751	-0.275	-0.041
-131.341	483.278	0.075	0.168
-130.326	-200.000	0.030	0.215
-129.312	800.000	0.080	0.235
-128.297	30.062	0.192	0.162
-127.283	-200.000	0.009	-0.178
-126.268	269.358	-0.316	-0.547
-125.253	58.923	0.053	0.052
-124.239	-55.721	0.401	0.177
-123.224	800.000	-0.066	0.179
-122.210	800.000	0.058	-0.197
-121.195	19.829	0.066	-0.052
