DTS Sentinel unit serial number:	SN413079Multiplexer serial number:	ORYXHardware model number:	OX4-SRSoftware version number:	ORYX F/W v4.00 Oryx Data Collector v3.7.2.0data status	okinstallation	princeton_trtdifferential loss correction	single-endedforward channel	channel 1reverse channel	N/Adate	2019/09/18time	09:18:35forward acquisition time	60.00reverse acquisition time	0.00gamma	496.2192k internal	0.2336k external	0.2336temperature offset calibration	0.9963default loss term (dB/km)	0.3790temperature slope calibration	1.0000multiplexer offset coefficient	1.0000multiplexer slope coefficient	1.0000fibre end	0.00T internal ref (°C)	25.87T ext. ref 1 (°C)	0.25T ext. ref 2 (°C)	23.29length (m)	temperature (°C)	Stokes	anti-Stokes-747.200	-200.000	0.009	-0.083
-746.185	-102.371	-0.235	-0.057
-745.171	-83.566	0.237	-0.076
-744.156	-200.000	-0.033	0.302
-743.142	-200.000	0.053	0.241
-742.127	-47.736	-0.157	0.077
-741.112	-94.442	0.112	-0.031
-740.098	-200.000	-0.047	0.208
-739.083	-152.371	-0.169	0.012
-738.069	-200.000	-0.008	0.123
-737.054	162.359	0.196	0.276
-736.039	800.000	0.008	-0.035
-735.025	800.000	-0.121	0.424
-734.010	-158.871	-0.318	-0.018
-732.996	120.544	-0.249	-0.310
-731.981	135.267	-0.187	-0.244
-730.966	778.554	0.095	-0.261
-729.952	413.665	0.057	-0.121
-728.937	800.000	0.155	-0.500
-727.923	10.491	0.112	-0.086
-726.908	-200.000	-0.046	-0.252
-725.894	-105.193	0.140	0.032
-724.879	-200.000	0.025	0.258
-723.864	-200.000	0.044	-0.244
-722.850	800.000	-0.007	0.021
-721.835	-183.994	-0.226	-0.004
-720.821	-200.000	0.011	-0.298
-719.806	800.000	-0.056	0.224
-718.791	76.611	-0.145	0.154
-717.777	-116.202	0.203	-0.038
-716.762	-200.000	0.003	-0.244
-715.748	-61.910	-0.050	0.021
-714.733	-91.681	0.441	0.126
-713.718	-83.039	-0.096	-0.031
-712.704	83.315	-0.144	-0.158
-711.689	-28.161	-0.227	-0.131
-710.675	-62.881	0.046	-0.019
-709.660	106.967	0.166	-0.198
-708.645	110.788	0.094	-0.114
-707.631	-2.857	0.287	-0.201
-706.616	79.037	0.147	0.158
-705.602	-82.301	-0.281	-0.092
-704.587	21.138	0.302	-0.246
-703.572	-200.000	-0.012	0.215
-702.558	-53.372	0.258	0.118
-701.543	-101.928	0.232	0.056
-700.529	712.189	-0.055	-0.146
-699.514	-200.000	0.029	-0.512
-698.499	35.924	-0.259	0.228
-697.485	95.305	-0.100	0.114
-696.470	-93.714	-0.027	0.007
-695.456	-200.000	0.004	0.035
-694.441	157.941	0.143	0.199
-693.426	800.000	-0.104	0.309
-692.412	-131.511	0.326	-0.043
-691.397	539.793	0.098	0.233
-690.383	-86.448	-0.195	-0.060
-689.368	-142.255	-0.061	-0.006
-688.354	69.540	-0.220	0.227
-687.339	800.000	0.101	0.398
-686.324	181.626	0.117	-0.173
-685.310	-80.815	-0.215	-0.072
-684.295	-152.359	0.259	-0.019
-683.281	-155.702	-0.332	-0.021
-682.266	-121.501	-0.030	0.005
-681.251	-3.788	-0.334	-0.232
-680.237	800.000	-0.032	0.097
-679.222	800.000	-0.099	0.294
-678.208	-39.420	-0.034	-0.018
-677.193	643.496	0.036	-0.092
-676.178	120.010	-0.288	-0.358
-675.164	-47.681	-0.307	-0.149
-674.149	-200.000	0.000	-0.194
-673.135	-85.766	-0.132	0.041
-672.120	-119.510	0.158	0.027
-671.105	-158.098	0.102	0.006
-670.091	800.000	0.036	-0.115
-669.076	-200.000	-0.031	0.179
-668.062	-20.740	0.251	0.154
-667.047	-51.272	0.054	0.025
-666.032	-61.496	-0.190	0.080
-665.018	108.538	-0.110	0.131
-664.003	457.527	0.086	-0.190
-662.989	298.645	-0.084	0.155
-661.974	-25.023	-0.207	-0.123
-660.959	-200.000	-0.040	-0.438
-659.945	-60.702	0.017	-0.007
-658.930	6.898	-0.104	0.078
-657.916	-200.000	-0.010	0.150
-656.901	51.400	0.051	0.049
-655.886	428.065	0.082	0.177
-654.872	47.143	0.285	-0.266
-653.857	-102.637	0.117	-0.028
-652.843	-82.017	0.287	0.094
-651.828	-94.634	0.033	-0.009
-650.814	119.243	0.113	-0.140
-649.799	-200.000	0.032	0.213
-648.784	-200.000	0.001	-0.332
-647.770	80.002	-0.145	-0.156
-646.755	-29.416	0.345	0.198
-645.741	24.099	0.240	-0.198
-644.726	-38.404	0.280	-0.148
-643.711	170.601	0.051	-0.073
-642.697	-12.297	-0.126	0.082
-641.682	800.000	0.179	-0.536
-640.668	35.047	0.119	0.104
-639.653	4.127	-0.236	0.173
-638.638	86.414	-0.249	0.274
-637.624	-30.233	-0.140	-0.080
-636.609	-126.725	0.088	-0.013
-635.595	-162.349	-0.169	-0.008
-634.580	58.051	-0.166	-0.163
-633.565	-165.764	-0.350	-0.015
-632.551	226.564	-0.130	-0.211
-631.536	3.116	-0.052	-0.038
-630.522	-132.992	0.260	0.033
-629.507	-200.000	0.001	0.069
-628.492	158.935	-0.153	0.212
-627.478	-114.222	0.156	0.030
-626.463	800.000	0.072	-0.293
-625.449	484.499	-0.177	-0.403
-624.434	687.281	0.023	0.060
-623.419	-200.000	-0.011	0.057
-622.405	-200.000	0.009	0.065
-621.390	115.871	0.177	-0.216
-620.376	559.065	-0.028	0.068
-619.361	800.000	0.126	0.384
-618.346	-126.216	0.171	-0.026
-617.332	163.460	-0.134	0.188
-616.317	-48.941	0.172	-0.082
-615.303	-200.000	0.008	-0.316
-614.288	-24.498	0.135	0.081
-613.273	-148.334	-0.145	0.012
-612.259	-24.456	0.448	-0.267
-611.244	-140.734	-0.312	-0.032
-610.230	62.929	0.031	0.031
-609.215	-108.740	0.312	0.067
-608.201	702.294	-0.036	0.096
-607.186	679.453	-0.102	-0.266
-606.171	215.341	0.065	0.103
-605.157	-200.000	0.005	-0.149
-604.142	-25.729	-0.272	-0.160
-603.128	5.754	0.113	-0.084
-602.113	-200.000	0.011	0.198
-601.098	-69.835	-0.267	0.102
-600.084	800.000	0.050	-0.171
-599.069	800.000	0.068	0.277
-598.055	-155.487	-0.266	-0.017
-597.040	241.276	-0.212	0.354
-596.025	76.009	0.132	0.139
-595.011	-114.346	-0.021	0.004
-593.996	-13.866	-0.318	0.205
-592.982	-82.039	0.157	-0.051
-591.967	800.000	0.081	0.229
-590.952	-97.313	0.090	0.023
-589.938	71.605	-0.099	0.103
-588.923	-200.000	0.009	0.086
-587.909	-139.852	-0.108	-0.011
-586.894	187.965	-0.073	0.108
-585.879	297.904	0.066	-0.122
-584.865	800.000	0.013	0.037
-583.850	54.524	0.089	-0.085
-582.836	257.144	0.118	-0.202
-581.821	-32.654	-0.120	-0.067
-580.806	163.944	-0.148	-0.209
-579.792	413.972	-0.129	-0.274
-578.777	-25.122	0.154	-0.091
-577.763	800.000	-0.057	0.242
-576.748	-14.402	-0.058	-0.037
-575.733	-89.442	-0.186	-0.055
-574.719	-167.600	0.240	0.010
-573.704	-84.438	0.168	-0.053
-572.690	-34.597	-0.148	0.081
-571.675	800.000	0.067	0.200
-570.661	-172.334	-0.386	-0.012
-569.646	218.524	-0.068	0.108
-568.631	282.098	0.021	-0.037
-567.617	140.524	0.192	-0.253
-566.602	786.251	0.025	-0.068
-565.588	-200.000	-0.007	-0.227
-564.573	63.113	-0.157	-0.157
-563.558	318.478	0.214	-0.404
-562.544	-78.870	0.169	-0.058
-561.529	-200.000	0.039	0.205
-560.515	130.655	0.150	-0.191
-559.500	159.271	-0.218	-0.302
-558.485	419.926	0.146	0.312
-557.471	-72.230	0.183	0.067
-556.456	50.650	0.070	-0.066
-555.442	-15.453	-0.204	0.130
-554.427	216.652	0.279	0.442
-553.412	-38.829	-0.242	0.127
-552.398	150.473	-0.175	-0.237
-551.383	-27.294	0.231	0.134
-550.369	213.314	-0.202	-0.318
-549.354	-200.000	-0.001	-0.031
-548.339	663.670	-0.017	0.045
-547.325	-22.402	-0.244	-0.147
-546.310	95.840	-0.240	-0.273
-545.296	174.770	-0.160	-0.231
-544.281	67.444	-0.286	-0.291
-543.266	-38.240	-0.277	-0.146
-542.252	122.228	0.089	0.111
-541.237	-22.364	0.454	-0.274
-540.223	674.847	-0.085	0.221
-539.208	-200.000	0.035	-0.201
-538.193	-106.977	0.285	0.063
-537.179	312.667	0.190	0.355
-536.164	52.033	0.068	-0.065
-535.150	800.000	0.022	-0.065
-534.135	757.161	0.067	0.180
-533.121	-73.071	-0.181	-0.066
-532.106	262.045	-0.156	-0.269
-531.091	190.414	0.107	0.159
-530.077	-14.091	-0.255	0.164
-529.062	-27.148	-0.251	-0.146
-528.048	-72.969	0.123	0.045
-527.033	-63.935	0.238	-0.097
-526.018	-200.000	-0.051	-0.404
-525.004	23.997	0.276	-0.227
-523.989	-140.548	-0.104	0.011
-522.975	64.121	0.082	0.082
-521.960	-60.569	0.128	0.054
-520.945	98.579	-0.097	0.111
-519.931	74.246	-0.050	0.053
-518.916	-90.923	-0.171	-0.049
-517.902	800.000	0.042	-0.173
-516.887	-170.047	0.081	0.003
-515.872	-200.000	0.042	0.313
-514.858	575.511	0.005	-0.012
-513.843	264.123	0.036	-0.062
-512.829	-200.000	0.046	0.206
-511.814	-177.109	0.336	0.008
-510.799	-200.000	-0.042	0.538
-509.785	800.000	-0.055	0.232
-508.770	0.804	-0.087	-0.062
-507.756	-9.634	-0.354	-0.235
-506.741	28.903	-0.132	0.111
-505.726	800.000	-0.017	-0.055
-504.712	-67.107	-0.039	-0.015
-503.697	360.528	0.071	-0.141
-502.683	676.297	-0.013	-0.034
-501.668	-32.310	-0.287	-0.159
-500.653	-200.000	0.012	0.110
-499.639	-110.207	0.392	-0.081
-498.624	800.000	-0.083	0.244
-497.610	-77.836	0.267	-0.092
-496.595	-78.668	0.067	0.023
-495.581	-8.502	-0.171	-0.114
-494.566	-188.856	-0.128	0.002
-493.551	35.988	-0.341	0.298
-492.537	170.562	0.318	-0.453
-491.522	107.935	-0.265	-0.314
-490.508	-58.528	-0.311	-0.134
-489.493	-60.243	-0.096	0.041
-488.478	-39.030	-0.285	0.149
-487.464	-200.000	-0.037	-0.288
-486.449	-200.000	-0.014	-0.175
-485.435	-5.982	-0.109	0.074
-484.420	-200.000	0.030	-0.164
-483.405	-180.985	0.388	0.008
-482.391	146.132	0.190	0.253
-481.376	-200.000	0.045	-0.232
-480.362	-78.537	0.257	-0.087
-479.347	-4.434	-0.153	0.105
-478.332	524.318	0.071	-0.166
-477.318	-87.395	-0.115	-0.035
-476.303	-83.274	0.063	0.020
-475.289	-113.292	-0.387	0.076
-474.274	-54.867	0.113	0.051
-473.259	88.772	-0.147	0.163
-472.245	15.917	-0.217	0.170
-471.230	208.448	0.175	0.272
-470.216	-200.000	0.016	0.234
-469.201	207.993	-0.054	-0.084
-468.186	68.376	0.018	-0.018
-467.172	345.087	-0.061	0.120
-466.157	-31.768	-0.118	0.066
-465.143	-57.664	0.107	-0.047
-464.128	-87.126	-0.498	0.150
-463.113	800.000	0.045	0.143
-462.099	-200.000	0.020	-0.117
-461.084	394.146	0.118	0.244
-460.070	-166.309	-0.211	0.009
-459.055	-127.528	-0.067	0.010
-458.040	495.523	-0.038	0.086
-457.026	-128.243	-0.217	-0.031
-456.011	121.258	-0.255	-0.316
-454.997	800.000	-0.044	0.135
-453.982	-200.000	-0.003	-0.268
-452.968	-86.941	-0.283	0.086
-451.953	192.714	0.061	0.091
-450.938	800.000	-0.086	-0.252
-449.924	800.000	0.078	-0.235
-448.909	129.303	-0.040	0.051
-447.895	-200.000	-0.008	-0.083
-446.880	-67.154	0.558	0.218
-445.865	-15.190	-0.129	-0.082
-444.851	800.000	0.042	-0.142
-443.836	65.045	0.272	0.273
-442.822	51.135	-0.152	-0.144
-441.807	58.191	0.168	0.164
-440.792	460.205	0.114	-0.251
-439.778	-88.422	0.233	-0.069
-438.763	-200.000	-0.040	-0.187
-437.749	-103.931	-0.283	-0.066
-436.734	525.949	-0.145	-0.338
-435.719	204.855	0.050	0.077
-434.705	115.420	0.029	0.035
-433.690	-23.729	-0.295	-0.175
-432.676	181.211	-0.087	-0.128
-431.661	144.591	0.048	-0.064
-430.646	10.383	0.150	-0.113
-429.632	178.519	-0.129	-0.186
-428.617	89.410	-0.106	-0.118
-427.603	-158.019	0.083	-0.005
-426.588	-200.000	-0.006	-0.058
-425.573	-170.892	0.120	0.004
-424.559	-19.164	-0.243	0.150
-423.544	20.892	0.097	-0.078
-422.530	-8.419	0.133	0.089
-421.515	354.813	-0.082	-0.161
-420.500	-78.704	0.169	-0.057
-419.486	-200.000	-0.048	0.439
-418.471	-8.787	0.064	-0.043
-417.457	226.070	-0.090	-0.145
-416.442	-200.000	0.090	-0.434
-415.428	-9.585	0.089	-0.059
-414.413	-145.682	0.409	-0.036
-413.398	-147.473	0.134	-0.011
-412.384	800.000	0.082	-0.265
-411.369	-67.395	0.135	0.052
-410.355	-71.261	-0.250	0.093
-409.340	-89.468	0.181	0.053
-408.325	187.833	-0.168	-0.249
-407.311	-104.641	0.067	-0.015
-406.296	187.243	0.169	-0.250
-405.282	41.376	-0.337	-0.302
-404.267	13.213	-0.125	-0.096
-403.252	-57.445	0.247	0.107
-402.238	-200.000	0.014	-0.354
-401.223	9.990	0.060	-0.046
-400.209	800.000	-0.096	0.386
-399.194	-200.000	-0.024	-0.207
-398.179	119.386	-0.107	0.131
-397.165	-162.753	0.206	0.010
-396.150	-200.000	-0.002	0.126
-395.136	-69.582	0.183	0.069
-394.121	-37.662	0.164	-0.087
-393.106	435.073	0.062	0.134
-392.092	-200.000	-0.008	-0.042
-391.077	-85.692	0.100	0.031
-390.063	-200.000	-0.011	-0.063
-389.048	-86.569	-0.061	0.018
-388.033	442.521	-0.123	0.268
-387.019	495.201	-0.102	0.231
-386.004	-200.000	-0.026	0.206
-384.990	-74.944	-0.189	-0.067
-383.975	302.403	0.021	-0.038
-382.960	110.498	0.077	-0.092
-381.946	100.541	-0.047	0.054
-380.931	157.580	0.207	-0.284
-379.917	-200.000	-0.057	-0.377
-378.902	138.364	-0.057	-0.074
-377.888	-200.000	0.034	0.297
-376.873	104.044	-0.033	-0.038
-375.858	-36.659	0.047	0.025
-374.844	149.157	-0.246	-0.329
-373.829	93.153	0.181	0.202
-372.815	388.657	-0.056	-0.114
-371.800	-51.747	0.351	-0.162
-370.785	71.184	-0.113	-0.116
-369.771	19.702	-0.237	0.189
-368.756	-40.768	0.280	0.143
-367.742	-17.967	-0.240	0.149
-366.727	182.423	-0.164	-0.239
-365.712	696.852	-0.030	-0.077
-364.698	800.000	0.088	0.258
-363.683	-19.715	-0.231	0.142
-362.669	-39.825	0.153	-0.079
-361.654	635.292	-0.158	0.397
-360.639	800.000	-0.019	0.069
-359.625	800.000	0.083	0.233
-358.610	-125.942	-0.068	-0.010
-357.596	-95.250	-0.195	-0.052
-356.581	244.247	-0.079	0.131
-355.566	40.409	0.166	-0.148
-354.552	-200.000	-0.019	-0.162
-353.537	-150.506	-0.135	-0.010
-352.523	-4.205	0.153	-0.105
-351.508	-200.000	-0.036	0.341
-350.493	156.860	0.078	0.107
-349.479	-32.829	0.161	0.088
-348.464	699.629	0.033	-0.086
-347.450	-128.717	-0.374	-0.052
-346.435	-200.000	0.006	-0.073
-345.420	620.556	0.081	0.200
-344.406	-77.348	-0.070	0.024
-343.391	300.998	-0.264	-0.482
-342.377	289.905	-0.169	0.303
-341.362	-97.796	0.214	-0.055
-340.348	213.167	-0.127	-0.199
-339.333	-200.000	-0.006	0.026
-338.318	330.915	0.057	0.108
-337.304	552.132	0.074	-0.176
-336.289	-158.963	-0.065	0.004
-335.275	708.095	-0.164	0.430
-334.260	2.181	0.060	0.043
-333.245	-128.038	-0.260	0.037
-332.231	513.986	-0.034	-0.079
-331.216	483.286	0.219	0.493
-330.202	30.707	0.202	0.171
-329.187	-72.093	0.340	-0.125
-328.172	32.446	0.241	0.206
-327.158	-200.000	-0.007	-0.095
-326.143	-73.862	-0.126	-0.045
-325.129	-41.703	0.166	0.084
-324.114	333.125	-0.108	-0.205
-323.099	-36.238	0.052	0.028
-322.085	336.473	0.060	-0.115
-321.070	-82.099	-0.095	0.030
-320.056	-200.000	-0.003	0.035
-319.041	172.985	0.157	0.223
-318.026	349.098	0.139	0.272
-317.012	-200.000	-0.003	0.153
-315.997	139.739	-0.277	-0.360
-314.983	-66.967	0.389	-0.152
-313.968	-26.046	-0.142	0.083
-312.953	-104.917	0.198	-0.045
-311.939	35.003	-0.311	-0.269
-310.924	-200.000	0.025	-0.160
-309.910	16.290	-0.147	0.114
-308.895	800.000	-0.142	0.464
-307.880	-145.266	0.195	0.017
-306.866	-200.000	0.052	-0.275
-305.851	-105.303	-0.279	0.063
-304.837	-80.738	-0.104	0.034
-303.822	-157.319	-0.071	-0.004
-302.807	171.168	-0.081	0.115
-301.793	301.710	0.154	0.281
-300.778	-200.000	-0.037	0.214
-299.764	-104.095	0.037	-0.008
-298.749	361.604	0.047	-0.094
-297.735	178.990	-0.051	0.073
-296.720	-16.507	0.162	0.101
-295.705	15.258	-0.083	-0.065
-294.691	334.157	0.072	-0.138
-293.676	204.136	-0.133	-0.203
-292.662	800.000	0.044	-0.127
-291.647	-167.860	-0.285	0.011
-290.632	10.147	0.223	0.168
-289.618	-55.056	0.018	-0.008
-288.603	-35.047	0.095	-0.051
-287.589	-200.000	-0.034	-0.172
-286.574	203.563	-0.054	-0.082
-285.559	-15.853	-0.084	-0.053
-284.545	264.024	0.093	-0.160
-283.530	272.838	-0.138	-0.240
-282.516	-200.000	-0.005	-0.213
-281.501	229.444	-0.147	-0.237
-280.486	26.071	0.333	-0.274
-279.472	37.050	-0.102	-0.089
-278.457	-162.993	-0.077	-0.004
-277.443	285.460	0.170	0.303
-276.428	-15.145	-0.126	0.079
-275.413	-48.303	-0.211	0.100
-274.399	532.486	-0.063	0.146
-273.384	214.002	0.169	-0.264
-272.370	-55.297	-0.112	0.050
-271.355	-125.724	-0.338	-0.050
-270.340	-147.211	0.311	-0.026
-269.326	-200.000	0.003	0.277
-268.311	30.929	0.236	-0.199
-267.297	-22.086	-0.131	0.079
-266.282	14.445	-0.140	-0.108
-265.267	21.487	0.140	-0.112
-264.253	474.676	-0.131	0.291
-263.238	31.948	0.121	0.103
-262.224	217.328	0.060	0.094
-261.209	-200.000	0.004	0.094
-260.195	-21.769	-0.089	-0.053
-259.180	-37.505	0.131	0.069
-258.165	-16.440	-0.102	-0.064
-257.151	229.439	0.211	-0.339
-256.136	-89.115	0.183	0.053
-255.122	-0.138	0.153	0.107
-254.107	-133.778	0.115	0.014
-253.092	143.745	0.115	0.151
-252.078	-110.687	0.524	-0.107
-251.063	-127.666	-0.263	-0.038
-250.049	-186.429	0.113	-0.002
-249.034	-64.944	0.172	0.069
-248.019	46.162	-0.137	-0.125
-247.005	-200.000	-0.031	0.370
-245.990	-120.447	0.141	-0.024
-244.976	-20.933	-0.213	0.129
-243.961	33.240	0.088	0.075
-242.946	-200.000	0.088	0.423
-241.932	569.367	-0.037	0.088
-240.917	-49.294	0.105	-0.049
-239.903	169.001	0.135	0.190
-238.888	-200.000	-0.010	0.059
-237.873	-200.000	0.017	0.106
-236.859	51.673	0.146	-0.137
-235.844	-33.915	0.202	0.109
-234.830	-11.231	-0.185	0.120
-233.815	21.174	0.197	0.157
-232.800	-23.829	0.113	0.067
-231.786	26.778	-0.289	0.239
-230.771	15.470	-0.137	-0.106
-229.757	-173.013	-0.099	0.003
-228.742	256.277	0.116	-0.195
-227.727	406.656	-0.130	0.271
-226.713	248.377	0.065	0.109
-225.698	241.537	-0.122	0.201
-224.684	527.556	-0.072	0.167
-223.669	-200.000	0.004	0.128
-222.655	397.688	-0.119	0.244
-221.640	36.108	0.281	0.244
-220.625	-11.352	-0.228	0.148
-219.611	-195.576	-0.139	-0.001
-218.596	800.000	0.065	0.219
-217.582	-200.000	-0.002	-0.104
-216.567	-137.698	0.291	-0.032
-215.552	-144.191	-0.081	0.007
-214.538	-128.547	-0.054	0.007
-213.523	-57.648	0.098	0.042
-212.509	358.929	-0.168	0.331
-211.494	-200.000	-0.039	-0.322
-210.479	-89.792	-0.077	0.022
-209.465	-191.333	0.115	-0.001
-208.450	-45.313	0.141	0.069
-207.436	-42.449	-0.138	0.069
-206.421	-18.764	0.042	0.026
-205.406	-27.932	-0.205	0.117
-204.392	800.000	0.077	-0.294
-203.377	30.849	0.029	0.025
-202.363	430.854	-0.151	0.321
-201.348	-62.751	0.522	0.213
-200.333	328.868	0.201	-0.381
-199.319	-200.000	-0.009	0.145
-198.304	183.042	0.112	0.163
-197.290	656.551	-0.168	0.425
-196.275	70.809	0.069	-0.070
-195.260	1.792	-0.235	-0.166
-194.246	74.823	-0.255	0.264
-193.231	-107.613	0.498	0.107
-192.217	-141.656	0.372	-0.037
-191.202	417.686	0.123	-0.257
-190.187	-56.788	-0.113	0.049
-189.173	-137.852	-0.150	0.017
-188.158	-42.395	-0.175	0.088
-187.144	-85.852	-0.341	-0.104
-186.129	800.000	-0.008	0.026
-185.114	-19.499	0.096	-0.058
-184.100	800.000	-0.111	0.303
-183.085	-105.989	-0.206	-0.046
-182.071	7.667	0.131	0.097
-181.056	-37.890	-0.256	0.134
-180.042	-62.762	0.272	-0.111
-179.027	-175.947	-0.090	-0.002
-178.012	492.505	-0.030	-0.067
-176.998	-39.651	-0.403	0.207
-175.983	-117.107	0.143	-0.026
-174.969	-135.577	0.292	0.034
-173.954	-111.388	0.069	0.014
-172.939	1.875	0.093	0.066
-171.925	800.000	0.043	0.134
-170.910	-44.991	-0.250	-0.122
-169.896	452.409	0.161	-0.350
-168.881	-78.726	0.041	0.014
-167.866	-143.559	0.220	0.021
-166.852	144.033	0.091	-0.119
-165.837	-107.974	0.169	-0.036
-164.823	-200.000	-0.034	-0.199
-163.808	-200.000	0.048	0.244
-162.793	52.693	0.207	-0.195
-161.779	-200.000	-0.000	-0.094
-160.764	-200.000	0.053	0.287
-159.750	1.290	0.152	-0.107
-158.735	-200.000	0.017	-0.109
-157.720	-200.000	0.019	-0.241
-156.706	6.134	-0.039	-0.028
-155.691	298.057	0.056	0.100
-154.677	-65.603	0.353	0.139
-153.662	-172.737	-0.356	-0.011
-152.647	-28.146	0.115	0.065
-151.633	154.533	-0.156	0.210
-150.618	156.348	0.238	0.322
-149.604	-15.803	0.094	-0.059
-148.589	-200.000	0.021	0.322
-147.574	-67.774	0.182	0.070
-146.560	-160.754	0.162	-0.008
-145.545	19.488	0.196	0.155
-144.531	-102.727	0.186	0.043
-143.516	-186.497	0.388	-0.005
-142.502	-11.452	-0.169	0.109
-141.487	-36.588	0.122	0.065
-140.472	-200.000	-0.031	-0.159
-139.458	163.062	-0.194	0.268
-138.443	-200.000	-0.038	-0.377
-137.429	67.529	0.125	-0.125
-136.414	-46.366	0.359	0.173
-135.399	150.213	0.215	-0.286
-134.385	324.710	0.031	0.058
-133.370	-138.792	0.189	0.020
-132.356	279.843	0.111	-0.194
-131.341	-172.307	0.234	0.007
-130.326	800.000	-0.112	-0.309
-129.312	800.000	-0.061	0.170
-128.297	392.214	0.153	0.311
-127.283	-200.000	-0.069	0.306
-126.268	296.429	-0.130	-0.233
-125.253	-61.824	0.237	0.097
-124.239	133.792	-0.144	-0.183
-123.224	-69.165	-0.166	-0.063
-122.210	-130.306	0.121	0.016
-121.195	-13.272	-0.184	0.117
