DTS Sentinel unit serial number:	SN413079Multiplexer serial number:	ORYXHardware model number:	OX4-SRSoftware version number:	ORYX F/W v4.00 Oryx Data Collector v3.7.2.0data status	okinstallation	princeton_trtdifferential loss correction	single-endedforward channel	channel 1reverse channel	N/Adate	2019/09/14time	17:54:35forward acquisition time	60.00reverse acquisition time	0.00gamma	496.2192k internal	0.2298k external	0.2298temperature offset calibration	1.0043default loss term (dB/km)	0.3790temperature slope calibration	1.0000multiplexer offset coefficient	1.0000multiplexer slope coefficient	1.0000fibre end	0.00T internal ref (°C)	37.41T ext. ref 1 (°C)	4.99T ext. ref 2 (°C)	32.15length (m)	temperature (°C)	Stokes	anti-Stokes-747.200	-128.636	0.230	0.033
-746.185	800.000	-0.045	0.163
-745.171	729.064	-0.027	-0.074
-744.156	-112.805	0.226	0.046
-743.142	-184.708	0.059	-0.001
-742.127	-73.699	0.200	-0.074
-741.112	-97.785	-0.265	-0.070
-740.098	-148.222	0.201	0.017
-739.083	-31.209	0.110	-0.063
-738.069	405.444	-0.208	0.447
-737.054	-70.264	0.077	0.030
-736.039	-141.618	-0.240	0.025
-735.025	-91.797	0.282	0.082
-734.010	14.272	-0.141	0.112
-732.996	102.189	-0.111	-0.133
-731.981	800.000	0.026	0.085
-730.966	177.977	-0.182	0.271
-729.952	-97.732	0.114	0.030
-728.937	135.114	0.108	0.143
-727.923	388.411	-0.120	0.254
-726.908	-27.458	0.064	0.038
-725.894	326.932	0.126	0.246
-724.879	-200.000	0.031	0.392
-723.864	800.000	0.120	-0.497
-722.850	360.578	0.120	-0.246
-721.835	130.581	0.167	-0.218
-720.821	-82.558	0.113	0.037
-719.806	-148.749	0.150	-0.012
-718.791	-114.298	0.329	0.065
-717.777	77.837	-0.224	0.244
-716.762	48.634	-0.327	0.313
-715.748	732.743	0.077	0.210
-714.733	716.361	-0.069	0.188
-713.718	127.577	-0.295	0.382
-712.704	156.261	0.075	-0.106
-711.689	800.000	-0.052	-0.159
-710.675	-54.249	0.224	-0.104
-709.660	-180.137	0.284	0.006
-708.645	108.077	0.090	0.110
-707.631	72.340	0.103	0.109
-706.616	-80.185	-0.185	-0.063
-705.602	144.694	-0.051	0.069
-704.587	800.000	-0.129	0.431
-703.572	-95.729	-0.107	0.029
-702.558	100.446	-0.074	-0.088
-701.543	800.000	0.058	-0.231
-700.529	-149.509	0.319	-0.026
-699.514	-52.712	-0.370	0.174
-698.499	243.879	-0.185	0.317
-697.485	26.900	-0.214	-0.183
-696.470	-200.000	-0.044	-0.232
-695.456	-14.930	0.434	0.283
-694.441	-125.281	-0.248	-0.039
-693.426	-21.328	-0.291	0.181
-692.412	-108.203	-0.067	0.015
-691.397	-4.913	-0.315	-0.221
-690.383	800.000	-0.061	-0.269
-689.368	-54.117	-0.312	-0.144
-688.354	-200.000	0.013	0.117
-687.339	-63.348	0.046	0.019
-686.324	-27.889	-0.206	-0.122
-685.310	-55.214	-0.116	0.053
-684.295	800.000	0.122	0.343
-683.281	148.178	-0.140	-0.192
-682.266	-200.000	0.019	0.110
-681.251	16.986	-0.034	0.028
-680.237	-61.194	0.149	0.064
-679.222	-88.066	-0.163	-0.050
-678.208	-33.417	0.184	-0.104
-677.193	65.245	-0.110	-0.113
-676.178	18.783	-0.377	-0.307
-675.164	-200.000	0.006	-0.053
-674.149	746.626	0.018	0.050
-673.135	-17.746	-0.060	-0.038
-672.120	79.135	-0.065	-0.071
-671.105	239.458	-0.123	-0.209
-670.091	-153.023	-0.299	-0.021
-669.076	-140.798	-0.345	-0.036
-668.062	-176.695	0.231	0.006
-667.047	-131.351	-0.419	-0.056
-666.032	-79.649	-0.135	0.046
-665.018	-94.107	0.140	-0.039
-664.003	-186.607	0.345	-0.005
-662.989	39.868	0.093	0.085
-661.974	257.472	0.120	-0.211
-660.959	-91.420	-0.263	-0.076
-659.945	23.404	-0.046	-0.039
-658.930	597.529	0.073	0.183
-657.916	-200.000	0.000	-0.209
-656.901	41.671	-0.091	0.084
-655.886	-162.482	-0.382	-0.019
-654.872	-68.076	-0.265	0.105
-653.857	-84.251	-0.180	-0.058
-652.843	18.228	-0.167	-0.135
-651.828	115.577	-0.287	0.357
-650.814	-173.962	-0.164	0.005
-649.799	422.027	-0.176	0.384
-648.784	57.462	0.181	0.179
-647.770	-108.049	-0.292	-0.064
-646.755	68.809	0.212	0.222
-645.741	82.504	-0.046	-0.050
-644.726	19.171	-0.293	-0.239
-643.711	172.921	-0.084	-0.123
-642.697	190.969	-0.086	0.132
-641.682	121.472	-0.157	-0.199
-640.668	55.229	0.151	-0.149
-639.653	600.499	0.090	-0.227
-638.638	800.000	-0.021	-0.090
-637.624	-94.262	0.248	-0.069
-636.609	-50.817	-0.462	-0.221
-635.595	42.219	0.099	-0.091
-634.580	258.957	0.052	-0.091
-633.565	-172.711	0.268	-0.009
-632.551	25.914	0.141	0.120
-631.536	189.965	0.075	-0.114
-630.522	-28.688	0.119	-0.069
-629.507	-139.622	-0.242	0.026
-628.492	800.000	-0.046	0.156
-627.478	-3.586	0.090	0.064
-626.463	-51.620	0.117	0.055
-625.449	-200.000	0.046	0.264
-624.434	28.704	-0.223	0.192
-623.419	-90.588	0.204	-0.060
-622.405	83.193	-0.171	-0.189
-621.390	-200.000	-0.003	0.046
-620.376	-200.000	-0.067	0.299
-619.361	-125.100	0.199	0.031
-618.346	800.000	0.019	-0.070
-617.332	252.477	-0.119	0.207
-616.317	-200.000	0.001	-0.049
-615.303	-174.857	0.159	0.005
-614.288	-93.785	-0.141	-0.039
-613.273	176.623	-0.186	-0.275
-612.259	-126.700	-0.312	-0.047
-611.244	-200.000	-0.001	-0.035
-610.230	340.415	0.091	0.180
-609.215	7.171	-0.093	0.070
-608.201	-30.936	0.078	0.045
-607.186	45.834	-0.154	0.144
-606.171	-200.000	0.010	-0.103
-605.157	-47.748	0.053	-0.026
-604.142	-200.000	0.001	-0.146
-603.128	800.000	0.039	-0.158
-602.113	-110.418	-0.159	0.033
-601.098	-41.496	0.218	-0.114
-600.084	-200.000	0.008	0.255
-599.069	-13.431	0.285	0.187
-598.055	-91.532	0.091	0.026
-597.040	84.308	-0.073	0.081
-596.025	-79.974	0.301	-0.103
-595.011	697.886	0.084	0.224
-593.996	384.532	-0.098	-0.204
-592.982	-138.373	0.180	0.020
-591.967	-25.404	0.087	-0.052
-590.952	109.993	0.137	0.167
-589.938	-156.522	0.050	0.003
-588.923	183.749	0.242	-0.363
-587.909	-139.112	0.299	0.033
-586.894	-47.684	-0.386	-0.190
-585.879	87.699	0.103	0.116
-584.865	-43.404	0.184	0.094
-583.850	-109.627	0.133	0.028
-582.836	-68.800	-0.084	0.033
-581.821	233.682	0.146	-0.244
-580.806	0.692	-0.135	0.098
-579.792	-200.000	-0.015	0.135
-578.777	800.000	-0.043	0.153
-577.763	-140.601	-0.377	-0.040
-576.748	588.221	-0.176	0.441
-575.733	351.635	0.138	-0.277
-574.719	167.586	-0.078	0.113
-573.704	-157.252	0.083	0.005
-572.690	-90.110	-0.157	-0.046
-571.675	207.400	0.124	0.196
-570.661	-200.000	-0.021	-0.150
-569.646	124.538	-0.085	-0.108
-568.631	-97.488	-0.048	0.013
-567.617	-84.826	-0.193	-0.062
-566.602	-47.769	0.229	-0.112
-565.588	64.132	-0.176	-0.180
-564.573	285.031	0.087	0.158
-563.558	-60.716	0.375	-0.161
-562.544	-118.350	-0.038	-0.007
-561.529	-59.627	-0.021	0.009
-560.515	98.246	0.051	-0.060
-559.500	-200.000	0.028	-0.136
-558.485	-200.000	0.034	-0.342
-557.471	704.494	0.154	-0.412
-556.456	153.446	0.210	0.291
-555.442	-200.000	0.057	0.415
-554.427	-93.666	-0.187	-0.052
-553.412	-152.242	0.154	-0.011
-552.398	-200.000	-0.027	0.133
-551.383	174.424	0.088	-0.129
-550.369	-129.210	0.370	-0.052
-549.354	-200.000	0.035	-0.270
-548.339	62.171	-0.152	0.154
-547.325	-46.721	0.289	-0.143
-546.310	23.257	0.135	-0.113
-545.296	-90.423	-0.240	0.071
-544.281	-64.880	0.249	-0.102
-543.266	-51.611	-0.155	-0.073
-542.252	55.520	0.161	-0.158
-541.237	-67.860	-0.200	-0.079
-540.223	214.234	0.047	0.075
-539.208	-31.066	0.081	0.047
-538.193	405.877	-0.148	0.317
-537.179	174.694	-0.195	-0.285
-536.164	-17.403	0.121	0.077
-535.150	800.000	-0.092	-0.370
-534.135	-200.000	0.024	-0.184
-533.121	289.759	0.059	-0.108
-532.106	655.108	0.112	-0.291
-531.091	-112.235	0.230	-0.047
-530.077	-200.000	-0.013	0.269
-529.062	-110.733	-0.208	0.043
-528.048	-200.000	0.048	-0.282
-527.033	-60.578	0.114	0.049
-526.018	-0.548	-0.502	-0.360
-525.004	-200.000	0.028	0.145
-523.989	151.853	-0.043	0.059
-522.975	23.411	-0.055	-0.046
-521.960	124.032	-0.153	-0.195
-520.945	-83.138	-0.451	0.147
-519.931	49.222	-0.348	0.331
-518.916	-132.518	-0.203	0.026
-517.902	24.565	-0.215	-0.180
-516.887	59.643	0.153	0.153
-515.872	-15.062	0.103	0.067
-514.858	-17.518	-0.303	0.193
-513.843	-39.621	-0.142	0.075
-512.829	173.306	0.120	0.176
-511.814	-160.716	-0.142	-0.008
-510.799	-200.000	0.005	0.122
-509.785	-118.183	0.273	-0.049
-508.770	-181.972	-0.262	-0.005
-507.756	800.000	-0.057	0.160
-506.741	800.000	-0.087	-0.314
-505.726	-93.006	-0.211	-0.060
-504.712	-44.013	-0.265	0.135
-503.697	800.000	-0.121	0.441
-502.683	127.114	0.156	0.200
-501.668	-169.896	-0.301	-0.011
-500.653	287.097	0.152	0.278
-499.639	-200.000	0.068	0.633
-498.624	158.318	0.176	0.247
-497.610	-7.740	-0.119	-0.081
-496.595	-179.169	-0.276	-0.006
-495.581	87.862	0.152	0.170
-494.566	-16.384	0.163	-0.105
-493.551	112.264	0.160	0.196
-492.537	-0.533	-0.139	0.100
-491.522	41.285	-0.173	0.158
-490.508	-200.000	0.022	0.123
-489.493	-27.113	0.302	-0.178
-488.478	38.552	-0.129	0.116
-487.464	361.070	-0.197	0.399
-486.449	142.817	0.067	-0.089
-485.435	186.561	0.168	-0.252
-484.420	-99.024	-0.296	-0.076
-483.405	-200.000	-0.022	0.254
-482.391	23.880	-0.125	-0.105
-481.376	67.705	0.146	0.151
-480.362	-86.862	0.051	0.016
-479.347	317.493	0.221	0.422
-478.332	-19.881	0.253	0.158
-477.318	-19.116	-0.171	-0.107
-476.303	119.966	-0.064	0.080
-475.289	-16.132	-0.154	0.099
-474.274	49.857	-0.071	0.068
-473.259	-200.000	0.019	-0.283
-472.245	105.794	-0.101	-0.120
-471.230	51.209	-0.304	-0.292
-470.216	72.116	-0.095	-0.100
-469.201	230.163	-0.125	-0.207
-468.186	-11.608	0.258	-0.171
-467.172	306.584	-0.034	-0.064
-466.157	-104.315	0.264	-0.062
-465.143	-114.744	-0.140	-0.027
-464.128	-200.000	0.000	0.242
-463.113	-200.000	0.010	0.214
-462.099	190.048	-0.231	0.350
-461.084	266.236	-0.080	0.141
-460.070	800.000	0.022	-0.086
-459.055	779.661	0.054	0.149
-458.040	-78.472	0.137	-0.048
-457.026	-200.000	0.057	0.256
-456.011	-60.875	-0.156	-0.067
-454.997	60.564	-0.082	-0.082
-453.982	101.327	-0.102	-0.120
-452.968	-103.560	0.238	-0.056
-451.953	800.000	-0.108	-0.321
-450.938	-200.000	0.038	-0.308
-449.924	-88.533	-0.263	0.079
-448.909	694.351	-0.057	0.151
-447.895	655.750	0.046	0.120
-446.880	-200.000	0.017	-0.302
-445.865	40.059	-0.122	0.111
-444.851	30.937	-0.139	0.121
-443.836	97.352	0.220	0.255
-442.822	-200.000	-0.002	0.016
-441.807	-69.776	0.235	-0.090
-440.792	-84.572	0.275	-0.087
-439.778	-88.654	0.195	-0.058
-438.763	86.026	0.076	0.084
-437.749	800.000	-0.076	-0.336
-436.734	-200.000	-0.033	-0.175
-435.719	-78.070	-0.311	-0.108
-434.705	-200.000	0.008	0.078
-433.690	-44.215	-0.200	-0.101
-432.676	514.772	-0.037	-0.087
-431.661	262.750	-0.189	0.330
-430.646	351.684	0.121	0.242
-429.632	-124.693	-0.073	0.011
-428.617	-141.401	-0.396	-0.040
-427.603	800.000	-0.084	-0.359
-426.588	7.420	-0.191	0.144
-425.573	-72.373	-0.215	0.080
-424.559	258.424	0.086	-0.149
-423.544	-171.513	0.147	0.005
-422.530	511.379	0.056	-0.132
-421.515	-134.685	-0.237	0.029
-420.500	-38.802	-0.156	-0.083
-419.486	207.483	-0.034	0.053
-418.471	800.000	0.010	-0.035
-417.457	64.215	-0.091	-0.092
-416.442	-44.276	-0.064	0.032
-415.428	800.000	0.082	-0.255
-414.413	-200.000	-0.006	-0.135
-413.398	40.082	0.182	-0.164
-412.384	-8.899	-0.123	-0.083
-411.369	41.399	0.327	-0.298
-410.355	315.692	-0.311	-0.592
-409.340	-149.543	-0.082	0.007
-408.325	-3.150	0.025	-0.018
-407.311	-151.031	0.133	-0.010
-406.296	94.283	0.058	-0.066
-405.282	800.000	0.017	-0.067
-404.267	800.000	-0.054	0.175
-403.252	-75.682	0.231	-0.083
-402.238	469.392	0.100	-0.227
-401.223	320.803	0.082	-0.156
-400.209	292.820	0.106	-0.194
-399.194	56.358	-0.118	0.116
-398.179	-84.193	-0.167	-0.053
-397.165	-4.692	-0.270	-0.188
-396.150	800.000	0.043	0.135
-395.136	528.674	-0.090	0.215
-394.121	-131.897	-0.214	-0.028
-393.106	-200.000	0.008	-0.127
-392.092	765.115	0.084	-0.229
-391.077	-159.202	0.034	0.002
-390.063	76.187	-0.099	-0.106
-389.048	91.286	-0.169	0.191
-388.033	-107.703	0.378	-0.083
-387.019	-51.988	-0.297	0.139
-386.004	559.434	-0.096	-0.233
-384.990	605.874	-0.099	-0.248
-383.975	620.833	-0.131	0.332
-382.960	379.037	-0.017	-0.035
-381.946	48.282	0.230	-0.217
-380.931	339.826	0.140	0.274
-379.917	-16.468	-0.330	-0.211
-378.902	-82.612	0.100	0.033
-377.888	280.287	0.236	-0.424
-376.873	15.600	-0.148	0.117
-375.858	134.497	0.084	-0.109
-374.844	163.247	-0.048	0.068
-373.829	622.675	0.066	0.166
-372.815	270.494	-0.158	0.279
-371.800	-112.430	0.328	0.066
-370.785	-119.543	0.184	0.032
-369.771	-200.000	-0.023	-0.268
-368.756	-101.915	-0.066	0.016
-367.742	-200.000	0.013	-0.185
-366.727	-200.000	-0.275	0.000
-365.712	-85.247	-0.340	0.107
-364.698	111.807	0.121	0.146
-363.683	-7.156	-0.185	-0.126
-362.669	137.519	-0.097	-0.128
-361.654	346.178	-0.044	-0.087
-360.639	219.724	-0.142	-0.229
-359.625	50.996	-0.124	0.118
-358.610	-4.776	-0.152	-0.106
-357.596	-116.845	0.118	0.022
-356.581	-2.988	0.134	0.094
-355.566	17.517	-0.220	0.175
-354.552	-200.000	-0.021	0.363
-353.537	800.000	-0.099	-0.299
-352.523	-123.752	0.039	0.006
-351.508	-126.593	-0.292	0.044
-350.493	-65.021	0.147	0.060
-349.479	115.226	0.138	-0.169
-348.464	-36.765	-0.123	-0.066
-347.450	-79.441	-0.293	-0.099
-346.435	118.026	-0.154	0.191
-345.420	-200.000	0.008	0.043
-344.406	503.172	-0.096	-0.224
-343.391	-169.582	0.222	0.008
-342.377	800.000	0.097	0.327
-341.362	-200.000	0.014	-0.089
-340.348	-110.238	-0.270	-0.057
-339.333	-109.999	-0.080	-0.017
-338.318	-98.354	-0.066	-0.017
-337.304	89.585	0.142	0.160
-336.289	-67.439	0.252	0.099
-335.275	-144.434	-0.285	0.027
-334.260	-95.671	0.197	0.053
-333.245	-200.000	-0.014	0.151
-332.231	12.177	-0.221	0.171
-331.216	800.000	0.071	0.219
-330.202	22.749	-0.117	-0.096
-329.187	-102.058	0.180	0.044
-328.172	646.328	0.075	-0.193
-327.158	-71.827	-0.066	-0.025
-326.143	346.813	-0.076	-0.151
-325.129	-65.333	-0.155	0.063
-324.114	-3.058	0.134	0.094
-323.099	-26.247	0.098	-0.058
-322.085	758.861	0.025	0.068
-321.070	-200.000	0.061	0.327
-320.056	13.607	-0.245	0.191
-319.041	-47.149	0.232	-0.114
-318.026	19.315	-0.329	-0.265
-317.012	61.819	0.164	-0.164
-315.997	60.359	-0.346	-0.344
-314.983	-130.552	-0.368	0.050
-313.968	-19.199	-0.039	0.025
-312.953	13.658	0.176	-0.137
-311.939	-97.769	0.178	0.046
-310.924	-72.367	0.204	-0.076
-309.910	800.000	0.040	0.119
-308.895	-200.000	0.080	0.414
-307.880	-200.000	0.016	0.149
-306.866	-200.000	0.289	-0.001
-305.851	-34.325	0.159	0.088
-304.837	800.000	0.022	-0.091
-303.822	-60.174	0.317	0.135
-302.807	-89.412	-0.085	-0.025
-301.793	-200.000	-0.035	0.199
-300.778	-200.000	-0.005	0.183
-299.764	-182.615	0.348	-0.006
-298.749	120.311	-0.271	-0.338
-297.735	357.431	0.134	0.269
-296.720	-200.000	0.052	-0.287
-295.705	149.592	0.114	0.155
-294.691	358.553	0.224	0.449
-293.676	-98.807	0.218	0.056
-292.662	-17.049	0.132	-0.084
-291.647	-40.172	-0.201	0.105
-290.632	-29.134	-0.035	-0.020
-289.618	-200.000	0.004	0.094
-288.603	-94.190	-0.394	0.108
-287.589	568.193	-0.074	0.180
-286.574	-148.263	0.269	-0.022
-285.559	-108.908	0.246	-0.053
-284.545	-96.182	0.066	-0.017
-283.530	-63.047	0.122	0.050
-282.516	-22.089	-0.139	-0.085
-281.501	800.000	-0.050	0.181
-280.486	-5.929	0.251	0.172
-279.472	178.375	0.124	-0.181
-278.457	-200.000	-0.038	0.415
-277.443	42.328	0.295	-0.268
-276.428	-115.423	0.250	0.047
-275.413	-29.726	-0.215	0.123
-274.399	39.163	0.067	-0.061
-273.384	-200.000	0.062	-0.330
-272.370	-155.553	0.305	0.020
-271.355	329.957	-0.231	-0.446
-270.340	800.000	-0.061	-0.200
-269.326	-123.909	0.122	-0.019
-268.311	129.984	-0.059	-0.076
-267.297	800.000	0.119	-0.377
-266.282	-200.000	-0.012	-0.256
-265.267	800.000	0.169	0.482
-264.253	800.000	-0.036	0.121
-263.238	-89.310	0.253	-0.075
-262.224	800.000	0.012	-0.053
-261.209	-61.889	0.202	-0.085
-260.195	-169.868	0.180	0.006
-259.180	-178.734	-0.239	-0.005
-258.165	97.213	-0.196	-0.225
-257.151	-70.033	-0.119	-0.045
-256.136	-123.853	0.456	0.072
-255.122	-27.300	0.272	-0.159
-254.107	-123.818	-0.221	-0.035
-253.092	599.703	-0.099	0.245
-252.078	-101.393	0.310	0.076
-251.063	-200.000	-0.003	0.074
-250.049	678.385	-0.131	0.341
-249.034	98.954	0.256	0.296
-248.019	-200.000	-0.044	0.281
-247.005	800.000	0.102	0.336
-245.990	308.420	-0.153	-0.285
-244.976	800.000	0.023	0.079
-243.961	588.940	0.018	0.045
-242.946	242.703	-0.256	-0.430
-241.932	-137.106	-0.235	0.027
-240.917	7.218	0.231	0.172
-239.903	-200.000	0.030	0.448
-238.888	312.025	0.063	-0.117
-237.873	-5.151	0.099	0.068
-236.859	-117.484	-0.120	-0.022
-235.844	-109.403	0.156	-0.033
-234.830	505.193	0.134	-0.311
-233.815	88.800	0.160	-0.178
-232.800	-172.526	0.329	0.010
-231.786	349.059	-0.182	0.359
-230.771	-36.328	-0.016	-0.009
-229.757	121.225	-0.078	-0.097
-228.742	800.000	-0.017	0.067
-227.727	235.035	0.057	-0.094
-226.713	-20.574	0.036	0.022
-225.698	-103.631	-0.033	-0.008
-224.684	-108.924	0.346	-0.074
-223.669	7.011	0.175	0.130
-222.655	-200.000	-0.003	-0.103
-221.640	31.040	-0.153	0.132
-220.625	-200.000	-0.028	0.297
-219.611	-9.575	-0.055	-0.037
-218.596	-200.000	0.002	0.317
-217.582	421.754	-0.130	-0.279
-216.567	-151.652	0.280	0.021
-215.552	124.683	0.122	0.154
-214.538	-55.287	0.154	-0.069
-213.523	-200.000	-0.009	0.137
-212.509	-200.000	0.003	0.066
-211.494	-91.050	-0.149	-0.043
-210.479	393.551	-0.150	-0.312
-209.465	-200.000	0.013	-0.063
-208.450	599.810	-0.069	0.171
-207.436	295.296	-0.036	-0.066
-206.421	-61.151	-0.174	0.073
-205.406	-97.566	-0.268	-0.069
-204.392	-200.000	0.015	-0.166
-203.377	-80.323	0.270	-0.090
-202.363	-77.884	-0.194	-0.067
-201.348	-100.944	-0.014	-0.003
-200.333	16.910	-0.070	0.055
-199.319	117.430	-0.091	-0.111
-198.304	-200.000	-0.010	-0.111
-197.290	-200.000	0.030	0.140
-196.275	800.000	-0.052	-0.198
-195.260	-49.940	-0.239	-0.113
-194.246	137.190	-0.150	-0.196
-193.231	800.000	-0.028	0.110
-192.217	-136.859	0.154	-0.018
-191.202	-87.779	0.172	-0.052
-190.187	65.696	-0.224	0.226
-189.173	110.913	0.120	0.144
-188.158	183.316	-0.140	0.207
-187.144	-88.586	0.189	-0.056
-186.129	800.000	0.054	-0.186
-185.114	-8.570	0.211	0.141
-184.100	512.049	-0.169	0.392
-183.085	-78.724	-0.279	-0.095
-182.071	-46.197	0.230	-0.113
-181.056	312.664	-0.058	-0.109
-180.042	-200.000	-0.001	0.134
-179.027	-74.063	0.647	-0.234
-178.012	300.897	0.104	-0.191
-176.998	-138.927	-0.251	0.027
-175.983	-46.970	0.234	0.114
-174.969	32.760	0.206	0.178
-173.954	-12.485	0.126	0.082
-172.939	-131.319	-0.187	-0.025
-171.925	-80.284	0.142	0.047
-170.910	-92.248	-0.127	-0.036
-169.896	47.265	-0.289	-0.269
-168.881	-44.537	0.280	0.140
-167.866	240.121	0.156	-0.260
-166.852	-181.132	-0.265	-0.005
-165.837	-200.000	0.061	-0.365
-164.823	-140.287	0.248	0.026
-163.808	83.654	0.175	0.190
-162.793	-200.000	0.010	0.256
-161.779	-200.000	-0.010	0.264
-160.764	-200.000	0.050	0.238
-159.750	-200.000	0.021	0.171
-158.735	-15.540	-0.118	-0.075
-157.720	-123.279	0.172	-0.027
-156.706	-200.000	0.014	-0.375
-155.691	283.254	-0.126	-0.225
-154.677	227.464	0.082	-0.134
-153.662	67.644	-0.134	0.136
-152.647	-92.748	-0.127	-0.036
-151.633	-83.234	0.330	0.106
-150.618	800.000	0.134	0.424
-149.604	800.000	-0.048	0.203
-148.589	-200.000	-0.011	-0.448
-147.574	374.060	-0.041	0.083
-146.560	65.728	-0.042	0.043
-145.545	-200.000	0.033	0.235
-144.531	-124.713	0.021	0.003
-143.516	-124.718	0.288	-0.044
-142.502	-98.937	0.359	-0.091
-141.487	-72.308	-0.100	0.037
-140.472	-83.250	0.140	0.045
-139.458	-87.606	-0.179	-0.054
-138.443	-81.505	-0.167	-0.055
-137.429	23.413	-0.179	-0.147
-136.414	234.421	-0.159	0.262
-135.399	-63.871	0.112	0.046
-134.385	-18.207	-0.182	-0.113
-133.370	-95.956	0.217	0.058
-132.356	298.121	0.041	0.075
-131.341	-200.000	-0.044	0.231
-130.326	491.182	-0.058	0.132
-129.312	414.729	0.166	0.352
-128.297	-141.930	-0.068	0.007
-127.283	-87.880	0.078	0.023
-126.268	-200.000	-0.001	-0.237
-125.253	-200.000	0.007	0.034
-124.239	122.428	0.091	-0.114
-123.224	-200.000	0.003	0.123
-122.210	598.267	0.058	0.143
-121.195	800.000	0.032	0.091
