DTS Sentinel unit serial number:	SN413079Multiplexer serial number:	ORYXHardware model number:	OX4-SRSoftware version number:	ORYX F/W v4.00 Oryx Data Collector v3.7.2.0data status	okinstallation	princeton_trtdifferential loss correction	single-endedforward channel	channel 1reverse channel	N/Adate	2019/09/17time	19:02:35forward acquisition time	60.00reverse acquisition time	0.00gamma	496.2192k internal	0.2296k external	0.2296temperature offset calibration	0.9979default loss term (dB/km)	0.3790temperature slope calibration	1.0000multiplexer offset coefficient	1.0000multiplexer slope coefficient	1.0000fibre end	0.00T internal ref (°C)	40.36T ext. ref 1 (°C)	0.29T ext. ref 2 (°C)	28.72length (m)	temperature (°C)	Stokes	anti-Stokes-747.200	110.293	0.186	-0.228
-746.185	800.000	-0.033	0.103
-745.171	22.260	0.068	-0.057
-744.156	-200.000	0.025	-0.184
-743.142	-200.000	0.199	0.000
-742.127	7.241	-0.233	0.177
-741.112	-57.437	0.125	0.056
-740.098	44.508	-0.109	-0.103
-739.083	-58.004	-0.290	0.129
-738.069	800.000	0.068	0.238
-737.054	800.000	0.095	0.312
-736.039	-131.409	-0.400	0.054
-735.025	13.512	0.270	0.214
-734.010	800.000	0.090	-0.347
-732.996	216.290	-0.090	-0.146
-731.981	800.000	-0.037	0.133
-730.966	140.685	0.174	-0.234
-729.952	800.000	0.122	-0.348
-728.937	68.167	-0.178	0.186
-727.923	-82.635	0.088	0.029
-726.908	-200.000	0.012	-0.147
-725.894	-58.477	-0.217	-0.096
-724.879	-48.089	-0.254	-0.125
-723.864	141.315	0.257	-0.347
-722.850	-108.145	0.147	0.032
-721.835	283.520	0.127	-0.232
-720.821	800.000	-0.026	0.084
-719.806	-131.442	-0.495	-0.067
-718.791	112.497	-0.154	-0.191
-717.777	-200.000	0.018	0.175
-716.762	394.450	-0.109	0.231
-715.748	92.815	0.183	-0.211
-714.733	110.579	-0.124	-0.152
-713.718	-131.168	-0.293	0.040
-712.704	-63.664	-0.330	-0.138
-711.689	-147.098	-0.473	-0.041
-710.675	462.244	-0.100	-0.228
-709.660	-200.000	0.034	-0.257
-708.645	-200.000	0.043	-0.300
-707.631	-93.900	0.203	0.057
-706.616	-200.000	-0.002	0.236
-705.602	61.376	-0.138	0.140
-704.587	-146.916	-0.196	-0.017
-703.572	521.667	0.122	-0.292
-702.558	127.296	0.195	-0.253
-701.543	-30.533	-0.076	-0.044
-700.529	-26.774	-0.050	-0.030
-699.514	282.758	0.139	-0.254
-698.499	-200.000	-0.060	0.366
-697.485	-60.349	0.320	0.139
-696.470	23.699	-0.043	0.036
-695.456	-147.546	0.332	0.029
-694.441	51.751	-0.072	0.070
-693.426	331.640	-0.089	0.175
-692.412	467.373	0.075	0.171
-691.397	800.000	-0.065	0.248
-690.383	-135.305	-0.250	0.031
-689.368	800.000	0.034	-0.143
-688.354	-200.000	0.003	-0.039
-687.339	663.156	0.097	0.255
-686.324	-65.222	-0.157	-0.065
-685.310	1.938	0.161	-0.119
-684.295	-74.131	-0.376	-0.139
-683.281	38.959	0.135	-0.123
-682.266	80.156	-0.121	0.133
-681.251	-32.036	0.136	0.078
-680.237	225.856	-0.122	-0.202
-679.222	-200.000	-0.036	-0.248
-678.208	-200.000	0.021	-0.126
-677.193	90.384	-0.141	0.161
-676.178	-38.546	0.215	0.116
-675.164	-200.000	-0.036	-0.204
-674.149	-59.423	0.048	-0.021
-673.135	123.425	0.272	-0.348
-672.120	-200.000	0.023	0.173
-671.105	-167.699	-0.341	-0.014
-670.091	430.530	-0.135	0.298
-669.076	-76.576	0.406	-0.145
-668.062	383.052	0.053	-0.112
-667.047	-12.869	-0.125	-0.083
-666.032	-54.053	-0.328	0.152
-665.018	-200.000	-0.034	-0.270
-664.003	-54.972	0.026	0.012
-662.989	150.791	0.180	-0.250
-661.974	86.283	0.168	0.189
-660.959	441.714	0.081	0.181
-659.945	97.446	-0.211	0.247
-658.930	346.286	0.161	0.322
-657.916	-46.687	0.195	0.097
-656.901	-42.465	-0.262	-0.136
-655.886	55.024	0.160	0.157
-654.872	758.959	-0.038	-0.105
-653.857	3.352	-0.263	0.195
-652.843	-72.825	0.453	-0.170
-651.828	8.186	0.180	-0.138
-650.814	-32.979	0.192	-0.109
-649.799	-148.394	-0.358	-0.030
-648.784	-200.000	-0.019	-0.120
-647.770	-110.197	0.089	-0.019
-646.755	176.369	-0.036	-0.053
-645.741	800.000	0.083	0.234
-644.726	155.973	0.128	-0.180
-643.711	44.773	-0.332	-0.311
-642.697	-8.429	-0.132	0.090
-641.682	10.263	-0.181	0.140
-640.668	-36.873	0.101	0.055
-639.653	-6.453	0.165	0.115
-638.638	-46.533	-0.117	-0.058
-637.624	-174.450	0.379	-0.011
-636.609	-12.838	-0.227	0.151
-635.595	800.000	-0.084	0.344
-634.580	-39.703	-0.031	0.017
-633.565	-200.000	-0.058	0.295
-632.551	-30.196	0.329	0.190
-631.536	7.989	0.159	-0.121
-630.522	-153.743	-0.255	-0.018
-629.507	-200.000	-0.033	-0.167
-628.492	800.000	0.020	-0.072
-627.478	27.360	0.280	0.239
-626.463	-200.000	0.081	0.394
-625.449	-124.017	-0.377	-0.060
-624.434	127.558	-0.054	-0.070
-623.419	170.910	0.151	0.221
-622.405	-87.382	-0.367	-0.113
-621.390	-200.000	0.005	0.068
-620.376	-200.000	-0.024	-0.178
-619.361	-200.000	0.002	-0.068
-618.346	37.203	-0.131	0.118
-617.332	-200.000	0.028	0.130
-616.317	437.557	0.062	-0.137
-615.303	255.307	-0.096	-0.168
-614.288	-200.000	0.016	0.146
-613.273	305.358	0.028	0.052
-612.259	-29.170	0.167	0.097
-611.244	561.443	-0.031	0.075
-610.230	-200.000	0.027	-0.326
-609.215	-111.123	-0.204	-0.042
-608.201	800.000	-0.040	0.120
-607.186	-37.425	-0.136	0.074
-606.171	140.003	-0.235	0.314
-605.157	800.000	-0.056	-0.225
-604.142	-79.810	-0.198	-0.068
-603.128	-200.000	-0.016	-0.172
-602.113	151.555	0.033	0.045
-601.098	38.080	-0.052	0.047
-600.084	-200.000	-0.010	-0.113
-599.069	-7.660	0.060	-0.041
-598.055	-188.906	-0.472	0.006
-597.040	22.193	0.322	0.267
-596.025	399.579	0.081	0.172
-595.011	-145.620	0.193	0.018
-593.996	-200.000	0.055	-0.306
-592.982	13.472	0.124	0.098
-591.967	-200.000	0.290	-0.001
-590.952	391.416	0.106	-0.225
-589.938	-11.841	0.073	0.049
-588.923	17.738	-0.192	0.155
-587.909	-200.000	-0.033	0.159
-586.894	182.948	-0.216	-0.323
-585.879	175.139	0.075	-0.111
-584.865	-127.545	-0.375	-0.055
-583.850	393.789	-0.054	-0.115
-582.836	145.139	0.264	-0.359
-581.821	4.648	-0.110	0.082
-580.806	769.605	0.046	0.129
-579.792	-200.000	0.004	0.209
-578.777	800.000	0.012	-0.054
-577.763	37.630	0.150	0.135
-576.748	5.629	-0.075	0.056
-575.733	761.230	-0.029	0.079
-574.719	-144.022	-0.010	0.001
-573.704	379.542	-0.098	0.203
-572.690	150.107	0.052	0.072
-571.675	145.183	-0.097	-0.132
-570.661	-200.000	0.007	-0.465
-569.646	-29.861	-0.203	-0.118
-568.631	-200.000	-0.000	0.167
-567.617	683.128	0.143	0.379
-566.602	-3.513	-0.164	-0.116
-565.588	-200.000	0.007	-0.098
-564.573	-200.000	-0.015	-0.244
-563.558	-40.895	-0.259	-0.136
-562.544	376.983	-0.104	0.216
-561.529	800.000	-0.068	-0.292
-560.515	28.527	-0.077	-0.066
-559.500	-102.040	0.173	0.042
-558.485	-148.443	-0.155	-0.013
-557.471	-135.847	0.041	-0.005
-556.456	800.000	-0.061	-0.205
-555.442	85.845	0.305	0.340
-554.427	62.822	-0.188	0.190
-553.412	800.000	0.016	-0.063
-552.398	-200.000	0.006	0.159
-551.383	48.222	-0.128	-0.121
-550.369	-93.293	0.313	0.088
-549.354	103.951	-0.191	-0.228
-548.339	-28.617	-0.028	0.017
-547.325	-188.123	-0.288	0.004
-546.310	800.000	0.102	0.339
-545.296	-145.867	0.269	0.024
-544.281	-97.842	-0.213	0.056
-543.266	193.348	-0.133	-0.204
-542.252	-128.327	-0.368	0.053
-541.237	-154.390	0.497	-0.034
-540.223	-157.336	-0.331	-0.020
-539.208	120.270	0.136	-0.171
-538.193	-119.129	0.232	-0.041
-537.179	17.451	0.068	-0.055
-536.164	-14.353	-0.218	0.142
-535.150	-22.660	0.166	-0.102
-534.135	800.000	-0.073	-0.256
-533.121	65.520	0.320	-0.329
-532.106	52.428	0.192	-0.186
-531.091	-35.432	0.112	-0.062
-530.077	-78.982	0.071	0.024
-529.062	-41.531	0.118	-0.062
-528.048	79.500	0.204	0.221
-527.033	31.185	0.141	0.122
-526.018	258.311	-0.107	0.186
-525.004	-200.000	0.011	0.317
-523.989	243.575	0.237	-0.403
-522.975	318.924	-0.071	-0.135
-521.960	-200.000	-0.028	-0.280
-520.945	-70.149	-0.146	0.056
-519.931	211.118	-0.111	0.177
-518.916	114.372	0.121	0.149
-517.902	589.850	0.093	0.232
-516.887	40.771	-0.137	-0.125
-515.872	-189.232	-0.167	0.002
-514.858	-149.914	-0.292	-0.023
-513.843	800.000	-0.023	-0.086
-512.829	323.654	-0.015	-0.030
-511.814	-4.778	-0.061	-0.042
-510.799	159.865	-0.058	-0.082
-509.785	800.000	0.079	0.337
-508.770	66.790	-0.257	-0.265
-507.756	35.778	0.234	-0.209
-506.741	-0.586	0.298	-0.214
-505.726	-2.639	-0.235	0.167
-504.712	800.000	0.084	-0.305
-503.697	-33.373	-0.328	-0.184
-502.683	-200.000	0.016	0.172
-501.668	0.885	-0.251	-0.182
-500.653	1.501	0.166	-0.121
-499.639	254.194	0.095	0.165
-498.624	-172.769	0.048	0.002
-497.610	-78.956	0.077	0.027
-496.595	-200.000	0.014	-0.073
-495.581	450.154	-0.006	-0.014
-494.566	-34.370	0.094	0.052
-493.551	-60.474	0.485	0.208
-492.537	186.843	0.075	-0.113
-491.522	257.875	-0.113	0.196
-490.508	-24.767	0.236	-0.142
-489.493	14.846	-0.130	-0.103
-488.478	-200.000	0.004	-0.029
-487.464	46.005	0.197	0.185
-486.449	-200.000	0.024	-0.238
-485.435	65.373	-0.106	0.108
-484.420	-30.460	-0.122	0.070
-483.405	-93.658	0.300	0.084
-482.391	4.785	-0.325	-0.242
-481.376	-200.000	-0.025	-0.119
-480.362	-200.000	-0.046	0.207
-479.347	-125.254	0.211	0.033
-478.332	-45.045	0.148	0.074
-477.318	50.278	-0.171	0.163
-476.303	407.284	0.041	-0.088
-475.289	-91.040	-0.196	0.057
-474.274	-44.654	-0.260	0.131
-473.259	-106.969	-0.097	0.022
-472.245	-200.000	-0.019	0.210
-471.230	534.483	-0.032	-0.076
-470.216	-200.000	-0.008	0.256
-469.201	159.881	-0.060	-0.084
-468.186	32.424	-0.353	0.308
-467.172	158.033	-0.136	-0.191
-466.157	199.326	-0.061	-0.095
-465.143	-156.363	0.081	0.005
-464.128	-200.000	-0.032	0.372
-463.113	-200.000	0.003	-0.048
-462.099	-46.095	0.253	-0.126
-461.084	107.199	-0.105	0.126
-460.070	-125.503	0.295	0.045
-459.055	-12.361	0.061	0.041
-458.040	-85.965	0.346	-0.108
-457.026	657.338	0.117	-0.304
-456.011	172.421	-0.088	-0.128
-454.997	800.000	0.026	-0.078
-453.982	171.872	0.056	0.082
-452.968	114.427	-0.138	-0.170
-451.953	42.656	-0.155	0.142
-450.938	48.847	0.161	0.153
-449.924	-200.000	-0.288	-0.001
-448.909	463.017	0.026	0.059
-447.895	800.000	0.097	0.286
-446.880	-200.000	0.005	-0.337
-445.865	-99.620	0.154	0.039
-444.851	-105.868	-0.273	-0.062
-443.836	-52.577	0.212	-0.099
-442.822	800.000	0.173	-0.683
-441.807	411.616	-0.179	-0.383
-440.792	-103.591	-0.121	0.029
-439.778	-200.000	0.015	0.115
-438.763	622.636	0.052	0.131
-437.749	-33.707	0.117	0.065
-436.734	26.137	0.153	0.129
-435.719	800.000	0.023	0.081
-434.705	-78.368	0.067	-0.023
-433.690	-200.000	0.014	-0.144
-432.676	199.704	0.099	0.153
-431.661	-179.744	0.069	0.002
-430.646	178.187	0.141	0.208
-429.632	-61.896	0.236	0.100
-428.617	246.647	0.069	0.118
-427.603	-200.000	0.013	-0.350
-426.588	-73.904	-0.249	0.091
-425.573	196.007	-0.043	-0.067
-424.559	-200.000	-0.008	-0.237
-423.544	-66.745	-0.152	-0.061
-422.530	19.949	0.444	-0.361
-421.515	-31.059	-0.070	-0.040
-420.500	-200.000	-0.053	-0.261
-419.486	93.266	0.206	-0.235
-418.471	-69.539	-0.155	-0.060
-417.457	800.000	-0.011	-0.049
-416.442	-10.203	-0.394	-0.264
-415.428	-46.582	0.225	-0.111
-414.413	2.016	-0.017	0.012
-413.398	-200.000	0.544	0.001
-412.384	246.765	0.146	0.248
-411.369	41.668	-0.057	-0.052
-410.355	7.160	0.100	-0.075
-409.340	559.093	0.043	0.104
-408.325	-90.586	0.408	0.119
-407.311	-36.752	0.324	-0.176
-406.296	571.158	0.068	0.168
-405.282	-94.716	0.218	-0.060
-404.267	104.129	0.157	-0.186
-403.252	183.966	0.081	0.121
-402.238	163.516	0.167	-0.236
-401.223	67.422	0.086	-0.088
-400.209	-4.277	0.111	-0.077
-399.194	594.712	0.019	-0.046
-398.179	66.143	-0.273	-0.279
-397.165	-98.012	0.048	0.012
-396.150	-23.729	-0.101	0.061
-395.136	248.668	-0.145	0.248
-394.121	-75.726	0.286	-0.102
-393.106	-58.692	-0.152	-0.066
-392.092	-128.128	-0.028	-0.004
-391.077	-110.407	-0.176	-0.037
-390.063	43.152	-0.291	0.268
-389.048	-86.653	-0.392	-0.121
-388.033	650.821	-0.071	0.182
-387.019	374.432	0.075	0.153
-386.004	434.860	-0.011	0.023
-384.990	800.000	0.056	0.215
-383.975	185.861	0.133	0.199
-382.960	-200.000	-0.031	-0.214
-381.946	143.862	-0.030	0.040
-380.931	-34.544	0.124	0.068
-379.917	194.247	-0.151	0.231
-378.902	-57.099	0.308	0.137
-377.888	303.227	-0.121	0.226
-376.873	35.580	0.156	-0.138
-375.858	-35.704	-0.331	0.181
-374.844	-129.637	-0.242	0.034
-373.829	-141.715	-0.131	-0.013
-372.815	800.000	-0.035	0.110
-371.800	-159.849	0.050	0.003
-370.785	43.924	0.197	0.182
-369.771	215.371	0.094	-0.150
-368.756	-86.183	0.380	-0.118
-367.742	-200.000	-0.012	-0.199
-366.727	-67.215	0.157	0.062
-365.712	-94.405	-0.152	0.042
-364.698	209.975	-0.162	0.256
-363.683	182.849	0.158	0.235
-362.669	-168.482	0.138	-0.005
-361.654	704.839	-0.029	-0.077
-360.639	-100.863	0.351	0.087
-359.625	-200.000	0.013	0.211
-358.610	726.070	-0.060	-0.160
-357.596	-24.891	0.120	0.072
-356.581	-58.276	0.270	0.118
-355.566	-200.000	-0.018	0.108
-354.552	-16.972	-0.175	0.112
-353.537	-200.000	0.059	0.323
-352.523	-200.000	-0.022	-0.155
-351.508	-200.000	-0.024	-0.308
-350.493	429.051	-0.128	0.278
-349.479	-47.740	-0.127	0.062
-348.464	-166.351	-0.084	-0.004
-347.450	-200.000	-0.005	0.087
-346.435	-200.000	0.078	-0.379
-345.420	342.204	-0.052	-0.103
-344.406	258.323	0.115	0.199
-343.391	52.390	-0.127	0.122
-342.377	-168.186	-0.222	0.009
-341.362	-200.000	-0.009	0.047
-340.348	57.543	0.140	-0.138
-339.333	82.353	-0.141	0.154
-338.318	-200.000	-0.065	0.308
-337.304	-55.996	-0.142	-0.064
-336.289	97.240	-0.066	-0.077
-335.275	102.879	-0.055	-0.065
-334.260	114.323	0.157	-0.192
-333.245	-45.054	-0.305	-0.153
-332.231	-68.031	-0.179	-0.070
-331.216	-72.506	0.278	-0.103
-330.202	-81.139	0.330	0.110
-329.187	123.707	0.063	-0.079
-328.172	235.649	-0.169	-0.281
-327.158	-60.453	-0.415	0.177
-326.143	-91.549	-0.238	0.068
-325.129	273.885	0.121	0.215
-324.114	518.219	-0.185	0.435
-323.099	213.396	0.127	-0.201
-322.085	-200.000	0.005	0.110
-321.070	-35.681	-0.200	-0.109
-320.056	800.000	0.041	-0.169
-319.041	53.283	-0.130	-0.125
-318.026	-200.000	0.038	-0.190
-317.012	-200.000	-0.065	-0.519
-315.997	-200.000	-0.009	-0.083
-314.983	-113.682	0.312	0.061
-313.968	118.503	0.192	0.239
-312.953	-200.000	0.005	0.404
-311.939	-200.000	0.022	0.112
-310.924	463.387	0.113	-0.253
-309.910	-159.790	-0.155	-0.009
-308.895	-45.118	-0.290	0.145
-307.880	-42.131	-0.220	-0.113
-306.866	-30.513	-0.064	0.037
-305.851	110.655	-0.083	-0.101
-304.837	-77.783	0.436	0.151
-303.822	81.411	-0.172	0.187
-302.807	39.106	0.122	0.109
-301.793	12.557	-0.295	0.228
-300.778	42.178	0.037	0.033
-299.764	-20.885	0.381	0.234
-298.749	-169.065	0.470	0.018
-297.735	-134.882	-0.245	-0.030
-296.720	800.000	0.183	0.581
-295.705	-20.030	-0.150	-0.093
-294.691	-71.139	0.275	0.104
-293.676	2.212	0.119	-0.086
-292.662	-200.000	0.042	0.345
-291.647	-37.503	-0.125	-0.067
-290.632	-143.701	0.140	0.013
-289.618	-18.622	-0.087	-0.054
-288.603	-95.523	0.209	0.056
-287.589	-168.678	0.124	-0.005
-286.574	314.072	0.132	-0.249
-285.559	800.000	-0.043	0.142
-284.545	203.162	-0.076	-0.117
-283.530	450.120	0.091	0.201
-282.516	211.425	0.102	0.161
-281.501	20.370	-0.063	0.051
-280.486	72.883	-0.058	-0.061
-279.472	800.000	-0.050	0.164
-278.457	69.141	0.129	-0.133
-277.443	-84.938	0.231	0.073
-276.428	-30.278	-0.200	0.114
-275.413	30.280	-0.104	0.089
-274.399	100.857	-0.094	0.110
-273.384	-124.951	0.097	0.015
-272.370	-200.000	0.001	0.335
-271.355	113.925	0.106	0.129
-270.340	-50.634	0.263	-0.124
-269.326	453.174	0.061	-0.135
-268.311	-111.971	-0.276	-0.056
-267.297	-115.945	-0.267	0.050
-266.282	800.000	0.076	-0.214
-265.267	-157.731	0.053	0.003
-264.253	5.485	-0.121	-0.089
-263.238	304.794	-0.094	0.176
-262.224	-200.000	0.009	0.422
-261.209	-161.346	-0.201	0.010
-260.195	-200.000	0.029	0.165
-259.180	84.283	0.180	0.197
-258.165	-200.000	0.069	-0.441
-257.151	344.556	0.065	-0.127
-256.136	-101.090	-0.242	-0.059
-255.122	-67.473	0.119	0.047
-254.107	-141.908	0.370	0.037
-253.092	383.857	-0.169	0.348
-252.078	-174.576	-0.220	0.006
-251.063	800.000	0.005	-0.019
-250.049	-200.000	0.049	-0.253
-249.034	94.121	-0.186	0.212
-248.019	-200.000	-0.001	0.041
-247.005	-200.000	0.026	-0.229
-245.990	256.972	-0.249	0.429
-244.976	128.989	0.198	-0.254
-243.961	-37.446	0.162	-0.087
-242.946	439.133	-0.102	-0.223
-241.932	800.000	-0.046	0.146
-240.917	800.000	0.092	0.262
-239.903	462.681	0.091	0.203
-238.888	216.052	0.063	-0.100
-237.873	121.616	0.136	-0.169
-236.859	-102.269	-0.229	0.055
-235.844	129.081	0.150	-0.191
-234.830	-90.028	0.109	-0.032
-233.815	36.033	0.035	-0.031
-232.800	95.024	-0.126	-0.144
-231.786	800.000	-0.076	-0.321
-230.771	-38.777	0.088	-0.047
-229.757	-52.879	0.199	-0.092
-228.742	506.578	-0.122	0.284
-227.727	-200.000	0.019	-0.129
-226.713	31.046	-0.145	0.124
-225.698	-35.369	0.284	0.155
-224.684	116.611	0.059	0.072
-223.669	256.680	-0.077	-0.132
-222.655	-147.507	-0.167	-0.014
-221.640	800.000	-0.050	0.146
-220.625	39.391	0.175	0.157
-219.611	800.000	0.133	-0.402
-218.596	109.586	0.133	-0.160
-217.582	-169.657	-0.370	-0.013
-216.567	102.905	-0.148	0.173
-215.552	359.125	-0.154	0.307
-214.538	411.038	0.116	0.246
-213.523	-129.352	-0.308	0.043
-212.509	800.000	0.061	0.177
-211.494	39.970	0.154	-0.138
-210.479	800.000	-0.111	-0.462
-209.465	-43.045	-0.161	0.082
-208.450	-16.001	-0.091	-0.058
-207.436	73.938	-0.254	-0.266
-206.421	204.871	-0.157	-0.243
-205.406	245.450	-0.162	-0.273
-204.392	-153.359	-0.452	-0.031
-203.377	-48.871	0.088	-0.042
-202.363	800.000	0.097	0.313
-201.348	-38.500	0.365	-0.193
-200.333	-54.689	0.323	-0.146
-199.319	-200.000	0.087	0.491
-198.304	-103.102	-0.190	-0.045
-197.290	800.000	0.079	-0.299
-196.275	-200.000	0.040	-0.356
-195.260	-200.000	-0.000	-0.122
-194.246	-35.646	-0.155	0.084
-193.231	54.890	0.174	0.168
-192.217	-83.703	0.097	-0.031
-191.202	56.596	0.129	0.126
-190.187	-156.111	0.190	-0.012
-189.173	-30.473	0.189	0.107
-188.158	-48.795	0.175	0.084
-187.144	-3.068	0.192	0.134
-186.129	27.611	-0.208	0.175
-185.114	131.769	-0.141	-0.182
-184.100	-8.904	0.388	0.260
-183.085	-200.000	-0.001	0.011
-182.071	-200.000	0.068	-0.371
-181.056	-200.000	0.022	-0.193
-180.042	-6.466	0.120	0.082
-179.027	800.000	0.055	-0.153
-178.012	1.938	-0.282	-0.203
-176.998	-13.579	0.156	0.101
-175.983	-51.861	-0.196	-0.091
-174.969	-99.543	-0.164	-0.041
-173.954	46.945	0.102	0.095
-172.939	326.402	0.096	0.183
-171.925	128.295	-0.069	0.088
-170.910	-40.565	-0.327	-0.169
-169.896	-112.525	-0.216	-0.043
-168.881	171.803	0.067	-0.096
-167.866	-52.251	-0.143	-0.066
-166.852	-56.095	0.073	-0.032
-165.837	-16.709	-0.088	-0.056
-164.823	-200.000	0.009	-0.097
-163.808	141.383	-0.085	-0.113
-162.793	-133.376	0.110	-0.014
-161.779	800.000	0.104	-0.309
-160.764	-172.950	0.147	-0.005
-159.750	800.000	-0.056	0.175
-158.735	-175.277	-0.284	-0.008
-157.720	-200.000	-0.053	-0.287
-156.706	800.000	0.026	-0.102
-155.691	54.118	-0.230	-0.221
-154.677	-131.237	-0.086	0.011
-153.662	-179.993	-0.327	-0.007
-152.647	-170.079	-0.144	-0.005
-151.633	-200.000	0.015	0.256
-150.618	43.210	0.076	0.070
-149.604	-147.351	-0.466	-0.039
-148.589	5.441	-0.125	-0.092
-147.574	156.126	0.097	0.134
-146.560	73.125	-0.190	0.198
-145.545	-111.526	-0.089	0.018
-144.531	-106.930	-0.046	0.010
-143.516	800.000	-0.028	-0.120
-142.502	-200.000	0.037	0.185
-141.487	-200.000	-0.018	0.090
-140.472	-110.212	-0.336	-0.070
-139.458	315.386	0.130	-0.244
-138.443	40.302	0.059	-0.053
-137.429	39.343	0.280	-0.250
-136.414	16.571	-0.233	-0.184
-135.399	-200.000	0.014	-0.128
-134.385	-200.000	0.005	-0.259
-133.370	-134.751	0.315	0.038
-132.356	-0.671	-0.069	0.049
-131.341	-92.523	-0.164	0.046
-130.326	344.805	-0.050	-0.099
-129.312	81.857	-0.081	-0.088
-128.297	256.866	0.093	-0.159
-127.283	-54.721	0.085	0.038
-126.268	-74.568	0.173	-0.062
-125.253	137.325	-0.109	0.142
-124.239	75.484	-0.083	0.088
-123.224	-15.932	-0.150	-0.095
-122.210	153.889	-0.220	-0.301
-121.195	800.000	0.063	-0.236
-120.180	140.654	0.243	-0.320
