DTS Sentinel unit serial number:	SN413079Multiplexer serial number:	ORYXHardware model number:	OX4-SRSoftware version number:	ORYX F/W v4.00 Oryx Data Collector v3.7.2.0data status	okinstallation	princeton_trtdifferential loss correction	single-endedforward channel	channel 1reverse channel	N/Adate	2019/09/13time	06:10:35forward acquisition time	60.00reverse acquisition time	0.00gamma	496.2192k internal	0.2335k external	0.2335temperature offset calibration	1.0154default loss term (dB/km)	0.3790temperature slope calibration	1.0000multiplexer offset coefficient	1.0000multiplexer slope coefficient	1.0000fibre end	0.00T internal ref (°C)	26.12T ext. ref 1 (°C)	4.07T ext. ref 2 (°C)	20.93length (m)	temperature (°C)	Stokes	anti-Stokes-747.200	-54.721	0.289	0.131
-746.185	-97.873	-0.109	-0.028
-745.171	800.000	-0.063	-0.223
-744.156	-191.794	-0.048	0.000
-743.142	50.642	-0.210	0.199
-742.127	-200.000	0.023	0.200
-741.112	305.526	0.165	0.307
-740.098	711.755	0.096	0.255
-739.083	-133.517	0.290	-0.037
-738.069	-200.000	0.025	0.333
-737.054	-4.730	-0.237	0.164
-736.039	310.667	-0.154	0.289
-735.025	-122.158	0.412	-0.068
-734.010	-16.383	0.105	-0.067
-732.996	-162.738	-0.236	-0.012
-731.981	186.588	0.157	0.235
-730.966	147.528	-0.156	-0.211
-729.952	-60.191	0.086	0.037
-728.937	-90.413	0.315	-0.092
-727.923	112.978	0.228	0.278
-726.908	-88.757	-0.357	0.107
-725.894	-87.847	-0.321	-0.097
-724.879	800.000	-0.117	-0.335
-723.864	-142.317	-0.349	0.035
-722.850	138.570	-0.189	0.248
-721.835	-51.850	-0.212	-0.099
-720.821	7.351	-0.178	-0.134
-719.806	-19.108	-0.063	0.039
-718.791	-111.269	-0.095	0.019
-717.777	79.334	-0.074	0.080
-716.762	-79.880	-0.316	0.107
-715.748	52.996	0.106	0.102
-714.733	-200.000	0.029	-0.220
-713.718	-82.322	0.208	0.068
-712.704	598.816	-0.011	0.026
-711.689	128.842	-0.251	0.322
-710.675	-200.000	-0.021	0.245
-709.660	-60.544	0.151	0.064
-708.645	-200.000	-0.001	-0.045
-707.631	764.287	-0.102	-0.278
-706.616	4.329	-0.053	0.039
-705.602	-110.109	0.358	0.075
-704.587	800.000	0.126	-0.366
-703.572	59.654	0.343	0.339
-702.558	10.945	-0.114	-0.088
-701.543	628.433	-0.041	0.103
-700.529	-191.388	0.157	0.002
-699.514	28.242	0.284	-0.241
-698.499	-20.811	-0.086	-0.053
-697.485	91.618	0.198	0.223
-696.470	-200.000	-0.047	-0.228
-695.456	-200.000	0.009	-0.127
-694.441	-90.298	0.154	0.045
-693.426	216.749	0.065	0.104
-692.412	-38.307	0.297	0.158
-691.397	-52.302	-0.148	-0.069
-690.383	-88.422	-0.437	0.131
-689.368	800.000	-0.079	-0.287
-688.354	-139.699	-0.429	0.046
-687.339	-3.080	0.164	0.115
-686.324	166.733	-0.130	0.185
-685.310	-145.133	-0.349	-0.032
-684.295	23.798	0.288	-0.238
-683.281	41.938	-0.141	-0.129
-682.266	94.052	-0.165	-0.187
-681.251	-16.127	-0.130	0.083
-680.237	-200.000	-0.036	-0.184
-679.222	800.000	0.103	0.305
-678.208	-32.498	0.352	0.196
-677.193	-188.309	-0.385	-0.005
-676.178	-54.762	-0.257	0.116
-675.164	-4.104	-0.296	0.205
-674.149	-4.870	0.010	-0.007
-673.135	-130.128	0.168	-0.023
-672.120	800.000	-0.021	0.079
-671.105	-24.890	-0.145	0.086
-670.091	90.221	-0.092	0.103
-669.076	616.701	-0.052	-0.130
-668.062	171.306	-0.268	-0.385
-667.047	207.173	-0.038	-0.059
-666.032	1.872	-0.162	0.117
-665.018	299.441	-0.050	0.092
-664.003	-200.000	-0.025	-0.179
-662.989	-10.536	0.310	-0.205
-661.974	411.303	0.068	0.145
-660.959	-80.411	-0.593	-0.198
-659.945	-55.796	-0.128	-0.057
-658.930	-42.535	0.490	0.250
-657.916	53.273	0.016	-0.015
-656.901	435.978	-0.141	-0.308
-655.886	-32.713	-0.197	0.110
-654.872	-74.405	0.263	0.095
-653.857	248.325	0.164	0.278
-652.843	-35.351	-0.141	0.077
-651.828	800.000	-0.029	-0.112
-650.814	-132.585	0.157	-0.020
-649.799	183.204	0.285	0.422
-648.784	35.075	0.156	-0.137
-647.770	270.199	0.275	-0.484
-646.755	88.907	-0.071	-0.079
-645.741	-200.000	-0.013	-0.196
-644.726	556.105	0.076	-0.183
-643.711	98.108	0.251	-0.289
-642.697	-162.702	-0.187	-0.009
-641.682	-85.336	-0.109	-0.034
-640.668	-64.912	-0.108	0.044
-639.653	-16.036	-0.178	-0.113
-638.638	46.406	-0.091	0.084
-637.624	-31.630	-0.143	0.080
-636.609	-200.000	-0.017	-0.117
-635.595	-60.009	0.314	-0.134
-634.580	63.639	-0.273	0.274
-633.565	-123.434	0.288	0.046
-632.551	112.727	-0.190	-0.230
-631.536	98.389	-0.128	-0.148
-630.522	282.164	-0.090	-0.162
-629.507	-17.046	0.050	0.032
-628.492	-118.381	-0.201	0.036
-627.478	-114.022	0.221	-0.043
-626.463	585.631	0.153	-0.377
-625.449	61.412	-0.080	-0.079
-624.434	53.760	-0.017	-0.016
-623.419	-150.356	-0.163	-0.013
-622.405	91.247	0.175	-0.196
-621.390	-200.000	0.045	0.293
-620.376	-200.000	0.025	-0.204
-619.361	98.050	0.138	0.159
-618.346	800.000	0.026	0.096
-617.332	-74.344	0.017	0.006
-616.317	-200.000	-0.044	0.240
-615.303	800.000	0.133	-0.383
-614.288	3.006	0.238	0.173
-613.273	800.000	-0.098	-0.322
-612.259	800.000	0.127	-0.410
-611.244	800.000	0.021	0.074
-610.230	32.394	0.157	-0.136
-609.215	-79.692	0.205	-0.069
-608.201	181.535	-0.182	0.268
-607.186	-200.000	-0.065	0.380
-606.171	-200.000	-0.012	-0.135
-605.157	17.508	-0.321	0.254
-604.142	87.706	-0.154	-0.170
-603.128	228.569	-0.035	-0.057
-602.113	132.071	0.140	-0.180
-601.098	-169.279	0.324	-0.012
-600.084	-147.572	0.288	0.024
-599.069	-29.607	-0.200	0.114
-598.055	71.743	-0.295	0.306
-597.040	86.274	-0.073	0.080
-596.025	-8.986	0.326	-0.218
-595.011	-131.777	-0.184	-0.024
-593.996	52.802	0.116	0.111
-592.982	-103.835	-0.390	0.091
-591.967	-27.175	0.298	0.173
-590.952	-90.729	-0.036	-0.010
-589.938	90.249	0.235	0.262
-588.923	-83.246	0.235	-0.075
-587.909	800.000	0.060	0.239
-586.894	265.566	0.069	-0.120
-585.879	80.118	0.125	-0.134
-584.865	477.238	-0.094	0.213
-583.850	-59.428	-0.317	0.136
-582.836	6.742	-0.219	-0.163
-581.821	-167.260	0.102	-0.004
-580.806	-106.483	0.168	0.038
-579.792	156.255	0.117	-0.162
-578.777	-0.707	-0.057	0.040
-577.763	-135.714	-0.382	-0.045
-576.748	369.453	-0.051	0.102
-575.733	39.391	0.358	0.320
-574.719	52.943	0.152	-0.145
-573.704	-155.935	0.283	-0.018
-572.690	83.571	0.110	0.120
-571.675	128.479	0.049	-0.063
-570.661	209.236	0.174	-0.271
-569.646	-4.123	-0.182	0.126
-568.631	800.000	0.074	0.226
-567.617	147.749	-0.212	0.286
-566.602	-200.000	0.004	0.150
-565.588	196.631	0.188	0.285
-564.573	-200.000	0.018	-0.085
-563.558	51.224	-0.128	0.121
-562.544	-133.545	-0.174	-0.022
-561.529	-106.248	-0.286	-0.064
-560.515	703.729	0.098	-0.259
-559.500	149.214	-0.174	0.234
-558.485	-106.775	0.190	-0.042
-557.471	800.000	0.068	-0.236
-556.456	-104.774	-0.506	-0.116
-555.442	-8.099	0.172	0.116
-554.427	-29.906	-0.322	0.183
-553.412	-200.000	0.048	0.331
-552.398	-8.669	-0.140	-0.093
-551.383	-152.373	-0.114	0.008
-550.369	-200.000	0.023	-0.169
-549.354	-61.024	-0.182	0.077
-548.339	-115.504	0.063	-0.012
-547.325	91.412	0.159	-0.178
-546.310	-200.000	-0.035	-0.322
-545.296	-143.749	0.265	0.025
-544.281	-200.000	0.005	-0.092
-543.266	642.045	-0.056	-0.143
-542.252	-36.009	0.155	0.083
-541.237	247.341	0.048	-0.081
-540.223	-83.115	-0.316	-0.101
-539.208	542.647	0.058	0.139
-538.193	-200.000	-0.025	0.378
-537.179	113.103	0.184	0.223
-536.164	800.000	0.114	-0.346
-535.150	-107.210	-0.129	0.028
-534.135	800.000	-0.151	-0.457
-533.121	65.792	0.124	-0.125
-532.106	27.953	-0.288	-0.242
-531.091	800.000	0.086	-0.271
-530.077	800.000	0.023	0.081
-529.062	18.019	-0.203	0.161
-528.048	-137.335	0.206	0.023
-527.033	24.913	0.101	-0.084
-526.018	-200.000	-0.035	0.281
-525.004	-176.206	0.121	0.003
-523.989	33.258	-0.380	0.328
-522.975	-167.848	0.202	0.008
-521.960	-50.954	-0.092	-0.043
-520.945	-57.812	0.029	0.013
-519.931	800.000	0.141	0.414
-518.916	95.811	0.077	0.087
-517.902	800.000	-0.091	0.392
-516.887	-12.819	0.133	0.086
-515.872	-115.347	0.319	-0.060
-514.858	-128.325	0.042	0.006
-513.843	-155.423	0.239	0.015
-512.829	-81.932	0.370	0.121
-511.814	-48.157	0.138	-0.066
-510.799	13.463	-0.114	0.088
-509.785	151.569	-0.108	-0.146
-508.770	-200.000	0.029	-0.198
-507.756	-97.705	0.422	-0.109
-506.741	-10.079	-0.049	-0.032
-505.726	87.916	-0.149	-0.165
-504.712	70.802	-0.024	0.025
-503.697	36.073	0.121	0.106
-502.683	-118.277	-0.416	0.074
-501.668	-118.850	0.246	-0.043
-500.653	273.117	-0.146	0.257
-499.639	42.043	-0.046	0.041
-498.624	-153.325	0.227	-0.016
-497.610	43.985	0.229	-0.209
-496.595	76.964	-0.198	-0.210
-495.581	800.000	0.121	-0.337
-494.566	-147.331	-0.179	-0.015
-493.551	-79.945	-0.231	0.077
-492.537	-143.582	-0.236	0.022
-491.522	209.519	0.247	0.384
-490.508	-200.000	0.002	0.064
-489.493	-200.000	-0.007	0.143
-488.478	-147.035	0.450	0.038
-487.464	65.597	-0.270	-0.272
-486.449	-200.000	0.040	0.226
-485.435	38.419	-0.220	0.195
-484.420	-200.000	0.020	0.245
-483.405	178.663	0.109	0.158
-482.391	-150.671	-0.235	-0.018
-481.376	-90.157	0.173	0.050
-480.362	296.849	-0.080	-0.146
-479.347	229.442	-0.080	0.130
-478.332	-200.000	0.006	0.367
-477.318	800.000	0.019	-0.080
-476.303	-200.000	-0.018	0.187
-475.289	-200.000	0.085	-0.390
-474.274	-200.000	-0.022	0.250
-473.259	800.000	-0.045	-0.130
-472.245	-145.857	0.265	-0.023
-471.230	-200.000	0.107	-0.480
-470.216	-67.213	0.291	-0.114
-469.201	-200.000	-0.014	-0.105
-468.186	164.199	0.052	-0.072
-467.172	237.065	0.072	0.119
-466.157	118.200	0.147	-0.180
-465.143	-200.000	-0.027	-0.241
-464.128	-124.388	0.286	0.044
-463.113	478.742	-0.087	-0.196
-462.099	-82.018	0.182	-0.059
-461.084	-47.246	-0.181	0.087
-460.070	218.485	-0.122	-0.194
-459.055	800.000	0.037	-0.116
-458.040	-146.517	-0.271	-0.023
-457.026	41.237	0.058	0.052
-456.011	-43.611	0.212	-0.106
-454.997	77.314	0.241	0.254
-453.982	-46.847	0.277	0.134
-452.968	235.327	-0.149	-0.244
-451.953	-153.887	-0.066	0.004
-450.938	-104.814	-0.108	0.025
-449.924	708.195	-0.066	-0.172
-448.909	137.107	-0.028	-0.036
-447.895	267.608	-0.146	0.255
-446.880	800.000	-0.068	0.199
-445.865	644.702	-0.106	-0.268
-444.851	-102.621	-0.295	-0.070
-443.836	366.715	-0.054	-0.107
-442.822	-71.416	0.190	-0.071
-441.807	-200.000	-0.014	-0.120
-440.792	-154.324	-0.407	-0.027
-439.778	800.000	0.028	-0.109
-438.763	-200.000	0.017	0.138
-437.749	10.037	0.258	-0.194
-436.734	-200.000	0.042	0.215
-435.719	45.290	-0.184	0.169
-434.705	128.276	-0.248	0.314
-433.690	-200.000	-0.006	0.533
-432.676	54.317	0.270	0.258
-431.661	-68.378	-0.231	0.089
-430.646	-200.000	0.022	0.149
-429.632	117.934	-0.127	-0.155
-428.617	753.555	0.014	-0.038
-427.603	270.720	0.040	-0.070
-426.588	-56.284	-0.190	-0.084
-425.573	-118.787	0.204	0.036
-424.559	-56.482	0.242	0.106
-423.544	-140.992	-0.268	-0.027
-422.530	-12.368	0.283	-0.184
-421.515	-62.390	-0.130	0.054
-420.500	-200.000	-0.001	0.061
-419.486	-200.000	0.012	0.151
-418.471	-200.000	0.002	-0.462
-417.457	800.000	0.050	-0.161
-416.442	-200.000	0.231	0.000
-415.428	800.000	0.128	-0.445
-414.413	-200.000	0.075	0.330
-413.398	-150.300	-0.289	-0.022
-412.384	-14.365	-0.240	-0.153
-411.369	18.724	-0.155	-0.123
-410.355	-33.269	-0.137	-0.075
-409.340	247.443	-0.159	0.266
-408.325	268.264	-0.133	-0.231
-407.311	276.387	0.168	0.296
-406.296	800.000	-0.065	0.271
-405.282	92.162	-0.254	0.284
-404.267	14.810	-0.048	-0.037
-403.252	-173.938	-0.174	0.005
-402.238	-200.000	-0.005	0.079
-401.223	-98.470	-0.142	0.036
-400.209	507.476	0.173	0.397
-399.194	-146.471	0.097	0.008
-398.179	800.000	-0.051	0.163
-397.165	58.037	0.045	-0.043
-396.150	-200.000	0.050	-0.245
-395.136	-93.321	0.039	-0.011
-394.121	172.487	-0.233	0.332
-393.106	-75.535	0.232	-0.082
-392.092	-167.309	-0.161	-0.006
-391.077	82.938	-0.053	-0.057
-390.063	546.597	-0.052	-0.122
-389.048	800.000	-0.141	0.392
-388.033	-45.704	-0.234	0.114
-387.019	-200.000	-0.008	0.128
-386.004	308.460	-0.076	0.140
-384.990	37.625	-0.143	-0.126
-383.975	-200.000	-0.001	0.031
-382.960	320.108	0.157	-0.295
-381.946	147.980	-0.196	0.262
-380.931	-200.000	0.010	-0.176
-379.917	670.749	0.179	-0.458
-378.902	-60.335	0.133	0.056
-377.888	522.852	0.089	0.208
-376.873	-26.677	0.238	0.138
-375.858	180.390	0.076	-0.110
-374.844	-52.991	-0.172	0.078
-373.829	-90.086	0.222	0.064
-372.815	15.516	-0.104	-0.081
-371.800	-200.000	-0.007	-0.190
-370.785	-7.984	-0.187	-0.125
-369.771	98.008	-0.178	-0.203
-368.756	406.978	0.105	-0.220
-367.742	-200.000	-0.023	-0.103
-366.727	226.583	-0.116	0.187
-365.712	426.480	0.083	-0.178
-364.698	-11.871	-0.269	-0.175
-363.683	10.512	-0.033	0.025
-362.669	800.000	-0.111	-0.325
-361.654	-47.226	-0.079	-0.038
-360.639	-169.468	0.180	-0.007
-359.625	-120.459	0.169	-0.028
-358.610	-146.186	-0.274	-0.024
-357.596	-35.070	0.266	0.143
-356.581	-120.892	-0.477	-0.079
-355.566	134.263	-0.297	0.381
-354.552	347.458	0.076	0.147
-353.537	220.553	0.044	0.070
-352.523	162.287	0.235	-0.325
-351.508	449.745	0.099	0.217
-350.493	-78.304	0.231	0.079
-349.479	161.042	0.209	-0.289
-348.464	562.560	0.081	-0.195
-347.450	661.346	0.013	-0.034
-346.435	94.087	-0.055	-0.062
-345.420	141.464	-0.045	-0.059
-344.406	68.393	-0.126	-0.127
-343.391	198.571	-0.029	-0.045
-342.377	-69.724	0.132	0.050
-341.362	61.441	-0.228	0.224
-340.348	-56.678	-0.212	0.093
-339.333	-42.905	-0.292	0.146
-338.318	-144.575	-0.492	-0.045
-337.304	800.000	0.040	0.122
-336.289	-200.000	0.010	-0.070
-335.275	800.000	0.084	0.253
-334.260	-26.903	-0.217	-0.125
-333.245	600.913	-0.070	-0.173
-332.231	-26.634	0.211	-0.122
-331.216	-83.716	0.242	0.076
-330.202	307.941	0.145	0.267
-329.187	-13.584	-0.145	0.093
-328.172	361.643	-0.072	-0.143
-327.158	-18.835	0.464	0.286
-326.143	20.100	0.195	-0.155
-325.129	-105.188	-0.066	-0.015
-324.114	119.107	0.309	0.378
-323.099	24.623	0.250	0.205
-322.085	-64.960	0.315	-0.126
-321.070	-200.000	0.047	-0.492
-320.056	-200.000	-0.007	0.071
-319.041	500.355	-0.144	0.328
-318.026	-200.000	-0.030	-0.194
-317.012	-138.885	-0.208	-0.022
-315.997	-66.940	0.306	0.119
-314.983	-52.697	-0.228	0.104
-313.968	-13.234	-0.046	-0.029
-312.953	69.160	-0.174	0.177
-311.939	-17.782	-0.024	-0.015
-310.924	120.483	-0.195	0.240
-309.910	61.914	-0.132	0.130
-308.895	-156.172	-0.263	-0.016
-307.880	26.877	0.132	-0.109
-306.866	319.513	0.062	-0.116
-305.851	-96.297	-0.108	-0.028
-304.837	-15.097	-0.234	0.148
-303.822	59.631	-0.020	-0.020
-302.807	800.000	-0.025	-0.099
-301.793	-200.000	-0.185	0.000
-300.778	-137.294	-0.097	-0.011
-299.764	526.154	-0.124	0.287
-298.749	-91.924	-0.367	0.103
-297.735	337.789	0.124	0.239
-296.720	-159.190	0.458	-0.025
-295.705	-200.000	0.038	0.232
-294.691	430.927	0.084	-0.180
-293.676	-143.002	0.325	-0.031
-292.662	122.736	-0.245	-0.303
-291.647	509.981	-0.194	-0.444
-290.632	-200.000	-0.019	-0.237
-289.618	52.115	-0.252	0.237
-288.603	-109.277	-0.084	0.017
-287.589	-42.395	0.214	-0.108
-286.574	25.805	0.168	0.138
-285.559	525.976	-0.095	-0.221
-284.545	263.799	0.061	0.104
-283.530	800.000	-0.089	-0.255
-282.516	245.801	-0.107	-0.178
-281.501	-200.000	-0.000	0.239
-280.486	-145.500	0.114	-0.010
-279.472	800.000	-0.095	-0.312
-278.457	14.947	-0.242	0.186
-277.443	-41.807	0.197	-0.100
-276.428	651.062	0.033	0.082
-275.413	-6.600	-0.259	0.174
-274.399	-200.000	0.012	-0.187
-273.384	43.563	0.181	0.163
-272.370	-15.048	-0.063	-0.040
-271.355	-97.818	-0.239	-0.061
-270.340	82.557	0.093	0.099
-269.326	-16.836	0.184	-0.115
-268.311	800.000	-0.067	-0.193
-267.297	112.100	-0.122	0.146
-266.282	427.752	-0.145	-0.309
-265.267	800.000	0.015	-0.052
-264.253	800.000	0.094	-0.265
-263.238	-7.068	-0.201	0.135
-262.224	506.152	-0.216	-0.494
-261.209	-79.728	0.429	0.143
-260.195	637.514	-0.138	-0.345
-259.180	615.615	0.102	0.253
-258.165	800.000	0.109	0.355
-257.151	-22.381	0.344	-0.205
-256.136	-191.612	0.291	-0.003
-255.122	-83.828	-0.413	-0.130
-254.107	-92.068	0.140	-0.039
-253.092	-37.176	-0.077	0.040
-252.078	471.560	-0.153	-0.338
-251.063	183.703	-0.094	-0.137
-250.049	-148.895	0.445	0.035
-249.034	-123.620	-0.188	-0.029
-248.019	123.835	0.149	-0.184
-247.005	21.141	0.187	0.150
-245.990	445.555	-0.031	0.066
-244.976	-200.000	0.035	-0.377
-243.961	132.889	-0.084	0.107
-242.946	481.713	-0.069	-0.155
-241.932	800.000	0.026	0.086
-240.917	468.711	0.185	-0.409
-239.903	121.210	0.137	-0.168
-238.888	386.480	0.215	0.437
-237.873	-200.000	-0.072	0.332
-236.859	483.542	-0.125	-0.280
-235.844	800.000	-0.066	0.234
-234.830	228.752	0.025	-0.040
-233.815	-87.604	-0.038	-0.011
-232.800	-30.639	0.356	0.198
-231.786	-112.981	-0.269	0.052
-230.771	247.427	0.215	0.357
-229.757	115.515	0.224	0.269
-228.742	800.000	-0.105	-0.338
-227.727	-144.143	-0.063	-0.006
-226.713	-26.357	-0.455	0.263
-225.698	352.886	0.123	0.240
-224.684	-77.944	0.291	0.099
-223.669	-200.000	-0.032	0.264
-222.655	-114.567	0.302	-0.057
-221.640	728.653	-0.041	-0.109
-220.625	35.282	-0.195	0.168
-219.611	121.357	0.299	-0.367
-218.596	-2.383	-0.094	0.065
-217.582	-116.350	0.309	-0.056
-216.567	-71.463	-0.400	-0.147
-215.552	800.000	0.044	0.130
-214.538	-115.308	0.090	0.017
-213.523	59.087	-0.038	-0.037
-212.509	48.499	-0.032	0.030
-211.494	800.000	0.076	-0.314
-210.479	-200.000	0.019	-0.210
-209.465	-143.512	0.395	0.037
-208.450	61.571	0.192	0.188
-207.436	105.955	0.148	0.172
-206.421	304.896	0.133	0.243
-205.406	419.385	0.100	0.210
-204.392	-200.000	0.013	-0.124
-203.377	157.617	-0.176	-0.239
-202.363	162.298	-0.092	-0.126
-201.348	182.593	0.207	0.301
-200.333	800.000	0.041	0.115
-199.319	552.390	0.010	0.025
-198.304	-14.595	-0.366	0.231
-197.290	-200.000	0.049	0.244
-196.275	29.050	-0.135	0.113
-195.260	-167.006	0.352	-0.014
-194.246	-29.137	0.398	0.224
-193.231	-200.000	-0.034	-0.174
-192.217	27.115	0.110	-0.091
-191.202	-86.441	-0.345	0.104
-190.187	-152.790	-0.253	-0.018
-189.173	-125.574	-0.125	0.019
-188.158	259.789	-0.168	0.284
-187.144	98.125	-0.142	-0.161
-186.129	-95.662	0.227	0.060
-185.114	-151.622	-0.255	0.019
-184.100	184.614	0.130	-0.190
-183.085	-66.148	-0.177	0.069
-182.071	-200.000	-0.028	-0.261
-181.056	-200.000	0.054	0.303
-180.042	-33.365	-0.097	-0.053
-179.027	-18.911	0.220	-0.134
-178.012	-12.089	-0.211	-0.136
-176.998	-119.672	-0.176	0.030
-175.983	-200.000	-0.045	-0.461
-174.969	527.140	-0.059	-0.136
-173.954	160.050	0.105	-0.143
-172.939	-18.515	-0.184	0.113
-171.925	167.683	-0.228	-0.319
-170.910	60.544	-0.173	0.169
-169.896	-56.557	-0.039	-0.017
-168.881	175.660	-0.115	0.164
-167.866	103.151	0.067	0.078
-166.852	302.317	0.036	0.065
-165.837	-62.821	0.220	0.089
-164.823	-15.910	0.307	0.192
-163.808	601.193	-0.039	-0.096
-162.793	-159.061	0.447	-0.025
-161.779	-120.023	-0.190	-0.032
-160.764	800.000	-0.015	-0.044
-159.750	74.386	-0.168	0.173
-158.735	-200.000	0.026	-0.208
-157.720	17.276	-0.119	-0.092
-156.706	164.398	-0.133	-0.185
-155.691	-48.729	-0.124	-0.058
-154.677	-102.297	-0.040	0.009
-153.662	800.000	0.029	0.120
-152.647	22.564	-0.094	0.076
-151.633	433.951	0.150	0.319
-150.618	-200.000	-0.016	-0.243
-149.604	-90.700	-0.530	0.150
-148.589	-67.844	-0.089	-0.034
-147.574	-83.879	0.089	-0.028
-146.560	131.844	-0.028	0.036
-145.545	644.333	0.047	-0.118
-144.531	579.912	-0.173	0.416
-143.516	72.146	-0.017	-0.017
-142.502	-101.766	0.267	0.063
-141.487	229.762	0.061	-0.098
-140.472	-84.640	0.048	0.015
-139.458	53.773	-0.173	-0.163
-138.443	-200.000	0.012	-0.271
-137.429	-9.544	-0.212	0.139
-136.414	-122.938	-0.284	-0.045
-135.399	29.816	0.210	-0.176
-134.385	-137.926	-0.250	-0.027
-133.370	164.582	0.161	0.222
-132.356	32.556	-0.094	-0.079
-131.341	-74.243	-0.136	0.048
-130.326	189.396	-0.059	0.086
-129.312	-200.000	-0.044	0.439
-128.297	-135.342	-0.274	0.032
-127.283	12.242	0.225	0.170
-126.268	-173.294	-0.200	-0.006
-125.253	-7.255	-0.229	-0.152
-124.239	316.375	-0.140	-0.258
-123.224	239.598	0.063	0.102
-122.210	-88.306	-0.088	-0.026
-121.195	800.000	-0.056	0.231
