DTS Sentinel unit serial number:	SN413079Multiplexer serial number:	ORYXHardware model number:	OX4-SRSoftware version number:	ORYX F/W v4.00 Oryx Data Collector v3.7.2.0data status	okinstallation	princeton_trtdifferential loss correction	single-endedforward channel	channel 1reverse channel	N/Adate	2019/09/14time	15:06:35forward acquisition time	60.00reverse acquisition time	0.00gamma	496.2192k internal	0.2294k external	0.2294temperature offset calibration	1.0074default loss term (dB/km)	0.3790temperature slope calibration	1.0000multiplexer offset coefficient	1.0000multiplexer slope coefficient	1.0000fibre end	0.00T internal ref (°C)	39.06T ext. ref 1 (°C)	5.08T ext. ref 2 (°C)	35.02length (m)	temperature (°C)	Stokes	anti-Stokes-747.200	-200.000	0.009	0.105
-746.185	-32.255	0.187	0.107
-745.171	800.000	0.037	-0.117
-744.156	-21.600	-0.178	-0.111
-743.142	67.840	0.203	-0.212
-742.127	266.742	0.110	0.196
-741.112	20.437	-0.082	0.068
-740.098	-200.000	-0.038	-0.272
-739.083	301.100	-0.045	0.085
-738.069	252.281	-0.207	0.362
-737.054	-199.208	-0.172	-0.001
-736.039	26.471	-0.235	-0.201
-735.025	-61.837	0.189	0.081
-734.010	-129.788	-0.038	-0.005
-732.996	59.633	-0.150	-0.151
-731.981	-200.000	0.014	0.177
-730.966	0.041	-0.328	-0.239
-729.952	-123.067	-0.130	-0.021
-728.937	800.000	0.029	-0.103
-727.923	-8.749	-0.117	-0.080
-726.908	800.000	0.107	-0.412
-725.894	-33.534	-0.251	-0.142
-724.879	-20.071	0.078	-0.049
-723.864	-75.512	0.237	0.086
-722.850	-2.308	-0.143	0.102
-721.835	800.000	0.077	0.304
-720.821	190.502	-0.048	0.073
-719.806	126.052	-0.081	-0.104
-718.791	4.969	0.209	-0.157
-717.777	-188.207	-0.261	0.003
-716.762	-105.470	-0.250	-0.058
-715.748	55.482	0.258	-0.256
-714.733	800.000	-0.044	0.152
-713.718	-33.491	-0.098	0.055
-712.704	106.047	0.147	-0.178
-711.689	63.055	-0.180	-0.184
-710.675	69.249	0.018	-0.019
-709.660	-200.000	0.031	-0.190
-708.645	26.740	-0.282	-0.241
-707.631	800.000	0.082	0.297
-706.616	-200.000	0.023	-0.123
-705.602	800.000	-0.084	0.301
-704.587	-134.910	0.490	0.061
-703.572	-111.308	0.354	-0.074
-702.558	-200.000	-0.005	0.204
-701.543	91.817	-0.239	0.275
-700.529	587.207	-0.115	0.289
-699.514	435.995	0.038	-0.083
-698.499	375.146	0.067	-0.138
-697.485	800.000	0.040	0.153
-696.470	-200.000	-0.019	0.272
-695.456	58.063	-0.160	-0.160
-694.441	-104.020	0.275	-0.065
-693.426	-88.877	-0.414	-0.125
-692.412	-106.247	-0.170	-0.039
-691.397	28.522	-0.191	-0.165
-690.383	1.428	-0.206	-0.151
-689.368	-32.480	-0.183	0.104
-688.354	0.345	0.268	-0.196
-687.339	-45.604	0.365	-0.184
-686.324	10.216	-0.097	0.075
-685.310	-53.126	0.178	0.083
-684.295	-200.000	-0.027	0.179
-683.281	-200.000	0.027	0.345
-682.266	-165.836	0.124	0.005
-681.251	-79.084	0.085	0.030
-680.237	-81.377	-0.160	0.054
-679.222	800.000	0.030	0.116
-678.208	-72.386	-0.265	0.100
-677.193	-200.000	0.030	-0.280
-676.178	11.475	-0.074	0.058
-675.164	-101.042	0.112	-0.028
-674.149	38.423	0.125	0.113
-673.135	92.346	0.079	0.090
-672.120	-94.736	-0.237	0.066
-671.105	-92.845	-0.198	0.056
-670.091	565.955	-0.072	-0.179
-669.076	153.141	0.065	0.091
-668.062	349.916	-0.090	0.180
-667.047	-140.245	0.158	0.017
-666.032	110.821	0.135	0.165
-665.018	-35.565	-0.291	-0.161
-664.003	-99.029	-0.464	-0.120
-662.989	-88.105	-0.251	0.077
-661.974	329.598	0.142	0.279
-660.959	-64.819	-0.325	-0.134
-659.945	72.934	-0.077	-0.082
-658.930	-84.532	0.128	0.041
-657.916	217.747	0.177	-0.288
-656.901	-58.629	0.310	0.137
-655.886	-22.315	-0.020	-0.012
-654.872	800.000	0.073	0.260
-653.857	800.000	-0.015	-0.048
-652.843	-200.000	-0.023	-0.282
-651.828	43.234	0.106	-0.099
-650.814	800.000	0.070	-0.248
-649.799	139.133	-0.101	0.136
-648.784	800.000	0.022	0.093
-647.770	-114.659	-0.424	0.083
-646.755	-3.232	-0.131	-0.093
-645.741	17.856	-0.319	-0.259
-644.726	796.842	-0.037	0.103
-643.711	-200.000	0.003	-0.153
-642.697	-200.000	0.014	0.061
-641.682	800.000	-0.019	0.078
-640.668	-200.000	-0.019	0.110
-639.653	-56.357	0.274	-0.124
-638.638	-181.537	-0.234	-0.005
-637.624	-14.875	0.280	-0.183
-636.609	800.000	-0.044	-0.129
-635.595	-200.000	-0.001	0.040
-634.580	190.473	-0.176	-0.269
-633.565	20.901	-0.116	-0.096
-632.551	-163.591	-0.365	-0.018
-631.536	800.000	0.052	-0.215
-630.522	800.000	0.063	-0.180
-629.507	164.097	0.042	0.060
-628.492	-183.321	0.290	0.005
-627.478	-200.000	0.011	0.367
-626.463	-90.749	-0.340	0.100
-625.449	-29.547	-0.200	0.117
-624.434	152.419	-0.184	0.255
-623.419	271.717	0.031	-0.055
-622.405	800.000	-0.021	-0.087
-621.390	-200.000	0.008	0.038
-620.376	-120.067	-0.363	0.063
-619.361	-200.000	0.005	0.169
-618.346	-75.192	0.308	-0.112
-617.332	-20.440	0.313	0.196
-616.317	-119.521	-0.350	0.062
-615.303	4.998	0.099	-0.074
-614.288	-89.445	0.077	-0.023
-613.273	375.806	0.046	-0.095
-612.259	-28.210	0.203	-0.120
-611.244	-133.547	0.340	0.043
-610.230	800.000	-0.077	-0.315
-609.215	-135.175	0.178	-0.022
-608.201	800.000	0.036	-0.116
-607.186	656.923	-0.091	0.238
-606.171	-55.597	-0.073	-0.033
-605.157	-21.093	-0.155	0.096
-604.142	-2.098	0.102	-0.073
-603.128	593.774	-0.142	-0.356
-602.113	800.000	-0.043	-0.119
-601.098	524.926	0.062	0.148
-600.084	38.750	-0.181	-0.164
-599.069	-200.000	0.031	0.195
-598.055	-56.051	-0.168	0.076
-597.040	-200.000	-0.054	-0.314
-596.025	357.406	-0.074	0.149
-595.011	800.000	0.052	0.230
-593.996	-200.000	-0.003	0.148
-592.982	65.010	0.189	-0.194
-591.967	-98.760	0.175	0.045
-590.952	372.970	-0.095	-0.196
-589.938	-200.000	0.025	0.130
-588.923	-200.000	-0.049	0.301
-587.909	-21.824	0.399	0.247
-586.894	38.429	0.194	-0.175
-585.879	-130.591	0.121	0.017
-584.865	-105.412	-0.131	-0.030
-583.850	140.780	-0.191	0.256
-582.836	-200.000	-0.048	0.220
-581.821	171.306	-0.067	0.097
-580.806	-148.684	-0.280	0.023
-579.792	392.016	-0.092	-0.195
-578.777	-44.136	0.173	0.088
-577.763	56.238	-0.098	0.097
-576.748	-148.313	-0.147	0.012
-575.733	2.019	0.201	-0.148
-574.719	4.385	-0.113	0.084
-573.704	35.241	0.218	0.194
-572.690	-119.273	0.302	0.053
-571.675	-112.607	0.296	0.060
-570.661	-99.428	0.295	-0.075
-569.646	108.377	-0.021	0.025
-568.631	-70.602	-0.418	-0.161
-567.617	255.103	-0.157	-0.272
-566.602	800.000	0.067	0.207
-565.588	-200.000	0.021	0.203
-564.573	75.096	0.093	-0.100
-563.558	800.000	0.044	-0.180
-562.544	-156.659	-0.296	-0.019
-561.529	-200.000	-0.031	-0.167
-560.515	96.618	0.110	-0.128
-559.500	412.228	0.044	0.095
-558.485	-70.682	-0.203	0.078
-557.471	-14.424	0.086	0.056
-556.456	-134.137	-0.033	0.004
-555.442	129.277	-0.271	-0.351
-554.427	-200.000	0.042	-0.260
-553.412	18.394	0.095	0.077
-552.398	169.200	-0.272	-0.393
-551.383	407.577	0.065	0.139
-550.369	-200.000	0.023	0.136
-549.354	-167.458	0.231	-0.009
-548.339	68.084	0.231	-0.240
-547.325	392.633	0.044	-0.094
-546.310	48.455	0.173	-0.165
-545.296	-8.393	-0.156	0.106
-544.281	-103.244	-0.329	-0.079
-543.266	28.498	0.086	-0.074
-542.252	-200.000	-0.023	0.147
-541.237	278.382	0.193	-0.348
-540.223	122.984	0.291	0.370
-539.208	11.808	0.086	0.067
-538.193	-153.856	-0.123	-0.009
-537.179	89.550	0.217	-0.246
-536.164	118.649	-0.040	-0.050
-535.150	36.681	-0.156	0.140
-534.135	-200.000	0.016	-0.143
-533.121	-46.882	0.305	0.151
-532.106	-81.397	-0.071	0.024
-531.091	271.209	0.100	-0.178
-530.077	171.692	-0.029	-0.042
-529.062	800.000	0.031	0.110
-528.048	304.032	-0.057	0.108
-527.033	275.606	0.150	-0.271
-526.018	-200.000	-0.012	0.180
-525.004	-200.000	-0.011	-0.218
-523.989	512.694	-0.028	-0.066
-522.975	306.114	-0.152	-0.287
-521.960	637.061	-0.091	-0.234
-520.945	76.433	0.041	-0.044
-519.931	-24.858	0.133	0.080
-518.916	-200.000	0.007	0.043
-517.902	-200.000	-0.056	0.302
-516.887	-5.483	-0.404	0.281
-515.872	78.211	0.053	-0.057
-514.858	-64.619	0.323	0.133
-513.843	-147.549	-0.406	0.035
-512.829	111.911	-0.138	-0.169
-511.814	-27.358	-0.119	-0.070
-510.799	-200.000	-0.005	-0.189
-509.785	800.000	0.057	-0.249
-508.770	-200.000	0.022	-0.253
-507.756	-38.603	0.354	0.190
-506.741	-200.000	-0.022	0.179
-505.726	-51.428	-0.319	0.151
-504.712	134.173	0.070	-0.091
-503.697	-200.000	-0.028	-0.332
-502.683	-55.177	0.104	-0.047
-501.668	-28.678	-0.398	0.232
-500.653	-105.620	0.114	-0.026
-499.639	79.963	-0.215	-0.234
-498.624	182.932	-0.107	-0.159
-497.610	-69.182	-0.392	-0.153
-496.595	-200.000	-0.064	-0.496
-495.581	800.000	-0.007	-0.030
-494.566	-200.000	-0.030	-0.137
-493.551	-161.040	-0.306	-0.016
-492.537	-82.021	0.273	-0.090
-491.522	379.723	-0.158	0.328
-490.508	-108.879	0.115	0.025
-489.493	39.365	0.117	0.106
-488.478	-62.088	0.152	-0.064
-487.464	-200.000	-0.015	-0.234
-486.449	-44.130	-0.236	-0.120
-485.435	-138.337	0.019	-0.002
-484.420	159.252	0.075	0.106
-483.405	-70.547	0.403	0.154
-482.391	3.190	-0.116	-0.085
-481.376	-117.460	-0.143	-0.026
-480.362	315.012	0.113	0.216
-479.347	62.669	-0.154	-0.156
-478.332	0.913	0.128	-0.093
-477.318	-143.376	-0.243	0.024
-476.303	428.247	-0.010	-0.022
-475.289	-63.571	0.283	0.117
-474.274	-200.000	0.008	0.088
-473.259	-27.496	0.070	0.041
-472.245	-200.000	-0.024	0.144
-471.230	194.042	-0.100	-0.153
-470.216	4.165	-0.259	0.192
-469.201	-72.829	0.103	0.038
-468.186	420.934	0.081	-0.176
-467.172	371.363	-0.086	-0.177
-466.157	167.846	-0.172	0.247
-465.143	-147.173	0.268	0.023
-464.128	389.148	-0.072	-0.151
-463.113	32.867	0.191	0.167
-462.099	-98.025	-0.261	0.068
-461.084	-87.729	-0.203	-0.062
-460.070	-172.850	-0.339	0.011
-459.055	350.410	0.176	0.352
-458.040	800.000	-0.077	-0.233
-457.026	800.000	0.048	-0.151
-456.011	-200.000	-0.020	-0.099
-454.997	-200.000	-0.031	-0.279
-453.982	-113.448	0.123	-0.024
-452.968	392.263	-0.090	-0.189
-451.953	-154.447	0.160	0.011
-450.938	-121.926	-0.225	0.038
-449.924	273.159	-0.171	0.305
-448.909	-91.512	0.254	0.073
-447.895	214.054	-0.115	0.184
-446.880	473.696	-0.142	0.323
-445.865	800.000	0.053	-0.174
-444.851	-49.072	-0.112	0.054
-443.836	-129.289	0.568	0.080
-442.822	-127.063	0.124	0.018
-441.807	-200.000	0.017	-0.111
-440.792	26.125	-0.305	0.257
-439.778	-200.000	-0.034	-0.202
-438.763	-200.000	0.057	-0.274
-437.749	-185.957	-0.161	-0.002
-436.734	-200.000	-0.004	-0.048
-435.719	141.198	0.078	-0.104
-434.705	-30.655	-0.040	0.023
-433.690	-82.105	0.175	-0.058
-432.676	-200.000	0.070	-0.405
-431.661	57.464	0.076	0.075
-430.646	-7.233	0.208	0.143
-429.632	-52.149	0.304	-0.143
-428.617	800.000	-0.007	-0.030
-427.603	-83.766	0.205	0.066
-426.588	704.934	0.124	-0.329
-425.573	-50.223	0.215	-0.103
-424.559	27.503	0.270	-0.229
-423.544	477.285	0.012	-0.026
-422.530	-60.240	-0.195	-0.084
-421.515	-8.907	-0.138	-0.093
-420.500	127.325	0.182	0.234
-419.486	-47.569	0.264	-0.129
-418.471	-41.984	-0.219	0.113
-417.457	-200.000	0.028	0.256
-416.442	-160.037	0.225	-0.012
-415.428	-200.000	-0.035	0.213
-414.413	179.415	-0.098	0.145
-413.398	37.544	-0.123	-0.110
-412.384	160.946	0.087	-0.122
-411.369	-200.000	0.027	-0.347
-410.355	-24.895	-0.376	-0.225
-409.340	403.077	-0.010	0.020
-408.325	-153.916	0.045	0.003
-407.311	202.418	0.095	-0.147
-406.296	-145.695	0.607	-0.055
-405.282	59.785	-0.320	-0.319
-404.267	-200.000	0.048	0.309
-403.252	-200.000	-0.040	0.232
-402.238	446.282	-0.085	-0.189
-401.223	-200.000	-0.026	0.118
-400.209	-118.379	-0.221	0.040
-399.194	-200.000	0.005	0.100
-398.179	-8.605	-0.148	0.100
-397.165	-80.757	0.074	0.025
-396.150	53.505	0.181	0.175
-395.136	328.855	0.237	-0.459
-394.121	-63.364	0.187	0.078
-393.106	-62.853	0.385	0.161
-392.092	-136.917	-0.204	0.024
-391.077	-134.408	0.364	-0.045
-390.063	-200.000	-0.022	0.234
-389.048	-113.155	0.038	0.008
-388.033	-138.684	0.333	0.037
-387.019	28.031	0.204	0.173
-386.004	-103.269	0.157	0.037
-384.990	-18.613	-0.310	0.195
-383.975	-112.370	0.254	0.051
-382.960	-133.459	-0.184	-0.023
-381.946	419.799	-0.063	-0.136
-380.931	-55.469	0.064	-0.029
-379.917	166.759	0.147	-0.210
-378.902	-32.988	-0.268	0.150
-377.888	-127.074	0.170	-0.025
-376.873	383.763	-0.058	-0.120
-375.858	-106.686	0.212	-0.048
-374.844	-200.000	0.011	0.121
-373.829	-200.000	-0.071	-0.376
-372.815	-200.000	-0.025	0.207
-371.800	-31.212	0.126	0.072
-370.785	-134.018	-0.160	0.020
-369.771	88.564	-0.118	-0.132
-368.756	-119.753	-0.243	0.042
-367.742	-49.834	-0.126	-0.060
-366.727	-13.176	-0.039	0.026
-365.712	-186.074	-0.124	-0.002
-364.698	-200.000	-0.009	0.044
-363.683	-200.000	0.003	0.148
-362.669	800.000	0.074	0.257
-361.654	-200.000	-0.007	0.099
-360.639	-108.290	-0.102	0.022
-359.625	647.900	-0.026	-0.066
-358.610	-91.491	-0.196	0.056
-357.596	60.521	-0.098	-0.097
-356.581	800.000	0.044	0.167
-355.566	-36.012	-0.099	0.054
-354.552	-172.901	-0.398	0.012
-353.537	-200.000	-0.027	0.489
-352.523	-38.062	-0.129	-0.069
-351.508	-81.233	0.068	-0.023
-350.493	275.994	0.134	0.239
-349.479	499.685	0.106	0.246
-348.464	-200.000	0.025	-0.538
-347.450	800.000	-0.011	0.039
-346.435	-200.000	-0.019	0.181
-345.420	-26.730	-0.043	-0.025
-344.406	19.204	0.076	-0.062
-343.391	225.161	-0.106	-0.173
-342.377	-69.092	0.118	0.046
-341.362	735.707	0.013	-0.036
-340.348	-87.140	-0.151	-0.046
-339.333	554.101	-0.082	-0.198
-338.318	49.394	0.135	-0.128
-337.304	461.583	0.197	0.443
-336.289	-121.530	0.065	0.011
-335.275	615.218	0.109	-0.275
-334.260	-200.000	0.023	-0.154
-333.245	-63.164	-0.196	0.081
-332.231	387.220	-0.018	0.038
-331.216	231.263	0.092	-0.152
-330.202	800.000	-0.063	-0.216
-329.187	-117.400	0.133	0.024
-328.172	-200.000	-0.028	-0.222
-327.158	-109.261	-0.213	0.045
-326.143	-41.900	0.042	-0.022
-325.129	-200.000	-0.002	-0.218
-324.114	93.594	-0.046	0.053
-323.099	-200.000	-0.053	0.422
-322.085	173.933	-0.015	0.022
-321.070	800.000	-0.057	0.207
-320.056	184.288	0.058	0.086
-319.041	-200.000	-0.087	-0.387
-318.026	90.544	0.264	-0.298
-317.012	-200.000	-0.027	0.146
-315.997	800.000	0.077	0.303
-314.983	1.435	-0.505	-0.365
-313.968	17.118	-0.064	-0.051
-312.953	423.534	0.174	-0.376
-311.939	20.548	0.291	0.237
-310.924	800.000	-0.069	0.274
-309.910	-107.509	0.241	-0.053
-308.895	202.447	-0.021	-0.033
-307.880	138.216	0.052	-0.069
-306.866	-60.946	0.259	0.110
-305.851	-89.716	-0.147	0.043
-304.837	800.000	-0.077	0.231
-303.822	-18.334	-0.069	0.043
-302.807	-116.580	-0.207	0.038
-301.793	-200.000	-0.001	-0.045
-300.778	-200.000	-0.035	0.327
-299.764	83.464	0.164	0.180
-298.749	-127.450	-0.174	0.025
-297.735	-40.086	-0.103	-0.054
-296.720	351.672	0.088	-0.175
-295.705	-82.619	-0.063	-0.021
-294.691	285.180	-0.136	0.245
-293.676	124.086	-0.179	0.226
-292.662	-200.000	0.023	0.198
-291.647	35.640	0.195	-0.172
-290.632	403.417	0.028	0.059
-289.618	224.368	-0.142	0.231
-288.603	69.734	-0.152	-0.158
-287.589	51.909	0.071	0.068
-286.574	-139.185	0.115	0.012
-285.559	800.000	0.078	0.276
-284.545	-73.961	-0.386	0.141
-283.530	-155.254	0.208	0.014
-282.516	241.149	-0.190	-0.319
-281.501	-91.532	-0.186	0.053
-280.486	593.588	-0.055	0.137
-279.472	-14.441	0.046	0.030
-278.457	800.000	-0.049	0.200
-277.443	-3.264	0.181	0.127
-276.428	-200.000	0.021	0.249
-275.413	-62.340	-0.213	0.089
-274.399	-81.293	-0.282	-0.093
-273.384	-110.569	-0.213	0.044
-272.370	-200.000	-0.002	-0.092
-271.355	66.972	0.146	0.149
-270.340	258.438	-0.239	0.413
-269.326	-129.471	-0.118	0.016
-268.311	-14.043	0.032	0.021
-267.297	-125.863	0.124	0.019
-266.282	-131.689	0.324	0.043
-265.267	-21.802	-0.113	-0.069
-264.253	570.415	-0.097	-0.237
-263.238	66.561	-0.215	-0.219
-262.224	69.392	0.111	0.115
-261.209	-200.000	0.092	0.405
-260.195	99.933	0.179	0.208
-259.180	25.882	0.245	-0.205
-258.165	-200.000	0.048	-0.240
-257.151	415.722	0.156	-0.333
-256.136	-200.000	-0.025	0.157
-255.122	-200.000	0.010	-0.152
-254.107	302.275	0.172	0.318
-253.092	-134.130	0.050	0.006
-252.078	-200.000	0.014	0.105
-251.063	-143.169	0.169	0.016
-250.049	402.645	0.055	0.116
-249.034	-116.063	0.197	-0.037
-248.019	105.054	-0.032	-0.038
-247.005	-32.116	-0.237	0.133
-245.990	-46.979	0.255	0.125
-244.976	108.648	0.095	-0.114
-243.961	31.101	0.210	-0.181
-242.946	56.579	0.053	0.052
-241.932	36.911	-0.142	-0.126
-240.917	-106.226	0.532	0.120
-239.903	-69.062	0.291	-0.112
-238.888	800.000	-0.022	0.085
-237.873	-200.000	-0.003	-0.174
-236.859	87.755	-0.139	-0.154
-235.844	-30.407	-0.413	-0.235
-234.830	144.856	-0.019	0.026
-233.815	-112.424	0.265	-0.053
-232.800	-117.712	-0.313	-0.056
-231.786	-22.714	-0.420	0.254
-230.771	-200.000	-0.005	-0.184
-229.757	-10.881	0.275	-0.182
-228.742	-65.170	0.299	0.121
-227.727	105.324	0.109	-0.128
-226.713	165.830	-0.069	0.098
-225.698	44.659	-0.082	-0.076
-224.684	-37.324	-0.143	0.076
-223.669	800.000	-0.093	-0.299
-222.655	47.222	0.146	0.136
-221.640	9.084	0.210	-0.159
-220.625	-168.782	-0.390	-0.015
-219.611	-200.000	-0.012	0.169
-218.596	-112.926	-0.061	0.012
-217.582	-43.585	0.198	-0.100
-216.567	193.766	-0.028	0.043
-215.552	81.491	-0.087	0.094
-214.538	-200.000	0.005	-0.201
-213.523	68.318	0.092	-0.094
-212.509	-27.221	0.108	0.063
-211.494	800.000	-0.006	-0.019
-210.479	243.181	0.077	0.130
-209.465	-8.982	0.109	0.073
-208.450	121.347	0.171	-0.214
-207.436	-164.258	-0.183	0.008
-206.421	80.428	-0.094	0.101
-205.406	13.467	-0.167	-0.130
-204.392	233.605	-0.084	0.138
-203.377	45.589	0.171	0.158
-202.363	-51.823	-0.333	0.155
-201.348	22.263	0.234	-0.191
-200.333	-38.355	-0.091	-0.048
-199.319	-124.021	0.265	0.042
-198.304	409.630	-0.120	-0.254
-197.290	151.297	-0.026	0.036
-196.275	-200.000	0.012	0.253
-195.260	-32.394	0.300	-0.167
-194.246	257.933	-0.090	0.155
-193.231	-56.069	-0.146	-0.065
-192.217	321.744	0.049	0.093
-191.202	241.161	0.120	-0.201
-190.187	92.785	-0.254	0.287
-189.173	170.228	-0.118	-0.169
-188.158	-200.000	-0.008	-0.194
-187.144	-103.436	0.070	0.017
-186.129	624.062	0.091	0.230
-185.114	800.000	0.115	0.373
-184.100	106.991	0.241	0.287
-183.085	-169.561	0.221	-0.008
-182.071	-134.251	-0.118	0.015
-181.056	-57.874	0.302	-0.132
-180.042	-200.000	-0.012	0.083
-179.027	-174.081	-0.120	0.004
-178.012	-11.505	-0.225	-0.148
-176.998	314.030	0.100	-0.188
-175.983	-49.727	0.082	0.039
-174.969	-164.846	-0.045	0.002
-173.954	40.675	-0.126	-0.113
-172.939	174.921	-0.193	0.279
-171.925	-132.633	-0.167	0.021
-170.910	-200.000	-0.000	0.031
-169.896	-157.808	-0.250	0.015
-168.881	605.576	0.072	-0.180
-167.866	-108.819	-0.174	-0.037
-166.852	-42.665	0.263	0.134
-165.837	800.000	-0.086	0.256
-164.823	800.000	0.034	0.145
-163.808	2.782	0.189	0.137
-162.793	-200.000	0.037	-0.208
-161.779	444.030	-0.040	0.088
-160.764	-63.420	-0.280	0.115
-159.750	-59.836	0.263	-0.113
-158.735	800.000	0.041	-0.159
-157.720	231.913	0.033	-0.055
-156.706	95.665	-0.252	0.288
-155.691	-45.724	0.329	-0.162
-154.677	-13.091	0.213	0.138
-153.662	-27.270	-0.306	0.178
-152.647	-74.034	0.234	-0.085
-151.633	7.003	-0.282	0.210
-150.618	96.252	0.098	0.113
-149.604	662.637	0.084	-0.217
-148.589	167.476	-0.040	-0.056
-147.574	-200.000	-0.030	-0.285
-146.560	46.451	0.139	-0.129
-145.545	-197.427	0.243	-0.002
-144.531	800.000	0.045	0.134
-143.516	-48.226	-0.296	0.143
-142.502	-198.568	-0.350	-0.002
-141.487	-64.875	0.411	0.166
-140.472	-142.365	-0.167	0.016
-139.458	130.884	-0.037	0.047
-138.443	-200.000	0.014	0.343
-137.429	-20.188	0.049	-0.030
-136.414	275.402	-0.241	0.426
-135.399	74.453	-0.243	0.255
-134.385	-200.000	0.018	0.129
-133.370	462.500	0.090	-0.200
-132.356	205.817	0.201	-0.312
-131.341	-57.393	-0.231	-0.101
-130.326	61.586	0.108	-0.108
-129.312	77.851	0.151	0.161
-128.297	21.952	-0.135	-0.110
-127.283	800.000	0.072	-0.227
-126.268	-105.878	-0.208	0.047
-125.253	140.843	-0.242	-0.320
-124.239	0.567	-0.230	-0.164
-123.224	-98.008	0.259	0.067
-122.210	-158.318	-0.076	0.004
-121.195	-200.000	0.028	-0.304
