DTS Sentinel unit serial number:	SN413079Multiplexer serial number:	ORYXHardware model number:	OX4-SRSoftware version number:	ORYX F/W v4.00 Oryx Data Collector v3.7.2.0data status	okinstallation	princeton_trtdifferential loss correction	single-endedforward channel	channel 1reverse channel	N/Adate	2019/09/16time	02:10:35forward acquisition time	60.00reverse acquisition time	0.00gamma	496.2192k internal	0.2331k external	0.2331temperature offset calibration	0.9978default loss term (dB/km)	0.3790temperature slope calibration	1.0000multiplexer offset coefficient	1.0000multiplexer slope coefficient	1.0000fibre end	0.00T internal ref (°C)	27.52T ext. ref 1 (°C)	10.15T ext. ref 2 (°C)	22.47length (m)	temperature (°C)	Stokes	anti-Stokes-747.200	-56.818	0.057	0.025
-746.185	800.000	0.051	0.144
-745.171	134.970	-0.214	0.279
-744.156	11.241	0.040	0.030
-743.142	157.285	0.332	0.463
-742.127	-200.000	0.152	0.000
-741.112	562.623	0.159	0.388
-740.098	173.211	0.161	0.234
-739.083	23.733	0.110	-0.091
-738.069	80.138	-0.231	0.249
-737.054	-200.000	-0.004	-0.028
-736.039	45.779	-0.208	-0.193
-735.025	119.512	-0.093	0.116
-734.010	800.000	0.037	0.122
-732.996	161.516	-0.198	0.278
-731.981	800.000	0.052	-0.152
-730.966	11.498	0.295	0.227
-729.952	-10.096	-0.246	-0.165
-728.937	-87.641	0.042	0.013
-727.923	-10.952	0.146	-0.097
-726.908	192.302	0.076	0.115
-725.894	-36.351	0.092	0.050
-724.879	89.676	-0.202	0.226
-723.864	-120.908	-0.115	0.019
-722.850	280.676	-0.081	-0.146
-721.835	800.000	0.029	-0.090
-720.821	-200.000	0.019	0.101
-719.806	-200.000	0.065	-0.329
-718.791	13.939	-0.461	-0.360
-717.777	-65.208	0.216	0.087
-716.762	212.178	-0.090	0.142
-715.748	181.955	0.245	-0.363
-714.733	-113.671	-0.194	0.038
-713.718	-39.847	-0.200	-0.105
-712.704	177.069	-0.109	-0.159
-711.689	1.975	0.287	-0.208
-710.675	800.000	0.025	-0.109
-709.660	-200.000	0.044	-0.289
-708.645	338.363	0.038	-0.074
-707.631	99.336	0.410	-0.476
-706.616	-7.342	0.146	0.100
-705.602	800.000	0.064	-0.216
-704.587	151.306	-0.178	0.243
-703.572	-120.640	0.352	0.060
-702.558	80.604	0.173	0.187
-701.543	-119.776	0.206	0.036
-700.529	800.000	-0.043	0.188
-699.514	119.218	-0.076	0.095
-698.499	-200.000	0.022	0.165
-697.485	-200.000	-0.016	-0.079
-696.470	746.189	-0.033	0.090
-695.456	-175.430	0.374	0.010
-694.441	800.000	-0.052	0.218
-693.426	-17.871	0.221	-0.139
-692.412	-15.936	-0.167	-0.107
-691.397	64.797	0.242	0.245
-690.383	69.415	-0.199	-0.205
-689.368	-92.637	0.214	0.060
-688.354	153.822	0.049	0.068
-687.339	-10.530	-0.250	-0.166
-686.324	800.000	-0.095	0.295
-685.310	-102.689	-0.249	0.060
-684.295	-47.831	-0.327	-0.159
-683.281	273.156	0.051	0.090
-682.266	45.148	-0.218	-0.202
-681.251	36.890	-0.095	0.084
-680.237	37.983	-0.024	-0.021
-679.222	62.652	-0.148	0.148
-678.208	222.334	-0.103	0.166
-677.193	35.311	0.160	0.141
-676.178	-62.349	0.241	-0.101
-675.164	382.086	0.063	0.131
-674.149	-200.000	-0.003	0.236
-673.135	-49.471	-0.044	-0.021
-672.120	61.558	-0.012	0.012
-671.105	39.018	-0.079	0.071
-670.091	187.124	0.166	0.248
-669.076	-66.930	-0.363	0.144
-668.062	52.901	-0.140	0.135
-667.047	800.000	0.070	-0.243
-666.032	-184.921	0.351	-0.006
-665.018	800.000	0.124	-0.353
-664.003	151.545	-0.051	0.070
-662.989	-200.000	0.029	0.130
-661.974	149.412	-0.106	-0.144
-660.959	-200.000	-0.066	-0.453
-659.945	227.945	0.204	0.333
-658.930	142.007	0.151	-0.200
-657.916	30.306	-0.139	0.119
-656.901	-200.000	-0.040	0.258
-655.886	-194.002	-0.080	0.001
-654.872	800.000	-0.062	-0.253
-653.857	-92.466	0.276	0.078
-652.843	190.180	0.052	-0.079
-651.828	-200.000	0.024	-0.140
-650.814	800.000	0.107	-0.336
-649.799	-200.000	-0.021	0.285
-648.784	-200.000	-0.006	-0.095
-647.770	84.398	0.242	-0.265
-646.755	253.576	-0.118	0.203
-645.741	-200.000	-0.028	-0.246
-644.726	619.516	0.032	-0.081
-643.711	475.621	0.178	0.403
-642.697	-27.313	-0.134	0.078
-641.682	247.400	0.109	-0.184
-640.668	-73.919	-0.356	0.130
-639.653	-162.346	-0.317	0.016
-638.638	344.740	0.079	0.155
-637.624	-200.000	-0.024	-0.229
-636.609	110.954	-0.039	0.047
-635.595	61.615	-0.215	0.214
-634.580	-200.000	0.049	-0.375
-633.565	469.011	0.043	-0.097
-632.551	-147.781	0.117	0.010
-631.536	-200.000	-0.042	0.250
-630.522	344.065	0.166	-0.327
-629.507	-42.864	0.274	-0.139
-628.492	63.389	0.241	-0.242
-627.478	800.000	-0.080	-0.250
-626.463	-61.639	0.369	0.155
-625.449	-82.856	0.186	0.060
-624.434	597.463	-0.093	-0.231
-623.419	46.082	-0.270	-0.250
-622.405	75.981	-0.204	0.216
-621.390	237.828	-0.110	-0.182
-620.376	81.288	-0.095	-0.102
-619.361	-200.000	-0.059	-0.270
-618.346	218.763	-0.118	0.189
-617.332	-200.000	0.004	0.463
-616.317	-130.564	0.208	0.028
-615.303	-7.143	0.110	-0.074
-614.288	163.197	-0.210	-0.295
-613.273	4.717	-0.156	0.114
-612.259	441.548	0.210	-0.459
-611.244	-107.381	-0.289	0.063
-610.230	-200.000	-0.039	-0.208
-609.215	436.930	0.030	-0.066
-608.201	-77.169	0.158	0.055
-607.186	63.281	0.226	-0.227
-606.171	-200.000	0.007	0.078
-605.157	800.000	0.075	-0.256
-604.142	-83.502	0.134	0.043
-603.128	-17.359	-0.316	0.199
-602.113	-64.804	0.371	0.150
-601.098	-127.515	-0.208	0.030
-600.084	-115.546	0.376	-0.071
-599.069	800.000	0.015	-0.052
-598.055	-188.491	-0.406	0.005
-597.040	-12.780	-0.092	-0.060
-596.025	-111.152	0.159	0.033
-595.011	-72.312	-0.277	0.103
-593.996	245.732	-0.177	0.298
-592.982	-46.486	-0.259	0.127
-591.967	209.411	-0.317	-0.497
-590.952	-84.230	-0.308	-0.098
-589.938	-112.626	0.171	-0.034
-588.923	800.000	-0.018	0.050
-587.909	-2.249	-0.069	0.048
-586.894	734.214	0.073	0.195
-585.879	27.356	0.333	-0.280
-584.865	589.327	-0.099	0.244
-583.850	-70.847	-0.332	-0.125
-582.836	-100.868	-0.241	0.059
-581.821	800.000	-0.020	-0.079
-580.806	-155.298	0.266	0.017
-579.792	-168.997	-0.151	0.006
-578.777	9.580	-0.108	-0.082
-577.763	-82.691	-0.155	0.050
-576.748	-200.000	0.004	-0.085
-575.733	-4.511	0.088	0.061
-574.719	-30.801	0.044	-0.025
-573.704	-200.000	-0.020	-0.089
-572.690	61.470	-0.153	0.152
-571.675	-38.142	-0.343	0.182
-570.661	-200.000	-0.017	-0.155
-569.646	-200.000	0.029	-0.172
-568.631	-0.799	0.049	-0.035
-567.617	-131.047	-0.222	0.030
-566.602	800.000	0.047	-0.181
-565.588	-70.940	0.291	0.110
-564.573	-51.314	-0.141	0.066
-563.558	-200.000	0.013	0.089
-562.544	-80.086	0.276	-0.093
-561.529	17.245	0.134	0.106
-560.515	-200.000	-0.023	-0.125
-559.500	-79.759	-0.203	0.068
-558.485	174.796	0.144	-0.208
-557.471	132.324	0.060	-0.077
-556.456	760.606	-0.042	0.115
-555.442	144.701	0.178	0.237
-554.427	21.432	-0.007	0.006
-553.412	121.914	0.139	-0.173
-552.398	-104.531	0.464	-0.107
-551.383	389.338	-0.143	0.297
-550.369	-56.999	-0.238	-0.105
-549.354	-84.120	0.280	-0.089
-548.339	-109.816	-0.334	-0.070
-547.325	-200.000	-0.009	-0.069
-546.310	278.062	0.037	-0.066
-545.296	800.000	-0.058	0.210
-544.281	27.343	-0.066	-0.056
-543.266	-86.985	0.100	-0.030
-542.252	573.534	-0.025	-0.060
-541.237	-200.000	0.017	-0.148
-540.223	108.865	0.132	-0.158
-539.208	473.490	0.113	-0.255
-538.193	109.783	-0.051	0.061
-537.179	255.789	0.059	-0.100
-536.164	-200.000	-0.045	0.265
-535.150	800.000	0.065	-0.239
-534.135	-200.000	-0.012	-0.271
-533.121	37.355	0.120	0.106
-532.106	-200.000	0.001	0.058
-531.091	-96.835	-0.327	0.086
-530.077	681.992	0.041	0.107
-529.062	-97.577	0.029	0.008
-528.048	-200.000	-0.017	0.122
-527.033	-18.887	0.185	0.115
-526.018	408.002	-0.194	-0.409
-525.004	-22.087	0.154	-0.093
-523.989	800.000	0.107	-0.457
-522.975	-72.414	-0.142	-0.052
-521.960	-200.000	-0.055	-0.247
-520.945	19.790	-0.194	0.156
-519.931	-200.000	-0.044	-0.465
-518.916	-61.201	-0.060	-0.025
-517.902	-30.263	0.373	-0.211
-516.887	-116.334	-0.236	-0.043
-515.872	187.638	-0.194	-0.288
-514.858	374.949	-0.128	0.261
-513.843	39.660	0.032	-0.029
-512.829	-163.429	-0.250	-0.012
-511.814	-38.035	0.342	-0.181
-510.799	237.754	-0.111	0.184
-509.785	48.810	-0.097	0.091
-508.770	-108.696	0.186	-0.040
-507.756	-23.581	0.154	-0.092
-506.741	42.902	-0.081	-0.074
-505.726	528.711	-0.114	0.268
-504.712	-200.000	-0.031	-0.154
-503.697	-200.000	-0.002	-0.154
-502.683	-200.000	0.032	0.407
-501.668	242.330	-0.151	-0.252
-500.653	-92.479	-0.027	-0.008
-499.639	110.977	-0.238	0.286
-498.624	800.000	0.054	-0.226
-497.610	521.109	-0.048	-0.113
-496.595	28.641	0.112	-0.095
-495.581	243.767	0.181	0.303
-494.566	-200.000	-0.050	0.296
-493.551	155.194	0.129	-0.177
-492.537	-200.000	-0.005	0.176
-491.522	51.411	0.072	-0.068
-490.508	791.349	0.087	-0.238
-489.493	-161.332	0.260	-0.013
-488.478	7.036	-0.281	0.209
-487.464	-188.016	0.098	0.001
-486.449	-159.340	0.474	0.026
-485.435	-117.324	-0.184	0.033
-484.420	169.172	0.228	-0.324
-483.405	-200.000	0.157	0.000
-482.391	-77.657	-0.069	-0.024
-481.376	800.000	-0.038	-0.128
-480.362	-96.030	0.326	0.086
-479.347	6.273	-0.204	0.151
-478.332	800.000	-0.094	0.286
-477.318	-52.997	-0.265	-0.121
-476.303	-53.833	0.085	-0.039
-475.289	800.000	0.140	0.399
-474.274	-95.123	0.070	-0.019
-473.259	-60.358	-0.329	0.139
-472.245	800.000	-0.068	0.287
-471.230	107.909	0.103	-0.122
-470.216	-67.525	0.198	-0.077
-469.201	-25.740	0.080	0.047
-468.186	-24.215	-0.301	0.179
-467.172	-88.141	0.230	0.069
-466.157	-118.781	-0.373	0.065
-465.143	-102.506	-0.133	0.032
-464.128	34.688	0.255	0.222
-463.113	152.036	-0.142	0.192
-462.099	-139.607	0.123	-0.013
-461.084	110.191	-0.114	0.136
-460.070	279.235	-0.043	0.076
-459.055	95.084	0.199	-0.225
-458.040	242.944	0.138	0.230
-457.026	205.496	-0.065	0.100
-456.011	127.608	-0.163	0.206
-454.997	800.000	0.054	-0.231
-453.982	121.301	-0.054	-0.066
-452.968	-4.804	-0.109	-0.075
-451.953	-69.208	0.073	0.028
-450.938	-200.000	-0.007	-0.057
-449.924	18.448	-0.251	0.199
-448.909	-48.948	0.232	-0.111
-447.895	800.000	0.029	-0.110
-446.880	-200.000	-0.040	0.272
-445.865	249.303	-0.203	-0.342
-444.851	-140.080	0.118	0.012
-443.836	-69.586	-0.071	0.027
-442.822	-36.410	0.248	0.133
-441.807	152.379	0.151	0.205
-440.792	-1.908	0.140	0.098
-439.778	-200.000	0.032	-0.304
-438.763	495.992	-0.019	0.044
-437.749	-166.726	0.343	-0.014
-436.734	800.000	0.045	0.173
-435.719	13.465	0.188	-0.145
-434.705	-54.889	0.215	-0.096
-433.690	48.279	-0.159	-0.148
-432.676	448.242	0.054	0.118
-431.661	-200.000	0.014	0.165
-430.646	800.000	0.053	0.196
-429.632	-27.318	-0.213	0.123
-428.617	160.447	0.204	0.283
-427.603	-102.837	-0.151	0.036
-426.588	-30.262	0.217	0.122
-425.573	148.642	-0.251	-0.337
-424.559	-200.000	-0.052	-0.452
-423.544	-54.130	-0.308	-0.139
-422.530	15.904	-0.371	0.290
-421.515	69.952	-0.245	0.251
-420.500	-0.214	0.188	0.133
-419.486	800.000	-0.041	0.177
-418.471	-200.000	0.024	0.136
-417.457	-116.621	0.045	-0.008
-416.442	-168.621	-0.179	0.007
-415.428	147.564	-0.070	-0.094
-414.413	-113.218	-0.173	-0.034
-413.398	-200.000	-0.002	-0.178
-412.384	-126.904	-0.381	-0.056
-411.369	70.852	0.190	-0.196
-410.355	-200.000	0.024	0.144
-409.340	800.000	-0.012	0.034
-408.325	53.608	0.139	-0.132
-407.311	-128.799	-0.144	-0.020
-406.296	-63.873	-0.069	-0.028
-405.282	51.204	-0.148	0.140
-404.267	800.000	-0.050	-0.141
-403.252	287.391	-0.084	-0.150
-402.238	123.010	-0.171	0.212
-401.223	-200.000	-0.052	-0.258
-400.209	-200.000	-0.008	-0.034
-399.194	56.611	0.101	0.098
-398.179	371.566	-0.175	0.352
-397.165	800.000	-0.023	-0.075
-396.150	-33.445	0.258	-0.142
-395.136	-20.745	-0.134	-0.081
-394.121	-164.314	0.054	0.002
-393.106	629.517	0.138	-0.347
-392.092	-89.907	0.082	0.024
-391.077	-200.000	-0.025	-0.313
-390.063	-200.000	0.023	0.336
-389.048	236.443	0.085	-0.139
-388.033	-153.440	0.150	0.010
-387.019	85.915	0.161	-0.176
-386.004	-8.688	0.212	0.141
-384.990	800.000	0.026	0.108
-383.975	-35.459	0.313	0.169
-382.960	-34.667	-0.207	-0.112
-381.946	-14.879	0.138	0.088
-380.931	-200.000	-0.066	-0.289
-379.917	-30.215	-0.192	-0.108
-378.902	800.000	0.104	0.343
-377.888	-50.584	-0.139	0.065
-376.873	-164.095	0.201	0.009
-375.858	-81.333	0.165	0.054
-374.844	-78.661	-0.041	0.014
-373.829	-93.259	0.304	0.084
-372.815	-200.000	-0.005	0.023
-371.800	-14.912	-0.275	0.175
-370.785	41.323	-0.339	-0.304
-369.771	-29.491	0.233	0.132
-368.756	-89.943	-0.312	-0.090
-367.742	-149.668	-0.330	0.026
-366.727	-55.430	0.258	0.115
-365.712	-200.000	-0.050	-0.300
-364.698	-128.208	-0.321	0.045
-363.683	471.965	-0.043	-0.096
-362.669	26.547	-0.229	0.190
-361.654	-174.212	0.132	-0.004
-360.639	55.861	-0.067	0.065
-359.625	115.181	0.220	0.267
-358.610	318.031	0.149	0.280
-357.596	-200.000	0.056	0.342
-356.581	-6.632	-0.203	-0.137
-355.566	-200.000	-0.017	0.121
-354.552	800.000	-0.043	-0.170
-353.537	-33.143	0.160	0.088
-352.523	201.757	0.074	0.113
-351.508	800.000	-0.083	0.298
-350.493	28.739	0.064	-0.054
-349.479	62.846	-0.054	0.054
-348.464	62.026	0.124	0.123
-347.450	-200.000	0.010	-0.226
-346.435	-47.996	-0.167	-0.080
-345.420	97.576	-0.159	-0.181
-344.406	118.884	0.208	-0.255
-343.391	-200.000	0.015	0.132
-342.377	-69.645	0.061	0.023
-341.362	16.749	-0.123	-0.096
-340.348	136.279	0.106	-0.137
-339.333	800.000	0.096	0.284
-338.318	-177.749	0.249	0.006
-337.304	148.665	0.118	0.158
-336.289	-21.361	0.175	0.106
-335.275	-42.095	0.352	0.178
-334.260	-85.126	-0.268	-0.083
-333.245	227.397	0.135	-0.217
-332.231	43.945	-0.403	-0.366
-331.216	-60.710	0.167	0.070
-330.202	-80.224	0.249	0.083
-329.187	-177.205	0.328	0.008
-328.172	-200.000	0.020	0.318
-327.158	119.680	0.140	-0.172
-326.143	35.793	-0.341	-0.297
-325.129	-200.000	0.005	-0.259
-324.114	132.117	-0.093	0.118
-323.099	-156.879	0.326	-0.020
-322.085	-187.616	0.157	-0.002
-321.070	25.219	-0.199	0.164
-320.056	-127.997	-0.053	0.008
-319.041	-200.000	0.001	-0.127
-318.026	62.938	-0.057	0.056
-317.012	127.495	0.023	-0.029
-315.997	42.737	-0.115	-0.104
-314.983	-200.000	-0.056	-0.262
-313.968	-200.000	0.006	0.433
-312.953	265.302	-0.061	-0.105
-311.939	21.927	-0.021	0.017
-310.924	-36.215	-0.354	0.189
-309.910	-7.508	0.155	0.104
-308.895	-15.990	0.254	-0.160
-307.880	22.280	-0.350	-0.283
-306.866	50.437	-0.250	0.234
-305.851	114.220	0.175	0.210
-304.837	-126.048	-0.168	-0.025
-303.822	-200.000	0.046	0.223
-302.807	-200.000	-0.052	0.377
-301.793	110.515	0.100	-0.118
-300.778	-166.122	0.380	-0.016
-299.764	-169.313	-0.057	-0.002
-298.749	-200.000	-0.079	-0.373
-297.735	573.606	0.120	0.289
-296.720	-200.000	0.004	0.129
-295.705	-140.971	0.321	0.033
-294.691	5.409	-0.096	-0.070
-293.676	328.487	-0.081	0.154
-292.662	-200.000	-0.011	0.304
-291.647	121.466	-0.204	-0.251
-290.632	17.335	-0.141	0.111
-289.618	23.756	-0.039	0.032
-288.603	227.747	-0.071	-0.115
-287.589	-200.000	0.008	0.193
-286.574	32.057	-0.215	0.183
-285.559	522.326	-0.046	0.106
-284.545	120.457	-0.202	0.247
-283.530	104.456	-0.262	-0.305
-282.516	-200.000	-0.029	-0.303
-281.501	-200.000	0.028	0.132
-280.486	-97.840	-0.225	-0.057
-279.472	-200.000	-0.101	0.472
-278.457	-89.135	0.092	-0.027
-277.443	-200.000	-0.016	-0.396
-276.428	-78.755	-0.114	0.039
-275.413	117.676	-0.096	0.117
-274.399	-146.503	0.123	0.011
-273.384	71.437	-0.152	-0.156
-272.370	-99.797	0.153	-0.038
-271.355	-200.000	0.038	0.271
-270.340	525.453	-0.160	-0.371
-269.326	-200.000	-0.089	0.472
-268.311	800.000	-0.029	0.085
-267.297	273.885	0.034	0.060
-266.282	-25.373	-0.452	0.264
-265.267	-200.000	-0.043	0.327
-264.253	375.638	-0.099	0.200
-263.238	-134.455	-0.405	0.049
-262.224	103.833	-0.066	0.076
-261.209	0.239	0.175	0.123
-260.195	-163.640	-0.308	-0.014
-259.180	220.724	0.158	0.250
-258.165	-27.093	0.256	0.147
-257.151	654.929	-0.099	0.250
-256.136	800.000	0.032	-0.117
-255.122	-107.029	0.404	0.088
-254.107	-158.788	0.212	0.012
-253.092	-160.827	0.108	0.006
-252.078	800.000	-0.058	0.204
-251.063	41.348	0.182	-0.162
-250.049	-104.964	-0.106	0.024
-249.034	51.062	-0.092	0.086
-248.019	350.551	0.112	0.218
-247.005	800.000	-0.041	0.163
-245.990	72.097	0.240	-0.247
-244.976	173.825	-0.217	-0.309
-243.961	-187.305	-0.072	0.001
-242.946	800.000	-0.121	-0.460
-241.932	800.000	0.021	-0.080
-240.917	333.806	0.089	-0.170
-239.903	62.468	-0.226	-0.223
-238.888	800.000	0.020	0.058
-237.873	-153.782	0.034	0.002
-236.859	199.043	-0.106	0.161
-235.844	800.000	0.047	0.160
-234.830	-107.042	-0.309	0.067
-233.815	100.396	-0.085	-0.097
-232.800	-200.000	-0.009	0.205
-231.786	-51.359	0.400	-0.184
-230.771	-200.000	-0.027	0.199
-229.757	566.767	0.071	0.170
-228.742	-106.848	0.384	-0.084
-227.727	-200.000	0.001	0.077
-226.713	-200.000	-0.004	-0.182
-225.698	109.277	-0.267	-0.316
-224.684	800.000	0.026	0.109
-223.669	76.840	0.221	-0.231
-222.655	38.059	0.134	0.118
-221.640	800.000	-0.037	0.132
-220.625	-14.934	-0.106	0.067
-219.611	-47.708	0.191	-0.091
-218.596	-52.342	0.212	0.097
-217.582	800.000	-0.035	0.119
-216.567	293.143	0.069	-0.124
-215.552	-200.000	0.019	-0.111
-214.538	-33.760	0.492	0.268
-213.523	800.000	-0.082	0.241
-212.509	-33.534	0.078	-0.042
-211.494	-109.463	-0.424	0.088
-210.479	-200.000	-0.020	0.301
-209.465	800.000	-0.047	0.152
-208.450	-55.152	0.289	0.128
-207.436	800.000	-0.042	0.127
-206.421	171.399	0.075	-0.106
-205.406	-200.000	0.082	0.472
-204.392	-200.000	-0.026	-0.259
-203.377	-200.000	0.035	-0.476
-202.363	800.000	-0.052	0.177
-201.348	-124.742	0.166	0.025
-200.333	305.070	-0.063	0.115
-199.319	-130.512	0.183	0.024
-198.304	-183.916	0.332	0.006
-197.290	453.901	-0.064	0.140
-196.275	-51.473	0.248	0.114
-195.260	-200.000	-0.026	0.356
-194.246	-55.920	0.310	-0.136
-193.231	296.091	0.111	0.201
-192.217	-10.133	-0.187	-0.122
-191.202	-110.848	-0.336	-0.068
-190.187	84.448	0.284	-0.306
-189.173	-18.459	0.069	-0.042
-188.158	182.449	0.129	0.187
-187.144	274.527	-0.089	-0.156
-186.129	-39.380	-0.218	-0.112
-185.114	218.834	-0.071	-0.112
-184.100	-65.339	0.168	-0.067
-183.085	319.945	-0.079	0.147
-182.071	-48.701	0.101	0.048
-181.056	12.173	0.090	0.068
-180.042	240.204	0.077	-0.126
-179.027	-84.149	0.354	-0.111
-178.012	-79.075	-0.272	-0.091
-176.998	720.567	-0.031	-0.081
-175.983	-156.833	0.221	-0.013
-174.969	-93.332	0.343	-0.094
-173.954	-60.525	-0.159	-0.066
-172.939	157.350	0.200	-0.272
-171.925	390.218	0.096	-0.196
-170.910	202.758	0.127	-0.193
-169.896	-200.000	-0.005	-0.088
-168.881	67.112	-0.156	-0.156
-167.866	51.807	0.290	-0.271
-166.852	89.758	0.275	-0.302
-165.837	-163.182	-0.147	-0.007
-164.823	-200.000	-0.022	-0.175
-163.808	193.308	0.064	0.095
-162.793	-58.896	-0.203	-0.086
-161.779	-200.000	-0.056	0.245
-160.764	-102.449	-0.224	-0.053
-159.750	-200.000	0.010	0.127
-158.735	800.000	0.053	0.219
-157.720	34.040	-0.198	-0.169
-156.706	-200.000	0.002	-0.020
-155.691	-130.851	-0.295	0.039
-154.677	293.438	-0.047	-0.085
-153.662	-200.000	0.085	-0.372
-152.647	-200.000	-0.006	-0.142
-151.633	-14.177	0.118	-0.075
-150.618	21.144	0.043	-0.034
-149.604	-165.279	0.213	0.009
-148.589	-114.614	-0.313	0.059
-147.574	440.175	0.059	0.126
-146.560	-96.576	-0.151	-0.039
-145.545	9.391	0.091	-0.068
-144.531	7.288	-0.099	-0.073
-143.516	-200.000	-0.050	0.232
-142.502	24.674	0.317	0.258
-141.487	800.000	0.035	-0.108
-140.472	-200.000	-0.026	0.139
-139.458	-6.851	0.110	-0.074
-138.443	-121.973	-0.127	0.021
-137.429	332.178	0.195	0.370
-136.414	660.414	0.085	0.216
-135.399	-53.572	-0.231	0.104
-134.385	-200.000	0.030	0.157
-133.370	282.385	-0.066	-0.117
-132.356	-110.411	0.403	0.082
-131.341	-200.000	-0.046	0.235
-130.326	-70.559	0.581	-0.216
-129.312	87.939	-0.062	0.068
-128.297	-81.158	0.086	0.028
-127.283	471.135	0.105	0.232
-126.268	-37.691	-0.040	0.021
-125.253	-88.512	0.110	0.032
-124.239	-182.871	0.164	-0.003
-123.224	32.210	-0.108	-0.091
-122.210	-192.799	0.109	-0.001
-121.195	-31.595	0.060	-0.033
-120.180	-62.240	-0.142	0.058
