DTS Sentinel unit serial number:	SN413079Multiplexer serial number:	ORYXHardware model number:	OX4-SRSoftware version number:	ORYX F/W v4.00 Oryx Data Collector v3.7.2.0data status	okinstallation	princeton_trtdifferential loss correction	single-endedforward channel	channel 1reverse channel	N/Adate	2019/09/18time	12:02:35forward acquisition time	60.00reverse acquisition time	0.00gamma	496.2192k internal	0.2323k external	0.2323temperature offset calibration	0.9981default loss term (dB/km)	0.3790temperature slope calibration	1.0000multiplexer offset coefficient	1.0000multiplexer slope coefficient	1.0000fibre end	0.00T internal ref (°C)	31.56T ext. ref 1 (°C)	0.49T ext. ref 2 (°C)	27.49length (m)	temperature (°C)	Stokes	anti-Stokes-747.200	-124.810	-0.143	-0.022
-746.185	-151.868	-0.295	0.022
-745.171	424.074	-0.109	0.238
-744.156	-74.313	-0.298	0.109
-743.142	-57.759	-0.384	-0.170
-742.127	236.558	-0.126	0.210
-741.112	-198.561	-0.100	-0.001
-740.098	-200.000	-0.032	0.226
-739.083	-200.000	-0.246	-0.000
-738.069	-96.841	0.228	0.061
-737.054	-101.989	0.104	0.025
-736.039	800.000	-0.029	-0.096
-735.025	202.415	-0.169	0.263
-734.010	-9.630	0.188	-0.127
-732.996	-62.744	-0.236	0.099
-731.981	97.333	-0.285	-0.330
-730.966	9.243	0.137	0.104
-729.952	800.000	0.028	0.116
-728.937	-78.280	0.179	0.062
-727.923	-130.018	-0.127	-0.018
-726.908	-31.284	0.133	-0.075
-725.894	-200.000	0.004	0.246
-724.879	79.661	-0.207	-0.224
-723.864	-112.027	-0.275	-0.056
-722.850	-200.000	-0.029	-0.145
-721.835	-200.000	0.021	-0.179
-720.821	1.575	0.132	-0.096
-719.806	-45.992	0.082	0.041
-718.791	425.335	0.223	0.484
-717.777	-141.182	-0.273	0.028
-716.762	-114.074	-0.314	-0.061
-715.748	85.274	-0.248	0.274
-714.733	-38.997	-0.304	-0.161
-713.718	-160.088	-0.189	-0.010
-712.704	-102.150	-0.230	0.056
-711.689	-97.744	-0.141	0.037
-710.675	105.302	0.056	0.066
-709.660	88.804	0.334	0.374
-708.645	-139.537	0.300	-0.032
-707.631	800.000	0.080	-0.245
-706.616	-136.291	-0.249	0.029
-705.602	165.319	-0.106	0.151
-704.587	-84.959	-0.102	-0.032
-703.572	-116.278	0.346	-0.065
-702.558	-20.808	0.111	0.069
-701.543	-7.919	0.250	-0.170
-700.529	-12.575	0.155	0.102
-699.514	-200.000	-0.008	0.409
-698.499	-72.361	-0.277	0.103
-697.485	-200.000	-0.001	-0.140
-696.470	-200.000	-0.046	-0.207
-695.456	-154.324	0.120	0.008
-694.441	158.730	-0.184	-0.258
-693.426	800.000	0.079	0.287
-692.412	-37.563	-0.149	-0.080
-691.397	-101.121	-0.319	-0.079
-690.383	-99.917	0.268	-0.067
-689.368	-200.000	-0.024	-0.498
-688.354	-45.617	-0.292	-0.146
-687.339	29.870	0.048	0.041
-686.324	-142.195	-0.425	-0.042
-685.310	-36.916	-0.394	-0.213
-684.295	-200.000	-0.004	0.060
-683.281	800.000	-0.050	0.193
-682.266	299.461	-0.217	0.403
-681.251	270.857	0.067	-0.118
-680.237	-200.000	-0.023	0.103
-679.222	580.451	0.026	0.064
-678.208	800.000	0.083	-0.309
-677.193	-31.785	-0.095	-0.053
-676.178	-200.000	0.025	-0.250
-675.164	4.742	-0.130	-0.096
-674.149	-74.560	-0.520	-0.188
-673.135	800.000	-0.087	-0.355
-672.120	109.333	0.099	-0.119
-671.105	748.085	0.014	0.037
-670.091	-25.251	-0.168	-0.100
-669.076	452.653	0.121	-0.269
-668.062	800.000	0.019	-0.072
-667.047	-40.231	-0.301	-0.158
-666.032	-200.000	0.031	-0.484
-665.018	-140.262	0.341	-0.036
-664.003	758.693	0.153	-0.418
-662.989	17.930	0.101	-0.081
-661.974	347.175	-0.126	0.249
-660.959	213.622	-0.147	0.234
-659.945	-133.771	0.175	0.022
-658.930	389.259	0.124	-0.258
-657.916	-135.821	-0.260	0.031
-656.901	8.260	0.243	-0.184
-655.886	289.356	-0.132	-0.241
-654.872	-160.992	-0.416	0.022
-653.857	800.000	0.063	-0.219
-652.843	-19.659	-0.400	0.249
-651.828	-31.173	-0.195	0.111
-650.814	208.118	-0.137	0.215
-649.799	160.694	0.104	0.146
-648.784	800.000	-0.117	0.510
-647.770	-72.230	0.118	-0.044
-646.755	346.775	-0.165	0.327
-645.741	-76.648	0.249	0.088
-644.726	-152.376	-0.127	0.009
-643.711	-71.908	0.353	-0.132
-642.697	-200.000	-0.023	-0.248
-641.682	435.855	-0.055	-0.121
-640.668	209.212	-0.087	0.137
-639.653	-45.770	-0.057	0.028
-638.638	800.000	0.092	0.341
-637.624	-200.000	0.042	0.241
-636.609	-200.000	0.052	-0.250
-635.595	-10.728	0.300	0.200
-634.580	-56.766	0.152	0.067
-633.565	800.000	-0.013	0.037
-632.551	-91.039	-0.075	-0.022
-631.536	29.286	0.211	-0.180
-630.522	-139.759	-0.151	-0.016
-629.507	367.201	0.109	-0.222
-628.492	166.942	-0.266	-0.379
-627.478	277.298	-0.085	-0.152
-626.463	7.957	-0.191	-0.144
-625.449	-121.598	-0.248	0.041
-624.434	-173.139	0.130	-0.004
-623.419	-114.077	0.108	0.021
-622.405	800.000	0.128	0.361
-621.390	83.684	0.159	-0.175
-620.376	639.624	-0.051	-0.130
-619.361	396.830	0.042	-0.087
-618.346	-110.449	0.382	0.080
-617.332	-200.000	-0.001	-0.019
-616.317	124.275	0.091	0.115
-615.303	39.868	-0.148	-0.134
-614.288	545.374	-0.059	-0.143
-613.273	-133.495	0.090	-0.011
-612.259	-15.105	0.251	0.162
-611.244	-18.829	-0.302	-0.189
-610.230	148.775	0.051	-0.069
-609.215	-200.000	-0.047	0.311
-608.201	76.323	0.167	0.178
-607.186	311.888	0.052	-0.097
-606.171	-92.031	-0.102	-0.029
-605.157	-40.201	-0.290	0.152
-604.142	-82.193	0.055	0.018
-603.128	6.942	0.181	0.136
-602.113	-200.000	0.007	-0.049
-601.098	190.409	-0.209	-0.315
-600.084	-200.000	0.005	-0.347
-599.069	-200.000	0.005	-0.092
-598.055	45.577	-0.238	0.221
-597.040	-171.423	-0.615	-0.021
-596.025	274.749	-0.124	0.221
-595.011	-200.000	-0.107	0.577
-593.996	-153.523	-0.314	-0.022
-592.982	-73.236	-0.462	0.170
-591.967	-200.000	0.021	0.240
-590.952	168.065	-0.226	-0.323
-589.938	-44.980	-0.168	-0.084
-588.923	371.883	-0.127	-0.259
-587.909	-138.336	-0.289	0.032
-586.894	620.660	0.052	0.132
-585.879	650.406	-0.031	-0.079
-584.865	800.000	-0.125	0.480
-583.850	-143.046	0.078	-0.008
-582.836	74.802	-0.051	0.054
-581.821	253.440	0.085	-0.146
-580.806	-200.000	0.024	-0.122
-579.792	-200.000	0.005	-0.343
-578.777	-200.000	-0.009	0.180
-577.763	-111.428	0.137	0.028
-576.748	-200.000	0.014	0.063
-575.733	419.450	-0.131	-0.282
-574.719	90.126	-0.137	-0.154
-573.704	268.475	0.165	-0.291
-572.690	136.969	0.036	0.047
-571.675	22.275	0.164	-0.135
-570.661	800.000	-0.066	-0.183
-569.646	-87.834	0.376	0.114
-568.631	61.364	-0.125	0.125
-567.617	-104.087	0.081	-0.019
-566.602	-111.026	-0.153	-0.032
-565.588	22.785	0.151	-0.124
-564.573	45.211	0.172	0.159
-563.558	-108.654	0.015	-0.003
-562.544	374.004	0.054	-0.110
-561.529	-67.747	-0.220	-0.086
-560.515	-16.800	-0.314	-0.199
-559.500	-76.258	0.280	-0.099
-558.485	-200.000	0.015	-0.108
-557.471	-72.307	-0.153	-0.057
-556.456	700.697	-0.111	0.292
-555.442	-200.000	-0.032	-0.150
-554.427	179.680	-0.148	-0.217
-553.412	578.607	0.039	-0.095
-552.398	259.127	-0.220	0.380
-551.383	498.728	0.055	0.128
-550.369	-200.000	0.014	0.328
-549.354	8.858	0.226	-0.171
-548.339	-109.159	-0.349	-0.074
-547.325	-149.423	-0.492	0.039
-546.310	-43.754	0.034	-0.017
-545.296	-200.000	0.016	0.087
-544.281	-113.511	-0.506	-0.099
-543.266	74.722	0.079	-0.083
-542.252	54.986	0.026	-0.025
-541.237	200.502	-0.096	0.148
-540.223	-78.605	0.380	0.130
-539.208	11.758	-0.137	-0.106
-538.193	-200.000	0.011	0.150
-537.179	22.550	0.081	0.067
-536.164	-67.235	-0.262	-0.103
-535.150	701.716	-0.095	0.250
-534.135	81.735	0.136	-0.148
-533.121	12.705	0.067	0.052
-532.106	800.000	0.125	-0.350
-531.091	800.000	0.038	-0.156
-530.077	-94.351	0.211	-0.058
-529.062	206.203	-0.155	0.242
-528.048	199.722	-0.073	-0.112
-527.033	155.040	-0.119	-0.164
-526.018	-82.362	0.173	-0.056
-525.004	-200.000	0.012	-0.078
-523.989	-200.000	-0.070	0.432
-522.975	800.000	0.037	-0.135
-521.960	18.522	0.167	-0.134
-520.945	475.819	-0.068	-0.153
-519.931	483.642	0.151	-0.344
-518.916	-200.000	0.008	0.269
-517.902	372.212	-0.116	0.236
-516.887	-123.898	0.273	0.043
-515.872	28.650	-0.085	-0.072
-514.858	-200.000	0.011	-0.079
-513.843	443.603	-0.075	-0.165
-512.829	84.001	0.195	-0.213
-511.814	-122.227	0.121	-0.020
-510.799	-199.610	0.204	0.001
-509.785	29.444	0.178	-0.151
-508.770	-80.499	-0.087	-0.029
-507.756	42.914	-0.244	0.223
-506.741	484.365	0.090	0.205
-505.726	-41.396	0.146	0.075
-504.712	-128.733	-0.440	0.062
-503.697	-124.491	0.296	0.046
-502.683	180.636	-0.106	-0.156
-501.668	800.000	-0.079	0.233
-500.653	579.041	0.047	-0.115
-499.639	-117.589	-0.246	-0.044
-498.624	-169.164	-0.060	-0.002
-497.610	31.415	-0.176	0.151
-496.595	-200.000	-0.004	-0.133
-495.581	-15.822	-0.082	-0.052
-494.566	-63.341	0.177	-0.073
-493.551	-200.000	-0.040	-0.252
-492.537	550.817	0.077	0.185
-491.522	-69.202	0.182	-0.070
-490.508	276.524	-0.186	-0.331
-489.493	74.227	-0.226	-0.237
-488.478	-81.059	-0.162	0.054
-487.464	-135.752	-0.175	-0.021
-486.449	-62.588	0.110	-0.046
-485.435	137.533	0.081	-0.105
-484.420	189.284	0.105	-0.158
-483.405	99.845	0.212	0.245
-482.391	258.205	-0.224	-0.386
-481.376	362.448	0.023	-0.046
-480.362	189.366	0.108	-0.162
-479.347	-200.000	0.049	0.385
-478.332	526.168	0.169	0.398
-477.318	800.000	0.006	-0.025
-476.303	800.000	0.126	-0.396
-475.289	-43.360	0.087	-0.044
-474.274	-200.000	0.013	0.201
-473.259	242.033	0.111	-0.186
-472.245	109.690	0.210	-0.252
-471.230	-143.955	-0.308	0.029
-470.216	-86.118	0.178	0.055
-469.201	-74.743	-0.393	0.141
-468.186	-200.000	-0.006	0.098
-467.172	81.390	0.142	-0.153
-466.157	-52.048	0.127	0.059
-465.143	455.181	-0.050	-0.110
-464.128	-187.814	0.149	0.002
-463.113	-200.000	-0.030	0.137
-462.099	152.499	-0.092	0.126
-461.084	-14.238	0.133	-0.086
-460.070	61.039	-0.039	-0.038
-459.055	-92.648	-0.250	0.070
-458.040	57.049	0.163	0.159
-457.026	-56.787	-0.210	-0.093
-456.011	-23.591	0.041	0.024
-454.997	47.925	-0.244	0.228
-453.982	-71.993	0.100	0.037
-452.968	-107.982	0.472	-0.102
-451.953	-87.262	0.092	-0.028
-450.938	7.391	0.133	-0.099
-449.924	-27.316	-0.420	-0.244
-448.909	-200.000	-0.000	0.164
-447.895	79.918	-0.138	0.148
-446.880	-123.651	0.240	-0.038
-445.865	-49.189	-0.176	-0.084
-444.851	85.330	0.187	-0.204
-443.836	-56.158	0.114	0.051
-442.822	93.932	0.294	-0.333
-441.807	800.000	0.036	0.105
-440.792	-200.000	0.056	0.317
-439.778	5.124	-0.184	-0.135
-438.763	-177.346	0.320	0.008
-437.749	186.979	-0.109	-0.162
-436.734	-43.102	0.055	-0.028
-435.719	-10.330	-0.093	0.061
-434.705	76.121	0.081	-0.085
-433.690	-187.637	0.573	-0.008
-432.676	800.000	0.050	-0.142
-431.661	-200.000	-0.001	-0.058
-430.646	121.323	-0.118	-0.147
-429.632	-149.086	0.354	0.028
-428.617	323.424	-0.034	-0.065
-427.603	-200.000	-0.027	-0.300
-426.588	-180.417	-0.195	0.004
-425.573	8.908	-0.191	0.144
-424.559	232.636	-0.090	-0.148
-423.544	-8.049	-0.100	-0.067
-422.530	-166.170	-0.148	0.006
-421.515	-200.000	0.059	0.361
-420.500	-125.370	-0.251	0.038
-419.486	-79.033	0.055	0.019
-418.471	56.576	0.117	-0.114
-417.457	-44.582	-0.198	-0.099
-416.442	-47.406	-0.163	-0.079
-415.428	-179.320	0.290	0.006
-414.413	90.376	0.045	0.050
-413.398	-99.979	-0.172	-0.043
-412.384	-180.761	-0.218	-0.004
-411.369	-70.477	0.347	0.131
-410.355	-200.000	-0.014	0.318
-409.340	800.000	-0.103	0.317
-408.325	-152.134	0.320	0.023
-407.311	800.000	-0.057	0.161
-406.296	0.041	0.321	0.228
-405.282	0.819	-0.109	-0.077
-404.267	44.358	-0.181	0.165
-403.252	-92.993	-0.229	0.064
-402.238	-200.000	-0.081	-0.389
-401.223	265.659	-0.136	-0.237
-400.209	79.068	0.132	0.141
-399.194	580.575	-0.068	-0.167
-398.179	-124.088	0.231	0.036
-397.165	-10.882	-0.176	0.116
-396.150	-58.953	0.274	-0.118
-395.136	622.539	-0.087	-0.219
-394.121	-200.000	-0.071	-0.514
-393.106	60.727	0.140	0.138
-392.092	-129.644	-0.201	-0.028
-391.077	-200.000	-0.019	0.155
-390.063	675.711	-0.073	-0.189
-389.048	-151.071	0.274	0.020
-388.033	472.987	0.066	0.148
-387.019	66.150	0.176	-0.178
-386.004	-144.898	-0.088	0.008
-384.990	-43.294	-0.232	0.117
-383.975	-12.550	-0.037	0.024
-382.960	-13.307	0.147	0.095
-381.946	72.074	0.251	0.260
-380.931	53.257	-0.300	0.287
-379.917	-200.000	0.084	0.375
-378.902	-200.000	0.018	-0.155
-377.888	630.716	0.096	0.242
-376.873	97.446	-0.268	0.306
-375.858	-87.611	-0.158	0.048
-374.844	273.829	-0.070	0.124
-373.829	74.640	-0.194	0.203
-372.815	645.944	0.040	0.103
-371.800	16.240	0.227	0.179
-370.785	-67.671	-0.206	0.080
-369.771	-200.000	0.008	0.039
-368.756	800.000	0.055	0.162
-367.742	-64.789	-0.455	0.183
-366.727	53.651	0.036	0.034
-365.712	-29.253	-0.104	-0.059
-364.698	800.000	-0.052	-0.211
-363.683	-181.020	0.180	0.004
-362.669	175.212	0.163	0.235
-361.654	-44.474	0.161	-0.080
-360.639	470.993	0.009	-0.021
-359.625	-200.000	0.009	0.337
-358.610	-102.699	-0.248	0.059
-357.596	-200.000	0.078	-0.412
-356.581	782.597	-0.023	-0.062
-355.566	-5.926	-0.228	-0.155
-354.552	-168.529	0.035	-0.001
-353.537	5.177	0.090	0.066
-352.523	-75.424	0.046	0.016
-351.508	-200.000	0.039	0.185
-350.493	419.959	-0.112	0.238
-349.479	586.471	-0.020	-0.049
-348.464	-21.675	-0.041	0.025
-347.450	800.000	0.075	0.233
-346.435	-200.000	0.024	0.143
-345.420	800.000	-0.008	0.031
-344.406	769.606	0.141	0.382
-343.391	-169.419	0.359	0.013
-342.377	38.566	0.207	0.183
-341.362	-43.809	-0.412	-0.206
-340.348	110.856	0.116	0.138
-339.333	-200.000	0.040	-0.350
-338.318	-60.934	-0.154	-0.065
-337.304	-200.000	0.010	0.224
-336.289	130.138	0.063	-0.080
-335.275	-17.842	-0.048	0.030
-334.260	206.992	-0.136	-0.210
-333.245	39.457	0.215	-0.191
-332.231	-112.319	0.362	-0.072
-331.216	800.000	0.094	-0.338
-330.202	-170.628	0.297	-0.010
-329.187	-200.000	0.040	-0.229
-328.172	-68.567	0.205	-0.079
-327.158	282.818	0.032	-0.056
-326.143	-200.000	-0.044	-0.194
-325.129	-103.795	-0.186	0.043
-324.114	64.502	0.117	-0.117
-323.099	141.632	-0.211	-0.277
-322.085	53.665	-0.042	-0.040
-321.070	-92.108	-0.009	0.002
-320.056	-94.220	-0.160	-0.044
-319.041	-99.368	-0.189	0.047
-318.026	98.632	0.123	-0.141
-317.012	-46.554	-0.161	-0.078
-315.997	800.000	-0.025	-0.088
-314.983	-93.605	0.257	-0.070
-313.968	-200.000	-0.039	0.175
-312.953	-80.362	-0.064	0.021
-311.939	-200.000	-0.071	-0.347
-310.924	-200.000	-0.006	-0.158
-309.910	-23.340	0.300	0.179
-308.895	-111.527	0.053	0.011
-307.880	-200.000	-0.054	0.378
-306.866	277.127	-0.171	-0.302
-305.851	67.674	-0.298	0.302
-304.837	-31.951	0.581	0.323
-303.822	90.924	0.194	0.216
-302.807	800.000	0.023	0.087
-301.793	-200.000	0.021	-0.280
-300.778	-114.531	-0.347	-0.066
-299.764	800.000	-0.019	0.066
-298.749	-200.000	-0.014	0.163
-297.735	-24.376	-0.050	0.030
-296.720	-155.120	-0.390	-0.025
-295.705	-44.510	-0.128	-0.064
-294.691	35.894	0.295	-0.258
-293.676	-52.885	0.328	-0.150
-292.662	392.115	0.098	0.203
-291.647	-200.000	0.054	0.246
-290.632	-65.823	0.319	0.126
-289.618	-19.989	-0.067	0.041
-288.603	81.886	-0.246	0.264
-287.589	128.131	-0.062	0.079
-286.574	141.751	-0.097	0.128
-285.559	55.308	0.073	0.070
-284.545	-138.263	0.171	0.019
-283.530	92.634	0.020	0.023
-282.516	800.000	0.029	0.119
-281.501	-45.368	0.249	0.122
-280.486	-83.713	0.112	-0.035
-279.472	800.000	-0.061	0.221
-278.457	7.213	-0.188	-0.139
-277.443	602.465	0.132	0.325
-276.428	-136.541	-0.172	0.020
-275.413	570.902	0.041	0.100
-274.399	3.623	-0.054	-0.039
-273.384	-121.403	-0.155	0.026
-272.370	286.337	-0.040	-0.072
-271.355	53.138	-0.206	-0.196
-270.340	800.000	0.025	0.105
-269.326	-200.000	0.010	-0.356
-268.311	82.877	0.035	-0.038
-267.297	-119.355	0.119	-0.020
-266.282	18.319	-0.093	0.073
-265.267	800.000	-0.097	-0.315
-264.253	-62.208	-0.276	0.114
-263.238	41.025	0.141	0.126
-262.224	800.000	0.026	0.081
-261.209	-37.545	-0.226	0.120
-260.195	-127.884	0.153	-0.022
-259.180	-31.089	0.104	-0.058
-258.165	800.000	-0.050	-0.175
-257.151	97.081	-0.222	-0.253
-256.136	223.647	0.084	0.134
-255.122	-91.116	0.228	0.065
-254.107	178.409	0.259	-0.374
-253.092	-124.004	-0.141	-0.022
-252.078	786.169	-0.060	0.164
-251.063	66.091	-0.049	-0.049
-250.049	12.939	-0.040	-0.031
-249.034	116.161	0.029	0.036
-248.019	384.602	-0.083	0.169
-247.005	229.170	-0.056	-0.090
-245.990	-126.256	-0.405	-0.060
-244.976	-200.000	-0.061	-0.343
-243.961	-200.000	0.036	0.243
-242.946	383.449	0.032	-0.065
-241.932	260.577	-0.061	0.104
-240.917	-110.537	0.325	-0.067
-239.903	-200.000	0.040	-0.186
-238.888	-34.100	0.293	-0.159
-237.873	-166.745	0.130	-0.005
-236.859	-101.112	-0.234	-0.057
-235.844	-193.315	-0.140	0.001
-234.830	-13.177	-0.144	0.092
-233.815	375.319	0.082	-0.165
-232.800	66.165	-0.143	-0.143
-231.786	-90.549	0.238	0.068
-230.771	182.946	-0.129	0.189
-229.757	-200.000	0.009	-0.132
-228.742	-114.307	0.219	-0.042
-227.727	-41.340	-0.120	-0.061
-226.713	800.000	0.050	-0.177
-225.698	-99.397	-0.114	0.028
-224.684	79.957	-0.163	-0.173
-223.669	800.000	-0.070	0.220
-222.655	165.329	-0.083	0.116
-221.640	800.000	-0.056	-0.170
-220.625	-68.738	0.089	-0.034
-219.611	-95.109	-0.295	-0.079
-218.596	106.311	0.070	0.082
-217.582	-86.022	-0.133	-0.041
-216.567	-104.709	0.203	0.046
-215.552	-33.581	-0.010	-0.005
-214.538	-137.192	-0.346	-0.039
-213.523	294.831	-0.116	0.210
-212.509	-200.000	0.055	0.286
-211.494	12.793	0.232	0.178
-210.479	77.691	-0.094	-0.099
-209.465	-200.000	-0.032	-0.196
-208.450	185.954	0.092	0.135
-207.436	-16.591	0.152	-0.095
-206.421	-200.000	-0.043	0.289
-205.406	-67.528	0.246	0.095
-204.392	-24.833	0.228	-0.134
-203.377	-159.662	0.363	-0.020
-202.363	-117.202	0.182	0.033
-201.348	-5.039	-0.174	0.118
-200.333	-200.000	-0.032	0.209
-199.319	210.309	0.120	-0.186
-198.304	-66.007	0.369	0.146
-197.290	-31.296	0.224	0.125
-196.275	800.000	-0.080	-0.233
-195.260	606.964	-0.058	0.143
-194.246	487.003	-0.064	-0.145
-193.231	230.148	0.098	0.158
-192.217	61.500	-0.064	-0.062
-191.202	-200.000	0.032	0.244
-190.187	-200.000	-0.041	-0.345
-189.173	438.675	0.075	0.162
-188.158	81.015	0.152	-0.162
-187.144	800.000	0.098	0.361
-186.129	67.940	-0.356	0.360
-185.114	174.442	-0.100	0.142
-184.100	-43.158	-0.142	0.071
-183.085	-197.161	0.310	0.002
-182.071	-43.308	-0.354	0.177
-181.056	-156.966	0.375	-0.023
-180.042	-94.798	0.259	0.069
-179.027	118.018	0.226	-0.275
-178.012	-106.817	-0.115	0.025
-176.998	-61.688	0.216	-0.089
-175.983	166.832	0.131	0.184
-174.969	-200.000	-0.011	-0.157
-173.954	202.746	0.068	0.104
-172.939	-106.507	0.150	-0.033
-171.925	-136.096	-0.365	0.042
-170.910	132.068	0.150	0.190
-169.896	-200.000	-0.057	0.343
-168.881	-174.223	-0.051	-0.001
-167.866	60.955	0.228	-0.223
-166.852	-30.166	0.478	-0.268
-165.837	-200.000	0.038	-0.424
-164.823	2.837	-0.242	0.174
-163.808	84.774	0.225	0.243
-162.793	800.000	0.060	-0.190
-161.779	-200.000	-0.007	-0.326
-160.764	800.000	-0.039	-0.133
-159.750	87.330	-0.224	-0.245
-158.735	-200.000	0.011	-0.189
-157.720	-76.786	-0.126	0.043
-156.706	-72.567	0.096	-0.035
-155.691	-200.000	-0.014	-0.092
-154.677	-160.280	-0.329	0.018
-153.662	2.008	-0.159	0.113
-152.647	-89.439	0.099	0.029
-151.633	-78.987	-0.282	-0.095
-150.618	-24.526	0.475	0.279
-149.604	800.000	-0.039	0.110
-148.589	89.666	0.182	-0.201
-147.574	505.691	0.024	-0.056
-146.560	-114.377	0.315	-0.060
-145.545	268.124	0.150	-0.260
-144.531	-153.146	0.198	0.014
-143.516	35.237	-0.233	0.201
-142.502	450.318	0.293	0.638
-141.487	-21.898	-0.117	-0.070
-140.472	800.000	0.095	-0.292
-139.458	71.626	0.180	-0.184
-138.443	529.914	0.146	0.339
-137.429	28.572	0.224	0.187
-136.414	381.104	-0.059	-0.120
-135.399	-117.996	0.158	0.028
-134.385	800.000	-0.109	-0.329
-133.370	27.592	-0.194	-0.161
-132.356	-18.502	-0.092	0.056
-131.341	131.275	0.304	0.385
-130.326	-59.670	-0.237	0.100
-129.312	508.202	-0.202	0.462
-128.297	-88.320	0.431	-0.127
-127.283	204.121	0.055	-0.084
-126.268	800.000	0.120	0.394
-125.253	22.682	-0.285	-0.230
-124.239	-126.738	-0.201	-0.029
-123.224	800.000	0.052	-0.141
-122.210	-168.440	-0.294	-0.011
-121.195	507.154	-0.008	0.019
