DTS Sentinel unit serial number:	SN413079Multiplexer serial number:	ORYXHardware model number:	OX4-SRSoftware version number:	ORYX F/W v4.00 Oryx Data Collector v3.7.2.0data status	okinstallation	princeton_trtdifferential loss correction	single-endedforward channel	channel 1reverse channel	N/Adate	2019/09/16time	13:02:35forward acquisition time	60.00reverse acquisition time	0.00gamma	496.2192k internal	0.2294k external	0.2294temperature offset calibration	0.9949default loss term (dB/km)	0.3790temperature slope calibration	1.0000multiplexer offset coefficient	1.0000multiplexer slope coefficient	1.0000fibre end	0.00T internal ref (°C)	40.64T ext. ref 1 (°C)	13.60T ext. ref 2 (°C)	38.42length (m)	temperature (°C)	Stokes	anti-Stokes-747.200	-95.763	-0.285	-0.078
-746.185	-15.901	0.169	0.110
-745.171	800.000	0.058	0.208
-744.156	-96.933	0.270	0.072
-743.142	-76.387	-0.054	0.019
-742.127	24.465	-0.278	0.235
-741.112	-94.638	-0.269	-0.075
-740.098	-80.227	0.370	0.127
-739.083	471.006	0.104	-0.240
-738.069	-113.695	0.192	-0.038
-737.054	63.236	-0.208	0.213
-736.039	480.238	-0.141	-0.328
-735.025	-200.000	0.019	0.241
-734.010	-108.733	-0.052	-0.011
-732.996	-2.225	-0.090	-0.064
-731.981	-25.956	-0.103	-0.062
-730.966	-64.808	-0.216	0.090
-729.952	65.923	0.017	0.017
-728.937	267.761	0.059	-0.105
-727.923	28.040	0.184	0.159
-726.908	429.461	-0.046	-0.102
-725.894	-35.528	-0.400	-0.222
-724.879	-98.905	-0.422	0.110
-723.864	156.323	-0.149	-0.210
-722.850	485.462	0.148	-0.345
-721.835	-130.030	-0.202	-0.028
-720.821	-93.194	0.240	-0.068
-719.806	-125.656	-0.053	0.008
-718.791	-133.670	-0.200	0.026
-717.777	-200.000	-0.067	0.480
-716.762	-200.000	-0.005	0.301
-715.748	14.260	-0.188	0.150
-714.733	-200.000	-0.044	0.343
-713.718	-200.000	0.005	0.174
-712.704	-200.000	-0.011	-0.056
-711.689	395.678	0.185	-0.394
-710.675	-200.000	-0.023	0.127
-709.660	-200.000	-0.083	0.432
-708.645	-49.114	-0.210	-0.103
-707.631	89.813	-0.170	-0.194
-706.616	-119.122	0.170	-0.030
-705.602	53.690	-0.212	0.208
-704.587	285.672	0.167	0.308
-703.572	-81.314	-0.114	0.038
-702.558	6.946	0.183	-0.139
-701.543	-200.000	-0.034	-0.210
-700.529	210.529	0.137	0.220
-699.514	-121.576	0.139	-0.024
-698.499	-85.471	0.342	0.109
-697.485	778.246	-0.043	-0.119
-696.470	-30.765	0.537	-0.310
-695.456	800.000	0.069	-0.204
-694.441	110.982	-0.198	-0.244
-693.426	800.000	-0.057	-0.225
-692.412	-27.637	-0.291	0.172
-691.397	800.000	-0.022	0.084
-690.383	-7.599	-0.283	-0.195
-689.368	382.221	0.117	0.244
-688.354	-200.000	0.042	0.523
-687.339	156.810	0.116	0.164
-686.324	-54.743	-0.039	-0.018
-685.310	351.675	-0.071	0.143
-684.295	-68.037	-0.428	-0.170
-683.281	553.814	0.036	0.088
-682.266	149.992	-0.185	0.256
-681.251	-114.552	0.307	0.060
-680.237	738.620	-0.065	-0.179
-679.222	-59.391	-0.172	0.075
-678.208	-200.000	0.008	-0.134
-677.193	-200.000	-0.003	-0.089
-676.178	140.647	-0.091	0.122
-675.164	-64.529	0.408	0.169
-674.149	800.000	0.030	-0.126
-673.135	-64.765	-0.073	-0.030
-672.120	59.668	-0.206	-0.207
-671.105	-200.000	-0.018	-0.213
-670.091	137.319	-0.085	-0.114
-669.076	13.230	-0.090	0.071
-668.062	41.683	-0.178	-0.165
-667.047	-119.401	-0.075	-0.013
-666.032	-3.515	-0.189	-0.134
-665.018	99.061	0.143	-0.168
-664.003	-145.200	0.132	-0.012
-662.989	120.935	-0.034	0.043
-661.974	-92.051	0.068	0.019
-660.959	272.689	0.121	0.217
-659.945	44.577	0.062	0.058
-658.930	-52.759	0.042	-0.020
-657.916	767.829	0.105	0.291
-656.901	-25.881	-0.087	-0.052
-655.886	800.000	0.059	-0.250
-654.872	226.755	0.191	-0.315
-653.857	91.312	0.095	0.109
-652.843	800.000	0.043	-0.127
-651.828	-200.000	-0.046	-0.339
-650.814	-137.235	-0.076	-0.009
-649.799	54.551	-0.112	-0.110
-648.784	800.000	0.060	-0.170
-647.770	-200.000	0.019	0.145
-646.755	83.989	-0.194	-0.216
-645.741	403.924	0.215	-0.461
-644.726	-24.458	0.156	-0.095
-643.711	-78.739	-0.029	-0.010
-642.697	-200.000	-0.042	-0.272
-641.682	-200.000	-0.125	-0.000
-640.668	53.592	-0.060	-0.058
-639.653	-200.000	0.003	-0.019
-638.638	-79.560	-0.296	-0.102
-637.624	-101.562	-0.282	-0.070
-636.609	-133.850	-0.093	-0.012
-635.595	242.706	-0.119	0.204
-634.580	-42.745	-0.242	-0.125
-633.565	74.779	0.073	-0.079
-632.551	-8.525	0.160	0.109
-631.536	-123.599	-0.108	0.017
-630.522	-173.840	0.236	0.007
-629.507	-135.321	-0.178	-0.022
-628.492	77.250	-0.137	0.148
-627.478	800.000	0.050	0.185
-626.463	58.745	0.099	0.099
-625.449	-141.177	0.207	-0.022
-624.434	-200.000	-0.009	0.223
-623.419	580.480	-0.043	-0.108
-622.405	-200.000	-0.017	-0.205
-621.390	800.000	-0.064	0.198
-620.376	-31.427	0.138	-0.079
-619.361	-200.000	0.004	0.140
-618.346	-60.674	0.219	0.094
-617.332	-153.310	-0.119	0.008
-616.317	-104.727	-0.313	-0.073
-615.303	102.366	0.176	-0.209
-614.288	-200.000	-0.015	-0.108
-613.273	453.691	0.057	0.129
-612.259	37.882	0.141	0.127
-611.244	-200.000	0.016	-0.189
-610.230	506.818	0.079	-0.187
-609.215	82.888	0.159	0.176
-608.201	-45.156	-0.275	0.139
-607.186	800.000	-0.110	0.317
-606.171	-200.000	0.015	-0.148
-605.157	800.000	-0.122	-0.379
-604.142	-4.271	0.176	-0.124
-603.128	-95.006	-0.180	-0.050
-602.113	800.000	-0.051	-0.157
-601.098	-200.000	-0.012	-0.260
-600.084	-74.618	0.129	0.047
-599.069	800.000	-0.039	0.121
-598.055	-14.803	-0.157	-0.102
-597.040	-131.640	-0.256	0.034
-596.025	240.839	-0.150	-0.254
-595.011	-200.000	-0.018	-0.165
-593.996	-33.113	0.212	0.120
-592.982	258.799	0.059	-0.104
-591.967	-39.537	-0.167	-0.089
-590.952	-24.799	0.157	-0.095
-589.938	3.386	-0.317	-0.235
-588.923	-17.830	0.196	-0.125
-587.909	168.329	0.029	0.042
-586.894	38.989	-0.181	0.164
-585.879	44.652	-0.089	0.083
-584.865	800.000	-0.105	0.412
-583.850	800.000	-0.099	0.371
-582.836	-20.379	0.149	0.093
-581.821	116.412	0.221	0.275
-580.806	-142.304	-0.175	0.018
-579.792	-200.000	0.012	0.241
-578.777	-200.000	0.030	-0.313
-577.763	-200.000	0.059	-0.450
-576.748	421.007	-0.168	-0.365
-575.733	-200.000	-0.010	0.261
-574.719	800.000	-0.029	0.105
-573.704	800.000	-0.054	-0.184
-572.690	-193.546	0.220	-0.002
-571.675	-128.077	0.256	-0.037
-570.661	800.000	-0.020	-0.063
-569.646	734.232	0.049	0.132
-568.631	800.000	-0.080	0.266
-567.617	-90.789	0.155	0.045
-566.602	-131.758	0.222	-0.030
-565.588	800.000	-0.060	-0.203
-564.573	463.700	0.117	-0.265
-563.558	-131.784	-0.204	-0.027
-562.544	59.734	0.113	0.113
-561.529	-63.861	0.050	0.021
-560.515	50.426	0.268	0.258
-559.500	29.881	0.085	-0.073
-558.485	-200.000	0.018	0.233
-557.471	-55.392	-0.231	0.105
-556.456	-148.686	0.070	-0.006
-555.442	-33.084	-0.056	0.032
-554.427	-6.631	-0.148	0.103
-553.412	-1.447	0.279	-0.200
-552.398	-26.077	0.189	-0.113
-551.383	-101.691	-0.454	-0.112
-550.369	-65.758	-0.244	-0.099
-549.354	-141.961	0.059	0.006
-548.339	444.374	-0.024	0.054
-547.325	-200.000	0.007	-0.175
-546.310	157.423	0.088	-0.123
-545.296	-45.777	-0.050	-0.025
-544.281	57.517	0.079	-0.078
-543.266	268.912	-0.075	-0.134
-542.252	-75.191	0.180	0.065
-541.237	-160.159	-0.229	0.013
-540.223	-56.610	-0.025	0.011
-539.208	78.119	-0.067	-0.072
-538.193	101.819	-0.216	-0.255
-537.179	-101.725	0.115	-0.028
-536.164	-127.099	-0.222	-0.033
-535.150	212.159	-0.133	0.213
-534.135	89.883	-0.137	-0.155
-533.121	-72.467	0.315	-0.118
-532.106	-139.117	-0.135	-0.015
-531.091	-67.779	0.121	-0.048
-530.077	155.660	0.163	-0.227
-529.062	-74.297	-0.390	0.143
-528.048	-133.822	0.379	-0.048
-527.033	-41.561	0.171	0.089
-526.018	-53.683	-0.392	-0.182
-525.004	209.141	0.066	-0.105
-523.989	-187.145	-0.256	-0.004
-522.975	88.742	-0.165	-0.186
-521.960	109.407	0.186	-0.226
-520.945	-87.253	0.359	0.111
-519.931	23.784	-0.212	0.177
-518.916	12.087	-0.059	-0.046
-517.902	404.122	0.034	-0.073
-516.887	127.735	-0.190	0.244
-515.872	800.000	-0.061	0.246
-514.858	-28.477	0.108	-0.063
-513.843	18.818	-0.167	0.136
-512.829	136.748	0.063	0.083
-511.814	470.018	-0.039	0.089
-510.799	-34.479	-0.165	-0.092
-509.785	13.784	0.124	0.098
-508.770	800.000	-0.025	-0.111
-507.756	-200.000	-0.005	-0.107
-506.741	-136.061	0.141	0.017
-505.726	-165.281	-0.087	0.004
-504.712	-200.000	0.068	-0.314
-503.697	254.498	0.107	0.185
-502.683	98.737	0.018	0.021
-501.668	-22.799	0.182	0.111
-500.653	-122.763	-0.062	0.010
-499.639	554.898	0.052	0.126
-498.624	218.496	0.101	-0.164
-497.610	-164.019	-0.123	-0.006
-496.595	-17.787	0.102	-0.065
-495.581	800.000	0.028	0.108
-494.566	152.965	-0.157	-0.218
-493.551	-100.328	0.210	-0.053
-492.537	283.387	0.192	0.349
-491.522	800.000	0.051	-0.188
-490.508	449.878	0.050	-0.111
-489.493	-200.000	-0.023	0.249
-488.478	258.001	0.224	0.391
-487.464	-30.001	-0.230	-0.132
-486.449	-142.384	-0.243	-0.024
-485.435	800.000	-0.079	0.262
-484.420	293.828	-0.142	0.262
-483.405	165.881	-0.196	0.281
-482.391	48.141	0.050	-0.047
-481.376	800.000	0.024	-0.071
-480.362	12.476	0.120	-0.093
-479.347	800.000	-0.049	0.201
-478.332	-144.586	0.084	0.008
-477.318	-151.354	-0.049	-0.004
-476.303	-35.251	0.245	-0.135
-475.289	338.842	-0.077	-0.151
-474.274	367.231	0.046	-0.093
-473.259	-200.000	0.021	0.229
-472.245	-200.000	-0.001	-0.314
-471.230	636.830	0.063	-0.162
-470.216	-114.005	0.046	0.009
-469.201	468.550	-0.066	0.151
-468.186	-137.592	-0.152	0.017
-467.172	-150.796	0.226	-0.017
-466.157	512.700	-0.135	-0.318
-465.143	15.024	0.126	-0.100
-464.128	-139.057	-0.148	0.016
-463.113	-10.483	-0.198	-0.133
-462.099	-5.495	-0.191	0.132
-461.084	-54.899	0.201	0.092
-460.070	-200.000	-0.014	-0.129
-459.055	-200.000	0.013	-0.145
-458.040	-156.752	0.202	-0.013
-457.026	-128.294	-0.066	-0.009
-456.011	-200.000	-0.027	0.177
-454.997	173.598	-0.144	0.210
-453.982	-200.000	0.014	0.156
-452.968	507.356	-0.119	-0.280
-451.953	-200.000	-0.032	-0.189
-450.938	134.271	-0.068	-0.089
-449.924	-200.000	-0.019	-0.386
-448.909	-200.000	-0.026	-0.229
-447.895	-68.175	-0.124	-0.049
-446.880	132.407	0.118	-0.154
-445.865	-13.399	0.348	0.228
-444.851	774.987	0.044	-0.121
-443.836	-14.802	0.409	0.266
-442.822	694.235	0.024	-0.063
-441.807	407.374	0.089	0.190
-440.792	-200.000	0.104	0.564
-439.778	-92.585	0.139	0.040
-438.763	800.000	0.051	-0.149
-437.749	-112.803	0.238	-0.048
-436.734	170.203	0.151	0.218
-435.719	-200.000	0.029	-0.144
-434.705	-200.000	0.055	-0.255
-433.690	673.774	0.048	-0.126
-432.676	-111.695	0.181	-0.037
-431.661	-12.986	-0.148	0.097
-430.646	41.540	0.128	-0.117
-429.632	-5.369	-0.162	-0.112
-428.617	-139.365	-0.149	-0.016
-427.603	103.601	0.153	0.181
-426.588	-200.000	-0.012	0.113
-425.573	-56.508	-0.255	-0.114
-424.559	-132.518	0.217	0.028
-423.544	-11.500	0.236	0.157
-422.530	106.639	-0.024	0.028
-421.515	-21.089	-0.109	0.067
-420.500	106.559	0.167	-0.200
-419.486	-25.966	0.113	-0.067
-418.471	533.099	-0.066	0.158
-417.457	360.788	-0.098	0.198
-416.442	800.000	-0.085	-0.373
-415.428	-192.940	-0.180	-0.002
-414.413	228.156	-0.036	-0.060
-413.398	383.218	-0.013	0.027
-412.384	-118.506	0.187	-0.033
-411.369	282.170	-0.124	-0.225
-410.355	800.000	0.013	0.050
-409.340	13.439	-0.120	-0.094
-408.325	-75.278	0.220	-0.079
-407.311	97.634	-0.036	0.042
-406.296	-200.000	-0.046	0.295
-405.282	-135.118	0.103	-0.012
-404.267	-117.340	-0.241	-0.044
-403.252	-200.000	-0.019	-0.256
-402.238	-116.220	0.163	0.030
-401.223	179.624	0.162	0.239
-400.209	7.409	0.246	0.186
-399.194	215.339	0.026	0.042
-398.179	-154.478	-0.130	-0.009
-397.165	800.000	0.052	0.228
-396.150	115.198	-0.151	0.186
-395.136	-36.258	-0.309	0.168
-394.121	-78.704	-0.295	-0.102
-393.106	190.766	0.118	-0.179
-392.092	-85.293	0.313	0.098
-391.077	-45.457	-0.053	-0.027
-390.063	-200.000	0.007	0.224
-389.048	90.931	0.274	0.309
-388.033	-200.000	-0.001	0.105
-387.019	8.342	-0.324	0.246
-386.004	231.648	0.165	0.273
-384.990	-87.198	-0.170	0.052
-383.975	-200.000	-0.019	-0.164
-382.960	735.555	0.085	-0.231
-381.946	800.000	0.025	-0.081
-380.931	-200.000	0.004	0.085
-379.917	800.000	0.081	-0.258
-378.902	17.603	-0.105	-0.084
-377.888	-73.299	-0.273	0.101
-376.873	-137.245	-0.078	0.009
-375.858	778.295	0.127	0.350
-374.844	-42.607	-0.364	0.187
-373.829	-33.383	0.115	-0.064
-372.815	100.984	-0.176	0.206
-371.800	-23.259	0.134	-0.081
-370.785	-171.543	0.258	-0.009
-369.771	56.984	0.331	-0.326
-368.756	143.626	0.030	-0.040
-367.742	-101.312	0.127	-0.031
-366.727	-56.419	-0.313	0.140
-365.712	-200.000	0.074	0.353
-364.698	-200.000	-0.049	0.325
-363.683	-200.000	0.081	-0.377
-362.669	-200.000	0.008	0.311
-361.654	41.549	-0.388	-0.354
-360.639	-5.919	0.097	0.067
-359.625	43.381	0.122	0.112
-358.610	-200.000	0.009	0.257
-357.596	-200.000	-0.005	-0.099
-356.581	800.000	-0.066	0.245
-355.566	272.189	-0.072	0.129
-354.552	-200.000	-0.029	-0.261
-353.537	-200.000	0.044	-0.245
-352.523	-10.053	0.309	-0.207
-351.508	-31.024	-0.317	-0.180
-350.493	136.812	-0.190	-0.250
-349.479	402.346	0.176	0.372
-348.464	29.824	-0.083	0.071
-347.450	39.771	-0.301	0.272
-346.435	-29.057	0.098	0.057
-345.420	-132.201	-0.337	-0.044
-344.406	60.227	-0.073	-0.072
-343.391	-200.000	0.066	0.302
-342.377	-200.000	0.015	0.115
-341.362	-89.597	0.139	0.041
-340.348	-137.210	-0.057	-0.007
-339.333	800.000	0.111	0.368
-338.318	-200.000	-0.004	-0.089
-337.304	14.506	0.136	-0.107
-336.289	288.057	-0.187	-0.340
-335.275	-55.807	-0.042	-0.019
-334.260	-75.663	0.290	0.104
-333.245	-34.371	-0.071	0.039
-332.231	165.057	-0.090	0.127
-331.216	-33.784	0.146	0.081
-330.202	-157.660	0.280	-0.017
-329.187	412.986	-0.141	-0.301
-328.172	11.760	0.207	-0.160
-327.158	-200.000	0.001	-0.020
-326.143	-105.369	0.122	0.028
-325.129	139.496	0.150	-0.199
-324.114	-152.562	0.206	-0.015
-323.099	2.162	0.159	-0.115
-322.085	-52.681	0.147	0.068
-321.070	-77.810	-0.177	0.062
-320.056	418.433	0.040	0.085
-319.041	161.668	0.160	0.226
-318.026	-90.379	0.594	-0.173
-317.012	-200.000	-0.050	0.308
-315.997	-200.000	0.037	0.392
-314.983	186.175	-0.210	-0.314
-313.968	245.690	0.100	-0.169
-312.953	-29.900	-0.219	-0.126
-311.939	68.840	-0.050	0.051
-310.924	-71.419	0.280	0.105
-309.910	256.965	0.170	-0.294
-308.895	135.058	0.161	0.210
-307.880	-34.906	-0.193	-0.106
-306.866	177.045	0.198	-0.290
-305.851	-200.000	-0.030	-0.143
-304.837	-81.116	-0.229	0.076
-303.822	-200.000	0.032	-0.179
-302.807	-90.828	0.380	-0.110
-301.793	-200.000	0.017	-0.385
-300.778	604.492	0.098	0.245
-299.764	-143.239	0.295	-0.029
-298.749	-101.057	0.059	-0.015
-297.735	239.924	-0.084	0.141
-296.720	-200.000	0.052	0.367
-295.705	114.529	-0.129	0.158
-294.691	-148.083	0.137	-0.011
-293.676	626.033	-0.161	-0.407
-292.662	-2.629	0.258	0.181
-291.647	66.625	0.082	0.084
-290.632	230.091	-0.183	0.300
-289.618	-99.912	-0.255	0.064
-288.603	295.480	-0.122	0.224
-287.589	18.899	0.180	0.145
-286.574	-200.000	-0.022	-0.195
-285.559	-135.331	0.174	0.021
-284.545	302.482	-0.136	0.254
-283.530	-114.375	-0.400	0.077
-282.516	-154.217	-0.173	0.012
-281.501	495.009	0.071	0.163
-280.486	-43.907	-0.077	-0.039
-279.472	11.688	0.162	0.125
-278.457	800.000	0.078	-0.334
-277.443	-82.259	0.146	-0.048
-276.428	-200.000	0.025	0.382
-275.413	-96.264	0.143	0.038
-274.399	241.323	-0.123	-0.206
-273.384	16.661	0.148	-0.118
-272.370	800.000	0.016	0.069
-271.355	-200.000	-0.006	-0.148
-270.340	800.000	0.096	-0.284
-269.326	112.432	-0.163	0.198
-268.311	-11.871	-0.234	-0.154
-267.297	-200.000	-0.007	0.058
-266.282	-50.976	0.068	0.032
-265.267	-200.000	0.018	0.175
-264.253	38.710	-0.149	0.133
-263.238	735.760	-0.116	-0.311
-262.224	-109.777	0.115	-0.024
-261.209	-77.830	-0.466	0.162
-260.195	-138.350	0.089	0.010
-259.180	88.389	-0.115	-0.129
-258.165	-200.000	-0.005	0.323
-257.151	-57.877	-0.068	-0.030
-256.136	-71.333	-0.069	-0.026
-255.122	58.140	-0.211	0.207
-254.107	800.000	0.085	0.244
-253.092	-200.000	0.040	-0.207
-252.078	-200.000	0.022	-0.157
-251.063	185.275	0.200	-0.298
-250.049	-200.000	0.016	-0.082
-249.034	-200.000	-0.022	0.280
-248.019	6.714	-0.367	-0.274
-247.005	800.000	0.033	-0.130
-245.990	-53.198	-0.336	0.155
-244.976	-176.818	0.198	0.005
-243.961	-56.917	-0.426	-0.188
-242.946	77.677	0.140	-0.150
-241.932	800.000	-0.025	-0.083
-240.917	-200.000	-0.012	-0.157
-239.903	-200.000	0.018	-0.408
-238.888	262.818	-0.117	-0.203
-237.873	-88.067	0.282	-0.085
-236.859	-94.674	0.233	0.064
-235.844	-99.721	-0.035	-0.009
-234.830	229.138	0.174	0.285
-233.815	800.000	-0.032	-0.092
-232.800	-55.355	0.243	-0.109
-231.786	-200.000	0.009	-0.151
-230.771	520.685	0.045	0.106
-229.757	-200.000	0.044	0.210
-228.742	-64.208	0.213	0.087
-227.727	732.509	0.087	0.233
-226.713	-86.952	-0.570	0.174
-225.698	-200.000	-0.044	-0.351
-224.684	66.344	0.058	0.059
-223.669	-20.213	-0.183	0.113
-222.655	-161.305	0.134	-0.007
-221.640	196.641	-0.118	-0.180
-220.625	-89.750	0.095	-0.028
-219.611	800.000	0.102	-0.285
-218.596	56.227	-0.083	0.081
-217.582	-64.714	0.399	0.162
-216.567	-200.000	-0.012	-0.125
-215.552	-112.786	0.205	-0.041
-214.538	-87.217	0.343	-0.104
-213.523	-146.100	-0.229	0.020
-212.509	10.244	-0.081	-0.061
-211.494	-200.000	0.026	-0.118
-210.479	179.562	-0.116	0.170
-209.465	-200.000	0.006	0.138
-208.450	800.000	0.090	0.267
-207.436	-67.057	0.211	0.083
-206.421	329.277	0.137	-0.263
-205.406	6.068	0.247	0.183
-204.392	261.387	-0.083	0.143
-203.377	800.000	-0.111	-0.355
-202.363	-58.037	0.167	0.073
-201.348	54.529	0.120	0.116
-200.333	-13.565	-0.339	0.220
-199.319	-29.113	-0.293	0.168
-198.304	-95.866	-0.312	0.083
-197.290	91.079	-0.086	-0.097
-196.275	-130.721	0.266	-0.036
-195.260	407.546	-0.062	-0.130
-194.246	-177.537	-0.152	0.004
-193.231	-200.000	0.012	0.091
-192.217	241.519	0.033	-0.054
-191.202	-39.605	-0.310	0.163
-190.187	214.186	-0.125	-0.199
-189.173	290.559	-0.055	0.101
-188.158	-134.370	-0.168	0.021
-187.144	-126.206	0.056	0.008
-186.129	88.451	-0.076	0.084
-185.114	-136.737	0.147	-0.017
-184.100	126.977	0.098	-0.124
-183.085	-155.764	0.179	-0.011
-182.071	448.581	-0.094	0.207
-181.056	204.136	-0.068	-0.105
-180.042	20.634	0.179	-0.145
-179.027	-200.000	0.058	-0.260
-178.012	-200.000	-0.035	0.491
-176.998	-121.678	-0.227	0.038
-175.983	-127.618	-0.299	-0.043
-174.969	1.440	-0.232	0.167
-173.954	-103.292	-0.351	-0.083
-172.939	255.202	0.116	0.199
-171.925	-200.000	0.000	-0.187
-170.910	-91.634	0.281	-0.080
-169.896	-28.515	-0.080	0.046
-168.881	-29.176	0.115	-0.066
-167.866	268.082	0.169	0.296
-166.852	-10.616	-0.042	-0.028
-165.837	-76.758	-0.421	0.147
-164.823	114.981	0.267	-0.325
-163.808	-7.447	0.133	0.090
-162.793	-119.628	-0.080	-0.014
-161.779	-200.000	-0.019	-0.183
-160.764	242.239	-0.112	0.188
-159.750	-63.828	0.315	0.129
-158.735	-84.073	-0.069	0.022
-157.720	800.000	-0.039	0.123
-156.706	-96.696	-0.259	-0.068
-155.691	182.834	-0.131	0.193
-154.677	800.000	0.045	-0.160
-153.662	795.679	-0.044	0.121
-152.647	800.000	0.100	0.332
-151.633	29.090	0.053	-0.045
-150.618	-168.163	0.406	-0.016
-149.604	-200.000	-0.004	0.153
-148.589	85.683	0.175	-0.192
-147.574	190.853	-0.210	-0.315
-146.560	-200.000	0.082	-0.466
-145.545	54.993	0.088	0.085
-144.531	110.272	-0.059	-0.071
-143.516	-98.848	-0.215	-0.055
-142.502	-200.000	-0.036	0.223
-141.487	239.314	-0.056	-0.094
-140.472	0.361	-0.093	0.066
-139.458	41.708	0.173	-0.157
-138.443	800.000	-0.071	-0.199
-137.429	247.521	-0.030	0.051
-136.414	406.239	-0.094	0.198
-135.399	-51.454	0.089	0.041
-134.385	36.782	-0.040	-0.035
-133.370	-164.139	0.222	-0.010
-132.356	-76.576	0.230	0.081
-131.341	800.000	0.062	-0.198
-130.326	234.515	-0.093	-0.153
-129.312	-81.171	0.302	0.100
-128.297	-200.000	-0.080	0.435
-127.283	-200.000	-0.009	-0.064
-126.268	153.070	0.255	-0.348
-125.253	136.581	0.111	0.145
-124.239	-200.000	0.004	-0.126
-123.224	-200.000	0.021	-0.333
-122.210	-18.802	0.202	0.126
