DTS Sentinel unit serial number:	SN413079Multiplexer serial number:	ORYXHardware model number:	OX4-SRSoftware version number:	ORYX F/W v4.00 Oryx Data Collector v3.7.2.0data status	okinstallation	princeton_trtdifferential loss correction	single-endedforward channel	channel 1reverse channel	N/Adate	2019/09/17time	22:02:35forward acquisition time	60.00reverse acquisition time	0.00gamma	496.2192k internal	0.2340k external	0.2340temperature offset calibration	0.9971default loss term (dB/km)	0.3790temperature slope calibration	1.0000multiplexer offset coefficient	1.0000multiplexer slope coefficient	1.0000fibre end	0.00T internal ref (°C)	26.00T ext. ref 1 (°C)	0.19T ext. ref 2 (°C)	18.86length (m)	temperature (°C)	Stokes	anti-Stokes-747.200	122.588	-0.435	0.545
-746.185	285.417	0.072	0.131
-745.171	49.154	0.246	-0.231
-744.156	800.000	0.024	0.069
-743.142	13.172	-0.202	-0.157
-742.127	-99.826	-0.128	-0.032
-741.112	-46.831	-0.273	-0.134
-740.098	341.443	-0.136	0.266
-739.083	348.583	-0.214	0.423
-738.069	-149.166	-0.340	-0.027
-737.054	-200.000	0.009	-0.076
-736.039	-153.583	-0.151	-0.010
-735.025	800.000	0.086	0.251
-734.010	16.577	0.086	0.068
-732.996	95.025	-0.170	-0.194
-731.981	297.854	0.106	-0.195
-730.966	-132.246	0.303	-0.039
-729.952	46.284	-0.168	-0.156
-728.937	-175.893	0.137	-0.004
-727.923	92.739	-0.187	-0.212
-726.908	135.774	-0.101	0.132
-725.894	28.233	0.125	0.106
-724.879	273.801	0.050	-0.089
-723.864	8.494	-0.127	-0.096
-722.850	43.946	0.073	0.067
-721.835	800.000	-0.054	0.178
-720.821	498.670	0.071	-0.163
-719.806	234.870	0.139	0.230
-718.791	800.000	-0.114	0.323
-717.777	72.988	0.145	-0.152
-716.762	154.170	-0.215	-0.296
-715.748	-66.371	0.282	-0.112
-714.733	-200.000	-0.075	-0.368
-713.718	10.234	0.579	-0.441
-712.704	186.406	-0.085	0.127
-711.689	-104.498	-0.218	-0.050
-710.675	70.291	-0.088	-0.091
-709.660	284.183	-0.073	-0.131
-708.645	-86.781	-0.245	-0.075
-707.631	11.411	-0.208	-0.159
-706.616	-101.692	0.197	0.048
-705.602	-123.622	-0.283	-0.045
-704.587	38.166	0.062	-0.056
-703.572	-102.748	-0.068	-0.016
-702.558	-30.624	-0.119	-0.067
-701.543	-200.000	0.021	0.157
-700.529	-200.000	-0.347	0.002
-699.514	-11.030	-0.264	0.175
-698.499	-33.256	-0.291	0.161
-697.485	-200.000	-0.029	-0.226
-696.470	143.417	0.152	0.203
-695.456	800.000	-0.029	-0.102
-694.441	-200.000	-0.082	0.377
-693.426	120.995	-0.099	0.123
-692.412	43.393	-0.247	0.226
-691.397	205.249	0.208	0.322
-690.383	-68.020	0.165	0.064
-689.368	-200.000	-0.016	-0.177
-688.354	67.700	-0.117	-0.120
-687.339	-108.903	-0.077	-0.016
-686.324	136.602	-0.281	-0.366
-685.310	-39.381	0.392	-0.205
-684.295	94.822	0.140	0.159
-683.281	158.183	0.176	-0.244
-682.266	-200.000	-0.057	-0.274
-681.251	82.400	-0.089	-0.096
-680.237	642.350	0.109	0.277
-679.222	-14.884	0.065	-0.042
-678.208	-13.194	0.111	0.072
-677.193	60.669	-0.067	0.066
-676.178	361.997	-0.055	-0.111
-675.164	137.750	-0.154	0.202
-674.149	-54.222	0.436	0.198
-673.135	23.838	0.222	0.183
-672.120	800.000	-0.020	-0.082
-671.105	-55.096	-0.137	0.062
-670.091	-14.716	-0.210	0.135
-669.076	800.000	-0.067	0.289
-668.062	786.914	0.163	-0.447
-667.047	287.943	-0.083	-0.151
-666.032	800.000	-0.063	-0.201
-665.018	800.000	-0.047	-0.161
-664.003	-64.172	-0.191	-0.078
-662.989	242.689	-0.167	-0.279
-661.974	-111.534	-0.235	0.048
-660.959	-159.884	-0.210	0.011
-659.945	-200.000	0.054	0.298
-658.930	-200.000	-0.008	-0.112
-657.916	92.315	-0.235	-0.264
-656.901	-160.002	0.241	-0.013
-655.886	-60.675	-0.118	-0.050
-654.872	-76.803	-0.286	-0.100
-653.857	-128.178	-0.084	0.012
-652.843	-195.302	0.247	0.002
-651.828	284.262	-0.079	0.142
-650.814	92.051	-0.262	0.295
-649.799	134.674	-0.071	0.092
-648.784	-127.980	0.336	0.048
-647.770	79.440	0.137	0.147
-646.755	63.521	0.081	-0.081
-645.741	-97.742	0.176	-0.046
-644.726	800.000	-0.090	-0.293
-643.711	-200.000	-0.008	-0.268
-642.697	186.564	-0.042	-0.063
-641.682	800.000	-0.114	0.324
-640.668	-200.000	-0.048	-0.210
-639.653	-57.736	-0.219	0.096
-638.638	-130.814	0.165	-0.022
-637.624	182.521	-0.126	0.186
-636.609	-58.390	0.226	-0.098
-635.595	-200.000	0.006	0.107
-634.580	168.833	0.074	0.105
-633.565	-157.807	-0.222	-0.013
-632.551	5.131	0.203	0.150
-631.536	-16.864	0.123	-0.078
-630.522	-91.030	-0.316	-0.091
-629.507	-74.167	-0.215	-0.078
-628.492	15.609	0.011	-0.009
-627.478	217.063	-0.054	0.086
-626.463	487.676	0.057	0.130
-625.449	-85.343	0.176	-0.055
-624.434	-9.478	0.413	0.275
-623.419	-200.000	-0.009	0.211
-622.405	199.654	0.139	-0.212
-621.390	119.541	0.115	-0.143
-620.376	-109.051	-0.310	-0.066
-619.361	22.948	-0.127	0.104
-618.346	-135.197	0.163	-0.020
-617.332	61.893	-0.145	0.144
-616.317	-108.386	-0.295	0.063
-615.303	-200.000	-0.035	0.315
-614.288	-200.000	-0.038	-0.319
-613.273	12.348	-0.219	-0.168
-612.259	-137.112	-0.100	-0.011
-611.244	142.756	-0.196	0.260
-610.230	-67.883	-0.127	0.050
-609.215	-91.876	0.224	-0.063
-608.201	-6.962	0.218	-0.148
-607.186	800.000	0.094	0.347
-606.171	-56.837	-0.231	0.102
-605.157	-96.557	-0.410	-0.108
-604.142	-79.729	0.196	0.066
-603.128	800.000	-0.011	-0.048
-602.113	-200.000	0.026	0.216
-601.098	122.048	0.087	0.108
-600.084	3.107	0.220	0.160
-599.069	109.484	-0.146	0.174
-598.055	-165.997	0.284	0.012
-597.040	-200.000	-0.015	-0.253
-596.025	70.159	0.297	-0.306
-595.011	-87.721	-0.099	0.030
-593.996	297.497	-0.076	0.139
-592.982	208.415	0.104	0.162
-591.967	80.217	-0.130	-0.139
-590.952	778.950	-0.106	0.288
-589.938	-9.192	-0.211	0.140
-588.923	-120.630	-0.453	-0.076
-587.909	-200.000	0.018	-0.098
-586.894	-200.000	0.041	-0.326
-585.879	800.000	-0.053	-0.147
-584.865	252.383	0.133	-0.226
-583.850	624.147	-0.043	-0.108
-582.836	301.534	0.072	-0.133
-581.821	800.000	0.111	-0.345
-580.806	800.000	0.020	0.070
-579.792	251.958	0.211	0.358
-578.777	236.304	0.180	-0.296
-577.763	-200.000	-0.008	-0.178
-576.748	42.264	-0.296	-0.268
-575.733	109.827	-0.227	-0.271
-574.719	324.005	0.159	-0.303
-573.704	-200.000	-0.087	0.445
-572.690	83.111	-0.120	-0.130
-571.675	737.082	0.060	-0.160
-570.661	181.171	-0.206	-0.302
-569.646	740.229	-0.059	-0.158
-568.631	-200.000	0.020	-0.309
-567.617	24.388	-0.355	-0.292
-566.602	800.000	-0.110	0.447
-565.588	800.000	-0.075	0.260
-564.573	-200.000	-0.027	-0.154
-563.558	6.585	-0.083	-0.062
-562.544	392.439	0.016	-0.033
-561.529	-200.000	-0.042	-0.304
-560.515	-31.371	-0.271	0.152
-559.500	-200.000	-0.036	0.284
-558.485	800.000	-0.058	0.244
-557.471	580.736	-0.119	-0.291
-556.456	-200.000	-0.024	0.166
-555.442	800.000	0.037	0.148
-554.427	-64.685	-0.210	0.085
-553.412	385.927	-0.121	-0.248
-552.398	218.606	-0.267	-0.425
-551.383	-200.000	-0.021	-0.152
-550.369	-200.000	0.012	0.100
-549.354	-149.787	-0.081	0.006
-548.339	-200.000	0.016	0.279
-547.325	-161.809	0.225	-0.011
-546.310	100.623	0.126	0.145
-545.296	-150.070	0.314	0.024
-544.281	-94.201	-0.175	0.048
-543.266	-48.872	0.094	-0.045
-542.252	-140.252	0.183	0.019
-541.237	800.000	0.089	-0.288
-540.223	14.110	-0.134	0.103
-539.208	-131.437	-0.210	-0.028
-538.193	-34.469	0.114	-0.062
-537.179	323.869	-0.112	-0.213
-536.164	23.054	-0.062	0.051
-535.150	-200.000	0.039	-0.232
-534.135	-123.116	0.031	0.005
-533.121	9.318	0.167	0.125
-532.106	-148.233	0.132	-0.011
-531.091	-103.718	-0.122	-0.028
-530.077	-136.546	-0.226	-0.026
-529.062	129.467	-0.192	0.244
-528.048	520.574	-0.086	0.200
-527.033	800.000	0.090	0.262
-526.018	800.000	0.100	0.313
-525.004	-127.879	-0.160	0.023
-523.989	-93.136	-0.011	0.003
-522.975	78.549	-0.069	-0.074
-521.960	-61.368	0.463	-0.194
-520.945	-136.179	0.181	-0.021
-519.931	-105.568	-0.062	0.014
-518.916	132.643	0.119	0.153
-517.902	50.841	0.077	0.072
-516.887	292.719	0.051	0.093
-515.872	-198.465	-0.322	0.002
-514.858	-165.024	0.143	-0.006
-513.843	-168.763	-0.216	-0.008
-512.829	800.000	-0.064	-0.227
-511.814	-30.736	-0.248	-0.139
-510.799	-200.000	0.060	-0.346
-509.785	-200.000	0.038	-0.216
-508.770	800.000	-0.050	-0.214
-507.756	-67.654	-0.125	0.049
-506.741	-82.602	-0.536	0.173
-505.726	-200.000	0.025	0.124
-504.712	15.256	-0.119	0.093
-503.697	16.380	-0.087	0.068
-502.683	-200.000	0.031	0.337
-501.668	146.729	0.243	-0.324
-500.653	674.348	0.115	-0.296
-499.639	800.000	-0.015	-0.054
-498.624	-35.294	-0.127	-0.069
-497.610	538.484	0.070	0.165
-496.595	-159.140	-0.041	0.002
-495.581	440.374	0.068	-0.147
-494.566	-167.501	0.081	-0.003
-493.551	33.765	0.037	-0.032
-492.537	659.191	-0.033	0.084
-491.522	-172.872	0.148	-0.005
-490.508	800.000	0.094	0.299
-489.493	635.454	-0.071	-0.178
-488.478	-65.709	-0.236	0.094
-487.464	201.168	0.280	0.427
-486.449	447.570	-0.041	-0.089
-485.435	-200.000	-0.033	-0.259
-484.420	50.648	0.139	-0.130
-483.405	-200.000	-0.029	-0.159
-482.391	28.087	-0.305	0.255
-481.376	-200.000	-0.004	-0.261
-480.362	-146.769	0.159	-0.014
-479.347	18.620	0.221	-0.175
-478.332	-13.199	-0.032	-0.021
-477.318	-138.211	-0.164	-0.018
-476.303	56.588	0.152	-0.147
-475.289	366.620	0.192	-0.385
-474.274	115.696	-0.204	0.247
-473.259	-200.000	-0.069	0.319
-472.245	-41.756	0.146	-0.074
-471.230	-113.260	-0.173	-0.034
-470.216	-64.857	-0.216	0.087
-469.201	-120.806	0.124	0.021
-468.186	-200.000	-0.032	0.209
-467.172	67.083	-0.055	0.056
-466.157	772.085	-0.083	0.226
-465.143	-200.000	0.006	0.117
-464.128	427.769	-0.232	0.497
-463.113	294.475	0.114	0.206
-462.099	67.325	-0.039	-0.039
-461.084	-200.000	0.004	0.186
-460.070	-143.373	0.224	0.021
-459.055	800.000	0.038	-0.119
-458.040	-200.000	-0.001	-0.054
-457.026	-79.889	-0.062	-0.021
-456.011	-114.280	0.205	0.039
-454.997	-138.090	0.075	-0.008
-453.982	-165.897	-0.309	0.013
-452.968	76.363	-0.177	-0.185
-451.953	-200.000	0.025	-0.201
-450.938	-133.399	0.147	-0.018
-449.924	-174.148	0.147	-0.004
-448.909	-37.505	0.181	-0.096
-447.895	-44.293	-0.205	-0.102
-446.880	162.758	-0.150	0.209
-445.865	207.468	-0.182	0.282
-444.851	87.353	0.237	-0.259
-443.836	1.050	-0.289	-0.205
-442.822	13.320	-0.099	-0.076
-441.807	59.496	-0.235	0.230
-440.792	-112.233	-0.112	-0.022
-439.778	-200.000	-0.032	0.160
-438.763	800.000	-0.057	0.243
-437.749	605.919	0.044	0.109
-436.734	237.890	-0.149	0.244
-435.719	241.102	0.281	-0.464
-434.705	-90.954	-0.138	0.039
-433.690	800.000	-0.144	-0.475
-432.676	-200.000	0.029	-0.294
-431.661	-115.806	-0.142	-0.026
-430.646	297.326	-0.113	-0.206
-429.632	225.738	-0.124	-0.199
-428.617	706.464	0.103	-0.269
-427.603	121.773	0.269	-0.332
-426.588	141.048	0.134	-0.175
-425.573	-200.000	-0.004	-0.025
-424.559	-200.000	0.031	0.217
-423.544	352.759	0.057	-0.112
-422.530	-71.064	0.313	0.117
-421.515	20.699	0.057	0.045
-420.500	133.109	0.115	0.148
-419.486	-15.173	-0.060	0.038
-418.471	41.032	0.255	0.228
-417.457	-200.000	0.020	0.101
-416.442	800.000	-0.097	0.345
-415.428	534.233	-0.068	0.159
-414.413	-200.000	-0.023	0.122
-413.398	-107.747	0.352	0.076
-412.384	-104.751	-0.329	0.075
-411.369	-54.112	-0.071	0.032
-410.355	121.599	-0.380	-0.469
-409.340	-200.000	0.056	0.336
-408.325	10.760	-0.121	0.091
-407.311	800.000	-0.081	0.227
-406.296	102.774	-0.112	0.129
-405.282	-111.620	-0.428	0.086
-404.267	-75.712	0.344	-0.121
-403.252	800.000	0.207	0.659
-402.238	-200.000	0.031	-0.359
-401.223	119.346	-0.077	0.095
-400.209	-200.000	-0.008	0.139
-399.194	-75.907	0.024	-0.009
-398.179	-96.652	0.178	-0.046
-397.165	-200.000	0.018	0.177
-396.150	416.422	-0.010	0.022
-395.136	-46.022	0.120	-0.058
-394.121	-27.607	0.424	-0.243
-393.106	-152.810	0.280	0.020
-392.092	-30.610	0.214	0.120
-391.077	-25.104	0.355	0.208
-390.063	550.466	-0.060	-0.141
-389.048	38.129	0.272	-0.240
-388.033	-86.060	-0.202	-0.062
-387.019	244.894	-0.163	0.271
-386.004	36.997	-0.246	0.215
-384.990	-95.346	0.419	0.111
-383.975	485.097	-0.229	0.515
-382.960	54.208	0.370	-0.352
-381.946	-145.413	-0.371	0.033
-380.931	243.119	-0.029	-0.048
-379.917	134.833	-0.033	0.042
-378.902	154.529	-0.089	-0.120
-377.888	-118.957	0.140	-0.024
-376.873	-200.000	0.013	0.087
-375.858	-200.000	-0.021	-0.154
-374.844	41.561	-0.076	-0.068
-373.829	163.297	0.124	0.173
-372.815	-11.168	0.089	0.058
-371.800	-171.131	-0.303	0.010
-370.785	-153.982	-0.222	-0.015
-369.771	245.404	-0.056	0.092
-368.756	-91.326	0.092	0.026
-367.742	263.511	0.110	0.189
-366.727	-13.422	-0.169	-0.108
-365.712	84.976	-0.036	0.039
-364.698	-200.000	-0.067	-0.416
-363.683	800.000	0.073	-0.208
-362.669	-25.208	0.183	-0.107
-361.654	-83.345	0.182	0.058
-360.639	-27.857	-0.141	-0.081
-359.625	-114.927	0.321	-0.060
-358.610	-41.443	-0.240	-0.122
-357.596	-59.719	0.130	-0.055
-356.581	-200.000	0.034	-0.157
-355.566	-200.000	0.034	-0.308
-354.552	342.924	-0.190	0.368
-353.537	-0.907	0.410	0.286
-352.523	-75.511	0.140	0.049
-351.508	-200.000	0.001	0.185
-350.493	201.456	-0.081	0.123
-349.479	35.668	0.256	0.222
-348.464	71.640	0.158	-0.162
-347.450	137.318	-0.194	-0.250
-346.435	495.357	0.095	0.215
-345.420	-10.113	-0.198	-0.130
-344.406	-104.888	0.184	0.042
-343.391	-48.296	0.127	-0.060
-342.377	144.933	-0.141	-0.186
-341.362	258.359	-0.095	0.161
-340.348	-47.497	0.237	0.114
-339.333	-200.000	0.001	0.318
-338.318	-40.976	-0.143	0.073
-337.304	-15.076	0.314	-0.199
-336.289	48.779	0.255	0.236
-335.275	-200.000	-0.056	0.314
-334.260	50.415	0.029	0.027
-333.245	533.711	0.066	-0.154
-332.231	-39.758	0.311	0.161
-331.216	-138.425	-0.235	-0.025
-330.202	-62.871	0.294	0.120
-329.187	-200.000	-0.051	0.286
-328.172	-129.103	0.134	0.018
-327.158	153.240	-0.159	-0.214
-326.143	-129.974	0.033	0.005
-325.129	29.341	0.396	-0.332
-324.114	-200.000	0.002	0.014
-323.099	305.729	-0.086	0.157
-322.085	-3.936	-0.175	0.120
-321.070	48.784	0.125	0.116
-320.056	-18.131	-0.321	-0.198
-319.041	28.641	0.235	-0.196
-318.026	-200.000	-0.007	0.117
-317.012	-200.000	0.019	0.184
-315.997	-200.000	-0.035	-0.230
-314.983	800.000	0.045	0.174
-313.968	-147.012	0.368	0.031
-312.953	800.000	-0.099	-0.357
-311.939	800.000	0.076	-0.298
-310.924	-200.000	0.002	-0.135
-309.910	308.541	-0.033	-0.061
-308.895	20.690	0.162	0.130
-307.880	22.135	0.174	0.140
-306.866	412.095	0.104	-0.219
-305.851	-75.955	0.085	-0.030
-304.837	-80.564	-0.410	-0.135
-303.822	125.751	0.150	-0.187
-302.807	178.420	0.077	-0.111
-301.793	459.410	-0.083	0.181
-300.778	363.870	0.144	-0.285
-299.764	31.882	0.243	-0.206
-298.749	169.486	-0.096	0.135
-297.735	-125.526	0.249	0.037
-296.720	-84.408	-0.051	0.016
-295.705	-110.960	-0.437	-0.089
-294.691	-64.672	0.041	0.017
-293.676	-200.000	-0.058	0.254
-292.662	-200.000	-0.022	0.195
-291.647	-29.752	0.211	0.118
-290.632	800.000	0.029	0.112
-289.618	-200.000	-0.022	0.115
-288.603	170.951	0.007	0.010
-287.589	169.750	-0.079	0.111
-286.574	-44.958	0.231	0.113
-285.559	46.166	-0.118	-0.108
-284.545	-9.074	-0.138	0.091
-283.530	-90.480	-0.237	0.067
-282.516	-91.449	0.216	0.061
-281.501	502.596	0.047	0.108
-280.486	39.170	-0.210	-0.185
-279.472	209.879	-0.188	0.290
-278.457	-145.867	-0.326	0.029
-277.443	-200.000	0.019	-0.146
-276.428	-67.369	-0.182	-0.070
-275.413	-200.000	0.009	0.056
-274.399	800.000	-0.056	-0.199
-273.384	-33.809	0.261	-0.141
-272.370	-139.301	0.166	0.018
-271.355	-82.603	0.137	0.044
-270.340	-53.116	0.181	0.082
-269.326	800.000	-0.002	-0.009
-268.311	800.000	0.061	0.192
-267.297	800.000	0.047	0.137
-266.282	398.332	0.107	-0.220
-265.267	518.138	-0.151	-0.348
-264.253	-90.065	0.120	0.034
-263.238	-73.653	0.171	-0.061
-262.224	800.000	-0.092	-0.336
-261.209	377.173	0.135	0.270
-260.195	79.211	0.047	-0.049
-259.180	147.207	0.081	-0.108
-258.165	-34.318	0.282	-0.152
-257.151	243.301	-0.122	0.202
-256.136	-41.944	0.268	0.135
-255.122	-200.000	-0.006	-0.246
-254.107	-4.609	-0.038	-0.026
-253.092	36.977	0.066	0.058
-252.078	-200.000	-0.008	0.100
-251.063	358.296	0.075	0.146
-250.049	-96.998	-0.019	0.005
-249.034	51.184	-0.177	0.165
-248.019	727.062	-0.056	-0.147
-247.005	4.078	0.128	0.092
-245.990	800.000	0.091	-0.292
-244.976	-149.869	0.288	0.022
-243.961	-122.066	0.321	0.052
-242.946	-58.303	0.097	0.041
-241.932	783.869	0.067	-0.180
-240.917	234.967	0.052	0.084
-239.903	77.051	-0.092	-0.096
-238.888	-200.000	-0.029	0.193
-237.873	-33.671	0.226	-0.123
-236.859	-109.011	-0.255	-0.053
-235.844	-44.911	0.173	-0.085
-234.830	130.416	-0.216	-0.272
-233.815	-34.951	0.148	0.079
-232.800	162.289	-0.198	-0.272
-231.786	108.705	0.211	0.247
-230.771	724.372	-0.134	0.350
-229.757	-111.941	-0.198	0.039
-228.742	-162.219	-0.388	-0.019
-227.727	-104.165	0.049	0.011
-226.713	135.701	-0.189	0.242
-225.698	800.000	-0.053	0.217
-224.684	-200.000	0.005	-0.031
-223.669	-121.790	0.201	-0.033
-222.655	-59.515	-0.111	-0.047
-221.640	-200.000	0.002	0.121
-220.625	-116.883	-0.262	-0.047
-219.611	90.369	-0.070	-0.077
-218.596	29.423	-0.181	0.151
-217.582	81.692	-0.148	-0.157
-216.567	-200.000	-0.012	-0.199
-215.552	26.747	0.222	-0.183
-214.538	-21.582	-0.184	0.110
-213.523	-9.619	-0.197	-0.129
-212.509	38.952	0.345	-0.302
-211.494	-183.760	-0.406	-0.007
-210.479	-200.000	-0.032	0.316
-209.465	52.687	-0.196	0.184
-208.450	0.016	0.157	0.110
-207.436	-196.868	-0.201	-0.001
-206.421	235.912	0.045	0.072
-205.406	27.947	0.203	0.168
-204.392	104.520	-0.113	-0.131
-203.377	-107.905	0.079	0.017
-202.363	-167.473	-0.335	-0.013
-201.348	-96.861	0.172	0.044
-200.333	103.112	-0.156	0.180
-199.319	-96.459	-0.155	0.040
-198.304	-112.859	0.349	-0.068
-197.290	0.623	0.070	-0.049
-196.275	-200.000	-0.003	-0.079
-195.260	99.173	0.052	-0.059
-194.246	81.094	-0.110	0.116
-193.231	-102.253	-0.293	0.069
-192.217	-65.762	0.202	-0.079
-191.202	-68.119	0.058	0.022
-190.187	-29.316	0.133	-0.075
-189.173	-200.000	-0.043	0.331
-188.158	-126.959	0.255	0.037
-187.144	-200.000	0.021	-0.119
-186.129	-200.000	-0.003	-0.123
-185.114	-200.000	-0.005	-0.033
-184.100	-161.899	0.193	0.010
-183.085	-148.883	-0.099	-0.008
-182.071	-6.179	-0.067	0.045
-181.056	-99.208	-0.111	-0.027
-180.042	-4.522	-0.224	-0.151
-179.027	-200.000	-0.003	0.090
-178.012	-200.000	0.032	-0.229
-176.998	800.000	0.058	-0.160
-175.983	-200.000	-0.034	-0.278
-174.969	-50.546	0.209	-0.097
-173.954	-28.313	-0.296	-0.168
-172.939	-55.012	-0.156	0.069
-171.925	131.334	0.171	-0.215
-170.910	200.578	-0.138	-0.208
-169.896	-152.034	-0.157	-0.011
-168.881	-200.000	0.003	-0.287
-167.866	115.409	-0.109	0.130
-166.852	-46.491	0.386	0.185
-165.837	-200.000	0.026	0.167
-164.823	134.679	0.117	0.149
-163.808	-200.000	-0.001	0.096
-162.793	800.000	-0.028	0.082
-161.779	-111.795	-0.282	-0.056
-160.764	-200.000	-0.041	0.296
-159.750	-81.876	0.272	-0.087
-158.735	-198.044	0.084	0.000
-157.720	800.000	-0.109	0.333
-156.706	-161.534	0.276	-0.014
-155.691	186.085	-0.123	-0.179
-154.677	-116.225	0.262	0.048
-153.662	419.866	-0.074	0.154
-152.647	-94.262	-0.512	-0.137
-151.633	638.718	0.046	-0.114
-150.618	-20.862	-0.236	-0.142
-149.604	54.750	0.153	0.145
-148.589	-200.000	0.018	0.114
-147.574	110.805	0.078	-0.091
-146.560	-57.349	-0.413	0.178
-145.545	-69.497	0.490	-0.184
-144.531	-121.990	-0.249	-0.040
-143.516	512.342	0.087	-0.199
-142.502	92.828	-0.162	0.179
-141.487	181.625	0.110	-0.159
-140.472	451.642	0.070	0.151
-139.458	-115.569	0.157	-0.029
-138.443	-16.330	0.020	0.013
-137.429	-15.533	0.151	-0.094
-136.414	800.000	-0.066	-0.261
-135.399	-1.578	-0.180	-0.124
-134.385	-17.079	0.154	0.095
-133.370	-200.000	-0.299	-0.001
-132.356	-177.504	-0.159	-0.004
-131.341	800.000	0.048	-0.131
-130.326	-136.741	-0.232	-0.026
-129.312	36.546	0.056	-0.049
-128.297	34.552	-0.231	0.197
-127.283	9.535	0.064	0.048
-126.268	-200.000	-0.001	0.015
-125.253	-200.000	-0.004	-0.112
-124.239	-82.199	-0.145	0.046
-123.224	-52.056	0.287	-0.130
-122.210	123.207	-0.140	-0.172
