DTS Sentinel unit serial number:	SN413079Multiplexer serial number:	ORYXHardware model number:	OX4-SRSoftware version number:	ORYX F/W v4.00 Oryx Data Collector v3.7.2.0data status	okinstallation	princeton_trtdifferential loss correction	single-endedforward channel	channel 1reverse channel	N/Adate	2019/09/17time	10:46:35forward acquisition time	60.00reverse acquisition time	0.00gamma	496.2192k internal	0.2323k external	0.2323temperature offset calibration	0.9964default loss term (dB/km)	0.3790temperature slope calibration	1.0000multiplexer offset coefficient	1.0000multiplexer slope coefficient	1.0000fibre end	0.00T internal ref (°C)	30.16T ext. ref 1 (°C)	0.17T ext. ref 2 (°C)	25.75length (m)	temperature (°C)	Stokes	anti-Stokes-747.200	800.000	0.053	-0.187
-746.185	800.000	-0.075	0.321
-745.171	-26.576	0.255	0.151
-744.156	800.000	-0.079	0.256
-743.142	-134.867	0.200	-0.024
-742.127	-200.000	0.039	0.205
-741.112	-200.000	0.013	0.066
-740.098	-200.000	-0.037	-0.189
-739.083	-144.932	0.312	-0.029
-738.069	-86.201	-0.178	0.055
-737.054	-110.549	-0.468	0.098
-736.039	-146.906	-0.309	-0.027
-735.025	13.132	0.075	0.059
-734.010	-119.332	-0.369	-0.065
-732.996	-76.928	-0.270	0.095
-731.981	199.520	0.066	-0.103
-730.966	196.703	-0.064	0.098
-729.952	138.567	-0.099	-0.131
-728.937	-9.208	-0.251	0.169
-727.923	800.000	0.044	-0.175
-726.908	177.213	-0.089	-0.131
-725.894	-200.000	0.004	0.067
-724.879	11.982	0.136	0.106
-723.864	-159.942	0.211	0.012
-722.850	-66.601	0.141	0.056
-721.835	-113.615	0.165	0.033
-720.821	211.771	0.079	-0.126
-719.806	-200.000	0.025	0.368
-718.791	378.993	0.084	0.173
-717.777	-90.179	-0.085	-0.025
-716.762	224.972	-0.124	-0.203
-715.748	-142.283	-0.255	0.025
-714.733	-41.488	-0.280	0.145
-713.718	-200.000	-0.014	-0.150
-712.704	-91.812	-0.116	-0.033
-711.689	383.775	0.019	0.040
-710.675	-44.035	-0.442	-0.224
-709.660	-97.372	-0.221	0.058
-708.645	49.715	0.122	-0.116
-707.631	-149.947	0.365	0.029
-706.616	88.068	-0.180	0.201
-705.602	167.778	-0.171	-0.245
-704.587	69.287	0.065	-0.067
-703.572	-156.536	0.103	-0.006
-702.558	-42.734	-0.111	-0.057
-701.543	-200.000	-0.040	0.332
-700.529	-80.291	0.312	0.105
-699.514	214.167	-0.189	-0.302
-698.499	-158.718	0.472	-0.027
-697.485	-2.078	0.170	-0.121
-696.470	800.000	0.185	0.613
-695.456	-94.160	-0.352	0.097
-694.441	-37.947	0.229	-0.123
-693.426	58.783	-0.174	-0.173
-692.412	185.928	0.159	0.239
-691.397	-150.995	-0.183	0.014
-690.383	-105.828	-0.339	-0.077
-689.368	-102.922	-0.211	-0.051
-688.354	9.542	0.134	0.103
-687.339	6.088	-0.435	-0.325
-686.324	112.023	-0.146	-0.178
-685.310	162.564	-0.088	0.124
-684.295	-76.448	-0.078	0.028
-683.281	-114.044	-0.185	-0.036
-682.266	77.615	-0.162	0.174
-681.251	-76.719	-0.231	0.081
-680.237	-28.095	0.075	-0.043
-679.222	82.782	-0.093	0.102
-678.208	-200.000	0.034	0.229
-677.193	-49.478	-0.193	0.093
-676.178	-140.339	-0.213	0.022
-675.164	800.000	0.073	-0.210
-674.149	-200.000	-0.012	0.235
-673.135	189.785	-0.150	-0.226
-672.120	316.585	-0.156	0.297
-671.105	-200.000	0.008	0.175
-670.091	-200.000	0.010	-0.110
-669.076	-46.654	-0.041	-0.020
-668.062	257.599	-0.204	-0.353
-667.047	383.430	-0.107	-0.222
-666.032	30.264	-0.188	-0.162
-665.018	108.246	0.067	0.080
-664.003	-143.962	0.472	0.045
-662.989	800.000	0.065	0.219
-661.974	-200.000	0.038	0.248
-660.959	106.583	0.227	-0.271
-659.945	102.117	0.145	-0.170
-658.930	-200.000	0.018	-0.090
-657.916	279.788	0.081	0.146
-656.901	-148.251	-0.448	-0.037
-655.886	14.037	-0.081	-0.063
-654.872	-200.000	0.025	-0.341
-653.857	-200.000	-0.029	-0.219
-652.843	-109.738	-0.079	-0.017
-651.828	800.000	-0.050	0.195
-650.814	-91.804	0.039	-0.011
-649.799	800.000	-0.085	0.263
-648.784	800.000	-0.069	0.222
-647.770	-100.061	0.346	0.087
-646.755	-71.322	0.242	-0.091
-645.741	41.341	-0.062	0.056
-644.726	-77.932	-0.249	-0.086
-643.711	75.811	-0.139	-0.148
-642.697	-4.516	-0.124	-0.086
-641.682	-128.539	-0.114	-0.016
-640.668	93.824	-0.084	-0.095
-639.653	-125.453	-0.142	0.022
-638.638	-108.287	-0.165	-0.036
-637.624	-67.330	0.162	-0.064
-636.609	190.887	-0.106	-0.161
-635.595	-182.708	-0.180	0.003
-634.580	-46.578	-0.234	0.116
-633.565	166.151	0.071	0.101
-632.551	-86.685	0.217	0.067
-631.536	-13.756	-0.197	0.128
-630.522	-34.333	0.138	-0.076
-629.507	140.461	-0.061	-0.081
-628.492	-108.243	-0.364	-0.079
-627.478	176.806	0.027	-0.040
-626.463	-135.102	-0.079	0.010
-625.449	800.000	-0.040	-0.113
-624.434	10.228	0.277	-0.212
-623.419	800.000	0.073	-0.278
-622.405	-173.036	0.189	0.006
-621.390	457.659	0.095	0.212
-620.376	-29.196	-0.194	0.112
-619.361	-68.814	0.211	-0.082
-618.346	-200.000	-0.009	0.062
-617.332	800.000	-0.118	-0.500
-616.317	-76.129	0.496	-0.176
-615.303	25.722	-0.113	0.095
-614.288	324.835	0.041	-0.079
-613.273	-47.237	0.136	0.067
-612.259	693.096	-0.014	-0.036
-611.244	-200.000	0.028	0.128
-610.230	-101.353	0.191	0.047
-609.215	130.976	-0.088	-0.114
-608.201	250.008	-0.018	0.031
-607.186	-200.000	0.016	0.160
-606.171	-200.000	-0.009	0.450
-605.157	-200.000	-0.027	0.283
-604.142	146.005	-0.064	-0.086
-603.128	-200.000	0.025	-0.205
-602.113	-75.281	-0.278	-0.100
-601.098	452.249	0.048	0.106
-600.084	-133.796	-0.263	-0.033
-599.069	-95.117	0.300	0.081
-598.055	-5.179	0.208	-0.144
-597.040	-200.000	0.014	-0.124
-596.025	140.128	0.087	0.115
-595.011	800.000	0.026	0.087
-593.996	800.000	-0.082	-0.300
-592.982	577.199	0.108	0.265
-591.967	5.350	-0.240	-0.178
-590.952	74.404	-0.036	-0.038
-589.938	-166.782	-0.378	0.016
-588.923	167.389	0.046	-0.066
-587.909	193.193	-0.059	-0.089
-586.894	-80.804	-0.216	-0.072
-585.879	-156.494	0.272	0.017
-584.865	-71.022	-0.382	-0.144
-583.850	-200.000	0.046	-0.329
-582.836	584.161	-0.139	0.342
-581.821	27.858	-0.170	-0.144
-580.806	800.000	0.043	-0.146
-579.792	-42.043	-0.170	0.087
-578.777	271.779	-0.079	-0.140
-577.763	31.152	-0.126	0.109
-576.748	136.190	0.023	-0.030
-575.733	-167.248	-0.112	-0.005
-574.719	640.271	0.131	0.335
-573.704	-77.590	-0.288	-0.100
-572.690	-64.064	0.062	-0.026
-571.675	439.455	0.234	0.513
-570.661	261.850	-0.074	0.128
-569.646	191.517	-0.062	-0.093
-568.631	10.861	-0.079	-0.061
-567.617	366.401	-0.078	-0.159
-566.602	20.022	-0.047	0.038
-565.588	-142.323	-0.035	-0.003
-564.573	144.703	-0.127	-0.170
-563.558	208.471	0.162	-0.254
-562.544	95.737	-0.060	-0.069
-561.529	624.562	-0.104	0.264
-560.515	-138.024	-0.432	-0.048
-559.500	-200.000	-0.032	-0.246
-558.485	1.647	-0.209	-0.151
-557.471	369.950	-0.222	0.450
-556.456	-48.416	0.187	0.090
-555.442	-114.072	-0.192	-0.037
-554.427	25.946	-0.172	-0.143
-553.412	373.595	-0.076	-0.155
-552.398	-109.607	-0.096	-0.020
-551.383	-85.186	0.107	0.033
-550.369	-123.840	-0.195	0.031
-549.354	434.296	-0.100	-0.218
-548.339	-122.893	0.041	0.007
-547.325	-31.835	0.265	-0.149
-546.310	-11.641	0.232	-0.153
-545.296	42.865	-0.146	-0.133
-544.281	-200.000	0.002	0.059
-543.266	-106.663	0.341	-0.076
-542.252	-200.000	0.002	-0.226
-541.237	-148.990	0.078	0.006
-540.223	-18.291	0.113	-0.071
-539.208	-11.275	0.141	-0.093
-538.193	-75.758	-0.272	0.096
-537.179	-79.559	0.332	0.112
-536.164	-65.113	-0.057	0.023
-535.150	-55.564	-0.251	-0.113
-534.135	144.779	-0.175	-0.234
-533.121	-28.033	0.252	0.146
-532.106	284.450	0.049	0.088
-531.091	800.000	0.029	-0.109
-530.077	-15.921	-0.140	0.089
-529.062	800.000	-0.052	0.170
-528.048	-72.491	-0.176	-0.065
-527.033	189.665	-0.115	0.172
-526.018	-33.614	-0.246	0.136
-525.004	-116.938	0.098	-0.018
-523.989	40.620	-0.094	-0.085
-522.975	-31.676	0.122	0.068
-521.960	-136.871	-0.345	0.040
-520.945	8.282	0.109	0.082
-519.931	18.104	0.379	0.303
-518.916	-148.489	0.111	0.009
-517.902	800.000	0.008	-0.030
-516.887	-118.664	-0.382	0.067
-515.872	800.000	0.008	0.028
-514.858	25.509	0.366	-0.305
-513.843	106.349	-0.207	-0.245
-512.829	315.250	-0.109	0.205
-511.814	-113.647	0.372	0.073
-510.799	440.612	0.022	-0.048
-509.785	57.743	-0.138	-0.135
-508.770	-200.000	-0.019	0.093
-507.756	800.000	0.043	0.120
-506.741	-103.311	-0.170	0.040
-505.726	359.713	-0.020	0.041
-504.712	-167.752	0.062	0.002
-503.697	80.698	0.248	-0.268
-502.683	-200.000	-0.005	0.045
-501.668	800.000	-0.026	0.077
-500.653	86.232	0.165	-0.182
-499.639	-172.460	-0.085	0.003
-498.624	-20.904	0.225	0.138
-497.610	35.121	-0.193	-0.169
-496.595	183.315	-0.091	0.134
-495.581	-59.278	0.161	0.069
-494.566	-104.533	-0.040	-0.009
-493.551	-53.620	-0.375	-0.172
-492.537	42.778	0.150	0.137
-491.522	-102.218	-0.186	-0.045
-490.508	-12.589	-0.303	0.198
-489.493	800.000	0.010	0.037
-488.478	-159.193	-0.086	0.005
-487.464	-40.632	0.221	-0.115
-486.449	800.000	0.060	-0.229
-485.435	505.535	0.158	0.366
-484.420	85.599	0.240	0.263
-483.405	39.095	-0.233	-0.209
-482.391	-200.000	0.005	0.214
-481.376	800.000	0.048	-0.159
-480.362	-200.000	-0.056	0.325
-479.347	565.522	-0.099	-0.240
-478.332	0.573	0.134	0.096
-477.318	-200.000	-0.036	0.184
-476.303	-116.037	0.096	0.018
-475.289	800.000	0.047	-0.178
-474.274	249.698	-0.089	-0.151
-473.259	413.337	0.018	0.038
-472.245	-45.839	0.232	0.115
-471.230	800.000	0.021	-0.089
-470.216	800.000	-0.088	0.249
-469.201	-76.895	0.118	-0.041
-468.186	-38.000	0.275	-0.146
-467.172	-122.565	0.154	-0.025
-466.157	142.545	-0.117	0.155
-465.143	153.110	-0.144	0.196
-464.128	99.901	0.060	0.070
-463.113	20.430	-0.208	-0.168
-462.099	131.710	-0.128	0.165
-461.084	435.988	0.048	0.104
-460.070	-200.000	0.038	-0.304
-459.055	-63.921	0.298	0.122
-458.040	412.596	0.019	0.041
-457.026	148.614	-0.135	-0.182
-456.011	-89.711	0.117	-0.034
-454.997	-93.577	-0.190	0.052
-453.982	43.161	-0.042	0.039
-452.968	306.608	0.157	0.292
-451.953	123.220	-0.048	0.060
-450.938	-200.000	0.004	0.140
-449.924	800.000	0.036	-0.112
-448.909	-1.237	-0.228	-0.161
-447.895	-3.533	0.167	-0.116
-446.880	203.724	-0.203	0.314
-445.865	-6.100	-0.163	0.111
-444.851	-118.386	0.206	-0.036
-443.836	327.160	-0.146	-0.279
-442.822	133.297	-0.259	-0.334
-441.807	800.000	0.034	-0.129
-440.792	25.698	0.212	-0.177
-439.778	800.000	-0.078	-0.313
-438.763	381.104	-0.117	-0.239
-437.749	-21.197	0.042	0.026
-436.734	-64.950	-0.115	0.046
-435.719	800.000	-0.047	0.141
-434.705	45.116	-0.175	-0.161
-433.690	-156.686	0.518	-0.032
-432.676	69.998	0.109	0.112
-431.661	-200.000	-0.005	-0.230
-430.646	-200.000	-0.010	0.094
-429.632	140.112	0.179	0.235
-428.617	-64.583	0.116	-0.047
-427.603	800.000	-0.019	-0.078
-426.588	-200.000	-0.012	-0.218
-425.573	-52.891	0.035	0.016
-424.559	800.000	-0.067	-0.246
-423.544	-200.000	0.076	-0.414
-422.530	56.455	-0.224	-0.217
-421.515	800.000	0.040	-0.138
-420.500	35.500	0.077	-0.068
-419.486	-79.859	-0.310	0.104
-418.471	-21.875	-0.382	-0.232
-417.457	143.648	0.089	-0.118
-416.442	-189.776	-0.159	0.002
-415.428	70.679	-0.097	-0.100
-414.413	9.236	-0.109	-0.082
-413.398	-157.702	0.041	0.002
-412.384	800.000	0.026	-0.108
-411.369	-139.046	-0.128	0.014
-410.355	466.321	0.064	-0.142
-409.340	7.745	0.292	0.218
-408.325	-200.000	-0.024	0.282
-407.311	-24.679	0.093	0.055
-406.296	-34.801	-0.072	-0.039
-405.282	-35.806	0.171	-0.092
-404.267	-110.327	-0.245	0.051
-403.252	-200.000	0.044	0.295
-402.238	21.339	-0.165	-0.134
-401.223	26.993	-0.136	-0.113
-400.209	85.356	0.162	0.177
-399.194	-200.000	-0.042	-0.198
-398.179	-200.000	0.015	-0.115
-397.165	126.877	-0.190	0.239
-396.150	-137.648	0.132	-0.015
-395.136	-61.371	0.329	-0.138
-394.121	800.000	0.079	0.302
-393.106	-192.274	0.117	0.001
-392.092	96.107	0.124	0.141
-391.077	-65.755	-0.349	0.139
-390.063	-23.507	-0.229	0.137
-389.048	84.121	0.064	0.070
-388.033	-200.000	-0.013	-0.105
-387.019	-164.348	-0.145	0.007
-386.004	120.617	-0.098	0.121
-384.990	-17.576	-0.066	-0.041
-383.975	-31.182	0.214	-0.120
-382.960	-31.824	0.090	0.050
-381.946	-4.541	-0.214	0.147
-380.931	79.859	0.041	0.044
-379.917	288.871	-0.113	0.204
-378.902	-73.445	-0.325	0.118
-377.888	440.844	-0.175	0.381
-376.873	-107.260	0.023	0.005
-375.858	490.203	-0.081	-0.184
-374.844	215.392	0.015	0.024
-373.829	-200.000	-0.055	0.260
-372.815	-53.421	-0.104	-0.047
-371.800	278.848	-0.247	-0.438
-370.785	-60.970	-0.504	0.212
-369.771	-200.000	0.049	0.251
-368.756	-200.000	-0.044	0.204
-367.742	-116.511	0.289	-0.053
-366.727	630.662	-0.173	-0.436
-365.712	192.802	-0.044	0.066
-364.698	800.000	-0.061	0.260
-363.683	-155.303	-0.309	-0.020
-362.669	53.037	0.127	0.121
-361.654	-200.000	0.000	-0.113
-360.639	-20.919	0.518	-0.316
-359.625	112.236	0.133	-0.160
-358.610	114.804	0.112	-0.136
-357.596	-200.000	-0.018	-0.127
-356.581	485.159	0.072	-0.163
-355.566	-23.793	0.296	0.177
-354.552	-148.927	0.467	-0.037
-353.537	159.759	0.276	-0.382
-352.523	800.000	-0.008	0.031
-351.508	800.000	-0.081	-0.278
-350.493	-1.334	0.051	0.036
-349.479	-45.947	-0.165	-0.081
-348.464	255.938	-0.070	0.119
-347.450	691.714	-0.089	-0.232
-346.435	216.788	0.068	-0.107
-345.420	61.120	0.337	-0.333
-344.406	2.624	0.179	0.129
-343.391	-21.457	-0.360	0.218
-342.377	-200.000	-0.047	-0.251
-341.362	-152.719	0.444	-0.031
-340.348	-27.703	-0.146	0.084
-339.333	-11.755	0.171	0.111
-338.318	-131.541	-0.183	0.024
-337.304	-200.000	-0.017	0.434
-336.289	-200.000	-0.003	0.269
-335.275	-75.484	-0.162	0.057
-334.260	-200.000	0.016	-0.170
-333.245	-46.090	-0.206	-0.101
-332.231	353.633	0.089	0.176
-331.216	-49.384	0.318	0.151
-330.202	-135.679	0.249	-0.029
-329.187	451.138	-0.128	-0.281
-328.172	163.054	-0.166	-0.232
-327.158	-23.844	-0.182	-0.108
-326.143	800.000	-0.111	-0.380
-325.129	-193.878	0.413	0.003
-324.114	273.136	-0.116	-0.204
-323.099	-87.354	-0.063	0.019
-322.085	-25.206	-0.215	-0.126
-321.070	-200.000	-0.025	-0.182
-320.056	200.868	-0.194	-0.296
-319.041	-166.338	0.262	-0.011
-318.026	290.537	-0.035	-0.063
-317.012	-58.171	-0.080	0.034
-315.997	501.499	0.198	0.455
-314.983	4.797	-0.322	0.235
-313.968	266.254	-0.288	0.500
-312.953	-103.369	0.488	0.114
-311.939	-4.461	0.025	0.017
-310.924	472.281	0.116	-0.260
-309.910	-86.273	-0.182	0.056
-308.895	57.616	-0.084	-0.081
-307.880	82.050	-0.152	-0.163
-306.866	800.000	-0.077	-0.245
-305.851	-47.332	0.276	-0.133
-304.837	-125.842	-0.068	-0.010
-303.822	-172.877	0.190	-0.006
-302.807	-5.252	0.064	-0.044
-301.793	-200.000	-0.066	0.286
-300.778	287.651	0.203	0.364
-299.764	60.357	-0.144	0.142
-298.749	-45.304	0.235	0.116
-297.735	-189.400	-0.095	0.001
-296.720	-200.000	-0.009	-0.108
-295.705	-36.852	0.346	-0.184
-294.691	33.735	0.116	0.101
-293.676	800.000	0.038	-0.105
-292.662	-0.852	0.162	0.114
-291.647	6.174	0.217	0.159
-290.632	-133.393	0.380	-0.047
-289.618	-114.588	-0.064	0.012
-288.603	800.000	0.085	0.250
-287.589	108.593	0.221	0.262
-286.574	800.000	-0.113	0.321
-285.559	331.552	0.180	-0.344
-284.545	74.521	0.136	-0.141
-283.530	-48.873	-0.248	-0.118
-282.516	-200.000	-0.042	0.211
-281.501	76.430	-0.084	0.088
-280.486	-66.945	0.141	0.055
-279.472	-200.000	0.006	0.100
-278.457	-49.310	-0.357	-0.169
-277.443	-42.224	0.217	-0.110
-276.428	-0.340	0.093	0.065
-275.413	25.531	-0.090	-0.074
-274.399	-75.206	0.377	0.133
-273.384	800.000	0.059	0.181
-272.370	800.000	-0.088	0.281
-271.355	800.000	0.055	0.215
-270.340	143.400	0.109	0.144
-269.326	68.144	-0.256	0.259
-268.311	-75.337	0.029	-0.010
-267.297	-120.936	0.157	0.026
-266.282	-200.000	0.012	0.085
-265.267	201.004	0.224	-0.342
-264.253	-196.281	0.040	-0.000
-263.238	12.571	-0.254	-0.194
-262.224	800.000	0.095	0.365
-261.209	-200.000	-0.010	0.206
-260.195	-200.000	-0.023	-0.281
-259.180	78.439	0.183	-0.193
-258.165	-15.468	0.200	-0.127
-257.151	21.356	-0.230	0.185
-256.136	800.000	-0.059	-0.251
-255.122	-98.721	0.392	-0.099
-254.107	-126.842	-0.400	-0.058
-253.092	44.023	0.158	0.144
-252.078	-57.683	0.208	0.090
-251.063	-200.000	0.007	0.235
-250.049	17.371	0.044	-0.035
-249.034	-19.355	0.170	0.105
-248.019	-84.325	-0.204	-0.064
-247.005	-29.637	0.201	0.114
-245.990	-83.624	0.374	-0.118
-244.976	-200.000	-0.008	-0.262
-243.961	-25.533	-0.080	0.047
-242.946	95.155	-0.157	0.178
-241.932	118.323	0.166	0.203
-240.917	-200.000	0.064	-0.358
-239.903	800.000	-0.084	0.290
-238.888	481.994	0.064	-0.145
-237.873	-99.157	-0.170	0.042
-236.859	-200.000	-0.005	-0.132
-235.844	-144.170	0.086	-0.008
-234.830	-25.713	0.177	0.103
-233.815	29.299	0.063	-0.053
-232.800	167.895	-0.268	0.378
-231.786	-0.991	-0.146	-0.102
-230.771	250.181	-0.137	-0.229
-229.757	-100.090	-0.143	-0.035
-228.742	-89.747	-0.267	0.077
-227.727	800.000	-0.048	-0.138
-226.713	-89.086	0.211	-0.062
-225.698	107.025	-0.147	-0.173
-224.684	-85.697	0.236	-0.073
-223.669	-111.500	0.249	0.050
-222.655	51.575	-0.333	-0.313
-221.640	-200.000	0.098	0.430
-220.625	-10.032	0.088	-0.058
-219.611	128.619	0.213	0.268
-218.596	-85.674	0.117	-0.036
-217.582	404.097	0.103	0.215
-216.567	800.000	-0.113	0.347
-215.552	-96.400	0.364	0.095
-214.538	124.602	-0.083	-0.103
-213.523	-23.591	0.138	-0.082
-212.509	375.577	-0.088	0.177
-211.494	230.024	0.208	0.336
-210.479	43.280	0.196	0.177
-209.465	553.102	-0.065	0.154
-208.450	158.151	-0.128	-0.176
-207.436	-69.390	0.186	-0.071
-206.421	-63.495	0.154	-0.063
-205.406	365.750	0.068	-0.135
-204.392	26.756	-0.209	-0.173
-203.377	-31.021	0.276	0.154
-202.363	-106.135	-0.486	-0.108
-201.348	102.809	0.350	-0.405
-200.333	-8.823	-0.168	0.112
-199.319	-200.000	-0.011	0.185
-198.304	-62.210	0.087	0.036
-197.290	-80.733	0.293	0.096
-196.275	295.496	-0.111	0.201
-195.260	-122.578	0.301	-0.048
-194.246	-46.509	0.293	-0.142
-193.231	-32.001	-0.201	-0.111
-192.217	4.048	0.100	-0.072
-191.202	38.800	-0.086	0.076
-190.187	-104.318	-0.357	0.082
-189.173	-89.033	0.018	-0.005
-188.158	52.607	0.119	-0.112
-187.144	33.054	0.101	-0.087
-186.129	110.618	-0.134	0.159
-185.114	-200.000	0.054	-0.375
-184.100	-97.224	0.337	-0.087
-183.085	-14.609	-0.117	0.074
-182.071	-18.712	-0.194	0.120
-181.056	269.892	0.074	0.129
-180.042	-143.597	0.250	-0.024
-179.027	174.800	0.063	-0.091
-178.012	800.000	0.026	0.086
-176.998	63.692	-0.031	-0.030
-175.983	-200.000	-0.015	0.070
-174.969	-34.145	-0.124	-0.067
-173.954	-68.648	0.064	-0.024
-172.939	-200.000	-0.016	-0.448
-171.925	21.049	-0.049	-0.040
-170.910	42.094	0.276	0.248
-169.896	-74.287	-0.195	-0.070
-168.881	800.000	0.113	0.367
-167.866	-21.479	-0.128	0.077
-166.852	-200.000	0.052	0.372
-165.837	800.000	-0.053	0.217
-164.823	-200.000	-0.015	-0.089
-163.808	-26.545	0.182	-0.105
-162.793	432.852	-0.087	-0.186
-161.779	-19.196	-0.170	0.104
-160.764	84.300	-0.170	0.183
-159.750	-56.111	-0.359	0.158
-158.735	143.797	-0.169	0.223
-157.720	-14.161	0.244	0.155
-156.706	21.320	0.155	-0.124
-155.691	-200.000	0.014	-0.109
-154.677	-51.136	-0.133	-0.061
-153.662	800.000	-0.032	0.118
-152.647	-162.740	-0.348	0.017
-151.633	18.032	-0.067	-0.053
-150.618	184.944	0.262	0.383
-149.604	-138.827	-0.211	-0.023
-148.589	-200.000	0.009	0.173
-147.574	226.791	0.086	0.137
-146.560	43.109	-0.225	0.203
-145.545	-79.221	-0.075	-0.025
-144.531	615.930	0.095	0.234
-143.516	-66.595	0.358	-0.140
-142.502	77.238	-0.267	0.280
-141.487	-132.228	0.416	0.053
-140.472	441.455	0.056	0.122
-139.458	11.405	0.079	-0.060
-138.443	800.000	0.026	0.103
-137.429	-35.794	-0.131	-0.070
-136.414	-200.000	-0.032	0.183
-135.399	343.429	0.044	0.086
-134.385	-81.439	0.252	-0.082
-133.370	254.120	-0.062	-0.104
-132.356	-151.077	-0.098	-0.007
-131.341	319.717	-0.068	-0.127
-130.326	-200.000	0.005	0.052
-129.312	480.006	0.038	0.086
-128.297	-42.892	-0.202	0.101
-127.283	-49.616	0.288	0.135
-126.268	-97.824	0.261	0.067
-125.253	-52.269	0.095	-0.043
-124.239	79.207	0.122	-0.129
-123.224	-97.037	-0.301	-0.078
-122.210	-25.057	0.137	0.080
-121.195	-127.105	0.079	0.011
