DTS Sentinel unit serial number:	SN413079Multiplexer serial number:	ORYXHardware model number:	OX4-SRSoftware version number:	ORYX F/W v4.00 Oryx Data Collector v3.7.2.0data status	okinstallation	princeton_trtdifferential loss correction	single-endedforward channel	channel 1reverse channel	N/Adate	2019/09/16time	03:54:35forward acquisition time	60.00reverse acquisition time	0.00gamma	496.2192k internal	0.2331k external	0.2331temperature offset calibration	0.9982default loss term (dB/km)	0.3790temperature slope calibration	1.0000multiplexer offset coefficient	1.0000multiplexer slope coefficient	1.0000fibre end	0.00T internal ref (°C)	27.52T ext. ref 1 (°C)	10.69T ext. ref 2 (°C)	21.59length (m)	temperature (°C)	Stokes	anti-Stokes-747.200	-90.411	0.240	0.070
-746.185	86.459	-0.105	0.117
-745.171	-200.000	0.058	0.287
-744.156	-89.107	-0.051	-0.015
-743.142	-50.914	0.084	-0.040
-742.127	1.737	0.181	0.131
-741.112	-112.671	0.225	0.045
-740.098	-87.330	0.021	0.007
-739.083	130.051	-0.177	0.228
-738.069	800.000	0.055	0.192
-737.054	51.095	0.234	-0.223
-736.039	-200.000	0.056	-0.266
-735.025	-48.284	0.377	0.183
-734.010	307.939	-0.242	-0.454
-732.996	-33.243	-0.297	0.166
-731.981	-200.000	-0.043	0.215
-730.966	192.861	-0.177	-0.269
-729.952	-38.481	-0.319	-0.170
-728.937	280.950	-0.118	0.213
-727.923	-65.240	-0.161	0.065
-726.908	800.000	-0.023	-0.081
-725.894	67.561	-0.306	0.314
-724.879	-120.565	-0.103	0.018
-723.864	-154.427	0.053	-0.004
-722.850	-60.225	0.325	0.139
-721.835	-52.030	0.025	-0.012
-720.821	189.508	0.056	-0.084
-719.806	-200.000	0.025	-0.399
-718.791	800.000	-0.029	0.105
-717.777	800.000	-0.103	0.417
-716.762	-132.468	0.252	0.033
-715.748	-200.000	0.056	-0.358
-714.733	-200.000	-0.011	-0.138
-713.718	800.000	0.068	0.251
-712.704	-200.000	-0.056	0.306
-711.689	163.468	0.147	0.208
-710.675	-200.000	-0.012	-0.063
-709.660	-200.000	0.001	-0.039
-708.645	694.847	0.133	0.352
-707.631	-51.740	-0.335	0.157
-706.616	414.565	0.138	0.295
-705.602	800.000	0.107	0.323
-704.587	800.000	-0.058	-0.196
-703.572	800.000	0.098	-0.354
-702.558	-200.000	-0.034	0.162
-701.543	1.262	-0.243	-0.175
-700.529	-74.740	-0.092	0.033
-699.514	-98.992	0.084	0.021
-698.499	800.000	0.091	-0.301
-697.485	-54.159	-0.114	-0.052
-696.470	48.283	-0.162	-0.152
-695.456	-78.176	0.065	-0.023
-694.441	-125.321	-0.226	-0.035
-693.426	654.901	0.079	-0.204
-692.412	87.605	-0.144	-0.160
-691.397	259.581	-0.117	0.203
-690.383	375.478	-0.032	-0.065
-689.368	-59.829	-0.188	-0.081
-688.354	-111.123	-0.274	0.056
-687.339	120.152	-0.142	0.177
-686.324	165.810	-0.208	0.295
-685.310	255.157	0.046	0.079
-684.295	-82.352	0.354	0.116
-683.281	326.061	-0.093	-0.179
-682.266	127.271	-0.266	0.339
-681.251	39.565	0.173	-0.156
-680.237	96.530	-0.025	0.029
-679.222	379.344	-0.156	-0.322
-678.208	-178.793	-0.251	0.006
-677.193	241.092	0.147	0.247
-676.178	122.020	-0.171	-0.214
-675.164	-187.226	-0.230	0.003
-674.149	-200.000	0.002	-0.060
-673.135	-200.000	0.038	-0.174
-672.120	-130.630	-0.211	-0.029
-671.105	-91.484	0.187	0.054
-670.091	-200.000	-0.025	-0.260
-669.076	33.745	0.085	-0.074
-668.062	-17.292	0.170	0.107
-667.047	134.685	-0.238	-0.309
-666.032	-188.953	0.142	0.002
-665.018	58.231	-0.245	0.241
-664.003	-200.000	0.062	0.658
-662.989	-26.604	-0.219	-0.129
-661.974	122.953	-0.128	-0.161
-660.959	-61.884	-0.369	0.155
-659.945	-200.000	-0.083	-0.410
-658.930	-20.184	0.178	0.110
-657.916	-73.659	-0.055	-0.020
-656.901	-195.713	0.181	-0.001
-655.886	-127.422	-0.133	-0.019
-654.872	486.177	-0.204	0.466
-653.857	-200.000	0.030	0.247
-652.843	-14.328	0.124	-0.080
-651.828	799.849	-0.093	-0.258
-650.814	-21.757	0.028	0.017
-649.799	-72.668	-0.198	0.073
-648.784	-200.000	-0.008	-0.294
-647.770	-200.000	-0.030	-0.290
-646.755	-200.000	0.023	0.149
-645.741	99.364	-0.184	0.213
-644.726	523.301	0.057	0.134
-643.711	-148.748	-0.196	0.016
-642.697	-200.000	-0.010	0.056
-641.682	-125.673	-0.121	-0.018
-640.668	-81.579	0.456	-0.150
-639.653	800.000	-0.037	-0.130
-638.638	-200.000	-0.040	-0.360
-637.624	-200.000	-0.024	-0.249
-636.609	-142.757	0.194	-0.019
-635.595	800.000	-0.085	0.256
-634.580	-200.000	-0.032	-0.364
-633.565	367.552	0.079	0.161
-632.551	-200.000	-0.014	-0.391
-631.536	54.068	0.135	-0.130
-630.522	-73.505	0.280	-0.102
-629.507	-1.121	0.163	-0.115
-628.492	21.015	0.214	-0.174
-627.478	-200.000	-0.033	-0.193
-626.463	17.058	-0.101	-0.080
-625.449	-200.000	0.027	-0.229
-624.434	-200.000	-0.000	0.158
-623.419	-12.256	-0.196	0.128
-622.405	-4.921	-0.584	0.403
-621.390	-25.402	-0.198	-0.117
-620.376	688.052	-0.036	-0.093
-619.361	-99.945	-0.335	0.084
-618.346	-200.000	0.001	0.093
-617.332	-121.997	-0.379	0.062
-616.317	-78.180	-0.050	0.017
-615.303	101.016	0.006	-0.007
-614.288	-92.312	-0.088	0.025
-613.273	23.239	-0.131	0.107
-612.259	282.734	0.058	0.104
-611.244	-178.548	-0.261	0.006
-610.230	-200.000	-0.015	0.106
-609.215	114.011	-0.173	-0.210
-608.201	-20.170	0.382	-0.236
-607.186	800.000	0.118	-0.339
-606.171	27.491	0.184	-0.155
-605.157	169.030	0.009	-0.012
-604.142	-200.000	-0.017	0.263
-603.128	212.631	-0.116	-0.184
-602.113	-200.000	-0.001	0.438
-601.098	-67.257	-0.170	-0.067
-600.084	-149.645	0.135	-0.011
-599.069	723.050	-0.024	0.064
-598.055	261.468	0.146	0.253
-597.040	-104.183	0.294	0.068
-596.025	-200.000	0.065	-0.327
-595.011	-200.000	-0.008	-0.111
-593.996	-88.725	-0.158	-0.047
-592.982	-5.753	0.222	0.152
-591.967	-173.386	-0.205	-0.006
-590.952	355.084	-0.052	0.104
-589.938	-103.572	-0.076	-0.018
-588.923	-200.000	0.026	-0.180
-587.909	-46.573	0.187	-0.092
-586.894	67.194	-0.028	-0.029
-585.879	-41.418	0.139	-0.072
-584.865	-171.050	-0.099	0.003
-583.850	108.335	0.109	0.131
-582.836	-200.000	0.034	-0.181
-581.821	-114.048	-0.301	0.058
-580.806	-10.423	-0.142	-0.094
-579.792	38.218	-0.082	-0.073
-578.777	148.088	0.140	-0.189
-577.763	326.780	-0.143	-0.274
-576.748	189.132	0.159	0.238
-575.733	117.456	0.093	0.115
-574.719	-74.512	-0.198	-0.071
-573.704	79.956	-0.216	-0.232
-572.690	-200.000	-0.006	0.145
-571.675	-27.747	0.109	-0.063
-570.661	-200.000	-0.007	0.128
-569.646	199.847	-0.105	0.161
-568.631	-28.101	-0.161	0.093
-567.617	-114.446	0.120	0.023
-566.602	-200.000	0.020	-0.254
-565.588	587.864	0.037	-0.092
-564.573	12.591	-0.206	-0.159
-563.558	15.040	-0.017	0.013
-562.544	800.000	-0.115	0.364
-561.529	240.048	0.050	-0.083
-560.515	272.212	-0.151	-0.267
-559.500	800.000	0.135	-0.425
-558.485	-89.051	0.355	-0.105
-557.471	261.164	-0.065	0.113
-556.456	274.797	0.048	-0.085
-555.442	800.000	0.053	0.152
-554.427	242.563	-0.088	-0.148
-553.412	800.000	-0.026	-0.076
-552.398	79.205	0.124	-0.133
-551.383	-189.318	-0.087	-0.001
-550.369	-31.579	-0.067	-0.038
-549.354	800.000	0.096	0.272
-548.339	-94.292	0.182	-0.050
-547.325	-8.270	-0.169	-0.113
-546.310	-103.543	-0.352	0.083
-545.296	72.195	-0.196	0.204
-544.281	201.629	-0.079	-0.121
-543.266	800.000	-0.014	-0.053
-542.252	-96.711	-0.113	0.030
-541.237	-148.623	-0.342	0.028
-540.223	236.327	0.093	-0.154
-539.208	-7.082	-0.275	-0.186
-538.193	-22.803	0.162	-0.097
-537.179	-78.371	-0.209	-0.072
-536.164	-200.000	-0.006	-0.252
-535.150	-126.626	0.126	-0.019
-534.135	-81.746	-0.077	-0.025
-533.121	-200.000	0.007	0.031
-532.106	252.359	-0.037	0.063
-531.091	297.824	-0.094	-0.172
-530.077	-44.367	0.291	-0.146
-529.062	-200.000	-0.035	0.274
-528.048	302.356	0.113	-0.208
-527.033	66.584	-0.165	-0.167
-526.018	8.089	0.166	-0.124
-525.004	174.004	0.084	-0.121
-523.989	210.888	0.069	-0.108
-522.975	-71.139	-0.119	0.045
-521.960	800.000	0.066	-0.212
-520.945	382.974	0.077	0.157
-519.931	-28.561	0.138	-0.080
-518.916	42.086	-0.413	-0.374
-517.902	-193.965	0.222	-0.002
-516.887	48.860	-0.112	0.105
-515.872	-118.600	-0.087	-0.015
-514.858	24.541	0.307	0.253
-513.843	-73.237	0.338	0.123
-512.829	-42.096	-0.217	0.111
-511.814	155.056	0.115	-0.157
-510.799	-200.000	-0.057	0.259
-509.785	69.117	-0.022	-0.023
-508.770	184.917	0.176	0.260
-507.756	65.155	-0.128	-0.129
-506.741	-200.000	0.021	0.227
-505.726	787.789	0.079	-0.216
-504.712	-160.344	-0.260	0.014
-503.697	220.128	0.101	0.162
-502.683	316.545	-0.070	-0.131
-501.668	-200.000	0.020	0.129
-500.653	-49.419	0.051	-0.024
-499.639	-42.698	0.066	-0.034
-498.624	25.559	0.194	-0.161
-497.610	223.242	0.084	-0.135
-496.595	-18.286	0.164	-0.102
-495.581	17.753	-0.234	-0.186
-494.566	-6.094	0.138	-0.094
-493.551	-200.000	0.026	-0.179
-492.537	800.000	0.071	-0.200
-491.522	80.263	0.156	0.168
-490.508	392.652	0.139	0.289
-489.493	24.581	-0.405	-0.334
-488.478	42.031	-0.120	-0.109
-487.464	-7.569	0.122	0.083
-486.449	3.362	0.167	-0.121
-485.435	800.000	0.026	0.109
-484.420	-200.000	0.021	0.277
-483.405	-183.590	-0.239	0.004
-482.391	-96.593	-0.338	-0.089
-481.376	-135.857	0.511	0.060
-480.362	-140.787	0.360	0.037
-479.347	800.000	0.107	0.342
-478.332	-200.000	-0.039	-0.181
-477.318	-137.629	0.180	0.020
-476.303	-195.796	0.377	0.003
-475.289	1.806	-0.048	0.034
-474.274	-200.000	-0.041	-0.418
-473.259	-200.000	0.051	0.350
-472.245	-162.102	-0.223	0.011
-471.230	-53.816	0.027	-0.012
-470.216	-79.516	-0.328	-0.110
-469.201	38.574	-0.159	-0.142
-468.186	281.106	0.076	0.136
-467.172	3.903	0.020	0.014
-466.157	-57.438	-0.145	-0.063
-465.143	539.469	-0.098	0.231
-464.128	371.100	-0.024	-0.049
-463.113	-36.877	-0.479	-0.256
-462.099	783.739	0.030	0.083
-461.084	211.759	0.135	0.212
-460.070	-89.559	0.060	-0.018
-459.055	479.151	-0.069	-0.157
-458.040	-200.000	0.021	0.147
-457.026	-50.852	-0.064	-0.030
-456.011	-58.976	0.083	-0.035
-454.997	-52.287	-0.213	-0.098
-453.982	-53.369	-0.353	0.161
-452.968	438.012	0.076	-0.164
-451.953	-200.000	0.063	-0.334
-450.938	-98.108	-0.024	0.006
-449.924	-200.000	0.042	-0.304
-448.909	47.899	0.202	-0.188
-447.895	184.317	-0.233	-0.343
-446.880	43.546	0.274	0.250
-445.865	-200.000	-0.006	0.208
-444.851	272.535	-0.088	0.154
-443.836	-19.423	-0.021	0.013
-442.822	247.128	-0.082	0.138
-441.807	-200.000	-0.055	0.264
-440.792	121.220	-0.040	0.049
-439.778	-200.000	0.016	-0.204
-438.763	-24.743	0.226	0.133
-437.749	-200.000	-0.162	0.000
-436.734	-84.805	-0.384	0.120
-435.719	-160.345	0.446	-0.024
-434.705	93.649	0.239	-0.269
-433.690	800.000	0.066	0.284
-432.676	-137.129	0.078	0.009
-431.661	223.760	0.162	0.261
-430.646	-125.459	0.205	0.031
-429.632	-142.272	0.148	0.015
-428.617	211.056	0.162	0.254
-427.603	-149.628	-0.112	0.009
-426.588	117.372	-0.102	0.124
-425.573	166.132	0.033	0.046
-424.559	-156.243	-0.315	-0.020
-423.544	225.413	-0.157	0.252
-422.530	-148.691	-0.251	0.020
-421.515	66.949	-0.127	-0.129
-420.500	-200.000	0.040	0.363
-419.486	-159.872	0.169	-0.009
-418.471	-200.000	0.014	-0.626
-417.457	800.000	0.057	0.158
-416.442	362.911	-0.053	0.105
-415.428	24.153	-0.159	-0.131
-414.413	2.734	0.066	-0.048
-413.398	-45.119	-0.336	0.166
-412.384	660.905	-0.027	-0.070
-411.369	800.000	-0.032	-0.110
-410.355	-109.492	0.303	-0.063
-409.340	296.137	-0.073	0.133
-408.325	-200.000	0.030	0.218
-407.311	800.000	-0.091	0.390
-406.296	87.068	0.021	-0.023
-405.282	-88.732	0.286	0.084
-404.267	-45.096	0.155	-0.077
-403.252	-42.491	-0.382	0.193
-402.238	717.704	0.017	0.046
-401.223	-30.533	0.208	-0.117
-400.209	-200.000	0.050	0.285
-399.194	-86.468	-0.183	0.056
-398.179	800.000	-0.095	-0.288
-397.165	-131.372	0.367	-0.048
-396.150	-36.968	-0.397	-0.211
-395.136	-7.898	0.062	0.042
-394.121	-164.875	0.242	0.011
-393.106	-43.130	0.199	-0.100
-392.092	642.263	0.135	-0.342
-391.077	6.969	0.143	0.106
-390.063	17.965	0.146	0.116
-389.048	41.852	-0.133	0.119
-388.033	-136.455	0.240	0.028
-387.019	-200.000	0.009	-0.079
-386.004	460.431	-0.156	0.345
-384.990	800.000	-0.052	-0.163
-383.975	-175.567	-0.174	0.005
-382.960	-63.158	0.447	-0.183
-381.946	264.841	-0.166	-0.288
-380.931	-132.067	-0.277	-0.036
-379.917	274.378	-0.087	0.153
-378.902	167.956	0.217	-0.306
-377.888	800.000	-0.056	-0.230
-376.873	800.000	-0.121	-0.362
-375.858	449.558	0.059	-0.129
-374.844	-103.964	0.214	0.049
-373.829	362.896	0.212	0.422
-372.815	-170.394	-0.668	0.023
-371.800	-200.000	-0.023	-0.187
-370.785	357.299	-0.060	-0.119
-369.771	800.000	0.075	-0.219
-368.756	174.632	-0.074	0.106
-367.742	257.198	-0.183	0.311
-366.727	-122.369	-0.352	-0.057
-365.712	-68.659	0.193	0.074
-364.698	-200.000	-0.001	-0.009
-363.683	-200.000	-0.040	0.279
-362.669	153.424	-0.039	0.053
-361.654	38.055	0.061	0.054
-360.639	184.929	0.070	0.102
-359.625	-140.204	0.219	0.023
-358.610	47.167	-0.200	0.185
-357.596	187.376	-0.196	-0.290
-356.581	592.232	-0.027	-0.067
-355.566	184.195	-0.050	0.073
-354.552	-37.721	-0.104	0.055
-353.537	800.000	0.054	0.214
-352.523	-44.298	-0.421	-0.209
-351.508	800.000	-0.124	-0.404
-350.493	14.136	0.256	-0.198
-349.479	800.000	-0.048	0.180
-348.464	-197.578	0.191	-0.001
-347.450	800.000	-0.027	0.080
-346.435	-109.132	0.150	0.032
-345.420	-0.893	-0.199	0.140
-344.406	350.746	-0.058	0.113
-343.391	65.702	-0.149	-0.150
-342.377	-89.297	0.210	-0.061
-341.362	215.853	-0.041	-0.065
-340.348	4.060	-0.145	-0.105
-339.333	-79.845	0.227	0.076
-338.318	-200.000	-0.012	0.184
-337.304	-200.000	-0.020	-0.346
-336.289	800.000	-0.111	-0.345
-335.275	-23.502	-0.619	0.368
-334.260	-1.702	-0.048	0.033
-333.245	-200.000	-0.005	0.094
-332.231	-200.000	0.016	0.124
-331.216	511.032	0.057	0.131
-330.202	40.570	0.115	0.103
-329.187	-135.651	-0.056	0.007
-328.172	800.000	0.032	0.092
-327.158	-200.000	0.025	-0.164
-326.143	800.000	0.120	-0.371
-325.129	60.298	0.216	0.212
-324.114	-28.207	0.014	0.008
-323.099	-200.000	-0.008	-0.228
-322.085	324.192	0.195	-0.369
-321.070	-200.000	0.002	0.310
-320.056	-200.000	-0.001	-0.123
-319.041	-200.000	0.041	0.180
-318.026	-33.484	-0.114	-0.063
-317.012	257.082	0.131	-0.223
-315.997	-200.000	-0.004	-0.162
-314.983	103.320	0.219	0.255
-313.968	-200.000	-0.001	0.012
-312.953	-51.112	0.160	-0.074
-311.939	-21.174	-0.141	-0.085
-310.924	-32.246	0.242	0.134
-309.910	88.812	-0.179	-0.197
-308.895	-140.135	0.182	0.019
-307.880	-200.000	-0.038	0.260
-306.866	-200.000	0.047	-0.207
-305.851	109.572	0.055	-0.065
-304.837	-200.000	0.048	-0.324
-303.822	-77.428	0.371	0.127
-302.807	281.992	0.166	0.295
-301.793	204.574	0.053	0.082
-300.778	213.868	0.078	0.122
-299.764	28.677	0.043	-0.036
-298.749	91.667	-0.290	0.323
-297.735	-67.753	0.151	0.059
-296.720	-200.000	-0.070	0.340
-295.705	-200.000	0.031	-0.166
-294.691	-46.574	-0.415	0.201
-293.676	-81.409	0.313	0.102
-292.662	800.000	0.049	0.138
-291.647	-83.603	0.052	0.017
-290.632	83.047	0.151	-0.162
-289.618	-89.132	0.296	0.086
-288.603	-92.159	-0.090	-0.025
-287.589	232.907	0.045	0.073
-286.574	-200.000	0.024	-0.283
-285.559	-67.389	-0.200	0.078
-284.545	67.666	0.149	-0.151
-283.530	-200.000	0.010	0.155
-282.516	800.000	-0.064	-0.206
-281.501	40.114	-0.083	-0.074
-280.486	-13.908	-0.192	0.122
-279.472	224.353	0.123	0.196
-278.457	-200.000	0.007	0.349
-277.443	54.996	0.148	0.142
-276.428	-184.342	-0.170	0.003
-275.413	134.408	-0.021	-0.027
-274.399	-200.000	-0.117	0.573
-273.384	-200.000	-0.037	-0.180
-272.370	-84.134	0.259	0.081
-271.355	38.508	0.097	0.085
-270.340	61.325	-0.271	0.266
-269.326	-200.000	-0.000	-0.156
-268.311	-72.501	-0.346	0.126
-267.297	-16.504	0.146	-0.091
-266.282	144.518	-0.030	0.040
-265.267	-76.521	0.188	0.065
-264.253	-63.946	-0.163	-0.066
-263.238	-154.204	-0.216	0.014
-262.224	84.687	0.232	-0.251
-261.209	74.946	-0.205	-0.213
-260.195	-137.831	0.334	0.037
-259.180	-46.911	0.186	0.090
-258.165	-83.368	-0.103	0.033
-257.151	-159.921	0.127	0.007
-256.136	-75.855	-0.085	0.030
-255.122	800.000	0.050	0.169
-254.107	203.925	-0.112	0.170
-253.092	-28.973	0.050	-0.028
-252.078	-88.559	0.049	0.014
-251.063	800.000	-0.072	0.212
-250.049	-200.000	-0.018	0.368
-249.034	-200.000	0.019	0.319
-248.019	109.239	0.118	-0.139
-247.005	-81.039	-0.067	0.022
-245.990	-125.739	0.032	0.005
-244.976	-120.020	0.314	0.053
-243.961	172.467	-0.131	-0.186
-242.946	210.359	-0.131	0.203
-241.932	-66.833	-0.541	0.211
-240.917	-200.000	-0.067	0.401
-239.903	-130.220	0.115	0.015
-238.888	-200.000	-0.001	-0.274
-237.873	800.000	0.035	-0.142
-236.859	-25.947	-0.085	-0.049
-235.844	-200.000	0.027	-0.195
-234.830	800.000	-0.051	-0.186
-233.815	147.746	0.033	-0.044
-232.800	52.935	-0.223	-0.211
-231.786	-200.000	-0.004	0.038
-230.771	-94.699	-0.160	0.043
-229.757	-87.956	0.094	-0.028
-228.742	-127.241	0.176	0.025
-227.727	-53.900	-0.144	-0.065
-226.713	-172.005	0.372	0.012
-225.698	-200.000	0.022	-0.331
-224.684	-31.065	-0.323	-0.180
-223.669	393.902	-0.200	-0.411
-222.655	-12.455	0.196	-0.127
-221.640	800.000	-0.019	0.082
-220.625	-200.000	0.014	0.144
-219.611	-26.813	0.126	-0.073
-218.596	-20.389	-0.260	0.158
-217.582	-62.756	-0.150	0.061
-216.567	-81.555	-0.224	-0.073
-215.552	6.105	0.317	0.232
-214.538	290.064	0.044	0.079
-213.523	38.266	0.128	-0.112
-212.509	-200.000	0.021	0.189
-211.494	-55.490	-0.421	0.186
-210.479	82.364	0.032	-0.035
-209.465	38.611	0.264	0.232
-208.450	203.549	0.108	0.165
-207.436	90.079	0.262	0.289
-206.421	-2.843	-0.112	0.077
-205.406	-39.710	0.178	0.092
-204.392	133.226	-0.186	0.237
-203.377	108.400	-0.186	0.218
-202.363	2.960	0.238	-0.170
-201.348	-18.391	-0.128	-0.079
-200.333	304.030	-0.165	0.301
-199.319	123.864	0.090	-0.111
-198.304	-104.646	0.265	-0.060
-197.290	-161.975	0.130	-0.006
-196.275	-68.712	-0.436	0.166
-195.260	38.494	0.099	0.087
-194.246	105.018	0.158	-0.183
-193.231	52.815	-0.136	-0.128
-192.217	357.633	0.040	-0.079
-191.202	-200.000	-0.018	0.113
-190.187	-17.400	0.139	-0.086
-189.173	184.963	0.057	0.083
-188.158	324.616	-0.206	-0.388
-187.144	-137.478	0.252	0.028
-186.129	-15.974	-0.215	0.135
-185.114	-94.847	-0.237	0.063
-184.100	-200.000	0.029	-0.185
-183.085	-113.194	-0.389	0.075
-182.071	-200.000	-0.007	0.201
-181.056	-114.964	-0.153	-0.029
-180.042	-200.000	-0.019	0.111
-179.027	207.922	0.175	0.270
-178.012	-200.000	-0.015	0.334
-176.998	-35.421	0.099	-0.053
-175.983	-37.791	0.318	0.166
-174.969	-4.938	0.197	-0.134
-173.954	97.997	-0.135	-0.153
-172.939	146.661	-0.110	-0.146
-171.925	-99.311	-0.083	0.021
-170.910	-64.071	0.089	0.036
-169.896	33.664	-0.155	-0.132
-168.881	800.000	0.122	-0.408
-167.866	365.434	-0.066	-0.131
-166.852	-200.000	0.057	0.426
-165.837	800.000	-0.095	0.392
-164.823	5.036	0.244	-0.176
-163.808	278.356	0.072	0.126
-162.793	-33.517	0.339	0.184
-161.779	-99.065	0.051	0.013
-160.764	-106.046	-0.131	0.029
-159.750	-139.061	0.398	0.042
-158.735	77.328	0.196	-0.205
-157.720	-200.000	-0.011	0.213
-156.706	-96.735	0.476	0.123
-155.691	156.607	0.133	0.181
-154.677	-152.756	0.413	-0.029
-153.662	34.251	0.187	-0.160
-152.647	31.003	-0.255	0.215
-151.633	800.000	0.018	-0.050
-150.618	102.511	0.055	-0.064
-149.604	-14.865	-0.186	-0.117
-148.589	-200.000	0.016	-0.266
-147.574	-200.000	0.025	-0.380
-146.560	228.181	0.130	-0.209
-145.545	-81.847	0.101	0.032
-144.531	-29.863	-0.064	-0.036
-143.516	-65.367	0.156	-0.062
-142.502	-64.584	0.484	-0.193
-141.487	597.447	-0.017	-0.042
-140.472	-28.911	0.156	0.088
-139.458	800.000	-0.122	0.332
-138.443	-173.706	0.079	0.002
-137.429	-24.354	-0.200	-0.117
-136.414	214.018	-0.092	-0.143
-135.399	17.768	0.205	0.160
-134.385	-7.479	0.052	-0.035
-133.370	-200.000	0.005	0.297
-132.356	56.674	0.276	-0.264
-131.341	97.972	-0.452	0.511
-130.326	36.079	-0.187	0.162
-129.312	302.158	0.182	-0.331
-128.297	-102.949	-0.288	0.067
-127.283	58.475	0.225	0.217
-126.268	403.799	0.115	-0.237
-125.253	-103.959	-0.389	-0.089
-124.239	800.000	0.110	-0.395
-123.224	-11.519	-0.096	-0.062
-122.210	610.715	0.189	0.465
-121.195	140.945	-0.125	-0.162
