DTS Sentinel unit serial number:	SN413079Multiplexer serial number:	ORYXHardware model number:	OX4-SRSoftware version number:	ORYX F/W v4.00 Oryx Data Collector v3.7.2.0data status	okinstallation	princeton_trtdifferential loss correction	single-endedforward channel	channel 1reverse channel	N/Adate	2019/09/14time	20:50:35forward acquisition time	60.00reverse acquisition time	0.00gamma	496.2192k internal	0.2317k external	0.2317temperature offset calibration	1.0016default loss term (dB/km)	0.3790temperature slope calibration	1.0000multiplexer offset coefficient	1.0000multiplexer slope coefficient	1.0000fibre end	0.00T internal ref (°C)	33.25T ext. ref 1 (°C)	4.81T ext. ref 2 (°C)	27.93length (m)	temperature (°C)	Stokes	anti-Stokes-747.200	-77.514	-0.508	-0.179
-746.185	800.000	-0.111	0.423
-745.171	311.778	0.161	0.306
-744.156	224.152	0.192	0.314
-743.142	-134.707	0.339	-0.042
-742.127	-75.534	0.061	0.022
-741.112	575.564	-0.102	0.253
-740.098	494.567	-0.037	-0.085
-739.083	423.076	-0.067	0.145
-738.069	-200.000	0.022	0.164
-737.054	2.035	-0.131	0.095
-736.039	-200.000	-0.051	-0.342
-735.025	-200.000	0.034	0.204
-734.010	287.059	0.071	0.130
-732.996	-40.709	-0.135	0.071
-731.981	-200.000	0.027	-0.224
-730.966	-66.824	-0.255	-0.102
-729.952	189.072	-0.109	0.166
-728.937	-27.378	0.380	0.223
-727.923	107.068	-0.182	-0.219
-726.908	-1.883	0.078	0.056
-725.894	800.000	0.021	-0.072
-724.879	393.622	-0.090	0.190
-723.864	-200.000	0.005	-0.458
-722.850	-200.000	-0.046	-0.444
-721.835	52.999	0.256	0.248
-720.821	-82.306	-0.452	0.149
-719.806	800.000	0.033	0.132
-718.791	13.952	-0.141	-0.111
-717.777	-27.355	-0.096	-0.056
-716.762	-200.000	0.001	-0.020
-715.748	-72.370	-0.328	-0.123
-714.733	106.466	0.199	0.239
-713.718	-47.853	-0.301	-0.147
-712.704	366.908	-0.027	0.056
-711.689	-28.587	0.318	-0.185
-710.675	207.134	-0.182	0.287
-709.660	-13.629	-0.187	-0.122
-708.645	230.299	0.045	-0.075
-707.631	-200.000	-0.009	-0.136
-706.616	-200.000	-0.044	-0.365
-705.602	-200.000	-0.046	-0.246
-704.587	-200.000	-0.011	-0.098
-703.572	-200.000	0.028	-0.241
-702.558	232.348	-0.080	0.132
-701.543	-188.182	-0.289	0.004
-700.529	185.421	-0.243	-0.365
-699.514	122.473	0.244	0.308
-698.499	800.000	-0.109	-0.324
-697.485	-200.000	0.013	0.190
-696.470	426.291	0.063	-0.137
-695.456	-37.596	-0.093	-0.050
-694.441	-200.000	-0.005	-0.161
-693.426	60.328	-0.251	0.251
-692.412	156.286	0.129	-0.180
-691.397	39.594	0.152	0.138
-690.383	411.226	0.058	0.124
-689.368	-9.513	-0.195	-0.132
-688.354	693.406	-0.081	0.216
-687.339	-200.000	-0.023	-0.167
-686.324	-160.872	-0.466	0.025
-685.310	73.074	-0.146	0.154
-684.295	-6.576	0.166	0.114
-683.281	-15.824	-0.191	0.123
-682.266	102.996	0.101	-0.120
-681.251	114.565	-0.142	0.174
-680.237	640.661	0.069	-0.178
-679.222	-132.153	0.270	-0.035
-678.208	534.081	0.101	-0.242
-677.193	-200.000	0.062	-0.381
-676.178	61.928	0.112	-0.113
-675.164	-66.828	-0.361	-0.144
-674.149	-104.148	-0.242	0.057
-673.135	800.000	0.059	-0.257
-672.120	800.000	0.065	-0.260
-671.105	152.932	-0.286	0.395
-670.091	37.053	-0.197	0.176
-669.076	301.508	-0.057	-0.107
-668.062	800.000	0.023	-0.096
-667.047	4.723	0.261	-0.194
-666.032	800.000	-0.084	-0.258
-665.018	-200.000	-0.045	0.308
-664.003	-167.400	-0.197	-0.008
-662.989	-34.291	0.110	0.061
-661.974	-200.000	0.006	-0.081
-660.959	800.000	0.078	-0.298
-659.945	-144.552	0.253	-0.024
-658.930	-164.640	-0.188	-0.009
-657.916	-119.533	-0.268	-0.047
-656.901	-200.000	-0.012	-0.211
-655.886	-200.000	-0.015	0.167
-654.872	163.148	0.226	-0.321
-653.857	24.623	-0.214	-0.179
-652.843	72.197	0.154	-0.162
-651.828	-59.987	-0.317	-0.137
-650.814	564.376	-0.063	0.154
-649.799	-137.262	-0.368	0.042
-648.784	-188.834	0.267	0.003
-647.770	82.290	0.208	-0.228
-646.755	-75.474	-0.214	-0.077
-645.741	-200.000	-0.023	-0.218
-644.726	-91.543	-0.111	-0.032
-643.711	83.359	-0.044	-0.048
-642.697	374.054	0.156	0.321
-641.682	-181.002	-0.080	-0.002
-640.668	-39.353	0.079	0.042
-639.653	-200.000	-0.017	0.078
-638.638	800.000	0.069	0.204
-637.624	141.778	-0.097	0.130
-636.609	168.483	-0.085	0.123
-635.595	-38.401	0.204	0.109
-634.580	-80.610	-0.167	0.056
-633.565	-0.966	-0.148	-0.106
-632.551	-200.000	0.015	-0.277
-631.536	33.787	0.215	0.188
-630.522	800.000	-0.042	0.170
-629.507	800.000	-0.027	0.085
-628.492	-200.000	-0.005	-0.030
-627.478	92.345	0.063	-0.072
-626.463	-200.000	0.002	0.168
-625.449	-81.628	0.095	-0.031
-624.434	-200.000	-0.046	-0.311
-623.419	-200.000	-0.031	0.207
-622.405	-47.030	0.304	0.150
-621.390	-200.000	0.105	-0.470
-620.376	800.000	-0.080	0.231
-619.361	26.047	-0.082	-0.069
-618.346	-127.352	0.156	-0.023
-617.332	-42.173	-0.207	-0.107
-616.317	-24.798	-0.103	0.062
-615.303	389.886	0.022	0.045
-614.288	-200.000	0.017	-0.219
-613.273	761.746	-0.131	0.357
-612.259	-146.214	0.362	-0.032
-611.244	151.544	0.154	0.212
-610.230	-129.015	-0.326	0.046
-609.215	-200.000	0.019	-0.129
-608.201	-125.927	0.203	0.031
-607.186	-200.000	0.008	0.295
-606.171	-44.604	-0.148	-0.075
-605.157	-29.315	0.269	0.155
-604.142	-170.086	0.265	-0.009
-603.128	701.581	-0.007	-0.018
-602.113	389.090	0.217	0.451
-601.098	16.798	0.216	0.172
-600.084	298.026	0.069	-0.128
-599.069	-38.545	0.208	-0.111
-598.055	800.000	-0.082	-0.288
-597.040	-86.419	0.152	-0.047
-596.025	-0.869	-0.262	0.187
-595.011	-20.488	0.214	-0.132
-593.996	124.300	-0.213	-0.269
-592.982	-30.090	-0.270	-0.155
-591.967	-4.204	0.066	0.046
-590.952	-168.338	0.112	0.004
-589.938	-200.000	0.001	-0.413
-588.923	462.546	-0.103	-0.231
-587.909	-101.360	-0.120	-0.029
-586.894	-58.942	0.358	-0.156
-585.879	-144.047	0.268	0.025
-584.865	225.694	0.112	0.183
-583.850	-92.581	-0.036	-0.010
-582.836	-20.981	0.245	-0.151
-581.821	683.858	-0.130	-0.340
-580.806	186.990	-0.108	0.162
-579.792	335.658	-0.127	-0.248
-578.777	145.491	0.111	-0.150
-577.763	134.845	0.250	-0.327
-576.748	303.488	-0.102	-0.191
-575.733	-114.842	0.329	0.063
-574.719	-3.053	-0.112	0.079
-573.704	-142.245	0.304	-0.030
-572.690	243.436	-0.095	0.160
-571.675	178.770	0.133	-0.195
-570.661	800.000	-0.043	-0.121
-569.646	465.339	0.129	0.290
-568.631	403.093	-0.051	-0.107
-567.617	-53.543	-0.258	0.119
-566.602	15.138	-0.242	-0.190
-565.588	118.479	0.128	0.158
-564.573	15.140	0.254	-0.200
-563.558	-112.813	0.163	0.033
-562.544	326.284	0.147	-0.283
-561.529	-200.000	-0.032	-0.316
-560.515	68.815	-0.266	0.275
-559.500	576.382	-0.166	-0.407
-558.485	-200.000	-0.016	-0.146
-557.471	73.702	-0.194	0.205
-556.456	245.282	0.085	0.144
-555.442	151.870	0.204	-0.279
-554.427	33.034	-0.392	-0.341
-553.412	-123.089	0.064	-0.010
-552.398	287.088	-0.027	0.049
-551.383	601.884	0.036	-0.091
-550.369	528.019	-0.049	-0.115
-549.354	-24.078	-0.147	-0.089
-548.339	-152.861	0.190	-0.013
-547.325	800.000	-0.104	-0.325
-546.310	507.013	0.119	-0.278
-545.296	471.694	-0.016	-0.037
-544.281	-20.783	0.108	-0.067
-543.266	800.000	0.048	-0.150
-542.252	-31.526	0.127	-0.072
-541.237	-21.132	-0.137	-0.084
-540.223	-18.813	0.179	0.112
-539.208	-22.212	0.349	-0.213
-538.193	-97.743	0.256	0.066
-537.179	-169.511	-0.572	0.021
-536.164	267.967	-0.183	-0.321
-535.150	471.974	-0.126	-0.286
-534.135	-157.943	-0.584	0.035
-533.121	716.023	0.145	-0.387
-532.106	-70.591	-0.278	0.106
-531.091	49.994	0.266	0.252
-530.077	-165.572	-0.266	0.012
-529.062	-10.597	0.097	-0.064
-528.048	-56.034	0.094	-0.042
-527.033	800.000	-0.054	-0.170
-526.018	-116.426	-0.253	0.047
-525.004	-52.990	0.122	-0.056
-523.989	-200.000	0.020	-0.281
-522.975	-73.061	-0.386	0.142
-521.960	274.145	-0.054	0.096
-520.945	-55.593	-0.122	0.055
-519.931	-12.027	-0.179	0.117
-518.916	-200.000	-0.042	0.449
-517.902	179.220	0.093	-0.136
-516.887	-54.853	-0.207	0.094
-515.872	56.498	0.184	0.180
-514.858	-200.000	0.032	-0.169
-513.843	-50.836	0.185	-0.087
-512.829	-112.245	-0.576	-0.116
-511.814	800.000	-0.067	0.216
-510.799	800.000	-0.044	-0.126
-509.785	-200.000	-0.042	-0.487
-508.770	800.000	0.055	-0.181
-507.756	-200.000	-0.019	0.192
-506.741	16.718	0.235	0.187
-505.726	-169.662	0.058	0.002
-504.712	-88.788	0.043	-0.013
-503.697	800.000	-0.053	-0.225
-502.683	327.452	0.108	0.208
-501.668	557.728	0.067	-0.163
-500.653	-24.087	-0.077	-0.046
-499.639	-200.000	0.042	-0.222
-498.624	-200.000	0.012	-0.153
-497.610	36.199	-0.112	0.099
-496.595	800.000	-0.061	-0.169
-495.581	-200.000	-0.001	-0.058
-494.566	-93.630	0.090	-0.025
-493.551	-113.971	-0.323	0.063
-492.537	157.629	-0.056	-0.077
-491.522	315.544	0.044	-0.083
-490.508	-92.436	0.177	-0.050
-489.493	53.207	-0.114	0.110
-488.478	-116.732	0.454	-0.083
-487.464	295.133	0.085	-0.155
-486.449	-70.234	0.114	-0.044
-485.435	-200.000	0.004	0.206
-484.420	-200.000	0.044	0.245
-483.405	-181.979	0.022	-0.000
-482.391	-200.000	0.048	-0.331
-481.376	96.718	0.080	-0.092
-480.362	-49.890	-0.077	0.037
-479.347	17.236	0.215	-0.171
-478.332	32.217	-0.175	-0.151
-477.318	41.303	0.204	-0.185
-476.303	-200.000	-0.066	0.542
-475.289	72.034	-0.228	0.238
-474.274	-192.340	0.410	0.004
-473.259	197.589	-0.105	0.161
-472.245	30.463	-0.208	0.178
-471.230	191.588	0.083	0.125
-470.216	530.930	0.095	0.226
-469.201	-95.398	-0.242	-0.065
-468.186	97.087	-0.047	-0.054
-467.172	-125.566	-0.192	0.029
-466.157	65.921	0.407	-0.413
-465.143	32.333	0.215	-0.186
-464.128	238.964	-0.100	0.167
-463.113	-200.000	-0.036	0.273
-462.099	736.645	-0.080	0.215
-461.084	41.868	0.276	-0.251
-460.070	-174.778	0.310	-0.009
-459.055	-200.000	-0.013	0.088
-458.040	101.404	0.080	0.093
-457.026	413.672	-0.054	-0.115
-456.011	-41.151	-0.220	-0.114
-454.997	184.385	0.128	-0.190
-453.982	800.000	-0.150	0.424
-452.968	-200.000	-0.044	-0.211
-451.953	86.496	0.259	-0.286
-450.938	189.079	-0.183	-0.274
-449.924	11.490	-0.198	-0.152
-448.909	-171.027	-0.078	-0.003
-447.895	-140.171	-0.303	-0.032
-446.880	800.000	0.029	-0.122
-445.865	-26.303	0.077	-0.045
-444.851	-24.933	0.105	0.063
-443.836	-47.803	-0.233	-0.113
-442.822	800.000	-0.061	0.195
-441.807	-135.868	-0.230	-0.027
-440.792	368.387	0.064	0.130
-439.778	-200.000	-0.349	0.001
-438.763	-118.181	0.019	-0.003
-437.749	212.443	0.155	-0.244
-436.734	423.534	-0.056	0.120
-435.719	-31.282	0.144	0.081
-434.705	87.660	0.093	-0.103
-433.690	-43.205	0.097	-0.049
-432.676	-16.964	-0.144	-0.091
-431.661	-97.326	0.235	-0.061
-430.646	-107.806	0.370	-0.081
-429.632	55.214	0.167	0.162
-428.617	-28.854	-0.152	-0.087
-427.603	800.000	0.144	-0.463
-426.588	-200.000	-0.027	0.120
-425.573	430.395	-0.032	-0.070
-424.559	88.681	-0.048	-0.053
-423.544	493.523	-0.107	-0.246
-422.530	-200.000	0.018	0.261
-421.515	-151.693	-0.204	0.015
-420.500	800.000	0.106	0.347
-419.486	-8.949	-0.236	-0.158
-418.471	33.492	-0.267	-0.232
-417.457	69.184	-0.178	-0.183
-416.442	-200.000	-0.006	0.040
-415.428	188.534	0.066	-0.099
-414.413	-14.141	-0.214	0.138
-413.398	-19.220	-0.332	0.206
-412.384	-104.687	0.048	-0.011
-411.369	-11.026	0.029	-0.019
-410.355	-95.635	-0.533	0.142
-409.340	800.000	0.028	0.088
-408.325	133.445	-0.108	0.139
-407.311	-200.000	-0.011	0.069
-406.296	193.168	-0.213	0.321
-405.282	-200.000	-0.296	-0.001
-404.267	-99.335	-0.275	-0.069
-403.252	800.000	0.054	0.195
-402.238	800.000	-0.148	0.479
-401.223	-30.029	-0.224	-0.127
-400.209	216.614	0.130	-0.206
-399.194	114.903	0.035	0.043
-398.179	427.754	0.155	0.334
-397.165	339.471	0.078	0.151
-396.150	800.000	-0.078	0.331
-395.136	276.085	-0.150	0.267
-394.121	-147.836	0.142	-0.012
-393.106	-186.726	-0.179	-0.003
-392.092	-200.000	-0.013	-0.167
-391.077	-200.000	-0.015	-0.149
-390.063	-33.232	0.130	-0.072
-389.048	80.030	0.021	-0.023
-388.033	-200.000	-0.001	-0.212
-387.019	94.878	0.229	0.260
-386.004	-200.000	-0.007	0.045
-384.990	800.000	0.034	0.134
-383.975	-92.198	-0.370	-0.104
-382.960	-117.492	-0.377	0.068
-381.946	-88.299	-0.112	0.033
-380.931	96.615	0.162	0.185
-379.917	-189.519	-0.297	0.003
-378.902	800.000	0.051	0.176
-377.888	-200.000	0.009	0.103
-376.873	109.651	-0.104	-0.124
-375.858	-153.779	0.215	-0.015
-374.844	-105.738	0.146	-0.033
-373.829	145.430	0.141	-0.189
-372.815	-88.002	0.116	-0.035
-371.800	24.998	0.234	0.194
-370.785	-150.223	0.063	-0.005
-369.771	309.509	0.012	0.023
-368.756	-188.195	-0.176	0.002
-367.742	75.881	-0.090	0.095
-366.727	800.000	-0.035	0.108
-365.712	-57.504	-0.191	0.084
-364.698	46.835	0.237	0.219
-363.683	-200.000	0.020	0.190
-362.669	800.000	-0.079	0.290
-361.654	23.640	0.223	0.183
-360.639	800.000	0.046	-0.149
-359.625	-167.686	-0.071	-0.003
-358.610	172.699	0.089	0.128
-357.596	-71.083	-0.447	-0.167
-356.581	-200.000	-0.043	-0.324
-355.566	154.266	-0.254	-0.348
-354.552	-116.869	-0.162	0.030
-353.537	125.125	0.091	-0.115
-352.523	154.300	-0.097	0.132
-351.508	-52.818	-0.145	-0.067
-350.493	258.009	-0.044	-0.076
-349.479	-70.678	-0.073	-0.027
-348.464	-150.937	-0.138	0.010
-347.450	67.156	-0.175	-0.178
-346.435	-31.197	0.187	-0.105
-345.420	-200.000	-0.051	-0.349
-344.406	-200.000	0.002	-0.148
-343.391	800.000	-0.073	0.216
-342.377	-97.635	0.238	0.062
-341.362	-29.833	-0.201	-0.114
-340.348	533.065	-0.126	0.297
-339.333	-200.000	-0.032	-0.215
-338.318	299.669	0.212	-0.389
-337.304	142.932	0.081	-0.108
-336.289	-31.357	0.283	-0.159
-335.275	-97.434	0.326	0.084
-334.260	524.662	0.159	0.372
-333.245	-86.901	0.092	-0.028
-332.231	4.422	-0.122	0.089
-331.216	-137.498	0.349	0.039
-330.202	-40.577	0.311	-0.161
-329.187	305.167	0.166	-0.308
-328.172	-43.484	0.207	-0.104
-327.158	-200.000	-0.029	-0.286
-326.143	-141.744	0.169	-0.017
-325.129	800.000	-0.009	-0.032
-324.114	-84.421	-0.231	-0.073
-323.099	39.985	0.131	0.117
-322.085	399.691	0.053	-0.111
-321.070	800.000	-0.028	0.098
-320.056	210.180	-0.065	0.101
-319.041	541.315	0.050	-0.119
-318.026	-93.219	-0.249	0.069
-317.012	742.992	0.058	0.156
-315.997	-200.000	0.036	0.211
-314.983	-200.000	0.033	0.223
-313.968	155.199	-0.134	-0.183
-312.953	421.841	0.126	0.268
-311.939	87.258	-0.219	0.241
-310.924	-200.000	-0.015	-0.081
-309.910	-5.560	0.269	0.184
-308.895	311.287	0.190	0.355
-307.880	-49.772	0.248	0.117
-306.866	-53.637	-0.141	0.064
-305.851	-39.326	0.159	0.083
-304.837	800.000	0.021	0.064
-303.822	132.063	0.081	-0.104
-302.807	-53.480	-0.173	0.079
-301.793	-135.968	-0.165	-0.019
-300.778	-200.000	0.005	0.370
-299.764	56.903	-0.152	0.148
-298.749	800.000	-0.116	-0.333
-297.735	-169.082	0.181	0.007
-296.720	56.470	-0.282	-0.273
-295.705	800.000	0.058	-0.169
-294.691	-98.617	0.436	-0.111
-293.676	-11.471	0.159	0.104
-292.662	76.217	-0.040	0.042
-291.647	65.309	-0.210	-0.212
-290.632	-148.335	0.531	0.043
-289.618	-200.000	-0.001	-0.145
-288.603	312.038	-0.045	0.084
-287.589	-146.328	-0.193	0.017
-286.574	146.131	0.102	0.136
-285.559	800.000	0.053	-0.152
-284.545	-137.244	-0.073	-0.008
-283.530	-88.541	0.135	-0.040
-282.516	28.030	-0.144	-0.120
-281.501	800.000	0.106	-0.317
-280.486	557.865	-0.063	0.151
-279.472	382.008	0.071	0.144
-278.457	84.594	0.300	-0.326
-277.443	-10.067	0.155	-0.102
-276.428	-99.232	-0.183	-0.046
-275.413	-200.000	0.044	0.241
-274.399	54.083	0.027	0.026
-273.384	-151.452	-0.437	-0.032
-272.370	-97.395	0.062	0.016
-271.355	-43.542	-0.245	-0.123
-270.340	6.285	0.121	-0.089
-269.326	-32.001	0.186	0.103
-268.311	465.056	-0.072	0.159
-267.297	-200.000	-0.039	0.265
-266.282	293.531	-0.021	-0.039
-265.267	-66.418	-0.077	-0.031
-264.253	-141.912	0.211	-0.021
-263.238	767.744	-0.097	0.261
-262.224	10.561	-0.197	0.149
-261.209	-39.396	-0.249	-0.130
-260.195	38.957	0.246	-0.219
-259.180	-81.880	-0.155	-0.050
-258.165	451.710	0.042	0.092
-257.151	-200.000	0.019	0.409
-256.136	226.148	-0.011	0.018
-255.122	375.216	-0.103	-0.208
-254.107	800.000	-0.116	0.322
-253.092	-18.575	-0.497	0.308
-252.078	-200.000	-0.022	0.370
-251.063	-200.000	-0.009	-0.053
-250.049	-200.000	0.009	0.154
-249.034	73.697	-0.086	0.090
-248.019	159.063	-0.072	0.099
-247.005	-200.000	-0.002	0.206
-245.990	37.307	0.098	0.086
-244.976	30.579	-0.128	0.109
-243.961	215.865	0.197	0.311
-242.946	-96.186	0.230	-0.061
-241.932	800.000	0.047	-0.151
-240.917	88.141	-0.171	0.188
-239.903	183.319	-0.074	0.108
-238.888	-125.698	-0.226	0.034
-237.873	-26.207	0.195	-0.113
-236.859	-141.692	0.104	0.010
-235.844	488.120	0.030	-0.068
-234.830	20.725	0.207	0.167
-233.815	-200.000	-0.022	-0.517
-232.800	140.187	-0.195	-0.256
-231.786	-200.000	0.095	0.429
-230.771	-92.560	0.247	0.069
-229.757	-30.462	-0.356	0.200
-228.742	-200.000	-0.001	-0.151
-227.727	261.677	0.045	-0.078
-226.713	670.219	0.088	0.227
-225.698	151.418	0.070	0.095
-224.684	-37.151	0.122	0.065
-223.669	-87.962	0.264	0.079
-222.655	126.053	-0.151	-0.189
-221.640	-66.115	0.400	-0.158
-220.625	-103.853	-0.235	0.055
-219.611	63.982	0.184	-0.183
-218.596	-186.347	0.074	0.001
-217.582	106.112	0.083	-0.098
-216.567	5.720	-0.140	0.103
-215.552	-70.185	0.361	0.136
-214.538	-111.182	-0.290	-0.059
-213.523	132.653	0.123	0.158
-212.509	-200.000	-0.026	0.205
-211.494	111.198	0.238	0.284
-210.479	-200.000	-0.004	-0.073
-209.465	61.913	-0.119	0.117
-208.450	7.574	-0.200	-0.148
-207.436	-22.893	0.380	-0.227
-206.421	-200.000	0.003	0.141
-205.406	800.000	-0.062	-0.182
-204.392	-200.000	0.017	0.235
-203.377	59.458	-0.107	0.105
-202.363	-200.000	0.007	0.348
-201.348	200.340	0.097	0.148
-200.333	181.702	0.085	0.124
-199.319	-139.241	-0.103	-0.011
-198.304	0.649	0.280	0.199
-197.290	43.214	-0.058	-0.052
-196.275	-3.534	-0.277	0.191
-195.260	523.191	0.201	-0.468
-194.246	-149.598	-0.258	0.020
-193.231	-59.061	-0.221	-0.094
-192.217	-79.400	-0.111	-0.037
-191.202	486.864	0.113	0.254
-190.187	-97.845	-0.223	-0.057
-189.173	-16.411	-0.159	0.100
-188.158	63.476	0.276	0.275
-187.144	507.209	0.085	-0.195
-186.129	197.813	-0.076	0.115
-185.114	249.520	-0.164	0.276
-184.100	-200.000	-0.005	0.039
-183.085	-57.953	-0.105	-0.045
-182.071	519.676	0.220	-0.511
-181.056	12.596	-0.277	-0.211
-180.042	-200.000	0.010	0.053
-179.027	359.724	-0.169	-0.335
-178.012	-8.868	0.230	-0.153
-176.998	598.547	-0.052	-0.128
-175.983	40.337	0.165	0.147
-174.969	-200.000	-0.025	0.269
-173.954	-98.022	-0.190	-0.048
-172.939	-200.000	-0.002	0.194
-171.925	24.800	0.070	0.057
-170.910	-27.649	-0.136	0.078
-169.896	800.000	0.031	0.096
-168.881	800.000	0.098	-0.337
-167.866	15.456	0.180	0.140
-166.852	49.800	0.086	0.081
-165.837	800.000	-0.058	0.163
-164.823	228.330	0.163	0.263
-163.808	-80.046	-0.102	-0.034
-162.793	186.942	-0.153	0.226
-161.779	-83.642	0.316	-0.100
-160.764	-20.854	-0.076	-0.046
-159.750	-63.953	0.296	0.120
-158.735	8.799	-0.173	-0.129
-157.720	-118.848	0.099	-0.017
-156.706	-55.017	0.048	0.021
-155.691	-106.410	0.223	-0.049
-154.677	230.173	-0.253	0.408
-153.662	-74.501	0.231	-0.082
-152.647	-200.000	0.058	0.302
-151.633	800.000	-0.090	-0.259
-150.618	-200.000	0.015	-0.319
-149.604	-124.711	0.016	-0.003
-148.589	-106.300	0.327	-0.072
-147.574	121.672	-0.109	0.134
-146.560	-200.000	0.024	-0.120
-145.545	125.527	-0.295	-0.369
-144.531	-157.922	-0.221	-0.013
-143.516	800.000	0.105	0.336
-142.502	552.761	0.040	0.095
-141.487	78.389	-0.004	0.004
-140.472	167.405	-0.136	0.190
-139.458	800.000	-0.062	0.196
-138.443	-61.058	0.199	-0.083
-137.429	800.000	-0.047	0.130
-136.414	309.340	0.125	-0.230
-135.399	-47.227	0.266	-0.128
-134.385	68.953	-0.048	-0.049
-133.370	120.369	0.088	-0.108
-132.356	-87.486	0.340	0.102
-131.341	-4.169	0.094	-0.064
-130.326	789.067	-0.179	0.485
-129.312	191.124	0.284	0.422
-128.297	181.364	-0.085	0.123
-127.283	-104.031	-0.105	-0.024
-126.268	145.640	-0.131	-0.174
-125.253	-200.000	-0.040	-0.301
-124.239	12.874	0.204	-0.156
-123.224	71.377	-0.085	0.087
-122.210	-25.267	0.088	0.051
