DTS Sentinel unit serial number:	SN413079Multiplexer serial number:	ORYXHardware model number:	OX4-SRSoftware version number:	ORYX F/W v4.00 Oryx Data Collector v3.7.2.0data status	okinstallation	princeton_trtdifferential loss correction	single-endedforward channel	channel 1reverse channel	N/Adate	2019/09/13time	14:54:35forward acquisition time	60.00reverse acquisition time	0.00gamma	496.2192k internal	0.2300k external	0.2300temperature offset calibration	1.0159default loss term (dB/km)	0.3790temperature slope calibration	1.0000multiplexer offset coefficient	1.0000multiplexer slope coefficient	1.0000fibre end	0.00T internal ref (°C)	35.62T ext. ref 1 (°C)	4.69T ext. ref 2 (°C)	31.49length (m)	temperature (°C)	Stokes	anti-Stokes-747.200	40.021	0.241	0.221
-746.185	-121.835	-0.183	0.031
-745.171	230.856	0.018	0.030
-744.156	-85.896	-0.137	0.043
-743.142	-200.000	0.021	-0.104
-742.127	-29.782	0.311	0.181
-741.112	-143.406	0.063	-0.006
-740.098	-151.683	-0.073	-0.006
-739.083	161.492	-0.168	-0.240
-738.069	-15.751	-0.122	0.079
-737.054	-193.205	-0.195	0.002
-736.039	-139.331	0.168	0.018
-735.025	-173.775	0.136	0.004
-734.010	448.805	0.045	-0.101
-732.996	173.633	0.043	0.063
-731.981	-155.430	-0.205	-0.014
-730.966	-83.566	0.216	-0.071
-729.952	243.554	0.198	-0.338
-728.937	-23.198	-0.389	-0.238
-727.923	-158.247	-0.195	-0.012
-726.908	107.300	-0.141	-0.171
-725.894	92.464	0.058	-0.067
-724.879	-6.456	0.295	-0.205
-723.864	39.849	0.136	-0.124
-722.850	-200.000	0.061	-0.339
-721.835	-200.000	-0.050	-0.237
-720.821	-26.839	-0.136	0.081
-719.806	-85.457	0.261	-0.083
-718.791	-59.530	-0.097	-0.043
-717.777	-163.614	-0.179	0.009
-716.762	-102.000	-0.276	0.068
-715.748	800.000	0.219	-0.628
-714.733	-77.376	0.054	-0.019
-713.718	-2.361	-0.152	-0.109
-712.704	111.444	-0.093	0.115
-711.689	-137.007	0.199	0.023
-710.675	-87.262	0.119	-0.037
-709.660	55.762	-0.040	0.039
-708.645	303.245	-0.157	-0.295
-707.631	504.336	0.050	0.117
-706.616	-72.848	0.155	-0.058
-705.602	34.217	-0.172	-0.153
-704.587	523.097	0.078	0.186
-703.572	-109.719	-0.368	-0.079
-702.558	-98.673	-0.093	0.024
-701.543	130.667	-0.118	0.154
-700.529	-200.000	0.014	-0.245
-699.514	-98.778	-0.014	0.004
-698.499	64.226	0.272	-0.279
-697.485	-136.533	0.105	-0.012
-696.470	-57.522	-0.166	0.074
-695.456	-200.000	-0.011	-0.447
-694.441	-164.241	-0.482	-0.023
-693.426	-197.166	-0.181	0.001
-692.412	-124.040	0.131	0.021
-691.397	-200.000	-0.052	-0.246
-690.383	-200.000	0.045	-0.388
-689.368	-200.000	0.030	-0.245
-688.354	-200.000	0.007	-0.102
-687.339	408.558	-0.121	-0.261
-686.324	-90.050	0.213	0.063
-685.310	40.661	-0.152	0.139
-684.295	-16.292	0.078	-0.051
-683.281	218.968	-0.157	0.255
-682.266	-24.287	0.058	0.035
-681.251	-33.423	0.147	-0.083
-680.237	-84.173	0.391	0.126
-679.222	435.776	-0.117	0.260
-678.208	-200.000	-0.006	0.032
-677.193	-200.000	-0.018	-0.305
-676.178	-200.000	0.019	0.102
-675.164	52.825	0.086	-0.083
-674.149	-124.130	0.126	-0.020
-673.135	28.059	0.142	0.122
-672.120	-200.000	0.027	-0.160
-671.105	-200.000	-0.218	-0.001
-670.091	-11.642	0.310	0.207
-669.076	-119.342	-0.236	0.042
-668.062	43.909	-0.120	0.112
-667.047	63.602	0.093	0.095
-666.032	-37.024	-0.174	-0.095
-665.018	164.652	0.064	-0.091
-664.003	-143.429	-0.017	-0.002
-662.989	-133.055	-0.454	-0.059
-661.974	-113.368	0.089	-0.018
-660.959	741.151	0.124	-0.339
-659.945	24.796	0.088	0.074
-658.930	368.506	-0.168	0.345
-657.916	65.609	-0.174	0.180
-656.901	-38.546	-0.308	-0.165
-655.886	196.687	0.160	-0.248
-654.872	-89.571	-0.307	0.092
-653.857	-150.584	0.111	0.009
-652.843	-80.818	-0.207	0.070
-651.828	234.614	0.068	0.115
-650.814	14.684	-0.331	0.263
-649.799	800.000	-0.056	0.230
-648.784	237.854	-0.116	0.195
-647.770	-23.594	-0.165	-0.100
-646.755	57.537	-0.051	0.050
-645.741	-38.857	-0.134	-0.072
-644.726	306.815	0.054	-0.103
-643.711	-131.708	-0.377	-0.050
-642.697	-63.742	-0.410	-0.171
-641.682	-70.399	-0.212	0.082
-640.668	65.485	-0.223	0.229
-639.653	800.000	0.032	0.127
-638.638	800.000	-0.048	0.168
-637.624	148.704	0.138	0.189
-636.609	-120.192	-0.542	0.094
-635.595	-200.000	0.032	0.263
-634.580	-40.649	-0.193	0.102
-633.565	-104.275	-0.091	-0.022
-632.551	-95.853	0.225	0.061
-631.536	56.157	0.251	0.248
-630.522	-99.485	-0.177	0.045
-629.507	-51.318	-0.202	0.096
-628.492	-113.334	0.191	-0.038
-627.478	-140.860	0.368	-0.038
-626.463	596.313	0.018	-0.045
-625.449	800.000	0.085	-0.350
-624.434	191.844	-0.152	-0.232
-623.419	-200.000	0.020	-0.227
-622.405	-24.306	0.352	-0.213
-621.390	137.350	-0.119	-0.158
-620.376	510.626	-0.136	0.322
-619.361	-22.112	0.277	-0.171
-618.346	72.786	0.098	-0.104
-617.332	-200.000	0.031	0.215
-616.317	65.769	0.172	-0.177
-615.303	-200.000	-0.051	-0.496
-614.288	-200.000	0.003	-0.352
-613.273	349.256	0.068	0.135
-612.259	-85.697	-0.069	0.022
-611.244	33.954	0.071	0.062
-610.230	629.688	-0.125	-0.320
-609.215	24.608	-0.209	-0.175
-608.201	-105.537	-0.361	0.083
-607.186	-200.000	0.015	-0.239
-606.171	-58.778	-0.461	-0.202
-605.157	800.000	-0.073	-0.249
-604.142	-86.448	-0.299	-0.093
-603.128	-198.630	0.239	-0.001
-602.113	-70.471	0.153	-0.059
-601.098	290.896	-0.098	-0.181
-600.084	161.818	0.277	-0.394
-599.069	237.977	-0.145	0.244
-598.055	121.658	0.138	-0.174
-597.040	-36.940	-0.143	-0.078
-596.025	306.418	-0.055	0.104
-595.011	-72.764	0.073	-0.027
-593.996	361.130	-0.067	-0.135
-592.982	-111.518	-0.255	-0.053
-591.967	-14.100	0.201	0.131
-590.952	113.072	-0.124	-0.152
-589.938	-142.857	-0.222	-0.022
-588.923	-57.994	0.154	-0.068
-587.909	-200.000	-0.012	-0.334
-586.894	-200.000	0.028	0.221
-585.879	64.790	0.201	-0.206
-584.865	191.865	-0.120	-0.183
-583.850	-149.978	-0.143	-0.011
-582.836	-94.677	-0.133	0.037
-581.821	-79.710	0.567	-0.194
-580.806	48.997	0.179	-0.170
-579.792	800.000	0.206	-0.635
-578.777	-55.909	0.215	-0.097
-577.763	101.469	0.039	0.046
-576.748	65.446	-0.213	0.218
-575.733	419.625	0.033	0.071
-574.719	65.943	-0.055	-0.056
-573.704	-23.217	-0.254	0.155
-572.690	135.207	0.199	-0.263
-571.675	-200.000	0.017	-0.190
-570.661	-70.466	0.064	0.025
-569.646	-114.384	-0.270	0.053
-568.631	-93.987	-0.228	-0.063
-567.617	800.000	-0.083	0.367
-566.602	800.000	0.094	0.323
-565.588	13.920	-0.274	-0.216
-564.573	-66.605	0.228	0.092
-563.558	800.000	0.059	-0.204
-562.544	10.363	0.057	0.044
-561.529	-23.004	-0.021	-0.013
-560.515	-200.000	-0.008	0.094
-559.500	-10.981	-0.283	0.189
-558.485	-200.000	0.021	0.136
-557.471	-126.630	0.302	-0.045
-556.456	-152.135	-0.171	0.013
-555.442	47.729	0.210	-0.199
-554.427	-200.000	0.006	-0.075
-553.412	69.316	-0.152	-0.158
-552.398	-69.980	0.169	0.065
-551.383	-64.838	-0.115	-0.047
-550.369	230.357	0.123	-0.203
-549.354	-38.836	0.307	-0.164
-548.339	800.000	0.079	0.315
-547.325	235.732	0.075	-0.125
-546.310	-181.483	-0.217	0.004
-545.296	83.560	0.107	-0.118
-544.281	689.572	-0.104	-0.277
-543.266	-200.000	0.016	-0.360
-542.252	269.921	-0.081	0.144
-541.237	-82.338	-0.240	-0.079
-540.223	-6.759	0.042	-0.029
-539.208	800.000	0.062	0.274
-538.193	41.473	-0.426	0.390
-537.179	-200.000	-0.015	-0.104
-536.164	-200.000	-0.007	-0.155
-535.150	-146.820	0.155	0.014
-534.135	410.180	-0.090	0.193
-533.121	-200.000	0.049	-0.280
-532.106	-21.291	-0.182	-0.112
-531.091	-148.882	-0.198	0.016
-530.077	302.786	0.045	-0.085
-529.062	-19.188	-0.208	0.131
-528.048	-70.420	-0.347	0.133
-527.033	-145.372	0.095	-0.009
-526.018	-11.983	0.351	-0.233
-525.004	639.093	0.079	-0.204
-523.989	-17.204	0.163	0.104
-522.975	-96.107	0.346	-0.093
-521.960	-173.905	0.349	-0.010
-520.945	-200.000	-0.020	0.209
-519.931	800.000	-0.112	-0.387
-518.916	-143.928	0.422	0.040
-517.902	38.862	0.304	0.275
-516.887	389.189	-0.084	0.176
-515.872	31.883	-0.127	0.110
-514.858	-169.294	0.243	-0.009
-513.843	46.941	-0.176	0.166
-512.829	-75.584	-0.321	-0.115
-511.814	-128.365	0.376	0.054
-510.799	-200.000	-0.019	0.193
-509.785	37.501	0.230	-0.206
-508.770	65.729	-0.091	-0.093
-507.756	129.148	0.190	0.245
-506.741	-37.708	0.212	-0.114
-505.726	-129.224	0.282	-0.040
-504.712	405.152	-0.031	0.066
-503.697	-85.924	0.074	0.023
-502.683	195.002	0.021	0.032
-501.668	11.419	-0.201	0.155
-500.653	-200.000	0.079	0.456
-499.639	-121.547	-0.227	0.038
-498.624	672.322	-0.021	0.056
-497.610	-120.658	-0.127	-0.022
-496.595	800.000	-0.054	0.170
-495.581	7.701	-0.164	0.124
-494.566	-140.901	-0.244	0.025
-493.551	439.774	0.075	-0.165
-492.537	-80.640	-0.060	0.020
-491.522	19.026	-0.039	-0.032
-490.508	-122.618	0.343	-0.056
-489.493	232.092	0.080	0.132
-488.478	-200.000	0.036	0.178
-487.464	-114.463	0.259	0.050
-486.449	-64.272	0.321	-0.132
-485.435	-100.117	-0.272	-0.068
-484.420	800.000	-0.110	0.338
-483.405	-200.000	0.012	0.057
-482.391	262.908	0.117	0.205
-481.376	50.596	0.053	-0.051
-480.362	43.801	0.120	0.111
-479.347	-71.584	0.148	-0.056
-478.332	140.164	0.112	-0.149
-477.318	326.545	0.092	-0.178
-476.303	-110.346	0.005	-0.001
-475.289	277.643	-0.054	-0.097
-474.274	82.488	0.227	-0.248
-473.259	800.000	-0.061	-0.259
-472.245	-68.496	-0.191	0.075
-471.230	1.222	0.146	0.106
-470.216	142.357	0.153	0.205
-469.201	348.601	0.135	0.268
-468.186	-200.000	0.018	-0.161
-467.172	800.000	-0.055	0.212
-466.157	-81.806	-0.375	0.124
-465.143	4.244	-0.253	-0.187
-464.128	453.590	-0.131	-0.292
-463.113	244.057	0.090	-0.152
-462.099	-200.000	-0.021	0.253
-461.084	-10.403	-0.104	0.069
-460.070	29.420	-0.149	0.128
-459.055	-39.779	-0.159	-0.084
-458.040	-200.000	-0.010	0.437
-457.026	-200.000	0.003	-0.026
-456.011	-175.685	0.235	-0.006
-454.997	-47.552	-0.219	-0.107
-453.982	800.000	0.054	0.218
-452.968	-29.209	-0.216	-0.125
-451.953	-96.597	0.127	-0.034
-450.938	-16.641	-0.082	0.052
-449.924	52.940	-0.153	-0.147
-448.909	-200.000	0.050	0.385
-447.895	-58.703	0.177	-0.077
-446.880	-150.960	-0.330	-0.025
-445.865	-108.739	0.469	0.101
-444.851	-200.000	-0.037	-0.204
-443.836	-88.542	-0.202	-0.061
-442.822	-39.229	-0.167	0.089
-441.807	-52.666	-0.256	0.119
-440.792	280.374	-0.093	0.168
-439.778	-200.000	-0.015	-0.276
-438.763	-45.454	-0.138	-0.069
-437.749	-5.719	0.296	-0.205
-436.734	800.000	-0.055	-0.240
-435.719	-200.000	-0.034	0.179
-434.705	38.856	-0.151	0.136
-433.690	412.555	-0.127	-0.273
-432.676	89.783	0.162	0.183
-431.661	752.459	-0.037	-0.100
-430.646	-101.394	-0.065	0.016
-429.632	-200.000	0.021	-0.294
-428.617	152.089	0.150	-0.207
-427.603	-39.563	0.070	0.037
-426.588	-80.358	-0.023	0.008
-425.573	73.963	0.188	0.199
-424.559	38.627	-0.308	-0.277
-423.544	800.000	0.090	0.336
-422.530	133.161	0.035	0.046
-421.515	7.083	0.237	0.178
-420.500	9.961	0.240	-0.184
-419.486	23.778	0.132	-0.109
-418.471	56.987	0.247	0.242
-417.457	-151.495	-0.181	-0.014
-416.442	-99.758	0.281	0.071
-415.428	-6.134	0.222	0.153
-414.413	53.897	0.038	0.037
-413.398	-200.000	0.033	0.184
-412.384	-198.557	-0.074	0.000
-411.369	-150.450	-0.250	-0.019
-410.355	421.801	-0.139	-0.300
-409.340	-161.029	-0.253	0.013
-408.325	-23.945	0.085	-0.051
-407.311	-85.058	0.440	-0.139
-406.296	-12.963	-0.139	0.091
-405.282	-0.386	-0.085	0.061
-404.267	30.399	-0.097	0.083
-403.252	-63.007	-0.496	-0.206
-402.238	-83.955	0.165	0.053
-401.223	-147.333	-0.304	0.026
-400.209	-200.000	0.020	-0.122
-399.194	-200.000	-0.001	0.316
-398.179	-81.706	0.356	0.118
-397.165	-200.000	-0.012	0.148
-396.150	-115.675	-0.370	0.070
-395.136	-48.316	-0.182	0.089
-394.121	-85.171	0.007	-0.002
-393.106	530.598	0.102	0.243
-392.092	660.393	0.045	0.117
-391.077	60.357	-0.047	0.047
-390.063	20.816	0.155	0.127
-389.048	225.651	0.170	-0.278
-388.033	-200.000	0.012	0.057
-387.019	-95.342	-0.273	-0.074
-386.004	-52.188	0.130	0.061
-384.990	-200.000	-0.004	0.208
-383.975	-59.191	0.188	0.082
-382.960	-200.000	-0.007	0.179
-381.946	160.583	-0.104	0.146
-380.931	800.000	0.069	-0.208
-379.917	800.000	0.056	0.207
-378.902	101.273	-0.089	0.104
-377.888	-27.018	-0.298	0.175
-376.873	800.000	-0.084	0.316
-375.858	-117.061	0.135	-0.025
-374.844	-65.340	0.130	0.053
-373.829	-18.635	-0.133	0.083
-372.815	-200.000	0.041	0.254
-371.800	73.172	0.240	0.252
-370.785	800.000	0.030	-0.110
-369.771	-118.862	0.198	-0.035
-368.756	123.564	-0.118	-0.148
-367.742	-200.000	0.019	0.369
-366.727	555.935	-0.076	0.183
-365.712	-15.753	0.117	-0.075
-364.698	800.000	-0.093	0.259
-363.683	-141.319	-0.155	0.016
-362.669	-89.023	0.166	-0.049
-361.654	49.598	-0.133	-0.126
-360.639	188.071	-0.047	0.070
-359.625	-3.928	0.226	-0.158
-358.610	-28.140	0.162	0.094
-357.596	-75.549	-0.067	-0.024
-356.581	59.958	-0.105	-0.104
-355.566	800.000	0.017	-0.061
-354.552	-78.862	-0.109	-0.037
-353.537	428.146	0.037	0.079
-352.523	800.000	-0.030	-0.130
-351.508	-55.363	0.140	-0.063
-350.493	-200.000	-0.045	0.255
-349.479	-103.878	-0.330	-0.078
-348.464	151.848	0.105	0.144
-347.450	-113.254	-0.113	-0.022
-346.435	-117.536	0.399	-0.072
-345.420	-136.250	0.217	-0.025
-344.406	-79.521	-0.337	0.114
-343.391	-165.373	-0.237	-0.010
-342.377	-200.000	0.014	-0.132
-341.362	148.967	0.174	0.236
-340.348	800.000	-0.069	0.247
-339.333	64.274	0.284	-0.287
-338.318	-119.886	-0.005	0.001
-337.304	770.842	0.103	0.283
-336.289	-135.438	-0.121	0.015
-335.275	-200.000	-0.028	-0.237
-334.260	-99.015	-0.131	-0.033
-333.245	800.000	-0.010	-0.041
-332.231	372.443	-0.020	0.041
-331.216	90.201	-0.147	-0.165
-330.202	372.659	0.184	0.376
-329.187	131.301	0.134	0.173
-328.172	30.761	0.244	0.209
-327.158	-200.000	-0.013	0.168
-326.143	-67.158	0.059	-0.023
-325.129	-44.539	-0.069	0.035
-324.114	55.148	-0.264	0.256
-323.099	180.175	-0.111	-0.164
-322.085	800.000	-0.034	0.143
-321.070	53.631	0.217	-0.209
-320.056	16.723	-0.283	-0.225
-319.041	-200.000	-0.054	0.260
-318.026	-161.809	-0.090	0.005
-317.012	-200.000	-0.015	0.095
-315.997	564.175	-0.069	-0.167
-314.983	-103.370	0.243	0.057
-313.968	6.030	-0.268	0.199
-312.953	-87.187	0.342	-0.104
-311.939	-144.933	0.306	-0.028
-310.924	800.000	-0.075	-0.228
-309.910	7.015	-0.231	0.173
-308.895	1.427	-0.030	0.022
-307.880	260.790	-0.075	0.130
-306.866	-48.749	0.162	0.078
-305.851	281.247	0.098	-0.176
-304.837	-43.024	0.074	0.038
-303.822	18.424	-0.033	-0.026
-302.807	38.719	-0.181	-0.162
-301.793	-200.000	-0.005	-0.207
-300.778	558.903	-0.120	-0.290
-299.764	-33.315	0.112	0.062
-298.749	-23.390	0.146	0.088
-297.735	-200.000	-0.057	-0.298
-296.720	-100.366	-0.359	0.089
-295.705	-73.605	-0.195	0.071
-294.691	397.228	0.057	0.120
-293.676	-200.000	0.031	0.253
-292.662	500.808	0.058	-0.135
-291.647	243.439	0.190	-0.319
-290.632	-73.843	-0.095	-0.035
-289.618	-66.064	-0.277	0.111
-288.603	800.000	-0.116	-0.448
-287.589	800.000	0.084	-0.307
-286.574	-63.969	-0.293	0.120
-285.559	-200.000	0.043	-0.306
-284.545	-55.610	0.112	0.050
-283.530	-200.000	0.018	0.091
-282.516	-200.000	0.030	0.189
-281.501	-73.241	0.076	-0.028
-280.486	-3.585	-0.064	0.044
-279.472	-200.000	-0.005	-0.090
-278.457	-108.961	-0.201	-0.043
-277.443	-154.556	0.246	0.016
-276.428	-49.193	0.278	0.133
-275.413	800.000	-0.056	0.243
-274.399	16.174	0.134	-0.106
-273.384	748.610	0.065	0.174
-272.370	190.116	-0.092	-0.139
-271.355	-200.000	0.010	0.174
-270.340	657.542	-0.103	-0.265
-269.326	103.323	-0.158	0.186
-268.311	-76.990	0.120	0.042
-267.297	121.346	0.179	-0.224
-266.282	306.771	0.200	-0.372
-265.267	-200.000	0.010	-0.062
-264.253	25.928	-0.182	-0.152
-263.238	-47.096	0.089	0.044
-262.224	800.000	0.087	0.305
-261.209	-200.000	-0.015	-0.182
-260.195	0.123	0.068	-0.048
-259.180	48.412	-0.185	-0.174
-258.165	80.095	0.070	0.075
-257.151	20.310	-0.159	0.128
-256.136	-29.050	-0.123	0.070
-255.122	-112.339	0.344	-0.069
-254.107	791.159	-0.097	-0.266
-253.092	19.965	-0.177	0.143
-252.078	-200.000	-0.024	-0.318
-251.063	261.195	0.145	-0.251
-250.049	-138.419	-0.279	-0.031
-249.034	453.034	0.146	-0.324
-248.019	-38.968	0.364	-0.192
-247.005	-42.138	-0.241	-0.123
-245.990	392.379	0.095	-0.197
-244.976	-121.360	-0.059	-0.010
-243.961	524.719	0.020	-0.048
-242.946	324.673	0.210	-0.401
-241.932	-94.996	0.152	-0.041
-240.917	-173.892	-0.276	0.008
-239.903	49.889	0.056	0.052
-238.888	-44.152	-0.186	-0.093
-237.873	-34.370	-0.107	0.058
-236.859	-81.815	-0.126	0.041
-235.844	247.764	0.099	-0.167
-234.830	-59.354	-0.073	0.031
-233.815	204.721	0.135	0.210
-232.800	384.086	0.116	0.239
-231.786	800.000	-0.010	-0.036
-230.771	21.112	0.059	0.048
-229.757	-73.645	-0.161	0.059
-228.742	-200.000	0.013	-0.067
-227.727	-1.622	0.281	0.198
-226.713	-116.862	-0.314	-0.057
-225.698	-200.000	-0.060	0.305
-224.684	-143.307	0.128	0.012
-223.669	-142.285	0.212	-0.021
-222.655	20.273	0.378	-0.305
-221.640	197.949	-0.171	-0.261
-220.625	-200.000	-0.005	-0.292
-219.611	20.519	-0.250	-0.202
-218.596	-167.608	0.198	0.008
-217.582	-91.955	-0.167	0.047
-216.567	-200.000	-0.005	0.210
-215.552	-115.403	-0.285	0.054
-214.538	800.000	-0.048	0.180
-213.523	-94.510	0.088	-0.024
-212.509	-200.000	0.007	-0.307
-211.494	317.544	-0.238	0.449
-210.479	-61.135	-0.355	-0.150
-209.465	-5.418	-0.171	-0.117
-208.450	-158.145	-0.262	-0.015
-207.436	-200.000	0.033	0.331
-206.421	-200.000	0.026	-0.201
-205.406	-6.642	-0.113	0.077
-204.392	-151.556	-0.219	0.016
-203.377	113.328	0.068	-0.082
-202.363	210.770	0.042	0.066
-201.348	-200.000	0.043	0.262
-200.333	10.792	0.277	0.211
-199.319	-200.000	0.051	-0.252
-198.304	-30.515	0.331	0.187
-197.290	34.811	-0.199	0.173
-196.275	32.578	0.181	0.156
-195.260	744.548	-0.024	-0.065
-194.246	-125.821	0.142	0.021
-193.231	800.000	-0.098	0.315
-192.217	-174.693	0.100	-0.003
-191.202	-162.111	-0.085	0.004
-190.187	800.000	-0.043	0.188
-189.173	20.278	0.138	0.111
-188.158	-18.241	0.133	0.083
-187.144	165.033	0.143	-0.202
-186.129	-135.816	0.239	-0.028
-185.114	800.000	0.084	0.258
-184.100	365.221	-0.052	-0.104
-183.085	395.605	0.108	-0.226
-182.071	192.238	-0.133	0.200
-181.056	-200.000	-0.019	0.211
-180.042	-94.955	0.185	-0.050
-179.027	23.219	0.144	-0.118
-178.012	85.731	0.159	0.175
-176.998	9.751	0.261	0.198
-175.983	223.768	-0.155	0.250
-174.969	-200.000	0.031	-0.138
-173.954	28.495	0.223	0.188
-172.939	-171.516	0.068	-0.002
-171.925	202.224	0.111	0.171
-170.910	115.615	-0.139	0.170
-169.896	145.438	-0.105	-0.140
-168.881	800.000	0.045	-0.129
-167.866	-200.000	-0.001	-0.113
-166.852	-144.834	-0.291	-0.027
-165.837	-129.020	0.198	-0.028
-164.823	164.152	0.106	0.149
-163.808	71.485	-0.028	0.029
-162.793	-147.070	0.160	-0.014
-161.779	70.039	-0.339	0.349
-160.764	187.147	-0.076	-0.113
-159.750	-200.000	0.016	0.305
-158.735	11.899	-0.060	0.046
-157.720	-200.000	-0.032	-0.330
-156.706	55.638	-0.103	-0.100
-155.691	-72.825	0.153	-0.056
-154.677	800.000	0.103	0.289
-153.662	-200.000	-0.004	-0.317
-152.647	412.407	0.181	-0.384
-151.633	-127.384	0.274	0.040
-150.618	112.766	-0.041	-0.049
-149.604	-24.915	0.148	0.088
-148.589	349.375	-0.047	0.092
-147.574	-73.088	0.229	0.084
-146.560	4.884	0.206	0.151
-145.545	88.497	-0.200	0.222
-144.531	156.355	-0.054	-0.074
-143.516	8.344	0.232	0.174
-142.502	111.752	-0.045	0.054
-141.487	311.846	-0.184	-0.343
-140.472	-5.195	0.276	-0.189
-139.458	-1.988	-0.014	0.009
-138.443	800.000	-0.049	-0.150
-137.429	-3.132	0.073	-0.051
-136.414	37.914	-0.046	0.040
-135.399	-82.942	0.097	-0.031
-134.385	718.734	-0.077	-0.204
-133.370	-59.668	0.150	0.064
-132.356	-40.610	0.158	-0.081
-131.341	1.723	-0.496	-0.356
-130.326	-200.000	0.049	-0.256
-129.312	-45.836	0.209	0.103
-128.297	800.000	-0.047	-0.165
-127.283	137.762	0.169	-0.220
-126.268	107.664	0.095	-0.113
-125.253	-185.774	0.149	0.002
-124.239	800.000	0.087	0.350
-123.224	19.489	-0.332	0.265
-122.210	359.820	0.079	0.158
-121.195	-200.000	0.337	-0.001
