DTS Sentinel unit serial number:	SN413079Multiplexer serial number:	ORYXHardware model number:	OX4-SRSoftware version number:	ORYX F/W v4.00 Oryx Data Collector v3.7.2.0data status	okinstallation	princeton_trtdifferential loss correction	single-endedforward channel	channel 1reverse channel	N/Adate	2019/09/15time	11:02:35forward acquisition time	60.00reverse acquisition time	0.00gamma	496.2192k internal	0.2309k external	0.2309temperature offset calibration	0.9990default loss term (dB/km)	0.3790temperature slope calibration	1.0000multiplexer offset coefficient	1.0000multiplexer slope coefficient	1.0000fibre end	0.00T internal ref (°C)	34.30T ext. ref 1 (°C)	5.05T ext. ref 2 (°C)	29.75length (m)	temperature (°C)	Stokes	anti-Stokes-747.200	144.984	-0.217	-0.295
-746.185	38.908	-0.003	0.002
-745.171	89.519	-0.107	0.121
-744.156	-200.000	-0.041	0.204
-743.142	800.000	0.085	-0.316
-742.127	210.915	0.124	0.199
-741.112	-200.000	0.032	-0.188
-740.098	-200.000	-0.074	0.477
-739.083	29.847	0.261	-0.226
-738.069	84.222	-0.198	-0.220
-737.054	-200.000	-0.020	-0.145
-736.039	-60.784	0.104	-0.045
-735.025	-200.000	0.009	0.081
-734.010	-54.421	0.120	0.055
-732.996	522.799	0.178	-0.424
-731.981	-83.066	-0.375	0.123
-730.966	-200.000	0.018	-0.156
-729.952	61.456	-0.252	-0.254
-728.937	42.901	-0.180	-0.166
-727.923	188.554	-0.144	-0.219
-726.908	108.985	-0.096	-0.116
-725.894	-200.000	-0.082	0.398
-724.879	-66.388	-0.084	-0.034
-723.864	157.973	0.217	0.306
-722.850	67.222	0.034	-0.035
-721.835	-200.000	-0.047	-0.355
-720.821	-104.761	-0.192	-0.045
-719.806	-200.000	0.050	-0.317
-718.791	521.586	-0.119	-0.283
-717.777	-85.022	-0.171	0.054
-716.762	790.746	-0.052	0.144
-715.748	59.726	-0.207	0.207
-714.733	118.830	0.078	0.098
-713.718	300.606	0.043	-0.080
-712.704	30.209	0.180	0.156
-711.689	53.567	0.068	0.066
-710.675	-34.973	0.191	-0.106
-709.660	-82.872	-0.337	-0.110
-708.645	-200.000	-0.030	-0.199
-707.631	-200.000	-0.006	0.174
-706.616	302.501	-0.192	-0.361
-705.602	800.000	-0.059	0.256
-704.587	-200.000	-0.040	0.259
-703.572	-200.000	0.054	-0.280
-702.558	-85.154	0.120	0.038
-701.543	589.748	0.037	0.093
-700.529	403.895	0.109	-0.232
-699.514	-106.270	0.084	0.019
-698.499	76.531	-0.109	-0.117
-697.485	412.643	-0.111	-0.239
-696.470	352.017	-0.105	-0.212
-695.456	138.755	-0.181	0.241
-694.441	800.000	-0.084	-0.294
-693.426	-130.172	-0.211	-0.029
-692.412	-124.008	0.316	0.050
-691.397	51.427	0.087	-0.083
-690.383	16.266	-0.066	0.053
-689.368	800.000	0.034	-0.106
-688.354	-200.000	-0.044	0.225
-687.339	-76.416	-0.225	0.080
-686.324	286.716	-0.098	0.180
-685.310	800.000	-0.043	0.121
-684.295	-200.000	-0.021	0.289
-683.281	-75.649	-0.312	-0.112
-682.266	86.727	0.098	-0.109
-681.251	-161.947	0.281	-0.014
-680.237	-98.348	0.249	0.065
-679.222	-200.000	-0.013	0.363
-678.208	-92.791	-0.082	-0.023
-677.193	-146.504	0.181	-0.016
-676.178	125.734	-0.289	-0.370
-675.164	400.869	-0.054	-0.115
-674.149	-200.000	0.013	0.408
-673.135	36.533	-0.179	-0.160
-672.120	-50.278	-0.173	0.083
-671.105	285.056	-0.028	0.050
-670.091	372.969	0.140	-0.289
-669.076	34.474	-0.030	-0.026
-668.062	-49.963	0.303	-0.146
-667.047	-200.000	-0.009	-0.068
-666.032	-192.942	-0.092	-0.001
-665.018	-200.000	-0.003	0.251
-664.003	-105.397	0.344	-0.079
-662.989	-200.000	0.002	0.036
-661.974	-43.207	0.218	-0.112
-660.959	-104.143	-0.215	-0.051
-659.945	-56.438	-0.065	-0.029
-658.930	800.000	0.082	-0.259
-657.916	-107.989	0.381	-0.084
-656.901	95.277	0.307	-0.355
-655.886	-94.327	0.117	0.032
-654.872	-200.000	0.019	-0.094
-653.857	298.102	-0.179	0.332
-652.843	-97.926	-0.090	-0.023
-651.828	-46.821	-0.113	-0.056
-650.814	-93.648	-0.117	-0.033
-649.799	-173.317	0.119	-0.004
-648.784	-200.000	-0.007	0.063
-647.770	-78.624	-0.329	-0.114
-646.755	-103.821	-0.261	0.062
-645.741	-115.059	-0.199	-0.038
-644.726	324.048	0.053	0.102
-643.711	170.578	0.035	0.051
-642.697	86.172	0.203	-0.226
-641.682	20.853	-0.216	0.177
-640.668	800.000	0.147	0.421
-639.653	-8.176	0.235	-0.160
-638.638	-200.000	0.038	0.208
-637.624	-37.769	0.264	0.142
-636.609	-200.000	-0.023	-0.302
-635.595	150.520	-0.177	-0.244
-634.580	150.647	0.145	-0.200
-633.565	35.079	-0.157	-0.139
-632.551	-200.000	0.008	0.044
-631.536	-200.000	0.039	-0.337
-630.522	137.252	-0.082	-0.108
-629.507	-166.520	0.154	-0.006
-628.492	70.865	0.086	-0.090
-627.478	22.123	-0.119	0.099
-626.463	-177.463	-0.127	0.003
-625.449	265.976	-0.135	-0.239
-624.434	-86.809	-0.125	0.039
-623.419	-39.437	-0.200	0.106
-622.405	-154.720	0.432	0.029
-621.390	269.582	-0.067	0.120
-620.376	264.202	0.031	-0.054
-619.361	70.169	0.155	-0.162
-618.346	-20.486	0.212	0.132
-617.332	254.001	0.051	0.088
-616.317	-76.730	-0.431	0.153
-615.303	800.000	0.064	-0.236
-614.288	5.371	0.191	-0.143
-613.273	148.288	-0.103	0.141
-612.259	-89.686	0.122	0.036
-611.244	-115.852	-0.452	-0.085
-610.230	-200.000	0.012	0.115
-609.215	-200.000	-0.001	-0.043
-608.201	-200.000	-0.034	-0.225
-607.186	-44.963	-0.396	-0.199
-606.171	259.921	0.124	-0.217
-605.157	-111.509	0.277	0.057
-604.142	-35.368	0.145	-0.080
-603.128	368.320	-0.012	0.024
-602.113	800.000	-0.029	-0.084
-601.098	181.921	-0.122	0.182
-600.084	-95.305	-0.126	-0.034
-599.069	-165.318	0.337	-0.015
-598.055	27.519	-0.149	-0.126
-597.040	31.832	-0.466	0.406
-596.025	-10.193	0.122	-0.082
-595.011	-200.000	0.014	-0.271
-593.996	373.878	-0.110	0.227
-592.982	106.593	-0.127	-0.152
-591.967	-50.656	-0.127	-0.060
-590.952	-200.000	0.054	-0.300
-589.938	-107.024	0.129	-0.029
-588.923	17.963	-0.224	-0.181
-587.909	800.000	0.097	-0.419
-586.894	73.878	-0.204	-0.216
-585.879	13.141	0.260	0.203
-584.865	290.227	0.121	0.221
-583.850	202.325	-0.204	0.317
-582.836	776.106	0.038	-0.105
-581.821	800.000	0.041	0.175
-580.806	-101.429	-0.111	0.027
-579.792	191.038	-0.067	-0.101
-578.777	800.000	0.065	0.257
-577.763	18.760	0.052	0.042
-576.748	-87.606	-0.057	-0.017
-575.733	134.160	-0.146	-0.190
-574.719	-70.685	0.107	-0.041
-573.704	-3.765	0.114	0.080
-572.690	800.000	0.055	-0.196
-571.675	-72.721	-0.200	0.074
-570.661	463.626	0.113	-0.254
-569.646	139.219	0.052	0.069
-568.631	-200.000	-0.010	0.044
-567.617	-37.510	-0.371	-0.200
-566.602	-26.635	0.173	0.102
-565.588	41.031	-0.119	-0.108
-564.573	50.090	0.031	-0.030
-563.558	220.299	0.063	-0.101
-562.544	-24.968	-0.307	0.184
-561.529	606.853	0.143	-0.359
-560.515	39.454	0.120	-0.109
-559.500	203.991	-0.131	0.204
-558.485	338.191	0.095	-0.186
-557.471	-68.141	-0.140	0.055
-556.456	177.233	0.041	-0.061
-555.442	350.450	0.138	0.275
-554.427	299.659	0.112	-0.208
-553.412	-200.000	0.006	0.284
-552.398	-152.548	-0.161	0.012
-551.383	-95.541	-0.215	0.058
-550.369	-124.473	0.286	-0.045
-549.354	800.000	-0.047	-0.149
-548.339	194.542	0.208	0.318
-547.325	176.599	0.085	-0.124
-546.310	-32.697	0.073	0.041
-545.296	-46.713	-0.160	0.079
-544.281	-36.875	0.138	-0.074
-543.266	40.686	-0.096	0.087
-542.252	548.319	-0.143	0.346
-541.237	46.405	0.116	0.109
-540.223	-200.000	0.035	-0.237
-539.208	-72.277	0.249	-0.093
-538.193	66.988	-0.231	0.237
-537.179	-66.650	0.132	0.053
-536.164	99.293	0.076	-0.088
-535.150	-200.000	0.030	-0.177
-534.135	49.756	0.075	0.071
-533.121	49.751	-0.145	-0.138
-532.106	800.000	-0.044	0.144
-531.091	101.910	-0.193	-0.227
-530.077	800.000	0.119	0.490
-529.062	-200.000	0.003	0.462
-528.048	336.956	-0.121	0.237
-527.033	-80.175	-0.092	-0.031
-526.018	-135.809	0.196	0.023
-525.004	-200.000	-0.004	0.129
-523.989	-122.922	0.095	-0.015
-522.975	272.924	-0.056	-0.100
-521.960	129.742	0.121	-0.156
-520.945	-141.136	0.117	0.012
-519.931	-200.000	0.020	-0.423
-518.916	800.000	-0.053	0.184
-517.902	86.931	-0.217	0.241
-516.887	-200.000	-0.018	0.118
-515.872	-200.000	-0.012	-0.058
-514.858	-90.753	-0.268	-0.078
-513.843	405.373	0.110	0.233
-512.829	163.131	0.052	0.073
-511.814	-34.534	0.145	-0.080
-510.799	-99.991	-0.338	-0.085
-509.785	-200.000	0.000	0.015
-508.770	-47.162	-0.108	-0.053
-507.756	-200.000	0.058	-0.284
-506.741	58.425	-0.262	0.259
-505.726	-128.041	0.339	-0.049
-504.712	642.034	0.128	-0.328
-503.697	-86.476	-0.144	-0.045
-502.683	-200.000	-0.028	-0.220
-501.668	-44.157	-0.157	-0.079
-500.653	800.000	0.035	-0.112
-499.639	-200.000	0.027	-0.370
-498.624	-200.000	-0.051	-0.235
-497.610	-10.152	0.145	0.097
-496.595	800.000	0.077	-0.257
-495.581	-122.009	-0.300	0.050
-494.566	785.712	-0.135	-0.371
-493.551	800.000	-0.027	0.103
-492.537	-61.070	0.345	0.146
-491.522	-14.833	0.313	0.202
-490.508	-200.000	0.022	-0.164
-489.493	420.275	-0.070	-0.150
-488.478	58.945	-0.051	0.050
-487.464	565.443	-0.031	0.076
-486.449	109.672	-0.187	-0.225
-485.435	-142.769	-0.240	0.024
-484.420	679.503	0.134	0.352
-483.405	-184.864	0.245	0.004
-482.391	122.722	0.076	0.096
-481.376	140.726	-0.051	0.068
-480.362	267.492	0.102	0.180
-479.347	-200.000	-0.009	0.071
-478.332	-182.576	-0.128	-0.002
-477.318	81.411	-0.147	-0.160
-476.303	-62.482	-0.199	-0.083
-475.289	88.633	-0.122	0.137
-474.274	-148.407	0.323	0.027
-473.259	-200.000	0.023	-0.273
-472.245	64.870	-0.029	-0.030
-471.230	660.449	-0.124	-0.322
-470.216	-128.576	0.197	0.028
-469.201	-82.381	-0.238	0.078
-468.186	65.198	-0.205	0.208
-467.172	-4.361	0.199	-0.138
-466.157	11.031	0.078	0.060
-465.143	-102.348	0.121	-0.029
-464.128	-200.000	-0.015	-0.142
-463.113	-200.000	0.006	0.174
-462.099	-100.455	-0.356	0.089
-461.084	-99.455	0.137	-0.035
-460.070	72.817	-0.179	0.188
-459.055	-82.410	0.267	-0.087
-458.040	52.455	0.056	-0.054
-457.026	105.541	-0.148	0.176
-456.011	7.870	-0.290	0.219
-454.997	542.680	-0.086	0.207
-453.982	187.744	0.164	-0.246
-452.968	-200.000	-0.008	-0.421
-451.953	-17.098	0.136	0.086
-450.938	-137.103	0.458	0.053
-449.924	-171.105	-0.440	-0.015
-448.909	656.994	-0.032	-0.082
-447.895	-200.000	0.064	-0.428
-446.880	150.768	-0.089	-0.121
-445.865	-200.000	0.019	0.450
-444.851	733.511	-0.077	0.207
-443.836	-49.114	0.154	0.074
-442.822	25.774	0.084	0.070
-441.807	-103.463	-0.260	0.062
-440.792	165.104	-0.092	-0.130
-439.778	800.000	0.038	-0.127
-438.763	-200.000	0.067	0.298
-437.749	-7.746	-0.106	0.072
-436.734	-55.000	-0.096	0.044
-435.719	576.957	-0.072	-0.177
-434.705	-200.000	-0.028	0.199
-433.690	-156.663	0.225	0.014
-432.676	-5.787	0.230	0.158
-431.661	-125.966	-0.336	0.051
-430.646	172.096	0.098	-0.142
-429.632	-35.994	0.463	-0.252
-428.617	-20.697	0.242	-0.149
-427.603	157.308	-0.165	0.229
-426.588	-154.629	-0.142	-0.009
-425.573	-99.608	0.261	-0.066
-424.559	-143.971	0.056	0.005
-423.544	-51.094	-0.166	0.078
-422.530	313.855	-0.051	0.097
-421.515	-200.000	0.004	0.307
-420.500	19.885	0.284	0.230
-419.486	800.000	0.033	-0.113
-418.471	245.494	0.131	0.221
-417.457	-23.418	0.104	-0.063
-416.442	-91.367	0.288	0.083
-415.428	128.081	-0.141	0.180
-414.413	-200.000	-0.030	-0.155
-413.398	-80.404	-0.176	-0.059
-412.384	-200.000	-0.033	-0.389
-411.369	-49.225	-0.112	-0.054
-410.355	-196.085	-0.177	0.001
-409.340	92.273	0.204	-0.230
-408.325	-105.004	-0.345	0.079
-407.311	626.430	0.085	-0.216
-406.296	31.219	0.055	-0.048
-405.282	-200.000	0.001	-0.118
-404.267	-200.000	0.029	0.147
-403.252	490.966	-0.109	-0.251
-402.238	167.957	-0.169	0.242
-401.223	144.913	-0.070	0.093
-400.209	-52.774	-0.301	-0.139
-399.194	-59.778	-0.172	0.074
-398.179	-138.079	0.158	0.018
-397.165	612.596	0.153	0.385
-396.150	-137.225	0.162	-0.019
-395.136	-108.407	0.113	-0.024
-394.121	-99.454	0.304	-0.077
-393.106	327.813	0.163	0.314
-392.092	800.000	0.062	-0.223
-391.077	226.806	0.182	-0.297
-390.063	71.011	0.124	-0.128
-389.048	-200.000	-0.051	0.282
-388.033	-139.837	0.207	-0.022
-387.019	-35.679	0.140	-0.076
-386.004	-94.441	-0.137	-0.038
-384.990	85.817	0.305	0.336
-383.975	114.068	-0.175	0.213
-382.960	-200.000	-0.068	-0.393
-381.946	-76.452	-0.072	-0.025
-380.931	23.945	0.173	-0.143
-379.917	78.463	-0.203	-0.217
-378.902	-200.000	-0.002	-0.075
-377.888	800.000	-0.078	-0.309
-376.873	-129.315	-0.378	0.053
-375.858	-103.138	0.106	-0.025
-374.844	-22.272	0.134	-0.081
-373.829	-35.254	0.256	0.139
-372.815	-111.073	-0.510	0.105
-371.800	-200.000	0.053	0.545
-370.785	-144.656	-0.265	-0.024
-369.771	581.558	-0.046	0.113
-368.756	-200.000	0.030	0.319
-367.742	-200.000	-0.010	0.133
-366.727	-170.332	-0.111	0.004
-365.712	4.157	0.042	0.031
-364.698	-200.000	0.034	0.163
-363.683	-200.000	0.025	-0.168
-362.669	800.000	0.039	-0.113
-361.654	-200.000	-0.086	-0.393
-360.639	37.315	0.229	-0.204
-359.625	-200.000	-0.029	-0.378
-358.610	515.703	-0.015	-0.036
-357.596	-60.809	-0.257	-0.109
-356.581	-200.000	0.010	-0.218
-355.566	-42.312	0.133	-0.068
-354.552	-30.668	0.083	-0.047
-353.537	16.509	-0.177	-0.140
-352.523	800.000	-0.050	0.161
-351.508	279.590	-0.237	-0.424
-350.493	165.717	-0.075	-0.107
-349.479	-99.183	0.173	-0.044
-348.464	127.417	0.066	0.084
-347.450	176.928	0.076	-0.111
-346.435	62.761	0.219	0.219
-345.420	-96.053	-0.120	0.032
-344.406	-40.768	-0.134	-0.070
-343.391	-155.760	-0.176	-0.011
-342.377	-200.000	-0.022	0.122
-341.362	11.174	0.089	0.068
-340.348	-144.286	0.075	-0.007
-339.333	108.165	0.267	0.319
-338.318	800.000	-0.070	0.253
-337.304	800.000	0.113	0.314
-336.289	-47.054	-0.239	-0.117
-335.275	-120.488	-0.160	-0.027
-334.260	54.413	0.188	-0.181
-333.245	1.394	-0.331	0.238
-332.231	800.000	0.019	-0.058
-331.216	-63.621	-0.295	0.121
-330.202	279.629	0.066	0.118
-329.187	-200.000	0.053	-0.266
-328.172	-61.136	0.118	-0.050
-327.158	-119.881	-0.199	0.034
-326.143	47.554	0.456	0.425
-325.129	341.283	0.199	0.390
-324.114	28.980	-0.113	0.096
-323.099	373.815	0.046	-0.094
-322.085	267.403	-0.093	-0.162
-321.070	88.588	-0.270	0.300
-320.056	46.287	-0.229	0.212
-319.041	29.296	-0.294	-0.249
-318.026	16.702	0.139	0.110
-317.012	427.489	-0.078	0.169
-315.997	365.917	0.099	-0.198
-314.983	-57.157	0.035	0.015
-313.968	43.520	-0.097	0.089
-312.953	39.650	0.100	-0.090
-311.939	-50.039	-0.271	0.128
-310.924	189.479	-0.151	0.226
-309.910	339.660	0.047	-0.092
-308.895	40.086	-0.201	0.180
-307.880	-114.037	-0.451	0.087
-306.866	-61.292	0.092	-0.039
-305.851	-27.376	-0.281	-0.163
-304.837	800.000	-0.027	0.112
-303.822	800.000	-0.082	0.235
-302.807	-125.643	0.045	0.007
-301.793	210.874	0.220	-0.346
-300.778	124.635	0.154	-0.193
-299.764	399.721	0.151	0.317
-298.749	-200.000	-0.001	0.300
-297.735	-28.255	0.357	0.206
-296.720	50.470	0.142	0.134
-295.705	-30.885	0.174	-0.098
-294.691	-28.503	-0.260	0.150
-293.676	-172.301	-0.066	0.002
-292.662	-78.699	-0.115	0.039
-291.647	7.006	-0.207	-0.154
-290.632	-70.810	0.250	0.094
-289.618	142.495	0.141	0.187
-288.603	-56.082	0.163	-0.072
-287.589	58.402	0.095	-0.093
-286.574	800.000	0.027	-0.103
-285.559	41.398	0.062	-0.056
-284.545	40.537	0.105	0.094
-283.530	-100.707	0.132	-0.033
-282.516	-200.000	-0.007	0.192
-281.501	94.359	0.250	0.283
-280.486	-200.000	-0.008	0.251
-279.472	21.535	-0.131	0.106
-278.457	-111.100	0.236	0.048
-277.443	-36.719	-0.049	0.026
-276.428	-200.000	-0.038	-0.425
-275.413	-8.037	0.127	0.085
-274.399	-200.000	0.077	0.354
-273.384	-145.769	-0.164	0.015
-272.370	-37.867	-0.049	0.026
-271.355	381.447	0.030	0.062
-270.340	4.696	0.400	0.293
-269.326	398.784	-0.108	-0.225
-268.311	637.903	-0.071	0.180
-267.297	108.578	0.147	-0.176
-266.282	-57.177	-0.232	0.102
-265.267	-122.657	-0.278	0.045
-264.253	342.217	-0.087	0.169
-263.238	-2.382	-0.230	0.161
-262.224	-200.000	-0.023	0.127
-261.209	69.919	0.063	0.064
-260.195	35.066	-0.056	-0.049
-259.180	-11.549	-0.160	0.105
-258.165	-83.124	0.248	-0.080
-257.151	-200.000	0.009	-0.060
-256.136	698.005	0.060	0.156
-255.122	306.339	0.017	-0.031
-254.107	251.664	0.048	-0.081
-253.092	272.187	-0.077	-0.136
-252.078	-14.577	-0.194	0.124
-251.063	-58.493	0.176	-0.076
-250.049	14.294	-0.135	-0.105
-249.034	-200.000	0.018	-0.129
-248.019	74.759	-0.109	0.114
-247.005	78.919	-0.071	-0.076
-245.990	800.000	-0.032	-0.126
-244.976	257.614	0.110	0.188
-243.961	-200.000	-0.048	-0.352
-242.946	-200.000	-0.042	-0.233
-241.932	142.566	-0.194	-0.256
-240.917	-123.999	-0.315	-0.049
-239.903	800.000	0.065	0.261
-238.888	33.473	-0.068	0.059
-237.873	147.148	0.129	-0.173
-236.859	-200.000	-0.013	0.145
-235.844	-29.857	-0.183	0.104
-234.830	-104.806	0.038	0.009
-233.815	-99.629	0.042	-0.010
-232.800	800.000	-0.036	0.131
-231.786	68.947	0.120	0.123
-230.771	-188.911	0.126	0.002
-229.757	-43.190	0.098	-0.049
-228.742	-76.604	-0.122	0.043
-227.727	46.109	-0.143	-0.132
-226.713	-25.101	0.087	0.051
-225.698	3.628	-0.086	-0.063
-224.684	-161.772	0.518	-0.026
-223.669	41.579	0.185	0.166
-222.655	-77.880	-0.190	-0.065
-221.640	800.000	0.032	-0.124
-220.625	33.331	-0.054	-0.046
-219.611	-56.301	0.206	-0.091
-218.596	4.610	0.161	-0.118
-217.582	800.000	-0.115	0.327
-216.567	179.929	0.058	-0.084
-215.552	-168.459	-0.138	0.005
-214.538	310.929	-0.059	0.110
-213.523	119.473	0.133	0.164
-212.509	172.560	0.153	0.219
-211.494	800.000	-0.017	-0.062
-210.479	-200.000	-0.018	-0.104
-209.465	-134.504	0.272	0.033
-208.450	149.134	0.154	-0.208
-207.436	-110.051	0.430	-0.090
-206.421	55.384	0.239	0.230
-205.406	-126.200	-0.298	-0.044
-204.392	26.737	0.032	-0.026
-203.377	-52.951	-0.207	-0.095
-202.363	-86.752	-0.200	-0.061
-201.348	-71.984	0.321	0.119
-200.333	-16.294	-0.199	0.125
-199.319	800.000	0.081	0.332
-198.304	123.701	0.043	0.053
-197.290	-200.000	-0.312	0.001
-196.275	42.349	0.038	-0.034
-195.260	-189.409	-0.225	-0.003
-194.246	-84.021	-0.240	-0.076
-193.231	153.900	0.076	0.103
-192.217	800.000	-0.082	0.247
-191.202	184.199	0.084	-0.124
-190.187	-22.523	0.190	0.114
-189.173	-115.504	-0.223	0.042
-188.158	-42.005	0.240	-0.122
-187.144	-26.307	0.238	-0.139
-186.129	209.141	0.185	0.288
-185.114	-106.150	-0.296	0.066
-184.100	-94.667	0.302	-0.082
-183.085	215.665	-0.106	0.167
-182.071	-42.395	0.106	0.054
-181.056	-0.012	-0.145	-0.103
-180.042	372.448	0.096	-0.193
-179.027	-200.000	0.030	-0.495
-178.012	471.443	-0.046	0.103
-176.998	-122.852	-0.225	0.036
-175.983	-49.543	-0.068	0.032
-174.969	-200.000	-0.062	0.347
-173.954	263.582	-0.052	-0.090
-172.939	-190.507	0.327	-0.004
-171.925	-103.247	-0.271	-0.064
-170.910	-110.787	0.455	0.093
-169.896	-200.000	-0.003	0.376
-168.881	115.491	-0.118	0.144
-167.866	800.000	0.055	0.172
-166.852	-95.902	0.283	-0.075
-165.837	-75.904	-0.201	0.071
-164.823	86.034	-0.175	0.191
-163.808	75.860	0.159	-0.167
-162.793	-134.584	0.480	-0.058
-161.779	-200.000	0.045	-0.251
-160.764	-101.280	-0.294	-0.071
-159.750	83.116	0.084	-0.091
-158.735	189.324	0.104	-0.154
-157.720	195.144	0.128	-0.193
-156.706	-200.000	-0.118	-0.725
-155.691	39.290	0.355	-0.316
-154.677	-200.000	0.012	0.102
-153.662	308.143	-0.141	-0.262
-152.647	326.522	0.146	-0.278
-151.633	113.245	0.178	-0.214
-150.618	49.939	0.028	-0.026
-149.604	-129.395	0.486	0.067
-148.589	-200.000	0.003	-0.155
-147.574	-148.862	-0.160	0.013
-146.560	-195.805	-0.112	0.001
-145.545	60.816	0.108	-0.106
-144.531	-130.808	0.369	0.049
-143.516	49.254	-0.140	-0.131
-142.502	-129.289	0.046	0.006
-141.487	-171.642	0.105	0.003
-140.472	118.555	0.123	-0.150
-139.458	-50.495	-0.204	0.096
-138.443	-151.471	-0.179	-0.013
-137.429	216.969	-0.206	-0.325
-136.414	-200.000	-0.059	0.362
-135.399	-159.032	-0.158	-0.009
-134.385	-126.573	0.257	-0.038
-133.370	-200.000	0.087	0.432
-132.356	-200.000	0.064	-0.314
-131.341	-40.312	-0.082	0.042
-130.326	87.772	0.108	0.118
-129.312	-91.807	0.231	-0.065
-128.297	38.169	0.042	0.037
-127.283	409.384	0.066	-0.138
-126.268	-112.829	-0.203	-0.040
-125.253	-200.000	0.007	-0.135
-124.239	-34.896	0.110	0.059
-123.224	7.668	0.212	-0.157
-122.210	-88.360	-0.216	-0.064
-121.195	277.927	-0.103	0.181
