DTS Sentinel unit serial number:	SN413079Multiplexer serial number:	ORYXHardware model number:	OX4-SRSoftware version number:	ORYX F/W v4.00 Oryx Data Collector v3.7.2.0data status	okinstallation	princeton_trtdifferential loss correction	single-endedforward channel	channel 1reverse channel	N/Adate	2019/09/18time	13:50:35forward acquisition time	60.00reverse acquisition time	0.00gamma	496.2192k internal	0.2312k external	0.2312temperature offset calibration	0.9986default loss term (dB/km)	0.3790temperature slope calibration	1.0000multiplexer offset coefficient	1.0000multiplexer slope coefficient	1.0000fibre end	0.00T internal ref (°C)	34.50T ext. ref 1 (°C)	0.64T ext. ref 2 (°C)	29.92length (m)	temperature (°C)	Stokes	anti-Stokes-747.200	-62.767	-0.168	-0.071
-746.185	-200.000	-0.004	-0.044
-745.171	-200.000	-0.045	0.333
-744.156	280.923	0.187	0.339
-743.142	-145.292	0.257	-0.024
-742.127	-83.986	0.175	-0.056
-741.112	-133.209	0.373	0.048
-740.098	-69.741	0.150	0.058
-739.083	42.456	-0.106	-0.098
-738.069	192.240	-0.180	0.276
-737.054	10.108	-0.281	-0.217
-736.039	676.061	-0.121	-0.320
-735.025	800.000	-0.090	0.351
-734.010	-104.085	-0.329	-0.078
-732.996	-70.496	-0.395	-0.152
-731.981	-128.328	0.201	-0.029
-730.966	55.191	0.282	0.276
-729.952	-94.177	-0.134	-0.037
-728.937	169.400	-0.171	-0.248
-727.923	98.356	-0.200	-0.234
-726.908	-138.385	-0.122	-0.014
-725.894	-98.817	-0.430	-0.111
-724.879	86.213	0.285	-0.319
-723.864	-2.139	-0.377	0.269
-722.850	27.580	0.157	0.134
-721.835	-200.000	-0.024	-0.125
-720.821	-188.560	-0.351	-0.004
-719.806	800.000	0.047	0.133
-718.791	336.059	-0.171	0.336
-717.777	-200.000	-0.038	0.321
-716.762	41.085	0.201	0.184
-715.748	-15.824	-0.152	-0.098
-714.733	614.941	0.118	0.300
-713.718	29.957	-0.091	-0.079
-712.704	-53.183	-0.308	-0.143
-711.689	124.939	0.111	-0.141
-710.675	-200.000	0.009	-0.097
-709.660	-71.776	-0.405	0.153
-708.645	-8.581	-0.110	0.075
-707.631	-95.084	-0.268	-0.073
-706.616	238.345	-0.095	-0.160
-705.602	41.681	0.083	0.076
-704.587	-113.806	-0.495	-0.098
-703.572	122.698	0.166	0.211
-702.558	-131.205	0.142	-0.019
-701.543	800.000	0.120	0.442
-700.529	-130.418	-0.155	-0.021
-699.514	203.980	-0.072	0.112
-698.499	370.694	-0.138	-0.283
-697.485	426.301	-0.024	-0.053
-696.470	-68.618	-0.244	-0.096
-695.456	-200.000	0.036	-0.255
-694.441	-47.473	-0.102	-0.050
-693.426	-200.000	0.062	0.307
-692.412	-3.292	-0.125	0.088
-691.397	-109.668	-0.146	-0.031
-690.383	-132.985	0.188	-0.024
-689.368	391.490	0.017	-0.036
-688.354	800.000	-0.100	-0.351
-687.339	-93.733	-0.217	-0.060
-686.324	58.264	0.211	-0.210
-685.310	800.000	-0.046	-0.147
-684.295	442.716	0.190	0.422
-683.281	456.303	-0.051	0.115
-682.266	-200.000	0.042	-0.244
-681.251	-125.317	0.186	0.029
-680.237	-200.000	-0.043	0.320
-679.222	-19.197	-0.209	-0.132
-678.208	-200.000	-0.027	-0.211
-677.193	-100.596	-0.362	-0.091
-676.178	-77.754	-0.331	0.116
-675.164	0.401	0.091	-0.066
-674.149	-69.937	0.297	0.115
-673.135	-73.024	-0.288	-0.107
-672.120	-200.000	-0.021	0.182
-671.105	271.726	-0.044	0.078
-670.091	39.120	-0.011	-0.010
-669.076	-137.157	-0.152	-0.018
-668.062	-37.846	-0.272	-0.146
-667.047	-137.907	0.325	-0.037
-666.032	-33.411	-0.590	-0.330
-665.018	237.198	-0.077	-0.129
-664.003	-171.960	0.159	0.005
-662.989	-128.359	-0.157	-0.023
-661.974	-200.000	0.063	0.393
-660.959	-39.440	0.085	0.045
-659.945	800.000	-0.019	-0.059
-658.930	194.858	-0.058	-0.089
-657.916	444.952	-0.064	0.141
-656.901	10.780	0.009	0.007
-655.886	625.790	-0.132	-0.337
-654.872	-83.102	0.340	-0.111
-653.857	800.000	-0.083	0.348
-652.843	-97.770	-0.082	0.021
-651.828	-30.503	0.078	0.044
-650.814	661.905	0.088	0.231
-649.799	-200.000	-0.018	0.084
-648.784	800.000	0.033	0.111
-647.770	786.521	-0.111	-0.308
-646.755	325.259	0.123	-0.237
-645.741	-74.761	0.161	-0.059
-644.726	-200.000	0.072	-0.401
-643.711	271.514	-0.203	0.361
-642.697	-200.000	-0.015	0.162
-641.682	-200.000	0.019	-0.260
-640.668	-200.000	0.051	-0.317
-639.653	-5.838	0.211	0.146
-638.638	144.681	-0.078	-0.105
-637.624	56.549	0.135	-0.133
-636.609	479.575	-0.230	-0.526
-635.595	600.730	-0.069	0.174
-634.580	-200.000	-0.012	0.121
-633.565	399.932	0.104	0.221
-632.551	-185.267	0.152	-0.002
-631.536	-194.581	0.292	-0.002
-630.522	-91.571	0.160	-0.046
-629.507	-49.337	-0.086	-0.041
-628.492	800.000	-0.079	0.292
-627.478	26.152	-0.286	-0.241
-626.463	-53.452	-0.076	-0.035
-625.449	-138.846	-0.233	-0.026
-624.434	68.910	-0.374	-0.388
-623.419	-7.905	0.182	-0.124
-622.405	-161.353	-0.154	0.008
-621.390	800.000	-0.088	0.359
-620.376	-200.000	0.002	-0.033
-619.361	-63.701	0.168	-0.070
-618.346	327.492	0.012	0.023
-617.332	-61.125	-0.202	0.086
-616.317	395.998	-0.022	-0.047
-615.303	-200.000	0.009	-0.417
-614.288	106.792	-0.082	-0.098
-613.273	-137.681	0.243	-0.028
-612.259	-200.000	0.027	-0.280
-611.244	-200.000	-0.024	-0.174
-610.230	-150.784	-0.366	0.028
-609.215	-158.226	0.177	0.010
-608.201	-150.767	-0.473	-0.036
-607.186	11.715	0.350	0.271
-606.171	125.266	0.140	-0.178
-605.157	-61.870	0.134	0.057
-604.142	-200.000	-0.016	0.095
-603.128	-73.247	-0.370	0.137
-602.113	158.922	-0.080	-0.112
-601.098	-200.000	0.075	0.343
-600.084	225.142	-0.038	-0.062
-599.069	89.359	0.081	0.091
-598.055	-200.000	0.045	-0.281
-597.040	-91.906	0.316	0.090
-596.025	-11.218	-0.054	0.036
-595.011	-134.271	0.078	0.010
-593.996	-101.968	0.152	0.037
-592.982	32.671	-0.021	-0.019
-591.967	800.000	-0.058	-0.168
-590.952	-167.029	-0.407	-0.017
-589.938	-88.695	-0.177	0.053
-588.923	-86.524	-0.022	-0.007
-587.909	-137.784	-0.493	0.056
-586.894	32.016	-0.307	0.267
-585.879	26.170	-0.154	0.130
-584.865	0.383	-0.136	-0.098
-583.850	146.056	-0.218	0.295
-582.836	-61.042	-0.236	0.100
-581.821	-49.815	-0.243	-0.116
-580.806	800.000	-0.087	-0.289
-579.792	-200.000	-0.000	-0.086
-578.777	-127.200	-0.212	-0.031
-577.763	-200.000	-0.131	-0.673
-576.748	341.775	-0.107	0.210
-575.733	3.585	-0.082	-0.060
-574.719	-200.000	-0.011	0.221
-573.704	54.029	-0.061	-0.059
-572.690	50.555	0.149	-0.142
-571.675	-97.332	0.083	-0.022
-570.661	-155.156	-0.178	-0.012
-569.646	-28.656	0.383	0.222
-568.631	800.000	0.109	0.357
-567.617	-3.977	0.173	0.121
-566.602	123.805	0.119	-0.150
-565.588	-10.287	0.248	-0.166
-564.573	-200.000	-0.041	0.229
-563.558	-200.000	0.005	0.225
-562.544	156.803	-0.124	-0.172
-561.529	367.079	-0.101	-0.204
-560.515	-200.000	0.009	-0.289
-559.500	-200.000	0.046	-0.428
-558.485	-107.582	0.246	0.054
-557.471	-200.000	-0.017	0.107
-556.456	-86.832	0.520	0.160
-555.442	322.775	0.032	-0.061
-554.427	314.034	-0.074	-0.141
-553.412	-82.287	0.176	0.058
-552.398	92.789	0.319	-0.363
-551.383	182.966	-0.163	-0.242
-550.369	66.279	0.234	0.240
-549.354	800.000	-0.053	0.186
-548.339	382.972	-0.056	-0.116
-547.325	-200.000	0.014	0.117
-546.310	-200.000	0.023	0.344
-545.296	-54.150	0.038	-0.017
-544.281	-23.140	0.252	-0.153
-543.266	-165.918	-0.345	0.015
-542.252	-114.575	-0.245	0.047
-541.237	800.000	-0.116	-0.412
-540.223	-2.501	-0.138	-0.097
-539.208	-200.000	-0.041	0.270
-538.193	-105.845	-0.197	0.045
-537.179	-34.078	-0.183	-0.101
-536.164	280.722	0.030	0.055
-535.150	194.737	0.029	0.044
-534.135	-80.347	0.400	-0.134
-533.121	-34.097	-0.142	0.078
-532.106	-200.000	0.006	-0.087
-531.091	-200.000	-0.001	-0.135
-530.077	-87.680	0.030	0.009
-529.062	27.562	-0.136	0.115
-528.048	76.603	-0.223	-0.238
-527.033	-151.151	0.201	0.015
-526.018	69.617	0.208	0.215
-525.004	-129.464	0.278	0.039
-523.989	637.497	-0.113	0.288
-522.975	382.605	0.154	0.318
-521.960	-69.907	0.447	-0.171
-520.945	-7.829	-0.086	-0.059
-519.931	69.922	0.109	-0.113
-518.916	42.425	0.135	-0.124
-517.902	-143.983	0.238	-0.023
-516.887	800.000	0.023	-0.064
-515.872	-136.402	-0.149	-0.017
-514.858	-28.110	-0.371	0.216
-513.843	800.000	-0.005	0.018
-512.829	113.347	0.253	-0.309
-511.814	29.590	0.184	0.157
-510.799	23.817	-0.277	-0.230
-509.785	-7.348	0.268	-0.183
-508.770	-162.131	-0.291	-0.015
-507.756	-51.610	-0.193	0.091
-506.741	-200.000	-0.033	-0.315
-505.726	356.081	0.140	0.279
-504.712	60.296	0.016	-0.015
-503.697	39.729	-0.087	0.079
-502.683	800.000	-0.080	0.286
-501.668	-200.000	0.003	0.062
-500.653	-52.582	0.114	0.053
-499.639	700.137	-0.169	0.446
-498.624	557.713	-0.163	0.396
-497.610	222.163	0.079	0.127
-496.595	-68.464	0.180	0.070
-495.581	-200.000	-0.018	-0.113
-494.566	-200.000	-0.378	0.001
-493.551	-200.000	0.066	0.324
-492.537	-48.213	-0.116	-0.056
-491.522	-19.485	-0.154	-0.096
-490.508	-149.423	0.398	-0.032
-489.493	-105.679	-0.424	-0.096
-488.478	10.019	0.231	-0.176
-487.464	465.497	-0.073	-0.164
-486.449	-60.532	-0.137	0.059
-485.435	-123.247	0.226	0.036
-484.420	112.735	0.109	0.132
-483.405	-96.362	0.096	0.026
-482.391	19.326	0.404	-0.326
-481.376	537.801	-0.159	0.380
-480.362	41.524	0.291	-0.265
-479.347	113.333	-0.156	-0.190
-478.332	93.721	-0.031	-0.035
-477.318	167.028	0.079	0.113
-476.303	-44.762	0.096	-0.048
-475.289	-95.325	0.199	0.054
-474.274	-43.821	-0.207	-0.105
-473.259	-90.379	-0.304	-0.089
-472.245	-147.411	0.021	0.002
-471.230	113.707	-0.330	0.402
-470.216	31.596	0.162	0.140
-469.201	121.004	-0.130	-0.162
-468.186	-52.137	-0.088	-0.041
-467.172	-149.347	0.358	0.029
-466.157	423.310	0.116	-0.251
-465.143	25.077	0.181	0.151
-464.128	800.000	-0.032	0.126
-463.113	-26.784	0.147	-0.086
-462.099	42.890	0.022	-0.020
-461.084	-73.302	-0.288	-0.106
-460.070	94.707	0.067	0.076
-459.055	64.153	0.069	-0.070
-458.040	163.642	-0.146	0.207
-457.026	-200.000	-0.009	0.110
-456.011	800.000	0.039	0.168
-454.997	146.410	0.066	-0.089
-453.982	229.970	0.036	-0.060
-452.968	-200.000	-0.002	-0.082
-451.953	800.000	0.029	-0.086
-450.938	165.080	-0.149	-0.211
-449.924	52.500	-0.104	0.099
-448.909	333.478	-0.226	-0.438
-447.895	471.978	-0.056	0.127
-446.880	-93.439	0.038	-0.011
-445.865	-88.168	-0.196	0.059
-444.851	800.000	-0.010	0.038
-443.836	-144.109	-0.288	0.027
-442.822	668.533	0.060	0.155
-441.807	510.979	-0.044	-0.103
-440.792	-118.457	-0.119	-0.021
-439.778	-200.000	0.022	0.267
-438.763	30.429	-0.254	0.218
-437.749	800.000	-0.040	0.161
-436.734	-75.575	-0.079	-0.028
-435.719	166.259	0.169	0.240
-434.705	800.000	-0.099	0.390
-433.690	-21.013	-0.325	-0.199
-432.676	39.136	0.155	-0.139
-431.661	-23.867	0.271	-0.163
-430.646	-200.000	-0.013	0.119
-429.632	-4.232	0.446	0.310
-428.617	-200.000	-0.003	-0.159
-427.603	800.000	0.035	0.110
-426.588	-119.796	0.031	0.005
-425.573	492.595	0.031	0.071
-424.559	-119.124	-0.127	0.022
-423.544	-128.333	-0.198	0.028
-422.530	623.343	0.108	-0.274
-421.515	476.630	0.034	-0.077
-420.500	25.700	0.253	0.211
-419.486	-121.429	-0.294	-0.049
-418.471	-16.980	-0.393	-0.249
-417.457	-139.176	-0.239	0.026
-416.442	309.072	0.099	0.185
-415.428	-54.289	0.209	0.095
-414.413	94.746	-0.126	-0.143
-413.398	-29.139	-0.307	-0.176
-412.384	226.519	-0.151	0.245
-411.369	-200.000	0.087	0.468
-410.355	-188.600	0.176	-0.002
-409.340	800.000	-0.061	-0.179
-408.325	369.269	0.052	-0.106
-407.311	431.867	-0.170	0.370
-406.296	-47.882	-0.287	0.139
-405.282	33.315	0.201	-0.174
-404.267	154.003	0.205	0.282
-403.252	70.123	0.436	0.451
-402.238	800.000	0.080	-0.329
-401.223	422.253	0.097	0.209
-400.209	-102.997	-0.344	0.082
-399.194	-200.000	-0.027	0.178
-398.179	-65.863	0.027	-0.011
-397.165	111.801	0.348	-0.421
-396.150	114.447	-0.179	-0.219
-395.136	27.096	-0.317	-0.266
-394.121	-136.392	-0.241	-0.028
-393.106	-88.830	-0.144	0.043
-392.092	329.658	-0.079	0.152
-391.077	42.227	-0.193	-0.175
-390.063	-162.613	-0.056	-0.003
-389.048	39.899	0.115	-0.104
-388.033	437.581	0.085	0.186
-387.019	-22.900	0.253	0.152
-386.004	-171.684	-0.021	-0.001
-384.990	-53.670	0.211	0.096
-383.975	-20.769	0.372	-0.228
-382.960	-38.245	0.149	0.079
-381.946	-176.229	0.075	0.002
-380.931	-200.000	0.063	0.445
-379.917	56.807	0.330	0.321
-378.902	-12.592	0.171	0.112
-377.888	800.000	0.063	0.199
-376.873	85.738	0.154	0.169
-375.858	-200.000	0.100	0.000
-374.844	800.000	0.017	-0.061
-373.829	30.654	0.294	-0.252
-372.815	-79.499	0.142	-0.048
-371.800	-173.703	0.063	-0.002
-370.785	-77.720	0.230	0.080
-369.771	-61.940	-0.171	-0.072
-368.756	126.348	-0.102	-0.129
-367.742	324.334	-0.092	-0.176
-366.727	252.298	0.023	0.039
-365.712	130.760	-0.049	-0.063
-364.698	-11.997	0.264	0.173
-363.683	177.916	0.058	0.085
-362.669	13.125	0.154	0.119
-361.654	-188.885	-0.609	-0.007
-360.639	-27.012	-0.373	-0.217
-359.625	800.000	-0.086	-0.318
-358.610	-46.233	0.077	0.038
-357.596	404.855	-0.129	-0.272
-356.581	-107.920	0.117	-0.025
-355.566	-15.533	0.198	-0.126
-354.552	-135.662	0.277	-0.033
-353.537	-200.000	0.014	-0.091
-352.523	-98.517	0.063	-0.016
-351.508	-200.000	0.048	-0.406
-350.493	-41.923	-0.236	-0.121
-349.479	247.767	0.149	0.252
-348.464	-96.967	-0.099	0.026
-347.450	620.079	-0.079	0.199
-346.435	800.000	0.047	0.190
-345.420	800.000	0.077	-0.279
-344.406	54.543	-0.066	0.064
-343.391	-63.888	0.090	-0.037
-342.377	-170.247	0.215	-0.008
-341.362	-129.778	-0.117	0.016
-340.348	-45.463	-0.219	0.108
-339.333	-123.908	0.160	0.025
-338.318	-42.206	0.137	-0.070
-337.304	-200.000	0.008	-0.069
-336.289	-154.132	0.167	-0.011
-335.275	147.072	-0.189	0.254
-334.260	-170.366	-0.267	0.009
-333.245	-200.000	-0.046	0.241
-332.231	-23.710	-0.068	0.040
-331.216	136.539	-0.152	-0.198
-330.202	-77.524	-0.143	-0.050
-329.187	33.312	0.078	0.067
-328.172	206.937	0.093	-0.144
-327.158	19.097	-0.165	-0.132
-326.143	-103.552	0.430	-0.101
-325.129	158.164	0.069	0.096
-324.114	452.195	0.019	0.041
-323.099	-77.474	-0.077	-0.027
-322.085	-45.291	0.194	-0.096
-321.070	-200.000	-0.039	0.173
-320.056	404.919	-0.133	0.280
-319.041	-82.680	0.069	0.022
-318.026	-38.002	0.241	0.128
-317.012	-154.404	-0.265	0.018
-315.997	26.913	-0.108	0.090
-314.983	800.000	-0.055	-0.160
-313.968	47.945	-0.106	0.099
-312.953	-63.230	0.225	0.092
-311.939	800.000	0.085	-0.253
-310.924	-39.604	-0.149	0.078
-309.910	-89.648	-0.155	0.045
-308.895	472.938	-0.042	0.094
-307.880	800.000	0.026	-0.108
-306.866	-173.886	0.163	0.005
-305.851	800.000	-0.063	-0.186
-304.837	-114.154	0.218	0.042
-303.822	-23.432	-0.314	0.188
-302.807	-72.759	-0.329	0.121
-301.793	800.000	0.027	-0.081
-300.778	320.326	-0.241	0.456
-299.764	47.888	0.142	-0.133
-298.749	14.862	0.457	-0.357
-297.735	-158.058	0.375	0.022
-296.720	-0.657	0.162	0.114
-295.705	-69.811	0.150	-0.057
-294.691	-200.000	-0.003	-0.229
-293.676	-161.953	-0.245	-0.012
-292.662	203.280	0.082	-0.126
-291.647	-200.000	0.019	0.137
-290.632	-149.314	0.091	-0.007
-289.618	-29.403	0.061	0.035
-288.603	-86.814	-0.222	-0.068
-287.589	-87.353	0.157	-0.048
-286.574	-152.958	0.238	-0.017
-285.559	-108.140	0.255	0.055
-284.545	-81.512	0.263	-0.086
-283.530	718.661	-0.139	0.367
-282.516	-117.270	-0.045	0.008
-281.501	-143.901	-0.188	-0.018
-280.486	-62.708	-0.234	0.097
-279.472	-200.000	0.004	0.023
-278.457	33.095	0.144	0.124
-277.443	-76.695	-0.132	-0.046
-276.428	-90.548	0.160	0.046
-275.413	-69.610	0.175	0.067
-274.399	357.158	0.067	0.132
-273.384	138.474	-0.249	-0.326
-272.370	-200.000	-0.013	0.245
-271.355	800.000	0.072	0.226
-270.340	-200.000	0.013	0.444
-269.326	43.338	0.273	-0.249
-268.311	-151.319	0.173	0.013
-267.297	139.355	-0.116	0.152
-266.282	625.043	0.143	-0.360
-265.267	-200.000	-0.040	-0.275
-264.253	479.355	-0.144	0.324
-263.238	214.736	-0.135	-0.214
-262.224	-136.899	-0.182	-0.021
-261.209	230.459	-0.103	-0.168
-260.195	-20.003	0.025	0.015
-259.180	-200.000	0.045	-0.279
-258.165	-90.415	0.020	0.006
-257.151	257.721	-0.210	0.360
-256.136	-178.499	0.404	-0.009
-255.122	-200.000	-0.001	-0.333
-254.107	442.571	0.131	-0.286
-253.092	-200.000	-0.029	0.163
-252.078	729.778	-0.081	0.215
-251.063	-120.232	-0.354	-0.060
-250.049	-20.453	-0.306	-0.187
-249.034	800.000	0.059	0.243
-248.019	-78.418	-0.544	0.186
-247.005	21.111	-0.050	-0.040
-245.990	-25.370	0.287	-0.169
-244.976	162.822	-0.195	0.273
-243.961	-176.687	-0.191	-0.005
-242.946	-118.319	-0.196	0.035
-241.932	-200.000	-0.036	-0.309
-240.917	-51.283	0.416	-0.194
-239.903	-200.000	0.019	-0.341
-238.888	-83.589	0.132	0.042
-237.873	328.407	0.091	0.175
-236.859	32.728	-0.212	0.182
-235.844	81.319	-0.216	0.233
-234.830	540.152	-0.099	0.234
-233.815	553.602	0.042	0.100
-232.800	71.360	0.112	-0.116
-231.786	259.828	0.121	-0.209
-230.771	96.966	-0.286	0.326
-229.757	136.616	-0.119	0.154
-228.742	-200.000	-0.016	-0.111
-227.727	-155.378	-0.246	-0.016
-226.713	51.294	-0.076	-0.072
-225.698	-200.000	0.071	-0.548
-224.684	-72.268	0.371	-0.137
-223.669	-200.000	-0.011	0.162
-222.655	-103.371	0.079	0.019
-221.640	-200.000	-0.021	-0.231
-220.625	800.000	0.062	-0.239
-219.611	-122.820	-0.539	0.087
-218.596	561.269	-0.070	0.167
-217.582	-200.000	0.030	-0.197
-216.567	371.630	0.067	0.135
-215.552	144.000	-0.121	-0.161
-214.538	-65.218	0.229	0.092
-213.523	204.887	0.095	-0.146
-212.509	17.690	-0.206	-0.163
-211.494	17.128	0.150	-0.118
-210.479	-152.834	0.194	0.014
-209.465	-200.000	0.007	0.206
-208.450	-48.403	0.396	0.190
-207.436	-69.813	-0.129	0.049
-206.421	-200.000	0.100	0.506
-205.406	231.862	-0.077	0.125
-204.392	-60.741	0.258	-0.109
-203.377	-166.705	0.201	-0.008
-202.363	-88.782	-0.224	-0.066
-201.348	-46.919	0.240	-0.117
-200.333	-200.000	-0.024	0.163
-199.319	-200.000	0.060	-0.301
-198.304	176.608	-0.063	0.091
-197.290	-84.736	0.396	-0.124
-196.275	-25.316	-0.298	-0.175
-195.260	195.496	-0.036	-0.054
-194.246	-114.465	0.374	0.071
-193.231	-53.739	0.247	-0.112
-192.217	-174.778	-0.191	0.005
-191.202	-3.333	0.280	-0.194
-190.187	-55.899	-0.052	0.023
-189.173	9.960	0.123	-0.093
-188.158	37.432	-0.203	-0.179
-187.144	-124.337	-0.047	0.007
-186.129	-35.694	0.150	0.081
-185.114	174.906	-0.083	-0.120
-184.100	-200.000	-0.050	0.326
-183.085	-119.546	0.196	-0.034
-182.071	-90.313	-0.076	0.022
-181.056	-79.472	0.128	0.043
-180.042	2.068	0.202	0.145
-179.027	-74.081	-0.271	-0.098
-178.012	356.068	0.185	0.366
-176.998	404.731	-0.064	0.134
-175.983	-200.000	0.034	0.168
-174.969	-13.848	0.234	-0.150
-173.954	-42.721	0.222	-0.112
-172.939	167.620	0.142	-0.200
-171.925	-76.662	0.133	-0.046
-170.910	-35.601	-0.544	-0.293
-169.896	17.059	-0.041	0.033
-168.881	-200.000	0.012	0.260
-167.866	463.131	-0.133	-0.294
-166.852	637.658	-0.031	0.079
-165.837	243.407	-0.040	-0.066
-164.823	660.736	-0.137	0.350
-163.808	34.949	0.134	0.116
-162.793	-99.393	-0.165	-0.041
-161.779	-68.017	0.180	-0.070
-160.764	8.804	0.227	0.170
-159.750	-137.217	-0.139	-0.016
-158.735	-200.000	0.060	0.266
-157.720	-50.870	0.045	-0.021
-156.706	-116.390	-0.273	0.050
-155.691	-23.157	-0.087	-0.052
-154.677	800.000	0.058	-0.159
-153.662	300.405	-0.046	-0.084
-152.647	0.429	-0.284	-0.201
-151.633	800.000	-0.012	0.053
-150.618	800.000	0.061	0.203
-149.604	19.771	0.094	0.075
-148.589	-143.816	-0.532	0.050
-147.574	0.856	-0.188	-0.134
-146.560	-200.000	0.017	-0.197
-145.545	800.000	0.064	-0.276
-144.531	-60.304	-0.280	-0.118
-143.516	-68.481	-0.216	0.083
-142.502	-14.777	-0.280	-0.178
-141.487	55.097	-0.143	-0.137
-140.472	-65.897	0.204	0.081
-139.458	-54.206	0.309	0.139
-138.443	-200.000	-0.011	-0.341
-137.429	163.839	0.089	-0.124
-136.414	-38.107	0.220	0.116
-135.399	247.453	-0.072	0.121
-134.385	-30.416	0.329	-0.185
-133.370	-200.000	-0.002	-0.215
-132.356	-91.948	0.332	-0.093
-131.341	28.055	-0.189	0.158
-130.326	-200.000	0.004	-0.279
-129.312	480.760	-0.093	-0.209
-128.297	-106.771	-0.227	0.050
-127.283	-106.907	0.242	-0.053
-126.268	-60.012	0.273	-0.116
-125.253	358.402	-0.172	-0.340
-124.239	-91.461	-0.120	0.034
-123.224	800.000	-0.100	-0.373
-122.210	-99.537	0.145	0.036
