DTS Sentinel unit serial number:	SN413079Multiplexer serial number:	ORYXHardware model number:	OX4-SRSoftware version number:	ORYX F/W v4.00 Oryx Data Collector v3.7.2.0data status	okinstallation	princeton_trtdifferential loss correction	single-endedforward channel	channel 1reverse channel	N/Adate	2019/09/12time	18:03:34forward acquisition time	15.00reverse acquisition time	0.00gamma	496.2192k internal	0.2317k external	0.2317temperature offset calibration	1.0105default loss term (dB/km)	0.3790temperature slope calibration	1.0000multiplexer offset coefficient	1.0000multiplexer slope coefficient	1.0000fibre end	0.00T internal ref (°C)	33.75T ext. ref 1 (°C)	2.93T ext. ref 2 (°C)	28.15length (m)	temperature (°C)	Stokes	anti-Stokes-747.200	800.000	0.155	0.611
-746.185	46.049	-0.210	0.197
-745.171	147.298	0.858	-1.170
-744.156	-200.000	-0.131	1.119
-743.142	-200.000	-0.059	-0.313
-742.127	567.271	-0.289	-0.711
-741.112	-103.704	0.817	0.194
-740.098	270.810	-0.333	-0.593
-739.083	-137.416	0.232	0.027
-738.069	4.681	-0.361	0.268
-737.054	-200.000	0.102	0.590
-736.039	1.936	0.381	0.279
-735.025	800.000	-0.147	-0.456
-734.010	597.582	-0.150	0.377
-732.996	134.910	0.265	0.349
-731.981	195.854	0.267	-0.411
-730.966	-200.000	-0.003	-0.373
-729.952	114.316	0.278	0.343
-728.937	-77.942	-0.700	-0.244
-727.923	-178.984	-0.323	0.007
-726.908	267.267	0.203	-0.359
-725.894	-200.000	-0.053	-0.274
-724.879	51.599	-0.401	0.386
-723.864	69.706	-0.222	0.231
-722.850	-200.000	-0.020	0.239
-721.835	-141.412	-0.704	-0.072
-720.821	180.830	0.154	-0.229
-719.806	1.702	-0.729	-0.532
-718.791	-128.571	-1.161	-0.166
-717.777	40.598	0.320	-0.292
-716.762	800.000	0.234	0.693
-715.748	-68.445	-0.766	0.301
-714.733	-34.043	-0.854	0.475
-713.718	-131.714	0.760	-0.101
-712.704	-32.626	-0.534	0.301
-711.689	800.000	0.182	0.562
-710.675	317.352	0.302	0.578
-709.660	-61.788	-0.253	0.107
-708.645	-125.537	0.322	-0.050
-707.631	-200.000	0.048	-0.390
-706.616	417.754	-0.092	0.199
-705.602	-200.000	0.032	-0.352
-704.587	60.147	0.353	0.353
-703.572	-33.985	-0.452	0.252
-702.558	6.082	-0.158	0.118
-701.543	48.667	-0.177	-0.168
-700.529	-106.648	-0.536	-0.121
-699.514	13.011	0.582	-0.455
-698.499	800.000	-0.081	0.315
-697.485	-5.901	-0.996	-0.689
-696.470	78.267	-0.394	0.426
-695.456	-79.115	-0.811	-0.278
-694.441	474.453	-0.251	0.573
-693.426	-39.569	-0.425	-0.225
-692.412	-194.775	0.714	-0.006
-691.397	147.844	-0.208	0.284
-690.383	72.457	-0.038	-0.040
-689.368	-99.944	-0.715	-0.181
-688.354	-200.000	0.067	-0.418
-687.339	11.560	0.290	-0.225
-686.324	-81.391	-0.408	0.136
-685.310	777.849	-0.094	-0.260
-684.295	-195.065	-0.861	-0.007
-683.281	44.691	-0.166	0.154
-682.266	-200.000	0.055	-0.487
-681.251	800.000	-0.204	-0.780
-680.237	368.739	-0.260	-0.531
-679.222	-7.474	-0.650	0.444
-678.208	175.941	0.116	0.170
-677.193	223.556	0.248	0.404
-676.178	213.431	-0.349	-0.556
-675.164	-200.000	-0.075	0.458
-674.149	-33.188	-0.437	-0.245
-673.135	-22.481	0.856	0.523
-672.120	-200.000	0.161	-0.834
-671.105	-69.099	0.611	0.238
-670.091	-0.840	0.392	0.280
-669.076	-107.013	0.415	-0.093
-668.062	43.755	-0.884	-0.817
-667.047	-87.630	0.193	0.059
-666.032	-132.627	0.394	0.051
-665.018	-159.788	-0.431	0.024
-664.003	800.000	-0.112	-0.322
-662.989	-200.000	0.082	0.729
-661.974	-88.397	-0.411	0.124
-660.959	734.209	0.126	-0.341
-659.945	-185.126	-0.357	-0.006
-658.930	652.497	0.087	-0.225
-657.916	-1.577	-0.229	-0.163
-656.901	427.088	-0.069	-0.150
-655.886	800.000	-0.208	-0.590
-654.872	-58.061	-0.526	-0.232
-653.857	26.466	-0.341	-0.288
-652.843	-15.701	-0.466	-0.300
-651.828	324.051	0.328	-0.632
-650.814	-72.341	-0.927	-0.346
-649.799	800.000	0.055	-0.159
-648.784	-146.247	-0.207	-0.018
-647.770	118.402	-0.155	0.193
-646.755	312.597	-0.570	1.079
-645.741	373.636	0.109	0.224
-644.726	-200.000	0.117	-0.662
-643.711	800.000	-0.110	-0.380
-642.697	800.000	0.088	0.366
-641.682	129.706	0.498	-0.642
-640.668	-200.000	0.092	-0.593
-639.653	643.637	0.251	-0.645
-638.638	-128.427	0.875	-0.125
-637.624	6.281	-0.233	0.174
-636.609	103.437	0.327	0.387
-635.595	-27.816	-0.552	-0.323
-634.580	128.607	0.464	-0.596
-633.565	96.466	-0.459	-0.530
-632.551	-52.298	-0.447	-0.209
-631.536	-111.318	0.461	0.095
-630.522	31.177	0.539	0.466
-629.507	-200.000	-0.042	0.503
-628.492	86.493	-0.527	-0.586
-627.478	-192.779	0.260	0.002
-626.463	64.948	0.191	-0.194
-625.449	-170.998	-0.456	-0.016
-624.434	-109.163	-0.566	-0.121
-623.419	-200.000	-0.099	0.542
-622.405	209.486	-0.245	-0.388
-621.390	-19.740	0.327	-0.204
-620.376	19.637	-0.482	0.390
-619.361	-27.159	-0.204	0.120
-618.346	-200.000	0.053	-0.809
-617.332	711.463	0.253	-0.675
-616.317	-92.077	0.805	-0.229
-615.303	-200.000	0.034	0.322
-614.288	800.000	0.159	-0.469
-613.273	489.809	-0.253	0.582
-612.259	-113.221	-0.295	-0.058
-611.244	79.790	-0.179	0.194
-610.230	-200.000	0.123	0.983
-609.215	82.687	0.524	-0.573
-608.201	-200.000	-0.023	-0.314
-607.186	87.912	0.459	0.513
-606.171	17.921	-0.332	-0.266
-605.157	28.791	0.353	0.301
-604.142	-47.508	-0.593	-0.290
-603.128	268.730	0.192	-0.339
-602.113	145.346	-0.338	0.456
-601.098	242.157	-0.417	-0.702
-600.084	-171.426	-0.209	0.007
-599.069	-200.000	0.007	-0.392
-598.055	-134.269	-0.990	-0.123
-597.040	227.814	-0.068	0.111
-596.025	-28.032	0.717	-0.418
-595.011	346.773	-0.401	-0.794
-593.996	-52.586	-0.302	0.140
-592.982	315.304	-0.137	-0.260
-591.967	-72.542	-0.320	0.119
-590.952	-52.342	-0.570	-0.266
-589.938	-116.168	-0.294	-0.055
-588.923	768.575	0.024	0.065
-587.909	-200.000	-0.034	0.338
-586.894	101.411	0.355	0.416
-585.879	190.535	0.034	0.051
-584.865	-48.169	-0.589	-0.286
-583.850	286.264	-0.373	-0.677
-582.836	81.050	0.246	-0.268
-581.821	800.000	0.244	-0.701
-580.806	96.862	-0.268	0.309
-579.792	-179.824	-0.402	0.009
-578.777	-22.375	0.428	0.261
-577.763	-41.790	0.882	-0.455
-576.748	-82.299	0.514	-0.168
-575.733	612.948	0.098	-0.247
-574.719	108.333	-0.406	0.488
-573.704	178.275	-0.185	0.271
-572.690	-59.699	0.093	-0.040
-571.675	566.733	0.226	0.552
-570.661	-94.926	-0.296	0.081
-569.646	-49.723	-0.942	-0.451
-568.631	-20.330	0.596	0.369
-567.617	2.223	0.438	0.319
-566.602	-23.000	0.704	-0.427
-565.588	203.563	-0.175	-0.272
-564.573	-114.865	0.257	-0.049
-563.558	153.000	0.244	0.335
-562.544	19.450	0.428	-0.346
-561.529	128.191	-0.351	-0.449
-560.515	355.127	-0.185	-0.371
-559.500	231.178	-0.224	-0.368
-558.485	-102.785	-0.933	-0.223
-557.471	-180.717	-0.591	-0.012
-556.456	144.673	-0.702	-0.943
-555.442	-113.701	-0.682	-0.134
-554.427	78.015	0.291	0.312
-553.412	-21.603	-0.460	-0.282
-552.398	-156.511	0.585	-0.037
-551.383	-95.328	0.735	0.199
-550.369	-200.000	-0.072	0.427
-549.354	-83.474	0.557	-0.179
-548.339	-34.487	0.416	0.229
-547.325	603.501	-0.113	-0.283
-546.310	0.195	0.846	-0.606
-545.296	800.000	0.280	-0.805
-544.281	-79.850	-0.121	-0.041
-543.266	-151.002	0.867	-0.066
-542.252	562.677	0.193	-0.469
-541.237	117.702	-0.228	0.282
-540.223	-200.000	-0.044	-0.599
-539.208	87.272	-0.342	0.379
-538.193	527.150	-0.127	-0.300
-537.179	-200.000	0.004	0.455
-536.164	-15.594	-0.720	0.462
-535.150	28.507	0.335	-0.284
-534.135	-200.000	0.012	-0.192
-533.121	800.000	-0.342	1.412
-532.106	535.283	-0.054	0.128
-531.091	107.996	0.607	0.727
-530.077	48.610	-0.133	-0.125
-529.062	800.000	-0.031	-0.126
-528.048	642.252	0.241	-0.617
-527.033	800.000	-0.404	-1.323
-526.018	-200.000	0.032	0.966
-525.004	-200.000	0.208	-0.938
-523.989	55.412	0.298	-0.289
-522.975	-117.242	-0.505	-0.092
-521.960	-58.063	-0.336	0.147
-520.945	159.674	0.234	0.328
-519.931	-39.743	-0.450	-0.236
-518.916	-92.501	0.195	0.055
-517.902	2.542	0.369	-0.268
-516.887	800.000	0.173	-0.522
-515.872	-62.228	-0.231	0.097
-514.858	-77.596	0.257	-0.089
-513.843	-200.000	-0.127	1.148
-512.829	-149.222	0.401	0.032
-511.814	-50.592	0.975	-0.461
-510.799	-200.000	-0.029	0.257
-509.785	-84.764	0.332	-0.105
-508.770	-137.100	-0.354	0.041
-507.756	800.000	0.235	-0.664
-506.741	147.323	0.129	0.175
-505.726	-200.000	-0.082	1.428
-504.712	800.000	0.125	-0.513
-503.697	485.727	-0.208	0.476
-502.683	800.000	-0.147	0.452
-501.668	25.556	-0.434	0.362
-500.653	9.990	0.103	0.078
-499.639	256.450	-0.252	-0.434
-498.624	504.803	-0.228	-0.530
-497.610	-92.623	-0.286	-0.080
-496.595	445.396	0.380	0.838
-495.581	-49.286	0.671	-0.321
-494.566	295.834	-0.547	-1.005
-493.551	-55.846	-0.842	-0.377
-492.537	-164.015	-0.588	0.027
-491.522	292.292	0.362	0.661
-490.508	-95.164	-0.306	-0.083
-489.493	-200.000	0.055	-0.348
-488.478	-200.000	0.017	0.376
-487.464	-34.571	0.559	0.307
-486.449	344.155	0.008	-0.017
-485.435	-137.258	-0.348	-0.040
-484.420	-84.524	0.338	-0.107
-483.405	-200.000	-0.084	-0.568
-482.391	98.169	-0.529	0.610
-481.376	-163.524	0.343	0.016
-480.362	658.799	0.308	0.794
-479.347	-0.500	0.153	0.109
-478.332	231.659	0.187	-0.308
-477.318	66.207	0.203	-0.207
-476.303	-35.259	-0.541	0.295
-475.289	800.000	0.145	-0.603
-474.274	150.324	-0.170	-0.232
-473.259	288.178	-0.137	-0.248
-472.245	-200.000	0.043	0.494
-471.230	-156.414	-0.417	-0.026
-470.216	64.398	0.440	-0.444
-469.201	-41.385	-0.107	-0.055
-468.186	72.042	0.251	0.261
-467.172	226.621	-0.198	-0.322
-466.157	88.699	0.339	-0.378
-465.143	-71.227	0.527	-0.198
-464.128	-3.608	0.424	0.295
-463.113	800.000	-0.100	-0.349
-462.099	-121.595	-0.364	0.060
-461.084	-50.622	0.534	0.252
-460.070	-17.753	-0.364	0.229
-459.055	-15.720	0.336	-0.215
-458.040	168.848	0.189	0.271
-457.026	-31.071	-0.396	-0.224
-456.011	-27.846	0.285	0.165
-454.997	-141.911	0.233	0.023
-453.982	-13.121	-0.482	-0.314
-452.968	-90.029	0.501	0.146
-451.953	117.659	-0.108	0.133
-450.938	49.228	0.424	-0.399
-449.924	58.359	-0.833	-0.818
-448.909	-37.724	-0.274	-0.146
-447.895	-49.605	-0.466	-0.222
-446.880	-104.986	0.328	-0.075
-445.865	49.971	-0.299	-0.283
-444.851	-107.215	-0.356	0.079
-443.836	436.361	-0.215	-0.468
-442.822	34.396	-0.344	0.301
-441.807	57.185	0.298	-0.291
-440.792	-7.424	-0.441	-0.299
-439.778	-200.000	0.016	-0.797
-438.763	800.000	-0.260	0.777
-437.749	800.000	-0.272	0.870
-436.734	-151.945	-0.456	-0.033
-435.719	9.407	0.366	0.277
-434.705	11.092	0.138	-0.105
-433.690	-200.000	0.121	0.574
-432.676	-72.042	0.407	0.151
-431.661	1.908	-0.172	-0.124
-430.646	-84.032	0.670	0.213
-429.632	-24.830	-0.282	-0.168
-428.617	349.423	-0.239	-0.472
-427.603	28.222	0.444	0.375
-426.588	-200.000	0.088	0.716
-425.573	586.189	0.406	0.998
-424.559	23.856	-0.621	0.512
-423.544	800.000	-0.228	0.745
-422.530	800.000	0.146	-0.450
-421.515	-200.000	-0.069	0.451
-420.500	-200.000	0.100	-0.585
-419.486	-122.443	0.220	-0.036
-418.471	-200.000	0.034	-0.608
-417.457	304.401	0.384	0.712
-416.442	-68.682	-0.126	-0.049
-415.428	23.952	0.573	-0.472
-414.413	-46.257	0.574	0.282
-413.398	800.000	-0.299	-0.882
-412.384	-64.442	0.369	-0.150
-411.369	-55.724	-0.448	0.200
-410.355	-67.517	-0.428	0.168
-409.340	173.285	-0.638	0.920
-408.325	490.807	0.436	-0.998
-407.311	-103.427	0.290	0.068
-406.296	-94.110	0.269	0.074
-405.282	47.026	-0.227	-0.211
-404.267	595.703	0.176	0.435
-403.252	324.699	-0.291	0.556
-402.238	679.679	0.120	-0.313
-401.223	34.766	-0.618	-0.540
-400.209	402.289	-0.421	-0.884
-399.194	-63.967	-0.756	0.309
-398.179	-68.638	0.844	-0.327
-397.165	-200.000	-0.089	-0.662
-396.150	2.071	-0.852	0.615
-395.136	193.491	0.050	-0.075
-394.121	800.000	-0.231	0.674
-393.106	-200.000	-0.099	0.534
-392.092	690.414	-0.239	-0.624
-391.077	800.000	0.277	0.824
-390.063	670.367	-0.441	-1.141
-389.048	-200.000	-0.130	0.916
-388.033	164.439	0.106	0.149
-387.019	-40.611	0.477	0.247
-386.004	-200.000	0.053	0.457
-384.990	800.000	0.205	0.773
-383.975	-56.013	0.426	0.190
-382.960	-152.706	0.223	0.016
-381.946	-42.287	-0.819	-0.418
-380.931	-134.726	0.659	-0.080
-379.917	6.013	-0.532	0.394
-378.902	-92.990	0.719	-0.200
-377.888	800.000	0.087	0.287
-376.873	800.000	0.138	0.546
-375.858	71.146	-0.516	0.534
-374.844	800.000	-0.100	-0.278
-373.829	-57.413	-0.613	0.269
-372.815	341.394	0.293	-0.572
-371.800	85.783	-0.680	0.747
-370.785	-81.339	0.509	0.167
-369.771	-200.000	0.025	-0.134
-368.756	404.664	-0.234	0.491
-367.742	800.000	-0.151	0.435
-366.727	-85.219	-0.366	0.114
-365.712	-92.639	0.745	-0.208
-364.698	-141.942	0.193	-0.019
-363.683	-10.428	0.361	0.239
-362.669	800.000	0.112	-0.445
-361.654	-50.191	-0.903	-0.427
-360.639	122.053	-0.660	-0.822
-359.625	-57.065	0.792	0.348
-358.610	-105.944	1.549	0.348
-357.596	282.346	-0.333	-0.595
-356.581	682.341	-0.287	-0.747
-355.566	-85.897	1.017	0.314
-354.552	53.914	-0.198	-0.190
-353.537	-200.000	-0.038	0.223
-352.523	-200.000	-0.030	-0.630
-351.508	-179.504	0.349	0.008
-350.493	-162.756	0.473	0.023
-349.479	-8.649	0.576	0.385
-348.464	304.453	-0.219	-0.405
-347.450	32.471	0.196	0.169
-346.435	787.724	-0.268	-0.733
-345.420	-53.389	0.430	-0.196
-344.406	-126.312	-0.660	-0.098
-343.391	-200.000	-0.029	0.263
-342.377	-133.537	-0.337	-0.042
-341.362	-200.000	0.022	-1.103
-340.348	18.801	-0.128	0.102
-339.333	435.513	-0.235	-0.509
-338.318	-76.000	0.419	0.148
-337.304	764.651	0.347	-0.939
-336.289	267.563	0.217	0.378
-335.275	476.149	-0.191	0.430
-334.260	55.070	-0.623	-0.600
-333.245	51.309	-0.215	0.203
-332.231	-124.153	1.017	0.159
-331.216	-95.701	0.129	0.034
-330.202	-111.848	0.484	0.097
-329.187	800.000	0.218	0.672
-328.172	95.190	-0.476	-0.540
-327.158	-200.000	-0.086	0.516
-326.143	-42.855	0.347	0.176
-325.129	6.984	-0.339	-0.252
-324.114	0.085	-0.976	0.693
-323.099	-37.700	-0.134	0.071
-322.085	34.128	0.572	0.497
-321.070	279.469	-0.280	0.497
-320.056	-200.000	0.060	0.868
-319.041	125.820	-0.512	-0.644
-318.026	-114.501	1.035	-0.198
-317.012	-56.598	0.526	0.232
-315.997	-200.000	-0.048	0.250
-314.983	112.422	-0.113	0.136
-313.968	94.738	-0.471	-0.533
-312.953	-200.000	-0.127	0.586
-311.939	-94.905	0.535	-0.144
-310.924	21.763	-0.280	0.227
-309.910	-137.023	0.601	0.069
-308.895	469.431	0.368	0.824
-307.880	-175.792	0.025	-0.001
-306.866	-73.390	0.529	0.192
-305.851	800.000	0.048	0.138
-304.837	18.979	0.365	0.292
-303.822	-21.157	0.589	-0.358
-302.807	493.607	-0.060	-0.138
-301.793	41.352	0.210	-0.189
-300.778	-26.941	-0.483	0.281
-299.764	800.000	0.201	0.574
-298.749	-158.149	-0.555	-0.032
-297.735	18.256	-0.746	-0.592
-296.720	-200.000	0.000	0.150
-295.705	-67.573	0.884	-0.345
-294.691	333.823	0.538	-1.036
-293.676	489.154	-0.318	-0.723
-292.662	-164.528	-0.346	0.016
-291.647	-200.000	-0.062	-0.401
-290.632	-54.600	0.713	0.321
-289.618	781.329	0.150	0.408
-288.603	800.000	-0.226	-0.717
-287.589	33.236	-0.332	-0.287
-286.574	-35.447	-0.443	0.240
-285.559	800.000	-0.203	0.834
-284.545	70.278	0.400	0.411
-283.530	-117.741	0.268	0.048
-282.516	36.351	0.375	0.329
-281.501	455.472	0.307	0.678
-280.486	483.184	0.040	0.091
-279.472	137.084	-0.797	1.036
-278.457	503.528	0.142	0.327
-277.443	-112.171	0.577	0.115
-276.428	-60.924	-0.268	0.113
-275.413	85.390	-0.205	0.223
-274.399	15.001	-0.368	-0.287
-273.384	-200.000	-0.068	-0.318
-272.370	800.000	-0.055	0.162
-271.355	-106.371	0.622	0.138
-270.340	560.662	-0.170	0.408
-269.326	-48.170	-0.213	-0.102
-268.311	100.221	-0.600	0.692
-267.297	-111.484	0.080	-0.016
-266.282	53.428	-0.481	-0.458
-265.267	-139.932	-0.672	0.071
-264.253	800.000	-0.177	0.535
-263.238	751.518	-0.253	0.678
-262.224	418.271	-0.377	0.800
-261.209	-200.000	-0.107	0.594
-260.195	800.000	-0.069	0.229
-259.180	-46.082	0.295	-0.145
-258.165	-5.464	-0.079	0.054
-257.151	582.630	-0.311	0.757
-256.136	800.000	-0.193	-0.599
-255.122	743.823	-0.086	0.231
-254.107	-70.185	0.056	0.021
-253.092	-126.489	-0.387	-0.057
-252.078	-170.182	1.257	0.044
-251.063	800.000	-0.135	0.416
-250.049	42.436	0.577	0.521
-249.034	82.831	-0.584	-0.631
-248.019	-191.629	0.423	0.004
-247.005	49.544	0.349	-0.326
-245.990	-200.000	-0.081	0.605
-244.976	163.439	0.119	-0.167
-243.961	-200.000	-0.006	0.076
-242.946	-53.484	0.302	-0.137
-241.932	90.238	0.174	0.194
-240.917	81.847	0.277	0.297
-239.903	11.665	-0.334	0.255
-238.888	-91.752	0.937	-0.264
-237.873	8.277	0.977	-0.729
-236.859	-63.221	-0.305	-0.125
-235.844	-64.358	0.182	-0.074
-234.830	764.376	0.210	-0.566
-233.815	-200.000	-0.141	-0.987
-232.800	85.858	0.788	-0.861
-231.786	96.634	0.289	0.328
-230.771	-200.000	-0.122	1.213
-229.757	93.066	-0.466	-0.522
-228.742	-29.182	0.309	-0.176
-227.727	177.708	-0.185	0.267
-226.713	800.000	-0.265	-0.746
-225.698	13.237	0.078	0.060
-224.684	-95.185	-0.690	0.184
-223.669	44.851	-0.164	-0.150
-222.655	136.815	-0.303	0.393
-221.640	-200.000	-0.102	0.752
-220.625	34.586	-0.193	0.167
-219.611	31.850	0.220	-0.188
-218.596	291.360	-0.194	-0.351
-217.582	800.000	-0.126	0.521
-216.567	-132.687	0.240	-0.031
-215.552	5.712	0.373	-0.274
-214.538	497.093	0.197	-0.449
-213.523	223.994	0.482	-0.772
-212.509	57.645	0.283	-0.275
-211.494	-10.072	-0.350	0.231
-210.479	-85.943	-0.498	0.153
-209.465	211.350	0.331	-0.516
-208.450	-10.655	-0.679	-0.445
-207.436	75.163	-0.655	-0.685
-206.421	-92.283	0.459	0.128
-205.406	135.619	-0.627	-0.809
-204.392	-69.296	-0.340	0.130
-203.377	-200.000	0.049	-0.381
-202.363	-49.888	0.641	-0.302
-201.348	15.578	0.550	0.429
-200.333	105.539	-0.432	0.506
-199.319	-60.228	-0.353	-0.149
-198.304	63.327	-0.380	0.377
-197.290	355.243	-0.377	0.743
-196.275	-126.762	-0.551	0.081
-195.260	347.364	-0.509	0.994
-194.246	19.985	0.619	0.494
-193.231	-154.918	0.292	-0.019
-192.217	-200.000	0.033	0.254
-191.202	-30.790	-0.852	0.478
-190.187	-91.699	0.507	-0.143
-189.173	24.667	-0.542	-0.444
-188.158	800.000	0.103	-0.378
-187.144	274.069	0.017	-0.030
-186.129	800.000	0.095	-0.397
-185.114	250.819	0.258	0.434
-184.100	586.624	-0.296	0.722
-183.085	333.190	0.475	0.909
-182.071	-200.000	0.010	0.093
-181.056	-133.605	-0.413	-0.051
-180.042	118.014	-0.293	-0.358
-179.027	-200.000	0.051	0.390
-178.012	-113.732	-0.062	-0.012
-176.998	-111.668	-0.743	0.149
-175.983	-100.832	-0.332	0.081
-174.969	800.000	0.123	-0.403
-173.954	467.098	0.229	-0.509
-172.939	-200.000	0.027	-0.479
-171.925	-7.864	0.347	-0.232
-170.910	-200.000	0.088	0.505
-169.896	303.865	0.153	-0.280
-168.881	-109.725	-0.350	0.073
-167.866	39.720	-0.460	0.409
-166.852	-66.675	-0.099	-0.039
-165.837	61.996	0.274	-0.271
-164.823	-200.000	0.022	-0.116
-163.808	-200.000	-0.027	-0.140
-162.793	-168.066	-0.521	-0.020
-161.779	-23.572	0.335	-0.199
-160.764	800.000	0.010	0.031
-159.750	173.210	0.409	0.584
-158.735	-200.000	0.106	1.201
-157.720	-32.538	-0.104	-0.057
-156.706	-200.000	0.073	-0.557
-155.691	-88.942	0.557	0.163
-154.677	463.945	0.143	-0.317
-153.662	-200.000	-0.028	-0.346
-152.647	299.694	0.250	0.456
-151.633	-200.000	-0.035	0.394
-150.618	-122.552	-0.534	-0.086
-149.604	39.717	-0.310	0.275
-148.589	170.514	-0.065	-0.092
-147.574	312.728	-0.398	-0.739
-146.560	772.021	-0.053	-0.142
-145.545	-132.985	-0.576	0.072
-144.531	-58.261	0.506	0.218
-143.516	-200.000	-0.200	-0.874
-142.502	159.597	-0.620	-0.853
-141.487	-134.207	0.449	0.055
-140.472	-99.468	0.708	-0.176
-139.458	-80.236	0.539	0.178
-138.443	61.875	0.599	0.590
-137.429	316.833	0.518	-0.967
-136.414	735.725	-0.137	-0.362
-135.399	-73.174	0.389	-0.141
-134.385	17.510	-0.824	-0.648
-133.370	-71.869	-0.372	-0.137
-132.356	13.273	0.854	-0.654
-131.341	800.000	0.168	-0.486
-130.326	-115.105	0.607	-0.114
-129.312	-200.000	-0.141	0.732
-128.297	-200.000	0.159	-0.768
-127.283	246.856	0.196	0.326
-126.268	601.827	-0.085	0.208
-125.253	-81.075	-0.505	0.165
-124.239	17.007	0.283	-0.222
-123.224	133.688	0.190	-0.243
-122.210	417.872	0.238	-0.503
-121.195	-200.000	0.022	-0.178
-120.180	-128.397	0.102	0.014
