DTS Sentinel unit serial number:	SN413079Multiplexer serial number:	ORYXHardware model number:	OX4-SRSoftware version number:	ORYX F/W v4.00 Oryx Data Collector v3.7.2.0data status	okinstallation	princeton_trtdifferential loss correction	single-endedforward channel	channel 1reverse channel	N/Adate	2019/09/13time	15:30:35forward acquisition time	60.00reverse acquisition time	0.00gamma	496.2192k internal	0.2306k external	0.2306temperature offset calibration	1.0166default loss term (dB/km)	0.3790temperature slope calibration	1.0000multiplexer offset coefficient	1.0000multiplexer slope coefficient	1.0000fibre end	0.00T internal ref (°C)	35.12T ext. ref 1 (°C)	4.74T ext. ref 2 (°C)	29.62length (m)	temperature (°C)	Stokes	anti-Stokes-747.200	149.026	-0.047	0.064
-746.185	-36.729	-0.210	0.115
-745.171	-82.617	0.337	-0.111
-744.156	-34.787	0.184	0.102
-743.142	-94.144	-0.107	-0.030
-742.127	-20.844	0.075	-0.047
-741.112	476.086	-0.151	0.346
-740.098	-200.000	-0.003	-0.095
-739.083	29.722	-0.214	0.185
-738.069	800.000	-0.148	0.422
-737.054	-109.494	-0.292	0.063
-736.039	-161.073	-0.435	0.023
-735.025	800.000	-0.094	0.298
-734.010	-77.050	-0.045	-0.016
-732.996	-185.307	-0.220	0.003
-731.981	-200.000	-0.001	-0.086
-730.966	-166.705	-0.301	0.013
-729.952	-64.949	-0.207	-0.085
-728.937	800.000	0.044	0.147
-727.923	294.785	0.085	-0.159
-726.908	-133.893	-0.287	-0.036
-725.894	-93.966	0.147	0.041
-724.879	-112.558	0.267	0.054
-723.864	-74.874	-0.293	0.107
-722.850	16.406	-0.194	-0.155
-721.835	-200.000	-0.011	-0.255
-720.821	167.551	0.287	-0.415
-719.806	-171.439	-0.122	0.004
-718.791	800.000	-0.080	0.328
-717.777	5.265	-0.379	0.284
-716.762	8.403	-0.254	0.194
-715.748	-174.815	0.079	-0.002
-714.733	456.326	0.118	-0.267
-713.718	11.171	0.063	0.049
-712.704	800.000	0.048	-0.189
-711.689	142.477	0.247	0.334
-710.675	-200.000	-0.043	-0.210
-709.660	-200.000	-0.004	-0.050
-708.645	92.624	-0.189	-0.217
-707.631	-49.723	0.283	-0.137
-706.616	6.915	0.156	-0.118
-705.602	-101.878	-0.108	0.027
-704.587	-106.233	0.323	0.074
-703.572	-44.467	0.309	-0.157
-702.558	277.103	-0.089	-0.161
-701.543	-42.329	-0.201	-0.104
-700.529	241.566	-0.099	-0.168
-699.514	-22.459	-0.142	0.087
-698.499	-132.210	-0.278	0.037
-697.485	-175.568	0.128	0.004
-696.470	29.686	0.190	0.164
-695.456	395.924	-0.059	0.126
-694.441	509.223	0.033	-0.078
-693.426	-19.515	0.167	-0.105
-692.412	331.499	-0.083	-0.163
-691.397	-144.473	0.299	-0.028
-690.383	57.337	-0.199	0.197
-689.368	-15.778	-0.354	0.229
-688.354	85.661	0.095	-0.106
-687.339	-129.977	0.111	0.015
-686.324	-155.057	0.195	0.013
-685.310	-200.000	0.099	-0.482
-684.295	-119.134	-0.213	-0.038
-683.281	-200.000	-0.001	-0.054
-682.266	-200.000	0.019	0.089
-681.251	-62.959	-0.497	-0.209
-680.237	-175.801	0.433	0.012
-679.222	-54.438	0.051	0.023
-678.208	150.934	-0.228	-0.315
-677.193	-166.442	0.409	-0.017
-676.178	-200.000	0.034	-0.207
-675.164	-55.171	-0.166	-0.076
-674.149	-200.000	0.004	-0.064
-673.135	-39.119	0.192	0.103
-672.120	-62.729	0.221	0.093
-671.105	-45.872	-0.135	0.068
-670.091	207.745	-0.021	0.033
-669.076	-200.000	0.015	-0.370
-668.062	415.294	-0.140	0.304
-667.047	-148.997	0.280	-0.023
-666.032	800.000	-0.080	-0.340
-665.018	144.054	-0.079	-0.107
-664.003	-200.000	-0.016	0.199
-662.989	-179.146	-0.359	0.008
-661.974	-56.479	0.099	-0.044
-660.959	281.723	-0.003	0.005
-659.945	-49.978	-0.458	-0.220
-658.930	-102.168	-0.266	-0.065
-657.916	26.479	0.041	-0.035
-656.901	99.786	-0.162	0.190
-655.886	-153.584	-0.047	0.003
-654.872	180.553	-0.149	-0.222
-653.857	-10.163	0.293	0.197
-652.843	35.182	-0.173	-0.154
-651.828	-167.444	-0.242	0.010
-650.814	-112.908	-0.117	0.023
-649.799	-60.680	-0.357	0.153
-648.784	-200.000	-0.030	0.357
-647.770	507.025	0.128	0.301
-646.755	-69.969	-0.205	-0.079
-645.741	158.791	-0.076	-0.107
-644.726	38.337	0.223	0.202
-643.711	-49.546	0.178	0.086
-642.697	-38.839	-0.535	-0.286
-641.682	-104.098	-0.385	0.091
-640.668	-200.000	-0.006	-0.163
-639.653	-200.000	-0.042	0.208
-638.638	-47.531	-0.237	-0.117
-637.624	80.820	0.158	-0.173
-636.609	-139.054	0.485	-0.053
-635.595	25.808	0.100	0.084
-634.580	466.712	-0.184	0.417
-633.565	-10.588	-0.112	-0.075
-632.551	-1.803	0.149	-0.106
-631.536	226.384	-0.126	0.207
-630.522	800.000	-0.061	0.186
-629.507	46.393	-0.067	-0.063
-628.492	800.000	0.048	-0.153
-627.478	205.438	-0.033	0.051
-626.463	338.995	-0.055	-0.108
-625.449	-55.832	-0.230	-0.104
-624.434	486.526	-0.053	-0.122
-623.419	800.000	-0.056	0.181
-622.405	273.701	0.220	0.394
-621.390	800.000	-0.057	-0.204
-620.376	48.139	-0.059	0.056
-619.361	28.523	0.049	0.042
-618.346	-57.827	-0.156	0.069
-617.332	688.646	0.018	0.048
-616.317	227.744	0.227	0.374
-615.303	154.290	-0.133	0.185
-614.288	-100.252	0.133	0.033
-613.273	-44.558	-0.141	0.071
-612.259	-151.097	-0.090	-0.007
-611.244	-121.496	0.198	-0.033
-610.230	800.000	0.051	-0.166
-609.215	60.405	-0.100	0.101
-608.201	9.041	0.136	-0.104
-607.186	-74.806	-0.100	0.036
-606.171	800.000	0.027	-0.111
-605.157	-200.000	-0.007	0.053
-604.142	-200.000	-0.032	-0.312
-603.128	-200.000	-0.044	-0.367
-602.113	-21.478	-0.160	-0.099
-601.098	478.299	0.030	0.068
-600.084	-149.751	0.282	-0.022
-599.069	-200.000	-0.033	-0.379
-598.055	-200.000	0.006	-0.145
-597.040	-140.298	0.085	-0.009
-596.025	4.955	-0.379	-0.282
-595.011	-136.559	-0.047	0.006
-593.996	-200.000	0.009	-0.126
-592.982	26.381	0.154	0.131
-591.967	-200.000	-0.033	0.339
-590.952	227.955	-0.086	0.142
-589.938	-200.000	0.013	-0.190
-588.923	-98.990	-0.028	-0.007
-587.909	800.000	-0.106	-0.396
-586.894	-18.292	-0.047	-0.030
-585.879	18.655	0.064	0.052
-584.865	38.489	0.128	0.115
-583.850	84.793	0.241	-0.266
-582.836	-6.799	-0.277	-0.191
-581.821	256.121	-0.163	0.283
-580.806	-200.000	-0.042	0.329
-579.792	-37.379	0.245	0.132
-578.777	116.689	0.164	0.203
-577.763	146.491	0.077	0.104
-576.748	481.848	0.067	-0.154
-575.733	35.056	0.063	-0.056
-574.719	-200.000	0.027	0.230
-573.704	-80.380	0.254	-0.086
-572.690	-30.925	0.226	-0.129
-571.675	713.731	0.119	-0.320
-570.661	-83.114	0.257	0.084
-569.646	115.605	0.056	-0.070
-568.631	-51.706	0.070	0.033
-567.617	-56.191	-0.100	-0.045
-566.602	-3.353	-0.310	-0.218
-565.588	-57.394	0.215	-0.096
-564.573	-140.397	0.200	-0.021
-563.558	43.569	-0.289	-0.267
-562.544	800.000	0.083	-0.260
-561.529	48.663	0.155	0.147
-560.515	-200.000	-0.020	0.161
-559.500	-200.000	-0.017	0.137
-558.485	665.391	0.067	0.175
-557.471	-200.000	-0.053	-0.316
-556.456	-200.000	-0.004	0.134
-555.442	54.274	-0.188	0.183
-554.427	68.663	-0.089	-0.092
-553.412	345.623	-0.133	-0.264
-552.398	-38.487	-0.084	0.045
-551.383	49.995	0.120	0.114
-550.369	225.250	0.176	0.287
-549.354	556.113	-0.008	-0.018
-548.339	-81.492	0.181	0.060
-547.325	-200.000	0.012	0.336
-546.310	-58.244	0.139	0.061
-545.296	-200.000	-0.037	0.217
-544.281	3.534	0.225	-0.166
-543.266	-200.000	0.001	0.055
-542.252	14.385	0.282	-0.222
-541.237	-41.935	-0.236	0.122
-540.223	92.736	-0.178	0.203
-539.208	17.731	-0.213	-0.171
-538.193	-148.241	-0.398	0.033
-537.179	40.104	0.080	-0.072
-536.164	182.728	-0.065	0.097
-535.150	-46.529	-0.067	0.033
-534.135	-69.381	0.068	-0.026
-533.121	-139.816	0.094	0.010
-532.106	800.000	0.042	-0.119
-531.091	181.463	0.128	0.190
-530.077	-200.000	-0.037	0.304
-529.062	-61.298	-0.080	-0.034
-528.048	83.121	-0.161	0.177
-527.033	-55.343	0.165	-0.075
-526.018	-65.758	-0.357	-0.144
-525.004	150.907	-0.249	-0.341
-523.989	92.111	0.064	-0.073
-522.975	-91.186	0.111	0.032
-521.960	800.000	-0.017	-0.068
-520.945	-200.000	0.025	-0.178
-519.931	-18.826	-0.156	-0.098
-518.916	-68.391	0.201	0.079
-517.902	301.022	-0.163	-0.303
-516.887	119.959	0.075	-0.094
-515.872	9.647	-0.114	0.088
-514.858	-24.208	0.122	-0.073
-513.843	50.434	-0.209	0.200
-512.829	246.524	0.172	-0.292
-511.814	-5.522	0.304	-0.210
-510.799	26.595	-0.030	-0.026
-509.785	-200.000	0.015	-0.302
-508.770	-200.000	-0.083	-0.600
-507.756	-140.065	-0.151	-0.016
-506.741	-124.740	0.090	0.014
-505.726	511.525	-0.103	-0.241
-504.712	-144.224	0.123	-0.012
-503.697	-166.486	-0.480	0.020
-502.683	-200.000	-0.087	-0.498
-501.668	-200.000	0.013	-0.477
-500.653	5.637	0.128	-0.095
-499.639	-13.660	-0.133	0.087
-498.624	-101.639	0.077	-0.019
-497.610	12.485	0.127	-0.099
-496.595	-174.667	-0.129	0.004
-495.581	-89.608	0.146	-0.043
-494.566	-48.816	0.073	0.035
-493.551	-52.670	-0.277	0.129
-492.537	230.271	-0.161	-0.266
-491.522	-110.111	0.172	0.036
-490.508	-92.115	0.143	-0.041
-489.493	-200.000	-0.007	-0.182
-488.478	800.000	-0.051	-0.191
-487.464	-197.561	0.197	0.001
-486.449	6.401	-0.209	-0.156
-485.435	-179.952	-0.223	0.005
-484.420	800.000	0.091	0.258
-483.405	-162.006	-0.259	-0.013
-482.391	-200.000	0.037	-0.218
-481.376	-77.221	-0.158	-0.055
-480.362	54.914	0.132	-0.129
-479.347	800.000	0.118	-0.339
-478.332	380.700	-0.131	-0.271
-477.318	235.558	-0.127	0.212
-476.303	800.000	0.022	-0.066
-475.289	80.957	0.182	-0.197
-474.274	-76.116	-0.229	-0.081
-473.259	-98.454	-0.230	0.059
-472.245	-200.000	-0.030	-0.167
-471.230	210.028	-0.065	-0.102
-470.216	-200.000	-0.057	-0.310
-469.201	-200.000	-0.001	-0.091
-468.186	-200.000	-0.026	0.213
-467.172	-14.769	0.074	-0.048
-466.157	-23.633	0.242	0.146
-465.143	296.736	0.073	-0.136
-464.128	73.800	0.130	-0.137
-463.113	-87.364	-0.196	-0.060
-462.099	95.082	0.169	-0.194
-461.084	-75.015	-0.176	0.063
-460.070	-172.533	-0.216	-0.007
-459.055	469.487	-0.079	0.180
-458.040	323.611	0.088	-0.169
-457.026	167.168	0.040	-0.057
-456.011	145.788	0.035	0.047
-454.997	109.459	-0.101	0.122
-453.982	261.948	0.094	-0.164
-452.968	-111.890	-0.210	0.043
-451.953	323.140	0.098	0.187
-450.938	-66.073	0.193	0.077
-449.924	-29.078	0.219	0.127
-448.909	-200.000	0.003	0.158
-447.895	64.584	-0.050	0.051
-446.880	227.286	-0.114	0.187
-445.865	-100.285	-0.291	-0.073
-444.851	-200.000	-0.022	0.108
-443.836	137.563	-0.098	0.129
-442.822	122.933	-0.063	0.079
-441.807	-200.000	-0.001	0.064
-440.792	-74.113	-0.183	-0.067
-439.778	-200.000	-0.007	0.305
-438.763	-114.079	0.191	0.037
-437.749	800.000	-0.032	0.122
-436.734	-174.703	-0.033	0.001
-435.719	-200.000	-0.003	-0.357
-434.705	800.000	0.036	-0.105
-433.690	-124.132	0.140	0.022
-432.676	-200.000	-0.033	0.225
-431.661	-200.000	0.023	-0.132
-430.646	-200.000	0.033	-0.388
-429.632	-200.000	-0.010	0.174
-428.617	800.000	0.086	-0.266
-427.603	-200.000	0.010	-0.126
-426.588	741.759	0.052	0.140
-425.573	800.000	-0.039	0.112
-424.559	-47.487	0.150	-0.073
-423.544	-194.506	0.337	-0.003
-422.530	7.634	-0.209	0.157
-421.515	-118.577	0.308	-0.055
-420.500	342.412	0.083	-0.164
-419.486	40.531	-0.200	0.181
-418.471	-200.000	-0.037	0.201
-417.457	-155.490	0.130	0.008
-416.442	-133.108	-0.268	-0.034
-415.428	96.645	-0.187	0.215
-414.413	-142.242	0.440	0.044
-413.398	270.132	0.123	-0.217
-412.384	800.000	-0.059	-0.220
-411.369	-150.815	0.286	0.022
-410.355	-182.196	-0.259	-0.005
-409.340	139.368	0.022	0.029
-408.325	800.000	-0.042	-0.126
-407.311	31.963	-0.085	0.074
-406.296	19.165	0.129	-0.104
-405.282	458.082	0.137	-0.306
-404.267	110.050	-0.132	-0.159
-403.252	32.700	0.182	0.158
-402.238	366.876	-0.138	0.280
-401.223	800.000	-0.132	-0.369
-400.209	-138.359	0.226	-0.025
-399.194	800.000	-0.030	-0.110
-398.179	174.512	0.110	0.159
-397.165	-23.780	0.313	0.188
-396.150	-200.000	0.022	0.161
-395.136	-125.217	0.076	-0.012
-394.121	800.000	-0.034	0.141
-393.106	52.789	-0.541	-0.519
-392.092	800.000	-0.067	-0.245
-391.077	-200.000	-0.029	-0.210
-390.063	800.000	-0.050	0.164
-389.048	-92.698	-0.022	-0.006
-388.033	131.652	-0.191	0.246
-387.019	-58.161	0.206	0.090
-386.004	-200.000	0.026	0.160
-384.990	-67.157	0.174	0.069
-383.975	116.855	0.076	0.093
-382.960	-132.267	-0.256	0.033
-381.946	-200.000	0.023	-0.189
-380.931	449.958	0.073	0.162
-379.917	-61.264	-0.237	0.100
-378.902	-27.658	0.083	-0.049
-377.888	-12.191	0.335	0.220
-376.873	-41.295	-0.217	0.112
-375.858	19.147	-0.306	0.246
-374.844	72.168	-0.254	0.265
-373.829	-114.134	0.643	0.125
-372.815	395.376	0.044	-0.093
-371.800	14.765	0.095	-0.075
-370.785	-22.422	-0.157	-0.095
-369.771	-76.891	0.041	-0.014
-368.756	800.000	-0.070	0.198
-367.742	144.454	-0.118	-0.158
-366.727	-93.658	-0.357	-0.099
-365.712	31.215	-0.043	0.037
-364.698	-200.000	0.032	-0.216
-363.683	-200.000	-0.004	0.067
-362.669	800.000	-0.188	0.557
-361.654	297.082	-0.105	-0.193
-360.639	154.319	0.066	0.091
-359.625	-115.335	0.082	0.015
-358.610	29.872	-0.156	0.133
-357.596	491.478	0.110	-0.252
-356.581	98.901	0.019	-0.022
-355.566	40.755	0.254	0.229
-354.552	-200.000	0.011	0.415
-353.537	-200.000	-0.002	0.203
-352.523	121.183	0.260	0.325
-351.508	-33.599	-0.131	0.072
-350.493	24.288	0.182	-0.150
-349.479	49.136	0.130	-0.122
-348.464	31.601	-0.101	-0.087
-347.450	-200.000	-0.005	-0.063
-346.435	-82.074	-0.090	-0.029
-345.420	23.114	-0.184	0.151
-344.406	41.089	0.153	0.139
-343.391	332.650	-0.119	-0.230
-342.377	25.439	-0.078	0.065
-341.362	-200.000	-0.005	-0.293
-340.348	-144.386	-0.247	0.023
-339.333	236.068	-0.103	-0.170
-338.318	24.652	0.075	0.062
-337.304	74.775	-0.101	-0.106
-336.289	-200.000	-0.025	0.116
-335.275	96.639	-0.148	0.170
-334.260	78.368	0.034	0.036
-333.245	800.000	0.039	-0.141
-332.231	800.000	0.073	-0.312
-331.216	139.302	0.009	0.012
-330.202	59.336	0.180	-0.178
-329.187	-200.000	-0.083	-0.470
-328.172	-52.101	0.090	-0.042
-327.158	-1.228	-0.178	0.126
-326.143	-200.000	-0.041	0.187
-325.129	174.248	-0.136	-0.197
-324.114	20.416	-0.214	-0.173
-323.099	800.000	-0.009	0.026
-322.085	89.872	0.094	0.106
-321.070	1.647	0.154	-0.111
-320.056	233.854	-0.201	0.332
-319.041	-160.255	-0.152	0.008
-318.026	-200.000	-0.031	0.189
-317.012	-147.795	0.178	0.015
-315.997	5.790	-0.246	-0.182
-314.983	-54.375	0.113	0.051
-313.968	-200.000	-0.004	0.261
-312.953	-148.848	0.289	-0.023
-311.939	-200.000	-0.017	0.167
-310.924	-200.000	-0.025	-0.173
-309.910	-104.221	-0.120	-0.028
-308.895	1.235	-0.098	-0.070
-307.880	651.304	0.061	0.156
-306.866	477.620	-0.099	0.224
-305.851	-109.163	-0.625	0.133
-304.837	-133.064	-0.068	-0.009
-303.822	-200.000	0.018	0.209
-302.807	529.120	0.144	-0.340
-301.793	-200.000	0.056	0.246
-300.778	-17.704	0.080	-0.050
-299.764	138.367	-0.141	0.185
-298.749	-200.000	0.037	-0.173
-297.735	47.930	-0.238	-0.223
-296.720	800.000	-0.033	0.093
-295.705	-20.683	-0.206	0.126
-294.691	-124.945	0.162	0.025
-293.676	153.959	-0.121	-0.166
-292.662	93.313	-0.185	0.209
-291.647	153.698	0.047	0.065
-290.632	-102.094	0.381	0.092
-289.618	35.849	-0.286	-0.251
-288.603	-200.000	0.028	-0.193
-287.589	-29.766	-0.230	0.131
-286.574	-131.620	-0.182	0.024
-285.559	-96.344	-0.098	0.026
-284.545	-200.000	0.026	-0.253
-283.530	-158.527	0.156	0.009
-282.516	701.714	0.140	-0.367
-281.501	-200.000	0.014	0.118
-280.486	-162.175	-0.257	-0.013
-279.472	49.052	-0.128	-0.120
-278.457	406.579	0.091	-0.191
-277.443	800.000	-0.073	-0.215
-276.428	36.206	-0.163	0.144
-275.413	-27.430	-0.166	0.096
-274.399	-200.000	0.018	0.110
-273.384	115.849	0.021	0.025
-272.370	-56.224	-0.335	-0.149
-271.355	-200.000	-0.018	-0.084
-270.340	-50.325	-0.195	-0.092
-269.326	-57.473	0.156	-0.068
-268.311	-96.763	0.401	0.105
-267.297	800.000	-0.024	0.103
-266.282	-45.702	-0.127	-0.063
-265.267	-4.289	0.217	-0.150
-264.253	-46.823	0.164	-0.080
-263.238	557.146	0.060	-0.144
-262.224	240.572	0.132	0.221
-261.209	-51.877	0.213	-0.099
-260.195	-200.000	0.227	0.000
-259.180	-168.106	0.012	-0.000
-258.165	-148.010	-0.297	-0.025
-257.151	800.000	-0.083	0.321
-256.136	-200.000	0.040	-0.277
-255.122	121.746	-0.267	0.333
-254.107	-200.000	0.030	0.239
-253.092	259.015	-0.230	0.396
-252.078	800.000	-0.184	0.524
-251.063	131.205	0.204	0.261
-250.049	-26.070	0.128	0.075
-249.034	-109.973	-0.497	0.104
-248.019	-200.000	0.037	0.247
-247.005	-72.024	-0.138	-0.051
-245.990	800.000	0.071	0.274
-244.976	-88.585	-0.034	-0.010
-243.961	-162.533	-0.146	0.007
-242.946	-138.159	-0.277	0.031
-241.932	-90.546	0.236	-0.068
-240.917	111.642	0.206	-0.248
-239.903	181.290	-0.153	0.225
-238.888	613.348	0.112	0.280
-237.873	-43.613	0.367	-0.185
-236.859	-3.116	0.146	0.101
-235.844	-86.021	-0.154	0.048
-234.830	800.000	-0.048	0.188
-233.815	-172.534	0.159	-0.005
-232.800	110.915	-0.046	0.055
-231.786	800.000	0.075	-0.305
-230.771	-67.331	0.078	0.031
-229.757	-76.108	0.188	-0.066
-228.742	-81.795	-0.364	-0.119
-227.727	60.411	-0.015	-0.015
-226.713	-59.241	0.169	0.072
-225.698	800.000	-0.049	0.183
-224.684	-80.309	0.315	-0.105
-223.669	-3.438	0.058	0.040
-222.655	-41.690	0.239	-0.122
-221.640	-200.000	-0.008	-0.084
-220.625	402.603	-0.057	0.119
-219.611	800.000	0.023	-0.088
-218.596	27.669	0.185	-0.155
-217.582	243.292	-0.143	-0.239
-216.567	-22.999	-0.155	0.093
-215.552	-200.000	-0.013	-0.066
-214.538	302.311	0.124	0.229
-213.523	47.838	-0.155	-0.144
-212.509	-35.890	-0.184	0.099
-211.494	456.503	0.121	-0.268
-210.479	85.394	0.167	0.183
-209.465	-200.000	0.064	0.353
-208.450	88.539	0.108	-0.120
-207.436	146.806	0.012	-0.016
-206.421	129.831	0.190	-0.242
-205.406	-200.000	0.012	-0.090
-204.392	-121.339	-0.180	-0.030
-203.377	800.000	-0.028	-0.082
-202.363	196.829	-0.179	0.271
-201.348	-127.067	-0.300	-0.044
-200.333	-200.000	0.037	0.168
-199.319	17.705	0.248	-0.196
-198.304	221.115	0.110	0.176
-197.290	-84.348	0.239	0.075
-196.275	-200.000	-0.005	0.064
-195.260	164.323	-0.042	0.059
-194.246	-163.520	0.054	-0.003
-193.231	-200.000	-0.090	0.393
-192.217	39.640	0.218	0.194
-191.202	-148.654	0.342	-0.028
-190.187	-63.388	0.402	-0.165
-189.173	69.847	0.319	0.328
-188.158	800.000	-0.042	0.128
-187.144	67.328	0.036	-0.036
-186.129	-160.033	-0.184	-0.010
-185.114	11.717	0.169	-0.129
-184.100	26.880	0.148	0.124
-183.085	44.509	0.368	0.336
-182.071	-42.578	0.350	0.178
-181.056	-200.000	0.020	0.118
-180.042	144.220	0.087	-0.116
-179.027	83.524	-0.136	-0.148
-178.012	-200.000	-0.050	0.290
-176.998	96.202	0.036	0.041
-175.983	546.741	-0.039	0.093
-174.969	-59.102	0.174	-0.075
-173.954	-75.048	-0.177	-0.063
-172.939	5.345	0.280	0.206
-171.925	-120.935	0.114	-0.019
-170.910	671.301	-0.067	0.173
-169.896	-200.000	-0.002	0.201
-168.881	-112.284	0.473	0.094
-167.866	24.980	-0.100	0.083
-166.852	588.100	0.142	0.348
-165.837	166.085	0.152	-0.214
-164.823	29.398	-0.203	-0.171
-163.808	-91.834	-0.367	-0.104
-162.793	-109.707	0.155	0.032
-161.779	-140.580	0.255	-0.026
-160.764	-138.595	-0.093	0.010
-159.750	79.999	0.386	-0.412
-158.735	-91.990	-0.185	-0.052
-157.720	170.930	0.085	-0.121
-156.706	-200.000	0.181	-0.001
-155.691	10.491	-0.122	-0.092
-154.677	373.784	0.044	-0.089
-153.662	-200.000	0.045	0.351
-152.647	349.853	0.042	-0.083
-151.633	-41.200	0.205	-0.105
-150.618	-99.705	0.418	0.104
-149.604	156.152	-0.067	-0.092
-148.589	-162.799	-0.323	-0.016
-147.574	-109.122	-0.208	0.044
-146.560	88.752	-0.333	0.368
-145.545	54.823	0.131	0.126
-144.531	-58.817	-0.332	0.143
-143.516	-200.000	-0.036	0.204
-142.502	-51.830	0.420	0.194
-141.487	108.044	0.067	-0.079
-140.472	-150.925	-0.490	-0.037
-139.458	-144.584	0.128	0.012
-138.443	22.389	-0.236	0.192
-137.429	20.327	0.147	-0.118
-136.414	-8.721	-0.147	0.098
-135.399	-167.930	0.049	0.002
-134.385	83.450	-0.238	0.257
-133.370	46.138	-0.088	0.081
-132.356	800.000	0.128	0.430
-131.341	-200.000	0.093	-0.547
-130.326	-200.000	0.030	0.260
-129.312	-112.910	0.377	0.074
-128.297	-198.550	0.363	-0.002
-127.283	-200.000	-0.030	-0.215
-126.268	-200.000	-0.007	-0.275
-125.253	-59.158	0.192	0.082
-124.239	-192.827	0.152	0.001
-123.224	181.295	0.058	0.085
-122.210	-127.953	-0.256	0.037
-121.195	800.000	0.062	-0.199
