DTS Sentinel unit serial number:	SN413079Multiplexer serial number:	ORYXHardware model number:	OX4-SRSoftware version number:	ORYX F/W v4.00 Oryx Data Collector v3.7.2.0data status	okinstallation	princeton_trtdifferential loss correction	single-endedforward channel	channel 1reverse channel	N/Adate	2019/09/13time	21:30:35forward acquisition time	60.00reverse acquisition time	0.00gamma	496.2192k internal	0.2331k external	0.2331temperature offset calibration	1.0070default loss term (dB/km)	0.3790temperature slope calibration	1.0000multiplexer offset coefficient	1.0000multiplexer slope coefficient	1.0000fibre end	0.00T internal ref (°C)	28.25T ext. ref 1 (°C)	2.96T ext. ref 2 (°C)	22.91length (m)	temperature (°C)	Stokes	anti-Stokes-747.200	-200.000	0.010	-0.138
-746.185	800.000	0.076	0.305
-745.171	685.627	0.033	0.087
-744.156	-61.546	0.236	0.100
-743.142	-48.846	-0.417	0.201
-742.127	353.917	0.093	0.185
-741.112	-64.559	-0.257	0.105
-740.098	142.207	0.230	0.307
-739.083	766.303	-0.041	-0.111
-738.069	-58.289	0.247	0.108
-737.054	800.000	-0.028	0.114
-736.039	-147.121	-0.246	0.021
-735.025	-92.608	0.273	-0.077
-734.010	18.963	-0.161	-0.130
-732.996	30.008	-0.105	0.090
-731.981	-75.196	-0.426	0.153
-730.966	138.940	-0.219	-0.290
-729.952	118.158	0.115	0.143
-728.937	321.267	0.174	0.332
-727.923	-87.070	0.027	-0.008
-726.908	435.604	-0.105	-0.229
-725.894	800.000	0.018	0.072
-724.879	800.000	-0.007	0.020
-723.864	-45.452	-0.351	-0.175
-722.850	-17.178	-0.321	0.203
-721.835	-118.939	-0.277	-0.049
-720.821	-54.835	-0.103	0.047
-719.806	9.408	-0.222	-0.169
-718.791	90.957	-0.095	0.107
-717.777	-33.965	-0.221	0.123
-716.762	341.585	-0.128	-0.252
-715.748	-200.000	-0.010	0.201
-714.733	490.654	-0.101	-0.233
-713.718	-200.000	0.065	-0.404
-712.704	800.000	0.052	-0.223
-711.689	800.000	-0.086	0.240
-710.675	450.732	0.104	0.232
-709.660	-200.000	-0.043	0.211
-708.645	276.284	0.055	-0.097
-707.631	127.077	0.203	-0.259
-706.616	-10.258	-0.226	0.151
-705.602	-142.285	-0.398	0.040
-704.587	-113.296	-0.163	0.032
-703.572	-200.000	0.002	-0.310
-702.558	800.000	-0.049	0.137
-701.543	-68.499	0.093	0.036
-700.529	-161.479	-0.360	-0.019
-699.514	-151.623	0.317	-0.024
-698.499	71.656	0.053	-0.055
-697.485	-90.026	-0.198	-0.058
-696.470	-59.254	0.046	-0.020
-695.456	-200.000	0.066	-0.351
-694.441	99.777	-0.245	-0.285
-693.426	110.965	-0.158	-0.191
-692.412	-200.000	-0.100	0.678
-691.397	-145.807	-0.132	-0.012
-690.383	-200.000	0.011	-0.265
-689.368	-98.345	0.058	0.015
-688.354	8.758	-0.061	0.047
-687.339	-96.076	0.150	0.040
-686.324	35.057	-0.044	0.039
-685.310	221.781	-0.227	-0.366
-684.295	800.000	0.081	0.311
-683.281	800.000	0.029	-0.084
-682.266	-100.272	0.151	0.038
-681.251	444.271	-0.087	0.192
-680.237	-177.793	-0.249	0.006
-679.222	75.746	0.144	-0.153
-678.208	772.273	-0.063	-0.172
-677.193	-62.880	0.186	-0.077
-676.178	-36.427	0.039	-0.021
-675.164	3.525	-0.090	0.066
-674.149	-129.676	-0.227	0.031
-673.135	-200.000	-0.039	-0.254
-672.120	239.258	0.024	-0.040
-671.105	59.744	0.186	-0.184
-670.091	-142.489	0.310	0.031
-669.076	-200.000	0.031	0.217
-668.062	385.168	-0.127	0.262
-667.047	-200.000	-0.058	0.320
-666.032	607.435	0.090	0.225
-665.018	20.245	0.138	0.112
-664.003	63.287	0.042	-0.043
-662.989	-86.997	-0.105	0.032
-661.974	4.261	0.333	-0.245
-660.959	-75.422	0.032	0.011
-659.945	-159.990	-0.362	-0.020
-658.930	800.000	0.056	0.167
-657.916	41.351	0.197	0.179
-656.901	-200.000	-0.002	-0.140
-655.886	57.912	0.336	0.330
-654.872	800.000	-0.090	0.378
-653.857	341.437	-0.056	-0.109
-652.843	283.903	-0.052	0.093
-651.828	19.339	0.177	-0.143
-650.814	196.548	-0.086	0.132
-649.799	-126.493	0.155	-0.023
-648.784	26.742	-0.157	0.132
-647.770	462.181	-0.124	0.277
-646.755	-19.103	-0.092	0.057
-645.741	327.066	-0.017	0.033
-644.726	-128.354	-0.447	0.064
-643.711	21.972	0.200	0.164
-642.697	-200.000	-0.013	-0.142
-641.682	800.000	-0.098	-0.406
-640.668	-200.000	0.033	0.156
-639.653	-99.200	-0.313	-0.079
-638.638	378.078	0.069	0.141
-637.624	800.000	0.049	-0.170
-636.609	800.000	0.023	-0.089
-635.595	-78.725	-0.120	0.041
-634.580	-200.000	-0.027	-0.241
-633.565	800.000	0.015	0.057
-632.551	800.000	-0.207	0.597
-631.536	800.000	0.115	0.398
-630.522	-200.000	-0.038	0.290
-629.507	800.000	-0.014	-0.043
-628.492	742.881	-0.024	0.065
-627.478	80.060	0.232	-0.250
-626.463	-175.513	-0.269	0.007
-625.449	-79.092	0.046	-0.016
-624.434	-200.000	0.020	0.264
-623.419	800.000	0.026	0.100
-622.405	-38.359	0.323	0.172
-621.390	-96.487	0.373	0.099
-620.376	800.000	-0.053	0.203
-619.361	-200.000	0.016	-0.354
-618.346	-33.154	0.314	-0.174
-617.332	-112.829	0.155	0.031
-616.317	-101.186	0.131	-0.032
-615.303	-116.706	-0.418	0.077
-614.288	800.000	-0.107	-0.350
-613.273	-200.000	-0.017	-0.175
-612.259	498.343	-0.115	-0.265
-611.244	-67.469	-0.195	0.077
-610.230	-82.052	-0.127	-0.042
-609.215	-107.920	-0.247	0.054
-608.201	-117.063	-0.254	-0.046
-607.186	-200.000	0.013	0.161
-606.171	116.062	0.114	0.140
-605.157	-200.000	0.003	0.044
-604.142	52.436	-0.385	-0.368
-603.128	158.082	-0.035	-0.048
-602.113	371.521	0.107	-0.218
-601.098	93.017	-0.106	-0.119
-600.084	-121.050	0.244	-0.041
-599.069	800.000	-0.044	-0.186
-598.055	507.910	-0.112	-0.259
-597.040	-66.283	-0.274	0.109
-596.025	-15.815	0.182	-0.116
-595.011	-38.594	-0.194	-0.102
-593.996	-200.000	0.015	-0.067
-592.982	59.035	-0.159	-0.157
-591.967	234.881	0.102	0.168
-590.952	-28.882	0.278	0.160
-589.938	-53.045	-0.212	-0.097
-588.923	256.920	-0.061	-0.104
-587.909	3.229	-0.066	0.048
-586.894	-43.239	0.353	-0.179
-585.879	-4.056	0.241	-0.167
-584.865	-89.717	-0.060	-0.018
-583.850	-48.478	-0.251	0.121
-582.836	272.478	-0.072	-0.127
-581.821	-107.417	-0.294	0.065
-580.806	168.448	0.152	0.216
-579.792	209.867	0.043	0.068
-578.777	367.094	-0.096	0.195
-577.763	148.504	0.054	-0.073
-576.748	-94.638	0.182	-0.049
-575.733	-122.789	-0.118	-0.019
-574.719	-200.000	0.013	0.216
-573.704	53.390	0.033	0.032
-572.690	-200.000	0.008	0.056
-571.675	-200.000	-0.021	0.098
-570.661	-200.000	-0.005	0.415
-569.646	301.225	-0.222	0.409
-568.631	-75.199	0.046	0.016
-567.617	261.794	0.155	-0.268
-566.602	563.102	-0.054	-0.130
-565.588	35.673	0.021	-0.018
-564.573	-100.300	0.148	0.037
-563.558	193.346	0.064	0.097
-562.544	-200.000	-0.022	-0.278
-561.529	32.560	0.122	-0.105
-560.515	104.783	0.083	0.098
-559.500	-138.041	0.193	-0.021
-558.485	-132.832	0.230	-0.029
-557.471	-83.301	0.238	-0.076
-556.456	152.385	-0.138	-0.188
-555.442	-33.020	-0.103	0.057
-554.427	800.000	-0.040	0.119
-553.412	800.000	0.069	0.235
-552.398	-83.541	-0.125	0.040
-551.383	-85.480	0.121	0.038
-550.369	-155.001	-0.361	-0.024
-549.354	33.009	0.215	-0.186
-548.339	-144.559	-0.113	-0.010
-547.325	-163.737	-0.090	0.004
-546.310	-53.137	0.365	-0.168
-545.296	-200.000	-0.040	-0.197
-544.281	-37.034	-0.328	0.176
-543.266	-0.401	0.156	0.111
-542.252	-200.000	-0.026	-0.187
-541.237	800.000	0.038	0.133
-540.223	-15.960	0.167	-0.106
-539.208	102.250	-0.053	0.062
-538.193	-57.252	-0.248	-0.109
-537.179	89.373	0.032	-0.035
-536.164	800.000	0.062	-0.213
-535.150	55.988	-0.199	0.193
-534.135	-200.000	-0.002	-0.380
-533.121	2.645	-0.051	-0.037
-532.106	-200.000	0.000	-0.052
-531.091	26.381	0.503	-0.420
-530.077	800.000	0.092	-0.313
-529.062	-140.932	-0.318	-0.033
-528.048	-183.077	0.055	0.001
-527.033	224.322	0.056	-0.090
-526.018	25.311	0.162	0.134
-525.004	-61.082	0.279	0.117
-523.989	776.300	-0.132	-0.359
-522.975	97.533	-0.191	0.218
-521.960	-200.000	0.020	0.208
-520.945	192.409	-0.243	-0.365
-519.931	800.000	-0.153	0.455
-518.916	130.752	-0.126	-0.161
-517.902	-128.871	0.193	-0.027
-516.887	-200.000	-0.033	-0.231
-515.872	-52.909	0.018	0.008
-514.858	35.591	-0.191	-0.168
-513.843	138.935	-0.060	0.079
-512.829	480.548	0.140	0.316
-511.814	-83.743	0.128	0.041
-510.799	-114.643	-0.196	0.037
-509.785	-89.417	0.377	-0.111
-508.770	-77.396	-0.396	0.137
-507.756	-111.344	0.208	-0.042
-506.741	147.405	-0.200	0.269
-505.726	-59.336	0.265	-0.113
-504.712	93.810	-0.139	-0.158
-503.697	3.442	0.141	-0.103
-502.683	-82.344	-0.188	0.061
-501.668	85.473	-0.086	0.095
-500.653	42.367	-0.178	0.161
-499.639	-33.378	0.374	-0.206
-498.624	274.700	-0.197	-0.348
-497.610	-200.000	0.026	-0.234
-496.595	800.000	-0.077	0.287
-495.581	-200.000	0.012	-0.170
-494.566	-111.543	-0.329	0.067
-493.551	180.982	0.086	0.126
-492.537	-78.907	0.354	0.120
-491.522	800.000	-0.068	-0.214
-490.508	800.000	0.050	-0.202
-489.493	180.996	0.308	-0.451
-488.478	-108.605	0.117	0.025
-487.464	-64.880	-0.202	-0.082
-486.449	274.299	-0.141	0.249
-485.435	800.000	0.126	0.409
-484.420	274.742	0.104	-0.184
-483.405	-164.124	-0.053	0.002
-482.391	-23.374	-0.178	0.107
-481.376	-19.466	0.006	0.004
-480.362	-4.001	0.055	0.038
-479.347	132.287	-0.171	0.220
-478.332	-1.543	-0.050	-0.035
-477.318	-200.000	0.004	-0.099
-476.303	76.132	-0.086	-0.090
-475.289	-65.969	-0.182	-0.072
-474.274	106.652	-0.129	-0.153
-473.259	-200.000	0.005	0.170
-472.245	-49.350	0.156	-0.074
-471.230	470.321	-0.061	0.137
-470.216	44.034	0.236	-0.216
-469.201	800.000	0.031	0.101
-468.186	26.859	0.254	-0.212
-467.172	800.000	-0.075	-0.293
-466.157	-135.336	-0.287	0.034
-465.143	51.922	0.081	-0.077
-464.128	800.000	-0.090	0.312
-463.113	47.378	-0.370	0.343
-462.099	76.108	0.053	-0.056
-461.084	452.196	-0.034	-0.075
-460.070	800.000	0.095	-0.303
-459.055	-23.950	0.279	-0.166
-458.040	780.559	0.043	-0.118
-457.026	-44.549	0.144	0.071
-456.011	185.429	-0.220	0.325
-454.997	135.607	0.106	-0.137
-453.982	-200.000	-0.060	-0.478
-452.968	523.853	0.064	-0.150
-451.953	-200.000	0.003	-0.130
-450.938	-137.727	-0.402	-0.045
-449.924	200.821	-0.115	-0.176
-448.909	-138.931	-0.275	0.030
-447.895	148.983	0.129	-0.173
-446.880	-174.104	0.150	-0.004
-445.865	-200.000	0.030	0.175
-444.851	241.248	-0.032	0.053
-443.836	268.444	-0.223	-0.389
-442.822	48.873	-0.142	-0.133
-441.807	-200.000	0.023	0.111
-440.792	-200.000	0.040	-0.282
-439.778	-53.873	0.275	0.125
-438.763	800.000	-0.105	-0.414
-437.749	-59.450	0.158	-0.067
-436.734	-73.082	0.228	0.083
-435.719	258.286	-0.208	-0.356
-434.705	800.000	0.060	0.204
-433.690	-104.224	-0.038	-0.009
-432.676	-100.575	-0.254	-0.062
-431.661	-85.389	-0.277	0.086
-430.646	-90.516	-0.174	0.050
-429.632	-136.978	-0.192	0.022
-428.617	14.887	0.254	0.198
-427.603	51.738	-0.166	-0.157
-426.588	-200.000	-0.012	-0.404
-425.573	-200.000	0.016	0.211
-424.559	-137.718	-0.212	0.024
-423.544	31.962	0.032	0.028
-422.530	-16.800	-0.196	0.123
-421.515	680.040	-0.067	0.174
-420.500	202.923	0.045	0.070
-419.486	800.000	-0.089	0.266
-418.471	-140.631	0.484	0.050
-417.457	143.742	-0.059	-0.078
-416.442	543.263	0.052	0.122
-415.428	110.233	-0.099	-0.118
-414.413	800.000	0.036	-0.149
-413.398	7.239	0.231	0.171
-412.384	-200.000	0.060	0.285
-411.369	45.004	-0.136	-0.124
-410.355	117.602	-0.118	-0.145
-409.340	-106.048	0.208	-0.046
-408.325	-114.528	0.342	0.065
-407.311	-0.331	0.243	0.171
-406.296	800.000	-0.076	0.211
-405.282	-200.000	0.104	-0.615
-404.267	-200.000	-0.409	-0.001
-403.252	-83.840	-0.136	0.043
-402.238	-98.799	0.102	0.026
-401.223	-141.480	-0.193	0.019
-400.209	-118.965	0.071	0.012
-399.194	-93.773	0.204	0.056
-398.179	800.000	0.074	0.241
-397.165	57.962	-0.244	-0.237
-396.150	123.699	0.157	-0.195
-395.136	70.433	0.055	0.056
-394.121	184.954	-0.208	-0.306
-393.106	-200.000	0.025	0.143
-392.092	-34.824	-0.215	-0.117
-391.077	-124.986	-0.214	0.033
-390.063	-60.458	-0.261	0.110
-389.048	11.652	0.217	-0.165
-388.033	98.246	0.186	0.213
-387.019	-8.797	-0.082	-0.054
-386.004	-117.313	-0.214	0.039
-384.990	444.553	-0.078	-0.170
-383.975	800.000	0.088	-0.258
-382.960	-3.740	0.236	-0.163
-381.946	-92.243	-0.351	0.098
-380.931	234.620	0.228	0.373
-379.917	560.161	0.107	-0.255
-378.902	134.197	0.088	-0.113
-377.888	-109.530	0.070	-0.015
-376.873	-106.105	0.315	-0.070
-375.858	-18.243	-0.040	-0.025
-374.844	-142.452	0.365	-0.036
-373.829	800.000	0.053	-0.153
-372.815	63.187	-0.069	-0.069
-371.800	800.000	-0.094	0.301
-370.785	386.227	0.020	-0.042
-369.771	88.130	0.146	0.161
-368.756	-54.954	0.160	-0.072
-367.742	800.000	-0.075	0.293
-366.727	-161.241	0.223	0.011
-365.712	800.000	-0.023	-0.073
-364.698	800.000	-0.017	0.063
-363.683	-27.420	-0.061	-0.035
-362.669	292.194	-0.196	-0.353
-361.654	-200.000	-0.030	-0.154
-360.639	-36.917	-0.119	-0.063
-359.625	115.772	0.056	0.067
-358.610	15.950	0.176	0.138
-357.596	74.401	0.272	0.283
-356.581	-48.412	-0.220	0.105
-355.566	-200.000	0.013	0.153
-354.552	346.372	0.132	0.258
-353.537	743.481	-0.032	-0.086
-352.523	45.824	0.210	-0.192
-351.508	88.098	-0.293	0.322
-350.493	-27.982	-0.076	0.043
-349.479	-200.000	-0.016	-0.111
-348.464	321.582	0.180	-0.340
-347.450	-200.000	0.011	-0.085
-346.435	371.139	0.091	0.184
-345.420	800.000	-0.026	0.105
-344.406	127.354	-0.130	0.164
-343.391	357.279	-0.013	-0.025
-342.377	478.646	-0.151	-0.339
-341.362	-87.267	0.136	0.041
-340.348	-69.742	0.282	0.107
-339.333	63.566	0.061	-0.061
-338.318	-33.061	0.225	-0.123
-337.304	306.054	-0.107	0.196
-336.289	-81.956	0.087	0.028
-335.275	-200.000	0.017	-0.170
-334.260	-59.674	-0.223	-0.095
-333.245	-200.000	-0.026	0.249
-332.231	-200.000	-0.010	-0.502
-331.216	-200.000	0.018	-0.113
-330.202	800.000	-0.063	0.211
-329.187	592.118	-0.155	0.379
-328.172	-6.873	-0.078	0.052
-327.158	-158.528	0.149	-0.009
-326.143	-134.059	0.277	0.034
-325.129	481.651	0.176	0.395
-324.114	-40.168	0.151	-0.078
-323.099	-200.000	-0.447	0.001
-322.085	800.000	-0.029	-0.095
-321.070	-145.501	-0.430	-0.038
-320.056	59.428	0.072	-0.070
-319.041	448.176	-0.074	0.162
-318.026	-49.192	-0.097	-0.046
-317.012	-113.126	0.391	0.076
-315.997	3.847	-0.048	0.035
-314.983	-42.468	0.163	-0.082
-313.968	-76.516	-0.185	0.064
-312.953	-23.505	-0.243	0.144
-311.939	-173.915	-0.347	0.010
-310.924	-200.000	-0.035	0.245
-309.910	-158.752	-0.185	-0.010
-308.895	388.189	0.050	-0.102
-307.880	-103.829	0.139	-0.032
-306.866	476.618	-0.278	0.622
-305.851	545.007	-0.079	0.188
-304.837	800.000	0.024	0.075
-303.822	-144.200	0.187	-0.017
-302.807	-200.000	0.014	0.305
-301.793	-55.277	0.243	-0.108
-300.778	142.076	0.066	-0.087
-299.764	-62.252	-0.119	0.049
-298.749	-200.000	0.027	0.187
-297.735	226.933	0.240	0.386
-296.720	-200.000	0.030	-0.305
-295.705	-200.000	-0.018	-0.246
-294.691	-21.436	-0.153	0.093
-293.676	92.432	-0.183	0.204
-292.662	136.790	0.435	-0.562
-291.647	800.000	0.033	-0.098
-290.632	208.408	0.125	0.194
-289.618	172.810	-0.104	-0.149
-288.603	800.000	0.149	-0.475
-287.589	-200.000	0.018	-0.112
-286.574	-76.481	-0.093	0.032
-285.559	-200.000	0.047	0.226
-284.545	-121.651	-0.127	0.021
-283.530	187.337	0.053	-0.078
-282.516	-59.881	0.320	-0.135
-281.501	-83.843	0.047	0.015
-280.486	-55.753	0.033	0.014
-279.472	464.817	0.176	0.388
-278.457	-124.685	-0.194	-0.030
-277.443	432.395	0.092	0.198
-276.428	-3.599	-0.131	0.090
-275.413	-76.451	0.152	0.053
-274.399	20.420	-0.189	0.151
-273.384	-200.000	0.020	-0.119
-272.370	230.638	0.044	-0.071
-271.355	122.125	0.175	0.215
-270.340	-200.000	0.014	-0.197
-269.326	-68.683	-0.318	-0.122
-268.311	-0.253	0.018	0.013
-267.297	-10.847	0.075	0.049
-266.282	686.627	-0.037	-0.096
-265.267	-200.000	-0.049	0.219
-264.253	-50.229	0.315	-0.147
-263.238	-128.927	-0.199	0.028
-262.224	-107.423	-0.211	-0.046
-261.209	-96.370	-0.176	0.046
-260.195	22.203	-0.093	-0.075
-259.180	-200.000	-0.174	-0.000
-258.165	48.905	-0.331	0.306
-257.151	-42.022	-0.243	0.123
-256.136	104.619	-0.051	-0.059
-255.122	800.000	0.025	0.083
-254.107	680.888	-0.085	0.218
-253.092	-79.944	0.136	0.045
-252.078	-132.366	0.224	0.029
-251.063	161.726	0.133	0.184
-250.049	8.499	0.281	0.209
-249.034	-168.315	0.194	-0.007
-248.019	-61.792	0.303	0.125
-247.005	33.588	-0.071	0.061
-245.990	-200.000	0.025	-0.252
-244.976	-112.313	-0.224	-0.044
-243.961	-135.482	0.309	0.036
-242.946	-21.666	-0.152	-0.091
-241.932	-89.799	0.203	0.059
-240.917	4.630	-0.026	-0.019
-239.903	-49.312	0.323	0.152
-238.888	-1.373	-0.086	-0.060
-237.873	49.722	-0.169	0.157
-236.859	305.222	0.103	0.189
-235.844	-23.303	-0.206	-0.122
-234.830	-25.176	-0.011	-0.007
-233.815	63.260	-0.171	0.169
-232.800	800.000	0.076	0.226
-231.786	221.442	0.104	0.164
-230.771	800.000	-0.034	-0.138
-229.757	486.352	-0.078	-0.176
-228.742	-200.000	-0.033	0.142
-227.727	-200.000	0.034	-0.154
-226.713	466.839	-0.101	0.222
-225.698	800.000	0.059	0.201
-224.684	-21.991	0.346	0.208
-223.669	51.862	0.391	0.367
-222.655	-72.923	-0.179	0.065
-221.640	594.390	-0.082	-0.199
-220.625	-132.139	-0.098	-0.013
-219.611	800.000	-0.094	0.291
-218.596	459.988	-0.080	-0.176
-217.582	-176.593	-0.460	-0.012
-216.567	-161.368	0.184	0.009
-215.552	800.000	-0.064	-0.248
-214.538	212.234	-0.202	-0.314
-213.523	148.841	-0.227	-0.303
-212.509	-200.000	-0.015	0.349
-211.494	569.989	-0.087	-0.209
-210.479	68.044	0.149	0.151
-209.465	-28.776	0.324	0.184
-208.450	-40.549	0.188	0.096
-207.436	96.976	-0.138	-0.156
-206.421	96.136	-0.221	-0.249
-205.406	492.152	0.028	-0.062
-204.392	-1.035	0.253	0.176
-203.377	326.798	-0.237	-0.447
-202.363	98.875	-0.128	-0.145
-201.348	-31.161	0.206	-0.115
-200.333	14.072	0.064	0.049
-199.319	-200.000	-0.005	0.207
-198.304	-62.326	0.179	-0.073
-197.290	-97.294	0.132	0.034
-196.275	-200.000	0.007	-0.113
-195.260	213.345	0.073	-0.114
-194.246	-1.263	-0.219	0.153
-193.231	-138.321	-0.002	0.000
-192.217	-200.000	-0.037	-0.235
-191.202	-146.468	0.246	0.021
-190.187	167.774	0.158	0.222
-189.173	-191.482	0.216	-0.002
-188.158	800.000	0.018	0.073
-187.144	72.550	-0.061	-0.063
-186.129	33.818	-0.172	-0.147
-185.114	-64.520	-0.123	-0.049
-184.100	382.612	0.101	-0.204
-183.085	124.201	0.047	0.058
-182.071	-200.000	0.016	-0.157
-181.056	141.994	-0.063	-0.083
-180.042	329.054	-0.078	-0.147
-179.027	-200.000	0.017	-0.089
-178.012	-78.424	0.177	-0.060
-176.998	-200.000	0.032	0.211
-175.983	18.513	0.129	-0.101
-174.969	-115.884	-0.117	0.021
-173.954	108.567	0.167	0.196
-172.939	-134.960	0.252	0.030
-171.925	143.992	0.120	0.157
-170.910	-79.466	-0.147	-0.049
-169.896	-18.207	0.024	0.015
-168.881	-15.445	-0.244	-0.153
-167.866	534.062	0.126	0.294
-166.852	317.677	-0.117	0.218
-165.837	-75.381	0.152	0.053
-164.823	-200.000	0.005	-0.068
-163.808	800.000	0.056	0.219
-162.793	32.615	-0.107	0.091
-161.779	-83.620	0.116	-0.037
-160.764	-200.000	0.003	0.165
-159.750	800.000	0.084	0.343
-158.735	800.000	0.016	-0.058
-157.720	-104.909	0.211	0.048
-156.706	-185.375	-0.222	0.003
-155.691	39.196	0.124	0.109
-154.677	55.495	0.057	-0.054
-153.662	213.281	-0.001	-0.002
-152.647	-15.888	0.208	0.130
-151.633	-187.591	0.129	0.002
-150.618	249.705	0.055	-0.092
-149.604	-20.846	0.310	-0.187
-148.589	-69.645	0.241	0.091
-147.574	54.333	-0.139	-0.131
-146.560	-199.444	-0.100	-0.001
-145.545	-200.000	0.031	0.202
-144.531	137.124	0.086	-0.111
-143.516	-193.070	0.209	0.002
-142.502	-17.953	0.164	-0.101
-141.487	800.000	0.105	0.297
-140.472	43.361	0.050	-0.045
-139.458	21.370	-0.269	-0.215
-138.443	-200.000	-0.008	0.559
-137.429	-13.682	-0.050	-0.032
-136.414	381.715	0.072	0.145
-135.399	-23.520	-0.422	-0.249
-134.385	45.057	0.150	-0.135
-133.370	-105.252	-0.199	-0.045
-132.356	-3.531	-0.158	-0.108
-131.341	-200.000	-0.032	0.227
-130.326	48.377	-0.367	-0.338
-129.312	-200.000	0.024	0.277
-128.297	-200.000	-0.013	-0.238
-127.283	-200.000	0.024	-0.182
-126.268	-133.943	-0.270	-0.033
-125.253	-114.704	0.162	-0.030
-124.239	53.908	0.197	-0.186
-123.224	63.866	0.174	-0.172
-122.210	629.168	0.138	0.342
-121.195	-200.000	0.003	0.238
-120.180	61.364	-0.080	-0.078
