DTS Sentinel unit serial number:	SN413079Multiplexer serial number:	ORYXHardware model number:	OX4-SRSoftware version number:	ORYX F/W v4.00 Oryx Data Collector v3.7.2.0data status	okinstallation	princeton_trtdifferential loss correction	single-endedforward channel	channel 1reverse channel	N/Adate	2019/09/19time	02:06:35forward acquisition time	60.00reverse acquisition time	0.00gamma	496.2192k internal	0.2344k external	0.2344temperature offset calibration	1.0022default loss term (dB/km)	0.3790temperature slope calibration	1.0000multiplexer offset coefficient	1.0000multiplexer slope coefficient	1.0000fibre end	0.00T internal ref (°C)	21.19T ext. ref 1 (°C)	0.68T ext. ref 2 (°C)	14.83length (m)	temperature (°C)	Stokes	anti-Stokes-747.200	-49.566	0.156	0.074
-746.185	14.866	0.256	0.201
-745.171	-200.000	0.043	0.227
-744.156	123.442	0.079	-0.099
-743.142	-12.542	0.083	-0.054
-742.127	93.392	0.098	0.111
-741.112	-103.311	-0.215	0.051
-740.098	134.834	-0.098	-0.128
-739.083	-49.476	0.219	0.104
-738.069	784.458	-0.067	-0.184
-737.054	116.864	-0.170	0.209
-736.039	-71.876	-0.416	-0.155
-735.025	253.235	0.196	0.335
-734.010	-47.740	-0.258	-0.125
-732.996	-118.258	-0.157	0.028
-731.981	800.000	0.081	-0.270
-730.966	-29.906	-0.123	0.070
-729.952	-161.725	-0.501	0.026
-728.937	106.008	-0.104	0.124
-727.923	-39.755	-0.227	0.119
-726.908	127.898	-0.054	0.069
-725.894	-116.601	0.191	-0.035
-724.879	274.038	0.120	0.212
-723.864	-54.290	-0.096	0.044
-722.850	579.721	0.176	0.432
-721.835	800.000	0.132	-0.390
-720.821	-74.989	-0.230	0.082
-719.806	-12.702	-0.235	0.153
-718.791	580.295	-0.185	0.453
-717.777	800.000	0.056	-0.211
-716.762	-131.795	0.193	-0.025
-715.748	-124.485	-0.214	0.033
-714.733	-82.052	0.199	-0.065
-713.718	264.937	0.229	-0.399
-712.704	800.000	-0.079	0.264
-711.689	-195.607	0.158	-0.001
-710.675	-82.299	0.117	0.038
-709.660	800.000	0.119	0.346
-708.645	800.000	-0.092	-0.266
-707.631	-44.473	-0.102	-0.051
-706.616	-118.011	0.124	0.022
-705.602	-132.995	-0.368	-0.047
-704.587	1.068	0.133	0.095
-703.572	-34.263	-0.136	0.075
-702.558	800.000	0.074	0.249
-701.543	-170.639	-0.179	-0.006
-700.529	359.221	-0.157	-0.314
-699.514	68.900	0.085	-0.087
-698.499	-90.605	0.112	-0.032
-697.485	309.579	-0.142	0.266
-696.470	-62.154	-0.051	-0.021
-695.456	-200.000	0.019	-0.111
-694.441	449.400	-0.029	-0.064
-693.426	109.581	-0.127	-0.153
-692.412	-45.040	0.226	0.113
-691.397	9.518	-0.109	-0.082
-690.383	151.961	0.044	0.060
-689.368	120.442	0.090	0.112
-688.354	-200.000	0.016	0.112
-687.339	150.425	-0.081	0.110
-686.324	-200.000	0.029	0.215
-685.310	69.137	0.037	0.038
-684.295	345.301	-0.090	-0.177
-683.281	41.130	-0.160	-0.145
-682.266	60.467	-0.264	-0.261
-681.251	-200.000	0.035	0.284
-680.237	-200.000	0.015	-0.424
-679.222	-23.400	0.174	0.105
-678.208	-111.113	0.323	-0.066
-677.193	-72.204	0.214	-0.079
-676.178	-52.539	0.213	-0.098
-675.164	131.457	-0.069	0.088
-674.149	673.009	-0.115	0.298
-673.135	-200.000	-0.023	-0.409
-672.120	457.110	-0.067	0.149
-671.105	117.244	0.190	-0.233
-670.091	-200.000	0.001	-0.017
-669.076	-200.000	-0.029	0.204
-668.062	-200.000	0.023	-0.235
-667.047	-23.770	-0.171	-0.102
-666.032	55.615	-0.192	-0.185
-665.018	-24.594	0.214	-0.127
-664.003	-85.260	-0.361	-0.113
-662.989	800.000	-0.031	0.091
-661.974	-83.140	-0.234	0.075
-660.959	34.203	-0.031	0.027
-659.945	-89.845	0.197	-0.057
-658.930	800.000	-0.076	0.285
-657.916	194.274	-0.094	0.142
-656.901	13.782	-0.199	-0.154
-655.886	177.776	-0.061	-0.089
-654.872	309.199	-0.215	0.400
-653.857	800.000	0.010	0.044
-652.843	613.512	0.127	-0.316
-651.828	800.000	-0.117	-0.329
-650.814	-111.091	-0.263	0.054
-649.799	96.898	-0.203	-0.232
-648.784	166.657	-0.074	0.104
-647.770	-200.000	-0.051	-0.329
-646.755	484.928	0.055	-0.124
-645.741	-200.000	-0.034	-0.151
-644.726	-144.132	-0.060	-0.006
-643.711	193.572	0.056	0.085
-642.697	-57.578	0.288	0.126
-641.682	-150.919	-0.352	0.027
-640.668	800.000	0.160	-0.505
-639.653	-74.679	-0.179	-0.064
-638.638	-136.783	0.358	-0.041
-637.624	-200.000	-0.064	0.368
-636.609	-31.519	0.069	-0.039
-635.595	-200.000	0.020	0.136
-634.580	-39.965	0.055	-0.029
-633.565	-102.348	0.114	-0.027
-632.551	-200.000	0.032	0.252
-631.536	-168.039	-0.210	-0.008
-630.522	-200.000	-0.051	-0.302
-629.507	-200.000	0.021	0.108
-628.492	-86.884	0.351	0.107
-627.478	-200.000	-0.052	-0.473
-626.463	-34.401	0.195	0.107
-625.449	800.000	0.123	-0.349
-624.434	330.218	-0.139	-0.267
-623.419	800.000	0.041	-0.149
-622.405	800.000	0.165	0.459
-621.390	22.165	-0.150	0.122
-620.376	716.304	-0.087	0.231
-619.361	309.910	0.084	-0.157
-618.346	310.096	0.134	-0.249
-617.332	-64.884	-0.039	-0.016
-616.317	-61.980	-0.322	0.134
-615.303	195.128	-0.103	0.156
-614.288	-200.000	0.008	0.117
-613.273	-73.800	0.083	0.030
-612.259	18.435	-0.204	-0.163
-611.244	-85.518	-0.417	0.129
-610.230	-41.155	-0.177	-0.091
-609.215	250.473	-0.114	0.193
-608.201	232.677	0.097	0.158
-607.186	-115.542	-0.421	-0.079
-606.171	78.001	0.154	-0.164
-605.157	0.700	-0.171	-0.122
-604.142	49.944	-0.208	-0.196
-603.128	800.000	-0.048	0.133
-602.113	-5.043	0.231	-0.159
-601.098	385.141	-0.064	0.131
-600.084	-134.151	0.200	-0.025
-599.069	-200.000	-0.061	-0.331
-598.055	-89.863	-0.083	-0.024
-597.040	800.000	-0.140	-0.411
-596.025	311.082	0.142	0.264
-595.011	-200.000	-0.018	-0.138
-593.996	-85.053	0.225	-0.070
-592.982	-200.000	0.014	0.188
-591.967	477.607	0.243	0.546
-590.952	-54.302	0.465	0.210
-589.938	91.038	-0.098	0.110
-588.923	112.154	0.099	-0.119
-587.909	-112.547	0.204	-0.040
-586.894	-147.091	0.274	0.023
-585.879	800.000	-0.093	-0.309
-584.865	79.443	0.138	-0.147
-583.850	170.032	-0.146	-0.208
-582.836	32.999	-0.100	-0.086
-581.821	67.800	-0.291	0.296
-580.806	-168.924	0.096	-0.004
-579.792	800.000	-0.078	0.326
-578.777	226.038	-0.173	0.279
-577.763	-200.000	-0.026	0.166
-576.748	710.936	0.151	-0.398
-575.733	-68.022	-0.214	-0.083
-574.719	-86.537	-0.541	0.165
-573.704	-106.964	-0.187	0.041
-572.690	-73.752	-0.221	-0.080
-571.675	-150.122	-0.139	0.011
-570.661	800.000	-0.051	0.191
-569.646	181.952	0.065	-0.095
-568.631	-0.326	0.290	0.205
-567.617	420.926	0.238	0.507
-566.602	-200.000	-0.037	-0.248
-565.588	161.671	-0.105	-0.146
-564.573	-200.000	-0.048	-0.330
-563.558	-200.000	0.009	-0.118
-562.544	627.003	0.113	-0.282
-561.529	-200.000	0.006	0.192
-560.515	-67.803	-0.428	0.166
-559.500	-73.932	-0.242	-0.087
-558.485	-79.405	-0.028	0.009
-557.471	128.616	-0.138	-0.175
-556.456	-20.987	-0.187	-0.114
-555.442	342.810	-0.073	-0.142
-554.427	508.220	-0.189	0.435
-553.412	59.879	-0.197	0.193
-552.398	230.865	0.128	0.208
-551.383	-200.000	0.026	-0.229
-550.369	163.406	0.066	-0.092
-549.354	-80.531	0.129	0.043
-548.339	182.750	-0.194	0.284
-547.325	-4.526	-0.223	0.153
-546.310	326.510	0.155	0.294
-545.296	-35.459	-0.147	0.079
-544.281	-200.000	0.065	-0.365
-543.266	800.000	-0.096	-0.303
-542.252	-97.438	0.138	0.036
-541.237	-153.962	0.111	-0.008
-540.223	-65.311	-0.299	-0.119
-539.208	333.710	0.056	0.108
-538.193	-17.627	0.113	0.071
-537.179	-200.000	-0.015	0.163
-536.164	800.000	0.079	-0.228
-535.150	-109.777	0.198	0.041
-534.135	-91.186	-0.295	-0.084
-533.121	24.742	0.213	-0.175
-532.106	-200.000	0.025	0.185
-531.091	149.744	-0.096	0.129
-530.077	-74.748	0.171	-0.061
-529.062	-95.185	-0.381	0.102
-528.048	-99.422	-0.156	-0.039
-527.033	-200.000	0.001	-0.550
-526.018	-134.109	-0.150	0.018
-525.004	355.278	-0.101	0.199
-523.989	-200.000	-0.005	0.183
-522.975	106.241	0.234	-0.275
-521.960	-200.000	0.032	0.432
-520.945	-165.184	0.266	-0.012
-519.931	177.039	0.121	-0.174
-518.916	-82.057	-0.196	-0.063
-517.902	-58.621	0.161	0.069
-516.887	800.000	0.014	0.041
-515.872	176.313	0.028	-0.040
-514.858	-32.400	0.217	-0.120
-513.843	-149.563	-0.208	0.016
-512.829	-11.418	0.071	-0.047
-511.814	1.089	-0.056	-0.040
-510.799	1.882	0.168	0.120
-509.785	-100.846	-0.089	0.022
-508.770	-119.206	-0.183	0.032
-507.756	14.520	-0.241	0.187
-506.741	-34.334	0.096	0.052
-505.726	-200.000	0.015	-0.103
-504.712	-200.000	0.027	0.144
-503.697	-200.000	0.021	-0.196
-502.683	-142.813	-0.072	-0.007
-501.668	-95.820	0.106	0.028
-500.653	-10.500	-0.418	-0.274
-499.639	-106.141	-0.049	0.011
-498.624	-200.000	0.016	-0.221
-497.610	408.805	0.075	-0.157
-496.595	-42.478	0.412	-0.208
-495.581	-135.353	0.161	0.019
-494.566	-200.000	-0.058	-0.414
-493.551	20.512	0.264	-0.212
-492.537	62.626	-0.098	0.097
-491.522	494.503	-0.140	0.319
-490.508	800.000	0.013	0.044
-489.493	-30.977	-0.194	-0.109
-488.478	-200.000	-0.006	-0.033
-487.464	-2.073	-0.120	0.083
-486.449	-200.000	-0.035	0.248
-485.435	120.546	0.166	0.205
-484.420	800.000	-0.062	-0.218
-483.405	39.860	-0.263	-0.234
-482.391	-173.313	0.112	-0.003
-481.376	-48.447	-0.359	0.171
-480.362	204.002	0.040	0.062
-479.347	-200.000	-0.055	0.280
-478.332	-67.351	0.087	0.034
-477.318	-29.665	0.130	0.074
-476.303	800.000	-0.100	-0.331
-475.289	19.216	0.160	-0.128
-474.274	433.218	-0.010	0.022
-473.259	218.170	-0.211	-0.333
-472.245	-120.920	0.079	0.013
-471.230	-200.000	-0.022	0.200
-470.216	-200.000	0.025	-0.177
-469.201	69.044	-0.074	-0.075
-468.186	-16.494	-0.135	0.085
-467.172	-75.863	0.134	0.047
-466.157	800.000	-0.061	-0.200
-465.143	-79.945	0.125	0.042
-464.128	157.146	-0.036	-0.049
-463.113	193.146	-0.040	0.059
-462.099	800.000	0.029	-0.125
-461.084	439.663	0.093	0.200
-460.070	22.617	-0.207	-0.168
-459.055	94.728	0.130	0.146
-458.040	697.872	-0.085	-0.221
-457.026	-200.000	-0.040	-0.386
-456.011	-199.017	-0.324	-0.002
-454.997	13.942	0.257	0.198
-453.982	-38.095	-0.059	0.031
-452.968	249.491	0.062	0.103
-451.953	800.000	0.037	0.158
-450.938	420.895	0.028	-0.058
-449.924	800.000	0.147	-0.404
-448.909	71.091	0.122	0.125
-447.895	647.694	-0.080	0.203
-446.880	-56.900	-0.129	0.056
-445.865	-200.000	-0.002	0.027
-444.851	-200.000	0.012	0.165
-443.836	130.237	0.173	-0.220
-442.822	149.296	-0.088	-0.118
-441.807	-200.000	-0.056	0.291
-440.792	-137.458	-0.243	-0.027
-439.778	-144.760	-0.133	0.012
-438.763	436.692	-0.003	-0.007
-437.749	-187.875	-0.107	0.001
-436.734	-49.846	-0.199	0.093
-435.719	45.246	0.098	-0.089
-434.705	148.265	0.295	0.393
-433.690	-84.015	-0.143	-0.045
-432.676	-200.000	-0.002	-0.077
-431.661	166.351	-0.038	-0.053
-430.646	-109.315	0.357	-0.075
-429.632	440.383	-0.055	0.118
-428.617	-200.000	0.040	0.222
-427.603	-64.181	-0.057	-0.023
-426.588	-10.266	0.099	-0.065
-425.573	1.221	0.063	-0.045
-424.559	310.136	0.078	0.144
-423.544	-35.843	0.080	0.043
-422.530	6.846	-0.093	0.068
-421.515	371.008	0.064	0.128
-420.500	-90.433	0.222	0.063
-419.486	-93.407	0.280	-0.077
-418.471	49.724	-0.322	-0.300
-417.457	-200.000	0.010	0.139
-416.442	800.000	-0.145	-0.603
-415.428	366.743	0.061	-0.122
-414.413	35.412	-0.061	0.053
-413.398	25.466	-0.204	0.168
-412.384	797.942	-0.087	0.237
-411.369	800.000	-0.084	-0.248
-410.355	-200.000	-0.052	-0.304
-409.340	-200.000	-0.026	-0.271
-408.325	-68.281	-0.104	0.040
-407.311	-200.000	0.006	0.066
-406.296	-200.000	-0.020	0.095
-405.282	154.562	0.315	0.428
-404.267	-123.971	-0.245	-0.038
-403.252	800.000	-0.072	0.240
-402.238	-73.543	0.142	0.051
-401.223	691.734	-0.144	0.372
-400.209	-95.217	0.042	-0.011
-399.194	-200.000	0.033	0.167
-398.179	63.815	-0.138	-0.137
-397.165	339.849	-0.107	0.206
-396.150	-173.883	0.335	0.010
-395.136	-20.779	0.236	-0.143
-394.121	800.000	-0.065	0.215
-393.106	501.672	0.047	0.107
-392.092	-200.000	0.027	-0.342
-391.077	138.173	0.271	-0.351
-390.063	-200.000	-0.007	-0.089
-389.048	800.000	-0.037	0.124
-388.033	-90.767	0.482	0.137
-387.019	-132.794	-0.097	-0.012
-386.004	182.693	-0.155	0.226
-384.990	-117.982	0.371	0.066
-383.975	-77.732	-0.097	0.033
-382.960	800.000	-0.080	0.333
-381.946	-200.000	-0.001	0.305
-380.931	-129.287	-0.302	-0.041
-379.917	-41.161	0.121	0.062
-378.902	-1.066	-0.106	0.074
-377.888	48.975	0.258	-0.239
-376.873	800.000	-0.068	-0.198
-375.858	-107.981	0.433	0.093
-374.844	-96.452	-0.089	0.023
-373.829	109.228	0.286	0.337
-372.815	-196.586	0.218	-0.001
-371.800	283.866	0.042	0.074
-370.785	60.349	-0.103	-0.101
-369.771	-200.000	-0.059	-0.324
-368.756	-15.188	0.122	-0.077
-367.742	97.738	0.063	0.072
-366.727	78.513	-0.196	-0.207
-365.712	62.822	0.143	0.141
-364.698	344.645	0.048	0.093
-363.683	185.955	0.154	-0.226
-362.669	224.760	-0.238	-0.380
-361.654	335.295	0.103	0.197
-360.639	-115.437	0.093	0.017
-359.625	-200.000	-0.028	0.416
-358.610	6.862	0.170	0.125
-357.596	-200.000	-0.033	-0.197
-356.581	100.137	0.052	-0.059
-355.566	104.788	0.117	0.136
-354.552	-35.985	-0.516	-0.275
-353.537	35.902	-0.107	-0.093
-352.523	-22.563	-0.184	-0.109
-351.508	382.688	0.097	0.196
-350.493	800.000	-0.087	-0.352
-349.479	-169.765	-0.146	0.005
-348.464	667.056	-0.140	-0.356
-347.450	91.688	-0.160	-0.177
-346.435	-11.542	-0.125	-0.081
-345.420	503.882	0.013	0.031
-344.406	106.524	-0.142	0.165
-343.391	-132.149	-0.116	-0.015
-342.377	-58.420	-0.102	-0.044
-341.362	-39.337	0.144	0.075
-340.348	9.306	0.281	0.209
-339.333	-147.463	-0.454	0.038
-338.318	-22.558	0.121	0.072
-337.304	800.000	-0.064	-0.198
-336.289	128.600	-0.223	0.279
-335.275	158.027	-0.092	0.126
-334.260	-29.434	-0.206	0.116
-333.245	138.765	-0.133	-0.172
-332.231	-137.976	-0.270	-0.030
-331.216	121.074	-0.174	-0.213
-330.202	69.547	0.239	-0.243
-329.187	-47.188	-0.124	0.059
-328.172	-200.000	0.008	-0.127
-327.158	5.001	0.224	0.162
-326.143	263.870	0.163	0.279
-325.129	800.000	0.075	-0.268
-324.114	-132.048	0.061	-0.008
-323.099	-171.179	0.255	-0.008
-322.085	-65.637	0.399	0.158
-321.070	-200.000	-0.014	-0.347
-320.056	-10.715	0.223	-0.145
-319.041	399.444	-0.148	0.305
-318.026	-63.607	-0.019	0.008
-317.012	-37.127	0.072	0.038
-315.997	-103.179	-0.134	0.031
-314.983	-57.785	0.137	0.059
-313.968	-145.283	-0.165	0.015
-312.953	-23.867	0.189	-0.111
-311.939	-200.000	0.093	-0.425
-310.924	160.084	-0.193	-0.265
-309.910	-200.000	0.039	0.414
-308.895	36.090	0.246	0.214
-307.880	650.979	0.027	-0.067
-306.866	-200.000	0.016	-0.298
-305.851	292.247	-0.227	-0.407
-304.837	800.000	-0.050	-0.141
-303.822	137.183	0.133	-0.171
-302.807	800.000	0.055	-0.160
-301.793	97.775	0.271	-0.307
-300.778	-143.137	0.150	-0.014
-299.764	800.000	0.089	-0.242
-298.749	584.641	0.061	0.147
-297.735	1.109	0.229	0.162
-296.720	-200.000	0.019	0.165
-295.705	-53.832	0.144	-0.065
-294.691	-110.496	-0.215	0.044
-293.676	21.504	0.300	0.240
-292.662	-200.000	-0.015	0.117
-291.647	-118.782	-0.285	0.049
-290.632	-200.000	0.041	-0.298
-289.618	-172.940	-0.140	-0.004
-288.603	409.068	-0.050	0.104
-287.589	-200.000	-0.058	0.308
-286.574	-4.214	-0.167	0.114
-285.559	-116.076	0.239	0.044
-284.545	-200.000	0.012	-0.190
-283.530	112.683	-0.205	-0.244
-282.516	-200.000	-0.053	0.394
-281.501	-200.000	-0.014	0.375
-280.486	-78.832	0.088	0.029
-279.472	800.000	-0.126	-0.496
-278.457	-60.346	-0.435	-0.182
-277.443	24.339	0.114	-0.092
-276.428	-81.632	0.279	-0.090
-275.413	49.914	-0.210	-0.195
-274.399	87.528	0.097	0.105
-273.384	-200.000	0.098	0.487
-272.370	800.000	0.079	0.227
-271.355	-72.105	-0.075	-0.027
-270.340	23.693	-0.180	-0.145
-269.326	65.499	0.037	0.037
-268.311	-98.161	0.362	-0.091
-267.297	-76.091	-0.119	-0.041
-266.282	-160.363	0.177	0.009
-265.267	-8.578	-0.071	0.047
-264.253	-42.120	-0.267	-0.134
-263.238	-200.000	0.011	-0.179
-262.224	330.700	-0.042	0.080
-261.209	-200.000	-0.004	-0.159
-260.195	168.621	0.095	-0.134
-259.180	-95.930	-0.367	0.096
-258.165	-91.345	0.298	0.084
-257.151	-95.505	-0.209	-0.055
-256.136	15.316	0.211	-0.163
-255.122	80.096	0.037	-0.039
-254.107	-200.000	-0.042	-0.258
-253.092	-200.000	-0.027	0.127
-252.078	45.912	-0.128	0.117
-251.063	-85.657	0.341	-0.104
-250.049	-200.000	0.006	0.069
-249.034	173.682	-0.167	-0.236
-248.019	-33.704	0.038	-0.021
-247.005	43.427	0.337	0.302
-245.990	125.660	-0.205	0.254
-244.976	50.923	0.341	0.317
-243.961	-200.000	-0.007	-0.103
-242.946	303.177	0.134	0.243
-241.932	63.915	0.109	0.108
-240.917	179.931	0.211	0.304
-239.903	-74.489	0.264	0.093
-238.888	539.142	-0.080	-0.187
-237.873	789.699	-0.117	-0.316
-236.859	-200.000	0.043	-0.518
-235.844	-200.000	-0.025	0.474
-234.830	-66.221	0.164	0.064
-233.815	-84.855	0.263	-0.081
-232.800	-65.534	-0.187	0.073
-231.786	712.127	0.046	0.120
-230.771	98.336	0.059	-0.067
-229.757	388.907	0.031	-0.062
-228.742	800.000	-0.145	0.492
-227.727	263.540	0.107	0.182
-226.713	-193.697	0.102	-0.001
-225.698	800.000	-0.065	-0.273
-224.684	108.419	-0.134	-0.157
-223.669	-200.000	0.047	-0.280
-222.655	283.849	0.033	0.057
-221.640	-44.639	-0.274	0.134
-220.625	-29.065	0.221	-0.124
-219.611	-200.000	0.048	-0.396
-218.596	-200.000	-0.039	-0.241
-217.582	16.632	0.304	-0.236
-216.567	424.743	-0.090	0.189
-215.552	420.126	0.108	-0.226
-214.538	-86.610	-0.397	-0.119
-213.523	-47.428	-0.046	0.022
-212.509	-30.203	-0.091	-0.051
-211.494	130.606	-0.195	0.245
-210.479	800.000	0.080	0.251
-209.465	800.000	-0.071	0.284
-208.450	-200.000	0.009	0.095
-207.436	387.537	0.019	0.039
-206.421	39.669	0.072	0.063
-205.406	577.389	-0.139	-0.332
-204.392	800.000	0.049	0.171
-203.377	497.624	0.156	0.353
-202.363	14.249	-0.235	-0.180
-201.348	207.034	0.037	-0.056
-200.333	226.735	0.226	-0.359
-199.319	9.629	0.154	-0.115
-198.304	439.471	0.019	0.041
-197.290	55.403	0.142	-0.135
-196.275	-39.888	0.179	0.092
-195.260	-200.000	-0.038	0.223
-194.246	402.110	0.154	0.318
-193.231	-86.710	0.187	0.056
-192.217	-171.089	-0.379	-0.013
-191.202	121.207	0.409	0.499
-190.187	-33.004	-0.107	-0.058
-189.173	794.828	-0.108	0.293
-188.158	-200.000	0.051	0.289
-187.144	-69.335	0.148	0.056
-186.129	360.135	-0.041	-0.080
-185.114	-123.055	-0.227	-0.036
-184.100	786.376	0.128	0.344
-183.085	-155.052	0.132	0.008
-182.071	-200.000	-0.046	0.215
-181.056	-4.211	0.244	-0.166
-180.042	-97.892	0.109	-0.028
-179.027	-200.000	0.009	-0.177
-178.012	-200.000	0.043	0.239
-176.998	-68.490	0.052	-0.020
-175.983	-76.921	-0.185	-0.063
-174.969	-200.000	-0.056	-0.282
-173.954	-56.292	0.127	-0.055
-172.939	351.848	-0.110	0.214
-171.925	-200.000	0.025	0.334
-170.910	31.918	0.072	-0.060
-169.896	45.587	0.120	-0.109
-168.881	507.382	-0.109	-0.247
-167.866	-200.000	0.049	0.530
-166.852	541.230	-0.072	0.169
-165.837	-116.917	-0.081	0.014
-164.823	64.484	0.394	0.388
-163.808	-200.000	0.019	0.127
-162.793	29.563	-0.091	-0.076
-161.779	88.052	0.242	-0.263
-160.764	-51.213	0.154	-0.071
-159.750	-86.197	-0.115	-0.035
-158.735	-53.270	-0.174	-0.078
-157.720	800.000	-0.042	0.149
-156.706	-11.747	0.162	-0.104
-155.691	-134.145	-0.071	-0.009
-154.677	252.067	-0.137	0.228
-153.662	-45.198	-0.121	0.059
-152.647	-73.915	-0.334	-0.119
-151.633	311.137	0.102	0.187
-150.618	41.306	-0.170	0.150
-149.604	17.868	-0.013	0.010
-148.589	-64.838	0.176	-0.070
-147.574	747.920	0.058	0.152
-146.560	172.611	-0.129	-0.181
-145.545	-85.167	0.233	-0.071
-144.531	46.900	0.316	0.287
-143.516	-81.547	0.174	0.056
-142.502	145.159	0.267	-0.349
-141.487	-151.476	0.214	-0.016
-140.472	103.687	-0.027	-0.031
-139.458	293.351	-0.156	-0.278
-138.443	107.305	0.260	0.302
-137.429	-73.863	0.191	0.068
-136.414	-80.624	0.223	0.073
-135.399	-144.718	-0.310	-0.028
-134.385	800.000	0.038	-0.130
-133.370	-109.387	-0.220	0.045
-132.356	-23.832	-0.335	-0.196
-131.341	-200.000	-0.007	0.180
-130.326	800.000	0.045	0.140
-129.312	-135.870	0.339	-0.039
-128.297	-55.141	0.290	-0.127
-127.283	197.216	0.188	0.281
-126.268	800.000	-0.025	0.095
-125.253	-183.438	0.339	-0.006
-124.239	-7.920	-0.235	0.155
-123.224	-102.851	0.152	0.035
-122.210	-11.482	0.218	-0.140
-121.195	557.120	-0.138	0.325
