DTS Sentinel unit serial number:	SN413079Multiplexer serial number:	ORYXHardware model number:	OX4-SRSoftware version number:	ORYX F/W v4.00 Oryx Data Collector v3.7.2.0data status	okinstallation	princeton_trtdifferential loss correction	single-endedforward channel	channel 1reverse channel	N/Adate	2019/09/11time	07:20:11forward acquisition time	60.00reverse acquisition time	0.00gamma	496.2192k internal	0.2328k external	0.2328temperature offset calibration	0.9915default loss term (dB/km)	0.3790temperature slope calibration	1.0000multiplexer offset coefficient	1.0000multiplexer slope coefficient	1.0000fibre end	0.00T internal ref (°C)	30.70T ext. ref 1 (°C)	-0.06T ext. ref 2 (°C)	27.19length (m)	temperature (°C)	Stokes	anti-Stokes-747.200	49.547	0.137	-0.130
-746.185	800.000	-0.014	0.052
-745.171	-23.836	0.192	-0.116
-744.156	-200.000	-0.002	0.376
-743.142	-82.996	-0.227	0.074
-742.127	163.444	0.077	-0.110
-741.112	789.218	0.147	-0.407
-740.098	498.358	-0.138	-0.320
-739.083	391.356	0.078	-0.164
-738.069	10.619	0.176	0.135
-737.054	-146.347	-0.347	-0.031
-736.039	800.000	0.045	-0.195
-735.025	-100.251	0.174	-0.044
-734.010	-32.704	-0.116	0.065
-732.996	-156.147	-0.402	-0.026
-731.981	-102.948	-0.263	-0.063
-730.966	-174.087	-0.424	-0.012
-729.952	-200.000	0.004	-0.226
-728.937	-150.783	-0.084	-0.006
-727.923	-65.950	-0.270	0.108
-726.908	-135.197	-0.159	-0.019
-725.894	100.154	-0.070	-0.082
-724.879	337.069	0.100	-0.196
-723.864	92.101	-0.168	-0.190
-722.850	800.000	-0.086	-0.265
-721.835	-200.000	0.077	-0.647
-720.821	-45.867	-0.314	-0.156
-719.806	254.285	-0.100	-0.173
-718.791	-8.127	-0.128	-0.087
-717.777	245.590	0.103	0.174
-716.762	-113.314	-0.325	-0.064
-715.748	-200.000	0.061	-0.365
-714.733	-30.450	-0.262	-0.150
-713.718	9.028	-0.037	0.028
-712.704	113.138	0.181	-0.221
-711.689	-2.231	0.191	0.135
-710.675	-22.818	0.074	0.045
-709.660	10.213	0.119	-0.091
-708.645	-200.000	0.005	-0.102
-707.631	-7.597	0.213	0.145
-706.616	-113.706	-0.315	-0.062
-705.602	163.218	-0.132	0.186
-704.587	-103.567	-0.145	-0.034
-703.572	-44.144	-0.149	-0.075
-702.558	68.500	0.061	-0.063
-701.543	800.000	0.117	0.329
-700.529	800.000	0.036	0.159
-699.514	-59.556	-0.331	-0.143
-698.499	-31.599	0.150	0.085
-697.485	800.000	-0.065	-0.270
-696.470	291.760	-0.078	-0.144
-695.456	-81.627	0.234	0.077
-694.441	261.323	-0.112	-0.195
-693.426	-149.131	0.340	0.027
-692.412	800.000	0.053	-0.171
-691.397	-20.879	-0.193	-0.119
-690.383	-64.558	0.249	-0.102
-689.368	-109.250	-0.094	0.020
-688.354	-18.839	-0.163	0.102
-687.339	-117.005	-0.360	0.066
-686.324	-61.962	0.094	0.039
-685.310	31.742	-0.013	0.012
-684.295	800.000	-0.053	0.194
-683.281	107.882	-0.069	-0.082
-682.266	371.772	0.053	-0.109
-681.251	123.740	0.076	0.096
-680.237	-122.718	0.276	-0.045
-679.222	-101.301	0.101	-0.025
-678.208	613.364	-0.014	0.034
-677.193	649.159	0.116	0.298
-676.178	-68.452	-0.391	0.152
-675.164	11.756	-0.175	-0.135
-674.149	-103.493	-0.291	0.069
-673.135	-143.035	0.164	-0.016
-672.120	-33.009	0.078	0.043
-671.105	-57.494	0.463	0.204
-670.091	111.907	-0.231	-0.280
-669.076	10.411	0.094	0.072
-668.062	349.682	0.100	-0.198
-667.047	367.596	-0.132	0.267
-666.032	-52.773	-0.070	-0.032
-665.018	98.047	-0.028	-0.032
-664.003	-62.717	-0.099	0.041
-662.989	-86.866	-0.215	-0.066
-661.974	77.908	-0.141	-0.151
-660.959	268.515	-0.122	0.215
-659.945	-102.191	-0.010	0.002
-658.930	452.215	-0.059	0.131
-657.916	127.351	-0.123	0.156
-656.901	167.135	-0.192	0.274
-655.886	-86.674	-0.230	0.071
-654.872	-125.641	-0.096	0.015
-653.857	800.000	0.050	0.205
-652.843	-136.849	-0.159	-0.018
-651.828	-23.041	0.194	0.117
-650.814	800.000	-0.048	0.200
-649.799	-200.000	-0.019	-0.137
-648.784	422.033	-0.079	-0.171
-647.770	-51.390	-0.198	-0.093
-646.755	-140.202	0.304	0.032
-645.741	-56.085	-0.320	-0.143
-644.726	-33.743	0.259	-0.143
-643.711	174.841	-0.215	0.312
-642.697	-138.251	-0.382	0.042
-641.682	-200.000	-0.004	0.043
-640.668	139.811	0.148	0.195
-639.653	-81.447	0.335	-0.111
-638.638	-38.188	0.269	0.143
-637.624	-200.000	-0.019	-0.283
-636.609	-59.558	-0.295	0.127
-635.595	-12.263	-0.161	0.106
-634.580	-200.000	-0.037	0.342
-633.565	-187.821	-0.067	0.001
-632.551	306.251	0.060	0.112
-631.536	-50.053	0.240	0.114
-630.522	-34.527	0.014	0.008
-629.507	-77.391	-0.283	-0.099
-628.492	-48.900	-0.248	-0.119
-627.478	-80.816	0.331	-0.110
-626.463	106.658	-0.272	-0.324
-625.449	-200.000	-0.039	-0.211
-624.434	-200.000	-0.019	-0.095
-623.419	-200.000	-0.025	-0.248
-622.405	-65.952	0.208	0.084
-621.390	-200.000	-0.030	0.335
-620.376	340.766	0.205	-0.401
-619.361	49.815	0.357	0.337
-618.346	-200.000	0.017	0.181
-617.332	43.689	0.119	-0.109
-616.317	-3.010	-0.206	-0.144
-615.303	324.983	0.052	-0.100
-614.288	632.525	0.142	-0.360
-613.273	-42.902	-0.311	0.158
-612.259	800.000	0.048	-0.169
-611.244	-148.872	-0.233	-0.019
-610.230	-24.245	-0.198	-0.118
-609.215	800.000	0.070	0.263
-608.201	-101.592	-0.179	0.044
-607.186	-15.231	-0.310	0.199
-606.171	-200.000	0.003	0.097
-605.157	444.074	0.087	0.191
-604.142	-63.132	-0.241	0.100
-603.128	-158.257	-0.018	-0.001
-602.113	-200.000	-0.030	0.136
-601.098	-86.506	-0.112	-0.034
-600.084	194.894	0.088	0.135
-599.069	144.633	-0.173	0.231
-598.055	-100.687	-0.353	-0.087
-597.040	800.000	-0.172	0.499
-596.025	-62.161	-0.176	-0.074
-595.011	167.722	0.058	-0.083
-593.996	-18.676	0.103	-0.065
-592.982	665.156	-0.080	-0.207
-591.967	480.678	-0.138	-0.314
-590.952	-200.000	-0.055	-0.298
-589.938	-108.587	-0.104	-0.022
-588.923	-111.047	-0.181	-0.037
-587.909	-200.000	0.030	-0.162
-586.894	26.674	-0.093	0.078
-585.879	253.067	0.246	0.420
-584.865	-200.000	0.074	-0.441
-583.850	-59.398	0.329	0.142
-582.836	-42.743	0.254	0.129
-581.821	-184.778	-0.152	-0.002
-580.806	-200.000	-0.027	-0.173
-579.792	12.696	0.321	0.248
-578.777	0.466	0.096	0.068
-577.763	172.870	-0.134	-0.193
-576.748	800.000	-0.055	-0.211
-575.733	76.973	-0.220	-0.234
-574.719	144.294	0.066	0.088
-573.704	51.019	-0.083	-0.079
-572.690	207.922	-0.068	-0.106
-571.675	800.000	0.047	0.132
-570.661	98.529	0.366	0.422
-569.646	-200.000	0.009	0.235
-568.631	-200.000	0.053	0.277
-567.617	225.265	0.089	-0.144
-566.602	182.949	-0.160	-0.236
-565.588	339.648	0.194	-0.378
-564.573	-30.053	-0.113	0.065
-563.558	-102.513	0.131	0.031
-562.544	25.822	0.026	-0.022
-561.529	800.000	-0.091	-0.386
-560.515	788.802	0.045	-0.124
-559.500	-97.200	0.117	0.031
-558.485	-200.000	0.026	0.177
-557.471	-15.669	0.364	-0.233
-556.456	-52.405	-0.205	-0.095
-555.442	-108.486	-0.189	-0.041
-554.427	60.230	-0.175	-0.173
-553.412	-7.121	0.214	-0.145
-552.398	800.000	0.085	-0.307
-551.383	-19.047	-0.182	-0.113
-550.369	521.613	0.093	-0.218
-549.354	-200.000	-0.013	-0.236
-548.339	-152.690	0.238	-0.017
-547.325	-37.840	-0.135	-0.072
-546.310	-200.000	-0.034	0.378
-545.296	629.429	-0.081	0.205
-544.281	-162.455	0.147	0.007
-543.266	-200.000	0.334	0.001
-542.252	-133.253	0.305	0.038
-541.237	111.560	-0.148	0.179
-540.223	11.192	-0.255	0.195
-539.208	-122.122	-0.220	-0.036
-538.193	-171.040	0.272	-0.009
-537.179	82.670	-0.160	-0.174
-536.164	19.480	0.098	-0.079
-535.150	-200.000	0.032	-0.287
-534.135	-108.927	-0.353	-0.075
-533.121	-21.622	-0.269	-0.164
-532.106	-200.000	0.015	0.074
-531.091	-134.251	0.606	-0.075
-530.077	294.905	-0.099	-0.180
-529.062	16.924	0.139	0.110
-528.048	-149.387	0.278	0.022
-527.033	-152.491	0.316	0.023
-526.018	131.322	-0.187	-0.240
-525.004	14.319	0.146	-0.113
-523.989	18.383	-0.036	-0.029
-522.975	-104.623	-0.075	0.017
-521.960	-200.000	0.048	-0.311
-520.945	253.334	0.096	-0.164
-519.931	-9.098	0.259	-0.173
-518.916	45.878	-0.048	-0.044
-517.902	27.846	0.261	0.220
-516.887	-142.987	-0.203	-0.020
-515.872	-25.405	0.129	0.076
-514.858	27.969	0.115	0.097
-513.843	1.519	0.368	0.265
-512.829	-59.880	-0.102	-0.044
-511.814	60.782	0.140	0.138
-510.799	-200.000	0.109	0.670
-509.785	-200.000	0.039	0.302
-508.770	643.929	-0.141	-0.358
-507.756	-154.412	-0.093	-0.006
-506.741	347.880	0.233	-0.458
-505.726	-136.758	-0.207	-0.024
-504.712	-129.933	-0.233	-0.032
-503.697	-80.313	0.057	0.019
-502.683	52.096	-0.259	0.247
-501.668	-38.949	-0.403	0.212
-500.653	6.897	0.160	0.119
-499.639	-103.114	0.269	0.064
-498.624	429.645	-0.021	-0.046
-497.610	-125.267	-0.072	-0.011
-496.595	124.223	0.100	-0.125
-495.581	-183.408	-0.326	-0.006
-494.566	297.514	-0.144	0.264
-493.551	800.000	0.089	0.385
-492.537	-200.000	-0.025	-0.164
-491.522	-35.732	0.222	0.120
-490.508	-200.000	-0.063	-0.417
-489.493	-200.000	-0.010	0.052
-488.478	-140.384	0.076	0.008
-487.464	-200.000	0.019	-0.400
-486.449	-200.000	-0.003	-0.339
-485.435	-33.503	0.062	0.034
-484.420	31.870	0.227	0.195
-483.405	-60.093	-0.211	0.090
-482.391	156.185	-0.054	0.074
-481.376	11.171	0.074	0.056
-480.362	273.050	-0.033	0.058
-479.347	-11.467	0.234	-0.153
-478.332	-171.599	-0.263	-0.009
-477.318	-59.422	0.249	-0.107
-476.303	800.000	0.073	-0.241
-475.289	-169.111	0.436	0.016
-474.274	-165.257	0.076	-0.003
-473.259	-200.000	-0.010	0.136
-472.245	285.906	-0.139	-0.251
-471.230	58.822	0.296	-0.290
-470.216	5.597	0.102	0.075
-469.201	114.157	-0.257	-0.312
-468.186	78.335	-0.218	0.232
-467.172	112.400	0.202	0.243
-466.157	108.228	-0.154	0.183
-465.143	119.828	0.183	0.226
-464.128	-45.014	0.274	-0.136
-463.113	800.000	-0.023	-0.094
-462.099	-51.549	0.318	0.148
-461.084	800.000	-0.054	0.161
-460.070	346.432	0.063	-0.124
-459.055	-200.000	-0.281	0.000
-458.040	-72.772	-0.340	-0.125
-457.026	800.000	-0.039	0.169
-456.011	-200.000	0.023	0.163
-454.997	67.302	-0.112	-0.114
-453.982	122.260	-0.067	-0.083
-452.968	-30.623	-0.300	-0.169
-451.953	-89.491	0.493	0.144
-450.938	521.610	0.032	0.074
-449.924	-79.848	-0.123	-0.041
-448.909	-200.000	-0.008	-0.090
-447.895	90.260	-0.182	0.203
-446.880	241.006	0.046	-0.077
-445.865	-200.000	0.019	0.212
-444.851	-200.000	0.034	-0.241
-443.836	451.145	0.096	-0.211
-442.822	19.003	-0.171	-0.137
-441.807	59.489	0.225	-0.221
-440.792	800.000	0.019	0.065
-439.778	-86.967	0.238	0.072
-438.763	357.043	0.064	-0.127
-437.749	-200.000	0.012	-0.073
-436.734	-61.617	0.212	0.088
-435.719	102.446	-0.143	0.166
-434.705	264.049	0.324	0.561
-433.690	-19.536	0.207	-0.128
-432.676	-46.738	-0.091	-0.044
-431.661	33.457	-0.158	0.137
-430.646	-125.802	-0.241	-0.036
-429.632	-45.350	-0.068	0.033
-428.617	-200.000	-0.008	-0.050
-427.603	530.232	0.076	0.179
-426.588	-133.324	-0.194	0.024
-425.573	152.056	-0.161	-0.219
-424.559	292.389	-0.158	-0.286
-423.544	800.000	0.028	-0.082
-422.530	109.833	0.058	-0.069
-421.515	556.974	0.153	0.368
-420.500	-148.891	0.275	0.022
-419.486	800.000	0.036	-0.133
-418.471	-200.000	-0.027	0.453
-417.457	-128.979	-0.270	0.038
-416.442	-60.514	0.235	0.099
-415.428	81.052	-0.083	-0.090
-414.413	-200.000	-0.010	-0.175
-413.398	2.020	-0.056	0.040
-412.384	-60.791	-0.263	0.111
-411.369	-13.313	-0.381	-0.246
-410.355	-9.215	0.082	0.054
-409.340	1.187	-0.266	0.190
-408.325	119.454	0.156	-0.192
-407.311	-97.954	0.280	0.072
-406.296	-47.184	0.136	-0.066
-405.282	179.549	-0.028	0.040
-404.267	-200.000	0.026	-0.130
-403.252	-39.011	-0.049	0.026
-402.238	47.161	0.132	0.122
-401.223	-200.000	0.062	-0.371
-400.209	-200.000	-0.008	-0.116
-399.194	-200.000	-0.030	0.168
-398.179	85.238	0.170	-0.185
-397.165	427.117	0.083	0.177
-396.150	-59.890	-0.352	0.150
-395.136	582.909	0.042	-0.101
-394.121	140.259	-0.367	-0.481
-393.106	47.054	-0.107	0.099
-392.092	-200.000	0.013	-0.058
-391.077	1.700	0.199	0.143
-390.063	142.809	0.124	0.164
-389.048	-200.000	-0.013	0.345
-388.033	-132.370	-0.234	-0.030
-387.019	-157.959	-0.105	-0.006
-386.004	3.487	-0.113	-0.082
-384.990	619.891	0.113	0.281
-383.975	-65.253	-0.153	0.061
-382.960	-200.000	0.018	0.154
-381.946	-9.388	0.194	0.129
-380.931	-200.000	0.036	0.363
-379.917	-42.014	-0.327	0.166
-378.902	268.075	0.084	0.147
-377.888	137.222	0.057	-0.074
-376.873	139.934	-0.075	0.099
-375.858	-99.553	-0.225	0.056
-374.844	187.580	0.116	-0.172
-373.829	800.000	-0.037	0.149
-372.815	-200.000	0.044	0.220
-371.800	204.021	0.137	-0.211
-370.785	-115.589	-0.369	0.069
-369.771	41.162	-0.095	0.085
-368.756	800.000	0.023	0.070
-367.742	591.484	0.127	-0.311
-366.727	-130.325	0.375	-0.051
-365.712	-16.971	-0.237	0.149
-364.698	27.015	-0.080	0.067
-363.683	800.000	-0.018	-0.061
-362.669	163.209	-0.238	-0.333
-361.654	-200.000	-0.010	0.171
-360.639	-69.602	-0.235	0.089
-359.625	253.086	0.055	0.093
-358.610	-12.269	-0.041	-0.027
-357.596	-45.282	0.139	0.068
-356.581	800.000	0.046	0.155
-355.566	16.314	-0.164	0.128
-354.552	56.278	0.073	0.070
-353.537	159.832	-0.055	0.076
-352.523	39.212	0.185	0.164
-351.508	-200.000	0.016	0.109
-350.493	43.107	-0.113	0.103
-349.479	-127.897	0.235	0.034
-348.464	-23.338	-0.240	-0.143
-347.450	-9.476	-0.322	0.213
-346.435	37.868	0.095	0.084
-345.420	693.590	0.057	-0.148
-344.406	55.617	0.055	0.053
-343.391	-53.901	-0.405	-0.183
-342.377	771.155	-0.077	-0.209
-341.362	396.844	-0.083	0.172
-340.348	10.613	-0.107	-0.081
-339.333	-132.745	-0.185	-0.023
-338.318	-170.157	-0.176	0.006
-337.304	-200.000	-0.037	0.202
-336.289	-200.000	0.005	-0.038
-335.275	-200.000	0.042	-0.228
-334.260	-79.741	-0.147	0.049
-333.245	-55.970	-0.153	0.068
-332.231	-19.153	-0.423	0.260
-331.216	148.433	-0.085	0.113
-330.202	-164.661	-0.081	-0.004
-329.187	532.093	0.058	-0.137
-328.172	132.674	0.069	0.088
-327.158	160.584	0.022	0.031
-326.143	-164.137	0.079	-0.004
-325.129	800.000	-0.138	-0.382
-324.114	-111.870	0.415	-0.083
-323.099	18.346	-0.316	-0.250
-322.085	800.000	0.013	0.054
-321.070	800.000	-0.075	-0.263
-320.056	-117.636	-0.285	0.051
-319.041	-156.438	0.185	0.011
-318.026	-106.746	0.170	0.037
-317.012	-26.467	-0.130	0.076
-315.997	800.000	-0.073	-0.308
-314.983	184.702	-0.117	-0.172
-313.968	-200.000	-0.025	-0.228
-312.953	74.683	-0.032	0.033
-311.939	-133.161	-0.259	0.032
-310.924	-200.000	-0.021	0.443
-309.910	32.790	0.128	0.109
-308.895	109.757	-0.124	-0.148
-307.880	39.356	-0.122	-0.108
-306.866	24.550	-0.141	-0.116
-305.851	686.981	-0.032	-0.083
-304.837	-101.074	-0.210	0.051
-303.822	239.695	-0.092	0.152
-302.807	521.795	0.054	-0.125
-301.793	111.026	0.248	-0.296
-300.778	194.131	-0.138	-0.207
-299.764	797.261	0.103	-0.282
-298.749	333.820	-0.098	-0.187
-297.735	-101.960	0.382	-0.091
-296.720	800.000	-0.058	0.242
-295.705	56.765	-0.315	0.304
-294.691	101.845	-0.071	0.082
-293.676	-140.414	0.074	0.008
-292.662	-31.122	0.178	0.099
-291.647	58.283	-0.062	0.060
-290.632	-131.683	-0.072	0.009
-289.618	-8.970	0.380	0.252
-288.603	-7.247	-0.204	0.137
-287.589	6.660	-0.051	-0.038
-286.574	-200.000	0.010	-0.096
-285.559	-200.000	-0.024	0.279
-284.545	360.483	0.101	-0.199
-283.530	31.624	-0.322	0.274
-282.516	119.968	0.198	0.243
-281.501	664.002	0.120	0.306
-280.486	243.174	-0.069	-0.114
-279.472	150.897	-0.071	0.096
-278.457	403.601	-0.058	0.121
-277.443	104.695	0.197	-0.230
-276.428	-108.684	-0.165	0.035
-275.413	-0.326	0.142	-0.100
-274.399	-165.775	0.062	0.003
-273.384	-200.000	0.065	-0.380
-272.370	-109.693	-0.147	0.031
-271.355	-87.062	-0.206	0.062
-270.340	137.872	-0.081	0.105
-269.326	-99.252	-0.075	-0.019
-268.311	800.000	0.048	0.198
-267.297	302.389	-0.081	-0.147
-266.282	30.412	-0.009	0.008
-265.267	800.000	0.036	-0.108
-264.253	249.464	-0.039	0.065
-263.238	133.989	0.228	0.292
-262.224	108.495	-0.012	0.015
-261.209	187.115	0.121	0.178
-260.195	26.743	0.332	0.275
-259.180	124.549	0.145	-0.180
-258.165	94.730	-0.083	-0.093
-257.151	-51.178	0.047	-0.022
-256.136	-122.187	0.170	0.027
-255.122	-200.000	-0.035	-0.164
-254.107	-151.141	0.082	-0.006
-253.092	487.825	0.151	0.341
-252.078	-121.952	-0.087	-0.014
-251.063	213.767	0.143	-0.223
-250.049	-182.867	0.135	-0.002
-249.034	800.000	-0.057	-0.237
-248.019	206.646	-0.117	-0.179
-247.005	212.982	0.214	0.334
-245.990	80.360	0.367	-0.390
-244.976	-103.017	-0.043	0.010
-243.961	-43.373	0.244	0.122
-242.946	-176.801	0.215	-0.005
-241.932	-50.832	-0.093	-0.043
-240.917	-13.337	-0.223	0.143
-239.903	-84.860	0.186	0.058
-238.888	-68.424	0.245	0.094
-237.873	800.000	0.122	0.376
-236.859	-200.000	-0.006	0.385
-235.844	165.572	-0.088	-0.124
-234.830	275.242	0.018	-0.031
-233.815	-103.923	-0.045	-0.010
-232.800	-105.326	-0.380	0.086
-231.786	-200.000	0.019	0.088
-230.771	800.000	-0.063	-0.246
-229.757	-8.562	0.329	-0.218
-228.742	-74.099	0.177	-0.063
-227.727	330.698	0.022	-0.042
-226.713	-90.789	0.105	0.030
-225.698	-77.181	-0.182	0.062
-224.684	7.197	0.247	0.182
-223.669	-200.000	0.042	-0.281
-222.655	-200.000	-0.035	-0.264
-221.640	291.194	0.067	0.119
-220.625	-107.106	0.423	-0.092
-219.611	-200.000	-0.031	0.265
-218.596	-137.421	0.293	0.033
-217.582	-119.375	-0.242	0.042
-216.567	-102.811	0.105	0.025
-215.552	-104.075	-0.247	-0.057
-214.538	-80.008	-0.329	-0.109
-213.523	-57.257	-0.170	-0.074
-212.509	-200.000	-0.009	-0.068
-211.494	-99.014	-0.281	0.070
-210.479	-77.529	-0.343	-0.117
-209.465	28.649	0.170	0.142
-208.450	724.009	-0.094	0.247
-207.436	-83.128	-0.235	0.075
-206.421	-200.000	0.034	0.357
-205.406	-121.734	0.203	0.033
-204.392	27.964	-0.136	0.113
-203.377	68.324	-0.194	0.196
-202.363	-74.619	0.150	0.053
-201.348	-80.060	-0.229	-0.076
-200.333	15.811	-0.126	-0.098
-199.319	-106.811	0.281	0.061
-198.304	11.250	0.209	0.158
-197.290	-200.000	0.042	0.284
-196.275	-59.620	-0.289	-0.122
-195.260	-181.079	0.345	0.007
-194.246	219.152	0.148	0.233
-193.231	-132.394	-0.187	0.024
-192.217	-72.990	0.170	-0.062
-191.202	-169.642	0.187	-0.007
-190.187	105.700	0.065	-0.076
-189.173	-90.043	-0.136	-0.039
-188.158	764.919	-0.046	-0.124
-187.144	610.525	0.210	-0.517
-186.129	-200.000	0.044	-0.193
-185.114	330.640	0.137	-0.261
-184.100	-200.000	0.038	0.172
-183.085	-200.000	0.032	0.427
-182.071	-200.000	0.011	-0.151
-181.056	800.000	0.037	-0.152
-180.042	287.873	-0.139	-0.249
-179.027	-170.061	0.564	-0.020
-178.012	-33.526	-0.161	0.088
-176.998	-27.853	0.102	-0.058
-175.983	800.000	-0.057	0.234
-174.969	75.415	0.196	-0.204
-173.954	429.430	-0.059	-0.125
-172.939	800.000	-0.080	0.218
-171.925	-169.354	0.223	-0.008
-170.910	15.126	0.161	-0.124
-169.896	313.250	-0.202	-0.375
-168.881	-18.346	0.163	-0.101
-167.866	-39.107	-0.232	0.120
-166.852	800.000	-0.062	-0.245
-165.837	33.167	-0.071	-0.060
-164.823	23.513	0.028	-0.022
-163.808	-32.284	-0.212	-0.117
-162.793	77.455	0.138	0.144
-161.779	52.649	0.321	0.302
-160.764	-200.000	-0.018	-0.202
-159.750	-86.973	-0.147	0.044
-158.735	800.000	-0.076	-0.212
-157.720	-21.110	0.220	-0.132
-156.706	-33.994	0.246	0.133
-155.691	-117.216	0.249	0.045
-154.677	80.086	0.163	0.172
-153.662	-116.662	-0.437	0.079
-152.647	510.229	0.076	-0.173
-151.633	165.216	-0.198	0.276
-150.618	-200.000	-0.069	-0.327
-149.604	36.619	0.032	0.028
-148.589	-29.657	0.215	0.121
-147.574	580.454	-0.119	0.287
-146.560	-152.765	-0.201	0.014
-145.545	192.827	0.144	0.214
-144.531	-200.000	0.001	-0.060
-143.516	52.034	-0.365	0.342
-142.502	-200.000	0.029	0.144
-141.487	602.285	-0.097	-0.236
-140.472	167.159	0.226	-0.315
-139.458	-200.000	-0.009	-0.167
-138.443	-81.534	-0.246	-0.080
-137.429	-2.768	0.402	-0.277
-136.414	-107.522	0.193	0.042
-135.399	-200.000	0.009	-0.212
-134.385	-49.650	0.246	0.115
-133.370	800.000	-0.026	-0.077
-132.356	800.000	-0.104	-0.381
-131.341	-109.748	-0.191	0.040
-130.326	131.475	0.087	-0.111
-129.312	-43.305	-0.035	-0.017
-128.297	-200.000	0.045	-0.284
-127.283	800.000	-0.070	-0.226
-126.268	498.491	0.079	-0.179
-125.253	337.809	0.090	0.172
-124.239	18.401	0.171	-0.135
-123.224	57.468	0.130	0.125
-122.210	800.000	0.059	0.187
