DTS Sentinel unit serial number:	SN413079Multiplexer serial number:	ORYXHardware model number:	OX4-SRSoftware version number:	ORYX F/W v4.00 Oryx Data Collector v3.7.2.0data status	okinstallation	princeton_trtdifferential loss correction	single-endedforward channel	channel 1reverse channel	N/Adate	2019/09/13time	05:14:35forward acquisition time	60.00reverse acquisition time	0.00gamma	496.2192k internal	0.2335k external	0.2335temperature offset calibration	1.0161default loss term (dB/km)	0.3790temperature slope calibration	1.0000multiplexer offset coefficient	1.0000multiplexer slope coefficient	1.0000fibre end	0.00T internal ref (°C)	26.37T ext. ref 1 (°C)	4.05T ext. ref 2 (°C)	20.84length (m)	temperature (°C)	Stokes	anti-Stokes-747.200	-200.000	0.010	-0.071
-746.185	-97.327	-0.500	0.131
-745.171	12.792	0.162	0.126
-744.156	-157.469	-0.327	-0.020
-743.142	800.000	0.145	0.463
-742.127	-124.451	-0.230	-0.036
-741.112	-200.000	0.001	-0.286
-740.098	-18.812	0.094	0.059
-739.083	-131.156	0.124	0.017
-738.069	-69.761	-0.280	-0.107
-737.054	800.000	0.093	0.407
-736.039	800.000	-0.005	0.019
-735.025	-91.170	0.438	0.126
-734.010	-162.897	-0.313	-0.015
-732.996	276.052	0.200	-0.356
-731.981	-54.217	0.163	0.074
-730.966	477.567	-0.037	0.084
-729.952	-50.369	0.334	-0.158
-728.937	-101.080	-0.509	-0.125
-727.923	-116.042	-0.061	0.011
-726.908	60.397	0.169	-0.168
-725.894	-200.000	-0.010	-0.314
-724.879	-200.000	-0.038	0.408
-723.864	-90.453	-0.131	0.038
-722.850	-95.611	0.389	0.105
-721.835	-200.000	-0.004	-0.303
-720.821	-200.000	-0.005	-0.155
-719.806	800.000	0.070	-0.294
-718.791	388.833	-0.151	0.314
-717.777	-15.185	-0.194	0.125
-716.762	65.840	-0.105	-0.107
-715.748	-146.466	-0.434	0.038
-714.733	-91.357	0.282	-0.081
-713.718	318.457	-0.048	-0.091
-712.704	-200.000	-0.001	-0.313
-711.689	-77.170	-0.046	-0.016
-710.675	105.766	-0.201	0.239
-709.660	-22.720	0.041	-0.025
-708.645	-200.000	-0.002	-0.379
-707.631	118.949	-0.200	0.247
-706.616	-114.730	-0.229	-0.044
-705.602	-14.237	0.152	0.098
-704.587	800.000	0.043	-0.181
-703.572	5.793	0.096	-0.071
-702.558	-200.000	0.004	-0.252
-701.543	-30.696	-0.014	0.008
-700.529	-96.668	0.073	0.019
-699.514	-143.569	-0.488	0.047
-698.499	-88.624	0.307	-0.092
-697.485	617.932	0.063	0.158
-696.470	-91.392	-0.205	0.059
-695.456	-100.860	-0.265	0.065
-694.441	-146.005	0.428	0.038
-693.426	-84.695	0.102	0.032
-692.412	-4.617	-0.157	0.109
-691.397	-163.293	0.173	0.008
-690.383	-79.314	0.419	-0.142
-689.368	800.000	0.078	0.323
-688.354	303.974	0.135	-0.251
-687.339	-200.000	0.041	0.214
-686.324	-162.831	0.156	-0.008
-685.310	-200.000	-0.021	0.168
-684.295	-200.000	-0.007	0.038
-683.281	4.979	0.399	0.294
-682.266	-200.000	-0.032	0.000
-681.251	-200.000	-0.050	-0.225
-680.237	-136.797	0.018	0.002
-679.222	24.499	-0.021	-0.017
-678.208	-9.141	0.243	-0.163
-677.193	-41.050	-0.147	-0.076
-676.178	215.080	0.101	0.160
-675.164	-124.405	-0.213	0.033
-674.149	-125.700	0.185	0.028
-673.135	-29.440	-0.445	-0.255
-672.120	-48.021	0.218	-0.106
-671.105	-200.000	-0.008	-0.158
-670.091	800.000	-0.038	-0.110
-669.076	-88.705	-0.268	-0.080
-668.062	-139.317	-0.167	-0.018
-667.047	800.000	-0.110	-0.444
-666.032	528.772	0.139	-0.328
-665.018	-185.707	-0.443	-0.007
-664.003	56.705	-0.212	-0.207
-662.989	33.099	0.122	-0.106
-661.974	-200.000	-0.009	-0.441
-660.959	-91.183	0.197	0.057
-659.945	-200.000	0.083	-0.432
-658.930	739.926	-0.120	-0.322
-657.916	311.301	0.092	-0.173
-656.901	10.740	0.149	0.114
-655.886	-200.000	-0.005	-0.254
-654.872	407.854	-0.032	-0.068
-653.857	-200.000	-0.026	-0.495
-652.843	38.042	-0.305	-0.272
-651.828	-67.066	-0.174	0.069
-650.814	800.000	0.128	-0.491
-649.799	-91.343	-0.056	0.016
-648.784	-92.517	-0.160	-0.045
-647.770	69.286	-0.268	0.276
-646.755	800.000	0.033	0.134
-645.741	-54.870	0.153	-0.069
-644.726	-168.391	0.247	-0.009
-643.711	800.000	0.100	0.279
-642.697	800.000	-0.018	0.062
-641.682	43.428	-0.210	-0.192
-640.668	129.331	-0.155	-0.199
-639.653	-200.000	0.029	-0.237
-638.638	669.677	-0.136	-0.354
-637.624	-16.955	-0.078	0.049
-636.609	800.000	0.051	0.164
-635.595	98.368	0.173	0.200
-634.580	-59.902	-0.288	0.123
-633.565	-172.228	0.283	-0.009
-632.551	-200.000	-0.005	0.099
-631.536	112.252	0.050	-0.061
-630.522	-200.000	0.061	0.380
-629.507	800.000	-0.019	-0.053
-628.492	800.000	-0.102	0.312
-627.478	63.185	-0.245	0.245
-626.463	51.750	-0.177	0.169
-625.449	-150.569	0.147	0.011
-624.434	166.086	0.041	-0.058
-623.419	338.347	0.128	-0.249
-622.405	478.169	-0.051	-0.115
-621.390	119.788	-0.071	0.088
-620.376	55.098	0.221	0.213
-619.361	372.837	-0.092	0.186
-618.346	-41.180	-0.192	0.099
-617.332	245.493	-0.167	0.280
-616.317	-89.036	-0.142	-0.042
-615.303	-170.787	-0.169	-0.006
-614.288	-14.337	-0.261	-0.168
-613.273	370.221	-0.020	-0.041
-612.259	-29.134	-0.085	-0.049
-611.244	114.809	-0.273	-0.333
-610.230	-120.449	0.252	0.043
-609.215	257.067	0.249	-0.427
-608.201	-200.000	0.081	-0.411
-607.186	27.259	0.098	0.083
-606.171	165.558	-0.305	-0.430
-605.157	191.772	0.061	0.093
-604.142	-137.169	-0.249	0.028
-603.128	-144.794	-0.142	0.013
-602.113	-6.748	0.210	0.143
-601.098	493.639	-0.076	0.173
-600.084	800.000	0.139	-0.456
-599.069	-96.470	-0.136	0.036
-598.055	-200.000	-0.005	0.063
-597.040	-79.803	-0.253	-0.085
-596.025	-200.000	0.016	0.207
-595.011	-200.000	0.029	-0.136
-593.996	-171.088	0.096	0.003
-592.982	-32.356	0.061	0.034
-591.967	127.607	0.048	-0.061
-590.952	31.617	-0.040	-0.034
-589.938	-107.286	0.269	0.059
-588.923	124.091	-0.142	-0.178
-587.909	250.802	0.211	0.359
-586.894	242.613	0.157	-0.263
-585.879	-37.125	0.240	-0.128
-584.865	-8.621	-0.150	0.101
-583.850	-142.318	-0.295	-0.029
-582.836	63.418	0.237	0.237
-581.821	390.653	0.020	-0.042
-580.806	-200.000	-0.027	-0.128
-579.792	-200.000	-0.032	-0.154
-578.777	6.105	-0.117	0.087
-577.763	-200.000	-0.007	0.169
-576.748	161.944	-0.153	-0.213
-575.733	-94.443	-0.137	-0.037
-574.719	109.698	-0.097	-0.116
-573.704	-121.724	-0.139	-0.023
-572.690	62.916	0.136	-0.136
-571.675	6.035	0.216	-0.160
-570.661	-106.013	-0.052	-0.012
-569.646	22.095	-0.196	-0.159
-568.631	-66.502	0.055	-0.022
-567.617	6.495	0.289	0.215
-566.602	29.489	0.204	-0.173
-565.588	-94.633	0.372	0.101
-564.573	248.848	0.184	0.312
-563.558	-200.000	-0.001	-0.110
-562.544	40.475	0.227	0.204
-561.529	800.000	-0.037	0.136
-560.515	800.000	-0.066	0.199
-559.500	-158.235	0.201	-0.012
-558.485	-46.463	0.437	0.214
-557.471	-31.913	-0.145	-0.081
-556.456	540.260	-0.025	0.060
-555.442	-139.856	-0.213	-0.023
-554.427	-75.994	0.114	-0.040
-553.412	-200.000	0.034	0.356
-552.398	82.083	-0.134	-0.145
-551.383	-200.000	-0.000	-0.263
-550.369	-92.133	0.200	0.056
-549.354	-39.766	0.265	0.138
-548.339	-3.778	-0.267	-0.185
-547.325	-200.000	0.001	0.124
-546.310	-55.811	0.019	0.008
-545.296	-60.671	-0.131	0.055
-544.281	-84.953	-0.217	-0.068
-543.266	-111.618	0.221	-0.045
-542.252	-111.539	-0.120	0.024
-541.237	58.987	0.108	-0.105
-540.223	-200.000	0.072	-0.360
-539.208	-124.331	-0.242	0.038
-538.193	23.271	0.434	0.355
-537.179	102.506	0.158	0.185
-536.164	436.664	0.156	-0.338
-535.150	-115.202	-0.157	0.030
-534.135	-25.904	0.066	-0.039
-533.121	-44.187	0.191	0.095
-532.106	-80.519	-0.266	-0.088
-531.091	4.740	-0.199	-0.146
-530.077	114.025	0.209	-0.253
-529.062	121.269	-0.200	0.248
-528.048	-84.272	-0.234	-0.074
-527.033	-2.727	0.118	-0.082
-526.018	23.390	-0.296	-0.242
-525.004	-40.549	0.026	-0.013
-523.989	-164.501	-0.264	0.012
-522.975	268.160	0.037	0.065
-521.960	-200.000	-0.055	-0.275
-520.945	-28.776	-0.319	-0.182
-519.931	-90.859	0.213	0.061
-518.916	-140.444	-0.333	0.035
-517.902	625.371	0.071	0.179
-516.887	-99.040	0.074	-0.019
-515.872	210.442	-0.083	0.130
-514.858	768.646	-0.077	-0.209
-513.843	-200.000	-0.048	-0.279
-512.829	-3.862	0.216	0.149
-511.814	309.031	-0.198	-0.369
-510.799	-200.000	-0.051	-0.306
-509.785	-137.022	-0.209	0.024
-508.770	-74.922	0.228	0.081
-507.756	800.000	0.077	-0.241
-506.741	204.333	-0.051	0.078
-505.726	-200.000	0.026	0.134
-504.712	-124.308	-0.077	0.012
-503.697	389.642	-0.089	0.185
-502.683	230.405	0.051	-0.083
-501.668	67.112	0.103	-0.104
-500.653	173.764	-0.092	-0.133
-499.639	418.817	0.126	0.268
-498.624	-62.595	-0.120	-0.050
-497.610	-70.425	0.366	-0.138
-496.595	-200.000	-0.062	-0.345
-495.581	-53.459	0.207	-0.094
-494.566	192.216	-0.214	-0.321
-493.551	77.856	0.021	0.022
-492.537	-91.175	0.376	-0.107
-491.522	623.154	-0.110	-0.275
-490.508	-61.201	0.302	0.127
-489.493	-0.642	-0.438	0.309
-488.478	204.371	0.100	-0.154
-487.464	51.055	-0.083	-0.078
-486.449	-84.435	-0.044	0.014
-485.435	170.203	-0.146	-0.208
-484.420	-200.000	0.020	0.324
-483.405	800.000	0.053	0.179
-482.391	800.000	-0.025	-0.093
-481.376	274.693	0.118	0.208
-480.362	44.711	0.091	-0.083
-479.347	-200.000	-0.003	0.160
-478.332	-46.371	-0.279	-0.136
-477.318	-44.507	0.075	0.037
-476.303	417.980	0.159	-0.337
-475.289	43.987	-0.152	0.139
-474.274	800.000	0.112	0.353
-473.259	37.541	0.131	-0.115
-472.245	-109.163	-0.118	-0.025
-471.230	162.814	-0.157	-0.219
-470.216	-40.524	-0.181	0.093
-469.201	-138.302	0.127	0.014
-468.186	-47.866	0.387	-0.186
-467.172	800.000	-0.089	-0.342
-466.157	45.315	-0.053	-0.049
-465.143	-136.568	-0.308	0.035
-464.128	156.102	-0.072	0.099
-463.113	155.466	0.099	0.135
-462.099	-29.204	0.131	-0.075
-461.084	172.396	-0.040	-0.057
-460.070	800.000	-0.070	-0.277
-459.055	366.158	0.183	0.367
-458.040	130.786	0.320	0.408
-457.026	-170.943	-0.408	-0.014
-456.011	20.011	0.135	-0.108
-454.997	608.883	-0.063	0.157
-453.982	-3.872	0.286	-0.197
-452.968	-200.000	-0.007	-0.037
-451.953	-93.922	-0.148	0.040
-450.938	-200.000	-0.007	-0.100
-449.924	-80.663	-0.137	0.045
-448.909	-200.000	0.003	0.380
-447.895	800.000	0.024	-0.085
-446.880	-98.510	-0.285	0.072
-445.865	-141.832	-0.107	-0.011
-444.851	-53.836	-0.105	-0.047
-443.836	206.062	0.065	-0.101
-442.822	496.653	-0.077	0.175
-441.807	-200.000	-0.044	0.283
-440.792	-200.000	-0.000	0.119
-439.778	212.368	-0.074	-0.115
-438.763	44.321	-0.270	0.246
-437.749	6.975	0.108	0.080
-436.734	289.420	-0.040	0.072
-435.719	-144.272	0.050	0.005
-434.705	533.899	-0.061	0.144
-433.690	-38.242	-0.211	0.111
-432.676	4.598	0.259	-0.188
-431.661	-152.152	0.233	-0.017
-430.646	184.862	0.159	0.233
-429.632	-108.893	0.219	-0.046
-428.617	191.085	0.078	0.116
-427.603	800.000	-0.075	-0.224
-426.588	800.000	0.024	-0.104
-425.573	-200.000	-0.080	-0.502
-424.559	-146.387	-0.214	-0.019
-423.544	-200.000	0.042	-0.462
-422.530	-113.528	-0.227	-0.044
-421.515	-110.252	0.225	-0.047
-420.500	800.000	0.043	-0.139
-419.486	7.573	-0.047	-0.035
-418.471	-200.000	-0.063	-0.372
-417.457	205.648	0.088	-0.135
-416.442	177.492	-0.096	-0.139
-415.428	800.000	-0.060	0.205
-414.413	-61.112	-0.152	0.063
-413.398	800.000	0.092	-0.321
-412.384	194.443	-0.055	0.083
-411.369	-200.000	0.025	0.176
-410.355	131.602	-0.118	0.150
-409.340	-123.947	0.182	-0.028
-408.325	420.715	0.022	0.046
-407.311	-181.127	0.180	0.004
-406.296	166.093	0.123	0.173
-405.282	800.000	-0.027	-0.105
-404.267	-148.116	-0.170	-0.014
-403.252	-178.693	-0.216	0.005
-402.238	-20.687	0.079	-0.048
-401.223	-200.000	-0.067	-0.302
-400.209	-88.829	-0.155	0.046
-399.194	-118.173	-0.246	0.043
-398.179	-27.822	0.014	-0.008
-397.165	800.000	0.080	0.262
-396.150	63.209	-0.138	0.137
-395.136	-59.236	-0.272	-0.116
-394.121	-18.443	0.226	-0.140
-393.106	2.521	-0.218	0.156
-392.092	-200.000	-0.026	0.230
-391.077	-200.000	-0.058	0.434
-390.063	800.000	0.063	-0.176
-389.048	-171.277	0.160	-0.005
-388.033	1.194	0.250	-0.178
-387.019	73.145	-0.223	0.231
-386.004	57.312	0.108	-0.105
-384.990	2.940	0.221	-0.159
-383.975	800.000	0.041	0.151
-382.960	800.000	0.042	0.150
-381.946	354.744	0.237	0.466
-380.931	-29.848	-0.062	-0.035
-379.917	27.982	0.174	0.146
-378.902	-53.101	-0.245	0.111
-377.888	116.808	0.127	0.154
-376.873	15.096	-0.150	0.117
-375.858	472.960	0.035	-0.079
-374.844	-200.000	0.016	-0.247
-373.829	-105.092	-0.371	0.084
-372.815	22.424	0.105	-0.085
-371.800	800.000	0.070	0.264
-370.785	46.274	-0.101	-0.093
-369.771	-109.165	-0.112	-0.023
-368.756	-82.577	0.141	0.045
-367.742	9.191	-0.078	-0.058
-366.727	800.000	0.022	-0.093
-365.712	-200.000	-0.020	-0.338
-364.698	2.592	-0.201	-0.144
-363.683	800.000	-0.022	0.081
-362.669	-46.251	0.091	0.045
-361.654	-50.849	-0.421	-0.196
-360.639	188.116	-0.027	0.040
-359.625	543.788	0.100	0.235
-358.610	491.862	0.112	0.254
-357.596	800.000	-0.042	0.146
-356.581	-74.187	0.058	-0.021
-355.566	93.488	0.109	0.122
-354.552	25.910	0.321	0.265
-353.537	-200.000	-0.001	-0.012
-352.523	29.340	-0.046	0.038
-351.508	-176.651	-0.242	-0.006
-350.493	-149.969	-0.440	0.034
-349.479	-104.319	0.234	-0.054
-348.464	1.042	-0.076	-0.054
-347.450	52.382	0.148	-0.140
-346.435	574.950	-0.094	-0.228
-345.420	-200.000	0.035	0.179
-344.406	-18.011	-0.222	0.137
-343.391	9.039	-0.066	0.050
-342.377	-200.000	0.023	0.132
-341.362	800.000	-0.073	-0.240
-340.348	-200.000	0.015	-0.199
-339.333	-158.742	-0.238	0.013
-338.318	-22.714	0.360	-0.215
-337.304	-107.724	0.317	-0.068
-336.289	563.838	-0.121	0.291
-335.275	172.970	0.159	-0.226
-334.260	-85.630	-0.040	0.012
-333.245	800.000	-0.090	0.305
-332.231	191.297	0.073	0.108
-331.216	-200.000	0.014	-0.360
-330.202	-31.656	-0.182	-0.101
-329.187	-200.000	-0.000	-0.084
-328.172	131.464	-0.146	0.185
-327.158	800.000	0.069	-0.205
-326.143	-165.428	0.099	-0.004
-325.129	-79.217	-0.163	0.055
-324.114	-99.345	0.260	0.065
-323.099	311.746	-0.215	-0.399
-322.085	74.145	0.165	-0.171
-321.070	73.764	0.093	0.097
-320.056	-19.050	-0.112	0.069
-319.041	63.617	-0.192	0.191
-318.026	72.305	-0.111	-0.114
-317.012	800.000	-0.192	-0.540
-315.997	472.873	0.082	-0.182
-314.983	-173.721	-0.339	-0.010
-313.968	57.871	-0.094	0.091
-312.953	800.000	-0.036	0.149
-311.939	106.085	0.140	-0.163
-310.924	97.283	-0.095	0.108
-309.910	27.440	0.237	0.197
-308.895	-65.746	0.153	0.061
-307.880	-86.331	0.111	-0.034
-306.866	-200.000	-0.026	0.248
-305.851	-73.667	-0.306	0.110
-304.837	-138.543	-0.290	-0.031
-303.822	272.315	0.123	0.214
-302.807	-200.000	-0.042	-0.288
-301.793	-110.341	0.203	-0.042
-300.778	16.627	0.321	-0.251
-299.764	-179.742	-0.362	-0.008
-298.749	312.536	-0.164	-0.303
-297.735	125.004	0.281	-0.349
-296.720	198.878	0.196	-0.296
-295.705	-57.654	-0.265	0.115
-294.691	-31.680	-0.197	0.109
-293.676	-5.880	0.337	0.228
-292.662	628.072	-0.128	0.319
-291.647	72.056	-0.065	0.067
-290.632	-200.000	-0.024	-0.201
-289.618	-77.938	0.145	-0.049
-288.603	180.326	-0.079	-0.114
-287.589	46.823	0.188	-0.173
-286.574	66.005	0.070	0.070
-285.559	-74.555	-0.188	-0.067
-284.545	9.242	-0.196	0.146
-283.530	26.319	0.114	-0.094
-282.516	-68.370	-0.276	-0.106
-281.501	-93.841	0.305	0.083
-280.486	-200.000	-0.028	0.170
-279.472	-49.833	-0.475	-0.223
-278.457	-200.000	-0.033	0.290
-277.443	800.000	0.019	0.075
-276.428	8.541	0.358	-0.266
-275.413	160.246	0.093	-0.128
-274.399	-11.031	0.030	-0.020
-273.384	459.740	-0.072	-0.158
-272.370	70.134	0.342	0.348
-271.355	305.217	0.179	0.327
-270.340	-158.012	0.250	0.015
-269.326	-114.074	-0.272	0.052
-268.311	-144.126	0.123	0.011
-267.297	-114.480	-0.320	0.061
-266.282	379.641	-0.115	0.232
-265.267	800.000	0.141	-0.467
-264.253	98.698	0.196	-0.223
-263.238	21.370	0.117	0.094
-262.224	-29.247	-0.307	0.173
-261.209	-75.333	-0.192	0.068
-260.195	-2.302	-0.250	-0.173
-259.180	-124.469	-0.503	-0.077
-258.165	-5.435	-0.170	-0.115
-257.151	-91.220	0.130	0.037
-256.136	23.738	-0.163	0.133
-255.122	-16.805	-0.417	0.260
-254.107	-98.755	0.398	0.100
-253.092	237.196	-0.110	0.179
-252.078	81.875	0.069	0.074
-251.063	-200.000	0.378	0.001
-250.049	-200.000	0.009	-0.195
-249.034	-136.844	0.096	-0.011
-248.019	319.876	0.076	0.142
-247.005	350.569	0.027	0.052
-245.990	-200.000	-0.054	-0.271
-244.976	-200.000	0.005	-0.143
-243.961	-78.094	-0.092	-0.031
-242.946	-92.399	-0.264	0.073
-241.932	-147.815	0.040	-0.003
-240.917	150.661	0.050	-0.067
-239.903	-142.024	0.248	0.024
-238.888	-172.840	0.430	-0.013
-237.873	-200.000	-0.008	0.257
-236.859	-172.077	0.359	-0.011
-235.844	-200.000	0.032	-0.202
-234.830	-123.693	-0.116	-0.018
-233.815	-9.142	0.209	0.138
-232.800	31.178	-0.186	0.157
-231.786	81.095	-0.098	0.104
-230.771	800.000	0.033	-0.129
-229.757	62.064	-0.199	0.195
-228.742	22.806	-0.200	0.161
-227.727	62.356	-0.072	0.070
-226.713	-95.622	0.168	0.044
-225.698	78.777	-0.229	-0.241
-224.684	405.198	-0.112	0.232
-223.669	-39.672	0.346	0.178
-222.655	-117.191	0.031	-0.006
-221.640	704.455	-0.163	-0.423
-220.625	144.063	-0.175	0.230
-219.611	239.244	0.122	0.200
-218.596	-34.611	0.044	-0.024
-217.582	-86.884	0.336	0.101
-216.567	-83.456	-0.104	-0.033
-215.552	-87.982	0.181	0.054
-214.538	-200.000	0.002	0.018
-213.523	-200.000	0.040	0.244
-212.509	-9.197	0.116	0.076
-211.494	23.373	0.170	0.137
-210.479	595.955	-0.160	-0.390
-209.465	363.617	0.054	-0.107
-208.450	-200.000	-0.056	0.431
-207.436	-79.513	0.130	-0.043
-206.421	167.456	0.130	-0.181
-205.406	172.183	-0.131	-0.186
-204.392	-67.403	-0.208	-0.081
-203.377	754.910	-0.040	-0.106
-202.363	71.375	-0.142	0.145
-201.348	800.000	0.047	0.133
-200.333	-79.621	0.237	0.079
-199.319	-94.604	-0.188	0.050
-198.304	-200.000	0.034	0.264
-197.290	-40.741	0.065	0.033
-196.275	16.638	-0.038	-0.030
-195.260	-200.000	0.015	0.187
-194.246	245.919	0.126	0.208
-193.231	-5.178	0.112	0.076
-192.217	-54.435	-0.243	0.108
-191.202	-165.787	0.218	-0.009
-190.187	-200.000	-0.041	-0.232
-189.173	630.285	0.103	-0.256
-188.158	-200.000	-0.013	0.071
-187.144	12.651	0.114	0.086
-186.129	-133.423	-0.430	-0.053
-185.114	-200.000	0.026	0.419
-184.100	-82.566	0.537	0.171
-183.085	215.149	0.062	-0.096
-182.071	53.521	0.070	0.066
-181.056	21.668	0.099	-0.079
-180.042	-20.278	0.015	0.009
-179.027	-22.242	-0.173	-0.103
-178.012	-200.000	-0.023	0.186
-176.998	-60.860	0.230	-0.096
-175.983	-200.000	0.002	0.171
-174.969	800.000	-0.074	0.204
-173.954	80.668	-0.076	0.080
-172.939	-117.714	-0.262	0.046
-171.925	14.166	0.004	-0.003
-170.910	0.053	0.139	0.097
-169.896	207.068	0.046	-0.070
-168.881	21.775	0.065	-0.052
-167.866	110.815	-0.114	-0.135
-166.852	-118.054	0.368	-0.065
-165.837	800.000	-0.056	-0.199
-164.823	52.268	0.169	-0.158
-163.808	800.000	0.119	-0.379
-162.793	-159.505	0.605	0.033
-161.779	-57.004	-0.185	0.080
-160.764	80.502	0.068	0.072
-159.750	142.839	0.279	0.365
-158.735	-144.984	0.331	0.030
-157.720	29.564	-0.301	0.251
-156.706	411.571	-0.109	0.227
-155.691	39.300	0.198	0.174
-154.677	-85.133	0.145	-0.045
-153.662	176.725	0.209	-0.299
-152.647	-200.000	-0.075	-0.331
-151.633	-58.806	0.219	0.093
-150.618	245.605	-0.204	0.338
-149.604	591.442	0.083	-0.200
-148.589	-200.000	0.009	-0.128
-147.574	-131.187	-0.197	0.026
-146.560	-200.000	0.010	-0.163
-145.545	-110.968	-0.342	-0.069
-144.531	-36.502	-0.080	0.042
-143.516	-60.681	-0.294	0.123
-142.502	-36.485	0.438	0.231
-141.487	192.789	-0.198	-0.293
-140.472	213.322	0.084	0.130
-139.458	404.975	0.155	-0.321
-138.443	-200.000	-0.069	-0.341
-137.429	-1.865	0.315	0.218
-136.414	800.000	-0.053	0.159
-135.399	331.315	-0.049	-0.093
-134.385	139.491	0.034	-0.044
-133.370	-62.222	0.201	-0.082
-132.356	-108.142	-0.382	0.081
-131.341	-109.786	0.217	-0.045
-130.326	-46.057	-0.208	0.100
-129.312	800.000	-0.067	0.275
-128.297	577.899	-0.126	0.303
-127.283	-200.000	-0.010	0.086
-126.268	-140.188	0.461	0.047
-125.253	233.645	-0.132	-0.213
-124.239	480.340	-0.066	0.147
-123.224	-44.124	0.213	-0.105
-122.210	492.245	0.029	0.065
-121.195	643.411	0.056	-0.139
