DTS Sentinel unit serial number:	SN413079Multiplexer serial number:	ORYXHardware model number:	OX4-SRSoftware version number:	ORYX F/W v4.00 Oryx Data Collector v3.7.2.0data status	okinstallation	princeton_trtdifferential loss correction	single-endedforward channel	channel 1reverse channel	N/Adate	2019/09/18time	11:14:35forward acquisition time	60.00reverse acquisition time	0.00gamma	496.2192k internal	0.2326k external	0.2326temperature offset calibration	0.9977default loss term (dB/km)	0.3790temperature slope calibration	1.0000multiplexer offset coefficient	1.0000multiplexer slope coefficient	1.0000fibre end	0.00T internal ref (°C)	29.75T ext. ref 1 (°C)	0.42T ext. ref 2 (°C)	26.77length (m)	temperature (°C)	Stokes	anti-Stokes-747.200	-166.384	-0.219	-0.009
-746.185	4.270	-0.181	-0.134
-745.171	-57.818	0.352	0.156
-744.156	800.000	0.053	-0.171
-743.142	-200.000	0.032	0.210
-742.127	-96.459	-0.225	0.060
-741.112	800.000	0.014	0.045
-740.098	-23.185	-0.228	-0.138
-739.083	-194.677	-0.138	-0.001
-738.069	-36.421	0.244	0.133
-737.054	319.109	-0.012	-0.023
-736.039	55.846	0.163	-0.159
-735.025	284.859	0.150	0.272
-734.010	396.819	-0.181	-0.380
-732.996	-200.000	0.026	-0.237
-731.981	-200.000	-0.077	-0.378
-730.966	-200.000	-0.062	0.425
-729.952	800.000	0.081	-0.270
-728.937	-200.000	0.009	-0.196
-727.923	800.000	-0.088	0.248
-726.908	800.000	-0.066	0.246
-725.894	-49.719	-0.136	-0.065
-724.879	20.967	-0.355	-0.290
-723.864	180.589	-0.080	0.118
-722.850	-137.599	0.248	-0.028
-721.835	-183.303	-0.366	0.006
-720.821	-1.197	-0.223	-0.159
-719.806	-200.000	-0.026	-0.119
-718.791	-3.488	-0.238	-0.167
-717.777	0.539	0.259	0.186
-716.762	-200.000	-0.006	-0.221
-715.748	-64.109	-0.212	-0.087
-714.733	-89.316	0.104	0.031
-713.718	42.844	-0.218	-0.200
-712.704	800.000	-0.067	-0.193
-711.689	-200.000	0.054	0.277
-710.675	800.000	-0.113	-0.346
-709.660	800.000	-0.023	-0.063
-708.645	-54.779	0.056	-0.025
-707.631	266.172	0.049	-0.087
-706.616	-79.800	0.276	-0.093
-705.602	113.230	-0.226	-0.276
-704.587	425.329	-0.060	-0.129
-703.572	-136.777	0.111	-0.013
-702.558	-72.691	-0.381	-0.142
-701.543	-71.103	-0.291	0.110
-700.529	-145.709	0.257	0.023
-699.514	58.361	-0.125	-0.124
-698.499	569.492	-0.050	0.123
-697.485	-11.092	-0.071	0.047
-696.470	-136.758	0.499	-0.058
-695.456	-200.000	-0.012	0.209
-694.441	-178.280	0.160	-0.004
-693.426	-39.256	0.039	-0.021
-692.412	800.000	0.038	-0.123
-691.397	76.545	-0.297	-0.317
-690.383	287.659	-0.183	-0.333
-689.368	12.959	0.167	0.130
-688.354	75.901	-0.093	-0.099
-687.339	255.054	0.152	-0.262
-686.324	-58.790	-0.311	0.135
-685.310	800.000	-0.086	-0.349
-684.295	253.160	0.072	-0.123
-683.281	-92.994	0.147	-0.041
-682.266	358.735	-0.144	0.290
-681.251	-71.854	0.071	0.027
-680.237	-16.565	-0.134	-0.086
-679.222	800.000	-0.023	-0.069
-678.208	-106.240	0.379	-0.085
-677.193	431.387	0.140	-0.306
-676.178	317.243	-0.076	0.144
-675.164	26.301	0.225	0.189
-674.149	-6.552	0.234	-0.160
-673.135	-75.184	-0.204	0.073
-672.120	-200.000	0.005	-0.095
-671.105	594.461	0.016	0.041
-670.091	800.000	-0.043	-0.146
-669.076	-83.519	-0.347	0.112
-668.062	361.792	-0.078	-0.156
-667.047	-200.000	-0.002	0.298
-666.032	-89.790	0.126	0.037
-665.018	766.918	-0.051	-0.138
-664.003	-1.006	-0.096	-0.068
-662.989	-38.834	-0.403	-0.214
-661.974	-69.959	-0.091	-0.035
-660.959	431.546	-0.108	-0.234
-659.945	-200.000	0.124	0.000
-658.930	-92.107	0.255	0.073
-657.916	-200.000	0.018	0.083
-656.901	-200.000	-0.005	0.146
-655.886	227.953	-0.059	0.097
-654.872	-28.284	0.107	0.062
-653.857	433.090	-0.061	0.134
-652.843	-83.243	0.428	0.138
-651.828	-200.000	-0.018	0.118
-650.814	338.727	-0.099	0.193
-649.799	164.893	0.212	-0.301
-648.784	291.489	-0.064	-0.116
-647.770	-59.042	0.297	0.129
-646.755	-200.000	-0.051	-0.232
-645.741	63.561	0.243	0.245
-644.726	800.000	-0.070	-0.293
-643.711	458.516	-0.205	-0.458
-642.697	-27.031	0.134	0.079
-641.682	-90.779	0.207	0.060
-640.668	62.030	0.148	0.148
-639.653	42.183	-0.254	-0.232
-638.638	-200.000	0.022	-0.125
-637.624	-200.000	0.032	0.277
-636.609	-76.225	0.125	0.044
-635.595	-96.633	-0.145	-0.038
-634.580	-22.675	0.295	-0.179
-633.565	-110.950	0.048	0.010
-632.551	-123.263	0.146	-0.023
-631.536	-117.609	-0.145	0.026
-630.522	-74.434	-0.147	-0.053
-629.507	-68.389	-0.143	-0.056
-628.492	-11.175	-0.047	-0.031
-627.478	-200.000	0.031	0.537
-626.463	-32.664	-0.188	0.105
-625.449	74.155	-0.081	0.085
-624.434	177.717	0.111	0.163
-623.419	-200.000	-0.006	0.063
-622.405	800.000	0.066	-0.273
-621.390	195.824	0.124	-0.189
-620.376	232.129	-0.171	0.281
-619.361	800.000	0.027	-0.076
-618.346	-101.695	-0.225	-0.055
-617.332	-44.027	0.174	-0.088
-616.317	-158.650	-0.161	0.009
-615.303	12.081	-0.215	-0.166
-614.288	-200.000	0.088	-0.441
-613.273	156.726	-0.079	0.110
-612.259	99.896	0.188	-0.218
-611.244	-43.566	-0.251	-0.127
-610.230	-110.855	-0.319	-0.066
-609.215	-119.528	-0.157	-0.027
-608.201	-107.779	-0.342	-0.075
-607.186	399.096	-0.125	0.262
-606.171	-200.000	-0.035	0.185
-605.157	15.926	0.166	-0.131
-604.142	-14.085	-0.096	-0.062
-603.128	-43.970	0.209	-0.106
-602.113	45.914	0.153	0.142
-601.098	74.177	-0.148	-0.156
-600.084	-200.000	0.018	0.123
-599.069	179.810	0.096	-0.141
-598.055	0.113	-0.013	-0.009
-597.040	311.467	-0.140	0.264
-596.025	-34.884	-0.197	0.108
-595.011	-4.327	-0.067	-0.046
-593.996	-133.624	0.340	-0.043
-592.982	800.000	0.007	-0.022
-591.967	-66.546	0.131	0.052
-590.952	-200.000	-0.013	0.162
-589.938	-200.000	0.000	0.061
-588.923	-200.000	-0.011	0.322
-587.909	-80.724	0.265	-0.088
-586.894	-40.489	0.241	0.125
-585.879	-200.000	-0.025	0.346
-584.865	58.982	0.253	0.249
-583.850	165.037	-0.150	-0.212
-582.836	-37.771	-0.245	-0.131
-581.821	-163.541	0.098	0.005
-580.806	-67.805	0.118	0.046
-579.792	2.797	0.140	0.101
-578.777	183.713	-0.104	-0.154
-577.763	-34.365	-0.151	-0.083
-576.748	201.285	-0.129	0.199
-575.733	-200.000	0.019	0.118
-574.719	-28.266	0.243	0.141
-573.704	-82.186	-0.567	0.185
-572.690	-103.292	-0.043	0.010
-571.675	726.648	0.085	0.228
-570.661	-47.738	-0.180	-0.087
-569.646	186.273	-0.212	-0.316
-568.631	-65.082	-0.162	-0.066
-567.617	79.007	-0.107	-0.115
-566.602	-132.951	0.339	-0.043
-565.588	-95.214	-0.263	0.071
-564.573	-200.000	0.017	0.229
-563.558	15.916	-0.077	0.061
-562.544	-200.000	0.018	-0.090
-561.529	800.000	-0.082	0.247
-560.515	-51.852	-0.201	0.094
-559.500	709.395	0.034	-0.091
-558.485	-200.000	0.073	-0.364
-557.471	243.779	-0.193	0.325
-556.456	-64.581	-0.146	-0.059
-555.442	-135.392	-0.332	0.040
-554.427	-118.978	0.202	-0.036
-553.412	-200.000	0.003	0.039
-552.398	559.349	-0.089	0.216
-551.383	-34.698	-0.166	-0.091
-550.369	6.679	0.262	-0.195
-549.354	-66.821	-0.163	-0.065
-548.339	290.188	0.203	0.370
-547.325	800.000	-0.100	0.291
-546.310	-78.985	-0.377	0.128
-545.296	-23.300	-0.040	-0.024
-544.281	-68.460	-0.102	0.040
-543.266	-200.000	0.021	0.272
-542.252	55.970	0.379	-0.368
-541.237	632.952	0.042	-0.107
-540.223	7.350	-0.170	-0.127
-539.208	-200.000	0.050	0.237
-538.193	19.470	-0.185	-0.149
-537.179	22.299	0.449	0.367
-536.164	2.869	0.246	-0.179
-535.150	-187.106	0.038	-0.001
-534.135	-171.195	-0.230	-0.008
-533.121	352.304	-0.116	0.231
-532.106	-82.305	-0.299	0.097
-531.091	-72.094	0.327	-0.121
-530.077	76.522	-0.025	-0.026
-529.062	-132.950	-0.234	-0.030
-528.048	351.432	0.013	0.027
-527.033	-50.742	0.035	-0.017
-526.018	-200.000	-0.042	0.299
-525.004	-176.979	-0.044	0.001
-523.989	177.718	0.066	0.097
-522.975	-81.169	-0.111	-0.037
-521.960	5.827	0.276	-0.204
-520.945	455.517	0.163	-0.361
-519.931	-103.321	-0.018	-0.004
-518.916	-80.362	-0.270	-0.090
-517.902	-95.998	0.163	-0.043
-516.887	-41.097	-0.133	-0.069
-515.872	411.733	0.105	-0.224
-514.858	222.045	-0.249	-0.400
-513.843	-110.752	-0.438	-0.090
-512.829	-200.000	0.015	-0.252
-511.814	-80.106	-0.141	-0.047
-510.799	-200.000	-0.096	-0.488
-509.785	-45.039	-0.224	0.111
-508.770	-200.000	0.027	0.299
-507.756	344.676	0.066	-0.129
-506.741	800.000	-0.056	0.239
-505.726	-200.000	-0.032	-0.216
-504.712	-76.069	0.380	0.134
-503.697	-163.787	0.084	-0.004
-502.683	-200.000	-0.048	0.453
-501.668	35.406	0.067	0.059
-500.653	52.965	0.123	-0.117
-499.639	182.113	0.081	0.120
-498.624	45.195	0.176	0.162
-497.610	67.553	0.351	-0.358
-496.595	-200.000	-0.038	0.482
-495.581	-200.000	-0.007	0.218
-494.566	-111.245	0.391	0.080
-493.551	-52.523	0.076	0.035
-492.537	-16.885	-0.114	-0.072
-491.522	-114.362	0.144	0.028
-490.508	19.440	-0.069	0.055
-489.493	-119.758	0.317	-0.055
-488.478	800.000	0.061	0.258
-487.464	154.235	-0.124	-0.169
-486.449	-28.037	0.378	-0.218
-485.435	-110.579	0.484	0.100
-484.420	-145.484	0.196	-0.018
-483.405	-70.683	-0.290	-0.109
-482.391	-200.000	0.027	-0.226
-481.376	3.861	-0.224	-0.163
-480.362	3.554	0.124	0.090
-479.347	-200.000	0.022	0.319
-478.332	-200.000	0.010	-0.091
-477.318	-136.232	-0.103	0.012
-476.303	-61.541	-0.073	-0.031
-475.289	800.000	-0.029	-0.107
-474.274	551.059	0.024	0.057
-473.259	1.817	0.163	-0.117
-472.245	-26.389	0.123	0.072
-471.230	269.728	0.218	-0.381
-470.216	237.563	0.306	-0.506
-469.201	-23.198	0.270	-0.162
-468.186	-200.000	0.016	0.092
-467.172	-200.000	0.000	0.049
-466.157	-200.000	0.048	-0.305
-465.143	46.156	0.184	0.170
-464.128	-150.604	-0.231	-0.018
-463.113	10.377	-0.234	0.177
-462.099	-135.755	-0.257	0.030
-461.084	-200.000	-0.038	0.178
-460.070	1.904	-0.142	0.102
-459.055	800.000	-0.007	0.028
-458.040	-140.899	-0.360	-0.037
-457.026	-182.866	-0.121	0.002
-456.011	-2.294	-0.112	-0.078
-454.997	-24.554	0.129	-0.077
-453.982	-138.735	0.221	-0.024
-452.968	800.000	0.108	-0.331
-451.953	-200.000	0.007	0.102
-450.938	-60.863	0.171	-0.072
-449.924	63.146	0.208	-0.208
-448.909	-154.775	0.147	-0.010
-447.895	-33.703	-0.230	0.127
-446.880	76.805	-0.239	0.252
-445.865	36.493	0.149	-0.131
-444.851	123.601	-0.252	-0.315
-443.836	-115.782	-0.105	0.020
-442.822	-153.746	0.353	0.024
-441.807	535.094	-0.026	-0.062
-440.792	-161.249	0.177	0.009
-439.778	800.000	-0.038	0.139
-438.763	-96.017	-0.152	-0.040
-437.749	47.815	0.146	0.136
-436.734	-200.000	-0.019	0.214
-435.719	-152.442	0.258	0.018
-434.705	350.757	-0.016	-0.032
-433.690	-61.442	-0.181	0.076
-432.676	-200.000	-0.058	0.308
-431.661	119.643	0.130	0.160
-430.646	621.152	0.041	0.104
-429.632	-107.640	-0.049	-0.011
-428.617	252.529	-0.111	0.189
-427.603	-106.311	-0.194	0.043
-426.588	-200.000	-0.006	-0.122
-425.573	-200.000	-0.102	-0.538
-424.559	5.475	0.121	-0.089
-423.544	-200.000	0.060	0.295
-422.530	-200.000	0.016	-0.226
-421.515	24.471	-0.153	-0.126
-420.500	-200.000	0.013	0.097
-419.486	-40.956	0.045	0.023
-418.471	27.055	-0.097	-0.081
-417.457	340.396	0.090	0.176
-416.442	-200.000	0.001	-0.159
-415.428	-39.390	-0.313	0.163
-414.413	-59.673	-0.287	-0.122
-413.398	81.625	0.126	-0.136
-412.384	62.226	-0.243	0.241
-411.369	-148.096	0.334	-0.028
-410.355	800.000	0.010	-0.033
-409.340	-137.650	-0.141	-0.016
-408.325	-115.419	0.149	-0.028
-407.311	-200.000	-0.026	0.318
-406.296	800.000	0.075	0.214
-405.282	-12.881	0.163	-0.106
-404.267	742.562	0.078	0.208
-403.252	447.963	0.083	-0.181
-402.238	800.000	0.100	-0.404
-401.223	800.000	-0.098	-0.341
-400.209	-200.000	0.045	-0.303
-399.194	-58.825	0.308	0.132
-398.179	749.287	0.094	0.251
-397.165	26.424	0.211	-0.175
-396.150	-136.496	-0.263	0.030
-395.136	28.062	0.094	0.079
-394.121	163.033	0.095	0.132
-393.106	189.410	-0.186	0.277
-392.092	-200.000	0.065	0.415
-391.077	211.945	-0.120	-0.188
-390.063	800.000	0.144	-0.454
-389.048	-92.002	-0.137	-0.039
-388.033	32.825	0.440	0.379
-387.019	800.000	-0.048	0.209
-386.004	-200.000	-0.013	0.096
-384.990	-66.673	-0.163	0.064
-383.975	-145.867	0.098	-0.009
-382.960	-11.860	0.205	-0.134
-381.946	-200.000	0.011	-0.079
-380.931	-117.548	-0.191	0.034
-379.917	-74.420	-0.378	-0.135
-378.902	-200.000	-0.060	0.473
-377.888	-200.000	0.001	-0.292
-376.873	178.173	-0.145	-0.211
-375.858	-200.000	0.012	0.187
-374.844	-119.273	-0.162	0.028
-373.829	-200.000	0.022	-0.105
-372.815	9.944	-0.163	-0.123
-371.800	-23.713	0.331	0.197
-370.785	-71.304	0.110	-0.041
-369.771	120.203	-0.270	-0.333
-368.756	-200.000	0.001	0.314
-367.742	74.605	0.291	0.304
-366.727	-20.239	0.205	-0.125
-365.712	8.925	-0.245	0.184
-364.698	15.399	0.156	0.122
-363.683	125.233	0.157	-0.197
-362.669	-93.437	-0.064	0.018
-361.654	-157.939	-0.165	-0.010
-360.639	-64.346	-0.070	0.028
-359.625	67.782	0.113	0.115
-358.610	45.760	-0.107	-0.098
-357.596	-106.366	0.048	-0.011
-356.581	-143.510	-0.386	0.037
-355.566	800.000	0.035	-0.133
-354.552	-20.210	0.444	0.272
-353.537	91.844	0.155	0.173
-352.523	-200.000	-0.002	0.117
-351.508	307.354	-0.065	-0.120
-350.493	-200.000	-0.014	-0.200
-349.479	545.579	0.029	-0.070
-348.464	-161.110	-0.333	-0.017
-347.450	85.127	0.079	-0.086
-346.435	800.000	0.083	-0.246
-345.420	-54.013	-0.223	0.101
-344.406	-184.631	0.134	0.002
-343.391	-120.449	0.131	0.022
-342.377	232.874	0.217	-0.355
-341.362	236.217	0.070	0.116
-340.348	71.961	0.124	-0.128
-339.333	7.130	0.129	0.096
-338.318	244.002	0.204	0.340
-337.304	-200.000	-0.015	0.319
-336.289	-65.806	-0.299	-0.119
-335.275	800.000	0.089	0.285
-334.260	-200.000	0.022	0.249
-333.245	-73.244	-0.113	0.041
-332.231	99.893	0.242	-0.278
-331.216	156.814	0.183	-0.250
-330.202	159.104	0.081	0.111
-329.187	67.401	-0.059	-0.060
-328.172	327.214	0.039	0.074
-327.158	-24.296	0.200	0.118
-326.143	-200.000	0.033	0.164
-325.129	83.131	0.223	0.241
-324.114	82.486	-0.274	-0.295
-323.099	81.420	0.147	0.158
-322.085	-136.573	0.143	-0.016
-321.070	-90.108	-0.320	-0.093
-320.056	800.000	0.061	0.204
-319.041	-66.327	-0.302	-0.119
-318.026	-200.000	0.007	-0.144
-317.012	-98.079	0.220	0.056
-315.997	-47.514	-0.190	0.091
-314.983	-97.552	-0.307	0.079
-313.968	-200.000	0.003	0.131
-312.953	-120.816	0.318	-0.053
-311.939	-2.096	0.208	0.145
-310.924	128.277	-0.118	-0.149
-309.910	800.000	0.035	-0.107
-308.895	800.000	0.039	0.128
-307.880	84.223	0.125	0.135
-306.866	22.483	-0.038	0.031
-305.851	-200.000	0.012	0.108
-304.837	8.333	0.186	-0.138
-303.822	-47.916	0.121	0.058
-302.807	-111.265	0.210	0.043
-301.793	280.399	-0.047	0.084
-300.778	-200.000	0.020	-0.246
-299.764	10.600	0.145	-0.110
-298.749	800.000	0.045	-0.189
-297.735	-54.734	0.017	0.008
-296.720	-200.000	-0.052	0.312
-295.705	-34.165	-0.308	-0.168
-294.691	591.531	-0.112	0.274
-293.676	177.946	-0.131	0.189
-292.662	800.000	-0.025	-0.077
-291.647	-58.525	0.190	-0.082
-290.632	800.000	-0.091	-0.254
-289.618	3.694	0.184	0.133
-288.603	-28.084	-0.055	-0.032
-287.589	-111.892	0.230	-0.046
-286.574	96.867	-0.215	-0.244
-285.559	-200.000	0.015	-0.116
-284.545	-14.901	0.134	-0.085
-283.530	-200.000	-0.022	-0.117
-282.516	800.000	-0.041	0.173
-281.501	-200.000	-0.002	0.124
-280.486	25.022	0.258	0.212
-279.472	-200.000	-0.003	0.184
-278.457	607.395	-0.109	-0.268
-277.443	-84.277	-0.100	0.031
-276.428	-50.906	0.291	-0.135
-275.413	-45.012	0.062	-0.031
-274.399	-143.366	0.070	0.007
-273.384	35.897	0.205	-0.179
-272.370	127.859	0.126	-0.159
-271.355	-34.256	0.131	0.071
-270.340	-2.673	-0.354	-0.245
-269.326	79.441	0.330	0.350
-268.311	457.791	0.034	0.074
-267.297	-91.761	0.093	-0.026
-266.282	-200.000	-0.034	0.155
-265.267	-122.488	-0.446	-0.072
-264.253	525.533	-0.061	-0.142
-263.238	72.034	-0.111	-0.114
-262.224	-200.000	-0.008	-0.082
-261.209	-23.796	0.118	0.070
-260.195	55.050	-0.237	-0.226
-259.180	-107.424	-0.091	0.020
-258.165	70.951	-0.225	0.231
-257.151	13.544	0.156	-0.120
-256.136	-200.000	0.009	0.054
-255.122	317.987	-0.075	-0.141
-254.107	-71.662	-0.420	-0.155
-253.092	-133.085	0.164	0.021
-252.078	157.980	-0.108	-0.148
-251.063	-79.930	0.292	0.097
-250.049	-83.124	-0.123	0.039
-249.034	112.002	-0.115	-0.138
-248.019	-83.271	-0.266	-0.085
-247.005	-152.552	-0.194	-0.014
-245.990	-139.710	0.226	-0.024
-244.976	12.562	0.274	0.209
-243.961	-151.153	0.429	0.032
-242.946	770.412	0.128	-0.345
-241.932	-200.000	0.048	-0.254
-240.917	-115.675	-0.248	-0.046
-239.903	73.249	0.249	-0.257
-238.888	-119.188	0.133	0.023
-237.873	-200.000	0.034	-0.150
-236.859	351.761	-0.091	-0.179
-235.844	9.462	0.313	0.234
-234.830	206.545	-0.026	0.040
-233.815	-200.000	0.031	-0.364
-232.800	226.087	0.242	-0.388
-231.786	-23.784	-0.224	-0.133
-230.771	23.535	-0.237	-0.192
-229.757	-23.655	0.090	0.053
-228.742	75.462	-0.019	-0.020
-227.727	-184.692	-0.296	0.005
-226.713	23.334	0.168	0.136
-225.698	-200.000	0.006	0.137
-224.684	35.442	0.126	0.109
-223.669	-27.317	-0.172	-0.099
-222.655	800.000	-0.031	-0.095
-221.640	-200.000	-0.197	-0.000
-220.625	235.600	-0.159	-0.260
-219.611	-11.945	-0.174	-0.113
-218.596	318.684	-0.174	-0.325
-217.582	-76.529	0.167	0.058
-216.567	10.667	-0.239	0.180
-215.552	316.356	-0.060	0.111
-214.538	-200.000	0.023	0.472
-213.523	-200.000	0.012	-0.110
-212.509	-110.057	-0.174	0.036
-211.494	65.225	-0.074	0.074
-210.479	-59.463	0.200	-0.085
-209.465	119.221	0.221	-0.270
-208.450	265.716	0.090	0.155
-207.436	-200.000	0.011	-0.228
-206.421	339.580	0.186	-0.358
-205.406	800.000	-0.062	0.200
-204.392	-83.666	0.095	0.030
-203.377	171.942	-0.322	0.458
-202.363	215.188	-0.025	-0.038
-201.348	112.562	-0.219	0.261
-200.333	-109.592	-0.096	-0.020
-199.319	-80.896	-0.213	-0.070
-198.304	189.283	0.028	0.042
-197.290	-15.055	0.114	-0.072
-196.275	-200.000	-0.006	-0.044
-195.260	-97.849	-0.366	0.093
-194.246	685.445	0.061	-0.156
-193.231	-12.191	-0.190	0.123
-192.217	-112.276	0.303	0.060
-191.202	-189.310	-0.273	-0.003
-190.187	631.518	-0.084	-0.209
-189.173	-81.142	-0.323	-0.105
-188.158	123.906	0.145	0.180
-187.144	-200.000	-0.018	0.135
-186.129	-50.189	-0.302	0.141
-185.114	800.000	0.012	0.044
-184.100	89.436	-0.112	0.123
-183.085	-96.851	0.301	0.078
-182.071	129.727	0.136	-0.172
-181.056	21.739	0.086	0.069
-180.042	1.743	0.243	0.173
-179.027	-200.000	-0.070	0.344
-178.012	-62.131	-0.149	-0.062
-176.998	369.206	0.086	-0.171
-175.983	352.457	-0.119	-0.232
-174.969	-112.655	0.399	0.078
-173.954	-111.193	-0.136	-0.028
-172.939	-102.724	-0.283	-0.066
-171.925	210.795	0.040	-0.063
-170.910	-44.351	-0.248	0.123
-169.896	78.615	-0.045	-0.047
-168.881	-200.000	-0.022	-0.280
-167.866	800.000	-0.077	-0.285
-166.852	-47.679	0.316	-0.151
-165.837	143.299	0.117	0.153
-164.823	-43.140	-0.343	0.172
-163.808	-145.523	0.147	-0.013
-162.793	-1.263	-0.322	0.224
-161.779	-69.151	-0.110	-0.042
-160.764	-200.000	-0.036	0.462
-159.750	107.091	-0.203	0.238
-158.735	541.028	0.139	0.327
-157.720	126.372	0.183	0.228
-156.706	161.648	0.154	0.213
-155.691	-149.803	-0.210	0.016
-154.677	-200.000	0.003	-0.046
-153.662	-79.010	-0.090	0.030
-152.647	73.467	0.209	-0.215
-151.633	-74.848	-0.121	-0.043
-150.618	66.799	-0.194	-0.195
-149.604	-135.069	0.129	-0.015
-148.589	-200.000	-0.007	-0.087
-147.574	199.422	-0.040	0.060
-146.560	96.524	-0.075	0.084
-145.545	749.955	0.080	-0.214
-144.531	-40.013	0.266	0.137
-143.516	166.259	0.166	0.232
-142.502	-95.426	-0.184	0.049
-141.487	206.971	0.159	0.244
-140.472	-11.367	0.216	-0.140
-139.458	107.888	0.100	0.118
-138.443	-200.000	0.008	0.194
-137.429	-150.112	0.234	-0.018
-136.414	-99.679	0.164	0.041
-135.399	17.174	-0.294	-0.230
-134.385	800.000	-0.057	0.167
-133.370	683.431	0.082	0.212
-132.356	-78.979	0.236	0.079
-131.341	-167.835	0.289	0.011
-130.326	356.140	-0.066	-0.128
-129.312	-160.861	0.164	-0.009
-128.297	280.001	0.074	0.131
-127.283	616.838	-0.196	0.484
-126.268	463.395	0.034	0.076
-125.253	-39.167	-0.264	-0.137
-124.239	800.000	-0.059	0.190
-123.224	800.000	0.045	-0.152
-122.210	-143.328	0.243	0.023
-121.195	-64.704	0.292	-0.117
