DTS Sentinel unit serial number:	SN413079Multiplexer serial number:	ORYXHardware model number:	OX4-SRSoftware version number:	ORYX F/W v4.00 Oryx Data Collector v3.7.2.0data status	okinstallation	princeton_trtdifferential loss correction	single-endedforward channel	channel 1reverse channel	N/Adate	2019/09/19time	02:38:35forward acquisition time	60.00reverse acquisition time	0.00gamma	496.2192k internal	0.2344k external	0.2344temperature offset calibration	1.0022default loss term (dB/km)	0.3790temperature slope calibration	1.0000multiplexer offset coefficient	1.0000multiplexer slope coefficient	1.0000fibre end	0.00T internal ref (°C)	20.94T ext. ref 1 (°C)	0.68T ext. ref 2 (°C)	14.71length (m)	temperature (°C)	Stokes	anti-Stokes-747.200	-11.952	-0.290	0.190
-746.185	-1.252	-0.228	-0.161
-745.171	-94.529	0.178	0.049
-744.156	-100.047	-0.208	0.052
-743.142	800.000	-0.108	-0.322
-742.127	30.305	0.197	0.168
-741.112	35.759	0.390	-0.343
-740.098	-168.733	-0.270	-0.010
-739.083	-200.000	-0.015	-0.185
-738.069	-200.000	0.051	0.234
-737.054	-78.551	-0.172	0.059
-736.039	8.272	-0.250	-0.188
-735.025	-100.107	0.063	0.016
-734.010	106.419	0.182	0.216
-732.996	-151.307	-0.390	-0.029
-731.981	-160.816	-0.335	0.018
-730.966	372.172	-0.093	-0.188
-729.952	800.000	-0.060	-0.238
-728.937	-67.383	-0.409	-0.161
-727.923	800.000	0.037	-0.110
-726.908	-200.000	0.044	-0.219
-725.894	-17.700	-0.276	0.173
-724.879	-109.824	-0.131	-0.028
-723.864	10.239	-0.030	-0.023
-722.850	-181.453	-0.243	-0.005
-721.835	-200.000	0.005	-0.115
-720.821	744.359	0.143	0.384
-719.806	6.584	-0.145	0.108
-718.791	-90.695	-0.441	-0.127
-717.777	96.551	-0.269	0.307
-716.762	-72.997	0.220	-0.081
-715.748	-57.828	-0.210	-0.092
-714.733	800.000	-0.026	-0.112
-713.718	770.180	0.095	-0.258
-712.704	-126.762	0.213	0.031
-711.689	32.548	-0.161	-0.139
-710.675	-47.935	0.116	-0.056
-709.660	271.636	0.100	0.175
-708.645	-200.000	-0.036	0.190
-707.631	-107.911	0.042	0.009
-706.616	-200.000	0.018	0.138
-705.602	-200.000	0.004	-0.188
-704.587	339.984	-0.097	-0.190
-703.572	-66.048	0.207	0.083
-702.558	-10.749	0.152	-0.100
-701.543	-69.901	-0.517	-0.197
-700.529	800.000	-0.031	0.110
-699.514	800.000	0.074	0.221
-698.499	-135.274	-0.563	0.067
-697.485	-200.000	-0.001	-0.049
-696.470	800.000	-0.024	0.086
-695.456	-36.389	0.025	-0.014
-694.441	256.299	0.300	0.514
-693.426	71.752	-0.164	-0.170
-692.412	5.524	0.085	0.063
-691.397	147.268	-0.114	0.153
-690.383	-19.280	0.158	0.098
-689.368	-90.197	0.521	-0.151
-688.354	800.000	-0.075	0.220
-687.339	-140.835	-0.131	-0.013
-686.324	-29.620	0.236	0.135
-685.310	212.800	-0.051	0.080
-684.295	-200.000	-0.014	-0.221
-683.281	93.729	-0.225	-0.255
-682.266	61.885	-0.221	-0.220
-681.251	318.324	0.110	0.208
-680.237	-197.392	0.142	-0.001
-679.222	-168.466	-0.283	-0.011
-678.208	-41.876	0.160	-0.082
-677.193	137.266	0.290	-0.378
-676.178	175.058	0.051	-0.074
-675.164	10.339	0.070	-0.053
-674.149	791.793	0.064	-0.176
-673.135	-88.458	-0.170	-0.051
-672.120	-21.567	-0.309	-0.188
-671.105	-200.000	-0.048	0.267
-670.091	146.991	-0.157	-0.211
-669.076	-113.320	0.285	0.056
-668.062	14.899	-0.234	-0.183
-667.047	98.823	-0.025	0.029
-666.032	244.992	-0.100	-0.168
-665.018	-162.169	0.405	0.020
-664.003	484.579	0.126	-0.287
-662.989	106.987	0.258	-0.306
-661.974	348.309	0.100	-0.196
-660.959	-23.347	0.393	-0.236
-659.945	92.527	0.088	-0.099
-658.930	-31.242	0.171	0.096
-657.916	290.795	-0.103	-0.186
-656.901	-200.000	-0.004	0.163
-655.886	-32.232	-0.364	0.203
-654.872	331.435	0.083	0.160
-653.857	-200.000	-0.039	-0.182
-652.843	-145.621	0.257	0.023
-651.828	275.302	0.077	0.136
-650.814	-15.883	0.103	-0.065
-649.799	-153.793	0.195	0.013
-648.784	-200.000	-0.002	-0.109
-647.770	399.536	0.156	0.326
-646.755	-200.000	-0.040	-0.272
-645.741	6.687	-0.152	0.113
-644.726	345.213	-0.146	-0.287
-643.711	280.250	0.158	-0.282
-642.697	-84.578	-0.301	-0.095
-641.682	-136.231	-0.172	-0.020
-640.668	32.528	-0.127	0.109
-639.653	-200.000	0.025	-0.167
-638.638	-51.181	0.149	0.070
-637.624	-5.859	0.168	-0.114
-636.609	113.531	-0.046	0.056
-635.595	-191.942	-0.214	-0.002
-634.580	-29.179	-0.059	-0.034
-633.565	-200.000	-0.014	0.274
-632.551	94.347	-0.094	0.107
-631.536	177.990	-0.078	-0.113
-630.522	-200.000	-0.009	-0.058
-629.507	-12.772	0.233	0.152
-628.492	149.777	0.175	-0.236
-627.478	630.123	0.057	-0.143
-626.463	143.111	0.116	0.153
-625.449	-200.000	-0.115	-0.000
-624.434	-108.499	-0.090	-0.019
-623.419	-69.360	0.062	0.024
-622.405	50.898	-0.197	0.186
-621.390	-40.338	-0.316	0.163
-620.376	35.716	-0.045	-0.039
-619.361	379.062	-0.082	-0.168
-618.346	-128.058	-0.251	0.036
-617.332	148.475	0.060	0.080
-616.317	800.000	0.031	-0.130
-615.303	128.713	-0.247	-0.313
-614.288	-200.000	0.039	-0.253
-613.273	-200.000	0.001	-0.163
-612.259	800.000	0.077	-0.275
-611.244	-98.993	-0.223	0.056
-610.230	32.458	0.302	0.260
-609.215	-200.000	0.022	-0.169
-608.201	800.000	0.094	-0.305
-607.186	-200.000	0.017	0.212
-606.171	257.517	0.035	0.059
-605.157	493.282	0.008	0.018
-604.142	165.494	0.099	-0.139
-603.128	-117.176	0.317	-0.057
-602.113	800.000	0.070	0.209
-601.098	232.497	-0.137	0.225
-600.084	-73.709	-0.265	-0.096
-599.069	-112.736	-0.089	-0.018
-598.055	228.960	0.046	0.074
-597.040	800.000	-0.066	0.218
-596.025	-111.826	0.083	-0.017
-595.011	-145.063	-0.236	-0.021
-593.996	-133.084	-0.239	-0.030
-592.982	-200.000	0.033	-0.189
-591.967	-33.776	0.271	-0.149
-590.952	-160.337	-0.122	-0.007
-589.938	-141.970	0.069	-0.007
-588.923	-34.189	-0.071	-0.039
-587.909	-153.287	-0.160	-0.011
-586.894	-200.000	-0.006	-0.263
-585.879	125.120	0.212	-0.266
-584.865	397.390	-0.088	0.182
-583.850	21.917	0.084	-0.068
-582.836	800.000	0.077	0.219
-581.821	-200.000	0.009	0.199
-580.806	-169.155	0.081	0.003
-579.792	-62.913	0.261	0.108
-578.777	31.040	0.251	0.214
-577.763	-96.746	0.161	0.042
-576.748	-134.682	0.413	-0.050
-575.733	-200.000	-0.011	0.081
-574.719	800.000	0.071	0.220
-573.704	259.740	0.057	-0.098
-572.690	-200.000	0.013	-0.205
-571.675	120.125	0.069	-0.085
-570.661	-104.265	0.111	-0.026
-569.646	-135.091	-0.341	-0.041
-568.631	-54.471	0.050	-0.023
-567.617	173.008	-0.168	0.240
-566.602	274.852	-0.203	-0.358
-565.588	-200.000	0.004	0.196
-564.573	-79.299	0.414	0.139
-563.558	263.548	0.209	0.362
-562.544	-5.059	0.088	-0.060
-561.529	784.590	0.024	0.067
-560.515	-124.200	-0.215	-0.033
-559.500	542.507	0.027	0.064
-558.485	322.010	-0.065	-0.122
-557.471	800.000	-0.056	-0.233
-556.456	171.852	-0.057	-0.082
-555.442	-166.044	-0.232	0.010
-554.427	167.629	0.183	-0.259
-553.412	102.818	-0.311	-0.361
-552.398	-200.000	-0.025	-0.257
-551.383	194.283	-0.080	-0.120
-550.369	-113.187	0.181	0.035
-549.354	11.147	-0.120	-0.091
-548.339	185.915	0.094	-0.138
-547.325	-190.329	0.106	-0.001
-546.310	433.840	-0.196	-0.424
-545.296	36.179	0.173	0.151
-544.281	-87.689	0.199	0.060
-543.266	-200.000	-0.010	0.177
-542.252	230.532	0.123	-0.200
-541.237	-24.467	-0.178	0.105
-540.223	-7.791	-0.048	-0.032
-539.208	149.931	0.125	-0.168
-538.193	144.763	0.173	-0.229
-537.179	-149.195	-0.218	-0.017
-536.164	182.334	0.060	-0.087
-535.150	-200.000	-0.008	0.122
-534.135	25.291	-0.357	0.294
-533.121	-200.000	-0.033	-0.313
-532.106	-200.000	-0.014	-0.150
-531.091	453.162	-0.061	-0.134
-530.077	-88.073	-0.407	0.121
-529.062	-200.000	0.033	0.231
-528.048	-200.000	0.016	0.070
-527.033	-7.194	-0.188	-0.127
-526.018	597.086	0.058	0.143
-525.004	-114.127	-0.149	-0.029
-523.989	-200.000	-0.035	-0.280
-522.975	60.470	-0.079	0.077
-521.960	-200.000	0.043	-0.220
-520.945	418.250	0.139	0.294
-519.931	117.389	-0.143	-0.175
-518.916	800.000	-0.057	-0.183
-517.902	-88.600	0.118	0.035
-516.887	-103.536	-0.198	0.046
-515.872	-123.041	-0.108	-0.017
-514.858	-200.000	0.008	0.099
-513.843	-200.000	-0.008	0.097
-512.829	-113.493	0.209	0.041
-511.814	-131.049	-0.314	0.042
-510.799	-55.442	0.082	-0.036
-509.785	-137.051	-0.162	0.018
-508.770	-142.648	-0.209	-0.020
-507.756	-200.000	-0.037	-0.343
-506.741	-41.821	0.155	-0.079
-505.726	-171.457	-0.081	-0.003
-504.712	-155.931	-0.385	0.024
-503.697	-106.618	0.191	-0.042
-502.683	-80.831	-0.262	-0.086
-501.668	-50.625	0.363	0.170
-500.653	800.000	0.067	0.239
-499.639	28.509	0.323	-0.271
-498.624	800.000	0.099	-0.391
-497.610	1.246	0.217	0.155
-496.595	33.962	-0.099	0.086
-495.581	-52.312	-0.117	0.054
-494.566	800.000	-0.028	-0.114
-493.551	-179.920	-0.406	-0.009
-492.537	70.543	-0.507	0.520
-491.522	-107.085	-0.455	-0.100
-490.508	-200.000	-0.024	-0.136
-489.493	-40.677	0.154	-0.079
-488.478	-174.847	0.223	-0.006
-487.464	67.374	-0.046	0.046
-486.449	230.089	0.204	-0.330
-485.435	-200.000	0.024	-0.159
-484.420	165.779	-0.063	-0.088
-483.405	800.000	0.041	-0.127
-482.391	-200.000	-0.014	-0.300
-481.376	-48.137	0.108	0.052
-480.362	52.060	0.187	-0.177
-479.347	-67.675	-0.108	0.042
-478.332	-131.721	-0.255	-0.033
-477.318	398.938	-0.126	-0.260
-476.303	-84.131	-0.068	-0.021
-475.289	-147.392	-0.154	-0.013
-474.274	-181.553	0.271	0.005
-473.259	800.000	0.051	0.164
-472.245	88.739	0.065	0.072
-471.230	773.865	0.039	-0.105
-470.216	-178.042	-0.210	0.005
-469.201	48.826	-0.183	-0.170
-468.186	-45.169	-0.207	-0.102
-467.172	-133.636	-0.236	0.029
-466.157	-40.153	0.155	0.080
-465.143	180.518	-0.091	0.133
-464.128	-200.000	-0.001	-0.176
-463.113	-200.000	-0.024	-0.320
-462.099	-187.694	0.071	0.001
-461.084	800.000	0.092	-0.305
-460.070	-86.066	0.113	0.034
-459.055	-2.969	0.133	-0.092
-458.040	103.435	-0.304	0.354
-457.026	-106.982	0.095	-0.021
-456.011	-142.488	0.255	0.025
-454.997	193.494	0.094	0.140
-453.982	21.202	0.100	0.080
-452.968	-200.000	-0.062	0.305
-451.953	344.567	-0.097	-0.189
-450.938	776.025	0.059	-0.161
-449.924	-200.000	0.033	0.215
-448.909	132.227	-0.062	0.079
-447.895	800.000	-0.062	-0.181
-446.880	200.985	-0.074	-0.113
-445.865	-100.476	0.063	0.015
-444.851	800.000	-0.072	0.223
-443.836	-200.000	-0.040	-0.184
-442.822	-66.571	0.367	-0.144
-441.807	-200.000	-0.036	-0.245
-440.792	-73.865	0.207	0.074
-439.778	-200.000	0.012	0.162
-438.763	-200.000	-0.064	0.376
-437.749	-60.923	-0.326	0.136
-436.734	-73.584	0.187	0.067
-435.719	-123.871	-0.340	0.053
-434.705	93.164	0.057	-0.064
-433.690	-80.474	0.186	-0.061
-432.676	-200.000	-0.005	-0.121
-431.661	312.794	-0.014	0.027
-430.646	404.344	0.137	0.284
-429.632	-72.882	0.186	-0.068
-428.617	-54.891	0.186	0.083
-427.603	-66.406	-0.168	-0.066
-426.588	207.748	-0.098	0.151
-425.573	104.667	-0.247	-0.288
-424.559	255.273	-0.138	-0.234
-423.544	-55.112	0.040	-0.018
-422.530	-200.000	-0.022	-0.191
-421.515	76.961	0.093	-0.098
-420.500	378.011	-0.174	-0.352
-419.486	-99.817	-0.161	0.040
-418.471	-24.930	0.271	0.159
-417.457	27.914	0.382	0.318
-416.442	793.496	0.100	0.272
-415.428	86.575	-0.232	-0.253
-414.413	-200.000	-0.052	-0.276
-413.398	-30.561	-0.171	-0.096
-412.384	-97.721	0.041	-0.011
-411.369	-173.514	0.279	-0.008
-410.355	-81.354	-0.307	0.100
-409.340	-200.000	-0.007	-0.092
-408.325	800.000	0.098	0.318
-407.311	99.532	0.111	-0.127
-406.296	-200.000	-0.022	-0.129
-405.282	139.765	0.198	-0.257
-404.267	324.407	0.018	-0.034
-403.252	-93.317	-0.244	0.067
-402.238	800.000	0.108	0.367
-401.223	61.470	-0.031	-0.030
-400.209	-137.436	-0.193	0.022
-399.194	39.054	-0.227	0.201
-398.179	82.668	-0.095	-0.102
-397.165	800.000	0.028	0.102
-396.150	-184.055	0.207	0.003
-395.136	42.369	0.069	0.062
-394.121	362.376	-0.122	0.242
-393.106	-200.000	-0.005	-0.165
-392.092	-200.000	-0.001	-0.112
-391.077	-200.000	0.133	0.609
-390.063	-80.595	-0.061	-0.020
-389.048	-96.937	0.191	-0.050
-388.033	37.721	-0.157	0.138
-387.019	-16.182	0.148	0.093
-386.004	578.249	0.157	-0.379
-384.990	-24.960	0.057	-0.034
-383.975	237.730	0.095	0.155
-382.960	-91.156	-0.191	-0.054
-381.946	800.000	-0.009	0.029
-380.931	-62.131	0.152	0.062
-379.917	-200.000	-0.022	0.126
-378.902	-46.529	0.173	0.084
-377.888	-3.702	0.058	-0.040
-376.873	-200.000	-0.016	-0.138
-375.858	-95.755	-0.263	0.069
-374.844	470.939	0.117	-0.260
-373.829	4.843	0.222	0.161
-372.815	-1.684	-0.108	-0.075
-371.800	-16.515	-0.215	-0.134
-370.785	-122.584	0.150	-0.024
-369.771	800.000	0.073	0.311
-368.756	-12.380	0.156	0.100
-367.742	-85.994	-0.142	-0.043
-366.727	283.662	-0.120	-0.212
-365.712	-148.526	0.230	-0.019
-364.698	89.624	-0.227	0.250
-363.683	-122.360	-0.233	-0.037
-362.669	-130.352	-0.196	-0.026
-361.654	688.350	0.052	0.133
-360.639	-108.554	-0.180	0.038
-359.625	279.251	0.225	0.395
-358.610	-200.000	0.024	0.284
-357.596	62.514	-0.185	0.182
-356.581	800.000	0.037	-0.154
-355.566	-200.000	-0.061	-0.321
-354.552	38.484	-0.058	-0.051
-353.537	-200.000	0.000	0.055
-352.523	-200.000	-0.035	-0.259
-351.508	-200.000	-0.030	0.217
-350.493	-71.000	0.069	0.025
-349.479	39.446	-0.233	0.206
-348.464	-112.352	0.182	0.036
-347.450	-27.887	0.245	0.140
-346.435	-85.048	-0.059	-0.018
-345.420	57.694	-0.157	-0.152
-344.406	-7.062	0.359	-0.240
-343.391	-22.010	0.352	-0.211
-342.377	12.577	0.285	0.216
-341.362	800.000	0.048	-0.154
-340.348	154.397	-0.094	-0.127
-339.333	800.000	-0.076	-0.283
-338.318	-200.000	0.019	0.088
-337.304	-67.267	-0.528	0.205
-336.289	326.996	0.053	0.100
-335.275	-200.000	0.009	-0.340
-334.260	-42.861	0.172	0.086
-333.245	-38.738	0.134	-0.070
-332.231	-107.816	-0.235	-0.050
-331.216	800.000	-0.020	0.084
-330.202	-200.000	-0.004	-0.038
-329.187	15.723	0.165	-0.128
-328.172	-200.000	-0.024	0.163
-327.158	-200.000	0.035	-0.199
-326.143	-188.743	-0.576	-0.007
-325.129	-35.849	0.327	0.174
-324.114	7.411	-0.159	0.117
-323.099	40.289	0.210	-0.186
-322.085	-33.721	0.238	0.129
-321.070	566.915	-0.085	0.204
-320.056	-35.058	0.235	-0.126
-319.041	-5.778	-0.189	0.127
-318.026	66.853	0.109	0.109
-317.012	176.049	-0.056	-0.080
-315.997	-147.820	0.154	0.013
-314.983	155.360	-0.090	0.122
-313.968	800.000	0.020	0.059
-312.953	159.201	-0.210	0.287
-311.939	-91.644	-0.364	-0.102
-310.924	271.806	-0.127	0.220
-309.910	368.674	-0.088	0.175
-308.895	540.596	-0.134	-0.313
-307.880	800.000	0.132	0.552
-306.866	184.409	0.167	0.243
-305.851	-151.972	-0.315	0.023
-304.837	12.062	0.009	0.007
-303.822	-66.786	0.350	-0.136
-302.807	48.917	-0.112	-0.103
-301.793	-200.000	-0.021	0.202
-300.778	239.435	-0.173	-0.283
-299.764	-200.000	0.012	0.103
-298.749	-33.438	-0.102	0.056
-297.735	420.002	-0.057	-0.120
-296.720	-27.171	0.268	-0.154
-295.705	-25.417	-0.240	0.139
-294.691	218.232	-0.070	-0.111
-293.676	-33.250	-0.058	0.032
-292.662	-128.875	-0.099	0.014
-291.647	-200.000	0.013	-0.067
-290.632	117.568	-0.230	0.278
-289.618	-166.622	-0.128	0.005
-288.603	-200.000	-0.023	-0.253
-287.589	34.279	-0.025	0.022
-286.574	158.012	0.046	0.062
-285.559	40.185	0.129	0.114
-284.545	-90.970	-0.394	0.112
-283.530	-197.674	0.400	0.002
-282.516	326.092	0.090	0.170
-281.501	-87.250	-0.341	0.102
-280.486	-98.559	0.355	-0.089
-279.472	-200.000	-0.016	-0.129
-278.457	-200.000	0.040	0.198
-277.443	145.766	-0.073	-0.096
-276.428	800.000	0.086	-0.257
-275.413	-64.947	-0.170	0.067
-274.399	-40.117	-0.225	0.115
-273.384	789.899	-0.065	0.177
-272.370	505.574	0.165	-0.376
-271.355	-3.019	0.159	0.109
-270.340	671.727	0.113	-0.288
-269.326	-31.767	0.112	-0.062
-268.311	800.000	-0.079	0.304
-267.297	-106.849	0.046	0.010
-266.282	303.449	0.133	-0.242
-265.267	-197.314	-0.316	0.002
-264.253	800.000	-0.105	0.346
-263.238	-42.887	-0.200	0.100
-262.224	-200.000	-0.017	0.120
-261.209	-200.000	-0.058	0.426
-260.195	-122.648	0.164	-0.026
-259.180	-104.731	0.226	0.051
-258.165	25.112	-0.060	-0.049
-257.151	-80.249	0.289	0.095
-256.136	-107.017	0.170	-0.037
-255.122	-200.000	0.012	-0.095
-254.107	-50.867	-0.466	0.215
-253.092	563.556	-0.093	-0.220
-252.078	-119.591	0.238	-0.040
-251.063	-65.221	0.095	0.037
-250.049	30.029	-0.026	-0.022
-249.034	-19.830	0.123	-0.074
-248.019	321.878	-0.051	0.095
-247.005	432.166	-0.055	-0.118
-245.990	-135.694	0.096	-0.011
-244.976	-200.000	-0.035	0.288
-243.961	41.560	0.058	0.052
-242.946	-105.614	-0.138	0.031
-241.932	-189.349	0.361	0.004
-240.917	-119.818	-0.329	0.056
-239.903	437.614	-0.083	-0.177
-238.888	167.969	-0.111	-0.155
-237.873	277.817	0.181	0.316
-236.859	-115.835	0.371	0.068
-235.844	-5.770	-0.190	0.128
-234.830	177.724	0.268	-0.383
-233.815	-83.837	0.341	0.106
-232.800	369.283	0.134	0.266
-231.786	-83.488	0.089	-0.028
-230.771	-172.858	0.108	0.003
-229.757	-200.000	-0.006	-0.074
-228.742	107.152	-0.164	-0.191
-227.727	87.643	-0.028	0.031
-226.713	184.593	0.100	0.145
-225.698	-32.614	-0.170	0.093
-224.684	70.245	0.184	-0.186
-223.669	-167.051	0.275	0.011
-222.655	73.207	-0.149	0.153
-221.640	-20.101	0.219	0.132
-220.625	154.960	0.101	0.136
-219.611	503.488	0.127	-0.288
-218.596	-115.946	-0.455	0.083
-217.582	-4.199	0.142	0.096
-216.567	-200.000	-0.017	-0.172
-215.552	433.955	-0.006	-0.012
-214.538	1.646	0.229	-0.162
-213.523	26.145	0.175	-0.144
-212.509	-93.151	0.081	-0.022
-211.494	-22.353	0.187	0.111
-210.479	61.779	0.342	-0.334
-209.465	89.507	0.197	0.215
-208.450	-145.513	0.204	-0.018
-207.436	-44.304	-0.081	-0.040
-206.421	20.676	0.086	0.068
-205.406	138.529	0.328	0.422
-204.392	-165.001	0.356	-0.016
-203.377	-200.000	-0.021	0.210
-202.363	-200.000	0.013	0.394
-201.348	328.640	-0.089	0.167
-200.333	500.831	-0.100	-0.227
-199.319	-196.360	0.133	-0.001
-198.304	674.631	0.085	-0.217
-197.290	1.953	-0.151	-0.107
-196.275	800.000	-0.085	0.236
-195.260	410.739	-0.086	0.178
-194.246	-10.959	0.123	0.080
-193.231	800.000	0.017	0.049
-192.217	800.000	0.061	0.171
-191.202	167.130	0.167	0.232
-190.187	-120.035	0.082	-0.014
-189.173	275.595	-0.056	-0.097
-188.158	-200.000	-0.002	-0.223
-187.144	-67.212	-0.132	0.051
-186.129	680.315	0.126	0.320
-185.114	52.680	-0.149	0.140
-184.100	-161.280	0.112	0.006
-183.085	485.705	-0.016	-0.036
-182.071	800.000	-0.039	0.110
-181.056	288.287	0.070	-0.124
-180.042	-146.042	-0.207	-0.018
-179.027	93.204	-0.041	-0.045
-178.012	-61.525	0.090	0.037
-176.998	3.402	-0.104	0.074
-175.983	-200.000	-0.017	-0.261
-174.969	-200.000	-0.016	0.217
-173.954	119.588	0.062	-0.075
-172.939	-0.847	-0.120	-0.083
-171.925	-72.871	0.076	-0.027
-170.910	-107.338	-0.178	0.038
-169.896	-168.232	0.291	0.011
-168.881	-166.379	-0.311	0.013
-167.866	62.562	-0.065	-0.064
-166.852	20.102	-0.163	-0.128
-165.837	-63.180	0.042	0.017
-164.823	-200.000	-0.079	0.361
-163.808	800.000	0.055	-0.194
-162.793	-70.518	0.046	-0.017
-161.779	29.499	0.171	0.142
-160.764	-200.000	0.043	-0.268
-159.750	800.000	0.051	0.160
-158.735	-169.046	-0.257	0.009
-157.720	-25.677	0.172	0.099
-156.706	800.000	0.062	0.218
-155.691	419.422	-0.067	0.140
-154.677	-200.000	-0.070	-0.413
-153.662	-28.739	-0.164	0.093
-152.647	-116.734	0.239	0.043
-151.633	51.626	-0.077	0.071
-150.618	-102.305	0.203	-0.048
-149.604	-16.106	-0.060	0.037
-148.589	494.706	0.160	-0.360
-147.574	-129.883	0.254	-0.034
-146.560	800.000	0.074	0.212
-145.545	251.444	0.103	0.171
-144.531	277.291	0.049	-0.085
-143.516	-39.372	-0.386	0.198
-142.502	-29.329	0.190	0.106
-141.487	701.216	-0.083	0.214
-140.472	-73.013	-0.115	0.041
-139.458	-137.040	-0.316	0.035
-138.443	-200.000	0.009	-0.096
-137.429	241.569	0.291	-0.476
-136.414	257.197	-0.080	-0.135
-135.399	12.345	0.374	-0.282
-134.385	67.852	0.100	0.100
-133.370	-200.000	0.019	0.221
-132.356	-126.163	-0.303	0.044
-131.341	-200.000	0.018	0.396
-130.326	55.019	0.046	-0.044
-129.312	-37.443	-0.093	-0.049
-128.297	253.184	0.035	0.059
-127.283	202.479	0.133	0.200
-126.268	531.817	-0.195	0.450
-125.253	-121.872	-0.034	-0.005
-124.239	-83.344	-0.387	0.121
-123.224	575.990	0.033	-0.080
-122.210	30.445	0.107	0.089
