DTS Sentinel unit serial number:	SN413079Multiplexer serial number:	ORYXHardware model number:	OX4-SRSoftware version number:	ORYX F/W v4.00 Oryx Data Collector v3.7.2.0data status	okinstallation	princeton_trtdifferential loss correction	single-endedforward channel	channel 1reverse channel	N/Adate	2019/09/13time	03:22:35forward acquisition time	60.00reverse acquisition time	0.00gamma	496.2192k internal	0.2332k external	0.2332temperature offset calibration	1.0162default loss term (dB/km)	0.3790temperature slope calibration	1.0000multiplexer offset coefficient	1.0000multiplexer slope coefficient	1.0000fibre end	0.00T internal ref (°C)	27.37T ext. ref 1 (°C)	4.09T ext. ref 2 (°C)	21.92length (m)	temperature (°C)	Stokes	anti-Stokes-747.200	269.726	0.080	-0.141
-746.185	800.000	-0.068	0.261
-745.171	-29.670	0.131	-0.075
-744.156	172.370	-0.271	0.393
-743.142	-200.000	-0.018	-0.174
-742.127	-147.257	-0.335	-0.029
-741.112	202.342	0.098	-0.152
-740.098	-87.854	-0.259	0.078
-739.083	41.305	0.173	0.158
-738.069	-200.000	0.083	0.389
-737.054	581.042	0.167	0.412
-736.039	-79.444	-0.122	-0.041
-735.025	85.953	0.342	0.378
-734.010	13.489	0.079	0.061
-732.996	-162.613	-0.123	-0.006
-731.981	-47.255	-0.209	0.102
-730.966	-124.220	0.131	0.021
-729.952	273.908	0.173	-0.308
-728.937	-200.000	-0.032	0.303
-727.923	-200.000	0.054	-0.365
-726.908	161.361	0.213	0.299
-725.894	79.876	0.064	0.069
-724.879	513.291	-0.130	0.305
-723.864	-22.750	0.045	-0.027
-722.850	-200.000	-0.009	-0.113
-721.835	170.274	-0.218	-0.313
-720.821	-116.345	-0.274	-0.051
-719.806	99.694	0.142	0.165
-718.791	800.000	0.077	-0.284
-717.777	-35.154	0.339	0.185
-716.762	-6.087	0.330	-0.226
-715.748	-200.000	0.007	-0.269
-714.733	229.108	-0.097	0.159
-713.718	-131.457	0.111	-0.015
-712.704	392.622	0.062	-0.129
-711.689	567.518	0.030	0.074
-710.675	245.641	0.131	-0.222
-709.660	93.027	0.067	-0.077
-708.645	-200.000	0.001	0.103
-707.631	-58.379	-0.350	0.153
-706.616	-59.866	0.126	0.054
-705.602	-65.976	0.138	0.055
-704.587	-33.923	0.257	-0.142
-703.572	-200.000	-0.032	0.319
-702.558	100.545	-0.072	-0.084
-701.543	800.000	-0.040	0.144
-700.529	23.044	-0.119	0.098
-699.514	-62.768	-0.332	0.138
-698.499	299.530	-0.115	0.213
-697.485	769.846	0.051	-0.138
-696.470	689.432	0.083	-0.217
-695.456	-36.931	0.057	0.031
-694.441	-66.885	0.437	-0.173
-693.426	55.972	-0.094	-0.092
-692.412	-138.754	-0.194	0.021
-691.397	25.394	-0.197	-0.164
-690.383	-200.000	0.033	-0.199
-689.368	-200.000	-0.018	-0.232
-688.354	800.000	-0.085	-0.319
-687.339	1.726	0.123	0.089
-686.324	20.086	0.218	-0.177
-685.310	-77.728	0.123	0.043
-684.295	-42.432	-0.045	0.023
-683.281	-73.230	0.064	0.024
-682.266	313.850	0.130	0.246
-681.251	-64.474	-0.388	-0.158
-680.237	38.883	-0.094	-0.084
-679.222	87.691	-0.088	0.098
-678.208	-200.000	0.009	0.089
-677.193	-79.519	0.313	-0.106
-676.178	-200.000	-0.023	0.195
-675.164	-32.760	-0.217	-0.121
-674.149	-119.206	0.359	0.063
-673.135	-200.000	-0.029	-0.301
-672.120	-44.767	-0.222	-0.111
-671.105	-60.672	-0.225	0.096
-670.091	-26.658	0.308	-0.181
-669.076	800.000	0.038	0.119
-668.062	-21.163	-0.269	-0.165
-667.047	-127.270	0.501	-0.073
-666.032	571.058	-0.070	-0.170
-665.018	-9.763	0.085	-0.057
-664.003	135.404	-0.098	-0.128
-662.989	41.498	-0.213	-0.194
-661.974	-144.605	0.104	-0.010
-660.959	726.378	0.070	-0.187
-659.945	400.616	-0.090	0.189
-658.930	369.580	-0.074	0.149
-657.916	-13.549	0.370	-0.241
-656.901	-200.000	-0.029	-0.135
-655.886	-103.389	0.072	0.017
-654.872	151.001	-0.162	-0.221
-653.857	84.656	-0.059	-0.064
-652.843	-39.465	0.168	0.088
-651.828	57.890	-0.020	-0.019
-650.814	-27.827	-0.049	-0.029
-649.799	800.000	0.053	0.146
-648.784	66.965	0.089	-0.091
-647.770	611.302	0.146	0.365
-646.755	99.291	0.074	0.086
-645.741	8.699	0.243	-0.183
-644.726	504.709	-0.059	0.138
-643.711	-200.000	-0.000	-0.295
-642.697	108.428	0.327	-0.392
-641.682	-108.571	-0.395	0.085
-640.668	330.829	-0.064	0.124
-639.653	-6.338	0.344	-0.235
-638.638	-113.939	-0.150	0.029
-637.624	-98.889	-0.041	0.010
-636.609	-1.245	-0.150	-0.106
-635.595	692.620	-0.016	0.042
-634.580	242.068	-0.165	0.277
-633.565	-64.973	-0.252	0.102
-632.551	7.934	-0.320	0.240
-631.536	263.473	0.086	0.151
-630.522	-200.000	0.054	-0.340
-629.507	609.567	0.216	-0.540
-628.492	65.373	-0.264	-0.268
-627.478	608.281	-0.104	0.259
-626.463	280.089	-0.097	-0.174
-625.449	800.000	-0.045	-0.151
-624.434	-198.522	0.158	-0.001
-623.419	-60.302	-0.510	-0.217
-622.405	54.242	0.125	-0.120
-621.390	10.987	0.207	0.158
-620.376	-182.361	-0.064	0.001
-619.361	-200.000	-0.010	-0.204
-618.346	257.856	-0.115	-0.198
-617.332	83.641	0.184	0.201
-616.317	-200.000	0.030	-0.353
-615.303	800.000	0.063	-0.192
-614.288	800.000	0.030	-0.084
-613.273	-38.284	-0.181	-0.096
-612.259	166.467	0.165	-0.234
-611.244	-200.000	0.063	-0.362
-610.230	10.329	-0.104	-0.079
-609.215	2.765	-0.299	-0.217
-608.201	-99.360	-0.220	-0.056
-607.186	369.357	0.181	0.366
-606.171	800.000	-0.100	0.331
-605.157	-200.000	-0.011	0.127
-604.142	-175.622	0.203	-0.005
-603.128	-10.529	0.105	-0.069
-602.113	800.000	-0.150	-0.490
-601.098	-115.637	-0.187	-0.035
-600.084	-123.126	-0.023	0.004
-599.069	-200.000	0.007	-0.324
-598.055	11.148	0.080	-0.061
-597.040	-200.000	-0.024	-0.459
-596.025	106.829	-0.045	0.054
-595.011	438.151	0.050	0.109
-593.996	-5.319	-0.121	-0.083
-592.982	-139.861	0.362	0.038
-591.967	-200.000	-0.149	0.000
-590.952	194.716	-0.056	0.085
-589.938	-3.586	0.099	-0.069
-588.923	327.183	0.019	-0.037
-587.909	800.000	-0.115	-0.352
-586.894	126.656	0.053	0.067
-585.879	-155.901	0.056	0.004
-584.865	-37.998	-0.194	0.103
-583.850	162.284	-0.013	-0.018
-582.836	484.964	0.039	-0.088
-581.821	357.899	-0.062	-0.124
-580.806	19.632	-0.131	0.105
-579.792	800.000	-0.041	-0.132
-578.777	63.844	0.186	-0.187
-577.763	-200.000	0.028	-0.160
-576.748	800.000	0.058	-0.180
-575.733	74.485	-0.227	0.238
-574.719	800.000	-0.030	-0.087
-573.704	40.916	-0.164	0.148
-572.690	800.000	0.041	0.170
-571.675	-200.000	-0.059	-0.386
-570.661	66.676	0.194	-0.197
-569.646	-71.340	0.438	0.164
-568.631	-200.000	0.011	0.134
-567.617	103.031	-0.182	-0.213
-566.602	800.000	0.064	-0.236
-565.588	287.526	-0.131	0.236
-564.573	400.311	-0.014	0.028
-563.558	-200.000	0.021	0.107
-562.544	135.393	-0.150	0.195
-561.529	-38.457	-0.122	-0.064
-560.515	-87.498	0.264	0.080
-559.500	-95.053	0.307	0.083
-558.485	564.877	0.026	0.064
-557.471	-200.000	-0.030	0.140
-556.456	800.000	-0.037	-0.138
-555.442	339.873	-0.054	-0.105
-554.427	-194.396	-0.238	0.002
-553.412	76.730	0.203	0.215
-552.398	-189.621	-0.156	-0.002
-551.383	-200.000	-0.056	-0.299
-550.369	-52.740	0.057	-0.026
-549.354	800.000	0.055	0.161
-548.339	-200.000	-0.112	-0.000
-547.325	-63.769	-0.284	0.116
-546.310	-99.448	0.362	-0.091
-545.296	-120.659	-0.174	-0.029
-544.281	800.000	-0.015	-0.044
-543.266	-200.000	-0.004	-0.335
-542.252	113.429	-0.031	-0.037
-541.237	-103.472	-0.226	-0.053
-540.223	800.000	-0.051	-0.174
-539.208	14.598	-0.295	0.230
-538.193	-53.814	-0.198	-0.090
-537.179	114.255	0.143	0.173
-536.164	-136.136	-0.178	0.021
-535.150	188.954	0.057	0.085
-534.135	800.000	0.090	0.367
-533.121	34.447	-0.154	-0.134
-532.106	90.236	-0.149	0.166
-531.091	612.035	-0.115	0.286
-530.077	-200.000	0.003	-0.149
-529.062	-131.995	-0.038	0.005
-528.048	-61.143	-0.096	-0.040
-527.033	-200.000	0.001	0.054
-526.018	-200.000	-0.019	0.336
-525.004	-10.955	0.203	0.134
-523.989	-76.564	0.088	-0.031
-522.975	197.318	-0.139	0.211
-521.960	254.312	0.123	-0.210
-520.945	-33.002	0.166	0.092
-519.931	358.433	-0.041	0.082
-518.916	-200.000	-0.002	0.207
-517.902	-200.000	-0.013	0.219
-516.887	-200.000	-0.007	-0.290
-515.872	387.155	-0.090	0.185
-514.858	-52.275	0.149	-0.069
-513.843	132.208	0.151	-0.194
-512.829	-75.955	0.157	-0.055
-511.814	-2.811	-0.343	0.239
-510.799	-200.000	-0.007	0.278
-509.785	-200.000	-0.029	-0.333
-508.770	578.224	0.052	-0.128
-507.756	-116.114	-0.334	0.062
-506.741	-6.752	-0.313	-0.212
-505.726	-103.865	-0.330	0.077
-504.712	568.413	0.013	-0.031
-503.697	800.000	0.079	-0.296
-502.683	257.837	0.150	-0.257
-501.668	-76.827	-0.302	-0.105
-500.653	263.836	0.112	-0.195
-499.639	-67.173	-0.197	-0.077
-498.624	6.101	0.336	0.248
-497.610	-84.798	-0.318	0.100
-496.595	-126.828	-0.119	0.018
-495.581	-70.231	0.069	0.026
-494.566	-200.000	0.060	0.402
-493.551	4.312	0.358	-0.261
-492.537	-22.076	-0.157	-0.095
-491.522	-75.069	0.319	0.114
-490.508	515.334	-0.065	-0.151
-489.493	50.706	0.027	0.026
-488.478	-200.000	-0.003	-0.041
-487.464	41.191	0.179	0.161
-486.449	800.000	-0.073	-0.247
-485.435	-47.978	-0.166	0.080
-484.420	215.583	0.154	0.244
-483.405	800.000	0.035	0.116
-482.391	-200.000	-0.059	0.303
-481.376	800.000	-0.045	0.138
-480.362	108.258	-0.288	-0.342
-479.347	488.978	0.050	-0.113
-478.332	-37.233	0.059	-0.031
-477.318	-200.000	-0.011	-0.058
-476.303	800.000	0.067	0.278
-475.289	34.238	-0.064	-0.055
-474.274	289.717	-0.087	-0.156
-473.259	264.848	-0.206	0.357
-472.245	-200.000	0.021	0.117
-471.230	-200.000	-0.064	-0.314
-470.216	-73.364	-0.330	-0.120
-469.201	-26.883	-0.104	-0.061
-468.186	301.419	-0.116	0.213
-467.172	-200.000	0.002	-0.188
-466.157	618.004	0.200	-0.501
-465.143	776.634	-0.164	-0.444
-464.128	800.000	0.131	0.433
-463.113	-134.345	0.171	0.021
-462.099	-78.400	-0.275	0.094
-461.084	471.022	-0.130	-0.292
-460.070	-134.576	-0.296	-0.036
-459.055	-109.123	-0.201	-0.043
-458.040	800.000	-0.034	-0.125
-457.026	-14.777	-0.166	-0.106
-456.011	115.699	-0.080	0.097
-454.997	317.627	0.079	0.149
-453.982	-72.431	-0.050	-0.018
-452.968	-20.793	0.110	0.067
-451.953	37.092	0.051	-0.045
-450.938	-200.000	-0.033	-0.286
-449.924	-200.000	-0.001	0.141
-448.909	-140.730	0.143	-0.015
-447.895	776.123	-0.121	0.330
-446.880	329.532	0.159	-0.305
-445.865	-12.832	-0.278	-0.180
-444.851	110.856	0.269	-0.322
-443.836	800.000	0.051	-0.147
-442.822	272.891	-0.129	-0.226
-441.807	800.000	0.007	-0.030
-440.792	800.000	0.016	-0.056
-439.778	-200.000	-0.006	0.033
-438.763	446.156	-0.092	0.201
-437.749	-108.789	-0.594	0.126
-436.734	662.468	0.079	0.202
-435.719	-200.000	-0.057	-0.436
-434.705	48.341	-0.228	0.212
-433.690	-200.000	0.056	0.409
-432.676	-61.486	0.021	0.009
-431.661	255.753	-0.039	-0.067
-430.646	800.000	0.095	0.337
-429.632	-28.933	0.080	0.046
-428.617	-11.021	-0.223	-0.146
-427.603	-59.478	-0.166	-0.071
-426.588	88.441	-0.229	0.253
-425.573	-121.177	0.235	0.039
-424.559	-60.231	0.186	0.079
-423.544	800.000	-0.008	0.024
-422.530	480.211	0.125	0.282
-421.515	62.432	-0.106	0.105
-420.500	-200.000	0.013	-0.066
-419.486	111.009	-0.171	0.204
-418.471	685.470	0.052	-0.134
-417.457	208.985	0.206	-0.320
-416.442	-192.560	0.111	0.001
-415.428	153.192	-0.220	-0.299
-414.413	-95.147	-0.176	0.047
-413.398	558.005	-0.027	0.066
-412.384	-200.000	0.017	0.280
-411.369	-22.911	0.110	0.066
-410.355	800.000	0.157	-0.434
-409.340	59.025	0.060	-0.059
-408.325	112.499	0.113	-0.136
-407.311	116.329	-0.107	0.130
-406.296	99.644	0.152	-0.174
-405.282	63.621	0.071	0.071
-404.267	41.615	0.174	0.157
-403.252	-64.809	0.162	-0.065
-402.238	-200.000	0.001	-0.136
-401.223	255.000	0.084	0.143
-400.209	-187.200	-0.177	-0.002
-399.194	487.356	-0.016	0.035
-398.179	83.785	0.151	-0.164
-397.165	209.191	-0.040	-0.063
-396.150	-181.686	-0.139	0.003
-395.136	387.321	-0.055	0.112
-394.121	-5.487	-0.176	-0.120
-393.106	800.000	-0.032	-0.122
-392.092	330.894	-0.038	0.072
-391.077	116.386	-0.228	-0.278
-390.063	59.484	-0.330	0.323
-389.048	-96.920	0.234	-0.061
-388.033	164.753	0.090	-0.127
-387.019	55.952	-0.227	0.219
-386.004	72.684	0.079	-0.082
-384.990	-39.838	0.011	-0.005
-383.975	-36.304	0.040	-0.021
-382.960	800.000	-0.100	-0.300
-381.946	-200.000	-0.010	0.480
-380.931	-46.951	-0.311	0.151
-379.917	-165.722	-0.197	0.008
-378.902	800.000	-0.048	-0.181
-377.888	-200.000	0.021	-0.126
-376.873	-200.000	0.017	-0.166
-375.858	-128.324	0.305	0.043
-374.844	269.017	0.085	-0.148
-373.829	-43.112	0.082	-0.041
-372.815	100.456	0.042	-0.048
-371.800	-26.014	-0.345	0.201
-370.785	711.363	0.033	-0.086
-369.771	318.955	0.064	0.120
-368.756	-112.016	-0.030	-0.006
-367.742	-200.000	0.016	0.302
-366.727	-54.552	0.289	-0.130
-365.712	67.057	-0.110	-0.111
-364.698	-139.205	-0.188	-0.020
-363.683	110.697	-0.119	0.142
-362.669	-61.522	0.203	0.084
-361.654	-178.687	-0.496	0.011
-360.639	109.854	0.209	0.248
-359.625	270.826	-0.074	-0.129
-358.610	800.000	0.085	0.368
-357.596	-200.000	-0.038	0.225
-356.581	800.000	-0.081	-0.327
-355.566	-200.000	-0.003	0.080
-354.552	93.608	-0.150	0.168
-353.537	800.000	-0.033	0.114
-352.523	800.000	0.022	0.091
-351.508	-200.000	0.013	0.104
-350.493	139.125	-0.129	-0.168
-349.479	8.685	-0.293	0.219
-348.464	-9.516	0.274	0.181
-347.450	633.342	-0.057	-0.144
-346.435	-173.612	0.230	-0.007
-345.420	-143.815	0.249	0.023
-344.406	-155.282	0.263	0.017
-343.391	-79.558	0.152	0.051
-342.377	-200.000	-0.045	-0.285
-341.362	124.829	-0.047	-0.058
-340.348	-113.172	0.035	0.007
-339.333	-200.000	0.002	0.091
-338.318	83.410	-0.172	-0.186
-337.304	-42.613	-0.261	-0.132
-336.289	-200.000	0.036	0.479
-335.275	-175.201	-0.158	-0.004
-334.260	-200.000	-0.021	-0.302
-333.245	56.164	0.143	-0.138
-332.231	-52.781	0.321	-0.146
-331.216	652.756	0.115	0.291
-330.202	-200.000	-0.006	-0.161
-329.187	114.857	0.212	-0.257
-328.172	-101.125	0.268	-0.065
-327.158	-129.459	0.277	-0.038
-326.143	-132.300	-0.125	0.016
-325.129	139.459	-0.307	0.399
-324.114	-150.095	-0.259	-0.020
-323.099	653.919	0.114	0.289
-322.085	188.619	0.047	-0.070
-321.070	257.101	0.143	0.243
-320.056	-200.000	-0.021	-0.259
-319.041	-83.164	0.236	-0.075
-318.026	276.322	0.091	-0.160
-317.012	-45.139	-0.035	0.017
-315.997	26.615	0.204	-0.169
-314.983	-57.581	0.248	0.108
-313.968	138.069	0.104	-0.135
-312.953	-200.000	0.052	-0.322
-311.939	145.197	-0.088	0.117
-310.924	-58.239	0.435	0.187
-309.910	-42.898	-0.275	0.138
-308.895	-145.123	0.314	-0.028
-307.880	-200.000	-0.007	-0.085
-306.866	451.456	-0.096	-0.210
-305.851	-105.601	0.283	0.063
-304.837	-111.391	-0.364	-0.073
-303.822	625.299	-0.044	-0.109
-302.807	-117.360	-0.228	0.041
-301.793	160.305	0.060	0.083
-300.778	225.241	-0.178	0.285
-299.764	-200.000	-0.023	-0.189
-298.749	272.552	0.187	0.326
-297.735	672.572	-0.101	0.259
-296.720	545.061	0.057	0.134
-295.705	-200.000	-0.051	0.433
-294.691	111.575	0.195	0.233
-293.676	-200.000	-0.003	-0.094
-292.662	-200.000	-0.055	-0.259
-291.647	-112.895	-0.111	0.022
-290.632	77.054	0.206	0.217
-289.618	800.000	0.024	-0.073
-288.603	-129.132	0.239	-0.033
-287.589	-139.284	-0.352	0.037
-286.574	136.228	-0.061	0.079
-285.559	-200.000	0.020	0.127
-284.545	4.168	0.249	-0.180
-283.530	358.881	0.122	-0.241
-282.516	0.870	0.220	-0.156
-281.501	196.076	0.054	-0.081
-280.486	800.000	-0.083	0.301
-279.472	78.583	-0.107	-0.113
-278.457	395.704	-0.147	-0.304
-277.443	-42.702	-0.191	-0.096
-276.428	70.955	0.200	0.204
-275.413	-155.320	0.440	-0.028
-274.399	-84.955	0.093	-0.029
-273.384	302.334	0.218	0.399
-272.370	-200.000	0.011	0.106
-271.355	91.719	-0.061	0.068
-270.340	58.583	0.270	-0.262
-269.326	-52.225	0.187	-0.086
-268.311	314.632	-0.089	0.166
-267.297	15.954	-0.173	-0.135
-266.282	-200.000	0.024	-0.113
-265.267	-200.000	0.011	0.103
-264.253	68.509	-0.183	0.185
-263.238	107.287	-0.269	-0.316
-262.224	-169.998	0.231	0.008
-261.209	377.725	0.040	0.082
-260.195	-25.006	-0.089	-0.052
-259.180	-200.000	0.066	0.515
-258.165	-200.000	-0.015	-0.132
-257.151	-200.000	-0.015	0.207
-256.136	227.011	-0.178	0.285
-255.122	-54.617	0.132	-0.059
-254.107	-200.000	-0.063	-0.322
-253.092	800.000	-0.034	0.136
-252.078	-200.000	-0.005	-0.148
-251.063	-120.539	0.127	-0.021
-250.049	-200.000	0.018	-0.149
-249.034	25.035	0.150	0.123
-248.019	-200.000	-0.013	-0.088
-247.005	293.942	-0.104	-0.187
-245.990	800.000	0.136	0.436
-244.976	-200.000	0.046	0.352
-243.961	147.823	0.153	-0.204
-242.946	-153.313	-0.151	-0.010
-241.932	29.334	0.316	-0.265
-240.917	-49.439	-0.164	0.077
-239.903	-200.000	-0.009	-0.048
-238.888	393.360	0.104	-0.214
-237.873	800.000	0.092	0.342
-236.859	219.604	-0.134	0.212
-235.844	-89.909	-0.098	0.028
-234.830	-200.000	0.008	-0.178
-233.815	416.821	-0.087	0.184
-232.800	800.000	0.060	0.188
-231.786	-166.834	0.337	-0.014
-230.771	800.000	-0.075	-0.207
-229.757	-66.532	-0.494	0.193
-228.742	93.693	0.116	-0.130
-227.727	800.000	0.108	-0.309
-226.713	308.759	0.211	0.388
-225.698	-10.338	-0.123	-0.080
-224.684	-10.192	0.300	-0.196
-223.669	168.513	-0.151	0.213
-222.655	-158.391	0.156	-0.009
-221.640	-200.000	0.039	-0.325
-220.625	-118.771	0.109	0.019
-219.611	91.669	-0.179	-0.198
-218.596	-200.000	0.057	0.316
-217.582	-87.989	0.188	-0.056
-216.567	-163.718	0.375	0.017
-215.552	800.000	-0.044	0.183
-214.538	800.000	-0.042	0.162
-213.523	137.384	0.040	0.052
-212.509	504.341	-0.056	0.128
-211.494	800.000	0.163	0.530
-210.479	-9.818	0.262	0.172
-209.465	-3.541	-0.121	0.083
-208.450	-106.422	-0.330	-0.073
-207.436	-200.000	-0.062	-0.292
-206.421	384.176	0.123	-0.250
-205.406	-34.919	-0.063	0.034
-204.392	-43.644	0.307	0.152
-203.377	-118.015	-0.278	0.049
-202.363	-152.735	0.055	0.004
-201.348	800.000	0.009	0.027
-200.333	-32.198	0.222	-0.122
-199.319	-153.517	-0.157	-0.011
-198.304	27.400	0.028	-0.023
-197.290	-7.624	-0.087	0.058
-196.275	248.425	0.062	-0.103
-195.260	-100.240	0.265	-0.065
-194.246	-189.345	0.115	0.001
-193.231	-187.418	0.156	0.002
-192.217	-21.449	-0.226	-0.136
-191.202	132.473	0.039	0.050
-190.187	282.789	0.064	0.114
-189.173	-43.155	0.149	0.075
-188.158	195.832	0.148	-0.221
-187.144	246.466	0.056	-0.093
-186.129	-66.166	-0.088	-0.034
-185.114	-44.479	0.241	0.119
-184.100	-174.294	0.375	-0.011
-183.085	57.094	0.064	-0.061
-182.071	-200.000	0.017	-0.086
-181.056	-76.841	0.123	0.042
-180.042	95.451	0.056	0.063
-179.027	-200.000	-0.020	0.268
-178.012	184.308	0.182	0.265
-176.998	-200.000	0.005	0.067
-175.983	89.168	0.239	0.262
-174.969	210.054	-0.084	-0.129
-173.954	81.015	0.277	0.294
-172.939	-21.972	-0.320	0.191
-171.925	-115.467	-0.204	-0.038
-170.910	800.000	0.061	-0.245
-169.896	-65.020	0.035	0.014
-168.881	332.458	-0.070	0.133
-167.866	-200.000	0.019	0.275
-166.852	-68.730	0.220	0.084
-165.837	-83.155	0.043	0.014
-164.823	117.705	0.155	0.187
-163.808	-64.956	-0.173	-0.069
-162.793	90.361	-0.020	-0.022
-161.779	479.323	0.145	0.323
-160.764	9.996	-0.109	0.081
-159.750	31.447	0.039	0.033
-158.735	-157.923	-0.145	0.008
-157.720	217.487	-0.086	0.134
-156.706	-200.000	-0.090	-0.457
-155.691	-200.000	-0.001	0.194
-154.677	6.794	0.075	0.055
-153.662	214.234	-0.088	0.136
-152.647	-200.000	0.017	-0.357
-151.633	111.161	0.078	0.092
-150.618	15.401	-0.300	-0.231
-149.604	56.706	-0.139	0.133
-148.589	50.103	0.040	0.037
-147.574	88.346	0.178	0.194
-146.560	75.537	0.078	-0.080
-145.545	18.857	0.448	0.353
-144.531	-155.739	-0.260	-0.016
-143.516	140.510	0.111	0.143
-142.502	-200.000	-0.001	0.041
-141.487	301.815	0.049	0.090
-140.472	800.000	0.047	-0.167
-139.458	-200.000	-0.002	0.013
-138.443	-48.270	-0.232	0.110
-137.429	800.000	0.039	0.166
-136.414	-23.914	-0.123	-0.072
-135.399	-200.000	-0.002	-0.084
-134.385	368.127	-0.145	0.289
-133.370	476.962	-0.009	0.019
-132.356	368.561	0.086	0.171
-131.341	800.000	0.155	0.422
-130.326	-200.000	-0.041	0.184
-129.312	-200.000	0.014	-0.097
-128.297	409.136	0.193	0.400
-127.283	255.266	-0.220	0.370
-126.268	-126.407	0.361	-0.053
-125.253	-121.643	-0.430	-0.070
-124.239	-85.277	0.254	0.078
-123.224	-200.000	0.015	0.087
-122.210	370.322	-0.160	-0.318
-121.195	-36.642	-0.150	0.079
