DTS Sentinel unit serial number:	SN413079Multiplexer serial number:	ORYXHardware model number:	OX4-SRSoftware version number:	ORYX F/W v4.00 Oryx Data Collector v3.7.2.0data status	okinstallation	princeton_trtdifferential loss correction	single-endedforward channel	channel 1reverse channel	N/Adate	2019/09/12time	18:56:34forward acquisition time	15.00reverse acquisition time	0.00gamma	496.2192k internal	0.2319k external	0.2319temperature offset calibration	1.0115default loss term (dB/km)	0.3790temperature slope calibration	1.0000multiplexer offset coefficient	1.0000multiplexer slope coefficient	1.0000fibre end	0.00T internal ref (°C)	32.81T ext. ref 1 (°C)	3.02T ext. ref 2 (°C)	27.36length (m)	temperature (°C)	Stokes	anti-Stokes-747.200	-84.203	0.730	-0.234
-746.185	-135.221	-0.702	0.085
-745.171	800.000	-0.110	0.396
-744.156	494.158	-0.150	0.349
-743.142	-69.662	0.491	0.190
-742.127	-11.422	-0.378	-0.252
-741.112	61.951	-0.448	-0.452
-740.098	-16.286	-1.629	-1.046
-739.083	-22.365	-0.418	-0.256
-738.069	540.480	-0.371	0.892
-737.054	-190.030	-0.756	-0.009
-736.039	592.677	-0.226	-0.563
-735.025	-200.000	0.016	-0.721
-734.010	-90.853	0.359	-0.105
-732.996	-23.390	-0.426	-0.259
-731.981	800.000	0.145	0.446
-730.966	166.232	0.161	-0.231
-729.952	800.000	-0.231	0.796
-728.937	-79.101	-0.720	0.247
-727.923	-92.090	0.307	0.088
-726.908	-131.012	0.249	-0.034
-725.894	-85.283	-0.122	-0.038
-724.879	99.559	0.736	-0.861
-723.864	-197.525	0.685	0.004
-722.850	-118.243	0.629	0.113
-721.835	442.079	0.219	-0.484
-720.821	-166.673	0.873	-0.037
-719.806	57.977	0.514	0.508
-718.791	-69.031	0.477	-0.186
-717.777	800.000	0.180	-0.740
-716.762	-200.000	0.120	-0.821
-715.748	38.727	0.429	0.387
-714.733	-200.000	-0.086	0.672
-713.718	-200.000	0.027	-0.283
-712.704	-81.481	-0.890	0.296
-711.689	-3.239	-0.340	-0.239
-710.675	75.368	-0.316	-0.337
-709.660	-47.500	0.555	0.273
-708.645	-200.000	0.042	-0.799
-707.631	-110.210	-0.105	0.022
-706.616	110.944	-0.322	0.391
-705.602	656.797	0.235	0.609
-704.587	-200.000	-0.082	-1.055
-703.572	263.517	-0.175	0.307
-702.558	0.211	-0.505	-0.363
-701.543	-33.286	-0.430	-0.240
-700.529	-30.961	-0.400	0.228
-699.514	-47.554	-0.172	-0.084
-698.499	-200.000	-0.086	0.662
-697.485	327.214	0.029	0.057
-696.470	-124.633	-0.603	-0.094
-695.456	-137.401	0.763	-0.087
-694.441	800.000	0.165	0.546
-693.426	-200.000	-0.050	-0.772
-692.412	335.240	-0.520	1.017
-691.397	639.473	0.186	0.478
-690.383	766.784	-0.203	-0.557
-689.368	-17.800	-0.362	0.229
-688.354	63.537	-0.304	0.308
-687.339	0.416	0.374	-0.269
-686.324	168.120	-0.197	0.282
-685.310	297.965	-0.223	-0.413
-684.295	1.796	-0.438	-0.319
-683.281	-47.910	0.418	-0.204
-682.266	32.704	-0.445	-0.389
-681.251	142.111	-0.245	-0.328
-680.237	-156.484	0.261	-0.016
-679.222	-127.482	0.147	-0.021
-678.208	-200.000	-0.005	0.033
-677.193	-24.406	-0.696	0.418
-676.178	-95.615	0.384	-0.104
-675.164	-148.222	0.588	-0.049
-674.149	-200.000	-0.074	-0.617
-673.135	-43.347	-0.299	-0.153
-672.120	-127.277	-0.303	0.045
-671.105	78.643	-0.541	0.584
-670.091	529.874	0.288	-0.685
-669.076	-40.924	0.458	0.239
-668.062	-143.522	-0.096	-0.009
-667.047	166.822	-0.172	0.247
-666.032	222.057	0.344	0.559
-665.018	-114.326	-0.711	-0.138
-664.003	-200.000	-0.120	-1.306
-662.989	-184.973	-0.369	0.006
-661.974	800.000	0.181	0.760
-660.959	800.000	0.168	0.610
-659.945	-200.000	0.088	0.613
-658.930	240.915	0.247	-0.415
-657.916	800.000	0.242	-0.744
-656.901	-54.081	-0.998	0.457
-655.886	-60.358	-0.908	-0.390
-654.872	27.257	-0.229	-0.194
-653.857	168.498	-0.096	0.137
-652.843	-133.550	-0.540	-0.068
-651.828	84.524	0.634	0.699
-650.814	-113.458	0.148	0.029
-649.799	-22.811	-0.268	0.163
-648.784	528.507	0.211	0.502
-647.770	-171.975	-0.437	0.014
-646.755	-200.000	-0.131	0.643
-645.741	410.445	0.254	-0.542
-644.726	800.000	-0.172	-0.756
-643.711	-200.000	-0.027	1.156
-642.697	91.440	-0.296	0.335
-641.682	85.693	-0.616	0.682
-640.668	-72.218	-0.563	-0.210
-639.653	-80.783	-0.541	-0.181
-638.638	-122.195	0.972	-0.160
-637.624	206.234	0.397	0.622
-636.609	-200.000	0.043	-0.687
-635.595	-0.424	-0.206	0.147
-634.580	-200.000	0.002	-0.467
-633.565	105.608	0.257	0.306
-632.551	353.849	0.227	-0.453
-631.536	-66.071	1.390	-0.558
-630.522	76.504	0.322	-0.344
-629.507	-200.000	-0.061	0.716
-628.492	9.010	-0.546	-0.415
-627.478	-4.089	0.102	-0.071
-626.463	438.745	-0.307	0.675
-625.449	-200.000	-0.075	0.821
-624.434	800.000	-0.123	0.459
-623.419	-95.812	0.322	-0.086
-622.405	800.000	-0.057	0.228
-621.390	-200.000	0.156	1.291
-620.376	800.000	0.298	1.121
-619.361	-200.000	0.056	-0.471
-618.346	283.568	-0.209	-0.378
-617.332	-200.000	0.028	-0.924
-616.317	202.644	-0.587	-0.912
-615.303	-125.918	-0.451	0.068
-614.288	688.018	0.032	0.083
-613.273	-187.957	0.660	0.009
-612.259	-3.522	0.657	0.460
-611.244	19.910	-0.287	0.233
-610.230	90.308	0.190	-0.214
-609.215	800.000	0.280	-0.934
-608.201	120.047	-0.386	0.482
-607.186	478.792	0.264	0.602
-606.171	20.118	-0.553	0.449
-605.157	-153.070	0.176	-0.012
-604.142	-165.257	0.371	-0.016
-603.128	800.000	-0.165	-0.677
-602.113	-78.060	0.342	-0.118
-601.098	800.000	0.105	-0.356
-600.084	-156.308	0.695	0.044
-599.069	159.992	0.141	-0.197
-598.055	-4.219	-0.191	-0.133
-597.040	-2.516	-0.654	-0.461
-596.025	482.358	0.067	-0.153
-595.011	270.275	-0.263	-0.465
-593.996	-48.366	0.788	-0.382
-592.982	367.074	-0.134	0.272
-591.967	329.642	-0.146	0.282
-590.952	-6.099	-0.318	0.218
-589.938	71.516	0.475	-0.496
-588.923	-87.251	-0.798	0.244
-587.909	-77.754	0.470	0.163
-586.894	-200.000	0.014	-0.331
-585.879	84.959	-0.380	0.419
-584.865	48.393	-0.232	0.219
-583.850	-100.321	-0.581	-0.145
-582.836	-31.875	0.803	0.452
-581.821	-31.479	-0.439	-0.248
-580.806	79.456	0.449	0.484
-579.792	25.260	0.210	0.175
-578.777	-43.110	0.949	-0.483
-577.763	-200.000	0.013	0.222
-576.748	-200.000	-0.058	0.383
-575.733	59.696	-0.205	0.203
-574.719	75.985	0.875	0.930
-573.704	-200.000	0.082	0.711
-572.690	-200.000	0.010	0.147
-571.675	101.962	0.356	-0.417
-570.661	-200.000	0.160	-0.903
-569.646	213.432	0.464	-0.737
-568.631	211.977	-0.042	-0.066
-567.617	84.138	0.501	0.550
-566.602	-12.450	-0.103	0.068
-565.588	-145.448	0.096	0.009
-564.573	17.079	-0.349	-0.278
-563.558	89.444	-0.004	-0.004
-562.544	-200.000	0.005	0.391
-561.529	-200.000	-0.085	0.377
-560.515	-154.996	-0.476	-0.031
-559.500	404.900	0.217	0.458
-558.485	-200.000	0.048	-0.869
-557.471	-200.000	0.108	0.478
-556.456	-29.318	0.516	-0.297
-555.442	-86.618	-0.596	0.183
-554.427	-200.000	-0.071	0.446
-553.412	-131.282	-0.257	-0.034
-552.398	-85.970	0.316	0.098
-551.383	-89.391	0.985	-0.291
-550.369	800.000	0.143	0.419
-549.354	-64.122	0.024	0.010
-548.339	17.306	-0.179	0.143
-547.325	153.039	0.279	-0.382
-546.310	112.438	0.234	0.284
-545.296	6.665	0.419	0.313
-544.281	800.000	-0.394	-1.334
-543.266	800.000	-0.058	-0.222
-542.252	800.000	-0.207	0.637
-541.237	-70.378	0.451	0.172
-540.223	-4.489	0.571	0.396
-539.208	690.494	-0.191	-0.500
-538.193	800.000	-0.360	-1.039
-537.179	-39.987	0.483	-0.253
-536.164	-116.109	-0.831	0.155
-535.150	112.575	-0.470	-0.571
-534.135	327.240	-0.183	-0.352
-533.121	-200.000	-0.366	-0.001
-532.106	800.000	-0.158	-0.523
-531.091	97.535	0.668	-0.770
-530.077	62.303	0.499	0.500
-529.062	-6.667	-0.587	0.401
-528.048	-69.071	0.326	0.126
-527.033	-200.000	0.165	0.001
-526.018	-200.000	0.028	-0.285
-525.004	15.088	-0.372	-0.292
-523.989	-68.497	-0.447	0.174
-522.975	800.000	0.265	0.843
-521.960	-63.986	-0.718	-0.294
-520.945	-110.034	-0.241	0.051
-519.931	195.528	0.538	-0.820
-518.916	-50.468	0.051	0.024
-517.902	-25.876	0.770	-0.455
-516.887	299.735	0.464	-0.858
-515.872	114.230	-0.321	-0.392
-514.858	14.653	0.287	-0.225
-513.843	-75.418	-0.978	-0.349
-512.829	-200.000	0.000	0.748
-511.814	800.000	-0.218	0.666
-510.799	-106.523	0.595	0.133
-509.785	103.369	0.640	-0.753
-508.770	800.000	0.257	-0.863
-507.756	800.000	0.109	-0.365
-506.741	-115.298	0.269	0.051
-505.726	-163.921	0.409	-0.019
-504.712	232.045	0.413	-0.680
-503.697	-42.975	1.026	-0.521
-502.683	-81.781	-0.241	0.079
-501.668	800.000	0.124	-0.397
-500.653	49.024	0.227	0.214
-499.639	-90.347	0.200	0.058
-498.624	237.168	-0.086	-0.143
-497.610	-149.990	0.763	0.060
-496.595	315.900	0.195	0.369
-495.581	-97.454	-0.178	-0.046
-494.566	644.459	-0.321	0.819
-493.551	-35.063	-1.029	-0.562
-492.537	-23.118	0.447	0.270
-491.522	53.278	0.213	0.204
-490.508	366.925	-0.183	0.370
-489.493	125.683	-0.787	0.995
-488.478	800.000	0.170	0.480
-487.464	82.653	-0.208	-0.226
-486.449	385.113	-0.158	-0.326
-485.435	-85.052	0.540	0.170
-484.420	800.000	-0.049	-0.140
-483.405	-106.457	-0.390	-0.087
-482.391	-200.000	-0.104	0.575
-481.376	-87.486	-0.319	-0.097
-480.362	-140.038	-0.209	0.022
-479.347	-115.027	0.305	-0.058
-478.332	31.712	-0.322	0.278
-477.318	0.645	-0.718	0.514
-476.303	-200.000	-0.095	-0.597
-475.289	39.083	-0.540	0.483
-474.274	412.012	0.278	0.590
-473.259	-200.000	0.029	0.491
-472.245	113.944	-0.512	0.623
-471.230	-16.880	0.195	0.123
-470.216	-154.382	0.468	-0.031
-469.201	352.569	-0.325	-0.645
-468.186	-59.496	-0.888	0.382
-467.172	-111.475	-0.365	0.074
-466.157	666.363	0.546	-1.412
-465.143	-179.758	-0.170	0.004
-464.128	800.000	-0.149	0.438
-463.113	-79.159	-0.591	0.201
-462.099	34.563	0.130	0.114
-461.084	134.419	-0.335	0.434
-460.070	302.393	-0.294	-0.544
-459.055	-149.659	-0.155	0.012
-458.040	-100.562	-0.309	0.076
-457.026	490.024	0.269	0.616
-456.011	192.492	-0.301	0.454
-454.997	-57.009	-0.265	0.117
-453.982	-93.422	-0.463	-0.128
-452.968	133.550	-0.192	-0.248
-451.953	780.738	0.291	-0.795
-450.938	-71.877	0.377	0.140
-449.924	-129.557	0.746	-0.103
-448.909	-200.000	-0.101	0.615
-447.895	327.341	0.045	-0.087
-446.880	175.586	0.223	0.323
-445.865	-200.000	-0.035	0.426
-444.851	82.843	0.205	-0.223
-443.836	-200.000	-0.051	0.825
-442.822	-99.840	0.254	0.064
-441.807	-200.000	-0.089	-1.040
-440.792	227.108	-0.348	-0.565
-439.778	-149.921	-0.907	-0.071
-438.763	481.120	-0.336	-0.763
-437.749	117.739	-0.382	-0.470
-436.734	-105.042	-0.339	0.078
-435.719	-102.588	0.706	0.169
-434.705	-101.061	-0.640	0.157
-433.690	-183.603	-0.576	0.010
-432.676	-200.000	0.021	0.201
-431.661	-111.842	0.208	0.042
-430.646	-22.628	-0.380	-0.230
-429.632	370.147	-0.216	0.437
-428.617	-21.753	0.657	0.400
-427.603	-51.065	-0.363	0.170
-426.588	54.644	0.741	-0.714
-425.573	-67.988	0.520	-0.203
-424.559	-200.000	0.027	0.233
-423.544	25.715	-0.437	-0.363
-422.530	-3.866	-0.588	-0.407
-421.515	-200.000	-0.076	-0.758
-420.500	-84.659	0.501	0.158
-419.486	-200.000	0.048	0.762
-418.471	60.397	0.704	0.696
-417.457	-127.702	-0.567	-0.082
-416.442	-116.925	0.172	0.031
-415.428	516.558	-0.206	-0.481
-414.413	4.774	-0.325	0.239
-413.398	758.328	0.142	0.385
-412.384	-200.000	0.008	-0.359
-411.369	-80.918	-0.325	0.108
-410.355	720.323	-0.158	0.419
-409.340	240.335	-0.162	0.270
-408.325	-70.505	-0.174	0.066
-407.311	-85.596	0.970	0.301
-406.296	25.745	-0.390	0.324
-405.282	-200.000	0.014	-0.157
-404.267	-28.312	0.564	-0.325
-403.252	697.774	-0.174	-0.456
-402.238	-24.068	-0.156	0.093
-401.223	-200.000	-0.013	0.213
-400.209	10.592	0.584	0.444
-399.194	157.136	-0.316	-0.436
-398.179	800.000	-0.195	-0.684
-397.165	-155.152	-0.287	0.019
-396.150	-200.000	-0.081	-0.678
-395.136	54.599	0.523	0.503
-394.121	-200.000	0.027	0.546
-393.106	310.191	0.295	-0.551
-392.092	-14.193	0.276	-0.177
-391.077	-10.896	-0.554	-0.365
-390.063	111.301	0.148	0.177
-389.048	-200.000	0.052	-0.508
-388.033	-200.000	-0.009	0.335
-387.019	-32.658	-0.406	0.225
-386.004	167.185	-0.428	0.606
-384.990	-52.588	-0.547	-0.252
-383.975	13.092	0.323	-0.250
-382.960	800.000	0.150	0.502
-381.946	3.538	0.435	-0.316
-380.931	138.514	-0.748	0.979
-379.917	319.084	0.669	1.264
-378.902	800.000	0.179	0.573
-377.888	-68.399	-0.405	-0.157
-376.873	-200.000	-0.041	-0.256
-375.858	-171.278	-0.376	-0.013
-374.844	45.772	0.066	0.060
-373.829	-25.655	-0.182	0.107
-372.815	-174.051	0.016	0.000
-371.800	326.587	-0.256	0.489
-370.785	640.217	-0.333	-0.845
-369.771	234.852	0.326	0.537
-368.756	800.000	0.144	-0.526
-367.742	-116.287	0.760	-0.140
-366.727	85.401	-0.158	-0.173
-365.712	71.156	-0.231	-0.239
-364.698	147.197	-0.208	0.280
-363.683	-50.840	-0.739	0.346
-362.669	-79.676	-0.814	-0.274
-361.654	138.971	-0.192	-0.252
-360.639	31.631	-0.279	-0.239
-359.625	-49.427	-0.391	-0.186
-358.610	459.885	0.450	0.997
-357.596	159.737	-0.177	0.246
-356.581	-81.027	0.526	0.173
-355.566	-178.804	0.481	-0.011
-354.552	-18.702	0.482	-0.299
-353.537	-50.435	-0.045	-0.021
-352.523	800.000	0.200	-0.795
-351.508	10.204	-0.475	-0.360
-350.493	-30.259	0.446	0.252
-349.479	717.141	0.046	-0.121
-348.464	698.629	-0.124	-0.325
-347.450	-119.224	0.857	0.149
-346.435	-74.222	-1.004	0.362
-345.420	-1.812	-0.525	0.368
-344.406	-23.151	-0.467	-0.280
-343.391	306.400	-0.354	-0.656
-342.377	546.947	-0.340	-0.810
-341.362	127.121	-0.381	0.481
-340.348	-200.000	0.085	-0.585
-339.333	401.768	0.232	0.485
-338.318	-93.645	0.250	0.069
-337.304	-200.000	-0.152	-1.173
-336.289	217.925	0.412	0.655
-335.275	187.241	0.263	-0.391
-334.260	8.170	-0.605	0.453
-333.245	87.959	0.464	-0.512
-332.231	-38.360	0.307	-0.162
-331.216	237.437	0.141	-0.233
-330.202	800.000	-0.222	-0.837
-329.187	-26.610	-0.063	0.037
-328.172	-127.028	0.161	0.024
-327.158	440.253	-0.303	-0.658
-326.143	51.635	0.731	-0.692
-325.129	-200.000	-0.102	-0.947
-324.114	768.534	-0.227	0.613
-323.099	394.430	0.414	0.858
-322.085	12.801	-0.060	-0.046
-321.070	393.799	0.144	-0.298
-320.056	331.527	0.429	0.824
-319.041	351.500	-0.440	0.866
-318.026	-160.900	0.497	0.026
-317.012	-37.973	0.590	-0.312
-315.997	220.659	-0.154	0.245
-314.983	399.195	-0.362	0.755
-313.968	8.739	0.737	0.552
-312.953	800.000	0.084	0.285
-311.939	-34.320	1.324	-0.722
-310.924	-27.187	0.676	-0.392
-309.910	-40.093	0.219	-0.114
-308.895	-200.000	0.012	-0.152
-307.880	45.511	-0.296	0.272
-306.866	208.690	0.276	-0.429
-305.851	800.000	0.068	0.224
-304.837	-157.985	-0.599	-0.035
-303.822	-69.513	-0.916	-0.349
-302.807	74.617	-0.522	-0.546
-301.793	55.005	-0.375	-0.360
-300.778	79.858	-0.320	0.342
-299.764	2.807	0.300	-0.216
-298.749	124.465	0.425	0.532
-297.735	15.263	-0.053	0.041
-296.720	10.009	-0.463	-0.349
-295.705	75.430	0.598	-0.627
-294.691	-149.640	0.343	0.027
-293.676	567.894	0.197	0.477
-292.662	-77.786	-0.313	-0.107
-291.647	49.054	0.545	0.508
-290.632	389.724	-0.104	-0.213
-289.618	-200.000	0.049	0.233
-288.603	-200.000	-0.091	0.416
-287.589	211.686	0.295	0.461
-286.574	551.734	0.224	-0.535
-285.559	219.475	-0.209	-0.332
-284.545	-69.719	0.487	-0.185
-283.530	6.656	0.725	0.535
-282.516	-93.782	0.595	-0.163
-281.501	-157.827	-0.387	0.023
-280.486	-97.933	0.160	-0.041
-279.472	-189.985	0.415	0.005
-278.457	60.270	-0.213	-0.209
-277.443	236.113	-0.192	-0.315
-276.428	20.694	-0.248	0.199
-275.413	-79.570	0.661	0.221
-274.399	-34.236	-0.119	0.065
-273.384	101.538	-0.553	0.639
-272.370	-200.000	0.124	0.548
-271.355	303.489	0.479	0.882
-270.340	-152.837	0.121	0.008
-269.326	226.919	-0.044	0.071
-268.311	-19.668	1.113	-0.684
-267.297	-89.668	-1.420	-0.413
-266.282	800.000	-0.137	0.436
-265.267	-200.000	0.039	-0.281
-264.253	-20.844	-0.424	0.258
-263.238	-46.909	0.195	-0.094
-262.224	112.159	-0.193	-0.231
-261.209	3.471	-0.595	-0.430
-260.195	180.394	-0.449	0.654
-259.180	-31.977	-0.424	0.235
-258.165	-97.748	-0.522	-0.134
-257.151	441.871	-0.096	-0.208
-256.136	770.223	0.382	-1.033
-255.122	-111.148	-0.280	0.057
-254.107	289.424	-0.471	0.848
-253.092	-40.142	0.720	-0.372
-252.078	76.484	0.654	-0.687
-251.063	-21.573	-0.596	0.360
-250.049	-200.000	-0.017	-0.238
-249.034	76.757	0.057	-0.060
-248.019	112.183	-0.331	-0.397
-247.005	-200.000	-0.095	-0.430
-245.990	-200.000	-0.099	0.810
-244.976	-200.000	-0.037	0.757
-243.961	-200.000	-0.090	0.568
-242.946	-29.698	-0.688	0.389
-241.932	213.795	-0.037	-0.057
-240.917	-69.122	0.373	0.142
-239.903	765.021	-0.091	0.244
-238.888	-103.816	0.504	-0.117
-237.873	-57.673	0.366	-0.159
-236.859	-2.257	0.149	0.103
-235.844	-159.331	-0.673	-0.037
-234.830	28.528	0.186	-0.156
-233.815	-200.000	0.093	1.166
-232.800	96.174	-0.066	-0.075
-231.786	-64.835	-0.269	-0.108
-230.771	24.316	-0.740	0.606
-229.757	172.089	0.468	0.667
-228.742	-200.000	-0.024	0.622
-227.727	-39.709	-0.693	-0.359
-226.713	187.283	-0.150	-0.222
-225.698	484.880	-0.087	0.196
-224.684	103.978	0.712	-0.829
-223.669	-200.000	0.001	0.318
-222.655	-123.192	-0.807	-0.128
-221.640	-150.491	0.694	-0.053
-220.625	372.767	-0.277	0.558
-219.611	-30.072	-0.362	-0.204
-218.596	-200.000	0.010	0.271
-217.582	-104.871	-0.379	0.086
-216.567	-46.127	-0.865	-0.422
-215.552	-200.000	-0.053	0.340
-214.538	-28.518	-0.252	-0.144
-213.523	46.884	-0.228	0.210
-212.509	-200.000	0.028	0.633
-211.494	-200.000	-0.040	-0.691
-210.479	-105.554	-0.645	-0.145
-209.465	-48.680	-0.482	-0.229
-208.450	87.177	-0.528	-0.579
-207.436	108.129	0.177	0.209
-206.421	800.000	0.256	0.865
-205.406	-52.357	0.134	0.061
-204.392	24.154	0.513	-0.420
-203.377	-84.380	0.708	-0.222
-202.363	-143.538	0.532	-0.050
-201.348	-24.181	0.750	0.443
-200.333	35.717	0.337	0.293
-199.319	-200.000	0.121	1.436
-198.304	65.434	0.454	-0.455
-197.290	-37.894	0.384	-0.202
-196.275	303.504	0.342	-0.627
-195.260	-49.478	-0.759	-0.358
-194.246	223.855	-0.232	-0.370
-193.231	-22.197	0.585	-0.351
-192.217	519.279	0.341	-0.791
-191.202	-64.766	0.126	-0.051
-190.187	-200.000	0.077	-0.468
-189.173	105.293	-0.457	-0.534
-188.158	800.000	0.146	0.511
-187.144	48.564	-0.709	-0.657
-186.129	-66.458	-0.382	-0.150
-185.114	-38.280	-0.603	-0.316
-184.100	287.305	-0.304	0.544
-183.085	-33.374	0.269	0.147
-182.071	-10.811	0.521	-0.340
-181.056	62.654	-0.144	0.143
-180.042	-7.203	-0.276	-0.185
-179.027	-33.951	0.470	0.256
-178.012	-100.435	-0.231	-0.057
-176.998	220.936	0.428	-0.679
-175.983	-89.857	0.377	-0.109
-174.969	334.978	-0.352	-0.675
-173.954	151.924	-0.662	0.893
-172.939	279.587	0.844	-1.491
-171.925	800.000	0.083	0.242
-170.910	662.821	-0.247	-0.629
-169.896	-54.873	-0.512	0.228
-168.881	110.974	0.755	-0.899
-167.866	-135.354	0.281	-0.033
-166.852	-95.099	-0.336	0.090
-165.837	-72.684	0.268	0.098
-164.823	800.000	0.142	0.444
-163.808	-57.501	-0.464	-0.201
-162.793	412.237	0.077	-0.161
-161.779	50.000	0.267	0.249
-160.764	-200.000	-0.010	0.614
-159.750	-200.000	0.003	-0.377
-158.735	81.854	-0.423	0.453
-157.720	3.369	-0.278	0.200
-156.706	800.000	0.245	0.745
-155.691	448.723	0.174	-0.379
-154.677	203.970	0.258	0.395
-153.662	139.595	0.324	0.422
-152.647	80.515	0.082	0.087
-151.633	17.050	-0.514	-0.403
-150.618	-200.000	0.158	-0.779
-149.604	-5.468	1.213	0.823
-148.589	336.868	0.181	0.347
-147.574	0.140	0.373	0.263
-146.560	-75.102	-0.622	0.220
-145.545	-87.212	0.355	-0.107
-144.531	11.091	-0.337	0.254
-143.516	-171.638	1.025	0.033
-142.502	-200.000	0.016	-0.432
-141.487	-65.539	-0.961	-0.381
-140.472	244.566	0.283	0.470
-139.458	-41.008	0.125	0.064
-138.443	-100.467	-0.639	0.156
-137.429	652.822	0.130	0.328
-136.414	-200.000	-0.020	-0.937
-135.399	-90.321	0.993	0.285
-134.385	-52.807	-0.365	-0.166
-133.370	310.160	0.131	-0.242
-132.356	-200.000	0.150	-0.923
-131.341	-164.856	0.151	-0.007
-130.326	-200.000	0.068	-0.412
-129.312	46.260	0.554	0.507
-128.297	-31.181	-0.588	-0.327
-127.283	-149.199	0.596	-0.047
-126.268	-97.139	-0.512	0.132
-125.253	800.000	-0.011	0.046
-124.239	129.997	-0.487	0.615
-123.224	-97.694	0.317	-0.081
-122.210	196.179	-0.429	-0.645
-121.195	-35.384	0.773	-0.415
-120.180	437.226	-0.438	-0.941
