DTS Sentinel unit serial number:	SN413079Multiplexer serial number:	ORYXHardware model number:	OX4-SRSoftware version number:	ORYX F/W v4.00 Oryx Data Collector v3.7.2.0data status	okinstallation	princeton_trtdifferential loss correction	single-endedforward channel	channel 1reverse channel	N/Adate	2019/09/14time	10:46:35forward acquisition time	60.00reverse acquisition time	0.00gamma	496.2192k internal	0.2302k external	0.2302temperature offset calibration	1.0078default loss term (dB/km)	0.3790temperature slope calibration	1.0000multiplexer offset coefficient	1.0000multiplexer slope coefficient	1.0000fibre end	0.00T internal ref (°C)	35.48T ext. ref 1 (°C)	4.29T ext. ref 2 (°C)	32.60length (m)	temperature (°C)	Stokes	anti-Stokes-747.200	800.000	0.090	-0.345
-746.185	-72.026	0.076	-0.029
-745.171	409.396	0.037	0.080
-744.156	-200.000	0.027	0.165
-743.142	-200.000	0.000	0.070
-742.127	233.850	-0.154	-0.259
-741.112	697.125	-0.058	-0.156
-740.098	-117.956	0.165	-0.030
-739.083	243.269	0.184	0.314
-738.069	2.197	-0.238	-0.176
-737.054	700.707	-0.073	-0.195
-736.039	508.436	0.092	-0.217
-735.025	-40.999	-0.144	0.076
-734.010	-78.370	-0.414	-0.145
-732.996	-200.000	0.044	-0.245
-731.981	-125.844	-0.093	0.014
-730.966	-26.272	-0.229	-0.137
-729.952	-200.000	-0.017	0.096
-728.937	-89.250	0.189	-0.057
-727.923	-129.868	0.126	0.018
-726.908	-98.522	0.109	-0.028
-725.894	800.000	0.061	-0.222
-724.879	38.207	-0.207	-0.188
-723.864	-104.586	-0.425	-0.100
-722.850	17.163	-0.314	-0.253
-721.835	439.010	-0.052	-0.116
-720.821	-68.342	0.283	0.112
-719.806	69.540	-0.338	-0.354
-718.791	-144.461	-0.148	-0.014
-717.777	11.286	0.098	0.076
-716.762	-19.292	0.331	0.209
-715.748	-125.381	-0.221	-0.034
-714.733	128.631	-0.117	-0.151
-713.718	-24.539	-0.310	0.188
-712.704	-200.000	0.000	0.168
-711.689	800.000	-0.058	-0.223
-710.675	-200.000	0.036	0.290
-709.660	83.078	0.145	-0.161
-708.645	8.405	-0.061	-0.047
-707.631	-50.676	0.291	-0.139
-706.616	118.296	-0.153	-0.192
-705.602	-165.006	0.370	-0.017
-704.587	-15.009	-0.142	-0.093
-703.572	800.000	0.001	-0.004
-702.558	-200.000	-0.034	0.182
-701.543	-113.985	-0.064	-0.013
-700.529	101.949	-0.299	-0.355
-699.514	49.272	0.185	-0.177
-698.499	205.380	-0.209	-0.330
-697.485	337.040	0.086	0.171
-696.470	-200.000	-0.050	-0.411
-695.456	-137.089	-0.152	-0.018
-694.441	-149.177	-0.412	0.034
-693.426	224.148	-0.113	-0.185
-692.412	800.000	0.091	-0.305
-691.397	302.060	-0.095	-0.179
-690.383	151.784	-0.086	-0.119
-689.368	81.103	0.159	-0.175
-688.354	-137.886	0.131	-0.015
-687.339	-29.442	-0.462	0.269
-686.324	1.499	0.125	-0.092
-685.310	77.003	-0.107	0.116
-684.295	134.000	-0.125	0.165
-683.281	505.479	-0.061	-0.143
-682.266	-89.693	-0.172	-0.051
-681.251	-32.082	-0.312	0.178
-680.237	800.000	0.055	0.221
-679.222	-27.287	-0.288	0.171
-678.208	-200.000	-0.037	0.167
-677.193	-69.872	-0.234	-0.091
-676.178	800.000	-0.073	-0.231
-675.164	-200.000	-0.030	0.160
-674.149	-158.234	-0.103	-0.006
-673.135	-178.442	-0.307	-0.007
-672.120	353.595	-0.046	0.093
-671.105	-200.000	0.045	0.282
-670.091	-49.621	0.313	-0.151
-669.076	698.485	0.126	0.337
-668.062	-200.000	0.019	-0.123
-667.047	800.000	0.015	-0.067
-666.032	-26.134	-0.180	-0.108
-665.018	121.706	-0.152	-0.192
-664.003	-200.000	0.021	-0.231
-662.989	-3.723	0.057	-0.040
-661.974	725.412	-0.128	-0.347
-660.959	189.909	0.078	0.119
-659.945	-113.815	0.101	0.020
-658.930	800.000	0.047	0.147
-657.916	40.862	0.055	0.050
-656.901	-39.528	0.191	0.101
-655.886	63.115	-0.159	-0.162
-654.872	-200.000	-0.029	0.239
-653.857	800.000	0.069	0.246
-652.843	34.182	0.208	0.184
-651.828	-44.741	0.265	-0.134
-650.814	785.862	-0.062	0.172
-649.799	80.769	-0.178	0.195
-648.784	398.112	-0.035	-0.075
-647.770	800.000	-0.116	0.425
-646.755	51.604	-0.083	-0.080
-645.741	-131.581	-0.158	0.021
-644.726	-45.109	-0.161	-0.081
-643.711	32.115	-0.226	0.198
-642.697	-118.036	-0.147	-0.027
-641.682	18.801	-0.272	-0.221
-640.668	122.653	-0.063	0.080
-639.653	-56.048	0.199	0.090
-638.638	-200.000	-0.029	-0.184
-637.624	172.123	-0.127	-0.185
-636.609	494.727	0.035	-0.082
-635.595	800.000	-0.028	-0.110
-634.580	3.559	-0.213	0.157
-633.565	-89.278	-0.183	-0.055
-632.551	-32.941	-0.077	0.044
-631.536	152.931	-0.080	0.112
-630.522	800.000	-0.042	-0.121
-629.507	186.256	-0.125	-0.189
-628.492	-47.802	0.408	-0.201
-627.478	-200.000	0.002	-0.043
-626.463	-101.035	-0.145	0.036
-625.449	91.453	0.019	-0.022
-624.434	-4.037	-0.151	-0.106
-623.419	105.446	0.228	-0.274
-622.405	-40.782	-0.226	0.119
-621.390	113.684	-0.112	0.138
-620.376	-53.263	-0.210	0.098
-619.361	800.000	0.084	0.291
-618.346	391.527	0.066	0.139
-617.332	800.000	0.033	-0.111
-616.317	102.992	-0.061	0.072
-615.303	35.744	-0.153	-0.137
-614.288	477.811	0.065	0.148
-613.273	-50.850	-0.281	-0.134
-612.259	-50.822	0.088	0.042
-611.244	461.855	-0.062	-0.140
-610.230	-98.804	-0.086	-0.022
-609.215	-79.742	-0.065	0.022
-608.201	-29.133	-0.158	0.092
-607.186	420.372	-0.021	0.046
-606.171	-154.784	-0.305	-0.020
-605.157	800.000	-0.103	-0.392
-604.142	-200.000	-0.071	-0.000
-603.128	151.946	0.165	-0.228
-602.113	-87.832	0.161	0.049
-601.098	-120.896	-0.099	-0.017
-600.084	190.212	0.262	-0.399
-599.069	-63.495	-0.216	-0.090
-598.055	55.694	-0.258	-0.253
-597.040	17.154	-0.244	-0.196
-596.025	135.723	-0.183	-0.242
-595.011	50.097	0.129	0.123
-593.996	-76.648	-0.086	0.030
-592.982	-89.987	-0.201	0.060
-591.967	-152.594	0.324	-0.023
-590.952	-89.336	-0.317	-0.095
-589.938	-192.323	0.296	0.003
-588.923	51.135	-0.149	-0.144
-587.909	-99.182	-0.268	-0.069
-586.894	136.776	-0.090	-0.119
-585.879	-113.743	0.367	-0.072
-584.865	-93.551	0.239	-0.067
-583.850	800.000	0.031	0.135
-582.836	8.080	-0.181	-0.137
-581.821	-200.000	0.001	-0.098
-580.806	-163.364	-0.252	-0.012
-579.792	-189.005	-0.291	-0.004
-578.777	142.778	-0.278	-0.374
-577.763	35.644	0.149	-0.133
-576.748	-200.000	-0.010	0.078
-575.733	-200.000	-0.015	0.091
-574.719	14.471	-0.312	0.246
-573.704	464.256	-0.027	-0.062
-572.690	-42.570	0.399	-0.206
-571.675	97.131	0.171	-0.199
-570.661	800.000	-0.067	-0.240
-569.646	8.860	0.031	-0.023
-568.631	112.788	0.118	-0.144
-567.617	-103.721	-0.172	0.041
-566.602	672.870	0.091	0.239
-565.588	-200.000	0.002	0.164
-564.573	-71.667	-0.075	-0.029
-563.558	-180.873	0.318	-0.007
-562.544	-183.961	0.174	0.003
-561.529	-200.000	0.029	-0.371
-560.515	-86.201	-0.257	-0.080
-559.500	-106.170	-0.437	0.099
-558.485	189.302	-0.097	-0.148
-557.471	-155.539	-0.203	0.013
-556.456	-118.474	0.051	0.009
-555.442	-122.231	0.381	0.063
-554.427	-4.794	-0.105	-0.073
-553.412	800.000	-0.059	0.210
-552.398	800.000	0.083	0.278
-551.383	-200.000	0.020	-0.358
-550.369	-46.024	0.038	-0.019
-549.354	800.000	0.133	0.448
-548.339	-148.523	-0.199	0.016
-547.325	800.000	-0.031	-0.131
-546.310	125.905	-0.241	-0.308
-545.296	-200.000	0.004	-0.393
-544.281	254.951	0.028	-0.049
-543.266	97.438	0.076	0.088
-542.252	144.033	-0.100	-0.135
-541.237	81.269	0.196	-0.214
-540.223	60.995	0.095	0.095
-539.208	779.648	-0.018	0.050
-538.193	-0.358	0.224	-0.161
-537.179	85.807	-0.212	-0.236
-536.164	-58.376	0.345	-0.151
-535.150	24.668	-0.116	-0.097
-534.135	-81.878	-0.164	-0.054
-533.121	-86.675	-0.221	-0.068
-532.106	560.253	-0.114	-0.279
-531.091	208.337	0.138	-0.218
-530.077	114.979	-0.231	0.285
-529.062	-146.509	-0.282	-0.025
-528.048	-22.763	-0.151	-0.092
-527.033	800.000	0.061	-0.188
-526.018	-52.076	-0.088	0.041
-525.004	-200.000	0.066	0.295
-523.989	96.807	-0.065	0.075
-522.975	-129.441	-0.042	0.006
-521.960	14.934	-0.223	-0.176
-520.945	-200.000	-0.030	0.357
-519.931	-91.534	0.317	0.091
-518.916	-42.155	-0.116	0.060
-517.902	228.668	-0.128	0.210
-516.887	-60.013	-0.240	-0.103
-515.872	-200.000	-0.007	0.181
-514.858	-200.000	-0.022	-0.101
-513.843	381.660	0.113	-0.234
-512.829	298.728	0.124	-0.230
-511.814	-200.000	0.032	-0.453
-510.799	-81.111	-0.110	-0.037
-509.785	120.606	0.054	0.067
-508.770	-80.991	-0.297	0.099
-507.756	12.829	-0.364	-0.284
-506.741	-44.290	0.316	-0.160
-505.726	-5.368	-0.163	-0.113
-504.712	-144.626	0.006	-0.001
-503.697	-62.596	-0.190	0.080
-502.683	7.175	0.185	-0.139
-501.668	22.845	-0.220	0.182
-500.653	222.143	0.181	-0.293
-499.639	81.702	0.172	-0.188
-498.624	33.101	-0.339	-0.297
-497.610	50.034	0.147	0.140
-496.595	80.682	0.164	0.178
-495.581	63.520	-0.112	-0.113
-494.566	271.175	0.149	0.265
-493.551	162.491	-0.061	0.086
-492.537	-200.000	-0.059	0.310
-491.522	-94.906	-0.126	0.034
-490.508	-23.890	0.186	-0.113
-489.493	-200.000	-0.029	-0.192
-488.478	-81.578	-0.333	-0.110
-487.464	664.561	-0.036	0.094
-486.449	-45.023	0.168	-0.085
-485.435	301.246	0.070	0.131
-484.420	-62.354	0.183	0.077
-483.405	58.571	0.090	0.089
-482.391	-155.374	0.136	0.009
-481.376	800.000	-0.128	-0.430
-480.362	-200.000	0.038	0.198
-479.347	-114.670	-0.196	-0.038
-478.332	-84.195	0.152	0.049
-477.318	274.740	0.229	0.410
-476.303	45.736	0.144	0.134
-475.289	626.895	-0.056	0.141
-474.274	384.619	0.207	-0.431
-473.259	236.454	0.138	0.230
-472.245	-200.000	-0.007	0.101
-471.230	323.882	0.117	-0.225
-470.216	-5.077	0.225	-0.156
-469.201	54.664	0.155	-0.150
-468.186	800.000	0.031	0.136
-467.172	-200.000	-0.001	0.091
-466.157	-200.000	-0.007	0.036
-465.143	-95.982	-0.072	0.019
-464.128	-200.000	0.005	0.141
-463.113	-8.698	0.403	-0.272
-462.099	-200.000	-0.003	-0.212
-461.084	57.398	0.234	-0.231
-460.070	174.687	0.233	-0.340
-459.055	77.093	0.260	0.278
-458.040	-183.895	-0.209	-0.004
-457.026	-121.510	-0.305	0.051
-456.011	248.284	0.151	0.258
-454.997	369.631	-0.042	-0.086
-453.982	-67.955	-0.115	-0.045
-452.968	-154.596	-0.139	-0.009
-451.953	529.308	0.094	0.223
-450.938	-200.000	-0.017	0.176
-449.924	-148.540	-0.200	-0.016
-448.909	800.000	0.040	0.160
-447.895	339.206	0.095	0.186
-446.880	-200.000	0.003	-0.049
-445.865	-200.000	0.019	-0.237
-444.851	-157.152	0.170	0.010
-443.836	41.691	0.183	0.167
-442.822	133.516	0.220	0.287
-441.807	187.289	-0.121	0.182
-440.792	60.265	0.153	0.152
-439.778	800.000	0.130	-0.522
-438.763	-54.694	0.069	-0.031
-437.749	150.599	0.041	0.056
-436.734	-178.511	-0.300	-0.007
-435.719	244.119	-0.102	0.172
-434.705	-45.783	0.266	0.132
-433.690	-133.497	-0.107	0.014
-432.676	-200.000	-0.030	-0.246
-431.661	-80.010	-0.325	0.110
-430.646	212.204	-0.116	-0.185
-429.632	-117.459	-0.247	0.045
-428.617	-200.000	0.013	0.075
-427.603	-58.592	0.015	-0.007
-426.588	1.662	-0.146	-0.106
-425.573	14.216	0.038	-0.030
-424.559	-200.000	0.068	-0.333
-423.544	-53.132	0.118	0.054
-422.530	563.286	0.020	-0.048
-421.515	239.443	0.045	-0.076
-420.500	800.000	-0.062	-0.220
-419.486	-125.849	0.075	0.011
-418.471	-200.000	0.054	0.366
-417.457	-25.449	-0.182	0.108
-416.442	61.701	0.272	0.272
-415.428	188.894	-0.355	-0.535
-414.413	225.223	0.201	-0.328
-413.398	-88.676	-0.321	0.096
-412.384	-97.715	-0.101	0.026
-411.369	-46.863	0.267	-0.132
-410.355	-197.354	0.188	-0.001
-409.340	-200.000	0.037	-0.195
-408.325	-39.916	-0.298	-0.157
-407.311	676.909	-0.075	0.196
-406.296	-109.441	-0.023	-0.005
-405.282	-57.907	0.204	-0.090
-404.267	-105.895	0.120	0.027
-403.252	-200.000	0.008	0.510
-402.238	-78.068	0.143	-0.049
-401.223	-116.815	-0.115	-0.021
-400.209	-200.000	-0.015	0.209
-399.194	25.748	0.354	0.296
-398.179	795.374	0.048	0.132
-397.165	-148.585	-0.108	-0.009
-396.150	215.956	0.098	-0.157
-395.136	-200.000	-0.006	0.067
-394.121	800.000	-0.119	0.341
-393.106	-200.000	0.046	0.327
-392.092	-200.000	0.032	0.218
-391.077	-96.355	0.075	0.020
-390.063	27.160	0.064	0.054
-389.048	121.203	0.216	0.271
-388.033	-200.000	-0.046	0.289
-387.019	93.484	-0.195	0.222
-386.004	113.658	0.116	-0.141
-384.990	-200.000	-0.400	0.000
-383.975	477.246	-0.117	-0.266
-382.960	-200.000	-0.001	-0.145
-381.946	-68.852	0.367	0.143
-380.931	1.047	-0.134	0.096
-379.917	800.000	-0.071	0.202
-378.902	-144.111	0.141	0.013
-377.888	800.000	0.094	0.345
-376.873	738.254	0.104	-0.280
-375.858	-200.000	0.039	-0.343
-374.844	-200.000	0.009	-0.195
-373.829	31.734	-0.245	0.212
-372.815	210.221	0.168	-0.264
-371.800	-19.621	0.123	0.076
-370.785	-200.000	0.032	0.369
-369.771	-88.027	0.162	0.049
-368.756	216.009	0.042	0.068
-367.742	87.951	0.085	-0.095
-366.727	-200.000	-0.036	0.383
-365.712	-92.720	-0.179	0.050
-364.698	800.000	0.074	-0.307
-363.683	334.449	-0.039	-0.075
-362.669	-200.000	-0.050	-0.461
-361.654	89.873	-0.335	-0.375
-360.639	-200.000	0.004	-0.096
-359.625	106.073	0.155	0.184
-358.610	10.109	-0.184	0.141
-357.596	314.611	0.032	0.061
-356.581	184.048	-0.093	-0.138
-355.566	-200.000	0.028	0.234
-354.552	800.000	0.051	0.210
-353.537	-178.852	0.195	0.004
-352.523	-21.239	-0.236	-0.145
-351.508	241.156	0.028	0.047
-350.493	165.270	-0.167	0.237
-349.479	800.000	0.135	-0.381
-348.464	-10.603	0.062	-0.041
-347.450	71.536	-0.263	-0.274
-346.435	800.000	-0.192	0.565
-345.420	24.636	0.112	0.093
-344.406	65.825	0.228	0.232
-343.391	304.664	0.123	0.229
-342.377	122.921	-0.034	0.043
-341.362	-200.000	0.015	0.186
-340.348	-17.971	0.306	-0.192
-339.333	-200.000	0.132	0.614
-338.318	41.428	0.130	0.118
-337.304	-93.135	-0.222	0.062
-336.289	159.571	0.113	0.157
-335.275	114.451	0.165	-0.201
-334.260	-52.706	-0.098	-0.046
-333.245	-20.996	0.220	-0.135
-332.231	-56.659	-0.223	0.099
-331.216	-65.696	0.153	-0.061
-330.202	-46.722	0.199	-0.098
-329.187	-200.000	-0.003	-0.341
-328.172	-109.646	0.115	0.024
-327.158	270.110	0.183	-0.322
-326.143	-15.266	-0.172	-0.110
-325.129	103.344	-0.136	-0.161
-324.114	-96.574	0.159	-0.042
-323.099	-59.207	0.124	-0.054
-322.085	13.700	-0.012	-0.009
-321.070	-200.000	-0.016	0.085
-320.056	-95.434	-0.265	0.071
-319.041	-91.611	0.158	0.045
-318.026	-7.497	-0.315	-0.214
-317.012	-119.260	0.244	0.043
-315.997	118.283	-0.241	0.298
-314.983	-87.685	0.237	-0.072
-313.968	761.289	-0.094	0.256
-312.953	88.157	-0.193	0.215
-311.939	-82.013	0.230	0.075
-310.924	-200.000	0.024	0.313
-309.910	36.431	-0.122	0.108
-308.895	167.069	0.035	-0.049
-307.880	-64.262	0.065	0.027
-306.866	150.757	-0.205	0.279
-305.851	-200.000	-0.086	0.408
-304.837	220.512	-0.071	0.114
-303.822	560.224	0.075	-0.181
-302.807	-122.617	-0.233	0.038
-301.793	83.390	0.161	0.176
-300.778	14.702	-0.202	0.158
-299.764	82.286	0.263	0.286
-298.749	-200.000	0.009	0.046
-297.735	-162.975	-0.162	-0.008
-296.720	229.934	-0.060	0.098
-295.705	-183.130	-0.225	-0.004
-294.691	-5.596	0.033	0.023
-293.676	-200.000	0.043	0.245
-292.662	-160.582	0.320	-0.017
-291.647	-74.487	-0.119	0.043
-290.632	-98.082	0.279	-0.072
-289.618	515.851	-0.060	0.140
-288.603	800.000	0.075	0.304
-287.589	-118.531	0.324	-0.057
-286.574	-200.000	-0.104	0.471
-285.559	489.823	0.082	-0.187
-284.545	-92.133	0.027	0.008
-283.530	36.453	-0.141	-0.125
-282.516	40.331	0.116	0.105
-281.501	-200.000	0.007	0.234
-280.486	-66.247	-0.373	-0.148
-279.472	12.296	-0.069	0.053
-278.457	241.056	-0.108	-0.180
-277.443	-200.000	-0.021	-0.411
-276.428	-108.870	-0.216	-0.046
-275.413	-115.402	-0.105	-0.020
-274.399	37.932	0.080	-0.071
-273.384	-108.340	0.361	-0.078
-272.370	-49.341	0.306	-0.146
-271.355	364.939	0.137	-0.275
-270.340	163.655	0.107	0.151
-269.326	377.878	0.099	0.203
-268.311	-200.000	0.011	-0.086
-267.297	148.545	0.050	0.067
-266.282	36.371	-0.055	0.048
-265.267	50.518	-0.149	0.141
-264.253	800.000	0.056	-0.177
-263.238	-62.396	-0.124	0.052
-262.224	21.180	0.075	-0.061
-261.209	106.694	-0.201	-0.238
-260.195	498.653	0.046	-0.105
-259.180	264.504	-0.130	0.227
-258.165	51.189	0.165	-0.156
-257.151	-154.797	-0.074	0.005
-256.136	-99.985	-0.091	-0.023
-255.122	199.063	0.205	-0.315
-254.107	178.637	0.173	0.252
-253.092	-113.561	0.088	0.017
-252.078	-33.585	0.239	-0.132
-251.063	159.195	0.134	-0.187
-250.049	-173.948	0.151	0.004
-249.034	0.836	-0.148	-0.106
-248.019	270.191	-0.132	0.232
-247.005	-148.760	0.207	0.017
-245.990	103.609	-0.205	0.241
-244.976	-200.000	-0.027	0.310
-243.961	355.382	-0.150	0.299
-242.946	800.000	0.022	0.083
-241.932	49.981	0.264	-0.249
-240.917	68.142	-0.141	0.144
-239.903	-48.324	0.300	0.144
-238.888	20.359	-0.123	0.100
-237.873	353.347	0.083	0.165
-236.859	-200.000	0.007	-0.200
-235.844	-122.888	-0.112	-0.018
-234.830	-100.653	0.414	-0.102
-233.815	-63.994	0.310	-0.126
-232.800	-81.446	-0.218	-0.072
-231.786	-117.355	0.187	0.034
-230.771	-200.000	0.024	-0.272
-229.757	345.293	-0.069	0.135
-228.742	-137.166	0.139	-0.016
-227.727	-59.211	0.143	-0.061
-226.713	9.005	0.133	-0.100
-225.698	800.000	0.073	0.291
-224.684	339.579	-0.068	0.132
-223.669	27.626	-0.166	0.140
-222.655	-60.654	-0.250	-0.106
-221.640	-200.000	0.011	-0.137
-220.625	214.905	-0.130	0.206
-219.611	-200.000	-0.010	-0.150
-218.596	-111.132	0.342	-0.070
-217.582	-94.052	0.230	-0.063
-216.567	85.910	0.242	-0.265
-215.552	-94.499	0.228	0.062
-214.538	193.771	0.217	-0.329
-213.523	332.308	0.083	0.160
-212.509	-200.000	0.036	-0.245
-211.494	86.338	-0.074	0.081
-210.479	47.947	-0.245	-0.229
-209.465	-200.000	-0.009	0.152
-208.450	-46.696	-0.080	0.039
-207.436	30.071	0.086	0.073
-206.421	127.684	-0.028	-0.036
-205.406	-200.000	0.020	-0.225
-204.392	-99.243	0.370	-0.093
-203.377	-200.000	-0.019	0.115
-202.363	-28.984	-0.057	0.033
-201.348	-21.764	-0.151	-0.092
-200.333	-200.000	0.034	-0.158
-199.319	-167.570	0.232	-0.009
-198.304	340.969	0.106	0.206
-197.290	578.300	-0.144	-0.352
-196.275	-155.573	0.305	0.020
-195.260	-200.000	-0.043	-0.234
-194.246	661.778	-0.053	0.136
-193.231	-155.660	0.132	-0.008
-192.217	800.000	-0.043	-0.124
-191.202	-102.423	-0.175	-0.042
-190.187	748.909	-0.093	0.251
-189.173	102.987	0.200	-0.233
-188.158	-27.473	0.173	0.101
-187.144	292.736	-0.102	0.186
-186.129	-157.724	-0.317	-0.019
-185.114	164.017	0.144	-0.203
-184.100	395.700	0.035	-0.074
-183.085	-35.630	-0.345	0.186
-182.071	800.000	0.033	-0.109
-181.056	101.053	-0.177	0.205
-180.042	656.319	0.131	0.335
-179.027	99.587	-0.193	0.222
-178.012	-3.465	0.191	0.133
-176.998	9.897	-0.090	0.068
-175.983	800.000	-0.053	0.186
-174.969	-94.882	-0.274	-0.074
-173.954	30.767	-0.022	-0.018
-172.939	-121.706	0.515	0.085
-171.925	16.558	-0.113	-0.089
-170.910	-7.148	0.154	0.104
-169.896	197.055	-0.088	0.134
-168.881	-155.099	-0.118	-0.008
-167.866	-81.647	0.205	0.067
-166.852	-175.380	-0.229	-0.006
-165.837	131.677	0.132	0.169
-164.823	-200.000	-0.017	0.214
-163.808	-200.000	0.062	-0.321
-162.793	-200.000	-0.002	-0.038
-161.779	-200.000	-0.006	0.077
-160.764	-139.799	0.176	0.019
-159.750	800.000	0.032	-0.134
-158.735	800.000	-0.027	-0.094
-157.720	800.000	0.030	-0.120
-156.706	131.360	0.079	-0.101
-155.691	-111.916	0.299	-0.060
-154.677	-200.000	0.003	0.057
-153.662	74.286	-0.350	0.366
-152.647	255.838	0.114	0.195
-151.633	158.842	-0.187	0.259
-150.618	-200.000	-0.055	0.249
-149.604	-37.292	-0.442	0.235
-148.589	71.493	-0.108	0.112
-147.574	29.518	0.200	-0.169
-146.560	-49.627	0.238	-0.113
-145.545	188.102	0.086	0.128
-144.531	-154.310	0.317	0.021
-143.516	-181.571	-0.162	0.003
-142.502	-3.646	0.118	0.082
-141.487	44.235	0.156	0.142
-140.472	-37.855	-0.179	0.095
-139.458	90.336	-0.065	0.073
-138.443	800.000	-0.112	-0.394
-137.429	-200.000	0.080	0.455
-136.414	108.048	0.284	-0.337
-135.399	-200.000	0.025	0.315
-134.385	33.415	-0.113	0.098
-133.370	-87.873	-0.044	0.013
-132.356	-111.919	0.392	-0.079
-131.341	610.536	0.100	0.249
-130.326	800.000	-0.094	-0.274
-129.312	-200.000	0.025	-0.174
-128.297	115.831	0.215	-0.261
-127.283	-73.571	-0.468	-0.170
-126.268	800.000	-0.063	0.200
-125.253	94.567	-0.125	0.141
-124.239	60.191	-0.002	-0.002
-123.224	31.327	0.019	-0.016
-122.210	172.807	-0.233	-0.334
-121.195	293.431	0.112	0.204
