DTS Sentinel unit serial number:	SN413079Multiplexer serial number:	ORYXHardware model number:	OX4-SRSoftware version number:	ORYX F/W v4.00 Oryx Data Collector v3.7.2.0data status	okinstallation	princeton_trtdifferential loss correction	single-endedforward channel	channel 1reverse channel	N/Adate	2019/09/12time	18:51:34forward acquisition time	15.00reverse acquisition time	0.00gamma	496.2192k internal	0.2319k external	0.2319temperature offset calibration	1.0108default loss term (dB/km)	0.3790temperature slope calibration	1.0000multiplexer offset coefficient	1.0000multiplexer slope coefficient	1.0000fibre end	0.00T internal ref (°C)	32.87T ext. ref 1 (°C)	2.99T ext. ref 2 (°C)	27.44length (m)	temperature (°C)	Stokes	anti-Stokes-747.200	-200.000	-0.045	-0.498
-746.185	43.144	-0.305	-0.281
-745.171	-106.018	0.850	0.193
-744.156	-200.000	-0.049	0.294
-743.142	-108.352	-1.047	-0.229
-742.127	-200.000	-0.104	0.496
-741.112	219.178	0.271	0.438
-740.098	-116.933	0.146	-0.027
-739.083	-200.000	-0.075	0.403
-738.069	133.868	0.743	0.973
-737.054	-6.913	-0.300	0.206
-736.039	-78.647	0.165	-0.057
-735.025	-34.615	-0.525	0.290
-734.010	253.976	0.336	-0.580
-732.996	-200.000	-0.016	-0.930
-731.981	-200.000	-0.021	-0.506
-730.966	78.733	-0.544	-0.588
-729.952	-8.866	-0.460	0.312
-728.937	599.523	-0.166	0.416
-727.923	163.226	-0.055	0.078
-726.908	800.000	-0.169	0.536
-725.894	-200.000	0.010	-0.798
-724.879	-70.929	0.650	0.248
-723.864	2.669	-0.457	0.335
-722.850	-199.789	-0.260	0.001
-721.835	-39.698	1.030	0.544
-720.821	599.673	-0.354	0.889
-719.806	-80.333	-1.191	-0.402
-718.791	800.000	0.202	-0.590
-717.777	-200.000	0.017	0.262
-716.762	-0.956	0.530	-0.379
-715.748	181.921	-0.333	-0.496
-714.733	418.180	-0.084	-0.182
-713.718	-92.823	-0.972	-0.275
-712.704	-96.873	-0.080	0.021
-711.689	800.000	0.106	-0.326
-710.675	-54.507	0.287	-0.131
-709.660	-143.177	-0.751	-0.073
-708.645	-200.000	-0.124	-0.615
-707.631	152.951	0.353	0.487
-706.616	391.510	-0.203	-0.426
-705.602	-57.920	-0.633	0.279
-704.587	-115.377	0.568	-0.108
-703.572	-158.894	-1.159	-0.067
-702.558	231.743	-0.202	0.334
-701.543	-151.651	0.773	0.058
-700.529	32.733	0.559	-0.488
-699.514	432.771	-0.365	-0.799
-698.499	276.199	0.264	0.474
-697.485	67.564	-0.710	-0.732
-696.470	-200.000	0.112	-1.125
-695.456	442.956	0.172	0.381
-694.441	-173.706	-0.784	-0.024
-693.426	-200.000	0.014	0.397
-692.412	14.412	0.415	0.327
-691.397	188.832	-0.752	-1.136
-690.383	60.254	0.326	-0.325
-689.368	-200.000	0.140	-0.001
-688.354	26.752	0.392	-0.332
-687.339	-93.727	0.454	-0.126
-686.324	-161.959	-0.210	-0.011
-685.310	-141.123	-0.404	-0.042
-684.295	-150.053	0.465	0.036
-683.281	800.000	0.087	-0.259
-682.266	-200.000	0.094	-0.518
-681.251	800.000	-0.139	-0.606
-680.237	-157.962	-0.719	-0.043
-679.222	134.851	-0.302	-0.396
-678.208	66.819	0.459	-0.471
-677.193	-133.539	0.608	0.077
-676.178	269.171	-0.465	0.824
-675.164	-48.536	0.133	0.065
-674.149	319.421	-0.302	0.579
-673.135	-200.000	0.053	0.327
-672.120	-200.000	-0.090	0.409
-671.105	158.173	-0.368	0.514
-670.091	686.418	-0.104	0.274
-669.076	-200.000	0.002	-0.152
-668.062	-14.718	0.158	-0.103
-667.047	477.663	-0.223	0.509
-666.032	-200.000	0.104	-0.552
-665.018	-113.080	0.372	-0.074
-664.003	-148.605	0.289	-0.024
-662.989	-200.000	-0.035	0.602
-661.974	-90.906	0.352	0.102
-660.959	-200.000	0.045	0.623
-659.945	173.124	0.698	1.015
-658.930	-127.472	0.732	0.107
-657.916	70.756	0.822	-0.857
-656.901	3.721	-0.679	0.500
-655.886	800.000	0.194	-0.774
-654.872	800.000	-0.233	-0.713
-653.857	-200.000	-0.098	0.890
-652.843	-115.245	0.413	0.079
-651.828	-69.166	0.281	0.109
-650.814	-107.237	0.319	0.071
-649.799	137.109	0.247	0.326
-648.784	-200.000	0.030	0.669
-647.770	82.024	0.303	0.331
-646.755	-200.000	-0.063	0.312
-645.741	102.584	0.449	-0.529
-644.726	-200.000	-0.005	-0.688
-643.711	800.000	0.100	0.343
-642.697	-58.655	-0.379	-0.166
-641.682	-173.641	-0.999	-0.030
-640.668	-200.000	0.237	-1.283
-639.653	-61.782	-0.075	-0.032
-638.638	746.609	-0.106	0.286
-637.624	800.000	-0.082	0.283
-636.609	7.134	-0.680	-0.511
-635.595	343.772	0.212	-0.419
-634.580	469.685	0.064	-0.145
-633.565	800.000	-0.208	-0.678
-632.551	-54.457	-0.888	-0.405
-631.536	-69.914	0.386	0.148
-630.522	-16.710	-0.612	0.390
-629.507	-200.000	0.009	-0.173
-628.492	800.000	-0.123	-0.502
-627.478	-117.350	-0.275	-0.050
-626.463	-12.869	0.257	-0.168
-625.449	800.000	-0.066	-0.279
-624.434	4.525	-0.516	-0.382
-623.419	751.739	0.153	0.416
-622.405	515.085	0.296	0.697
-621.390	779.940	0.185	-0.509
-620.376	-60.493	0.157	-0.067
-619.361	41.721	0.319	-0.291
-618.346	-200.000	-0.071	-0.649
-617.332	166.713	0.452	0.645
-616.317	-137.903	-0.884	-0.099
-615.303	229.024	0.266	0.437
-614.288	158.539	0.202	0.283
-613.273	-200.000	-0.031	-0.164
-612.259	800.000	-0.082	-0.325
-611.244	8.141	0.564	0.426
-610.230	33.797	-0.218	-0.191
-609.215	-113.194	0.540	-0.107
-608.201	-200.000	0.058	-0.727
-607.186	-161.529	-0.736	0.038
-606.171	16.440	1.093	0.869
-605.157	-98.273	0.229	0.059
-604.142	-90.223	0.297	-0.087
-603.128	-121.633	-0.632	-0.105
-602.113	-68.604	0.600	-0.234
-601.098	-99.161	1.031	0.262
-600.084	-15.606	0.423	0.271
-599.069	-134.891	-0.296	0.036
-598.055	243.788	-0.533	-0.899
-597.040	-110.849	0.217	-0.045
-596.025	-46.511	-0.690	0.341
-595.011	369.152	0.215	-0.437
-593.996	800.000	0.202	-0.748
-592.982	-55.680	0.654	-0.294
-591.967	219.350	0.316	0.508
-590.952	-22.371	0.069	-0.042
-589.938	9.658	0.837	-0.638
-588.923	-38.545	0.509	0.270
-587.909	171.533	-0.129	0.186
-586.894	-149.038	0.833	-0.067
-585.879	41.187	0.134	-0.122
-584.865	380.575	-0.162	0.334
-583.850	-34.776	0.420	-0.231
-582.836	455.379	-0.103	0.229
-581.821	-67.534	-0.287	0.113
-580.806	-198.524	-0.982	0.006
-579.792	800.000	-0.122	-0.350
-578.777	-200.000	-0.047	-0.293
-577.763	800.000	-0.069	0.284
-576.748	-200.000	0.079	-0.751
-575.733	32.393	0.351	-0.304
-574.719	59.718	-0.135	-0.134
-573.704	464.484	0.298	0.671
-572.690	-47.386	0.629	-0.308
-571.675	-200.000	-0.232	-0.000
-570.661	-200.000	-0.016	-0.360
-569.646	238.179	0.300	0.500
-568.631	-40.615	0.440	-0.229
-567.617	800.000	0.084	0.306
-566.602	-103.872	-0.174	-0.041
-565.588	24.085	0.237	0.196
-564.573	-40.758	-0.619	0.322
-563.558	58.736	-0.412	0.407
-562.544	15.948	0.237	0.187
-561.529	-68.542	-0.568	-0.221
-560.515	-200.000	0.028	0.319
-559.500	-25.104	0.492	-0.293
-558.485	-107.245	-0.417	0.092
-557.471	278.356	-0.201	-0.360
-556.456	-131.919	0.265	-0.035
-555.442	342.130	-0.375	0.736
-554.427	-127.037	-0.614	0.091
-553.412	-200.000	-0.102	0.510
-552.398	-132.038	-0.545	-0.071
-551.383	138.830	-0.306	-0.404
-550.369	-85.607	-0.660	0.206
-549.354	-24.808	-0.243	0.145
-548.339	-173.292	-0.383	-0.012
-547.325	-14.217	-0.231	-0.149
-546.310	91.010	0.355	0.399
-545.296	36.902	0.194	0.172
-544.281	502.885	0.242	-0.562
-543.266	21.302	0.132	0.107
-542.252	93.250	0.702	-0.796
-541.237	-113.922	-0.788	0.154
-540.223	-105.695	-0.064	0.014
-539.208	-15.229	-0.491	0.315
-538.193	12.836	-0.264	0.205
-537.179	-200.000	-0.173	-0.822
-536.164	-60.003	0.545	0.234
-535.150	86.295	0.200	0.221
-534.135	288.751	0.149	0.271
-533.121	-167.121	-0.796	-0.032
-532.106	150.816	-0.430	-0.586
-531.091	233.576	0.378	0.623
-530.077	-200.000	0.051	0.728
-529.062	130.149	-0.397	-0.510
-528.048	68.212	-0.399	0.410
-527.033	537.571	-0.133	-0.316
-526.018	-33.843	0.477	0.263
-525.004	-49.348	0.250	-0.120
-523.989	285.698	0.292	-0.528
-522.975	-200.000	-0.040	-0.284
-521.960	-200.000	0.154	-0.695
-520.945	63.698	-0.076	-0.076
-519.931	-15.750	-0.355	0.227
-518.916	384.609	-0.439	0.906
-517.902	229.001	-0.310	-0.507
-516.887	-129.187	-0.256	-0.036
-515.872	-91.415	0.384	0.110
-514.858	-47.732	0.642	-0.312
-513.843	800.000	-0.259	-0.742
-512.829	800.000	-0.201	0.623
-511.814	233.020	0.447	-0.737
-510.799	112.906	0.185	-0.225
-509.785	464.664	-0.228	0.511
-508.770	-63.965	-0.260	0.106
-507.756	-96.837	0.181	-0.048
-506.741	286.542	-0.189	-0.342
-505.726	103.985	-0.382	-0.450
-504.712	91.660	0.133	0.150
-503.697	-48.265	-0.821	0.397
-502.683	-184.309	0.899	0.015
-501.668	769.532	0.041	0.111
-500.653	-12.649	0.248	-0.162
-499.639	395.724	-0.241	0.503
-498.624	800.000	0.052	-0.192
-497.610	800.000	-0.367	-1.117
-496.595	36.504	0.369	0.326
-495.581	-111.688	-0.385	0.078
-494.566	-200.000	-0.063	-0.317
-493.551	-42.637	0.601	-0.306
-492.537	800.000	-0.379	1.167
-491.522	-101.433	-0.386	0.094
-490.508	-135.425	-0.602	0.072
-489.493	-78.310	-1.275	0.438
-488.478	9.015	-0.551	-0.416
-487.464	800.000	0.195	-0.666
-486.449	-71.211	-0.571	-0.215
-485.435	-200.000	0.136	1.462
-484.420	-119.285	-0.127	-0.022
-483.405	-21.744	-0.378	0.231
-482.391	-134.896	0.238	0.029
-481.376	800.000	0.270	0.972
-480.362	265.854	0.035	-0.061
-479.347	-134.364	-0.331	-0.041
-478.332	-8.341	-0.559	0.376
-477.318	77.506	-0.546	-0.582
-476.303	-61.327	-0.632	-0.267
-475.289	-79.470	0.305	-0.103
-474.274	184.686	-0.547	0.812
-473.259	-200.000	0.044	0.416
-472.245	573.435	-0.183	-0.447
-471.230	-75.576	-0.422	0.150
-470.216	-122.962	-0.370	0.060
-469.201	-200.000	-0.069	-0.426
-468.186	-57.566	-0.813	0.357
-467.172	16.162	-0.029	-0.023
-466.157	-200.000	-0.035	0.444
-465.143	-20.588	0.616	-0.379
-464.128	800.000	0.035	0.100
-463.113	-200.000	0.004	0.433
-462.099	-15.989	0.277	0.176
-461.084	-52.222	-0.568	-0.264
-460.070	-127.369	0.608	0.089
-459.055	189.039	-0.257	0.384
-458.040	165.750	0.504	-0.714
-457.026	37.063	-0.371	0.329
-456.011	25.777	0.345	0.287
-454.997	-18.813	0.366	-0.228
-453.982	-54.131	-0.596	0.271
-452.968	-77.953	-0.918	-0.316
-451.953	41.800	-0.543	-0.492
-450.938	304.088	-0.185	-0.344
-449.924	2.222	-0.183	0.132
-448.909	-108.574	-0.222	0.048
-447.895	374.895	-0.285	-0.581
-446.880	-200.000	0.010	-0.061
-445.865	300.409	-0.500	0.922
-444.851	216.372	-0.314	-0.498
-443.836	-137.123	0.365	-0.042
-442.822	-18.630	-0.526	0.328
-441.807	35.030	0.502	0.439
-440.792	213.952	0.148	-0.234
-439.778	79.906	0.708	0.761
-438.763	460.990	0.195	0.433
-437.749	259.960	0.236	-0.408
-436.734	134.882	0.318	-0.413
-435.719	-66.138	0.328	0.131
-434.705	800.000	-0.104	0.370
-433.690	-27.788	0.291	-0.169
-432.676	-0.131	0.668	-0.475
-431.661	-134.989	-0.546	0.066
-430.646	233.625	0.189	0.311
-429.632	-158.749	-0.390	0.022
-428.617	-200.000	-0.055	0.353
-427.603	-186.993	0.072	0.001
-426.588	-200.000	0.025	0.474
-425.573	336.551	-0.271	-0.527
-424.559	96.916	0.242	-0.277
-423.544	-200.000	-0.136	0.969
-422.530	232.652	-0.255	0.418
-421.515	433.973	0.287	0.622
-420.500	-200.000	-0.033	-0.159
-419.486	-32.871	0.382	0.212
-418.471	359.931	-0.194	0.387
-417.457	-115.752	0.285	0.053
-416.442	-200.000	-0.070	-0.330
-415.428	114.388	-0.076	-0.093
-414.413	-200.000	-0.046	0.410
-413.398	-200.000	-0.051	-0.308
-412.384	317.070	-0.114	-0.215
-411.369	193.278	-0.258	-0.390
-410.355	-200.000	0.003	-0.244
-409.340	-200.000	0.014	-0.574
-408.325	-167.720	0.628	0.025
-407.311	-39.472	-0.534	0.279
-406.296	577.821	0.098	-0.239
-405.282	800.000	-0.017	0.070
-404.267	-138.655	0.476	0.052
-403.252	-200.000	0.033	-0.174
-402.238	101.060	-0.636	-0.739
-401.223	109.926	0.398	-0.477
-400.209	800.000	0.227	0.738
-399.194	128.405	0.237	-0.301
-398.179	-117.712	0.677	0.122
-397.165	218.081	0.269	0.428
-396.150	-200.000	-0.002	-0.253
-395.136	-200.000	-0.020	-0.490
-394.121	-108.153	0.986	0.213
-393.106	-200.000	-0.135	0.866
-392.092	620.116	-0.332	0.833
-391.077	-47.265	0.574	0.279
-390.063	28.927	0.444	-0.375
-389.048	45.021	-0.304	-0.279
-388.033	-190.761	0.352	-0.004
-387.019	-30.972	-0.183	-0.103
-386.004	177.826	0.146	-0.212
-384.990	-118.385	-0.789	-0.140
-383.975	295.459	0.318	-0.581
-382.960	70.167	0.187	-0.192
-381.946	-126.794	0.299	-0.044
-380.931	-200.000	-0.015	0.997
-379.917	199.869	0.440	0.673
-378.902	800.000	0.301	-1.015
-377.888	-7.752	0.402	0.271
-376.873	-102.891	0.997	-0.236
-375.858	-66.710	0.641	-0.253
-374.844	-85.935	0.487	0.150
-373.829	96.201	0.516	-0.588
-372.815	1.665	0.916	0.658
-371.800	50.587	0.391	0.369
-370.785	0.430	-0.154	-0.110
-369.771	2.577	0.463	-0.335
-368.756	672.297	0.165	-0.425
-367.742	-143.906	0.554	0.052
-366.727	800.000	-0.052	0.202
-365.712	-91.126	0.586	0.168
-364.698	800.000	0.297	-0.986
-363.683	-200.000	-0.034	-0.176
-362.669	-83.225	0.397	0.127
-361.654	-33.346	-0.302	-0.166
-360.639	800.000	0.324	0.938
-359.625	122.083	-0.449	-0.559
-358.610	54.471	-0.237	-0.227
-357.596	-111.023	0.687	-0.140
-356.581	85.177	0.225	-0.246
-355.566	307.056	-0.164	0.304
-354.552	46.089	0.030	-0.027
-353.537	9.559	-0.306	-0.231
-352.523	166.822	0.382	0.539
-351.508	-200.000	-0.025	-0.375
-350.493	-120.045	0.800	-0.137
-349.479	2.184	0.381	0.274
-348.464	-200.000	-0.010	0.492
-347.450	111.607	-0.387	-0.465
-346.435	-36.310	-0.286	0.154
-345.420	-200.000	0.045	0.844
-344.406	-27.638	-0.218	-0.126
-343.391	-200.000	-0.069	-0.514
-342.377	17.250	0.082	0.065
-341.362	800.000	0.132	0.459
-340.348	20.406	0.707	0.569
-339.333	-132.773	0.570	0.073
-338.318	-124.292	-0.584	0.091
-337.304	-96.333	0.453	0.119
-336.289	136.201	-0.545	0.707
-335.275	-200.000	0.306	0.001
-334.260	800.000	0.080	-0.251
-333.245	131.565	0.278	0.356
-332.231	8.361	-0.659	-0.493
-331.216	800.000	0.141	0.388
-330.202	247.226	0.317	0.533
-329.187	-135.739	1.428	-0.168
-328.172	7.892	-0.502	-0.375
-327.158	-156.565	-0.996	0.062
-326.143	-200.000	0.012	-0.977
-325.129	800.000	-0.118	-0.336
-324.114	-43.856	0.234	0.117
-323.099	323.483	0.208	-0.395
-322.085	-190.769	-0.715	-0.008
-321.070	84.562	-0.827	-0.900
-320.056	109.167	-0.157	-0.187
-319.041	138.496	0.314	0.410
-318.026	44.011	0.626	0.571
-317.012	-33.116	0.523	-0.289
-315.997	205.154	0.414	0.640
-314.983	759.792	0.142	0.382
-313.968	68.001	-0.168	0.171
-312.953	-200.000	0.052	-0.483
-311.939	-95.256	0.461	0.124
-310.924	257.039	-0.430	0.735
-309.910	26.547	0.563	-0.468
-308.895	564.887	0.223	-0.537
-307.880	800.000	0.183	-0.664
-306.866	-36.249	-0.233	-0.125
-305.851	421.865	0.300	-0.641
-304.837	-13.209	0.671	0.433
-303.822	2.051	0.188	-0.135
-302.807	-200.000	0.089	0.819
-301.793	-141.373	1.329	0.134
-300.778	-200.000	-0.002	-0.543
-299.764	-200.000	0.037	-0.176
-298.749	183.074	0.591	0.868
-297.735	-44.520	0.114	0.057
-296.720	800.000	-0.271	0.986
-295.705	-3.562	-0.201	0.139
-294.691	-54.351	-0.400	-0.180
-293.676	-19.271	-0.777	0.479
-292.662	-164.232	0.349	-0.016
-291.647	-126.155	0.863	0.129
-290.632	-200.000	-0.081	-0.447
-289.618	84.888	-0.291	0.317
-288.603	55.402	0.957	0.920
-287.589	107.606	0.443	-0.524
-286.574	-50.567	-1.037	0.486
-285.559	255.556	0.394	0.671
-284.545	-117.846	0.391	-0.070
-283.530	800.000	0.099	0.342
-282.516	-57.781	-0.457	-0.199
-281.501	800.000	0.212	0.908
-280.486	19.899	-0.308	-0.247
-279.472	-200.000	0.149	0.946
-278.457	362.888	0.117	0.233
-277.443	139.231	0.436	-0.570
-276.428	-200.000	-0.086	-0.572
-275.413	4.824	-0.489	0.357
-274.399	-200.000	-0.013	0.651
-273.384	-47.853	0.525	-0.252
-272.370	-30.045	-0.433	0.244
-271.355	-200.000	-0.161	0.734
-270.340	-91.329	-0.545	-0.155
-269.326	145.426	-0.393	-0.523
-268.311	238.236	-0.183	-0.301
-267.297	29.545	1.008	-0.851
-266.282	800.000	0.126	0.356
-265.267	237.896	-0.313	0.515
-264.253	-7.431	-0.454	-0.305
-263.238	-36.825	-0.153	0.082
-262.224	63.184	-0.369	0.367
-261.209	265.161	0.722	-1.250
-260.195	-168.774	0.189	-0.007
-259.180	-24.203	-0.096	0.057
-258.165	-110.337	0.278	-0.057
-257.151	367.463	0.241	-0.483
-256.136	-200.000	0.057	-0.895
-255.122	-35.087	0.576	-0.312
-254.107	-113.572	0.276	0.053
-253.092	-133.238	0.900	-0.113
-252.078	-150.919	-0.957	-0.072
-251.063	800.000	-0.284	-1.086
-250.049	-65.033	-0.464	0.186
-249.034	80.982	-0.309	0.331
-248.019	-145.091	-0.292	-0.026
-247.005	428.779	-0.336	0.719
-245.990	441.070	0.207	0.449
-244.976	800.000	-0.542	1.529
-243.961	-79.734	0.087	0.029
-242.946	-15.066	-0.262	0.166
-241.932	-150.787	-0.877	-0.066
-240.917	-200.000	0.017	0.188
-239.903	-200.000	-0.020	0.155
-238.888	-130.816	-0.324	0.043
-237.873	-96.761	0.569	-0.148
-236.859	273.107	-0.312	-0.547
-235.844	-172.239	-1.480	0.047
-234.830	61.039	-0.821	-0.808
-233.815	800.000	-0.053	-0.194
-232.800	-37.291	0.910	0.482
-231.786	97.690	0.270	0.307
-230.771	-105.919	0.283	0.063
-229.757	85.901	0.226	0.246
-228.742	172.165	0.173	-0.247
-227.727	-21.888	-0.465	0.280
-226.713	159.184	-0.190	-0.261
-225.698	-33.629	0.348	0.191
-224.684	-200.000	-0.045	0.458
-223.669	15.840	-0.524	-0.409
-222.655	757.378	0.056	-0.151
-221.640	110.523	0.274	-0.326
-220.625	-172.971	0.406	0.012
-219.611	-178.388	-0.769	-0.018
-218.596	100.617	-0.218	-0.251
-217.582	71.864	0.458	0.472
-216.567	-160.717	-0.634	0.033
-215.552	479.521	0.121	-0.271
-214.538	-200.000	0.152	0.705
-213.523	800.000	0.119	-0.371
-212.509	108.708	0.240	-0.284
-211.494	501.278	0.120	-0.275
-210.479	800.000	0.479	-1.333
-209.465	-117.273	-0.367	0.066
-208.450	198.372	-0.220	0.333
-207.436	-70.432	0.833	0.313
-206.421	-161.162	-0.457	-0.024
-205.406	800.000	0.217	0.696
-204.392	44.884	0.445	0.405
-203.377	-91.403	0.141	0.040
-202.363	107.917	-0.364	-0.430
-201.348	-200.000	-0.019	-0.275
-200.333	-111.079	0.602	0.122
-199.319	800.000	-0.276	0.805
-198.304	-200.000	-0.070	-1.129
-197.290	21.294	-0.526	-0.423
-196.275	-79.927	0.059	0.020
-195.260	-200.000	-0.079	-0.963
-194.246	-185.604	-0.204	-0.003
-193.231	100.894	-0.401	-0.462
-192.217	-39.522	-0.176	0.091
-191.202	-173.541	0.260	0.008
-190.187	79.132	-0.364	-0.386
-189.173	-35.722	-0.202	0.109
-188.158	-39.223	0.737	0.383
-187.144	-112.253	-0.575	-0.114
-186.129	113.237	0.338	0.406
-185.114	99.121	0.306	0.349
-184.100	18.959	-0.472	0.374
-183.085	-101.940	0.339	-0.081
-182.071	52.880	-0.197	-0.187
-181.056	122.258	-0.299	-0.370
-180.042	-200.000	-0.049	-0.585
-179.027	-118.060	-0.395	0.070
-178.012	431.392	-0.188	0.403
-176.998	800.000	0.027	0.117
-175.983	42.781	-0.304	-0.274
-174.969	214.681	0.089	-0.139
-173.954	-87.361	-1.207	0.362
-172.939	-200.000	0.089	-0.734
-171.925	140.087	0.332	0.433
-170.910	-200.000	-0.054	0.319
-169.896	518.686	0.324	0.749
-168.881	-62.855	-0.721	-0.295
-167.866	-200.000	0.004	-0.424
-166.852	34.302	-0.473	-0.408
-165.837	-194.159	-0.317	0.003
-164.823	-200.000	-0.048	0.314
-163.808	800.000	-0.200	-0.561
-162.793	-7.679	-0.371	-0.248
-161.779	124.626	0.420	-0.522
-160.764	800.000	0.268	0.804
-159.750	-174.837	-0.455	0.013
-158.735	263.434	-0.450	-0.773
-157.720	341.921	-0.146	0.283
-156.706	176.425	-0.523	0.752
-155.691	-200.000	-0.014	0.069
-154.677	-14.767	-0.343	0.218
-153.662	-19.776	-0.504	-0.308
-152.647	36.457	0.445	0.388
-151.633	108.594	0.184	-0.217
-150.618	-114.170	0.706	0.135
-149.604	-200.000	0.013	0.135
-148.589	254.148	-0.215	-0.363
-147.574	-43.228	1.185	0.593
-146.560	80.529	0.328	-0.350
-145.545	-10.245	0.931	0.611
-144.531	800.000	-0.292	0.883
-143.516	800.000	0.200	0.624
-142.502	-154.749	0.960	0.063
-141.487	-97.250	0.647	0.167
-140.472	44.005	0.674	-0.611
-139.458	469.297	-0.183	-0.406
-138.443	271.681	-0.197	-0.342
-137.429	-110.886	0.018	0.004
-136.414	-200.000	0.006	0.765
-135.399	12.988	-0.663	-0.506
-134.385	393.570	-0.272	-0.559
-133.370	-66.980	0.376	0.147
-132.356	-59.033	-0.222	0.094
-131.341	-84.909	0.668	0.207
-130.326	-200.000	0.083	-0.372
-129.312	-200.000	0.001	0.250
-128.297	681.019	-0.189	-0.486
-127.283	-61.418	0.912	0.379
-126.268	-200.000	0.027	0.198
-125.253	-200.000	0.030	0.349
-124.239	-106.244	0.244	0.054
-123.224	-200.000	0.458	-0.001
-122.210	-14.997	0.479	0.303
-121.195	-200.000	-0.124	0.592
