DTS Sentinel unit serial number:	SN413079Multiplexer serial number:	ORYXHardware model number:	OX4-SRSoftware version number:	ORYX F/W v4.00 Oryx Data Collector v3.7.2.0data status	okinstallation	princeton_trtdifferential loss correction	single-endedforward channel	channel 1reverse channel	N/Adate	2019/09/11time	11:20:11forward acquisition time	60.00reverse acquisition time	0.00gamma	496.2192k internal	0.2296k external	0.2296temperature offset calibration	0.9953default loss term (dB/km)	0.3790temperature slope calibration	1.0000multiplexer offset coefficient	1.0000multiplexer slope coefficient	1.0000fibre end	0.00T internal ref (°C)	37.73T ext. ref 1 (°C)	0.17T ext. ref 2 (°C)	34.77length (m)	temperature (°C)	Stokes	anti-Stokes-747.200	800.000	-0.065	-0.191
-746.185	800.000	-0.090	-0.357
-745.171	-200.000	-0.062	-0.358
-744.156	-22.687	-0.445	-0.275
-743.142	109.554	0.204	-0.250
-742.127	800.000	0.080	0.295
-741.112	-45.459	-0.222	0.112
-740.098	23.620	0.188	0.158
-739.083	-72.982	-0.258	-0.097
-738.069	-200.000	-0.106	0.603
-737.054	-200.000	-0.026	0.120
-736.039	-68.599	-0.263	0.104
-735.025	-105.904	0.277	-0.064
-734.010	-54.535	-0.381	-0.176
-732.996	800.000	-0.104	-0.408
-731.981	-78.363	-0.146	0.051
-730.966	-200.000	0.001	0.045
-729.952	141.380	-0.142	-0.192
-728.937	800.000	-0.105	-0.437
-727.923	524.103	-0.101	-0.243
-726.908	-157.641	-0.181	-0.011
-725.894	-69.152	-0.082	0.032
-724.879	-192.929	-0.313	-0.003
-723.864	165.629	-0.206	0.298
-722.850	78.174	0.149	0.162
-721.835	13.658	-0.147	0.117
-720.821	35.573	-0.195	-0.175
-719.806	-81.478	-0.193	0.065
-718.791	-200.000	0.027	-0.273
-717.777	109.625	-0.199	-0.244
-716.762	-191.017	-0.104	-0.001
-715.748	-200.000	0.014	0.174
-714.733	-153.363	0.097	-0.007
-713.718	-45.796	0.176	0.089
-712.704	-62.057	0.393	-0.167
-711.689	-23.080	-0.249	-0.153
-710.675	293.710	-0.115	0.214
-709.660	155.539	-0.041	-0.058
-708.645	-106.679	0.097	0.022
-707.631	-27.613	0.222	0.131
-706.616	-200.000	-0.003	-0.245
-705.602	-200.000	-0.074	-0.399
-704.587	-63.785	0.144	-0.060
-703.572	-37.711	0.189	-0.103
-702.558	-99.692	0.125	0.032
-701.543	118.707	-0.282	-0.356
-700.529	159.780	-0.053	-0.075
-699.514	-186.942	-0.071	0.001
-698.499	-62.605	-0.316	-0.134
-697.485	57.061	0.303	-0.301
-696.470	297.924	0.111	-0.208
-695.456	150.107	-0.081	-0.112
-694.441	-74.827	-0.139	0.051
-693.426	-200.000	-0.043	0.222
-692.412	32.723	-0.198	-0.174
-691.397	-152.533	-0.138	0.010
-690.383	-99.804	-0.212	-0.054
-689.368	-173.662	0.045	-0.001
-688.354	-200.000	-0.005	0.137
-687.339	87.795	-0.061	0.069
-686.324	508.142	-0.108	-0.255
-685.310	212.572	-0.198	-0.319
-684.295	224.922	-0.147	-0.242
-683.281	-71.597	-0.095	-0.036
-682.266	-98.514	-0.250	0.065
-681.251	-200.000	-0.070	0.566
-680.237	-119.641	-0.200	0.035
-679.222	-95.965	0.087	-0.024
-678.208	-69.722	-0.191	0.074
-677.193	-200.000	-0.002	-0.037
-676.178	-88.998	0.264	-0.080
-675.164	378.465	-0.080	-0.166
-674.149	311.970	-0.067	-0.129
-673.135	-200.000	-0.000	0.008
-672.120	800.000	0.044	-0.143
-671.105	53.532	0.104	0.102
-670.091	288.461	0.140	0.258
-669.076	-200.000	-0.033	-0.263
-668.062	271.759	-0.005	-0.009
-667.047	-200.000	-0.011	0.094
-666.032	-87.419	-0.248	-0.076
-665.018	-177.728	-0.041	0.001
-664.003	-200.000	0.040	-0.231
-662.989	371.766	-0.025	0.051
-661.974	22.491	-0.384	-0.320
-660.959	3.991	-0.235	0.175
-659.945	480.240	0.021	-0.049
-658.930	218.868	-0.127	0.206
-657.916	545.581	0.067	-0.164
-656.901	370.426	0.072	-0.149
-655.886	32.131	-0.173	-0.152
-654.872	255.263	-0.027	0.046
-653.857	21.547	-0.134	-0.111
-652.843	-200.000	-0.073	-0.445
-651.828	10.149	0.196	-0.152
-650.814	110.854	-0.020	0.025
-649.799	-200.000	0.004	-0.221
-648.784	800.000	0.093	0.330
-647.770	-200.000	0.018	0.135
-646.755	-21.025	0.379	-0.236
-645.741	584.110	-0.101	-0.253
-644.726	-117.335	-0.189	-0.035
-643.711	-5.434	0.410	0.286
-642.697	-27.564	0.297	-0.176
-641.682	-173.861	0.240	0.007
-640.668	-149.797	-0.282	0.023
-639.653	-74.251	0.229	0.084
-638.638	800.000	0.058	0.206
-637.624	800.000	-0.074	-0.263
-636.609	70.674	-0.260	0.274
-635.595	-64.254	-0.424	0.176
-634.580	104.178	-0.143	0.171
-633.565	-9.190	0.112	-0.076
-632.551	-135.225	0.231	0.028
-631.536	-36.661	-0.425	0.233
-630.522	800.000	-0.136	-0.408
-629.507	195.611	-0.178	-0.276
-628.492	-12.635	0.117	-0.078
-627.478	196.344	-0.142	0.221
-626.463	-112.743	-0.314	-0.063
-625.449	49.398	-0.212	-0.203
-624.434	306.908	0.061	-0.115
-623.419	800.000	0.029	0.097
-622.405	800.000	0.096	0.297
-621.390	-65.612	-0.067	-0.027
-620.376	-27.147	0.090	0.054
-619.361	182.294	-0.196	-0.294
-618.346	25.315	-0.156	-0.132
-617.332	-200.000	-0.018	-0.216
-616.317	-118.400	-0.096	-0.017
-615.303	-153.805	0.253	0.018
-614.288	-200.000	-0.018	-0.278
-613.273	420.548	-0.127	-0.276
-612.259	195.543	-0.057	-0.088
-611.244	113.179	-0.081	-0.099
-610.230	16.335	0.113	0.090
-609.215	-35.206	-0.067	0.037
-608.201	-200.000	0.009	-0.351
-607.186	-200.000	0.026	-0.228
-606.171	-69.691	-0.118	-0.046
-605.157	-81.435	0.468	0.156
-604.142	-200.000	-0.013	-0.063
-603.128	-40.975	0.186	0.098
-602.113	-200.000	-0.021	0.137
-601.098	-128.369	0.264	-0.038
-600.084	-59.039	0.148	0.065
-599.069	800.000	0.042	0.141
-598.055	-52.833	0.184	-0.086
-597.040	-200.000	-0.020	0.103
-596.025	0.582	0.216	-0.157
-595.011	800.000	-0.064	0.204
-593.996	-200.000	-0.013	-0.063
-592.982	225.908	0.222	0.366
-591.967	-200.000	0.003	0.044
-590.952	-130.543	0.207	0.028
-589.938	-200.000	0.005	-0.126
-588.923	215.390	0.101	-0.163
-587.909	-200.000	-0.022	0.146
-586.894	-46.835	-0.075	-0.037
-585.879	118.452	0.154	0.193
-584.865	286.478	0.023	0.042
-583.850	-65.843	-0.272	-0.111
-582.836	-20.752	-0.215	-0.134
-581.821	-48.359	-0.096	-0.047
-580.806	-97.082	-0.325	-0.086
-579.792	-174.142	-0.327	-0.010
-578.777	88.757	-0.007	-0.008
-577.763	402.728	0.066	0.140
-576.748	252.326	0.074	0.128
-575.733	-6.641	-0.230	-0.159
-574.719	2.829	-0.232	-0.171
-573.704	-58.816	0.043	0.019
-572.690	36.123	-0.246	0.220
-571.675	251.111	0.156	-0.269
-570.661	800.000	-0.048	-0.140
-569.646	233.331	0.179	-0.299
-568.631	-200.000	0.044	-0.251
-567.617	56.493	-0.147	-0.145
-566.602	55.258	-0.187	0.183
-565.588	55.481	0.129	-0.126
-564.573	-200.000	-0.050	-0.279
-563.558	49.799	-0.284	0.272
-562.544	-22.485	0.078	-0.048
-561.529	-41.859	0.113	-0.059
-560.515	-102.332	-0.274	0.067
-559.500	-64.891	-0.212	0.087
-558.485	586.595	-0.065	0.162
-557.471	-122.303	0.193	0.032
-556.456	-200.000	-0.034	0.258
-555.442	-200.000	-0.016	0.164
-554.427	541.459	-0.132	-0.319
-553.412	-200.000	0.035	0.212
-552.398	-146.777	-0.016	0.001
-551.383	-37.109	0.254	0.138
-550.369	-114.332	-0.387	-0.076
-549.354	-200.000	-0.002	-0.179
-548.339	157.873	0.094	-0.132
-547.325	-17.064	0.122	0.078
-546.310	800.000	0.070	0.234
-545.296	-200.000	0.073	0.380
-544.281	-68.091	-0.213	0.084
-543.266	-4.090	-0.354	-0.249
-542.252	-10.432	0.232	0.156
-541.237	-200.000	0.008	0.075
-540.223	-200.000	0.015	-0.326
-539.208	133.754	0.121	0.158
-538.193	-138.649	0.084	0.009
-537.179	94.921	-0.154	-0.177
-536.164	-82.103	-0.440	0.145
-535.150	122.569	0.046	-0.059
-534.135	-69.059	-0.020	0.008
-533.121	333.687	-0.033	0.064
-532.106	267.926	0.154	0.273
-531.091	800.000	0.039	0.165
-530.077	-193.186	-0.107	-0.001
-529.062	-47.965	0.339	0.166
-528.048	-157.754	-0.307	-0.018
-527.033	-16.788	0.105	0.067
-526.018	186.532	-0.175	-0.263
-525.004	-54.079	0.177	-0.081
-523.989	190.017	-0.082	0.125
-522.975	-20.993	0.351	-0.217
-521.960	-120.983	0.158	0.027
-520.945	75.139	-0.206	-0.220
-519.931	800.000	0.080	0.295
-518.916	-112.199	0.413	0.084
-517.902	-200.000	-0.015	-0.429
-516.887	39.138	0.149	-0.135
-515.872	35.489	-0.383	-0.341
-514.858	17.480	-0.194	-0.156
-513.843	800.000	0.053	-0.148
-512.829	-200.000	0.048	0.232
-511.814	-165.567	-0.089	-0.004
-510.799	-59.478	0.248	0.108
-509.785	56.730	0.508	0.501
-508.770	-200.000	-0.033	-0.222
-507.756	-200.000	0.048	-0.247
-506.741	-5.006	0.217	-0.152
-505.726	110.868	0.053	-0.064
-504.712	-70.836	0.244	-0.093
-503.697	23.452	-0.194	0.161
-502.683	-166.490	-0.243	-0.010
-501.668	239.678	-0.092	-0.155
-500.653	-200.000	-0.002	-0.337
-499.639	59.188	0.093	-0.093
-498.624	87.265	-0.316	0.354
-497.610	-200.000	-0.012	0.066
-496.595	48.321	-0.431	0.408
-495.581	246.083	-0.133	0.226
-494.566	-200.000	-0.035	-0.412
-493.551	-122.956	-0.568	0.092
-492.537	-116.115	-0.417	0.079
-491.522	-165.590	0.096	-0.004
-490.508	-200.000	-0.043	0.194
-489.493	-150.265	-0.197	0.015
-488.478	-9.421	0.195	0.132
-487.464	651.079	0.024	0.062
-486.449	800.000	-0.080	-0.326
-485.435	-200.000	0.001	-0.223
-484.420	4.124	-0.117	-0.087
-483.405	-132.973	-0.256	-0.033
-482.391	-200.000	-0.049	0.350
-481.376	-200.000	0.001	-0.012
-480.362	380.727	0.101	-0.210
-479.347	-200.000	-0.008	0.133
-478.332	-18.866	0.198	-0.124
-477.318	132.426	0.315	0.411
-476.303	3.404	0.031	-0.023
-475.289	425.245	0.074	-0.161
-474.274	-81.504	0.132	-0.044
-473.259	-155.982	0.189	-0.012
-472.245	130.082	-0.120	0.156
-471.230	-146.217	0.467	-0.041
-470.216	136.298	0.031	0.041
-469.201	54.828	-0.193	-0.188
-468.186	-200.000	0.003	0.186
-467.172	-96.806	-0.076	0.020
-466.157	-150.825	-0.059	-0.004
-465.143	-145.425	0.076	0.007
-464.128	-68.636	-0.166	0.065
-463.113	-18.536	-0.110	0.069
-462.099	-3.527	0.117	0.083
-461.084	-91.370	0.133	-0.038
-460.070	800.000	0.021	-0.064
-459.055	800.000	-0.022	-0.098
-458.040	800.000	0.075	-0.266
-457.026	-151.146	0.199	0.015
-456.011	156.878	-0.041	0.057
-454.997	-101.273	0.131	0.032
-453.982	211.961	0.152	0.242
-452.968	-200.000	0.039	-0.215
-451.953	-24.615	0.023	0.014
-450.938	-200.000	-0.050	-0.256
-449.924	-65.125	0.291	0.119
-448.909	-144.269	0.133	-0.013
-447.895	-161.767	-0.336	-0.017
-446.880	-200.000	-0.027	0.138
-445.865	-94.958	-0.209	-0.057
-444.851	137.940	0.029	-0.038
-443.836	800.000	-0.093	-0.328
-442.822	-92.125	0.323	-0.092
-441.807	800.000	0.031	-0.126
-440.792	133.532	0.144	-0.188
-439.778	-26.926	-0.068	-0.040
-438.763	-200.000	-0.024	0.197
-437.749	-22.609	-0.120	0.073
-436.734	-39.872	0.326	0.172
-435.719	42.622	0.071	0.065
-434.705	-2.989	-0.100	-0.070
-433.690	800.000	0.039	-0.159
-432.676	25.479	-0.253	0.213
-431.661	-109.074	0.329	0.071
-430.646	243.897	0.059	-0.100
-429.632	75.390	-0.100	-0.107
-428.617	-63.562	-0.243	0.101
-427.603	19.327	-0.290	0.235
-426.588	-121.735	0.229	0.038
-425.573	-15.965	0.194	0.124
-424.559	227.593	0.196	-0.321
-423.544	112.183	0.141	0.172
-422.530	-100.621	0.213	-0.053
-421.515	135.271	-0.070	-0.092
-420.500	156.771	-0.021	-0.029
-419.486	4.909	-0.092	0.069
-418.471	-200.000	-0.010	-0.207
-417.457	348.930	-0.149	-0.297
-416.442	638.001	-0.058	-0.149
-415.428	-79.191	-0.123	0.042
-414.413	800.000	0.059	-0.186
-413.398	-4.096	0.264	-0.184
-412.384	-200.000	0.018	0.128
-411.369	149.155	0.072	0.098
-410.355	-200.000	-0.004	0.317
-409.340	-83.278	-0.034	-0.011
-408.325	66.924	-0.106	-0.109
-407.311	-35.308	-0.323	-0.177
-406.296	-62.244	-0.310	0.130
-405.282	-11.777	0.122	0.080
-404.267	-200.000	0.063	0.329
-403.252	-200.000	0.013	-0.251
-402.238	197.131	0.382	0.588
-401.223	410.442	-0.110	0.236
-400.209	-200.000	-0.011	0.128
-399.194	-200.000	0.024	0.216
-398.179	-69.212	0.358	0.139
-397.165	188.386	0.047	0.071
-396.150	800.000	0.055	0.192
-395.136	681.290	-0.057	-0.149
-394.121	-106.005	0.066	-0.015
-393.106	-71.681	0.134	0.050
-392.092	-200.000	0.213	-0.001
-391.077	-129.090	0.202	0.028
-390.063	800.000	-0.064	0.260
-389.048	102.625	-0.110	-0.130
-388.033	-200.000	0.053	-0.239
-387.019	138.364	-0.007	-0.009
-386.004	-88.252	0.183	-0.055
-384.990	-200.000	0.032	-0.227
-383.975	337.558	0.087	-0.170
-382.960	-23.412	-0.057	0.034
-381.946	-83.344	0.440	-0.142
-380.931	498.385	-0.107	0.248
-379.917	-123.616	-0.212	0.034
-378.902	-200.000	0.057	-0.292
-377.888	-86.153	-0.279	-0.087
-376.873	-162.737	0.410	-0.020
-375.858	-200.000	0.028	-0.194
-374.844	230.229	-0.099	0.163
-373.829	800.000	0.028	0.079
-372.815	0.803	0.090	0.065
-371.800	-78.088	0.028	-0.010
-370.785	1.511	0.086	0.062
-369.771	-200.000	0.123	0.607
-368.756	11.088	0.239	-0.184
-367.742	237.013	-0.137	-0.229
-366.727	-200.000	0.036	0.274
-365.712	566.098	-0.117	-0.285
-364.698	136.041	-0.286	-0.375
-363.683	35.336	0.260	-0.230
-362.669	-183.748	-0.158	-0.003
-361.654	-130.623	-0.230	-0.031
-360.639	701.610	-0.088	0.232
-359.625	159.792	0.193	0.270
-358.610	332.873	0.188	-0.365
-357.596	170.444	-0.075	0.107
-356.581	-200.000	0.034	0.282
-355.566	291.026	-0.060	-0.110
-354.552	254.293	-0.050	0.086
-353.537	800.000	-0.086	0.263
-352.523	653.697	0.055	0.142
-351.508	510.116	-0.094	0.221
-350.493	-105.477	-0.227	0.052
-349.479	-5.234	0.095	-0.065
-348.464	60.524	0.179	-0.179
-347.450	-134.747	-0.346	-0.042
-346.435	-119.281	-0.212	0.037
-345.420	-102.595	-0.171	0.041
-344.406	34.890	0.107	-0.094
-343.391	148.024	0.261	-0.354
-342.377	800.000	0.032	0.113
-341.362	195.002	-0.051	0.078
-340.348	33.691	0.103	0.090
-339.333	-97.843	-0.306	-0.080
-338.318	-200.000	0.054	0.252
-337.304	354.931	0.049	-0.098
-336.289	-87.913	-0.340	0.103
-335.275	98.191	0.257	-0.298
-334.260	-186.382	0.331	-0.005
-333.245	-200.000	0.031	0.184
-332.231	-200.000	-0.018	-0.136
-331.216	94.127	-0.119	0.135
-330.202	373.099	-0.044	0.091
-329.187	9.922	0.290	0.222
-328.172	-86.515	-0.291	0.090
-327.158	-200.000	0.061	0.315
-326.143	-31.853	0.263	0.148
-325.129	-55.802	0.117	-0.052
-324.114	370.395	0.120	-0.245
-323.099	65.469	0.179	-0.182
-322.085	-200.000	-0.074	-0.497
-321.070	160.170	-0.038	0.053
-320.056	-105.823	0.207	0.047
-319.041	263.746	-0.078	-0.137
-318.026	56.475	0.074	-0.073
-317.012	-200.000	0.016	-0.112
-315.997	-53.921	-0.024	-0.011
-314.983	-134.260	0.365	-0.045
-313.968	-137.954	-0.227	-0.025
-312.953	800.000	-0.028	-0.101
-311.939	-7.866	0.360	0.244
-310.924	-200.000	-0.030	-0.196
-309.910	-40.104	-0.295	-0.154
-308.895	-66.568	-0.300	0.119
-307.880	-107.940	-0.414	-0.090
-306.866	46.701	0.078	-0.073
-305.851	377.345	0.123	0.253
-304.837	33.072	0.074	-0.064
-303.822	459.524	-0.114	0.254
-302.807	-44.974	0.177	-0.088
-301.793	-200.000	0.072	0.396
-300.778	800.000	-0.062	-0.205
-299.764	-148.045	-0.026	0.002
-298.749	613.295	0.076	-0.192
-297.735	-200.000	-0.019	-0.307
-296.720	142.417	-0.059	-0.079
-295.705	-4.057	-0.319	-0.222
-294.691	-62.530	-0.115	-0.048
-293.676	-200.000	0.049	0.275
-292.662	-29.946	0.204	-0.117
-291.647	-200.000	-0.019	-0.295
-290.632	-68.942	-0.214	-0.083
-289.618	-73.094	0.161	-0.059
-288.603	225.661	-0.054	0.088
-287.589	370.048	0.071	-0.145
-286.574	299.616	-0.177	-0.327
-285.559	21.711	-0.176	0.144
-284.545	418.677	0.149	0.321
-283.530	-15.647	-0.295	0.189
-282.516	90.241	0.145	-0.163
-281.501	435.235	0.078	0.170
-280.486	233.459	0.101	0.166
-279.472	-200.000	-0.008	0.235
-278.457	303.127	0.035	0.064
-277.443	112.060	0.206	-0.250
-276.428	800.000	-0.046	0.158
-275.413	-85.035	-0.101	-0.032
-274.399	-16.139	-0.162	0.104
-273.384	120.182	-0.075	-0.094
-272.370	-170.998	0.063	-0.002
-271.355	223.387	-0.106	-0.172
-270.340	-29.686	-0.470	-0.269
-269.326	800.000	0.069	0.246
-268.311	-65.082	0.401	-0.162
-267.297	-17.021	-0.069	-0.044
-266.282	-200.000	-0.007	-0.068
-265.267	-52.749	0.253	-0.117
-264.253	-38.693	-0.327	-0.173
-263.238	-72.914	0.157	-0.058
-262.224	-72.356	0.061	0.023
-261.209	736.227	-0.087	0.235
-260.195	-200.000	-0.021	0.268
-259.180	-200.000	-0.003	-0.119
-258.165	-200.000	0.024	0.291
-257.151	136.418	0.062	-0.081
-256.136	21.834	-0.108	-0.089
-255.122	587.552	-0.081	-0.199
-254.107	-52.949	0.360	-0.166
-253.092	659.852	-0.138	0.356
-252.078	-85.450	-0.276	0.086
-251.063	-51.834	-0.146	0.068
-250.049	-200.000	0.070	0.442
-249.034	-200.000	0.003	0.075
-248.019	-200.000	-0.008	0.179
-247.005	92.002	-0.234	-0.264
-245.990	90.353	-0.122	-0.136
-244.976	219.681	-0.099	0.159
-243.961	-200.000	-0.027	0.469
-242.946	735.454	0.057	0.152
-241.932	415.450	0.050	-0.107
-240.917	800.000	-0.021	-0.060
-239.903	89.915	0.126	-0.141
-238.888	-61.998	0.177	-0.074
-237.873	-31.589	-0.135	0.076
-236.859	800.000	0.076	-0.267
-235.844	-45.907	-0.079	0.039
-234.830	81.159	0.135	0.146
-233.815	284.137	0.091	-0.164
-232.800	-23.395	-0.203	0.122
-231.786	-13.924	0.320	0.207
-230.771	275.795	0.115	0.204
-229.757	-17.351	0.065	-0.041
-228.742	262.109	-0.054	0.094
-227.727	188.481	-0.222	0.332
-226.713	99.674	0.038	-0.044
-225.698	488.352	0.069	0.159
-224.684	-200.000	0.008	-0.437
-223.669	-142.554	-0.086	0.008
-222.655	-11.091	0.305	0.201
-221.640	-119.577	-0.403	0.070
-220.625	625.984	0.118	0.299
-219.611	-114.447	0.241	0.046
-218.596	197.358	-0.082	0.126
-217.582	265.981	-0.059	-0.104
-216.567	343.199	0.100	0.196
-215.552	-193.718	0.395	0.003
-214.538	243.942	-0.054	-0.091
-213.523	-177.985	-0.102	-0.002
-212.509	45.354	-0.022	0.021
-211.494	-26.594	0.093	-0.055
-210.479	-200.000	-0.027	-0.339
-209.465	-47.891	-0.087	-0.042
-208.450	44.697	0.122	-0.112
-207.436	-95.843	-0.094	0.025
-206.421	-95.691	-0.187	-0.050
-205.406	-75.662	0.338	0.120
-204.392	-104.305	0.055	-0.013
-203.377	-200.000	-0.022	-0.156
-202.363	82.705	-0.150	-0.163
-201.348	-200.000	0.004	0.076
-200.333	-40.560	0.277	0.144
-199.319	98.637	0.112	-0.129
-198.304	137.286	0.103	0.134
-197.290	-77.021	0.485	0.169
-196.275	170.677	-0.195	0.280
-195.260	-22.189	-0.356	-0.216
-194.246	558.848	-0.043	0.103
-193.231	-200.000	0.044	-0.201
-192.217	-80.037	-0.358	-0.120
-191.202	-33.413	0.086	0.048
-190.187	800.000	-0.034	-0.123
-189.173	537.119	-0.134	0.317
-188.158	-119.553	0.204	-0.035
-187.144	800.000	-0.063	0.205
-186.129	-45.687	-0.249	-0.123
-185.114	20.684	-0.279	-0.226
-184.100	-163.305	-0.305	-0.015
-183.085	13.049	-0.278	0.215
-182.071	-200.000	0.058	0.288
-181.056	422.729	-0.147	0.316
-180.042	131.995	-0.239	0.307
-179.027	172.238	-0.140	-0.202
-178.012	-139.149	0.066	0.007
-176.998	48.068	-0.180	-0.168
-175.983	-200.000	0.042	-0.492
-174.969	-75.755	-0.134	-0.047
-173.954	183.312	0.111	0.164
-172.939	107.068	0.187	-0.222
-171.925	-28.437	0.210	0.121
-170.910	58.410	0.166	0.162
-169.896	-38.046	-0.426	0.226
-168.881	163.100	-0.217	0.305
-167.866	-84.497	-0.041	0.013
-166.852	-7.761	0.146	-0.098
-165.837	21.888	0.043	-0.035
-164.823	26.881	0.055	-0.046
-163.808	-48.531	0.248	-0.119
-162.793	-171.824	-0.243	-0.008
-161.779	-116.425	0.166	-0.031
-160.764	-62.913	0.096	0.040
-159.750	97.256	-0.064	0.074
-158.735	800.000	0.057	0.191
-157.720	-200.000	-0.023	-0.123
-156.706	-200.000	0.026	-0.171
-155.691	-200.000	0.018	-0.136
-154.677	-200.000	-0.003	-0.109
-153.662	-68.980	0.218	0.084
-152.647	71.230	0.241	-0.250
-151.633	-21.233	0.108	-0.066
-150.618	141.475	-0.124	0.164
-149.604	56.353	0.238	0.231
-148.589	-148.783	0.276	0.022
-147.574	-195.361	-0.376	0.003
-146.560	-200.000	-0.013	-0.133
-145.545	69.024	-0.144	-0.148
-144.531	80.869	-0.076	-0.082
-143.516	-200.000	-0.037	-0.300
-142.502	-61.190	-0.088	-0.037
-141.487	303.907	-0.084	0.156
-140.472	-200.000	-0.002	0.075
-139.458	-100.957	0.175	0.043
-138.443	109.807	0.109	-0.130
-137.429	-200.000	0.032	0.558
-136.414	244.872	-0.156	0.261
-135.399	-83.144	-0.196	0.063
-134.385	24.103	0.413	0.340
-133.370	800.000	-0.039	0.126
-132.356	35.063	0.015	-0.013
-131.341	-18.029	0.072	0.045
-130.326	459.938	0.203	0.450
-129.312	-70.126	0.229	-0.087
-128.297	174.541	0.106	0.153
-127.283	-191.431	0.224	-0.002
-126.268	-186.634	0.089	-0.001
-125.253	-129.782	-0.347	-0.048
-124.239	-200.000	0.001	0.242
-123.224	-148.342	0.174	-0.014
