DTS Sentinel unit serial number:	SN413079Multiplexer serial number:	ORYXHardware model number:	OX4-SRSoftware version number:	ORYX F/W v4.00 Oryx Data Collector v3.7.2.0data status	okinstallation	princeton_trtdifferential loss correction	single-endedforward channel	channel 1reverse channel	N/Adate	2019/09/17time	22:14:35forward acquisition time	60.00reverse acquisition time	0.00gamma	496.2192k internal	0.2340k external	0.2340temperature offset calibration	0.9980default loss term (dB/km)	0.3790temperature slope calibration	1.0000multiplexer offset coefficient	1.0000multiplexer slope coefficient	1.0000fibre end	0.00T internal ref (°C)	25.69T ext. ref 1 (°C)	0.17T ext. ref 2 (°C)	18.63length (m)	temperature (°C)	Stokes	anti-Stokes-747.200	-106.066	0.146	0.033
-746.185	89.473	-0.215	0.241
-745.171	-102.451	0.294	0.071
-744.156	263.381	-0.166	0.289
-743.142	751.976	0.077	0.210
-742.127	800.000	0.084	-0.350
-741.112	-55.033	-0.280	0.126
-740.098	122.770	-0.253	0.317
-739.083	-200.000	0.089	0.481
-738.069	512.310	-0.063	0.146
-737.054	-2.029	0.146	-0.103
-736.039	59.499	-0.220	-0.218
-735.025	-114.489	0.258	0.050
-734.010	-98.056	-0.478	0.123
-732.996	-93.426	0.140	0.039
-731.981	57.489	0.134	0.132
-730.966	304.576	0.106	0.198
-729.952	-44.867	-0.261	0.130
-728.937	-41.738	-0.134	-0.069
-727.923	-131.263	-0.180	-0.024
-726.908	2.442	-0.230	0.167
-725.894	-200.000	-0.051	-0.281
-724.879	94.707	0.182	-0.207
-723.864	261.121	-0.054	-0.093
-722.850	-200.000	0.001	-0.078
-721.835	800.000	-0.061	0.229
-720.821	-73.875	0.212	-0.077
-719.806	-99.051	0.173	0.044
-718.791	800.000	0.113	-0.378
-717.777	-92.780	0.170	0.048
-716.762	-17.424	0.114	-0.072
-715.748	-200.000	0.046	-0.348
-714.733	800.000	-0.043	0.131
-713.718	-9.573	0.226	-0.151
-712.704	-137.893	-0.335	-0.038
-711.689	-167.852	0.078	0.003
-710.675	554.868	-0.119	0.287
-709.660	-161.542	0.022	0.001
-708.645	-200.000	-0.032	-0.532
-707.631	-5.912	-0.272	-0.186
-706.616	-91.085	0.180	-0.052
-705.602	-103.360	0.004	0.001
-704.587	-48.344	0.037	0.018
-703.572	73.659	-0.205	-0.215
-702.558	-200.000	-0.027	0.207
-701.543	-54.176	0.096	0.044
-700.529	-200.000	-0.048	0.330
-699.514	-77.203	0.174	0.061
-698.499	-200.000	0.028	-0.151
-697.485	84.542	-0.286	-0.313
-696.470	-161.410	-0.173	0.009
-695.456	32.051	-0.114	-0.099
-694.441	60.093	-0.134	-0.133
-693.426	-123.823	-0.311	0.049
-692.412	-113.552	0.135	0.026
-691.397	-80.739	0.270	-0.090
-690.383	317.747	0.024	0.046
-689.368	520.133	-0.048	-0.113
-688.354	292.802	-0.185	-0.338
-687.339	-41.271	0.021	0.011
-686.324	800.000	-0.030	-0.098
-685.310	-39.339	-0.191	0.100
-684.295	72.395	0.155	-0.162
-683.281	6.724	-0.150	0.111
-682.266	800.000	-0.051	-0.146
-681.251	226.136	0.049	-0.080
-680.237	-69.105	0.275	0.106
-679.222	-160.502	-0.179	-0.010
-678.208	192.112	-0.235	-0.355
-677.193	-21.725	-0.228	-0.139
-676.178	217.692	0.077	0.123
-675.164	-24.377	0.084	0.050
-674.149	-10.827	0.205	0.136
-673.135	665.096	-0.086	-0.223
-672.120	800.000	0.060	-0.237
-671.105	-41.721	0.301	0.154
-670.091	175.974	-0.120	-0.174
-669.076	-59.610	0.198	0.085
-668.062	-23.500	0.256	0.154
-667.047	-7.730	-0.269	-0.181
-666.032	35.356	-0.196	-0.172
-665.018	-59.008	-0.210	0.091
-664.003	-200.000	-0.054	0.274
-662.989	47.390	0.173	-0.161
-661.974	-5.500	0.107	-0.073
-660.959	-80.133	-0.051	0.017
-659.945	43.266	0.083	-0.075
-658.930	203.864	0.157	-0.243
-657.916	29.578	0.243	0.207
-656.901	270.548	-0.069	-0.121
-655.886	800.000	0.130	0.371
-654.872	-200.000	0.008	0.116
-653.857	-200.000	-0.062	0.327
-652.843	800.000	0.101	0.326
-651.828	55.627	-0.166	0.161
-650.814	167.264	-0.045	0.064
-649.799	72.946	-0.120	-0.125
-648.784	800.000	0.066	-0.252
-647.770	3.236	-0.136	-0.099
-646.755	800.000	-0.094	-0.272
-645.741	765.700	-0.145	-0.395
-644.726	69.263	0.075	-0.077
-643.711	-14.590	-0.287	-0.184
-642.697	-80.733	0.239	0.079
-641.682	800.000	0.085	-0.331
-640.668	800.000	-0.060	0.216
-639.653	348.800	-0.009	0.019
-638.638	-189.733	-0.177	0.002
-637.624	82.897	-0.123	-0.134
-636.609	800.000	-0.015	0.042
-635.595	25.841	-0.200	-0.167
-634.580	-200.000	0.008	0.090
-633.565	-200.000	0.008	-0.063
-632.551	800.000	-0.067	0.228
-631.536	-16.489	0.264	0.167
-630.522	-47.235	-0.033	0.016
-629.507	800.000	0.111	0.309
-628.492	271.869	-0.019	-0.033
-627.478	536.635	0.127	0.302
-626.463	-110.183	-0.459	0.096
-625.449	-200.000	0.009	-0.089
-624.434	-113.533	-0.145	-0.028
-623.419	800.000	-0.016	-0.056
-622.405	-100.227	0.185	-0.046
-621.390	-51.615	-0.132	-0.061
-620.376	289.174	-0.100	-0.181
-619.361	-168.832	0.175	0.007
-618.346	-45.619	0.206	0.101
-617.332	75.400	0.166	0.175
-616.317	108.737	0.078	0.093
-615.303	179.395	-0.079	-0.115
-614.288	-200.000	0.022	0.423
-613.273	63.140	0.137	-0.137
-612.259	-200.000	0.029	-0.307
-611.244	-200.000	0.018	-0.179
-610.230	-19.770	-0.218	-0.135
-609.215	70.878	-0.059	-0.061
-608.201	-135.688	0.180	0.021
-607.186	192.486	0.162	-0.244
-606.171	-137.782	-0.297	0.033
-605.157	-2.451	0.199	0.139
-604.142	-200.000	-0.029	-0.349
-603.128	-129.884	-0.210	-0.029
-602.113	5.948	0.172	0.127
-601.098	-54.435	0.236	-0.107
-600.084	195.336	0.054	-0.082
-599.069	-200.000	-0.015	-0.095
-598.055	-66.652	0.158	-0.062
-597.040	-69.588	0.072	0.028
-596.025	-200.000	0.068	-0.362
-595.011	30.751	0.010	0.009
-593.996	217.689	0.147	-0.234
-592.982	319.953	-0.155	-0.294
-591.967	800.000	-0.065	-0.252
-590.952	414.658	0.065	0.138
-589.938	-3.366	0.020	-0.014
-588.923	-55.988	-0.082	-0.036
-587.909	800.000	0.031	0.117
-586.894	-133.085	-0.137	-0.017
-585.879	800.000	0.234	0.648
-584.865	-200.000	-0.014	-0.211
-583.850	134.299	-0.152	-0.197
-582.836	8.755	-0.116	0.087
-581.821	-109.999	0.414	-0.086
-580.806	24.470	-0.162	0.134
-579.792	-200.000	-0.027	-0.289
-578.777	800.000	0.047	0.188
-577.763	-19.331	-0.147	-0.091
-576.748	800.000	0.035	-0.124
-575.733	-200.000	-0.027	0.316
-574.719	-87.218	-0.342	0.103
-573.704	800.000	0.047	-0.157
-572.690	285.312	0.205	0.367
-571.675	-146.358	0.072	-0.006
-570.661	-44.338	0.189	-0.094
-569.646	800.000	-0.069	-0.278
-568.631	1.403	-0.103	-0.074
-567.617	-166.540	0.016	0.001
-566.602	-160.830	-0.301	-0.016
-565.588	-200.000	0.008	0.483
-564.573	-200.000	0.016	0.097
-563.558	800.000	-0.035	-0.144
-562.544	-149.240	0.441	0.035
-561.529	17.784	-0.104	-0.083
-560.515	-59.763	-0.179	0.076
-559.500	-51.678	0.127	0.059
-558.485	-163.763	-0.192	0.009
-557.471	195.451	-0.134	0.203
-556.456	-125.428	-0.177	0.027
-555.442	31.107	-0.161	0.137
-554.427	35.917	0.074	-0.064
-553.412	339.692	-0.025	0.048
-552.398	-9.195	-0.262	0.174
-551.383	372.581	0.104	0.210
-550.369	86.442	-0.089	-0.098
-549.354	-69.173	0.290	0.111
-548.339	111.485	-0.210	-0.251
-547.325	93.997	-0.202	0.228
-546.310	87.695	-0.251	-0.276
-545.296	-122.192	0.046	0.008
-544.281	-6.789	-0.135	-0.091
-543.266	19.865	-0.106	0.085
-542.252	594.488	0.119	0.292
-541.237	800.000	-0.071	0.233
-540.223	800.000	-0.162	0.553
-539.208	-112.304	-0.330	-0.066
-538.193	127.198	-0.049	0.061
-537.179	-27.565	-0.207	0.120
-536.164	-162.111	0.124	-0.006
-535.150	63.672	0.112	0.111
-534.135	-200.000	0.007	-0.039
-533.121	102.914	-0.089	0.103
-532.106	-94.671	0.342	0.092
-531.091	105.259	0.140	-0.164
-530.077	-88.284	0.090	0.027
-529.062	-19.377	0.152	-0.094
-528.048	-31.704	-0.226	-0.126
-527.033	-200.000	-0.017	-0.484
-526.018	-200.000	-0.001	0.144
-525.004	800.000	-0.119	-0.405
-523.989	275.805	-0.202	0.355
-522.975	62.088	0.069	0.068
-521.960	800.000	-0.083	-0.336
-520.945	-129.741	-0.329	-0.045
-519.931	9.419	-0.123	-0.092
-518.916	-12.577	0.394	-0.255
-517.902	279.632	0.061	-0.109
-516.887	-200.000	0.004	0.227
-515.872	231.550	0.147	-0.240
-514.858	-129.687	0.227	-0.031
-513.843	495.206	0.115	0.261
-512.829	-95.714	-0.224	-0.060
-511.814	-29.511	-0.249	-0.141
-510.799	800.000	0.026	-0.090
-509.785	-200.000	-0.029	0.327
-508.770	113.589	-0.118	-0.142
-507.756	-54.334	0.350	0.158
-506.741	-18.093	0.163	0.102
-505.726	1.416	0.030	-0.022
-504.712	108.952	-0.059	0.070
-503.697	-200.000	-0.023	0.181
-502.683	-80.028	0.202	-0.067
-501.668	-51.986	0.297	-0.137
-500.653	73.375	-0.266	-0.276
-499.639	125.099	0.167	-0.209
-498.624	-81.325	0.091	0.030
-497.610	339.074	0.143	-0.276
-496.595	-200.000	0.034	-0.429
-495.581	-112.518	-0.171	0.034
-494.566	-200.000	0.003	-0.053
-493.551	-150.994	0.183	0.014
-492.537	-14.471	-0.099	0.063
-491.522	-200.000	0.018	-0.206
-490.508	-200.000	-0.049	-0.243
-489.493	163.799	-0.010	-0.015
-488.478	-200.000	0.010	0.396
-487.464	-200.000	-0.018	-0.131
-486.449	-154.243	-0.274	0.018
-485.435	-77.588	-0.077	-0.027
-484.420	-200.000	0.003	0.170
-483.405	91.643	-0.108	-0.120
-482.391	800.000	-0.036	-0.101
-481.376	11.405	-0.253	0.193
-480.362	54.693	-0.127	0.121
-479.347	-49.217	0.238	-0.113
-478.332	-171.412	-0.226	-0.007
-477.318	-143.540	-0.195	0.018
-476.303	12.236	0.156	-0.119
-475.289	413.554	-0.089	0.188
-474.274	551.891	-0.165	0.393
-473.259	-87.835	0.053	0.016
-472.245	50.909	0.092	0.086
-471.230	536.808	0.021	-0.050
-470.216	-200.000	0.027	0.148
-469.201	-113.695	-0.181	0.035
-468.186	26.691	0.094	0.078
-467.172	-27.747	-0.017	-0.010
-466.157	-158.020	0.258	0.015
-465.143	-46.251	0.206	-0.101
-464.128	-120.181	-0.063	-0.011
-463.113	800.000	-0.014	0.046
-462.099	-200.000	0.024	0.192
-461.084	-89.179	-0.453	-0.133
-460.070	-58.091	-0.053	0.023
-459.055	-2.701	0.205	0.142
-458.040	497.087	0.041	-0.094
-457.026	-140.215	0.304	-0.032
-456.011	-87.008	0.187	-0.057
-454.997	217.530	0.028	0.045
-453.982	-200.000	-0.016	-0.305
-452.968	595.336	-0.075	-0.184
-451.953	99.256	0.194	-0.223
-450.938	11.121	-0.198	0.150
-449.924	-30.311	0.320	0.180
-448.909	-196.708	-0.120	0.001
-447.895	800.000	0.094	-0.319
-446.880	152.625	-0.103	-0.140
-445.865	524.120	0.042	-0.097
-444.851	176.387	-0.014	-0.020
-443.836	12.298	0.254	-0.194
-442.822	-113.762	0.371	0.072
-441.807	-127.498	-0.227	0.033
-440.792	-39.688	0.263	0.136
-439.778	190.541	-0.161	0.239
-438.763	-86.012	-0.180	0.055
-437.749	-58.788	0.140	0.060
-436.734	-68.518	0.296	-0.114
-435.719	-200.000	-0.004	-0.044
-434.705	93.179	-0.114	-0.128
-433.690	-200.000	0.077	0.378
-432.676	-200.000	-0.032	0.213
-431.661	800.000	0.054	0.156
-430.646	-7.574	0.195	-0.131
-429.632	-128.964	-0.210	0.029
-428.617	-84.325	-0.101	-0.032
-427.603	-104.419	0.169	-0.039
-426.588	581.436	-0.155	0.376
-425.573	-89.745	-0.263	-0.076
-424.559	431.212	-0.080	-0.171
-423.544	55.290	-0.083	-0.080
-422.530	800.000	0.180	0.551
-421.515	-160.924	-0.206	-0.011
-420.500	49.533	0.305	-0.284
-419.486	800.000	0.010	-0.031
-418.471	-200.000	-0.024	-0.242
-417.457	590.596	-0.031	-0.076
-416.442	-36.508	-0.259	0.138
-415.428	-200.000	-0.046	-0.463
-414.413	-106.310	-0.197	-0.044
-413.398	116.860	-0.210	-0.255
-412.384	-79.853	-0.151	0.050
-411.369	73.584	0.243	-0.252
-410.355	163.337	-0.115	-0.161
-409.340	-104.116	-0.273	-0.063
-408.325	-64.541	-0.069	-0.028
-407.311	-200.000	0.257	-0.001
-406.296	278.815	-0.111	-0.195
-405.282	-200.000	0.084	-0.367
-404.267	-73.707	-0.267	-0.096
-403.252	-200.000	0.011	0.168
-402.238	-200.000	0.018	0.113
-401.223	5.950	0.223	0.163
-400.209	30.991	0.072	-0.061
-399.194	307.071	0.089	0.165
-398.179	-32.000	-0.144	-0.080
-397.165	-20.154	0.366	0.223
-396.150	-120.000	0.194	0.033
-395.136	800.000	-0.063	-0.262
-394.121	189.741	-0.129	0.192
-393.106	129.397	-0.046	-0.059
-392.092	222.970	-0.131	-0.209
-391.077	221.420	-0.168	-0.267
-390.063	82.932	-0.194	-0.208
-389.048	227.403	-0.154	0.247
-388.033	-57.718	-0.183	-0.079
-387.019	257.931	0.171	-0.290
-386.004	800.000	0.017	0.071
-384.990	-122.493	0.336	0.054
-383.975	-200.000	0.016	-0.110
-382.960	555.207	-0.045	-0.106
-381.946	381.045	-0.110	0.224
-380.931	-45.904	0.197	0.096
-379.917	-58.319	-0.118	0.051
-378.902	298.058	-0.087	0.159
-377.888	443.732	0.118	-0.256
-376.873	-168.244	-0.200	0.008
-375.858	-58.440	-0.424	0.182
-374.844	147.024	-0.120	0.159
-373.829	-19.557	-0.366	-0.224
-372.815	800.000	-0.049	-0.140
-371.800	-32.919	0.168	-0.092
-370.785	185.453	0.047	0.069
-369.771	-87.794	0.062	0.018
-368.756	-23.083	0.169	-0.100
-367.742	-63.890	0.207	-0.084
-366.727	-124.511	0.186	0.029
-365.712	175.874	-0.104	-0.149
-364.698	-46.719	0.258	-0.125
-363.683	-188.407	0.200	-0.002
-362.669	-200.000	0.003	0.098
-361.654	521.706	0.060	-0.138
-360.639	231.705	-0.050	-0.082
-359.625	800.000	-0.064	0.218
-358.610	76.693	0.315	-0.329
-357.596	800.000	-0.062	0.260
-356.581	-39.466	0.193	0.100
-355.566	-200.000	-0.053	0.389
-354.552	-54.380	0.143	0.064
-353.537	-157.485	-0.194	0.011
-352.523	-76.404	0.069	-0.024
-351.508	-121.165	0.110	0.018
-350.493	210.414	0.139	0.216
-349.479	-12.847	0.220	-0.141
-348.464	-159.998	-0.522	-0.028
-347.450	29.436	0.349	-0.293
-346.435	-105.172	0.097	0.022
-345.420	362.695	-0.158	-0.313
-344.406	212.103	-0.100	0.155
-343.391	0.391	0.197	-0.139
-342.377	-89.042	-0.309	-0.090
-341.362	63.799	-0.157	-0.155
-340.348	-124.264	0.179	0.028
-339.333	800.000	-0.083	0.264
-338.318	-75.991	0.143	0.050
-337.304	226.479	-0.189	-0.302
-336.289	166.639	-0.127	0.177
-335.275	-94.914	0.079	-0.021
-334.260	-184.853	0.364	-0.006
-333.245	2.283	0.127	0.091
-332.231	318.278	-0.062	-0.116
-331.216	39.580	0.100	0.089
-330.202	800.000	0.083	-0.280
-329.187	11.178	0.149	-0.113
-328.172	-200.000	0.031	0.325
-327.158	710.758	0.029	-0.075
-326.143	-200.000	-0.024	0.110
-325.129	73.873	0.158	-0.163
-324.114	110.675	0.146	-0.173
-323.099	553.788	-0.056	-0.132
-322.085	800.000	-0.128	0.353
-321.070	296.159	-0.115	-0.208
-320.056	-53.020	-0.122	-0.055
-319.041	-200.000	-0.009	0.075
-318.026	-94.509	-0.280	-0.075
-317.012	-61.419	0.150	-0.062
-315.997	99.362	0.053	-0.060
-314.983	800.000	-0.070	0.199
-313.968	104.380	0.127	0.147
-312.953	234.256	0.070	-0.114
-311.939	170.462	-0.051	0.071
-310.924	-23.503	-0.377	0.223
-309.910	-140.811	-0.109	-0.011
-308.895	73.274	0.126	-0.130
-307.880	-142.581	-0.096	0.009
-306.866	-60.944	0.255	-0.106
-305.851	-140.218	-0.215	-0.022
-304.837	5.448	-0.110	-0.080
-303.822	322.488	0.104	-0.195
-302.807	522.130	-0.125	0.288
-301.793	-108.343	-0.235	-0.050
-300.778	-200.000	0.015	0.209
-299.764	89.407	0.055	-0.061
-298.749	203.593	0.144	0.220
-297.735	-89.566	-0.194	-0.056
-296.720	-86.629	-0.334	0.101
-295.705	-200.000	-0.035	-0.378
-294.691	-129.927	-0.022	-0.003
-293.676	-99.930	0.271	-0.067
-292.662	-120.188	0.158	-0.027
-291.647	-91.755	-0.158	0.044
-290.632	469.653	-0.016	0.036
-289.618	100.014	-0.144	0.164
-288.603	-160.753	0.231	0.012
-287.589	27.491	-0.178	0.147
-286.574	593.099	-0.042	-0.102
-285.559	-145.109	-0.198	0.018
-284.545	-200.000	0.048	0.216
-283.530	38.492	-0.006	0.005
-282.516	-111.088	0.614	-0.124
-281.501	303.819	0.036	-0.065
-280.486	800.000	0.083	0.344
-279.472	-75.991	-0.326	0.113
-278.457	-200.000	0.034	-0.253
-277.443	175.173	-0.021	0.029
-276.428	13.111	-0.086	-0.066
-275.413	-109.487	-0.197	-0.041
-274.399	-200.000	0.028	0.382
-273.384	193.814	0.292	0.435
-272.370	151.347	0.050	-0.067
-271.355	-27.173	0.093	0.054
-270.340	-54.387	0.180	0.081
-269.326	-56.797	-0.216	0.094
-268.311	373.920	-0.063	0.126
-267.297	244.544	0.062	0.103
-266.282	-81.982	0.288	-0.093
-265.267	-24.572	-0.200	0.117
-264.253	168.363	0.103	-0.145
-263.238	-16.353	-0.195	-0.122
-262.224	-181.151	0.104	-0.002
-261.209	29.833	0.245	0.205
-260.195	638.928	0.085	0.211
-259.180	-29.568	-0.225	0.126
-258.165	85.537	0.123	0.133
-257.151	-104.654	0.174	-0.039
-256.136	52.266	-0.210	-0.197
-255.122	47.156	0.046	0.042
-254.107	-6.671	0.187	0.125
-253.092	-79.774	-0.023	-0.008
-252.078	278.688	-0.130	-0.228
-251.063	-27.116	0.157	0.090
-250.049	2.172	0.047	-0.033
-249.034	-200.000	-0.077	-0.477
-248.019	75.032	0.099	0.102
-247.005	-166.932	-0.248	-0.010
-245.990	264.114	-0.160	0.274
-244.976	387.321	-0.059	-0.121
-243.961	800.000	-0.013	-0.040
-242.946	-135.227	0.337	0.040
-241.932	-66.783	-0.064	-0.025
-240.917	660.504	0.032	0.081
-239.903	-98.898	0.087	-0.022
-238.888	470.669	-0.088	0.195
-237.873	-169.230	0.324	0.012
-236.859	-200.000	-0.006	-0.075
-235.844	133.629	-0.278	-0.353
-234.830	152.930	0.045	-0.060
-233.815	208.747	0.091	-0.140
-232.800	-100.473	0.110	-0.027
-231.786	1.968	-0.321	0.227
-230.771	13.127	0.199	0.151
-229.757	-142.145	-0.278	-0.027
-228.742	-200.000	-0.043	-0.393
-227.727	30.630	-0.248	-0.209
-226.713	328.057	-0.031	-0.059
-225.698	800.000	-0.045	0.149
-224.684	184.456	0.126	0.184
-223.669	-107.258	0.048	0.010
-222.655	-81.226	-0.376	0.122
-221.640	-200.000	-0.007	0.133
-220.625	-167.828	-0.224	-0.009
-219.611	39.277	-0.266	0.233
-218.596	131.270	-0.199	0.251
-217.582	-200.000	-0.017	-0.469
-216.567	-51.707	0.231	-0.106
-215.552	-40.474	0.328	-0.167
-214.538	800.000	-0.113	0.322
-213.523	115.578	0.085	-0.103
-212.509	-83.085	0.221	0.070
-211.494	33.578	-0.366	0.313
-210.479	112.641	-0.051	-0.061
-209.465	-200.000	-0.100	0.438
-208.450	46.865	0.143	-0.130
-207.436	-70.555	0.137	0.051
-206.421	-97.915	-0.067	0.017
-205.406	216.748	0.116	0.181
-204.392	-48.105	0.206	0.097
-203.377	-9.349	0.199	0.131
-202.363	294.085	0.177	0.317
-201.348	68.510	-0.017	0.017
-200.333	453.198	-0.120	0.261
-199.319	800.000	0.080	0.329
-198.304	386.104	-0.035	0.071
-197.290	800.000	-0.144	0.467
-196.275	412.392	-0.052	-0.109
-195.260	-135.057	-0.072	-0.009
-194.246	-200.000	-0.013	0.231
-193.231	-17.081	0.391	0.242
-192.217	-85.357	-0.151	-0.046
-191.202	-200.000	0.010	0.184
-190.187	-7.849	-0.193	-0.128
-189.173	150.490	0.068	0.091
-188.158	-107.709	-0.159	0.034
-187.144	57.531	0.204	0.195
-186.129	127.315	0.071	-0.089
-185.114	-52.865	0.190	0.086
-184.100	-26.637	0.341	-0.196
-183.085	800.000	0.085	0.262
-182.071	-50.225	-0.079	-0.037
-181.056	-200.000	-0.074	-0.365
-180.042	333.999	0.130	0.247
-179.027	51.457	-0.191	-0.178
-178.012	13.225	-0.127	-0.097
-176.998	132.163	-0.090	0.113
-175.983	-47.581	0.228	0.109
-174.969	5.315	0.244	0.177
-173.954	-113.971	-0.110	0.021
-172.939	-81.334	0.139	-0.045
-171.925	-200.000	-0.010	-0.195
-170.910	477.808	0.072	-0.160
-169.896	-104.774	0.265	0.060
-168.881	-37.379	0.064	0.034
-167.866	412.053	0.118	0.247
-166.852	-154.988	-0.096	-0.006
-165.837	-5.198	0.125	0.084
-164.823	427.818	-0.074	-0.156
-163.808	416.857	-0.114	-0.239
-162.793	383.581	-0.071	0.143
-161.779	-166.272	-0.192	0.008
-160.764	358.535	0.066	-0.130
-159.750	-183.607	0.251	-0.004
-158.735	-79.648	0.193	-0.064
-157.720	-1.310	-0.190	-0.132
-156.706	73.427	0.041	0.042
-155.691	800.000	-0.073	-0.220
-154.677	72.840	0.196	-0.201
-153.662	-200.000	-0.056	0.295
-152.647	-63.079	0.115	0.046
-151.633	-200.000	-0.015	0.176
-150.618	94.138	0.168	0.186
-149.604	426.452	0.087	0.183
-148.589	-200.000	-0.005	-0.251
-147.574	-64.451	0.208	0.083
-146.560	-200.000	0.010	-0.205
-145.545	229.760	-0.197	0.315
-144.531	-84.386	0.089	-0.027
-143.516	368.757	-0.183	0.362
-142.502	-53.224	0.042	0.019
-141.487	-152.797	-0.266	0.018
-140.472	-71.160	-0.252	-0.093
-139.458	-63.042	0.222	0.090
-138.443	47.708	0.103	-0.094
-137.429	388.532	0.067	-0.136
-136.414	36.067	0.045	0.039
-135.399	-200.000	-0.008	0.112
-134.385	85.551	0.219	-0.236
-133.370	283.392	-0.215	-0.378
-132.356	-200.000	-0.054	-0.282
-131.341	-111.973	-0.160	0.032
-130.326	-31.212	-0.240	-0.133
-129.312	51.303	0.040	0.037
-128.297	-77.157	-0.113	0.038
-127.283	5.465	0.119	-0.086
-126.268	547.509	-0.138	0.323
-125.253	-200.000	-0.046	0.333
-124.239	-36.320	0.243	-0.128
-123.224	-88.194	0.151	-0.044
-122.210	644.573	0.053	-0.133
-121.195	-200.000	0.064	-0.502
-120.180	-56.668	-0.128	0.055
