DTS Sentinel unit serial number:	SN413079Multiplexer serial number:	ORYXHardware model number:	OX4-SRSoftware version number:	ORYX F/W v4.00 Oryx Data Collector v3.7.2.0data status	okinstallation	princeton_trtdifferential loss correction	single-endedforward channel	channel 1reverse channel	N/Adate	2019/09/17time	20:54:35forward acquisition time	60.00reverse acquisition time	0.00gamma	496.2192k internal	0.2332k external	0.2332temperature offset calibration	0.9980default loss term (dB/km)	0.3790temperature slope calibration	1.0000multiplexer offset coefficient	1.0000multiplexer slope coefficient	1.0000fibre end	0.00T internal ref (°C)	28.97T ext. ref 1 (°C)	0.20T ext. ref 2 (°C)	20.42length (m)	temperature (°C)	Stokes	anti-Stokes-747.200	-200.000	-0.060	-0.268
-746.185	-59.796	0.128	0.055
-745.171	47.536	0.135	0.127
-744.156	-20.764	-0.055	-0.034
-743.142	-161.846	-0.239	0.012
-742.127	800.000	0.085	0.341
-741.112	-200.000	0.062	0.294
-740.098	800.000	0.094	0.317
-739.083	8.329	0.133	0.101
-738.069	-200.000	-0.038	0.268
-737.054	32.009	0.084	-0.073
-736.039	-86.426	0.270	0.084
-735.025	78.926	0.098	-0.105
-734.010	-165.574	-0.245	-0.011
-732.996	-200.000	-0.053	-0.380
-731.981	-34.295	-0.049	-0.027
-730.966	416.272	-0.057	0.122
-729.952	800.000	0.036	0.118
-728.937	-200.000	-0.109	-0.490
-727.923	800.000	-0.032	0.139
-726.908	-200.000	-0.001	0.121
-725.894	14.803	0.064	-0.051
-724.879	-79.366	0.172	-0.059
-723.864	302.331	0.090	0.167
-722.850	-49.189	-0.140	0.067
-721.835	-123.923	-0.147	-0.023
-720.821	265.175	-0.215	0.377
-719.806	-34.343	-0.063	-0.034
-718.791	206.530	0.087	-0.135
-717.777	275.229	-0.079	-0.141
-716.762	-25.911	0.113	-0.067
-715.748	-200.000	0.000	-0.163
-714.733	80.678	0.151	-0.163
-713.718	586.690	-0.029	-0.072
-712.704	-70.348	0.125	-0.048
-711.689	-200.000	-0.027	-0.487
-710.675	728.672	-0.088	-0.237
-709.660	-200.000	0.018	-0.115
-708.645	-200.000	-0.020	-0.092
-707.631	-177.231	0.221	-0.006
-706.616	-145.587	-0.265	-0.024
-705.602	-200.000	0.067	0.483
-704.587	-44.792	-0.312	0.156
-703.572	-98.476	0.559	0.144
-702.558	-73.874	0.512	0.187
-701.543	-66.289	-0.292	0.117
-700.529	67.664	0.105	0.108
-699.514	512.788	-0.103	-0.242
-698.499	-35.220	-0.309	0.169
-697.485	-100.389	0.142	0.035
-696.470	185.706	0.130	-0.194
-695.456	-45.210	0.069	0.034
-694.441	-125.597	-0.334	0.051
-693.426	183.789	-0.198	0.294
-692.412	800.000	-0.044	0.169
-691.397	69.705	0.232	0.240
-690.383	800.000	0.092	0.301
-689.368	800.000	0.056	-0.223
-688.354	62.076	0.210	-0.210
-687.339	-59.124	0.255	-0.110
-686.324	-45.405	-0.109	-0.054
-685.310	302.223	-0.068	-0.126
-684.295	-174.932	-0.148	0.004
-683.281	-57.951	-0.213	0.093
-682.266	-200.000	0.007	-0.200
-681.251	-52.653	-0.147	-0.068
-680.237	-129.759	0.167	-0.023
-679.222	-65.764	-0.128	0.051
-678.208	89.391	-0.318	-0.356
-677.193	191.066	-0.119	-0.179
-676.178	50.050	-0.216	-0.204
-675.164	396.823	0.051	0.107
-674.149	-61.516	0.142	-0.060
-673.135	205.027	-0.175	-0.272
-672.120	-200.000	0.008	0.266
-671.105	-200.000	0.005	-0.331
-670.091	-85.422	-0.300	0.094
-669.076	187.249	0.128	-0.191
-668.062	4.662	-0.410	0.302
-667.047	-108.394	-0.181	0.039
-666.032	672.423	0.019	-0.050
-665.018	187.613	0.167	-0.250
-664.003	-46.746	-0.325	0.159
-662.989	800.000	0.132	-0.368
-661.974	346.133	0.142	0.281
-660.959	-186.641	0.095	-0.001
-659.945	-42.375	-0.363	-0.186
-658.930	628.039	-0.045	-0.114
-657.916	-200.000	-0.043	-0.319
-656.901	-166.003	-0.145	0.006
-655.886	-143.047	-0.230	-0.022
-654.872	800.000	0.049	-0.154
-653.857	-200.000	-0.012	-0.086
-652.843	140.426	-0.276	-0.365
-651.828	-175.660	-0.341	0.009
-650.814	140.877	-0.054	0.071
-649.799	-131.295	0.164	-0.022
-648.784	418.860	0.069	0.149
-647.770	-105.708	-0.221	0.050
-646.755	-198.212	-0.155	-0.001
-645.741	363.094	-0.051	-0.103
-644.726	39.193	0.272	0.244
-643.711	-200.000	-0.038	0.305
-642.697	-126.465	0.121	0.018
-641.682	643.367	-0.099	-0.253
-640.668	7.411	-0.161	-0.120
-639.653	98.569	0.083	-0.096
-638.638	-24.590	0.319	0.190
-637.624	-110.184	0.149	-0.031
-636.609	-132.863	0.109	-0.014
-635.595	489.914	-0.103	0.236
-634.580	4.032	0.145	0.106
-633.565	-115.417	-0.331	-0.062
-632.551	-181.762	-0.292	0.006
-631.536	-22.576	0.123	0.074
-630.522	63.690	-0.132	-0.133
-629.507	-200.000	0.021	-0.337
-628.492	800.000	-0.084	-0.314
-627.478	-200.000	0.018	0.100
-626.463	-123.642	0.154	-0.025
-625.449	-200.000	-0.036	-0.274
-624.434	12.291	-0.460	-0.355
-623.419	48.809	-0.042	0.039
-622.405	237.835	0.147	0.244
-621.390	-129.419	-0.053	-0.007
-620.376	-200.000	-0.060	0.315
-619.361	-88.041	-0.186	-0.056
-618.346	800.000	0.041	0.172
-617.332	800.000	-0.089	0.314
-616.317	227.496	-0.039	0.063
-615.303	800.000	0.029	-0.128
-614.288	-112.579	0.242	-0.048
-613.273	800.000	0.064	-0.272
-612.259	182.689	-0.128	-0.189
-611.244	159.548	-0.189	0.263
-610.230	800.000	-0.117	0.364
-609.215	-200.000	-0.063	0.316
-608.201	554.736	0.133	0.320
-607.186	-86.983	-0.330	0.101
-606.171	673.982	0.041	-0.107
-605.157	-122.609	-0.264	-0.043
-604.142	677.807	0.033	-0.085
-603.128	97.769	-0.158	0.182
-602.113	58.191	-0.241	-0.236
-601.098	499.912	-0.093	-0.214
-600.084	17.658	0.215	0.171
-599.069	200.356	-0.094	0.144
-598.055	277.026	0.153	0.271
-597.040	113.511	0.050	-0.061
-596.025	147.882	0.114	-0.154
-595.011	-200.000	-0.002	-0.109
-593.996	-141.029	0.122	-0.012
-592.982	26.753	-0.107	0.090
-591.967	176.789	0.144	-0.209
-590.952	800.000	0.127	0.390
-589.938	-72.880	-0.143	-0.053
-588.923	-117.577	-0.355	-0.064
-587.909	8.639	-0.144	-0.108
-586.894	299.931	0.038	0.070
-585.879	-112.433	0.064	0.013
-584.865	-46.525	0.120	0.059
-583.850	-11.537	0.084	0.056
-582.836	24.191	-0.170	0.140
-581.821	-197.192	0.044	0.000
-580.806	76.789	0.094	0.100
-579.792	-72.304	-0.165	0.061
-578.777	-200.000	0.017	-0.126
-577.763	-43.275	0.129	0.065
-576.748	-17.754	0.276	0.173
-575.733	570.538	0.075	0.182
-574.719	-200.000	0.012	-0.136
-573.704	486.343	0.083	0.189
-572.690	378.426	0.022	0.045
-571.675	198.389	-0.154	0.235
-570.661	-112.209	0.208	0.042
-569.646	719.663	0.213	-0.565
-568.631	-200.000	0.012	-0.085
-567.617	-200.000	0.003	-0.067
-566.602	241.845	0.137	-0.229
-565.588	47.759	-0.220	0.205
-564.573	-25.780	0.202	-0.119
-563.558	800.000	-0.047	0.137
-562.544	-63.558	-0.291	0.120
-561.529	99.139	-0.195	-0.225
-560.515	60.469	0.288	-0.285
-559.500	-108.478	-0.259	-0.056
-558.485	-82.972	-0.133	-0.043
-557.471	-15.741	-0.271	0.173
-556.456	-52.250	-0.357	0.165
-555.442	-200.000	0.018	0.386
-554.427	-55.425	-0.416	-0.186
-553.412	-161.782	-0.111	-0.006
-552.398	-5.642	0.188	-0.128
-551.383	-84.259	-0.225	-0.071
-550.369	-51.128	-0.209	0.098
-549.354	60.583	0.157	-0.155
-548.339	196.609	0.121	0.184
-547.325	282.300	0.133	0.238
-546.310	800.000	-0.072	-0.224
-545.296	-200.000	-0.034	0.191
-544.281	217.900	0.184	0.293
-543.266	-155.890	0.240	0.015
-542.252	-200.000	-0.048	-0.304
-541.237	-145.154	0.239	-0.022
-540.223	-200.000	0.003	0.144
-539.208	800.000	0.074	-0.246
-538.193	118.213	0.242	0.298
-537.179	-119.200	-0.048	0.008
-536.164	203.776	-0.179	-0.276
-535.150	-10.088	0.394	-0.261
-534.135	-200.000	0.025	-0.276
-533.121	-130.021	0.098	0.013
-532.106	-39.396	-0.162	-0.085
-531.091	205.982	-0.111	-0.172
-530.077	44.450	-0.200	0.184
-529.062	-108.406	0.257	0.055
-528.048	487.085	-0.111	-0.252
-527.033	-154.328	0.146	-0.010
-526.018	-92.463	-0.390	0.109
-525.004	722.196	-0.040	-0.107
-523.989	-156.777	0.065	-0.004
-522.975	-200.000	-0.066	0.432
-521.960	58.700	0.172	-0.169
-520.945	-49.886	-0.111	-0.052
-519.931	-61.105	0.269	-0.113
-518.916	-86.778	0.152	-0.046
-517.902	-145.994	0.153	0.014
-516.887	800.000	-0.089	-0.316
-515.872	65.126	-0.152	-0.154
-514.858	-109.544	0.421	0.089
-513.843	-200.000	0.065	0.310
-512.829	800.000	0.038	0.114
-511.814	76.289	-0.136	0.143
-510.799	217.885	0.084	-0.133
-509.785	-179.711	0.343	-0.007
-508.770	-47.394	-0.167	0.081
-507.756	-67.569	0.231	0.090
-506.741	2.527	0.286	-0.206
-505.726	-200.000	-0.020	-0.352
-504.712	-188.763	0.303	0.004
-503.697	-71.829	0.242	0.090
-502.683	136.722	-0.225	-0.293
-501.668	-139.671	-0.340	0.036
-500.653	40.607	-0.159	0.142
-499.639	-200.000	0.006	0.136
-498.624	492.568	0.080	-0.183
-497.610	46.392	-0.353	0.326
-496.595	-96.381	-0.119	-0.031
-495.581	-100.345	-0.225	-0.056
-494.566	-92.110	-0.126	0.036
-493.551	-200.000	-0.084	0.388
-492.537	75.896	0.036	0.038
-491.522	58.282	0.155	0.152
-490.508	87.537	-0.080	-0.088
-489.493	17.790	0.132	-0.105
-488.478	-105.708	-0.267	0.060
-487.464	136.050	-0.128	-0.166
-486.449	82.505	0.062	0.067
-485.435	463.694	-0.124	0.276
-484.420	-43.724	-0.226	-0.114
-483.405	-74.447	-0.266	-0.096
-482.391	506.842	0.070	-0.161
-481.376	255.173	0.402	-0.686
-480.362	-22.794	0.252	0.151
-479.347	800.000	-0.113	-0.383
-478.332	587.533	0.082	-0.200
-477.318	-147.599	0.149	0.012
-476.303	-99.403	0.071	-0.018
-475.289	-118.629	-0.349	0.061
-474.274	800.000	-0.081	0.350
-473.259	141.525	-0.116	-0.153
-472.245	-64.799	0.047	-0.019
-471.230	219.663	0.143	-0.228
-470.216	56.207	-0.204	-0.197
-469.201	36.965	-0.182	0.160
-468.186	301.853	-0.047	0.087
-467.172	-8.168	0.139	0.093
-466.157	13.353	-0.117	-0.090
-465.143	164.387	0.186	0.260
-464.128	-200.000	0.030	-0.166
-463.113	85.054	-0.034	-0.037
-462.099	-200.000	0.009	0.148
-461.084	3.885	0.035	-0.025
-460.070	239.123	-0.100	0.165
-459.055	-114.799	-0.067	0.013
-458.040	45.811	0.220	0.202
-457.026	-144.238	-0.397	-0.037
-456.011	159.078	-0.192	-0.266
-454.997	101.490	0.154	0.178
-453.982	-112.803	-0.231	0.046
-452.968	474.676	-0.025	0.055
-451.953	-28.709	-0.263	0.150
-450.938	800.000	-0.058	-0.177
-449.924	190.855	0.063	0.095
-448.909	-191.782	0.320	0.003
-447.895	223.987	0.132	0.212
-446.880	230.161	-0.081	0.132
-445.865	800.000	-0.058	0.175
-444.851	52.335	-0.090	-0.085
-443.836	16.784	0.127	-0.100
-442.822	-82.243	0.209	0.068
-441.807	-200.000	-0.018	0.170
-440.792	-200.000	0.006	0.086
-439.778	-200.000	-0.020	0.210
-438.763	304.457	-0.079	-0.145
-437.749	-50.592	-0.151	0.071
-436.734	260.155	-0.249	0.428
-435.719	113.857	-0.167	-0.202
-434.705	-42.963	0.111	0.056
-433.690	-200.000	0.031	0.163
-432.676	-148.834	0.458	-0.037
-431.661	146.677	0.095	-0.127
-430.646	800.000	-0.050	-0.197
-429.632	-87.284	-0.286	-0.086
-428.617	-118.136	0.114	-0.020
-427.603	800.000	-0.063	0.186
-426.588	80.729	-0.263	0.282
-425.573	-129.303	0.038	-0.005
-424.559	-200.000	-0.001	0.139
-423.544	259.032	0.208	0.356
-422.530	-200.000	-0.037	-0.175
-421.515	-37.645	0.222	-0.117
-420.500	800.000	0.094	-0.309
-419.486	154.885	0.286	0.391
-418.471	-141.353	-0.069	-0.007
-417.457	-200.000	0.008	0.146
-416.442	-147.993	0.151	0.012
-415.428	172.666	0.156	0.223
-414.413	800.000	-0.047	0.204
-413.398	-200.000	0.053	-0.266
-412.384	0.869	-0.262	0.187
-411.369	395.471	0.148	0.307
-410.355	-31.915	-0.357	-0.198
-409.340	240.968	0.020	0.034
-408.325	561.215	-0.087	0.208
-407.311	-200.000	0.003	-0.257
-406.296	-60.460	0.275	-0.116
-405.282	-49.789	0.096	-0.045
-404.267	91.386	0.171	-0.190
-403.252	-18.780	0.339	0.210
-402.238	-40.134	-0.183	0.095
-401.223	-124.382	0.324	0.050
-400.209	-47.399	-0.172	0.083
-399.194	800.000	-0.050	-0.175
-398.179	-136.293	-0.215	-0.025
-397.165	255.541	0.020	-0.034
-396.150	560.458	0.095	-0.227
-395.136	91.978	-0.200	0.224
-394.121	28.894	0.170	-0.143
-393.106	175.353	-0.094	-0.136
-392.092	-49.165	-0.166	-0.079
-391.077	800.000	0.058	-0.171
-390.063	-104.740	0.270	-0.062
-389.048	-200.000	0.047	-0.306
-388.033	329.971	-0.166	-0.316
-387.019	29.010	0.151	-0.127
-386.004	119.617	0.272	0.335
-384.990	551.421	0.058	-0.139
-383.975	-200.000	0.012	0.142
-382.960	0.677	0.124	0.088
-381.946	125.559	0.214	-0.268
-380.931	-70.299	-0.158	-0.059
-379.917	-75.622	0.379	0.133
-378.902	513.727	-0.124	-0.287
-377.888	-38.839	0.231	0.121
-376.873	171.044	-0.052	0.075
-375.858	-8.227	0.194	-0.129
-374.844	800.000	0.029	0.109
-373.829	274.068	0.164	0.288
-372.815	-105.671	-0.268	0.060
-371.800	104.421	-0.203	0.237
-370.785	800.000	0.022	-0.071
-369.771	603.978	-0.077	-0.189
-368.756	199.212	-0.070	-0.107
-367.742	53.971	-0.171	-0.163
-366.727	-119.017	0.109	0.019
-365.712	260.881	0.284	0.487
-364.698	800.000	-0.045	-0.139
-363.683	-144.049	0.074	0.007
-362.669	-83.240	0.397	0.126
-361.654	-16.963	0.121	-0.076
-360.639	-64.071	0.096	0.039
-359.625	800.000	-0.059	-0.196
-358.610	13.986	-0.136	-0.105
-357.596	-200.000	-0.036	-0.182
-356.581	164.159	0.268	-0.374
-355.566	208.933	0.142	0.220
-354.552	-30.986	0.188	0.105
-353.537	-101.555	0.476	-0.115
-352.523	443.412	0.144	0.312
-351.508	123.492	-0.179	0.222
-350.493	-25.758	0.045	0.026
-349.479	16.411	0.174	0.136
-348.464	-25.424	-0.112	0.065
-347.450	-200.000	0.019	-0.083
-346.435	579.610	0.077	-0.186
-345.420	-10.301	-0.158	0.104
-344.406	-119.927	-0.334	0.057
-343.391	-116.481	0.289	0.053
-342.377	800.000	-0.118	0.387
-341.362	-73.962	-0.358	-0.129
-340.348	566.732	0.141	-0.338
-339.333	76.843	0.167	-0.175
-338.318	242.741	-0.138	0.228
-337.304	800.000	0.049	0.136
-336.289	-8.321	-0.214	-0.143
-335.275	-89.854	-0.110	0.032
-334.260	-67.076	-0.152	0.060
-333.245	6.416	-0.227	-0.167
-332.231	17.920	-0.161	-0.127
-331.216	45.608	-0.319	-0.292
-330.202	-10.207	0.049	-0.032
-329.187	-85.222	0.180	0.056
-328.172	-200.000	0.020	-0.199
-327.158	-42.036	-0.131	-0.066
-326.143	-72.243	0.074	0.027
-325.129	115.022	-0.124	-0.149
-324.114	45.019	0.099	-0.090
-323.099	2.167	0.132	0.094
-322.085	800.000	0.031	-0.091
-321.070	-92.322	0.183	-0.051
-320.056	78.977	-0.131	-0.138
-319.041	-80.812	0.122	-0.040
-318.026	800.000	-0.077	-0.250
-317.012	-200.000	-0.041	0.277
-315.997	800.000	-0.115	0.407
-314.983	800.000	-0.054	0.169
-313.968	153.428	0.111	-0.150
-312.953	47.013	-0.297	-0.273
-311.939	-49.728	0.257	0.121
-310.924	-35.311	0.278	-0.150
-309.910	40.806	0.283	0.253
-308.895	300.808	-0.128	0.233
-307.880	800.000	0.139	0.414
-306.866	-1.852	0.099	-0.069
-305.851	73.979	-0.136	-0.141
-304.837	-30.981	-0.257	0.144
-303.822	600.686	0.070	-0.172
-302.807	-200.000	0.017	-0.142
-301.793	270.217	0.111	-0.194
-300.778	-101.849	0.184	-0.044
-299.764	-78.451	0.143	-0.048
-298.749	-59.959	0.377	0.159
-297.735	-70.381	0.083	-0.031
-296.720	-200.000	0.007	0.115
-295.705	-200.000	-0.003	-0.108
-294.691	-29.512	0.171	0.097
-293.676	17.801	-0.147	0.116
-292.662	-200.000	0.002	0.196
-291.647	-41.766	-0.503	-0.255
-290.632	55.823	-0.104	-0.099
-289.618	73.662	0.245	-0.253
-288.603	41.787	0.122	-0.109
-287.589	3.028	-0.471	-0.338
-286.574	-200.000	0.036	-0.203
-285.559	-37.088	-0.167	-0.088
-284.545	-158.935	-0.114	0.006
-283.530	-143.641	-0.315	-0.030
-282.516	-64.184	-0.151	-0.061
-281.501	-59.415	0.062	0.026
-280.486	-77.504	-0.027	0.009
-279.472	57.285	-0.095	-0.091
-278.457	-200.000	-0.015	0.097
-277.443	-200.000	0.014	-0.096
-276.428	-200.000	-0.045	-0.199
-275.413	800.000	0.024	0.096
-274.399	4.196	-0.019	-0.014
-273.384	336.012	-0.048	0.092
-272.370	-34.159	0.316	-0.171
-271.355	-3.848	-0.423	0.290
-270.340	-94.097	0.257	0.070
-269.326	48.224	0.290	0.268
-268.311	101.912	-0.267	0.308
-267.297	-200.000	-0.035	0.300
-266.282	659.692	-0.072	0.183
-265.267	-77.684	-0.226	0.077
-264.253	-53.485	0.319	-0.144
-263.238	800.000	-0.034	-0.141
-262.224	61.098	-0.090	0.088
-261.209	-115.718	0.133	0.025
-260.195	-89.802	0.540	-0.156
-259.180	147.512	-0.270	-0.358
-258.165	-121.493	0.237	-0.039
-257.151	-200.000	-0.025	-0.167
-256.136	-200.000	0.008	0.072
-255.122	-48.228	0.286	0.136
-254.107	-2.112	0.142	0.099
-253.092	-139.271	-0.191	0.020
-252.078	-200.000	-0.018	-0.372
-251.063	-35.995	0.203	-0.108
-250.049	391.204	-0.053	-0.110
-249.034	666.946	-0.056	-0.144
-248.019	13.402	0.129	-0.099
-247.005	61.767	0.083	-0.081
-245.990	800.000	-0.043	0.150
-244.976	-163.503	0.222	-0.010
-243.961	-200.000	-0.026	0.259
-242.946	224.042	0.080	-0.128
-241.932	-162.660	-0.154	0.007
-240.917	800.000	-0.078	-0.310
-239.903	-56.191	0.288	-0.126
-238.888	-167.480	-0.215	-0.008
-237.873	51.676	-0.197	-0.184
-236.859	800.000	-0.017	0.049
-235.844	-55.467	0.240	-0.106
-234.830	-200.000	0.011	-0.097
-233.815	-200.000	0.015	-0.271
-232.800	79.835	0.131	-0.139
-231.786	-40.776	-0.123	-0.063
-230.771	-127.440	0.140	0.020
-229.757	-97.388	-0.097	-0.025
-228.742	-104.702	-0.237	-0.054
-227.727	50.992	0.173	0.162
-226.713	45.182	-0.200	0.182
-225.698	531.257	-0.079	0.184
-224.684	-200.000	-0.034	-0.258
-223.669	-19.067	0.145	0.089
-222.655	-119.644	-0.375	0.064
-221.640	220.889	0.187	-0.296
-220.625	-20.964	-0.178	0.107
-219.611	-74.216	0.411	0.146
-218.596	-42.094	-0.110	-0.056
-217.582	-111.980	0.269	-0.053
-216.567	133.963	-0.029	0.037
-215.552	-10.635	0.182	-0.118
-214.538	-114.121	-0.159	-0.030
-213.523	-200.000	0.001	0.109
-212.509	-200.000	-0.002	0.116
-211.494	-164.272	0.141	-0.006
-210.479	-200.000	-0.019	-0.097
-209.465	-112.926	-0.260	-0.051
-208.450	-65.393	-0.329	0.130
-207.436	628.385	-0.023	-0.058
-206.421	-9.084	0.323	-0.213
-205.406	9.893	0.219	-0.164
-204.392	87.623	-0.220	-0.240
-203.377	394.440	-0.070	0.144
-202.363	-166.281	-0.172	-0.007
-201.348	-200.000	-0.033	0.283
-200.333	501.183	0.130	0.297
-199.319	-200.000	-0.054	0.249
-198.304	-200.000	-0.063	0.390
-197.290	-70.744	-0.161	0.060
-196.275	65.072	0.163	-0.162
-195.260	-29.765	-0.165	-0.092
-194.246	-80.497	-0.247	0.081
-193.231	-32.700	0.201	0.110
-192.217	-129.693	0.137	-0.019
-191.202	93.746	0.080	0.090
-190.187	147.867	0.095	0.126
-189.173	800.000	-0.053	0.181
-188.158	-200.000	0.014	-0.328
-187.144	800.000	0.068	0.268
-186.129	-200.000	-0.033	0.160
-185.114	-104.752	-0.163	-0.037
-184.100	-120.678	-0.071	0.012
-183.085	-97.545	-0.070	-0.018
-182.071	800.000	0.059	-0.198
-181.056	298.070	0.031	-0.056
-180.042	-57.815	0.473	-0.203
-179.027	-200.000	-0.018	-0.276
-178.012	800.000	-0.033	0.136
-176.998	-77.252	-0.267	-0.091
-175.983	183.373	0.120	0.175
-174.969	800.000	0.062	0.194
-173.954	46.341	-0.020	0.019
-172.939	-178.558	-0.367	0.008
-171.925	-101.224	-0.088	-0.021
-170.910	18.765	-0.140	-0.110
-169.896	-147.540	0.147	-0.012
-168.881	4.769	-0.066	-0.047
-167.866	191.570	-0.006	0.008
-166.852	109.299	0.144	0.169
-165.837	-18.904	-0.192	0.118
-164.823	-42.928	0.084	-0.042
-163.808	-32.305	-0.414	0.227
-162.793	-200.000	-0.047	-0.208
-161.779	-7.005	0.124	-0.083
-160.764	534.926	-0.033	0.078
-159.750	95.393	0.079	0.088
-158.735	429.050	-0.147	0.312
-157.720	602.983	-0.097	-0.237
-156.706	-122.614	-0.324	0.052
-155.691	-66.637	0.315	-0.123
-154.677	4.361	-0.325	-0.234
-153.662	-200.000	0.001	0.185
-152.647	45.616	0.227	-0.206
-151.633	-200.000	0.035	0.174
-150.618	-200.000	0.003	-0.070
-149.604	90.609	0.118	0.130
-148.589	-99.487	-0.401	0.099
-147.574	-102.820	0.294	-0.069
-146.560	516.509	0.063	0.145
-145.545	-168.616	-0.071	0.003
-144.531	-180.799	0.178	-0.004
-143.516	28.811	0.268	0.223
-142.502	70.459	-0.386	0.393
-141.487	800.000	0.017	0.053
-140.472	632.870	-0.103	0.257
-139.458	299.903	0.176	0.319
-138.443	552.984	-0.113	-0.266
-137.429	800.000	0.104	0.305
-136.414	121.327	-0.173	-0.212
-135.399	-72.150	0.234	-0.085
-134.385	190.473	-0.250	-0.368
-133.370	48.706	-0.144	-0.133
-132.356	22.042	-0.037	0.030
-131.341	800.000	0.091	0.254
-130.326	800.000	-0.031	-0.098
-129.312	137.106	-0.092	0.118
-128.297	-63.142	-0.299	0.121
-127.283	507.806	-0.090	0.205
-126.268	-104.069	-0.140	0.032
-125.253	-200.000	0.005	0.307
-124.239	-200.000	0.045	0.198
-123.224	-83.407	-0.418	-0.132
-122.210	-75.883	0.408	-0.142
-121.195	-200.000	0.024	0.163
