DTS Sentinel unit serial number:	SN413079Multiplexer serial number:	ORYXHardware model number:	OX4-SRSoftware version number:	ORYX F/W v4.00 Oryx Data Collector v3.7.2.0data status	okinstallation	princeton_trtdifferential loss correction	single-endedforward channel	channel 1reverse channel	N/Adate	2019/09/16time	05:02:35forward acquisition time	60.00reverse acquisition time	0.00gamma	496.2192k internal	0.2333k external	0.2333temperature offset calibration	0.9983default loss term (dB/km)	0.3790temperature slope calibration	1.0000multiplexer offset coefficient	1.0000multiplexer slope coefficient	1.0000fibre end	0.00T internal ref (°C)	27.17T ext. ref 1 (°C)	11.01T ext. ref 2 (°C)	21.95length (m)	temperature (°C)	Stokes	anti-Stokes-747.200	-5.867	-0.260	0.179
-746.185	-47.676	-0.240	0.117
-745.171	-156.953	0.088	0.005
-744.156	-200.000	-0.026	0.176
-743.142	-87.083	-0.176	-0.054
-742.127	-119.429	-0.579	0.101
-741.112	25.186	-0.123	-0.102
-740.098	7.050	0.089	0.067
-739.083	62.433	-0.025	-0.025
-738.069	457.506	-0.082	0.184
-737.054	-200.000	0.003	0.203
-736.039	503.633	-0.086	-0.201
-735.025	407.045	-0.066	-0.140
-734.010	165.498	-0.265	-0.377
-732.996	-200.000	0.014	0.211
-731.981	24.251	-0.161	-0.134
-730.966	800.000	0.070	-0.301
-729.952	-38.474	-0.210	-0.112
-728.937	51.546	-0.330	0.315
-727.923	-55.495	0.132	-0.059
-726.908	-200.000	0.024	-0.292
-725.894	-200.000	0.025	-0.615
-724.879	-200.000	0.029	-0.500
-723.864	-134.747	-0.222	-0.027
-722.850	141.246	0.108	-0.144
-721.835	45.128	0.181	-0.167
-720.821	-200.000	-0.058	-0.288
-719.806	-80.042	0.235	0.079
-718.791	76.017	-0.063	0.067
-717.777	139.785	0.045	0.059
-716.762	-82.139	0.288	-0.094
-715.748	-166.171	-0.236	0.010
-714.733	95.320	0.124	0.142
-713.718	-89.477	0.092	-0.027
-712.704	-200.000	0.012	-0.353
-711.689	-14.937	-0.265	-0.171
-710.675	-161.707	-0.178	0.009
-709.660	286.868	-0.091	0.166
-708.645	337.597	-0.064	0.125
-707.631	33.918	-0.276	-0.242
-706.616	-140.723	-0.185	-0.019
-705.602	-143.169	-0.163	-0.016
-704.587	125.761	-0.119	0.151
-703.572	-103.199	-0.281	0.067
-702.558	584.728	-0.190	0.469
-701.543	130.714	-0.094	0.121
-700.529	165.637	0.154	-0.219
-699.514	337.307	0.125	0.245
-698.499	276.203	0.224	-0.400
-697.485	29.655	0.311	-0.265
-696.470	-59.986	0.128	0.055
-695.456	-29.243	0.035	0.020
-694.441	35.562	0.127	0.112
-693.426	40.381	-0.299	0.270
-692.412	82.214	0.108	0.118
-691.397	-124.290	-0.185	0.029
-690.383	800.000	-0.010	0.036
-689.368	75.689	-0.104	0.110
-688.354	-67.323	0.159	-0.063
-687.339	-200.000	0.005	0.043
-686.324	-4.200	-0.085	0.059
-685.310	-111.796	0.320	-0.065
-684.295	-142.074	-0.294	-0.029
-683.281	-175.293	-0.238	-0.007
-682.266	-108.759	-0.114	0.025
-681.251	430.694	0.097	0.210
-680.237	-200.000	-0.039	0.184
-679.222	-146.586	0.196	-0.017
-678.208	-68.246	0.259	-0.101
-677.193	2.703	-0.078	0.057
-676.178	-133.411	0.338	0.043
-675.164	-58.071	0.299	-0.131
-674.149	38.652	0.148	0.132
-673.135	-53.726	-0.435	0.199
-672.120	285.549	-0.073	-0.131
-671.105	61.416	0.006	-0.006
-670.091	-33.625	0.269	-0.149
-669.076	800.000	-0.121	-0.353
-668.062	118.163	0.149	0.184
-667.047	-68.054	-0.220	0.086
-666.032	-65.768	-0.280	-0.112
-665.018	-128.662	-0.215	-0.030
-664.003	800.000	-0.048	0.175
-662.989	193.401	0.079	-0.119
-661.974	-27.400	-0.170	-0.099
-660.959	-66.061	-0.358	-0.143
-659.945	-135.300	0.119	0.014
-658.930	273.492	0.172	0.304
-657.916	199.127	0.072	0.110
-656.901	74.474	-0.141	-0.148
-655.886	800.000	-0.060	0.231
-654.872	-126.093	-0.169	-0.025
-653.857	-120.689	0.074	0.013
-652.843	-67.684	-0.273	-0.107
-651.828	-200.000	0.009	-0.097
-650.814	800.000	-0.081	0.247
-649.799	328.547	0.074	0.143
-648.784	-151.918	0.139	0.010
-647.770	-82.468	0.171	0.056
-646.755	29.104	-0.279	-0.237
-645.741	-48.414	-0.041	-0.020
-644.726	110.498	0.094	-0.113
-643.711	-121.914	0.243	0.040
-642.697	-116.340	-0.252	0.047
-641.682	114.540	0.140	0.170
-640.668	-200.000	-0.035	-0.191
-639.653	625.546	-0.083	-0.211
-638.638	414.799	-0.185	-0.395
-637.624	-168.987	0.098	-0.004
-636.609	565.301	-0.043	0.103
-635.595	-200.000	0.023	0.292
-634.580	254.135	0.058	-0.098
-633.565	178.234	-0.172	-0.251
-632.551	-99.592	0.223	-0.056
-631.536	-101.641	-0.369	-0.090
-630.522	144.234	0.205	0.273
-629.507	-200.000	-0.013	0.223
-628.492	-200.000	0.024	0.155
-627.478	67.342	0.246	0.251
-626.463	-86.919	-0.242	0.074
-625.449	625.947	-0.069	-0.173
-624.434	19.093	-0.286	0.230
-623.419	-95.911	-0.149	-0.040
-622.405	286.996	0.184	-0.333
-621.390	-200.000	-0.069	-0.432
-620.376	-96.266	-0.173	0.046
-619.361	-200.000	0.028	-0.221
-618.346	-39.651	0.268	-0.140
-617.332	4.320	0.088	-0.065
-616.317	-200.000	-0.017	-0.273
-615.303	-133.563	0.064	0.008
-614.288	74.526	-0.026	0.027
-613.273	-200.000	-0.047	0.288
-612.259	-104.652	0.244	0.056
-611.244	-63.382	-0.080	0.033
-610.230	800.000	-0.033	0.145
-609.215	322.071	0.043	0.082
-608.201	126.227	-0.103	0.130
-607.186	-48.304	0.217	-0.105
-606.171	800.000	0.093	-0.296
-605.157	-200.000	0.011	-0.154
-604.142	9.111	-0.144	0.109
-603.128	-200.000	-0.020	-0.127
-602.113	-200.000	0.011	-0.174
-601.098	-200.000	0.019	0.180
-600.084	-7.669	-0.241	0.163
-599.069	-42.185	0.205	0.105
-598.055	800.000	-0.069	-0.215
-597.040	800.000	0.073	-0.240
-596.025	152.840	-0.126	0.172
-595.011	-104.402	-0.237	-0.055
-593.996	-200.000	0.016	0.272
-592.982	4.318	-0.049	0.036
-591.967	435.446	-0.187	-0.406
-590.952	-119.002	0.383	0.067
-589.938	-129.589	-0.455	-0.063
-588.923	800.000	0.121	0.353
-587.909	-200.000	-0.001	0.050
-586.894	-71.388	-0.026	-0.010
-585.879	85.464	-0.119	0.130
-584.865	-200.000	0.042	-0.339
-583.850	-112.864	0.322	-0.064
-582.836	194.201	0.117	0.177
-581.821	485.118	-0.153	-0.347
-580.806	-21.656	0.129	0.078
-579.792	800.000	-0.044	-0.171
-578.777	800.000	-0.055	-0.207
-577.763	598.188	0.048	0.119
-576.748	-163.752	0.308	0.014
-575.733	-38.366	0.176	-0.093
-574.719	26.754	-0.194	-0.162
-573.704	753.312	-0.057	-0.155
-572.690	-157.993	-0.100	-0.006
-571.675	208.458	0.176	-0.276
-570.661	-200.000	0.009	0.238
-569.646	428.133	0.060	-0.129
-568.631	246.183	-0.182	0.306
-567.617	-56.486	0.252	0.111
-566.602	-53.321	0.069	0.032
-565.588	-79.047	0.255	0.087
-564.573	-102.769	0.251	0.060
-563.558	11.906	-0.025	-0.019
-562.544	36.326	-0.100	-0.088
-561.529	16.323	-0.055	-0.044
-560.515	-156.339	-0.549	0.034
-559.500	-178.137	0.394	0.009
-558.485	247.474	-0.129	0.218
-557.471	752.603	-0.051	0.137
-556.456	-58.113	0.168	0.073
-555.442	-200.000	-0.035	0.155
-554.427	-112.846	0.116	0.023
-553.412	-56.243	0.365	-0.162
-552.398	-63.156	-0.130	-0.054
-551.383	-88.888	-0.288	-0.085
-550.369	-45.740	0.165	-0.082
-549.354	-200.000	0.014	0.077
-548.339	-38.882	-0.258	0.136
-547.325	55.898	0.068	0.066
-546.310	150.567	-0.206	0.280
-545.296	800.000	-0.133	0.368
-544.281	511.121	0.046	0.107
-543.266	800.000	0.058	-0.160
-542.252	16.113	-0.171	0.135
-541.237	-120.539	-0.515	0.087
-540.223	180.897	0.032	-0.047
-539.208	229.276	0.144	0.234
-538.193	-200.000	0.065	-0.293
-537.179	44.376	-0.162	0.149
-536.164	561.320	0.075	-0.180
-535.150	248.061	-0.048	0.080
-534.135	-87.031	0.224	0.068
-533.121	47.859	0.080	-0.075
-532.106	-130.433	-0.292	-0.039
-531.091	-21.546	-0.126	-0.076
-530.077	211.852	0.065	0.101
-529.062	53.699	0.188	-0.180
-528.048	-60.495	0.482	-0.204
-527.033	-26.922	-0.227	0.132
-526.018	-23.507	-0.346	0.207
-525.004	-64.514	-0.336	0.136
-523.989	-197.336	0.364	0.002
-522.975	-184.998	0.022	-0.000
-521.960	-47.389	-0.391	0.190
-520.945	-100.979	0.333	0.081
-519.931	-200.000	-0.010	0.231
-518.916	-143.972	-0.238	-0.022
-517.902	30.679	0.222	0.189
-516.887	-200.000	-0.000	0.185
-515.872	555.964	0.085	-0.204
-514.858	-82.014	-0.125	-0.041
-513.843	-159.687	0.114	0.006
-512.829	67.188	-0.315	0.320
-511.814	656.620	-0.028	-0.071
-510.799	532.197	-0.116	0.272
-509.785	-200.000	-0.022	0.208
-508.770	-200.000	0.049	-0.323
-507.756	-200.000	0.010	0.160
-506.741	-4.215	0.386	0.266
-505.726	-74.218	-0.385	-0.139
-504.712	800.000	0.090	0.276
-503.697	234.369	0.053	0.086
-502.683	-24.021	-0.176	0.105
-501.668	104.986	0.231	0.271
-500.653	-91.014	0.236	0.067
-499.639	4.735	0.214	-0.157
-498.624	-139.498	0.289	0.031
-497.610	-200.000	0.007	0.380
-496.595	-81.883	-0.044	-0.014
-495.581	71.995	-0.244	0.253
-494.566	800.000	-0.092	-0.331
-493.551	-44.999	0.231	0.114
-492.537	-200.000	0.026	-0.150
-491.522	800.000	0.025	0.082
-490.508	618.944	-0.033	0.083
-489.493	194.285	0.114	-0.172
-488.478	-200.000	0.022	0.144
-487.464	-99.691	-0.032	0.008
-486.449	-7.339	-0.165	0.111
-485.435	-200.000	0.005	-0.037
-484.420	80.302	0.102	0.110
-483.405	-42.915	-0.142	-0.072
-482.391	-7.294	0.170	0.115
-481.376	-55.025	-0.181	-0.081
-480.362	-88.636	0.233	-0.069
-479.347	800.000	-0.079	0.226
-478.332	-200.000	-0.018	-0.138
-477.318	105.177	-0.127	0.149
-476.303	-62.168	-0.285	0.118
-475.289	-124.914	0.117	0.018
-474.274	85.969	-0.131	-0.143
-473.259	-78.167	0.240	-0.082
-472.245	-68.155	0.114	-0.044
-471.230	-200.000	0.012	-0.144
-470.216	-20.563	-0.229	0.140
-469.201	-200.000	-0.019	0.315
-468.186	658.771	0.110	0.282
-467.172	-81.574	0.363	0.119
-466.157	-200.000	-0.004	0.092
-465.143	232.987	0.021	-0.035
-464.128	-122.471	-0.105	0.017
-463.113	0.159	-0.062	0.044
-462.099	52.392	-0.193	-0.183
-461.084	378.045	-0.068	0.139
-460.070	735.185	0.066	-0.177
-459.055	-139.661	0.244	0.026
-458.040	50.397	0.112	-0.105
-457.026	800.000	0.033	0.096
-456.011	26.734	-0.127	0.106
-454.997	-12.127	0.133	-0.087
-453.982	-114.437	-0.271	-0.052
-452.968	-200.000	0.000	-0.031
-451.953	380.184	-0.121	-0.247
-450.938	316.169	-0.027	0.051
-449.924	-200.000	0.045	-0.295
-448.909	-62.595	-0.179	0.074
-447.895	-200.000	0.005	0.391
-446.880	101.408	0.144	0.167
-445.865	-143.409	-0.113	0.011
-444.851	-200.000	0.056	-0.257
-443.836	800.000	0.047	0.139
-442.822	-156.489	-0.377	0.023
-441.807	-46.753	-0.197	-0.096
-440.792	559.342	0.003	0.006
-439.778	204.706	-0.118	-0.182
-438.763	-200.000	0.024	-0.216
-437.749	210.872	0.176	-0.274
-436.734	379.666	0.217	-0.443
-435.719	80.443	0.160	0.171
-434.705	704.693	-0.023	-0.061
-433.690	-83.450	-0.205	0.065
-432.676	-200.000	0.037	-0.169
-431.661	800.000	0.053	-0.166
-430.646	-200.000	0.015	-0.245
-429.632	102.894	-0.090	0.105
-428.617	273.816	0.153	-0.269
-427.603	473.825	-0.135	-0.303
-426.588	-64.168	0.272	-0.110
-425.573	-14.104	-0.274	0.176
-424.559	-105.996	0.266	0.059
-423.544	-200.000	0.020	-0.116
-422.530	389.013	-0.075	0.154
-421.515	800.000	0.086	0.289
-420.500	338.703	-0.122	0.235
-419.486	-152.886	0.330	-0.023
-418.471	-32.744	0.134	-0.074
-417.457	800.000	0.081	-0.346
-416.442	-64.428	0.031	0.013
-415.428	-61.545	0.329	0.137
-414.413	800.000	-0.017	0.068
-413.398	-86.981	0.099	0.030
-412.384	41.703	-0.190	0.171
-411.369	-88.134	-0.203	0.060
-410.355	78.443	-0.149	0.158
-409.340	800.000	0.099	-0.274
-408.325	-90.740	-0.193	0.055
-407.311	313.771	-0.041	-0.077
-406.296	-200.000	0.054	-0.341
-405.282	-200.000	-0.034	0.248
-404.267	11.424	-0.013	-0.010
-403.252	800.000	0.040	-0.173
-402.238	464.968	-0.090	-0.201
-401.223	248.027	0.141	0.236
-400.209	422.179	0.094	-0.201
-399.194	-200.000	-0.060	-0.598
-398.179	-200.000	-0.034	-0.423
-397.165	37.836	-0.114	0.100
-396.150	-200.000	0.014	0.165
-395.136	-147.811	-0.018	-0.002
-394.121	-101.077	-0.077	0.019
-393.106	-57.315	-0.394	-0.172
-392.092	50.536	-0.100	0.094
-391.077	-129.609	0.326	-0.045
-390.063	421.487	0.019	-0.041
-389.048	157.260	-0.174	0.239
-388.033	-200.000	-0.014	0.079
-387.019	241.476	-0.083	-0.137
-386.004	-42.802	0.058	-0.029
-384.990	-104.580	0.371	0.085
-383.975	9.481	0.072	0.054
-382.960	-50.803	0.008	-0.004
-381.946	761.304	-0.164	0.441
-380.931	7.422	0.044	0.033
-379.917	-186.558	-0.383	0.005
-378.902	380.504	0.145	-0.295
-377.888	282.722	-0.055	-0.098
-376.873	-99.070	0.263	-0.066
-375.858	-9.234	0.174	-0.116
-374.844	-200.000	-0.006	0.275
-373.829	-86.799	0.212	-0.064
-372.815	16.067	-0.286	-0.223
-371.800	55.853	-0.223	0.214
-370.785	-0.368	-0.249	-0.175
-369.771	167.741	-0.121	0.170
-368.756	-191.739	-0.086	0.001
-367.742	-68.756	0.160	0.061
-366.727	-53.799	0.399	-0.180
-365.712	800.000	0.154	0.568
-364.698	-24.944	0.260	0.153
-363.683	37.100	0.128	0.112
-362.669	-200.000	0.034	-0.417
-361.654	-200.000	0.032	-0.165
-360.639	519.531	-0.104	0.241
-359.625	-200.000	-0.020	0.402
-358.610	-200.000	-0.017	-0.127
-357.596	82.720	0.205	-0.221
-356.581	-90.411	0.320	-0.092
-355.566	41.219	0.150	0.134
-354.552	14.569	-0.037	-0.029
-353.537	-200.000	0.004	-0.026
-352.523	-159.521	-0.478	-0.026
-351.508	-200.000	0.039	-0.262
-350.493	174.596	0.048	-0.069
-349.479	-103.545	-0.337	-0.078
-348.464	-49.505	-0.169	0.080
-347.450	-86.132	0.448	0.137
-346.435	121.560	0.139	-0.172
-345.420	-56.999	0.173	-0.075
-344.406	-26.336	0.146	-0.085
-343.391	-81.270	0.156	0.051
-342.377	-40.265	0.119	-0.061
-341.362	800.000	0.028	0.102
-340.348	126.595	-0.281	0.352
-339.333	-52.360	0.167	-0.077
-338.318	-111.408	-0.237	0.048
-337.304	102.421	-0.079	-0.092
-336.289	-73.665	-0.311	0.112
-335.275	159.394	0.160	0.220
-334.260	357.996	0.080	0.158
-333.245	-132.098	-0.125	0.016
-332.231	-5.353	-0.155	-0.105
-331.216	307.013	-0.088	-0.163
-330.202	-122.749	-0.225	0.036
-329.187	-147.301	-0.683	-0.057
-328.172	69.452	0.079	-0.081
-327.158	800.000	0.127	-0.359
-326.143	-150.337	-0.207	-0.016
-325.129	-4.662	-0.508	0.347
-324.114	-124.030	0.229	-0.036
-323.099	58.238	0.252	-0.244
-322.085	-87.627	-0.175	0.052
-321.070	-200.000	-0.009	0.155
-320.056	-17.527	0.255	0.158
-319.041	-99.107	-0.334	-0.084
-318.026	105.314	0.115	-0.134
-317.012	290.496	-0.109	0.196
-315.997	-64.361	-0.308	-0.124
-314.983	-200.000	-0.009	0.093
-313.968	800.000	-0.084	0.264
-312.953	-200.000	0.004	0.269
-311.939	-72.885	0.174	0.063
-310.924	45.218	0.293	0.267
-309.910	-200.000	0.002	-0.091
-308.895	102.198	-0.263	-0.304
-307.880	-63.456	-0.178	0.072
-306.866	-52.506	0.045	-0.020
-305.851	-200.000	0.001	0.452
-304.837	800.000	0.011	0.039
-303.822	-18.623	0.236	0.146
-302.807	-151.455	0.335	-0.025
-301.793	368.064	-0.023	0.047
-300.778	-200.000	-0.019	0.163
-299.764	488.014	-0.099	0.224
-298.749	87.036	-0.077	-0.084
-297.735	705.510	0.097	-0.254
-296.720	800.000	-0.072	0.206
-295.705	131.124	0.058	0.074
-294.691	204.758	0.083	0.127
-293.676	54.211	0.193	0.183
-292.662	143.931	0.248	0.327
-291.647	-83.822	-0.315	0.099
-290.632	138.718	-0.048	0.062
-289.618	159.130	0.149	-0.205
-288.603	65.923	0.282	0.282
-287.589	361.705	0.191	-0.378
-286.574	159.530	-0.090	-0.123
-285.559	-200.000	-0.023	0.114
-284.545	417.341	-0.141	0.296
-283.530	84.412	-0.077	-0.083
-282.516	-75.172	-0.242	-0.085
-281.501	405.410	0.080	0.167
-280.486	135.031	0.161	-0.206
-279.472	326.186	0.070	0.131
-278.457	-58.898	-0.350	0.150
-277.443	417.585	-0.058	0.122
-276.428	-176.802	0.529	0.013
-275.413	-123.818	0.165	-0.026
-274.399	9.635	0.181	-0.135
-273.384	179.240	0.061	-0.088
-272.370	42.232	-0.120	0.108
-271.355	618.226	-0.164	0.405
-270.340	162.348	0.078	0.108
-269.326	800.000	-0.086	0.370
-268.311	236.959	-0.147	0.241
-267.297	-158.447	-0.074	-0.004
-266.282	-15.686	0.416	-0.262
-265.267	-122.839	-0.227	-0.036
-264.253	135.560	0.014	0.018
-263.238	-133.406	0.201	-0.025
-262.224	800.000	-0.024	0.100
-261.209	696.140	0.023	0.059
-260.195	269.456	-0.167	0.290
-259.180	7.219	-0.268	-0.197
-258.165	-61.473	-0.202	-0.084
-257.151	36.862	0.195	0.170
-256.136	-200.000	-0.067	-0.366
-255.122	800.000	0.032	-0.108
-254.107	800.000	-0.106	0.371
-253.092	7.388	0.204	0.150
-252.078	-41.466	0.060	-0.030
-251.063	-107.905	0.168	-0.036
-250.049	90.887	-0.046	-0.051
-249.034	-200.000	-0.017	0.075
-248.019	-82.545	-0.229	-0.073
-247.005	-136.682	0.288	-0.033
-245.990	800.000	0.037	-0.142
-244.976	31.013	0.128	0.109
-243.961	800.000	-0.098	-0.404
-242.946	-200.000	-0.031	-0.209
-241.932	86.131	0.196	0.213
-240.917	-91.720	-0.058	-0.016
-239.903	-46.594	0.303	-0.146
-238.888	137.998	0.066	-0.085
-237.873	87.319	0.086	0.094
-236.859	11.406	-0.197	0.149
-235.844	-200.000	0.139	-0.644
-234.830	-144.487	-0.169	0.015
-233.815	111.051	0.095	0.113
-232.800	-18.430	0.220	0.135
-231.786	-200.000	0.029	0.196
-230.771	185.511	0.035	0.051
-229.757	154.811	-0.146	-0.197
-228.742	202.887	0.184	-0.281
-227.727	-135.018	-0.245	0.029
-226.713	-40.523	0.089	0.046
-225.698	-54.432	-0.331	0.148
-224.684	-200.000	0.039	-0.324
-223.669	800.000	0.037	0.115
-222.655	-200.000	-0.037	-0.380
-221.640	253.008	-0.132	0.222
-220.625	21.182	0.189	-0.151
-219.611	800.000	0.069	0.263
-218.596	-97.750	0.054	0.014
-217.582	222.991	0.156	-0.247
-216.567	-200.000	-0.008	0.177
-215.552	-200.000	-0.027	0.139
-214.538	395.466	0.120	-0.247
-213.523	-200.000	-0.033	-0.484
-212.509	-200.000	0.025	0.348
-211.494	8.877	-0.255	-0.190
-210.479	516.668	0.172	-0.396
-209.465	-22.713	-0.139	0.083
-208.450	-53.557	0.220	0.099
-207.436	363.467	0.159	-0.315
-206.421	-71.109	0.139	0.052
-205.406	-0.789	-0.131	0.092
-204.392	156.107	-0.020	-0.027
-203.377	173.319	0.097	-0.138
-202.363	-200.000	0.005	-0.032
-201.348	-28.836	-0.353	-0.200
-200.333	782.072	0.084	0.225
-199.319	260.650	-0.221	-0.377
-198.304	-76.050	0.148	-0.052
-197.290	-11.028	-0.200	-0.130
-196.275	-33.651	0.222	0.120
-195.260	-200.000	0.009	0.222
-194.246	-200.000	0.050	0.298
-193.231	-200.000	0.036	-0.355
-192.217	-106.954	-0.148	0.032
-191.202	376.279	-0.085	-0.171
-190.187	104.088	0.086	0.100
-189.173	-200.000	0.028	-0.164
-188.158	-65.602	-0.111	0.044
-187.144	104.724	-0.279	0.323
-186.129	-200.000	0.005	-0.325
-185.114	800.000	-0.063	-0.266
-184.100	141.633	-0.067	-0.088
-183.085	42.507	-0.157	-0.141
-182.071	117.277	-0.125	-0.152
-181.056	-200.000	-0.016	-0.152
-180.042	94.187	-0.233	-0.260
-179.027	800.000	0.096	-0.265
-178.012	-23.404	-0.036	-0.021
-176.998	-108.908	0.159	0.033
-175.983	-200.000	-0.038	-0.204
-174.969	-100.544	-0.273	-0.066
-173.954	16.132	-0.063	-0.049
-172.939	130.874	0.069	-0.088
-171.925	800.000	-0.018	-0.060
-170.910	-52.162	-0.065	0.029
-169.896	-54.444	-0.282	-0.126
-168.881	-200.000	-0.009	-0.045
-167.866	-31.455	-0.078	0.043
-166.852	327.232	-0.132	-0.249
-165.837	-79.781	0.529	0.175
-164.823	-200.000	0.266	-0.001
-163.808	-110.311	-0.228	0.047
-162.793	177.724	-0.269	-0.386
-161.779	-200.000	0.004	0.188
-160.764	800.000	0.059	0.209
-159.750	1.348	-0.103	-0.073
-158.735	318.657	0.237	-0.442
-157.720	83.726	0.227	0.243
-156.706	305.832	0.070	-0.128
-155.691	16.982	-0.048	0.038
-154.677	-10.279	-0.202	-0.132
-153.662	269.403	0.143	0.246
-152.647	-52.142	0.076	0.035
-151.633	-200.000	0.052	0.362
-150.618	-66.855	0.561	-0.218
-149.604	-79.637	-0.241	-0.080
-148.589	81.814	0.264	0.281
-147.574	-31.818	-0.277	-0.152
-146.560	655.723	-0.038	-0.095
-145.545	-69.034	0.252	0.096
-144.531	-53.868	0.299	0.134
-143.516	800.000	0.085	-0.241
-142.502	-200.000	-0.038	0.240
-141.487	800.000	-0.114	-0.429
-140.472	-119.944	-0.225	-0.038
-139.458	84.410	0.036	0.039
-138.443	-23.869	-0.134	-0.079
-137.429	800.000	0.036	-0.155
-136.414	800.000	-0.115	-0.445
-135.399	-200.000	-0.001	-0.003
-134.385	16.545	0.167	0.129
-133.370	800.000	-0.086	0.315
-132.356	-49.533	-0.260	0.121
-131.341	-108.908	-0.218	-0.046
-130.326	-16.363	0.459	-0.286
-129.312	-86.650	-0.134	0.040
-128.297	-200.000	-0.036	0.255
-127.283	59.882	0.275	0.267
-126.268	108.736	0.115	-0.135
-125.253	-200.000	0.035	0.269
-124.239	-200.000	0.028	0.180
-123.224	-5.960	0.180	0.121
-122.210	-113.210	-0.232	0.045
-121.195	213.025	0.051	0.079
