DTS Sentinel unit serial number:	SN413079Multiplexer serial number:	ORYXHardware model number:	OX4-SRSoftware version number:	ORYX F/W v4.00 Oryx Data Collector v3.7.2.0data status	okinstallation	princeton_trtdifferential loss correction	single-endedforward channel	channel 1reverse channel	N/Adate	2019/09/16time	13:22:35forward acquisition time	60.00reverse acquisition time	0.00gamma	496.2192k internal	0.2294k external	0.2294temperature offset calibration	0.9945default loss term (dB/km)	0.3790temperature slope calibration	1.0000multiplexer offset coefficient	1.0000multiplexer slope coefficient	1.0000fibre end	0.00T internal ref (°C)	41.44T ext. ref 1 (°C)	13.74T ext. ref 2 (°C)	39.40length (m)	temperature (°C)	Stokes	anti-Stokes-747.200	607.757	-0.103	0.261
-746.185	-200.000	0.096	0.633
-745.171	-200.000	0.063	0.326
-744.156	366.893	0.092	0.190
-743.142	195.790	0.085	-0.131
-742.127	81.925	-0.259	0.287
-741.112	-90.614	-0.194	0.057
-740.098	-200.000	-0.026	0.166
-739.083	800.000	-0.037	-0.111
-738.069	-50.045	0.116	0.056
-737.054	-59.658	0.074	-0.032
-736.039	273.625	-0.075	0.136
-735.025	44.090	0.305	0.285
-734.010	268.320	-0.142	-0.255
-732.996	-200.000	-0.056	-0.252
-731.981	467.754	-0.036	0.083
-730.966	438.882	-0.088	-0.196
-729.952	-105.407	0.357	0.083
-728.937	800.000	-0.062	0.218
-727.923	-132.282	-0.143	-0.019
-726.908	239.321	-0.183	0.312
-725.894	-200.000	0.010	0.194
-724.879	-65.513	-0.391	-0.160
-723.864	510.886	-0.025	-0.059
-722.850	-200.000	-0.043	0.328
-721.835	-81.926	-0.117	0.039
-720.821	57.793	-0.437	0.437
-719.806	-200.000	-0.015	0.232
-718.791	47.334	-0.120	-0.114
-717.777	-200.000	-0.017	-0.232
-716.762	800.000	-0.095	-0.319
-715.748	30.764	0.069	-0.060
-714.733	-200.000	-0.025	-0.128
-713.718	-28.789	0.102	-0.060
-712.704	-200.000	0.022	0.099
-711.689	-102.866	-0.252	-0.061
-710.675	-112.930	-0.176	-0.036
-709.660	-18.845	-0.289	-0.184
-708.645	-200.000	-0.007	-0.115
-707.631	-45.098	0.282	0.143
-706.616	-200.000	-0.016	-0.500
-705.602	179.606	0.153	0.229
-704.587	-6.608	-0.502	-0.349
-703.572	-171.735	0.065	-0.002
-702.558	317.130	-0.145	-0.280
-701.543	-64.801	-0.250	-0.103
-700.529	-140.334	-0.420	-0.045
-699.514	-150.771	-0.202	0.016
-698.499	-108.517	0.209	0.046
-697.485	-48.434	0.298	0.147
-696.470	64.987	-0.130	0.134
-695.456	-121.372	0.045	-0.008
-694.441	-200.000	0.019	0.190
-693.426	800.000	0.060	-0.257
-692.412	-141.964	0.109	0.011
-691.397	298.293	0.130	-0.243
-690.383	-79.754	-0.298	-0.102
-689.368	-200.000	0.034	-0.168
-688.354	162.248	-0.090	-0.129
-687.339	800.000	0.087	0.299
-686.324	-151.583	-0.249	0.019
-685.310	800.000	0.094	0.280
-684.295	-111.944	-0.336	-0.069
-683.281	-200.000	0.017	0.156
-682.266	-8.855	-0.304	-0.208
-681.251	719.254	-0.059	0.161
-680.237	-113.813	0.101	-0.020
-679.222	76.457	-0.212	0.229
-678.208	-24.343	0.114	0.070
-677.193	-200.000	-0.214	-0.001
-676.178	-36.775	-0.127	0.070
-675.164	160.041	-0.131	0.186
-674.149	-200.000	-0.014	-0.089
-673.135	-53.211	-0.375	-0.175
-672.120	36.658	0.221	-0.199
-671.105	482.018	-0.071	0.164
-670.091	122.560	0.099	0.126
-669.076	-88.691	-0.177	0.054
-668.062	140.895	-0.222	-0.299
-667.047	-200.000	-0.052	-0.499
-666.032	60.331	0.052	-0.052
-665.018	585.553	0.134	0.336
-664.003	163.993	0.189	-0.271
-662.989	-51.397	-0.415	0.198
-661.974	-200.000	-0.010	0.253
-660.959	-141.127	-0.266	-0.028
-659.945	-200.000	-0.006	-0.379
-658.930	800.000	-0.012	-0.046
-657.916	800.000	0.056	0.189
-656.901	240.954	-0.195	0.331
-655.886	147.974	0.145	-0.199
-654.872	-16.062	-0.235	0.152
-653.857	-200.000	0.044	-0.202
-652.843	-4.217	-0.261	0.184
-651.828	681.330	-0.082	0.219
-650.814	-200.000	-0.033	0.470
-649.799	-200.000	0.061	-0.353
-648.784	56.150	-0.181	-0.179
-647.770	-7.689	0.379	-0.261
-646.755	2.450	-0.067	0.049
-645.741	-200.000	0.013	0.158
-644.726	-29.094	0.215	-0.126
-643.711	-93.866	-0.331	0.093
-642.697	33.762	-0.390	0.345
-641.682	18.745	0.250	0.204
-640.668	-36.913	-0.086	0.047
-639.653	-200.000	-0.024	0.207
-638.638	133.840	0.190	0.250
-637.624	-107.487	0.177	0.040
-636.609	-66.447	-0.170	0.069
-635.595	-200.000	-0.020	-0.249
-634.580	-153.668	-0.251	-0.018
-633.565	112.801	-0.249	-0.308
-632.551	0.649	-0.072	-0.053
-631.536	492.587	0.111	0.260
-630.522	85.086	-0.394	-0.440
-629.507	128.905	-0.183	-0.237
-628.492	-83.810	-0.222	-0.072
-627.478	-10.691	0.078	-0.053
-626.463	-200.000	-0.016	-0.131
-625.449	-10.201	0.054	0.036
-624.434	213.675	-0.086	0.139
-623.419	-200.000	-0.002	-0.052
-622.405	-162.573	-0.297	0.015
-621.390	-35.968	0.129	0.071
-620.376	283.672	0.085	0.156
-619.361	-48.908	0.172	-0.084
-618.346	800.000	-0.057	0.222
-617.332	239.626	0.041	0.069
-616.317	-26.766	-0.213	-0.127
-615.303	-32.109	0.075	0.043
-614.288	-92.636	0.238	-0.068
-613.273	-84.635	0.062	-0.020
-612.259	-134.928	0.283	-0.035
-611.244	133.764	-0.164	-0.216
-610.230	312.560	0.103	-0.196
-609.215	-22.367	0.102	0.063
-608.201	363.352	-0.128	-0.262
-607.186	367.550	0.150	-0.308
-606.171	-152.683	-0.107	0.008
-605.157	-163.881	0.170	0.008
-604.142	-10.620	-0.092	0.062
-603.128	208.775	-0.098	-0.156
-602.113	-186.588	-0.332	0.005
-601.098	643.530	0.189	0.489
-600.084	-37.858	0.286	0.155
-599.069	22.238	-0.108	-0.089
-598.055	-77.072	0.309	0.110
-597.040	800.000	-0.030	0.086
-596.025	-97.286	0.164	-0.044
-595.011	21.172	0.048	0.040
-593.996	352.380	-0.168	-0.338
-592.982	-124.682	-0.311	-0.049
-591.967	-135.564	0.097	-0.012
-590.952	291.712	-0.101	0.188
-589.938	-82.461	-0.029	-0.010
-588.923	-14.426	0.151	0.099
-587.909	-149.871	-0.193	0.015
-586.894	159.065	-0.181	-0.255
-585.879	89.770	0.178	0.202
-584.865	-22.938	0.336	0.206
-583.850	109.876	-0.225	-0.274
-582.836	16.789	0.140	0.113
-581.821	420.346	0.064	-0.139
-580.806	-8.650	0.077	0.052
-579.792	121.353	-0.015	0.019
-578.777	143.146	-0.041	-0.056
-577.763	473.128	-0.075	-0.172
-576.748	149.973	-0.167	0.230
-575.733	174.087	0.063	-0.092
-574.719	139.178	0.071	-0.094
-573.704	-4.504	-0.165	-0.116
-572.690	-80.727	0.034	-0.011
-571.675	16.860	-0.210	-0.169
-570.661	271.456	0.149	-0.266
-569.646	1.808	0.126	-0.093
-568.631	-144.765	-0.278	0.026
-567.617	-94.629	-0.169	-0.047
-566.602	-66.456	-0.181	-0.073
-565.588	-115.066	0.240	-0.046
-564.573	-80.867	0.213	0.072
-563.558	-200.000	-0.094	0.490
-562.544	-200.000	0.006	0.465
-561.529	-59.614	0.273	-0.119
-560.515	-48.583	0.184	-0.090
-559.500	-160.087	0.185	-0.010
-558.485	169.078	-0.012	0.018
-557.471	-119.857	0.126	0.022
-556.456	150.693	-0.077	-0.106
-555.442	-88.120	0.174	-0.053
-554.427	472.596	-0.135	0.309
-553.412	101.936	0.100	-0.118
-552.398	-42.065	-0.129	0.067
-551.383	-97.075	-0.276	0.073
-550.369	250.276	0.254	-0.438
-549.354	-172.971	-0.129	0.004
-548.339	197.906	0.160	0.248
-547.325	-200.000	-0.031	0.227
-546.310	-167.116	0.185	0.008
-545.296	-21.607	0.263	-0.162
-544.281	800.000	0.066	0.228
-543.266	-200.000	-0.003	0.279
-542.252	-50.308	-0.270	-0.130
-541.237	346.872	0.194	0.388
-540.223	-100.030	0.301	0.076
-539.208	-200.000	-0.027	-0.229
-538.193	-200.000	-0.030	-0.293
-537.179	-25.769	-0.176	0.105
-536.164	-119.067	-0.146	0.026
-535.150	8.532	-0.451	0.344
-534.135	46.366	0.186	0.175
-533.121	-92.191	-0.329	-0.094
-532.106	-35.714	0.128	-0.070
-531.091	27.981	-0.251	-0.215
-530.077	-65.069	0.299	0.122
-529.062	-89.828	0.184	-0.055
-528.048	-200.000	0.040	-0.305
-527.033	-123.691	0.305	0.049
-526.018	-200.000	-0.151	-0.000
-525.004	-123.226	-0.135	0.022
-523.989	518.772	-0.121	-0.287
-522.975	28.511	-0.234	-0.201
-521.960	800.000	0.196	-0.601
-520.945	335.971	-0.163	0.320
-519.931	-121.015	0.198	-0.034
-518.916	-119.160	0.153	0.027
-517.902	800.000	0.058	0.198
-516.887	-105.587	-0.473	0.109
-515.872	-68.043	-0.266	-0.105
-514.858	-47.649	0.086	-0.042
-513.843	-82.880	-0.193	-0.063
-512.829	-57.737	0.320	-0.142
-511.814	-48.044	0.082	0.040
-510.799	-122.094	-0.157	-0.026
-509.785	425.880	0.074	0.162
-508.770	-200.000	0.035	-0.378
-507.756	239.178	-0.034	-0.057
-506.741	-18.219	0.186	0.118
-505.726	-97.150	0.218	-0.058
-504.712	800.000	0.033	-0.127
-503.697	800.000	0.080	-0.260
-502.683	-94.050	0.160	0.044
-501.668	-200.000	-0.019	-0.136
-500.653	56.345	-0.248	-0.244
-499.639	800.000	0.051	0.180
-498.624	-200.000	0.013	-0.194
-497.610	-200.000	0.040	-0.451
-496.595	450.298	-0.028	-0.062
-495.581	539.742	-0.045	-0.109
-494.566	49.842	-0.060	-0.057
-493.551	-89.237	-0.140	0.042
-492.537	410.844	0.033	-0.071
-491.522	44.431	-0.286	-0.266
-490.508	-90.890	-0.137	0.040
-489.493	-33.977	0.159	0.089
-488.478	-200.000	0.030	0.159
-487.464	-200.000	-0.002	0.050
-486.449	111.975	-0.029	-0.036
-485.435	46.041	-0.177	-0.166
-484.420	-200.000	-0.039	-0.183
-483.405	117.592	-0.244	-0.304
-482.391	-200.000	-0.050	0.246
-481.376	-200.000	-0.028	-0.359
-480.362	94.781	0.087	0.100
-479.347	-39.916	-0.149	0.079
-478.332	167.954	0.026	0.038
-477.318	26.958	-0.226	-0.192
-476.303	-60.264	-0.301	-0.130
-475.289	800.000	-0.057	-0.169
-474.274	240.298	-0.105	-0.177
-473.259	800.000	-0.039	0.113
-472.245	-15.019	0.162	0.105
-471.230	210.847	-0.060	-0.095
-470.216	-164.960	-0.223	-0.010
-469.201	800.000	-0.070	0.215
-468.186	800.000	0.035	0.121
-467.172	-12.931	-0.329	-0.216
-466.157	800.000	0.046	-0.145
-465.143	-200.000	-0.043	0.291
-464.128	4.902	-0.260	-0.194
-463.113	800.000	-0.101	0.320
-462.099	675.980	0.051	0.133
-461.084	-105.104	0.264	0.061
-460.070	-200.000	-0.039	0.283
-459.055	132.113	-0.063	-0.082
-458.040	105.012	0.169	0.201
-457.026	332.039	-0.069	0.134
-456.011	-88.542	0.070	0.021
-454.997	6.615	-0.025	-0.018
-453.982	-45.327	0.162	0.081
-452.968	714.824	-0.043	-0.115
-451.953	763.632	0.104	0.285
-450.938	-70.199	-0.146	0.056
-449.924	-200.000	-0.021	0.209
-448.909	-200.000	-0.046	0.226
-447.895	84.951	0.146	-0.161
-446.880	-200.000	-0.016	-0.121
-445.865	-200.000	0.013	0.074
-444.851	23.788	0.154	-0.128
-443.836	94.412	-0.188	0.216
-442.822	-59.187	0.169	-0.073
-441.807	800.000	0.077	0.216
-440.792	-126.350	-0.302	-0.045
-439.778	800.000	0.043	0.153
-438.763	-113.702	0.177	0.035
-437.749	-200.000	-0.054	0.279
-436.734	139.926	-0.106	-0.141
-435.719	-21.387	0.126	-0.077
-434.705	-98.140	-0.233	0.061
-433.690	-200.000	0.001	0.261
-432.676	-200.000	0.025	0.182
-431.661	227.217	0.146	-0.240
-430.646	-136.478	-0.055	-0.006
-429.632	-200.000	0.002	-0.199
-428.617	800.000	0.029	-0.107
-427.603	-200.000	0.040	-0.354
-426.588	-117.282	0.363	0.067
-425.573	75.253	-0.266	0.283
-424.559	57.254	0.091	-0.090
-423.544	-62.361	0.218	-0.092
-422.530	-121.594	-0.069	-0.011
-421.515	-100.212	0.367	-0.092
-420.500	135.345	0.083	0.108
-419.486	-52.250	0.061	0.029
-418.471	-200.000	-0.007	0.099
-417.457	650.503	-0.070	0.180
-416.442	-200.000	0.020	0.335
-415.428	800.000	-0.030	0.119
-414.413	-68.112	0.130	-0.051
-413.398	-116.075	0.288	0.054
-412.384	349.223	-0.091	-0.182
-411.369	800.000	0.049	0.186
-410.355	-22.087	0.299	-0.183
-409.340	295.841	-0.150	-0.278
-408.325	-200.000	0.036	0.241
-407.311	-200.000	-0.017	-0.162
-406.296	35.284	0.086	-0.076
-405.282	66.152	-0.053	-0.054
-404.267	-1.919	0.267	-0.190
-403.252	-200.000	0.004	-0.167
-402.238	285.710	-0.073	0.132
-401.223	327.857	0.116	-0.225
-400.209	22.515	-0.304	-0.251
-399.194	31.740	-0.235	-0.204
-398.179	-200.000	-0.037	0.210
-397.165	-200.000	0.004	0.048
-396.150	-76.246	-0.147	0.052
-395.136	-20.562	0.078	-0.048
-394.121	-103.999	-0.096	0.022
-393.106	99.494	0.168	0.196
-392.092	119.468	-0.143	0.179
-391.077	251.568	0.176	-0.302
-390.063	80.975	-0.143	-0.155
-389.048	498.390	0.031	0.072
-388.033	-46.060	-0.253	-0.126
-387.019	47.449	0.141	-0.133
-386.004	-95.746	0.311	0.084
-384.990	-15.114	0.078	0.050
-383.975	-69.467	-0.044	-0.017
-382.960	-200.000	0.063	0.343
-381.946	343.577	-0.168	-0.332
-380.931	-57.903	0.135	-0.060
-379.917	-200.000	-0.023	0.222
-378.902	191.402	0.062	0.094
-377.888	125.326	-0.100	-0.127
-376.873	110.803	-0.311	-0.377
-375.858	45.204	-0.226	0.210
-374.844	124.051	0.192	-0.243
-373.829	800.000	0.100	0.365
-372.815	163.542	0.104	-0.147
-371.800	-200.000	-0.006	0.113
-370.785	296.984	-0.139	0.258
-369.771	800.000	0.050	-0.159
-368.756	-200.000	-0.046	0.283
-367.742	25.784	0.249	0.209
-366.727	116.432	-0.081	-0.100
-365.712	454.316	-0.182	-0.405
-364.698	-130.991	0.168	0.023
-363.683	-87.395	-0.248	0.076
-362.669	94.217	-0.197	-0.226
-361.654	-153.487	-0.220	0.015
-360.639	-200.000	0.000	-0.102
-359.625	-114.305	0.208	-0.040
-358.610	300.984	-0.026	0.049
-357.596	-133.246	0.053	-0.007
-356.581	-46.147	-0.387	-0.192
-355.566	161.934	-0.078	-0.110
-354.552	-200.000	-0.007	-0.267
-353.537	435.821	-0.052	0.113
-352.523	-32.998	-0.008	0.005
-351.508	40.158	0.157	0.142
-350.493	451.281	-0.046	-0.103
-349.479	-200.000	-0.010	0.203
-348.464	-42.647	-0.344	0.176
-347.450	800.000	-0.052	-0.201
-346.435	-77.515	-0.170	-0.059
-345.420	-3.333	-0.192	0.134
-344.406	-200.000	0.071	0.340
-343.391	-50.686	-0.312	0.148
-342.377	-164.088	-0.186	0.009
-341.362	592.371	0.054	-0.133
-340.348	46.579	0.103	0.096
-339.333	-181.848	0.151	0.003
-338.318	563.756	-0.115	0.281
-337.304	23.801	-0.048	-0.040
-336.289	-200.000	0.047	0.211
-335.275	-200.000	0.004	-0.145
-334.260	-0.208	-0.132	0.094
-333.245	68.786	0.136	0.140
-332.231	-87.373	0.218	-0.066
-331.216	-134.434	0.322	-0.040
-330.202	346.393	0.194	0.383
-329.187	-18.113	0.243	-0.153
-328.172	1.869	0.247	-0.179
-327.158	-24.588	-0.345	-0.206
-326.143	374.945	-0.089	-0.182
-325.129	-88.272	-0.059	0.018
-324.114	-104.360	0.265	-0.062
-323.099	0.167	-0.269	0.193
-322.085	255.627	0.130	-0.225
-321.070	80.211	-0.273	-0.296
-320.056	188.414	-0.129	0.195
-319.041	-200.000	0.036	0.245
-318.026	324.917	-0.184	0.353
-317.012	172.125	0.045	0.066
-315.997	95.484	-0.078	-0.089
-314.983	-55.770	0.061	0.027
-313.968	14.021	0.149	-0.117
-312.953	-80.896	0.092	0.031
-311.939	-1.684	-0.123	0.087
-310.924	441.938	0.151	-0.331
-309.910	-62.938	-0.265	-0.110
-308.895	60.920	0.209	0.209
-307.880	-54.933	0.204	-0.092
-306.866	5.597	0.082	-0.061
-305.851	129.850	-0.164	-0.210
-304.837	-52.271	0.294	-0.137
-303.822	143.826	0.143	0.191
-302.807	358.632	0.052	0.104
-301.793	134.440	0.038	-0.049
-300.778	-42.177	-0.079	0.040
-299.764	-114.945	0.583	0.112
-298.749	65.136	-0.096	0.097
-297.735	-97.014	-0.094	0.025
-296.720	11.229	-0.126	-0.097
-295.705	-37.772	-0.251	-0.134
-294.691	775.979	0.100	0.274
-293.676	-86.925	-0.123	-0.038
-292.662	-7.891	0.226	-0.153
-291.647	115.780	-0.405	0.498
-290.632	465.860	-0.006	-0.013
-289.618	268.496	-0.062	0.110
-288.603	-200.000	0.012	-0.238
-287.589	47.469	0.068	-0.064
-286.574	-200.000	-0.186	0.000
-285.559	142.957	0.105	-0.140
-284.545	-39.997	0.301	0.158
-283.530	476.096	-0.140	-0.318
-282.516	194.551	-0.257	-0.392
-281.501	47.781	-0.127	0.119
-280.486	-200.000	0.008	0.209
-279.472	5.631	0.279	0.207
-278.457	800.000	-0.066	0.231
-277.443	-91.254	-0.098	0.028
-276.428	142.766	-0.074	-0.098
-275.413	-14.447	-0.123	-0.079
-274.399	-27.491	-0.179	-0.104
-273.384	164.252	-0.060	0.085
-272.370	436.342	-0.041	0.090
-271.355	-4.603	0.298	0.207
-270.340	123.132	0.162	-0.204
-269.326	226.160	0.098	-0.159
-268.311	41.251	0.184	0.167
-267.297	-132.005	0.385	-0.050
-266.282	800.000	-0.077	0.224
-265.267	800.000	-0.085	0.330
-264.253	-28.051	0.188	-0.109
-263.238	800.000	0.020	-0.059
-262.224	-200.000	-0.055	0.328
-261.209	543.270	-0.068	0.162
-260.195	-152.878	-0.463	0.033
-259.180	382.676	0.042	-0.087
-258.165	-35.274	-0.163	0.089
-257.151	-11.600	0.066	-0.043
-256.136	800.000	0.039	0.149
-255.122	-164.128	0.502	-0.023
-254.107	72.907	-0.165	0.173
-253.092	-108.286	-0.379	-0.082
-252.078	-200.000	-0.003	0.295
-251.063	-200.000	0.025	-0.283
-250.049	-45.414	-0.072	-0.036
-249.034	-200.000	0.007	-0.403
-248.019	87.322	-0.109	0.121
-247.005	-101.357	-0.217	0.053
-245.990	-119.829	-0.295	0.051
-244.976	-104.372	-0.216	-0.050
-243.961	-98.721	-0.145	-0.037
-242.946	-164.831	-0.242	0.011
-241.932	-75.827	0.217	0.077
-240.917	-161.582	-0.218	-0.011
-239.903	131.071	-0.036	-0.047
-238.888	8.431	0.148	-0.112
-237.873	439.906	0.082	-0.181
-236.859	294.186	-0.033	0.061
-235.844	454.472	-0.142	0.316
-234.830	303.570	0.161	0.299
-233.815	-54.249	0.232	0.106
-232.800	-182.484	0.212	0.004
-231.786	800.000	-0.077	0.212
-230.771	-151.070	-0.305	-0.023
-229.757	372.811	-0.253	0.515
-228.742	2.253	-0.306	0.222
-227.727	800.000	-0.033	0.124
-226.713	12.897	0.110	0.086
-225.698	-32.551	-0.033	0.018
-224.684	-82.237	0.092	0.030
-223.669	-48.757	0.223	0.107
-222.655	-123.445	0.355	0.057
-221.640	-36.621	-0.018	0.010
-220.625	61.693	-0.144	0.144
-219.611	-84.766	0.251	0.079
-218.596	178.350	-0.021	-0.031
-217.582	138.667	0.162	0.214
-216.567	292.049	-0.144	-0.262
-215.552	-200.000	-0.027	-0.331
-214.538	-86.836	0.354	-0.108
-213.523	-130.195	-0.096	-0.013
-212.509	470.766	-0.238	-0.537
-211.494	9.442	0.072	-0.055
-210.479	-200.000	-0.010	-0.061
-209.465	127.742	0.102	-0.130
-208.450	800.000	-0.125	0.369
-207.436	78.450	0.077	0.082
-206.421	40.183	0.141	0.127
-205.406	-15.793	0.157	-0.100
-204.392	800.000	-0.051	-0.172
-203.377	-3.018	-0.016	0.011
-202.363	-131.155	-0.040	-0.005
-201.348	-23.527	-0.279	-0.167
-200.333	94.575	-0.171	-0.195
-199.319	-110.834	-0.275	-0.057
-198.304	-26.771	0.111	0.065
-197.290	-11.015	-0.102	-0.068
-196.275	-121.170	0.177	0.030
-195.260	15.425	0.129	0.102
-194.246	800.000	0.003	-0.012
-193.231	-200.000	-0.062	0.307
-192.217	150.114	0.157	0.214
-191.202	-200.000	-0.056	-0.371
-190.187	-98.961	0.164	0.042
-189.173	-146.351	-0.079	-0.007
-188.158	52.460	0.220	0.210
-187.144	78.147	0.110	0.118
-186.129	211.534	0.088	-0.139
-185.114	73.019	0.135	0.141
-184.100	-200.000	-0.038	0.267
-183.085	-172.250	0.248	0.008
-182.071	-76.932	0.389	0.136
-181.056	-133.284	-0.145	-0.018
-180.042	-200.000	0.010	-0.317
-179.027	800.000	0.104	-0.366
-178.012	-54.302	-0.212	-0.096
-176.998	-200.000	-0.015	0.133
-175.983	10.029	-0.309	0.234
-174.969	-102.865	0.198	-0.047
-173.954	-200.000	0.018	0.196
-172.939	-140.890	0.517	-0.053
-171.925	-107.676	0.269	-0.059
-170.910	19.964	0.324	0.261
-169.896	-108.062	0.265	-0.058
-168.881	-4.072	-0.215	0.149
-167.866	-200.000	0.058	0.264
-166.852	-200.000	0.021	-0.268
-165.837	278.687	0.085	0.151
-164.823	-200.000	0.261	0.001
-163.808	-38.322	0.121	0.064
-162.793	79.600	0.114	-0.123
-161.779	-200.000	0.041	0.211
-160.764	70.513	-0.292	-0.302
-159.750	48.229	0.329	-0.308
-158.735	134.323	0.064	0.083
-157.720	665.043	0.073	-0.188
-156.706	-54.528	0.162	-0.073
-155.691	-116.320	0.258	-0.048
-154.677	3.527	-0.202	0.147
-153.662	-145.088	0.135	-0.012
-152.647	-10.878	-0.308	0.203
-151.633	786.147	-0.104	-0.284
-150.618	0.741	-0.218	-0.156
-149.604	-200.000	-0.001	0.038
-148.589	-156.618	-0.198	-0.012
-147.574	48.081	-0.216	-0.202
-146.560	244.476	0.022	-0.037
-145.545	340.769	-0.041	0.080
-144.531	-190.758	0.048	-0.001
-143.516	800.000	0.076	0.289
-142.502	-1.382	0.075	0.053
-141.487	-200.000	-0.011	0.242
-140.472	43.148	-0.164	0.150
-139.458	58.898	0.343	-0.337
-138.443	-200.000	-0.030	-0.253
-137.429	-189.840	-0.187	0.002
-136.414	-134.258	-0.137	-0.017
-135.399	-118.846	-0.386	-0.068
-134.385	-193.983	-0.044	-0.000
-133.370	362.308	0.076	-0.153
-132.356	-200.000	0.017	0.159
-131.341	150.652	0.209	0.283
-130.326	-200.000	-0.006	-0.057
-129.312	100.183	0.126	0.146
-128.297	-109.565	0.106	-0.022
-127.283	78.690	0.043	-0.046
-126.268	-129.523	0.249	-0.034
-125.253	800.000	-0.103	0.285
-124.239	47.766	-0.048	0.044
-123.224	-200.000	-0.007	-0.267
-122.210	800.000	-0.018	-0.066
