DTS Sentinel unit serial number:	SN413079Multiplexer serial number:	ORYXHardware model number:	OX4-SRSoftware version number:	ORYX F/W v4.00 Oryx Data Collector v3.7.2.0data status	okinstallation	princeton_trtdifferential loss correction	single-endedforward channel	channel 1reverse channel	N/Adate	2019/09/17time	16:50:35forward acquisition time	60.00reverse acquisition time	0.00gamma	496.2192k internal	0.2292k external	0.2292temperature offset calibration	0.9961default loss term (dB/km)	0.3790temperature slope calibration	1.0000multiplexer offset coefficient	1.0000multiplexer slope coefficient	1.0000fibre end	0.00T internal ref (°C)	42.27T ext. ref 1 (°C)	0.35T ext. ref 2 (°C)	38.34length (m)	temperature (°C)	Stokes	anti-Stokes-747.200	-200.000	-0.004	0.124
-746.185	-84.512	-0.298	-0.096
-745.171	212.931	0.220	0.356
-744.156	-200.000	0.044	0.253
-743.142	-169.796	-0.168	0.006
-742.127	-169.666	-0.190	-0.007
-741.112	-77.569	-0.161	0.057
-740.098	-14.382	-0.053	0.035
-739.083	65.380	0.152	-0.158
-738.069	800.000	-0.025	0.074
-737.054	-68.235	0.303	-0.120
-736.039	795.033	-0.131	0.369
-735.025	218.493	0.232	0.379
-734.010	85.453	-0.168	0.189
-732.996	800.000	0.041	0.162
-731.981	415.576	-0.021	-0.045
-730.966	307.401	0.136	0.260
-729.952	230.572	-0.139	-0.232
-728.937	435.444	0.050	-0.112
-727.923	-182.229	0.308	-0.006
-726.908	-200.000	-0.046	-0.209
-725.894	-130.670	-0.256	0.035
-724.879	800.000	0.034	0.139
-723.864	-8.502	0.109	-0.075
-722.850	499.022	-0.190	-0.447
-721.835	0.983	0.141	0.103
-720.821	270.763	-0.090	0.161
-719.806	55.982	0.196	0.194
-718.791	371.444	0.065	0.134
-717.777	800.000	-0.090	-0.399
-716.762	504.803	-0.137	-0.325
-715.748	112.096	0.133	-0.164
-714.733	800.000	-0.078	0.242
-713.718	-68.225	0.152	0.060
-712.704	-200.000	-0.016	-0.240
-711.689	404.561	0.192	-0.414
-710.675	164.514	0.052	-0.074
-709.660	-52.016	0.201	0.096
-708.645	-200.000	0.007	0.385
-707.631	275.106	-0.054	-0.098
-706.616	-151.898	-0.162	0.012
-705.602	-200.000	0.010	0.140
-704.587	412.050	0.159	-0.344
-703.572	800.000	0.119	0.391
-702.558	352.795	-0.042	-0.084
-701.543	161.916	-0.130	0.186
-700.529	-200.000	0.048	-0.285
-699.514	-200.000	0.028	-0.148
-698.499	-5.056	-0.090	0.063
-697.485	797.500	-0.159	-0.448
-696.470	-0.205	0.246	-0.179
-695.456	-115.824	0.178	-0.034
-694.441	684.638	0.051	0.137
-693.426	362.797	-0.084	0.172
-692.412	-200.000	-0.030	-0.163
-691.397	76.117	-0.169	0.183
-690.383	-27.421	-0.257	-0.153
-689.368	-200.000	0.049	0.314
-688.354	-200.000	0.035	0.184
-687.339	19.439	0.167	0.137
-686.324	-104.812	-0.250	-0.059
-685.310	-200.000	0.010	-0.366
-684.295	52.028	0.176	0.171
-683.281	-77.142	-0.398	0.142
-682.266	-71.170	-0.110	-0.042
-681.251	-88.985	0.049	0.015
-680.237	800.000	-0.065	-0.270
-679.222	-34.094	-0.085	-0.048
-678.208	-115.977	0.260	-0.049
-677.193	800.000	-0.075	0.215
-676.178	-130.052	0.139	0.019
-675.164	-200.000	0.006	-0.046
-674.149	-20.404	0.247	-0.155
-673.135	-200.000	0.034	0.314
-672.120	-99.438	-0.144	-0.037
-671.105	-61.862	-0.098	0.042
-670.091	568.404	0.172	-0.426
-669.076	-200.000	0.007	0.379
-668.062	-90.082	-0.350	0.104
-667.047	-77.221	0.118	0.042
-666.032	305.315	-0.165	-0.313
-665.018	424.242	0.056	-0.122
-664.003	287.180	-0.059	-0.108
-662.989	-200.000	-0.042	-0.244
-661.974	142.863	0.071	0.096
-660.959	-52.166	0.177	-0.084
-659.945	217.800	-0.041	-0.066
-658.930	-68.760	-0.224	0.088
-657.916	36.451	0.209	-0.188
-656.901	449.324	-0.121	-0.272
-655.886	-200.000	-0.012	0.105
-654.872	223.609	0.064	0.105
-653.857	-41.325	-0.397	-0.209
-652.843	800.000	-0.078	-0.281
-651.828	800.000	0.045	0.130
-650.814	800.000	0.056	0.201
-649.799	-37.355	-0.182	0.099
-648.784	293.852	0.069	-0.128
-647.770	-200.000	-0.023	-0.353
-646.755	800.000	0.054	-0.190
-645.741	-65.327	0.173	-0.071
-644.726	104.591	-0.080	-0.096
-643.711	573.233	0.133	0.331
-642.697	-7.717	-0.146	-0.100
-641.682	199.225	0.049	-0.077
-640.668	-200.000	-0.014	-0.168
-639.653	43.563	-0.209	0.194
-638.638	-77.794	0.178	-0.063
-637.624	-200.000	0.012	-0.195
-636.609	-118.232	-0.276	-0.050
-635.595	313.846	0.106	-0.204
-634.580	-10.257	-0.225	0.152
-633.565	497.128	-0.034	0.079
-632.551	484.531	0.121	0.280
-631.536	-200.000	0.007	-0.222
-630.522	119.572	0.113	0.143
-629.507	427.233	-0.051	-0.113
-628.492	-5.281	0.237	-0.166
-627.478	502.805	-0.096	0.227
-626.463	12.983	-0.264	0.208
-625.449	83.212	-0.276	0.306
-624.434	800.000	0.126	0.366
-623.419	63.441	-0.087	0.088
-622.405	-200.000	0.057	-0.261
-621.390	-94.563	0.327	0.091
-620.376	-200.000	-0.003	-0.154
-619.361	389.068	0.065	-0.138
-618.346	128.670	-0.142	-0.184
-617.332	-0.886	-0.350	0.253
-616.317	-47.790	0.217	0.107
-615.303	-18.786	-0.197	0.125
-614.288	-200.000	-0.026	0.199
-613.273	-142.861	0.219	-0.022
-612.259	76.406	0.018	0.020
-611.244	435.367	0.236	-0.524
-610.230	-80.316	0.169	-0.058
-609.215	800.000	0.057	-0.212
-608.201	-200.000	0.009	-0.469
-607.186	-9.950	0.312	-0.212
-606.171	538.584	0.149	-0.361
-605.157	487.138	0.024	0.056
-604.142	519.292	0.088	-0.210
-603.128	-43.909	-0.325	0.166
-602.113	12.162	-0.093	-0.073
-601.098	-19.677	-0.110	-0.069
-600.084	800.000	-0.044	-0.176
-599.069	-200.000	-0.017	0.248
-598.055	-67.044	-0.134	0.054
-597.040	800.000	0.084	0.248
-596.025	-200.000	0.027	0.161
-595.011	800.000	0.038	-0.144
-593.996	21.909	0.254	-0.211
-592.982	-200.000	0.042	0.231
-591.967	-200.000	0.046	0.216
-590.952	-200.000	0.018	0.197
-589.938	68.472	0.182	-0.190
-588.923	3.109	0.223	-0.165
-587.909	225.566	-0.116	0.192
-586.894	-200.000	0.006	-0.183
-585.879	800.000	0.064	-0.218
-584.865	2.382	-0.113	-0.083
-583.850	-200.000	0.037	0.274
-582.836	-44.655	0.059	0.030
-581.821	41.653	-0.217	0.200
-580.806	48.634	-0.199	-0.190
-579.792	-26.473	0.468	-0.279
-578.777	-62.320	-0.102	-0.043
-577.763	-155.506	-0.146	-0.010
-576.748	-40.872	0.078	-0.041
-575.733	67.436	0.152	-0.158
-574.719	-68.072	-0.307	0.122
-573.704	-41.925	0.157	-0.082
-572.690	405.036	-0.073	0.157
-571.675	24.086	-0.292	0.245
-570.661	49.416	0.421	0.403
-569.646	-67.602	-0.119	0.048
-568.631	536.991	-0.055	-0.134
-567.617	17.566	-0.118	-0.095
-566.602	-185.125	0.100	0.002
-565.588	-21.318	0.145	0.090
-564.573	-200.000	0.031	-0.179
-563.558	-200.000	-0.010	-0.076
-562.544	-200.000	0.054	-0.311
-561.529	465.380	0.075	-0.171
-560.515	-77.060	0.147	-0.052
-559.500	-32.082	0.322	-0.183
-558.485	101.574	0.148	0.175
-557.471	196.813	-0.146	0.226
-556.456	129.003	-0.142	-0.185
-555.442	800.000	-0.096	0.333
-554.427	-200.000	0.015	-0.146
-553.412	247.340	-0.038	-0.065
-552.398	36.704	-0.146	-0.131
-551.383	-200.000	0.011	-0.192
-550.369	457.237	0.079	-0.178
-549.354	-134.702	-0.109	-0.013
-548.339	-200.000	-0.013	0.136
-547.325	390.644	-0.032	0.067
-546.310	-134.481	-0.141	-0.018
-545.296	800.000	0.024	-0.071
-544.281	-200.000	-0.005	0.084
-543.266	95.109	-0.162	0.188
-542.252	-86.079	-0.208	-0.065
-541.237	-12.039	-0.124	-0.082
-540.223	-26.760	-0.211	0.125
-539.208	252.576	0.087	-0.151
-538.193	-143.456	0.236	-0.023
-537.179	274.766	0.062	0.112
-536.164	156.352	-0.061	0.085
-535.150	125.638	0.021	-0.028
-534.135	187.186	0.251	-0.381
-533.121	-71.808	-0.085	-0.032
-532.106	800.000	0.100	-0.409
-531.091	319.907	0.192	-0.369
-530.077	113.322	-0.088	-0.108
-529.062	800.000	0.046	0.198
-528.048	800.000	-0.039	0.149
-527.033	329.333	-0.122	0.239
-526.018	96.135	-0.112	0.130
-525.004	58.978	0.170	-0.170
-523.989	156.852	-0.094	0.131
-522.975	-48.213	-0.240	0.118
-521.960	631.837	0.025	0.063
-520.945	-108.233	0.199	-0.044
-519.931	17.780	0.086	-0.070
-518.916	57.189	0.238	0.236
-517.902	-45.939	0.067	-0.033
-516.887	-34.925	-0.147	-0.081
-515.872	-112.120	-0.168	-0.034
-514.858	266.210	-0.033	-0.058
-513.843	-129.528	-0.155	-0.022
-512.829	324.939	-0.125	-0.243
-511.814	-200.000	-0.038	-0.181
-510.799	269.931	-0.163	-0.291
-509.785	-200.000	0.025	0.341
-508.770	-176.941	0.270	-0.007
-507.756	111.560	0.081	-0.099
-506.741	5.928	-0.180	-0.135
-505.726	233.722	0.167	0.278
-504.712	-112.451	-0.124	0.025
-503.697	19.089	-0.251	0.204
-502.683	-200.000	0.009	0.238
-501.668	800.000	0.068	0.259
-500.653	24.749	-0.139	0.117
-499.639	-200.000	0.019	-0.216
-498.624	-181.040	0.377	-0.008
-497.610	-200.000	-0.002	0.104
-496.595	800.000	0.085	-0.369
-495.581	-81.400	-0.330	-0.110
-494.566	-165.613	-0.164	-0.007
-493.551	63.169	0.212	-0.215
-492.537	800.000	-0.020	-0.069
-491.522	281.131	0.149	-0.271
-490.508	-17.076	0.153	-0.098
-489.493	83.768	-0.111	-0.123
-488.478	-72.885	0.135	0.050
-487.464	-173.467	-0.178	0.005
-486.449	-159.656	-0.428	-0.024
-485.435	159.893	-0.228	-0.322
-484.420	198.688	0.071	-0.110
-483.405	-200.000	-0.006	0.188
-482.391	-92.713	-0.296	-0.084
-481.376	37.727	0.097	0.087
-480.362	-141.367	-0.037	0.004
-479.347	-34.710	-0.061	-0.034
-478.332	-30.598	-0.127	0.073
-477.318	800.000	0.085	0.349
-476.303	126.487	-0.201	-0.258
-475.289	-200.000	-0.027	-0.336
-474.274	-29.391	0.278	-0.161
-473.259	285.604	0.034	0.063
-472.245	-47.783	-0.245	0.120
-471.230	-115.327	0.094	-0.018
-470.216	-42.783	-0.365	0.188
-469.201	722.439	0.116	-0.313
-468.186	-200.000	0.006	-0.324
-467.172	-97.109	0.226	0.060
-466.157	161.181	0.015	0.021
-465.143	-82.732	-0.086	-0.028
-464.128	-7.391	0.160	-0.109
-463.113	370.966	0.042	-0.087
-462.099	301.345	-0.079	-0.147
-461.084	626.341	-0.079	-0.201
-460.070	-2.611	0.058	-0.041
-459.055	74.693	-0.185	0.197
-458.040	-200.000	0.019	0.230
-457.026	-81.372	0.177	-0.059
-456.011	-75.011	-0.224	-0.081
-454.997	800.000	-0.103	0.375
-453.982	800.000	0.039	-0.136
-452.968	-133.491	0.195	0.025
-451.953	-151.109	0.145	0.011
-450.938	-89.526	-0.280	0.083
-449.924	800.000	-0.061	-0.205
-448.909	169.974	-0.209	-0.303
-447.895	94.301	0.268	0.308
-446.880	-71.274	-0.242	-0.092
-445.865	800.000	0.085	0.254
-444.851	251.023	0.127	0.218
-443.836	189.218	0.061	-0.093
-442.822	409.632	-0.064	-0.137
-441.807	292.417	0.098	-0.180
-440.792	-200.000	-0.015	0.070
-439.778	43.841	-0.068	0.063
-438.763	-134.746	0.069	-0.009
-437.749	762.822	0.030	0.081
-436.734	158.037	0.201	0.282
-435.719	-200.000	-0.009	0.077
-434.705	-200.000	0.033	-0.234
-433.690	800.000	-0.108	-0.381
-432.676	2.619	-0.226	0.166
-431.661	-200.000	0.000	0.255
-430.646	14.495	0.046	0.036
-429.632	-151.996	0.087	0.006
-428.617	-148.045	0.199	-0.017
-427.603	800.000	0.021	0.071
-426.588	7.870	0.096	-0.073
-425.573	-51.375	-0.211	0.100
-424.559	-200.000	-0.095	0.436
-423.544	-200.000	-0.078	0.389
-422.530	-121.554	-0.416	0.070
-421.515	-200.000	-0.040	0.249
-420.500	110.123	0.110	0.133
-419.486	-50.081	-0.364	-0.174
-418.471	64.568	-0.054	0.055
-417.457	75.294	-0.095	-0.102
-416.442	5.284	-0.215	-0.160
-415.428	800.000	0.057	-0.190
-414.413	-133.077	-0.148	0.019
-413.398	-144.437	-0.348	0.033
-412.384	-173.247	0.247	-0.008
-411.369	-149.981	-0.335	-0.026
-410.355	-76.182	0.287	-0.102
-409.340	207.375	-0.054	-0.085
-408.325	126.685	0.047	-0.061
-407.311	-91.342	-0.192	0.056
-406.296	-200.000	0.013	0.295
-405.282	-194.672	0.213	0.002
-404.267	43.057	-0.172	0.159
-403.252	-63.276	0.232	0.097
-402.238	-200.000	0.050	0.294
-401.223	-157.706	0.214	-0.013
-400.209	329.694	-0.060	0.116
-399.194	30.675	-0.263	0.227
-398.179	50.094	0.082	-0.078
-397.165	-81.899	-0.252	0.083
-396.150	800.000	-0.076	-0.328
-395.136	-175.623	0.134	-0.004
-394.121	153.634	-0.090	-0.124
-393.106	-84.034	-0.104	-0.033
-392.092	-14.410	0.051	-0.033
-391.077	6.425	0.152	-0.114
-390.063	-38.262	-0.146	-0.078
-389.048	-125.804	-0.214	0.033
-388.033	127.000	-0.098	-0.125
-387.019	-200.000	-0.000	-0.150
-386.004	265.352	-0.025	-0.044
-384.990	140.227	0.037	-0.049
-383.975	-200.000	0.025	0.174
-382.960	211.151	-0.087	0.138
-381.946	-200.000	0.001	0.035
-380.931	-89.227	0.149	-0.044
-379.917	210.209	0.070	-0.111
-378.902	-78.206	-0.213	0.074
-377.888	-200.000	0.015	-0.300
-376.873	-200.000	-0.003	-0.038
-375.858	83.881	-0.073	0.080
-374.844	-200.000	0.036	0.191
-373.829	209.747	-0.170	0.269
-372.815	248.264	0.161	0.276
-371.800	800.000	-0.011	0.044
-370.785	-112.036	0.097	0.020
-369.771	-87.481	0.372	0.114
-368.756	-104.661	0.341	0.079
-367.742	-200.000	0.010	-0.148
-366.727	-200.000	0.023	-0.280
-365.712	54.429	0.226	0.219
-364.698	-200.000	0.033	-0.192
-363.683	-200.000	-0.004	-0.116
-362.669	-200.000	0.007	0.154
-361.654	-96.105	-0.325	-0.087
-360.639	-61.670	0.262	0.111
-359.625	135.917	0.042	0.056
-358.610	99.847	-0.117	-0.137
-357.596	64.203	0.163	-0.165
-356.581	-200.000	-0.025	-0.169
-355.566	-20.866	0.166	0.103
-354.552	-176.776	0.309	0.008
-353.537	-70.701	0.293	0.112
-352.523	211.190	0.070	0.111
-351.508	502.270	0.127	0.296
-350.493	-182.732	0.476	-0.009
-349.479	-123.730	0.160	-0.026
-348.464	161.514	-0.259	-0.366
-347.450	-43.133	0.290	-0.148
-346.435	-200.000	0.054	-0.274
-345.420	-83.341	0.093	0.030
-344.406	146.875	0.097	0.131
-343.391	-13.129	0.365	-0.239
-342.377	-200.000	0.021	0.219
-341.362	-200.000	0.061	0.311
-340.348	151.369	0.085	0.117
-339.333	-200.000	0.042	-0.359
-338.318	2.453	-0.271	-0.198
-337.304	506.197	0.117	-0.274
-336.289	-171.230	0.410	-0.014
-335.275	-200.000	0.002	-0.098
-334.260	-29.140	0.141	0.081
-333.245	-87.011	0.415	0.127
-332.231	39.257	-0.055	0.050
-331.216	-3.056	-0.252	0.177
-330.202	266.327	-0.268	0.471
-329.187	-140.582	0.445	-0.047
-328.172	-117.808	0.116	-0.021
-327.158	-175.655	-0.400	-0.011
-326.143	-147.971	-0.168	-0.014
-325.129	-200.000	-0.027	-0.204
-324.114	-200.000	-0.015	0.449
-323.099	-39.420	0.187	-0.099
-322.085	-127.119	-0.146	-0.021
-321.070	-200.000	0.003	0.082
-320.056	-29.577	0.055	0.032
-319.041	-200.000	-0.024	-0.308
-318.026	-64.908	-0.134	0.054
-317.012	-3.430	0.064	0.045
-315.997	-7.977	0.198	0.134
-314.983	-143.086	0.243	-0.024
-313.968	-139.866	-0.206	-0.022
-312.953	-91.644	0.434	-0.124
-311.939	36.185	0.113	0.100
-310.924	245.683	0.058	0.099
-309.910	353.145	0.050	0.100
-308.895	-182.190	-0.160	-0.003
-307.880	-11.037	-0.232	-0.154
-306.866	5.571	-0.109	0.081
-305.851	62.442	0.049	0.049
-304.837	-177.303	-0.118	0.003
-303.822	44.216	0.066	0.061
-302.807	-200.000	-0.022	-0.369
-301.793	554.480	0.024	0.059
-300.778	153.213	-0.188	0.258
-299.764	-149.103	0.253	-0.020
-298.749	163.806	-0.019	-0.026
-297.735	-200.000	-0.029	-0.211
-296.720	800.000	-0.043	-0.161
-295.705	51.190	-0.116	-0.110
-294.691	42.123	0.149	0.136
-293.676	213.568	0.157	-0.250
-292.662	800.000	0.057	0.197
-291.647	-200.000	-0.038	0.181
-290.632	-200.000	-0.036	-0.461
-289.618	18.064	0.422	-0.338
-288.603	346.347	-0.030	-0.060
-287.589	512.160	0.096	0.226
-286.574	556.254	-0.014	0.035
-285.559	-3.996	0.231	0.161
-284.545	351.732	-0.166	0.331
-283.530	705.954	0.010	-0.026
-282.516	-200.000	0.022	0.120
-281.501	-87.853	-0.282	-0.085
-280.486	-28.439	-0.283	0.164
-279.472	-165.608	0.219	0.010
-278.457	-200.000	-0.041	0.216
-277.443	43.544	-0.187	0.172
-276.428	41.952	0.159	0.145
-275.413	8.352	0.171	0.129
-274.399	409.649	-0.109	-0.232
-273.384	382.058	-0.079	-0.162
-272.370	800.000	-0.012	0.034
-271.355	-162.040	-0.181	-0.009
-270.340	83.306	-0.093	0.101
-269.326	518.457	0.064	-0.151
-268.311	-200.000	-0.006	0.376
-267.297	283.249	-0.036	0.064
-266.282	-19.828	0.076	0.047
-265.267	-164.444	-0.267	0.012
-264.253	613.483	-0.059	0.148
-263.238	-72.482	-0.026	0.010
-262.224	503.908	0.035	-0.082
-261.209	-162.334	0.254	0.013
-260.195	362.591	0.088	0.177
-259.180	113.503	0.020	-0.025
-258.165	-49.200	0.087	0.042
-257.151	79.054	0.214	-0.230
-256.136	131.785	0.082	-0.106
-255.122	-55.789	-0.073	0.033
-254.107	-58.152	-0.222	-0.097
-253.092	91.221	0.054	0.061
-252.078	65.703	-0.159	-0.161
-251.063	-61.304	0.297	-0.125
-250.049	-125.431	-0.165	0.025
-249.034	-200.000	-0.067	0.335
-248.019	191.845	0.138	0.208
-247.005	800.000	0.014	-0.060
-245.990	-46.161	-0.184	0.091
-244.976	562.620	0.085	0.206
-243.961	601.995	0.163	0.406
-242.946	-15.248	0.180	0.116
-241.932	653.559	0.136	-0.350
-240.917	102.954	0.042	0.049
-239.903	428.517	-0.106	0.230
-238.888	151.065	0.148	0.202
-237.873	-84.555	-0.118	-0.037
-236.859	800.000	-0.074	0.306
-235.844	-103.681	0.098	0.023
-234.830	-52.226	0.043	0.020
-233.815	-200.000	-0.005	0.195
-232.800	-200.000	-0.017	-0.135
-231.786	6.244	-0.165	-0.123
-230.771	-124.642	-0.249	-0.039
-229.757	-45.189	0.128	0.064
-228.742	-147.493	-0.187	-0.016
-227.727	800.000	0.043	-0.146
-226.713	-200.000	0.055	-0.246
-225.698	83.634	0.182	0.199
-224.684	-10.677	-0.097	0.065
-223.669	282.779	0.020	0.035
-222.655	-48.661	-0.143	-0.069
-221.640	-72.713	-0.135	-0.050
-220.625	55.899	0.159	0.155
-219.611	593.678	-0.098	0.243
-218.596	-46.300	-0.106	-0.052
-217.582	201.215	-0.140	-0.216
-216.567	22.000	0.212	-0.173
-215.552	24.608	-0.220	-0.183
-214.538	-28.672	-0.199	-0.115
-213.523	-109.577	-0.092	0.020
-212.509	-9.091	0.110	-0.074
-211.494	-55.850	-0.260	-0.116
-210.479	311.836	0.108	0.204
-209.465	141.506	-0.015	-0.020
-208.450	57.178	-0.238	-0.233
-207.436	-200.000	-0.003	-0.215
-206.421	-63.510	-0.224	0.092
-205.406	188.555	-0.190	0.285
-204.392	-78.141	-0.148	0.051
-203.377	-101.152	0.033	0.008
-202.363	26.854	0.165	0.139
-201.348	800.000	-0.007	-0.022
-200.333	-45.678	-0.101	-0.050
-199.319	-58.850	0.401	-0.174
-198.304	800.000	-0.108	0.427
-197.290	212.656	-0.032	0.050
-196.275	199.849	-0.114	-0.175
-195.260	151.356	-0.236	-0.321
-194.246	-200.000	0.019	0.092
-193.231	-200.000	-0.017	0.121
-192.217	-200.000	-0.093	0.411
-191.202	-200.000	-0.023	-0.256
-190.187	131.993	-0.138	-0.177
-189.173	91.480	-0.131	0.148
-188.158	-97.285	0.108	-0.028
-187.144	116.211	-0.261	-0.320
-186.129	-131.361	-0.346	-0.046
-185.114	-14.020	0.257	-0.166
-184.100	27.024	0.113	0.095
-183.085	123.442	0.219	0.275
-182.071	-57.810	0.123	0.054
-181.056	72.067	-0.130	0.135
-180.042	-105.348	-0.136	0.031
-179.027	800.000	-0.034	0.130
-178.012	85.340	-0.270	0.297
-176.998	-151.513	0.154	0.011
-175.983	372.848	0.159	-0.323
-174.969	307.631	0.094	0.175
-173.954	204.773	-0.089	-0.139
-172.939	-94.021	0.124	0.034
-171.925	-43.103	-0.027	0.014
-170.910	43.419	-0.179	0.164
-169.896	800.000	-0.125	0.348
-168.881	-162.045	-0.147	0.007
-167.866	800.000	-0.110	-0.461
-166.852	-166.069	0.116	-0.005
-165.837	-34.642	0.192	0.105
-164.823	191.343	-0.066	0.099
-163.808	503.995	0.186	0.431
-162.793	-111.183	-0.364	0.074
-161.779	-200.000	-0.040	-0.279
-160.764	219.599	0.129	-0.207
-159.750	282.640	0.114	0.204
-158.735	-103.263	0.049	0.012
-157.720	36.466	0.138	-0.122
-156.706	-26.464	0.299	0.176
-155.691	-12.162	-0.260	0.170
-154.677	-200.000	-0.026	-0.430
-153.662	59.069	0.181	0.178
-152.647	-75.862	-0.083	0.030
-151.633	205.724	0.076	-0.118
-150.618	-200.000	-0.020	-0.099
-149.604	125.974	0.256	0.324
-148.589	-200.000	-0.055	0.281
-147.574	-125.472	-0.184	0.028
-146.560	23.261	-0.185	0.152
-145.545	-155.823	0.099	0.006
-144.531	287.239	-0.229	-0.414
-143.516	800.000	0.012	-0.042
-142.502	-0.362	0.194	-0.138
-141.487	-200.000	-0.012	0.116
-140.472	-98.220	0.362	-0.093
-139.458	282.158	0.126	-0.227
-138.443	11.741	0.130	-0.100
-137.429	-103.553	-0.163	-0.038
-136.414	-200.000	0.071	0.376
-135.399	3.305	0.147	0.107
-134.385	800.000	0.049	-0.165
-133.370	800.000	0.112	-0.411
-132.356	-51.433	0.247	-0.115
-131.341	454.656	-0.018	-0.040
-130.326	76.608	-0.193	-0.204
-129.312	81.344	0.059	0.063
-128.297	70.228	-0.303	-0.313
-127.283	249.264	-0.146	-0.247
-126.268	81.345	-0.003	-0.003
-125.253	-151.370	0.392	0.029
-124.239	-200.000	0.052	0.256
-123.224	-52.591	-0.058	-0.027
-122.210	800.000	0.114	-0.332
-121.195	217.076	-0.084	-0.134
