DTS Sentinel unit serial number:	SN413079Multiplexer serial number:	ORYXHardware model number:	OX4-SRSoftware version number:	ORYX F/W v4.00 Oryx Data Collector v3.7.2.0data status	okinstallation	princeton_trtdifferential loss correction	single-endedforward channel	channel 1reverse channel	N/Adate	2019/09/17time	04:46:35forward acquisition time	60.00reverse acquisition time	0.00gamma	496.2192k internal	0.2323k external	0.2323temperature offset calibration	0.9962default loss term (dB/km)	0.3790temperature slope calibration	1.0000multiplexer offset coefficient	1.0000multiplexer slope coefficient	1.0000fibre end	0.00T internal ref (°C)	29.56T ext. ref 1 (°C)	0.13T ext. ref 2 (°C)	24.00length (m)	temperature (°C)	Stokes	anti-Stokes-747.200	-200.000	-0.049	0.228
-746.185	-200.000	0.056	0.322
-745.171	607.960	0.113	0.286
-744.156	800.000	0.100	0.392
-743.142	-138.668	-0.171	-0.019
-742.127	-163.571	-0.301	0.014
-741.112	24.294	0.291	0.243
-740.098	800.000	-0.057	-0.165
-739.083	108.201	0.180	-0.216
-738.069	800.000	0.068	0.228
-737.054	-82.901	-0.181	-0.059
-736.039	273.110	-0.174	-0.310
-735.025	644.871	-0.052	-0.133
-734.010	17.423	-0.216	0.173
-732.996	-114.181	0.309	0.060
-731.981	-200.000	0.016	-0.148
-730.966	63.244	-0.112	0.113
-729.952	12.713	-0.166	0.129
-728.937	-74.049	-0.150	-0.055
-727.923	-200.000	0.083	-0.462
-726.908	-78.957	-0.223	-0.077
-725.894	-75.682	0.441	0.158
-724.879	137.273	-0.083	0.109
-723.864	-70.639	-0.222	-0.085
-722.850	-200.000	-0.034	0.296
-721.835	327.877	0.091	-0.175
-720.821	118.163	-0.057	-0.071
-719.806	105.414	0.065	0.077
-718.791	32.184	0.263	-0.229
-717.777	-113.264	0.346	-0.069
-716.762	-145.378	-0.315	0.029
-715.748	247.332	-0.060	-0.102
-714.733	800.000	0.030	-0.121
-713.718	200.598	-0.076	0.117
-712.704	128.103	-0.137	0.175
-711.689	-52.036	0.112	-0.052
-710.675	800.000	-0.035	0.103
-709.660	-193.817	-0.542	0.005
-708.645	528.953	0.062	0.148
-707.631	-80.232	-0.381	-0.128
-706.616	37.729	0.304	0.272
-705.602	-200.000	0.001	0.555
-704.587	-200.000	-0.038	-0.308
-703.572	-92.335	0.224	-0.064
-702.558	800.000	0.034	-0.125
-701.543	196.783	-0.045	0.070
-700.529	-200.000	0.021	0.136
-699.514	-67.277	-0.496	0.197
-698.499	-200.000	0.076	0.392
-697.485	-200.000	0.028	0.218
-696.470	56.377	-0.240	-0.235
-695.456	758.550	-0.182	-0.496
-694.441	800.000	0.027	-0.086
-693.426	-150.941	-0.096	-0.007
-692.412	-200.000	-0.016	-0.166
-691.397	-171.357	-0.493	0.017
-690.383	-114.177	-0.174	-0.034
-689.368	800.000	-0.047	0.178
-688.354	800.000	0.088	0.248
-687.339	274.719	-0.104	-0.186
-686.324	-200.000	0.019	0.249
-685.310	-116.194	0.307	0.057
-684.295	-40.323	0.101	-0.053
-683.281	757.803	-0.040	0.108
-682.266	-200.000	0.016	-0.371
-681.251	800.000	-0.108	-0.310
-680.237	-58.373	0.090	0.039
-679.222	800.000	0.065	0.189
-678.208	15.367	-0.237	0.188
-677.193	-157.380	-0.081	-0.005
-676.178	-2.334	0.065	-0.046
-675.164	-184.689	0.331	0.005
-674.149	116.579	0.065	-0.080
-673.135	541.440	-0.068	0.164
-672.120	223.392	-0.095	-0.155
-671.105	-200.000	0.002	-0.134
-670.091	90.967	0.168	-0.190
-669.076	30.262	-0.167	-0.143
-668.062	143.928	-0.068	-0.091
-667.047	-200.000	0.018	0.388
-666.032	13.163	0.055	-0.043
-665.018	27.638	-0.267	-0.226
-664.003	-200.000	-0.003	-0.344
-662.989	520.677	0.070	-0.165
-661.974	-73.252	-0.138	0.051
-660.959	-51.876	0.226	0.106
-659.945	-51.003	0.125	-0.059
-658.930	248.080	0.092	0.156
-657.916	-22.671	-0.155	0.095
-656.901	-29.468	0.215	-0.124
-655.886	-131.201	-0.125	-0.017
-654.872	11.399	0.049	0.038
-653.857	-9.932	0.182	-0.122
-652.843	126.140	-0.117	0.149
-651.828	-61.815	-0.078	-0.033
-650.814	60.941	-0.215	0.215
-649.799	124.216	-0.013	0.016
-648.784	800.000	0.019	-0.070
-647.770	-168.153	-0.362	-0.014
-646.755	23.343	0.114	0.095
-645.741	800.000	0.047	0.156
-644.726	-200.000	0.021	-0.163
-643.711	-200.000	-0.041	-0.254
-642.697	346.113	-0.133	-0.263
-641.682	38.178	-0.197	-0.176
-640.668	160.212	0.047	-0.065
-639.653	440.052	-0.103	-0.226
-638.638	-13.600	0.135	0.088
-637.624	384.266	0.044	-0.092
-636.609	99.898	0.229	-0.267
-635.595	-200.000	0.001	0.263
-634.580	28.677	0.220	-0.187
-633.565	-200.000	-0.042	0.310
-632.551	-200.000	0.004	-0.218
-631.536	-200.000	-0.026	-0.272
-630.522	60.405	0.227	-0.226
-629.507	43.167	0.257	-0.236
-628.492	104.627	-0.029	-0.034
-627.478	-200.000	-0.016	-0.080
-626.463	66.214	-0.054	0.055
-625.449	-69.810	-0.139	-0.053
-624.434	-200.000	-0.008	0.219
-623.419	-23.257	0.176	-0.107
-622.405	-118.719	0.084	-0.015
-621.390	170.225	0.039	0.055
-620.376	-200.000	0.081	0.414
-619.361	-65.829	0.262	0.105
-618.346	800.000	-0.027	-0.089
-617.332	58.063	-0.058	0.058
-616.317	800.000	0.107	0.393
-615.303	-200.000	-0.000	0.078
-614.288	109.547	0.251	-0.302
-613.273	71.292	-0.123	-0.129
-612.259	-200.000	0.023	0.182
-611.244	26.526	0.227	0.191
-610.230	463.022	0.029	-0.066
-609.215	-2.510	0.351	0.247
-608.201	-154.372	-0.198	-0.013
-607.186	-114.071	-0.140	-0.027
-606.171	217.524	0.117	-0.187
-605.157	-92.714	-0.041	0.011
-604.142	178.978	-0.077	0.112
-603.128	-100.191	-0.120	0.030
-602.113	-50.475	-0.180	0.085
-601.098	-175.154	-0.404	0.011
-600.084	-70.974	-0.231	0.087
-599.069	-200.000	-0.022	-0.516
-598.055	-156.973	-0.118	-0.007
-597.040	14.624	0.119	0.093
-596.025	-200.000	-0.024	0.228
-595.011	44.374	0.117	-0.108
-593.996	-89.793	0.308	-0.091
-592.982	-173.973	0.162	-0.005
-591.967	-34.464	-0.164	0.090
-590.952	-124.250	-0.541	-0.085
-589.938	800.000	-0.091	-0.334
-588.923	-200.000	-0.006	-0.060
-587.909	78.742	-0.058	0.062
-586.894	340.620	-0.065	-0.128
-585.879	325.962	-0.126	-0.241
-584.865	96.557	-0.174	0.200
-583.850	-73.377	-0.270	-0.099
-582.836	170.795	-0.165	0.238
-581.821	14.942	-0.179	0.140
-580.806	-12.737	0.274	-0.179
-579.792	19.796	-0.258	0.208
-578.777	800.000	0.059	0.214
-577.763	497.644	0.079	0.182
-576.748	188.642	-0.256	-0.385
-575.733	31.208	0.102	-0.088
-574.719	249.879	-0.038	-0.065
-573.704	20.174	-0.145	-0.117
-572.690	-200.000	0.019	0.088
-571.675	39.385	-0.204	0.183
-570.661	-116.097	0.026	-0.005
-569.646	438.974	-0.085	-0.185
-568.631	-200.000	-0.010	0.065
-567.617	241.903	0.150	0.252
-566.602	-200.000	-0.015	0.133
-565.588	800.000	-0.003	-0.012
-564.573	82.083	-0.032	0.035
-563.558	-29.490	0.138	-0.079
-562.544	-138.416	-0.153	0.017
-561.529	293.941	-0.142	0.259
-560.515	-122.242	-0.120	0.020
-559.500	314.960	0.103	-0.195
-558.485	-200.000	0.024	-0.164
-557.471	-17.060	-0.211	0.134
-556.456	7.807	0.157	0.118
-555.442	592.791	0.152	-0.376
-554.427	103.396	0.091	-0.106
-553.412	-200.000	0.041	-0.609
-552.398	-58.291	-0.048	-0.021
-551.383	800.000	-0.097	0.301
-550.369	761.764	-0.061	-0.166
-549.354	-200.000	0.003	-0.193
-548.339	248.801	-0.213	0.361
-547.325	139.766	0.116	0.153
-546.310	174.573	-0.169	0.245
-545.296	601.146	-0.031	0.076
-544.281	243.142	-0.037	0.062
-543.266	-73.153	-0.290	0.106
-542.252	-98.120	-0.283	0.073
-541.237	-176.700	-0.325	0.008
-540.223	-5.356	-0.167	0.115
-539.208	434.963	-0.044	-0.096
-538.193	92.749	0.209	-0.236
-537.179	572.080	-0.054	-0.132
-536.164	207.139	0.103	-0.160
-535.150	-28.958	0.362	0.208
-534.135	-41.758	0.098	-0.050
-533.121	-7.179	0.212	-0.144
-532.106	182.463	0.049	0.072
-531.091	-188.793	0.146	-0.002
-530.077	-16.132	-0.148	-0.094
-529.062	800.000	0.054	-0.181
-528.048	748.235	-0.017	0.046
-527.033	-154.884	-0.092	-0.006
-526.018	55.172	0.079	0.077
-525.004	-136.006	0.319	-0.038
-523.989	22.634	-0.131	-0.107
-522.975	374.023	0.166	-0.338
-521.960	-200.000	-0.002	-0.324
-520.945	800.000	0.078	0.256
-519.931	-200.000	0.005	0.472
-518.916	800.000	-0.112	0.395
-517.902	-38.656	-0.218	0.115
-516.887	339.000	0.133	-0.259
-515.872	-20.175	0.289	-0.178
-514.858	-200.000	-0.025	-0.178
-513.843	-200.000	0.046	-0.246
-512.829	-73.633	0.365	-0.133
-511.814	82.231	0.021	0.022
-510.799	-30.697	-0.096	0.054
-509.785	-51.724	-0.133	-0.062
-508.770	50.638	-0.356	0.338
-507.756	151.078	-0.170	0.232
-506.741	-200.000	0.007	0.298
-505.726	-200.000	0.008	0.093
-504.712	324.905	-0.096	-0.184
-503.697	-112.583	-0.142	-0.028
-502.683	-200.000	0.040	-0.379
-501.668	29.059	-0.198	0.168
-500.653	-88.620	0.157	-0.047
-499.639	514.465	0.049	0.114
-498.624	-135.008	0.338	-0.041
-497.610	-200.000	0.025	0.229
-496.595	-200.000	0.054	-0.278
-495.581	-103.506	0.083	-0.019
-494.566	-81.314	-0.148	-0.049
-493.551	-167.143	-0.175	0.007
-492.537	602.560	0.167	0.416
-491.522	70.250	-0.040	0.041
-490.508	189.055	0.290	-0.435
-489.493	800.000	-0.028	0.094
-488.478	-200.000	0.006	-0.068
-487.464	-37.915	-0.148	-0.078
-486.449	142.212	0.099	0.131
-485.435	-200.000	0.009	0.050
-484.420	-82.940	-0.207	0.067
-483.405	245.085	-0.028	0.047
-482.391	368.240	-0.058	-0.117
-481.376	332.000	0.092	0.177
-480.362	-74.911	0.278	-0.100
-479.347	56.123	-0.356	0.345
-478.332	-120.615	-0.416	-0.070
-477.318	79.204	0.132	0.141
-476.303	-35.031	-0.120	-0.065
-475.289	70.515	-0.030	0.031
-474.274	-200.000	0.003	-0.070
-473.259	800.000	0.016	-0.046
-472.245	365.300	0.144	-0.290
-471.230	-149.265	0.087	0.007
-470.216	180.459	-0.289	0.424
-469.201	45.976	0.208	-0.192
-468.186	535.672	0.075	-0.178
-467.172	-146.495	-0.039	0.003
-466.157	-86.609	-0.363	0.111
-465.143	164.406	0.100	-0.141
-464.128	95.850	-0.163	0.186
-463.113	-200.000	0.005	0.056
-462.099	-23.050	0.230	-0.138
-461.084	-200.000	-0.007	-0.144
-460.070	-46.828	0.158	0.077
-459.055	-200.000	-0.009	0.175
-458.040	800.000	0.059	0.225
-457.026	22.057	0.237	-0.193
-456.011	-26.973	-0.043	0.025
-454.997	-200.000	-0.088	0.387
-453.982	-86.349	0.371	-0.114
-452.968	269.162	0.117	0.205
-451.953	90.712	-0.191	-0.214
-450.938	-149.883	0.093	0.007
-449.924	-200.000	-0.012	0.120
-448.909	97.603	-0.207	0.237
-447.895	20.666	0.157	-0.127
-446.880	269.730	0.084	0.147
-445.865	-200.000	0.017	0.346
-444.851	45.940	0.233	0.215
-443.836	179.996	0.051	0.074
-442.822	800.000	-0.055	-0.237
-441.807	-200.000	-0.006	-0.208
-440.792	-115.862	0.114	-0.021
-439.778	67.674	-0.042	-0.042
-438.763	-1.918	-0.294	-0.207
-437.749	606.887	0.135	0.335
-436.734	-95.503	0.247	0.066
-435.719	86.261	-0.222	0.244
-434.705	120.695	0.047	0.058
-433.690	-90.602	-0.364	-0.105
-432.676	-158.492	0.254	0.015
-431.661	-81.177	-0.471	0.155
-430.646	580.965	0.106	0.260
-429.632	31.381	-0.244	0.209
-428.617	800.000	-0.088	-0.354
-427.603	-74.249	-0.151	-0.055
-426.588	-37.685	-0.242	0.128
-425.573	-135.432	0.197	0.023
-424.559	264.779	-0.151	-0.263
-423.544	16.018	0.152	-0.119
-422.530	458.661	-0.200	-0.444
-421.515	12.633	0.129	-0.099
-420.500	-123.181	0.174	-0.028
-419.486	170.856	0.148	0.211
-418.471	-200.000	0.015	-0.170
-417.457	78.637	0.116	0.124
-416.442	109.371	-0.107	-0.127
-415.428	98.324	-0.114	-0.131
-414.413	-104.110	0.189	0.044
-413.398	68.294	-0.214	0.218
-412.384	-31.954	0.275	0.154
-411.369	33.669	-0.334	-0.290
-410.355	800.000	-0.053	-0.145
-409.340	186.275	0.145	0.215
-408.325	800.000	-0.046	0.189
-407.311	292.507	-0.065	0.117
-406.296	800.000	0.069	0.192
-405.282	-26.993	-0.316	-0.184
-404.267	-200.000	-0.013	-0.198
-403.252	-200.000	-0.011	0.150
-402.238	-119.143	-0.129	0.023
-401.223	-45.303	-0.103	-0.051
-400.209	-154.975	-0.175	-0.011
-399.194	-53.923	-0.168	-0.076
-398.179	47.067	-0.173	0.160
-397.165	268.561	0.057	-0.099
-396.150	157.487	0.175	0.242
-395.136	157.418	0.123	0.169
-394.121	-108.524	0.209	-0.045
-393.106	260.745	-0.071	0.122
-392.092	-74.064	0.220	0.079
-391.077	-200.000	-0.014	-0.116
-390.063	-26.432	0.079	0.046
-389.048	-57.890	-0.340	0.148
-388.033	-200.000	0.033	-0.217
-387.019	-200.000	-0.003	0.036
-386.004	243.681	0.127	0.213
-384.990	-200.000	-0.019	-0.151
-383.975	290.087	-0.087	0.157
-382.960	-168.856	-0.206	-0.008
-381.946	60.126	0.180	0.177
-380.931	-200.000	0.020	0.311
-379.917	749.449	-0.006	-0.016
-378.902	-68.824	0.073	0.028
-377.888	-127.919	-0.245	-0.035
-376.873	629.183	-0.029	-0.072
-375.858	-200.000	-0.035	0.163
-374.844	239.433	0.137	0.228
-373.829	116.247	-0.081	-0.098
-372.815	83.031	-0.184	-0.199
-371.800	-200.000	-0.007	-0.386
-370.785	-115.175	-0.358	0.068
-369.771	98.886	0.127	0.146
-368.756	-54.563	0.105	0.047
-367.742	-200.000	0.005	-0.100
-366.727	97.895	-0.107	0.123
-365.712	83.121	-0.151	-0.163
-364.698	-70.226	0.174	0.066
-363.683	77.874	-0.277	0.294
-362.669	68.407	0.336	0.343
-361.654	800.000	-0.033	-0.127
-360.639	-200.000	-0.007	-0.168
-359.625	800.000	-0.028	0.117
-358.610	16.335	0.174	0.137
-357.596	560.426	-0.128	0.307
-356.581	43.196	0.222	0.201
-355.566	-131.246	-0.374	0.049
-354.552	416.497	0.034	-0.072
-353.537	-27.262	0.111	-0.064
-352.523	-23.336	-0.319	-0.191
-351.508	800.000	0.008	-0.029
-350.493	578.613	-0.033	-0.080
-349.479	-200.000	0.001	-0.020
-348.464	-95.871	-0.378	0.100
-347.450	62.379	0.065	0.064
-346.435	-200.000	0.007	0.075
-345.420	-56.919	0.168	0.074
-344.406	-200.000	-0.027	0.387
-343.391	195.507	-0.085	0.129
-342.377	104.164	-0.110	-0.129
-341.362	97.901	-0.075	0.086
-340.348	800.000	-0.058	0.239
-339.333	-16.735	-0.035	0.022
-338.318	-100.330	-0.246	0.061
-337.304	81.212	0.087	-0.094
-336.289	74.619	0.162	0.169
-335.275	11.860	-0.266	-0.203
-334.260	-200.000	-0.010	-0.219
-333.245	800.000	-0.057	0.184
-332.231	-200.000	0.039	-0.237
-331.216	-57.307	-0.191	0.084
-330.202	369.390	0.080	-0.161
-329.187	113.988	-0.092	0.112
-328.172	800.000	-0.012	0.035
-327.158	333.951	-0.036	-0.069
-326.143	-200.000	-0.115	-0.506
-325.129	33.689	0.196	-0.169
-324.114	-143.930	-0.054	0.005
-323.099	-59.444	0.157	-0.067
-322.085	172.714	-0.220	-0.315
-321.070	0.301	0.095	0.068
-320.056	4.707	-0.168	-0.123
-319.041	30.532	-0.157	-0.134
-318.026	-48.584	0.150	-0.072
-317.012	88.102	0.237	-0.261
-315.997	-3.857	-0.439	-0.303
-314.983	-21.286	0.108	0.065
-313.968	-200.000	-0.043	0.228
-312.953	-200.000	-0.063	-0.511
-311.939	71.407	0.177	0.183
-310.924	-171.602	-0.207	0.007
-309.910	-16.422	0.095	-0.060
-308.895	-3.602	0.304	-0.210
-307.880	18.703	-0.070	0.055
-306.866	10.588	-0.106	0.080
-305.851	-89.156	-0.130	-0.038
-304.837	-58.741	-0.092	0.040
-303.822	-89.892	-0.167	0.049
-302.807	-200.000	0.037	0.231
-301.793	122.392	0.235	-0.292
-300.778	-200.000	0.013	-0.357
-299.764	-70.278	-0.217	0.082
-298.749	-129.192	0.161	0.022
-297.735	89.239	-0.043	-0.047
-296.720	478.758	-0.105	-0.236
-295.705	-200.000	-0.049	0.264
-294.691	161.259	0.058	-0.080
-293.676	177.969	-0.044	-0.064
-292.662	284.244	0.091	-0.162
-291.647	-200.000	-0.022	0.190
-290.632	-135.684	0.074	0.009
-289.618	800.000	0.068	0.214
-288.603	-23.004	0.111	-0.066
-287.589	634.244	-0.040	-0.101
-286.574	-200.000	-0.029	-0.282
-285.559	-121.428	0.210	0.035
-284.545	-200.000	-0.003	0.171
-283.530	375.417	-0.155	-0.314
-282.516	108.779	0.336	0.398
-281.501	-94.796	0.329	-0.089
-280.486	-200.000	-0.030	-0.286
-279.472	64.859	-0.233	0.233
-278.457	615.350	-0.122	-0.303
-277.443	14.429	0.123	-0.095
-276.428	677.530	-0.056	-0.143
-275.413	105.493	-0.260	-0.305
-274.399	800.000	0.061	0.197
-273.384	800.000	0.114	-0.413
-272.370	286.863	-0.156	0.279
-271.355	800.000	-0.061	0.173
-270.340	71.780	0.064	-0.066
-269.326	30.717	0.131	0.111
-268.311	169.571	-0.372	-0.527
-267.297	-39.904	0.109	-0.056
-266.282	-104.719	0.253	0.058
-265.267	-26.963	0.184	-0.106
-264.253	127.075	0.235	-0.295
-263.238	45.628	0.220	0.202
-262.224	-200.000	-0.033	-0.242
-261.209	232.051	0.196	0.319
-260.195	-65.134	-0.083	0.033
-259.180	104.404	-0.145	0.169
-258.165	36.188	0.318	0.277
-257.151	41.259	-0.152	-0.136
-256.136	-20.071	-0.250	-0.153
-255.122	-65.289	0.280	-0.112
-254.107	-5.346	0.052	-0.036
-253.092	137.516	-0.062	0.080
-252.078	27.405	-0.291	0.243
-251.063	398.442	-0.059	0.122
-250.049	97.856	0.217	0.248
-249.034	88.867	0.072	-0.079
-248.019	-94.160	-0.229	0.062
-247.005	-200.000	-0.065	0.373
-245.990	-38.409	0.205	-0.107
-244.976	591.888	0.110	-0.268
-243.961	-200.000	-0.016	-0.126
-242.946	-200.000	0.003	-0.398
-241.932	256.956	0.081	0.137
-240.917	11.779	-0.063	-0.048
-239.903	-152.380	0.146	-0.010
-238.888	-42.015	-0.199	0.101
-237.873	-200.000	0.011	-0.290
-236.859	335.672	0.113	0.217
-235.844	800.000	-0.051	-0.197
-234.830	-148.076	0.123	-0.010
-233.815	149.241	0.152	0.204
-232.800	-144.077	-0.154	0.014
-231.786	-166.133	-0.029	-0.001
-230.771	-161.930	0.288	-0.014
-229.757	59.222	0.152	0.148
-228.742	23.441	0.256	-0.209
-227.727	-200.000	-0.026	0.225
-226.713	124.164	-0.038	0.047
-225.698	-126.930	0.366	0.053
-224.684	-109.202	-0.378	-0.079
-223.669	308.631	-0.144	0.267
-222.655	-200.000	-0.005	-0.267
-221.640	800.000	0.134	0.394
-220.625	-200.000	-0.028	0.120
-219.611	-200.000	0.014	0.078
-218.596	677.896	-0.056	0.143
-217.582	-200.000	-0.045	0.414
-216.567	-2.749	0.180	0.124
-215.552	-183.767	-0.187	-0.003
-214.538	-56.141	0.222	-0.098
-213.523	367.351	0.037	-0.074
-212.509	-200.000	-0.001	-0.264
-211.494	-79.193	0.236	0.079
-210.479	-33.167	-0.093	-0.051
-209.465	-200.000	-0.018	-0.265
-208.450	-200.000	0.020	0.205
-207.436	-192.941	-0.147	0.001
-206.421	-49.931	0.335	0.157
-205.406	-0.574	0.104	0.073
-204.392	66.131	0.149	0.149
-203.377	-200.000	-0.026	-0.147
-202.363	132.640	0.076	-0.097
-201.348	-200.000	0.020	0.170
-200.333	378.581	0.065	0.132
-199.319	-195.948	0.365	-0.003
-198.304	-140.717	0.195	-0.020
-197.290	63.821	0.368	-0.365
-196.275	14.261	-0.256	-0.198
-195.260	-146.714	0.196	0.017
-194.246	-73.584	0.173	0.062
-193.231	-200.000	0.022	-0.125
-192.217	-129.541	-0.099	-0.014
-191.202	-91.995	-0.358	-0.100
-190.187	-67.368	-0.206	-0.080
-189.173	15.697	-0.094	0.073
-188.158	800.000	0.068	0.260
-187.144	-7.940	0.135	-0.090
-186.129	-200.000	-0.040	-0.210
-185.114	105.170	0.159	-0.186
-184.100	-112.535	0.450	0.089
-183.085	-200.000	-0.023	0.223
-182.071	92.068	0.249	0.277
-181.056	627.714	-0.100	0.250
-180.042	-200.000	0.039	0.182
-179.027	-200.000	-0.025	0.128
-178.012	-200.000	-0.010	-0.252
-176.998	-200.000	0.002	-0.041
-175.983	38.311	0.158	0.139
-174.969	-29.639	-0.134	0.076
-173.954	100.268	0.261	0.299
-172.939	-73.364	0.214	0.077
-171.925	-200.000	0.003	-0.051
-170.910	-200.000	-0.044	-0.195
-169.896	-58.446	-0.200	-0.086
-168.881	472.579	-0.078	-0.173
-167.866	178.830	-0.187	-0.270
-166.852	800.000	-0.146	-0.400
-165.837	-30.274	-0.212	-0.119
-164.823	-83.794	0.188	0.059
-163.808	800.000	0.070	0.216
-162.793	-78.062	0.374	-0.127
-161.779	-200.000	0.001	0.059
-160.764	-200.000	-0.012	0.134
-159.750	-105.037	0.322	0.073
-158.735	-200.000	-0.011	0.196
-157.720	92.856	0.043	-0.048
-156.706	-40.873	0.178	-0.091
-155.691	0.162	0.163	-0.115
-154.677	-15.259	-0.377	-0.238
-153.662	-42.690	0.456	0.229
-152.647	65.537	0.159	0.158
-151.633	-91.862	-0.250	0.070
-150.618	-15.093	0.109	-0.069
-149.604	-200.000	-0.050	-0.302
-148.589	43.972	0.232	0.210
-147.574	-115.651	0.184	0.034
-146.560	-200.000	0.028	0.426
-145.545	-19.687	0.334	-0.204
-144.531	23.766	-0.125	0.101
-143.516	-200.000	0.016	0.102
-142.502	643.640	-0.036	0.090
-141.487	65.211	0.228	-0.227
-140.472	800.000	0.039	-0.116
-139.458	15.663	0.235	0.182
-138.443	-45.210	0.122	-0.060
-137.429	-132.506	-0.185	-0.023
-136.414	800.000	0.043	0.171
-135.399	30.232	-0.004	0.004
-134.385	104.639	-0.136	0.158
-133.370	-200.000	-0.045	-0.225
-132.356	463.458	-0.042	0.093
-131.341	-200.000	0.009	0.097
-130.326	-50.831	0.453	0.210
-129.312	-200.000	0.008	0.056
-128.297	-148.469	-0.065	-0.005
-127.283	310.030	0.057	-0.106
-126.268	-121.339	-0.440	-0.072
-125.253	-43.289	-0.140	0.070
-124.239	-200.000	-0.036	-0.220
-123.224	4.050	-0.183	-0.132
-122.210	-200.000	-0.005	-0.157
-121.195	-13.625	-0.163	-0.104
