DTS Sentinel unit serial number:	SN413079Multiplexer serial number:	ORYXHardware model number:	OX4-SRSoftware version number:	ORYX F/W v4.00 Oryx Data Collector v3.7.2.0data status	okinstallation	princeton_trtdifferential loss correction	single-endedforward channel	channel 1reverse channel	N/Adate	2019/09/14time	11:50:35forward acquisition time	60.00reverse acquisition time	0.00gamma	496.2192k internal	0.2296k external	0.2296temperature offset calibration	1.0085default loss term (dB/km)	0.3790temperature slope calibration	1.0000multiplexer offset coefficient	1.0000multiplexer slope coefficient	1.0000fibre end	0.00T internal ref (°C)	37.12T ext. ref 1 (°C)	4.63T ext. ref 2 (°C)	34.13length (m)	temperature (°C)	Stokes	anti-Stokes-747.200	-39.624	0.289	-0.154
-746.185	-30.463	0.029	0.017
-745.171	46.245	-0.280	-0.265
-744.156	-200.000	-0.044	-0.403
-743.142	189.241	0.181	0.277
-742.127	800.000	-0.103	0.379
-741.112	0.775	-0.066	0.048
-740.098	-134.527	0.153	0.019
-739.083	-24.882	0.075	0.046
-738.069	263.932	0.033	-0.058
-737.054	63.285	-0.166	-0.170
-736.039	-59.429	-0.170	-0.075
-735.025	130.166	-0.154	-0.201
-734.010	-62.373	-0.165	0.070
-732.996	8.381	-0.141	0.108
-731.981	-200.000	-0.022	-0.284
-730.966	-67.691	0.114	0.045
-729.952	-129.109	-0.164	-0.023
-728.937	-120.961	-0.094	-0.016
-727.923	-200.000	-0.027	0.404
-726.908	-51.918	0.158	-0.075
-725.894	-181.104	-0.131	0.003
-724.879	-200.000	0.008	0.263
-723.864	323.778	0.100	-0.196
-722.850	138.405	-0.151	-0.202
-721.835	-86.440	-0.348	0.109
-720.821	39.517	0.305	-0.279
-719.806	143.350	0.014	0.019
-718.791	-200.000	-0.060	-0.505
-717.777	-200.000	0.032	0.175
-716.762	-167.185	0.254	0.011
-715.748	-154.259	-0.114	-0.008
-714.733	-64.654	-0.215	0.089
-713.718	379.730	-0.135	-0.282
-712.704	-22.071	0.075	0.046
-711.689	-157.891	-0.335	0.020
-710.675	262.625	-0.113	-0.200
-709.660	-141.377	0.079	0.008
-708.645	-148.757	0.050	0.004
-707.631	-200.000	-0.015	-0.137
-706.616	229.587	-0.066	-0.110
-705.602	-81.860	0.183	0.061
-704.587	140.181	0.078	-0.105
-703.572	-124.390	-0.267	-0.042
-702.558	138.526	0.064	-0.086
-701.543	-68.140	-0.154	0.061
-700.529	-86.408	0.178	-0.056
-699.514	-200.000	0.013	0.230
-698.499	-70.618	0.237	0.091
-697.485	-200.000	-0.016	0.156
-696.470	36.720	0.327	-0.294
-695.456	77.124	0.130	0.141
-694.441	-200.000	-0.103	-0.472
-693.426	66.591	-0.294	-0.304
-692.412	-29.877	-0.093	-0.054
-691.397	-17.349	-0.136	0.087
-690.383	-31.698	-0.328	0.188
-689.368	-107.023	0.179	-0.040
-688.354	-40.407	-0.332	0.176
-687.339	-188.150	-0.228	-0.003
-686.324	8.630	-0.289	0.222
-685.310	-137.976	-0.142	-0.016
-684.295	800.000	-0.107	-0.434
-683.281	-170.221	-0.169	-0.006
-682.266	-200.000	-0.006	0.039
-681.251	62.022	-0.352	0.358
-680.237	800.000	-0.012	-0.039
-679.222	800.000	-0.078	0.234
-678.208	-159.906	0.293	-0.016
-677.193	68.105	0.215	0.224
-676.178	-200.000	0.017	0.333
-675.164	83.480	0.054	0.060
-674.149	196.039	0.220	-0.341
-673.135	-200.000	0.029	-0.253
-672.120	-200.000	0.028	-0.364
-671.105	-200.000	-0.012	0.144
-670.091	-107.334	-0.036	0.008
-669.076	114.521	-0.181	0.224
-668.062	58.809	0.289	-0.289
-667.047	264.184	0.158	-0.279
-666.032	-97.965	-0.045	-0.012
-665.018	328.403	0.075	-0.146
-664.003	-200.000	0.014	-0.088
-662.989	200.008	-0.097	0.152
-661.974	-84.717	0.109	-0.035
-660.959	-154.399	0.106	-0.007
-659.945	9.181	0.029	-0.023
-658.930	31.805	-0.066	0.058
-657.916	-40.570	-0.068	-0.036
-656.901	139.519	-0.188	0.252
-655.886	-75.505	-0.067	0.024
-654.872	2.816	0.267	-0.197
-653.857	800.000	0.083	-0.343
-652.843	60.933	-0.196	-0.198
-651.828	-18.368	0.115	-0.073
-650.814	410.252	0.033	-0.071
-649.799	-127.569	0.097	0.014
-648.784	15.628	-0.278	0.222
-647.770	-200.000	0.028	0.185
-646.755	675.127	0.061	-0.160
-645.741	-8.365	-0.352	0.241
-644.726	208.304	0.162	-0.257
-643.711	-200.000	0.019	-0.112
-642.697	-200.000	-0.042	0.190
-641.682	-200.000	-0.004	0.195
-640.668	-132.072	0.398	0.053
-639.653	800.000	-0.105	0.341
-638.638	-104.662	-0.157	0.037
-637.624	-65.671	-0.322	-0.131
-636.609	-200.000	-0.021	-0.126
-635.595	357.804	-0.100	-0.204
-634.580	-117.898	-0.273	0.050
-633.565	-50.247	-0.430	0.207
-632.551	-79.901	0.347	-0.119
-631.536	-45.256	-0.105	0.053
-630.522	23.434	0.168	-0.140
-629.507	-200.000	-0.004	-0.118
-628.492	167.702	-0.150	-0.217
-627.478	800.000	-0.039	-0.126
-626.463	-39.244	0.173	-0.092
-625.449	-200.000	0.189	-0.001
-624.434	173.715	-0.127	0.186
-623.419	56.548	0.147	-0.145
-622.405	-55.834	0.162	-0.073
-621.390	-78.416	0.064	0.022
-620.376	800.000	0.040	0.177
-619.361	-95.607	-0.100	0.027
-618.346	-72.741	0.244	0.091
-617.332	-63.349	0.086	-0.036
-616.317	70.315	0.157	0.165
-615.303	85.718	-0.134	0.150
-614.288	3.271	-0.172	-0.127
-613.273	164.227	0.168	-0.241
-612.259	-63.971	0.058	-0.024
-611.244	166.169	-0.186	0.267
-610.230	-54.471	0.195	-0.090
-609.215	-29.038	0.273	0.159
-608.201	-26.274	-0.069	0.041
-607.186	800.000	0.057	-0.175
-606.171	800.000	-0.048	0.186
-605.157	-58.909	0.244	0.107
-604.142	34.662	-0.259	0.230
-603.128	-135.473	0.184	-0.022
-602.113	-62.923	-0.195	0.082
-601.098	-200.000	-0.040	-0.180
-600.084	-195.432	0.040	0.000
-599.069	351.629	0.016	0.032
-598.055	-200.000	-0.052	0.298
-597.040	436.746	0.078	0.172
-596.025	-177.590	0.114	-0.003
-595.011	18.078	-0.370	-0.300
-593.996	-40.642	0.090	-0.048
-592.982	-200.000	-0.015	0.298
-591.967	-200.000	-0.004	-0.117
-590.952	-152.725	0.479	0.035
-589.938	-200.000	0.011	-0.212
-588.923	-200.000	-0.004	0.146
-587.909	-79.255	-0.350	0.121
-586.894	430.870	0.046	0.101
-585.879	0.362	0.136	0.099
-584.865	-200.000	0.002	-0.122
-583.850	355.223	0.112	0.226
-582.836	188.005	-0.065	0.099
-581.821	-170.441	-0.188	0.007
-580.806	-64.459	-0.278	-0.115
-579.792	169.966	0.139	-0.202
-578.777	-200.000	-0.037	0.259
-577.763	-106.784	-0.053	0.012
-576.748	101.157	0.231	0.273
-575.733	58.902	-0.042	-0.042
-574.719	-152.480	-0.083	0.006
-573.704	51.637	-0.066	0.064
-572.690	-187.815	-0.188	0.002
-571.675	-35.729	0.292	0.160
-570.661	23.083	-0.116	-0.097
-569.646	-155.636	0.337	0.022
-568.631	-82.350	0.198	-0.065
-567.617	-6.226	-0.204	0.141
-566.602	-200.000	-0.011	0.162
-565.588	668.427	-0.094	-0.247
-564.573	116.302	0.328	-0.408
-563.558	150.106	-0.071	-0.097
-562.544	-23.225	-0.069	0.042
-561.529	-200.000	-0.013	-0.276
-560.515	800.000	-0.074	-0.243
-559.500	165.112	-0.111	0.159
-558.485	-48.199	-0.070	-0.034
-557.471	81.454	-0.128	0.141
-556.456	94.689	0.146	0.169
-555.442	194.748	-0.136	0.209
-554.427	115.585	-0.086	0.106
-553.412	-200.000	-0.001	-0.159
-552.398	-102.893	0.122	0.029
-551.383	-186.358	-0.274	-0.004
-550.369	-200.000	0.010	0.144
-549.354	268.423	0.115	0.204
-548.339	-55.413	-0.156	0.071
-547.325	-9.981	-0.294	-0.198
-546.310	6.794	-0.047	-0.035
-545.296	-52.298	0.394	-0.185
-544.281	67.685	-0.074	-0.077
-543.266	-159.582	0.288	0.016
-542.252	161.063	0.138	0.195
-541.237	800.000	0.053	0.216
-540.223	-102.657	-0.499	-0.121
-539.208	496.655	-0.043	-0.101
-538.193	-200.000	-0.082	0.422
-537.179	294.490	-0.191	0.354
-536.164	-69.612	0.065	0.025
-535.150	-71.017	-0.215	0.082
-534.135	800.000	0.058	0.212
-533.121	32.636	0.093	0.082
-532.106	-200.000	-0.005	0.177
-531.091	77.573	0.142	0.154
-530.077	652.761	-0.033	0.085
-529.062	-200.000	-0.011	0.220
-528.048	-144.956	0.200	0.019
-527.033	-83.304	-0.040	-0.013
-526.018	-24.806	0.073	-0.044
-525.004	800.000	-0.059	-0.224
-523.989	-55.044	-0.130	0.059
-522.975	64.759	-0.111	0.113
-521.960	54.473	0.258	-0.251
-520.945	-69.972	-0.219	-0.084
-519.931	125.375	0.095	-0.121
-518.916	387.556	-0.101	0.211
-517.902	25.132	-0.197	0.166
-516.887	127.307	0.178	0.229
-515.872	-87.077	0.105	-0.032
-514.858	91.569	-0.140	0.160
-513.843	-200.000	0.088	0.446
-512.829	-111.522	0.218	0.045
-511.814	66.015	0.164	0.168
-510.799	-40.131	-0.204	0.108
-509.785	-52.079	0.319	-0.150
-508.770	-200.000	0.217	0.000
-507.756	-115.588	0.300	-0.057
-506.741	-52.427	-0.370	0.173
-505.726	-200.000	0.024	0.172
-504.712	-200.000	-0.020	-0.151
-503.697	-200.000	-0.007	-0.160
-502.683	-117.701	0.213	0.039
-501.668	283.968	-0.028	0.051
-500.653	-67.965	-0.393	-0.155
-499.639	-33.044	-0.400	-0.225
-498.624	-200.000	0.027	0.150
-497.610	-72.669	-0.203	-0.076
-496.595	-39.586	-0.081	-0.043
-495.581	-125.216	0.303	0.047
-494.566	-94.609	-0.136	0.037
-493.551	-200.000	0.006	0.097
-492.537	-200.000	-0.069	0.500
-491.522	-200.000	0.027	0.162
-490.508	-92.747	0.146	-0.041
-489.493	46.001	-0.012	-0.011
-488.478	73.443	-0.051	-0.055
-487.464	67.563	-0.255	-0.264
-486.449	62.376	0.155	0.157
-485.435	-25.488	0.132	0.079
-484.420	-130.922	0.086	0.012
-483.405	704.052	0.129	-0.345
-482.391	-149.667	-0.218	0.017
-481.376	-55.959	0.155	0.070
-480.362	-129.196	-0.140	-0.020
-479.347	141.159	0.264	-0.354
-478.332	800.000	-0.032	-0.128
-477.318	27.803	0.057	0.049
-476.303	60.292	-0.180	0.180
-475.289	301.037	-0.100	0.187
-474.274	800.000	-0.121	-0.360
-473.259	-100.685	-0.245	0.061
-472.245	197.883	-0.145	-0.223
-471.230	-134.251	0.107	0.013
-470.216	-111.049	-0.021	-0.004
-469.201	-107.082	-0.132	0.029
-468.186	800.000	-0.081	-0.246
-467.172	-126.951	0.465	0.069
-466.157	39.546	-0.140	0.127
-465.143	53.077	-0.092	-0.089
-464.128	-72.205	0.416	0.156
-463.113	-200.000	-0.033	0.277
-462.099	386.648	-0.068	-0.142
-461.084	-7.749	-0.217	-0.148
-460.070	-28.950	0.299	-0.173
-459.055	-30.762	0.172	-0.098
-458.040	-32.853	0.063	0.036
-457.026	-66.923	0.377	-0.150
-456.011	2.438	-0.087	-0.064
-454.997	28.411	-0.047	0.040
-453.982	138.663	-0.212	-0.281
-452.968	10.052	0.096	-0.074
-451.953	-79.111	-0.134	-0.046
-450.938	-77.941	0.052	-0.018
-449.924	4.433	0.254	0.188
-448.909	-4.897	-0.138	-0.096
-447.895	-200.000	0.046	-0.460
-446.880	66.572	-0.233	0.239
-445.865	-102.234	-0.069	0.017
-444.851	-19.343	-0.323	-0.202
-443.836	42.829	-0.126	0.116
-442.822	800.000	0.020	0.076
-441.807	-43.757	0.236	-0.120
-440.792	88.358	0.200	-0.224
-439.778	-14.413	0.092	-0.060
-438.763	244.359	0.150	0.254
-437.749	-9.601	0.168	-0.113
-436.734	374.924	-0.054	-0.111
-435.719	-131.670	-0.113	-0.015
-434.705	431.338	-0.075	-0.164
-433.690	526.611	0.086	-0.205
-432.676	-72.433	-0.209	-0.078
-431.661	-47.725	-0.074	0.036
-430.646	11.781	0.192	0.149
-429.632	-200.000	-0.002	0.050
-428.617	-151.780	-0.327	-0.024
-427.603	599.796	-0.052	0.130
-426.588	-77.533	-0.332	0.116
-425.573	-98.462	0.414	-0.107
-424.559	800.000	0.083	-0.250
-423.544	169.558	-0.093	-0.135
-422.530	85.289	-0.160	0.177
-421.515	265.262	-0.115	-0.203
-420.500	-5.249	0.096	-0.066
-419.486	800.000	0.037	0.127
-418.471	27.855	0.095	0.081
-417.457	421.055	-0.066	-0.144
-416.442	-68.961	0.088	0.034
-415.428	413.377	-0.096	0.206
-414.413	11.235	0.062	-0.048
-413.398	-200.000	-0.022	0.149
-412.384	204.156	0.163	-0.255
-411.369	-98.280	-0.331	0.086
-410.355	-113.705	-0.262	0.052
-409.340	800.000	-0.119	-0.449
-408.325	25.830	-0.099	0.083
-407.311	-105.683	-0.196	-0.045
-406.296	-50.520	-0.115	0.055
-405.282	-31.604	0.250	-0.142
-404.267	-200.000	-0.001	0.029
-403.252	-200.000	0.026	-0.371
-402.238	119.293	0.181	0.225
-401.223	-128.101	0.175	-0.025
-400.209	-4.925	0.169	-0.117
-399.194	-110.621	0.092	-0.019
-398.179	110.266	0.147	0.177
-397.165	-200.000	-0.017	0.205
-396.150	4.970	0.234	0.174
-395.136	236.980	0.125	0.208
-394.121	-200.000	0.016	-0.426
-393.106	-120.649	-0.129	-0.022
-392.092	-0.751	-0.425	-0.303
-391.077	-127.294	0.098	-0.014
-390.063	-4.956	-0.239	0.166
-389.048	654.037	0.085	0.219
-388.033	239.293	0.122	0.205
-387.019	800.000	0.064	0.203
-386.004	-200.000	-0.019	0.120
-384.990	169.037	-0.125	0.180
-383.975	-200.000	-0.034	0.152
-382.960	-22.055	-0.235	0.144
-381.946	89.170	-0.019	0.021
-380.931	160.740	0.057	-0.080
-379.917	800.000	-0.062	-0.226
-378.902	200.719	0.115	-0.177
-377.888	-78.516	-0.351	-0.121
-376.873	319.461	-0.136	-0.260
-375.858	-168.108	0.122	-0.005
-374.844	-7.522	-0.110	0.075
-373.829	44.669	0.142	-0.131
-372.815	-200.000	0.010	0.100
-371.800	337.287	0.128	0.250
-370.785	-52.027	0.230	0.107
-369.771	-190.094	0.381	0.004
-368.756	-69.311	-0.331	0.128
-367.742	-145.754	-0.250	0.022
-366.727	128.261	0.144	0.185
-365.712	306.563	-0.095	0.179
-364.698	-106.307	-0.262	0.059
-363.683	-5.046	-0.129	0.090
-362.669	67.011	0.240	-0.246
-361.654	-35.654	0.315	-0.172
-360.639	-200.000	0.010	0.199
-359.625	10.045	0.166	0.127
-358.610	-108.363	-0.242	0.053
-357.596	24.051	0.044	0.036
-356.581	800.000	0.058	0.179
-355.566	-148.979	-0.097	-0.008
-354.552	800.000	0.073	0.211
-353.537	-115.634	-0.060	0.011
-352.523	-74.720	0.163	0.059
-351.508	-91.447	0.256	0.074
-350.493	238.881	-0.043	0.072
-349.479	800.000	0.069	0.207
-348.464	-200.000	0.004	-0.191
-347.450	314.576	0.162	-0.306
-346.435	-6.171	-0.091	-0.063
-345.420	8.387	0.066	-0.050
-344.406	-200.000	0.058	-0.309
-343.391	-128.424	-0.328	0.047
-342.377	-37.116	-0.233	0.125
-341.362	-188.767	0.275	0.003
-340.348	-29.593	-0.108	0.062
-339.333	-200.000	0.001	0.040
-338.318	148.603	-0.013	0.018
-337.304	-200.000	-0.054	-0.307
-336.289	-200.000	-0.020	-0.439
-335.275	-56.633	-0.141	0.063
-334.260	34.448	0.063	0.055
-333.245	200.041	-0.094	-0.145
-332.231	-200.000	-0.002	0.205
-331.216	-30.715	-0.298	-0.170
-330.202	-200.000	-0.013	-0.162
-329.187	-200.000	-0.012	-0.107
-328.172	-200.000	0.037	-0.244
-327.158	618.846	0.060	-0.152
-326.143	800.000	0.036	-0.152
-325.129	22.025	0.174	-0.142
-324.114	-200.000	-0.026	-0.135
-323.099	800.000	0.019	0.077
-322.085	800.000	0.140	-0.496
-321.070	253.358	-0.165	0.282
-320.056	193.704	0.138	-0.210
-319.041	-200.000	-0.057	0.316
-318.026	800.000	0.063	0.259
-317.012	-49.558	-0.301	-0.144
-315.997	-89.630	-0.268	0.079
-314.983	-100.170	-0.081	0.020
-313.968	650.673	-0.060	0.155
-312.953	102.135	0.254	0.299
-311.939	731.635	-0.059	0.159
-310.924	17.070	0.066	0.052
-309.910	-200.000	0.013	-0.105
-308.895	175.706	0.078	-0.113
-307.880	-123.761	0.312	0.050
-306.866	800.000	-0.046	-0.184
-305.851	441.251	-0.150	0.329
-304.837	-77.430	0.215	-0.075
-303.822	-88.958	0.158	0.047
-302.807	320.048	-0.069	0.132
-301.793	-129.290	-0.081	-0.011
-300.778	-27.364	-0.129	0.075
-299.764	800.000	0.041	-0.165
-298.749	-200.000	-0.030	0.230
-297.735	203.792	0.006	0.010
-296.720	482.322	0.092	0.210
-295.705	56.704	0.121	0.119
-294.691	368.520	-0.122	-0.247
-293.676	-123.619	-0.046	-0.007
-292.662	760.332	0.035	-0.094
-291.647	13.391	0.225	-0.175
-290.632	251.483	0.139	-0.238
-289.618	-44.450	-0.141	-0.071
-288.603	61.414	0.118	-0.118
-287.589	-93.568	-0.289	0.080
-286.574	-21.412	0.343	-0.210
-285.559	800.000	0.045	-0.167
-284.545	800.000	0.101	-0.286
-283.530	-200.000	0.037	-0.242
-282.516	403.029	-0.042	0.088
-281.501	-64.718	-0.223	0.091
-280.486	-81.884	-0.097	-0.032
-279.472	800.000	-0.037	0.142
-278.457	800.000	0.035	0.149
-277.443	168.139	0.073	-0.104
-276.428	-136.596	-0.315	-0.037
-275.413	65.956	0.140	-0.142
-274.399	379.975	0.093	0.191
-273.384	222.262	0.037	-0.060
-272.370	-73.112	0.259	-0.095
-271.355	370.299	0.132	-0.268
-270.340	160.559	-0.157	-0.219
-269.326	800.000	0.052	0.152
-268.311	-17.447	0.113	0.071
-267.297	-63.657	-0.248	0.102
-266.282	800.000	0.021	-0.064
-265.267	69.258	0.284	-0.293
-264.253	-66.202	0.152	0.061
-263.238	800.000	-0.027	0.091
-262.224	800.000	-0.019	0.056
-261.209	-127.376	0.089	-0.013
-260.195	-73.503	-0.272	0.100
-259.180	-120.653	0.384	0.065
-258.165	222.114	-0.066	0.107
-257.151	-112.366	0.168	0.034
-256.136	-155.946	-0.326	0.021
-255.122	-200.000	-0.016	-0.162
-254.107	800.000	0.038	-0.156
-253.092	-200.000	-0.002	0.089
-252.078	395.523	0.055	-0.115
-251.063	449.081	0.104	-0.231
-250.049	-24.404	0.243	0.145
-249.034	85.184	-0.116	0.127
-248.019	-107.029	0.125	-0.028
-247.005	-128.691	0.335	0.047
-245.990	36.036	0.141	-0.124
-244.976	-200.000	-0.026	0.127
-243.961	-137.621	-0.198	-0.022
-242.946	800.000	0.045	0.180
-241.932	34.726	-0.232	-0.204
-240.917	800.000	0.102	-0.380
-239.903	40.113	-0.096	0.087
-238.888	-141.778	0.203	-0.020
-237.873	-186.535	-0.346	-0.005
-236.859	364.274	0.069	-0.139
-235.844	34.104	-0.213	0.186
-234.830	-191.203	0.288	-0.003
-233.815	-104.159	0.214	-0.050
-232.800	-80.932	0.096	-0.032
-231.786	-173.068	-0.187	0.006
-230.771	12.866	-0.186	-0.144
-229.757	235.349	0.082	0.136
-228.742	800.000	-0.107	0.419
-227.727	800.000	0.062	0.257
-226.713	-114.438	-0.120	0.023
-225.698	125.984	0.174	-0.220
-224.684	-27.931	0.265	0.154
-223.669	-200.000	0.043	-0.330
-222.655	-95.283	-0.125	-0.034
-221.640	4.455	0.125	0.092
-220.625	61.601	-0.139	-0.139
-219.611	86.239	-0.100	-0.110
-218.596	-92.239	0.238	-0.067
-217.582	60.163	0.269	-0.266
-216.567	-158.912	0.060	-0.003
-215.552	-68.196	-0.212	-0.082
-214.538	-162.477	0.246	-0.012
-213.523	-66.213	0.122	-0.049
-212.509	-121.651	0.093	0.015
-211.494	-25.653	0.183	-0.108
-210.479	-200.000	-0.046	-0.281
-209.465	800.000	0.054	-0.216
-208.450	207.095	-0.073	0.114
-207.436	-200.000	-0.026	0.125
-206.421	-54.513	-0.197	-0.089
-205.406	4.804	-0.176	-0.129
-204.392	-155.091	0.111	-0.007
-203.377	-200.000	0.084	-0.497
-202.363	533.403	0.062	0.146
-201.348	-172.214	-0.189	0.006
-200.333	-27.144	-0.283	0.165
-199.319	47.123	-0.078	0.073
-198.304	96.170	-0.195	0.223
-197.290	-73.241	-0.070	-0.026
-196.275	-9.199	-0.164	-0.110
-195.260	38.599	-0.096	-0.086
-194.246	-32.804	-0.301	-0.167
-193.231	641.959	0.063	-0.161
-192.217	-200.000	-0.055	-0.387
-191.202	73.679	-0.313	0.327
-190.187	796.214	0.108	0.298
-189.173	66.400	-0.033	0.033
-188.158	490.376	0.048	0.109
-187.144	-200.000	-0.006	-0.157
-186.129	-80.868	0.105	0.035
-185.114	-87.569	0.066	0.020
-184.100	35.773	0.167	-0.147
-183.085	-63.029	-0.353	-0.146
-182.071	800.000	0.016	-0.053
-181.056	138.357	-0.076	0.100
-180.042	-35.129	0.164	-0.089
-179.027	-200.000	0.004	0.039
-178.012	-65.217	0.287	0.115
-176.998	118.746	0.047	0.058
-175.983	131.419	-0.078	-0.100
-174.969	-97.577	-0.089	-0.023
-173.954	-64.960	0.116	-0.047
-172.939	3.024	0.136	-0.099
-171.925	-200.000	0.002	0.051
-170.910	-200.000	0.010	0.335
-169.896	-34.121	0.214	0.117
-168.881	91.934	-0.021	-0.024
-167.866	46.959	-0.237	0.221
-166.852	602.955	0.058	0.145
-165.837	-62.672	-0.193	-0.080
-164.823	-158.957	0.275	-0.016
-163.808	-27.551	-0.085	0.050
-162.793	-34.327	0.340	0.186
-161.779	-200.000	-0.049	0.302
-160.764	3.881	-0.111	0.081
-159.750	-200.000	-0.015	-0.146
-158.735	-40.896	0.150	-0.078
-157.720	65.578	-0.099	-0.100
-156.706	512.307	0.090	-0.209
-155.691	-90.457	-0.356	0.103
-154.677	368.219	-0.070	-0.142
-153.662	-72.170	0.058	0.022
-152.647	-168.274	-0.203	0.008
-151.633	53.730	0.063	0.060
-150.618	-174.777	-0.141	0.004
-149.604	-18.990	0.029	-0.018
-148.589	-168.062	-0.068	0.003
-147.574	526.037	0.047	-0.110
-146.560	195.547	0.190	0.288
-145.545	609.739	-0.095	0.236
-144.531	557.875	-0.037	-0.090
-143.516	-121.659	-0.102	-0.017
-142.502	-107.680	0.108	-0.023
-141.487	51.230	-0.049	0.047
-140.472	-109.022	0.275	-0.058
-139.458	-66.425	-0.171	0.068
-138.443	-87.175	-0.262	0.080
-137.429	440.359	0.106	-0.231
-136.414	30.357	-0.067	-0.058
-135.399	-12.395	0.107	0.070
-134.385	-200.000	0.053	-0.448
-133.370	-28.560	-0.234	-0.134
-132.356	-13.291	-0.059	-0.038
-131.341	-97.024	-0.233	0.061
-130.326	800.000	0.007	0.021
-129.312	-97.037	-0.138	0.036
-128.297	-155.735	0.375	-0.024
-127.283	755.797	-0.157	0.425
-126.268	201.374	-0.175	0.269
-125.253	235.173	-0.291	-0.479
-124.239	7.284	0.145	-0.108
-123.224	-200.000	0.009	0.085
-122.210	-200.000	0.042	0.219
-121.195	327.745	-0.081	-0.154
