DTS Sentinel unit serial number:	SN413079Multiplexer serial number:	ORYXHardware model number:	OX4-SRSoftware version number:	ORYX F/W v4.00 Oryx Data Collector v3.7.2.0data status	okinstallation	princeton_trtdifferential loss correction	single-endedforward channel	channel 1reverse channel	N/Adate	2019/09/16time	07:10:35forward acquisition time	60.00reverse acquisition time	0.00gamma	496.2192k internal	0.2331k external	0.2331temperature offset calibration	0.9984default loss term (dB/km)	0.3790temperature slope calibration	1.0000multiplexer offset coefficient	1.0000multiplexer slope coefficient	1.0000fibre end	0.00T internal ref (°C)	27.37T ext. ref 1 (°C)	11.53T ext. ref 2 (°C)	21.99length (m)	temperature (°C)	Stokes	anti-Stokes-747.200	-36.068	0.156	0.085
-746.185	143.887	-0.203	0.273
-745.171	189.627	-0.075	-0.114
-744.156	-135.679	-0.207	-0.025
-743.142	31.727	0.237	0.205
-742.127	183.740	-0.152	0.226
-741.112	-200.000	0.049	-0.298
-740.098	363.173	0.029	0.059
-739.083	308.253	0.049	-0.091
-738.069	217.703	-0.076	0.122
-737.054	89.570	-0.197	-0.222
-736.039	58.477	-0.249	0.245
-735.025	105.471	0.176	0.210
-734.010	99.720	0.188	0.219
-732.996	-200.000	0.017	-0.184
-731.981	-150.215	-0.087	0.007
-730.966	-200.000	-0.007	0.306
-729.952	-2.884	-0.409	0.288
-728.937	-83.674	-0.102	0.033
-727.923	-156.312	0.210	-0.013
-726.908	-77.591	0.140	0.049
-725.894	-16.149	-0.253	-0.162
-724.879	85.412	-0.156	0.172
-723.864	44.801	0.244	0.226
-722.850	382.184	-0.057	-0.118
-721.835	531.128	-0.029	0.068
-720.821	480.056	0.131	-0.299
-719.806	-58.917	-0.079	-0.034
-718.791	-26.772	0.151	-0.089
-717.777	-142.656	-0.198	-0.019
-716.762	353.438	-0.143	-0.285
-715.748	186.867	-0.316	-0.473
-714.733	187.337	0.177	-0.265
-713.718	-200.000	-0.001	0.140
-712.704	-200.000	0.028	0.239
-711.689	-200.000	0.002	-0.187
-710.675	91.795	0.234	-0.264
-709.660	420.809	0.153	-0.329
-708.645	-30.132	-0.067	-0.038
-707.631	-85.167	0.105	0.033
-706.616	188.810	-0.188	0.283
-705.602	614.826	0.005	-0.012
-704.587	-13.038	-0.267	-0.174
-703.572	-200.000	-0.008	-0.080
-702.558	-200.000	0.056	-0.488
-701.543	-12.105	0.203	0.134
-700.529	-79.675	0.296	-0.100
-699.514	-83.852	-0.397	0.127
-698.499	-121.175	0.100	0.017
-697.485	504.495	-0.067	-0.157
-696.470	800.000	-0.100	0.344
-695.456	34.673	-0.333	-0.293
-694.441	-132.618	-0.056	0.007
-693.426	-68.986	-0.207	-0.080
-692.412	-53.844	-0.152	-0.070
-691.397	-85.647	-0.032	-0.010
-690.383	124.661	-0.156	0.197
-689.368	355.669	0.064	-0.128
-688.354	-97.427	0.173	0.045
-687.339	-70.598	0.380	0.144
-686.324	38.842	0.260	0.233
-685.310	-37.967	0.134	-0.072
-684.295	-200.000	-0.048	0.319
-683.281	200.051	-0.047	0.072
-682.266	-91.253	0.169	0.049
-681.251	-192.124	-0.495	-0.005
-680.237	20.929	0.363	-0.295
-679.222	90.603	-0.160	-0.180
-678.208	-56.778	-0.196	-0.087
-677.193	-5.288	0.222	0.153
-676.178	-88.808	-0.182	0.054
-675.164	-133.482	-0.094	-0.012
-674.149	449.865	-0.058	-0.128
-673.135	-200.000	0.017	0.134
-672.120	227.246	-0.101	0.165
-671.105	-51.449	0.053	0.025
-670.091	6.188	0.184	0.137
-669.076	-200.000	0.017	-0.333
-668.062	283.629	0.149	-0.269
-667.047	231.304	0.150	0.246
-666.032	114.434	-0.130	-0.158
-665.018	-97.268	0.386	-0.101
-664.003	120.066	0.203	0.253
-662.989	296.206	-0.022	-0.041
-661.974	-149.309	0.273	-0.022
-660.959	-63.809	0.114	-0.047
-659.945	519.816	-0.043	-0.101
-658.930	503.529	-0.037	-0.085
-657.916	79.384	0.099	-0.107
-656.901	-38.228	-0.180	0.096
-655.886	10.386	0.170	-0.130
-654.872	155.730	0.124	0.171
-653.857	-77.164	0.111	-0.039
-652.843	617.815	0.112	0.282
-651.828	800.000	-0.040	-0.173
-650.814	-200.000	0.005	0.216
-649.799	-116.641	-0.098	-0.018
-648.784	302.057	0.075	0.139
-647.770	242.918	-0.130	-0.219
-646.755	-200.000	-0.018	-0.088
-645.741	184.902	0.154	0.229
-644.726	-200.000	0.022	-0.178
-643.711	9.640	-0.134	-0.101
-642.697	-114.352	-0.079	-0.015
-641.682	-132.049	-0.248	-0.032
-640.668	-92.615	-0.104	0.029
-639.653	-24.247	-0.167	0.100
-638.638	-88.995	-0.365	0.108
-637.624	40.550	-0.187	-0.169
-636.609	23.133	0.328	-0.270
-635.595	331.974	-0.180	0.347
-634.580	800.000	0.060	0.214
-633.565	-200.000	-0.019	0.408
-632.551	-24.664	0.202	0.120
-631.536	209.932	-0.125	0.197
-630.522	24.288	-0.383	-0.317
-629.507	13.801	0.152	-0.118
-628.492	-200.000	0.023	0.271
-627.478	8.955	0.112	-0.085
-626.463	271.404	0.090	0.159
-625.449	-132.440	0.129	-0.017
-624.434	112.768	-0.116	-0.140
-623.419	19.766	0.064	0.052
-622.405	351.335	-0.004	0.008
-621.390	-36.013	0.088	-0.047
-620.376	-46.803	0.398	-0.195
-619.361	-124.070	-0.071	-0.011
-618.346	84.007	-0.222	-0.243
-617.332	397.663	0.148	-0.310
-616.317	-200.000	-0.090	0.496
-615.303	231.001	0.151	-0.248
-614.288	-200.000	-0.047	-0.427
-613.273	-45.796	-0.318	0.157
-612.259	-73.296	-0.155	-0.057
-611.244	8.071	0.363	0.273
-610.230	195.767	-0.073	0.111
-609.215	-200.000	0.040	0.342
-608.201	558.806	-0.042	0.100
-607.186	-200.000	0.029	-0.130
-606.171	-200.000	-0.009	-0.046
-605.157	61.173	-0.231	-0.230
-604.142	244.871	-0.091	-0.153
-603.128	-125.721	0.088	0.013
-602.113	-52.436	0.376	-0.174
-601.098	635.061	-0.054	0.138
-600.084	64.960	-0.097	-0.098
-599.069	44.983	0.231	0.213
-598.055	368.014	0.082	0.165
-597.040	-200.000	0.007	0.068
-596.025	234.429	-0.104	0.171
-595.011	-34.465	0.017	0.009
-593.996	800.000	0.016	0.044
-592.982	-50.262	-0.234	0.111
-591.967	10.904	-0.216	-0.165
-590.952	-200.000	-0.046	-0.264
-589.938	800.000	-0.096	-0.310
-588.923	31.136	-0.045	0.038
-587.909	341.372	0.081	0.159
-586.894	-155.914	-0.097	0.006
-585.879	-1.645	-0.240	0.169
-584.865	-200.000	0.001	0.093
-583.850	-200.000	-0.020	-0.186
-582.836	-55.081	-0.283	0.127
-581.821	-140.242	-0.166	-0.017
-580.806	800.000	0.079	0.281
-579.792	-200.000	0.042	0.215
-578.777	8.572	-0.445	0.335
-577.763	800.000	0.083	0.267
-576.748	-200.000	0.011	-0.124
-575.733	-5.640	0.115	-0.079
-574.719	195.351	0.167	0.253
-573.704	115.875	-0.005	-0.006
-572.690	-200.000	-0.022	0.103
-571.675	185.700	0.087	-0.129
-570.661	368.278	-0.032	-0.065
-569.646	-135.746	-0.095	0.011
-568.631	361.271	0.112	0.225
-567.617	-58.273	-0.209	0.091
-566.602	-118.262	-0.211	-0.037
-565.588	-18.761	0.151	0.094
-564.573	79.083	-0.122	-0.131
-563.558	-92.795	0.277	-0.078
-562.544	119.972	0.121	-0.150
-561.529	-129.385	0.041	-0.006
-560.515	-17.220	-0.126	-0.080
-559.500	397.264	0.118	-0.247
-558.485	201.499	0.072	0.110
-557.471	-104.131	-0.115	-0.027
-556.456	31.608	0.310	-0.267
-555.442	-122.271	-0.337	-0.055
-554.427	-85.454	-0.439	-0.137
-553.412	-200.000	0.028	0.420
-552.398	-26.291	0.100	0.059
-551.383	-82.813	0.143	-0.046
-550.369	403.930	-0.048	-0.102
-549.354	-142.193	-0.195	0.019
-548.339	393.432	0.170	-0.353
-547.325	-75.275	-0.279	0.100
-546.310	262.101	-0.166	0.287
-545.296	2.318	0.222	0.161
-544.281	-143.788	0.179	0.017
-543.266	453.673	-0.018	0.040
-542.252	-27.996	-0.463	-0.267
-541.237	-167.306	0.243	0.010
-540.223	-32.672	-0.175	0.097
-539.208	-193.409	0.117	0.001
-538.193	22.035	-0.117	-0.095
-537.179	464.901	0.149	0.333
-536.164	800.000	0.121	-0.364
-535.150	241.470	0.127	0.212
-534.135	-0.210	-0.334	-0.237
-533.121	21.029	0.223	0.180
-532.106	800.000	0.130	-0.412
-531.091	98.238	0.141	0.162
-530.077	-61.216	-0.112	0.047
-529.062	363.170	-0.077	0.154
-528.048	800.000	0.072	0.222
-527.033	-144.325	-0.195	0.018
-526.018	-200.000	-0.018	-0.327
-525.004	83.451	0.201	-0.219
-523.989	-127.536	0.261	0.038
-522.975	-200.000	0.017	-0.125
-521.960	334.108	-0.053	-0.102
-520.945	-6.087	0.339	-0.231
-519.931	-200.000	0.014	-0.287
-518.916	53.131	0.069	-0.065
-517.902	-68.210	0.124	0.048
-516.887	135.888	0.062	0.081
-515.872	169.442	-0.070	-0.100
-514.858	-54.008	0.213	-0.097
-513.843	15.090	0.016	0.012
-512.829	218.398	0.115	0.183
-511.814	-200.000	0.190	0.001
-510.799	-71.446	-0.200	0.075
-509.785	94.973	-0.066	-0.075
-508.770	-60.034	0.095	0.041
-507.756	582.702	-0.026	0.063
-506.741	-143.098	-0.148	0.014
-505.726	717.983	-0.122	0.322
-504.712	800.000	-0.050	-0.217
-503.697	424.873	0.174	-0.374
-502.683	403.622	-0.057	-0.120
-501.668	-200.000	-0.014	-0.469
-500.653	-64.139	0.155	0.063
-499.639	-85.900	0.081	0.025
-498.624	0.465	-0.082	-0.058
-497.610	-200.000	0.025	0.390
-496.595	35.609	0.086	0.075
-495.581	-82.543	0.260	-0.084
-494.566	-200.000	0.000	-0.105
-493.551	800.000	0.051	-0.155
-492.537	-100.391	-0.156	-0.039
-491.522	-53.199	-0.167	-0.076
-490.508	32.246	-0.046	-0.039
-489.493	-62.689	0.174	-0.072
-488.478	-200.000	-0.022	0.267
-487.464	-19.675	0.261	0.161
-486.449	-93.731	-0.074	-0.020
-485.435	240.215	0.091	-0.151
-484.420	-162.789	-0.396	0.019
-483.405	-58.783	0.233	-0.101
-482.391	-42.014	-0.293	0.149
-481.376	-152.980	-0.276	0.019
-480.362	-114.038	0.081	-0.016
-479.347	800.000	-0.045	0.157
-478.332	-148.806	0.173	-0.014
-477.318	4.393	0.159	-0.116
-476.303	-59.557	0.377	-0.161
-475.289	-52.570	0.203	-0.093
-474.274	-200.000	0.017	-0.211
-473.259	-200.000	0.040	0.252
-472.245	215.275	-0.185	-0.292
-471.230	12.188	-0.366	-0.281
-470.216	-7.779	-0.060	-0.041
-469.201	196.333	-0.182	-0.276
-468.186	64.867	0.128	-0.129
-467.172	138.412	0.103	-0.134
-466.157	-200.000	-0.002	-0.108
-465.143	-200.000	-0.030	0.165
-464.128	-35.822	0.433	0.234
-463.113	19.312	-0.164	-0.131
-462.099	15.183	0.256	-0.200
-461.084	-72.050	-0.204	-0.075
-460.070	-90.757	0.142	-0.041
-459.055	1.908	-0.116	-0.083
-458.040	-121.757	-0.150	-0.025
-457.026	165.735	0.106	0.149
-456.011	3.749	0.177	-0.128
-454.997	-200.000	0.016	0.122
-453.982	-144.389	-0.287	0.027
-452.968	36.826	-0.187	-0.165
-451.953	286.546	0.114	-0.205
-450.938	84.622	-0.024	0.026
-449.924	-200.000	-0.038	0.281
-448.909	-180.390	0.335	0.007
-447.895	-95.641	0.161	0.043
-446.880	800.000	-0.033	0.141
-445.865	-12.729	-0.243	-0.158
-444.851	-54.164	-0.286	-0.129
-443.836	-39.339	0.117	-0.061
-442.822	102.499	-0.159	0.185
-441.807	-169.974	-0.122	-0.004
-440.792	-200.000	-0.006	0.128
-439.778	153.616	0.079	0.108
-438.763	-52.633	0.244	0.112
-437.749	-200.000	-0.023	0.113
-436.734	-171.908	0.102	-0.003
-435.719	-200.000	-0.001	0.103
-434.705	-46.375	0.220	0.107
-433.690	45.855	0.253	0.232
-432.676	4.151	0.245	0.178
-431.661	72.382	0.153	-0.159
-430.646	-89.512	-0.131	0.038
-429.632	506.757	-0.155	0.358
-428.617	-79.794	-0.174	-0.058
-427.603	426.927	0.093	-0.200
-426.588	294.844	0.083	-0.151
-425.573	-129.036	0.201	0.028
-424.559	800.000	-0.035	0.146
-423.544	122.641	-0.087	0.108
-422.530	-200.000	0.009	0.153
-421.515	-200.000	0.007	0.118
-420.500	-65.301	-0.036	0.015
-419.486	-106.517	-0.084	-0.019
-418.471	-200.000	-0.020	0.363
-417.457	-71.162	-0.419	0.156
-416.442	344.483	0.143	0.278
-415.428	-200.000	0.022	-0.209
-414.413	301.220	-0.151	-0.276
-413.398	-139.773	-0.214	0.023
-412.384	82.758	-0.043	-0.046
-411.369	-200.000	0.000	0.244
-410.355	259.527	-0.050	0.086
-409.340	-68.621	0.282	-0.109
-408.325	388.705	0.145	-0.298
-407.311	-11.164	-0.182	0.119
-406.296	174.981	-0.125	-0.180
-405.282	-174.934	0.097	-0.003
-404.267	-139.959	0.097	0.010
-403.252	-29.206	0.388	-0.221
-402.238	280.030	-0.098	-0.174
-401.223	63.729	-0.248	0.247
-400.209	-200.000	0.054	-0.338
-399.194	-14.459	-0.207	-0.132
-398.179	-78.965	0.411	0.139
-397.165	29.444	-0.058	-0.049
-396.150	-21.006	0.316	0.192
-395.136	62.359	0.134	0.133
-394.121	800.000	0.031	-0.101
-393.106	-180.154	0.098	0.002
-392.092	-200.000	0.021	0.282
-391.077	-45.428	-0.192	0.095
-390.063	-200.000	-0.035	0.374
-389.048	-112.203	0.242	-0.048
-388.033	499.646	-0.071	0.161
-387.019	-6.849	-0.260	-0.175
-386.004	-83.143	-0.283	-0.090
-384.990	21.778	-0.194	0.157
-383.975	13.557	0.343	-0.264
-382.960	-200.000	0.026	-0.147
-381.946	13.165	0.081	-0.062
-380.931	137.832	-0.120	0.156
-379.917	14.858	0.177	-0.138
-378.902	-82.768	0.250	0.080
-377.888	-200.000	0.039	0.228
-376.873	-200.000	0.011	0.236
-375.858	154.168	0.041	0.055
-374.844	380.005	-0.056	0.114
-373.829	125.527	-0.237	0.297
-372.815	800.000	0.062	0.216
-371.800	-101.667	-0.231	-0.056
-370.785	-23.081	0.125	-0.074
-369.771	-153.811	0.312	0.021
-368.756	-97.474	-0.129	0.033
-367.742	-91.966	0.195	0.055
-366.727	-200.000	-0.032	0.198
-365.712	-67.601	0.097	-0.038
-364.698	115.938	0.016	0.019
-363.683	-2.752	-0.032	-0.022
-362.669	77.607	-0.147	-0.155
-361.654	-118.863	-0.105	-0.018
-360.639	-115.088	-0.135	0.025
-359.625	-150.899	0.103	-0.008
-358.610	-164.113	-0.398	0.018
-357.596	598.613	0.069	0.169
-356.581	414.176	-0.024	0.050
-355.566	800.000	-0.026	0.079
-354.552	-200.000	-0.007	-0.175
-353.537	-200.000	-0.035	0.203
-352.523	18.182	-0.085	0.067
-351.508	-54.796	0.120	0.054
-350.493	-42.738	-0.215	0.108
-349.479	-77.529	0.220	0.076
-348.464	46.994	0.155	-0.143
-347.450	800.000	-0.026	0.078
-346.435	-79.489	-0.468	0.157
-345.420	800.000	-0.047	-0.138
-344.406	206.795	-0.121	0.186
-343.391	38.077	-0.341	0.301
-342.377	-200.000	-0.021	-0.228
-341.362	39.604	-0.162	-0.144
-340.348	136.469	-0.179	-0.231
-339.333	103.901	0.199	0.232
-338.318	-184.896	-0.200	-0.003
-337.304	17.099	-0.156	-0.122
-336.289	-200.000	0.006	0.255
-335.275	-80.173	-0.153	0.051
-334.260	-200.000	-0.017	-0.245
-333.245	215.717	0.157	0.247
-332.231	-141.605	-0.211	-0.021
-331.216	80.906	-0.049	0.052
-330.202	45.840	0.174	-0.159
-329.187	-60.980	0.110	0.046
-328.172	-200.000	0.273	0.001
-327.158	258.458	0.025	-0.042
-326.143	172.241	-0.070	-0.100
-325.129	690.031	-0.098	0.254
-324.114	15.385	0.117	0.091
-323.099	27.863	0.059	-0.050
-322.085	-156.580	0.191	-0.012
-321.070	-48.414	-0.019	-0.009
-320.056	-200.000	-0.001	-0.076
-319.041	-80.716	0.318	0.105
-318.026	-94.216	-0.374	-0.101
-317.012	184.534	-0.068	0.100
-315.997	-7.847	0.096	-0.064
-314.983	182.908	-0.122	0.179
-313.968	-103.957	0.142	-0.033
-312.953	202.681	0.099	0.151
-311.939	-91.258	-0.224	-0.064
-310.924	411.895	0.078	-0.163
-309.910	275.405	-0.139	0.245
-308.895	-200.000	-0.025	0.126
-307.880	134.271	-0.141	0.181
-306.866	-48.392	0.428	0.204
-305.851	-18.212	0.160	0.099
-304.837	339.073	-0.216	0.417
-303.822	9.156	0.142	-0.106
-302.807	800.000	0.012	-0.038
-301.793	-60.353	0.299	0.126
-300.778	146.401	-0.059	0.078
-299.764	221.128	-0.061	-0.097
-298.749	5.254	0.159	0.116
-297.735	-3.037	-0.174	-0.120
-296.720	-200.000	0.012	-0.099
-295.705	362.157	0.064	0.126
-294.691	210.454	-0.179	0.277
-293.676	402.371	0.157	0.327
-292.662	-40.060	-0.380	-0.196
-291.647	-108.936	0.332	0.070
-290.632	-50.847	0.108	0.050
-289.618	-55.144	-0.308	-0.137
-288.603	-200.000	-0.019	-0.202
-287.589	205.469	0.101	-0.155
-286.574	-48.967	-0.131	-0.062
-285.559	800.000	-0.055	0.187
-284.545	99.342	-0.173	0.197
-283.530	-200.000	0.042	-0.288
-282.516	-200.000	-0.063	-0.388
-281.501	-7.217	-0.143	-0.096
-280.486	39.814	-0.260	0.230
-279.472	800.000	-0.030	0.100
-278.457	800.000	-0.110	-0.352
-277.443	800.000	-0.043	-0.141
-276.428	-53.682	0.247	-0.112
-275.413	-157.972	-0.102	0.006
-274.399	139.380	0.186	0.242
-273.384	286.569	-0.094	-0.168
-272.370	-200.000	0.056	-0.266
-271.355	432.776	-0.057	0.123
-270.340	50.849	0.066	-0.061
-269.326	-120.795	0.092	-0.015
-268.311	26.377	-0.135	-0.111
-267.297	-200.000	-0.009	-0.177
-266.282	33.575	0.243	0.209
-265.267	739.571	0.055	0.146
-264.253	-66.195	-0.354	-0.139
-263.238	-200.000	0.053	-0.433
-262.224	-85.656	0.378	-0.116
-261.209	66.419	-0.193	0.194
-260.195	-20.268	0.471	0.286
-259.180	-188.359	0.189	0.002
-258.165	141.419	0.073	-0.096
-257.151	437.768	0.219	-0.472
-256.136	-150.844	-0.430	0.032
-255.122	-109.511	0.249	0.052
-254.107	800.000	-0.039	0.144
-253.092	245.686	0.110	-0.182
-252.078	-119.191	-0.281	0.049
-251.063	-135.129	0.095	0.011
-250.049	800.000	-0.100	-0.409
-249.034	-85.143	0.287	0.089
-248.019	-200.000	0.049	-0.232
-247.005	-200.000	-0.034	-0.249
-245.990	40.075	0.265	0.235
-244.976	-99.035	-0.064	0.016
-243.961	718.319	0.039	-0.101
-242.946	-200.000	0.002	-0.087
-241.932	138.961	0.298	-0.387
-240.917	544.639	0.092	0.217
-239.903	110.444	0.296	0.351
-238.888	564.384	-0.158	0.378
-237.873	628.275	-0.014	0.036
-236.859	517.764	0.078	-0.181
-235.844	-200.000	-0.032	0.147
-234.830	-70.251	-0.193	0.072
-233.815	-200.000	0.034	-0.270
-232.800	258.424	0.074	-0.126
-231.786	-36.255	-0.155	-0.083
-230.771	11.646	-0.070	0.053
-229.757	-137.056	0.151	0.017
-228.742	42.585	0.270	0.242
-227.727	5.715	-0.332	0.242
-226.713	68.417	-0.068	-0.069
-225.698	25.548	-0.084	0.069
-224.684	-200.000	-0.037	0.213
-223.669	-47.630	-0.267	0.128
-222.655	800.000	-0.023	-0.096
-221.640	-62.287	-0.190	-0.078
-220.625	-200.000	0.063	0.285
-219.611	800.000	0.036	-0.149
-218.596	800.000	0.145	0.516
-217.582	-114.801	0.171	-0.032
-216.567	800.000	0.093	0.256
-215.552	152.218	0.016	0.021
-214.538	-200.000	0.003	-0.020
-213.523	331.548	-0.203	-0.387
-212.509	-200.000	-0.080	-0.362
-211.494	312.433	0.068	-0.125
-210.479	-135.579	0.223	0.026
-209.465	24.361	-0.139	-0.114
-208.450	800.000	0.073	-0.282
-207.436	800.000	-0.066	0.189
-206.421	-200.000	-0.006	0.068
-205.406	145.526	0.150	-0.198
-204.392	96.381	-0.155	-0.175
-203.377	-144.867	0.135	-0.012
-202.363	49.279	-0.097	-0.090
-201.348	-136.785	0.552	-0.063
-200.333	57.634	0.032	0.031
-199.319	-108.146	0.254	0.054
-198.304	-200.000	0.024	0.107
-197.290	-200.000	-0.085	-0.403
-196.275	7.464	-0.052	-0.038
-195.260	42.663	-0.246	-0.221
-194.246	-19.083	0.221	-0.135
-193.231	-200.000	-0.108	0.630
-192.217	-100.792	-0.201	0.049
-191.202	512.484	-0.138	-0.316
-190.187	254.734	-0.083	0.140
-189.173	-143.236	0.261	0.025
-188.158	101.260	0.206	0.236
-187.144	-200.000	-0.001	0.049
-186.129	-169.477	-0.450	-0.016
-185.114	685.293	0.084	-0.217
-184.100	-50.212	0.309	0.144
-183.085	-200.000	-0.019	0.121
-182.071	174.138	0.123	0.175
-181.056	62.301	0.106	-0.104
-180.042	-74.709	-0.116	-0.041
-179.027	-110.672	-0.102	-0.021
-178.012	404.013	-0.144	-0.299
-176.998	368.996	-0.148	-0.294
-175.983	-29.841	0.327	0.183
-174.969	-138.386	-0.052	-0.006
-173.954	800.000	0.071	-0.250
-172.939	-200.000	-0.036	0.292
-171.925	-104.791	0.185	-0.042
-170.910	219.449	0.137	-0.215
-169.896	510.147	-0.057	-0.131
-168.881	509.064	-0.199	0.455
-167.866	-62.156	-0.174	0.071
-166.852	-105.605	-0.320	-0.071
-165.837	69.920	0.053	-0.054
-164.823	800.000	0.081	-0.254
-163.808	-126.833	-0.262	-0.038
-162.793	-111.480	-0.237	-0.047
-161.779	-200.000	-0.007	-0.249
-160.764	347.612	-0.121	-0.234
-159.750	-9.098	-0.150	0.099
-158.735	-83.498	0.510	0.161
-157.720	-200.000	-0.002	-0.696
-156.706	-129.208	0.281	0.039
-155.691	-66.282	0.187	-0.073
-154.677	-116.844	-0.114	-0.021
-153.662	-200.000	-0.020	-0.194
-152.647	-125.851	-0.100	0.015
-151.633	800.000	-0.097	0.291
-150.618	81.830	-0.166	0.177
-149.604	-140.144	0.266	0.027
-148.589	-200.000	-0.075	-0.327
-147.574	43.198	-0.066	0.059
-146.560	-200.000	-0.024	0.144
-145.545	624.905	-0.066	-0.163
-144.531	221.427	-0.310	0.489
-143.516	-8.378	0.215	0.142
-142.502	-93.830	-0.109	0.030
-141.487	-82.258	0.184	0.059
-140.472	-103.444	-0.248	0.057
-139.458	800.000	-0.083	0.228
-138.443	368.285	0.073	0.145
-137.429	-35.552	0.220	0.117
-136.414	40.188	-0.299	-0.264
-135.399	221.850	0.153	-0.241
-134.385	21.889	0.251	0.201
-133.370	130.801	0.104	0.131
-132.356	207.073	-0.075	0.115
-131.341	800.000	0.042	0.115
-130.326	-12.989	0.133	0.085
-129.312	-200.000	0.034	0.336
-128.297	24.355	0.102	0.083
-127.283	-200.000	-0.043	0.461
-126.268	32.251	0.282	-0.239
-125.253	24.822	0.072	0.058
-124.239	434.107	-0.043	0.092
-123.224	69.423	0.269	0.272
-122.210	800.000	-0.040	-0.137
-121.195	-99.966	0.095	0.023
