DTS Sentinel unit serial number:	SN413079Multiplexer serial number:	ORYXHardware model number:	OX4-SRSoftware version number:	ORYX F/W v4.00 Oryx Data Collector v3.7.2.0data status	okinstallation	princeton_trtdifferential loss correction	single-endedforward channel	channel 1reverse channel	N/Adate	2019/09/16time	00:22:35forward acquisition time	60.00reverse acquisition time	0.00gamma	496.2192k internal	0.2334k external	0.2334temperature offset calibration	0.9974default loss term (dB/km)	0.3790temperature slope calibration	1.0000multiplexer offset coefficient	1.0000multiplexer slope coefficient	1.0000fibre end	0.00T internal ref (°C)	27.62T ext. ref 1 (°C)	9.51T ext. ref 2 (°C)	21.59length (m)	temperature (°C)	Stokes	anti-Stokes-747.200	606.889	-0.150	-0.375
-746.185	569.492	-0.115	0.282
-745.171	-69.799	-0.251	-0.096
-744.156	-200.000	-0.080	0.354
-743.142	800.000	-0.062	0.215
-742.127	-200.000	0.031	0.251
-741.112	63.795	0.103	0.104
-740.098	-32.635	-0.203	0.114
-739.083	-101.194	0.488	-0.120
-738.069	-197.282	0.178	0.001
-737.054	-87.338	0.035	-0.011
-736.039	-14.144	-0.169	-0.109
-735.025	-41.367	0.315	0.163
-734.010	420.390	0.092	0.197
-732.996	-77.655	-0.094	-0.033
-731.981	108.854	-0.251	0.301
-730.966	-115.726	-0.102	0.019
-729.952	-200.000	-0.001	-0.491
-728.937	-200.000	-0.012	-0.197
-727.923	-5.534	0.096	-0.066
-726.908	177.302	0.065	-0.095
-725.894	8.453	-0.107	-0.081
-724.879	310.375	-0.199	-0.375
-723.864	20.168	-0.184	-0.149
-722.850	16.210	-0.184	-0.146
-721.835	87.467	0.222	-0.247
-720.821	-44.199	-0.122	-0.061
-719.806	-110.055	-0.332	-0.070
-718.791	-6.607	-0.156	-0.107
-717.777	28.040	-0.153	-0.129
-716.762	-147.159	-0.210	-0.018
-715.748	-92.811	0.096	0.027
-714.733	-64.737	-0.346	0.141
-713.718	-110.725	-0.088	0.018
-712.704	298.428	-0.123	0.228
-711.689	-150.736	0.363	-0.028
-710.675	800.000	-0.035	-0.136
-709.660	-200.000	-0.045	-0.221
-708.645	225.863	0.121	-0.196
-707.631	-200.000	-0.057	-0.654
-706.616	-200.000	-0.008	-0.240
-705.602	800.000	0.036	-0.144
-704.587	2.054	-0.180	0.130
-703.572	39.086	0.053	-0.047
-702.558	-80.015	0.135	0.045
-701.543	-68.644	-0.067	0.026
-700.529	-117.953	-0.210	0.038
-699.514	800.000	-0.085	0.321
-698.499	-92.696	-0.130	-0.036
-697.485	356.327	0.092	0.183
-696.470	24.495	-0.192	-0.160
-695.456	-57.380	0.340	-0.150
-694.441	-64.610	-0.020	-0.008
-693.426	220.267	-0.128	-0.205
-692.412	-200.000	0.002	-0.015
-691.397	152.064	0.157	0.215
-690.383	104.079	0.034	0.040
-689.368	238.518	-0.075	0.126
-688.354	800.000	-0.030	-0.125
-687.339	-116.239	0.152	0.028
-686.324	203.519	-0.239	-0.371
-685.310	96.733	0.099	-0.114
-684.295	-200.000	0.010	0.075
-683.281	-200.000	0.008	-0.102
-682.266	100.199	0.075	0.087
-681.251	-200.000	-0.025	0.367
-680.237	-200.000	-0.058	0.273
-679.222	-190.870	0.163	0.002
-678.208	-88.067	-0.218	0.066
-677.193	26.610	0.274	0.230
-676.178	-200.000	0.026	0.119
-675.164	32.238	0.180	-0.156
-674.149	-27.215	-0.171	0.100
-673.135	-142.571	-0.318	0.031
-672.120	4.916	0.159	-0.117
-671.105	-160.937	-0.137	0.007
-670.091	-200.000	0.015	-0.134
-669.076	84.725	0.156	-0.172
-668.062	800.000	0.045	-0.192
-667.047	-102.972	-0.491	-0.117
-666.032	-119.590	-0.148	0.026
-665.018	107.726	-0.181	0.217
-664.003	97.229	-0.133	-0.153
-662.989	-35.513	0.137	-0.074
-661.974	-200.000	0.055	-0.266
-660.959	-200.000	0.017	0.162
-659.945	35.267	-0.207	-0.182
-658.930	533.808	0.165	-0.392
-657.916	-55.224	-0.203	-0.092
-656.901	195.145	0.146	0.222
-655.886	-77.077	0.039	0.013
-654.872	800.000	-0.018	0.063
-653.857	37.771	0.087	-0.078
-652.843	-79.314	0.159	0.054
-651.828	-200.000	0.001	-0.018
-650.814	800.000	0.092	-0.359
-649.799	-34.173	-0.248	0.136
-648.784	800.000	-0.101	0.290
-647.770	-169.132	0.121	-0.004
-646.755	190.351	-0.080	-0.121
-645.741	800.000	-0.018	-0.066
-644.726	-118.441	-0.165	0.029
-643.711	226.669	-0.130	-0.211
-642.697	244.820	0.050	0.083
-641.682	-200.000	0.020	-0.175
-640.668	76.936	0.263	-0.279
-639.653	84.334	0.221	-0.242
-638.638	137.381	0.103	0.134
-637.624	800.000	0.020	-0.062
-636.609	-200.000	0.012	-0.233
-635.595	5.756	0.063	0.047
-634.580	81.361	-0.018	-0.020
-633.565	70.527	-0.260	0.270
-632.551	800.000	-0.066	-0.232
-631.536	-200.000	-0.057	-0.334
-630.522	-33.851	-0.139	-0.077
-629.507	-155.812	-0.303	-0.019
-628.492	-117.350	0.217	-0.039
-627.478	-56.551	0.155	-0.069
-626.463	46.366	-0.094	0.087
-625.449	12.438	-0.309	0.238
-624.434	47.013	-0.173	0.161
-623.419	-200.000	-0.020	-0.158
-622.405	582.842	0.091	0.225
-621.390	-111.125	0.327	0.067
-620.376	-54.017	0.211	0.096
-619.361	-23.116	-0.176	-0.106
-618.346	-169.529	-0.308	0.011
-617.332	-109.496	0.407	0.086
-616.317	76.737	-0.032	-0.033
-615.303	-15.333	-0.268	-0.171
-614.288	-58.437	-0.408	0.177
-613.273	430.677	0.156	-0.337
-612.259	49.743	-0.041	0.038
-611.244	127.089	-0.089	-0.113
-610.230	-200.000	0.023	-0.354
-609.215	800.000	-0.130	0.373
-608.201	-86.812	0.152	-0.047
-607.186	800.000	0.119	0.398
-606.171	-200.000	-0.003	0.036
-605.157	377.436	-0.171	-0.350
-604.142	-152.660	0.235	0.017
-603.128	-22.945	0.261	-0.157
-602.113	554.426	-0.038	0.092
-601.098	-37.909	-0.474	0.252
-600.084	35.294	-0.223	-0.195
-599.069	-58.465	0.287	-0.125
-598.055	395.621	0.117	-0.243
-597.040	125.967	-0.112	-0.142
-596.025	-47.781	0.128	-0.062
-595.011	-62.407	0.076	0.032
-593.996	780.141	0.096	-0.262
-592.982	120.106	0.184	0.228
-591.967	-200.000	-0.037	0.200
-590.952	-39.549	-0.182	-0.095
-589.938	800.000	-0.066	-0.205
-588.923	-200.000	-0.011	-0.203
-587.909	-58.469	-0.274	-0.119
-586.894	-200.000	0.033	-0.189
-585.879	22.633	0.317	0.259
-584.865	-81.564	0.263	-0.086
-583.850	-200.000	0.024	-0.120
-582.836	-200.000	0.063	0.306
-581.821	-124.440	-0.152	-0.024
-580.806	666.156	-0.128	-0.329
-579.792	-3.906	-0.093	-0.064
-578.777	40.843	-0.087	-0.078
-577.763	-42.258	0.132	-0.067
-576.748	44.368	0.070	0.064
-575.733	112.181	0.135	-0.163
-574.719	-8.808	0.469	-0.314
-573.704	168.840	0.115	-0.164
-572.690	0.447	-0.230	0.164
-571.675	-121.253	-0.320	-0.053
-570.661	-172.887	-0.154	-0.005
-569.646	-174.083	0.114	-0.003
-568.631	28.160	-0.137	-0.115
-567.617	-200.000	-0.029	-0.561
-566.602	-200.000	-0.002	-0.347
-565.588	12.009	0.170	-0.130
-564.573	-200.000	-0.008	-0.035
-563.558	34.931	-0.171	0.150
-562.544	507.550	-0.063	0.146
-561.529	-112.317	-0.212	-0.042
-560.515	-35.825	-0.276	0.149
-559.500	98.254	0.159	-0.182
-558.485	112.010	0.132	-0.160
-557.471	74.324	0.269	0.283
-556.456	-200.000	-0.025	0.198
-555.442	-93.844	-0.187	-0.051
-554.427	492.639	0.120	-0.274
-553.412	-121.777	0.229	0.038
-552.398	-32.650	-0.222	-0.123
-551.383	697.952	0.052	0.137
-550.369	-134.534	0.181	-0.022
-549.354	-96.434	-0.176	0.046
-548.339	183.703	-0.088	-0.129
-547.325	248.110	-0.219	0.370
-546.310	231.634	-0.010	0.016
-545.296	-182.404	0.351	0.006
-544.281	-81.659	0.189	0.062
-543.266	-102.411	0.045	0.011
-542.252	-117.585	0.314	0.057
-541.237	800.000	-0.037	-0.103
-540.223	-64.648	-0.270	0.109
-539.208	280.043	0.120	0.213
-538.193	64.600	0.036	-0.036
-537.179	-140.149	-0.228	0.024
-536.164	91.217	-0.016	0.018
-535.150	800.000	-0.135	0.381
-534.135	-200.000	0.048	0.366
-533.121	-54.770	-0.309	-0.139
-532.106	21.874	0.081	-0.066
-531.091	-115.397	0.222	0.042
-530.077	422.018	0.128	0.274
-529.062	41.099	-0.200	-0.180
-528.048	-143.055	-0.114	0.011
-527.033	200.282	-0.247	0.378
-526.018	-60.301	0.041	0.017
-525.004	-106.216	-0.154	-0.034
-523.989	-200.000	0.001	-0.101
-522.975	-200.000	0.002	-0.430
-521.960	-170.765	-0.152	-0.005
-520.945	195.498	-0.097	0.147
-519.931	-71.813	0.057	0.021
-518.916	48.242	0.160	0.150
-517.902	337.443	-0.076	-0.147
-516.887	-39.499	-0.336	0.175
-515.872	-86.923	-0.416	0.127
-514.858	-20.906	0.178	-0.109
-513.843	251.479	0.050	0.085
-512.829	243.945	0.120	-0.200
-511.814	-19.455	0.352	-0.217
-510.799	-155.629	-0.217	0.014
-509.785	-18.623	-0.444	0.276
-508.770	312.721	-0.047	0.089
-507.756	-71.147	0.183	-0.068
-506.741	21.358	0.017	-0.014
-505.726	-200.000	0.001	0.093
-504.712	-200.000	0.001	0.109
-503.697	132.264	-0.174	0.223
-502.683	553.876	-0.083	-0.198
-501.668	521.558	0.021	-0.049
-500.653	-48.210	-0.287	0.138
-499.639	521.546	-0.096	-0.225
-498.624	-200.000	-0.057	-0.252
-497.610	-141.960	0.240	-0.024
-496.595	-18.315	-0.478	-0.298
-495.581	594.859	0.024	-0.059
-494.566	-106.651	0.289	-0.064
-493.551	512.383	-0.062	0.143
-492.537	20.190	-0.138	0.111
-491.522	40.567	0.154	0.138
-490.508	-6.081	0.064	0.043
-489.493	279.764	0.141	0.251
-488.478	-171.677	-0.382	-0.013
-487.464	-189.623	0.171	-0.002
-486.449	-126.213	-0.633	-0.094
-485.435	-200.000	0.083	0.368
-484.420	162.810	-0.127	0.177
-483.405	3.287	-0.211	-0.153
-482.391	-118.587	0.445	-0.078
-481.376	-91.715	-0.135	0.038
-480.362	800.000	0.121	0.409
-479.347	179.942	-0.113	0.165
-478.332	-200.000	0.023	0.257
-477.318	800.000	-0.070	-0.210
-476.303	800.000	-0.049	-0.176
-475.289	-8.727	-0.147	0.098
-474.274	92.068	0.110	-0.123
-473.259	-36.937	0.051	0.027
-472.245	21.495	0.164	-0.133
-471.230	-61.563	0.373	-0.156
-470.216	-114.189	-0.141	-0.027
-469.201	-22.332	0.318	-0.192
-468.186	116.186	0.139	-0.169
-467.172	-200.000	0.033	-0.477
-466.157	182.623	-0.089	0.131
-465.143	-200.000	0.017	0.094
-464.128	800.000	0.086	0.284
-463.113	340.374	0.065	0.126
-462.099	6.451	0.021	0.016
-461.084	800.000	-0.023	0.066
-460.070	434.682	-0.033	-0.071
-459.055	-115.468	0.170	0.032
-458.040	-200.000	0.002	-0.084
-457.026	800.000	-0.102	-0.408
-456.011	-137.408	0.358	0.040
-454.997	524.951	0.136	0.319
-453.982	5.139	-0.322	-0.236
-452.968	-86.109	0.075	0.023
-451.953	113.607	0.100	0.121
-450.938	-129.824	0.187	-0.026
-449.924	175.179	0.279	0.402
-448.909	-94.684	0.336	-0.091
-447.895	-98.861	0.040	0.010
-446.880	-125.873	0.214	-0.032
-445.865	-200.000	0.015	0.248
-444.851	9.016	-0.174	-0.130
-443.836	800.000	0.046	0.151
-442.822	532.075	0.101	0.237
-441.807	-76.982	0.028	-0.010
-440.792	-1.551	-0.288	0.202
-439.778	-200.000	0.064	-0.302
-438.763	-116.952	0.164	0.030
-437.749	342.720	0.018	-0.036
-436.734	-20.071	0.055	-0.034
-435.719	127.611	0.112	-0.142
-434.705	-55.978	-0.081	0.036
-433.690	-146.947	-0.295	-0.025
-432.676	316.705	-0.134	0.251
-431.661	-47.541	0.168	-0.081
-430.646	-4.927	0.225	0.154
-429.632	-71.622	-0.196	0.073
-428.617	94.969	-0.119	-0.134
-427.603	156.547	0.082	-0.113
-426.588	-28.395	0.087	-0.050
-425.573	-7.020	0.211	-0.142
-424.559	-200.000	-0.002	0.284
-423.544	74.447	-0.076	0.079
-422.530	-110.258	0.400	0.083
-421.515	-96.321	-0.471	-0.124
-420.500	214.020	-0.081	0.127
-419.486	287.686	-0.074	-0.133
-418.471	127.297	0.221	-0.278
-417.457	115.273	0.149	0.181
-416.442	149.084	-0.201	-0.270
-415.428	-66.559	0.229	-0.090
-414.413	-53.757	0.056	0.025
-413.398	-118.044	-0.363	0.064
-412.384	667.989	-0.046	0.117
-411.369	443.029	0.044	-0.096
-410.355	9.635	0.163	0.123
-409.340	142.478	-0.177	0.234
-408.325	497.125	-0.069	0.158
-407.311	800.000	0.052	-0.148
-406.296	71.407	0.017	-0.017
-405.282	-200.000	-0.009	-0.614
-404.267	199.535	0.128	0.195
-403.252	-200.000	0.029	0.195
-402.238	-101.182	-0.192	0.046
-401.223	139.254	0.140	0.183
-400.209	-200.000	0.054	0.381
-399.194	-101.705	-0.167	-0.040
-398.179	-34.308	-0.424	-0.231
-397.165	549.316	-0.025	0.060
-396.150	-148.377	-0.180	0.015
-395.136	483.595	0.088	-0.198
-394.121	202.884	-0.139	-0.213
-393.106	-200.000	-0.007	-0.100
-392.092	-14.124	-0.104	0.067
-391.077	292.082	-0.034	0.061
-390.063	-191.768	-0.271	0.003
-389.048	-18.845	-0.089	0.055
-388.033	-79.354	-0.327	0.110
-387.019	-150.647	0.095	0.007
-386.004	-200.000	-0.064	-0.363
-384.990	-200.000	0.004	-0.254
-383.975	106.721	0.047	-0.055
-382.960	800.000	0.106	-0.409
-381.946	-39.026	-0.201	-0.105
-380.931	4.858	0.039	-0.028
-379.917	177.029	-0.068	-0.098
-378.902	-200.000	0.065	0.000
-377.888	-62.861	-0.237	0.097
-376.873	-72.959	0.063	0.023
-375.858	-111.053	0.224	0.046
-374.844	-200.000	-0.011	-0.136
-373.829	-200.000	-0.062	0.313
-372.815	234.768	-0.177	-0.290
-371.800	800.000	-0.031	0.086
-370.785	48.290	0.120	0.112
-369.771	45.901	-0.344	0.315
-368.756	-75.909	0.395	-0.138
-367.742	800.000	0.113	-0.365
-366.727	-200.000	-0.010	-0.049
-365.712	-19.957	0.258	0.158
-364.698	-5.278	0.160	0.109
-363.683	105.499	-0.144	0.169
-362.669	-44.721	-0.305	0.151
-361.654	800.000	-0.034	-0.145
-360.639	52.081	-0.095	-0.089
-359.625	-114.273	0.316	0.060
-358.610	-86.169	0.384	0.117
-357.596	-24.587	-0.174	0.103
-356.581	-67.139	-0.154	0.060
-355.566	199.886	-0.306	0.465
-354.552	71.782	0.166	-0.171
-353.537	800.000	0.070	0.206
-352.523	-134.147	-0.324	0.040
-351.508	-85.088	0.145	-0.045
-350.493	-71.574	0.122	0.045
-349.479	122.529	-0.089	0.110
-348.464	-61.407	0.130	-0.054
-347.450	-43.901	-0.376	0.187
-346.435	4.916	-0.196	0.143
-345.420	-54.746	-0.169	0.076
-344.406	-51.051	0.421	-0.195
-343.391	374.807	0.096	-0.193
-342.377	-87.935	-0.275	0.082
-341.362	-82.632	-0.080	-0.026
-340.348	800.000	-0.127	0.432
-339.333	90.303	0.097	0.108
-338.318	132.891	0.085	0.108
-337.304	118.541	-0.146	-0.179
-336.289	-103.151	0.222	0.052
-335.275	-10.284	-0.144	0.095
-334.260	-200.000	-0.017	0.101
-333.245	-114.990	-0.502	0.094
-332.231	-200.000	0.054	0.387
-331.216	-200.000	0.005	-0.055
-330.202	-200.000	-0.116	0.000
-329.187	-71.864	0.285	0.105
-328.172	-34.004	-0.051	-0.028
-327.158	-71.797	-0.354	-0.131
-326.143	-143.041	0.269	-0.026
-325.129	-186.723	0.276	0.004
-324.114	800.000	0.048	-0.137
-323.099	18.248	-0.137	-0.108
-322.085	484.590	-0.085	-0.191
-321.070	-200.000	0.003	0.268
-320.056	60.328	-0.163	0.160
-319.041	28.137	-0.280	-0.234
-318.026	-200.000	0.004	0.199
-317.012	-82.817	-0.216	-0.069
-315.997	800.000	0.078	0.247
-314.983	62.315	-0.151	0.149
-313.968	218.386	0.162	-0.256
-312.953	-56.450	0.109	0.048
-311.939	-58.190	-0.316	0.136
-310.924	-200.000	-0.060	-0.287
-309.910	-89.773	0.233	-0.068
-308.895	41.175	-0.103	-0.092
-307.880	800.000	-0.065	-0.206
-306.866	15.713	0.078	-0.061
-305.851	277.469	-0.119	0.209
-304.837	122.447	-0.144	0.178
-303.822	112.447	-0.129	0.155
-302.807	242.659	0.246	-0.407
-301.793	575.409	0.111	-0.267
-300.778	-200.000	0.024	0.166
-299.764	-200.000	-0.040	0.336
-298.749	-28.699	0.239	-0.136
-297.735	685.356	0.074	0.191
-296.720	-74.118	0.113	-0.040
-295.705	203.479	0.047	-0.072
-294.691	41.071	0.183	-0.163
-293.676	-87.563	-0.371	0.111
-292.662	473.511	0.129	-0.287
-291.647	-113.047	-0.117	0.023
-290.632	-200.000	-0.031	-0.374
-289.618	-118.316	0.128	0.023
-288.603	-198.402	-0.152	0.001
-287.589	-200.000	-0.046	-0.270
-286.574	-106.252	0.138	-0.031
-285.559	10.188	-0.142	0.106
-284.545	-87.536	0.283	0.085
-283.530	-171.919	-0.225	0.007
-282.516	233.676	0.130	0.211
-281.501	-100.444	0.385	-0.094
-280.486	-52.159	-0.336	-0.154
-279.472	-16.406	0.309	-0.194
-278.457	-93.002	-0.317	-0.087
-277.443	-40.262	0.186	-0.096
-276.428	-61.732	0.498	-0.206
-275.413	200.951	-0.107	-0.162
-274.399	288.424	0.119	0.213
-273.384	39.864	0.243	0.215
-272.370	-200.000	-0.028	0.180
-271.355	-54.740	-0.080	0.036
-270.340	-69.291	0.280	-0.106
-269.326	69.006	-0.140	0.142
-268.311	629.067	-0.031	-0.078
-267.297	354.931	0.191	0.374
-266.282	-128.876	-0.357	-0.050
-265.267	-20.601	-0.078	0.047
-264.253	-160.261	0.196	-0.010
-263.238	-32.216	0.295	-0.162
-262.224	40.033	-0.224	-0.198
-261.209	-45.948	0.155	-0.075
-260.195	111.442	-0.184	0.219
-259.180	-84.447	0.246	0.077
-258.165	-134.704	0.134	-0.016
-257.151	-112.251	0.296	0.058
-256.136	15.558	0.326	-0.253
-255.122	221.069	-0.030	0.048
-254.107	-55.041	0.078	0.034
-253.092	103.769	-0.120	-0.139
-252.078	248.676	0.104	0.173
-251.063	286.472	0.130	0.232
-250.049	-83.846	-0.309	0.097
-249.034	-179.546	0.230	-0.005
-248.019	-200.000	0.030	0.376
-247.005	-200.000	0.020	-0.122
-245.990	465.143	0.078	0.172
-244.976	101.173	-0.311	-0.357
-243.961	95.179	0.157	0.176
-242.946	-60.487	0.123	-0.051
-241.932	800.000	-0.065	0.239
-240.917	-74.376	-0.266	-0.095
-239.903	167.317	0.040	-0.056
-238.888	47.181	-0.271	0.249
-237.873	800.000	0.051	-0.174
-236.859	-200.000	0.023	-0.220
-235.844	-34.173	0.134	-0.072
-234.830	-140.511	0.141	-0.014
-233.815	800.000	-0.069	0.279
-232.800	172.887	-0.243	-0.344
-231.786	-89.733	0.014	0.004
-230.771	-26.956	0.131	0.075
-229.757	8.412	0.072	0.053
-228.742	199.957	-0.106	-0.160
-227.727	767.059	-0.160	0.429
-226.713	-133.464	-0.180	0.022
-225.698	277.002	-0.118	-0.206
-224.684	214.904	0.181	-0.282
-223.669	34.651	0.042	0.036
-222.655	800.000	0.043	-0.161
-221.640	455.829	0.129	0.283
-220.625	91.525	0.229	0.254
-219.611	-123.075	-0.088	0.014
-218.596	-138.649	-0.151	0.016
-217.582	800.000	0.025	-0.088
-216.567	800.000	-0.092	0.313
-215.552	800.000	-0.069	-0.260
-214.538	13.289	-0.080	0.061
-213.523	-128.511	-0.136	-0.019
-212.509	-200.000	-0.014	0.096
-211.494	128.009	0.081	0.101
-210.479	-40.659	0.172	-0.088
-209.465	99.707	0.178	-0.203
-208.450	-76.539	0.300	0.104
-207.436	-88.010	0.091	0.027
-206.421	-200.000	0.023	-0.214
-205.406	-21.068	-0.464	0.279
-204.392	534.968	0.107	0.250
-203.377	-139.063	0.306	0.033
-202.363	77.896	0.172	-0.180
-201.348	-200.000	-0.069	-0.317
-200.333	-200.000	0.001	-0.019
-199.319	800.000	-0.069	-0.260
-198.304	-31.866	0.067	-0.037
-197.290	800.000	0.071	-0.212
-196.275	-35.928	0.286	0.152
-195.260	-29.771	-0.341	0.192
-194.246	-18.027	-0.143	-0.088
-193.231	152.831	0.051	0.069
-192.217	104.810	-0.124	-0.143
-191.202	-200.000	0.050	0.237
-190.187	-200.000	-0.068	0.580
-189.173	-108.247	-0.150	0.032
-188.158	-39.769	0.074	-0.038
-187.144	-18.268	0.344	0.212
-186.129	-6.175	-0.279	0.188
-185.114	11.268	-0.337	-0.254
-184.100	-72.899	0.287	0.104
-183.085	800.000	-0.056	0.170
-182.071	22.232	-0.117	0.094
-181.056	-50.586	0.337	0.156
-180.042	84.356	0.162	0.174
-179.027	-10.143	0.135	-0.088
-178.012	-200.000	-0.052	-0.261
-176.998	42.466	0.251	-0.225
-175.983	198.815	0.099	0.149
-174.969	-36.260	0.063	-0.033
-173.954	800.000	0.069	0.235
-172.939	766.669	-0.083	-0.222
-171.925	-123.478	-0.138	-0.022
-170.910	418.428	-0.026	-0.055
-169.896	-200.000	0.021	-0.151
-168.881	-136.270	-0.213	0.024
-167.866	317.063	-0.038	0.070
-166.852	73.880	-0.044	-0.045
-165.837	289.322	0.038	0.068
-164.823	131.174	0.110	0.139
-163.808	-103.525	-0.389	0.090
-162.793	-61.992	0.330	-0.135
-161.779	-65.856	0.057	0.022
-160.764	-110.202	0.184	-0.038
-159.750	686.700	0.032	0.082
-158.735	504.610	0.071	0.163
-157.720	-79.957	-0.121	-0.040
-156.706	-60.758	0.294	-0.122
-155.691	-112.466	0.194	0.038
-154.677	43.204	0.182	-0.164
-153.662	48.423	0.184	0.169
-152.647	-200.000	0.033	-0.248
-151.633	800.000	0.015	-0.058
-150.618	-145.456	0.296	0.026
-149.604	800.000	0.101	0.397
-148.589	3.158	0.112	-0.080
-147.574	-89.685	-0.159	-0.046
-146.560	530.781	0.096	-0.224
-145.545	339.131	0.099	0.189
-144.531	-69.503	-0.287	0.108
-143.516	-200.000	0.025	-0.136
-142.502	623.589	0.146	-0.360
-141.487	-197.686	0.183	-0.001
-140.472	-173.785	-0.077	-0.002
-139.458	26.486	0.058	0.048
-138.443	-200.000	-0.019	0.131
-137.429	379.971	-0.059	0.119
-136.414	55.279	0.191	0.181
-135.399	-104.718	-0.334	0.076
-134.385	567.302	-0.063	-0.151
-133.370	-200.000	-0.072	-0.000
-132.356	-77.849	-0.155	-0.052
-131.341	800.000	0.081	0.231
-130.326	-200.000	0.001	-0.130
-129.312	18.347	0.221	-0.173
-128.297	-200.000	-0.019	0.096
-127.283	-200.000	0.017	0.116
-126.268	87.865	-0.170	-0.184
-125.253	800.000	-0.051	-0.167
-124.239	228.962	-0.078	-0.126
-123.224	-200.000	-0.005	0.343
-122.210	654.837	-0.124	0.312
-121.195	-72.813	0.385	0.139
