DTS Sentinel unit serial number:	SN413079Multiplexer serial number:	ORYXHardware model number:	OX4-SRSoftware version number:	ORYX F/W v4.00 Oryx Data Collector v3.7.2.0data status	okinstallation	princeton_trtdifferential loss correction	single-endedforward channel	channel 1reverse channel	N/Adate	2019/09/14time	11:14:35forward acquisition time	60.00reverse acquisition time	0.00gamma	496.2192k internal	0.2297k external	0.2297temperature offset calibration	1.0084default loss term (dB/km)	0.3790temperature slope calibration	1.0000multiplexer offset coefficient	1.0000multiplexer slope coefficient	1.0000fibre end	0.00T internal ref (°C)	36.52T ext. ref 1 (°C)	4.45T ext. ref 2 (°C)	33.49length (m)	temperature (°C)	Stokes	anti-Stokes-747.200	374.941	0.036	-0.075
-746.185	-200.000	-0.016	0.090
-745.171	-99.261	0.051	-0.013
-744.156	219.619	0.173	0.282
-743.142	13.041	-0.119	-0.094
-742.127	-50.966	-0.197	-0.094
-741.112	-200.000	0.007	-0.172
-740.098	68.080	0.148	0.155
-739.083	-200.000	0.014	-0.080
-738.069	29.474	-0.232	-0.201
-737.054	-200.000	-0.001	-0.075
-736.039	-200.000	0.004	0.131
-735.025	-104.802	-0.206	-0.048
-734.010	-200.000	-0.052	-0.278
-732.996	-200.000	0.037	-0.271
-731.981	86.197	0.090	0.101
-730.966	800.000	-0.075	0.278
-729.952	-122.682	-0.317	0.052
-728.937	115.463	0.171	0.213
-727.923	800.000	-0.036	0.110
-726.908	478.822	-0.074	0.170
-725.894	-200.000	-0.007	-0.223
-724.879	287.759	-0.185	-0.341
-723.864	106.119	-0.275	0.333
-722.850	-200.000	0.022	0.182
-721.835	178.284	0.111	-0.165
-720.821	-84.674	-0.102	0.033
-719.806	63.826	-0.184	-0.188
-718.791	-25.088	-0.053	-0.032
-717.777	-128.227	-0.084	0.012
-716.762	-119.229	0.105	-0.019
-715.748	-53.763	0.346	0.161
-714.733	22.726	-0.289	-0.241
-713.718	-200.000	-0.015	0.076
-712.704	355.409	-0.057	-0.117
-711.689	800.000	0.060	0.168
-710.675	369.439	0.112	-0.231
-709.660	63.765	-0.092	0.094
-708.645	252.723	0.087	-0.151
-707.631	10.883	0.053	-0.041
-706.616	800.000	0.074	-0.310
-705.602	-24.534	0.144	0.087
-704.587	-128.104	0.229	-0.033
-703.572	-57.539	-0.196	-0.088
-702.558	-99.367	0.073	0.019
-701.543	-75.536	0.231	-0.084
-700.529	308.810	0.063	-0.119
-699.514	-141.142	-0.335	0.035
-698.499	754.934	0.086	-0.236
-697.485	-15.502	0.081	-0.053
-696.470	-171.316	0.191	-0.007
-695.456	175.083	-0.146	-0.216
-694.441	-173.158	0.214	-0.007
-693.426	-181.560	-0.244	-0.005
-692.412	319.700	0.021	-0.041
-691.397	164.666	-0.263	-0.378
-690.383	-129.966	-0.108	0.015
-689.368	428.242	0.059	-0.129
-688.354	334.648	0.041	-0.082
-687.339	-150.543	0.129	-0.010
-686.324	117.860	-0.083	0.104
-685.310	-138.145	0.146	0.017
-684.295	-79.580	-0.254	0.087
-683.281	800.000	-0.059	-0.234
-682.266	-16.487	-0.084	0.054
-681.251	-118.594	-0.116	0.021
-680.237	359.376	0.011	-0.022
-679.222	125.101	-0.051	-0.065
-678.208	-200.000	0.009	-0.383
-677.193	51.437	0.019	0.018
-676.178	287.635	0.082	-0.151
-675.164	-74.321	-0.321	0.118
-674.149	161.728	-0.029	0.042
-673.135	-45.053	-0.152	-0.077
-672.120	-142.051	-0.485	-0.049
-671.105	227.347	-0.072	0.119
-670.091	-70.691	0.151	0.058
-669.076	-200.000	-0.002	-0.581
-668.062	-31.186	-0.102	-0.058
-667.047	254.413	-0.135	0.234
-666.032	56.709	0.153	-0.151
-665.018	-27.005	0.220	0.131
-664.003	-99.925	0.284	-0.072
-662.989	108.632	-0.339	-0.413
-661.974	-94.954	0.351	0.097
-660.959	-135.418	-0.054	-0.007
-659.945	211.485	-0.101	0.162
-658.930	-78.385	0.243	-0.085
-657.916	-2.228	0.258	0.184
-656.901	374.333	0.060	-0.125
-655.886	-200.000	0.028	-0.205
-654.872	23.069	0.302	-0.252
-653.857	42.510	-0.070	0.064
-652.843	0.289	-0.359	-0.261
-651.828	800.000	0.107	-0.475
-650.814	-200.000	-0.112	-0.693
-649.799	108.878	0.186	0.226
-648.784	800.000	0.057	-0.198
-647.770	-33.978	-0.227	0.127
-646.755	-200.000	-0.064	-0.465
-645.741	-62.273	-0.227	0.096
-644.726	-200.000	0.019	0.222
-643.711	69.970	-0.136	0.142
-642.697	205.831	-0.035	0.055
-641.682	-77.293	0.121	0.043
-640.668	117.422	-0.216	0.270
-639.653	39.202	-0.061	0.055
-638.638	330.675	0.105	0.205
-637.624	-38.460	0.100	0.054
-636.609	492.343	0.082	0.190
-635.595	800.000	0.041	-0.155
-634.580	-127.540	0.112	0.017
-633.565	1.638	-0.120	-0.088
-632.551	-200.000	-0.042	0.276
-631.536	220.600	-0.044	0.072
-630.522	-41.515	-0.339	-0.177
-629.507	80.066	0.204	-0.223
-628.492	199.482	-0.337	-0.525
-627.478	336.959	0.120	-0.238
-626.463	683.741	0.045	-0.120
-625.449	51.996	0.159	0.154
-624.434	800.000	0.044	0.170
-623.419	-27.548	-0.086	-0.051
-622.405	17.155	-0.030	0.024
-621.390	125.901	-0.074	-0.095
-620.376	-200.000	-0.017	0.092
-619.361	-29.981	-0.052	-0.030
-618.346	125.742	0.147	-0.188
-617.332	-148.234	-0.284	0.024
-616.317	800.000	0.085	0.306
-615.303	-7.731	0.127	-0.087
-614.288	-103.428	0.301	-0.072
-613.273	83.552	-0.293	-0.325
-612.259	260.887	0.198	-0.348
-611.244	119.103	0.154	-0.194
-610.230	462.382	0.074	-0.168
-609.215	-200.000	0.012	-0.275
-608.201	148.495	-0.078	0.107
-607.186	-124.162	-0.261	0.042
-606.171	-28.664	-0.358	-0.210
-605.157	-118.010	-0.136	0.025
-604.142	-97.757	-0.231	-0.061
-603.128	162.593	0.096	0.137
-602.113	179.728	-0.072	-0.107
-601.098	74.677	0.086	0.092
-600.084	-54.864	-0.296	0.135
-599.069	-200.000	-0.066	-0.349
-598.055	165.329	-0.120	0.172
-597.040	592.773	-0.080	-0.200
-596.025	-42.845	0.232	-0.120
-595.011	38.168	-0.200	-0.181
-593.996	-200.000	-0.001	0.119
-592.982	83.313	-0.127	0.140
-591.967	-200.000	0.021	0.190
-590.952	-30.478	0.134	-0.077
-589.938	-145.302	0.283	-0.026
-588.923	490.888	-0.032	-0.075
-587.909	-33.689	0.172	-0.096
-586.894	399.673	-0.082	-0.175
-585.879	615.213	-0.073	0.187
-584.865	-46.420	0.100	-0.050
-583.850	10.722	0.052	0.040
-582.836	800.000	0.082	0.356
-581.821	-200.000	-0.019	0.225
-580.806	-32.541	-0.203	0.115
-579.792	-200.000	0.042	0.192
-578.777	-38.726	-0.175	0.094
-577.763	204.479	0.116	-0.183
-576.748	-111.013	0.224	-0.047
-575.733	401.957	-0.053	-0.113
-574.719	-92.002	0.322	0.093
-573.704	-100.856	-0.248	0.062
-572.690	674.894	-0.077	-0.202
-571.675	-101.179	-0.246	0.061
-570.661	175.970	0.202	0.297
-569.646	-119.705	-0.239	0.042
-568.631	43.422	0.147	-0.136
-567.617	32.972	-0.088	-0.077
-566.602	30.216	0.259	0.224
-565.588	-8.792	-0.203	0.138
-564.573	-25.943	0.201	-0.120
-563.558	-25.801	0.092	-0.055
-562.544	-57.801	-0.300	-0.133
-561.529	-130.001	0.067	-0.009
-560.515	153.463	-0.166	-0.231
-559.500	-200.000	0.018	0.200
-558.485	338.545	0.121	0.238
-557.471	-80.760	-0.370	-0.125
-556.456	41.115	-0.076	-0.069
-555.442	312.528	0.163	-0.310
-554.427	200.870	0.157	-0.246
-553.412	18.267	0.134	-0.108
-552.398	-80.019	-0.154	-0.052
-551.383	-112.263	-0.313	0.064
-550.369	428.548	-0.006	-0.013
-549.354	-4.718	0.409	0.286
-548.339	-200.000	0.003	-0.070
-547.325	-156.666	-0.089	-0.006
-546.310	-57.537	-0.152	-0.068
-545.296	-200.000	0.010	0.324
-544.281	17.684	0.070	-0.056
-543.266	-54.119	0.113	-0.052
-542.252	-0.442	0.262	0.188
-541.237	-2.202	0.203	-0.144
-540.223	-51.691	0.102	-0.048
-539.208	-200.000	0.001	0.179
-538.193	34.357	0.196	-0.173
-537.179	800.000	-0.003	-0.011
-536.164	116.415	0.112	-0.139
-535.150	114.395	-0.040	-0.049
-534.135	-97.424	-0.344	-0.091
-533.121	-11.050	-0.149	0.100
-532.106	800.000	0.066	0.188
-531.091	162.235	-0.017	0.024
-530.077	-82.555	-0.038	0.012
-529.062	-100.793	-0.295	0.073
-528.048	-5.902	0.047	0.032
-527.033	202.470	-0.169	-0.264
-526.018	800.000	-0.042	0.119
-525.004	732.715	-0.070	0.190
-523.989	-53.107	-0.160	-0.074
-522.975	-200.000	-0.041	-0.205
-521.960	263.156	-0.075	-0.133
-520.945	800.000	0.039	0.150
-519.931	162.790	0.083	0.118
-518.916	-200.000	0.020	0.224
-517.902	526.887	-0.106	0.253
-516.887	-121.010	0.211	0.036
-515.872	-11.046	-0.317	-0.212
-514.858	759.673	0.042	-0.115
-513.843	-68.945	0.245	-0.096
-512.829	-17.998	0.330	-0.209
-511.814	-4.233	-0.476	0.333
-510.799	-200.000	0.027	-0.190
-509.785	-93.366	0.275	-0.077
-508.770	-33.721	0.116	-0.065
-507.756	100.213	0.149	0.175
-506.741	344.504	-0.173	0.343
-505.726	-151.585	-0.113	-0.008
-504.712	205.926	-0.134	0.212
-503.697	-69.140	-0.180	0.070
-502.683	-78.958	0.122	-0.042
-501.668	187.759	-0.069	-0.104
-500.653	136.390	-0.114	-0.150
-499.639	14.467	-0.178	0.140
-498.624	-32.838	-0.329	-0.185
-497.610	299.111	0.060	-0.111
-496.595	-72.610	0.130	-0.049
-495.581	-200.000	-0.011	-0.106
-494.566	-64.408	-0.123	0.051
-493.551	-141.984	-0.245	0.025
-492.537	-153.775	0.196	0.014
-491.522	730.548	-0.150	-0.407
-490.508	220.156	0.130	-0.210
-489.493	-111.033	0.283	-0.059
-488.478	-200.000	-0.021	0.187
-487.464	638.172	-0.049	0.126
-486.449	128.736	-0.219	0.283
-485.435	42.366	0.094	-0.086
-484.420	4.779	-0.414	-0.307
-483.405	800.000	-0.094	0.371
-482.391	615.074	-0.117	-0.296
-481.376	-200.000	-0.027	0.186
-480.362	-200.000	0.000	0.204
-479.347	-3.140	-0.043	-0.030
-478.332	-200.000	0.002	-0.054
-477.318	-140.875	-0.113	0.012
-476.303	-85.425	-0.201	-0.063
-475.289	-200.000	0.093	0.532
-474.274	167.031	-0.051	-0.073
-473.259	-167.938	0.506	0.020
-472.245	49.875	0.038	0.036
-471.230	-200.000	-0.080	0.471
-470.216	-200.000	-0.044	0.444
-469.201	309.666	0.066	-0.125
-468.186	213.279	-0.069	0.110
-467.172	-116.924	0.160	0.030
-466.157	183.603	0.227	-0.339
-465.143	21.559	0.032	0.026
-464.128	-97.823	0.108	-0.028
-463.113	-117.830	0.312	0.057
-462.099	14.266	-0.063	-0.049
-461.084	-200.000	-0.013	-0.129
-460.070	10.772	0.079	-0.061
-459.055	67.871	-0.183	-0.189
-458.040	-200.000	-0.014	-0.079
-457.026	-200.000	-0.007	-0.080
-456.011	-200.000	0.003	-0.043
-454.997	712.371	-0.037	-0.098
-453.982	-200.000	-0.024	-0.132
-452.968	24.730	-0.194	-0.162
-451.953	-11.353	-0.177	-0.117
-450.938	-200.000	0.057	0.366
-449.924	-123.589	-0.175	-0.028
-448.909	800.000	0.096	-0.361
-447.895	-59.703	-0.310	-0.134
-446.880	-58.748	-0.149	-0.065
-445.865	800.000	-0.057	-0.226
-444.851	256.293	-0.123	0.213
-443.836	-62.131	-0.021	-0.009
-442.822	76.039	-0.099	-0.106
-441.807	141.185	-0.120	0.160
-440.792	73.529	-0.058	-0.061
-439.778	-200.000	0.009	0.071
-438.763	-23.883	-0.162	-0.098
-437.749	-43.170	0.345	-0.176
-436.734	-43.239	0.047	0.024
-435.719	94.037	0.268	0.307
-434.705	-200.000	0.063	0.318
-433.690	800.000	0.058	0.198
-432.676	-200.000	-0.006	0.350
-431.661	800.000	-0.161	0.549
-430.646	-100.748	0.210	-0.052
-429.632	-145.540	-0.132	0.012
-428.617	-200.000	-0.018	0.110
-427.603	472.449	-0.058	-0.133
-426.588	690.893	0.049	0.131
-425.573	-200.000	-0.006	0.291
-424.559	-169.935	0.148	-0.005
-423.544	20.508	0.130	0.106
-422.530	83.588	-0.135	0.148
-421.515	285.470	-0.108	-0.196
-420.500	-65.286	0.157	-0.064
-419.486	-139.393	0.248	0.027
-418.471	-81.549	-0.207	0.069
-417.457	-200.000	0.071	0.000
-416.442	-17.793	-0.036	0.023
-415.428	-155.848	0.142	0.009
-414.413	21.665	0.101	0.083
-413.398	665.200	-0.060	0.156
-412.384	-200.000	-0.080	-0.370
-411.369	-200.000	-0.003	0.175
-410.355	800.000	0.062	0.272
-409.340	-200.000	-0.023	-0.158
-408.325	-138.379	-0.083	0.009
-407.311	-46.098	-0.217	0.108
-406.296	-200.000	-0.012	0.246
-405.282	-101.020	0.441	-0.109
-404.267	25.620	0.285	-0.239
-403.252	228.489	-0.266	-0.437
-402.238	37.012	-0.413	-0.368
-401.223	82.557	-0.164	0.180
-400.209	19.222	0.134	0.108
-399.194	27.664	0.140	-0.119
-398.179	-43.831	-0.075	0.038
-397.165	106.665	0.039	-0.047
-396.150	541.484	0.060	0.143
-395.136	379.755	0.135	0.278
-394.121	-7.254	-0.087	0.059
-393.106	-8.607	-0.282	-0.191
-392.092	366.116	0.124	-0.252
-391.077	-200.000	-0.007	0.121
-390.063	-80.815	0.133	0.044
-389.048	-136.090	-0.153	0.018
-388.033	50.423	-0.086	-0.082
-387.019	4.396	-0.155	-0.114
-386.004	126.695	-0.113	-0.145
-384.990	-23.762	-0.151	-0.091
-383.975	-200.000	0.001	0.125
-382.960	-200.000	0.028	-0.196
-381.946	-102.762	-0.294	-0.070
-380.931	-200.000	-0.008	-0.149
-379.917	31.058	0.103	-0.089
-378.902	25.709	-0.241	0.202
-377.888	-28.075	0.317	-0.185
-376.873	-200.000	-0.074	0.401
-375.858	-118.280	0.162	0.029
-374.844	-2.550	0.163	-0.115
-373.829	-200.000	0.029	0.204
-372.815	-126.931	0.395	0.058
-371.800	-15.906	0.089	-0.057
-370.785	27.370	-0.076	-0.064
-369.771	-138.080	0.324	-0.036
-368.756	222.691	-0.056	0.092
-367.742	24.319	0.289	0.240
-366.727	-200.000	0.037	-0.230
-365.712	169.183	-0.142	-0.204
-364.698	-105.575	-0.409	0.093
-363.683	104.444	-0.251	0.298
-362.669	69.088	-0.101	-0.104
-361.654	169.611	-0.120	-0.172
-360.639	-200.000	-0.022	-0.166
-359.625	138.403	-0.250	-0.330
-358.610	332.248	0.132	0.257
-357.596	514.245	-0.133	-0.312
-356.581	407.020	-0.163	-0.346
-355.566	-20.947	-0.213	-0.131
-354.552	-116.762	-0.213	-0.039
-353.537	-108.240	0.174	-0.038
-352.523	800.000	0.010	0.032
-351.508	186.154	-0.008	0.011
-350.493	171.789	0.127	-0.183
-349.479	-118.855	0.171	-0.030
-348.464	-55.269	0.078	0.035
-347.450	-83.296	-0.463	-0.150
-346.435	257.943	-0.196	-0.340
-345.420	55.679	0.133	0.129
-344.406	800.000	0.072	0.219
-343.391	-200.000	0.000	0.306
-342.377	-168.018	-0.149	0.006
-341.362	-156.495	0.202	0.013
-340.348	28.296	-0.245	-0.208
-339.333	-94.810	-0.277	0.075
-338.318	-70.299	-0.233	-0.089
-337.304	10.045	-0.223	-0.170
-336.289	-200.000	-0.028	0.193
-335.275	-47.312	0.202	0.099
-334.260	-200.000	0.007	0.129
-333.245	39.175	-0.170	-0.153
-332.231	1.601	-0.148	0.107
-331.216	216.582	0.099	0.159
-330.202	121.537	-0.088	-0.110
-329.187	-104.589	-0.167	0.039
-328.172	-200.000	0.036	-0.267
-327.158	-200.000	0.012	-0.170
-326.143	800.000	-0.022	0.077
-325.129	800.000	0.057	-0.167
-324.114	753.093	0.063	-0.171
-323.099	10.352	0.182	0.139
-322.085	800.000	-0.042	-0.172
-321.070	-144.165	-0.185	0.017
-320.056	787.520	0.164	0.452
-319.041	135.040	0.182	0.238
-318.026	-131.954	0.165	0.022
-317.012	95.319	-0.097	0.111
-315.997	-56.197	-0.041	0.018
-314.983	-56.060	-0.157	-0.070
-313.968	82.946	0.034	-0.037
-312.953	-112.790	-0.124	-0.025
-311.939	-94.694	0.255	-0.070
-310.924	-108.680	0.250	-0.054
-309.910	687.350	-0.119	-0.313
-308.895	-200.000	-0.013	0.268
-307.880	-116.445	0.253	0.047
-306.866	54.156	-0.182	0.175
-305.851	-200.000	-0.019	-0.190
-304.837	174.794	0.215	-0.312
-303.822	-200.000	-0.006	0.276
-302.807	80.416	-0.160	0.173
-301.793	-88.027	0.323	0.097
-300.778	204.436	0.083	0.129
-299.764	-41.607	-0.220	-0.113
-298.749	-70.361	-0.277	-0.105
-297.735	14.499	0.079	0.062
-296.720	-200.000	-0.048	-0.477
-295.705	143.839	0.045	0.060
-294.691	-6.760	-0.114	0.078
-293.676	-129.797	0.188	0.026
-292.662	-2.857	0.107	0.075
-291.647	19.994	0.223	-0.181
-290.632	-44.831	-0.070	0.035
-289.618	800.000	-0.028	0.089
-288.603	55.038	0.371	-0.359
-287.589	-64.344	-0.075	0.031
-286.574	-200.000	-0.035	-0.168
-285.559	490.516	0.128	0.293
-284.545	65.721	0.319	-0.324
-283.530	376.489	-0.090	0.185
-282.516	-187.354	-0.274	-0.004
-281.501	-200.000	0.001	0.016
-280.486	-200.000	0.015	0.192
-279.472	-70.064	0.270	-0.103
-278.457	305.396	-0.240	-0.448
-277.443	-42.742	0.175	0.089
-276.428	-200.000	-0.022	0.225
-275.413	98.789	-0.063	0.073
-274.399	415.894	-0.083	0.178
-273.384	129.982	-0.143	-0.183
-272.370	-200.000	0.019	0.237
-271.355	1.496	-0.285	0.206
-270.340	-65.647	-0.504	0.203
-269.326	-200.000	0.045	0.196
-268.311	14.446	0.386	-0.302
-267.297	-154.020	-0.199	-0.014
-266.282	800.000	-0.020	0.064
-265.267	22.403	0.094	-0.077
-264.253	408.617	0.044	0.093
-263.238	-200.000	-0.023	0.176
-262.224	800.000	-0.013	0.056
-261.209	777.242	0.039	-0.108
-260.195	22.956	0.081	-0.067
-259.180	448.836	-0.091	-0.202
-258.165	-32.458	-0.235	-0.131
-257.151	92.084	0.154	-0.174
-256.136	-200.000	0.004	-0.035
-255.122	-71.095	0.057	0.021
-254.107	-134.312	0.379	0.047
-253.092	-118.491	-0.352	-0.062
-252.078	800.000	-0.020	0.059
-251.063	800.000	-0.039	-0.108
-250.049	55.330	0.297	0.288
-249.034	254.117	-0.202	0.346
-248.019	92.817	-0.086	0.098
-247.005	800.000	-0.044	0.173
-245.990	-200.000	0.006	0.100
-244.976	-71.918	-0.089	0.033
-243.961	-124.510	-0.321	-0.050
-242.946	-109.454	0.322	0.068
-241.932	-67.370	0.093	0.037
-240.917	36.175	-0.189	-0.166
-239.903	-78.420	-0.354	0.122
-238.888	-200.000	0.048	-0.426
-237.873	-200.000	-0.128	0.001
-236.859	243.167	-0.025	0.043
-235.844	800.000	0.004	0.011
-234.830	-200.000	0.013	0.166
-233.815	-200.000	-0.008	-0.056
-232.800	-200.000	0.053	0.326
-231.786	283.074	0.027	0.049
-230.771	-200.000	-0.006	0.120
-229.757	-200.000	0.009	-0.389
-228.742	234.837	0.044	0.072
-227.727	-200.000	-0.005	-0.022
-226.713	-44.913	0.137	-0.068
-225.698	800.000	0.059	0.245
-224.684	-2.529	-0.199	0.139
-223.669	800.000	0.096	-0.302
-222.655	22.919	-0.051	0.042
-221.640	-200.000	-0.011	0.067
-220.625	21.922	-0.329	0.268
-219.611	1.555	0.175	0.126
-218.596	156.584	0.222	-0.307
-217.582	747.331	0.035	-0.095
-216.567	-103.670	0.297	-0.070
-215.552	266.520	-0.178	0.311
-214.538	-200.000	0.032	-0.171
-213.523	-39.243	-0.056	-0.030
-212.509	-113.366	-0.105	0.021
-211.494	-200.000	-0.030	0.253
-210.479	97.991	0.290	-0.334
-209.465	762.695	-0.108	0.294
-208.450	22.402	0.108	0.089
-207.436	-200.000	0.044	-0.292
-206.421	-101.094	0.490	-0.120
-205.406	-84.475	0.314	-0.099
-204.392	34.207	0.252	-0.219
-203.377	800.000	-0.043	0.160
-202.363	40.998	0.206	-0.186
-201.348	134.876	-0.082	-0.107
-200.333	194.040	0.088	0.133
-199.319	584.214	0.060	-0.147
-198.304	-200.000	0.056	-0.265
-197.290	-56.007	-0.203	0.091
-196.275	-200.000	0.017	0.196
-195.260	-200.000	-0.011	0.348
-194.246	-98.336	0.473	-0.121
-193.231	364.237	-0.134	0.270
-192.217	368.720	-0.124	0.251
-191.202	15.922	-0.276	0.217
-190.187	-200.000	-0.001	0.068
-189.173	471.928	0.040	0.089
-188.158	-200.000	0.015	-0.297
-187.144	-120.551	0.033	-0.006
-186.129	800.000	-0.100	-0.411
-185.114	-3.241	0.352	0.245
-184.100	-124.849	0.228	0.035
-183.085	-63.084	0.165	0.068
-182.071	-76.636	0.226	-0.079
-181.056	-40.305	-0.179	-0.093
-180.042	12.983	-0.051	-0.039
-179.027	100.073	0.093	-0.108
-178.012	800.000	0.036	-0.110
-176.998	-152.679	0.173	-0.012
-175.983	80.567	0.109	-0.117
-174.969	31.634	0.157	-0.135
-173.954	-172.159	-0.183	-0.006
-172.939	-103.017	0.071	-0.017
-171.925	-146.557	0.425	0.037
-170.910	-123.053	0.159	-0.026
-169.896	800.000	-0.025	0.073
-168.881	-158.584	0.284	0.016
-167.866	-58.616	-0.113	0.049
-166.852	-11.716	0.274	0.179
-165.837	-70.873	0.172	0.065
-164.823	-65.995	-0.037	-0.015
-163.808	-151.833	0.310	-0.023
-162.793	-200.000	0.020	-0.209
-161.779	-200.000	0.002	0.265
-160.764	35.395	0.293	-0.257
-159.750	-155.081	0.324	0.021
-158.735	800.000	0.031	0.120
-157.720	-200.000	0.023	0.171
-156.706	-200.000	0.003	0.121
-155.691	461.842	-0.158	-0.352
-154.677	-146.546	0.171	0.015
-153.662	800.000	-0.127	0.516
-152.647	480.486	0.185	-0.420
-151.633	148.843	0.203	0.273
-150.618	-200.000	-0.019	0.328
-149.604	12.383	-0.184	-0.142
-148.589	-111.941	-0.121	0.024
-147.574	371.764	0.072	-0.146
-146.560	800.000	0.101	-0.419
-145.545	-55.944	-0.191	0.085
-144.531	-200.000	-0.020	0.150
-143.516	800.000	0.070	-0.289
-142.502	-33.603	0.347	-0.191
-141.487	52.898	-0.225	-0.215
-140.472	800.000	-0.081	0.236
-139.458	-94.667	-0.139	-0.038
-138.443	-200.000	-0.017	0.116
-137.429	-200.000	-0.023	0.191
-136.414	800.000	-0.053	-0.226
-135.399	-11.171	-0.256	-0.168
-134.385	37.818	-0.091	-0.081
-133.370	-83.039	-0.089	0.029
-132.356	-81.534	0.218	0.071
-131.341	62.207	0.174	-0.173
-130.326	-197.977	0.350	-0.002
-129.312	800.000	0.094	-0.369
-128.297	-163.455	-0.251	-0.012
-127.283	190.051	-0.020	-0.030
-126.268	-200.000	0.020	-0.244
-125.253	-161.808	0.435	0.022
-124.239	800.000	0.075	-0.307
-123.224	-40.184	0.256	-0.133
-122.210	-144.604	0.173	-0.016
