DTS Sentinel unit serial number:	SN413079Multiplexer serial number:	ORYXHardware model number:	OX4-SRSoftware version number:	ORYX F/W v4.00 Oryx Data Collector v3.7.2.0data status	okinstallation	princeton_trtdifferential loss correction	single-endedforward channel	channel 1reverse channel	N/Adate	2019/09/15time	10:22:35forward acquisition time	60.00reverse acquisition time	0.00gamma	496.2192k internal	0.2309k external	0.2309temperature offset calibration	0.9989default loss term (dB/km)	0.3790temperature slope calibration	1.0000multiplexer offset coefficient	1.0000multiplexer slope coefficient	1.0000fibre end	0.00T internal ref (°C)	34.25T ext. ref 1 (°C)	5.03T ext. ref 2 (°C)	29.39length (m)	temperature (°C)	Stokes	anti-Stokes-747.200	-153.959	-0.227	-0.016
-746.185	800.000	-0.118	0.390
-745.171	247.338	-0.185	-0.317
-744.156	389.566	-0.087	0.182
-743.142	254.404	-0.173	-0.301
-742.127	-42.135	-0.139	-0.072
-741.112	-48.126	0.164	0.081
-740.098	-200.000	0.002	0.154
-739.083	-200.000	0.028	0.146
-738.069	-200.000	-0.001	-0.261
-737.054	28.938	-0.183	-0.157
-736.039	-57.088	-0.239	0.107
-735.025	329.027	-0.177	0.346
-734.010	97.690	0.116	0.136
-732.996	271.295	-0.101	0.181
-731.981	589.392	0.055	0.137
-730.966	288.482	-0.162	0.297
-729.952	293.284	-0.090	0.167
-728.937	-200.000	-0.061	-0.384
-727.923	-143.706	-0.278	-0.027
-726.908	-63.479	-0.172	-0.072
-725.894	-200.000	-0.028	0.142
-724.879	-200.000	0.022	0.153
-723.864	273.960	-0.215	0.386
-722.850	-200.000	-0.031	-0.310
-721.835	618.127	-0.098	-0.249
-720.821	-136.669	-0.053	0.006
-719.806	172.005	-0.008	-0.012
-718.791	-200.000	0.047	0.225
-717.777	-200.000	0.131	0.000
-716.762	-14.157	0.158	-0.104
-715.748	124.682	-0.103	0.132
-714.733	57.281	-0.169	-0.168
-713.718	187.575	-0.152	-0.231
-712.704	232.417	0.174	-0.290
-711.689	-200.000	-0.002	0.076
-710.675	165.914	0.109	0.156
-709.660	-107.585	0.298	0.066
-708.645	102.161	0.186	-0.221
-707.631	-200.000	-0.026	0.140
-706.616	-128.469	0.179	-0.026
-705.602	800.000	0.084	-0.301
-704.587	431.051	0.051	-0.112
-703.572	-81.875	-0.221	-0.073
-702.558	-29.521	0.371	0.215
-701.543	-156.453	0.421	-0.027
-700.529	-110.989	-0.182	0.038
-699.514	9.480	-0.075	-0.058
-698.499	606.126	0.184	-0.465
-697.485	104.674	0.122	-0.145
-696.470	68.855	0.060	-0.063
-695.456	-105.685	-0.249	-0.057
-694.441	-51.288	-0.153	0.073
-693.426	-79.958	-0.282	0.096
-692.412	-200.000	-0.012	0.060
-691.397	-54.011	-0.133	0.061
-690.383	800.000	-0.038	-0.108
-689.368	800.000	0.014	0.040
-688.354	28.372	0.154	0.132
-687.339	-82.495	0.202	-0.066
-686.324	107.187	-0.139	-0.168
-685.310	104.385	-0.179	-0.214
-684.295	-22.380	-0.116	0.071
-683.281	109.701	-0.161	-0.196
-682.266	25.200	-0.015	0.012
-681.251	-3.806	0.245	0.172
-680.237	390.580	0.191	-0.401
-679.222	-128.090	0.081	-0.012
-678.208	83.157	-0.092	-0.102
-677.193	800.000	0.043	0.158
-676.178	176.380	0.042	-0.062
-675.164	561.813	-0.072	-0.175
-674.149	13.130	0.140	0.110
-673.135	601.264	0.074	-0.186
-672.120	800.000	-0.061	0.201
-671.105	50.418	-0.396	-0.379
-670.091	262.544	-0.131	0.230
-669.076	-150.999	0.095	0.007
-668.062	-69.475	0.132	-0.051
-667.047	-18.733	-0.268	-0.169
-666.032	-112.073	0.077	-0.016
-665.018	-85.977	0.348	-0.109
-664.003	-200.000	0.008	-0.262
-662.989	-200.000	0.039	-0.197
-661.974	800.000	0.092	-0.303
-660.959	-200.000	0.013	-0.255
-659.945	-64.285	0.276	0.114
-658.930	-69.611	0.078	-0.030
-657.916	-79.486	0.271	-0.093
-656.901	48.786	-0.350	0.332
-655.886	-168.814	0.202	-0.008
-654.872	95.082	-0.085	-0.098
-653.857	-98.419	-0.299	0.078
-652.843	-50.436	-0.234	0.112
-651.828	113.254	-0.216	-0.265
-650.814	-200.000	-0.006	-0.107
-649.799	-100.864	0.399	-0.099
-648.784	-79.229	-0.240	0.082
-647.770	-64.485	-0.250	-0.103
-646.755	631.957	-0.158	-0.406
-645.741	41.742	-0.137	0.126
-644.726	242.502	0.179	-0.303
-643.711	156.569	-0.137	-0.192
-642.697	-12.276	-0.102	-0.067
-641.682	119.236	0.117	-0.146
-640.668	-200.000	0.008	0.506
-639.653	-172.180	-0.051	0.002
-638.638	-200.000	0.134	0.000
-637.624	-59.071	0.265	-0.116
-636.609	168.167	-0.113	0.162
-635.595	-8.809	0.057	0.038
-634.580	-200.000	0.033	0.152
-633.565	-110.404	0.055	0.012
-632.551	174.578	-0.151	0.221
-631.536	800.000	-0.071	-0.205
-630.522	-200.000	0.065	-0.335
-629.507	-200.000	-0.000	-0.176
-628.492	-39.306	0.185	-0.098
-627.478	-48.755	0.070	0.034
-626.463	-61.277	0.105	0.045
-625.449	-200.000	0.070	-0.343
-624.434	85.448	-0.164	-0.183
-623.419	65.958	-0.031	0.032
-622.405	800.000	0.071	0.268
-621.390	217.986	-0.060	0.097
-620.376	-200.000	0.025	-0.228
-619.361	-43.613	-0.389	-0.198
-618.346	-200.000	-0.027	0.124
-617.332	-131.308	-0.316	0.042
-616.317	41.590	0.104	-0.096
-615.303	-47.837	-0.272	-0.133
-614.288	777.442	0.111	0.306
-613.273	163.871	0.061	-0.087
-612.259	338.968	0.087	-0.171
-611.244	-92.450	-0.186	0.053
-610.230	222.117	-0.096	0.155
-609.215	800.000	-0.039	0.163
-608.201	800.000	0.064	-0.201
-607.186	118.609	0.241	0.300
-606.171	-55.662	-0.088	-0.040
-605.157	123.650	0.182	-0.230
-604.142	-200.000	0.026	-0.369
-603.128	-149.785	0.133	-0.011
-602.113	368.513	-0.073	-0.150
-601.098	-200.000	-0.008	0.076
-600.084	22.743	-0.273	-0.226
-599.069	372.245	-0.042	0.086
-598.055	-123.044	0.108	0.017
-597.040	-111.612	0.233	0.048
-596.025	268.092	0.111	-0.196
-595.011	-1.608	0.124	-0.088
-593.996	-52.424	-0.266	-0.125
-592.982	-200.000	0.023	0.160
-591.967	-134.392	-0.158	0.020
-590.952	800.000	-0.079	0.256
-589.938	-200.000	0.008	-0.189
-588.923	-200.000	0.029	0.165
-587.909	139.647	0.086	-0.115
-586.894	78.952	-0.129	-0.139
-585.879	-124.774	-0.283	-0.044
-584.865	383.162	-0.082	0.171
-583.850	-64.026	0.145	-0.060
-582.836	151.227	0.094	0.129
-581.821	-84.917	0.260	-0.082
-580.806	-59.222	0.136	-0.059
-579.792	-200.000	0.001	0.145
-578.777	-113.552	0.333	-0.066
-577.763	-200.000	0.066	-0.345
-576.748	-47.427	0.125	-0.061
-575.733	184.084	0.087	0.130
-574.719	88.849	-0.287	-0.322
-573.704	500.177	-0.103	-0.240
-572.690	249.264	0.115	-0.196
-571.675	-1.201	-0.038	0.027
-570.661	-62.541	-0.315	0.132
-569.646	800.000	-0.060	-0.190
-568.631	-113.460	-0.125	-0.025
-567.617	293.017	-0.094	-0.173
-566.602	234.149	-0.104	0.173
-565.588	-94.715	0.071	0.019
-564.573	-177.052	-0.087	-0.002
-563.558	-200.000	-0.021	0.309
-562.544	-30.305	0.033	-0.019
-561.529	137.804	0.030	-0.039
-560.515	-200.000	0.011	0.094
-559.500	319.473	0.111	0.212
-558.485	-200.000	-0.022	-0.175
-557.471	211.144	-0.072	0.115
-556.456	104.359	-0.130	0.154
-555.442	-200.000	-0.012	0.080
-554.427	-21.803	-0.288	0.177
-553.412	-79.086	0.027	0.009
-552.398	800.000	-0.058	0.170
-551.383	234.960	-0.278	0.463
-550.369	12.526	-0.321	-0.250
-549.354	-136.797	0.228	-0.026
-548.339	130.834	0.140	0.181
-547.325	-97.918	0.381	-0.099
-546.310	72.725	0.211	0.222
-545.296	-44.321	-0.208	0.105
-544.281	-71.727	0.228	0.086
-543.266	-200.000	-0.047	-0.280
-542.252	-118.330	-0.231	-0.041
-541.237	-102.310	0.184	0.045
-540.223	-21.878	-0.186	0.114
-539.208	217.182	0.109	0.174
-538.193	144.156	-0.094	-0.126
-537.179	25.640	-0.333	-0.279
-536.164	65.205	0.220	-0.225
-535.150	-154.448	0.230	0.016
-534.135	-200.000	-0.110	0.000
-533.121	-39.275	-0.004	-0.002
-532.106	-73.664	-0.381	-0.140
-531.091	-27.165	-0.117	-0.069
-530.077	800.000	0.101	-0.380
-529.062	-125.785	0.156	0.024
-528.048	404.129	0.001	-0.001
-527.033	-200.000	-0.004	0.179
-526.018	-153.625	-0.255	0.018
-525.004	52.688	0.223	-0.215
-523.989	-92.511	-0.034	0.010
-522.975	-200.000	-0.027	-0.166
-521.960	99.357	-0.096	-0.111
-520.945	-104.900	-0.062	0.014
-519.931	800.000	-0.077	-0.337
-518.916	24.997	0.139	-0.116
-517.902	65.737	-0.124	-0.127
-516.887	-126.846	0.120	0.018
-515.872	800.000	-0.068	-0.297
-514.858	-200.000	0.005	0.169
-513.843	52.330	-0.115	0.110
-512.829	-200.000	0.013	0.258
-511.814	429.932	-0.051	-0.111
-510.799	-136.672	0.512	0.060
-509.785	225.878	-0.079	-0.129
-508.770	800.000	0.034	-0.125
-507.756	154.842	-0.185	-0.256
-506.741	548.116	-0.135	-0.327
-505.726	-64.174	0.377	-0.155
-504.712	-200.000	-0.066	0.356
-503.697	800.000	0.090	0.339
-502.683	-200.000	-0.003	0.196
-501.668	712.622	0.058	0.155
-500.653	-200.000	-0.009	-0.052
-499.639	-200.000	-0.015	-0.161
-498.624	207.670	-0.182	-0.286
-497.610	627.307	-0.059	0.149
-496.595	-200.000	0.029	-0.201
-495.581	-104.368	0.091	0.021
-494.566	-45.202	0.241	0.120
-493.551	-123.054	-0.306	0.049
-492.537	-200.000	0.035	-0.250
-491.522	800.000	-0.088	-0.286
-490.508	-35.848	-0.172	0.094
-489.493	-94.085	0.268	-0.074
-488.478	76.152	-0.145	-0.155
-487.464	-56.724	-0.156	0.069
-486.449	-119.410	-0.430	-0.075
-485.435	169.308	0.083	-0.119
-484.420	-15.250	-0.081	-0.052
-483.405	-200.000	0.027	0.318
-482.391	245.634	-0.008	-0.014
-481.376	-60.947	0.188	0.080
-480.362	-75.338	-0.153	0.055
-479.347	33.498	-0.312	0.272
-478.332	-67.328	-0.053	-0.021
-477.318	515.854	-0.044	-0.103
-476.303	-200.000	0.006	-0.159
-475.289	34.073	-0.161	0.141
-474.274	481.170	-0.112	0.255
-473.259	44.751	0.063	0.058
-472.245	151.133	0.302	0.413
-471.230	772.245	-0.041	0.113
-470.216	302.913	0.122	0.227
-469.201	-19.024	-0.212	0.133
-468.186	497.489	-0.099	-0.228
-467.172	-116.046	0.143	-0.027
-466.157	-154.523	0.153	-0.010
-465.143	-46.875	0.303	-0.149
-464.128	60.603	0.081	-0.081
-463.113	800.000	0.072	0.229
-462.099	-35.638	0.079	-0.043
-461.084	-99.448	-0.163	0.041
-460.070	-132.260	0.141	0.018
-459.055	-79.758	0.314	0.106
-458.040	-200.000	-0.025	0.276
-457.026	-155.489	-0.303	0.020
-456.011	54.935	0.095	0.092
-454.997	-86.421	-0.277	0.086
-453.982	21.752	-0.309	0.253
-452.968	-120.781	0.269	-0.046
-451.953	-114.098	-0.123	-0.024
-450.938	-200.000	-0.042	0.228
-449.924	-200.000	0.090	0.408
-448.909	443.812	-0.140	-0.307
-447.895	-141.981	-0.199	-0.020
-446.880	218.912	0.089	-0.143
-445.865	29.949	-0.039	-0.033
-444.851	125.747	0.078	0.099
-443.836	77.840	0.071	-0.076
-442.822	-166.758	-0.205	0.008
-441.807	-200.000	0.039	0.209
-440.792	397.923	0.114	0.240
-439.778	112.678	-0.110	0.134
-438.763	-200.000	0.011	0.151
-437.749	179.943	-0.079	-0.116
-436.734	-152.298	0.265	0.019
-435.719	-4.652	-0.176	-0.122
-434.705	2.724	-0.215	-0.157
-433.690	-53.292	0.123	0.056
-432.676	257.901	0.043	0.074
-431.661	63.795	-0.094	-0.094
-430.646	-19.732	-0.106	-0.066
-429.632	-120.337	0.167	0.029
-428.617	-105.032	-0.111	-0.026
-427.603	64.831	-0.225	-0.228
-426.588	114.252	0.269	-0.329
-425.573	-66.843	0.366	0.145
-424.559	-200.000	0.004	-0.115
-423.544	800.000	-0.087	-0.289
-422.530	-107.196	-0.451	0.100
-421.515	173.927	-0.117	0.170
-420.500	-200.000	-0.031	0.190
-419.486	800.000	0.062	-0.192
-418.471	-200.000	0.037	0.262
-417.457	800.000	-0.029	0.121
-416.442	195.496	0.114	-0.173
-415.428	-200.000	-0.006	0.272
-414.413	-9.420	0.129	0.086
-413.398	-200.000	0.011	-0.275
-412.384	-43.543	-0.301	-0.152
-411.369	800.000	0.023	-0.069
-410.355	800.000	0.055	0.202
-409.340	-200.000	-0.013	0.092
-408.325	-200.000	-0.066	-0.318
-407.311	-200.000	-0.012	-0.087
-406.296	-67.226	0.290	0.115
-405.282	616.130	-0.090	-0.225
-404.267	-200.000	-0.027	0.232
-403.252	-200.000	0.026	0.174
-402.238	248.452	-0.137	-0.233
-401.223	410.975	0.146	0.310
-400.209	119.573	0.171	0.212
-399.194	761.445	-0.045	-0.122
-398.179	61.326	-0.265	-0.264
-397.165	76.315	0.065	0.069
-396.150	-200.000	0.011	-0.496
-395.136	-125.734	-0.020	0.003
-394.121	800.000	0.086	0.287
-393.106	-200.000	-0.065	0.462
-392.092	-101.491	0.339	0.083
-391.077	72.976	-0.049	0.051
-390.063	166.382	-0.101	-0.143
-389.048	-15.162	0.219	0.140
-388.033	800.000	-0.081	-0.226
-387.019	189.927	-0.098	-0.147
-386.004	9.391	0.085	0.065
-384.990	168.701	0.098	0.140
-383.975	-169.326	0.069	0.003
-382.960	140.618	-0.116	0.154
-381.946	29.671	0.195	-0.166
-380.931	699.008	0.091	0.239
-379.917	-130.501	0.237	-0.032
-378.902	-46.970	-0.123	0.060
-377.888	-129.387	0.059	-0.008
-376.873	155.092	0.166	0.229
-375.858	632.343	-0.178	-0.452
-374.844	312.497	-0.088	0.165
-373.829	-100.870	-0.181	-0.045
-372.815	-105.124	0.408	-0.093
-371.800	-200.000	-0.038	-0.356
-370.785	800.000	0.043	-0.145
-369.771	800.000	0.012	0.043
-368.756	493.340	-0.135	0.309
-367.742	175.336	0.067	-0.098
-366.727	800.000	0.005	0.014
-365.712	182.207	-0.023	-0.035
-364.698	-54.113	-0.051	0.023
-363.683	11.704	0.272	0.209
-362.669	-127.055	-0.150	0.022
-361.654	-137.852	-0.110	0.012
-360.639	-55.459	-0.204	0.092
-359.625	-25.064	0.059	-0.035
-358.610	234.162	-0.109	0.180
-357.596	-149.294	-0.150	-0.012
-356.581	-181.225	-0.205	-0.004
-355.566	-179.593	0.292	-0.006
-354.552	136.251	0.168	0.219
-353.537	-50.109	0.385	0.183
-352.523	800.000	-0.079	-0.293
-351.508	-66.638	0.207	0.082
-350.493	-103.392	0.348	-0.082
-349.479	-200.000	-0.011	0.117
-348.464	27.004	0.226	-0.190
-347.450	178.300	0.134	-0.195
-346.435	-12.204	-0.171	0.112
-345.420	-200.000	-0.004	-0.098
-344.406	47.414	-0.217	0.203
-343.391	201.687	-0.163	0.251
-342.377	37.116	-0.118	-0.104
-341.362	41.223	0.139	0.126
-340.348	-178.532	-0.068	0.002
-339.333	-25.752	-0.039	0.023
-338.318	714.185	-0.046	-0.122
-337.304	300.862	-0.032	-0.058
-336.289	-200.000	-0.019	-0.153
-335.275	100.607	0.079	-0.092
-334.260	-60.743	-0.114	-0.048
-333.245	-58.897	0.256	-0.110
-332.231	800.000	-0.001	-0.003
-331.216	-9.360	-0.102	0.068
-330.202	162.291	0.052	0.073
-329.187	-63.418	0.174	-0.072
-328.172	534.513	0.047	0.111
-327.158	123.289	-0.052	0.065
-326.143	591.899	-0.079	0.194
-325.129	473.038	-0.201	0.454
-324.114	-118.144	-0.130	0.023
-323.099	-200.000	-0.001	0.227
-322.085	3.645	-0.375	0.273
-321.070	-200.000	0.046	-0.271
-320.056	-53.261	0.095	-0.043
-319.041	114.466	0.330	-0.401
-318.026	-200.000	0.012	-0.390
-317.012	-67.623	-0.099	-0.039
-315.997	-1.711	-0.146	0.103
-314.983	-200.000	-0.031	-0.431
-313.968	-200.000	0.019	-0.279
-312.953	-35.217	-0.040	0.022
-311.939	257.250	0.046	0.079
-310.924	213.764	0.086	0.136
-309.910	-164.704	0.051	-0.002
-308.895	309.832	-0.212	0.397
-307.880	119.309	-0.231	-0.285
-306.866	-200.000	-0.026	-0.251
-305.851	-17.339	0.241	-0.151
-304.837	39.454	-0.139	0.124
-303.822	448.769	-0.137	-0.302
-302.807	-19.451	0.123	0.076
-301.793	13.958	-0.341	-0.265
-300.778	-137.059	-0.294	0.034
-299.764	-164.095	0.213	-0.010
-298.749	-124.017	0.428	-0.067
-297.735	-174.423	0.359	-0.010
-296.720	-200.000	-0.057	0.272
-295.705	800.000	-0.106	-0.450
-294.691	32.950	0.174	-0.150
-293.676	67.639	0.132	-0.135
-292.662	212.320	0.134	0.211
-291.647	-71.676	0.273	-0.102
-290.632	-4.566	0.195	0.135
-289.618	-97.491	-0.307	-0.080
-288.603	-98.300	0.271	0.069
-287.589	-200.000	0.007	0.203
-286.574	148.343	-0.090	0.122
-285.559	413.297	-0.143	0.303
-284.545	448.949	0.051	0.111
-283.530	-47.916	0.109	-0.053
-282.516	-64.114	0.347	0.141
-281.501	-111.910	0.042	-0.008
-280.486	800.000	-0.029	-0.110
-279.472	800.000	-0.024	0.085
-278.457	-200.000	-0.022	0.342
-277.443	454.812	0.115	0.254
-276.428	10.039	0.100	-0.075
-275.413	-45.598	0.225	-0.111
-274.399	433.701	0.240	0.520
-273.384	236.286	0.063	0.104
-272.370	-112.998	-0.207	-0.041
-271.355	-200.000	-0.033	-0.199
-270.340	37.668	-0.148	-0.131
-269.326	-133.505	0.064	0.008
-268.311	190.904	0.229	0.343
-267.297	127.480	-0.101	0.128
-266.282	-134.031	0.204	0.025
-265.267	-200.000	-0.002	0.104
-264.253	216.995	-0.058	0.092
-263.238	-123.189	0.239	-0.038
-262.224	-35.468	0.153	0.083
-261.209	116.764	0.090	0.110
-260.195	129.194	0.256	-0.326
-259.180	73.632	-0.089	0.093
-258.165	-200.000	0.012	0.107
-257.151	800.000	-0.091	-0.290
-256.136	-121.944	0.294	-0.048
-255.122	-133.291	-0.155	-0.020
-254.107	14.040	-0.228	0.177
-253.092	-200.000	-0.047	-0.242
-252.078	800.000	-0.040	0.115
-251.063	-82.026	0.151	0.049
-250.049	-200.000	-0.006	0.456
-249.034	800.000	-0.072	0.228
-248.019	-133.879	-0.143	-0.018
-247.005	-141.124	0.056	-0.006
-245.990	-200.000	-0.044	-0.239
-244.976	-200.000	0.034	-0.186
-243.961	116.007	0.228	0.278
-242.946	165.530	0.165	0.233
-241.932	2.215	0.028	0.020
-240.917	-17.982	0.226	0.141
-239.903	-165.109	-0.142	0.006
-238.888	-200.000	-0.463	0.001
-237.873	121.394	-0.237	0.294
-236.859	-86.402	0.331	0.101
-235.844	-65.874	0.038	-0.015
-234.830	730.963	0.101	-0.269
-233.815	-22.497	-0.339	-0.204
-232.800	800.000	0.184	0.518
-231.786	-122.259	0.344	-0.056
-230.771	-200.000	0.053	-0.469
-229.757	118.270	0.044	0.054
-228.742	-133.216	0.165	-0.021
-227.727	-86.403	0.121	-0.037
-226.713	-190.887	-0.161	-0.002
-225.698	89.640	0.067	-0.074
-224.684	-15.915	0.573	0.363
-223.669	374.277	0.075	-0.153
-222.655	-47.418	-0.382	0.185
-221.640	34.228	-0.206	-0.179
-220.625	767.736	-0.068	0.184
-219.611	31.960	0.220	-0.189
-218.596	573.572	0.116	0.280
-217.582	-200.000	-0.040	-0.221
-216.567	145.265	-0.123	0.164
-215.552	-122.865	-0.108	0.017
-214.538	-42.013	0.251	-0.128
-213.523	-170.530	0.258	0.009
-212.509	77.284	0.224	-0.237
-211.494	800.000	0.041	-0.141
-210.479	14.674	0.106	0.082
-209.465	561.921	-0.145	0.348
-208.450	22.502	0.140	-0.114
-207.436	-141.398	-0.146	-0.015
-206.421	-200.000	-0.011	0.349
-205.406	7.609	-0.255	-0.190
-204.392	-200.000	0.038	0.361
-203.377	-65.699	-0.234	-0.093
-202.363	47.035	0.123	0.114
-201.348	800.000	-0.099	0.389
-200.333	-7.073	-0.141	0.095
-199.319	39.741	-0.123	-0.109
-198.304	121.945	0.146	-0.182
-197.290	45.095	0.216	0.198
-196.275	-117.053	-0.191	0.035
-195.260	56.101	-0.141	-0.136
-194.246	800.000	0.047	0.187
-193.231	-200.000	-0.014	0.185
-192.217	-120.041	0.157	0.027
-191.202	-68.840	-0.236	-0.091
-190.187	-200.000	-0.043	0.288
-189.173	347.716	0.063	-0.123
-188.158	200.052	0.208	-0.317
-187.144	567.031	-0.075	-0.180
-186.129	-200.000	0.003	0.079
-185.114	-26.885	-0.044	0.025
-184.100	-200.000	0.043	-0.232
-183.085	627.810	-0.051	0.128
-182.071	800.000	0.089	-0.285
-181.056	96.863	0.154	0.175
-180.042	-13.187	-0.183	-0.118
-179.027	-61.643	-0.186	-0.078
-178.012	490.368	-0.065	0.148
-176.998	319.008	0.113	0.213
-175.983	800.000	-0.127	-0.448
-174.969	251.787	-0.204	-0.345
-173.954	-200.000	0.048	-0.248
-172.939	498.446	0.116	0.266
-171.925	15.169	-0.246	0.191
-170.910	-33.540	-0.029	-0.016
-169.896	-110.098	-0.379	-0.079
-168.881	117.712	-0.170	0.207
-167.866	-200.000	-0.011	-0.115
-166.852	310.752	0.112	-0.209
-165.837	-200.000	-0.008	-0.051
-164.823	-123.683	0.083	-0.013
-163.808	-83.663	-0.282	-0.089
-162.793	198.496	0.054	-0.082
-161.779	-89.657	-0.028	-0.008
-160.764	52.194	-0.089	-0.084
-159.750	142.796	-0.081	-0.107
-158.735	51.098	0.098	-0.092
-157.720	-61.041	-0.155	-0.065
-156.706	352.823	-0.152	-0.299
-155.691	800.000	-0.034	-0.130
-154.677	9.722	-0.170	0.128
-153.662	-200.000	0.023	0.110
-152.647	151.007	0.228	0.308
-151.633	-39.040	-0.045	-0.024
-150.618	95.789	0.379	-0.430
-149.604	-200.000	-0.008	-0.149
-148.589	800.000	-0.015	-0.065
-147.574	216.508	-0.082	-0.129
-146.560	192.194	0.118	-0.176
-145.545	-200.000	0.005	0.219
-144.531	-200.000	0.007	0.053
-143.516	36.257	-0.107	0.094
-142.502	-200.000	0.075	-0.355
-141.487	-183.824	-0.145	-0.002
-140.472	-128.322	0.075	-0.011
-139.458	-66.269	-0.266	-0.105
-138.443	-81.861	-0.124	-0.040
-137.429	-21.084	0.430	0.261
-136.414	48.171	0.231	-0.214
-135.399	-136.359	0.201	0.023
-134.385	-38.913	-0.254	-0.132
-133.370	-200.000	-0.047	0.414
-132.356	413.631	-0.065	0.138
-131.341	-34.343	0.221	-0.120
-130.326	-200.000	-0.054	-0.415
-129.312	24.655	-0.209	-0.172
-128.297	367.290	-0.101	0.201
-127.283	-125.032	-0.261	-0.040
-126.268	-13.263	0.216	-0.139
-125.253	174.898	-0.156	-0.224
-124.239	136.588	-0.169	-0.219
-123.224	-37.441	0.080	0.042
