DTS Sentinel unit serial number:	SN413079Multiplexer serial number:	ORYXHardware model number:	OX4-SRSoftware version number:	ORYX F/W v4.00 Oryx Data Collector v3.7.2.0data status	okinstallation	princeton_trtdifferential loss correction	single-endedforward channel	channel 1reverse channel	N/Adate	2019/09/19time	10:10:35forward acquisition time	60.00reverse acquisition time	0.00gamma	496.2192k internal	0.2339k external	0.2339temperature offset calibration	1.0010default loss term (dB/km)	0.3790temperature slope calibration	1.0000multiplexer offset coefficient	1.0000multiplexer slope coefficient	1.0000fibre end	0.00T internal ref (°C)	23.95T ext. ref 1 (°C)	0.68T ext. ref 2 (°C)	19.75length (m)	temperature (°C)	Stokes	anti-Stokes-747.200	-200.000	-0.012	-0.245
-746.185	-32.537	-0.273	-0.153
-745.171	-9.347	-0.301	-0.202
-744.156	-200.000	-0.062	0.478
-743.142	257.696	0.098	0.170
-742.127	498.679	-0.181	0.419
-741.112	-10.585	-0.265	0.176
-740.098	57.455	-0.175	0.172
-739.083	40.087	-0.157	-0.141
-738.069	-40.543	0.318	0.165
-737.054	800.000	0.034	0.125
-736.039	150.819	-0.235	0.320
-735.025	-97.950	0.443	0.114
-734.010	189.158	-0.301	-0.452
-732.996	-138.797	-0.237	0.026
-731.981	195.072	-0.060	-0.091
-730.966	-200.000	-0.025	-0.310
-729.952	-9.412	-0.278	-0.186
-728.937	15.338	-0.300	0.236
-727.923	-25.976	0.287	0.169
-726.908	325.860	-0.055	-0.105
-725.894	-200.000	0.039	-0.170
-724.879	-14.527	-0.177	0.114
-723.864	800.000	0.050	0.141
-722.850	-200.000	0.010	0.145
-721.835	-200.000	0.023	0.120
-720.821	-38.511	-0.138	0.073
-719.806	-18.639	0.251	-0.157
-718.791	116.596	0.062	-0.076
-717.777	-200.000	-0.030	-0.199
-716.762	311.029	-0.119	-0.223
-715.748	800.000	0.030	0.098
-714.733	204.419	-0.212	-0.329
-713.718	800.000	0.048	0.156
-712.704	-55.922	-0.236	-0.106
-711.689	-200.000	0.021	-0.194
-710.675	120.833	-0.029	-0.036
-709.660	594.539	-0.066	0.164
-708.645	-200.000	0.381	0.000
-707.631	-200.000	0.010	0.088
-706.616	-47.667	0.211	-0.103
-705.602	332.348	0.113	-0.219
-704.587	-164.319	0.477	0.022
-703.572	-12.541	0.280	0.183
-702.558	-200.000	-0.013	0.143
-701.543	-124.676	-0.174	0.027
-700.529	-120.843	-0.033	-0.006
-699.514	-200.000	0.006	-0.143
-698.499	151.950	-0.154	-0.210
-697.485	271.062	-0.104	0.184
-696.470	637.923	-0.048	0.123
-695.456	-99.787	0.326	-0.082
-694.441	250.332	0.016	-0.027
-693.426	-37.029	-0.303	-0.162
-692.412	800.000	0.128	-0.457
-691.397	-43.500	-0.116	0.059
-690.383	-17.028	0.180	0.113
-689.368	-200.000	-0.052	0.308
-688.354	124.921	0.112	-0.141
-687.339	-89.438	-0.367	-0.108
-686.324	800.000	0.027	-0.112
-685.310	800.000	-0.078	0.247
-684.295	-6.494	-0.090	-0.061
-683.281	-100.465	0.251	-0.062
-682.266	800.000	-0.105	-0.420
-681.251	609.770	0.180	-0.449
-680.237	-14.461	-0.118	-0.076
-679.222	-68.574	-0.448	-0.173
-678.208	-200.000	0.045	0.240
-677.193	-200.000	-0.163	0.000
-676.178	-200.000	0.031	-0.344
-675.164	320.913	-0.137	-0.261
-674.149	27.100	-0.103	0.086
-673.135	-200.000	0.031	-0.202
-672.120	-200.000	0.017	0.211
-671.105	-114.381	0.398	-0.077
-670.091	13.888	-0.046	-0.036
-669.076	53.429	0.262	-0.251
-668.062	-125.526	-0.149	0.023
-667.047	-2.815	0.189	-0.132
-666.032	-200.000	-0.051	-0.281
-665.018	-44.200	0.159	0.080
-664.003	-127.310	-0.279	-0.041
-662.989	-110.756	0.305	-0.063
-661.974	800.000	0.100	0.296
-660.959	800.000	-0.038	-0.132
-659.945	40.028	-0.114	-0.103
-658.930	-200.000	-0.008	0.034
-657.916	-200.000	0.028	0.190
-656.901	-85.647	0.106	-0.033
-655.886	-49.604	0.217	0.103
-654.872	-13.448	-0.127	-0.082
-653.857	-200.000	-0.023	0.146
-652.843	-68.761	-0.351	0.136
-651.828	18.745	-0.171	0.137
-650.814	-200.000	0.007	0.153
-649.799	315.945	0.092	-0.174
-648.784	518.505	-0.054	0.127
-647.770	-200.000	-0.032	-0.173
-646.755	-170.360	0.370	-0.013
-645.741	-200.000	0.027	-0.388
-644.726	800.000	0.097	-0.388
-643.711	-200.000	-0.006	0.225
-642.697	311.641	0.072	0.135
-641.682	691.935	-0.064	-0.167
-640.668	-49.481	0.017	-0.008
-639.653	800.000	0.062	-0.174
-638.638	-22.285	-0.060	-0.036
-637.624	-46.471	-0.104	0.051
-636.609	800.000	0.069	-0.264
-635.595	485.505	0.063	-0.143
-634.580	41.691	-0.180	0.163
-633.565	-133.411	0.279	-0.035
-632.551	1.583	-0.311	-0.223
-631.536	-120.479	-0.074	-0.013
-630.522	147.109	0.246	0.331
-629.507	171.528	-0.202	-0.289
-628.492	-195.533	0.317	0.002
-627.478	800.000	-0.037	0.115
-626.463	374.106	0.080	-0.162
-625.449	-60.556	-0.038	-0.016
-624.434	-200.000	0.051	-0.238
-623.419	-39.179	-0.242	-0.127
-622.405	-144.970	-0.153	0.014
-621.390	-200.000	0.015	-0.259
-620.376	39.725	-0.273	-0.245
-619.361	53.795	-0.213	-0.204
-618.346	-2.747	0.274	0.191
-617.332	-108.643	-0.226	0.048
-616.317	-84.796	-0.050	0.016
-615.303	108.341	0.121	-0.144
-614.288	224.330	0.273	-0.441
-613.273	-59.893	0.028	-0.012
-612.259	800.000	0.036	-0.151
-611.244	-6.571	-0.144	-0.098
-610.230	30.399	-0.073	0.062
-609.215	19.485	-0.071	-0.057
-608.201	-200.000	0.090	0.399
-607.186	584.531	0.038	-0.092
-606.171	129.165	-0.059	0.075
-605.157	-200.000	0.050	0.259
-604.142	-39.678	-0.161	0.084
-603.128	800.000	0.077	-0.263
-602.113	134.002	0.125	-0.162
-601.098	-139.578	-0.087	0.009
-600.084	-68.610	0.320	-0.123
-599.069	-52.705	-0.156	0.072
-598.055	107.935	-0.068	-0.081
-597.040	13.418	-0.045	-0.035
-596.025	-200.000	0.025	0.256
-595.011	-95.212	0.029	-0.008
-593.996	634.845	0.112	-0.284
-592.982	99.928	0.018	-0.021
-591.967	75.588	-0.147	-0.155
-590.952	113.732	-0.160	-0.194
-589.938	-102.881	-0.231	-0.055
-588.923	289.972	0.114	-0.207
-587.909	800.000	-0.058	0.250
-586.894	338.345	0.331	-0.643
-585.879	-200.000	0.068	-0.307
-584.865	57.455	-0.091	0.089
-583.850	398.166	-0.118	0.246
-582.836	-155.064	-0.353	0.023
-581.821	-39.816	0.035	-0.018
-580.806	10.024	0.097	-0.073
-579.792	-172.621	-0.084	0.003
-578.777	-200.000	-0.029	0.141
-577.763	-63.943	0.136	-0.055
-576.748	-12.098	0.169	0.110
-575.733	-200.000	-0.038	-0.328
-574.719	170.274	0.070	0.100
-573.704	218.795	0.066	-0.105
-572.690	-97.345	0.343	0.089
-571.675	27.218	0.226	0.189
-570.661	61.667	-0.250	0.248
-569.646	-122.371	-0.215	-0.035
-568.631	247.537	-0.035	0.059
-567.617	-200.000	-0.016	-0.100
-566.602	673.667	-0.044	-0.113
-565.588	-110.218	0.265	-0.055
-564.573	-143.795	-0.232	-0.022
-563.558	10.792	0.115	-0.087
-562.544	20.984	0.274	0.221
-561.529	-200.000	-0.021	0.160
-560.515	129.170	0.219	0.278
-559.500	145.217	0.073	0.097
-558.485	61.023	-0.180	0.178
-557.471	75.242	0.225	0.236
-556.456	257.222	0.184	0.315
-555.442	658.202	0.022	0.057
-554.427	163.061	0.206	-0.288
-553.412	800.000	-0.078	0.244
-552.398	-115.323	-0.315	0.059
-551.383	-158.611	0.110	-0.006
-550.369	-109.111	-0.184	0.039
-549.354	800.000	0.066	0.230
-548.339	-107.693	-0.103	-0.022
-547.325	62.221	-0.006	0.006
-546.310	-126.252	0.326	0.048
-545.296	-25.038	-0.099	-0.059
-544.281	-124.640	0.255	-0.039
-543.266	116.231	-0.174	-0.213
-542.252	-46.515	-0.080	0.039
-541.237	-200.000	-0.011	-0.165
-540.223	0.353	0.232	-0.165
-539.208	-28.851	0.159	-0.091
-538.193	79.168	-0.186	-0.198
-537.179	-70.417	0.078	-0.029
-536.164	38.625	0.243	0.216
-535.150	-200.000	0.023	0.171
-534.135	-95.909	-0.044	-0.012
-533.121	55.429	0.105	0.101
-532.106	-119.674	-0.113	-0.020
-531.091	-32.749	0.291	0.161
-530.077	132.575	-0.128	0.165
-529.062	-113.663	-0.071	-0.014
-528.048	7.220	-0.513	0.381
-527.033	800.000	0.064	0.247
-526.018	-200.000	-0.075	0.415
-525.004	800.000	0.086	0.340
-523.989	199.435	0.104	-0.158
-522.975	-3.096	-0.180	-0.125
-521.960	-99.305	0.253	0.064
-520.945	77.924	0.130	0.138
-519.931	573.402	-0.098	-0.237
-518.916	-134.378	-0.116	-0.014
-517.902	-163.442	-0.183	-0.009
-516.887	38.142	0.159	-0.141
-515.872	13.936	0.296	-0.229
-514.858	325.671	0.122	-0.232
-513.843	38.701	0.382	0.339
-512.829	-114.409	0.199	-0.038
-511.814	-40.761	0.084	-0.043
-510.799	586.056	-0.131	0.319
-509.785	-13.173	0.190	-0.123
-508.770	13.655	-0.112	-0.086
-507.756	188.744	0.095	-0.141
-506.741	800.000	0.091	-0.292
-505.726	-69.794	0.101	-0.038
-504.712	149.133	-0.096	0.128
-503.697	474.685	-0.011	0.025
-502.683	-85.541	-0.006	0.002
-501.668	800.000	0.067	-0.252
-500.653	-200.000	0.067	0.303
-499.639	-135.207	0.289	0.035
-498.624	-50.254	-0.176	0.083
-497.610	-138.688	-0.245	0.027
-496.595	15.436	-0.131	0.102
-495.581	-2.712	0.182	-0.126
-494.566	-108.739	-0.083	-0.018
-493.551	-28.344	-0.254	-0.146
-492.537	80.321	-0.216	-0.231
-491.522	19.643	-0.353	-0.282
-490.508	-81.977	-0.079	0.026
-489.493	-168.023	-0.097	-0.004
-488.478	789.683	-0.034	0.094
-487.464	51.084	0.266	-0.251
-486.449	181.992	-0.101	0.148
-485.435	-103.314	-0.062	0.015
-484.420	-158.966	-0.128	0.007
-483.405	-200.000	0.014	-0.119
-482.391	-25.216	-0.070	0.041
-481.376	-200.000	-0.015	0.118
-480.362	-23.279	-0.069	-0.041
-479.347	-74.059	-0.176	0.063
-478.332	252.886	-0.075	0.127
-477.318	91.904	0.239	0.267
-476.303	-200.000	-0.058	0.301
-475.289	291.200	-0.135	-0.243
-474.274	-200.000	0.050	-0.513
-473.259	431.638	0.052	-0.113
-472.245	182.598	-0.070	0.103
-471.230	-101.036	-0.203	0.049
-470.216	-97.151	-0.238	0.062
-469.201	143.154	0.064	-0.085
-468.186	-65.064	0.234	-0.094
-467.172	-160.431	-0.207	-0.011
-466.157	-200.000	-0.011	-0.160
-465.143	-200.000	-0.009	-0.261
-464.128	-200.000	-0.014	-0.206
-463.113	25.442	-0.133	-0.110
-462.099	-161.175	0.157	0.008
-461.084	83.993	-0.162	-0.175
-460.070	-83.329	-0.082	0.026
-459.055	252.597	0.052	-0.088
-458.040	-110.845	-0.220	-0.045
-457.026	800.000	-0.093	-0.318
-456.011	-106.002	-0.222	-0.050
-454.997	-106.077	0.308	-0.069
-453.982	-65.249	0.116	-0.046
-452.968	-59.450	0.312	0.133
-451.953	545.016	0.070	-0.167
-450.938	-58.311	0.020	-0.009
-449.924	742.531	-0.051	0.136
-448.909	71.656	0.194	0.200
-447.895	81.048	-0.057	0.060
-446.880	800.000	-0.043	0.165
-445.865	-33.312	-0.352	-0.193
-444.851	104.528	0.116	0.135
-443.836	-68.482	-0.450	0.173
-442.822	198.409	-0.166	-0.251
-441.807	-172.442	0.168	0.005
-440.792	214.113	0.041	0.064
-439.778	-5.742	-0.218	-0.148
-438.763	-159.571	-0.142	0.008
-437.749	58.212	-0.117	-0.113
-436.734	-200.000	-0.000	-0.219
-435.719	-200.000	-0.078	0.450
-434.705	800.000	0.082	0.254
-433.690	-88.174	-0.111	-0.033
-432.676	-122.674	-0.250	0.040
-431.661	-200.000	0.000	-0.352
-430.646	-200.000	-0.006	-0.178
-429.632	-19.140	-0.177	-0.109
-428.617	97.565	0.083	0.095
-427.603	346.996	-0.061	-0.119
-426.588	-160.922	0.169	0.009
-425.573	17.479	-0.254	0.200
-424.559	-94.828	0.360	-0.097
-423.544	-109.628	-0.204	-0.042
-422.530	-200.000	-0.081	-0.367
-421.515	-71.204	-0.322	-0.120
-420.500	600.917	-0.013	-0.033
-419.486	305.042	0.112	0.206
-418.471	-200.000	-0.004	0.170
-417.457	-200.000	0.031	0.157
-416.442	-200.000	0.016	0.154
-415.428	-200.000	-0.269	0.001
-414.413	323.347	0.050	0.094
-413.398	-200.000	0.016	0.133
-412.384	193.066	0.052	-0.078
-411.369	-33.637	0.279	0.152
-410.355	800.000	0.050	0.152
-409.340	800.000	-0.136	-0.449
-408.325	338.835	-0.167	-0.322
-407.311	569.801	-0.049	0.118
-406.296	138.036	0.047	0.060
-405.282	-126.399	0.381	0.056
-404.267	-64.838	0.212	0.085
-403.252	-200.000	-0.399	-0.001
-402.238	-97.047	0.175	-0.045
-401.223	-27.246	-0.265	-0.153
-400.209	-200.000	-0.032	0.295
-399.194	72.684	-0.166	-0.172
-398.179	120.363	0.127	0.156
-397.165	-41.303	-0.148	-0.075
-396.150	-161.463	-0.150	-0.008
-395.136	-141.843	0.266	0.026
-394.121	64.525	0.030	0.030
-393.106	63.671	-0.350	-0.347
-392.092	-91.027	-0.375	0.106
-391.077	800.000	0.089	-0.279
-390.063	58.543	-0.226	-0.220
-389.048	-119.312	0.143	-0.025
-388.033	-200.000	-0.048	0.233
-387.019	100.554	0.237	-0.272
-386.004	297.591	0.207	-0.376
-384.990	-78.532	-0.098	-0.033
-383.975	-145.262	0.215	0.019
-382.960	-200.000	0.014	0.323
-381.946	-70.729	0.190	0.071
-380.931	156.343	0.209	-0.286
-379.917	-23.895	-0.278	0.165
-378.902	-54.829	-0.293	-0.131
-377.888	-64.940	0.087	-0.035
-376.873	-87.990	-0.191	-0.057
-375.858	13.458	0.171	0.131
-374.844	95.523	0.121	0.136
-373.829	-89.007	0.153	-0.045
-372.815	-200.000	0.026	0.126
-371.800	-10.891	-0.083	0.054
-370.785	-129.448	0.188	0.026
-369.771	-200.000	-0.016	-0.353
-368.756	79.331	0.153	0.163
-367.742	-200.000	0.025	0.282
-366.727	-200.000	-0.014	0.208
-365.712	-9.643	-0.125	-0.083
-364.698	319.886	-0.268	-0.503
-363.683	291.058	-0.187	0.336
-362.669	-119.696	0.199	0.034
-361.654	-200.000	0.005	-0.245
-360.639	-75.034	0.150	0.053
-359.625	-148.592	0.480	-0.039
-358.610	-194.994	0.066	-0.000
-357.596	119.413	0.254	-0.310
-356.581	-200.000	0.014	-0.199
-355.566	-153.171	0.286	0.020
-354.552	-51.847	0.242	-0.111
-353.537	-153.314	-0.243	0.017
-352.523	107.486	0.160	0.188
-351.508	-105.653	-0.207	-0.046
-350.493	276.367	-0.111	0.194
-349.479	-200.000	0.031	0.173
-348.464	-132.514	-0.225	0.029
-347.450	-186.374	0.109	-0.002
-346.435	800.000	0.167	0.458
-345.420	800.000	-0.115	-0.364
-344.406	-81.610	0.231	0.075
-343.391	-118.675	-0.133	0.023
-342.377	-43.628	-0.093	0.046
-341.362	-147.547	0.167	0.014
-340.348	116.038	0.072	0.086
-339.333	384.199	0.019	0.039
-338.318	-149.385	0.201	-0.016
-337.304	-143.789	-0.141	0.013
-336.289	62.889	-0.234	0.231
-335.275	9.974	-0.139	-0.105
-334.260	72.194	0.306	-0.314
-333.245	-68.525	0.120	-0.046
-332.231	-75.064	-0.295	-0.104
-331.216	800.000	-0.087	-0.301
-330.202	-200.000	-0.044	-0.305
-329.187	85.718	-0.309	0.336
-328.172	586.810	0.176	0.427
-327.158	241.239	0.200	0.330
-326.143	-62.936	0.300	-0.122
-325.129	88.946	0.061	0.067
-324.114	223.450	-0.206	0.328
-323.099	800.000	0.092	0.268
-322.085	-77.407	-0.241	0.082
-321.070	-129.405	-0.503	-0.069
-320.056	-85.465	-0.204	-0.063
-319.041	-55.823	0.098	-0.043
-318.026	-200.000	0.016	0.281
-317.012	239.093	-0.056	-0.092
-315.997	570.216	-0.118	-0.283
-314.983	144.045	-0.168	-0.221
-313.968	800.000	0.082	-0.292
-312.953	800.000	-0.016	-0.056
-311.939	-200.000	-0.012	0.222
-310.924	-135.531	0.160	-0.019
-309.910	800.000	0.020	0.063
-308.895	-96.900	-0.219	0.057
-307.880	130.940	0.168	-0.213
-306.866	348.712	-0.081	0.158
-305.851	260.968	0.187	-0.319
-304.837	-162.368	0.231	-0.011
-303.822	-200.000	-0.013	-0.095
-302.807	-32.024	-0.056	-0.031
-301.793	522.841	-0.079	0.184
-300.778	-11.284	-0.032	-0.021
-299.764	800.000	0.065	-0.253
-298.749	-184.773	0.183	-0.003
-297.735	-19.947	0.064	0.039
-296.720	-170.340	0.092	0.003
-295.705	-58.413	0.185	-0.079
-294.691	48.224	-0.018	0.016
-293.676	445.889	0.131	0.285
-292.662	-200.000	0.033	0.515
-291.647	-200.000	0.005	0.170
-290.632	86.428	-0.120	0.131
-289.618	13.254	0.270	-0.206
-288.603	-200.000	0.018	0.174
-287.589	-103.761	0.200	-0.046
-286.574	81.313	-0.192	-0.205
-285.559	-38.892	0.331	-0.172
-284.545	31.483	-0.028	0.024
-283.530	-39.551	-0.240	0.124
-282.516	139.317	0.082	-0.107
-281.501	-138.298	-0.021	-0.002
-280.486	59.111	0.061	-0.059
-279.472	424.114	-0.139	-0.294
-278.457	-81.122	-0.168	0.055
-277.443	-0.834	0.091	0.063
-276.428	800.000	-0.104	0.348
-275.413	-162.377	0.123	0.006
-274.399	800.000	-0.040	-0.132
-273.384	118.746	0.057	0.069
-272.370	-68.364	0.268	0.102
-271.355	315.096	0.066	-0.122
-270.340	55.525	0.186	0.177
-269.326	245.325	-0.187	-0.310
-268.311	-96.789	0.172	-0.045
-267.297	-65.775	-0.247	-0.097
-266.282	-87.917	-0.120	0.035
-265.267	-6.744	0.249	0.166
-264.253	249.846	0.146	-0.245
-263.238	313.659	-0.206	0.381
-262.224	68.127	0.325	0.327
-261.209	-19.781	0.136	0.083
-260.195	-19.140	0.384	0.235
-259.180	-60.863	-0.204	-0.085
-258.165	128.745	0.093	-0.117
-257.151	-118.636	0.192	0.033
-256.136	-91.203	-0.268	-0.076
-255.122	-200.000	0.037	-0.226
-254.107	64.778	0.138	-0.137
-253.092	705.006	-0.040	0.104
-252.078	-200.000	0.039	0.251
-251.063	236.142	-0.072	-0.117
-250.049	-31.109	0.146	0.081
-249.034	-93.208	0.384	0.105
-248.019	-160.189	-0.193	-0.010
-247.005	18.036	0.074	0.058
-245.990	-200.000	-0.011	0.176
-244.976	274.921	-0.070	0.123
-243.961	-93.499	-0.184	-0.050
-242.946	317.910	0.104	-0.194
-241.932	-200.000	0.004	0.271
-240.917	-49.303	-0.325	0.152
-239.903	93.072	0.074	-0.082
-238.888	321.531	-0.117	-0.219
-237.873	280.727	-0.039	0.069
-236.859	-200.000	-0.018	-0.235
-235.844	-118.714	0.339	0.059
-234.830	69.900	-0.174	-0.176
-233.815	-98.362	0.185	-0.047
-232.800	642.643	0.122	0.306
-231.786	800.000	0.110	0.316
-230.771	-77.023	0.132	-0.045
-229.757	-83.313	-0.128	0.040
-228.742	800.000	0.094	0.317
-227.727	-8.401	-0.200	-0.132
-226.713	800.000	0.062	0.197
-225.698	800.000	-0.070	0.211
-224.684	-200.000	0.033	-0.214
-223.669	-79.179	0.216	0.072
-222.655	-67.074	-0.086	-0.033
-221.640	-200.000	-0.011	-0.483
-220.625	186.587	-0.090	-0.132
-219.611	800.000	0.058	0.233
-218.596	-121.954	-0.113	-0.018
-217.582	132.531	-0.212	-0.269
-216.567	169.137	-0.194	0.272
-215.552	-200.000	-0.013	-0.276
-214.538	-107.027	-0.356	-0.077
-213.523	800.000	-0.061	0.195
-212.509	-200.000	0.033	0.259
-211.494	159.079	-0.096	0.131
-210.479	191.176	-0.208	0.308
-209.465	-27.626	-0.079	-0.045
-208.450	-200.000	-0.005	-0.130
-207.436	-113.424	0.195	-0.038
-206.421	406.186	0.130	0.269
-205.406	688.356	-0.072	0.184
-204.392	55.900	-0.234	0.223
-203.377	-106.781	-0.454	0.099
-202.363	-42.556	0.260	-0.130
-201.348	800.000	0.070	0.281
-200.333	-200.000	-0.036	0.188
-199.319	175.111	0.066	0.094
-198.304	165.128	-0.052	-0.073
-197.290	-94.867	0.256	0.068
-196.275	800.000	0.024	-0.095
-195.260	-111.869	-0.188	-0.037
-194.246	235.929	0.036	0.059
-193.231	800.000	-0.086	0.293
-192.217	-200.000	-0.003	0.102
-191.202	87.800	0.023	0.025
-190.187	-46.743	-0.082	0.039
-189.173	-46.528	0.252	0.121
-188.158	24.181	-0.173	-0.140
-187.144	265.417	0.114	0.196
-186.129	95.636	-0.009	-0.010
-185.114	-175.081	0.046	-0.001
-184.100	340.106	0.055	-0.105
-183.085	483.416	-0.108	-0.240
-182.071	43.927	-0.206	-0.185
-181.056	17.656	-0.164	0.128
-180.042	138.378	0.144	0.185
-179.027	-86.643	0.212	-0.064
-178.012	-200.000	-0.010	0.104
-176.998	-20.136	-0.155	0.094
-175.983	-16.195	0.229	-0.143
-174.969	-83.664	-0.119	0.037
-173.954	-123.534	-0.087	0.014
-172.939	-110.639	0.306	-0.062
-171.925	-200.000	0.024	0.159
-170.910	43.550	-0.236	-0.212
-169.896	229.112	0.130	-0.207
-168.881	-153.361	-0.223	0.015
-167.866	-70.703	0.211	0.078
-166.852	-15.327	-0.271	-0.170
-165.837	384.853	0.082	0.165
-164.823	-200.000	0.004	-0.174
-163.808	70.155	-0.222	-0.225
-162.793	-66.994	-0.205	0.079
-161.779	68.013	0.014	-0.014
-160.764	212.375	-0.209	0.323
-159.750	-23.034	0.127	0.075
-158.735	-172.179	0.115	-0.004
-157.720	153.545	0.217	0.291
-156.706	114.429	-0.222	0.265
-155.691	800.000	0.039	0.163
-154.677	82.737	-0.164	0.174
-153.662	-200.000	-0.043	0.329
-152.647	274.721	-0.087	-0.150
-151.633	-129.129	0.438	-0.060
-150.618	-54.475	-0.199	0.089
-149.604	-118.981	0.257	-0.044
-148.589	-1.598	0.204	0.141
-147.574	-84.941	-0.095	-0.029
-146.560	-200.000	-0.002	0.105
-145.545	-143.456	0.199	0.019
-144.531	88.782	-0.067	-0.073
-143.516	-167.958	-0.125	-0.005
-142.502	800.000	0.055	0.181
-141.487	-22.516	-0.359	0.213
-140.472	79.488	-0.037	-0.039
-139.458	-69.563	-0.172	0.064
-138.443	-34.315	0.296	0.159
-137.429	283.289	0.203	-0.357
-136.414	16.356	0.239	-0.185
-135.399	116.819	0.190	-0.229
-134.385	-68.186	-0.217	-0.083
-133.370	128.474	0.145	-0.181
-132.356	10.974	0.261	-0.195
-131.341	8.870	-0.059	-0.044
-130.326	-200.000	0.013	-0.168
-129.312	-133.773	0.179	-0.022
-128.297	-198.545	0.413	-0.002
-127.283	405.760	0.067	0.139
-126.268	544.133	0.082	0.193
-125.253	800.000	-0.079	0.219
-124.239	-16.273	-0.172	-0.107
-123.224	114.098	0.057	-0.068
-122.210	36.904	0.081	-0.070
