DTS Sentinel unit serial number:	SN413079Multiplexer serial number:	ORYXHardware model number:	OX4-SRSoftware version number:	ORYX F/W v4.00 Oryx Data Collector v3.7.2.0data status	okinstallation	princeton_trtdifferential loss correction	single-endedforward channel	channel 1reverse channel	N/Adate	2019/09/12time	17:36:11forward acquisition time	60.00reverse acquisition time	0.00gamma	496.2192k internal	0.2317k external	0.2317temperature offset calibration	1.0104default loss term (dB/km)	0.3790temperature slope calibration	1.0000multiplexer offset coefficient	1.0000multiplexer slope coefficient	1.0000fibre end	0.00T internal ref (°C)	34.41T ext. ref 1 (°C)	2.85T ext. ref 2 (°C)	28.53length (m)	temperature (°C)	Stokes	anti-Stokes-747.200	800.000	-0.035	0.112
-746.185	150.099	-0.064	-0.088
-745.171	40.849	0.171	-0.156
-744.156	800.000	-0.025	0.085
-743.142	119.426	0.123	-0.154
-742.127	408.980	-0.016	0.034
-741.112	145.471	0.188	-0.256
-740.098	-55.347	-0.030	0.014
-739.083	800.000	0.071	0.209
-738.069	-200.000	-0.008	0.384
-737.054	-140.881	0.075	0.008
-736.039	800.000	-0.059	0.226
-735.025	-24.863	0.048	0.029
-734.010	800.000	-0.128	-0.471
-732.996	760.582	0.171	-0.470
-731.981	800.000	0.038	-0.158
-730.966	439.760	-0.029	-0.065
-729.952	98.239	-0.142	-0.166
-728.937	86.855	0.077	-0.086
-727.923	-54.328	0.327	0.150
-726.908	-67.665	0.179	-0.071
-725.894	8.528	-0.211	0.161
-724.879	-175.129	0.250	-0.007
-723.864	-200.000	-0.007	-0.130
-722.850	252.647	-0.023	0.039
-721.835	786.557	0.093	-0.258
-720.821	-84.683	0.121	-0.039
-719.806	800.000	-0.069	-0.280
-718.791	74.377	-0.201	0.214
-717.777	-200.000	-0.026	0.174
-716.762	-96.286	-0.261	-0.070
-715.748	-71.087	0.349	-0.133
-714.733	213.309	-0.141	0.226
-713.718	-88.592	-0.228	0.069
-712.704	-190.519	-0.106	0.001
-711.689	-78.461	0.180	0.062
-710.675	-127.377	0.133	0.020
-709.660	13.139	0.124	0.097
-708.645	164.547	0.209	0.298
-707.631	-64.474	0.177	-0.073
-706.616	-58.636	0.424	-0.186
-705.602	-200.000	0.002	0.235
-704.587	-200.000	-0.029	-0.418
-703.572	121.558	0.231	-0.291
-702.558	-43.181	-0.107	0.055
-701.543	704.237	0.041	0.108
-700.529	670.289	0.078	-0.203
-699.514	-200.000	-0.025	0.309
-698.499	180.458	-0.246	-0.365
-697.485	492.870	0.059	-0.136
-696.470	-200.000	0.064	0.403
-695.456	-200.000	0.069	0.335
-694.441	448.815	-0.149	-0.332
-693.426	49.083	0.240	0.227
-692.412	-12.164	-0.206	-0.136
-691.397	-95.787	-0.107	0.029
-690.383	461.294	0.150	-0.339
-689.368	-61.741	-0.349	-0.148
-688.354	-60.709	0.170	-0.073
-687.339	800.000	-0.055	-0.173
-686.324	105.417	0.134	0.160
-685.310	75.465	-0.060	0.064
-684.295	-200.000	0.021	-0.320
-683.281	63.094	-0.213	0.215
-682.266	-200.000	-0.009	-0.191
-681.251	-155.110	-0.248	-0.016
-680.237	42.725	-0.053	0.049
-679.222	-47.437	0.031	-0.015
-678.208	-71.969	0.052	-0.019
-677.193	-137.648	-0.198	0.023
-676.178	604.154	-0.148	-0.372
-675.164	77.026	-0.150	-0.161
-674.149	-65.295	-0.107	-0.044
-673.135	424.929	-0.152	-0.331
-672.120	660.689	-0.084	0.219
-671.105	40.577	-0.115	0.105
-670.091	148.084	0.338	0.460
-669.076	-50.412	0.259	0.123
-668.062	-200.000	0.009	0.129
-667.047	-199.634	-0.124	-0.001
-666.032	-200.000	-0.055	-0.280
-665.018	755.765	0.047	-0.128
-664.003	-40.623	0.183	-0.096
-662.989	-154.488	0.177	-0.012
-661.974	342.353	0.096	-0.189
-660.959	-22.266	-0.121	0.074
-659.945	76.450	0.208	-0.223
-658.930	29.223	-0.224	-0.192
-657.916	84.881	0.241	0.267
-656.901	-129.490	-0.277	0.039
-655.886	-65.141	0.177	0.072
-654.872	800.000	-0.083	0.255
-653.857	-200.000	-0.074	-0.383
-652.843	800.000	0.050	0.202
-651.828	800.000	-0.041	0.154
-650.814	143.884	-0.069	-0.092
-649.799	153.771	-0.076	0.104
-648.784	-200.000	-0.045	-0.273
-647.770	-168.122	0.069	-0.003
-646.755	7.211	0.035	0.026
-645.741	-200.000	-0.037	-0.304
-644.726	55.012	0.200	0.195
-643.711	-200.000	-0.007	0.071
-642.697	-86.529	-0.202	0.063
-641.682	44.830	-0.256	-0.238
-640.668	-64.620	-0.014	-0.006
-639.653	35.551	-0.101	0.089
-638.638	216.597	0.100	-0.161
-637.624	-2.126	0.041	-0.029
-636.609	-98.223	-0.298	0.077
-635.595	800.000	-0.074	-0.293
-634.580	-173.622	0.387	0.012
-633.565	607.977	0.111	0.279
-632.551	-96.538	-0.270	-0.072
-631.536	-200.000	-0.020	0.115
-630.522	-37.104	0.159	0.086
-629.507	103.598	-0.171	-0.202
-628.492	-54.215	0.224	0.103
-627.478	-200.000	0.001	0.128
-626.463	-200.000	-0.015	0.083
-625.449	109.781	-0.059	0.071
-624.434	8.780	0.175	0.133
-623.419	407.032	0.132	-0.281
-622.405	-11.869	-0.021	0.014
-621.390	-200.000	-0.032	-0.327
-620.376	-90.465	-0.113	0.033
-619.361	166.354	0.081	0.115
-618.346	101.596	-0.142	0.167
-617.332	219.691	0.274	-0.442
-616.317	800.000	0.062	-0.205
-615.303	177.180	0.071	-0.103
-614.288	-151.536	-0.089	0.007
-613.273	800.000	-0.051	0.154
-612.259	-16.232	0.287	-0.183
-611.244	421.499	0.100	0.217
-610.230	-156.030	-0.209	0.013
-609.215	136.824	0.166	0.219
-608.201	800.000	0.055	-0.178
-607.186	249.761	0.096	0.163
-606.171	-4.964	0.032	0.022
-605.157	251.201	-0.079	0.135
-604.142	61.833	-0.125	-0.125
-603.128	-77.788	-0.221	-0.077
-602.113	752.451	0.043	-0.118
-601.098	-12.524	-0.097	0.064
-600.084	-149.336	0.300	0.024
-599.069	-71.607	-0.130	-0.049
-598.055	19.441	0.098	-0.079
-597.040	-117.072	0.200	-0.037
-596.025	168.855	0.247	0.355
-595.011	-21.309	0.087	0.054
-593.996	-77.195	0.189	0.066
-592.982	7.767	0.159	0.120
-591.967	-29.860	0.130	-0.075
-590.952	-49.136	0.128	0.062
-589.938	800.000	-0.092	-0.395
-588.923	-138.175	0.231	-0.026
-587.909	-158.262	-0.374	0.022
-586.894	-13.778	-0.139	0.091
-585.879	-200.000	-0.011	-0.440
-584.865	97.604	0.141	-0.163
-583.850	7.109	0.211	-0.158
-582.836	-200.000	-0.006	-0.125
-581.821	-53.846	0.221	-0.102
-580.806	800.000	-0.073	-0.263
-579.792	137.613	0.172	-0.227
-578.777	-114.317	0.206	-0.040
-577.763	-200.000	-0.036	0.167
-576.748	-200.000	-0.040	0.192
-575.733	9.432	-0.231	0.176
-574.719	-200.000	-0.013	0.177
-573.704	-200.000	0.050	0.231
-572.690	75.039	0.085	0.090
-571.675	800.000	0.040	-0.132
-570.661	319.829	0.099	-0.190
-569.646	389.117	0.045	0.093
-568.631	-200.000	-0.038	-0.170
-567.617	15.950	0.102	0.081
-566.602	-64.874	0.047	-0.019
-565.588	373.625	0.091	0.186
-564.573	-127.371	0.134	0.020
-563.558	98.825	0.186	0.216
-562.544	64.823	0.152	0.154
-561.529	-200.000	0.032	0.294
-560.515	100.906	-0.130	0.153
-559.500	34.457	-0.382	-0.335
-558.485	-18.674	-0.170	0.107
-557.471	136.260	-0.030	0.039
-556.456	-131.896	0.164	0.022
-555.442	146.088	-0.224	0.302
-554.427	-41.409	0.355	-0.184
-553.412	-124.048	-0.311	0.049
-552.398	-50.070	0.207	-0.098
-551.383	-56.626	-0.378	-0.168
-550.369	4.125	-0.158	-0.116
-549.354	-180.108	-0.403	0.009
-548.339	-77.418	-0.211	-0.074
-547.325	185.181	0.216	0.323
-546.310	800.000	0.084	-0.286
-545.296	-127.208	0.170	0.025
-544.281	151.792	-0.174	0.239
-543.266	-200.000	-0.020	-0.185
-542.252	-23.891	0.230	0.138
-541.237	37.570	-0.209	0.187
-540.223	-200.000	-0.025	-0.133
-539.208	-113.264	-0.282	-0.056
-538.193	-68.290	0.195	0.076
-537.179	-98.725	-0.225	-0.058
-536.164	-59.502	-0.369	-0.159
-535.150	394.802	-0.035	-0.073
-534.135	-51.821	-0.206	-0.096
-533.121	364.965	-0.115	-0.232
-532.106	-46.473	-0.218	-0.108
-531.091	-70.883	-0.035	-0.013
-530.077	-93.507	-0.154	0.043
-529.062	468.084	0.092	-0.208
-528.048	-68.141	-0.389	-0.152
-527.033	0.059	0.144	0.103
-526.018	-123.297	-0.114	0.018
-525.004	344.306	0.162	-0.318
-523.989	43.797	0.253	-0.232
-522.975	-200.000	0.004	-0.141
-521.960	26.334	-0.143	0.120
-520.945	800.000	0.041	-0.128
-519.931	-200.000	-0.013	0.092
-518.916	107.850	-0.171	0.204
-517.902	-200.000	0.008	-0.057
-516.887	-200.000	0.031	0.190
-515.872	-200.000	-0.007	-0.134
-514.858	32.797	-0.059	0.051
-513.843	-53.855	-0.215	0.098
-512.829	22.759	-0.119	-0.098
-511.814	-147.407	0.189	-0.016
-510.799	-58.266	-0.092	-0.040
-509.785	-87.615	0.297	0.090
-508.770	-110.020	0.207	0.043
-507.756	800.000	0.029	-0.117
-506.741	-200.000	-0.016	-0.292
-505.726	800.000	0.073	-0.307
-504.712	453.610	-0.049	0.108
-503.697	-200.000	0.040	0.237
-502.683	-36.362	-0.503	0.272
-501.668	800.000	0.056	0.158
-500.653	109.084	-0.108	-0.130
-499.639	504.470	0.043	-0.100
-498.624	24.219	-0.209	0.173
-497.610	566.992	0.084	0.203
-496.595	800.000	-0.062	0.191
-495.581	237.941	-0.037	-0.061
-494.566	-147.166	-0.096	-0.008
-493.551	-53.998	0.075	0.034
-492.537	-14.575	-0.041	0.027
-491.522	262.761	0.100	0.174
-490.508	-24.246	-0.313	-0.187
-489.493	-36.852	-0.163	-0.088
-488.478	84.700	0.178	0.196
-487.464	758.132	0.054	-0.145
-486.449	75.286	-0.248	-0.262
-485.435	-39.984	-0.338	0.177
-484.420	800.000	0.053	-0.218
-483.405	-200.000	0.009	-0.115
-482.391	122.550	-0.057	-0.072
-481.376	-44.840	-0.203	-0.102
-480.362	-111.440	-0.105	0.021
-479.347	-125.150	-0.294	-0.045
-478.332	1.495	0.243	0.175
-477.318	101.462	0.044	-0.051
-476.303	-83.557	-0.273	-0.088
-475.289	278.570	0.043	0.078
-474.274	105.524	0.096	0.114
-473.259	-57.670	0.130	0.057
-472.245	-177.057	-0.156	-0.004
-471.230	-200.000	-0.056	0.249
-470.216	-138.089	-0.266	0.030
-469.201	800.000	0.038	0.115
-468.186	-200.000	-0.004	0.159
-467.172	-200.000	-0.053	-0.259
-466.157	524.436	0.043	0.102
-465.143	-200.000	-0.006	-0.209
-464.128	287.807	-0.085	0.154
-463.113	12.667	-0.146	0.113
-462.099	-94.602	-0.170	-0.046
-461.084	-158.918	-0.015	0.001
-460.070	-61.499	0.143	-0.060
-459.055	-200.000	-0.008	-0.081
-458.040	-97.509	-0.281	0.073
-457.026	-45.389	0.222	0.110
-456.011	-66.474	0.137	-0.054
-454.997	304.730	-0.130	0.242
-453.982	-51.627	0.173	-0.081
-452.968	-95.564	0.212	-0.057
-451.953	-174.923	-0.060	-0.002
-450.938	328.409	0.094	-0.181
-449.924	800.000	-0.032	0.130
-448.909	278.678	-0.027	0.048
-447.895	23.139	-0.145	-0.119
-446.880	-200.000	-0.011	0.246
-445.865	-200.000	-0.015	0.110
-444.851	196.636	-0.097	-0.148
-443.836	800.000	-0.112	-0.405
-442.822	-86.181	-0.301	-0.093
-441.807	133.692	-0.150	-0.195
-440.792	-167.350	-0.248	-0.010
-439.778	-200.000	0.015	0.286
-438.763	-200.000	0.015	0.137
-437.749	93.099	-0.193	0.218
-436.734	168.875	-0.269	-0.383
-435.719	-150.558	0.245	-0.019
-434.705	-200.000	0.046	-0.404
-433.690	-55.656	0.410	-0.183
-432.676	-44.802	-0.121	0.060
-431.661	106.872	0.193	0.230
-430.646	-70.283	0.306	-0.116
-429.632	800.000	0.044	-0.141
-428.617	407.189	-0.162	-0.343
-427.603	-169.200	-0.392	0.015
-426.588	-200.000	-0.009	0.084
-425.573	-75.756	0.217	-0.077
-424.559	93.003	0.033	0.038
-423.544	800.000	0.042	-0.125
-422.530	-77.030	0.158	-0.055
-421.515	-128.615	-0.305	-0.043
-420.500	-116.938	0.259	0.047
-419.486	-157.611	0.302	0.018
-418.471	-17.183	0.060	-0.038
-417.457	-43.234	0.160	0.081
-416.442	673.278	-0.085	-0.219
-415.428	-135.919	-0.186	0.022
-414.413	-200.000	0.036	0.343
-413.398	-200.000	-0.004	0.109
-412.384	-2.256	-0.268	0.188
-411.369	235.758	-0.095	0.156
-410.355	321.020	0.029	0.055
-409.340	-172.873	-0.231	-0.007
-408.325	-200.000	-0.022	0.160
-407.311	-21.313	0.382	-0.233
-406.296	170.075	0.021	-0.029
-405.282	800.000	-0.077	-0.312
-404.267	-19.317	0.356	0.220
-403.252	1.563	0.196	-0.141
-402.238	-21.022	-0.125	0.076
-401.223	-15.537	-0.337	0.215
-400.209	49.772	-0.038	-0.036
-399.194	-117.908	0.129	0.023
-398.179	-169.889	-0.051	-0.002
-397.165	384.097	-0.047	-0.096
-396.150	-157.640	-0.158	-0.009
-395.136	141.058	0.180	-0.238
-394.121	800.000	0.068	-0.278
-393.106	327.040	0.115	0.219
-392.092	-61.803	-0.444	-0.186
-391.077	576.751	0.145	-0.354
-390.063	-198.523	0.204	0.001
-389.048	-200.000	-0.088	0.394
-388.033	-200.000	-0.029	0.373
-387.019	-152.038	-0.187	0.014
-386.004	313.395	0.081	0.152
-384.990	591.898	0.132	-0.326
-383.975	-122.725	0.136	0.022
-382.960	28.100	0.063	-0.053
-381.946	-11.434	0.031	0.020
-380.931	-200.000	0.033	0.291
-379.917	-128.424	-0.124	0.018
-378.902	276.291	-0.068	0.121
-377.888	11.945	0.279	-0.214
-376.873	-31.870	-0.191	0.107
-375.858	-38.343	-0.415	0.220
-374.844	1.730	0.101	0.073
-373.829	121.393	0.169	-0.210
-372.815	-95.385	-0.201	-0.054
-371.800	800.000	-0.074	-0.231
-370.785	9.420	-0.204	0.154
-369.771	-71.805	-0.087	0.032
-368.756	272.518	0.085	-0.149
-367.742	6.943	-0.107	0.080
-366.727	-200.000	0.034	0.171
-365.712	358.532	0.192	-0.382
-364.698	-125.336	-0.170	-0.026
-363.683	-1.731	-0.167	0.117
-362.669	58.616	-0.189	0.185
-361.654	1.327	-0.207	-0.149
-360.639	-200.000	-0.001	-0.174
-359.625	-200.000	-0.069	0.327
-358.610	-101.616	0.237	0.057
-357.596	243.062	-0.063	0.105
-356.581	80.499	-0.247	-0.266
-355.566	20.467	0.152	-0.123
-354.552	717.055	-0.068	0.180
-353.537	73.848	-0.104	-0.109
-352.523	91.750	-0.090	-0.101
-351.508	-200.000	-0.002	0.226
-350.493	-200.000	0.004	0.291
-349.479	800.000	-0.063	0.212
-348.464	800.000	0.108	-0.366
-347.450	78.649	-0.126	-0.134
-346.435	235.667	0.058	-0.095
-345.420	291.026	-0.075	0.136
-344.406	24.054	0.245	-0.202
-343.391	52.688	0.230	-0.219
-342.377	-200.000	0.091	-0.446
-341.362	127.118	-0.043	-0.054
-340.348	-51.330	-0.078	0.036
-339.333	-140.207	0.329	0.034
-338.318	-60.398	0.279	-0.118
-337.304	800.000	-0.049	0.149
-336.289	-58.378	-0.165	-0.071
-335.275	69.354	-0.239	-0.245
-334.260	-74.125	0.178	0.064
-333.245	116.137	-0.122	0.149
-332.231	-61.938	0.207	-0.086
-331.216	138.399	0.158	0.206
-330.202	-200.000	-0.032	0.282
-329.187	-92.677	-0.218	-0.061
-328.172	28.317	0.262	-0.220
-327.158	-42.107	0.052	-0.027
-326.143	-138.801	0.287	0.031
-325.129	59.239	-0.214	0.210
-324.114	0.264	-0.122	-0.087
-323.099	800.000	0.013	-0.036
-322.085	53.788	-0.094	-0.090
-321.070	-200.000	0.015	0.076
-320.056	783.636	0.147	0.402
-319.041	-36.032	-0.245	0.132
-318.026	29.387	-0.020	0.017
-317.012	64.234	-0.056	-0.056
-315.997	-34.809	-0.108	-0.059
-314.983	-200.000	0.009	0.247
-313.968	26.852	0.116	0.097
-312.953	-200.000	0.011	0.127
-311.939	-118.155	-0.253	0.045
-310.924	260.981	-0.087	-0.149
-309.910	-32.336	-0.118	0.066
-308.895	43.400	-0.125	-0.114
-307.880	61.861	0.137	0.136
-306.866	-200.000	-0.037	0.257
-305.851	573.872	-0.125	0.305
-304.837	68.358	0.165	0.168
-303.822	-102.201	0.172	0.041
-302.807	186.552	-0.083	0.123
-301.793	-200.000	0.007	-0.208
-300.778	-91.004	-0.275	-0.079
-299.764	113.698	0.144	-0.174
-298.749	118.212	0.073	0.090
-297.735	-93.495	0.171	-0.047
-296.720	447.137	0.101	0.221
-295.705	151.791	-0.124	-0.168
-294.691	106.334	-0.156	0.184
-293.676	-200.000	0.031	-0.189
-292.662	16.581	-0.096	0.076
-291.647	22.875	-0.151	0.123
-290.632	-106.509	-0.033	0.007
-289.618	93.888	-0.139	-0.157
-288.603	604.951	-0.016	-0.041
-287.589	219.819	0.199	0.317
-286.574	800.000	0.034	-0.100
-285.559	-200.000	0.012	-0.196
-284.545	448.529	-0.170	-0.372
-283.530	-2.734	0.122	-0.085
-282.516	92.306	0.122	-0.137
-281.501	-5.139	-0.314	0.215
-280.486	-109.768	-0.118	-0.025
-279.472	9.076	0.096	-0.072
-278.457	-115.124	0.173	-0.033
-277.443	178.761	-0.179	-0.260
-276.428	-200.000	-0.007	0.086
-275.413	-20.282	-0.348	-0.213
-274.399	-200.000	-0.007	-0.063
-273.384	149.591	-0.042	0.056
-272.370	800.000	-0.101	0.343
-271.355	-129.353	0.188	0.026
-270.340	107.724	0.057	0.067
-269.326	-39.236	-0.114	-0.060
-268.311	-200.000	0.037	-0.297
-267.297	-78.017	0.221	-0.076
-266.282	121.091	-0.126	0.156
-265.267	54.219	0.149	0.142
-264.253	-200.000	0.038	-0.189
-263.238	800.000	0.039	-0.163
-262.224	3.815	0.268	0.195
-261.209	248.013	0.217	0.365
-260.195	-23.440	-0.121	0.072
-259.180	-160.821	-0.374	-0.020
-258.165	-200.000	-0.076	0.338
-257.151	-91.494	0.111	0.032
-256.136	-200.000	-0.063	-0.312
-255.122	800.000	0.025	0.108
-254.107	55.757	0.190	-0.182
-253.092	-134.532	-0.255	-0.031
-252.078	216.103	0.072	-0.114
-251.063	5.658	-0.153	0.112
-250.049	-39.285	0.273	0.143
-249.034	248.334	-0.085	-0.143
-248.019	-186.681	0.533	-0.007
-247.005	-38.994	0.220	-0.115
-245.990	-50.859	-0.089	-0.042
-244.976	42.573	-0.288	0.261
-243.961	-129.598	0.267	0.037
-242.946	624.648	0.068	-0.170
-241.932	-200.000	-0.002	0.145
-240.917	-109.566	-0.241	-0.051
-239.903	188.083	0.164	-0.244
-238.888	244.292	-0.127	-0.211
-237.873	346.855	0.082	0.161
-236.859	292.830	0.239	-0.432
-235.844	32.916	0.070	0.060
-234.830	-114.079	0.303	0.058
-233.815	-200.000	0.009	0.157
-232.800	-3.523	0.155	-0.107
-231.786	246.184	0.109	-0.183
-230.771	-200.000	-0.017	0.112
-229.757	-106.520	-0.065	-0.014
-228.742	174.049	0.117	0.168
-227.727	249.927	-0.071	0.120
-226.713	-200.000	-0.073	0.326
-225.698	76.601	-0.172	0.181
-224.684	-47.180	0.177	0.086
-223.669	-49.593	-0.188	-0.089
-222.655	-200.000	0.034	0.252
-221.640	210.080	0.205	0.319
-220.625	-82.363	0.126	0.041
-219.611	-29.836	0.037	0.021
-218.596	99.863	0.026	-0.030
-217.582	800.000	0.055	0.151
-216.567	-20.872	0.158	0.096
-215.552	-200.000	-0.004	0.244
-214.538	65.278	-0.132	-0.132
-213.523	13.476	0.246	-0.189
-212.509	130.983	0.274	-0.349
-211.494	-120.175	0.310	0.053
-210.479	-130.805	-0.087	-0.012
-209.465	561.537	0.094	-0.226
-208.450	134.948	-0.270	0.348
-207.436	409.637	-0.160	-0.337
-206.421	800.000	-0.035	0.107
-205.406	-81.633	-0.362	-0.118
-204.392	-200.000	-0.038	-0.196
-203.377	541.174	0.018	0.043
-202.363	800.000	0.105	0.364
-201.348	267.844	-0.102	0.177
-200.333	398.266	0.091	-0.190
-199.319	800.000	0.056	-0.177
-198.304	-200.000	-0.021	0.164
-197.290	-200.000	0.099	0.492
-196.275	-154.777	-0.046	-0.003
-195.260	-107.370	-0.292	-0.064
-194.246	-56.082	0.248	-0.110
-193.231	-57.583	0.051	0.022
-192.217	35.165	-0.178	0.155
-191.202	106.865	0.075	-0.088
-190.187	-79.036	0.443	-0.149
-189.173	-200.000	-0.007	-0.164
-188.158	317.170	0.171	0.320
-187.144	134.667	0.323	-0.415
-186.129	525.929	0.025	0.059
-185.114	-107.653	-0.189	0.041
-184.100	97.712	-0.094	0.107
-183.085	-116.375	0.187	-0.034
-182.071	-121.142	0.167	0.028
-181.056	-25.522	0.112	-0.065
-180.042	800.000	-0.113	0.342
-179.027	800.000	0.137	0.377
-178.012	-44.893	0.203	-0.100
-176.998	-69.863	0.290	-0.110
-175.983	28.935	0.274	-0.230
-174.969	-55.357	0.051	-0.023
-173.954	-26.043	0.203	0.118
-172.939	-118.984	-0.058	-0.010
-171.925	-110.721	0.154	0.031
-170.910	-10.269	-0.160	0.105
-169.896	528.427	0.128	0.299
-168.881	-101.975	-0.428	-0.102
-167.866	197.385	0.126	-0.190
-166.852	-127.367	0.296	-0.043
-165.837	474.874	0.162	0.361
-164.823	-148.250	-0.286	-0.023
-163.808	-130.047	0.058	0.008
-162.793	-200.000	0.026	0.168
-161.779	35.829	-0.182	0.159
-160.764	40.739	0.320	-0.285
-159.750	104.311	-0.072	0.084
-158.735	-122.901	0.112	-0.018
-157.720	249.048	-0.038	0.064
-156.706	-95.032	0.037	0.010
-155.691	-200.000	-0.058	-0.272
-154.677	800.000	-0.084	0.356
-153.662	28.833	0.067	0.056
-152.647	17.174	0.060	-0.047
-151.633	-200.000	-0.003	-0.252
-150.618	135.471	0.194	0.250
-149.604	-45.698	-0.069	-0.034
-148.589	32.611	0.173	0.148
-147.574	-93.459	0.211	-0.058
-146.560	49.153	0.266	0.247
-145.545	-75.078	-0.330	-0.117
-144.531	-200.000	-0.055	0.279
-143.516	800.000	0.083	-0.285
-142.502	-200.000	-0.024	-0.290
-141.487	-64.751	0.178	0.071
-140.472	800.000	-0.198	0.558
-139.458	800.000	-0.034	-0.105
-138.443	22.386	0.058	-0.047
-137.429	46.799	-0.079	-0.073
-136.414	354.448	0.062	0.122
-135.399	38.976	0.210	0.186
-134.385	-140.394	0.579	0.060
-133.370	-200.000	-0.078	-0.483
-132.356	160.329	0.027	0.037
-131.341	111.616	-0.061	0.073
-130.326	-196.980	0.237	-0.002
-129.312	54.021	-0.087	0.083
-128.297	431.187	-0.052	0.111
-127.283	-89.124	0.195	-0.057
-126.268	20.370	0.310	0.247
-125.253	508.404	-0.097	-0.223
-124.239	-90.275	-0.471	-0.135
-123.224	-39.453	-0.263	-0.136
-122.210	800.000	0.065	0.222
-121.195	14.980	-0.267	-0.207
-120.180	-200.000	0.008	-0.311
