DTS Sentinel unit serial number:	SN413079Multiplexer serial number:	ORYXHardware model number:	OX4-SRSoftware version number:	ORYX F/W v4.00 Oryx Data Collector v3.7.2.0data status	okinstallation	princeton_trtdifferential loss correction	single-endedforward channel	channel 1reverse channel	N/Adate	2019/09/18time	19:46:35forward acquisition time	60.00reverse acquisition time	0.00gamma	496.2192k internal	0.2327k external	0.2327temperature offset calibration	1.0028default loss term (dB/km)	0.3790temperature slope calibration	1.0000multiplexer offset coefficient	1.0000multiplexer slope coefficient	1.0000fibre end	0.00T internal ref (°C)	31.44T ext. ref 1 (°C)	1.01T ext. ref 2 (°C)	21.94length (m)	temperature (°C)	Stokes	anti-Stokes-747.200	-109.279	0.522	0.112
-746.185	-37.956	-0.126	0.068
-745.171	150.354	-0.219	0.300
-744.156	-200.000	-0.028	0.163
-743.142	800.000	-0.103	-0.383
-742.127	54.047	-0.204	0.198
-741.112	-200.000	0.028	0.366
-740.098	-79.814	-0.206	0.070
-739.083	-180.787	-0.273	0.006
-738.069	132.614	-0.162	0.210
-737.054	-84.507	0.309	0.098
-736.039	-101.867	-0.229	0.056
-735.025	-10.778	0.339	-0.226
-734.010	70.699	0.101	0.106
-732.996	317.026	-0.180	-0.344
-731.981	-200.000	-0.038	0.562
-730.966	-41.027	-0.294	0.153
-729.952	-200.000	0.002	-0.269
-728.937	23.117	0.489	-0.404
-727.923	328.377	0.033	-0.064
-726.908	599.148	-0.130	0.324
-725.894	20.086	0.109	-0.088
-724.879	-103.810	-0.159	0.038
-723.864	-77.554	-0.092	0.032
-722.850	-172.868	-0.165	0.005
-721.835	-200.000	-0.071	-0.380
-720.821	-200.000	-0.017	0.077
-719.806	-73.048	0.171	-0.063
-718.791	-43.975	-0.048	-0.025
-717.777	-200.000	-0.034	-0.159
-716.762	136.057	0.117	0.153
-715.748	-119.337	-0.267	0.047
-714.733	800.000	-0.100	-0.345
-713.718	-43.246	-0.274	-0.140
-712.704	-200.000	-0.030	-0.175
-711.689	367.415	-0.231	-0.469
-710.675	-6.160	-0.161	-0.111
-709.660	75.420	0.090	-0.095
-708.645	86.101	0.179	0.199
-707.631	158.912	-0.053	0.074
-706.616	-41.286	0.168	-0.087
-705.602	619.129	0.062	0.157
-704.587	-94.452	-0.420	-0.115
-703.572	635.251	0.057	-0.145
-702.558	274.906	-0.132	0.236
-701.543	-114.886	0.249	-0.048
-700.529	-130.742	0.024	0.003
-699.514	-200.000	0.021	0.169
-698.499	-49.919	-0.069	-0.033
-697.485	138.491	-0.062	0.081
-696.470	90.911	0.058	0.065
-695.456	67.930	-0.261	-0.269
-694.441	408.394	-0.233	-0.496
-693.426	303.169	0.079	-0.147
-692.412	-200.000	0.245	-0.000
-691.397	-200.000	0.016	-0.260
-690.383	-200.000	-0.020	0.394
-689.368	-139.308	0.269	0.029
-688.354	-119.814	-0.206	-0.036
-687.339	-133.021	0.235	-0.030
-686.324	-44.849	0.392	-0.197
-685.310	-74.395	-0.147	-0.053
-684.295	-79.179	-0.071	-0.024
-683.281	-61.560	-0.072	-0.030
-682.266	-200.000	0.002	0.142
-681.251	-200.000	-0.008	0.045
-680.237	103.816	0.066	-0.078
-679.222	46.474	0.111	-0.103
-678.208	615.420	-0.111	-0.280
-677.193	-53.223	0.306	0.141
-676.178	23.758	-0.352	-0.292
-675.164	736.640	-0.073	-0.198
-674.149	363.815	-0.164	0.331
-673.135	58.823	-0.042	-0.042
-672.120	26.066	0.190	0.159
-671.105	156.949	-0.126	0.175
-670.091	47.926	-0.098	-0.092
-669.076	571.493	0.102	-0.249
-668.062	-142.002	-0.402	-0.040
-667.047	800.000	0.035	-0.134
-666.032	-50.335	-0.222	-0.106
-665.018	-200.000	-0.034	-0.165
-664.003	-200.000	-0.325	0.000
-662.989	579.145	-0.082	-0.201
-661.974	112.227	0.004	0.005
-660.959	-156.925	0.110	0.007
-659.945	-200.000	0.052	-0.401
-658.930	-69.466	0.524	-0.202
-657.916	83.549	0.168	-0.183
-656.901	455.304	-0.052	0.115
-655.886	244.988	0.108	0.183
-654.872	132.150	-0.156	-0.202
-653.857	-49.468	-0.060	0.029
-652.843	800.000	-0.011	0.043
-651.828	87.284	0.100	-0.111
-650.814	37.694	-0.131	-0.117
-649.799	327.261	0.071	0.137
-648.784	-45.830	-0.194	0.096
-647.770	-103.315	-0.050	0.012
-646.755	-200.000	0.006	-0.069
-645.741	-101.026	0.106	-0.026
-644.726	141.645	-0.164	-0.219
-643.711	-26.227	0.194	-0.114
-642.697	-200.000	-0.021	-0.518
-641.682	-102.341	0.132	-0.032
-640.668	-29.879	-0.193	0.110
-639.653	-18.397	-0.143	-0.090
-638.638	-4.080	0.114	0.080
-637.624	-8.515	-0.218	-0.147
-636.609	508.550	-0.089	-0.209
-635.595	47.928	0.204	-0.191
-634.580	-151.962	-0.233	-0.017
-633.565	315.390	0.176	-0.333
-632.551	-200.000	-0.098	-0.437
-631.536	800.000	0.080	0.322
-630.522	132.822	0.188	0.243
-629.507	-112.820	0.176	-0.035
-628.492	89.355	0.167	0.186
-627.478	800.000	-0.067	-0.250
-626.463	800.000	-0.110	-0.357
-625.449	-200.000	0.008	0.161
-624.434	46.825	-0.139	-0.130
-623.419	84.556	-0.296	-0.325
-622.405	-62.910	-0.164	0.068
-621.390	488.416	0.063	-0.145
-620.376	-200.000	-0.053	-0.254
-619.361	-152.785	-0.188	-0.013
-618.346	224.658	0.210	0.341
-617.332	-55.135	-0.087	0.039
-616.317	184.122	-0.127	-0.188
-615.303	-84.880	0.050	0.016
-614.288	261.251	0.246	-0.426
-613.273	-86.040	0.263	0.081
-612.259	39.064	-0.133	-0.119
-611.244	11.367	-0.214	0.165
-610.230	28.361	0.162	0.138
-609.215	-200.000	-0.010	-0.118
-608.201	70.410	-0.286	-0.296
-607.186	-52.797	0.256	-0.118
-606.171	-64.440	0.139	0.057
-605.157	615.241	-0.046	-0.117
-604.142	190.466	-0.208	0.313
-603.128	224.600	-0.074	0.120
-602.113	-1.857	-0.223	-0.157
-601.098	-91.052	-0.153	0.044
-600.084	-128.049	0.133	-0.019
-599.069	-200.000	0.046	0.221
-598.055	-151.886	-0.365	-0.027
-597.040	-188.921	-0.045	0.001
-596.025	288.146	0.195	0.354
-595.011	182.945	-0.084	0.124
-593.996	314.194	0.073	-0.137
-592.982	-200.000	-0.014	0.381
-591.967	-13.886	0.120	-0.078
-590.952	-200.000	-0.073	-0.416
-589.938	-31.114	-0.166	-0.094
-588.923	800.000	0.019	-0.055
-587.909	-169.501	-0.374	-0.014
-586.894	-91.925	0.217	0.062
-585.879	-86.157	-0.340	-0.105
-584.865	-8.142	-0.209	0.141
-583.850	461.416	-0.091	-0.202
-582.836	447.236	-0.128	-0.282
-581.821	-34.673	0.132	0.072
-580.806	238.421	-0.154	0.256
-579.792	164.054	-0.030	0.043
-578.777	118.362	0.107	-0.132
-577.763	332.482	0.211	0.407
-576.748	86.490	-0.128	0.142
-575.733	-122.426	-0.239	-0.039
-574.719	-79.359	-0.144	0.049
-573.704	-76.398	0.102	-0.036
-572.690	124.375	-0.211	0.265
-571.675	-200.000	0.098	-0.000
-570.661	192.156	0.210	0.317
-569.646	-23.290	-0.396	-0.238
-568.631	-200.000	-0.032	0.165
-567.617	-125.788	0.291	-0.044
-566.602	-106.016	0.162	0.036
-565.588	109.330	0.110	0.132
-564.573	133.506	0.310	-0.402
-563.558	-163.244	0.041	-0.002
-562.544	-54.941	0.275	0.124
-561.529	178.032	0.053	-0.078
-560.515	144.070	-0.131	-0.175
-559.500	114.867	-0.192	0.234
-558.485	-21.923	-0.263	0.160
-557.471	13.968	-0.075	-0.058
-556.456	738.871	-0.112	-0.301
-555.442	-131.367	-0.081	-0.011
-554.427	573.984	-0.040	0.098
-553.412	-59.426	0.331	0.143
-552.398	199.152	0.162	-0.248
-551.383	-200.000	0.144	-0.000
-550.369	402.021	0.066	0.139
-549.354	-43.039	0.171	0.087
-548.339	160.115	0.087	0.121
-547.325	800.000	0.010	-0.045
-546.310	189.492	-0.361	0.541
-545.296	-67.600	0.265	-0.104
-544.281	99.365	-0.248	0.287
-543.266	619.726	-0.110	-0.276
-542.252	29.404	-0.296	-0.252
-541.237	179.332	0.137	-0.200
-540.223	-200.000	-0.030	-0.544
-539.208	800.000	0.028	-0.115
-538.193	109.842	-0.152	-0.183
-537.179	105.331	-0.005	0.006
-536.164	-74.939	-0.241	-0.086
-535.150	42.545	0.005	-0.005
-534.135	-130.404	-0.102	-0.014
-533.121	18.310	-0.205	0.163
-532.106	-87.139	-0.158	0.048
-531.091	97.002	-0.219	0.251
-530.077	249.960	-0.174	-0.295
-529.062	-200.000	0.069	-0.620
-528.048	716.132	-0.148	-0.393
-527.033	-4.374	-0.140	0.097
-526.018	-56.051	0.298	0.133
-525.004	-65.090	-0.353	-0.142
-523.989	-62.107	-0.267	-0.111
-522.975	-112.337	-0.199	0.040
-521.960	241.656	0.215	0.358
-520.945	-179.300	0.169	-0.004
-519.931	800.000	0.053	0.223
-518.916	-56.330	0.527	0.234
-517.902	-200.000	-0.024	-0.147
-516.887	800.000	0.085	0.266
-515.872	-34.057	-0.065	-0.036
-514.858	-200.000	-0.020	0.094
-513.843	11.089	0.062	-0.047
-512.829	-49.382	0.146	0.070
-511.814	29.145	0.324	0.275
-510.799	411.351	-0.129	0.273
-509.785	800.000	0.111	-0.308
-508.770	-6.445	0.129	0.088
-507.756	-200.000	0.010	0.235
-506.741	-200.000	-0.003	-0.181
-505.726	266.033	0.089	0.156
-504.712	127.172	0.154	0.195
-503.697	-92.302	0.086	0.024
-502.683	16.737	0.079	-0.062
-501.668	-200.000	-0.010	0.207
-500.653	127.750	0.114	0.145
-499.639	-8.696	-0.100	-0.067
-498.624	-200.000	0.022	-0.206
-497.610	-56.492	0.173	-0.077
-496.595	-81.224	-0.253	0.083
-495.581	2.658	-0.177	-0.128
-494.566	-122.534	-0.223	-0.036
-493.551	-200.000	0.049	0.287
-492.537	800.000	0.038	-0.149
-491.522	-129.765	-0.308	0.042
-490.508	-69.173	0.148	-0.057
-489.493	45.576	-0.106	0.098
-488.478	-200.000	0.037	-0.183
-487.464	800.000	-0.007	0.020
-486.449	-42.059	-0.068	-0.035
-485.435	118.044	-0.187	0.230
-484.420	189.515	-0.168	0.252
-483.405	50.121	-0.203	-0.192
-482.391	68.784	0.151	-0.155
-481.376	259.786	0.297	0.512
-480.362	137.382	-0.178	-0.232
-479.347	-138.053	-0.260	0.029
-478.332	402.643	-0.090	0.189
-477.318	800.000	0.080	0.327
-476.303	339.195	0.166	-0.323
-475.289	119.045	0.214	-0.264
-474.274	800.000	0.085	-0.313
-473.259	142.660	0.075	0.100
-472.245	124.592	0.159	0.200
-471.230	11.224	0.253	-0.193
-470.216	-132.005	0.296	-0.038
-469.201	-200.000	0.008	-0.193
-468.186	800.000	0.040	0.167
-467.172	-112.957	-0.269	-0.053
-466.157	800.000	-0.063	0.252
-465.143	746.608	-0.117	-0.315
-464.128	645.916	-0.023	-0.058
-463.113	187.223	-0.199	-0.296
-462.099	-200.000	-0.004	-0.026
-461.084	34.275	0.283	-0.246
-460.070	-16.642	0.041	0.026
-459.055	118.593	0.078	-0.095
-458.040	-51.757	-0.159	0.074
-457.026	-74.609	0.026	0.009
-456.011	389.717	0.076	0.157
-454.997	-47.172	0.329	-0.160
-453.982	800.000	0.154	-0.483
-452.968	281.488	-0.157	-0.280
-451.953	-200.000	-0.047	0.234
-450.938	-200.000	-0.454	0.002
-449.924	-83.764	0.331	0.105
-448.909	800.000	0.073	0.259
-447.895	125.769	-0.054	-0.068
-446.880	-48.802	0.194	0.093
-445.865	195.774	-0.065	-0.098
-444.851	196.452	0.165	0.251
-443.836	-11.195	0.108	0.071
-442.822	215.672	-0.015	0.023
-441.807	800.000	0.024	0.087
-440.792	-200.000	-0.027	-0.140
-439.778	46.482	0.150	0.139
-438.763	-200.000	0.001	0.305
-437.749	-95.722	0.326	0.087
-436.734	-24.034	-0.064	0.038
-435.719	-117.874	0.262	-0.047
-434.705	161.640	0.044	-0.061
-433.690	14.699	0.225	0.175
-432.676	-200.000	0.004	0.164
-431.661	800.000	0.068	0.239
-430.646	-58.134	0.139	0.060
-429.632	-85.072	0.257	0.080
-428.617	122.226	0.097	0.121
-427.603	354.009	-0.081	-0.160
-426.588	-200.000	0.020	0.132
-425.573	-200.000	0.065	0.663
-424.559	401.312	-0.147	-0.306
-423.544	-112.299	0.167	0.033
-422.530	328.738	0.049	-0.094
-421.515	-195.069	0.053	0.000
-420.500	216.663	-0.111	0.175
-419.486	-200.000	-0.218	-0.001
-418.471	149.024	-0.178	0.240
-417.457	-200.000	0.000	0.041
-416.442	121.848	0.017	-0.021
-415.428	-113.584	-0.422	-0.082
-414.413	-53.865	-0.125	-0.057
-413.398	201.164	0.031	0.048
-412.384	-200.000	0.031	0.512
-411.369	16.439	-0.133	-0.105
-410.355	-71.510	-0.193	-0.072
-409.340	249.552	-0.164	0.277
-408.325	-16.236	0.321	-0.203
-407.311	-140.060	-0.146	-0.015
-406.296	-21.900	0.284	-0.172
-405.282	404.055	0.143	-0.299
-404.267	-54.751	0.382	0.172
-403.252	436.975	0.117	0.254
-402.238	541.541	0.027	0.063
-401.223	-200.000	0.033	0.235
-400.209	-75.934	0.123	0.043
-399.194	800.000	0.048	-0.181
-398.179	366.762	0.045	-0.090
-397.165	12.475	-0.301	-0.231
-396.150	-200.000	-0.023	-0.126
-395.136	800.000	-0.009	-0.029
-394.121	79.126	-0.217	-0.232
-393.106	800.000	-0.066	-0.236
-392.092	-200.000	0.013	-0.159
-391.077	-62.510	-0.201	-0.083
-390.063	570.916	0.110	0.267
-389.048	800.000	-0.151	-0.516
-388.033	-200.000	-0.006	0.234
-387.019	800.000	-0.066	0.208
-386.004	555.068	0.044	-0.105
-384.990	291.851	-0.097	0.176
-383.975	-24.680	0.048	0.028
-382.960	-200.000	-0.047	0.252
-381.946	-17.724	0.076	0.047
-380.931	-147.921	-0.166	0.014
-379.917	6.898	0.190	0.141
-378.902	-14.967	-0.283	0.180
-377.888	-200.000	0.048	-0.222
-376.873	171.552	0.067	0.095
-375.858	-46.481	0.171	0.083
-374.844	-85.283	-0.350	-0.109
-373.829	304.051	-0.048	-0.088
-372.815	-171.559	0.422	0.014
-371.800	33.348	0.133	0.114
-370.785	-200.000	-0.012	0.179
-369.771	58.809	0.182	0.178
-368.756	-151.299	0.253	-0.019
-367.742	-200.000	0.011	-0.259
-366.727	148.115	-0.086	-0.115
-365.712	278.908	-0.114	-0.202
-364.698	-200.000	0.014	0.066
-363.683	-200.000	-0.006	-0.047
-362.669	-3.242	-0.345	-0.239
-361.654	-92.344	-0.128	-0.036
-360.639	-200.000	-0.006	-0.092
-359.625	-200.000	-0.066	0.301
-358.610	-99.776	0.323	0.080
-357.596	-200.000	-0.008	-0.097
-356.581	-66.074	-0.352	-0.139
-355.566	800.000	0.104	0.350
-354.552	-5.681	0.338	-0.230
-353.537	-46.251	0.212	0.104
-352.523	82.348	-0.124	-0.134
-351.508	800.000	0.023	-0.076
-350.493	-121.206	-0.088	0.015
-349.479	-188.380	-0.187	0.002
-348.464	60.156	-0.108	-0.106
-347.450	262.668	-0.031	-0.054
-346.435	141.997	-0.187	0.246
-345.420	800.000	0.074	-0.242
-344.406	800.000	0.041	0.128
-343.391	27.285	-0.072	-0.060
-342.377	55.151	0.064	0.062
-341.362	-60.473	0.227	-0.096
-340.348	-82.749	-0.176	-0.056
-339.333	-53.525	0.287	-0.131
-338.318	-54.897	-0.098	-0.044
-337.304	-21.946	0.120	-0.072
-336.289	-82.849	-0.042	-0.013
-335.275	-107.842	-0.205	-0.044
-334.260	-195.751	0.140	0.001
-333.245	-148.323	0.139	-0.011
-332.231	86.158	0.353	0.386
-331.216	-131.065	-0.257	-0.034
-330.202	118.848	0.067	0.082
-329.187	-200.000	0.008	0.048
-328.172	-99.236	0.407	-0.102
-327.158	-26.128	-0.063	0.036
-326.143	-139.716	0.346	0.036
-325.129	661.179	0.112	0.287
-324.114	295.836	0.053	0.097
-323.099	-100.525	0.265	0.065
-322.085	-200.000	0.057	-0.467
-321.070	11.226	0.263	-0.200
-320.056	-35.781	-0.213	-0.115
-319.041	-200.000	-0.002	0.018
-318.026	690.309	0.066	0.172
-317.012	663.452	-0.049	0.126
-315.997	388.461	-0.166	0.341
-314.983	297.662	-0.037	-0.067
-313.968	-81.345	-0.067	-0.022
-312.953	-200.000	0.027	-0.140
-311.939	-168.605	0.125	0.005
-310.924	178.850	-0.173	0.251
-309.910	-155.936	0.386	0.024
-308.895	-100.694	-0.291	0.071
-307.880	-19.344	0.081	-0.050
-306.866	292.978	0.064	0.115
-305.851	6.987	0.174	-0.129
-304.837	-157.071	-0.152	0.009
-303.822	132.816	-0.120	0.153
-302.807	123.979	-0.176	0.219
-301.793	-200.000	-0.024	0.180
-300.778	-22.428	0.295	0.177
-299.764	-200.000	-0.016	-0.191
-298.749	-120.399	-0.300	-0.051
-297.735	-200.000	0.010	-0.102
-296.720	-36.422	0.353	-0.188
-295.705	109.565	0.267	-0.317
-294.691	800.000	-0.045	-0.184
-293.676	-200.000	0.061	0.282
-292.662	259.114	0.132	-0.225
-291.647	-32.947	-0.141	0.077
-290.632	-160.636	-0.282	-0.015
-289.618	27.789	0.174	0.145
-288.603	800.000	0.059	0.168
-287.589	-200.000	-0.016	-0.157
-286.574	225.516	-0.146	-0.234
-285.559	-163.769	0.197	0.009
-284.545	-200.000	-0.015	-0.417
-283.530	536.604	0.139	0.327
-282.516	-43.776	0.348	0.174
-281.501	784.506	-0.128	-0.349
-280.486	-50.014	0.134	0.063
-279.472	-88.754	0.106	-0.031
-278.457	-200.000	0.001	0.067
-277.443	52.449	0.124	-0.117
-276.428	-200.000	0.044	-0.235
-275.413	73.437	-0.326	-0.338
-274.399	-5.384	0.289	0.197
-273.384	199.702	0.037	0.057
-272.370	330.811	0.096	-0.182
-271.355	209.808	-0.131	0.204
-270.340	296.480	-0.104	0.188
-269.326	-200.000	-0.034	0.186
-268.311	-200.000	-0.014	0.071
-267.297	338.685	0.068	-0.131
-266.282	800.000	0.100	-0.381
-265.267	-200.000	0.011	0.100
-264.253	191.294	0.116	0.172
-263.238	27.676	0.184	-0.153
-262.224	-69.019	-0.069	0.026
-261.209	-89.445	-0.235	-0.068
-260.195	-200.000	-0.026	0.363
-259.180	800.000	0.068	-0.222
-258.165	79.051	0.092	-0.097
-257.151	-200.000	-0.033	-0.433
-256.136	-68.767	0.249	0.095
-255.122	-200.000	-0.026	0.302
-254.107	70.682	0.133	0.136
-253.092	664.006	0.098	-0.249
-252.078	-32.128	-0.178	-0.098
-251.063	-119.812	0.353	0.060
-250.049	800.000	-0.051	-0.192
-249.034	-159.976	-0.175	0.009
-248.019	65.568	-0.219	-0.219
-247.005	-200.000	-0.038	-0.187
-245.990	-91.174	-0.074	0.021
-244.976	-139.502	0.297	0.031
-243.961	-103.187	0.355	-0.083
-242.946	791.971	0.096	0.262
-241.932	13.140	-0.208	-0.159
-240.917	-107.990	-0.199	-0.043
-239.903	-200.000	-0.005	0.195
-238.888	800.000	-0.045	-0.171
-237.873	-72.393	-0.346	-0.126
-236.859	-200.000	-0.008	0.184
-235.844	-85.664	0.060	-0.018
-234.830	-39.106	-0.278	0.144
-233.815	-10.133	0.106	0.070
-232.800	800.000	0.092	-0.339
-231.786	-51.441	-0.107	0.049
-230.771	-200.000	-0.028	0.380
-229.757	-72.001	0.317	-0.117
-228.742	-200.000	0.044	-0.197
-227.727	88.965	-0.135	-0.149
-226.713	171.074	-0.195	-0.276
-225.698	800.000	0.088	-0.275
-224.684	-136.888	-0.083	-0.009
-223.669	800.000	0.063	0.231
-222.655	-116.737	-0.186	0.034
-221.640	-102.262	0.229	0.054
-220.625	-200.000	-0.002	0.161
-219.611	673.791	0.082	-0.211
-218.596	182.697	0.102	-0.148
-217.582	8.932	-0.034	0.025
-216.567	-86.290	0.059	0.018
-215.552	-128.605	-0.261	0.036
-214.538	-140.539	0.011	0.001
-213.523	800.000	-0.051	-0.188
-212.509	77.898	0.167	0.176
-211.494	-30.867	-0.107	0.060
-210.479	385.298	0.090	0.183
-209.465	241.769	0.024	0.039
-208.450	113.245	0.074	0.088
-207.436	132.759	0.156	0.199
-206.421	452.720	-0.086	0.188
-205.406	-56.454	0.088	0.038
-204.392	34.947	-0.269	0.232
-203.377	231.106	0.046	-0.074
-202.363	-200.000	0.011	0.100
-201.348	-200.000	0.031	-0.383
-200.333	800.000	-0.039	0.154
-199.319	568.618	0.165	0.395
-198.304	800.000	0.041	-0.175
-197.290	5.352	-0.066	0.048
-196.275	-129.282	-0.150	-0.021
-195.260	-200.000	0.003	0.022
-194.246	690.562	-0.149	0.385
-193.231	138.486	0.166	0.215
-192.217	111.308	-0.142	0.169
-191.202	-200.000	-0.001	-0.187
-190.187	-21.290	0.146	0.088
-189.173	-119.472	-0.204	-0.035
-188.158	-102.168	-0.239	-0.057
-187.144	800.000	-0.072	0.214
-186.129	-40.528	0.216	0.111
-185.114	-101.523	0.163	-0.039
-184.100	787.259	0.043	-0.116
-183.085	-24.741	-0.197	0.115
-182.071	-13.412	-0.083	-0.053
-181.056	254.926	-0.085	0.144
-180.042	-200.000	0.067	-0.319
-179.027	-1.179	-0.095	-0.066
-178.012	-100.694	0.034	-0.008
-176.998	800.000	-0.013	0.039
-175.983	-200.000	-0.012	0.092
-174.969	-75.307	-0.348	0.122
-173.954	73.420	-0.026	-0.027
-172.939	-24.888	-0.136	0.079
-171.925	473.114	-0.058	-0.128
-170.910	-21.511	-0.449	-0.270
-169.896	-64.233	0.080	-0.032
-168.881	601.158	-0.065	0.159
-167.866	-200.000	0.019	0.160
-166.852	-200.000	-0.001	0.118
-165.837	800.000	0.071	0.302
-164.823	149.690	0.102	0.136
-163.808	125.773	0.129	-0.161
-162.793	171.632	-0.030	0.043
-161.779	-200.000	0.041	0.183
-160.764	53.717	-0.091	-0.087
-159.750	10.870	-0.091	-0.068
-158.735	-90.560	-0.307	-0.088
-157.720	-144.652	-0.234	-0.021
-156.706	-200.000	0.002	-0.128
-155.691	407.733	0.111	0.231
-154.677	304.991	0.107	-0.196
-153.662	-67.098	-0.241	-0.094
-152.647	190.646	-0.065	0.097
-151.633	800.000	-0.073	0.265
-150.618	344.940	-0.152	-0.294
-149.604	-70.381	0.226	0.085
-148.589	-117.462	-0.018	-0.003
-147.574	-18.245	-0.234	0.144
-146.560	206.477	-0.080	0.122
-145.545	602.852	0.119	0.291
-144.531	800.000	-0.120	0.354
-143.516	-119.849	0.372	0.063
-142.502	-29.964	-0.051	-0.029
-141.487	179.902	0.053	-0.076
-140.472	56.096	-0.208	0.199
-139.458	158.914	-0.060	-0.082
-138.443	-140.507	0.253	0.026
-137.429	121.366	-0.150	0.184
-136.414	-200.000	-0.004	0.058
-135.399	-200.000	-0.028	0.368
-134.385	800.000	0.037	-0.110
-133.370	-106.290	0.096	-0.021
-132.356	25.010	0.108	0.088
-131.341	143.685	-0.072	-0.095
-130.326	-115.496	-0.141	-0.026
-129.312	-200.000	-0.011	0.232
-128.297	800.000	0.029	0.118
-127.283	72.852	-0.153	-0.157
-126.268	-67.059	-0.210	-0.081
-125.253	-126.592	0.147	-0.021
-124.239	-66.730	0.088	-0.034
-123.224	-114.198	-0.254	0.048
-122.210	-200.000	0.073	0.350
