DTS Sentinel unit serial number:	SN413079Multiplexer serial number:	ORYXHardware model number:	OX4-SRSoftware version number:	ORYX F/W v4.00 Oryx Data Collector v3.7.2.0data status	okinstallation	princeton_trtdifferential loss correction	single-endedforward channel	channel 1reverse channel	N/Adate	2019/09/16time	20:22:35forward acquisition time	60.00reverse acquisition time	0.00gamma	496.2192k internal	0.2323k external	0.2323temperature offset calibration	0.9946default loss term (dB/km)	0.3790temperature slope calibration	1.0000multiplexer offset coefficient	1.0000multiplexer slope coefficient	1.0000fibre end	0.00T internal ref (°C)	32.81T ext. ref 1 (°C)	0.07T ext. ref 2 (°C)	26.69length (m)	temperature (°C)	Stokes	anti-Stokes-747.200	27.931	-0.039	-0.033
-746.185	88.991	0.216	0.243
-745.171	-77.334	0.112	-0.039
-744.156	24.358	0.196	0.163
-743.142	32.531	0.228	-0.199
-742.127	-200.000	-0.025	0.511
-741.112	800.000	0.039	-0.128
-740.098	-11.256	0.208	0.139
-739.083	800.000	-0.109	0.460
-738.069	109.702	0.190	0.230
-737.054	-59.037	-0.205	0.089
-736.039	800.000	-0.087	0.245
-735.025	-200.000	0.015	-0.286
-734.010	303.987	0.170	-0.318
-732.996	45.492	-0.205	0.191
-731.981	-39.810	-0.208	-0.110
-730.966	135.353	0.027	-0.036
-729.952	-99.258	-0.182	-0.046
-728.937	375.619	-0.101	-0.207
-727.923	-159.360	-0.544	0.031
-726.908	-96.623	0.332	0.088
-725.894	-117.008	-0.613	-0.113
-724.879	104.568	-0.273	-0.325
-723.864	-68.431	-0.381	0.149
-722.850	111.617	0.038	0.047
-721.835	732.617	0.094	0.254
-720.821	202.646	-0.078	-0.122
-719.806	-143.872	-0.198	-0.019
-718.791	-85.154	-0.123	-0.039
-717.777	88.497	0.039	0.044
-716.762	-82.509	0.168	0.055
-715.748	40.201	-0.165	0.150
-714.733	50.672	-0.133	-0.127
-713.718	-80.204	0.165	-0.056
-712.704	-128.851	0.157	0.022
-711.689	-77.389	-0.116	-0.041
-710.675	-115.925	-0.172	-0.032
-709.660	698.197	-0.070	0.185
-708.645	-145.648	0.096	0.009
-707.631	206.551	0.138	0.217
-706.616	241.462	0.146	-0.247
-705.602	-174.310	0.158	-0.005
-704.587	-155.060	0.031	-0.002
-703.572	-200.000	0.016	-0.133
-702.558	138.129	-0.062	-0.082
-701.543	236.866	0.177	-0.295
-700.529	392.700	0.078	-0.164
-699.514	800.000	0.069	0.214
-698.499	-73.528	-0.111	0.041
-697.485	800.000	0.081	0.338
-696.470	94.142	-0.080	0.091
-695.456	-7.763	0.268	0.183
-694.441	64.721	0.266	0.271
-693.426	-142.997	-0.147	0.014
-692.412	221.465	-0.178	-0.289
-691.397	497.372	0.105	0.243
-690.383	-146.320	-0.384	-0.034
-689.368	800.000	-0.076	0.221
-688.354	595.745	-0.121	-0.301
-687.339	-200.000	-0.034	-0.326
-686.324	133.826	-0.110	-0.143
-685.310	592.721	0.117	0.291
-684.295	45.918	-0.297	0.277
-683.281	-200.000	-0.081	0.382
-682.266	-41.423	0.268	-0.139
-681.251	-200.000	-0.020	0.203
-680.237	-7.123	-0.375	-0.256
-679.222	800.000	0.066	0.237
-678.208	800.000	0.033	-0.101
-677.193	-200.000	-0.110	-0.582
-676.178	-200.000	-0.002	0.131
-675.164	232.761	-0.100	0.166
-674.149	800.000	0.095	0.279
-673.135	-95.634	-0.320	-0.086
-672.120	-170.496	0.105	-0.004
-671.105	-76.086	-0.340	-0.121
-670.091	203.299	0.073	-0.114
-669.076	82.099	0.143	-0.156
-668.062	-200.000	-0.046	0.236
-667.047	11.410	-0.044	-0.034
-666.032	-118.661	0.239	0.042
-665.018	151.646	-0.111	-0.152
-664.003	701.823	-0.033	0.088
-662.989	-200.000	-0.035	0.254
-661.974	-200.000	0.026	0.126
-660.959	-129.379	0.239	-0.033
-659.945	-200.000	-0.011	-0.097
-658.930	-115.607	-0.314	-0.059
-657.916	-153.197	0.352	0.025
-656.901	126.344	-0.119	0.151
-655.886	-53.806	-0.212	0.097
-654.872	-100.393	-0.312	0.078
-653.857	62.797	-0.200	0.202
-652.843	-134.391	-0.481	-0.059
-651.828	157.207	0.117	-0.163
-650.814	-9.225	0.350	-0.235
-649.799	-60.838	0.055	0.024
-648.784	-200.000	0.013	-0.174
-647.770	-140.513	0.173	-0.018
-646.755	136.177	-0.115	0.150
-645.741	-73.867	0.095	0.035
-644.726	100.530	0.094	0.109
-643.711	197.614	-0.272	-0.418
-642.697	800.000	-0.017	-0.049
-641.682	74.535	-0.239	0.253
-640.668	-200.000	-0.020	0.137
-639.653	75.371	-0.212	-0.225
-638.638	346.094	0.102	-0.202
-637.624	-24.441	0.129	-0.077
-636.609	98.712	-0.064	-0.074
-635.595	24.043	-0.168	-0.139
-634.580	-49.274	-0.039	0.019
-633.565	95.752	0.189	-0.217
-632.551	295.169	-0.122	-0.224
-631.536	167.240	0.212	-0.303
-630.522	128.490	0.245	0.313
-629.507	-101.970	-0.082	-0.020
-628.492	-110.979	0.183	-0.038
-627.478	-16.452	0.358	-0.228
-626.463	3.159	0.277	-0.203
-625.449	197.852	-0.025	0.039
-624.434	-1.349	-0.191	0.136
-623.419	-42.062	-0.197	0.101
-622.405	-140.182	0.212	0.022
-621.390	-200.000	0.028	-0.231
-620.376	-3.365	-0.116	0.081
-619.361	-114.027	-0.381	-0.074
-618.346	-5.607	0.130	0.090
-617.332	-104.230	-0.198	0.046
-616.317	-125.070	0.321	-0.050
-615.303	-200.000	-0.031	-0.279
-614.288	-47.800	-0.057	-0.028
-613.273	-200.000	0.006	-0.189
-612.259	-38.079	-0.362	0.193
-611.244	-200.000	0.016	-0.202
-610.230	6.909	-0.295	0.221
-609.215	213.368	-0.216	-0.342
-608.201	-80.999	-0.082	-0.027
-607.186	-114.826	0.203	-0.039
-606.171	-68.088	0.177	0.069
-605.157	195.152	-0.082	0.125
-604.142	132.212	-0.085	0.109
-603.128	-200.000	-0.018	-0.085
-602.113	49.517	-0.017	0.016
-601.098	-32.715	-0.276	-0.154
-600.084	-200.000	-0.024	0.162
-599.069	-200.000	0.020	-0.232
-598.055	800.000	0.071	-0.251
-597.040	39.027	-0.169	-0.151
-596.025	221.446	0.130	-0.210
-595.011	5.867	-0.254	0.189
-593.996	800.000	-0.061	0.172
-592.982	17.563	-0.138	-0.110
-591.967	-47.680	0.160	0.078
-590.952	-120.635	0.237	-0.040
-589.938	-14.203	-0.143	-0.093
-588.923	192.010	-0.056	-0.084
-587.909	800.000	0.065	-0.216
-586.894	596.997	0.012	-0.029
-585.879	207.001	-0.131	0.205
-584.865	-17.903	-0.157	0.099
-583.850	-200.000	0.030	0.147
-582.836	-200.000	0.028	0.366
-581.821	309.562	-0.094	-0.177
-580.806	-185.250	-0.165	0.003
-579.792	-153.878	-0.504	0.035
-578.777	800.000	-0.055	-0.203
-577.763	-56.155	-0.146	-0.065
-576.748	309.728	-0.153	-0.288
-575.733	-70.078	0.065	0.025
-574.719	800.000	-0.092	0.289
-573.704	30.420	0.192	0.165
-572.690	31.049	-0.343	-0.295
-571.675	800.000	-0.043	-0.153
-570.661	52.014	-0.221	-0.211
-569.646	221.053	0.082	0.132
-568.631	87.523	0.085	0.095
-567.617	62.010	-0.286	-0.286
-566.602	-200.000	0.013	0.089
-565.588	115.141	0.142	-0.174
-564.573	676.553	0.019	-0.049
-563.558	-54.716	-0.143	0.065
-562.544	-200.000	0.105	0.526
-561.529	-122.052	0.114	-0.019
-560.515	-20.744	-0.099	0.061
-559.500	-140.417	-0.203	0.021
-558.485	286.732	0.066	0.119
-557.471	1.018	-0.201	0.145
-556.456	34.557	0.267	-0.233
-555.442	438.983	0.084	0.183
-554.427	-53.768	-0.354	-0.162
-553.412	-118.514	-0.496	0.088
-552.398	-130.313	0.318	0.043
-551.383	196.623	0.148	0.226
-550.369	-170.304	0.253	0.009
-549.354	682.403	0.076	0.198
-548.339	-200.000	-0.011	0.113
-547.325	-40.694	0.131	-0.068
-546.310	-77.336	-0.175	-0.061
-545.296	4.469	-0.090	-0.066
-544.281	-78.425	-0.133	-0.046
-543.266	-185.831	0.247	0.004
-542.252	-117.013	-0.104	0.019
-541.237	81.029	0.268	0.290
-540.223	-200.000	0.041	0.279
-539.208	416.725	0.108	-0.231
-538.193	-147.211	0.031	-0.003
-537.179	-132.563	0.045	-0.006
-536.164	-200.000	-0.005	0.278
-535.150	249.709	0.012	0.021
-534.135	-200.000	0.025	-0.256
-533.121	-200.000	-0.005	0.108
-532.106	339.593	-0.177	-0.346
-531.091	54.350	-0.411	0.396
-530.077	-40.493	-0.083	-0.043
-529.062	323.047	0.091	0.173
-528.048	-187.320	-0.244	0.003
-527.033	800.000	-0.067	0.229
-526.018	17.121	0.192	-0.153
-525.004	-200.000	0.000	0.066
-523.989	-200.000	0.044	-0.258
-522.975	-124.653	0.387	-0.060
-521.960	-155.396	-0.387	0.025
-520.945	160.470	-0.242	0.339
-519.931	437.227	0.077	0.168
-518.916	-87.741	-0.163	0.049
-517.902	-137.542	-0.113	-0.013
-516.887	-35.868	0.255	0.138
-515.872	372.736	-0.143	0.291
-514.858	-200.000	-0.026	-0.202
-513.843	461.251	-0.090	0.200
-512.829	-200.000	-0.029	-0.184
-511.814	-49.087	-0.353	-0.169
-510.799	-200.000	-0.057	-0.324
-509.785	-148.870	-0.234	-0.019
-508.770	168.403	0.167	0.238
-507.756	41.258	0.136	0.123
-506.741	-126.244	-0.227	-0.034
-505.726	-4.769	0.060	-0.041
-504.712	548.231	-0.035	-0.084
-503.697	19.367	0.095	-0.076
-502.683	-62.668	0.399	-0.166
-501.668	-200.000	0.025	0.243
-500.653	-156.008	0.201	-0.013
-499.639	79.440	0.155	0.166
-498.624	63.801	0.092	0.092
-497.610	-200.000	0.008	-0.455
-496.595	286.129	0.066	-0.120
-495.581	-78.165	-0.164	-0.056
-494.566	800.000	0.041	-0.165
-493.551	35.107	-0.086	0.075
-492.537	387.428	0.016	0.034
-491.522	-70.141	0.138	0.052
-490.508	-149.724	-0.164	0.013
-489.493	-200.000	-0.018	0.278
-488.478	-159.758	-0.366	-0.020
-487.464	-73.563	-0.233	-0.085
-486.449	-106.411	0.232	0.052
-485.435	16.912	0.167	0.132
-484.420	-200.000	-0.024	-0.325
-483.405	800.000	0.065	0.250
-482.391	-200.000	-0.026	0.292
-481.376	-73.447	0.124	0.045
-480.362	800.000	-0.058	-0.223
-479.347	-121.690	-0.151	-0.025
-478.332	-200.000	-0.028	-0.182
-477.318	-69.771	0.003	-0.001
-476.303	407.847	0.051	-0.107
-475.289	281.788	-0.082	0.147
-474.274	312.187	-0.123	0.230
-473.259	-132.834	0.045	-0.006
-472.245	-46.782	-0.095	-0.046
-471.230	-200.000	0.066	-0.334
-470.216	800.000	-0.112	-0.321
-469.201	800.000	-0.080	-0.308
-468.186	150.452	0.212	0.288
-467.172	-92.718	0.158	0.044
-466.157	800.000	0.091	-0.387
-465.143	-33.058	0.306	0.170
-464.128	-80.931	0.263	-0.087
-463.113	150.234	-0.233	0.316
-462.099	-74.584	-0.198	0.071
-461.084	29.249	-0.047	0.040
-460.070	800.000	0.034	0.138
-459.055	-72.812	0.163	0.060
-458.040	-91.220	0.218	-0.062
-457.026	-174.830	-0.347	-0.010
-456.011	620.487	0.107	-0.270
-454.997	-46.513	0.328	0.161
-453.982	800.000	-0.070	-0.194
-452.968	111.775	-0.187	-0.225
-451.953	-14.192	0.117	0.075
-450.938	186.704	-0.079	0.117
-449.924	15.144	0.212	-0.166
-448.909	800.000	0.036	0.113
-447.895	695.996	0.070	-0.183
-446.880	108.218	0.090	0.108
-445.865	15.112	0.199	-0.155
-444.851	-42.477	-0.204	-0.104
-443.836	-84.497	-0.544	-0.171
-442.822	12.567	0.201	0.155
-441.807	2.906	0.116	-0.084
-440.792	-31.835	0.128	-0.072
-439.778	127.033	0.177	0.224
-438.763	-3.412	-0.248	-0.173
-437.749	59.640	-0.068	-0.067
-436.734	251.544	-0.128	-0.217
-435.719	-200.000	-0.021	-0.244
-434.705	-90.021	0.154	-0.045
-433.690	-120.353	-0.070	0.012
-432.676	800.000	-0.080	-0.249
-431.661	188.734	0.132	0.197
-430.646	-23.187	0.065	-0.039
-429.632	-200.000	-0.007	0.376
-428.617	234.754	-0.075	-0.124
-427.603	20.118	0.173	0.139
-426.588	156.073	0.234	0.322
-425.573	800.000	0.080	-0.250
-424.559	-200.000	-0.020	-0.132
-423.544	-116.603	-0.396	-0.073
-422.530	50.637	0.130	-0.123
-421.515	-200.000	-0.065	0.383
-420.500	10.604	-0.035	0.027
-419.486	-200.000	0.019	0.154
-418.471	-163.138	-0.124	0.006
-417.457	-78.549	-0.214	-0.073
-416.442	-1.629	-0.086	0.061
-415.428	109.197	-0.158	0.188
-414.413	800.000	0.075	-0.266
-413.398	50.386	-0.067	-0.063
-412.384	800.000	0.066	0.192
-411.369	-85.501	-0.154	0.048
-410.355	-200.000	0.014	0.074
-409.340	800.000	0.048	-0.165
-408.325	424.820	0.117	-0.252
-407.311	-200.000	0.132	0.000
-406.296	-200.000	0.003	-0.355
-405.282	47.195	-0.284	-0.263
-404.267	320.397	-0.093	0.175
-403.252	-94.473	-0.214	-0.058
-402.238	17.738	-0.245	-0.195
-401.223	310.145	-0.221	-0.413
-400.209	-200.000	0.021	-0.172
-399.194	-200.000	0.008	0.117
-398.179	2.755	-0.052	-0.038
-397.165	-111.679	-0.281	-0.057
-396.150	47.028	0.264	-0.244
-395.136	-64.292	-0.084	0.034
-394.121	167.131	0.236	-0.333
-393.106	-134.239	0.387	0.047
-392.092	145.926	0.133	-0.178
-391.077	171.837	0.033	0.047
-390.063	-200.000	0.011	0.105
-389.048	-95.373	-0.099	0.027
-388.033	-200.000	-0.011	-0.105
-387.019	167.771	0.072	-0.102
-386.004	123.369	-0.179	-0.224
-384.990	-200.000	0.036	-0.329
-383.975	306.808	0.117	0.217
-382.960	298.626	-0.040	0.074
-381.946	-97.319	0.289	0.075
-380.931	-84.553	-0.184	0.058
-379.917	-26.344	0.104	0.061
-378.902	-191.945	0.152	0.001
-377.888	-64.606	-0.143	0.058
-376.873	431.394	0.036	0.078
-375.858	800.000	-0.060	0.251
-374.844	-103.147	-0.214	0.050
-373.829	-17.615	-0.225	-0.141
-372.815	-80.099	-0.068	0.023
-371.800	-57.347	-0.138	0.061
-370.785	800.000	0.113	-0.378
-369.771	-136.523	0.126	-0.014
-368.756	-170.813	-0.178	-0.006
-367.742	-100.652	-0.170	-0.042
-366.727	242.900	-0.073	0.121
-365.712	-200.000	-0.020	-0.152
-364.698	301.531	-0.235	-0.432
-363.683	-86.612	0.318	-0.097
-362.669	41.079	0.262	0.236
-361.654	-200.000	-0.032	0.167
-360.639	225.692	-0.164	0.264
-359.625	78.020	0.062	0.065
-358.610	-36.176	-0.398	0.214
-357.596	-32.448	0.192	-0.106
-356.581	100.534	-0.068	0.078
-355.566	-17.157	0.216	0.136
-354.552	492.968	0.130	0.296
-353.537	150.580	-0.138	-0.186
-352.523	568.126	-0.030	-0.073
-351.508	-200.000	0.011	0.109
-350.493	304.190	-0.137	0.253
-349.479	-174.814	-0.351	0.010
-348.464	-200.000	0.065	-0.438
-347.450	-10.192	0.176	0.116
-346.435	259.327	0.118	-0.203
-345.420	92.058	0.213	-0.238
-344.406	-89.363	-0.078	-0.023
-343.391	-200.000	0.051	-0.228
-342.377	-5.451	0.037	-0.025
-341.362	-175.981	0.274	-0.007
-340.348	-64.658	-0.236	-0.095
-339.333	109.739	0.228	0.271
-338.318	-101.253	-0.213	-0.052
-337.304	800.000	0.067	0.289
-336.289	153.859	-0.104	-0.142
-335.275	205.545	-0.089	0.137
-334.260	560.855	0.105	-0.252
-333.245	-58.503	-0.203	-0.088
-332.231	-149.968	0.340	0.026
-331.216	23.773	0.122	-0.100
-330.202	45.166	-0.110	0.101
-329.187	-158.669	-0.274	0.016
-328.172	-168.493	-0.305	-0.012
-327.158	800.000	-0.053	-0.146
-326.143	-120.044	-0.157	0.027
-325.129	-200.000	-0.068	0.413
-324.114	-200.000	0.005	0.235
-323.099	800.000	-0.132	0.399
-322.085	123.829	0.226	-0.282
-321.070	6.011	-0.449	-0.330
-320.056	-78.003	0.328	-0.112
-319.041	-4.344	-0.297	0.204
-318.026	-45.984	0.328	0.160
-317.012	-37.542	-0.049	0.026
-315.997	800.000	-0.075	-0.251
-314.983	701.795	0.143	0.373
-313.968	249.955	-0.113	0.190
-312.953	4.262	-0.142	-0.103
-311.939	-200.000	0.007	-0.081
-310.924	161.680	0.282	0.393
-309.910	-132.067	-0.354	0.046
-308.895	38.293	-0.134	0.119
-307.880	-200.000	-0.013	-0.289
-306.866	-124.028	0.101	-0.016
-305.851	-5.643	0.320	0.218
-304.837	-200.000	-0.034	-0.276
-303.822	-200.000	-0.047	-0.361
-302.807	326.396	0.136	0.258
-301.793	272.255	0.208	-0.364
-300.778	130.630	0.209	-0.266
-299.764	-141.284	0.391	-0.039
-298.749	-139.710	-0.409	-0.043
-297.735	147.771	-0.097	0.130
-296.720	800.000	-0.118	-0.324
-295.705	-117.623	-0.297	0.053
-294.691	569.506	-0.095	-0.228
-293.676	-200.000	-0.012	-0.180
-292.662	800.000	-0.078	-0.254
-291.647	518.835	-0.043	-0.100
-290.632	198.055	-0.032	0.049
-289.618	52.660	0.096	-0.091
-288.603	-19.676	-0.194	0.119
-287.589	242.154	0.107	-0.178
-286.574	198.322	0.136	0.206
-285.559	101.859	0.114	-0.132
-284.545	48.518	0.170	-0.158
-283.530	-200.000	0.006	0.095
-282.516	-45.758	0.238	-0.117
-281.501	-180.187	0.199	-0.004
-280.486	-200.000	-0.010	-0.066
-279.472	25.473	0.264	-0.218
-278.457	-65.609	-0.289	-0.115
-277.443	447.851	-0.079	-0.172
-276.428	-90.038	0.538	0.156
-275.413	293.657	0.042	-0.076
-274.399	-24.422	-0.095	0.056
-273.384	107.912	0.102	-0.121
-272.370	-3.965	-0.149	-0.102
-271.355	-47.524	0.245	-0.118
-270.340	-108.047	-0.162	0.035
-269.326	443.638	0.061	-0.133
-268.311	800.000	-0.031	0.128
-267.297	-200.000	-0.021	0.201
-266.282	-102.683	0.332	0.079
-265.267	9.778	-0.200	0.151
-264.253	-14.726	0.393	0.250
-263.238	800.000	-0.017	0.059
-262.224	-200.000	0.011	-0.151
-261.209	267.459	-0.024	0.041
-260.195	-140.595	0.109	-0.011
-259.180	-116.488	-0.176	0.032
-258.165	800.000	0.077	0.324
-257.151	-200.000	-0.003	-0.371
-256.136	-200.000	-0.019	0.235
-255.122	-200.000	-0.012	-0.392
-254.107	689.351	0.080	-0.208
-253.092	-96.663	0.270	-0.070
-252.078	404.173	-0.190	0.397
-251.063	-200.000	-0.004	0.080
-250.049	-200.000	0.002	0.209
-249.034	-200.000	0.057	0.377
-248.019	-58.664	-0.086	-0.037
-247.005	800.000	-0.040	-0.160
-245.990	390.724	-0.137	0.282
-244.976	170.291	0.140	0.199
-243.961	-103.456	0.377	-0.088
-242.946	-23.950	0.137	-0.081
-241.932	127.508	0.193	0.242
-240.917	-200.000	-0.002	0.401
-239.903	-82.557	-0.309	0.099
-238.888	-113.765	0.188	-0.036
-237.873	161.173	0.306	0.424
-236.859	111.842	0.140	0.167
-235.844	-200.000	0.045	0.214
-234.830	22.191	-0.391	-0.316
-233.815	590.439	0.049	-0.119
-232.800	214.431	0.084	-0.132
-231.786	582.448	-0.156	-0.379
-230.771	-200.000	-0.015	0.302
-229.757	316.774	0.069	0.130
-228.742	39.892	-0.124	-0.110
-227.727	-15.419	-0.166	-0.105
-226.713	-85.407	-0.218	0.067
-225.698	161.452	0.210	0.291
-224.684	327.440	0.114	0.217
-223.669	-61.764	0.242	-0.100
-222.655	-72.693	-0.332	-0.121
-221.640	317.641	0.213	0.398
-220.625	800.000	-0.042	-0.181
-219.611	385.200	-0.166	0.338
-218.596	-10.417	-0.192	-0.126
-217.582	444.793	-0.063	-0.138
-216.567	747.473	0.079	0.210
-215.552	20.080	0.205	0.163
-214.538	24.624	-0.275	0.226
-213.523	19.876	-0.061	0.049
-212.509	22.417	0.189	0.153
-211.494	-61.633	0.226	0.094
-210.479	800.000	-0.059	-0.177
-209.465	-143.909	-0.110	0.010
-208.450	76.635	-0.172	0.180
-207.436	211.008	-0.137	0.212
-206.421	-143.177	0.179	0.017
-205.406	-129.327	0.496	-0.068
-204.392	207.647	-0.025	-0.038
-203.377	127.537	0.213	-0.268
-202.363	468.713	0.023	0.052
-201.348	-42.910	-0.235	0.118
-200.333	166.057	-0.235	0.329
-199.319	-121.050	0.556	0.092
-198.304	800.000	-0.037	0.132
-197.290	53.062	0.137	0.130
-196.275	-200.000	0.019	-0.132
-195.260	151.258	0.101	-0.136
-194.246	800.000	0.063	0.229
-193.231	141.543	-0.072	0.094
-192.217	-116.844	0.063	-0.011
-191.202	-42.166	0.189	-0.096
-190.187	154.407	0.124	0.168
-189.173	-17.253	0.124	0.077
-188.158	-51.578	0.122	0.056
-187.144	-200.000	0.013	-0.167
-186.129	114.901	-0.110	-0.133
-185.114	800.000	0.027	0.085
-184.100	329.851	-0.120	0.227
-183.085	-29.330	-0.136	-0.077
-182.071	261.951	-0.097	0.167
-181.056	140.152	0.222	0.289
-180.042	-104.933	0.287	-0.065
-179.027	-58.336	0.174	0.075
-178.012	49.393	-0.087	0.081
-176.998	713.551	0.108	0.284
-175.983	467.315	0.124	0.275
-174.969	-101.285	-0.266	-0.064
-173.954	-143.594	0.192	0.018
-172.939	106.856	0.109	0.128
-171.925	-200.000	0.002	0.047
-170.910	-112.671	0.136	-0.027
-169.896	12.625	0.089	0.068
-168.881	-200.000	-0.020	-0.318
-167.866	800.000	-0.076	0.288
-166.852	21.932	-0.085	-0.068
-165.837	343.111	0.181	0.350
-164.823	11.910	-0.303	-0.230
-163.808	38.574	-0.035	0.031
-162.793	191.555	0.190	0.283
-161.779	-30.403	0.211	0.118
-160.764	60.079	0.111	-0.108
-159.750	-26.460	0.130	-0.076
-158.735	89.185	0.096	0.105
-157.720	113.260	0.189	0.227
-156.706	527.998	-0.063	0.146
-155.691	6.947	0.247	-0.182
-154.677	-47.987	-0.300	-0.143
-153.662	123.299	0.092	-0.113
-152.647	-91.901	0.148	0.041
-151.633	-122.140	-0.119	0.019
-150.618	-12.074	-0.247	-0.160
-149.604	148.864	-0.018	-0.024
-148.589	-125.267	0.306	-0.046
-147.574	30.907	0.168	0.142
-146.560	-200.000	0.034	0.149
-145.545	-119.763	-0.116	-0.020
-144.531	-129.347	0.330	0.045
-143.516	-115.098	-0.261	-0.049
-142.502	-73.099	-0.100	0.036
-141.487	800.000	-0.035	-0.151
-140.472	-134.925	0.305	0.036
-139.458	-200.000	0.004	0.242
-138.443	39.549	-0.138	0.122
-137.429	-108.342	-0.142	-0.030
-136.414	7.839	-0.130	0.096
-135.399	-200.000	-0.021	0.147
-134.385	201.689	0.101	-0.153
-133.370	-152.109	-0.482	0.035
-132.356	-68.109	0.225	-0.086
-131.341	-200.000	0.029	-0.319
-130.326	-63.283	-0.260	-0.105
-129.312	284.125	0.085	0.150
-128.297	800.000	-0.088	0.254
-127.283	-100.265	-0.193	0.047
-126.268	58.194	-0.069	0.067
-125.253	-6.827	-0.052	-0.035
-124.239	800.000	0.032	0.138
-123.224	248.192	0.067	0.112
-122.210	-48.060	-0.065	-0.031
-121.195	-4.553	0.177	-0.121
