DTS Sentinel unit serial number:	SN413079Multiplexer serial number:	ORYXHardware model number:	OX4-SRSoftware version number:	ORYX F/W v4.00 Oryx Data Collector v3.7.2.0data status	okinstallation	princeton_trtdifferential loss correction	single-endedforward channel	channel 1reverse channel	N/Adate	2019/09/13time	19:46:35forward acquisition time	60.00reverse acquisition time	0.00gamma	496.2192k internal	0.2328k external	0.2328temperature offset calibration	1.0101default loss term (dB/km)	0.3790temperature slope calibration	1.0000multiplexer offset coefficient	1.0000multiplexer slope coefficient	1.0000fibre end	0.00T internal ref (°C)	30.19T ext. ref 1 (°C)	3.47T ext. ref 2 (°C)	24.28length (m)	temperature (°C)	Stokes	anti-Stokes-747.200	3.014	0.088	-0.064
-746.185	348.923	-0.041	0.081
-745.171	-99.046	0.182	-0.046
-744.156	60.109	-0.152	0.152
-743.142	37.346	0.358	0.319
-742.127	-177.583	-0.308	0.008
-741.112	-77.369	-0.258	0.090
-740.098	97.564	-0.261	0.302
-739.083	73.768	-0.202	0.214
-738.069	-106.843	0.226	0.050
-737.054	262.058	-0.082	0.143
-736.039	-115.627	-0.187	-0.035
-735.025	-120.353	0.153	-0.026
-734.010	41.869	-0.385	-0.352
-732.996	133.721	0.271	-0.353
-731.981	-43.405	-0.346	0.176
-730.966	-100.010	0.195	-0.049
-729.952	-200.000	-0.010	-0.240
-728.937	-128.438	-0.131	-0.019
-727.923	238.526	-0.168	-0.281
-726.908	545.563	-0.040	-0.096
-725.894	-92.915	0.233	-0.065
-724.879	-200.000	0.015	-0.132
-723.864	187.178	-0.136	-0.204
-722.850	-35.051	0.228	-0.125
-721.835	342.335	0.186	0.366
-720.821	-200.000	-0.002	0.224
-719.806	800.000	0.058	-0.192
-718.791	-177.504	-0.322	-0.008
-717.777	-200.000	-0.012	0.106
-716.762	337.948	-0.078	-0.153
-715.748	494.813	-0.111	-0.257
-714.733	151.327	0.168	0.231
-713.718	-76.770	-0.229	-0.081
-712.704	-87.418	0.174	-0.053
-711.689	-151.910	-0.209	0.015
-710.675	145.434	-0.205	0.276
-709.660	800.000	0.040	-0.174
-708.645	109.357	0.126	-0.152
-707.631	67.070	-0.235	-0.240
-706.616	158.972	0.201	-0.281
-705.602	800.000	0.011	0.043
-704.587	165.352	-0.235	0.335
-703.572	800.000	-0.017	0.055
-702.558	507.130	0.145	-0.339
-701.543	-101.845	0.142	-0.035
-700.529	-72.817	0.217	-0.080
-699.514	-200.000	0.002	-0.163
-698.499	-104.400	-0.228	-0.053
-697.485	345.130	-0.071	-0.141
-696.470	-200.000	0.000	0.044
-695.456	110.917	-0.266	-0.322
-694.441	326.512	-0.040	-0.078
-693.426	81.063	0.184	0.199
-692.412	800.000	-0.032	-0.092
-691.397	-142.290	-0.431	0.043
-690.383	-23.607	-0.129	-0.078
-689.368	-160.977	-0.228	-0.012
-688.354	133.393	-0.119	0.154
-687.339	800.000	-0.048	0.192
-686.324	-106.553	0.306	-0.068
-685.310	83.090	-0.066	0.072
-684.295	800.000	-0.055	-0.212
-683.281	-131.262	0.314	0.042
-682.266	-200.000	0.031	-0.158
-681.251	-75.129	0.167	0.060
-680.237	-160.726	-0.124	-0.007
-679.222	-200.000	0.018	-0.183
-678.208	219.243	-0.173	0.279
-677.193	800.000	0.065	-0.196
-676.178	800.000	-0.025	0.084
-675.164	52.567	0.330	-0.317
-674.149	-88.845	-0.305	-0.091
-673.135	-86.658	0.189	0.058
-672.120	-200.000	0.023	0.166
-671.105	-26.450	-0.366	0.215
-670.091	194.359	0.087	0.133
-669.076	-5.172	0.096	-0.067
-668.062	-108.037	0.407	0.089
-667.047	-141.747	0.231	-0.023
-666.032	49.010	0.168	0.158
-665.018	800.000	-0.078	0.314
-664.003	233.251	0.221	-0.365
-662.989	362.855	-0.121	0.244
-661.974	-174.559	-0.023	0.001
-660.959	636.691	-0.079	0.201
-659.945	86.444	0.149	-0.165
-658.930	-103.826	0.240	0.056
-657.916	189.106	0.204	0.307
-656.901	-200.000	0.015	0.372
-655.886	-200.000	-0.002	-0.292
-654.872	-200.000	0.008	-0.261
-653.857	-131.420	-0.344	-0.046
-652.843	46.860	0.086	-0.080
-651.828	-88.884	-0.376	0.112
-650.814	-116.427	0.241	0.045
-649.799	-200.000	-0.014	0.300
-648.784	-103.096	-0.150	-0.036
-647.770	517.067	-0.112	0.263
-646.755	723.829	-0.063	-0.169
-645.741	78.050	0.191	-0.204
-644.726	800.000	0.055	-0.181
-643.711	-200.000	0.005	0.190
-642.697	800.000	0.084	0.340
-641.682	-159.882	-0.187	0.010
-640.668	193.337	-0.063	-0.096
-639.653	169.248	-0.067	-0.095
-638.638	-122.682	0.461	-0.075
-637.624	-78.115	-0.117	0.040
-636.609	-72.840	-0.295	0.109
-635.595	-75.820	-0.258	-0.092
-634.580	40.368	0.202	-0.182
-633.565	-200.000	0.020	0.093
-632.551	-200.000	0.016	0.274
-631.536	578.031	-0.097	0.237
-630.522	308.560	-0.099	0.186
-629.507	322.285	0.145	-0.277
-628.492	-80.260	-0.096	-0.032
-627.478	800.000	0.192	0.661
-626.463	-22.689	0.053	0.032
-625.449	-200.000	-0.004	-0.076
-624.434	800.000	0.031	-0.115
-623.419	-19.034	0.138	-0.086
-622.405	11.281	-0.156	-0.120
-621.390	111.110	0.176	-0.213
-620.376	-23.544	0.097	0.058
-619.361	800.000	-0.023	-0.079
-618.346	113.785	0.210	-0.256
-617.332	-200.000	0.091	-0.544
-616.317	-200.000	0.089	-0.408
-615.303	50.311	-0.199	0.189
-614.288	-49.827	-0.335	-0.159
-613.273	-59.854	0.177	0.076
-612.259	2.131	-0.386	0.280
-611.244	300.815	-0.019	0.035
-610.230	20.358	-0.104	0.084
-609.215	98.525	0.218	-0.252
-608.201	71.515	-0.265	0.276
-607.186	268.003	-0.083	-0.146
-606.171	-27.313	-0.199	-0.116
-605.157	-9.221	0.153	-0.103
-604.142	-200.000	0.014	0.227
-603.128	-107.123	-0.045	-0.010
-602.113	311.218	0.079	0.148
-601.098	-165.629	-0.340	0.015
-600.084	-8.432	0.434	-0.292
-599.069	-200.000	-0.003	0.272
-598.055	366.560	0.036	0.072
-597.040	-17.169	-0.164	0.104
-596.025	-200.000	-0.015	0.068
-595.011	-40.148	0.155	0.081
-593.996	30.094	0.097	0.083
-592.982	800.000	0.026	0.109
-591.967	-200.000	0.018	0.160
-590.952	-33.539	0.278	-0.154
-589.938	-17.206	0.112	0.071
-588.923	-200.000	0.020	-0.199
-587.909	466.129	0.059	0.133
-586.894	-105.086	-0.356	0.082
-585.879	800.000	0.078	0.310
-584.865	800.000	-0.097	-0.323
-583.850	28.447	0.108	0.092
-582.836	-123.074	-0.240	-0.039
-581.821	-200.000	0.040	-0.283
-580.806	745.038	0.142	0.383
-579.792	101.130	-0.117	0.136
-578.777	143.123	-0.259	-0.346
-577.763	-35.571	-0.080	0.044
-576.748	-27.554	0.146	-0.085
-575.733	552.181	0.158	0.379
-574.719	32.593	0.276	-0.238
-573.704	7.380	0.129	-0.096
-572.690	-97.930	0.261	-0.067
-571.675	-148.039	0.334	-0.028
-570.661	-49.580	-0.121	0.057
-569.646	-200.000	0.018	0.112
-568.631	34.093	0.184	-0.161
-567.617	517.553	-0.089	0.209
-566.602	22.982	0.465	-0.382
-565.588	-14.917	-0.095	-0.061
-564.573	-31.119	0.207	-0.117
-563.558	-200.000	0.002	-0.200
-562.544	-200.000	-0.040	0.348
-561.529	-200.000	-0.027	-0.291
-560.515	285.181	0.176	-0.317
-559.500	-26.913	0.535	-0.312
-558.485	402.094	0.018	-0.037
-557.471	287.972	-0.151	-0.274
-556.456	-26.126	-0.330	0.194
-555.442	-96.730	-0.148	-0.039
-554.427	194.844	-0.205	-0.311
-553.412	-86.169	-0.368	-0.114
-552.398	78.988	-0.080	-0.086
-551.383	98.177	-0.165	-0.189
-550.369	56.262	-0.253	-0.246
-549.354	-200.000	-0.017	0.082
-548.339	-11.387	0.109	0.072
-547.325	-200.000	-0.007	-0.137
-546.310	-67.573	-0.278	-0.109
-545.296	274.760	-0.046	-0.081
-544.281	121.138	-0.102	0.126
-543.266	-154.549	-0.145	-0.010
-542.252	53.034	-0.250	0.239
-541.237	-2.594	-0.195	-0.136
-540.223	138.924	-0.155	-0.203
-539.208	287.606	0.101	0.183
-538.193	29.162	-0.181	-0.153
-537.179	-11.267	-0.101	-0.066
-536.164	800.000	0.061	0.229
-535.150	-153.337	-0.343	-0.024
-534.135	-102.727	0.165	-0.039
-533.121	-200.000	-0.028	-0.235
-532.106	-149.559	-0.132	-0.010
-531.091	130.417	0.042	-0.054
-530.077	-121.107	-0.056	0.009
-529.062	-78.506	-0.447	0.153
-528.048	-200.000	-0.001	-0.200
-527.033	266.348	0.036	0.063
-526.018	63.248	-0.021	-0.021
-525.004	19.537	0.240	0.193
-523.989	197.980	-0.123	-0.187
-522.975	-71.555	-0.303	-0.113
-521.960	-50.950	-0.349	0.164
-520.945	134.169	-0.077	0.099
-519.931	87.635	0.040	0.045
-518.916	-118.531	-0.392	0.069
-517.902	245.942	-0.133	-0.223
-516.887	-18.516	0.302	0.189
-515.872	176.488	0.047	0.069
-514.858	48.934	0.073	-0.069
-513.843	-32.699	0.118	0.065
-512.829	-200.000	-0.008	-0.424
-511.814	227.505	-0.044	-0.071
-510.799	800.000	-0.156	-0.466
-509.785	-200.000	0.085	-0.382
-508.770	-200.000	0.021	0.308
-507.756	230.278	0.111	0.181
-506.741	43.340	-0.113	0.103
-505.726	-200.000	-0.028	0.134
-504.712	-38.868	-0.294	-0.155
-503.697	-64.680	0.466	-0.189
-502.683	-195.044	0.096	0.001
-501.668	-76.854	0.244	-0.085
-500.653	175.997	0.165	0.239
-499.639	-46.311	-0.144	-0.071
-498.624	-98.251	-0.100	0.026
-497.610	73.528	0.121	-0.127
-496.595	126.347	-0.036	-0.045
-495.581	359.220	0.167	0.333
-494.566	24.951	0.081	0.067
-493.551	483.008	-0.124	-0.281
-492.537	239.935	-0.052	-0.087
-491.522	-7.548	0.145	-0.098
-490.508	-200.000	0.004	0.095
-489.493	242.734	0.168	-0.281
-488.478	-149.176	0.266	-0.021
-487.464	52.818	0.212	-0.202
-486.449	800.000	0.035	0.100
-485.435	-200.000	-0.009	-0.300
-484.420	800.000	-0.120	-0.381
-483.405	355.798	-0.072	0.142
-482.391	77.354	0.100	-0.107
-481.376	-200.000	-0.038	0.263
-480.362	800.000	0.130	0.430
-479.347	99.088	0.277	-0.319
-478.332	-53.952	0.223	-0.101
-477.318	677.025	0.122	0.316
-476.303	250.411	-0.222	0.375
-475.289	-200.000	0.007	-0.050
-474.274	80.356	-0.259	-0.278
-473.259	800.000	-0.008	0.029
-472.245	-200.000	0.001	0.052
-471.230	40.438	0.067	0.060
-470.216	800.000	-0.037	-0.115
-469.201	434.756	-0.048	0.104
-468.186	14.618	-0.095	0.074
-467.172	-11.899	-0.186	-0.121
-466.157	-200.000	-0.033	-0.159
-465.143	23.347	0.166	-0.136
-464.128	-192.986	0.250	-0.002
-463.113	-42.533	-0.293	-0.149
-462.099	800.000	0.075	-0.311
-461.084	-162.118	0.176	0.009
-460.070	-159.373	-0.128	0.007
-459.055	153.247	0.080	0.109
-458.040	138.926	-0.141	0.185
-457.026	800.000	-0.065	-0.210
-456.011	152.836	0.128	-0.174
-454.997	-101.470	-0.249	0.060
-453.982	322.724	0.115	0.218
-452.968	-200.000	0.032	0.295
-451.953	-123.602	-0.094	0.015
-450.938	-200.000	-0.015	-0.235
-449.924	800.000	-0.128	-0.407
-448.909	-64.485	-0.234	0.095
-447.895	333.596	0.186	-0.359
-446.880	-200.000	-0.054	-0.270
-445.865	800.000	-0.074	-0.304
-444.851	-1.371	-0.288	-0.202
-443.836	-71.633	0.072	-0.027
-442.822	164.736	-0.118	0.166
-441.807	-200.000	-0.028	-0.231
-440.792	-30.247	0.070	0.040
-439.778	-70.811	0.288	0.108
-438.763	111.347	0.052	-0.063
-437.749	17.153	-0.217	-0.171
-436.734	-103.715	0.103	-0.024
-435.719	-19.370	0.104	0.064
-434.705	-67.110	0.272	0.107
-433.690	-94.394	0.127	-0.035
-432.676	-171.368	0.225	-0.007
-431.661	487.625	-0.074	-0.167
-430.646	-200.000	-0.058	0.387
-429.632	-67.635	0.268	0.105
-428.617	-200.000	0.048	-0.210
-427.603	-151.781	0.158	0.012
-426.588	-102.895	-0.042	0.010
-425.573	-26.495	0.111	0.065
-424.559	139.845	0.112	-0.147
-423.544	662.097	-0.048	-0.123
-422.530	-35.090	-0.223	0.121
-421.515	-70.657	0.179	0.067
-420.500	377.396	0.122	-0.247
-419.486	-38.942	0.068	0.036
-418.471	-150.827	-0.005	0.000
-417.457	39.223	-0.136	-0.121
-416.442	-200.000	0.020	0.088
-415.428	65.768	-0.072	0.072
-414.413	-200.000	0.026	0.113
-413.398	-200.000	-0.010	-0.097
-412.384	649.641	0.086	-0.219
-411.369	-200.000	-0.001	-0.135
-410.355	-99.847	0.167	-0.042
-409.340	142.916	0.053	0.070
-408.325	-76.411	0.279	0.098
-407.311	185.317	0.155	0.229
-406.296	-200.000	0.047	-0.258
-405.282	116.374	-0.200	-0.244
-404.267	800.000	-0.058	0.224
-403.252	172.082	-0.068	0.098
-402.238	80.240	0.102	0.109
-401.223	-117.537	0.137	-0.025
-400.209	-78.970	0.299	-0.101
-399.194	-27.656	0.094	-0.054
-398.179	165.236	0.179	-0.251
-397.165	166.934	-0.084	-0.118
-396.150	106.483	-0.038	0.044
-395.136	-2.168	0.181	0.126
-394.121	800.000	-0.048	0.154
-393.106	-68.816	-0.378	-0.145
-392.092	83.197	-0.270	0.293
-391.077	-91.668	-0.205	-0.058
-390.063	800.000	0.066	-0.220
-389.048	-82.088	-0.076	-0.024
-388.033	100.662	-0.175	0.202
-387.019	-30.334	0.073	0.041
-386.004	-79.718	-0.217	-0.073
-384.990	547.807	0.136	-0.325
-383.975	78.831	-0.269	-0.286
-382.960	-122.418	-0.146	-0.024
-381.946	800.000	0.137	0.390
-380.931	14.736	-0.364	-0.282
-379.917	800.000	-0.089	0.301
-378.902	333.669	-0.055	0.105
-377.888	-200.000	0.015	0.110
-376.873	-200.000	-0.001	0.081
-375.858	-143.266	-0.033	-0.003
-374.844	-8.893	-0.095	0.063
-373.829	243.147	0.182	-0.303
-372.815	-116.554	0.405	-0.074
-371.800	-25.381	-0.168	-0.099
-370.785	-98.275	-0.059	0.015
-369.771	-200.000	-0.004	0.208
-368.756	101.700	0.078	-0.090
-367.742	800.000	0.024	0.099
-366.727	15.713	-0.104	0.081
-365.712	42.557	0.086	-0.078
-364.698	800.000	0.022	-0.063
-363.683	-200.000	0.049	0.358
-362.669	119.751	-0.046	0.056
-361.654	-22.002	0.318	-0.192
-360.639	-77.252	0.522	-0.180
-359.625	-143.507	0.350	0.033
-358.610	-76.042	-0.128	-0.045
-357.596	162.675	-0.124	0.173
-356.581	643.735	-0.095	0.240
-355.566	101.427	0.100	0.115
-354.552	212.846	0.220	-0.344
-353.537	260.898	-0.082	0.140
-352.523	-200.000	0.039	0.256
-351.508	-111.885	0.204	-0.041
-350.493	-200.000	0.015	0.128
-349.479	129.854	-0.140	-0.177
-348.464	-63.472	0.124	-0.051
-347.450	-16.752	0.206	-0.129
-346.435	22.465	0.216	0.175
-345.420	-139.822	-0.187	0.020
-344.406	25.849	0.162	-0.134
-343.391	-43.886	0.204	-0.102
-342.377	1.144	0.038	0.027
-341.362	-110.705	-0.221	-0.045
-340.348	304.925	0.131	0.242
-339.333	117.436	-0.166	0.203
-338.318	142.509	-0.132	-0.174
-337.304	-200.000	-0.024	-0.274
-336.289	82.643	-0.171	0.184
-335.275	-168.300	0.238	-0.009
-334.260	-42.585	-0.386	0.195
-333.245	-200.000	0.011	0.061
-332.231	0.068	0.315	-0.223
-331.216	236.969	-0.143	0.236
-330.202	764.232	-0.055	0.147
-329.187	-31.510	0.149	-0.083
-328.172	113.986	-0.271	0.326
-327.158	291.490	-0.113	0.203
-326.143	-200.000	-0.034	-0.166
-325.129	-73.975	-0.155	0.056
-324.114	166.956	0.138	-0.195
-323.099	-30.731	-0.130	0.073
-322.085	-108.065	0.162	0.035
-321.070	-200.000	0.003	-0.172
-320.056	800.000	0.099	-0.334
-319.041	-50.439	0.319	0.149
-318.026	424.729	0.044	-0.094
-317.012	191.277	0.080	-0.119
-315.997	-115.547	0.352	0.066
-314.983	493.004	0.037	-0.084
-313.968	-200.000	0.002	-0.038
-312.953	314.364	-0.184	0.343
-311.939	-200.000	-0.014	0.328
-310.924	-163.999	0.378	-0.017
-309.910	800.000	-0.052	-0.223
-308.895	-38.333	-0.247	0.130
-307.880	110.678	0.141	-0.168
-306.866	-52.992	-0.064	0.029
-305.851	463.786	-0.106	0.234
-304.837	105.719	-0.185	-0.216
-303.822	-100.164	0.147	0.036
-302.807	-83.670	-0.130	0.041
-301.793	-32.091	0.179	0.099
-300.778	55.770	-0.132	0.127
-299.764	-79.041	0.223	0.075
-298.749	-68.020	-0.120	0.046
-297.735	-83.875	-0.142	-0.045
-296.720	-200.000	-0.005	-0.088
-295.705	-51.278	-0.119	-0.055
-294.691	-20.946	-0.169	0.103
-293.676	77.199	0.148	-0.156
-292.662	-200.000	-0.051	-0.235
-291.647	-122.696	0.315	-0.050
-290.632	-58.866	-0.219	0.094
-289.618	129.880	-0.038	0.048
-288.603	-93.468	0.161	0.044
-287.589	-38.965	0.052	0.027
-286.574	-47.816	-0.081	-0.039
-285.559	65.031	-0.062	0.062
-284.545	-200.000	0.001	0.161
-283.530	-200.000	-0.017	0.152
-282.516	-200.000	-0.076	0.387
-281.501	53.219	-0.177	0.167
-280.486	246.867	-0.101	-0.169
-279.472	44.863	0.073	-0.066
-278.457	-53.392	-0.375	0.170
-277.443	46.961	-0.097	0.089
-276.428	-54.523	0.303	-0.136
-275.413	-200.000	-0.012	-0.137
-274.399	361.800	0.082	0.162
-273.384	72.488	0.232	0.239
-272.370	-33.919	-0.131	-0.071
-271.355	102.866	-0.216	-0.250
-270.340	-200.000	0.051	0.309
-269.326	-59.418	-0.263	-0.112
-268.311	-52.300	0.235	0.108
-267.297	-124.571	0.311	0.048
-266.282	355.081	-0.090	0.176
-265.267	-73.275	0.276	-0.100
-264.253	5.521	0.094	0.068
-263.238	304.212	0.126	0.232
-262.224	29.684	-0.074	0.062
-261.209	356.088	-0.024	-0.047
-260.195	-68.835	-0.192	-0.073
-259.180	136.435	-0.183	0.236
-258.165	-200.000	-0.050	0.302
-257.151	543.794	-0.114	0.268
-256.136	-86.280	-0.235	-0.072
-255.122	800.000	-0.069	0.250
-254.107	528.328	-0.084	0.195
-253.092	-97.403	0.070	0.018
-252.078	38.235	0.068	0.060
-251.063	83.843	-0.145	0.156
-250.049	-200.000	0.005	-0.034
-249.034	-109.355	-0.371	0.078
-248.019	-150.661	-0.101	-0.008
-247.005	-200.000	0.007	0.119
-245.990	-200.000	0.070	-0.398
-244.976	-19.705	-0.012	0.007
-243.961	-16.964	-0.391	-0.244
-242.946	65.234	0.140	0.140
-241.932	-36.689	-0.095	0.051
-240.917	11.586	-0.170	-0.128
-239.903	-200.000	-0.024	-0.250
-238.888	-200.000	-0.026	0.120
-237.873	615.117	-0.084	-0.208
-236.859	-37.022	0.246	0.130
-235.844	96.297	0.238	0.269
-234.830	-49.679	0.186	-0.087
-233.815	-106.675	-0.065	-0.014
-232.800	-45.493	0.126	0.062
-231.786	-200.000	0.016	0.108
-230.771	800.000	-0.027	-0.085
-229.757	126.080	0.081	0.101
-228.742	121.739	-0.243	0.299
-227.727	366.067	0.125	0.249
-226.713	-200.000	-0.033	0.272
-225.698	163.795	-0.150	0.208
-224.684	-103.581	0.248	-0.058
-223.669	-200.000	0.008	-0.149
-222.655	-107.017	0.255	-0.056
-221.640	14.287	0.185	-0.142
-220.625	-52.222	-0.249	-0.114
-219.611	800.000	-0.029	-0.094
-218.596	275.545	-0.103	-0.180
-217.582	29.438	0.444	-0.373
-216.567	485.631	-0.105	0.236
-215.552	217.491	-0.105	-0.165
-214.538	374.048	-0.150	0.301
-213.523	255.050	0.009	0.014
-212.509	409.417	0.114	0.238
-211.494	-200.000	-0.005	0.085
-210.479	11.340	-0.067	-0.050
-209.465	489.381	0.110	-0.248
-208.450	26.892	-0.142	-0.117
-207.436	-63.788	-0.328	-0.133
-206.421	-52.697	-0.240	0.109
-205.406	-79.012	0.179	0.060
-204.392	-122.132	0.171	0.028
-203.377	-200.000	0.004	-0.073
-202.363	153.267	-0.106	0.143
-201.348	275.733	0.076	0.134
-200.333	-200.000	0.017	-0.249
-199.319	82.425	0.157	0.169
-198.304	-200.000	-0.012	0.304
-197.290	-46.116	-0.282	-0.137
-196.275	800.000	0.018	-0.051
-195.260	37.937	-0.101	0.088
-194.246	402.006	-0.016	-0.034
-193.231	-200.000	-0.017	0.205
-192.217	-85.208	-0.210	-0.065
-191.202	143.472	-0.062	0.082
-190.187	351.447	-0.087	0.170
-189.173	86.064	0.043	-0.047
-188.158	444.923	-0.013	-0.027
-187.144	84.926	-0.050	0.054
-186.129	-200.000	0.025	-0.405
-185.114	-33.259	-0.173	0.094
-184.100	-200.000	0.032	-0.200
-183.085	-111.670	-0.505	0.101
-182.071	800.000	0.041	-0.142
-181.056	2.522	0.233	-0.166
-180.042	-66.176	0.186	-0.073
-179.027	-68.665	0.444	-0.169
-178.012	-138.759	-0.190	0.020
-176.998	196.260	-0.020	-0.030
-175.983	-128.590	0.066	0.009
-174.969	-31.842	0.261	0.144
-173.954	-112.338	-0.224	0.044
-172.939	-107.449	-0.201	0.044
-171.925	-125.775	0.230	-0.034
-170.910	781.036	-0.160	0.431
-169.896	281.317	-0.067	-0.117
-168.881	-200.000	0.031	0.148
-167.866	-200.000	0.019	0.280
-166.852	126.139	0.231	-0.288
-165.837	-38.170	-0.305	0.159
-164.823	800.000	-0.105	0.365
-163.808	-61.443	0.138	0.057
-162.793	370.282	0.169	0.336
-161.779	-54.967	0.136	0.061
-160.764	-200.000	-0.004	0.173
-159.750	0.357	0.158	0.111
-158.735	54.504	0.073	-0.069
-157.720	210.167	0.055	0.086
-156.706	107.835	0.134	-0.158
-155.691	5.709	-0.197	0.144
-154.677	-145.793	0.050	0.004
-153.662	-200.000	0.013	0.098
-152.647	800.000	-0.047	0.180
-151.633	-62.149	0.177	-0.073
-150.618	-60.976	0.243	-0.101
-149.604	232.844	0.213	-0.344
-148.589	-94.163	0.099	-0.027
-147.574	181.677	-0.036	-0.052
-146.560	-3.225	0.237	-0.163
-145.545	249.605	-0.193	0.322
-144.531	-200.000	0.018	0.396
-143.516	-11.500	0.110	0.071
-142.502	508.113	0.057	0.131
-141.487	371.835	0.054	-0.108
-140.472	84.288	0.197	-0.212
-139.458	451.437	-0.055	0.120
-138.443	-200.000	-0.010	-0.360
-137.429	-28.234	-0.287	-0.163
-136.414	93.662	0.041	-0.046
-135.399	688.489	0.042	0.107
-134.385	-65.404	-0.266	0.105
-133.370	-200.000	0.024	0.224
-132.356	-200.000	0.028	-0.169
-131.341	32.009	-0.122	0.103
-130.326	-127.032	-0.097	-0.014
-129.312	-200.000	0.043	0.207
-128.297	-200.000	-0.005	-0.552
-127.283	800.000	-0.025	-0.080
-126.268	-101.200	0.120	-0.029
-125.253	800.000	-0.013	0.050
-124.239	52.494	-0.203	-0.191
-123.224	200.981	0.074	0.112
-122.210	-17.637	-0.178	0.110
-121.195	45.512	0.163	0.148
