DTS Sentinel unit serial number:	SN413079Multiplexer serial number:	ORYXHardware model number:	OX4-SRSoftware version number:	ORYX F/W v4.00 Oryx Data Collector v3.7.2.0data status	okinstallation	princeton_trtdifferential loss correction	single-endedforward channel	channel 1reverse channel	N/Adate	2019/09/12time	23:50:35forward acquisition time	60.00reverse acquisition time	0.00gamma	496.2192k internal	0.2328k external	0.2328temperature offset calibration	1.0147default loss term (dB/km)	0.3790temperature slope calibration	1.0000multiplexer offset coefficient	1.0000multiplexer slope coefficient	1.0000fibre end	0.00T internal ref (°C)	28.75T ext. ref 1 (°C)	3.78T ext. ref 2 (°C)	23.51length (m)	temperature (°C)	Stokes	anti-Stokes-747.200	-27.253	0.229	0.134
-746.185	-12.909	-0.135	-0.088
-745.171	473.771	-0.049	0.112
-744.156	-29.672	-0.098	0.056
-743.142	800.000	0.151	0.426
-742.127	800.000	-0.043	0.174
-741.112	800.000	-0.062	0.184
-740.098	-200.000	-0.006	-0.194
-739.083	-152.959	0.268	0.019
-738.069	-200.000	0.064	0.324
-737.054	-105.419	0.038	0.009
-736.039	-31.598	0.109	0.061
-735.025	259.533	0.122	0.213
-734.010	217.513	-0.045	-0.072
-732.996	-18.107	-0.130	0.082
-731.981	-57.944	-0.188	0.083
-730.966	57.240	0.195	0.192
-729.952	320.691	-0.072	-0.137
-728.937	800.000	-0.044	0.191
-727.923	125.133	0.068	-0.086
-726.908	-200.000	-0.044	-0.249
-725.894	36.299	0.172	0.152
-724.879	82.355	0.236	-0.258
-723.864	-75.063	-0.089	-0.032
-722.850	-105.876	-0.076	-0.017
-721.835	-81.542	-0.176	-0.058
-720.821	-167.816	-0.465	0.018
-719.806	-129.672	-0.052	-0.007
-718.791	556.538	-0.136	-0.331
-717.777	103.241	-0.142	-0.167
-716.762	59.522	0.130	0.129
-715.748	15.223	0.144	-0.113
-714.733	-200.000	-0.032	-0.249
-713.718	413.924	-0.146	-0.312
-712.704	-200.000	0.040	-0.271
-711.689	107.569	-0.126	-0.151
-710.675	698.171	0.048	0.128
-709.660	-58.307	0.152	-0.066
-708.645	-125.148	0.153	0.024
-707.631	20.433	-0.093	-0.076
-706.616	-6.739	-0.062	-0.043
-705.602	30.357	-0.060	-0.052
-704.587	-147.635	-0.138	-0.012
-703.572	800.000	-0.068	-0.250
-702.558	-177.787	0.085	-0.002
-701.543	511.264	-0.050	-0.118
-700.529	285.430	-0.109	0.198
-699.514	-23.367	0.369	0.223
-698.499	-108.234	-0.051	0.011
-697.485	129.218	0.053	0.068
-696.470	-130.848	-0.077	-0.010
-695.456	-200.000	0.011	0.078
-694.441	-13.377	0.036	0.023
-693.426	-53.695	-0.227	0.104
-692.412	800.000	0.055	-0.206
-691.397	239.457	-0.265	-0.443
-690.383	273.805	0.024	0.042
-689.368	461.830	-0.176	-0.395
-688.354	134.591	-0.089	-0.116
-687.339	-50.356	-0.196	-0.093
-686.324	-200.000	-0.022	-0.178
-685.310	800.000	-0.105	-0.386
-684.295	-93.883	-0.128	-0.035
-683.281	11.653	0.041	0.031
-682.266	-155.825	-0.236	-0.015
-681.251	707.263	0.171	0.453
-680.237	46.910	0.127	-0.118
-679.222	128.295	0.135	0.172
-678.208	236.028	-0.068	0.112
-677.193	-77.515	-0.051	-0.018
-676.178	774.366	0.114	0.313
-675.164	435.348	0.152	0.332
-674.149	161.809	-0.072	-0.102
-673.135	-38.127	0.085	-0.045
-672.120	-160.273	0.451	-0.024
-671.105	800.000	0.017	0.049
-670.091	-82.500	-0.438	0.143
-669.076	-118.266	0.051	-0.009
-668.062	738.179	-0.180	-0.484
-667.047	-4.732	0.180	-0.124
-666.032	-23.045	-0.214	0.129
-665.018	-27.475	-0.079	-0.046
-664.003	418.999	0.051	0.110
-662.989	40.367	-0.320	0.289
-661.974	-77.670	0.224	-0.078
-660.959	39.996	-0.103	-0.093
-659.945	55.113	-0.147	-0.143
-658.930	-1.684	-0.151	0.106
-657.916	-137.151	0.163	-0.019
-656.901	126.638	0.209	-0.266
-655.886	-0.222	0.085	0.061
-654.872	-200.000	0.019	0.451
-653.857	-200.000	-0.030	0.290
-652.843	-200.000	-0.002	-0.173
-651.828	-200.000	-0.004	-0.144
-650.814	-9.975	-0.222	-0.148
-649.799	21.973	-0.227	0.186
-648.784	-170.023	0.428	0.015
-647.770	-200.000	0.011	0.277
-646.755	-84.841	0.200	0.063
-645.741	-149.234	0.063	-0.005
-644.726	430.712	-0.100	-0.216
-643.711	-200.000	0.034	0.185
-642.697	-193.222	0.103	0.001
-641.682	-1.028	-0.378	-0.268
-640.668	21.940	0.043	0.035
-639.653	33.871	0.067	-0.058
-638.638	36.201	-0.200	-0.177
-637.624	-88.399	-0.082	-0.024
-636.609	-200.000	-0.011	0.103
-635.595	181.361	0.155	0.229
-634.580	-200.000	0.024	-0.190
-633.565	-200.000	0.005	-0.034
-632.551	800.000	-0.035	0.115
-631.536	-107.948	0.033	0.007
-630.522	-60.000	-0.169	0.072
-629.507	-122.079	0.431	-0.071
-628.492	-62.040	-0.230	-0.096
-627.478	800.000	-0.029	0.095
-626.463	-200.000	0.003	-0.280
-625.449	636.105	0.038	0.097
-624.434	-155.372	-0.500	0.033
-623.419	-77.746	0.261	0.090
-622.405	-118.690	0.282	-0.050
-621.390	152.619	-0.247	-0.339
-620.376	91.244	0.276	-0.311
-619.361	-43.796	0.174	0.088
-618.346	506.075	0.115	0.266
-617.332	-179.761	-0.486	-0.011
-616.317	-200.000	0.065	-0.359
-615.303	100.255	-0.131	0.153
-614.288	-200.000	0.031	0.165
-613.273	35.295	0.050	0.044
-612.259	82.895	-0.061	0.067
-611.244	-54.724	0.235	-0.107
-610.230	-200.000	-0.002	-0.070
-609.215	-200.000	-0.017	-0.171
-608.201	-154.733	-0.096	0.006
-607.186	497.202	-0.067	0.153
-606.171	-149.552	0.335	-0.027
-605.157	-10.958	-0.349	-0.231
-604.142	-111.424	0.329	-0.067
-603.128	-103.830	0.410	-0.096
-602.113	-119.982	-0.223	0.038
-601.098	-167.019	0.355	-0.015
-600.084	-4.986	0.115	0.080
-599.069	-60.387	0.371	0.158
-598.055	800.000	-0.028	0.108
-597.040	83.772	-0.098	0.107
-596.025	222.433	-0.019	0.031
-595.011	-200.000	0.009	-0.071
-593.996	193.370	0.263	0.398
-592.982	1.147	-0.126	-0.091
-591.967	-158.584	-0.098	0.006
-590.952	-8.035	0.306	0.206
-589.938	67.950	-0.129	0.132
-588.923	800.000	-0.025	0.086
-587.909	6.512	0.024	-0.018
-586.894	-76.334	-0.307	-0.108
-585.879	-200.000	0.026	-0.226
-584.865	800.000	-0.107	0.352
-583.850	-107.359	-0.349	-0.077
-582.836	104.282	-0.222	0.261
-581.821	779.610	0.053	0.146
-580.806	160.533	-0.173	-0.242
-579.792	221.036	0.114	0.184
-578.777	51.685	0.067	0.064
-577.763	-118.929	-0.394	-0.069
-576.748	800.000	0.071	-0.278
-575.733	61.487	-0.191	0.190
-574.719	522.086	-0.087	-0.205
-573.704	85.383	0.066	-0.072
-572.690	157.561	-0.145	-0.201
-571.675	-133.430	-0.386	-0.049
-570.661	-200.000	0.005	-0.336
-569.646	800.000	0.078	-0.300
-568.631	-85.615	0.245	-0.076
-567.617	-15.838	-0.384	0.245
-566.602	-77.589	-0.057	-0.020
-565.588	39.160	0.155	0.139
-564.573	107.234	-0.199	0.237
-563.558	147.984	0.438	-0.591
-562.544	489.542	-0.081	-0.185
-561.529	28.034	0.154	0.130
-560.515	101.573	-0.186	0.217
-559.500	226.614	-0.097	0.158
-558.485	-200.000	-0.004	0.027
-557.471	-92.314	-0.202	-0.057
-556.456	-40.208	0.203	0.105
-555.442	112.761	0.234	0.283
-554.427	-200.000	-0.058	-0.371
-553.412	80.332	0.150	0.161
-552.398	800.000	0.068	-0.205
-551.383	647.703	0.152	-0.389
-550.369	236.800	-0.072	-0.120
-549.354	54.785	0.170	-0.164
-548.339	-200.000	-0.005	0.030
-547.325	-200.000	-0.016	-0.096
-546.310	635.406	0.120	-0.304
-545.296	215.512	-0.074	-0.118
-544.281	165.379	-0.061	0.086
-543.266	131.514	0.226	0.290
-542.252	-42.277	0.284	0.145
-541.237	-200.000	0.030	0.349
-540.223	553.346	-0.146	0.350
-539.208	126.954	-0.106	-0.135
-538.193	-116.629	-0.474	0.087
-537.179	-200.000	-0.023	-0.119
-536.164	-168.067	0.283	0.011
-535.150	-200.000	0.016	0.080
-534.135	-200.000	0.003	0.380
-533.121	-6.336	-0.150	0.102
-532.106	-46.906	-0.092	-0.045
-531.091	-196.477	0.370	-0.003
-530.077	164.410	0.114	-0.161
-529.062	-200.000	0.012	0.061
-528.048	215.238	-0.117	0.185
-527.033	167.651	-0.126	0.179
-526.018	-143.051	-0.257	-0.025
-525.004	-6.069	0.207	-0.141
-523.989	-200.000	0.013	-0.159
-522.975	800.000	-0.046	-0.188
-521.960	-90.826	0.404	0.116
-520.945	8.823	0.150	0.113
-519.931	-97.187	-0.317	0.083
-518.916	800.000	0.087	0.381
-517.902	-200.000	0.021	-0.387
-516.887	70.810	-0.246	0.254
-515.872	800.000	0.030	0.093
-514.858	81.358	0.116	-0.125
-513.843	20.363	-0.100	-0.081
-512.829	234.042	-0.075	0.123
-511.814	404.971	-0.085	-0.178
-510.799	-162.671	0.152	0.007
-509.785	35.624	0.134	-0.118
-508.770	20.736	-0.035	0.029
-507.756	-70.948	-0.063	0.024
-506.741	676.270	-0.061	0.158
-505.726	-74.886	0.254	0.091
-504.712	75.949	0.221	-0.233
-503.697	-200.000	0.005	0.035
-502.683	-200.000	0.048	-0.272
-501.668	-81.065	0.232	-0.077
-500.653	44.460	-0.091	0.083
-499.639	7.491	-0.135	-0.100
-498.624	391.691	0.113	-0.235
-497.610	-200.000	0.016	-0.073
-496.595	-200.000	-0.004	0.094
-495.581	800.000	0.139	0.463
-494.566	-83.045	0.335	0.108
-493.551	24.585	-0.173	-0.143
-492.537	800.000	0.080	-0.340
-491.522	-30.382	-0.110	-0.062
-490.508	76.232	-0.162	0.171
-489.493	-56.998	0.287	-0.126
-488.478	-60.783	-0.027	-0.011
-487.464	-103.589	-0.112	-0.026
-486.449	800.000	-0.082	0.232
-485.435	-101.542	0.125	0.030
-484.420	301.319	-0.144	-0.265
-483.405	-78.519	-0.323	-0.110
-482.391	323.990	0.090	-0.171
-481.376	84.098	0.213	0.232
-480.362	-46.497	0.089	0.044
-479.347	212.725	-0.046	0.072
-478.332	-200.000	0.009	0.058
-477.318	139.343	-0.134	0.176
-476.303	288.659	-0.077	-0.138
-475.289	-200.000	-0.015	-0.316
-474.274	-200.000	-0.026	-0.151
-473.259	461.998	0.149	-0.332
-472.245	800.000	-0.056	-0.223
-471.230	257.240	0.093	-0.160
-470.216	-140.570	0.294	-0.030
-469.201	-200.000	-0.013	-0.279
-468.186	-200.000	0.035	-0.226
-467.172	764.371	-0.129	-0.349
-466.157	453.401	-0.206	-0.454
-465.143	-70.390	-0.134	-0.051
-464.128	18.481	-0.181	-0.144
-463.113	-200.000	0.051	0.320
-462.099	173.984	-0.208	-0.299
-461.084	189.416	-0.314	-0.469
-460.070	780.248	-0.023	-0.062
-459.055	60.665	-0.093	0.092
-458.040	563.305	0.164	0.395
-457.026	119.184	0.072	-0.089
-456.011	3.561	-0.402	-0.292
-454.997	155.347	0.210	-0.287
-453.982	800.000	-0.066	-0.189
-452.968	-200.000	-0.008	-0.068
-451.953	-68.137	0.397	0.154
-450.938	-5.567	0.277	-0.190
-449.924	42.171	0.055	-0.050
-448.909	-130.314	0.055	0.007
-447.895	-143.799	0.247	-0.023
-446.880	329.030	0.213	-0.407
-445.865	800.000	0.060	-0.236
-444.851	405.001	-0.116	-0.244
-443.836	800.000	-0.049	0.185
-442.822	-166.067	-0.316	0.013
-441.807	800.000	-0.043	-0.135
-440.792	292.733	-0.128	0.232
-439.778	275.309	-0.076	0.134
-438.763	107.901	0.086	0.101
-437.749	339.070	-0.142	0.275
-436.734	-33.379	-0.360	-0.198
-435.719	83.407	0.149	0.162
-434.705	800.000	0.097	-0.341
-433.690	15.454	0.321	0.251
-432.676	-173.721	-0.151	0.004
-431.661	350.126	-0.009	-0.018
-430.646	-136.773	-0.231	0.026
-429.632	48.549	-0.121	0.112
-428.617	-200.000	-0.005	0.159
-427.603	-82.086	-0.130	0.042
-426.588	-186.861	0.095	-0.001
-425.573	164.596	-0.124	0.174
-424.559	-54.552	0.088	0.040
-423.544	-9.116	-0.119	0.079
-422.530	357.378	-0.147	-0.291
-421.515	-57.742	-0.102	0.044
-420.500	-62.762	0.337	-0.139
-419.486	-41.042	0.102	0.053
-418.471	-200.000	0.070	0.352
-417.457	-200.000	0.011	0.201
-416.442	-16.964	-0.133	-0.084
-415.428	234.621	0.183	-0.300
-414.413	800.000	0.059	0.178
-413.398	-184.946	0.351	0.006
-412.384	-8.592	0.236	0.158
-411.369	23.487	-0.141	-0.115
-410.355	-200.000	-0.021	0.417
-409.340	-39.693	0.126	0.066
-408.325	395.272	0.137	-0.283
-407.311	-131.787	-0.420	0.055
-406.296	17.487	0.003	0.002
-405.282	87.141	-0.174	-0.191
-404.267	326.886	-0.059	-0.111
-403.252	394.540	0.147	0.304
-402.238	535.910	-0.042	-0.100
-401.223	112.790	0.245	0.295
-400.209	378.523	-0.026	0.053
-399.194	264.876	-0.116	-0.201
-398.179	-89.251	-0.326	0.096
-397.165	800.000	0.092	0.401
-396.150	800.000	0.085	-0.245
-395.136	296.552	-0.061	0.111
-394.121	-200.000	0.020	-0.238
-393.106	800.000	-0.056	0.195
-392.092	-200.000	-0.016	-0.085
-391.077	232.216	0.065	0.106
-390.063	76.372	-0.071	0.074
-389.048	-200.000	-0.014	-0.116
-388.033	-29.550	0.125	0.071
-387.019	48.231	-0.324	0.301
-386.004	117.169	0.124	0.151
-384.990	32.767	-0.229	-0.197
-383.975	289.663	0.053	0.096
-382.960	-200.000	0.013	0.250
-381.946	800.000	0.061	-0.172
-380.931	506.207	-0.145	0.334
-379.917	214.696	0.122	0.192
-378.902	-200.000	0.025	0.179
-377.888	-16.919	-0.170	0.107
-376.873	-91.173	-0.316	-0.090
-375.858	12.129	0.206	0.157
-374.844	-200.000	0.004	-0.057
-373.829	-72.604	0.074	-0.027
-372.815	7.111	0.246	0.182
-371.800	175.614	-0.064	0.092
-370.785	117.019	0.097	0.119
-369.771	-200.000	0.018	0.179
-368.756	-118.506	-0.104	-0.018
-367.742	125.321	0.180	-0.226
-366.727	248.565	-0.064	0.108
-365.712	800.000	-0.061	0.198
-364.698	99.056	-0.058	0.066
-363.683	800.000	-0.040	0.148
-362.669	16.737	-0.164	-0.129
-361.654	41.810	-0.321	-0.288
-360.639	-163.473	0.166	-0.008
-359.625	-200.000	0.010	0.249
-358.610	408.140	0.143	-0.301
-357.596	-150.968	-0.141	0.011
-356.581	30.025	-0.145	-0.123
-355.566	-200.000	-0.007	0.142
-354.552	-74.677	-0.463	-0.165
-353.537	277.883	0.139	-0.246
-352.523	-122.391	0.190	-0.031
-351.508	114.039	0.162	0.196
-350.493	800.000	-0.071	0.274
-349.479	674.660	-0.022	0.056
-348.464	-111.504	-0.217	-0.044
-347.450	-105.526	0.239	-0.054
-346.435	278.181	0.093	-0.165
-345.420	43.001	0.118	-0.107
-344.406	800.000	-0.049	0.191
-343.391	248.142	-0.223	0.374
-342.377	-180.441	0.086	-0.002
-341.362	215.965	0.065	0.103
-340.348	-6.739	0.175	-0.118
-339.333	-200.000	0.038	0.240
-338.318	800.000	0.086	0.370
-337.304	172.449	0.124	-0.177
-336.289	-61.930	-0.285	-0.118
-335.275	-76.361	0.220	0.077
-334.260	303.869	0.029	0.054
-333.245	-53.179	-0.252	0.115
-332.231	69.149	0.106	-0.108
-331.216	800.000	0.056	0.221
-330.202	-16.381	0.252	0.159
-329.187	-77.618	0.513	-0.176
-328.172	118.335	-0.161	-0.197
-327.158	-151.458	-0.172	0.013
-326.143	-200.000	-0.006	-0.302
-325.129	-200.000	0.013	-0.093
-324.114	-94.657	-0.395	-0.106
-323.099	85.551	0.167	-0.182
-322.085	-200.000	-0.010	0.326
-321.070	128.231	-0.166	0.209
-320.056	800.000	-0.057	0.180
-319.041	41.961	-0.091	0.082
-318.026	-88.513	0.436	-0.129
-317.012	-167.485	0.430	-0.017
-315.997	350.689	-0.065	0.128
-314.983	800.000	-0.089	0.257
-313.968	-67.341	0.269	0.105
-312.953	800.000	0.068	-0.291
-311.939	800.000	-0.006	0.023
-310.924	-200.000	0.004	0.161
-309.910	-40.221	0.229	0.118
-308.895	200.602	-0.100	-0.152
-307.880	800.000	0.042	-0.181
-306.866	-76.989	-0.160	0.055
-305.851	800.000	-0.080	0.312
-304.837	-57.069	-0.314	0.137
-303.822	800.000	-0.087	-0.257
-302.807	-119.527	0.155	0.027
-301.793	-33.846	-0.120	-0.066
-300.778	-200.000	0.034	-0.304
-299.764	800.000	0.008	-0.032
-298.749	-69.087	0.084	0.032
-297.735	554.160	-0.112	0.267
-296.720	109.257	-0.248	0.294
-295.705	-69.973	-0.211	0.080
-294.691	23.208	-0.072	0.059
-293.676	-149.970	0.262	0.020
-292.662	-200.000	-0.004	-0.268
-291.647	-101.117	0.105	0.025
-290.632	34.983	-0.141	0.122
-289.618	201.487	-0.101	0.155
-288.603	-200.000	-0.067	0.349
-287.589	688.280	0.052	-0.134
-286.574	-151.385	-0.131	-0.010
-285.559	296.503	0.046	-0.083
-284.545	-200.000	-0.017	-0.124
-283.530	-18.474	-0.235	-0.145
-282.516	179.515	0.134	0.194
-281.501	800.000	0.080	-0.302
-280.486	-31.262	-0.049	-0.027
-279.472	371.634	0.087	-0.175
-278.457	-200.000	0.014	0.165
-277.443	800.000	-0.047	0.147
-276.428	-200.000	-0.004	0.135
-275.413	-139.853	-0.211	-0.022
-274.399	46.963	-0.154	-0.142
-273.384	-200.000	0.006	0.081
-272.370	489.778	-0.039	0.087
-271.355	365.398	0.039	0.078
-270.340	-200.000	-0.012	-0.052
-269.326	-200.000	-0.006	0.240
-268.311	-200.000	-0.030	0.251
-267.297	16.203	0.200	-0.156
-266.282	-123.900	0.179	0.028
-265.267	-28.706	0.207	-0.118
-264.253	162.970	-0.109	0.152
-263.238	-200.000	0.067	-0.539
-262.224	-38.714	-0.241	-0.126
-261.209	650.638	-0.033	-0.083
-260.195	-100.329	-0.053	-0.013
-259.180	50.945	-0.146	0.136
-258.165	344.788	-0.080	-0.156
-257.151	145.928	-0.071	-0.094
-256.136	375.666	0.112	-0.226
-255.122	470.663	-0.095	-0.211
-254.107	-79.925	-0.103	-0.034
-253.092	-200.000	0.016	0.095
-252.078	-131.821	-0.204	-0.026
-251.063	-200.000	-0.053	0.502
-250.049	40.547	0.145	-0.129
-249.034	-200.000	0.016	-0.142
-248.019	148.393	-0.227	0.302
-247.005	-200.000	-0.041	0.236
-245.990	-200.000	-0.048	-0.257
-244.976	154.397	0.030	0.041
-243.961	800.000	0.005	-0.016
-242.946	-190.863	-0.059	0.001
-241.932	401.753	-0.059	-0.122
-240.917	152.313	-0.101	0.136
-239.903	85.958	0.255	0.277
-238.888	800.000	0.062	0.202
-237.873	-76.953	0.057	0.020
-236.859	37.217	-0.256	0.224
-235.844	206.957	0.065	-0.101
-234.830	800.000	0.084	-0.322
-233.815	-15.724	0.107	0.068
-232.800	-107.110	-0.426	-0.093
-231.786	-81.949	0.377	0.122
-230.771	-26.100	0.129	0.075
-229.757	800.000	0.064	0.260
-228.742	-200.000	0.067	-0.351
-227.727	-200.000	0.030	0.479
-226.713	-32.658	0.125	-0.069
-225.698	121.478	-0.071	-0.088
-224.684	380.071	-0.175	-0.354
-223.669	53.533	-0.230	0.218
-222.655	-200.000	-0.025	-0.293
-221.640	-101.763	-0.238	-0.057
-220.625	800.000	0.037	0.114
-219.611	234.634	-0.175	-0.285
-218.596	-200.000	0.060	0.351
-217.582	800.000	-0.110	0.438
-216.567	-52.273	0.078	0.036
-215.552	176.726	-0.137	-0.196
-214.538	-45.628	0.209	0.102
-213.523	800.000	-0.041	-0.169
-212.509	-102.447	-0.409	0.097
-211.494	126.166	-0.046	0.058
-210.479	166.847	0.083	0.116
-209.465	29.687	0.397	0.334
-208.450	343.355	0.091	0.176
-207.436	338.050	-0.098	-0.189
-206.421	540.195	0.134	-0.314
-205.406	-91.428	-0.183	-0.051
-204.392	-200.000	0.003	0.066
-203.377	336.295	-0.023	0.043
-202.363	-96.925	0.271	0.070
-201.348	-200.000	-0.013	0.166
-200.333	-200.000	-0.021	-0.151
-199.319	-200.000	-0.016	0.084
-198.304	-47.606	0.225	-0.108
-197.290	-200.000	0.021	-0.111
-196.275	-11.408	0.089	0.058
-195.260	-117.196	0.263	0.047
-194.246	-200.000	0.013	0.197
-193.231	71.699	-0.203	-0.208
-192.217	639.487	0.083	-0.209
-191.202	478.470	0.103	0.230
-190.187	-200.000	0.007	-0.035
-189.173	-154.954	0.248	0.016
-188.158	-99.321	-0.068	0.017
-187.144	284.133	0.215	-0.382
-186.129	-200.000	-0.007	-0.214
-185.114	44.970	-0.230	0.209
-184.100	284.788	-0.049	-0.088
-183.085	207.424	-0.032	-0.050
-182.071	-186.462	0.188	-0.003
-181.056	-200.000	0.018	-0.234
-180.042	-14.894	-0.249	0.157
-179.027	34.281	-0.306	0.263
-178.012	-200.000	-0.013	0.278
-176.998	-145.888	0.317	-0.028
-175.983	-200.000	-0.027	0.138
-174.969	-109.029	0.035	0.007
-173.954	93.280	0.276	-0.307
-172.939	800.000	0.031	0.097
-171.925	236.060	-0.058	0.095
-170.910	45.878	-0.071	-0.064
-169.896	7.334	-0.185	-0.136
-168.881	-200.000	0.020	-0.103
-167.866	-200.000	-0.017	-0.238
-166.852	-130.701	0.148	-0.020
-165.837	12.180	0.205	-0.155
-164.823	39.938	-0.252	-0.223
-163.808	800.000	0.131	-0.444
-162.793	225.524	0.117	-0.187
-161.779	239.083	0.055	-0.090
-160.764	672.187	0.066	0.168
-159.750	-6.091	-0.286	0.192
-158.735	800.000	0.032	-0.091
-157.720	-13.196	-0.299	0.191
-156.706	-200.000	0.020	-0.096
-155.691	800.000	0.095	-0.303
-154.677	-96.765	0.375	0.097
-153.662	315.466	-0.150	0.278
-152.647	141.903	0.167	0.217
-151.633	-149.911	-0.156	-0.012
-150.618	-137.446	-0.286	-0.032
-149.604	-73.938	0.288	-0.103
-148.589	-124.333	-0.223	0.034
-147.574	-200.000	-0.045	0.195
-146.560	-200.000	0.005	-0.108
-145.545	-147.172	0.242	-0.020
-144.531	-34.014	0.123	0.066
-143.516	-176.237	0.138	-0.004
-142.502	5.861	-0.182	0.132
-141.487	-145.890	0.320	0.028
-140.472	800.000	0.037	0.130
-139.458	424.956	0.024	0.051
-138.443	-20.095	0.311	-0.189
-137.429	50.737	-0.371	0.345
-136.414	-200.000	-0.003	0.034
-135.399	501.509	-0.079	0.179
-134.385	246.463	0.121	-0.200
-133.370	-187.060	-0.342	0.005
-132.356	478.784	-0.116	0.258
-131.341	-48.026	0.349	0.166
-130.326	-200.000	-0.001	-0.453
-129.312	-71.157	-0.146	0.054
-128.297	419.324	-0.018	-0.038
-127.283	800.000	0.048	0.158
-126.268	-34.094	-0.237	-0.128
-125.253	-200.000	0.041	0.191
-124.239	-30.464	0.046	-0.026
-123.224	-200.000	0.036	-0.276
-122.210	135.663	-0.141	0.180
