DTS Sentinel unit serial number:	SN413079Multiplexer serial number:	ORYXHardware model number:	OX4-SRSoftware version number:	ORYX F/W v4.00 Oryx Data Collector v3.7.2.0data status	okinstallation	princeton_trtdifferential loss correction	single-endedforward channel	channel 1reverse channel	N/Adate	2019/09/13time	21:06:35forward acquisition time	60.00reverse acquisition time	0.00gamma	496.2192k internal	0.2331k external	0.2331temperature offset calibration	1.0075default loss term (dB/km)	0.3790temperature slope calibration	1.0000multiplexer offset coefficient	1.0000multiplexer slope coefficient	1.0000fibre end	0.00T internal ref (°C)	28.56T ext. ref 1 (°C)	3.08T ext. ref 2 (°C)	23.30length (m)	temperature (°C)	Stokes	anti-Stokes-747.200	-133.489	-0.175	-0.022
-746.185	-140.176	0.206	-0.022
-745.171	144.666	-0.131	-0.177
-744.156	139.324	-0.038	0.051
-743.142	558.147	0.068	-0.165
-742.127	-200.000	0.040	0.372
-741.112	190.780	0.047	0.071
-740.098	69.501	-0.096	0.100
-739.083	126.312	-0.225	-0.287
-738.069	-176.061	0.065	-0.002
-737.054	800.000	-0.074	-0.222
-736.039	89.103	-0.171	0.191
-735.025	12.801	0.339	-0.264
-734.010	2.768	-0.154	-0.112
-732.996	-153.032	-0.104	0.007
-731.981	138.057	0.082	-0.109
-730.966	-200.000	0.011	0.129
-729.952	-6.971	0.073	-0.050
-728.937	432.908	0.098	-0.215
-727.923	406.107	0.075	-0.159
-726.908	765.615	-0.046	-0.125
-725.894	-23.292	0.105	0.064
-724.879	-5.547	0.199	-0.137
-723.864	-109.830	-0.098	-0.021
-722.850	-41.444	-0.278	0.144
-721.835	-200.000	-0.254	0.001
-720.821	-62.910	-0.115	0.048
-719.806	-126.607	0.233	0.035
-718.791	-200.000	0.049	-0.294
-717.777	800.000	0.009	-0.033
-716.762	173.378	0.068	0.098
-715.748	242.529	0.110	-0.185
-714.733	-77.252	0.378	0.132
-713.718	-116.498	0.351	0.065
-712.704	800.000	-0.099	-0.303
-711.689	3.479	0.259	0.190
-710.675	800.000	0.055	-0.237
-709.660	-143.969	-0.260	-0.025
-708.645	185.500	-0.048	0.071
-707.631	-107.684	0.158	-0.035
-706.616	-127.737	0.103	-0.015
-705.602	-28.774	-0.081	-0.047
-704.587	534.941	-0.075	-0.178
-703.572	398.497	-0.118	-0.248
-702.558	800.000	-0.037	-0.148
-701.543	-126.917	0.157	0.023
-700.529	-149.745	-0.234	0.018
-699.514	-37.189	0.315	0.169
-698.499	97.764	0.060	-0.070
-697.485	-160.545	-0.129	-0.007
-696.470	-200.000	0.000	-0.304
-695.456	-55.679	0.130	-0.058
-694.441	67.559	0.129	0.132
-693.426	-9.128	0.271	-0.182
-692.412	4.602	-0.269	0.198
-691.397	-67.998	0.141	0.055
-690.383	800.000	0.010	0.039
-689.368	-43.913	0.275	0.139
-688.354	314.868	-0.090	0.171
-687.339	499.295	-0.032	0.074
-686.324	-200.000	0.013	-0.140
-685.310	-75.169	0.090	-0.032
-684.295	202.101	-0.299	0.464
-683.281	60.154	0.065	-0.065
-682.266	-93.159	-0.103	0.029
-681.251	10.132	-0.177	0.135
-680.237	100.296	0.198	0.230
-679.222	-28.440	-0.182	0.105
-678.208	622.207	-0.038	-0.096
-677.193	1.838	0.104	-0.076
-676.178	-14.067	0.145	-0.094
-675.164	300.623	0.208	-0.384
-674.149	315.353	-0.095	-0.179
-673.135	469.413	-0.144	0.325
-672.120	-4.804	0.166	-0.115
-671.105	-139.383	-0.178	0.019
-670.091	-110.375	0.146	-0.031
-669.076	-200.000	0.008	0.118
-668.062	-176.095	0.323	0.009
-667.047	-200.000	0.077	0.472
-666.032	328.201	-0.042	0.080
-665.018	494.143	-0.131	-0.300
-664.003	800.000	0.053	0.208
-662.989	-122.485	-0.206	0.034
-661.974	-200.000	-0.014	-0.132
-660.959	-105.057	0.280	-0.064
-659.945	306.194	-0.113	-0.211
-658.930	-167.309	-0.208	-0.008
-657.916	197.112	-0.110	0.168
-656.901	58.067	0.044	-0.043
-655.886	-200.000	0.027	0.144
-654.872	800.000	0.140	0.449
-653.857	17.686	0.346	-0.276
-652.843	69.272	-0.242	0.250
-651.828	326.757	-0.146	0.281
-650.814	-200.000	0.091	-0.466
-649.799	122.458	-0.223	0.279
-648.784	-38.989	-0.103	0.055
-647.770	43.642	-0.239	0.219
-646.755	-200.000	0.039	0.318
-645.741	-59.019	-0.244	-0.105
-644.726	-200.000	-0.025	0.177
-643.711	-24.432	0.200	0.120
-642.697	26.951	-0.139	-0.117
-641.682	-200.000	0.011	-0.251
-640.668	-200.000	0.001	-0.141
-639.653	-6.302	-0.319	-0.218
-638.638	-7.282	0.028	0.019
-637.624	298.536	0.048	-0.088
-636.609	-200.000	0.041	0.310
-635.595	-18.351	-0.093	0.058
-634.580	-13.118	-0.298	0.194
-633.565	198.348	-0.098	-0.150
-632.551	-97.784	-0.465	-0.121
-631.536	-200.000	-0.019	0.138
-630.522	77.795	-0.202	-0.215
-629.507	-67.691	-0.114	-0.045
-628.492	-147.997	0.229	0.019
-627.478	-68.800	-0.064	-0.025
-626.463	-116.735	0.154	-0.028
-625.449	381.902	-0.173	-0.357
-624.434	800.000	0.055	-0.217
-623.419	-200.000	-0.014	0.333
-622.405	-185.649	0.111	0.002
-621.390	-200.000	0.019	-0.171
-620.376	-128.815	-0.067	0.009
-619.361	-27.529	0.324	-0.189
-618.346	199.264	0.130	0.199
-617.332	204.689	-0.087	-0.135
-616.317	-108.487	-0.227	-0.049
-615.303	4.233	0.166	-0.122
-614.288	352.941	-0.056	-0.111
-613.273	800.000	-0.089	0.295
-612.259	-113.452	-0.183	0.036
-611.244	800.000	0.074	-0.311
-610.230	-200.000	-0.054	-0.238
-609.215	-41.734	0.149	0.077
-608.201	800.000	-0.040	0.111
-607.186	-125.540	0.616	-0.094
-606.171	83.280	-0.212	0.231
-605.157	244.065	-0.108	0.182
-604.142	11.344	0.263	0.202
-603.128	-64.705	0.128	0.052
-602.113	574.427	0.073	0.178
-601.098	455.620	-0.050	-0.110
-600.084	-18.607	-0.097	-0.060
-599.069	1.904	0.031	0.023
-598.055	-104.837	-0.485	0.111
-597.040	-200.000	0.035	-0.152
-596.025	800.000	0.023	-0.100
-595.011	-163.007	-0.078	-0.004
-593.996	-200.000	0.013	-0.093
-592.982	93.446	-0.158	0.179
-591.967	74.722	0.044	-0.047
-590.952	-90.423	-0.229	-0.066
-589.938	800.000	0.071	-0.270
-588.923	91.282	0.022	-0.025
-587.909	800.000	0.117	-0.395
-586.894	46.708	-0.184	-0.171
-585.879	-81.774	0.498	-0.163
-584.865	600.361	0.067	0.167
-583.850	-133.718	0.186	0.023
-582.836	297.002	0.082	0.150
-581.821	-90.320	0.138	-0.040
-580.806	800.000	-0.080	-0.231
-579.792	-92.320	-0.127	0.036
-578.777	800.000	0.021	0.064
-577.763	-200.000	-0.012	-0.187
-576.748	-49.520	0.270	-0.129
-575.733	-68.868	-0.109	-0.042
-574.719	-97.177	0.170	0.044
-573.704	800.000	0.076	-0.211
-572.690	-1.254	-0.214	-0.151
-571.675	800.000	-0.011	-0.035
-570.661	276.535	0.066	0.118
-569.646	76.821	-0.150	0.159
-568.631	39.578	-0.311	-0.279
-567.617	14.962	0.237	-0.185
-566.602	363.993	0.107	0.214
-565.588	40.291	0.267	0.240
-564.573	-132.045	-0.231	0.030
-563.558	-200.000	-0.060	0.357
-562.544	-104.832	0.134	-0.031
-561.529	27.837	0.093	0.078
-560.515	-102.867	-0.172	-0.041
-559.500	171.820	0.037	0.053
-558.485	-21.372	-0.263	0.160
-557.471	-126.550	0.210	-0.031
-556.456	14.850	0.193	0.151
-555.442	97.685	0.061	0.071
-554.427	-200.000	-0.199	-0.000
-553.412	-123.331	0.106	-0.017
-552.398	-42.985	-0.223	-0.113
-551.383	76.146	0.115	0.122
-550.369	329.136	0.050	0.096
-549.354	-200.000	0.006	-0.235
-548.339	-133.318	-0.211	0.027
-547.325	-200.000	-0.003	-0.120
-546.310	5.653	0.138	0.102
-545.296	-21.611	0.375	-0.228
-544.281	-12.278	-0.179	0.117
-543.266	280.244	-0.047	0.085
-542.252	-109.452	-0.401	-0.085
-541.237	-19.085	-0.132	-0.082
-540.223	371.778	0.077	-0.157
-539.208	90.807	0.126	-0.141
-538.193	675.656	-0.111	-0.289
-537.179	-200.000	0.011	-0.209
-536.164	800.000	0.057	0.188
-535.150	13.546	0.217	0.168
-534.135	-93.458	0.111	0.031
-533.121	-200.000	0.068	-0.389
-532.106	523.146	-0.124	-0.291
-531.091	195.027	-0.135	-0.204
-530.077	-56.567	0.062	-0.028
-529.062	-200.000	0.009	0.141
-528.048	142.580	0.017	0.022
-527.033	231.485	-0.016	0.026
-526.018	-200.000	0.056	-0.320
-525.004	-27.360	0.144	-0.084
-523.989	-6.181	-0.089	0.060
-522.975	-79.407	-0.286	-0.097
-521.960	119.263	0.084	-0.104
-520.945	-93.571	0.159	0.044
-519.931	197.730	0.167	0.254
-518.916	-180.718	-0.090	0.002
-517.902	-124.854	-0.104	0.016
-516.887	-94.912	-0.163	0.044
-515.872	114.571	-0.145	-0.177
-514.858	-195.643	-0.437	0.003
-513.843	-200.000	-0.035	-0.232
-512.829	29.186	-0.265	0.224
-511.814	-200.000	-0.009	-0.077
-510.799	1.596	-0.373	-0.267
-509.785	-156.548	-0.056	-0.003
-508.770	-68.494	-0.144	0.056
-507.756	56.005	-0.342	-0.331
-506.741	170.780	-0.081	-0.115
-505.726	-200.000	0.005	-0.061
-504.712	-200.000	0.023	-0.229
-503.697	-91.659	0.151	-0.043
-502.683	26.432	-0.291	0.243
-501.668	-135.809	-0.112	0.013
-500.653	366.451	0.063	0.126
-499.639	-108.354	0.252	0.054
-498.624	-65.866	-0.241	0.096
-497.610	-200.000	0.059	-0.289
-496.595	-200.000	0.006	0.090
-495.581	-200.000	-0.190	0.000
-494.566	14.220	0.234	0.181
-493.551	-128.832	0.295	0.041
-492.537	-55.730	0.210	0.094
-491.522	107.730	0.238	-0.283
-490.508	337.092	-0.155	0.300
-489.493	-200.000	-0.037	0.216
-488.478	-200.000	0.024	0.284
-487.464	-24.429	-0.109	0.065
-486.449	302.023	0.155	0.285
-485.435	-76.876	0.206	0.072
-484.420	47.364	0.230	-0.213
-483.405	-200.000	0.010	0.392
-482.391	-173.669	0.131	0.004
-481.376	13.025	-0.179	0.138
-480.362	346.912	0.023	-0.046
-479.347	275.409	-0.103	-0.181
-478.332	128.470	-0.046	-0.058
-477.318	0.863	-0.180	0.129
-476.303	33.163	-0.056	-0.048
-475.289	120.512	-0.083	0.102
-474.274	20.265	-0.193	-0.155
-473.259	104.466	0.120	-0.141
-472.245	133.444	0.031	0.040
-471.230	-6.976	-0.246	0.166
-470.216	585.986	0.069	-0.170
-469.201	-38.870	0.201	-0.105
-468.186	-84.803	-0.104	-0.033
-467.172	-97.796	-0.236	-0.061
-466.157	40.353	0.112	0.100
-465.143	53.531	-0.083	-0.079
-464.128	-86.435	0.064	-0.020
-463.113	-200.000	-0.009	0.177
-462.099	800.000	-0.035	-0.130
-461.084	249.780	0.108	0.182
-460.070	106.176	-0.020	-0.024
-459.055	8.440	0.047	0.035
-458.040	38.940	-0.172	0.153
-457.026	-200.000	-0.018	0.151
-456.011	91.877	0.228	-0.255
-454.997	-105.096	-0.305	0.069
-453.982	-180.244	-0.343	0.007
-452.968	-88.056	0.323	-0.097
-451.953	239.098	0.143	0.236
-450.938	-200.000	0.015	0.117
-449.924	-74.550	-0.294	-0.105
-448.909	-143.411	-0.119	0.011
-447.895	82.726	0.090	-0.097
-446.880	800.000	-0.066	-0.242
-445.865	70.913	-0.095	0.098
-444.851	78.029	0.132	-0.140
-443.836	269.399	-0.083	0.145
-442.822	-0.177	0.211	0.149
-441.807	-64.370	-0.308	-0.125
-440.792	-100.856	0.261	0.064
-439.778	-33.972	0.060	-0.033
-438.763	44.456	-0.081	0.074
-437.749	163.150	-0.296	0.413
-436.734	97.665	-0.113	0.129
-435.719	88.213	-0.029	0.032
-434.705	-200.000	0.002	-0.048
-433.690	-200.000	0.051	-0.272
-432.676	184.969	-0.125	0.184
-431.661	335.489	0.280	-0.541
-430.646	268.517	-0.171	-0.298
-429.632	32.526	0.084	0.072
-428.617	-148.772	0.098	-0.008
-427.603	-200.000	0.018	-0.269
-426.588	-59.353	0.279	-0.119
-425.573	55.950	0.197	0.190
-424.559	-6.332	0.256	-0.174
-423.544	162.585	-0.045	-0.062
-422.530	800.000	-0.065	-0.248
-421.515	-200.000	0.046	-0.335
-420.500	-43.582	-0.072	-0.036
-419.486	157.201	-0.097	0.133
-418.471	-200.000	-0.010	0.099
-417.457	1.842	0.269	-0.193
-416.442	-98.103	0.248	0.063
-415.428	-82.941	0.154	0.049
-414.413	-162.912	-0.149	-0.007
-413.398	69.881	0.193	-0.197
-412.384	-175.295	-0.339	-0.009
-411.369	-108.659	0.174	0.037
-410.355	3.153	0.094	-0.068
-409.340	800.000	-0.050	-0.205
-408.325	800.000	0.137	0.403
-407.311	72.564	-0.063	0.066
-406.296	134.593	-0.022	0.028
-405.282	-61.178	-0.202	0.085
-404.267	-134.177	0.170	-0.021
-403.252	800.000	-0.022	0.090
-402.238	131.475	-0.018	0.023
-401.223	429.283	0.108	-0.232
-400.209	71.161	-0.055	0.056
-399.194	-35.916	0.221	0.119
-398.179	-17.128	-0.205	-0.129
-397.165	97.536	-0.099	0.112
-396.150	800.000	0.143	0.451
-395.136	800.000	-0.013	0.050
-394.121	-200.000	0.029	-0.350
-393.106	72.527	0.105	-0.108
-392.092	109.330	0.081	-0.096
-391.077	-19.022	-0.182	0.112
-390.063	-200.000	-0.025	0.207
-389.048	101.124	-0.122	0.141
-388.033	32.868	0.239	0.205
-387.019	-117.091	0.136	0.025
-386.004	371.064	0.105	0.211
-384.990	347.079	0.093	-0.182
-383.975	28.928	0.047	0.039
-382.960	-200.000	-0.038	0.196
-381.946	85.097	0.206	-0.224
-380.931	-200.000	0.030	-0.163
-379.917	-126.037	-0.181	-0.027
-378.902	113.808	-0.159	-0.192
-377.888	800.000	-0.038	-0.157
-376.873	425.023	0.067	0.144
-375.858	-46.568	0.040	-0.020
-374.844	-138.018	-0.086	0.010
-373.829	98.411	0.061	-0.070
-372.815	-200.000	0.019	-0.191
-371.800	20.534	0.147	0.118
-370.785	135.239	-0.213	-0.274
-369.771	-19.349	0.260	-0.160
-368.756	-41.515	-0.108	0.055
-367.742	-109.164	-0.326	0.069
-366.727	-134.447	-0.168	0.020
-365.712	88.610	-0.285	-0.314
-364.698	26.360	-0.122	-0.101
-363.683	651.994	0.072	0.183
-362.669	-100.385	0.167	-0.041
-361.654	800.000	0.040	0.140
-360.639	-200.000	0.040	0.235
-359.625	-81.273	-0.373	0.122
-358.610	-92.735	0.171	-0.047
-357.596	-200.000	0.060	-0.291
-356.581	-58.923	-0.116	-0.050
-355.566	-17.850	0.097	-0.060
-354.552	-137.826	0.145	0.016
-353.537	-200.000	0.025	0.162
-352.523	-200.000	0.045	-0.224
-351.508	-63.685	-0.176	0.072
-350.493	95.005	-0.039	0.044
-349.479	-107.804	0.185	0.040
-348.464	143.533	0.086	0.114
-347.450	318.112	0.126	-0.235
-346.435	109.677	0.244	-0.290
-345.420	120.848	-0.109	0.135
-344.406	-87.622	0.561	0.168
-343.391	800.000	-0.058	0.162
-342.377	376.364	-0.145	0.293
-341.362	800.000	0.103	0.415
-340.348	-200.000	0.012	0.090
-339.333	-158.447	-0.226	-0.013
-338.318	719.613	-0.029	-0.077
-337.304	127.021	-0.068	-0.086
-336.289	-77.505	-0.165	0.057
-335.275	-55.188	-0.294	-0.131
-334.260	310.170	0.144	0.267
-333.245	3.768	0.066	0.048
-332.231	-115.648	0.219	-0.041
-331.216	155.952	-0.064	0.088
-330.202	-4.131	0.122	-0.083
-329.187	311.428	-0.093	0.172
-328.172	800.000	-0.097	0.299
-327.158	64.276	-0.280	0.279
-326.143	-200.000	0.000	0.031
-325.129	35.978	0.200	-0.175
-324.114	-200.000	0.031	0.252
-323.099	171.247	0.094	0.134
-322.085	234.509	0.207	0.338
-321.070	-200.000	-0.019	0.284
-320.056	-66.548	0.034	0.013
-319.041	-200.000	0.030	-0.258
-318.026	-148.742	0.081	-0.006
-317.012	50.332	0.224	0.209
-315.997	-68.977	0.403	-0.154
-314.983	800.000	-0.052	0.199
-313.968	-200.000	0.032	-0.232
-312.953	-133.746	-0.212	-0.026
-311.939	-200.000	0.034	0.233
-310.924	212.068	-0.211	-0.330
-309.910	229.568	-0.078	0.125
-308.895	90.092	-0.083	0.091
-307.880	-59.088	-0.414	-0.177
-306.866	88.401	-0.072	-0.079
-305.851	131.323	0.152	0.193
-304.837	32.945	0.090	-0.077
-303.822	34.313	-0.065	-0.056
-302.807	-55.133	0.169	-0.075
-301.793	17.525	0.196	0.154
-300.778	800.000	0.096	0.337
-299.764	162.021	0.037	0.051
-298.749	-8.287	-0.204	-0.136
-297.735	-200.000	-0.057	-0.360
-296.720	190.359	0.071	-0.105
-295.705	-200.000	-0.024	-0.195
-294.691	-153.440	0.484	0.033
-293.676	200.920	-0.072	-0.110
-292.662	99.676	0.068	-0.078
-291.647	-108.493	0.039	0.008
-290.632	89.071	-0.129	-0.142
-289.618	-34.495	0.265	-0.144
-288.603	-17.790	-0.222	0.138
-287.589	277.692	0.107	-0.188
-286.574	14.223	0.178	0.137
-285.559	651.811	-0.142	0.360
-284.545	403.280	-0.088	-0.183
-283.530	-200.000	-0.016	0.090
-282.516	-83.176	-0.039	-0.012
-281.501	-9.811	0.067	-0.044
-280.486	800.000	0.008	-0.034
-279.472	-135.988	-0.177	0.021
-278.457	226.343	0.158	0.253
-277.443	413.742	-0.156	-0.329
-276.428	-136.342	-0.282	-0.032
-275.413	-200.000	0.013	0.169
-274.399	420.529	0.127	0.269
-273.384	240.534	0.129	0.212
-272.370	128.157	0.209	-0.262
-271.355	-200.000	0.056	-0.313
-270.340	-100.187	0.335	0.082
-269.326	608.024	-0.056	-0.138
-268.311	-75.161	0.224	-0.079
-267.297	-200.000	0.051	0.351
-266.282	800.000	0.123	0.363
-265.267	97.325	-0.147	-0.167
-264.253	470.011	-0.050	-0.110
-263.238	165.965	0.232	-0.325
-262.224	-100.146	0.284	-0.070
-261.209	-78.793	-0.520	-0.175
-260.195	-14.946	0.131	0.083
-259.180	654.579	0.111	0.281
-258.165	800.000	0.145	0.465
-257.151	154.325	-0.167	-0.226
-256.136	-146.645	-0.249	0.021
-255.122	-84.076	0.446	-0.140
-254.107	66.689	-0.133	0.133
-253.092	-200.000	-0.022	-0.348
-252.078	-107.410	-0.093	0.020
-251.063	-22.260	-0.030	-0.018
-250.049	575.920	-0.069	0.167
-249.034	163.528	-0.077	-0.107
-248.019	54.282	0.169	0.160
-247.005	-25.061	-0.175	-0.102
-245.990	-191.893	0.039	0.000
-244.976	107.627	0.017	-0.020
-243.961	-60.285	-0.212	-0.089
-242.946	-200.000	0.005	0.586
-241.932	144.114	0.087	-0.114
-240.917	125.585	-0.162	0.202
-239.903	-88.926	0.105	0.031
-238.888	57.632	0.247	-0.238
-237.873	800.000	-0.114	0.368
-236.859	-63.618	-0.239	0.097
-235.844	54.211	-0.179	-0.170
-234.830	-146.644	-0.132	0.011
-233.815	-200.000	0.027	-0.157
-232.800	5.896	0.061	0.044
-231.786	-21.844	0.286	-0.171
-230.771	-200.000	0.064	0.342
-229.757	-200.000	0.090	0.458
-228.742	-31.029	-0.223	0.124
-227.727	1.863	0.141	0.100
-226.713	-61.678	-0.135	0.056
-225.698	800.000	-0.033	-0.121
-224.684	143.886	-0.205	-0.270
-223.669	-200.000	-0.003	-0.081
-222.655	-63.068	-0.376	0.153
-221.640	-158.135	0.536	0.031
-220.625	266.698	0.107	0.185
-219.611	-57.593	-0.283	-0.122
-218.596	-200.000	-0.002	-0.067
-217.582	-134.228	-0.379	-0.046
-216.567	-69.423	0.101	-0.038
-215.552	800.000	-0.055	0.173
-214.538	120.968	0.194	0.238
-213.523	-200.000	0.022	-0.145
-212.509	722.179	0.063	0.166
-211.494	-200.000	-0.022	0.243
-210.479	-173.913	0.044	-0.001
-209.465	42.859	-0.162	-0.145
-208.450	96.489	-0.268	-0.302
-207.436	93.903	0.079	-0.088
-206.421	749.772	-0.081	0.214
-205.406	17.404	-0.128	-0.100
-204.392	54.171	-0.125	0.118
-203.377	800.000	-0.134	-0.428
-202.363	343.261	0.067	0.129
-201.348	800.000	-0.139	0.379
-200.333	-1.648	-0.053	-0.036
-199.319	-117.024	-0.108	-0.019
-198.304	-125.003	-0.496	0.075
-197.290	512.133	0.090	-0.206
-196.275	0.455	0.082	0.057
-195.260	-52.468	-0.138	0.063
-194.246	800.000	0.035	0.101
-193.231	-200.000	0.006	-0.129
-192.217	596.511	-0.118	0.288
-191.202	-28.882	0.320	-0.181
-190.187	-200.000	0.021	0.215
-189.173	-27.110	-0.106	-0.061
-188.158	271.829	0.079	0.137
-187.144	-200.000	0.010	-0.216
-186.129	93.297	0.249	0.277
-185.114	366.887	0.170	-0.338
-184.100	-111.369	0.206	-0.041
-183.085	800.000	-0.011	0.044
-182.071	480.681	0.048	-0.108
-181.056	283.767	0.097	-0.171
-180.042	-0.877	0.325	-0.226
-179.027	-16.344	0.373	-0.233
-178.012	-33.013	0.136	-0.074
-176.998	-32.797	-0.379	0.207
-175.983	24.708	0.276	0.225
-174.969	-63.281	-0.113	0.046
-173.954	-200.000	-0.028	-0.472
-172.939	286.509	-0.070	-0.125
-171.925	-51.846	0.220	0.101
-170.910	-200.000	-0.020	0.242
-169.896	800.000	0.076	-0.254
-168.881	13.024	0.165	-0.125
-167.866	-101.446	0.074	0.018
-166.852	-174.523	0.066	0.002
-165.837	-65.212	-0.252	-0.100
-164.823	18.882	0.213	0.168
-163.808	-200.000	0.060	0.291
-162.793	-63.155	0.213	0.086
-161.779	-200.000	-0.036	0.191
-160.764	-107.266	0.027	-0.006
-159.750	240.544	0.155	0.254
-158.735	339.610	0.081	0.156
-157.720	-60.251	-0.145	0.061
-156.706	-31.261	0.319	0.177
-155.691	53.101	-0.303	-0.285
-154.677	-127.304	0.496	-0.071
-153.662	800.000	-0.096	-0.263
-152.647	-52.882	-0.305	-0.138
-151.633	141.055	-0.066	0.086
-150.618	86.545	-0.135	0.147
-149.604	590.497	-0.020	0.049
-148.589	-25.965	-0.102	-0.059
-147.574	-200.000	0.000	0.049
-146.560	-141.555	-0.076	-0.007
-145.545	101.362	-0.178	-0.204
-144.531	205.557	-0.100	-0.153
-143.516	-200.000	-0.017	-0.137
-142.502	-51.539	-0.068	0.031
-141.487	-99.861	0.333	-0.082
-140.472	-58.103	0.255	-0.109
-139.458	-26.683	-0.234	-0.134
-138.443	102.278	0.203	-0.234
-137.429	118.275	0.164	-0.198
-136.414	-200.000	0.025	-0.338
-135.399	-200.000	0.070	-0.323
-134.385	17.533	0.091	0.071
-133.370	215.197	-0.011	-0.016
-132.356	-78.546	0.158	-0.053
-131.341	800.000	0.051	-0.144
-130.326	72.331	0.158	0.162
-129.312	-56.823	0.377	0.164
-128.297	800.000	-0.101	-0.320
-127.283	50.181	0.067	0.062
-126.268	421.204	0.037	-0.079
-125.253	725.692	0.127	-0.334
-124.239	-197.296	0.444	0.003
-123.224	342.485	0.193	0.372
-122.210	76.603	0.392	0.408
-121.195	-200.000	-0.016	-0.088
-120.180	-62.185	0.394	-0.161
