DTS Sentinel unit serial number:	SN413079Multiplexer serial number:	ORYXHardware model number:	OX4-SRSoftware version number:	ORYX F/W v4.00 Oryx Data Collector v3.7.2.0data status	okinstallation	princeton_trtdifferential loss correction	single-endedforward channel	channel 1reverse channel	N/Adate	2019/09/15time	13:38:35forward acquisition time	60.00reverse acquisition time	0.00gamma	496.2192k internal	0.2293k external	0.2293temperature offset calibration	0.9965default loss term (dB/km)	0.3790temperature slope calibration	1.0000multiplexer offset coefficient	1.0000multiplexer slope coefficient	1.0000fibre end	0.00T internal ref (°C)	37.81T ext. ref 1 (°C)	4.84T ext. ref 2 (°C)	34.90length (m)	temperature (°C)	Stokes	anti-Stokes-747.200	800.000	0.152	-0.479
-746.185	-54.081	0.024	0.011
-745.171	92.020	-0.111	-0.128
-744.156	-200.000	-0.045	0.402
-743.142	40.839	0.168	-0.155
-742.127	-44.336	-0.099	0.051
-741.112	146.194	0.058	0.080
-740.098	-118.561	-0.411	-0.074
-739.083	109.190	-0.046	0.056
-738.069	-43.149	-0.058	-0.030
-737.054	-112.486	0.110	-0.022
-736.039	435.102	0.076	-0.170
-735.025	-28.968	0.039	-0.023
-734.010	-79.541	-0.169	-0.059
-732.996	5.624	-0.082	-0.062
-731.981	10.358	-0.252	0.196
-730.966	-51.291	0.238	-0.114
-729.952	524.265	0.051	-0.122
-728.937	533.843	-0.077	-0.186
-727.923	800.000	0.050	0.186
-726.908	167.244	-0.059	0.085
-725.894	-106.025	-0.501	-0.115
-724.879	800.000	-0.077	-0.273
-723.864	-174.046	0.188	0.006
-722.850	459.249	-0.135	0.307
-721.835	-196.801	-0.284	0.002
-720.821	478.336	0.004	-0.010
-719.806	-134.636	-0.209	-0.026
-718.791	-114.481	-0.371	-0.073
-717.777	-176.078	0.210	-0.006
-716.762	-26.892	0.065	-0.039
-715.748	-36.036	0.305	-0.169
-714.733	-200.000	-0.023	0.198
-713.718	-14.821	-0.343	-0.225
-712.704	-143.481	-0.077	0.008
-711.689	-200.000	0.009	-0.216
-710.675	-12.637	-0.112	-0.074
-709.660	-69.874	-0.133	-0.052
-708.645	-200.000	0.005	0.063
-707.631	93.260	0.042	0.049
-706.616	38.502	0.228	0.208
-705.602	-200.000	0.023	-0.162
-704.587	-200.000	0.006	-0.351
-703.572	-43.064	0.219	0.114
-702.558	-112.467	-0.368	-0.075
-701.543	-200.000	-0.055	-0.289
-700.529	-24.258	-0.177	0.108
-699.514	-200.000	0.012	0.166
-698.499	665.313	-0.087	0.230
-697.485	428.652	-0.152	-0.336
-696.470	152.816	-0.126	-0.176
-695.456	-200.000	-0.003	-0.351
-694.441	-200.000	-0.005	-0.259
-693.426	-14.036	-0.308	0.203
-692.412	-101.726	-0.112	-0.028
-691.397	316.406	-0.048	0.093
-690.383	-200.000	0.009	0.157
-689.368	-33.318	0.107	0.061
-688.354	139.587	0.128	0.173
-687.339	-35.263	0.148	0.082
-686.324	-97.151	-0.066	0.018
-685.310	-135.568	0.437	-0.053
-684.295	30.454	-0.147	-0.128
-683.281	-140.420	-0.357	0.038
-682.266	-200.000	-0.013	0.063
-681.251	-70.476	-0.189	0.073
-680.237	-59.373	-0.481	-0.211
-679.222	59.850	0.175	0.177
-678.208	282.188	-0.105	0.192
-677.193	-200.000	-0.067	0.317
-676.178	478.988	-0.085	-0.197
-675.164	-52.524	0.269	-0.127
-674.149	84.095	0.085	-0.095
-673.135	-154.399	0.279	0.019
-672.120	800.000	0.084	-0.297
-671.105	-19.113	-0.231	-0.146
-670.091	418.569	-0.054	-0.117
-669.076	81.650	-0.064	0.071
-668.062	-200.000	0.017	0.182
-667.047	-176.674	-0.204	0.005
-666.032	87.067	0.169	-0.191
-665.018	173.773	-0.047	0.070
-664.003	-72.739	0.168	0.063
-662.989	800.000	-0.054	-0.201
-661.974	800.000	-0.008	-0.024
-660.959	-58.399	0.129	-0.057
-659.945	-67.450	-0.189	-0.076
-658.930	-8.259	-0.076	0.052
-657.916	60.734	0.233	-0.235
-656.901	-6.926	-0.202	0.140
-655.886	2.301	-0.153	0.113
-654.872	32.513	0.245	0.216
-653.857	-65.088	-0.314	-0.129
-652.843	539.696	0.165	-0.399
-651.828	-53.601	-0.113	-0.052
-650.814	-41.218	0.089	0.047
-649.799	-200.000	0.002	-0.187
-648.784	-43.489	0.009	0.005
-647.770	-200.000	-0.008	0.106
-646.755	536.896	0.072	-0.174
-645.741	-132.224	-0.111	0.015
-644.726	236.387	-0.156	0.264
-643.711	589.006	-0.020	0.049
-642.697	-101.624	0.654	0.162
-641.682	358.380	-0.172	0.351
-640.668	-200.000	0.006	0.042
-639.653	-14.782	-0.026	-0.017
-638.638	-183.776	0.207	-0.004
-637.624	73.196	0.279	-0.297
-636.609	-99.341	-0.408	-0.105
-635.595	6.231	0.159	0.120
-634.580	85.181	-0.076	-0.085
-633.565	-200.000	-0.001	-0.107
-632.551	-136.318	0.384	-0.046
-631.536	32.450	0.140	0.123
-630.522	-115.703	0.371	-0.071
-629.507	-200.000	0.043	-0.194
-628.492	-89.470	-0.169	-0.051
-627.478	31.483	0.148	0.129
-626.463	104.352	-0.052	0.062
-625.449	800.000	-0.102	-0.334
-624.434	15.136	0.116	-0.093
-623.419	-139.733	-0.201	0.022
-622.405	-14.976	-0.227	0.148
-621.390	-9.325	0.093	0.063
-620.376	800.000	-0.034	-0.108
-619.361	800.000	0.047	-0.149
-618.346	111.942	-0.191	-0.234
-617.332	800.000	0.024	-0.097
-616.317	410.754	-0.194	-0.419
-615.303	72.610	-0.163	-0.173
-614.288	-200.000	0.005	0.069
-613.273	-117.326	0.314	-0.058
-612.259	-91.769	-0.042	0.012
-611.244	-145.573	-0.549	0.050
-610.230	-200.000	0.004	-0.180
-609.215	-200.000	-0.003	0.148
-608.201	355.758	0.083	-0.168
-607.186	-11.159	-0.196	0.131
-606.171	800.000	0.069	0.273
-605.157	-200.000	-0.063	-0.335
-604.142	-200.000	-0.031	0.179
-603.128	-51.404	0.374	0.178
-602.113	-200.000	0.001	-0.315
-601.098	-105.166	-0.279	0.065
-600.084	13.553	0.351	-0.277
-599.069	-56.771	0.505	0.227
-598.055	-105.615	-0.140	-0.032
-597.040	144.322	-0.101	0.137
-596.025	-200.000	0.024	0.182
-595.011	-12.421	0.313	-0.208
-593.996	58.190	0.093	0.092
-592.982	9.166	0.269	-0.207
-591.967	244.975	-0.069	0.119
-590.952	-62.563	-0.349	0.147
-589.938	-200.000	0.001	0.085
-588.923	-122.450	-0.287	0.048
-587.909	377.229	-0.070	0.146
-586.894	-135.097	-0.179	-0.022
-585.879	-200.000	-0.071	0.000
-584.865	69.739	0.260	0.272
-583.850	-58.310	-0.213	-0.094
-582.836	-200.000	-0.125	-0.000
-581.821	-9.695	0.273	0.185
-580.806	-200.000	-0.003	0.067
-579.792	24.759	0.208	0.175
-578.777	257.339	-0.084	0.146
-577.763	289.979	-0.186	-0.344
-576.748	800.000	0.041	-0.150
-575.733	-200.000	-0.026	0.132
-574.719	-200.000	-0.002	0.307
-573.704	-62.826	-0.356	0.150
-572.690	27.925	-0.095	0.082
-571.675	247.344	0.269	0.462
-570.661	-91.978	-0.185	-0.053
-569.646	-200.000	0.081	-0.514
-568.631	-20.833	-0.318	-0.198
-567.617	-56.092	0.056	-0.025
-566.602	-139.079	-0.330	0.036
-565.588	11.921	-0.228	-0.178
-564.573	-119.030	0.076	0.014
-563.558	82.483	-0.153	0.168
-562.544	-200.000	-0.024	-0.201
-561.529	-163.247	0.037	-0.002
-560.515	-189.088	-0.128	-0.002
-559.500	-132.525	-0.228	0.030
-558.485	800.000	0.052	-0.170
-557.471	504.685	-0.023	-0.054
-556.456	-86.152	-0.199	0.062
-555.442	657.174	0.125	0.327
-554.427	-200.000	-0.020	-0.099
-553.412	102.372	0.205	0.243
-552.398	495.522	-0.091	0.212
-551.383	20.522	-0.109	0.089
-550.369	-115.909	0.183	-0.035
-549.354	61.038	-0.095	-0.095
-548.339	36.148	-0.136	0.122
-547.325	323.624	-0.165	-0.319
-546.310	-26.885	-0.142	-0.084
-545.296	-200.000	0.007	-0.077
-544.281	-111.635	-0.293	0.060
-543.266	68.049	-0.183	0.190
-542.252	175.578	-0.119	0.176
-541.237	-58.359	0.089	0.039
-540.223	-23.583	0.242	0.147
-539.208	-200.000	-0.024	0.129
-538.193	800.000	-0.036	-0.145
-537.179	-137.166	0.292	0.034
-536.164	-1.707	0.110	0.078
-535.150	204.118	0.115	0.182
-534.135	-36.595	0.408	-0.223
-533.121	-200.000	-0.019	0.179
-532.106	-200.000	-0.014	0.115
-531.091	-160.435	-0.256	0.014
-530.077	401.273	-0.130	0.276
-529.062	-116.952	0.323	0.060
-528.048	800.000	-0.040	-0.155
-527.033	-200.000	0.005	-0.105
-526.018	-200.000	-0.066	-0.343
-525.004	-200.000	0.013	-0.102
-523.989	3.652	-0.174	-0.128
-522.975	142.693	-0.197	-0.265
-521.960	92.760	-0.189	-0.217
-520.945	153.168	-0.138	0.191
-519.931	-200.000	-0.028	0.351
-518.916	17.900	0.050	-0.040
-517.902	693.698	-0.083	0.220
-516.887	-195.390	-0.042	-0.000
-515.872	-186.106	-0.014	-0.000
-514.858	-94.795	0.229	0.063
-513.843	140.415	-0.155	-0.208
-512.829	-8.122	0.164	-0.112
-511.814	-69.909	0.080	-0.031
-510.799	418.399	0.120	-0.260
-509.785	242.103	0.062	-0.106
-508.770	-129.823	-0.197	0.027
-507.756	-200.000	-0.018	0.318
-506.741	-200.000	-0.040	0.323
-505.726	295.046	0.070	0.130
-504.712	299.093	-0.114	0.214
-503.697	589.465	-0.054	-0.136
-502.683	-7.478	-0.385	-0.264
-501.668	-115.181	-0.294	0.056
-500.653	800.000	-0.096	-0.310
-499.639	-108.559	-0.377	-0.082
-498.624	-191.022	-0.086	-0.001
-497.610	-134.765	-0.313	-0.039
-496.595	-200.000	-0.063	0.512
-495.581	800.000	-0.093	0.263
-494.566	-119.399	0.226	-0.040
-493.551	49.340	0.158	-0.151
-492.537	-103.065	0.236	0.057
-491.522	10.875	-0.363	0.281
-490.508	83.540	0.248	0.274
-489.493	-165.774	0.202	0.009
-488.478	381.037	0.113	0.236
-487.464	-200.000	0.019	-0.084
-486.449	338.197	-0.125	0.246
-485.435	520.351	-0.107	0.253
-484.420	-123.112	0.078	-0.013
-483.405	433.230	0.096	-0.211
-482.391	-85.467	-0.256	-0.081
-481.376	28.921	-0.236	-0.202
-480.362	-171.314	0.139	0.005
-479.347	-99.506	-0.035	-0.009
-478.332	800.000	-0.060	-0.173
-477.318	-159.509	-0.049	0.003
-476.303	-51.933	0.333	0.157
-475.289	16.400	-0.194	-0.155
-474.274	462.593	0.010	-0.022
-473.259	-61.728	-0.046	0.020
-472.245	-200.000	-0.012	-0.126
-471.230	222.715	-0.128	0.209
-470.216	-96.935	-0.189	-0.050
-469.201	80.993	0.270	-0.295
-468.186	-158.278	0.254	0.015
-467.172	46.459	-0.112	-0.105
-466.157	717.088	-0.059	0.157
-465.143	-136.047	0.157	-0.019
-464.128	-200.000	0.023	-0.118
-463.113	-200.000	0.016	-0.214
-462.099	278.111	-0.120	-0.215
-461.084	95.029	-0.067	0.077
-460.070	-98.262	0.178	0.046
-459.055	188.834	0.073	-0.111
-458.040	188.062	0.058	0.088
-457.026	-141.993	0.197	0.020
-456.011	39.321	0.291	0.264
-454.997	-13.652	0.175	0.114
-453.982	-171.816	-0.453	-0.015
-452.968	384.090	-0.066	0.137
-451.953	800.000	-0.142	-0.444
-450.938	-94.178	-0.458	-0.127
-449.924	12.208	0.074	-0.057
-448.909	-53.965	-0.120	-0.055
-447.895	-58.898	-0.154	-0.067
-446.880	-200.000	0.025	-0.266
-445.865	-19.308	0.076	0.047
-444.851	103.480	-0.167	0.198
-443.836	-200.000	0.001	0.072
-442.822	-200.000	-0.020	0.279
-441.807	378.822	0.075	0.155
-440.792	94.331	-0.304	-0.349
-439.778	507.236	-0.117	0.274
-438.763	30.748	0.195	0.169
-437.749	-200.000	-0.305	0.000
-436.734	-144.543	0.277	0.026
-435.719	-90.261	0.083	0.024
-434.705	-5.121	-0.145	-0.101
-433.690	152.260	0.018	0.025
-432.676	800.000	-0.012	-0.039
-431.661	329.577	0.116	0.226
-430.646	216.209	0.082	-0.131
-429.632	800.000	0.059	0.189
-428.617	800.000	0.070	-0.208
-427.603	800.000	-0.128	-0.376
-426.588	-72.454	0.108	0.040
-425.573	-6.971	0.342	0.235
-424.559	-200.000	0.002	-0.154
-423.544	-71.953	0.164	0.062
-422.530	204.270	0.194	0.303
-421.515	304.770	0.068	-0.127
-420.500	76.579	0.037	0.040
-419.486	48.924	-0.256	0.243
-418.471	176.802	-0.114	0.167
-417.457	-63.026	-0.228	-0.095
-416.442	-200.000	0.009	0.198
-415.428	-200.000	-0.023	0.175
-414.413	-147.356	-0.166	0.014
-413.398	28.276	0.262	0.223
-412.384	-133.740	0.340	0.043
-411.369	-132.065	-0.140	0.018
-410.355	533.832	-0.023	-0.055
-409.340	800.000	-0.020	-0.087
-408.325	230.636	-0.127	-0.209
-407.311	7.698	0.086	-0.065
-406.296	-200.000	-0.014	-0.114
-405.282	-171.601	-0.307	-0.010
-404.267	-111.660	0.565	0.116
-403.252	17.253	0.030	-0.024
-402.238	-166.901	-0.184	-0.008
-401.223	32.360	-0.171	-0.149
-400.209	-127.456	0.056	0.008
-399.194	-17.223	0.115	-0.073
-398.179	68.484	0.093	-0.096
-397.165	50.249	-0.061	-0.058
-396.150	-200.000	-0.040	-0.281
-395.136	-200.000	0.086	-0.408
-394.121	220.819	0.085	-0.138
-393.106	-200.000	-0.039	-0.246
-392.092	717.727	0.124	-0.332
-391.077	-11.146	-0.144	-0.096
-390.063	84.370	-0.059	0.065
-389.048	11.523	0.102	-0.079
-388.033	-200.000	-0.063	-0.562
-387.019	674.016	-0.049	-0.129
-386.004	-200.000	-0.024	0.245
-384.990	-2.232	0.298	0.211
-383.975	-53.254	0.101	-0.047
-382.960	265.205	0.129	-0.228
-381.946	108.166	0.275	0.331
-380.931	-99.555	0.464	0.118
-379.917	-77.053	-0.181	-0.064
-378.902	-38.866	0.180	-0.096
-377.888	-119.433	0.218	0.038
-376.873	-44.556	-0.189	0.095
-375.858	340.775	0.047	-0.092
-374.844	13.932	-0.223	-0.175
-373.829	53.742	-0.094	-0.091
-372.815	-200.000	0.021	0.199
-371.800	-51.152	-0.402	0.190
-370.785	-7.733	0.091	-0.062
-369.771	800.000	-0.122	-0.502
-368.756	36.325	-0.043	0.038
-367.742	-109.981	0.176	-0.037
-366.727	-64.467	-0.265	-0.108
-365.712	0.508	0.171	0.123
-364.698	-200.000	0.031	-0.140
-363.683	800.000	-0.077	0.248
-362.669	-61.584	-0.195	0.083
-361.654	-200.000	-0.002	0.286
-360.639	800.000	-0.016	0.060
-359.625	-7.208	0.128	-0.087
-358.610	93.676	-0.124	-0.141
-357.596	-200.000	0.005	0.192
-356.581	-64.923	0.288	-0.117
-355.566	-78.455	-0.393	0.136
-354.552	-200.000	-0.005	0.490
-353.537	-200.000	-0.016	-0.325
-352.523	49.337	0.082	0.078
-351.508	-181.025	-0.268	0.005
-350.493	-139.673	0.348	-0.037
-349.479	346.189	0.107	-0.213
-348.464	-200.000	0.008	0.050
-347.450	-74.262	0.096	-0.035
-346.435	132.682	-0.089	0.116
-345.420	-100.587	-0.246	-0.061
-344.406	-99.491	-0.233	-0.059
-343.391	-77.467	0.183	-0.064
-342.377	64.430	0.073	-0.074
-341.362	73.561	-0.081	-0.086
-340.348	-97.237	0.326	0.086
-339.333	-200.000	-0.017	0.150
-338.318	21.432	0.248	0.203
-337.304	103.379	0.092	-0.108
-336.289	188.441	0.098	-0.148
-335.275	-129.437	-0.063	0.009
-334.260	651.124	0.032	0.083
-333.245	-60.021	0.216	0.093
-332.231	-200.000	0.009	0.306
-331.216	-160.129	0.268	0.015
-330.202	38.497	-0.232	0.208
-329.187	-87.070	0.135	-0.041
-328.172	302.712	-0.057	-0.105
-327.158	-158.287	-0.042	-0.002
-326.143	35.365	0.203	0.179
-325.129	-2.250	0.068	0.048
-324.114	736.326	0.056	0.151
-323.099	229.012	-0.113	0.186
-322.085	56.290	-0.008	0.008
-321.070	-88.690	-0.282	-0.084
-320.056	238.277	-0.065	-0.109
-319.041	800.000	0.082	-0.357
-318.026	800.000	-0.032	0.106
-317.012	-41.655	0.090	0.047
-315.997	-75.550	0.216	0.077
-314.983	-61.984	-0.390	0.164
-313.968	185.804	-0.102	0.153
-312.953	113.583	0.049	-0.060
-311.939	-200.000	0.009	-0.101
-310.924	792.124	0.088	0.245
-309.910	-93.437	0.199	0.056
-308.895	310.483	-0.110	0.207
-307.880	-200.000	0.035	-0.185
-306.866	-200.000	0.007	-0.086
-305.851	36.777	0.098	-0.087
-304.837	-96.392	0.224	0.060
-303.822	48.971	0.186	-0.175
-302.807	-200.000	-0.010	-0.196
-301.793	-200.000	0.008	-0.321
-300.778	259.470	-0.099	0.172
-299.764	-26.958	0.172	0.101
-298.749	-156.392	-0.129	-0.008
-297.735	800.000	-0.032	0.135
-296.720	-124.158	0.553	-0.087
-295.705	-144.272	-0.160	-0.015
-294.691	800.000	-0.043	0.131
-293.676	23.535	-0.204	-0.169
-292.662	5.508	0.193	0.143
-291.647	78.405	-0.179	-0.193
-290.632	219.257	0.134	-0.215
-289.618	174.670	0.111	0.162
-288.603	108.955	0.213	-0.255
-287.589	69.833	0.234	-0.243
-286.574	-146.589	0.219	0.019
-285.559	-3.718	-0.060	-0.042
-284.545	-122.678	-0.233	-0.038
-283.530	800.000	-0.035	0.104
-282.516	-200.000	-0.023	0.152
-281.501	-200.000	-0.008	0.144
-280.486	-24.023	0.284	-0.171
-279.472	-88.023	-0.231	0.070
-278.457	208.849	0.107	0.168
-277.443	-200.000	-0.022	-0.145
-276.428	800.000	-0.079	0.299
-275.413	-114.056	0.062	0.012
-274.399	-71.879	0.134	0.050
-273.384	41.351	0.245	-0.222
-272.370	166.112	-0.212	0.301
-271.355	461.691	-0.088	-0.198
-270.340	50.412	0.173	0.165
-269.326	-47.802	0.272	0.132
-268.311	313.830	-0.172	-0.326
-267.297	137.588	0.093	-0.122
-266.282	73.873	0.062	0.065
-265.267	-174.329	-0.210	-0.006
-264.253	464.773	-0.040	0.090
-263.238	-68.752	-0.108	0.042
-262.224	-6.593	0.102	-0.070
-261.209	-135.066	0.046	-0.006
-260.195	70.193	0.076	-0.079
-259.180	179.273	-0.149	0.219
-258.165	800.000	-0.044	-0.189
-257.151	-200.000	0.035	-0.250
-256.136	-66.524	0.182	-0.072
-255.122	800.000	0.097	0.290
-254.107	-47.907	-0.096	0.047
-253.092	-132.968	-0.411	-0.052
-252.078	-112.691	0.171	-0.034
-251.063	800.000	-0.056	0.166
-250.049	2.753	-0.224	-0.163
-249.034	-59.936	-0.310	-0.133
-248.019	-200.000	0.025	0.378
-247.005	800.000	0.030	-0.094
-245.990	-130.247	-0.118	0.016
-244.976	62.859	0.075	0.076
-243.961	-110.850	-0.160	-0.033
-242.946	100.462	0.134	-0.156
-241.932	55.051	-0.111	-0.107
-240.917	-128.732	0.043	0.006
-239.903	-109.080	0.375	0.080
-238.888	-94.984	0.392	-0.106
-237.873	41.048	-0.408	-0.370
-236.859	102.813	0.127	-0.149
-235.844	-200.000	0.042	-0.248
-234.830	121.461	-0.015	-0.019
-233.815	800.000	0.035	-0.117
-232.800	-129.321	0.105	0.015
-231.786	-200.000	-0.011	-0.097
-230.771	671.262	-0.077	-0.200
-229.757	-80.455	0.236	-0.079
-228.742	5.756	-0.100	0.074
-227.727	656.464	-0.105	0.271
-226.713	-200.000	-0.022	-0.192
-225.698	-105.753	0.182	0.041
-224.684	257.004	0.176	0.303
-223.669	800.000	-0.112	0.317
-222.655	-89.174	0.315	-0.093
-221.640	800.000	0.028	0.104
-220.625	-0.256	0.107	-0.076
-219.611	800.000	0.015	-0.064
-218.596	146.491	-0.120	0.162
-217.582	-35.724	0.181	-0.098
-216.567	118.283	-0.118	-0.145
-215.552	474.982	0.104	0.235
-214.538	269.401	-0.145	0.255
-213.523	-140.611	0.305	-0.032
-212.509	78.529	0.207	0.222
-211.494	414.360	-0.094	0.201
-210.479	75.586	-0.064	-0.068
-209.465	800.000	-0.150	0.483
-208.450	-200.000	-0.023	-0.148
-207.436	40.118	0.297	0.268
-206.421	47.358	-0.118	-0.110
-205.406	-200.000	-0.011	-0.101
-204.392	51.861	-0.183	0.174
-203.377	-80.574	0.164	0.055
-202.363	176.491	-0.283	-0.413
-201.348	-107.185	0.418	-0.092
-200.333	-36.153	0.488	0.264
-199.319	-29.129	-0.237	-0.136
-198.304	1.340	-0.211	-0.152
-197.290	-52.415	0.127	0.059
-196.275	-200.000	-0.029	0.343
-195.260	-119.532	-0.050	0.009
-194.246	-125.009	0.214	0.033
-193.231	16.432	-0.091	-0.072
-192.217	490.153	-0.261	-0.599
-191.202	-116.912	0.271	0.050
-190.187	191.063	0.090	-0.135
-189.173	-173.776	-0.108	0.003
-188.158	-81.778	-0.300	-0.099
-187.144	-200.000	0.016	-0.151
-186.129	188.664	-0.102	-0.153
-185.114	800.000	-0.037	0.138
-184.100	381.971	-0.081	-0.167
-183.085	386.899	-0.026	0.053
-182.071	7.513	-0.406	0.304
-181.056	9.990	-0.235	0.179
-180.042	146.235	0.035	-0.047
-179.027	-200.000	0.034	0.162
-178.012	-101.140	-0.328	0.080
-176.998	-63.424	0.243	-0.100
-175.983	-190.647	-0.248	0.003
-174.969	43.877	0.112	0.103
-173.954	-42.576	-0.105	0.054
-172.939	-157.275	-0.352	-0.021
-171.925	800.000	-0.070	-0.229
-170.910	37.311	0.211	-0.187
-169.896	-21.768	-0.155	-0.094
-168.881	-70.332	0.364	0.138
-167.866	301.518	-0.090	-0.167
-166.852	59.198	-0.039	-0.038
-165.837	-56.647	0.037	-0.016
-164.823	-79.621	-0.112	0.038
-163.808	-26.956	0.263	0.153
-162.793	9.241	0.114	0.086
-161.779	386.207	-0.190	0.392
-160.764	-200.000	-0.015	-0.258
-159.750	263.677	0.031	0.054
-158.735	185.961	0.161	-0.239
-157.720	105.870	-0.248	0.293
-156.706	496.316	-0.066	0.153
-155.691	-63.212	0.136	0.056
-154.677	256.213	0.029	0.050
-153.662	36.429	0.326	-0.288
-152.647	-56.234	0.137	0.061
-151.633	116.090	-0.142	-0.174
-150.618	-26.365	0.069	-0.040
-149.604	-71.415	-0.399	-0.149
-148.589	-131.313	0.274	-0.036
-147.574	171.062	0.053	0.076
-146.560	-6.206	-0.173	-0.118
-145.545	800.000	-0.155	-0.440
-144.531	6.666	-0.294	-0.218
-143.516	114.644	0.200	0.244
-142.502	-140.078	0.215	0.023
-141.487	-200.000	-0.000	0.105
-140.472	-200.000	-0.015	0.266
-139.458	800.000	-0.029	0.092
-138.443	22.901	-0.019	0.015
-137.429	-76.676	0.330	0.115
-136.414	800.000	-0.086	0.373
-135.399	46.748	-0.099	0.092
-134.385	335.274	-0.059	-0.115
-133.370	61.274	-0.221	-0.219
-132.356	116.338	0.170	-0.208
-131.341	-91.959	0.051	0.015
-130.326	-200.000	-0.003	0.037
-129.312	-200.000	0.062	0.406
-128.297	-56.367	-0.190	0.084
-127.283	800.000	-0.117	-0.407
-126.268	-200.000	0.012	-0.157
-125.253	-200.000	-0.023	0.274
-124.239	-114.663	0.467	0.089
-123.224	-62.426	0.289	0.120
-122.210	-7.577	-0.071	-0.048
