DTS Sentinel unit serial number:	SN413079Multiplexer serial number:	ORYXHardware model number:	OX4-SRSoftware version number:	ORYX F/W v4.00 Oryx Data Collector v3.7.2.0data status	okinstallation	princeton_trtdifferential loss correction	single-endedforward channel	channel 1reverse channel	N/Adate	2019/09/12time	09:56:11forward acquisition time	60.00reverse acquisition time	0.00gamma	496.2192k internal	0.2299k external	0.2299temperature offset calibration	1.0045default loss term (dB/km)	0.3790temperature slope calibration	1.0000multiplexer offset coefficient	1.0000multiplexer slope coefficient	1.0000fibre end	0.00T internal ref (°C)	36.12T ext. ref 1 (°C)	1.82T ext. ref 2 (°C)	32.59length (m)	temperature (°C)	Stokes	anti-Stokes-747.200	-99.890	-0.190	-0.049
-746.185	128.770	-0.214	0.278
-745.171	5.711	-0.190	0.143
-744.156	-22.003	-0.236	0.146
-743.142	-179.354	0.421	-0.009
-742.127	113.037	-0.098	0.121
-741.112	51.214	0.144	0.140
-740.098	-151.874	-0.127	-0.009
-739.083	-130.916	0.336	0.046
-738.069	17.392	-0.140	0.114
-737.054	-93.146	0.296	-0.084
-736.039	548.774	0.157	-0.383
-735.025	-200.000	-0.000	0.087
-734.010	281.760	-0.132	-0.242
-732.996	334.622	0.109	-0.215
-731.981	201.378	0.105	-0.166
-730.966	103.849	0.174	-0.209
-729.952	710.560	0.016	-0.043
-728.937	-200.000	-0.042	-0.209
-727.923	-128.511	-0.267	-0.039
-726.908	-106.974	-0.311	0.070
-725.894	87.224	0.217	0.245
-724.879	6.043	-0.306	0.231
-723.864	20.175	0.155	-0.127
-722.850	800.000	-0.097	-0.388
-721.835	-200.000	0.006	-0.029
-720.821	-18.352	0.373	-0.238
-719.806	-200.000	-0.035	0.228
-718.791	-200.000	0.003	0.145
-717.777	-82.747	-0.083	0.027
-716.762	-108.939	-0.086	-0.019
-715.748	-10.117	0.237	-0.161
-714.733	-43.193	0.162	0.083
-713.718	201.931	-0.143	0.224
-712.704	-36.941	-0.379	0.207
-711.689	-127.656	0.403	0.059
-710.675	263.810	0.093	-0.165
-709.660	214.564	0.219	-0.354
-708.645	-76.010	0.178	0.064
-707.631	-65.199	-0.147	0.060
-706.616	306.222	-0.095	-0.181
-705.602	-33.755	0.278	0.156
-704.587	86.999	-0.206	-0.232
-703.572	-98.074	-0.172	0.045
-702.558	547.692	-0.101	0.246
-701.543	-200.000	-0.014	0.194
-700.529	706.194	-0.112	-0.300
-699.514	126.318	0.160	-0.206
-698.499	-200.000	-0.028	-0.251
-697.485	47.482	0.110	-0.105
-696.470	-124.144	-0.061	-0.010
-695.456	-197.464	-0.072	0.000
-694.441	-200.000	-0.019	-0.469
-693.426	-2.558	0.274	-0.195
-692.412	-25.879	0.522	-0.313
-691.397	3.970	-0.238	-0.177
-690.383	32.157	0.150	0.132
-689.368	374.523	-0.250	-0.519
-688.354	158.736	-0.104	-0.148
-687.339	-200.000	-0.006	0.189
-686.324	-200.000	0.030	0.302
-685.310	-19.995	-0.506	0.318
-684.295	162.377	-0.054	0.077
-683.281	-13.818	-0.050	0.033
-682.266	-59.586	-0.217	-0.095
-681.251	-200.000	-0.021	0.105
-680.237	153.626	-0.156	0.217
-679.222	335.910	0.059	-0.117
-678.208	-200.000	-0.003	-0.284
-677.193	86.635	0.178	0.200
-676.178	187.026	0.190	0.288
-675.164	-200.000	-0.050	0.000
-674.149	272.225	-0.045	-0.080
-673.135	800.000	0.077	-0.268
-672.120	62.388	-0.093	-0.094
-671.105	-16.360	0.209	-0.135
-670.091	144.127	-0.120	-0.163
-669.076	89.079	-0.196	0.222
-668.062	417.617	-0.129	0.280
-667.047	-184.074	0.078	-0.001
-666.032	-200.000	0.038	-0.169
-665.018	-121.846	-0.407	0.068
-664.003	-200.000	-0.013	0.465
-662.989	-180.174	0.298	0.006
-661.974	-37.430	0.401	-0.218
-660.959	-108.538	-0.181	0.040
-659.945	-200.000	-0.001	-0.022
-658.930	117.898	-0.047	-0.059
-657.916	-200.000	-0.056	-0.292
-656.901	-200.000	0.030	0.441
-655.886	-19.724	-0.327	-0.205
-654.872	-63.454	-0.150	0.062
-653.857	-155.235	0.190	-0.013
-652.843	800.000	0.042	-0.178
-651.828	58.854	0.247	-0.247
-650.814	-200.000	-0.034	-0.253
-649.799	-147.023	0.327	-0.028
-648.784	588.858	-0.041	-0.102
-647.770	-200.000	-0.002	-0.068
-646.755	-32.404	-0.196	0.111
-645.741	800.000	-0.065	-0.194
-644.726	-156.111	-0.238	-0.015
-643.711	243.259	-0.057	0.097
-642.697	-200.000	0.016	-0.210
-641.682	225.112	0.228	-0.375
-640.668	800.000	0.008	-0.036
-639.653	38.881	-0.223	0.203
-638.638	284.718	0.127	-0.233
-637.624	147.979	-0.184	0.252
-636.609	218.224	-0.124	0.202
-635.595	-82.956	0.288	0.094
-634.580	-125.894	0.250	0.038
-633.565	800.000	-0.075	-0.306
-632.551	-200.000	-0.044	-0.203
-631.536	-26.954	-0.125	-0.074
-630.522	-200.000	-0.007	0.047
-629.507	800.000	0.063	-0.193
-628.492	-32.707	-0.269	0.152
-627.478	-157.957	0.039	-0.002
-626.463	-156.307	-0.324	0.021
-625.449	-200.000	0.007	0.115
-624.434	-172.044	-0.222	0.007
-623.419	116.678	-0.054	-0.068
-622.405	-72.983	0.146	0.054
-621.390	401.664	-0.068	0.146
-620.376	-49.355	-0.068	0.033
-619.361	-112.739	0.266	-0.054
-618.346	-125.199	0.089	-0.014
-617.332	80.461	0.111	-0.121
-616.317	-101.017	-0.145	-0.036
-615.303	-58.812	-0.189	0.083
-614.288	-200.000	0.015	-0.222
-613.273	800.000	-0.041	-0.115
-612.259	368.347	0.085	0.175
-611.244	-29.743	-0.240	-0.139
-610.230	258.305	0.197	-0.344
-609.215	800.000	0.105	-0.356
-608.201	437.099	0.166	0.368
-607.186	740.116	-0.104	0.283
-606.171	-69.522	-0.067	-0.026
-605.157	30.343	0.061	0.053
-604.142	65.518	0.160	-0.164
-603.128	-75.541	0.224	-0.081
-602.113	-6.174	-0.207	0.144
-601.098	-68.131	-0.349	0.138
-600.084	3.637	-0.063	-0.047
-599.069	-166.522	-0.115	-0.005
-598.055	-98.755	-0.138	0.036
-597.040	-74.785	-0.058	0.021
-596.025	-108.645	0.332	0.072
-595.011	129.094	0.247	-0.320
-593.996	-42.293	-0.051	-0.026
-592.982	157.300	0.109	-0.153
-591.967	800.000	-0.065	-0.207
-590.952	324.940	-0.079	-0.154
-589.938	-99.571	-0.223	0.057
-588.923	-24.760	-0.356	-0.215
-587.909	-28.519	0.257	0.150
-586.894	-159.326	-0.225	-0.013
-585.879	-165.765	0.167	0.007
-584.865	-14.896	0.039	0.026
-583.850	-155.030	0.183	-0.012
-582.836	-139.796	0.215	0.023
-581.821	-200.000	-0.002	0.492
-580.806	-36.425	0.027	0.015
-579.792	-200.000	0.041	0.254
-578.777	-156.346	-0.201	0.013
-577.763	-200.000	0.052	0.241
-576.748	-78.394	-0.149	-0.052
-575.733	162.585	0.037	-0.053
-574.719	-161.944	0.264	0.014
-573.704	-107.611	0.119	0.026
-572.690	75.338	0.116	0.124
-571.675	562.068	0.044	-0.109
-570.661	461.829	0.111	0.251
-569.646	-190.415	-0.284	0.003
-568.631	82.802	-0.198	0.218
-567.617	800.000	-0.043	0.164
-566.602	-66.886	0.075	0.030
-565.588	-200.000	0.012	-0.200
-564.573	-2.364	0.182	-0.129
-563.558	185.625	-0.123	-0.185
-562.544	24.644	-0.131	0.110
-561.529	59.546	-0.208	-0.208
-560.515	800.000	-0.031	0.106
-559.500	800.000	-0.044	0.126
-558.485	-96.015	-0.322	0.087
-557.471	82.157	-0.064	-0.070
-556.456	222.398	-0.056	-0.091
-555.442	30.651	0.091	0.079
-554.427	-56.404	-0.284	0.128
-553.412	-200.000	0.014	0.083
-552.398	15.953	-0.232	-0.185
-551.383	-143.173	0.338	0.033
-550.369	-112.419	-0.223	0.045
-549.354	-50.726	0.088	-0.042
-548.339	-102.253	-0.264	-0.064
-547.325	217.046	0.144	-0.233
-546.310	800.000	-0.018	0.060
-545.296	-26.086	0.115	-0.068
-544.281	-53.099	0.254	0.118
-543.266	76.625	0.089	-0.096
-542.252	701.610	-0.100	0.266
-541.237	-68.122	0.149	0.059
-540.223	16.900	-0.088	0.071
-539.208	-200.000	-0.066	-0.357
-538.193	120.430	-0.314	-0.395
-537.179	676.922	0.138	-0.362
-536.164	-86.441	-0.160	0.050
-535.150	-56.015	0.210	0.095
-534.135	49.019	0.365	0.347
-533.121	-104.561	-0.240	0.056
-532.106	33.248	0.117	0.102
-531.091	-200.000	-0.006	-0.088
-530.077	637.059	0.068	0.176
-529.062	800.000	0.076	-0.265
-528.048	648.828	0.034	0.087
-527.033	-200.000	-0.011	0.155
-526.018	-200.000	0.022	0.124
-525.004	800.000	0.061	0.264
-523.989	-200.000	0.004	-0.094
-522.975	25.898	-0.197	-0.166
-521.960	150.992	0.107	0.148
-520.945	-200.000	0.099	0.454
-519.931	-104.868	-0.429	-0.100
-518.916	-58.393	-0.296	-0.130
-517.902	-200.000	0.006	-0.046
-516.887	216.138	-0.119	-0.192
-515.872	268.340	0.147	0.260
-514.858	-82.015	0.247	-0.081
-513.843	28.306	0.174	-0.149
-512.829	22.322	0.091	0.075
-511.814	-200.000	0.053	0.323
-510.799	-8.487	-0.149	0.101
-509.785	-86.311	0.208	-0.065
-508.770	238.499	-0.218	-0.366
-507.756	775.244	-0.063	0.175
-506.741	-126.120	0.195	0.030
-505.726	-200.000	-0.044	-0.303
-504.712	481.080	0.100	0.229
-503.697	-200.000	0.024	-0.202
-502.683	-200.000	0.014	-0.089
-501.668	-200.000	-0.010	0.056
-500.653	5.502	0.147	-0.110
-499.639	28.253	-0.177	0.151
-498.624	-1.534	0.137	-0.097
-497.610	800.000	-0.079	0.309
-496.595	-160.476	-0.080	0.004
-495.581	53.047	-0.149	0.144
-494.566	800.000	0.105	0.348
-493.551	-172.127	0.237	0.008
-492.537	84.524	-0.227	-0.251
-491.522	95.979	-0.156	-0.180
-490.508	-118.896	0.108	-0.019
-489.493	-16.014	-0.366	-0.235
-488.478	16.349	-0.323	-0.257
-487.464	800.000	-0.072	-0.244
-486.449	-51.990	0.113	-0.053
-485.435	-44.163	-0.162	-0.082
-484.420	-123.930	0.066	-0.011
-483.405	-61.876	-0.150	0.064
-482.391	385.693	0.043	0.089
-481.376	800.000	0.137	0.408
-480.362	800.000	-0.044	0.167
-479.347	125.946	0.113	-0.144
-478.332	-120.020	0.219	-0.038
-477.318	800.000	0.042	0.170
-476.303	-116.600	0.139	-0.026
-475.289	231.780	-0.272	-0.451
-474.274	50.962	0.015	0.015
-473.259	5.732	0.184	-0.138
-472.245	-200.000	-0.004	0.096
-471.230	-47.163	-0.029	-0.014
-470.216	-200.000	0.024	0.130
-469.201	755.022	-0.111	0.304
-468.186	-56.993	-0.184	0.082
-467.172	-116.406	0.118	-0.022
-466.157	-0.269	0.188	0.135
-465.143	-200.000	0.024	-0.184
-464.128	-200.000	0.033	-0.161
-463.113	-8.844	0.207	0.140
-462.099	-153.640	0.407	-0.028
-461.084	-88.328	-0.181	-0.055
-460.070	203.950	0.194	-0.304
-459.055	-200.000	-0.003	0.091
-458.040	-200.000	-0.011	-0.139
-457.026	-73.775	0.298	-0.110
-456.011	-30.875	0.244	-0.139
-454.997	800.000	0.034	-0.107
-453.982	-160.090	0.232	-0.013
-452.968	-200.000	0.033	-0.199
-451.953	-36.586	0.029	0.016
-450.938	333.214	0.015	0.029
-449.924	-108.128	-0.151	0.033
-448.909	392.696	0.077	-0.162
-447.895	-74.877	-0.324	-0.117
-446.880	-62.914	0.307	0.128
-445.865	-23.772	0.063	0.038
-444.851	800.000	0.120	-0.373
-443.836	-133.702	-0.170	-0.021
-442.822	800.000	0.062	0.249
-441.807	-165.689	0.320	0.014
-440.792	170.092	0.185	0.267
-439.778	-155.405	-0.384	0.025
-438.763	-200.000	-0.013	0.270
-437.749	-200.000	-0.017	-0.148
-436.734	211.502	-0.149	-0.236
-435.719	800.000	-0.038	-0.125
-434.705	-9.977	0.069	0.046
-433.690	185.463	-0.181	-0.271
-432.676	-142.742	0.301	0.030
-431.661	-200.000	-0.000	0.312
-430.646	4.865	0.046	0.034
-429.632	800.000	-0.089	-0.251
-428.617	800.000	0.146	-0.511
-427.603	-8.863	0.069	0.046
-426.588	-107.876	-0.234	0.051
-425.573	-200.000	-0.085	0.496
-424.559	688.494	0.102	0.268
-423.544	-14.885	-0.121	0.078
-422.530	446.205	0.046	-0.102
-421.515	800.000	-0.129	-0.410
-420.500	-101.569	-0.375	-0.092
-419.486	-147.766	-0.227	0.019
-418.471	-200.000	-0.001	0.298
-417.457	-151.197	0.334	-0.025
-416.442	-200.000	0.025	0.225
-415.428	800.000	0.042	-0.180
-414.413	129.479	0.052	0.067
-413.398	-140.550	-0.350	-0.037
-412.384	-42.016	0.043	0.022
-411.369	-57.452	0.282	0.125
-410.355	-200.000	-0.008	0.363
-409.340	-74.323	-0.249	-0.091
-408.325	10.629	0.185	0.142
-407.311	-18.824	0.276	-0.173
-406.296	54.192	0.220	-0.213
-405.282	-129.456	0.320	-0.045
-404.267	-200.000	-0.027	0.150
-403.252	218.138	0.155	0.250
-402.238	-35.561	0.099	-0.054
-401.223	-158.112	0.430	0.025
-400.209	-126.529	-0.294	0.044
-399.194	-130.809	0.215	-0.029
-398.179	12.588	-0.214	0.166
-397.165	-200.000	-0.005	0.143
-396.150	-17.600	-0.341	0.216
-395.136	-39.026	-0.214	-0.113
-394.121	-125.873	0.320	0.049
-393.106	-181.500	0.046	0.001
-392.092	-137.787	0.150	0.017
-391.077	-200.000	0.021	-0.268
-390.063	43.593	-0.449	-0.414
-389.048	-25.571	-0.111	-0.066
-388.033	-200.000	0.004	0.189
-387.019	710.007	-0.055	-0.146
-386.004	-82.335	0.284	0.093
-384.990	209.530	0.047	-0.075
-383.975	30.631	0.109	-0.094
-382.960	126.652	0.129	0.164
-381.946	-130.605	0.260	0.035
-380.931	356.034	-0.156	0.313
-379.917	182.001	0.129	0.191
-378.902	-53.770	-0.231	-0.106
-377.888	-40.865	0.137	-0.071
-376.873	-108.779	0.174	0.038
-375.858	800.000	0.074	0.293
-374.844	-71.143	0.188	-0.071
-373.829	260.354	-0.108	-0.187
-372.815	-14.364	-0.139	0.090
-371.800	800.000	0.085	-0.334
-370.785	-128.830	0.281	0.040
-369.771	800.000	0.091	0.366
-368.756	43.393	0.072	0.066
-367.742	-85.135	-0.420	-0.132
-366.727	-200.000	0.058	-0.288
-365.712	-111.616	0.248	0.051
-364.698	401.264	-0.096	0.202
-363.683	341.402	0.026	-0.051
-362.669	-46.274	0.285	-0.141
-361.654	21.209	-0.112	-0.092
-360.639	-78.777	0.193	-0.066
-359.625	-10.728	0.209	-0.139
-358.610	174.619	-0.108	0.157
-357.596	76.316	0.214	0.228
-356.581	-52.193	-0.062	0.029
-355.566	511.071	-0.150	-0.352
-354.552	-114.724	-0.236	0.045
-353.537	287.547	0.112	0.204
-352.523	800.000	-0.084	-0.313
-351.508	-13.014	0.254	-0.166
-350.493	-200.000	0.003	-0.120
-349.479	141.523	0.124	-0.165
-348.464	-136.418	0.249	0.029
-347.450	493.885	0.027	0.062
-346.435	89.792	-0.015	-0.017
-345.420	76.061	0.094	0.100
-344.406	143.768	0.133	-0.179
-343.391	800.000	-0.099	0.287
-342.377	51.132	-0.111	0.106
-341.362	121.469	0.098	0.123
-340.348	96.251	-0.261	0.299
-339.333	-61.465	0.220	0.093
-338.318	-74.106	0.122	0.044
-337.304	-150.957	0.164	-0.012
-336.289	-101.871	0.247	-0.060
-335.275	201.427	-0.093	0.144
-334.260	-200.000	0.025	0.298
-333.245	99.540	0.114	0.132
-332.231	44.370	-0.062	-0.057
-331.216	-20.745	-0.134	-0.082
-330.202	317.988	-0.181	-0.344
-329.187	-33.592	0.063	-0.035
-328.172	18.383	-0.172	-0.138
-327.158	209.469	0.172	0.271
-326.143	-200.000	-0.006	-0.075
-325.129	155.876	0.139	-0.192
-324.114	115.376	0.267	0.328
-323.099	-200.000	-0.003	0.170
-322.085	535.815	0.046	-0.110
-321.070	119.969	0.055	0.068
-320.056	99.066	-0.220	-0.255
-319.041	174.808	0.139	-0.202
-318.026	158.990	-0.195	0.272
-317.012	-87.422	-0.236	-0.072
-315.997	-66.962	-0.230	0.091
-314.983	-90.366	0.324	-0.094
-313.968	47.761	-0.155	0.145
-312.953	800.000	-0.096	-0.310
-311.939	125.147	-0.024	-0.030
-310.924	-15.346	0.152	0.098
-309.910	800.000	0.057	0.206
-308.895	107.757	0.037	-0.044
-307.880	-200.000	-0.054	-0.257
-306.866	-200.000	-0.006	-0.038
-305.851	-200.000	0.001	0.129
-304.837	82.917	0.054	0.059
-303.822	800.000	0.075	0.243
-302.807	-24.204	-0.093	-0.056
-301.793	800.000	-0.036	0.146
-300.778	669.134	-0.050	-0.130
-299.764	185.448	0.139	0.206
-298.749	-101.007	-0.099	0.024
-297.735	256.644	-0.059	0.102
-296.720	-102.821	0.169	-0.040
-295.705	-130.987	-0.161	0.022
-294.691	47.345	-0.108	0.100
-293.676	64.766	-0.032	-0.032
-292.662	413.757	-0.041	-0.088
-291.647	-34.724	-0.122	0.067
-290.632	-200.000	-0.015	0.248
-289.618	800.000	0.020	0.081
-288.603	100.957	-0.310	0.361
-287.589	171.473	0.216	-0.311
-286.574	800.000	0.020	-0.080
-285.559	-106.435	0.388	-0.087
-284.545	800.000	-0.125	0.366
-283.530	-200.000	-0.053	0.370
-282.516	-200.000	0.001	-0.074
-281.501	-24.702	0.129	-0.077
-280.486	-96.047	-0.255	0.068
-279.472	-83.928	-0.180	-0.057
-278.457	800.000	0.040	0.150
-277.443	800.000	0.020	-0.070
-276.428	425.670	0.044	0.095
-275.413	-16.624	-0.047	0.030
-274.399	-31.124	-0.153	-0.087
-273.384	-89.459	-0.255	-0.075
-272.370	49.206	0.076	-0.072
-271.355	-26.427	-0.067	-0.040
-270.340	-200.000	-0.012	-0.111
-269.326	-106.624	-0.351	-0.078
-268.311	271.194	-0.185	0.326
-267.297	-200.000	-0.006	0.120
-266.282	-38.635	-0.486	-0.257
-265.267	350.808	0.102	-0.203
-264.253	-91.543	0.221	-0.063
-263.238	-137.831	-0.409	-0.046
-262.224	467.342	-0.116	-0.261
-261.209	-82.572	-0.248	-0.081
-260.195	-200.000	0.045	0.243
-259.180	11.425	-0.300	0.230
-258.165	-141.614	-0.197	-0.020
-257.151	-200.000	-0.012	0.420
-256.136	-135.001	0.313	0.038
-255.122	128.688	0.121	-0.154
-254.107	789.852	-0.022	0.060
-253.092	284.169	-0.231	-0.416
-252.078	-200.000	0.002	-0.295
-251.063	10.907	0.177	-0.136
-250.049	-200.000	-0.004	0.126
-249.034	107.830	0.168	-0.200
-248.019	800.000	0.075	-0.210
-247.005	-200.000	0.004	0.254
-245.990	-113.788	-0.164	0.032
-244.976	56.107	0.184	0.178
-243.961	800.000	-0.058	0.171
-242.946	-44.219	0.178	-0.089
-241.932	800.000	0.051	-0.155
-240.917	31.815	-0.147	0.127
-239.903	300.569	0.040	-0.073
-238.888	105.630	0.196	-0.232
-237.873	166.156	-0.160	0.226
-236.859	-2.185	0.145	0.102
-235.844	-200.000	-0.001	0.131
-234.830	-105.548	0.241	-0.055
-233.815	-151.260	-0.141	-0.011
-232.800	349.715	0.026	-0.051
-231.786	-15.634	-0.057	-0.036
-230.771	-51.166	-0.032	-0.015
-229.757	16.669	-0.318	-0.252
-228.742	800.000	-0.063	0.195
-227.727	717.146	-0.188	0.500
-226.713	-107.835	-0.358	-0.078
-225.698	-156.005	-0.288	-0.018
-224.684	42.300	-0.153	0.139
-223.669	756.780	-0.073	-0.196
-222.655	-179.525	-0.313	0.007
-221.640	-13.163	0.260	-0.169
-220.625	-200.000	0.002	-0.041
-219.611	-136.819	0.281	-0.032
-218.596	188.630	-0.057	-0.085
-217.582	-200.000	0.026	-0.299
-216.567	125.556	0.025	-0.032
-215.552	-200.000	0.019	-0.258
-214.538	800.000	-0.035	0.119
-213.523	-69.968	0.186	-0.071
-212.509	261.724	0.194	0.336
-211.494	143.025	0.106	-0.141
-210.479	-10.159	0.013	0.009
-209.465	-200.000	0.020	-0.148
-208.450	125.056	0.079	0.100
-207.436	-109.456	-0.282	-0.060
-206.421	-142.831	-0.281	0.027
-205.406	-75.144	-0.337	0.120
-204.392	800.000	0.150	-0.414
-203.377	350.378	-0.059	-0.116
-202.363	11.326	-0.224	-0.172
-201.348	-64.262	0.330	-0.134
-200.333	721.753	0.055	-0.145
-199.319	294.967	0.174	-0.317
-198.304	-81.059	-0.330	-0.109
-197.290	126.746	0.017	0.021
-196.275	-200.000	-0.036	0.215
-195.260	-39.210	0.165	-0.087
-194.246	-101.999	0.278	-0.067
-193.231	16.532	-0.131	0.103
-192.217	-111.017	-0.408	0.084
-191.202	-112.703	0.330	-0.065
-190.187	650.297	-0.148	0.378
-189.173	12.488	0.125	0.096
-188.158	800.000	0.077	0.258
-187.144	-84.217	0.390	-0.123
-186.129	-9.969	-0.263	-0.175
-185.114	-200.000	0.060	0.265
-184.100	117.362	-0.117	0.143
-183.085	164.850	0.102	0.143
-182.071	-117.049	0.250	0.046
-181.056	169.847	-0.251	0.358
-180.042	-83.490	-0.153	-0.049
-179.027	-98.928	-0.194	-0.049
-178.012	-53.097	-0.019	-0.009
-176.998	-80.227	-0.230	-0.077
-175.983	388.773	-0.140	0.289
-174.969	713.559	-0.169	-0.447
-173.954	-200.000	-0.037	0.222
-172.939	56.105	-0.217	-0.211
-171.925	163.989	-0.068	-0.096
-170.910	-104.489	0.517	-0.119
-169.896	-2.744	0.273	0.191
-168.881	9.080	0.116	-0.087
-167.866	800.000	0.070	-0.257
-166.852	-165.140	-0.188	-0.008
-165.837	28.694	0.135	0.114
-164.823	27.404	0.234	0.196
-163.808	-89.648	-0.137	0.040
-162.793	800.000	-0.030	-0.103
-161.779	-200.000	-0.062	0.318
-160.764	3.402	0.129	0.094
-159.750	655.509	0.076	-0.194
-158.735	221.355	-0.114	-0.183
-157.720	-1.785	-0.173	0.122
-156.706	-101.673	-0.381	-0.092
-155.691	-82.940	0.111	0.036
-154.677	8.021	0.037	0.027
-153.662	-106.803	0.131	-0.029
-152.647	359.198	0.087	0.174
-151.633	-170.183	0.648	0.023
-150.618	-98.360	-0.222	-0.057
-149.604	-200.000	-0.005	0.087
-148.589	-85.042	0.183	0.057
-147.574	123.109	0.134	0.167
-146.560	-105.148	0.487	0.111
-145.545	36.136	-0.222	-0.195
-144.531	800.000	0.075	-0.285
-143.516	351.257	-0.140	0.275
-142.502	117.136	-0.199	0.244
-141.487	212.014	0.158	0.248
-140.472	-141.943	-0.151	-0.015
-139.458	-38.974	0.204	0.107
-138.443	81.527	-0.201	0.217
-137.429	40.024	-0.258	0.231
-136.414	427.962	0.149	0.321
-135.399	95.474	-0.151	-0.172
-134.385	-200.000	-0.043	0.201
-133.370	-6.402	-0.323	-0.219
-132.356	-200.000	0.038	-0.246
-131.341	579.704	-0.051	-0.124
-130.326	-140.997	0.474	0.048
-129.312	-100.865	-0.322	-0.079
-128.297	-200.000	-0.001	0.225
-127.283	-53.405	0.137	-0.062
-126.268	-200.000	-0.055	-0.272
-125.253	-200.000	-0.061	-0.428
-124.239	327.269	0.110	0.210
-123.224	-38.092	0.085	0.045
-122.210	-40.091	-0.094	-0.049
