DTS Sentinel unit serial number:	SN413079Multiplexer serial number:	ORYXHardware model number:	OX4-SRSoftware version number:	ORYX F/W v4.00 Oryx Data Collector v3.7.2.0data status	okinstallation	princeton_trtdifferential loss correction	single-endedforward channel	channel 1reverse channel	N/Adate	2019/09/19time	01:14:35forward acquisition time	60.00reverse acquisition time	0.00gamma	496.2192k internal	0.2344k external	0.2344temperature offset calibration	1.0019default loss term (dB/km)	0.3790temperature slope calibration	1.0000multiplexer offset coefficient	1.0000multiplexer slope coefficient	1.0000fibre end	0.00T internal ref (°C)	21.75T ext. ref 1 (°C)	0.70T ext. ref 2 (°C)	15.21length (m)	temperature (°C)	Stokes	anti-Stokes-747.200	223.354	0.224	0.362
-746.185	28.464	-0.115	-0.098
-745.171	289.769	-0.112	-0.203
-744.156	-200.000	0.003	-0.138
-743.142	115.676	-0.162	0.199
-742.127	-1.871	-0.149	0.105
-741.112	-200.000	-0.021	0.241
-740.098	-39.494	-0.199	0.104
-739.083	-19.430	-0.248	0.154
-738.069	73.929	-0.274	0.287
-737.054	-104.003	0.162	-0.038
-736.039	28.296	-0.333	-0.281
-735.025	-82.041	-0.204	0.067
-734.010	-200.000	0.046	0.224
-732.996	-200.000	-0.013	-0.287
-731.981	800.000	-0.079	0.274
-730.966	-30.213	-0.134	-0.076
-729.952	127.821	-0.193	-0.246
-728.937	49.547	-0.160	-0.150
-727.923	800.000	0.046	-0.130
-726.908	-200.000	0.000	-0.178
-725.894	175.008	0.186	0.269
-724.879	-108.195	-0.360	-0.078
-723.864	-200.000	-0.030	0.319
-722.850	800.000	0.051	0.151
-721.835	-93.736	0.248	0.068
-720.821	618.867	0.046	-0.115
-719.806	33.860	-0.394	-0.343
-718.791	-167.443	0.089	0.004
-717.777	504.890	-0.050	-0.116
-716.762	-63.668	-0.141	0.058
-715.748	257.105	-0.177	0.305
-714.733	59.722	0.184	0.181
-713.718	-200.000	-0.063	-0.316
-712.704	-10.972	0.245	0.162
-711.689	800.000	-0.073	-0.239
-710.675	-60.434	0.149	0.063
-709.660	472.514	-0.005	0.011
-708.645	-18.036	0.180	0.113
-707.631	121.095	-0.175	-0.217
-706.616	-200.000	0.057	0.320
-705.602	13.590	0.138	-0.107
-704.587	-90.811	0.215	-0.062
-703.572	-73.978	0.262	-0.095
-702.558	39.261	0.170	0.152
-701.543	224.309	-0.071	0.115
-700.529	-112.295	0.211	-0.042
-699.514	-124.934	-0.296	-0.046
-698.499	800.000	-0.050	0.146
-697.485	-40.748	0.021	0.011
-696.470	-123.430	0.320	0.051
-695.456	800.000	-0.040	0.150
-694.441	3.470	-0.130	0.094
-693.426	800.000	-0.052	-0.183
-692.412	178.028	0.324	0.473
-691.397	480.777	-0.037	-0.084
-690.383	-200.000	0.042	-0.400
-689.368	-200.000	-0.041	-0.291
-688.354	152.799	-0.134	0.183
-687.339	378.640	-0.150	-0.307
-686.324	4.093	-0.219	0.160
-685.310	182.498	0.184	-0.271
-684.295	388.140	0.066	-0.137
-683.281	800.000	0.035	-0.117
-682.266	800.000	0.082	-0.255
-681.251	46.017	-0.215	0.198
-680.237	47.503	-0.050	0.047
-679.222	-200.000	0.007	0.128
-678.208	55.294	-0.292	-0.281
-677.193	-200.000	-0.021	-0.505
-676.178	800.000	0.065	-0.260
-675.164	800.000	0.035	0.147
-674.149	-109.535	-0.205	-0.043
-673.135	-76.879	-0.136	-0.047
-672.120	800.000	-0.063	-0.241
-671.105	72.756	-0.055	0.057
-670.091	800.000	0.024	-0.074
-669.076	-134.163	-0.375	0.046
-668.062	800.000	0.088	0.271
-667.047	-6.368	-0.155	0.105
-666.032	43.628	0.197	0.180
-665.018	-104.788	-0.448	-0.103
-664.003	-89.851	-0.180	0.052
-662.989	-78.424	0.201	0.069
-661.974	-200.000	-0.066	-0.325
-660.959	156.416	0.148	0.204
-659.945	173.465	0.278	0.400
-658.930	-61.422	0.138	0.058
-657.916	-200.000	0.041	-0.197
-656.901	-100.753	0.388	0.095
-655.886	-200.000	0.030	-0.264
-654.872	-200.000	0.005	-0.176
-653.857	24.896	-0.120	0.100
-652.843	468.748	-0.106	0.238
-651.828	153.889	0.209	0.285
-650.814	-6.168	0.266	-0.181
-649.799	-40.013	-0.312	-0.162
-648.784	-12.765	-0.200	0.130
-647.770	-33.961	-0.206	-0.113
-646.755	157.997	0.088	-0.122
-645.741	-41.147	0.067	-0.034
-644.726	736.657	0.100	-0.267
-643.711	211.438	-0.204	-0.320
-642.697	-191.565	0.047	-0.000
-641.682	589.433	0.042	0.103
-640.668	-60.746	0.168	-0.071
-639.653	-121.687	0.236	0.039
-638.638	46.959	0.015	-0.014
-637.624	150.797	-0.185	0.251
-636.609	-77.261	-0.305	-0.106
-635.595	316.564	-0.035	0.066
-634.580	171.343	-0.240	-0.343
-633.565	-25.149	-0.280	0.165
-632.551	-183.878	0.255	0.004
-631.536	32.557	-0.189	-0.163
-630.522	-75.285	0.168	-0.060
-629.507	4.301	0.299	-0.218
-628.492	270.132	-0.119	-0.209
-627.478	10.661	-0.159	-0.121
-626.463	11.227	-0.129	-0.098
-625.449	739.397	-0.115	-0.308
-624.434	-46.615	-0.049	0.024
-623.419	-30.115	-0.347	0.196
-622.405	800.000	-0.023	-0.078
-621.390	45.624	-0.297	0.273
-620.376	306.541	0.102	0.190
-619.361	754.417	-0.093	0.251
-618.346	800.000	-0.070	-0.197
-617.332	260.552	-0.058	-0.099
-616.317	-64.346	-0.061	-0.025
-615.303	415.649	0.128	0.271
-614.288	274.118	0.139	-0.246
-613.273	-200.000	-0.014	-0.419
-612.259	-53.798	-0.077	-0.035
-611.244	20.563	0.198	-0.160
-610.230	540.644	0.080	0.189
-609.215	-31.326	0.235	-0.131
-608.201	800.000	-0.011	-0.037
-607.186	-169.560	0.250	0.009
-606.171	169.523	-0.160	-0.227
-605.157	-200.000	-0.012	0.218
-604.142	-19.442	0.120	-0.074
-603.128	75.539	-0.104	0.109
-602.113	108.682	-0.161	-0.191
-601.098	175.160	-0.107	0.155
-600.084	208.932	-0.281	0.438
-599.069	-64.856	0.267	0.108
-598.055	800.000	0.046	-0.193
-597.040	-108.716	0.134	-0.029
-596.025	-200.000	-0.001	-0.356
-595.011	-200.000	0.049	-0.334
-593.996	-200.000	0.008	0.118
-592.982	-139.971	0.072	0.008
-591.967	800.000	0.039	0.123
-590.952	280.930	-0.241	0.428
-589.938	-159.833	0.471	-0.026
-588.923	444.901	0.044	0.097
-587.909	-200.000	0.077	-0.340
-586.894	87.366	-0.048	-0.053
-585.879	23.783	-0.259	0.212
-584.865	485.701	-0.099	-0.225
-583.850	-181.116	-0.068	-0.001
-582.836	-200.000	0.021	0.240
-581.821	-8.477	-0.245	0.164
-580.806	-107.004	0.172	0.038
-579.792	34.468	0.178	-0.154
-578.777	-77.131	-0.210	-0.073
-577.763	1.953	0.204	-0.147
-576.748	-200.000	-0.003	0.154
-575.733	-127.636	-0.091	0.013
-574.719	61.318	0.057	0.056
-573.704	166.918	-0.171	-0.242
-572.690	96.331	0.032	0.036
-571.675	-200.000	-0.395	0.001
-570.661	-67.608	0.097	0.038
-569.646	-200.000	0.013	-0.243
-568.631	122.036	-0.129	0.160
-567.617	116.972	-0.212	-0.258
-566.602	-200.000	0.000	0.304
-565.588	-200.000	0.007	0.057
-564.573	-94.449	-0.350	-0.095
-563.558	370.769	-0.102	-0.205
-562.544	800.000	0.057	0.217
-561.529	-89.653	0.333	-0.097
-560.515	800.000	-0.139	-0.418
-559.500	-56.054	-0.095	-0.042
-558.485	-10.666	-0.045	0.030
-557.471	20.108	0.278	-0.223
-556.456	-112.588	-0.193	-0.038
-555.442	-146.636	0.152	-0.013
-554.427	-16.350	-0.127	-0.080
-553.412	-4.311	-0.159	-0.109
-552.398	-140.539	0.154	-0.016
-551.383	46.059	-0.043	-0.040
-550.369	800.000	0.110	0.428
-549.354	-200.000	0.018	-0.127
-548.339	147.203	-0.228	0.305
-547.325	1.181	-0.230	-0.164
-546.310	-141.863	-0.221	-0.022
-545.296	-117.985	-0.120	0.021
-544.281	102.857	0.066	-0.077
-543.266	200.719	0.243	0.371
-542.252	-200.000	-0.007	0.252
-541.237	707.329	-0.037	0.096
-540.223	-65.926	0.358	-0.142
-539.208	323.408	0.030	0.057
-538.193	-33.122	-0.291	0.160
-537.179	98.159	0.196	0.224
-536.164	800.000	0.065	-0.206
-535.150	-85.929	-0.125	0.038
-534.135	-95.654	-0.472	-0.125
-533.121	9.852	-0.095	-0.071
-532.106	800.000	0.055	-0.174
-531.091	249.511	-0.131	-0.221
-530.077	-200.000	0.001	-0.062
-529.062	-112.806	0.189	0.037
-528.048	161.508	0.256	-0.356
-527.033	800.000	-0.067	-0.233
-526.018	9.347	0.076	0.057
-525.004	-126.155	-0.352	-0.052
-523.989	77.706	-0.288	0.305
-522.975	800.000	-0.017	-0.051
-521.960	-200.000	-0.025	0.140
-520.945	374.798	0.068	-0.138
-519.931	-37.947	-0.173	-0.091
-518.916	114.655	-0.279	0.337
-517.902	-66.964	-0.228	-0.089
-516.887	-127.435	0.315	-0.045
-515.872	-200.000	-0.041	-0.328
-514.858	-119.624	-0.085	0.015
-513.843	-63.250	0.252	-0.103
-512.829	800.000	0.112	0.470
-511.814	-200.000	0.010	0.297
-510.799	562.236	-0.130	0.312
-509.785	131.845	-0.179	-0.228
-508.770	111.934	0.137	0.164
-507.756	-200.000	-0.020	0.335
-506.741	-23.674	-0.261	0.155
-505.726	625.140	-0.110	0.276
-504.712	-200.000	0.007	0.051
-503.697	-41.517	-0.084	-0.043
-502.683	348.750	0.181	-0.353
-501.668	343.774	0.109	0.211
-500.653	-200.000	-0.004	-0.068
-499.639	-148.802	-0.132	0.011
-498.624	-103.099	-0.255	-0.060
-497.610	38.396	-0.098	0.087
-496.595	-66.715	0.128	0.050
-495.581	-178.013	-0.176	-0.004
-494.566	800.000	0.119	-0.334
-493.551	-122.141	0.383	-0.062
-492.537	108.841	0.052	0.061
-491.522	-69.534	-0.148	-0.056
-490.508	246.642	0.221	0.369
-489.493	20.008	0.034	0.027
-488.478	-59.716	-0.098	-0.041
-487.464	359.243	-0.117	-0.232
-486.449	-63.839	0.225	-0.091
-485.435	-78.788	0.125	0.042
-484.420	800.000	-0.051	-0.182
-483.405	254.598	0.078	-0.133
-482.391	-200.000	-0.001	-0.122
-481.376	-19.557	0.182	-0.112
-480.362	-73.608	0.262	0.095
-479.347	22.847	0.190	0.154
-478.332	-200.000	0.069	-0.349
-477.318	34.072	0.211	-0.182
-476.303	128.082	0.086	-0.108
-475.289	-43.123	-0.150	0.075
-474.274	-28.199	0.452	-0.259
-473.259	64.178	0.219	-0.219
-472.245	-159.835	-0.293	-0.016
-471.230	305.691	-0.141	-0.260
-470.216	68.818	0.135	0.137
-469.201	696.009	0.116	0.302
-468.186	217.551	-0.031	0.049
-467.172	-22.856	0.195	0.117
-466.157	-134.935	0.234	0.028
-465.143	-113.314	-0.130	-0.025
-464.128	-55.292	0.125	0.056
-463.113	221.562	0.012	-0.019
-462.099	-35.170	0.172	-0.093
-461.084	-123.322	0.369	0.058
-460.070	340.172	0.213	0.411
-459.055	-200.000	0.057	0.276
-458.040	-128.189	0.158	0.022
-457.026	-200.000	-0.010	-0.242
-456.011	-200.000	0.086	-0.429
-454.997	-200.000	0.022	0.146
-453.982	282.120	-0.043	0.076
-452.968	83.563	0.225	0.243
-451.953	538.552	0.025	-0.059
-450.938	-200.000	-0.028	0.353
-449.924	-50.456	0.044	-0.020
-448.909	295.380	-0.174	0.316
-447.895	-200.000	-0.015	0.203
-446.880	146.539	-0.032	-0.042
-445.865	98.317	0.085	0.097
-444.851	4.622	-0.053	0.038
-443.836	52.758	0.209	-0.198
-442.822	45.459	-0.055	0.050
-441.807	-83.436	0.215	0.068
-440.792	114.689	0.060	-0.072
-439.778	800.000	-0.045	0.150
-438.763	-61.284	-0.061	0.025
-437.749	800.000	-0.019	0.058
-436.734	-104.222	-0.058	-0.013
-435.719	-13.989	-0.188	0.120
-434.705	137.782	0.081	-0.104
-433.690	-200.000	0.020	0.123
-432.676	-200.000	0.028	0.188
-431.661	498.977	0.050	0.115
-430.646	-100.196	-0.125	0.031
-429.632	-66.409	0.324	0.127
-428.617	-29.286	0.252	0.143
-427.603	800.000	-0.053	0.218
-426.588	-79.942	-0.440	0.146
-425.573	-13.541	-0.224	0.143
-424.559	800.000	0.044	0.151
-423.544	83.877	-0.173	-0.186
-422.530	159.745	-0.111	0.153
-421.515	-200.000	-0.024	-0.173
-420.500	26.904	0.086	0.071
-419.486	37.306	0.185	-0.162
-418.471	5.438	-0.104	0.076
-417.457	11.578	0.008	-0.006
-416.442	93.238	-0.271	0.303
-415.428	-150.388	0.095	0.007
-414.413	800.000	-0.028	-0.110
-413.398	-101.138	0.472	0.114
-412.384	-91.505	0.271	0.077
-411.369	180.571	0.024	0.035
-410.355	800.000	0.089	0.252
-409.340	397.162	-0.138	0.285
-408.325	-12.334	-0.360	-0.233
-407.311	13.027	0.185	0.142
-406.296	32.869	-0.151	0.129
-405.282	76.104	0.165	-0.173
-404.267	-200.000	-0.017	-0.382
-403.252	92.952	0.112	0.125
-402.238	58.120	0.154	0.149
-401.223	42.497	0.193	0.173
-400.209	-47.855	-0.340	-0.163
-399.194	-166.805	-0.260	-0.011
-398.179	181.946	-0.076	0.111
-397.165	-56.843	-0.111	-0.048
-396.150	-39.330	-0.032	0.017
-395.136	82.472	0.109	-0.116
-394.121	74.761	-0.026	0.027
-393.106	-23.088	0.175	-0.104
-392.092	-98.606	0.147	-0.037
-391.077	-16.290	-0.069	-0.043
-390.063	-200.000	-0.009	-0.080
-389.048	-23.204	-0.323	0.192
-388.033	-200.000	0.012	-0.159
-387.019	800.000	0.016	-0.052
-386.004	18.348	0.106	0.084
-384.990	238.926	0.189	-0.310
-383.975	-200.000	-0.013	0.090
-382.960	-64.481	0.158	-0.063
-381.946	31.255	0.449	-0.380
-380.931	190.459	0.028	-0.042
-379.917	333.408	0.152	0.290
-378.902	8.053	0.099	0.073
-377.888	-200.000	-0.044	-0.329
-376.873	-16.280	0.210	-0.132
-375.858	222.300	-0.055	0.087
-374.844	-170.634	-0.299	0.010
-373.829	479.003	0.106	-0.237
-372.815	-200.000	0.008	-0.332
-371.800	-38.096	0.203	-0.106
-370.785	726.414	0.083	-0.218
-369.771	99.352	-0.294	0.336
-368.756	-200.000	0.016	0.113
-367.742	194.774	0.288	-0.432
-366.727	-200.000	-0.019	0.253
-365.712	-31.492	-0.219	-0.121
-364.698	40.673	-0.192	-0.170
-363.683	14.605	-0.030	-0.023
-362.669	65.635	-0.027	-0.027
-361.654	43.236	0.088	-0.079
-360.639	11.721	0.132	0.100
-359.625	-72.003	0.158	-0.058
-358.610	6.412	-0.133	-0.097
-357.596	-116.264	0.436	0.080
-356.581	54.279	-0.138	-0.131
-355.566	-200.000	-0.069	-0.384
-354.552	-200.000	-0.017	0.222
-353.537	-15.698	-0.136	0.085
-352.523	-4.919	-0.154	0.105
-351.508	274.798	-0.137	-0.239
-350.493	-200.000	-0.008	0.437
-349.479	148.231	-0.189	-0.251
-348.464	-85.912	-0.171	-0.052
-347.450	260.123	0.231	-0.394
-346.435	-7.992	-0.195	0.130
-345.420	239.433	0.201	0.329
-344.406	36.047	-0.243	0.211
-343.391	800.000	-0.068	0.218
-342.377	800.000	0.093	-0.261
-341.362	-59.149	0.027	-0.011
-340.348	590.171	-0.064	-0.156
-339.333	3.965	-0.114	-0.082
-338.318	235.730	0.184	0.300
-337.304	-200.000	0.051	-0.235
-336.289	-70.379	-0.319	0.119
-335.275	154.923	-0.088	-0.120
-334.260	800.000	-0.119	-0.330
-333.245	800.000	-0.054	-0.202
-332.231	800.000	-0.077	0.247
-331.216	-200.000	-0.030	0.442
-330.202	135.446	-0.103	0.132
-329.187	11.977	-0.209	0.159
-328.172	-42.259	0.427	-0.215
-327.158	800.000	-0.145	-0.453
-326.143	-200.000	0.046	-0.252
-325.129	-33.959	0.298	-0.161
-324.114	281.351	-0.170	0.299
-323.099	-75.018	0.196	-0.069
-322.085	164.307	-0.041	0.057
-321.070	162.287	-0.021	0.029
-320.056	-200.000	0.040	-0.217
-319.041	86.434	-0.137	-0.149
-318.026	301.550	-0.218	-0.396
-317.012	150.663	0.127	0.169
-315.997	243.118	-0.073	0.120
-314.983	-20.959	0.182	0.109
-313.968	162.872	-0.088	0.121
-312.953	-77.298	0.116	-0.040
-311.939	71.143	-0.193	0.197
-310.924	19.394	-0.096	0.076
-309.910	182.056	0.087	0.127
-308.895	-43.488	-0.014	-0.007
-307.880	-192.412	-0.195	-0.002
-306.866	800.000	-0.083	0.303
-305.851	-103.613	-0.052	-0.012
-304.837	-200.000	0.049	-0.306
-303.822	63.904	0.254	0.251
-302.807	-50.339	0.105	0.049
-301.793	260.793	0.022	0.037
-300.778	-200.000	0.030	0.306
-299.764	-42.396	-0.133	0.067
-298.749	336.775	-0.020	-0.038
-297.735	800.000	-0.057	-0.235
-296.720	56.712	0.096	0.092
-295.705	123.650	-0.175	0.217
-294.691	106.480	0.102	-0.119
-293.676	327.472	-0.110	0.207
-292.662	574.670	0.053	0.126
-291.647	-94.157	0.322	-0.087
-290.632	216.317	-0.101	0.158
-289.618	517.692	0.121	-0.278
-288.603	-167.126	-0.097	0.004
-287.589	68.069	-0.153	0.154
-286.574	-137.954	0.149	0.016
-285.559	142.438	-0.134	0.175
-284.545	774.406	-0.078	-0.209
-283.530	-121.838	-0.211	0.034
-282.516	70.459	-0.096	-0.097
-281.501	-63.913	-0.377	0.152
-280.486	-200.000	0.031	-0.226
-279.472	-118.609	-0.212	0.037
-278.457	-44.718	0.027	0.013
-277.443	354.086	-0.114	-0.223
-276.428	197.962	-0.247	-0.370
-275.413	-200.000	0.001	-0.091
-274.399	-148.528	-0.065	-0.005
-273.384	216.109	-0.137	0.214
-272.370	708.052	-0.072	0.186
-271.355	-44.772	0.238	-0.117
-270.340	266.941	-0.103	0.177
-269.326	800.000	0.055	-0.230
-268.311	164.013	-0.147	-0.203
-267.297	-69.433	0.158	-0.060
-266.282	128.901	0.168	0.211
-265.267	350.774	0.053	-0.102
-264.253	32.917	0.176	0.149
-263.238	-200.000	-0.032	0.319
-262.224	-99.512	0.214	-0.053
-261.209	600.084	0.122	0.297
-260.195	-140.623	-0.429	0.044
-259.180	-144.127	-0.379	0.035
-258.165	540.380	0.141	-0.330
-257.151	-41.302	-0.440	0.223
-256.136	367.072	0.110	0.218
-255.122	-200.000	-0.013	-0.242
-254.107	740.250	-0.084	0.221
-253.092	800.000	-0.096	0.339
-252.078	-1.725	0.189	-0.131
-251.063	-200.000	-0.010	0.046
-250.049	57.714	0.177	0.170
-249.034	-158.748	0.346	0.019
-248.019	149.991	0.139	0.185
-247.005	800.000	0.035	0.120
-245.990	199.832	0.084	0.126
-244.976	-200.000	0.004	0.064
-243.961	-200.000	0.041	-0.226
-242.946	-200.000	0.032	-0.398
-241.932	-56.312	0.259	0.113
-240.917	-104.847	-0.233	-0.052
-239.903	39.791	0.274	-0.241
-238.888	64.964	-0.341	0.338
-237.873	332.946	0.047	0.090
-236.859	25.534	0.251	0.205
-235.844	-200.000	0.061	0.315
-234.830	125.883	0.082	-0.102
-233.815	104.291	0.201	-0.232
-232.800	8.462	0.189	0.139
-231.786	733.893	0.104	-0.273
-230.771	735.340	0.075	-0.198
-229.757	-107.748	0.267	0.057
-228.742	-61.280	-0.155	0.064
-227.727	105.512	-0.156	0.180
-226.713	283.695	0.015	-0.026
-225.698	574.893	0.131	-0.313
-224.684	-50.390	0.157	0.073
-223.669	-200.000	0.056	-0.381
-222.655	-39.091	0.132	0.068
-221.640	800.000	0.027	0.107
-220.625	-102.246	0.160	-0.038
-219.611	-71.356	-0.173	0.063
-218.596	218.772	0.066	-0.103
-217.582	50.820	0.160	-0.149
-216.567	416.209	0.113	0.236
-215.552	-7.154	-0.204	0.135
-214.538	285.652	0.218	0.386
-213.523	-67.792	0.164	0.063
-212.509	34.773	0.121	0.103
-211.494	0.078	-0.175	-0.122
-210.479	800.000	0.057	-0.242
-209.465	-200.000	-0.025	0.275
-208.450	797.093	-0.039	0.106
-207.436	330.464	-0.080	0.151
-206.421	74.858	-0.049	0.050
-205.406	122.775	-0.113	0.139
-204.392	101.170	-0.224	-0.255
-203.377	-22.968	0.206	-0.122
-202.363	-200.000	0.021	0.293
-201.348	-200.000	-0.053	-0.281
-200.333	-200.000	0.000	-0.050
-199.319	-116.193	-0.341	0.062
-198.304	-138.021	0.267	0.029
-197.290	-21.763	0.174	0.104
-196.275	800.000	0.042	-0.121
-195.260	-192.603	0.146	-0.001
-194.246	-200.000	-0.001	0.140
-193.231	800.000	0.062	0.216
-192.217	800.000	-0.095	0.383
-191.202	-200.000	-0.005	-0.376
-190.187	4.890	-0.158	0.113
-189.173	180.096	-0.197	0.283
-188.158	172.150	0.214	0.301
-187.144	-200.000	0.008	-0.101
-186.129	47.056	-0.074	-0.067
-185.114	645.406	0.056	0.140
-184.100	81.511	-0.177	0.188
-183.085	-153.977	-0.078	0.005
-182.071	-66.475	-0.245	-0.095
-181.056	770.988	0.078	0.207
-180.042	199.236	-0.144	-0.216
-179.027	-200.000	0.010	-0.225
-178.012	-200.000	0.010	-0.128
-176.998	800.000	-0.149	-0.441
-175.983	-37.131	0.315	-0.165
-174.969	-38.882	0.271	0.140
-173.954	-62.373	-0.276	-0.112
-172.939	108.194	-0.057	-0.067
-171.925	-18.485	0.238	-0.145
-170.910	551.637	0.052	-0.121
-169.896	6.447	0.127	-0.092
-168.881	282.849	-0.162	0.284
-167.866	-44.097	0.128	0.063
-166.852	-72.407	-0.089	-0.032
-165.837	-64.701	0.114	0.045
-164.823	-200.000	-0.082	-0.401
-163.808	-184.642	-0.228	-0.004
-162.793	2.618	0.096	0.068
-161.779	118.412	-0.097	-0.117
-160.764	-200.000	0.040	-0.291
-159.750	572.130	0.118	0.281
-158.735	-71.949	0.124	0.045
-157.720	33.365	0.104	-0.088
-156.706	-99.301	0.061	0.015
-155.691	204.506	-0.123	0.187
-154.677	-200.000	-0.003	0.180
-153.662	97.328	-0.028	-0.031
-152.647	-200.000	0.006	-0.262
-151.633	-0.616	-0.080	-0.055
-150.618	-70.432	0.311	-0.115
-149.604	221.022	-0.122	0.191
-148.589	800.000	0.030	0.098
-147.574	717.105	-0.110	-0.286
-146.560	-145.350	0.153	0.014
-145.545	-86.379	-0.030	-0.009
-144.531	19.972	0.056	-0.044
-143.516	-116.240	0.100	-0.018
-142.502	83.477	-0.072	-0.076
-141.487	-22.823	-0.239	0.141
-140.472	243.329	-0.088	-0.143
-139.458	258.768	0.118	-0.200
-138.443	-180.135	-0.165	-0.003
-137.429	-15.984	0.256	-0.159
-136.414	800.000	0.006	0.024
-135.399	-77.263	0.279	0.095
-134.385	178.527	0.031	0.045
-133.370	32.331	0.082	-0.069
-132.356	-185.230	-0.197	0.003
-131.341	800.000	-0.028	0.104
-130.326	-147.860	-0.106	0.009
-129.312	-200.000	0.017	0.203
-128.297	60.497	0.254	0.246
-127.283	-84.922	0.037	0.011
-126.268	-32.462	-0.226	0.123
-125.253	-200.000	0.070	0.433
-124.239	-200.000	0.016	0.287
-123.224	-66.412	0.370	-0.144
-122.210	123.939	0.144	-0.176
-121.195	-54.175	0.301	-0.134
-120.180	800.000	-0.031	-0.093
