DTS Sentinel unit serial number:	SN413079Multiplexer serial number:	ORYXHardware model number:	OX4-SRSoftware version number:	ORYX F/W v4.00 Oryx Data Collector v3.7.2.0data status	okinstallation	princeton_trtdifferential loss correction	single-endedforward channel	channel 1reverse channel	N/Adate	2019/09/12time	03:20:11forward acquisition time	60.00reverse acquisition time	0.00gamma	496.2192k internal	0.2322k external	0.2322temperature offset calibration	1.0079default loss term (dB/km)	0.3790temperature slope calibration	1.0000multiplexer offset coefficient	1.0000multiplexer slope coefficient	1.0000fibre end	0.00T internal ref (°C)	32.25T ext. ref 1 (°C)	2.14T ext. ref 2 (°C)	26.50length (m)	temperature (°C)	Stokes	anti-Stokes-747.200	-38.978	0.398	-0.212
-746.185	115.613	-0.345	0.426
-745.171	-200.000	-0.004	0.374
-744.156	651.450	-0.078	0.202
-743.142	-67.598	0.189	-0.075
-742.127	-200.000	-0.034	0.170
-741.112	210.858	-0.107	0.170
-740.098	128.064	0.328	0.422
-739.083	58.523	-0.221	0.219
-738.069	-108.151	-0.484	0.106
-737.054	-82.870	-0.178	-0.058
-736.039	-82.307	-0.099	0.033
-735.025	-200.000	0.044	-0.244
-734.010	-79.103	-0.429	-0.147
-732.996	800.000	0.019	0.066
-731.981	661.742	-0.122	0.317
-730.966	800.000	-0.058	-0.163
-729.952	-108.509	0.472	0.103
-728.937	-60.772	-0.065	0.028
-727.923	-36.911	-0.325	0.176
-726.908	-200.000	-0.011	0.089
-725.894	389.255	0.089	0.185
-724.879	800.000	0.068	0.291
-723.864	-200.000	0.022	-0.537
-722.850	800.000	-0.084	0.360
-721.835	-34.165	-0.187	-0.104
-720.821	-95.221	-0.049	-0.013
-719.806	-123.719	0.293	-0.047
-718.791	-200.000	0.023	0.261
-717.777	-21.065	-0.217	0.134
-716.762	-179.197	0.165	-0.004
-715.748	-15.430	0.087	0.056
-714.733	466.995	0.074	0.168
-713.718	-200.000	0.006	-0.212
-712.704	199.521	-0.292	-0.452
-711.689	24.731	0.329	-0.275
-710.675	-10.711	-0.498	-0.332
-709.660	-101.809	-0.298	-0.073
-708.645	276.080	-0.087	-0.155
-707.631	-200.000	-0.036	0.200
-706.616	27.507	0.064	-0.054
-705.602	526.655	-0.104	0.248
-704.587	-180.958	-0.095	0.002
-703.572	75.385	-0.293	0.311
-702.558	-107.794	-0.211	-0.046
-701.543	-22.501	-0.074	0.045
-700.529	-64.045	0.201	-0.083
-699.514	800.000	0.032	-0.108
-698.499	-200.000	0.020	-0.206
-697.485	117.308	0.081	0.100
-696.470	-146.920	0.391	0.034
-695.456	19.137	-0.042	0.034
-694.441	-76.737	-0.120	0.042
-693.426	-93.128	0.126	-0.035
-692.412	-108.189	-0.137	0.030
-691.397	423.707	0.063	-0.137
-690.383	17.525	-0.105	-0.084
-689.368	212.817	-0.137	-0.217
-688.354	-44.658	-0.109	-0.055
-687.339	-65.450	-0.109	0.044
-686.324	-0.115	0.224	-0.161
-685.310	-36.918	0.297	-0.161
-684.295	122.143	-0.137	-0.172
-683.281	-200.000	0.001	-0.300
-682.266	-8.487	-0.456	-0.309
-681.251	-22.843	0.093	-0.056
-680.237	-200.000	0.007	-0.211
-679.222	-137.732	-0.245	-0.028
-678.208	800.000	0.084	0.306
-677.193	56.334	-0.294	-0.288
-676.178	-200.000	0.003	-0.026
-675.164	235.298	-0.063	-0.104
-674.149	-200.000	0.011	-0.066
-673.135	209.998	-0.090	0.142
-672.120	800.000	0.050	0.187
-671.105	-200.000	-0.007	-0.335
-670.091	-87.216	0.225	0.069
-669.076	220.849	0.225	-0.363
-668.062	-200.000	0.004	0.185
-667.047	57.605	-0.280	-0.275
-666.032	-200.000	0.013	-0.109
-665.018	351.274	0.169	0.336
-664.003	139.424	-0.092	-0.122
-662.989	800.000	-0.127	0.359
-661.974	800.000	-0.044	-0.133
-660.959	184.796	-0.300	-0.448
-659.945	132.628	0.073	0.095
-658.930	367.449	0.114	-0.231
-657.916	-57.831	0.063	-0.028
-656.901	-94.290	0.076	0.021
-655.886	-135.225	0.336	0.041
-654.872	-143.756	-0.337	0.032
-653.857	315.898	0.142	-0.270
-652.843	-200.000	0.046	0.268
-651.828	-8.356	-0.320	0.217
-650.814	160.759	0.005	0.007
-649.799	-38.364	-0.229	0.122
-648.784	800.000	0.102	-0.298
-647.770	-200.000	0.017	-0.310
-646.755	90.429	-0.157	-0.177
-645.741	-200.000	-0.012	0.153
-644.726	208.945	-0.154	0.243
-643.711	384.711	0.147	0.305
-642.697	800.000	-0.020	-0.084
-641.682	800.000	0.121	-0.496
-640.668	-25.050	-0.278	-0.166
-639.653	796.519	-0.171	-0.475
-638.638	-65.368	-0.171	-0.069
-637.624	-60.907	0.436	-0.186
-636.609	800.000	-0.050	-0.211
-635.595	-196.902	-0.181	0.001
-634.580	84.990	0.073	0.080
-633.565	69.912	-0.075	0.078
-632.551	134.747	0.203	-0.265
-631.536	148.803	0.149	-0.203
-630.522	130.333	-0.085	0.109
-629.507	-35.879	-0.295	-0.161
-628.492	545.064	-0.142	-0.342
-627.478	39.074	-0.132	-0.119
-626.463	-200.000	0.026	0.149
-625.449	-200.000	-0.029	0.237
-624.434	369.682	0.097	0.197
-623.419	-50.566	-0.103	0.049
-622.405	237.411	0.046	0.076
-621.390	800.000	-0.049	-0.200
-620.376	-200.000	0.036	-0.217
-619.361	-200.000	-0.009	-0.059
-618.346	73.480	-0.022	-0.023
-617.332	69.232	0.132	-0.136
-616.317	725.026	-0.089	-0.239
-615.303	-200.000	0.008	0.486
-614.288	167.168	-0.190	0.271
-613.273	-56.705	-0.102	0.045
-612.259	-43.491	0.287	-0.146
-611.244	-6.962	-0.131	0.089
-610.230	97.887	-0.154	0.178
-609.215	198.435	-0.014	-0.022
-608.201	424.252	0.014	0.031
-607.186	156.268	0.154	0.214
-606.171	-25.022	0.120	-0.071
-605.157	-81.852	0.362	0.119
-604.142	-137.891	0.259	-0.029
-603.128	17.040	-0.138	0.110
-602.113	-35.937	0.190	-0.103
-601.098	85.014	-0.117	-0.129
-600.084	800.000	-0.052	-0.154
-599.069	194.824	-0.107	-0.164
-598.055	-29.189	-0.128	0.073
-597.040	-149.942	0.023	0.002
-596.025	-79.318	0.322	-0.110
-595.011	-200.000	-0.014	0.098
-593.996	800.000	-0.041	0.171
-592.982	-105.401	0.329	-0.075
-591.967	-200.000	0.003	-0.326
-590.952	281.149	-0.042	-0.076
-589.938	1.948	-0.067	-0.048
-588.923	341.663	-0.171	0.336
-587.909	6.641	-0.176	-0.131
-586.894	33.236	-0.259	-0.225
-585.879	800.000	0.044	0.146
-584.865	73.844	-0.325	0.342
-583.850	-120.910	0.240	-0.040
-582.836	-105.079	0.286	-0.066
-581.821	-115.589	-0.175	-0.033
-580.806	-82.614	0.239	-0.078
-579.792	-52.628	0.047	0.022
-578.777	-200.000	0.030	0.177
-577.763	-89.067	-0.047	0.014
-576.748	-121.318	-0.197	-0.033
-575.733	-171.239	-0.266	0.009
-574.719	-69.316	-0.091	-0.035
-573.704	22.677	-0.144	-0.119
-572.690	-200.000	0.004	-0.068
-571.675	-38.895	0.280	0.148
-570.661	-26.889	-0.273	0.160
-569.646	464.437	0.114	-0.257
-568.631	153.900	0.144	-0.197
-567.617	-9.841	-0.314	0.210
-566.602	27.011	-0.058	0.049
-565.588	3.924	0.226	0.165
-564.573	47.644	-0.125	0.117
-563.558	-164.995	0.078	-0.003
-562.544	13.605	-0.102	0.079
-561.529	466.757	-0.048	0.107
-560.515	119.696	0.066	0.082
-559.500	-10.294	0.137	0.091
-558.485	-140.393	-0.190	-0.020
-557.471	800.000	0.085	-0.251
-556.456	-200.000	-0.007	-0.245
-555.442	-108.938	0.225	0.048
-554.427	118.086	0.095	0.117
-553.412	-127.115	-0.138	0.020
-552.398	191.079	-0.027	0.041
-551.383	-200.000	-0.043	-0.304
-550.369	800.000	0.068	-0.213
-549.354	-71.892	0.350	-0.130
-548.339	176.152	-0.248	-0.361
-547.325	-77.004	-0.237	-0.083
-546.310	-64.953	-0.128	-0.052
-545.296	-34.291	0.356	0.196
-544.281	-122.220	-0.533	-0.087
-543.266	-126.378	0.265	-0.040
-542.252	-200.000	0.008	-0.178
-541.237	-44.571	-0.241	0.121
-540.223	96.796	0.342	0.392
-539.208	-147.284	-0.109	-0.009
-538.193	122.797	0.181	0.227
-537.179	800.000	-0.063	0.239
-536.164	-200.000	-0.039	0.293
-535.150	-94.755	0.059	-0.016
-534.135	-184.496	0.128	0.002
-533.121	34.020	0.156	-0.136
-532.106	96.794	-0.124	0.142
-531.091	-141.400	-0.499	-0.051
-530.077	93.873	0.068	-0.077
-529.062	-112.524	0.097	-0.019
-528.048	-200.000	0.068	-0.306
-527.033	313.587	-0.165	0.312
-526.018	-15.502	-0.190	-0.121
-525.004	50.754	0.131	-0.124
-523.989	-200.000	0.043	-0.266
-522.975	-122.784	-0.144	0.023
-521.960	42.739	-0.145	0.132
-520.945	-200.000	-0.052	0.257
-519.931	-168.775	-0.216	-0.008
-518.916	800.000	-0.062	0.187
-517.902	31.787	-0.281	-0.242
-516.887	-144.713	0.025	0.002
-515.872	73.833	-0.215	0.226
-514.858	-200.000	-0.018	-0.084
-513.843	-149.202	0.534	-0.043
-512.829	-200.000	-0.022	-0.236
-511.814	253.172	0.079	0.135
-510.799	-55.155	-0.158	-0.071
-509.785	800.000	-0.045	0.160
-508.770	619.870	0.068	0.170
-507.756	-84.890	-0.143	-0.045
-506.741	127.429	0.219	-0.278
-505.726	14.937	-0.042	0.033
-504.712	7.530	-0.113	-0.085
-503.697	191.431	-0.012	0.018
-502.683	-68.296	0.096	0.037
-501.668	134.240	0.221	-0.286
-500.653	23.645	0.078	-0.064
-499.639	61.960	0.215	0.214
-498.624	-200.000	-0.005	-0.273
-497.610	-131.383	-0.169	0.022
-496.595	589.090	-0.111	0.273
-495.581	-28.182	0.213	-0.123
-494.566	800.000	0.090	-0.372
-493.551	-194.522	0.242	-0.002
-492.537	255.770	-0.106	-0.182
-491.522	-200.000	-0.017	-0.245
-490.508	-69.560	0.417	0.160
-489.493	-120.325	-0.315	-0.054
-488.478	187.336	0.145	-0.217
-487.464	800.000	-0.047	-0.167
-486.449	-29.650	-0.286	-0.163
-485.435	201.036	-0.196	-0.301
-484.420	-200.000	-0.033	0.263
-483.405	-200.000	-0.016	0.359
-482.391	31.226	-0.065	-0.056
-481.376	-200.000	-0.012	-0.073
-480.362	-174.378	0.343	-0.010
-479.347	-21.831	-0.058	0.035
-478.332	-37.019	0.277	-0.148
-477.318	-160.487	0.172	-0.009
-476.303	800.000	0.060	-0.256
-475.289	-109.645	-0.412	-0.087
-474.274	-16.082	-0.179	0.114
-473.259	29.321	-0.044	-0.038
-472.245	480.588	-0.058	-0.131
-471.230	-152.133	0.180	-0.013
-470.216	-200.000	0.003	0.161
-469.201	97.541	0.236	-0.270
-468.186	-46.143	-0.102	0.050
-467.172	800.000	-0.062	0.203
-466.157	800.000	0.057	-0.191
-465.143	-144.895	-0.270	-0.025
-464.128	277.319	0.102	-0.182
-463.113	-200.000	-0.027	0.164
-462.099	20.029	-0.052	-0.042
-461.084	-42.975	0.203	0.103
-460.070	-112.927	-0.354	0.070
-459.055	197.452	0.163	0.249
-458.040	-62.791	-0.287	-0.119
-457.026	265.840	0.023	0.039
-456.011	-44.749	0.237	-0.118
-454.997	570.710	-0.034	0.083
-453.982	123.768	-0.148	0.185
-452.968	-38.868	-0.280	0.147
-451.953	311.147	-0.130	0.243
-450.938	-65.972	0.109	0.043
-449.924	-200.000	-0.009	0.052
-448.909	85.454	0.257	-0.281
-447.895	800.000	-0.070	-0.207
-446.880	-200.000	0.011	-0.074
-445.865	-200.000	-0.020	-0.103
-444.851	-59.291	0.104	-0.045
-443.836	-75.103	0.209	-0.075
-442.822	-118.662	0.268	-0.047
-441.807	345.897	-0.053	0.103
-440.792	118.690	-0.121	-0.149
-439.778	45.498	-0.194	0.179
-438.763	-59.297	-0.217	0.093
-437.749	559.061	0.041	-0.099
-436.734	-200.000	0.012	-0.128
-435.719	800.000	-0.074	0.280
-434.705	-200.000	0.025	-0.129
-433.690	320.593	-0.049	0.093
-432.676	-60.826	-0.279	-0.118
-431.661	236.666	0.101	0.167
-430.646	-69.940	0.231	0.088
-429.632	-14.901	-0.214	-0.137
-428.617	800.000	0.151	-0.476
-427.603	-200.000	-0.045	-0.396
-426.588	-200.000	-0.044	-0.274
-425.573	181.301	-0.146	0.213
-424.559	-5.628	-0.286	-0.196
-423.544	139.021	-0.023	0.030
-422.530	61.289	-0.050	-0.050
-421.515	-109.476	-0.152	0.032
-420.500	-44.558	-0.107	-0.053
-419.486	-200.000	0.033	0.151
-418.471	321.497	-0.043	0.082
-417.457	34.639	0.322	-0.281
-416.442	-74.114	-0.356	-0.128
-415.428	-174.014	0.094	0.003
-414.413	19.665	-0.226	-0.182
-413.398	-103.667	-0.339	0.079
-412.384	-200.000	0.014	0.081
-411.369	-200.000	0.067	-0.326
-410.355	-125.230	-0.142	-0.022
-409.340	-63.186	-0.114	-0.047
-408.325	140.969	0.091	0.120
-407.311	-3.446	0.204	0.142
-406.296	526.305	0.009	-0.022
-405.282	800.000	-0.061	-0.177
-404.267	176.374	0.089	0.129
-403.252	-99.450	0.073	0.018
-402.238	-200.000	0.021	-0.148
-401.223	75.414	0.070	0.074
-400.209	40.529	0.128	0.115
-399.194	800.000	0.050	-0.159
-398.179	-51.050	-0.277	0.129
-397.165	21.206	0.249	-0.201
-396.150	588.518	0.120	-0.295
-395.136	-49.825	0.203	0.096
-394.121	-65.194	-0.263	-0.105
-393.106	142.411	0.261	-0.345
-392.092	134.289	-0.156	0.202
-391.077	-29.784	-0.293	0.166
-390.063	-80.233	-0.040	-0.013
-389.048	800.000	0.055	0.153
-388.033	-153.402	0.227	0.016
-387.019	82.787	-0.159	0.172
-386.004	-88.439	-0.049	-0.015
-384.990	-52.035	-0.219	-0.101
-383.975	-89.334	0.437	-0.128
-382.960	115.810	-0.147	0.179
-381.946	-42.188	0.139	0.071
-380.931	456.693	0.032	-0.071
-379.917	-200.000	-0.030	-0.326
-378.902	392.442	0.142	0.294
-377.888	53.538	0.093	0.089
-376.873	-200.000	-0.055	0.285
-375.858	-200.000	0.087	0.405
-374.844	-200.000	0.039	-0.220
-373.829	24.677	0.095	0.078
-372.815	667.058	-0.138	-0.355
-371.800	-69.656	-0.202	0.077
-370.785	-200.000	0.017	-0.079
-369.771	800.000	-0.045	-0.125
-368.756	449.115	-0.086	0.189
-367.742	-177.967	0.106	-0.003
-366.727	184.930	-0.131	0.193
-365.712	71.839	0.233	-0.242
-364.698	715.872	0.074	-0.195
-363.683	63.795	0.087	0.087
-362.669	-24.136	0.218	0.130
-361.654	-2.440	-0.100	0.070
-360.639	-43.159	-0.166	-0.084
-359.625	154.117	-0.118	0.161
-358.610	-200.000	-0.032	0.290
-357.596	139.276	-0.093	0.122
-356.581	-22.831	0.185	0.111
-355.566	-73.432	-0.217	-0.079
-354.552	235.356	0.164	-0.270
-353.537	-137.327	-0.064	0.007
-352.523	-52.273	0.183	-0.084
-351.508	-117.847	0.288	-0.051
-350.493	-170.535	0.315	0.011
-349.479	311.248	-0.065	0.120
-348.464	-99.404	0.190	-0.048
-347.450	-1.520	0.066	-0.046
-346.435	35.104	-0.311	-0.271
-345.420	800.000	0.048	0.157
-344.406	-200.000	0.051	0.340
-343.391	-34.953	0.162	0.088
-342.377	-200.000	0.023	-0.141
-341.362	-200.000	-0.034	-0.290
-340.348	3.532	0.084	-0.061
-339.333	-80.022	0.315	0.105
-338.318	-200.000	0.031	0.436
-337.304	-142.593	0.198	0.019
-336.289	-200.000	0.012	0.142
-335.275	-200.000	0.367	0.001
-334.260	-175.070	0.131	0.004
-333.245	511.545	0.058	0.133
-332.231	-102.709	0.313	0.074
-331.216	-173.287	0.275	0.008
-330.202	12.124	-0.078	0.060
-329.187	73.746	-0.167	0.174
-328.172	113.235	-0.205	0.247
-327.158	-200.000	-0.002	0.087
-326.143	716.647	0.070	0.184
-325.129	800.000	-0.012	0.036
-324.114	39.992	0.095	0.085
-323.099	-123.826	0.249	-0.039
-322.085	-115.206	-0.271	0.051
-321.070	-200.000	-0.016	0.272
-320.056	-120.295	0.349	0.059
-319.041	-200.000	0.006	0.496
-318.026	-4.261	0.060	-0.041
-317.012	-193.707	0.317	-0.003
-315.997	-200.000	0.012	0.314
-314.983	30.483	0.152	0.129
-313.968	87.218	-0.046	0.051
-312.953	800.000	0.106	-0.407
-311.939	125.251	-0.249	-0.312
-310.924	-200.000	0.006	-0.157
-309.910	800.000	-0.048	0.157
-308.895	-47.725	-0.358	-0.172
-307.880	536.165	-0.073	0.173
-306.866	800.000	0.057	0.178
-305.851	-200.000	0.051	0.293
-304.837	-50.586	0.395	0.185
-303.822	88.233	-0.111	0.123
-302.807	311.233	-0.067	0.125
-301.793	48.356	-0.152	-0.142
-300.778	-47.597	-0.185	0.089
-299.764	-142.757	0.479	0.046
-298.749	92.603	0.080	-0.090
-297.735	-200.000	0.049	0.215
-296.720	15.799	-0.059	0.046
-295.705	-200.000	-0.071	0.417
-294.691	-142.827	-0.301	0.029
-293.676	-200.000	0.027	0.278
-292.662	24.096	0.096	0.079
-291.647	42.521	-0.144	0.130
-290.632	68.814	-0.079	-0.080
-289.618	800.000	-0.091	-0.249
-288.603	127.382	0.030	0.038
-287.589	-200.000	0.034	0.604
-286.574	438.072	0.031	-0.067
-285.559	110.277	-0.127	0.151
-284.545	29.333	0.308	0.260
-283.530	-4.670	-0.271	-0.185
-282.516	-50.641	0.096	-0.045
-281.501	91.868	0.290	-0.324
-280.486	800.000	0.061	0.242
-279.472	85.239	0.103	0.112
-278.457	-200.000	-0.017	-0.153
-277.443	-140.331	-0.319	-0.033
-276.428	593.331	0.043	-0.105
-275.413	-55.178	-0.195	-0.087
-274.399	700.124	-0.121	0.316
-273.384	-167.186	-0.294	0.012
-272.370	45.296	0.127	0.116
-271.355	-169.456	0.154	-0.006
-270.340	82.151	-0.121	-0.130
-269.326	800.000	-0.085	-0.279
-268.311	112.114	-0.157	0.188
-267.297	800.000	0.065	-0.231
-266.282	-64.201	-0.151	0.061
-265.267	-178.761	-0.108	-0.002
-264.253	52.831	-0.145	0.138
-263.238	-172.553	0.287	0.009
-262.224	-135.820	0.066	-0.008
-261.209	-76.609	-0.364	0.127
-260.195	30.132	0.116	0.098
-259.180	-103.438	0.076	0.018
-258.165	454.423	0.064	0.142
-257.151	-72.098	0.123	0.045
-256.136	-54.524	0.049	0.022
-255.122	800.000	-0.018	0.052
-254.107	654.402	-0.059	0.150
-253.092	-130.605	-0.261	0.035
-252.078	-124.790	0.049	0.008
-251.063	800.000	-0.097	0.273
-250.049	-86.419	0.099	0.030
-249.034	-200.000	-0.079	0.431
-248.019	295.044	0.065	0.118
-247.005	-116.501	-0.295	0.054
-245.990	305.646	0.267	0.491
-244.976	251.519	0.052	-0.088
-243.961	796.670	0.019	0.051
-242.946	715.042	-0.075	0.196
-241.932	-85.929	0.087	-0.027
-240.917	800.000	-0.044	0.172
-239.903	7.232	-0.435	0.322
-238.888	226.391	-0.193	0.310
-237.873	-41.594	0.214	0.109
-236.859	359.405	0.057	-0.114
-235.844	800.000	0.122	-0.361
-234.830	-130.905	0.429	-0.057
-233.815	-200.000	0.030	-0.363
-232.800	57.662	0.281	-0.272
-231.786	-110.592	-0.265	0.054
-230.771	329.755	-0.077	0.147
-229.757	800.000	0.038	-0.121
-228.742	167.396	0.093	0.131
-227.727	-129.512	-0.165	-0.023
-226.713	65.478	-0.124	-0.124
-225.698	164.122	0.049	0.068
-224.684	-200.000	-0.038	-0.422
-223.669	800.000	-0.045	0.159
-222.655	62.737	-0.064	-0.064
-221.640	800.000	0.057	0.192
-220.625	119.502	0.152	0.186
-219.611	-200.000	0.024	-0.221
-218.596	78.319	0.161	-0.170
-217.582	3.675	-0.166	-0.120
-216.567	0.485	0.107	0.076
-215.552	800.000	-0.009	0.035
-214.538	800.000	-0.135	-0.428
-213.523	-119.632	0.369	-0.063
-212.509	-14.161	0.207	0.132
-211.494	293.344	0.171	0.309
-210.479	-136.831	-0.058	0.007
-209.465	-155.306	-0.176	-0.011
-208.450	16.456	-0.118	0.092
-207.436	-24.712	0.178	0.105
-206.421	-51.424	-0.213	0.098
-205.406	-200.000	0.033	-0.180
-204.392	-161.739	-0.099	-0.005
-203.377	347.041	0.157	-0.306
-202.363	109.464	0.129	-0.153
-201.348	71.097	0.218	-0.224
-200.333	800.000	0.008	0.028
-199.319	800.000	0.050	-0.204
-198.304	-130.390	0.181	-0.024
-197.290	800.000	0.074	0.297
-196.275	-200.000	0.101	0.439
-195.260	-89.863	-0.167	-0.048
-194.246	14.695	-0.194	-0.150
-193.231	10.140	0.120	-0.090
-192.217	-200.000	0.008	-0.182
-191.202	45.728	-0.237	-0.217
-190.187	-112.074	-0.065	-0.013
-189.173	-41.825	-0.383	0.194
-188.158	-87.583	0.304	0.091
-187.144	139.688	0.102	0.133
-186.129	-139.890	0.381	-0.040
-185.114	-200.000	-0.030	-0.324
-184.100	-200.000	0.032	-0.142
-183.085	-200.000	-0.010	-0.143
-182.071	122.693	0.178	0.220
-181.056	-136.016	-0.069	-0.008
-180.042	254.750	0.191	0.323
-179.027	-28.807	0.117	-0.066
-178.012	200.216	-0.225	-0.342
-176.998	-75.247	0.135	0.048
-175.983	-119.634	0.040	0.007
-174.969	-60.142	-0.252	0.106
-173.954	-200.000	0.044	-0.304
-172.939	74.459	-0.240	-0.249
-171.925	38.361	-0.113	-0.100
-170.910	-81.919	-0.165	-0.053
-169.896	70.559	-0.073	-0.074
-168.881	800.000	-0.040	-0.135
-167.866	-54.542	-0.219	0.098
-166.852	399.868	-0.036	-0.075
-165.837	151.306	-0.234	0.315
-164.823	-200.000	-0.025	0.482
-163.808	5.022	0.125	-0.091
-162.793	-200.000	0.015	0.260
-161.779	800.000	0.066	0.271
-160.764	46.521	-0.041	0.037
-159.750	-108.197	-0.182	-0.039
-158.735	-152.581	0.250	-0.018
-157.720	800.000	-0.045	-0.187
-156.706	-49.720	-0.235	-0.110
-155.691	800.000	0.152	-0.477
-154.677	-200.000	-0.056	-0.281
-153.662	800.000	0.024	0.071
-152.647	-166.101	0.379	0.016
-151.633	494.700	-0.059	-0.134
-150.618	-63.452	0.113	0.046
-149.604	800.000	0.054	0.168
-148.589	-200.000	-0.019	0.196
-147.574	38.163	0.114	0.100
-146.560	-44.384	-0.341	0.169
-145.545	-102.395	0.189	-0.045
-144.531	256.015	-0.017	0.029
-143.516	-39.929	0.178	-0.092
-142.502	62.254	-0.193	0.190
-141.487	-52.105	-0.401	-0.184
-140.472	-79.387	-0.097	-0.032
-139.458	-176.281	-0.176	0.005
-138.443	-91.677	-0.240	-0.067
-137.429	8.035	0.234	0.173
-136.414	-167.620	0.269	0.011
-135.399	-48.093	-0.256	-0.122
-134.385	272.106	-0.166	-0.289
-133.370	-97.950	0.483	0.123
-132.356	-168.326	0.160	0.006
-131.341	-146.437	0.147	0.013
-130.326	104.831	-0.116	-0.135
-129.312	108.644	0.221	-0.260
-128.297	-136.473	0.214	-0.025
-127.283	84.057	-0.184	0.198
-126.268	3.526	-0.174	0.125
-125.253	572.036	0.062	-0.149
-124.239	152.315	0.047	0.064
-123.224	-200.000	-0.016	0.256
-122.210	-200.000	-0.010	0.057
-121.195	800.000	0.099	-0.358
