DTS Sentinel unit serial number:	SN413079Multiplexer serial number:	ORYXHardware model number:	OX4-SRSoftware version number:	ORYX F/W v4.00 Oryx Data Collector v3.7.2.0data status	okinstallation	princeton_trtdifferential loss correction	single-endedforward channel	channel 1reverse channel	N/Adate	2019/09/14time	13:02:35forward acquisition time	60.00reverse acquisition time	0.00gamma	496.2192k internal	0.2294k external	0.2294temperature offset calibration	1.0092default loss term (dB/km)	0.3790temperature slope calibration	1.0000multiplexer offset coefficient	1.0000multiplexer slope coefficient	1.0000fibre end	0.00T internal ref (°C)	37.98T ext. ref 1 (°C)	4.84T ext. ref 2 (°C)	33.02length (m)	temperature (°C)	Stokes	anti-Stokes-747.200	332.167	0.222	0.438
-746.185	123.087	-0.161	0.206
-745.171	-67.217	0.281	0.113
-744.156	800.000	0.057	0.217
-743.142	-200.000	0.045	0.317
-742.127	800.000	0.102	0.361
-741.112	483.206	0.083	0.193
-740.098	-200.000	0.068	-0.000
-739.083	242.567	-0.081	0.138
-738.069	254.922	0.013	-0.022
-737.054	84.342	0.222	-0.249
-736.039	-74.663	-0.320	-0.117
-735.025	22.254	0.215	0.179
-734.010	127.183	0.167	-0.216
-732.996	800.000	-0.108	-0.307
-731.981	-84.651	0.162	0.052
-730.966	701.176	-0.030	0.082
-729.952	98.458	0.309	-0.364
-728.937	-200.000	-0.016	-0.261
-727.923	-36.566	-0.060	0.033
-726.908	189.001	0.079	0.120
-725.894	14.750	-0.114	-0.091
-724.879	100.325	0.135	0.161
-723.864	-200.000	-0.063	-0.322
-722.850	3.535	0.046	0.034
-721.835	-200.000	0.021	-0.118
-720.821	-1.538	0.296	-0.213
-719.806	-200.000	-0.001	-0.231
-718.791	-68.543	-0.233	0.092
-717.777	-177.680	-0.152	-0.004
-716.762	484.424	-0.072	-0.168
-715.748	236.994	0.161	-0.273
-714.733	386.524	0.060	0.127
-713.718	229.878	-0.120	0.200
-712.704	-88.939	-0.302	0.091
-711.689	800.000	0.037	0.130
-710.675	15.469	0.163	-0.131
-709.660	800.000	-0.035	-0.123
-708.645	350.503	-0.062	0.125
-707.631	-97.184	0.308	0.082
-706.616	58.912	0.164	0.165
-705.602	-45.009	0.063	-0.032
-704.587	-200.000	0.036	-0.173
-703.572	63.367	0.258	-0.264
-702.558	-122.627	-0.178	0.029
-701.543	800.000	-0.040	-0.163
-700.529	-127.238	0.180	-0.027
-699.514	-200.000	0.020	-0.144
-698.499	-13.827	-0.173	0.114
-697.485	-200.000	-0.008	-0.194
-696.470	199.183	-0.077	0.120
-695.456	445.487	-0.166	0.371
-694.441	-78.820	-0.138	-0.048
-693.426	800.000	0.040	0.161
-692.412	2.212	0.151	-0.112
-691.397	103.498	0.247	-0.296
-690.383	-147.992	-0.463	-0.039
-689.368	172.044	-0.159	-0.233
-688.354	125.342	0.167	-0.215
-687.339	135.807	-0.154	0.205
-686.324	67.135	-0.379	-0.394
-685.310	38.160	-0.297	0.269
-684.295	-17.359	0.196	0.126
-683.281	-150.158	0.128	-0.010
-682.266	-175.361	0.269	-0.008
-681.251	-200.000	-0.026	0.198
-680.237	-200.000	0.009	-0.115
-679.222	-98.054	-0.045	-0.012
-678.208	94.875	0.061	0.071
-677.193	-200.000	0.046	0.226
-676.178	800.000	0.110	0.329
-675.164	45.458	0.158	0.149
-674.149	-68.005	-0.238	0.095
-673.135	-200.000	0.097	0.000
-672.120	733.077	-0.077	0.211
-671.105	-200.000	-0.017	0.091
-670.091	45.347	0.159	0.150
-669.076	-63.071	-0.211	0.089
-668.062	398.039	0.128	0.273
-667.047	544.837	-0.058	0.140
-666.032	-97.726	-0.277	0.073
-665.018	45.972	-0.130	0.123
-664.003	-148.976	-0.283	-0.023
-662.989	426.686	0.159	-0.349
-661.974	401.701	-0.093	-0.199
-660.959	-200.000	0.042	-0.492
-659.945	47.402	0.172	-0.164
-658.930	125.727	-0.080	-0.103
-657.916	-138.075	0.164	0.019
-656.901	129.247	0.182	-0.236
-655.886	242.624	0.165	-0.282
-654.872	-200.000	-0.017	-0.135
-653.857	-200.000	0.002	0.121
-652.843	72.189	-0.124	-0.132
-651.828	-63.862	-0.190	0.079
-650.814	800.000	0.038	-0.108
-649.799	-200.000	-0.049	-0.225
-648.784	-115.884	0.189	-0.036
-647.770	573.670	0.030	-0.074
-646.755	111.990	-0.083	0.102
-645.741	800.000	0.029	0.112
-644.726	430.143	0.086	0.189
-643.711	-64.500	0.367	0.152
-642.697	-200.000	-0.052	0.263
-641.682	431.165	0.043	0.095
-640.668	-4.586	-0.089	0.063
-639.653	-73.290	0.060	-0.023
-638.638	-90.837	-0.065	0.019
-637.624	-130.069	0.348	0.048
-636.609	-66.458	0.392	0.159
-635.595	-52.218	-0.384	-0.181
-634.580	332.988	-0.139	-0.273
-633.565	311.683	0.088	0.168
-632.551	-200.000	-0.052	-0.250
-631.536	-2.656	-0.082	0.058
-630.522	-200.000	0.031	-0.185
-629.507	-61.347	0.068	-0.029
-628.492	-92.503	-0.409	0.117
-627.478	-179.658	-0.123	0.003
-626.463	150.284	0.051	-0.071
-625.449	800.000	0.059	0.239
-624.434	-121.686	-0.060	0.010
-623.419	205.785	0.119	-0.189
-622.405	462.382	-0.073	-0.166
-621.390	800.000	-0.062	-0.184
-620.376	104.410	0.120	-0.144
-619.361	-167.978	0.095	0.004
-618.346	-130.962	-0.407	0.055
-617.332	-200.000	-0.005	-0.071
-616.317	0.271	-0.126	-0.092
-615.303	326.153	0.149	-0.290
-614.288	49.703	-0.243	0.233
-613.273	125.637	0.063	0.081
-612.259	-13.705	-0.088	0.058
-611.244	96.957	-0.195	-0.227
-610.230	800.000	-0.047	0.134
-609.215	-104.703	-0.346	0.081
-608.201	-135.813	0.077	0.009
-607.186	323.923	-0.095	-0.185
-606.171	-162.354	0.362	-0.018
-605.157	347.820	0.131	-0.263
-604.142	-73.956	0.343	0.127
-603.128	800.000	-0.086	0.284
-602.113	-200.000	-0.011	0.137
-601.098	800.000	0.069	-0.280
-600.084	-86.990	-0.138	-0.043
-599.069	-72.429	-0.099	-0.037
-598.055	304.605	-0.152	-0.287
-597.040	-52.515	-0.269	0.126
-596.025	-200.000	0.027	0.186
-595.011	-87.348	-0.190	0.059
-593.996	-6.075	0.170	0.118
-592.982	163.727	-0.157	0.225
-591.967	-200.000	-0.029	-0.151
-590.952	303.384	-0.115	0.216
-589.938	-200.000	-0.017	0.103
-588.923	800.000	-0.102	-0.296
-587.909	-106.535	0.194	0.044
-586.894	-98.281	0.108	0.028
-585.879	-16.694	-0.233	-0.150
-584.865	-164.283	0.303	0.014
-583.850	-200.000	-0.018	-0.102
-582.836	-200.000	0.032	0.206
-581.821	-200.000	-0.014	0.210
-580.806	-52.865	-0.252	0.118
-579.792	800.000	0.021	-0.075
-578.777	-101.689	0.253	-0.062
-577.763	800.000	0.131	-0.499
-576.748	110.306	0.166	0.203
-575.733	-9.326	-0.018	0.012
-574.719	-76.978	-0.200	-0.071
-573.704	-200.000	0.043	-0.216
-572.690	66.391	-0.089	0.092
-571.675	-13.393	-0.412	0.271
-570.661	-42.948	-0.370	0.191
-569.646	165.331	0.035	-0.050
-568.631	-58.215	0.166	0.074
-567.617	-176.857	-0.003	0.000
-566.602	-28.244	0.137	-0.081
-565.588	-34.641	-0.043	0.024
-564.573	103.261	-0.069	-0.082
-563.558	203.780	-0.154	-0.242
-562.544	604.852	-0.101	-0.255
-561.529	-94.533	0.181	0.050
-560.515	-17.482	-0.146	0.093
-559.500	-200.000	0.023	-0.252
-558.485	-129.426	-0.102	0.014
-557.471	-143.578	0.108	0.010
-556.456	215.800	-0.132	0.214
-555.442	800.000	-0.055	-0.165
-554.427	-99.938	0.376	0.095
-553.412	-200.000	-0.027	0.165
-552.398	-89.943	-0.389	-0.115
-551.383	-46.515	0.146	-0.073
-550.369	332.470	0.119	-0.234
-549.354	653.752	0.057	-0.149
-548.339	67.904	0.140	-0.145
-547.325	-9.272	-0.072	-0.049
-546.310	-17.817	-0.158	0.100
-545.296	-113.096	0.518	-0.104
-544.281	683.198	0.056	0.148
-543.266	36.438	0.142	-0.127
-542.252	-148.086	-0.117	0.010
-541.237	18.053	0.107	0.086
-540.223	473.411	-0.114	0.260
-539.208	0.446	0.152	0.110
-538.193	-28.994	-0.182	0.106
-537.179	-97.917	0.390	0.102
-536.164	-200.000	0.053	-0.259
-535.150	28.474	-0.065	0.056
-534.135	5.576	-0.045	0.034
-533.121	-200.000	0.000	-0.253
-532.106	71.540	0.169	-0.178
-531.091	16.596	-0.215	0.173
-530.077	800.000	-0.038	-0.114
-529.062	6.093	0.234	0.176
-528.048	-2.284	-0.096	-0.068
-527.033	229.212	0.221	-0.366
-526.018	-144.197	-0.222	-0.021
-525.004	-200.000	-0.034	-0.305
-523.989	-200.000	0.036	-0.254
-522.975	277.275	0.181	0.327
-521.960	-200.000	0.021	0.160
-520.945	390.276	0.193	0.405
-519.931	140.933	0.259	-0.347
-518.916	426.190	-0.059	-0.130
-517.902	800.000	0.125	-0.535
-516.887	51.340	-0.249	-0.239
-515.872	-61.566	-0.218	0.093
-514.858	-34.030	-0.129	0.072
-513.843	-135.137	-0.227	-0.028
-512.829	75.288	-0.225	0.240
-511.814	-11.594	-0.170	0.113
-510.799	-15.405	-0.157	0.102
-509.785	272.531	0.167	0.299
-508.770	-48.830	0.074	-0.036
-507.756	-62.860	0.292	-0.123
-506.741	-18.334	-0.121	-0.076
-505.726	342.562	-0.163	-0.322
-504.712	-51.040	-0.149	-0.071
-503.697	-8.452	0.215	0.147
-502.683	83.994	-0.211	-0.234
-501.668	-200.000	-0.038	-0.326
-500.653	-34.025	0.134	0.075
-499.639	13.466	-0.148	0.116
-498.624	-65.612	-0.315	-0.128
-497.610	782.652	0.085	-0.237
-496.595	65.693	-0.183	-0.188
-495.581	-23.588	-0.205	0.124
-494.566	-143.074	0.093	-0.009
-493.551	321.490	0.183	-0.353
-492.537	-32.200	-0.167	0.094
-491.522	-87.685	0.258	0.079
-490.508	147.913	0.105	-0.143
-489.493	-38.300	0.104	0.056
-488.478	-6.525	-0.187	-0.129
-487.464	800.000	0.043	-0.124
-486.449	-200.000	-0.016	-0.276
-485.435	157.892	-0.123	0.172
-484.420	-60.954	0.116	-0.050
-483.405	-200.000	-0.003	-0.152
-482.391	-157.204	0.207	0.013
-481.376	-140.855	0.364	-0.038
-480.362	440.353	0.083	0.183
-479.347	-119.114	0.207	-0.037
-478.332	-58.703	-0.133	-0.058
-477.318	800.000	-0.112	-0.367
-476.303	23.516	-0.207	0.172
-475.289	565.317	0.065	0.159
-474.274	607.818	0.076	-0.191
-473.259	-200.000	-0.033	-0.244
-472.245	-118.115	-0.133	-0.024
-471.230	-131.652	-0.072	-0.010
-470.216	30.178	0.141	-0.121
-469.201	-1.956	0.020	0.014
-468.186	-36.150	0.250	-0.137
-467.172	-57.802	0.184	0.081
-466.157	-45.921	-0.129	-0.064
-465.143	-40.152	0.231	0.122
-464.128	190.870	-0.074	-0.112
-463.113	800.000	0.071	-0.297
-462.099	336.254	0.073	-0.144
-461.084	219.095	-0.140	-0.226
-460.070	-116.411	-0.128	0.024
-459.055	-16.551	-0.216	0.138
-458.040	-68.690	-0.196	0.077
-457.026	61.301	-0.037	0.037
-456.011	-95.267	-0.235	0.064
-454.997	52.607	0.153	-0.148
-453.982	-79.738	0.034	0.012
-452.968	210.289	-0.047	0.075
-451.953	336.463	-0.096	-0.189
-450.938	467.140	-0.072	0.163
-449.924	-30.372	-0.164	-0.094
-448.909	43.041	0.189	-0.175
-447.895	-141.943	-0.145	0.015
-446.880	-200.000	0.254	0.000
-445.865	100.529	-0.110	0.130
-444.851	93.236	0.243	0.278
-443.836	-6.029	0.326	-0.225
-442.822	-85.849	-0.281	0.088
-441.807	-200.000	-0.386	-0.001
-440.792	-200.000	-0.015	0.089
-439.778	50.076	0.307	-0.293
-438.763	-183.622	-0.080	0.001
-437.749	12.285	-0.204	-0.159
-436.734	281.759	0.156	-0.282
-435.719	286.043	-0.057	-0.104
-434.705	-75.598	0.478	-0.172
-433.690	-64.717	0.222	0.091
-432.676	-72.165	-0.168	0.063
-431.661	800.000	0.039	0.114
-430.646	800.000	0.030	-0.119
-429.632	-200.000	-0.003	-0.199
-428.617	-20.356	0.135	0.084
-427.603	78.522	-0.210	0.227
-426.588	-54.576	-0.123	-0.056
-425.573	-200.000	0.015	-0.151
-424.559	-65.900	0.082	-0.033
-423.544	463.480	-0.236	-0.532
-422.530	-200.000	-0.003	0.144
-421.515	66.861	-0.254	0.262
-420.500	-76.186	-0.317	-0.113
-419.486	62.347	0.124	0.125
-418.471	-40.315	0.273	-0.143
-417.457	-200.000	-0.022	0.198
-416.442	307.121	0.104	0.196
-415.428	-26.326	0.318	-0.188
-414.413	181.521	0.128	-0.190
-413.398	-11.806	0.275	-0.182
-412.384	572.980	-0.132	0.324
-411.369	34.850	-0.246	0.217
-410.355	83.019	-0.244	-0.268
-409.340	294.889	-0.167	-0.309
-408.325	800.000	0.058	-0.193
-407.311	-106.022	-0.309	-0.070
-406.296	-75.362	-0.037	-0.013
-405.282	-51.020	0.111	0.053
-404.267	-49.099	0.210	-0.101
-403.252	-104.786	0.079	-0.018
-402.238	-200.000	-0.051	0.262
-401.223	44.588	0.398	-0.369
-400.209	121.924	0.143	0.180
-399.194	-147.698	0.264	0.022
-398.179	286.800	-0.153	-0.278
-397.165	53.185	-0.153	-0.148
-396.150	-11.351	0.154	0.102
-395.136	256.103	-0.064	0.112
-394.121	-149.670	-0.344	0.027
-393.106	-137.992	0.328	0.037
-392.092	-78.252	-0.151	0.052
-391.077	-200.000	0.010	-0.128
-390.063	-96.591	0.218	-0.058
-389.048	181.137	-0.151	-0.225
-388.033	34.042	0.179	-0.157
-387.019	428.066	0.094	0.204
-386.004	800.000	-0.069	-0.245
-384.990	34.880	-0.194	0.171
-383.975	-10.551	0.247	0.165
-382.960	800.000	0.079	-0.244
-381.946	41.615	0.180	-0.164
-380.931	779.881	0.009	0.025
-379.917	-50.433	0.144	-0.069
-378.902	454.595	0.109	0.244
-377.888	-135.509	0.173	-0.021
-376.873	-7.162	0.171	0.117
-375.858	-136.375	-0.134	-0.016
-374.844	-54.450	-0.069	0.031
-373.829	-200.000	-0.034	0.187
-372.815	-57.767	0.175	0.077
-371.800	-200.000	0.006	0.109
-370.785	-0.527	0.158	0.113
-369.771	20.451	0.235	-0.191
-368.756	-106.072	-0.077	-0.017
-367.742	182.493	-0.083	0.123
-366.727	-124.496	-0.355	-0.056
-365.712	-68.135	-0.277	0.109
-364.698	54.434	-0.180	0.175
-363.683	-82.974	0.092	0.030
-362.669	-97.028	0.270	0.071
-361.654	-189.467	-0.409	0.005
-360.639	49.870	-0.074	-0.070
-359.625	304.363	0.165	0.309
-358.610	800.000	-0.038	0.148
-357.596	132.980	0.059	-0.076
-356.581	167.905	0.143	0.204
-355.566	-123.057	0.151	0.024
-354.552	-200.000	-0.042	0.244
-353.537	-22.872	-0.065	-0.039
-352.523	800.000	-0.071	0.237
-351.508	-4.860	0.172	0.119
-350.493	-47.816	-0.045	-0.022
-349.479	-102.781	-0.226	-0.054
-348.464	-200.000	0.009	-0.145
-347.450	-200.000	-0.004	-0.034
-346.435	-30.450	0.129	-0.073
-345.420	-200.000	0.002	0.020
-344.406	-105.068	0.150	-0.035
-343.391	-97.953	-0.108	0.028
-342.377	-133.761	-0.286	-0.036
-341.362	-200.000	0.016	-0.258
-340.348	-142.302	0.283	0.028
-339.333	800.000	-0.073	0.311
-338.318	178.032	0.200	0.294
-337.304	-200.000	0.020	0.199
-336.289	-80.149	-0.201	0.068
-335.275	75.910	-0.137	-0.146
-334.260	-73.599	-0.551	-0.202
-333.245	-151.526	-0.202	-0.015
-332.231	-2.599	-0.169	-0.119
-331.216	27.033	0.147	0.124
-330.202	663.427	-0.096	0.250
-329.187	402.467	0.040	-0.084
-328.172	-200.000	-0.065	-0.360
-327.158	-94.544	0.308	-0.084
-326.143	237.293	0.072	-0.120
-325.129	107.514	0.145	-0.174
-324.114	742.938	0.052	-0.140
-323.099	44.706	-0.325	0.301
-322.085	-61.068	0.170	0.072
-321.070	261.725	-0.181	0.316
-320.056	-7.177	-0.123	-0.084
-319.041	-200.000	0.015	-0.083
-318.026	113.654	-0.044	0.054
-317.012	180.368	0.156	-0.230
-315.997	2.028	-0.443	-0.322
-314.983	-200.000	0.017	0.131
-313.968	30.814	-0.092	-0.079
-312.953	-93.957	0.140	0.039
-311.939	10.815	-0.091	-0.070
-310.924	-200.000	0.014	0.225
-309.910	-178.893	0.147	0.003
-308.895	258.798	-0.081	0.140
-307.880	-148.087	-0.213	0.018
-306.866	29.217	-0.195	0.167
-305.851	800.000	0.072	-0.264
-304.837	-154.525	-0.143	-0.010
-303.822	103.791	-0.301	0.355
-302.807	-52.908	-0.095	-0.044
-301.793	800.000	0.036	-0.111
-300.778	-200.000	0.007	0.107
-299.764	-178.147	-0.359	-0.009
-298.749	-200.000	0.036	0.310
-297.735	800.000	0.066	0.185
-296.720	-200.000	-0.034	0.338
-295.705	481.038	0.065	0.149
-294.691	-200.000	-0.033	-0.160
-293.676	-36.352	0.410	0.222
-292.662	-152.014	-0.417	-0.031
-291.647	267.401	-0.250	0.439
-290.632	-200.000	-0.011	-0.228
-289.618	-200.000	-0.033	-0.189
-288.603	-78.151	-0.215	0.074
-287.589	-38.210	0.213	0.114
-286.574	800.000	-0.034	0.100
-285.559	800.000	-0.152	-0.563
-284.545	-51.165	0.047	-0.022
-283.530	142.610	0.180	-0.240
-282.516	-89.092	0.454	-0.135
-281.501	3.187	-0.191	-0.140
-280.486	-133.287	0.091	-0.012
-279.472	800.000	-0.029	-0.098
-278.457	-126.763	0.114	0.017
-277.443	-200.000	-0.010	0.221
-276.428	-104.209	0.178	-0.042
-275.413	-140.654	0.673	0.070
-274.399	800.000	-0.075	-0.209
-273.384	-200.000	0.048	-0.319
-272.370	219.316	0.098	-0.158
-271.355	800.000	-0.017	0.059
-270.340	-61.601	-0.299	0.126
-269.326	6.501	-0.074	-0.055
-268.311	292.321	0.143	0.261
-267.297	-55.721	0.206	0.092
-266.282	-32.949	-0.087	-0.048
-265.267	49.037	0.229	-0.216
-264.253	-67.887	-0.169	0.066
-263.238	-200.000	0.005	0.313
-262.224	800.000	-0.086	-0.277
-261.209	-200.000	0.020	-0.212
-260.195	800.000	-0.119	0.411
-259.180	-200.000	0.056	-0.270
-258.165	-12.517	-0.496	-0.325
-257.151	104.911	0.200	-0.236
-256.136	-171.110	-0.108	-0.004
-255.122	89.219	0.069	-0.077
-254.107	-19.134	-0.039	0.024
-253.092	800.000	0.071	0.309
-252.078	800.000	0.082	-0.283
-251.063	155.813	0.193	0.266
-250.049	-112.499	0.245	0.049
-249.034	-70.427	0.370	-0.140
-248.019	182.261	0.107	-0.158
-247.005	31.770	0.232	0.200
-245.990	-81.433	0.253	0.084
-244.976	-175.399	-0.343	-0.009
-243.961	-191.280	0.281	0.003
-242.946	142.177	-0.290	0.386
-241.932	-122.924	0.182	0.029
-240.917	18.570	-0.194	0.155
-239.903	99.626	0.264	0.306
-238.888	-200.000	0.005	0.047
-237.873	-200.000	0.027	0.203
-236.859	328.790	-0.131	0.252
-235.844	800.000	-0.022	-0.093
-234.830	-116.675	0.219	-0.040
-233.815	55.168	-0.248	0.240
-232.800	-200.000	-0.017	-0.233
-231.786	558.531	0.137	-0.331
-230.771	671.947	0.207	0.538
-229.757	-200.000	0.010	-0.175
-228.742	-35.858	0.256	-0.139
-227.727	-87.219	0.274	-0.084
-226.713	-161.772	-0.167	-0.009
-225.698	-48.135	0.137	-0.066
-224.684	-133.494	-0.497	0.062
-223.669	-39.324	0.142	-0.074
-222.655	-200.000	-0.001	0.251
-221.640	-112.382	-0.453	-0.091
-220.625	-73.239	0.182	-0.067
-219.611	-200.000	-0.004	-0.086
-218.596	800.000	0.091	-0.329
-217.582	632.475	-0.074	-0.187
-216.567	129.918	-0.032	-0.041
-215.552	-200.000	0.045	0.260
-214.538	-200.000	0.010	0.237
-213.523	800.000	-0.050	0.189
-212.509	573.784	-0.048	0.117
-211.494	529.035	-0.093	0.221
-210.479	25.701	0.286	-0.238
-209.465	49.983	-0.145	0.137
-208.450	-105.798	-0.273	-0.062
-207.436	71.321	0.025	0.026
-206.421	134.957	-0.041	0.054
-205.406	287.777	0.050	-0.090
-204.392	303.145	-0.237	0.439
-203.377	136.131	0.050	0.065
-202.363	-105.100	0.396	-0.091
-201.348	800.000	-0.046	0.158
-200.333	-103.114	0.112	-0.026
-199.319	-80.990	-0.150	-0.050
-198.304	7.483	-0.130	0.097
-197.290	-12.767	-0.138	0.090
-196.275	-200.000	-0.054	0.244
-195.260	694.231	0.067	0.175
-194.246	126.371	0.290	0.367
-193.231	-200.000	0.005	-0.319
-192.217	368.220	0.083	-0.168
-191.202	149.777	-0.041	-0.056
-190.187	429.108	-0.038	0.083
-189.173	-200.000	-0.033	-0.164
-188.158	-25.304	-0.067	0.040
-187.144	22.865	0.226	0.185
-186.129	-19.032	0.090	0.056
-185.114	672.724	0.036	0.092
-184.100	-4.916	0.169	-0.117
-183.085	-11.155	0.124	0.082
-182.071	153.314	0.195	0.267
-181.056	-97.004	-0.208	0.054
-180.042	-56.550	0.259	-0.115
-179.027	-200.000	-0.079	0.415
-178.012	25.268	-0.104	-0.086
-176.998	-103.995	-0.182	-0.043
-175.983	-80.270	-0.107	0.036
-174.969	-105.249	-0.152	-0.035
-173.954	-19.553	0.212	0.131
-172.939	800.000	-0.028	0.108
-171.925	800.000	-0.046	0.166
-170.910	-15.375	-0.101	-0.065
-169.896	-200.000	0.026	0.268
-168.881	-107.432	0.023	-0.005
-167.866	-119.222	0.095	-0.017
-166.852	-200.000	-0.051	0.272
-165.837	-79.753	-0.044	-0.015
-164.823	-200.000	0.064	0.362
-163.808	-200.000	0.004	0.475
-162.793	461.387	-0.024	0.054
-161.779	690.947	-0.063	0.165
-160.764	-82.110	-0.179	0.058
-159.750	-9.937	0.154	0.103
-158.735	800.000	0.049	-0.139
-157.720	800.000	-0.016	0.066
-156.706	50.065	0.069	-0.065
-155.691	393.722	-0.099	0.207
-154.677	316.588	0.004	-0.008
-153.662	-145.520	-0.279	-0.025
-152.647	94.089	0.164	0.186
-151.633	-53.198	-0.031	0.014
-150.618	800.000	0.060	0.196
-149.604	-103.454	0.248	-0.058
-148.589	264.287	-0.038	0.066
-147.574	-177.127	-0.455	-0.011
-146.560	89.073	-0.039	0.043
-145.545	800.000	0.069	0.273
-144.531	-104.045	0.136	0.032
-143.516	299.131	0.128	-0.236
-142.502	-188.506	-0.198	-0.002
-141.487	-200.000	-0.047	0.354
-140.472	107.065	0.132	0.157
-139.458	51.353	0.139	-0.132
-138.443	33.866	-0.110	0.096
-137.429	-119.199	0.074	-0.013
-136.414	-200.000	0.013	0.186
-135.399	-200.000	-0.014	0.223
-134.385	371.881	-0.160	-0.324
-133.370	-200.000	-0.019	0.136
-132.356	200.073	0.165	-0.253
-131.341	615.313	-0.084	0.209
-130.326	87.025	0.176	0.195
-129.312	125.903	-0.110	0.139
-128.297	32.436	-0.076	0.066
-127.283	-200.000	0.170	0.001
-126.268	93.584	0.204	0.231
-125.253	-58.743	0.313	-0.135
-124.239	-164.136	0.371	0.017
-123.224	-186.730	-0.226	-0.003
-122.210	-200.000	0.041	0.322
-121.195	-200.000	0.000	0.048
