DTS Sentinel unit serial number:	SN413079Multiplexer serial number:	ORYXHardware model number:	OX4-SRSoftware version number:	ORYX F/W v4.00 Oryx Data Collector v3.7.2.0data status	okinstallation	princeton_trtdifferential loss correction	single-endedforward channel	channel 1reverse channel	N/Adate	2019/09/16time	08:10:35forward acquisition time	60.00reverse acquisition time	0.00gamma	496.2192k internal	0.2326k external	0.2326temperature offset calibration	0.9975default loss term (dB/km)	0.3790temperature slope calibration	1.0000multiplexer offset coefficient	1.0000multiplexer slope coefficient	1.0000fibre end	0.00T internal ref (°C)	28.73T ext. ref 1 (°C)	11.80T ext. ref 2 (°C)	24.97length (m)	temperature (°C)	Stokes	anti-Stokes-747.200	-19.664	0.151	0.094
-746.185	87.688	-0.122	0.137
-745.171	-80.485	-0.144	0.049
-744.156	220.405	-0.042	0.068
-743.142	228.466	-0.119	0.195
-742.127	109.668	0.309	0.374
-741.112	-98.252	-0.042	0.011
-740.098	759.365	-0.128	0.350
-739.083	3.765	-0.101	0.074
-738.069	-104.272	-0.250	-0.059
-737.054	478.718	0.259	-0.592
-736.039	-92.646	-0.423	-0.120
-735.025	-200.000	-0.020	-0.257
-734.010	-47.930	0.437	0.213
-732.996	-140.692	-0.265	-0.028
-731.981	-21.034	0.269	-0.166
-730.966	-127.223	0.119	0.018
-729.952	757.566	0.056	-0.153
-728.937	-17.980	0.153	0.097
-727.923	519.081	0.080	-0.189
-726.908	70.748	0.099	0.104
-725.894	-49.921	-0.303	0.145
-724.879	-81.050	-0.402	0.134
-723.864	194.220	0.102	-0.155
-722.850	-200.000	0.045	-0.236
-721.835	108.015	0.080	0.096
-720.821	84.880	-0.138	-0.153
-719.806	558.811	0.171	-0.415
-718.791	-35.263	-0.484	-0.265
-717.777	-4.510	0.432	-0.301
-716.762	278.400	-0.101	0.181
-715.748	-78.911	-0.079	-0.027
-714.733	717.146	0.075	0.199
-713.718	800.000	0.059	-0.222
-712.704	-58.950	-0.118	0.052
-711.689	-105.743	-0.262	-0.060
-710.675	800.000	0.048	0.157
-709.660	-97.465	-0.112	0.029
-708.645	-200.000	0.042	-0.293
-707.631	-162.314	-0.248	0.012
-706.616	368.096	0.144	-0.294
-705.602	-200.000	0.004	0.060
-704.587	47.728	-0.076	-0.072
-703.572	-200.000	-0.009	0.122
-702.558	-27.233	-0.120	0.070
-701.543	70.040	0.279	-0.290
-700.529	360.464	-0.058	-0.118
-699.514	-47.155	-0.153	-0.075
-698.499	287.291	0.167	-0.304
-697.485	226.735	-0.073	-0.120
-696.470	50.416	-0.155	0.148
-695.456	-173.037	0.111	-0.003
-694.441	-7.252	-0.051	0.035
-693.426	-200.000	-0.044	0.400
-692.412	-200.000	0.103	0.555
-691.397	416.425	-0.044	-0.095
-690.383	74.987	-0.171	0.181
-689.368	-200.000	0.012	0.095
-688.354	800.000	-0.101	-0.343
-687.339	-96.883	-0.547	-0.145
-686.324	419.212	0.024	0.052
-685.310	52.524	0.259	-0.249
-684.295	-69.140	-0.239	0.092
-683.281	-200.000	0.026	-0.129
-682.266	320.536	0.151	0.288
-681.251	-102.485	-0.045	-0.011
-680.237	-41.370	-0.175	-0.091
-679.222	-71.161	0.083	-0.032
-678.208	299.367	-0.102	-0.188
-677.193	236.886	-0.218	0.363
-676.178	800.000	-0.188	0.558
-675.164	-45.886	0.365	-0.181
-674.149	463.505	0.017	0.039
-673.135	-69.862	-0.283	0.108
-672.120	800.000	-0.102	0.349
-671.105	33.248	-0.208	-0.182
-670.091	-200.000	-0.077	-0.000
-669.076	-200.000	-0.010	-0.298
-668.062	-77.104	-0.200	0.070
-667.047	148.331	-0.099	0.134
-666.032	51.886	-0.175	0.168
-665.018	5.518	0.198	0.147
-664.003	594.103	-0.102	0.254
-662.989	-148.242	-0.313	0.026
-661.974	533.006	0.262	0.622
-660.959	-65.870	-0.146	-0.059
-659.945	-175.614	-0.141	-0.004
-658.930	-200.000	-0.006	-0.214
-657.916	-146.744	-0.318	0.028
-656.901	23.766	0.096	0.079
-655.886	-23.095	-0.536	0.324
-654.872	-30.351	-0.089	-0.051
-653.857	31.116	-0.233	0.201
-652.843	587.209	-0.097	0.240
-651.828	268.091	0.226	0.397
-650.814	-200.000	-0.028	0.265
-649.799	-200.000	0.043	-0.278
-648.784	-57.822	0.167	-0.073
-647.770	185.033	-0.125	0.187
-646.755	458.293	0.032	0.073
-645.741	619.837	0.044	0.112
-644.726	-20.277	0.181	0.112
-643.711	800.000	-0.116	-0.348
-642.697	-113.169	-0.200	-0.040
-641.682	-79.924	0.475	-0.160
-640.668	-200.000	-0.006	-0.189
-639.653	132.669	0.117	-0.151
-638.638	-200.000	0.015	-0.214
-637.624	-200.000	0.005	-0.054
-636.609	325.416	-0.110	0.211
-635.595	-200.000	-0.120	-0.553
-634.580	-200.000	0.058	-0.271
-633.565	128.665	0.267	-0.341
-632.551	-54.455	-0.054	-0.025
-631.536	-58.899	-0.132	-0.057
-630.522	-102.499	0.124	-0.030
-629.507	445.421	0.156	-0.343
-628.492	48.123	-0.146	-0.137
-627.478	800.000	-0.060	-0.205
-626.463	-137.795	0.033	0.004
-625.449	290.520	-0.024	0.044
-624.434	24.360	-0.376	-0.312
-623.419	800.000	-0.017	0.074
-622.405	-200.000	0.000	-0.202
-621.390	-78.742	-0.316	0.108
-620.376	37.338	-0.149	-0.133
-619.361	180.618	0.059	-0.087
-618.346	-139.013	0.088	-0.010
-617.332	8.721	0.260	-0.197
-616.317	800.000	0.093	-0.342
-615.303	-127.588	-0.286	0.042
-614.288	129.927	0.132	-0.170
-613.273	-38.031	-0.158	0.084
-612.259	534.261	-0.145	0.345
-611.244	-35.230	0.235	0.128
-610.230	-0.752	-0.246	0.175
-609.215	-48.345	0.157	0.076
-608.201	-75.060	-0.198	0.071
-607.186	702.559	0.117	0.310
-606.171	800.000	-0.085	-0.275
-605.157	800.000	0.078	-0.268
-604.142	36.690	-0.292	-0.258
-603.128	-200.000	0.057	-0.283
-602.113	221.397	0.025	0.040
-601.098	18.945	0.261	-0.210
-600.084	-120.749	0.155	-0.026
-599.069	-78.118	-0.050	0.017
-598.055	-200.000	0.021	-0.113
-597.040	-200.000	-0.017	-0.119
-596.025	120.765	0.099	0.124
-595.011	423.770	-0.103	0.221
-593.996	-72.462	0.210	-0.078
-592.982	-139.603	0.130	-0.014
-591.967	-119.597	0.350	0.061
-590.952	-66.444	-0.111	0.044
-589.938	800.000	-0.092	0.267
-588.923	134.243	0.071	-0.092
-587.909	-75.776	0.037	0.013
-586.894	-200.000	0.003	-0.104
-585.879	800.000	-0.080	0.306
-584.865	-164.728	-0.381	-0.017
-583.850	800.000	-0.032	-0.136
-582.836	-200.000	-0.003	0.082
-581.821	-99.091	-0.185	-0.047
-580.806	91.874	-0.185	-0.209
-579.792	800.000	-0.063	-0.260
-578.777	-19.261	0.101	-0.063
-577.763	-200.000	0.033	0.171
-576.748	-6.594	0.230	0.157
-575.733	95.935	-0.150	-0.172
-574.719	-103.370	-0.099	0.023
-573.704	-23.733	0.500	-0.300
-572.690	-69.705	0.114	0.044
-571.675	-75.777	-0.309	0.110
-570.661	268.177	-0.063	0.110
-569.646	36.416	0.196	0.174
-568.631	-8.656	0.122	-0.082
-567.617	-200.000	0.015	-0.234
-566.602	-88.021	0.406	-0.122
-565.588	-200.000	0.020	0.118
-564.573	800.000	0.055	-0.171
-563.558	-200.000	-0.010	-0.166
-562.544	556.689	0.121	0.292
-561.529	-59.607	-0.151	-0.065
-560.515	-40.681	0.044	0.023
-559.500	187.522	-0.230	-0.344
-558.485	-200.000	0.013	0.211
-557.471	-129.503	-0.278	0.039
-556.456	781.383	0.064	0.176
-555.442	-143.141	0.083	0.008
-554.427	-200.000	-0.042	0.000
-553.412	366.733	-0.130	0.262
-552.398	194.754	0.134	-0.203
-551.383	560.494	0.037	-0.089
-550.369	-111.506	-0.125	0.025
-549.354	-128.242	-0.138	0.020
-548.339	-179.089	-0.319	0.007
-547.325	-39.365	0.156	-0.082
-546.310	5.000	-0.196	-0.144
-545.296	50.689	-0.259	-0.245
-544.281	677.311	-0.067	0.174
-543.266	-150.371	-0.332	-0.026
-542.252	491.304	-0.068	-0.155
-541.237	-39.392	0.110	-0.058
-540.223	-103.689	0.174	0.041
-539.208	69.871	-0.126	-0.130
-538.193	-74.000	-0.140	-0.051
-537.179	65.255	-0.225	0.227
-536.164	286.983	-0.080	0.145
-535.150	-60.998	-0.193	-0.081
-534.135	169.079	0.116	0.166
-533.121	526.929	-0.115	0.272
-532.106	-21.049	-0.070	0.043
-531.091	800.000	0.101	0.307
-530.077	265.928	-0.160	-0.280
-529.062	-112.923	-0.266	-0.053
-528.048	74.590	-0.278	-0.292
-527.033	800.000	0.079	0.234
-526.018	-124.397	0.259	-0.040
-525.004	-92.800	0.369	-0.103
-523.989	-200.000	0.004	-0.172
-522.975	-139.383	-0.150	-0.016
-521.960	68.738	-0.116	0.119
-520.945	-200.000	-0.010	-0.099
-519.931	-108.819	0.047	0.010
-518.916	12.659	0.088	-0.068
-517.902	-130.663	0.411	0.055
-516.887	800.000	-0.055	-0.161
-515.872	-200.000	-0.001	0.169
-514.858	-137.436	-0.168	0.019
-513.843	39.484	-0.104	-0.093
-512.829	-21.616	0.237	0.145
-511.814	490.542	-0.011	-0.024
-510.799	481.609	0.072	-0.164
-509.785	186.793	-0.223	0.332
-508.770	-200.000	-0.006	-0.052
-507.756	-10.502	0.333	0.221
-506.741	233.080	-0.156	0.256
-505.726	-160.168	0.186	-0.010
-504.712	-120.192	0.076	0.013
-503.697	-200.000	0.015	-0.171
-502.683	800.000	-0.076	0.290
-501.668	-2.854	-0.263	-0.183
-500.653	120.611	0.047	0.059
-499.639	-22.680	0.157	0.095
-498.624	-36.011	0.185	0.100
-497.610	-200.000	0.009	-0.069
-496.595	-200.000	-0.010	-0.060
-495.581	116.331	-0.088	-0.108
-494.566	14.943	-0.050	-0.039
-493.551	-104.400	0.067	-0.016
-492.537	-151.313	0.187	0.014
-491.522	-11.203	-0.285	0.188
-490.508	16.447	0.135	-0.107
-489.493	-15.197	-0.273	-0.175
-488.478	45.744	-0.032	0.029
-487.464	53.979	-0.089	-0.085
-486.449	-11.515	-0.150	-0.098
-485.435	-50.561	-0.158	-0.074
-484.420	-115.366	-0.245	0.046
-483.405	-84.482	-0.261	0.082
-482.391	296.584	0.087	-0.160
-481.376	-200.000	-0.021	0.304
-480.362	-44.129	-0.088	0.044
-479.347	175.056	0.270	0.391
-478.332	-0.329	0.092	-0.065
-477.318	-72.864	0.175	0.064
-476.303	34.198	-0.237	-0.206
-475.289	-0.932	-0.276	0.195
-474.274	69.720	0.086	-0.088
-473.259	-22.528	-0.283	0.171
-472.245	176.510	-0.078	0.113
-471.230	-52.439	0.156	0.072
-470.216	95.072	-0.043	0.049
-469.201	-63.513	-0.355	0.146
-468.186	-182.874	0.346	0.006
-467.172	-9.009	0.109	-0.073
-466.157	-13.791	-0.467	-0.302
-465.143	46.634	0.053	-0.049
-464.128	274.296	0.119	-0.211
-463.113	-200.000	0.008	-0.210
-462.099	-116.403	0.103	0.019
-461.084	-105.680	0.262	-0.059
-460.070	-100.754	-0.331	-0.081
-459.055	-200.000	-0.006	-0.316
-458.040	-9.073	0.169	0.113
-457.026	-98.641	-0.525	-0.134
-456.011	449.285	0.124	0.273
-454.997	-84.809	-0.477	-0.149
-453.982	-126.094	0.167	-0.025
-452.968	92.409	-0.107	0.120
-451.953	241.591	-0.118	-0.197
-450.938	35.432	-0.282	0.247
-449.924	800.000	0.005	-0.019
-448.909	255.115	0.159	-0.271
-447.895	-152.202	0.194	-0.014
-446.880	205.187	-0.045	0.070
-445.865	-52.077	0.084	-0.039
-444.851	211.999	-0.118	0.185
-443.836	-43.565	0.165	0.083
-442.822	-200.000	0.018	0.186
-441.807	218.939	-0.158	-0.252
-440.792	-25.882	-0.156	-0.092
-439.778	40.972	0.379	0.341
-438.763	-200.000	-0.050	0.314
-437.749	800.000	-0.064	0.227
-436.734	-42.389	-0.192	-0.098
-435.719	-200.000	-0.010	-0.228
-434.705	800.000	-0.027	-0.094
-433.690	-100.745	0.444	-0.109
-432.676	-200.000	0.019	-0.171
-431.661	-101.171	0.070	0.017
-430.646	-198.365	0.331	-0.002
-429.632	26.491	-0.277	0.231
-428.617	800.000	-0.147	0.485
-427.603	109.671	0.091	-0.109
-426.588	107.739	-0.018	-0.022
-425.573	148.062	-0.083	0.111
-424.559	-26.533	-0.318	0.185
-423.544	324.081	0.164	0.311
-422.530	-200.000	0.001	0.328
-421.515	-119.758	-0.269	-0.046
-420.500	151.519	0.201	0.273
-419.486	283.545	-0.194	0.348
-418.471	-115.198	0.216	0.041
-417.457	180.320	0.151	0.220
-416.442	224.159	-0.066	-0.106
-415.428	800.000	0.050	-0.149
-414.413	-58.944	0.087	0.037
-413.398	73.874	0.170	-0.178
-412.384	-76.325	-0.033	-0.012
-411.369	-200.000	0.298	0.001
-410.355	-37.716	-0.296	0.157
-409.340	800.000	-0.085	0.296
-408.325	-64.361	-0.080	0.032
-407.311	455.962	0.058	0.128
-406.296	-92.872	0.211	-0.059
-405.282	-73.811	0.127	-0.046
-404.267	-107.529	0.142	0.031
-403.252	-78.681	-0.233	0.079
-402.238	-200.000	0.065	0.330
-401.223	-200.000	0.007	0.045
-400.209	158.998	0.123	0.170
-399.194	-89.745	0.106	-0.031
-398.179	-35.139	0.150	0.082
-397.165	800.000	-0.032	-0.107
-396.150	-168.305	-0.123	-0.005
-395.136	-146.261	-0.173	0.015
-394.121	335.005	0.116	0.223
-393.106	-151.092	-0.163	-0.012
-392.092	-200.000	-0.008	0.105
-391.077	16.411	-0.145	0.114
-390.063	233.486	-0.117	0.192
-389.048	-200.000	0.017	0.099
-388.033	800.000	-0.054	0.153
-387.019	-58.594	0.164	-0.071
-386.004	294.154	-0.174	0.316
-384.990	168.190	-0.012	0.016
-383.975	-136.110	0.090	-0.011
-382.960	77.572	0.062	-0.066
-381.946	-11.114	-0.232	-0.152
-380.931	346.320	-0.054	-0.106
-379.917	118.500	0.194	0.238
-378.902	-13.446	-0.327	0.211
-377.888	42.866	0.136	0.123
-376.873	-50.422	0.246	0.115
-375.858	36.227	-0.224	-0.196
-374.844	-200.000	-0.008	-0.137
-373.829	604.442	-0.065	-0.160
-372.815	626.602	-0.118	-0.296
-371.800	-47.989	-0.351	-0.169
-370.785	-26.717	-0.119	-0.069
-369.771	-72.176	0.095	-0.035
-368.756	-32.894	0.115	-0.064
-367.742	-94.920	0.184	0.050
-366.727	-71.214	-0.364	0.136
-365.712	8.590	-0.144	-0.108
-364.698	-177.148	-0.157	-0.004
-363.683	-84.932	0.284	0.089
-362.669	357.187	0.007	0.013
-361.654	-33.649	0.242	-0.133
-360.639	-29.223	0.110	0.063
-359.625	101.214	0.222	-0.256
-358.610	-1.907	-0.144	-0.101
-357.596	-49.483	-0.093	0.044
-356.581	157.562	0.254	-0.350
-355.566	374.302	-0.061	-0.124
-354.552	-200.000	-0.002	-0.258
-353.537	800.000	0.075	-0.253
-352.523	71.721	-0.262	-0.271
-351.508	14.092	-0.183	0.142
-350.493	2.608	-0.062	-0.045
-349.479	-75.867	-0.195	-0.069
-348.464	203.988	0.198	-0.304
-347.450	-149.258	0.340	-0.027
-346.435	206.851	0.107	-0.165
-345.420	-1.294	0.225	0.158
-344.406	88.246	0.144	0.159
-343.391	-140.826	-0.207	-0.021
-342.377	800.000	0.077	0.333
-341.362	-116.354	-0.063	0.012
-340.348	550.869	0.092	0.220
-339.333	311.766	-0.012	-0.021
-338.318	-128.805	0.329	0.046
-337.304	85.524	0.072	0.079
-336.289	-7.439	-0.128	0.086
-335.275	-200.000	0.011	-0.078
-334.260	-41.584	0.209	0.107
-333.245	124.099	0.087	-0.108
-332.231	-171.777	0.330	-0.011
-331.216	-142.179	0.359	-0.035
-330.202	-39.985	0.087	-0.045
-329.187	-200.000	0.009	0.112
-328.172	-200.000	-0.003	0.224
-327.158	-65.192	-0.172	-0.069
-326.143	20.494	0.162	0.130
-325.129	-47.592	0.385	0.185
-324.114	156.636	0.095	0.131
-323.099	-87.362	-0.189	0.057
-322.085	192.030	-0.128	-0.192
-321.070	-200.000	0.021	-0.419
-320.056	-147.244	-0.321	0.027
-319.041	239.504	0.217	0.358
-318.026	-163.319	-0.068	0.003
-317.012	-147.541	-0.360	-0.030
-315.997	31.453	0.294	0.250
-314.983	38.999	0.290	-0.257
-313.968	108.113	-0.147	-0.174
-312.953	-123.139	0.305	-0.049
-311.939	-27.060	0.160	0.092
-310.924	290.248	-0.117	0.210
-309.910	800.000	0.078	-0.274
-308.895	2.804	0.100	0.072
-307.880	32.159	-0.081	-0.069
-306.866	-200.000	-0.066	-0.569
-305.851	15.713	-0.121	0.094
-304.837	109.046	0.191	-0.227
-303.822	800.000	-0.107	-0.360
-302.807	-200.000	-0.020	-0.418
-301.793	-25.769	0.070	-0.041
-300.778	-104.305	0.139	0.032
-299.764	98.610	0.138	0.158
-298.749	-200.000	0.007	-0.095
-297.735	28.127	-0.099	-0.083
-296.720	-48.304	-0.228	-0.109
-295.705	-162.073	0.196	0.010
-294.691	-200.000	-0.009	0.067
-293.676	261.408	-0.121	-0.207
-292.662	81.798	0.211	-0.227
-291.647	800.000	-0.154	0.460
-290.632	-200.000	0.022	-0.173
-289.618	476.326	0.171	0.383
-288.603	-200.000	-0.040	0.193
-287.589	21.595	-0.253	-0.204
-286.574	-7.630	-0.094	-0.063
-285.559	-135.229	0.411	0.049
-284.545	382.118	-0.114	-0.233
-283.530	-146.854	0.375	0.032
-282.516	-67.560	0.188	-0.073
-281.501	-200.000	-0.039	-0.215
-280.486	118.706	-0.131	-0.160
-279.472	121.181	-0.148	0.183
-278.457	-200.000	0.059	0.361
-277.443	-32.403	0.117	0.065
-276.428	62.248	0.051	0.050
-275.413	-91.296	-0.185	-0.052
-274.399	337.133	-0.091	-0.176
-273.384	-200.000	-0.024	-0.126
-272.370	75.940	0.098	0.102
-271.355	-200.000	0.006	0.258
-270.340	-200.000	-0.097	-0.427
-269.326	-102.363	-0.397	-0.094
-268.311	34.669	0.185	0.160
-267.297	-200.000	0.018	-0.194
-266.282	-200.000	0.006	0.146
-265.267	190.352	-0.074	0.110
-264.253	0.218	0.069	0.049
-263.238	-200.000	-0.002	0.118
-262.224	-200.000	0.038	-0.270
-261.209	-109.065	-0.260	-0.055
-260.195	-105.693	0.428	0.096
-259.180	-60.584	0.031	-0.013
-258.165	-28.300	-0.241	-0.138
-257.151	-9.251	0.209	0.138
-256.136	-200.000	0.051	0.347
-255.122	52.609	-0.066	0.063
-254.107	-200.000	0.002	-0.054
-253.092	43.530	-0.095	-0.086
-252.078	-200.000	-0.037	0.191
-251.063	-200.000	0.000	-0.265
-250.049	800.000	-0.077	0.279
-249.034	138.872	0.239	0.311
-248.019	-168.555	-0.103	0.004
-247.005	380.395	-0.041	-0.083
-245.990	87.649	0.238	0.261
-244.976	-111.281	-0.236	0.048
-243.961	14.500	0.056	-0.043
-242.946	-4.950	-0.225	-0.154
-241.932	-200.000	-0.016	-0.106
-240.917	-145.841	0.287	0.025
-239.903	-200.000	-0.004	0.067
-238.888	-200.000	-0.010	0.129
-237.873	-14.500	0.141	0.090
-236.859	534.093	0.117	0.275
-235.844	778.258	-0.113	-0.305
-234.830	-73.535	0.195	0.070
-233.815	12.053	-0.241	0.183
-232.800	-69.647	-0.579	-0.219
-231.786	800.000	-0.085	0.266
-230.771	-143.684	-0.297	-0.028
-229.757	364.997	0.101	-0.202
-228.742	114.466	-0.143	-0.173
-227.727	113.301	-0.141	0.169
-226.713	-200.000	-0.043	-0.215
-225.698	299.107	0.062	-0.113
-224.684	215.500	0.158	-0.248
-223.669	-200.000	-0.042	0.252
-222.655	-133.498	0.119	-0.015
-221.640	-120.247	0.160	0.027
-220.625	696.765	0.142	0.368
-219.611	-144.732	0.093	-0.008
-218.596	-19.565	0.222	-0.136
-217.582	-28.843	0.028	0.016
-216.567	-103.129	-0.154	-0.036
-215.552	-139.481	0.376	-0.040
-214.538	31.529	-0.194	-0.165
-213.523	-200.000	0.002	0.031
-212.509	-11.361	0.427	0.278
-211.494	800.000	0.067	0.207
-210.479	645.520	-0.183	0.461
-209.465	73.956	0.076	-0.079
-208.450	-55.420	0.376	-0.166
-207.436	283.094	-0.133	-0.237
-206.421	-148.696	0.142	0.011
-205.406	-200.000	-0.004	0.192
-204.392	800.000	-0.057	0.241
-203.377	0.711	-0.143	-0.101
-202.363	14.728	-0.337	0.260
-201.348	-166.908	0.169	0.007
-200.333	-200.000	-0.007	-0.535
-199.319	193.406	0.103	-0.153
-198.304	85.679	-0.058	-0.063
-197.290	-94.603	0.172	-0.046
-196.275	-44.169	0.164	0.081
-195.260	-126.743	-0.165	0.024
-194.246	-50.361	0.190	0.089
-193.231	296.631	-0.050	0.090
-192.217	184.091	0.110	0.161
-191.202	800.000	0.090	0.251
-190.187	-200.000	0.043	0.243
-189.173	800.000	-0.018	0.050
-188.158	27.499	0.084	-0.070
-187.144	87.572	0.141	0.154
-186.129	467.307	-0.162	0.358
-185.114	15.948	-0.245	-0.190
-184.100	-105.236	0.137	0.031
-183.085	800.000	0.048	0.181
-182.071	198.103	-0.160	-0.241
-181.056	80.826	-0.084	-0.089
-180.042	-124.628	0.168	0.026
-179.027	26.066	0.261	0.215
-178.012	-200.000	-0.050	0.233
-176.998	2.025	-0.294	-0.209
-175.983	-1.710	0.096	-0.067
-174.969	496.856	-0.081	0.184
-173.954	73.344	0.194	0.201
-172.939	168.477	-0.040	-0.057
-171.925	105.611	-0.118	-0.138
-170.910	-17.518	-0.161	0.100
-169.896	358.460	-0.072	0.142
-168.881	317.698	-0.154	0.287
-167.866	-200.000	-0.025	-0.342
-166.852	-59.167	-0.154	-0.065
-165.837	71.608	0.275	0.281
-164.823	19.021	0.140	0.111
-163.808	25.575	0.053	0.043
-162.793	-107.344	0.191	0.041
-161.779	-200.000	-0.023	0.106
-160.764	-150.086	-0.159	-0.012
-159.750	-122.348	-0.118	0.019
-158.735	-165.975	-0.098	-0.004
-157.720	341.157	0.181	0.349
-156.706	-59.099	-0.216	-0.092
-155.691	-111.741	-0.142	-0.028
-154.677	-200.000	-0.044	-0.203
-153.662	-83.564	0.273	-0.086
-152.647	800.000	0.039	-0.162
-151.633	-90.720	-0.058	-0.017
-150.618	-200.000	-0.007	-0.034
-149.604	363.373	0.014	0.027
-148.589	44.536	0.095	-0.086
-147.574	-200.000	0.003	0.183
-146.560	-200.000	-0.000	0.160
-145.545	-200.000	-0.020	0.141
-144.531	373.424	0.068	0.135
-143.516	-200.000	0.071	0.433
-142.502	-90.835	-0.078	-0.022
-141.487	-54.254	0.292	-0.131
-140.472	-200.000	0.003	0.078
-139.458	-80.589	-0.243	0.080
-138.443	-89.450	0.294	0.085
-137.429	-135.792	-0.143	-0.017
-136.414	-58.919	0.163	0.069
-135.399	-200.000	-0.001	0.269
-134.385	575.052	-0.030	-0.073
-133.370	191.984	-0.190	-0.282
-132.356	42.303	0.129	-0.116
-131.341	108.374	-0.108	0.127
-130.326	45.092	0.098	0.089
-129.312	-81.746	0.089	-0.029
-128.297	302.827	0.055	0.100
-127.283	16.895	0.075	0.058
-126.268	-200.000	0.021	-0.099
-125.253	-200.000	0.467	-0.001
-124.239	-147.787	-0.222	0.018
-123.224	-200.000	-0.025	-0.137
-122.210	-92.900	0.289	0.079
