DTS Sentinel unit serial number:	SN413079Multiplexer serial number:	ORYXHardware model number:	OX4-SRSoftware version number:	ORYX F/W v4.00 Oryx Data Collector v3.7.2.0data status	okinstallation	princeton_trtdifferential loss correction	single-endedforward channel	channel 1reverse channel	N/Adate	2019/09/18time	21:26:35forward acquisition time	60.00reverse acquisition time	0.00gamma	496.2192k internal	0.2341k external	0.2341temperature offset calibration	1.0012default loss term (dB/km)	0.3790temperature slope calibration	1.0000multiplexer offset coefficient	1.0000multiplexer slope coefficient	1.0000fibre end	0.00T internal ref (°C)	25.41T ext. ref 1 (°C)	0.82T ext. ref 2 (°C)	18.16length (m)	temperature (°C)	Stokes	anti-Stokes-747.200	8.333	0.224	0.169
-746.185	348.517	-0.174	0.344
-745.171	-114.076	0.232	-0.045
-744.156	629.341	-0.128	0.325
-743.142	800.000	0.113	0.330
-742.127	800.000	-0.065	0.206
-741.112	-200.000	0.014	0.099
-740.098	138.247	-0.192	0.252
-739.083	-119.759	0.263	0.045
-738.069	-200.000	0.010	0.164
-737.054	-38.706	0.107	-0.057
-736.039	-67.324	-0.216	-0.085
-735.025	800.000	-0.026	-0.074
-734.010	-14.312	-0.442	-0.286
-732.996	-134.251	0.107	-0.013
-731.981	637.846	-0.049	-0.125
-730.966	12.384	0.389	0.301
-729.952	-200.000	0.019	-0.191
-728.937	-100.346	-0.242	0.060
-727.923	800.000	-0.060	0.192
-726.908	-200.000	0.058	0.535
-725.894	137.201	0.090	-0.118
-724.879	60.291	-0.310	0.307
-723.864	154.582	-0.014	0.019
-722.850	-200.000	-0.002	0.153
-721.835	-63.056	-0.263	0.109
-720.821	121.251	-0.094	-0.117
-719.806	-128.844	0.469	-0.066
-718.791	-55.308	0.175	-0.079
-717.777	-200.000	0.058	-0.295
-716.762	800.000	0.092	-0.282
-715.748	47.749	0.051	-0.047
-714.733	-156.963	-0.075	-0.005
-713.718	153.641	-0.058	-0.080
-712.704	111.840	0.158	-0.191
-711.689	-21.737	0.355	-0.216
-710.675	-88.334	-0.284	-0.085
-709.660	578.591	0.045	0.110
-708.645	-65.371	-0.418	0.168
-707.631	-200.000	-0.020	0.183
-706.616	111.723	-0.152	0.183
-705.602	91.762	-0.199	0.224
-704.587	746.383	-0.091	-0.246
-703.572	-19.929	0.274	-0.169
-702.558	22.472	-0.225	0.184
-701.543	800.000	-0.090	-0.279
-700.529	-51.132	-0.062	-0.029
-699.514	800.000	0.106	0.434
-698.499	-21.058	-0.123	0.075
-697.485	-124.777	0.138	-0.021
-696.470	-200.000	-0.026	0.116
-695.456	800.000	-0.111	0.337
-694.441	79.756	-0.137	0.147
-693.426	-200.000	-0.001	-0.309
-692.412	209.949	-0.069	0.109
-691.397	-54.000	-0.311	-0.142
-690.383	14.441	0.302	0.236
-689.368	66.623	-0.155	-0.157
-688.354	-200.000	-0.045	0.386
-687.339	-200.000	0.073	0.550
-686.324	276.810	-0.070	-0.125
-685.310	-200.000	0.012	0.316
-684.295	800.000	0.034	0.101
-683.281	800.000	0.036	0.133
-682.266	-104.680	-0.195	0.045
-681.251	50.407	0.026	-0.024
-680.237	-21.953	0.065	-0.040
-679.222	-64.720	0.190	0.077
-678.208	285.936	-0.151	0.272
-677.193	-200.000	0.004	-0.045
-676.178	74.957	0.095	0.100
-675.164	-95.323	-0.170	0.046
-674.149	-4.237	0.135	0.093
-673.135	43.274	0.050	-0.046
-672.120	-21.976	-0.381	0.231
-671.105	-31.049	-0.083	-0.047
-670.091	-31.192	0.504	0.284
-669.076	-18.036	-0.164	0.102
-668.062	35.325	-0.206	0.180
-667.047	-137.580	0.194	0.022
-666.032	1.300	-0.117	-0.084
-665.018	-167.045	0.110	0.005
-664.003	-200.000	0.033	-0.232
-662.989	-81.414	0.265	0.087
-661.974	39.878	0.182	-0.163
-660.959	800.000	0.076	-0.271
-659.945	427.223	-0.148	-0.319
-658.930	8.712	0.033	-0.025
-657.916	-200.000	-0.036	0.287
-656.901	-133.254	0.043	0.005
-655.886	-62.627	-0.033	0.014
-654.872	-33.125	-0.230	0.127
-653.857	-137.755	-0.522	0.058
-652.843	36.720	-0.051	0.045
-651.828	-93.533	-0.368	0.102
-650.814	70.049	-0.058	-0.059
-649.799	52.503	-0.247	-0.235
-648.784	145.600	0.243	-0.326
-647.770	-108.369	0.121	-0.026
-646.755	243.550	0.041	-0.069
-645.741	800.000	-0.046	-0.155
-644.726	800.000	-0.102	-0.359
-643.711	-91.934	-0.411	0.116
-642.697	-200.000	-0.003	-0.357
-641.682	-112.028	-0.108	0.022
-640.668	-111.418	0.154	0.031
-639.653	9.394	-0.161	0.122
-638.638	-200.000	0.020	0.104
-637.624	-57.516	0.131	-0.057
-636.609	138.799	-0.193	-0.253
-635.595	800.000	0.041	-0.139
-634.580	41.193	0.119	-0.107
-633.565	52.195	0.059	0.056
-632.551	318.089	0.037	0.070
-631.536	21.403	0.212	-0.172
-630.522	-21.682	-0.129	0.078
-629.507	-200.000	0.005	-0.132
-628.492	111.874	-0.079	0.096
-627.478	-200.000	-0.006	0.216
-626.463	111.425	-0.056	-0.068
-625.449	172.359	0.212	-0.304
-624.434	-200.000	0.010	0.058
-623.419	118.541	0.192	0.236
-622.405	39.858	0.220	0.197
-621.390	-200.000	-0.014	0.166
-620.376	-10.591	-0.211	-0.139
-619.361	-86.275	0.372	-0.114
-618.346	800.000	0.049	-0.175
-617.332	1.118	-0.106	0.076
-616.317	168.781	0.045	0.064
-615.303	-91.445	-0.099	-0.028
-614.288	-123.770	-0.293	0.046
-613.273	-200.000	-0.030	0.417
-612.259	-47.375	0.426	-0.207
-611.244	-110.777	0.349	0.072
-610.230	-88.784	0.310	0.092
-609.215	-61.094	-0.201	-0.085
-608.201	-200.000	-0.027	0.216
-607.186	-32.997	0.090	0.050
-606.171	37.603	-0.215	0.190
-605.157	46.624	-0.317	-0.293
-604.142	90.449	-0.032	-0.036
-603.128	313.752	0.094	0.177
-602.113	-108.229	-0.379	-0.082
-601.098	-200.000	0.003	-0.113
-600.084	-66.753	0.250	-0.099
-599.069	-25.997	-0.301	0.176
-598.055	393.363	-0.218	-0.451
-597.040	-147.458	0.282	0.024
-596.025	-140.582	0.196	-0.020
-595.011	-200.000	-0.064	0.312
-593.996	-170.627	-0.291	-0.010
-592.982	132.110	0.276	-0.354
-591.967	-200.000	-0.087	0.472
-590.952	-64.886	-0.374	-0.151
-589.938	-200.000	-0.097	0.490
-588.923	676.579	-0.118	-0.304
-587.909	50.407	0.166	-0.157
-586.894	-22.902	-0.288	0.173
-585.879	-200.000	-0.018	0.102
-584.865	-117.945	0.121	0.022
-583.850	79.634	-0.006	-0.006
-582.836	113.476	0.114	-0.138
-581.821	4.196	0.047	-0.035
-580.806	229.761	0.117	-0.191
-579.792	363.185	0.021	0.043
-578.777	255.954	0.023	-0.039
-577.763	199.163	0.026	-0.039
-576.748	-64.878	0.109	-0.044
-575.733	-54.040	0.308	-0.139
-574.719	-80.060	-0.056	0.019
-573.704	124.278	-0.115	-0.144
-572.690	-90.482	0.105	0.030
-571.675	-135.466	-0.107	-0.013
-570.661	-97.679	0.157	-0.040
-569.646	-153.946	0.399	0.027
-568.631	-166.493	0.536	0.022
-567.617	-200.000	-0.024	0.122
-566.602	145.711	0.051	-0.069
-565.588	151.416	-0.155	-0.210
-564.573	-148.662	0.081	0.007
-563.558	36.959	0.124	-0.110
-562.544	-169.227	-0.222	-0.008
-561.529	-107.010	-0.208	-0.046
-560.515	74.822	-0.233	0.244
-559.500	-99.928	-0.210	0.052
-558.485	392.955	0.052	0.108
-557.471	-148.969	-0.164	0.013
-556.456	-6.000	0.353	-0.240
-555.442	800.000	0.088	-0.283
-554.427	534.501	-0.127	0.300
-553.412	-176.172	-0.445	0.012
-552.398	197.988	0.102	-0.156
-551.383	-84.834	-0.285	0.089
-550.369	-200.000	-0.044	-0.342
-549.354	178.083	0.122	0.177
-548.339	-200.000	0.041	0.191
-547.325	-101.121	-0.349	-0.085
-546.310	-200.000	-0.009	0.060
-545.296	800.000	0.053	0.231
-544.281	-129.189	0.184	0.026
-543.266	800.000	-0.101	0.360
-542.252	-30.210	-0.093	-0.052
-541.237	-200.000	-0.069	-0.342
-540.223	-200.000	-0.048	-0.484
-539.208	-197.512	-0.281	-0.002
-538.193	-62.851	-0.279	-0.115
-537.179	-76.539	-0.337	-0.118
-536.164	-10.887	-0.575	0.378
-535.150	-43.386	0.191	-0.096
-534.135	28.055	0.324	-0.272
-533.121	-200.000	0.024	0.196
-532.106	-97.510	-0.240	-0.062
-531.091	112.756	0.088	0.106
-530.077	146.990	-0.275	0.368
-529.062	-80.010	-0.329	0.110
-528.048	12.180	0.443	-0.339
-527.033	203.042	0.189	-0.290
-526.018	-200.000	-0.010	0.062
-525.004	-18.093	-0.252	0.157
-523.989	11.283	0.208	0.158
-522.975	-200.000	-0.015	-0.170
-521.960	-46.120	-0.141	0.069
-520.945	800.000	-0.061	0.221
-519.931	316.457	0.146	-0.274
-518.916	-98.466	-0.278	-0.071
-517.902	29.855	-0.387	-0.327
-516.887	-24.313	0.258	0.153
-515.872	301.238	0.159	-0.292
-514.858	600.326	-0.135	0.334
-513.843	-87.758	0.186	-0.056
-512.829	346.423	-0.039	0.077
-511.814	25.006	-0.162	0.134
-510.799	-48.186	0.181	0.087
-509.785	-200.000	-0.015	0.156
-508.770	163.393	0.124	-0.172
-507.756	71.002	0.152	-0.157
-506.741	159.876	-0.182	-0.251
-505.726	21.515	-0.095	0.076
-504.712	-200.000	0.147	-0.000
-503.697	800.000	-0.085	-0.262
-502.683	302.450	-0.164	0.301
-501.668	264.606	-0.032	-0.056
-500.653	103.736	-0.134	-0.156
-499.639	-112.346	-0.167	0.033
-498.624	800.000	-0.048	0.204
-497.610	8.803	-0.241	0.181
-496.595	-200.000	0.044	-0.284
-495.581	-89.905	0.210	-0.061
-494.566	152.035	-0.279	0.377
-493.551	-92.115	-0.121	-0.034
-492.537	-200.000	-0.064	0.289
-491.522	130.457	0.076	-0.096
-490.508	-62.232	0.097	0.040
-489.493	333.757	0.093	-0.179
-488.478	191.662	-0.055	0.083
-487.464	-200.000	0.011	0.226
-486.449	351.419	-0.059	0.116
-485.435	-130.157	-0.084	0.011
-484.420	-200.000	-0.032	-0.155
-483.405	-1.748	-0.155	-0.108
-482.391	7.416	-0.298	-0.221
-481.376	-87.573	0.063	-0.019
-480.362	-200.000	0.044	-0.209
-479.347	69.890	-0.191	0.195
-478.332	-79.941	-0.218	-0.073
-477.318	195.781	-0.090	-0.136
-476.303	-148.364	0.480	0.039
-475.289	-11.201	-0.115	-0.075
-474.274	113.912	-0.029	0.035
-473.259	-97.472	-0.290	0.075
-472.245	-110.046	0.055	0.011
-471.230	800.000	0.095	-0.379
-470.216	-200.000	0.002	-0.163
-469.201	-56.459	0.169	0.075
-468.186	-108.776	-0.232	-0.049
-467.172	555.926	0.033	0.078
-466.157	49.348	-0.101	-0.095
-465.143	42.302	-0.127	0.114
-464.128	328.552	-0.035	0.066
-463.113	-200.000	0.040	-0.354
-462.099	51.283	-0.102	0.096
-461.084	-200.000	-0.009	0.141
-460.070	755.109	0.070	-0.187
-459.055	485.337	0.089	-0.201
-458.040	-135.334	0.126	0.015
-457.026	-200.000	-0.041	0.295
-456.011	250.254	-0.078	-0.131
-454.997	800.000	0.079	0.230
-453.982	145.497	0.167	-0.221
-452.968	-200.000	0.016	-0.228
-451.953	-200.000	-0.032	-0.193
-450.938	-86.836	0.226	0.068
-449.924	-158.523	0.204	-0.012
-448.909	89.167	0.152	0.167
-447.895	352.194	-0.130	0.254
-446.880	800.000	-0.145	0.444
-445.865	-29.300	0.071	0.040
-444.851	30.219	0.195	0.165
-443.836	-95.936	-0.117	-0.031
-442.822	800.000	0.027	0.087
-441.807	800.000	0.094	-0.391
-440.792	-119.166	-0.462	-0.080
-439.778	-131.843	-0.327	-0.042
-438.763	80.866	0.082	-0.087
-437.749	-87.998	-0.069	-0.020
-436.734	-69.371	-0.248	0.094
-435.719	107.630	0.308	-0.363
-434.705	289.384	-0.014	-0.025
-433.690	-14.675	0.127	-0.081
-432.676	176.683	0.060	-0.087
-431.661	345.210	-0.215	-0.419
-430.646	-83.057	0.130	0.041
-429.632	800.000	0.018	0.056
-428.617	311.358	0.129	0.240
-427.603	-104.901	0.287	0.065
-426.588	296.707	-0.106	-0.192
-425.573	800.000	-0.092	0.267
-424.559	-200.000	-0.102	0.625
-423.544	112.308	-0.118	-0.141
-422.530	-200.000	-0.021	-0.123
-421.515	-200.000	0.044	0.251
-420.500	-79.351	-0.255	0.086
-419.486	78.131	0.073	-0.077
-418.471	800.000	0.086	-0.274
-417.457	800.000	0.023	0.082
-416.442	182.428	-0.059	0.086
-415.428	-83.110	-0.059	-0.019
-414.413	-77.972	-0.293	0.100
-413.398	-100.416	0.037	0.009
-412.384	485.972	0.162	0.365
-411.369	21.397	-0.181	0.145
-410.355	428.806	0.053	0.114
-409.340	-103.987	-0.464	-0.107
-408.325	-142.743	0.243	-0.023
-407.311	800.000	0.021	0.066
-406.296	-200.000	-0.009	0.277
-405.282	129.742	-0.108	0.137
-404.267	-136.373	-0.266	-0.031
-403.252	20.525	0.305	0.244
-402.238	800.000	-0.052	-0.223
-401.223	-200.000	-0.018	-0.104
-400.209	-200.000	-0.006	-0.135
-399.194	-102.439	-0.258	-0.061
-398.179	-200.000	0.035	0.258
-397.165	-4.339	0.204	0.139
-396.150	-87.094	0.141	-0.042
-395.136	205.440	0.096	0.147
-394.121	800.000	0.039	0.109
-393.106	167.859	0.070	0.098
-392.092	-113.016	0.210	0.041
-391.077	412.022	0.082	-0.171
-390.063	561.820	-0.103	-0.246
-389.048	283.770	0.155	0.275
-388.033	-25.547	-0.280	0.163
-387.019	27.184	0.265	0.220
-386.004	-140.906	-0.164	-0.017
-384.990	471.947	-0.021	0.047
-383.975	53.541	0.243	-0.231
-382.960	629.734	-0.057	-0.141
-381.946	-5.586	-0.247	-0.167
-380.931	800.000	0.088	0.336
-379.917	-200.000	-0.017	-0.152
-378.902	-55.230	0.355	0.158
-377.888	469.107	-0.101	0.223
-376.873	-189.150	0.181	0.002
-375.858	-49.765	-0.116	-0.054
-374.844	-10.443	0.210	0.137
-373.829	800.000	-0.020	0.065
-372.815	242.700	-0.089	0.148
-371.800	-124.042	-0.391	0.061
-370.785	-197.767	-0.231	0.001
-369.771	-89.423	-0.080	0.023
-368.756	7.248	0.098	-0.072
-367.742	800.000	0.062	0.187
-366.727	172.477	-0.139	-0.197
-365.712	36.647	-0.170	-0.148
-364.698	762.334	-0.129	-0.344
-363.683	-71.600	0.239	0.088
-362.669	219.367	-0.068	0.108
-361.654	-155.079	0.353	-0.023
-360.639	306.417	0.181	-0.333
-359.625	-21.310	0.143	0.086
-358.610	66.303	0.293	0.294
-357.596	13.048	-0.075	-0.057
-356.581	-200.000	-0.010	0.265
-355.566	54.357	-0.188	-0.179
-354.552	-157.640	-0.157	0.009
-353.537	144.140	-0.177	-0.233
-352.523	-22.559	-0.347	-0.207
-351.508	26.895	-0.206	0.170
-350.493	-66.321	0.211	-0.083
-349.479	-200.000	-0.081	-0.450
-348.464	-1.252	-0.110	-0.077
-347.450	-50.166	-0.102	0.048
-346.435	-200.000	-0.034	0.342
-345.420	-146.880	0.059	-0.005
-344.406	-200.000	0.005	-0.248
-343.391	-9.909	-0.124	0.081
-342.377	-152.685	0.217	-0.015
-341.362	10.992	-0.179	0.135
-340.348	30.488	0.188	0.159
-339.333	491.952	-0.046	0.103
-338.318	-159.757	0.247	0.013
-337.304	158.959	-0.162	-0.223
-336.289	-200.000	0.012	-0.210
-335.275	289.300	0.068	-0.121
-334.260	-51.903	0.087	0.040
-333.245	-80.639	0.203	0.067
-332.231	-93.951	-0.327	-0.089
-331.216	-89.583	0.455	-0.132
-330.202	61.030	-0.168	-0.165
-329.187	-90.088	0.368	0.106
-328.172	-200.000	-0.028	0.141
-327.158	80.104	0.253	-0.268
-326.143	-200.000	0.044	0.237
-325.129	-128.066	-0.268	0.038
-324.114	-143.221	0.335	-0.032
-323.099	-200.000	-0.029	0.166
-322.085	54.722	0.063	0.060
-321.070	680.892	0.010	0.026
-320.056	-48.689	0.186	-0.088
-319.041	197.376	-0.227	-0.341
-318.026	-80.524	-0.101	-0.033
-317.012	-132.009	0.261	0.034
-315.997	-200.000	0.004	0.132
-314.983	-111.499	0.194	-0.039
-313.968	539.877	-0.126	-0.294
-312.953	-127.876	-0.253	-0.036
-311.939	-120.684	0.110	0.018
-310.924	-96.806	-0.137	0.035
-309.910	-47.205	0.222	0.107
-308.895	168.460	0.034	0.048
-307.880	800.000	0.025	-0.099
-306.866	-112.859	-0.146	0.029
-305.851	-147.911	0.313	0.026
-304.837	74.554	-0.180	0.186
-303.822	-112.355	-0.350	-0.069
-302.807	36.143	-0.069	0.060
-301.793	-9.916	0.070	-0.046
-300.778	-72.740	0.220	-0.080
-299.764	-16.025	0.379	0.237
-298.749	-46.805	0.120	-0.058
-297.735	145.668	0.138	-0.182
-296.720	-121.419	0.125	-0.020
-295.705	-105.446	0.255	0.057
-294.691	-129.972	-0.459	0.062
-293.676	107.229	0.369	0.432
-292.662	339.364	0.202	0.388
-291.647	-200.000	-0.035	0.180
-290.632	40.914	0.008	0.007
-289.618	460.800	-0.135	-0.296
-288.603	-200.000	-0.035	0.396
-287.589	-69.851	0.089	-0.033
-286.574	-137.976	0.045	0.005
-285.559	-200.000	-0.064	-0.409
-284.545	-200.000	0.008	-0.158
-283.530	-200.000	-0.008	-0.089
-282.516	284.348	0.028	0.050
-281.501	57.964	0.311	-0.299
-280.486	319.005	0.114	-0.213
-279.472	-200.000	0.053	0.250
-278.457	-75.397	-0.103	-0.036
-277.443	-73.778	0.147	-0.053
-276.428	-50.866	-0.100	0.046
-275.413	-70.376	0.182	0.068
-274.399	108.508	-0.140	-0.164
-273.384	347.247	-0.048	0.093
-272.370	26.771	-0.217	-0.179
-271.355	205.431	0.042	-0.064
-270.340	-58.446	-0.162	-0.069
-269.326	-47.833	0.151	-0.072
-268.311	162.926	-0.144	-0.199
-267.297	-116.944	0.120	-0.022
-266.282	90.291	0.060	0.066
-265.267	-80.859	0.193	0.063
-264.253	61.224	0.299	0.292
-263.238	-200.000	-0.005	-0.227
-262.224	-99.765	0.087	-0.021
-261.209	-139.852	0.163	-0.017
-260.195	800.000	0.017	0.068
-259.180	331.268	-0.089	0.168
-258.165	800.000	0.069	-0.203
-257.151	239.115	0.014	-0.022
-256.136	253.402	0.160	-0.268
-255.122	-78.496	0.134	-0.045
-254.107	-99.521	-0.348	0.086
-253.092	-200.000	0.040	0.403
-252.078	800.000	0.131	0.377
-251.063	-61.149	-0.171	0.071
-250.049	-137.832	0.125	-0.014
-249.034	290.186	-0.156	0.279
-248.019	63.428	0.119	0.117
-247.005	179.890	-0.035	-0.050
-245.990	216.560	0.218	-0.341
-244.976	-200.000	-0.009	0.189
-243.961	572.403	0.067	-0.160
-242.946	27.890	-0.215	-0.178
-241.932	262.559	0.227	-0.387
-240.917	232.544	-0.174	0.281
-239.903	71.969	-0.163	0.167
-238.888	-200.000	0.022	0.108
-237.873	77.330	0.075	0.079
-236.859	747.709	-0.020	-0.053
-235.844	3.192	0.186	0.133
-234.830	-189.894	-0.111	0.001
-233.815	70.951	-0.197	0.201
-232.800	-95.643	-0.287	-0.076
-231.786	247.660	-0.050	0.083
-230.771	-94.126	0.285	0.077
-229.757	671.048	0.082	-0.209
-228.742	426.986	0.046	0.098
-227.727	-76.292	0.205	-0.071
-226.713	-200.000	0.022	0.419
-225.698	-200.000	0.030	0.223
-224.684	-142.312	0.139	-0.013
-223.669	36.615	0.171	-0.148
-222.655	357.044	-0.067	-0.130
-221.640	423.180	0.007	-0.015
-220.625	-19.597	-0.177	0.108
-219.611	-58.258	0.252	0.107
-218.596	-200.000	-0.060	-0.398
-217.582	-125.660	0.181	0.027
-216.567	2.830	0.427	0.304
-215.552	800.000	-0.027	0.115
-214.538	324.652	0.124	0.232
-213.523	48.071	0.262	-0.240
-212.509	3.851	0.294	0.211
-211.494	13.790	0.102	0.077
-210.479	800.000	0.061	0.201
-209.465	-6.205	-0.150	-0.100
-208.450	284.176	-0.107	-0.190
-207.436	-200.000	-0.020	0.213
-206.421	44.555	-0.236	-0.213
-205.406	-49.839	0.263	-0.122
-204.392	-200.000	0.063	-0.474
-203.377	-200.000	0.008	0.203
-202.363	-193.129	-0.312	0.003
-201.348	-200.000	-0.002	0.194
-200.333	5.766	-0.064	0.047
-199.319	-8.134	-0.162	0.107
-198.304	-127.059	-0.167	0.024
-197.290	386.324	0.132	0.266
-196.275	460.808	0.135	-0.294
-195.260	52.136	-0.313	-0.293
-194.246	800.000	-0.052	0.166
-193.231	76.357	0.075	0.078
-192.217	240.860	0.119	-0.195
-191.202	-200.000	-0.049	-0.539
-190.187	-85.364	-0.147	-0.045
-189.173	88.528	-0.183	0.199
-188.158	-200.000	-0.042	0.284
-187.144	7.214	0.175	-0.128
-186.129	264.497	0.042	0.072
-185.114	35.665	-0.093	-0.080
-184.100	77.230	-0.266	-0.278
-183.085	70.291	0.171	0.173
-182.071	800.000	0.013	-0.051
-181.056	-200.000	0.021	-0.201
-180.042	50.449	-0.174	0.161
-179.027	-22.852	0.173	0.103
-178.012	55.043	0.057	-0.054
-176.998	478.590	-0.105	0.232
-175.983	-200.000	0.054	0.304
-174.969	232.683	-0.076	-0.122
-173.954	-122.004	0.200	0.032
-172.939	-200.000	0.080	0.539
-171.925	-3.236	0.215	-0.147
-170.910	78.537	-0.259	0.272
-169.896	-75.699	-0.363	-0.126
-168.881	135.341	0.087	-0.111
-167.866	352.584	0.053	-0.103
-166.852	-108.935	-0.140	-0.029
-165.837	-200.000	-0.002	0.233
-164.823	11.348	0.033	0.025
-163.808	-58.987	0.263	0.111
-162.793	-52.019	0.249	-0.113
-161.779	800.000	0.103	-0.423
-160.764	73.656	0.078	0.080
-159.750	-124.803	-0.330	-0.050
-158.735	224.244	-0.099	0.157
-157.720	-200.000	0.018	-0.250
-156.706	293.770	0.141	0.253
-155.691	-20.958	-0.153	0.092
-154.677	-7.360	-0.141	-0.093
-153.662	-93.820	-0.048	0.013
-152.647	73.462	0.175	-0.179
-151.633	-200.000	-0.009	0.282
-150.618	66.440	0.195	-0.194
-149.604	153.886	0.115	-0.155
-148.589	-200.000	-0.017	-0.197
-147.574	-57.814	-0.446	0.191
-146.560	3.231	0.225	0.160
-145.545	-107.566	-0.231	-0.049
-144.531	170.592	-0.255	0.358
-143.516	-146.410	0.278	0.024
-142.502	80.461	0.230	0.242
-141.487	110.184	0.072	-0.085
-140.472	-43.818	0.226	0.111
-139.458	-80.607	0.378	-0.123
-138.443	-14.267	0.034	-0.022
-137.429	-78.239	-0.158	0.053
-136.414	211.041	-0.218	0.335
-135.399	-166.383	0.637	0.026
-134.385	-100.966	0.167	0.040
-133.370	-200.000	0.006	-0.129
-132.356	43.624	0.115	0.103
-131.341	-200.000	0.029	-0.179
-130.326	729.112	-0.089	-0.233
-129.312	159.743	0.279	0.380
-128.297	800.000	-0.046	-0.194
-127.283	-181.455	0.096	0.002
-126.268	316.570	-0.108	0.200
-125.253	112.131	-0.016	0.019
-124.239	800.000	0.015	0.040
-123.224	-38.769	0.202	-0.104
-122.210	-113.128	-0.255	0.049
-121.195	-200.000	0.078	-0.417
-120.180	300.957	-0.175	0.316
