DTS Sentinel unit serial number:	SN413079Multiplexer serial number:	ORYXHardware model number:	OX4-SRSoftware version number:	ORYX F/W v4.00 Oryx Data Collector v3.7.2.0data status	okinstallation	princeton_trtdifferential loss correction	single-endedforward channel	channel 1reverse channel	N/Adate	2019/09/12time	17:44:11forward acquisition time	60.00reverse acquisition time	0.00gamma	496.2192k internal	0.2317k external	0.2317temperature offset calibration	1.0104default loss term (dB/km)	0.3790temperature slope calibration	1.0000multiplexer offset coefficient	1.0000multiplexer slope coefficient	1.0000fibre end	0.00T internal ref (°C)	34.19T ext. ref 1 (°C)	2.84T ext. ref 2 (°C)	28.22length (m)	temperature (°C)	Stokes	anti-Stokes-747.200	-67.680	-0.184	-0.073
-746.185	103.224	0.207	0.246
-745.171	-200.000	-0.037	0.198
-744.156	-200.000	-0.015	0.618
-743.142	110.659	-0.212	0.259
-742.127	-51.505	0.347	0.164
-741.112	524.765	-0.069	-0.165
-740.098	17.940	-0.251	0.202
-739.083	-200.000	0.037	0.325
-738.069	227.791	0.200	0.330
-737.054	-180.577	-0.206	-0.004
-736.039	20.231	-0.228	-0.186
-735.025	36.934	0.144	0.129
-734.010	-15.873	-0.142	-0.092
-732.996	-200.000	-0.039	-0.428
-731.981	-84.531	0.105	-0.033
-730.966	-118.650	0.064	0.011
-729.952	516.322	0.040	0.095
-728.937	20.881	-0.124	0.102
-727.923	-158.310	-0.443	0.026
-726.908	-113.058	-0.195	0.039
-725.894	-200.000	-0.042	0.236
-724.879	-75.109	-0.254	-0.092
-723.864	-32.835	-0.296	0.167
-722.850	99.549	0.194	0.227
-721.835	1.169	0.049	0.035
-720.821	-42.454	0.411	0.212
-719.806	-173.831	0.100	-0.003
-718.791	-200.000	0.007	-0.094
-717.777	800.000	0.033	0.099
-716.762	202.388	0.101	-0.158
-715.748	800.000	-0.090	-0.334
-714.733	-135.637	0.150	0.018
-713.718	-115.713	0.156	-0.030
-712.704	116.125	0.051	-0.063
-711.689	83.721	0.162	0.178
-710.675	80.765	-0.357	-0.389
-709.660	-40.887	-0.137	-0.072
-708.645	-82.748	0.092	-0.030
-707.631	-89.984	0.053	0.016
-706.616	-43.689	-0.190	0.097
-705.602	-200.000	0.029	-0.228
-704.587	302.974	0.087	-0.163
-703.572	-75.426	0.047	-0.017
-702.558	15.080	-0.084	0.066
-701.543	-172.833	0.352	0.011
-700.529	572.578	0.128	0.314
-699.514	-25.526	-0.196	0.117
-698.499	-200.000	-0.021	-0.386
-697.485	14.985	-0.370	-0.293
-696.470	300.924	0.124	-0.231
-695.456	-45.875	-0.077	-0.038
-694.441	800.000	0.020	0.087
-693.426	15.111	-0.138	0.109
-692.412	-137.476	0.250	0.029
-691.397	-31.129	-0.089	-0.051
-690.383	-24.949	-0.168	-0.101
-689.368	-142.160	-0.144	-0.014
-688.354	-200.000	-0.044	0.438
-687.339	-177.826	0.069	-0.002
-686.324	-94.177	-0.128	-0.035
-685.310	-200.000	-0.005	0.038
-684.295	233.785	0.200	0.332
-683.281	162.499	-0.170	0.240
-682.266	-200.000	0.021	-0.282
-681.251	-187.292	-0.046	-0.001
-680.237	-23.167	0.290	-0.177
-679.222	222.773	-0.018	0.029
-678.208	16.677	-0.065	0.052
-677.193	-35.876	0.211	-0.115
-676.178	-45.251	-0.223	0.112
-675.164	185.697	-0.064	0.096
-674.149	-173.124	0.354	-0.011
-673.135	663.371	0.071	-0.185
-672.120	-100.747	-0.100	0.025
-671.105	286.813	0.021	-0.037
-670.091	85.143	0.081	0.090
-669.076	213.117	-0.181	0.289
-668.062	40.504	-0.300	0.273
-667.047	-61.746	0.076	0.032
-666.032	-144.524	-0.170	0.016
-665.018	-41.238	0.293	0.152
-664.003	-82.996	-0.176	0.057
-662.989	-75.051	0.235	0.085
-661.974	-165.383	-0.252	0.011
-660.959	473.188	0.084	0.192
-659.945	-17.534	-0.161	0.102
-658.930	-26.432	0.200	-0.118
-657.916	76.319	-0.212	-0.227
-656.901	19.442	0.089	-0.072
-655.886	-200.000	-0.043	0.214
-654.872	-123.398	0.162	0.026
-653.857	256.446	-0.112	0.194
-652.843	-100.859	-0.195	0.049
-651.828	-48.486	0.147	-0.072
-650.814	-14.987	0.272	0.176
-649.799	-91.241	-0.141	-0.041
-648.784	426.465	-0.137	-0.297
-647.770	-200.000	-0.018	-0.125
-646.755	-200.000	0.060	0.380
-645.741	88.260	0.121	0.136
-644.726	-200.000	-0.063	0.344
-643.711	102.506	0.223	-0.263
-642.697	405.197	-0.093	0.198
-641.682	-127.568	-0.101	0.015
-640.668	288.654	0.231	-0.422
-639.653	-63.263	0.147	0.061
-638.638	74.973	-0.227	0.241
-637.624	-55.742	-0.209	-0.094
-636.609	-200.000	0.010	-0.329
-635.595	-200.000	-0.000	-0.118
-634.580	30.175	0.147	0.127
-633.565	-200.000	0.017	0.347
-632.551	4.556	-0.088	0.065
-631.536	800.000	-0.019	0.064
-630.522	-55.804	-0.295	-0.133
-629.507	-200.000	-0.041	-0.219
-628.492	-200.000	-0.265	0.001
-627.478	-114.032	-0.088	-0.017
-626.463	-24.882	0.108	-0.065
-625.449	-200.000	-0.048	-0.334
-624.434	800.000	0.099	-0.294
-623.419	-40.702	0.229	0.120
-622.405	800.000	-0.168	0.568
-621.390	-200.000	-0.006	-0.309
-620.376	320.054	-0.233	-0.447
-619.361	-142.955	0.153	-0.015
-618.346	290.212	-0.103	-0.188
-617.332	29.875	-0.206	-0.177
-616.317	241.123	0.097	-0.163
-615.303	-200.000	0.013	0.207
-614.288	-200.000	-0.030	-0.316
-613.273	-200.000	0.007	0.374
-612.259	-200.000	0.036	-0.278
-611.244	110.034	-0.080	0.097
-610.230	-142.364	-0.097	0.010
-609.215	-27.625	0.276	-0.161
-608.201	-200.000	0.001	0.094
-607.186	186.624	0.164	-0.245
-606.171	-113.771	0.206	0.040
-605.157	-127.304	-0.172	-0.025
-604.142	-111.352	-0.216	-0.044
-603.128	502.699	0.086	0.200
-602.113	-23.015	0.036	-0.022
-601.098	-82.035	0.180	0.059
-600.084	-200.000	-0.036	-0.244
-599.069	-184.451	0.254	0.004
-598.055	-108.578	0.121	0.026
-597.040	-200.000	0.030	-0.386
-596.025	-14.963	0.277	-0.179
-595.011	-200.000	-0.056	-0.288
-593.996	13.798	-0.340	-0.266
-592.982	-138.269	0.184	-0.020
-591.967	-62.950	0.165	0.069
-590.952	-47.832	-0.223	0.109
-589.938	797.073	-0.082	-0.227
-588.923	800.000	0.043	-0.155
-587.909	-191.282	0.343	0.004
-586.894	-182.951	-0.091	0.002
-585.879	-133.861	0.101	0.013
-584.865	686.263	-0.245	0.645
-583.850	-61.782	-0.302	0.127
-582.836	-200.000	-0.027	-0.286
-581.821	-102.755	-0.118	0.028
-580.806	63.072	0.128	0.129
-579.792	-43.081	0.327	0.167
-578.777	-102.924	-0.345	-0.082
-577.763	-72.718	0.051	-0.019
-576.748	-49.407	0.230	-0.110
-575.733	-200.000	0.022	-0.352
-574.719	-7.735	0.205	0.139
-573.704	-200.000	0.010	-0.080
-572.690	-200.000	-0.010	0.058
-571.675	-132.098	0.175	-0.023
-570.661	-14.226	-0.247	-0.160
-569.646	-102.477	-0.193	-0.047
-568.631	34.188	0.201	-0.176
-567.617	-7.485	-0.279	-0.190
-566.602	-200.000	-0.040	0.549
-565.588	-200.000	-0.020	-0.090
-564.573	-29.370	-0.202	-0.116
-563.558	800.000	0.085	-0.250
-562.544	800.000	-0.099	0.399
-561.529	-86.389	-0.105	0.032
-560.515	-0.534	0.084	-0.060
-559.500	-45.312	0.134	0.067
-558.485	386.961	-0.015	-0.031
-557.471	-140.060	-0.066	-0.007
-556.456	-100.228	-0.457	0.114
-555.442	201.759	0.013	-0.020
-554.427	800.000	0.079	-0.241
-553.412	531.984	-0.087	0.208
-552.398	55.900	-0.168	-0.164
-551.383	-200.000	-0.000	-0.428
-550.369	-200.000	-0.029	0.189
-549.354	324.560	0.081	0.156
-548.339	200.800	0.158	-0.244
-547.325	800.000	0.085	-0.247
-546.310	4.982	0.098	0.073
-545.296	242.223	-0.057	-0.096
-544.281	36.018	-0.013	0.012
-543.266	800.000	-0.044	-0.179
-542.252	-179.326	-0.033	-0.001
-541.237	114.575	-0.395	-0.484
-540.223	-48.323	-0.055	-0.027
-539.208	-200.000	0.009	0.059
-538.193	527.556	-0.010	0.025
-537.179	246.969	0.152	0.258
-536.164	13.054	-0.160	0.125
-535.150	74.335	0.237	-0.250
-534.135	-200.000	-0.008	-0.224
-533.121	800.000	0.096	0.389
-532.106	-28.901	-0.105	0.060
-531.091	-70.807	0.055	-0.021
-530.077	-33.089	0.014	-0.008
-529.062	-157.130	-0.054	-0.003
-528.048	-127.972	0.348	0.050
-527.033	136.980	-0.102	-0.133
-526.018	-44.910	-0.438	-0.219
-525.004	-21.730	0.272	0.166
-523.989	-200.000	-0.023	-0.419
-522.975	-200.000	-0.002	0.129
-521.960	-200.000	-0.024	-0.213
-520.945	161.103	-0.049	-0.068
-519.931	-52.771	0.140	0.065
-518.916	427.411	0.137	-0.296
-517.902	-200.000	-0.009	-0.228
-516.887	-200.000	0.020	0.282
-515.872	-200.000	0.008	0.161
-514.858	46.832	0.200	-0.187
-513.843	-200.000	-0.029	0.194
-512.829	-200.000	0.063	0.317
-511.814	-6.295	-0.142	0.098
-510.799	-200.000	0.050	-0.290
-509.785	116.668	0.146	0.180
-508.770	-24.102	0.019	0.012
-507.756	28.253	0.216	0.183
-506.741	90.356	-0.210	0.235
-505.726	-131.030	0.167	-0.022
-504.712	-200.000	-0.004	-0.453
-503.697	33.224	-0.165	-0.144
-502.683	-85.699	-0.049	0.015
-501.668	-186.711	0.188	-0.003
-500.653	81.617	-0.131	0.142
-499.639	-11.662	0.269	0.177
-498.624	-85.758	0.132	-0.041
-497.610	134.082	0.109	-0.141
-496.595	-53.715	0.118	0.054
-495.581	-168.255	0.222	-0.009
-494.566	-64.790	-0.051	0.021
-493.551	-200.000	-0.005	-0.106
-492.537	-200.000	0.057	0.415
-491.522	-18.209	-0.080	0.050
-490.508	133.563	-0.069	0.089
-489.493	44.386	-0.177	-0.163
-488.478	-155.712	0.276	-0.018
-487.464	533.852	0.096	0.229
-486.449	-103.369	0.149	-0.035
-485.435	-76.954	-0.224	-0.079
-484.420	-116.997	0.299	0.055
-483.405	-200.000	-0.052	0.310
-482.391	-120.303	0.178	-0.030
-481.376	800.000	0.027	-0.077
-480.362	17.142	0.071	0.057
-479.347	-200.000	-0.029	0.153
-478.332	-200.000	-0.058	0.352
-477.318	-15.667	-0.071	-0.045
-476.303	-49.052	-0.131	-0.063
-475.289	266.264	-0.026	-0.046
-474.274	-116.394	-0.022	0.004
-473.259	88.499	-0.065	0.072
-472.245	136.309	0.214	-0.279
-471.230	721.647	-0.056	0.149
-470.216	300.519	0.219	-0.406
-469.201	-200.000	0.039	-0.576
-468.186	-81.887	-0.211	0.069
-467.172	-139.979	0.134	0.014
-466.157	132.834	-0.021	-0.027
-465.143	-98.708	-0.176	0.045
-464.128	51.784	0.172	0.164
-463.113	256.471	0.103	0.177
-462.099	58.284	-0.167	-0.164
-461.084	800.000	-0.072	-0.221
-460.070	-112.958	0.221	-0.044
-459.055	40.975	-0.086	-0.078
-458.040	-200.000	-0.062	-0.352
-457.026	-200.000	-0.016	0.343
-456.011	-138.792	-0.070	0.008
-454.997	-200.000	-0.032	0.275
-453.982	-17.526	-0.156	-0.098
-452.968	-200.000	-0.003	0.051
-451.953	800.000	-0.033	0.146
-450.938	740.738	-0.098	-0.262
-449.924	-138.456	0.351	0.039
-448.909	-194.047	-0.109	0.001
-447.895	-200.000	-0.028	0.308
-446.880	-101.945	0.099	0.024
-445.865	-75.414	0.014	-0.005
-444.851	109.422	-0.148	0.177
-443.836	470.803	0.129	0.289
-442.822	210.728	-0.134	0.210
-441.807	220.864	0.066	0.106
-440.792	410.491	-0.028	-0.059
-439.778	319.909	0.057	0.109
-438.763	-140.882	-0.069	-0.007
-437.749	163.763	0.027	0.038
-436.734	-200.000	0.009	0.272
-435.719	420.855	0.099	0.212
-434.705	215.719	0.037	0.058
-433.690	-200.000	0.068	0.339
-432.676	-34.131	0.042	-0.023
-431.661	-190.099	-0.124	-0.001
-430.646	111.854	-0.164	0.198
-429.632	-141.337	-0.227	-0.023
-428.617	31.560	-0.100	-0.086
-427.603	78.031	-0.056	0.059
-426.588	125.011	-0.064	0.081
-425.573	-141.408	-0.220	-0.022
-424.559	121.918	0.112	-0.139
-423.544	-140.853	-0.379	0.039
-422.530	-117.539	-0.165	-0.030
-421.515	18.519	-0.187	-0.150
-420.500	-200.000	-0.036	-0.207
-419.486	-200.000	-0.064	-0.354
-418.471	263.809	0.084	0.146
-417.457	343.971	0.125	-0.244
-416.442	-176.528	0.225	0.006
-415.428	10.468	-0.295	-0.225
-414.413	-152.872	0.179	0.013
-413.398	444.825	0.256	-0.561
-412.384	-101.126	0.055	-0.013
-411.369	-48.792	0.232	0.111
-410.355	-200.000	-0.024	0.111
-409.340	42.195	0.180	0.163
-408.325	-41.019	0.165	-0.085
-407.311	800.000	-0.052	-0.152
-406.296	45.349	0.265	-0.245
-405.282	-136.567	-0.399	0.046
-404.267	-93.481	0.264	0.073
-403.252	554.282	-0.031	0.074
-402.238	380.312	0.095	-0.194
-401.223	-123.322	0.056	0.009
-400.209	29.925	-0.235	-0.200
-399.194	-28.982	-0.179	-0.103
-398.179	-147.826	0.299	-0.025
-397.165	800.000	0.005	-0.018
-396.150	-127.512	-0.097	-0.014
-395.136	201.086	-0.233	-0.358
-394.121	86.765	0.139	0.153
-393.106	800.000	0.105	-0.298
-392.092	175.298	0.142	0.206
-391.077	82.125	0.241	0.261
-390.063	96.859	-0.206	-0.236
-389.048	-200.000	0.016	0.086
-388.033	800.000	-0.029	-0.111
-387.019	-103.624	0.185	0.043
-386.004	68.855	-0.119	-0.122
-384.990	187.449	-0.040	0.060
-383.975	12.839	0.312	0.241
-382.960	30.581	-0.196	0.167
-381.946	-106.665	-0.142	0.032
-380.931	-200.000	0.059	0.278
-379.917	180.937	-0.088	-0.129
-378.902	-102.356	0.180	0.043
-377.888	-18.903	0.154	0.096
-376.873	-54.994	-0.170	-0.077
-375.858	-157.139	0.176	0.011
-374.844	-200.000	0.062	-0.454
-373.829	521.823	0.183	0.428
-372.815	-200.000	0.008	0.071
-371.800	-200.000	-0.018	0.094
-370.785	-107.593	-0.209	-0.046
-369.771	166.854	-0.227	-0.321
-368.756	-200.000	0.352	-0.001
-367.742	-135.374	0.148	0.018
-366.727	136.786	-0.081	0.105
-365.712	-110.228	0.136	-0.028
-364.698	-102.318	0.324	0.077
-363.683	87.643	-0.090	-0.099
-362.669	800.000	0.062	0.254
-361.654	-120.794	0.380	-0.064
-360.639	245.122	-0.095	-0.160
-359.625	800.000	0.119	-0.483
-358.610	-38.836	-0.043	0.022
-357.596	130.111	0.140	0.179
-356.581	-200.000	-0.018	0.357
-355.566	-39.655	-0.111	0.058
-354.552	-200.000	-0.002	0.187
-353.537	-58.198	0.300	-0.130
-352.523	784.567	-0.036	-0.098
-351.508	-200.000	-0.070	0.349
-350.493	234.272	-0.135	0.222
-349.479	-200.000	0.005	0.126
-348.464	-200.000	-0.065	0.489
-347.450	800.000	-0.039	0.166
-346.435	-200.000	-0.002	-0.172
-345.420	-30.790	-0.035	-0.020
-344.406	-36.943	0.153	-0.082
-343.391	-46.738	-0.258	-0.126
-342.377	323.930	-0.094	0.178
-341.362	-200.000	0.012	0.250
-340.348	317.009	-0.065	-0.123
-339.333	-200.000	0.028	0.256
-338.318	778.251	0.057	0.154
-337.304	800.000	0.085	0.263
-336.289	800.000	-0.028	-0.113
-335.275	33.336	0.220	-0.191
-334.260	-200.000	-0.019	-0.183
-333.245	220.859	-0.120	0.191
-332.231	-127.622	-0.214	0.031
-331.216	-108.974	0.093	-0.020
-330.202	-200.000	0.002	-0.121
-329.187	800.000	-0.097	-0.277
-328.172	-200.000	-0.001	-0.054
-327.158	684.118	0.054	-0.141
-326.143	-21.826	-0.190	0.115
-325.129	213.806	0.130	-0.205
-324.114	-138.395	-0.489	0.054
-323.099	59.116	0.078	0.076
-322.085	-142.282	0.091	-0.009
-321.070	523.617	-0.148	-0.345
-320.056	-33.656	-0.262	0.144
-319.041	-200.000	0.014	-0.075
-318.026	98.526	0.273	0.313
-317.012	-124.048	-0.299	0.047
-315.997	800.000	-0.050	0.171
-314.983	-36.727	-0.120	0.064
-313.968	362.035	-0.037	0.073
-312.953	-200.000	-0.023	-0.168
-311.939	800.000	-0.057	-0.211
-310.924	40.751	-0.142	0.127
-309.910	-200.000	-0.001	0.132
-308.895	-70.812	0.048	0.018
-307.880	194.280	-0.098	-0.148
-306.866	85.935	0.105	0.116
-305.851	-200.000	-0.028	-0.214
-304.837	-200.000	0.015	0.232
-303.822	263.410	-0.163	0.283
-302.807	-152.661	-0.571	0.041
-301.793	-200.000	-0.005	-0.200
-300.778	-40.040	-0.006	0.003
-299.764	-61.931	0.099	-0.041
-298.749	559.048	-0.062	0.148
-297.735	-92.349	0.142	0.040
-296.720	553.436	-0.027	0.063
-295.705	-200.000	-0.005	0.103
-294.691	-121.183	0.238	-0.040
-293.676	70.193	0.138	0.141
-292.662	-200.000	0.024	-0.160
-291.647	800.000	0.081	0.279
-290.632	68.572	0.055	-0.056
-289.618	-200.000	-0.008	0.146
-288.603	-200.000	-0.007	0.058
-287.589	-24.560	0.168	-0.099
-286.574	-200.000	0.030	-0.242
-285.559	445.477	-0.107	-0.233
-284.545	-67.213	-0.249	0.097
-283.530	122.574	0.101	-0.125
-282.516	89.293	0.168	-0.186
-281.501	-25.609	-0.129	0.076
-280.486	-200.000	-0.027	0.129
-279.472	-200.000	0.014	0.134
-278.457	-131.390	-0.260	0.034
-277.443	-134.074	-0.226	-0.028
-276.428	131.017	-0.094	0.120
-275.413	21.240	-0.289	-0.234
-274.399	-69.630	-0.397	-0.151
-273.384	399.926	-0.153	0.318
-272.370	76.562	-0.164	0.173
-271.355	769.269	0.041	-0.110
-270.340	120.419	-0.143	-0.176
-269.326	152.994	-0.184	-0.250
-268.311	264.241	0.048	-0.084
-267.297	-25.654	0.472	0.277
-266.282	-200.000	0.009	-0.062
-265.267	513.276	-0.008	0.018
-264.253	-200.000	-0.017	0.246
-263.238	-131.196	-0.221	0.029
-262.224	48.419	-0.364	0.339
-261.209	800.000	0.089	-0.283
-260.195	-146.779	0.158	0.014
-259.180	-155.842	0.296	-0.019
-258.165	-72.275	-0.436	0.161
-257.151	-35.377	-0.133	0.072
-256.136	223.383	0.162	0.259
-255.122	-109.545	0.255	-0.053
-254.107	-72.871	-0.146	0.053
-253.092	-200.000	0.002	0.119
-252.078	-176.799	-0.147	-0.004
-251.063	90.940	0.232	-0.259
-250.049	-24.468	0.396	0.234
-249.034	515.092	-0.111	0.256
-248.019	66.542	0.177	0.178
-247.005	736.654	0.058	0.153
-245.990	362.917	0.048	0.095
-244.976	-200.000	-0.186	0.001
-243.961	114.976	0.033	0.040
-242.946	800.000	0.003	0.011
-241.932	95.103	0.169	-0.191
-240.917	800.000	-0.094	0.276
-239.903	36.840	-0.032	-0.028
-238.888	-138.435	0.101	-0.011
-237.873	800.000	-0.035	0.141
-236.859	521.161	-0.109	-0.253
-235.844	-48.447	-0.191	-0.091
-234.830	-36.128	-0.100	0.054
-233.815	-8.236	0.286	-0.191
-232.800	270.879	0.119	-0.208
-231.786	-140.787	0.308	0.031
-230.771	-95.459	0.166	0.044
-229.757	201.785	-0.162	0.248
-228.742	-92.888	-0.292	0.081
-227.727	-200.000	-0.194	-0.000
-226.713	-181.468	-0.312	0.006
-225.698	765.697	0.110	0.297
-224.684	106.322	-0.141	-0.165
-223.669	438.684	-0.042	0.091
-222.655	5.663	0.080	-0.058
-221.640	-46.961	-0.250	-0.121
-220.625	-0.423	0.184	0.130
-219.611	-59.268	-0.091	-0.039
-218.596	-7.502	-0.070	-0.047
-217.582	-26.570	0.115	-0.067
-216.567	-183.604	0.194	-0.003
-215.552	-1.726	0.185	-0.129
-214.538	-200.000	0.020	0.250
-213.523	-22.512	-0.210	0.126
-212.509	-200.000	0.014	0.146
-211.494	-136.656	0.118	-0.013
-210.479	800.000	-0.119	-0.328
-209.465	161.184	0.111	0.154
-208.450	-0.827	0.085	0.060
-207.436	217.928	0.136	0.215
-206.421	-81.389	0.204	-0.067
-205.406	-200.000	0.033	0.179
-204.392	-200.000	0.032	0.327
-203.377	-137.263	-0.125	0.014
-202.363	-103.066	-0.149	0.035
-201.348	800.000	0.060	-0.239
-200.333	513.252	-0.110	-0.255
-199.319	319.229	0.155	-0.291
-198.304	-102.953	0.371	-0.087
-197.290	-200.000	-0.030	-0.380
-196.275	204.185	-0.072	-0.111
-195.260	505.637	0.013	-0.029
-194.246	0.011	0.071	-0.050
-193.231	-177.848	0.137	-0.003
-192.217	27.454	-0.265	-0.221
-191.202	85.532	-0.168	-0.183
-190.187	-200.000	-0.046	0.210
-189.173	148.573	0.095	-0.127
-188.158	-93.713	-0.146	-0.040
-187.144	-200.000	0.009	0.171
-186.129	37.774	0.078	-0.069
-185.114	-200.000	0.017	0.188
-184.100	289.903	-0.115	0.207
-183.085	-34.359	-0.316	-0.172
-182.071	-117.965	-0.336	-0.060
-181.056	800.000	0.107	-0.355
-180.042	432.757	0.108	0.232
-179.027	32.966	0.255	0.219
-178.012	-98.360	0.327	0.083
-176.998	35.933	-0.150	-0.130
-175.983	-74.955	0.119	0.042
-174.969	126.961	-0.110	-0.137
-173.954	-38.581	0.199	-0.104
-172.939	-138.903	-0.389	-0.042
-171.925	-41.806	-0.082	0.042
-170.910	-200.000	0.006	0.037
-169.896	-200.000	0.027	-0.148
-168.881	-200.000	0.016	-0.072
-167.866	800.000	-0.053	0.165
-166.852	26.875	-0.253	0.210
-165.837	88.633	-0.129	0.142
-164.823	-59.592	-0.073	-0.031
-163.808	-200.000	0.064	0.294
-162.793	-94.380	0.174	0.047
-161.779	79.720	-0.122	-0.130
-160.764	-200.000	-0.006	-0.254
-159.750	-200.000	0.041	0.324
-158.735	-30.990	0.251	-0.140
-157.720	607.034	0.158	0.390
-156.706	-176.776	0.436	-0.011
-155.691	-146.790	0.254	-0.022
-154.677	800.000	0.101	-0.282
-153.662	320.692	0.189	0.355
-152.647	800.000	-0.058	0.202
-151.633	-59.987	0.111	0.047
-150.618	-200.000	0.013	0.216
-149.604	-64.146	-0.332	0.134
-148.589	-157.362	0.199	-0.012
-147.574	-146.694	-0.094	-0.008
-146.560	-131.162	0.105	0.014
-145.545	715.383	0.098	-0.258
-144.531	-41.092	0.155	-0.079
-143.516	-118.126	-0.120	0.021
-142.502	152.475	0.251	0.339
-141.487	-67.557	-0.105	-0.041
-140.472	502.420	-0.017	-0.038
-139.458	24.125	-0.116	0.095
-138.443	47.160	-0.262	0.241
-137.429	298.332	-0.066	0.120
-136.414	-51.414	0.310	-0.143
-135.399	-200.000	0.024	-0.227
-134.385	-91.122	-0.253	0.072
-133.370	39.162	0.037	-0.033
-132.356	800.000	-0.058	0.178
-131.341	29.843	0.178	0.150
-130.326	74.385	0.312	0.324
-129.312	-27.895	-0.088	-0.050
-128.297	800.000	-0.083	0.341
-127.283	-200.000	-0.003	-0.135
-126.268	-5.680	0.034	0.023
-125.253	-113.300	-0.084	-0.016
-124.239	71.558	-0.104	0.107
-123.224	-118.303	0.361	0.064
