DTS Sentinel unit serial number:	SN413079Multiplexer serial number:	ORYXHardware model number:	OX4-SRSoftware version number:	ORYX F/W v4.00 Oryx Data Collector v3.7.2.0data status	okinstallation	princeton_trtdifferential loss correction	single-endedforward channel	channel 1reverse channel	N/Adate	2019/09/18time	00:50:35forward acquisition time	60.00reverse acquisition time	0.00gamma	496.2192k internal	0.2341k external	0.2341temperature offset calibration	0.9982default loss term (dB/km)	0.3790temperature slope calibration	1.0000multiplexer offset coefficient	1.0000multiplexer slope coefficient	1.0000fibre end	0.00T internal ref (°C)	23.37T ext. ref 1 (°C)	0.17T ext. ref 2 (°C)	17.07length (m)	temperature (°C)	Stokes	anti-Stokes-747.200	-200.000	-0.008	0.375
-746.185	-33.017	-0.284	0.158
-745.171	-200.000	0.038	-0.439
-744.156	-5.829	-0.393	-0.270
-743.142	-17.997	-0.340	-0.213
-742.127	-157.200	-0.106	-0.006
-741.112	-65.850	-0.073	-0.029
-740.098	-200.000	0.034	0.299
-739.083	-25.951	0.037	-0.022
-738.069	509.451	-0.074	-0.172
-737.054	-6.086	0.202	0.139
-736.039	-200.000	0.009	-0.506
-735.025	1.801	0.132	-0.095
-734.010	-200.000	0.057	-0.288
-732.996	800.000	-0.072	0.227
-731.981	47.321	-0.296	-0.276
-730.966	-200.000	0.006	0.156
-729.952	-90.158	-0.205	0.060
-728.937	-28.957	0.151	-0.087
-727.923	355.571	-0.028	-0.055
-726.908	-97.848	-0.188	0.049
-725.894	194.629	-0.078	-0.119
-724.879	-41.732	0.351	-0.180
-723.864	-71.835	-0.085	0.032
-722.850	-200.000	0.018	-0.214
-721.835	279.890	0.117	-0.209
-720.821	-42.085	-0.229	0.117
-719.806	800.000	0.086	-0.345
-718.791	-15.041	-0.076	0.049
-717.777	173.820	-0.273	-0.395
-716.762	-82.099	0.321	-0.105
-715.748	234.920	0.148	0.245
-714.733	221.830	-0.062	-0.100
-713.718	800.000	-0.121	-0.425
-712.704	53.180	-0.206	-0.197
-711.689	-130.014	0.137	-0.019
-710.675	37.676	-0.054	-0.048
-709.660	146.899	-0.132	0.178
-708.645	-46.893	0.236	-0.116
-707.631	-13.069	0.087	-0.057
-706.616	-54.884	-0.239	-0.108
-705.602	34.333	-0.222	-0.193
-704.587	69.418	0.060	0.062
-703.572	-25.296	-0.348	-0.206
-702.558	-129.804	-0.184	0.025
-701.543	586.250	0.124	0.305
-700.529	18.878	-0.118	-0.095
-699.514	-86.124	0.179	-0.055
-698.499	197.343	0.148	0.227
-697.485	-200.000	-0.009	-0.085
-696.470	362.903	-0.047	0.094
-695.456	751.986	0.052	0.140
-694.441	323.826	0.041	-0.077
-693.426	374.362	-0.084	-0.170
-692.412	800.000	-0.121	-0.336
-691.397	516.029	-0.033	-0.078
-690.383	193.109	-0.131	-0.198
-689.368	800.000	-0.026	0.106
-688.354	-194.484	0.264	-0.002
-687.339	-1.032	-0.066	-0.047
-686.324	-81.572	-0.128	0.042
-685.310	195.549	-0.116	-0.177
-684.295	31.901	0.143	0.123
-683.281	-88.662	0.411	-0.122
-682.266	-200.000	-0.012	-0.308
-681.251	4.690	0.104	-0.077
-680.237	-130.345	-0.374	-0.051
-679.222	-88.605	0.139	0.041
-678.208	-82.057	0.180	0.059
-677.193	-56.039	0.193	-0.086
-676.178	-57.997	-0.305	0.133
-675.164	-200.000	-0.023	0.162
-674.149	23.503	0.062	0.051
-673.135	39.719	-0.121	-0.109
-672.120	196.082	-0.074	-0.113
-671.105	227.291	-0.112	0.182
-670.091	-144.436	-0.393	0.036
-669.076	175.982	-0.110	-0.160
-668.062	141.970	0.094	0.124
-667.047	-106.319	0.119	-0.027
-666.032	-18.436	0.226	-0.141
-665.018	261.376	-0.102	-0.176
-664.003	217.441	0.181	0.288
-662.989	-86.574	-0.329	-0.101
-661.974	-31.886	0.454	-0.254
-660.959	-200.000	0.057	-0.297
-659.945	800.000	-0.091	0.269
-658.930	654.568	-0.129	-0.330
-657.916	253.145	-0.022	0.038
-656.901	-200.000	-0.051	0.357
-655.886	107.042	0.200	-0.237
-654.872	643.391	0.174	-0.444
-653.857	107.534	-0.038	0.045
-652.843	6.471	-0.079	0.059
-651.828	800.000	-0.080	-0.262
-650.814	800.000	0.056	0.212
-649.799	-200.000	0.033	0.258
-648.784	800.000	0.072	-0.288
-647.770	158.881	0.131	0.182
-646.755	-200.000	-0.034	0.382
-645.741	231.701	-0.102	-0.166
-644.726	-152.688	0.099	0.007
-643.711	-134.111	0.294	-0.036
-642.697	-95.441	0.214	0.057
-641.682	-51.734	0.196	0.091
-640.668	-42.762	-0.092	0.047
-639.653	-169.761	0.236	-0.008
-638.638	-200.000	-0.001	0.121
-637.624	219.285	0.187	-0.299
-636.609	351.914	-0.117	0.232
-635.595	75.530	-0.259	-0.273
-634.580	-8.350	0.189	-0.127
-633.565	27.770	-0.144	0.121
-632.551	425.899	-0.072	-0.155
-631.536	-62.293	0.447	-0.186
-630.522	-141.742	-0.550	-0.055
-629.507	241.314	0.038	-0.063
-628.492	-200.000	0.122	0.000
-627.478	-200.000	-0.027	0.158
-626.463	-32.539	0.171	0.095
-625.449	800.000	-0.029	-0.113
-624.434	-200.000	0.002	0.067
-623.419	-83.031	0.258	0.083
-622.405	-66.862	0.055	0.022
-621.390	302.250	-0.143	-0.265
-620.376	13.067	0.317	0.245
-619.361	800.000	0.042	0.157
-618.346	-150.330	-0.375	0.029
-617.332	-2.997	-0.298	0.208
-616.317	-34.396	0.172	-0.094
-615.303	800.000	-0.013	-0.048
-614.288	-200.000	0.015	-0.148
-613.273	-13.173	-0.083	0.054
-612.259	577.458	-0.059	0.143
-611.244	-99.716	0.181	0.045
-610.230	276.718	-0.024	-0.042
-609.215	235.727	-0.077	0.128
-608.201	-94.856	-0.157	0.043
-607.186	-5.286	-0.152	-0.104
-606.171	-28.444	-0.088	-0.051
-605.157	-57.103	-0.054	0.024
-604.142	744.751	0.105	-0.282
-603.128	437.933	-0.143	0.310
-602.113	515.603	-0.090	-0.209
-601.098	-56.087	0.303	0.135
-600.084	-27.444	-0.203	0.117
-599.069	-200.000	0.001	0.104
-598.055	-200.000	-0.026	-0.134
-597.040	68.248	-0.225	0.229
-596.025	-82.018	-0.172	0.056
-595.011	800.000	0.043	0.151
-593.996	-104.883	0.261	-0.060
-592.982	-21.593	0.189	0.115
-591.967	-47.764	-0.239	-0.115
-590.952	-67.086	0.116	-0.046
-589.938	678.759	-0.139	-0.359
-588.923	-200.000	0.018	0.288
-587.909	-123.651	0.138	0.022
-586.894	14.130	-0.161	-0.125
-585.879	-52.386	-0.286	-0.132
-584.865	-86.223	0.255	0.078
-583.850	-74.280	-0.017	-0.006
-582.836	55.472	0.187	-0.181
-581.821	248.603	-0.098	-0.165
-580.806	10.773	0.187	0.142
-579.792	-200.000	-0.005	0.032
-578.777	800.000	-0.058	-0.194
-577.763	224.219	0.135	0.218
-576.748	-200.000	-0.026	-0.118
-575.733	-109.678	0.415	-0.087
-574.719	89.843	0.151	-0.167
-573.704	800.000	-0.053	-0.187
-572.690	-5.782	0.154	0.105
-571.675	-200.000	-0.009	0.174
-570.661	573.630	-0.099	-0.241
-569.646	450.838	0.113	-0.249
-568.631	134.832	-0.328	-0.425
-567.617	315.472	0.140	0.263
-566.602	15.303	-0.149	0.117
-565.588	-36.668	-0.163	-0.087
-564.573	137.904	0.064	0.083
-563.558	-94.987	-0.191	-0.052
-562.544	216.406	0.182	-0.288
-561.529	-8.914	-0.087	0.058
-560.515	26.903	0.189	0.157
-559.500	86.886	-0.091	0.100
-558.485	31.110	0.138	-0.118
-557.471	151.032	0.056	-0.075
-556.456	-200.000	0.063	-0.323
-555.442	36.862	0.062	0.055
-554.427	652.842	-0.072	-0.183
-553.412	800.000	-0.025	-0.072
-552.398	-23.605	-0.195	0.116
-551.383	-200.000	-0.059	0.278
-550.369	-113.082	0.232	0.046
-549.354	-200.000	-0.004	0.296
-548.339	69.422	0.182	0.186
-547.325	-148.499	-0.181	-0.015
-546.310	-82.469	-0.213	-0.069
-545.296	106.100	-0.283	-0.333
-544.281	286.512	0.059	-0.105
-543.266	-80.556	-0.237	-0.079
-542.252	744.797	0.111	-0.297
-541.237	-200.000	-0.020	-0.387
-540.223	-32.645	-0.493	-0.273
-539.208	-97.147	0.230	0.060
-538.193	-200.000	0.022	-0.129
-537.179	590.575	0.097	-0.238
-536.164	-3.100	-0.166	0.115
-535.150	20.552	-0.084	-0.068
-534.135	350.211	-0.033	-0.064
-533.121	-32.829	0.081	-0.045
-532.106	262.742	-0.151	0.260
-531.091	45.253	-0.275	-0.252
-530.077	60.816	-0.219	-0.216
-529.062	37.269	-0.265	0.233
-528.048	91.910	-0.364	-0.407
-527.033	-15.672	0.428	0.272
-526.018	230.197	-0.113	0.184
-525.004	800.000	-0.016	-0.062
-523.989	-29.733	-0.201	-0.114
-522.975	122.470	0.068	0.085
-521.960	65.442	0.152	-0.153
-520.945	93.465	-0.090	0.101
-519.931	-200.000	0.067	0.321
-518.916	-200.000	0.035	-0.224
-517.902	0.533	0.213	0.151
-516.887	-86.822	-0.242	0.074
-515.872	-36.766	0.250	-0.134
-514.858	154.838	-0.077	-0.106
-513.843	800.000	0.121	-0.383
-512.829	-39.681	0.086	-0.045
-511.814	-2.195	0.010	0.007
-510.799	-69.881	-0.169	0.064
-509.785	-111.064	-0.155	-0.032
-508.770	800.000	-0.061	-0.252
-507.756	127.043	-0.076	0.095
-506.741	-200.000	-0.013	0.106
-505.726	201.780	0.116	-0.178
-504.712	56.878	-0.129	-0.125
-503.697	-175.450	0.185	0.005
-502.683	-200.000	-0.266	0.000
-501.668	50.501	0.033	0.031
-500.653	-200.000	-0.000	0.021
-499.639	-128.455	0.315	-0.044
-498.624	31.095	-0.073	0.062
-497.610	800.000	-0.030	0.124
-496.595	-200.000	0.001	0.239
-495.581	-47.314	0.195	0.094
-494.566	-48.882	0.114	0.054
-493.551	-200.000	0.008	0.126
-492.537	-200.000	-0.022	-0.159
-491.522	-141.919	0.126	-0.012
-490.508	-8.718	0.241	-0.160
-489.493	474.467	0.013	0.029
-488.478	-126.600	0.142	-0.021
-487.464	-200.000	0.041	-0.180
-486.449	535.024	0.073	-0.172
-485.435	-63.255	-0.037	0.015
-484.420	800.000	0.073	-0.284
-483.405	-44.332	0.229	-0.114
-482.391	113.787	0.108	0.131
-481.376	-143.031	0.217	-0.021
-480.362	193.758	0.096	-0.144
-479.347	-126.400	0.327	0.048
-478.332	-200.000	-0.008	0.106
-477.318	455.580	-0.116	-0.255
-476.303	-200.000	-0.017	-0.292
-475.289	-3.962	-0.534	-0.367
-474.274	181.081	-0.102	0.148
-473.259	-200.000	0.002	-0.086
-472.245	-200.000	-0.014	0.179
-471.230	-50.082	-0.176	0.083
-470.216	466.551	0.030	0.067
-469.201	339.808	-0.083	0.160
-468.186	-61.096	0.102	-0.043
-467.172	-200.000	-0.015	-0.217
-466.157	-76.326	0.177	0.062
-465.143	478.299	-0.099	0.223
-464.128	-17.227	0.224	0.140
-463.113	111.557	-0.191	-0.229
-462.099	133.335	-0.153	0.196
-461.084	-76.601	-0.272	0.095
-460.070	-69.724	-0.239	0.091
-459.055	438.637	0.227	-0.491
-458.040	800.000	0.049	-0.137
-457.026	-30.118	-0.211	0.119
-456.011	39.631	0.091	0.081
-454.997	-200.000	-0.005	0.066
-453.982	-122.575	0.413	0.066
-452.968	-15.446	-0.093	-0.059
-451.953	800.000	-0.089	0.358
-450.938	131.945	-0.098	-0.126
-449.924	268.398	-0.188	-0.327
-448.909	-200.000	-0.004	0.106
-447.895	-139.111	0.158	-0.017
-446.880	-106.256	-0.138	-0.031
-445.865	179.123	0.199	-0.288
-444.851	133.784	0.143	0.183
-443.836	73.342	-0.112	-0.116
-442.822	800.000	-0.041	-0.167
-441.807	800.000	0.016	-0.054
-440.792	-46.525	-0.136	0.066
-439.778	-127.504	-0.249	0.036
-438.763	-200.000	-0.040	-0.300
-437.749	-65.763	0.227	0.090
-436.734	30.598	-0.266	-0.225
-435.719	-9.907	-0.128	-0.084
-434.705	-147.787	0.183	-0.015
-433.690	23.340	0.197	-0.160
-432.676	-68.240	-0.212	0.082
-431.661	-20.932	-0.174	0.105
-430.646	-184.078	-0.420	0.007
-429.632	-38.704	-0.100	0.052
-428.617	-93.589	0.345	0.094
-427.603	-200.000	-0.055	-0.245
-426.588	431.380	0.108	-0.231
-425.573	9.552	0.183	0.137
-424.559	-6.623	0.252	0.170
-423.544	-139.229	-0.087	0.009
-422.530	-106.275	-0.180	0.040
-421.515	-200.000	0.012	-0.120
-420.500	571.472	-0.131	0.317
-419.486	187.258	-0.087	0.128
-418.471	0.585	0.244	0.173
-417.457	13.038	-0.193	0.148
-416.442	364.405	-0.100	0.198
-415.428	-15.975	0.368	0.232
-414.413	12.646	-0.090	-0.069
-413.398	61.355	0.140	0.138
-412.384	-15.666	0.187	0.118
-411.369	800.000	0.215	-0.588
-410.355	800.000	0.138	0.457
-409.340	-89.698	0.400	0.116
-408.325	179.903	-0.057	-0.083
-407.311	-44.261	-0.325	-0.161
-406.296	-200.000	-0.001	-0.160
-405.282	-107.011	-0.172	0.038
-404.267	800.000	0.110	-0.391
-403.252	-155.958	0.195	0.012
-402.238	446.029	-0.030	-0.066
-401.223	-32.884	0.081	-0.044
-400.209	-46.712	0.127	0.062
-399.194	67.252	-0.222	0.224
-398.179	-9.111	-0.293	-0.194
-397.165	731.276	0.115	0.304
-396.150	110.785	0.047	-0.056
-395.136	318.380	-0.056	-0.105
-394.121	301.503	-0.010	-0.018
-393.106	800.000	-0.086	0.266
-392.092	115.965	0.122	0.148
-391.077	475.377	-0.040	0.088
-390.063	556.332	-0.080	-0.190
-389.048	297.116	-0.062	0.112
-388.033	-200.000	0.009	0.271
-387.019	37.650	-0.216	-0.189
-386.004	-98.671	0.178	0.045
-384.990	-77.650	0.129	-0.044
-383.975	30.639	-0.168	-0.142
-382.960	684.170	0.028	-0.073
-381.946	258.195	-0.105	-0.178
-380.931	800.000	0.036	0.105
-379.917	-1.305	-0.126	0.088
-378.902	566.424	-0.067	-0.160
-377.888	29.933	0.158	0.133
-376.873	-200.000	0.028	0.148
-375.858	800.000	-0.127	-0.365
-374.844	30.552	0.201	0.170
-373.829	56.886	-0.086	0.082
-372.815	-200.000	0.017	-0.107
-371.800	58.261	0.006	-0.006
-370.785	-198.412	0.173	0.001
-369.771	214.607	-0.005	-0.007
-368.756	-200.000	-0.108	0.538
-367.742	-64.963	0.137	0.055
-366.727	-53.626	-0.346	-0.156
-365.712	-82.679	-0.211	0.067
-364.698	-144.291	-0.144	0.013
-363.683	203.652	0.089	0.136
-362.669	66.671	0.137	-0.138
-361.654	-150.257	-0.290	-0.022
-360.639	800.000	0.029	-0.088
-359.625	320.926	-0.107	0.201
-358.610	176.755	0.160	0.229
-357.596	265.785	-0.132	-0.227
-356.581	-71.951	0.628	0.231
-355.566	21.798	-0.169	0.136
-354.552	-200.000	0.005	0.055
-353.537	247.314	-0.165	0.276
-352.523	800.000	0.053	0.172
-351.508	-200.000	0.044	-0.209
-350.493	758.368	0.051	-0.137
-349.479	156.830	0.052	0.071
-348.464	-2.104	0.117	-0.081
-347.450	-76.661	0.112	0.039
-346.435	800.000	0.103	-0.331
-345.420	-72.427	-0.072	0.026
-344.406	305.576	0.221	0.405
-343.391	-48.013	-0.149	0.071
-342.377	377.747	0.131	-0.264
-341.362	-200.000	-0.001	0.187
-340.348	-0.336	0.243	0.170
-339.333	-48.391	0.054	-0.026
-338.318	412.782	-0.052	-0.108
-337.304	608.682	0.099	0.243
-336.289	570.216	-0.138	0.332
-335.275	-136.325	-0.300	-0.034
-334.260	-200.000	0.022	0.239
-333.245	283.565	-0.095	0.168
-332.231	-44.543	0.036	-0.018
-331.216	800.000	-0.059	0.168
-330.202	-147.861	-0.244	-0.020
-329.187	-39.443	0.235	-0.122
-328.172	-200.000	-0.028	0.247
-327.158	-20.820	0.412	-0.249
-326.143	-80.282	-0.297	-0.098
-325.129	-163.511	-0.098	0.005
-324.114	800.000	0.074	0.230
-323.099	107.096	-0.299	-0.350
-322.085	50.192	0.279	-0.260
-321.070	94.759	-0.110	-0.123
-320.056	800.000	-0.076	-0.250
-319.041	624.341	-0.081	0.202
-318.026	800.000	-0.090	0.276
-317.012	-86.258	-0.160	0.048
-315.997	-137.922	-0.265	0.029
-314.983	31.889	0.247	-0.209
-313.968	-200.000	-0.004	-0.125
-312.953	800.000	0.062	-0.183
-311.939	-49.155	-0.282	0.133
-310.924	408.568	0.193	0.402
-309.910	93.901	-0.050	-0.056
-308.895	69.771	0.284	0.289
-307.880	184.155	0.163	-0.238
-306.866	6.779	0.123	-0.090
-305.851	-8.757	0.256	-0.169
-304.837	-18.703	-0.115	0.071
-303.822	-126.264	0.154	-0.023
-302.807	24.195	-0.104	-0.084
-301.793	-108.382	0.095	-0.020
-300.778	177.107	0.208	0.299
-299.764	-59.448	0.034	0.014
-298.749	-200.000	-0.002	0.233
-297.735	-200.000	0.013	-0.136
-296.720	-200.000	0.006	0.233
-295.705	232.726	0.153	0.247
-294.691	28.130	-0.179	0.149
-293.676	-200.000	-0.000	-0.021
-292.662	115.351	0.097	-0.117
-291.647	-105.372	0.254	-0.057
-290.632	-143.838	-0.204	0.019
-289.618	83.021	0.097	0.104
-288.603	477.349	-0.070	-0.156
-287.589	-180.867	0.397	-0.008
-286.574	-145.908	-0.192	0.017
-285.559	35.766	-0.115	-0.100
-284.545	-27.832	0.285	-0.163
-283.530	-166.155	0.222	0.009
-282.516	558.070	-0.131	0.310
-281.501	-44.344	-0.135	0.067
-280.486	152.931	-0.062	0.083
-279.472	-149.732	-0.215	-0.017
-278.457	-200.000	-0.015	-0.163
-277.443	182.187	0.106	0.154
-276.428	265.078	-0.184	0.315
-275.413	-35.546	0.186	-0.099
-274.399	-75.404	0.169	-0.059
-273.384	800.000	-0.139	0.436
-272.370	-84.180	-0.276	-0.086
-271.355	494.801	0.130	0.294
-270.340	-23.104	-0.332	0.197
-269.326	-159.750	-0.100	0.005
-268.311	27.688	0.163	0.135
-267.297	800.000	-0.139	0.384
-266.282	31.848	0.409	0.347
-265.267	-78.044	-0.194	-0.066
-264.253	-136.371	-0.158	0.018
-263.238	-200.000	0.043	0.196
-262.224	-14.388	0.069	-0.044
-261.209	391.340	-0.140	-0.285
-260.195	-200.000	0.009	0.439
-259.180	-118.900	0.293	0.051
-258.165	-200.000	-0.030	0.250
-257.151	-124.784	0.303	-0.046
-256.136	235.543	-0.070	-0.113
-255.122	97.335	0.091	0.103
-254.107	-84.023	0.088	0.028
-253.092	91.338	0.274	-0.302
-252.078	294.874	-0.074	0.134
-251.063	-200.000	-0.035	0.235
-250.049	303.932	0.107	0.195
-249.034	-108.415	0.197	0.042
-248.019	800.000	0.135	-0.376
-247.005	50.880	-0.424	-0.395
-245.990	-98.919	0.233	0.058
-244.976	-54.981	0.123	-0.054
-243.961	-200.000	-0.005	-0.031
-242.946	-64.883	-0.332	0.132
-241.932	66.207	0.024	-0.024
-240.917	266.212	-0.076	0.130
-239.903	23.090	0.209	0.169
-238.888	266.106	-0.129	-0.222
-237.873	800.000	-0.085	0.236
-236.859	800.000	-0.059	-0.220
-235.844	148.807	0.221	0.294
-234.830	-153.359	-0.155	0.011
-233.815	-200.000	0.001	0.209
-232.800	178.452	-0.177	-0.253
-231.786	-50.508	0.225	-0.104
-230.771	565.522	0.028	-0.068
-229.757	-65.441	0.126	-0.050
-228.742	-154.686	-0.163	0.011
-227.727	-145.376	-0.102	0.009
-226.713	-102.500	-0.323	-0.076
-225.698	800.000	0.083	-0.241
-224.684	26.879	-0.107	-0.088
-223.669	800.000	0.109	0.376
-222.655	101.610	-0.160	0.183
-221.640	-200.000	-0.000	-0.047
-220.625	56.860	-0.343	-0.328
-219.611	800.000	0.164	-0.498
-218.596	15.273	-0.325	0.250
-217.582	-200.000	0.024	-0.199
-216.567	-25.637	0.213	-0.123
-215.552	-131.615	-0.188	0.024
-214.538	-14.029	0.200	0.126
-213.523	-200.000	-0.008	0.235
-212.509	-200.000	-0.010	-0.368
-211.494	800.000	-0.059	-0.204
-210.479	-9.221	0.112	0.073
-209.465	482.092	0.123	0.273
-208.450	-49.303	0.388	-0.182
-207.436	800.000	0.049	-0.175
-206.421	-97.248	-0.091	-0.023
-205.406	103.661	0.243	0.280
-204.392	-108.714	-0.239	0.050
-203.377	-41.166	0.117	0.059
-202.363	-167.258	0.136	-0.005
-201.348	129.101	-0.180	-0.226
-200.333	-13.961	0.192	0.122
-199.319	-46.048	-0.198	0.096
-198.304	290.336	-0.142	-0.254
-197.290	800.000	-0.032	0.097
-196.275	213.811	0.043	0.066
-195.260	487.342	-0.131	-0.294
-194.246	-200.000	0.014	0.207
-193.231	-34.546	0.194	0.104
-192.217	800.000	-0.109	0.308
-191.202	800.000	-0.045	0.149
-190.187	155.950	-0.148	-0.200
-189.173	-36.010	-0.094	0.050
-188.158	-63.306	-0.288	0.116
-187.144	-17.511	0.180	0.111
-186.129	71.191	0.275	0.279
-185.114	-200.000	-0.004	-0.110
-184.100	-200.000	-0.001	-0.130
-183.085	35.663	-0.135	-0.116
-182.071	-200.000	-0.008	-0.222
-181.056	-200.000	-0.006	0.049
-180.042	201.929	-0.034	-0.052
-179.027	63.879	0.136	-0.134
-178.012	-200.000	0.070	-0.326
-176.998	260.765	-0.125	-0.211
-175.983	530.499	-0.038	0.088
-174.969	-129.101	-0.128	-0.018
-173.954	-6.987	0.081	0.054
-172.939	-108.461	0.222	-0.047
-171.925	410.481	0.161	-0.335
-170.910	-77.205	-0.181	0.062
-169.896	384.150	-0.008	0.016
-168.881	-126.265	-0.325	0.048
-167.866	-66.555	-0.113	-0.044
-166.852	-137.850	0.107	0.012
-165.837	147.139	-0.174	0.230
-164.823	-200.000	0.041	-0.201
-163.808	800.000	0.135	0.367
-162.793	-200.000	0.020	0.109
-161.779	-100.241	-0.545	0.133
-160.764	170.271	0.096	-0.135
-159.750	-119.218	0.260	0.044
-158.735	-34.995	-0.236	0.126
-157.720	-200.000	0.023	-0.118
-156.706	81.348	-0.313	-0.332
-155.691	-200.000	0.033	-0.202
-154.677	202.150	0.238	-0.360
-153.662	96.326	0.177	0.198
-152.647	-49.247	-0.057	0.027
-151.633	-200.000	-0.020	0.114
-150.618	-200.000	-0.056	0.248
-149.604	-58.705	0.198	-0.084
-148.589	134.955	0.203	-0.259
-147.574	-69.677	-0.264	-0.099
-146.560	139.493	0.228	-0.294
-145.545	84.360	0.139	0.149
-144.531	-200.000	0.014	-0.095
-143.516	-27.097	0.079	-0.045
-142.502	24.325	0.111	0.090
-141.487	-200.000	-0.020	0.140
-140.472	-200.000	0.037	-0.203
-139.458	-109.597	-0.186	-0.038
-138.443	-110.041	0.154	0.032
-137.429	-135.547	0.364	0.042
-136.414	63.608	0.066	0.065
-135.399	13.237	-0.078	-0.059
-134.385	-200.000	-0.017	0.203
-133.370	-11.760	0.135	-0.087
-132.356	267.089	-0.185	0.317
-131.341	800.000	0.128	0.396
-130.326	-6.198	0.143	-0.095
-129.312	-1.247	0.394	0.272
-128.297	553.845	-0.080	-0.188
-127.283	-200.000	0.003	-0.112
-126.268	-55.446	-0.462	-0.202
-125.253	383.457	-0.042	-0.085
-124.239	800.000	0.038	0.122
-123.224	7.715	0.091	-0.067
-122.210	436.950	-0.136	-0.290
-121.195	70.673	0.112	-0.114
