DTS Sentinel unit serial number:	SN413079Multiplexer serial number:	ORYXHardware model number:	OX4-SRSoftware version number:	ORYX F/W v4.00 Oryx Data Collector v3.7.2.0data status	okinstallation	princeton_trtdifferential loss correction	single-endedforward channel	channel 1reverse channel	N/Adate	2019/09/17time	20:30:35forward acquisition time	60.00reverse acquisition time	0.00gamma	496.2192k internal	0.2329k external	0.2329temperature offset calibration	0.9977default loss term (dB/km)	0.3790temperature slope calibration	1.0000multiplexer offset coefficient	1.0000multiplexer slope coefficient	1.0000fibre end	0.00T internal ref (°C)	30.62T ext. ref 1 (°C)	0.20T ext. ref 2 (°C)	21.27length (m)	temperature (°C)	Stokes	anti-Stokes-747.200	47.801	0.054	0.051
-746.185	131.709	-0.027	0.035
-745.171	800.000	-0.021	-0.077
-744.156	-115.012	0.207	-0.040
-743.142	667.320	-0.069	-0.179
-742.127	49.720	0.178	-0.169
-741.112	-200.000	0.015	-0.214
-740.098	-51.657	-0.164	-0.077
-739.083	-39.032	0.206	0.109
-738.069	-134.743	-0.324	0.040
-737.054	393.720	0.070	-0.147
-736.039	-33.500	0.171	-0.095
-735.025	539.311	0.073	0.175
-734.010	143.019	0.222	-0.297
-732.996	800.000	-0.061	0.216
-731.981	62.637	0.137	-0.137
-730.966	-200.000	-0.079	-0.458
-729.952	-200.000	0.081	-0.480
-728.937	-90.784	-0.376	-0.109
-727.923	101.618	-0.026	0.030
-726.908	800.000	0.114	-0.374
-725.894	800.000	0.020	0.074
-724.879	190.947	0.072	-0.109
-723.864	-90.768	-0.426	0.124
-722.850	-86.973	-0.354	0.108
-721.835	-200.000	-0.039	0.216
-720.821	121.191	-0.117	-0.146
-719.806	-200.000	0.002	0.080
-718.791	-51.676	0.139	-0.065
-717.777	6.263	-0.043	0.032
-716.762	312.288	-0.239	0.451
-715.748	45.117	0.083	0.077
-714.733	581.870	0.109	-0.270
-713.718	577.683	0.029	0.072
-712.704	-62.880	0.229	0.095
-711.689	-4.921	0.152	-0.105
-710.675	800.000	-0.022	0.078
-709.660	177.962	0.110	0.162
-708.645	248.323	-0.195	-0.332
-707.631	-24.452	-0.290	-0.174
-706.616	82.903	0.182	-0.199
-705.602	-200.000	-0.006	0.096
-704.587	-200.000	0.067	0.402
-703.572	1.665	0.206	-0.149
-702.558	-80.797	0.145	0.048
-701.543	-177.437	-0.251	0.006
-700.529	15.662	0.266	-0.211
-699.514	51.072	-0.191	0.182
-698.499	19.403	-0.326	-0.263
-697.485	-44.477	0.129	-0.065
-696.470	800.000	0.136	0.399
-695.456	239.329	0.040	0.068
-694.441	-200.000	-0.017	-0.188
-693.426	12.961	-0.104	0.081
-692.412	204.171	-0.030	0.047
-691.397	-170.166	-0.178	0.006
-690.383	-112.563	-0.307	0.061
-689.368	-177.047	-0.257	0.006
-688.354	219.127	0.033	0.053
-687.339	-122.708	-0.259	-0.042
-686.324	-5.369	-0.074	-0.051
-685.310	-127.148	0.410	-0.060
-684.295	88.024	-0.166	-0.184
-683.281	-135.323	0.235	-0.028
-682.266	88.971	-0.275	-0.308
-681.251	294.926	0.077	0.142
-680.237	-159.330	-0.278	-0.016
-679.222	800.000	-0.062	0.202
-678.208	-200.000	-0.022	0.217
-677.193	258.532	-0.120	0.208
-676.178	99.287	0.099	0.115
-675.164	800.000	0.070	-0.258
-674.149	-118.114	-0.039	0.007
-673.135	-200.000	-0.005	0.239
-672.120	142.448	0.102	-0.136
-671.105	246.986	-0.082	-0.139
-670.091	251.412	0.032	-0.054
-669.076	-200.000	-0.026	0.164
-668.062	230.897	-0.159	-0.261
-667.047	-1.798	-0.257	0.181
-666.032	-12.213	0.281	-0.184
-665.018	-10.880	-0.122	-0.081
-664.003	-184.611	0.254	0.004
-662.989	-16.716	0.098	-0.062
-661.974	800.000	-0.107	0.407
-660.959	-180.956	0.012	0.000
-659.945	800.000	0.043	0.136
-658.930	-92.379	0.045	-0.013
-657.916	-33.311	-0.049	-0.027
-656.901	-118.644	-0.137	-0.024
-655.886	39.608	-0.081	-0.073
-654.872	-108.922	0.094	-0.020
-653.857	626.044	-0.069	-0.174
-652.843	397.524	0.054	-0.112
-651.828	389.080	-0.032	-0.067
-650.814	43.182	0.159	-0.146
-649.799	-63.666	-0.047	0.019
-648.784	46.161	0.057	-0.053
-647.770	-81.268	-0.078	0.026
-646.755	-200.000	-0.017	-0.099
-645.741	-96.943	-0.197	-0.052
-644.726	-87.167	-0.199	-0.061
-643.711	-131.158	-0.137	-0.018
-642.697	-37.529	-0.450	0.241
-641.682	-59.055	0.165	0.071
-640.668	-200.000	0.000	-0.178
-639.653	-36.632	0.257	-0.139
-638.638	-200.000	-0.015	0.159
-637.624	152.171	0.179	0.246
-636.609	-9.305	0.502	-0.336
-635.595	800.000	-0.067	-0.288
-634.580	800.000	-0.058	-0.163
-633.565	-200.000	0.003	0.041
-632.551	800.000	-0.014	-0.053
-631.536	29.333	-0.086	-0.073
-630.522	-16.845	0.178	0.113
-629.507	247.538	0.076	-0.129
-628.492	-67.253	0.134	0.053
-627.478	-65.406	0.114	0.046
-626.463	304.692	-0.108	0.200
-625.449	-17.257	-0.076	-0.048
-624.434	565.793	0.060	-0.146
-623.419	-152.474	-0.193	-0.014
-622.405	371.348	-0.037	0.076
-621.390	-200.000	-0.013	0.102
-620.376	-110.067	0.107	-0.022
-619.361	-35.838	-0.281	0.153
-618.346	2.701	-0.190	0.138
-617.332	22.357	0.186	-0.153
-616.317	-101.202	0.231	0.057
-615.303	-200.000	-0.362	-0.000
-614.288	40.362	0.439	0.396
-613.273	-35.550	0.115	0.063
-612.259	512.284	0.053	-0.123
-611.244	344.873	-0.151	0.298
-610.230	-67.470	-0.207	-0.081
-609.215	-167.190	-0.259	0.011
-608.201	-68.928	0.246	0.095
-607.186	-91.467	-0.234	-0.067
-606.171	-62.690	0.144	0.060
-605.157	137.591	0.110	-0.144
-604.142	-109.035	-0.464	-0.099
-603.128	468.241	0.121	0.272
-602.113	-99.126	0.331	0.084
-601.098	-134.762	0.360	-0.044
-600.084	-61.768	0.310	0.130
-599.069	208.058	-0.088	-0.137
-598.055	52.343	0.184	-0.175
-597.040	105.139	0.062	-0.073
-596.025	-101.476	-0.320	0.078
-595.011	-118.838	0.140	-0.025
-593.996	71.169	-0.104	-0.108
-592.982	-200.000	0.043	-0.246
-591.967	-154.838	0.123	0.008
-590.952	14.426	-0.257	-0.201
-589.938	574.290	-0.112	0.273
-588.923	800.000	0.050	0.153
-587.909	-111.740	0.173	0.035
-586.894	-200.000	-0.003	-0.102
-585.879	519.873	-0.136	-0.319
-584.865	703.495	0.144	-0.379
-583.850	-119.941	-0.171	0.029
-582.836	2.665	-0.178	0.129
-581.821	-1.734	-0.303	-0.213
-580.806	298.947	-0.151	0.278
-579.792	-86.655	-0.127	-0.039
-578.777	-92.142	-0.352	-0.100
-577.763	-200.000	-0.021	-0.135
-576.748	-17.096	0.464	-0.293
-575.733	-200.000	0.011	-0.176
-574.719	-172.809	-0.023	0.001
-573.704	-74.197	0.269	0.097
-572.690	40.110	-0.078	0.070
-571.675	-37.411	-0.180	-0.096
-570.661	-200.000	-0.017	-0.431
-569.646	408.850	0.179	-0.379
-568.631	-193.332	-0.259	-0.002
-567.617	-54.626	0.289	0.131
-566.602	229.716	-0.115	-0.188
-565.588	788.330	-0.167	0.459
-564.573	800.000	-0.073	0.282
-563.558	-109.217	-0.446	-0.095
-562.544	-200.000	0.058	0.387
-561.529	355.484	-0.081	0.162
-560.515	-57.129	-0.210	0.093
-559.500	-93.567	-0.119	-0.033
-558.485	34.903	-0.069	0.060
-557.471	150.542	0.178	0.242
-556.456	41.188	0.430	-0.389
-555.442	79.275	0.251	0.269
-554.427	-81.627	-0.058	-0.019
-553.412	317.639	-0.131	-0.248
-552.398	-58.873	0.284	-0.123
-551.383	800.000	-0.066	-0.258
-550.369	428.805	0.003	-0.007
-549.354	747.354	0.083	0.224
-548.339	-92.273	-0.084	-0.024
-547.325	656.205	0.100	0.257
-546.310	349.475	-0.012	-0.023
-545.296	-200.000	-0.028	0.168
-544.281	66.675	-0.041	-0.042
-543.266	710.166	-0.055	-0.146
-542.252	800.000	-0.054	-0.170
-541.237	-143.481	0.152	0.015
-540.223	-5.236	-0.210	0.144
-539.208	127.431	-0.312	0.396
-538.193	-14.888	-0.369	-0.236
-537.179	53.649	-0.220	0.211
-536.164	29.997	0.413	0.352
-535.150	-33.394	0.164	0.091
-534.135	-76.877	0.293	-0.102
-533.121	44.208	0.125	-0.114
-532.106	9.958	-0.218	0.166
-531.091	322.619	-0.127	-0.241
-530.077	255.250	-0.127	0.217
-529.062	-44.193	0.158	-0.079
-528.048	197.458	0.062	0.094
-527.033	-58.101	0.137	0.060
-526.018	-125.546	-0.063	0.010
-525.004	-200.000	0.059	-0.383
-523.989	66.787	-0.353	0.359
-522.975	349.993	0.173	0.341
-521.960	800.000	-0.079	0.228
-520.945	-92.282	-0.297	-0.083
-519.931	-140.344	0.399	-0.042
-518.916	-200.000	0.041	0.244
-517.902	-16.976	0.139	0.088
-516.887	-116.543	0.128	0.024
-515.872	-145.864	-0.149	-0.013
-514.858	-98.806	-0.441	0.112
-513.843	52.367	-0.146	0.139
-512.829	156.169	-0.094	-0.130
-511.814	510.366	-0.102	0.237
-510.799	800.000	0.092	0.356
-509.785	47.780	-0.161	0.150
-508.770	-200.000	-0.082	-0.555
-507.756	-38.863	0.046	-0.024
-506.741	-200.000	-0.013	-0.320
-505.726	-200.000	-0.020	-0.146
-504.712	-131.100	0.244	-0.032
-503.697	-200.000	0.015	0.166
-502.683	-163.714	0.164	0.008
-501.668	-40.152	0.231	-0.120
-500.653	254.394	-0.043	-0.074
-499.639	235.259	0.081	-0.133
-498.624	-111.009	0.287	0.059
-497.610	199.025	0.080	-0.123
-496.595	-116.008	0.485	0.090
-495.581	492.477	-0.053	0.120
-494.566	115.523	-0.212	0.259
-493.551	271.497	0.054	0.095
-492.537	57.623	0.279	-0.272
-491.522	324.533	0.249	-0.475
-490.508	-58.656	0.124	0.054
-489.493	-59.371	0.052	-0.022
-488.478	21.719	0.069	-0.056
-487.464	-200.000	-0.009	-0.399
-486.449	-200.000	-0.012	-0.057
-485.435	-29.108	-0.070	0.040
-484.420	187.077	-0.120	-0.178
-483.405	-131.841	0.154	-0.020
-482.391	-200.000	0.033	0.170
-481.376	-71.854	0.366	0.136
-480.362	110.673	0.061	0.074
-479.347	228.294	0.146	-0.237
-478.332	-35.677	0.046	0.025
-477.318	26.589	0.019	0.016
-476.303	-13.242	0.206	0.133
-475.289	475.674	0.093	-0.210
-474.274	-109.770	-0.084	0.018
-473.259	217.225	0.043	0.068
-472.245	-115.191	0.337	0.064
-471.230	11.400	0.207	-0.158
-470.216	1.660	-0.125	0.090
-469.201	-23.046	0.122	0.073
-468.186	-105.330	-0.377	0.085
-467.172	-200.000	0.018	-0.240
-466.157	-62.904	0.234	0.096
-465.143	-91.522	0.194	0.055
-464.128	-200.000	-0.003	-0.114
-463.113	146.209	0.080	0.107
-462.099	-51.377	-0.113	-0.053
-461.084	-84.276	-0.245	0.077
-460.070	-9.910	0.280	0.186
-459.055	-35.300	-0.074	0.040
-458.040	-200.000	-0.027	0.225
-457.026	800.000	-0.071	-0.300
-456.011	23.565	-0.132	0.108
-454.997	-200.000	0.055	0.315
-453.982	-172.859	-0.181	0.006
-452.968	-63.632	-0.313	-0.128
-451.953	237.985	-0.102	0.168
-450.938	-168.887	-0.100	-0.004
-449.924	-33.549	-0.263	-0.145
-448.909	-40.735	0.085	-0.044
-447.895	800.000	0.022	0.067
-446.880	-130.469	0.222	-0.030
-445.865	19.481	0.071	0.057
-444.851	575.267	0.085	0.205
-443.836	19.749	0.035	0.028
-442.822	-200.000	0.022	0.353
-441.807	-83.895	0.158	0.050
-440.792	76.658	-0.139	0.147
-439.778	273.449	0.029	-0.052
-438.763	-170.102	-0.144	-0.005
-437.749	-19.562	-0.153	0.094
-436.734	-70.634	0.189	-0.071
-435.719	-64.383	-0.292	0.118
-434.705	370.425	0.032	-0.064
-433.690	0.071	-0.149	0.106
-432.676	107.689	0.082	0.098
-431.661	-200.000	-0.049	-0.218
-430.646	80.738	0.209	0.224
-429.632	429.548	0.043	0.092
-428.617	-61.837	0.030	-0.013
-427.603	-75.055	0.178	0.063
-426.588	279.880	0.046	-0.082
-425.573	-141.964	0.197	-0.019
-424.559	157.070	0.152	0.209
-423.544	276.564	0.146	0.258
-422.530	-200.000	-0.004	-0.119
-421.515	96.204	-0.087	-0.099
-420.500	56.504	0.186	-0.180
-419.486	800.000	0.091	0.252
-418.471	85.021	0.187	-0.204
-417.457	-200.000	0.008	0.176
-416.442	-200.000	0.040	0.495
-415.428	601.035	-0.079	-0.196
-414.413	-92.182	-0.151	-0.043
-413.398	-138.926	0.136	0.015
-412.384	-69.186	-0.082	0.031
-411.369	192.984	-0.234	0.352
-410.355	-109.241	0.265	0.056
-409.340	188.069	0.126	0.187
-408.325	102.381	0.121	0.141
-407.311	-90.319	0.218	0.063
-406.296	-90.032	-0.292	0.085
-405.282	512.381	-0.126	-0.292
-404.267	514.773	0.102	-0.237
-403.252	51.373	0.153	0.144
-402.238	-46.773	-0.072	0.035
-401.223	-44.176	-0.158	-0.079
-400.209	-13.895	-0.068	-0.044
-399.194	-4.735	-0.210	0.144
-398.179	103.583	0.081	-0.095
-397.165	-101.306	0.255	-0.062
-396.150	-200.000	0.060	0.305
-395.136	689.499	0.060	0.155
-394.121	-62.515	0.228	0.094
-393.106	97.631	-0.227	-0.259
-392.092	705.103	-0.106	0.277
-391.077	47.164	-0.233	-0.215
-390.063	-88.990	-0.160	-0.047
-389.048	-83.825	-0.453	0.143
-388.033	71.051	0.198	0.204
-387.019	244.199	-0.088	-0.147
-386.004	412.771	0.048	-0.100
-384.990	-46.180	-0.066	-0.032
-383.975	134.903	-0.194	0.250
-382.960	137.405	-0.076	-0.099
-381.946	800.000	0.067	-0.232
-380.931	-11.288	-0.177	0.116
-379.917	182.045	-0.142	0.208
-378.902	55.897	-0.068	0.065
-377.888	-200.000	-0.013	-0.402
-376.873	112.134	-0.115	-0.138
-375.858	59.858	0.166	-0.163
-374.844	21.069	-0.104	0.084
-373.829	-48.774	-0.332	0.158
-372.815	12.229	0.160	-0.122
-371.800	90.744	-0.234	-0.260
-370.785	-44.889	-0.444	-0.220
-369.771	-78.766	0.157	0.053
-368.756	-66.313	-0.353	0.140
-367.742	31.946	0.187	0.160
-366.727	800.000	0.082	-0.301
-365.712	226.028	0.089	-0.143
-364.698	-43.511	0.372	-0.187
-363.683	-175.043	0.289	0.008
-362.669	366.672	-0.085	-0.170
-361.654	-42.231	-0.115	-0.058
-360.639	-37.378	0.112	-0.059
-359.625	154.780	-0.198	-0.269
-358.610	-200.000	0.029	0.199
-357.596	356.930	-0.027	-0.053
-356.581	-155.121	0.175	0.011
-355.566	41.456	0.163	-0.146
-354.552	261.285	0.051	0.087
-353.537	-143.213	-0.208	0.020
-352.523	453.442	0.163	0.358
-351.508	25.396	-0.027	-0.023
-350.493	-200.000	0.025	0.216
-349.479	-200.000	0.081	0.363
-348.464	372.638	-0.180	0.363
-347.450	-88.995	0.111	0.033
-346.435	58.286	-0.155	0.151
-345.420	800.000	0.122	0.349
-344.406	-135.163	0.191	-0.023
-343.391	-173.512	-0.404	-0.012
-342.377	-76.303	0.290	-0.101
-341.362	415.379	0.161	0.341
-340.348	-99.394	-0.176	0.044
-339.333	-55.810	0.217	-0.096
-338.318	-14.063	-0.148	-0.095
-337.304	-200.000	-0.014	-0.241
-336.289	-33.278	0.289	-0.159
-335.275	-200.000	0.052	-0.298
-334.260	-23.456	0.245	0.146
-333.245	61.459	0.100	0.098
-332.231	169.998	-0.141	0.200
-331.216	136.850	0.298	-0.386
-330.202	278.611	-0.198	-0.351
-329.187	142.321	-0.190	0.250
-328.172	800.000	0.051	0.219
-327.158	-35.598	0.194	0.104
-326.143	800.000	-0.092	0.269
-325.129	35.010	-0.217	-0.188
-324.114	-200.000	0.010	0.319
-323.099	86.254	-0.031	0.034
-322.085	-4.244	0.332	0.228
-321.070	800.000	-0.056	-0.228
-320.056	60.532	0.048	-0.047
-319.041	-200.000	-0.012	-0.137
-318.026	5.398	0.187	-0.136
-317.012	45.257	-0.304	-0.278
-315.997	-104.491	-0.106	0.024
-314.983	-200.000	-0.049	-0.220
-313.968	-66.658	-0.160	-0.063
-312.953	-200.000	-0.033	-0.143
-311.939	792.043	-0.142	-0.388
-310.924	-200.000	-0.016	-0.070
-309.910	377.120	-0.130	-0.264
-308.895	44.450	0.072	-0.066
-307.880	-92.034	0.150	0.042
-306.866	800.000	-0.058	0.196
-305.851	426.786	0.081	0.173
-304.837	-62.388	0.131	-0.054
-303.822	-78.990	0.224	0.076
-302.807	-200.000	-0.035	-0.338
-301.793	763.295	-0.066	0.176
-300.778	171.067	-0.144	0.205
-299.764	-200.000	0.022	-0.157
-298.749	78.488	0.058	0.061
-297.735	50.625	-0.295	0.276
-296.720	-127.393	0.181	-0.026
-295.705	72.420	-0.226	0.233
-294.691	-119.779	-0.230	0.039
-293.676	77.126	0.250	-0.263
-292.662	43.217	-0.162	-0.146
-291.647	-142.125	0.055	0.005
-290.632	800.000	-0.141	0.489
-289.618	572.118	0.096	-0.231
-288.603	-18.450	0.135	0.084
-287.589	25.973	0.210	0.173
-286.574	681.246	0.074	0.190
-285.559	-89.468	0.258	0.075
-284.545	-106.942	-0.156	-0.034
-283.530	66.331	0.038	0.038
-282.516	71.288	-0.201	-0.207
-281.501	137.299	-0.116	-0.150
-280.486	-10.550	-0.195	0.128
-279.472	16.381	0.186	0.145
-278.457	-96.679	-0.322	-0.084
-277.443	-76.833	0.162	0.056
-276.428	41.112	-0.117	0.104
-275.413	-44.912	0.194	0.096
-274.399	-97.261	-0.164	0.042
-273.384	247.995	-0.066	0.110
-272.370	800.000	-0.068	0.218
-271.355	-2.597	0.061	0.042
-270.340	391.941	-0.127	0.260
-269.326	-35.015	0.273	0.147
-268.311	-32.286	-0.318	-0.176
-267.297	302.905	0.153	-0.280
-266.282	-200.000	-0.014	-0.130
-265.267	40.391	0.156	0.139
-264.253	73.674	0.178	-0.185
-263.238	319.146	-0.072	0.136
-262.224	95.080	-0.156	0.176
-261.209	-30.803	0.207	-0.116
-260.195	-87.830	-0.295	-0.088
-259.180	591.737	0.087	-0.212
-258.165	-200.000	0.011	0.445
-257.151	-200.000	0.014	0.091
-256.136	-144.826	0.055	0.005
-255.122	313.121	-0.225	0.418
-254.107	-200.000	0.011	-0.147
-253.092	768.714	-0.065	-0.175
-252.078	-200.000	0.027	-0.272
-251.063	800.000	0.078	-0.299
-250.049	-23.097	0.470	-0.279
-249.034	-129.714	-0.350	-0.048
-248.019	133.305	0.146	0.186
-247.005	-200.000	0.013	-0.265
-245.990	205.793	-0.016	0.024
-244.976	206.014	0.072	-0.111
-243.961	179.991	0.045	-0.065
-242.946	800.000	0.079	0.252
-241.932	193.405	0.177	-0.264
-240.917	-200.000	0.028	-0.280
-239.903	-52.316	0.113	-0.052
-238.888	-14.608	0.126	-0.080
-237.873	-200.000	-0.049	0.236
-236.859	-127.896	0.087	-0.012
-235.844	48.110	0.290	-0.268
-234.830	-84.312	-0.289	0.090
-233.815	564.742	-0.068	-0.162
-232.800	-132.854	-0.206	0.026
-231.786	55.508	0.114	-0.109
-230.771	169.533	-0.173	0.244
-229.757	406.766	-0.140	-0.292
-228.742	203.256	0.170	-0.260
-227.727	119.373	-0.154	-0.188
-226.713	171.407	-0.077	-0.108
-225.698	222.582	0.046	-0.073
-224.684	-135.377	0.097	-0.011
-223.669	-200.000	-0.031	0.225
-222.655	105.333	0.214	-0.250
-221.640	-200.000	-0.024	0.200
-220.625	639.719	-0.066	0.165
-219.611	800.000	-0.092	0.341
-218.596	372.117	-0.200	-0.401
-217.582	-84.972	-0.200	0.062
-216.567	0.694	0.132	0.093
-215.552	24.249	-0.152	-0.124
-214.538	-11.250	-0.214	0.139
-213.523	800.000	-0.028	0.080
-212.509	72.328	-0.435	-0.447
-211.494	-96.826	-0.213	-0.055
-210.479	800.000	-0.069	-0.293
-209.465	155.540	-0.104	0.142
-208.450	-200.000	-0.033	-0.277
-207.436	-153.917	-0.259	-0.017
-206.421	221.197	-0.161	-0.255
-205.406	221.747	-0.048	0.076
-204.392	-120.452	-0.219	-0.037
-203.377	-48.559	0.340	-0.161
-202.363	800.000	0.053	-0.190
-201.348	560.415	-0.147	0.350
-200.333	-150.375	-0.353	0.027
-199.319	800.000	0.063	0.186
-198.304	-200.000	-0.025	-0.209
-197.290	-84.145	-0.382	0.119
-196.275	-32.344	-0.119	0.066
-195.260	-200.000	0.036	0.329
-194.246	-41.728	0.073	0.037
-193.231	129.062	0.159	-0.200
-192.217	-121.841	-0.047	-0.008
-191.202	800.000	-0.121	-0.345
-190.187	-200.000	-0.089	-0.391
-189.173	-54.140	0.151	0.068
-188.158	146.247	0.134	-0.178
-187.144	-131.052	0.363	-0.048
-186.129	150.341	-0.083	-0.112
-185.114	-18.538	0.205	0.126
-184.100	9.297	0.262	-0.195
-183.085	382.314	0.110	-0.222
-182.071	-200.000	-0.014	0.105
-181.056	-15.660	-0.198	0.125
-180.042	-78.965	0.193	-0.065
-179.027	-200.000	0.020	-0.094
-178.012	257.423	0.064	-0.109
-176.998	37.954	0.324	0.283
-175.983	-106.675	-0.482	0.106
-174.969	-200.000	-0.032	-0.219
-173.954	33.696	0.206	0.176
-172.939	77.883	-0.212	0.222
-171.925	-200.000	0.010	0.098
-170.910	181.881	0.138	-0.200
-169.896	-200.000	-0.001	0.084
-168.881	-45.812	0.289	-0.141
-167.866	42.018	0.275	-0.246
-166.852	800.000	0.048	0.134
-165.837	109.162	0.179	0.211
-164.823	-200.000	0.051	0.359
-163.808	48.134	-0.019	-0.018
-162.793	-195.270	0.256	0.002
-161.779	-200.000	-0.044	-0.195
-160.764	800.000	0.066	-0.263
-159.750	800.000	-0.017	-0.057
-158.735	-30.060	0.121	-0.068
-157.720	18.663	0.101	-0.079
-156.706	800.000	-0.035	-0.131
-155.691	74.122	-0.204	-0.211
-154.677	175.643	0.178	0.254
-153.662	-49.125	-0.262	0.123
-152.647	-42.953	-0.479	0.239
-151.633	-54.894	-0.224	0.099
-150.618	-44.998	0.043	0.021
-149.604	-200.000	0.009	0.151
-148.589	-71.265	0.279	0.103
-147.574	-200.000	0.010	-0.246
-146.560	-55.562	-0.179	-0.079
-145.545	-116.940	0.394	0.071
-144.531	228.277	-0.148	0.237
-143.516	177.220	0.101	-0.144
-142.502	-200.000	0.066	0.326
-141.487	35.896	-0.101	0.088
-140.472	177.085	0.218	-0.312
-139.458	-113.404	0.282	0.054
-138.443	-118.810	-0.205	-0.036
-137.429	444.172	0.083	0.178
-136.414	-200.000	-0.025	0.337
-135.399	-109.745	-0.026	-0.005
-134.385	-47.431	-0.304	0.146
-133.370	-200.000	-0.008	0.381
-132.356	-117.660	0.156	-0.028
-131.341	290.547	-0.066	0.119
-130.326	116.668	-0.096	0.115
-129.312	221.411	-0.081	0.127
-128.297	-31.972	-0.022	0.012
-127.283	551.539	0.079	-0.186
-126.268	-200.000	-0.032	-0.236
-125.253	800.000	-0.027	-0.084
-124.239	16.147	-0.209	-0.162
-123.224	-122.605	0.259	0.041
-122.210	39.001	0.162	-0.142
-121.195	-102.757	0.092	-0.021
-120.180	-92.608	0.353	-0.097
