DTS Sentinel unit serial number:	SN413079Multiplexer serial number:	ORYXHardware model number:	OX4-SRSoftware version number:	ORYX F/W v4.00 Oryx Data Collector v3.7.2.0data status	okinstallation	princeton_trtdifferential loss correction	single-endedforward channel	channel 1reverse channel	N/Adate	2019/09/13time	02:58:35forward acquisition time	60.00reverse acquisition time	0.00gamma	496.2192k internal	0.2331k external	0.2331temperature offset calibration	1.0163default loss term (dB/km)	0.3790temperature slope calibration	1.0000multiplexer offset coefficient	1.0000multiplexer slope coefficient	1.0000fibre end	0.00T internal ref (°C)	27.44T ext. ref 1 (°C)	4.05T ext. ref 2 (°C)	22.22length (m)	temperature (°C)	Stokes	anti-Stokes-747.200	-4.178	-0.354	0.247
-746.185	-40.908	-0.363	0.189
-745.171	-145.278	-0.201	0.018
-744.156	419.561	0.043	0.093
-743.142	800.000	-0.078	0.256
-742.127	-200.000	0.005	0.093
-741.112	8.471	-0.111	-0.084
-740.098	-165.969	-0.350	-0.015
-739.083	-31.957	-0.317	0.178
-738.069	-200.000	0.055	0.321
-737.054	127.916	0.057	-0.073
-736.039	579.136	-0.129	-0.317
-735.025	55.431	0.274	0.267
-734.010	89.536	-0.370	-0.415
-732.996	163.147	-0.108	-0.152
-731.981	800.000	-0.103	0.363
-730.966	-200.000	0.013	0.239
-729.952	800.000	0.033	-0.146
-728.937	129.077	-0.097	0.124
-727.923	-42.618	-0.111	-0.057
-726.908	-27.121	-0.200	0.117
-725.894	-200.000	0.012	-0.128
-724.879	376.658	-0.112	-0.231
-723.864	410.138	-0.178	-0.379
-722.850	408.500	-0.218	-0.464
-721.835	409.199	0.056	0.120
-720.821	-200.000	-0.050	0.365
-719.806	-200.000	0.028	0.195
-718.791	19.137	0.228	0.184
-717.777	-47.066	-0.074	0.036
-716.762	83.133	-0.144	-0.157
-715.748	-200.000	0.007	-0.160
-714.733	192.351	-0.105	0.159
-713.718	-117.422	0.260	-0.047
-712.704	8.862	-0.222	0.169
-711.689	770.216	-0.061	-0.167
-710.675	673.785	-0.032	0.084
-709.660	76.826	0.213	0.227
-708.645	-48.362	0.129	-0.062
-707.631	18.393	-0.310	0.249
-706.616	-63.638	0.122	0.050
-705.602	103.533	0.194	-0.228
-704.587	524.758	-0.089	-0.209
-703.572	75.361	0.044	0.046
-702.558	18.117	-0.188	-0.151
-701.543	174.075	-0.146	-0.212
-700.529	800.000	-0.145	-0.416
-699.514	57.461	0.167	-0.164
-698.499	-119.483	-0.042	0.007
-697.485	428.701	-0.200	-0.433
-696.470	-200.000	-0.022	-0.270
-695.456	67.542	-0.157	0.161
-694.441	-12.703	-0.089	0.058
-693.426	153.929	0.152	-0.209
-692.412	800.000	-0.027	-0.099
-691.397	-11.599	-0.352	-0.232
-690.383	14.683	0.130	-0.102
-689.368	208.634	0.108	0.169
-688.354	360.563	-0.085	-0.171
-687.339	800.000	-0.070	0.271
-686.324	154.109	0.067	-0.092
-685.310	-102.149	0.190	0.046
-684.295	63.865	0.095	-0.096
-683.281	-200.000	0.011	-0.168
-682.266	-200.000	-0.032	-0.470
-681.251	354.380	-0.169	0.338
-680.237	216.266	0.160	0.255
-679.222	800.000	0.018	-0.079
-678.208	-83.231	-0.298	-0.096
-677.193	179.174	0.196	-0.288
-676.178	145.943	0.120	-0.161
-675.164	80.132	0.149	0.161
-674.149	160.628	0.111	0.155
-673.135	168.731	-0.052	0.075
-672.120	141.379	0.231	0.307
-671.105	-30.656	-0.121	-0.069
-670.091	-49.538	-0.190	0.091
-669.076	-79.919	-0.188	-0.063
-668.062	-200.000	-0.050	-0.459
-667.047	464.365	-0.153	0.344
-666.032	-22.465	-0.183	-0.111
-665.018	-97.263	0.187	0.049
-664.003	-2.602	-0.204	0.143
-662.989	-200.000	0.016	0.078
-661.974	-28.624	-0.292	0.169
-660.959	-58.056	-0.050	-0.022
-659.945	-200.000	0.005	-0.066
-658.930	644.476	-0.040	-0.103
-657.916	-126.369	0.331	-0.050
-656.901	50.483	-0.097	0.092
-655.886	-28.492	0.179	0.103
-654.872	-137.297	0.054	0.006
-653.857	-200.000	0.004	-0.043
-652.843	102.653	-0.068	0.080
-651.828	119.879	-0.106	0.131
-650.814	-90.203	-0.250	-0.073
-649.799	19.191	0.162	0.130
-648.784	350.012	-0.119	0.235
-647.770	-142.728	-0.349	0.034
-646.755	223.241	-0.121	0.196
-645.741	-200.000	0.015	-0.205
-644.726	483.220	-0.121	0.275
-643.711	-78.937	0.456	-0.155
-642.697	324.885	-0.112	0.215
-641.682	-27.947	0.356	-0.207
-640.668	92.574	-0.213	-0.240
-639.653	446.460	0.095	-0.210
-638.638	800.000	-0.112	0.310
-637.624	-200.000	0.045	-0.262
-636.609	318.637	-0.076	0.144
-635.595	328.097	0.107	-0.206
-634.580	-132.664	0.186	-0.024
-633.565	75.005	-0.145	0.153
-632.551	448.518	0.066	0.145
-631.536	-104.067	-0.289	0.068
-630.522	378.252	0.078	0.160
-629.507	332.018	0.036	-0.070
-628.492	-134.393	0.352	0.043
-627.478	163.131	-0.234	0.330
-626.463	334.513	0.035	0.067
-625.449	-200.000	0.006	-0.048
-624.434	95.923	0.210	-0.240
-623.419	800.000	0.093	-0.387
-622.405	-85.667	-0.315	0.098
-621.390	-112.236	-0.082	-0.016
-620.376	-26.027	-0.127	0.075
-619.361	-200.000	-0.042	-0.195
-618.346	-200.000	-0.120	0.000
-617.332	-130.442	-0.389	0.053
-616.317	800.000	-0.109	-0.373
-615.303	-33.302	-0.272	-0.151
-614.288	-200.000	0.038	0.262
-613.273	-76.910	-0.332	0.116
-612.259	49.005	-0.220	-0.206
-611.244	-167.435	0.170	-0.007
-610.230	-200.000	-0.028	0.185
-609.215	-200.000	-0.007	0.356
-608.201	13.324	-0.248	0.192
-607.186	16.843	-0.401	-0.318
-606.171	-123.694	0.295	-0.047
-605.157	800.000	0.010	0.028
-604.142	135.728	0.082	-0.106
-603.128	-49.592	-0.246	-0.117
-602.113	76.993	0.122	-0.130
-601.098	800.000	-0.032	-0.138
-600.084	348.815	0.011	-0.022
-599.069	19.684	-0.335	-0.269
-598.055	99.785	-0.231	-0.268
-597.040	800.000	0.046	-0.133
-596.025	-138.764	-0.107	0.012
-595.011	150.865	0.162	0.221
-593.996	-90.701	0.106	0.031
-592.982	-122.990	-0.170	-0.027
-591.967	79.512	-0.219	0.235
-590.952	800.000	-0.047	0.178
-589.938	291.692	-0.117	0.212
-588.923	800.000	-0.043	-0.162
-587.909	35.103	-0.219	-0.192
-586.894	285.580	-0.016	0.029
-585.879	-103.913	0.178	0.041
-584.865	-200.000	-0.042	-0.242
-583.850	53.719	0.060	-0.058
-582.836	-29.201	-0.188	-0.108
-581.821	-128.942	0.124	0.017
-580.806	-9.871	0.218	0.145
-579.792	-95.953	-0.233	0.062
-578.777	800.000	-0.096	-0.277
-577.763	5.048	-0.346	-0.255
-576.748	-72.926	0.096	-0.035
-575.733	-99.771	0.059	-0.015
-574.719	7.343	0.146	0.109
-573.704	-46.624	0.198	0.097
-572.690	-200.000	-0.010	0.076
-571.675	-122.273	-0.125	-0.020
-570.661	800.000	-0.023	-0.064
-569.646	224.525	-0.034	-0.054
-568.631	-200.000	-0.225	0.000
-567.617	129.183	-0.125	-0.159
-566.602	-200.000	0.023	0.136
-565.588	-200.000	-0.065	0.366
-564.573	636.334	0.137	0.347
-563.558	-126.246	-0.126	-0.019
-562.544	97.541	0.210	-0.242
-561.529	800.000	-0.115	0.346
-560.515	714.479	0.015	0.041
-559.500	-127.761	-0.218	0.031
-558.485	92.081	-0.152	0.171
-557.471	58.416	-0.064	-0.063
-556.456	-29.363	0.201	-0.115
-555.442	-131.301	0.160	0.021
-554.427	444.130	-0.092	-0.203
-553.412	-92.586	-0.256	-0.072
-552.398	-106.804	0.168	-0.037
-551.383	-111.491	0.414	-0.084
-550.369	186.873	0.235	0.350
-549.354	252.746	-0.065	0.111
-548.339	-151.257	0.320	-0.024
-547.325	246.012	-0.079	0.133
-546.310	35.660	0.091	0.080
-545.296	550.858	0.048	0.114
-544.281	44.648	-0.229	0.211
-543.266	-200.000	-0.008	0.270
-542.252	-161.506	-0.511	-0.026
-541.237	-36.791	0.039	0.021
-540.223	-86.414	-0.025	0.008
-539.208	-55.398	0.158	-0.071
-538.193	135.107	0.174	0.225
-537.179	232.321	-0.216	0.353
-536.164	-141.516	0.222	-0.022
-535.150	-68.850	0.357	0.138
-534.135	42.794	-0.034	0.031
-533.121	342.791	-0.122	0.239
-532.106	19.718	-0.080	0.064
-531.091	369.441	-0.207	-0.419
-530.077	-139.675	-0.319	0.034
-529.062	-43.715	0.134	0.068
-528.048	287.180	-0.147	0.265
-527.033	-200.000	-0.015	-0.230
-526.018	-169.024	0.056	0.002
-525.004	140.382	0.108	-0.142
-523.989	-67.834	0.232	0.090
-522.975	-200.000	-0.032	-0.197
-521.960	260.873	0.129	-0.222
-520.945	-200.000	-0.028	0.375
-519.931	-18.625	0.323	0.201
-518.916	244.562	0.027	-0.044
-517.902	-73.684	0.250	-0.091
-516.887	1.035	-0.216	0.155
-515.872	68.953	0.066	0.068
-514.858	-87.263	0.433	0.131
-513.843	-200.000	-0.003	0.039
-512.829	800.000	-0.045	0.126
-511.814	-131.868	-0.185	0.024
-510.799	-200.000	0.021	-0.108
-509.785	-52.400	-0.422	-0.195
-508.770	-200.000	0.010	-0.190
-507.756	134.211	0.144	0.186
-506.741	-200.000	-0.011	0.091
-505.726	-143.591	-0.108	0.010
-504.712	-130.209	-0.274	-0.037
-503.697	111.810	0.251	0.302
-502.683	800.000	0.054	-0.173
-501.668	-31.300	-0.270	0.152
-500.653	-126.300	0.150	0.022
-499.639	268.460	0.092	0.161
-498.624	13.601	0.146	-0.113
-497.610	-120.015	-0.371	-0.063
-496.595	656.787	-0.115	0.295
-495.581	-44.982	0.191	0.095
-494.566	-88.571	-0.187	0.056
-493.551	105.686	0.057	0.068
-492.537	142.892	0.195	-0.258
-491.522	500.902	-0.045	0.104
-490.508	-34.498	-0.124	0.068
-489.493	169.621	-0.069	0.098
-488.478	-200.000	0.002	-0.079
-487.464	-166.447	-0.114	0.005
-486.449	800.000	0.083	-0.332
-485.435	-200.000	-0.027	0.430
-484.420	800.000	-0.093	0.385
-483.405	295.209	-0.059	0.108
-482.391	-170.637	-0.174	0.006
-481.376	95.188	0.101	-0.115
-480.362	-71.585	0.278	-0.103
-479.347	-102.280	0.367	0.088
-478.332	-31.736	-0.246	0.137
-477.318	129.843	0.128	-0.163
-476.303	-85.623	-0.358	0.111
-475.289	-200.000	-0.004	0.122
-474.274	-200.000	-0.005	-0.167
-473.259	-8.608	0.216	0.144
-472.245	-132.100	0.253	0.033
-471.230	392.346	0.027	0.057
-470.216	-42.314	0.191	-0.097
-469.201	-128.314	-0.310	0.044
-468.186	-137.132	0.143	-0.016
-467.172	156.470	0.069	-0.095
-466.157	393.795	-0.125	-0.259
-465.143	99.054	0.105	-0.120
-464.128	7.590	0.289	0.215
-463.113	-85.599	-0.173	0.053
-462.099	-200.000	-0.030	0.437
-461.084	-200.000	0.034	-0.211
-460.070	-200.000	-0.029	0.165
-459.055	-200.000	-0.011	-0.184
-458.040	-175.741	0.231	-0.006
-457.026	-114.187	-0.398	-0.077
-456.011	-200.000	0.031	-0.195
-454.997	800.000	-0.030	0.114
-453.982	-25.962	0.304	-0.178
-452.968	-200.000	-0.022	0.155
-451.953	-57.759	0.236	-0.103
-450.938	357.520	0.176	-0.350
-449.924	63.425	0.151	-0.150
-448.909	110.563	0.082	-0.098
-447.895	49.138	-0.254	0.237
-446.880	800.000	-0.070	-0.249
-445.865	-10.281	0.052	0.035
-444.851	-104.857	0.494	0.113
-443.836	326.558	0.109	0.209
-442.822	-200.000	-0.054	-0.241
-441.807	91.928	-0.186	-0.208
-440.792	-11.897	-0.245	-0.160
-439.778	800.000	0.053	-0.225
-438.763	-74.109	0.292	0.105
-437.749	-140.753	0.254	0.026
-436.734	46.745	0.126	0.116
-435.719	-74.891	0.194	-0.069
-434.705	42.849	0.181	0.164
-433.690	-200.000	0.012	-0.139
-432.676	298.322	0.185	0.339
-431.661	-149.997	0.221	-0.017
-430.646	203.915	-0.088	0.136
-429.632	-191.566	-0.185	0.002
-428.617	-30.725	-0.264	0.149
-427.603	-71.212	-0.273	0.102
-426.588	0.731	0.239	0.170
-425.573	800.000	-0.074	-0.229
-424.559	-200.000	0.052	-0.333
-423.544	-123.601	0.133	0.021
-422.530	353.383	-0.164	-0.324
-421.515	135.363	0.271	-0.350
-420.500	758.851	-0.071	0.192
-419.486	-200.000	-0.047	-0.205
-418.471	-107.293	0.276	0.060
-417.457	800.000	-0.087	0.300
-416.442	72.504	0.127	-0.132
-415.428	-113.742	-0.168	-0.033
-414.413	203.173	0.070	0.108
-413.398	-13.168	-0.099	-0.064
-412.384	237.103	-0.121	0.199
-411.369	328.096	0.154	0.294
-410.355	-79.397	0.010	-0.003
-409.340	402.036	0.089	-0.186
-408.325	599.767	-0.065	-0.159
-407.311	-43.145	0.437	-0.220
-406.296	61.179	0.130	0.129
-405.282	9.191	0.087	-0.065
-404.267	-200.000	-0.033	0.283
-403.252	47.519	-0.085	-0.079
-402.238	-67.085	0.407	0.160
-401.223	-51.000	-0.346	0.161
-400.209	-87.930	-0.161	-0.048
-399.194	51.276	-0.149	-0.140
-398.179	-200.000	0.020	-0.281
-397.165	-96.826	-0.090	-0.023
-396.150	-66.779	-0.332	-0.130
-395.136	279.797	-0.055	0.097
-394.121	396.603	-0.066	0.136
-393.106	159.062	0.171	-0.237
-392.092	593.055	0.076	-0.186
-391.077	242.074	0.098	0.163
-390.063	800.000	-0.028	0.113
-389.048	-89.654	-0.038	-0.011
-388.033	-50.864	-0.207	0.097
-387.019	363.106	-0.091	0.181
-386.004	-200.000	0.022	0.414
-384.990	-13.435	0.104	-0.067
-383.975	179.929	-0.132	-0.192
-382.960	-200.000	-0.026	-0.195
-381.946	245.870	0.077	0.128
-380.931	-35.417	-0.136	0.073
-379.917	-20.708	-0.319	-0.194
-378.902	279.610	0.098	-0.173
-377.888	-164.632	-0.115	-0.005
-376.873	5.999	0.228	-0.167
-375.858	132.423	0.191	-0.244
-374.844	-200.000	0.017	0.090
-373.829	47.792	0.076	0.070
-372.815	558.886	0.065	-0.154
-371.800	-67.698	0.261	0.101
-370.785	250.282	-0.081	0.136
-369.771	-173.950	-0.458	0.013
-368.756	-15.204	-0.201	0.128
-367.742	106.287	-0.159	-0.187
-366.727	-103.983	-0.224	0.052
-365.712	130.008	0.083	0.105
-364.698	800.000	-0.117	0.482
-363.683	127.397	-0.144	0.181
-362.669	-78.608	0.282	-0.096
-361.654	-165.886	0.136	-0.006
-360.639	-111.360	-0.234	-0.047
-359.625	15.345	-0.079	-0.061
-358.610	46.454	-0.270	0.249
-357.596	216.987	0.173	0.273
-356.581	-43.414	-0.139	0.069
-355.566	-81.885	-0.134	-0.043
-354.552	31.106	-0.070	0.060
-353.537	-180.593	0.276	-0.006
-352.523	-157.901	-0.107	0.006
-351.508	291.293	-0.087	-0.157
-350.493	-104.274	0.127	0.029
-349.479	336.484	-0.122	-0.235
-348.464	800.000	0.073	-0.256
-347.450	384.656	0.112	-0.230
-346.435	-51.505	-0.175	-0.081
-345.420	800.000	0.070	-0.278
-344.406	-73.929	0.307	-0.110
-343.391	-67.399	0.120	-0.047
-342.377	73.473	-0.069	-0.072
-341.362	72.859	0.099	0.103
-340.348	-200.000	0.010	-0.221
-339.333	48.793	-0.088	-0.082
-338.318	33.485	0.151	0.130
-337.304	0.603	0.139	-0.099
-336.289	-200.000	-0.061	-0.325
-335.275	-59.166	0.227	-0.097
-334.260	-75.305	-0.146	0.052
-333.245	-2.048	0.400	0.278
-332.231	-2.277	-0.274	-0.191
-331.216	344.370	0.076	-0.147
-330.202	-76.336	0.236	-0.082
-329.187	51.634	-0.273	0.257
-328.172	-100.804	-0.145	0.035
-327.158	-94.197	0.108	-0.029
-326.143	-200.000	0.048	-0.213
-325.129	-169.679	-0.190	-0.007
-324.114	83.036	0.054	-0.058
-323.099	761.378	-0.062	-0.166
-322.085	531.454	0.212	-0.495
-321.070	363.421	0.112	-0.223
-320.056	8.853	-0.312	-0.233
-319.041	122.250	0.154	0.190
-318.026	-79.266	0.273	0.091
-317.012	156.800	-0.040	0.055
-315.997	7.178	-0.249	-0.184
-314.983	8.380	-0.131	0.098
-313.968	-145.653	-0.298	-0.026
-312.953	-148.519	-0.310	-0.025
-311.939	-200.000	0.024	0.236
-310.924	167.233	0.077	-0.108
-309.910	83.222	0.263	0.283
-308.895	125.438	-0.186	0.232
-307.880	12.083	0.298	0.226
-306.866	61.528	-0.295	0.290
-305.851	575.064	-0.090	0.217
-304.837	800.000	0.039	-0.111
-303.822	23.913	0.196	0.160
-302.807	-200.000	0.013	-0.217
-301.793	48.629	0.202	-0.187
-300.778	-155.471	-0.120	-0.008
-299.764	-191.830	0.052	0.001
-298.749	-28.018	-0.085	-0.049
-297.735	-165.940	-0.181	-0.008
-296.720	-156.065	-0.223	0.014
-295.705	-121.706	-0.029	0.005
-294.691	-54.593	0.339	-0.152
-293.676	800.000	0.021	-0.081
-292.662	-27.684	0.184	0.106
-291.647	201.909	0.088	0.134
-290.632	-200.000	0.031	0.147
-289.618	-45.952	0.208	-0.101
-288.603	35.969	-0.116	-0.101
-287.589	-200.000	-0.009	-0.051
-286.574	-200.000	-0.011	0.114
-285.559	-168.547	0.132	0.005
-284.545	800.000	-0.067	-0.259
-283.530	-149.783	-0.590	-0.046
-282.516	-200.000	0.043	0.312
-281.501	85.581	0.183	0.198
-280.486	40.928	0.142	-0.126
-279.472	-200.000	-0.025	0.174
-278.457	-130.582	-0.366	0.049
-277.443	89.129	0.072	0.079
-276.428	43.471	-0.249	0.225
-275.413	-200.000	-0.031	0.385
-274.399	-5.871	0.260	0.176
-273.384	800.000	-0.074	-0.240
-272.370	-162.850	-0.062	0.003
-271.355	-5.830	0.109	-0.074
-270.340	167.112	0.237	-0.332
-269.326	-39.932	0.307	0.158
-268.311	273.762	-0.099	-0.173
-267.297	60.111	-0.061	-0.059
-266.282	9.212	-0.096	-0.072
-265.267	-200.000	-0.518	0.001
-264.253	-16.230	0.140	-0.088
-263.238	-200.000	0.007	0.181
-262.224	53.130	-0.160	0.151
-261.209	5.373	-0.252	-0.184
-260.195	142.280	-0.028	-0.036
-259.180	32.477	0.190	0.162
-258.165	-109.061	-0.332	0.070
-257.151	4.490	0.103	0.075
-256.136	-136.132	-0.260	-0.030
-255.122	-50.909	-0.130	0.060
-254.107	-138.852	0.123	0.013
-253.092	611.877	-0.122	-0.302
-252.078	109.633	0.109	0.129
-251.063	-200.000	-0.002	-0.013
-250.049	-200.000	0.030	-0.261
-249.034	-200.000	-0.024	-0.199
-248.019	14.330	-0.017	-0.013
-247.005	-52.845	0.327	0.149
-245.990	23.905	-0.020	0.016
-244.976	137.135	-0.227	-0.293
-243.961	-137.644	0.246	0.027
-242.946	-73.984	0.287	0.103
-241.932	-150.657	0.065	0.005
-240.917	332.863	-0.127	-0.241
-239.903	-40.647	-0.227	0.116
-238.888	14.817	-0.181	-0.140
-237.873	-110.626	0.215	0.044
-236.859	86.065	0.072	-0.078
-235.844	-23.499	0.061	-0.036
-234.830	-200.000	0.000	-0.250
-233.815	84.280	0.039	-0.042
-232.800	-200.000	0.070	-0.431
-231.786	800.000	-0.057	0.165
-230.771	800.000	0.035	0.145
-229.757	122.057	-0.122	-0.150
-228.742	-200.000	0.034	0.332
-227.727	-92.669	0.123	-0.034
-226.713	-136.274	0.207	0.024
-225.698	9.403	0.202	0.151
-224.684	800.000	-0.012	0.049
-223.669	177.404	-0.057	-0.082
-222.655	-158.789	-0.096	0.005
-221.640	294.538	-0.081	0.146
-220.625	-11.665	0.265	0.172
-219.611	-74.341	0.308	0.110
-218.596	170.384	-0.153	-0.216
-217.582	-175.196	0.131	0.004
-216.567	800.000	-0.061	-0.168
-215.552	-111.809	0.504	-0.100
-214.538	431.829	0.072	0.153
-213.523	-168.356	0.023	-0.001
-212.509	171.741	-0.214	-0.303
-211.494	-10.740	0.253	-0.165
-210.479	-156.798	0.126	-0.008
-209.465	-4.731	-0.071	-0.048
-208.450	265.037	-0.130	-0.222
-207.436	271.238	-0.072	-0.125
-206.421	83.245	0.223	0.240
-205.406	800.000	0.069	-0.212
-204.392	56.794	0.232	0.222
-203.377	800.000	0.098	0.422
-202.363	138.011	0.204	0.264
-201.348	64.627	-0.107	0.106
-200.333	-164.856	0.190	-0.008
-199.319	800.000	0.011	0.047
-198.304	-200.000	-0.014	0.164
-197.290	193.549	-0.150	0.223
-196.275	-43.314	-0.057	0.029
-195.260	26.425	0.135	0.111
-194.246	-200.000	-0.014	-0.095
-193.231	4.749	0.108	-0.078
-192.217	-200.000	-0.009	-0.119
-191.202	30.515	0.072	0.061
-190.187	-200.000	0.006	-0.185
-189.173	82.047	-0.208	-0.222
-188.158	-200.000	0.065	-0.331
-187.144	-79.774	-0.440	0.146
-186.129	444.855	0.109	-0.235
-185.114	-13.878	0.232	-0.148
-184.100	-63.227	-0.205	0.083
-183.085	132.071	0.191	-0.242
-182.071	288.873	-0.128	-0.228
-181.056	42.330	-0.107	-0.096
-180.042	-66.474	0.213	0.083
-179.027	-136.161	-0.028	-0.003
-178.012	-200.000	0.007	0.208
-176.998	-69.513	-0.173	-0.065
-175.983	-200.000	0.029	0.201
-174.969	207.166	-0.112	-0.171
-173.954	-126.942	-0.262	-0.038
-172.939	-150.711	-0.099	-0.007
-171.925	800.000	-0.091	-0.260
-170.910	-200.000	-0.028	0.142
-169.896	-102.637	-0.154	-0.036
-168.881	478.548	-0.036	0.080
-167.866	-200.000	0.007	0.230
-166.852	-14.157	-0.262	-0.166
-165.837	-140.066	0.190	0.020
-164.823	-200.000	-0.020	0.289
-163.808	231.683	0.203	0.327
-162.793	-13.333	0.178	0.113
-161.779	145.106	-0.079	0.103
-160.764	310.191	-0.170	-0.314
-159.750	233.324	0.080	0.130
-158.735	-92.931	0.300	-0.082
-157.720	-75.623	-0.072	-0.025
-156.706	-27.214	0.356	0.204
-155.691	355.367	-0.082	-0.160
-154.677	63.104	0.141	-0.139
-153.662	-54.605	0.356	-0.158
-152.647	378.049	-0.084	-0.169
-151.633	204.822	-0.012	0.018
-150.618	-26.027	0.158	-0.091
-149.604	-64.896	0.155	-0.062
-148.589	-99.898	0.151	0.037
-147.574	-165.567	0.366	-0.016
-146.560	67.624	0.214	0.215
-145.545	-61.167	-0.065	0.027
-144.531	-25.678	-0.146	0.085
-143.516	-91.795	-0.137	-0.038
-142.502	800.000	-0.035	0.110
-141.487	800.000	0.005	0.017
-140.472	-200.000	0.024	-0.113
-139.458	-74.117	-0.061	0.022
-138.443	-80.543	0.276	0.091
-137.429	74.991	0.100	0.103
-136.414	-150.466	-0.222	-0.017
-135.399	-130.329	0.210	0.028
-134.385	800.000	0.053	0.184
-133.370	6.693	0.069	0.051
-132.356	800.000	-0.088	-0.253
-131.341	-36.517	0.190	-0.100
-130.326	140.892	0.055	-0.071
-129.312	529.552	0.148	0.344
-128.297	800.000	0.017	-0.057
-127.283	-188.037	-0.029	0.000
-126.268	-200.000	0.058	-0.295
-125.253	2.480	0.155	-0.110
-124.239	24.962	0.247	-0.201
-123.224	-200.000	-0.025	-0.226
-122.210	668.550	-0.017	-0.043
-121.195	-200.000	0.069	-0.298
