DTS Sentinel unit serial number:	SN413079Multiplexer serial number:	ORYXHardware model number:	OX4-SRSoftware version number:	ORYX F/W v4.00 Oryx Data Collector v3.7.2.0data status	okinstallation	princeton_trtdifferential loss correction	single-endedforward channel	channel 1reverse channel	N/Adate	2019/09/15time	14:02:35forward acquisition time	60.00reverse acquisition time	0.00gamma	496.2192k internal	0.2292k external	0.2292temperature offset calibration	0.9972default loss term (dB/km)	0.3790temperature slope calibration	1.0000multiplexer offset coefficient	1.0000multiplexer slope coefficient	1.0000fibre end	0.00T internal ref (°C)	38.50T ext. ref 1 (°C)	4.95T ext. ref 2 (°C)	35.47length (m)	temperature (°C)	Stokes	anti-Stokes-747.200	-119.265	0.083	-0.015
-746.185	800.000	0.085	0.301
-745.171	-200.000	0.014	-0.396
-744.156	-33.648	-0.211	-0.119
-743.142	-200.000	0.034	0.377
-742.127	-200.000	0.062	0.411
-741.112	-200.000	0.007	0.338
-740.098	-200.000	0.029	0.282
-739.083	800.000	-0.095	-0.377
-738.069	-62.382	0.409	-0.174
-737.054	131.283	0.271	0.356
-736.039	-98.752	0.088	-0.023
-735.025	-75.172	0.139	-0.051
-734.010	-60.053	-0.098	0.043
-732.996	37.635	-0.261	-0.237
-731.981	83.770	-0.171	-0.191
-730.966	-82.459	-0.267	0.089
-729.952	166.549	0.139	-0.202
-728.937	-64.646	0.111	-0.046
-727.923	-167.117	-0.224	-0.009
-726.908	291.968	-0.089	0.166
-725.894	-200.000	0.009	-0.089
-724.879	139.172	0.076	0.102
-723.864	-87.984	-0.278	-0.085
-722.850	9.411	-0.265	0.205
-721.835	-175.760	-0.438	-0.012
-720.821	28.767	0.094	-0.081
-719.806	774.563	-0.158	-0.440
-718.791	800.000	0.066	-0.241
-717.777	-111.049	0.236	-0.050
-716.762	142.292	-0.066	-0.090
-715.748	42.168	0.287	0.267
-714.733	10.560	-0.150	-0.117
-713.718	-3.259	-0.208	0.148
-712.704	53.950	-0.095	0.093
-711.689	-27.030	-0.292	-0.174
-710.675	3.251	0.230	-0.171
-709.660	-100.477	-0.178	-0.045
-708.645	800.000	0.129	0.433
-707.631	800.000	-0.055	0.167
-706.616	6.113	0.146	-0.111
-705.602	-116.568	0.308	-0.058
-704.587	355.577	0.083	0.169
-703.572	800.000	-0.043	0.177
-702.558	-200.000	0.003	0.108
-701.543	-35.739	-0.087	0.048
-700.529	-200.000	-0.008	0.149
-699.514	800.000	-0.074	0.231
-698.499	-200.000	-0.013	-0.374
-697.485	-112.823	0.269	0.054
-696.470	-200.000	-0.008	-0.198
-695.456	-62.794	-0.339	0.143
-694.441	800.000	0.088	0.248
-693.426	-37.672	-0.349	-0.190
-692.412	-200.000	-0.017	0.164
-691.397	-44.869	-0.094	-0.048
-690.383	5.365	0.103	-0.077
-689.368	-200.000	-0.013	-0.076
-688.354	-124.698	0.087	0.014
-687.339	238.942	0.074	0.125
-686.324	56.315	-0.115	-0.114
-685.310	668.778	-0.089	0.235
-684.295	-200.000	0.032	-0.226
-683.281	56.956	0.109	-0.108
-682.266	331.144	-0.221	-0.434
-681.251	304.191	-0.232	-0.439
-680.237	359.623	0.102	-0.209
-679.222	-200.000	0.034	-0.255
-678.208	237.230	0.109	-0.184
-677.193	347.263	-0.106	-0.213
-676.178	17.266	0.121	0.098
-675.164	-60.555	-0.136	0.059
-674.149	800.000	0.018	-0.069
-673.135	-81.240	0.305	-0.103
-672.120	-108.357	-0.108	0.024
-671.105	-57.161	-0.170	-0.076
-670.091	-91.286	-0.194	-0.057
-669.076	-44.304	-0.097	0.050
-668.062	-200.000	0.047	-0.375
-667.047	-173.984	0.139	0.004
-666.032	-106.931	0.118	0.027
-665.018	302.298	0.113	0.214
-664.003	-24.120	-0.227	0.138
-662.989	10.982	-0.466	-0.363
-661.974	-19.646	0.173	-0.109
-660.959	800.000	0.021	-0.090
-659.945	-21.495	0.287	-0.178
-658.930	575.053	-0.110	-0.275
-657.916	-88.189	-0.254	-0.078
-656.901	-169.055	0.063	0.002
-655.886	79.748	-0.084	0.092
-654.872	-71.228	-0.353	-0.135
-653.857	800.000	0.103	-0.318
-652.843	-200.000	-0.032	0.186
-651.828	-200.000	0.011	-0.096
-650.814	662.656	0.033	0.088
-649.799	-200.000	0.007	-0.153
-648.784	-200.000	-0.017	-0.178
-647.770	170.418	0.276	-0.403
-646.755	-200.000	-0.006	0.068
-645.741	800.000	-0.087	0.257
-644.726	42.276	-0.156	0.144
-643.711	381.963	-0.057	0.119
-642.697	800.000	0.036	0.141
-641.682	-96.998	-0.152	-0.041
-640.668	800.000	0.077	-0.255
-639.653	-44.162	-0.270	-0.138
-638.638	-200.000	-0.002	0.098
-637.624	-74.355	-0.264	-0.097
-636.609	800.000	-0.053	0.165
-635.595	-77.002	-0.274	-0.097
-634.580	800.000	-0.044	-0.140
-633.565	-150.685	-0.332	0.026
-632.551	90.634	0.252	0.287
-631.536	-121.538	-0.315	-0.053
-630.522	-200.000	-0.007	0.097
-629.507	-200.000	0.022	-0.364
-628.492	178.444	-0.189	-0.281
-627.478	435.542	-0.103	-0.227
-626.463	401.343	-0.182	-0.389
-625.449	47.337	-0.250	-0.237
-624.434	-200.000	-0.010	-0.449
-623.419	-124.798	-0.150	-0.024
-622.405	800.000	-0.103	0.309
-621.390	1.505	0.201	-0.148
-620.376	41.671	-0.087	-0.081
-619.361	-100.041	0.229	-0.058
-618.346	-125.246	-0.320	-0.050
-617.332	-6.087	-0.401	-0.279
-616.317	180.489	-0.189	-0.282
-615.303	-145.158	0.458	0.042
-614.288	-77.922	-0.342	0.120
-613.273	70.631	0.126	-0.132
-612.259	-170.353	0.207	-0.007
-611.244	-106.396	-0.369	-0.084
-610.230	-200.000	0.016	0.114
-609.215	800.000	-0.081	-0.360
-608.201	-172.134	0.109	0.004
-607.186	-200.000	-0.001	0.104
-606.171	-53.660	-0.032	0.015
-605.157	244.301	-0.203	0.347
-604.142	-21.562	0.061	-0.038
-603.128	-117.966	-0.146	0.027
-602.113	155.741	-0.092	-0.129
-601.098	101.953	-0.123	-0.146
-600.084	132.152	0.126	-0.165
-599.069	-23.331	-0.096	0.059
-598.055	-200.000	0.017	0.112
-597.040	61.110	-0.097	0.098
-596.025	-81.249	0.159	-0.053
-595.011	149.373	-0.159	-0.219
-593.996	-77.753	0.397	0.140
-592.982	-133.169	-0.091	-0.012
-591.967	572.882	0.113	-0.280
-590.952	-200.000	0.053	-0.278
-589.938	-39.380	-0.139	0.074
-588.923	122.588	-0.097	-0.123
-587.909	-37.520	0.196	0.107
-586.894	-200.000	0.018	-0.160
-585.879	-13.777	0.249	-0.164
-584.865	-14.525	-0.161	-0.105
-583.850	-92.720	-0.364	-0.104
-582.836	-139.152	-0.106	-0.012
-581.821	92.720	-0.089	-0.102
-580.806	17.789	0.251	0.203
-579.792	-100.331	-0.215	-0.054
-578.777	-56.330	0.104	0.047
-577.763	-74.291	0.422	0.155
-576.748	-73.290	-0.376	0.140
-575.733	-107.212	0.599	-0.134
-574.719	-200.000	-0.003	-0.126
-573.704	-200.000	-0.003	0.038
-572.690	-200.000	-0.063	-0.325
-571.675	6.879	-0.037	0.028
-570.661	800.000	0.076	0.217
-569.646	-200.000	-0.012	-0.100
-568.631	-200.000	0.022	0.175
-567.617	519.356	-0.085	0.202
-566.602	-54.089	0.118	-0.055
-565.588	75.539	-0.117	0.126
-564.573	800.000	0.153	-0.520
-563.558	-70.552	0.235	-0.090
-562.544	521.961	0.055	-0.132
-561.529	-200.000	-0.011	-0.102
-560.515	211.731	-0.107	-0.171
-559.500	-200.000	-0.004	0.305
-558.485	-117.469	0.172	0.032
-557.471	-79.223	-0.212	0.073
-556.456	-200.000	-0.019	0.000
-555.442	-200.000	-0.024	0.137
-554.427	-71.146	0.138	0.053
-553.412	499.579	0.032	-0.076
-552.398	-200.000	0.003	-0.045
-551.383	800.000	0.105	-0.427
-550.369	-200.000	-0.013	-0.404
-549.354	326.751	0.044	0.086
-548.339	800.000	0.067	0.232
-547.325	-42.428	-0.254	-0.131
-546.310	-132.396	-0.169	0.022
-545.296	6.913	-0.150	0.113
-544.281	-200.000	-0.041	0.241
-543.266	-89.515	-0.065	-0.019
-542.252	-200.000	-0.020	-0.292
-541.237	248.975	-0.126	0.217
-540.223	-114.211	-0.132	-0.026
-539.208	17.514	-0.244	0.197
-538.193	-200.000	0.091	0.428
-537.179	-128.782	-0.039	0.006
-536.164	-100.957	0.097	-0.024
-535.150	-186.266	-0.132	0.002
-534.135	800.000	-0.065	-0.192
-533.121	206.788	0.214	0.338
-532.106	181.318	0.149	0.222
-531.091	-188.368	0.208	-0.003
-530.077	106.632	0.287	-0.345
-529.062	20.417	0.065	0.053
-528.048	-148.694	-0.303	-0.025
-527.033	21.416	-0.235	0.194
-526.018	800.000	0.035	-0.135
-525.004	82.554	0.178	-0.197
-523.989	-97.574	-0.287	0.075
-522.975	133.209	0.072	-0.095
-521.960	-200.000	-0.020	-0.091
-520.945	-200.000	0.004	0.240
-519.931	-57.351	-0.054	-0.024
-518.916	345.428	0.027	-0.053
-517.902	-112.703	-0.181	-0.037
-516.887	-45.919	0.318	-0.159
-515.872	-12.468	-0.058	0.039
-514.858	-9.782	-0.056	-0.038
-513.843	240.359	-0.074	0.125
-512.829	-116.578	-0.112	0.021
-511.814	477.954	0.077	0.176
-510.799	-200.000	0.016	0.143
-509.785	-83.777	-0.387	-0.125
-508.770	35.434	-0.207	-0.184
-507.756	54.684	-0.055	0.054
-506.741	57.620	-0.075	-0.075
-505.726	800.000	0.038	-0.146
-504.712	-68.826	0.084	-0.033
-503.697	800.000	0.103	0.414
-502.683	92.554	0.165	0.189
-501.668	-200.000	-0.051	0.253
-500.653	-154.029	0.314	-0.022
-499.639	-139.577	0.279	0.030
-498.624	93.853	-0.073	-0.084
-497.610	-200.000	-0.002	0.068
-496.595	134.674	-0.147	0.193
-495.581	-63.692	-0.183	-0.076
-494.566	60.536	0.261	0.262
-493.551	-107.127	-0.254	0.057
-492.537	-200.000	-0.038	-0.237
-491.522	-15.119	0.343	-0.222
-490.508	-76.766	-0.249	0.088
-489.493	-200.000	-0.024	0.271
-488.478	-74.218	0.315	0.115
-487.464	-55.782	0.147	0.067
-486.449	-63.671	0.196	-0.082
-485.435	-200.000	0.038	0.509
-484.420	192.776	-0.093	-0.142
-483.405	-104.737	0.184	0.043
-482.391	800.000	0.061	0.170
-481.376	31.007	0.225	0.196
-480.362	143.214	-0.092	0.124
-479.347	174.327	-0.148	-0.217
-478.332	87.643	0.072	-0.081
-477.318	-154.886	0.116	0.008
-476.303	-200.000	0.007	-0.108
-475.289	57.796	-0.223	-0.221
-474.274	-200.000	0.021	-0.113
-473.259	111.078	-0.285	0.347
-472.245	-48.622	-0.135	0.066
-471.230	29.698	-0.108	0.093
-470.216	-200.000	-0.045	0.525
-469.201	-69.630	0.091	-0.035
-468.186	-200.000	0.000	0.006
-467.172	782.701	0.021	-0.057
-466.157	450.936	0.070	-0.156
-465.143	-200.000	-0.028	0.372
-464.128	55.481	-0.120	0.118
-463.113	577.070	0.102	-0.253
-462.099	44.650	0.144	0.134
-461.084	524.755	0.087	0.207
-460.070	289.254	0.057	0.104
-459.055	-8.173	-0.180	-0.123
-458.040	-115.407	0.178	0.034
-457.026	-185.746	0.249	0.004
-456.011	800.000	-0.053	0.205
-454.997	104.630	-0.164	0.196
-453.982	165.950	0.167	-0.239
-452.968	-98.355	-0.142	-0.037
-451.953	-64.915	0.197	-0.081
-450.938	66.634	-0.101	0.104
-449.924	-123.006	0.051	-0.008
-448.909	-110.450	0.504	0.106
-447.895	800.000	-0.077	-0.314
-446.880	350.481	-0.142	0.284
-445.865	-200.000	-0.025	-0.163
-444.851	15.306	0.137	-0.109
-443.836	-79.896	0.098	-0.033
-442.822	800.000	0.007	-0.022
-441.807	800.000	-0.090	-0.270
-440.792	-200.000	-0.043	-0.278
-439.778	-200.000	-0.027	0.236
-438.763	369.242	0.083	-0.169
-437.749	-147.525	-0.071	-0.006
-436.734	56.669	0.065	0.064
-435.719	181.496	-0.041	0.061
-434.705	29.572	0.277	-0.238
-433.690	369.980	0.176	-0.360
-432.676	410.592	0.037	-0.079
-431.661	-200.000	0.088	0.463
-430.646	49.700	0.162	0.154
-429.632	20.185	-0.173	-0.141
-428.617	-23.055	-0.093	0.056
-427.603	-97.750	0.156	0.041
-426.588	-200.000	-0.051	0.272
-425.573	67.934	0.058	-0.060
-424.559	618.125	-0.046	0.118
-423.544	-171.482	-0.185	-0.006
-422.530	52.095	-0.137	0.132
-421.515	-164.003	0.339	0.016
-420.500	-200.000	-0.008	-0.045
-419.486	-71.475	-0.227	0.086
-418.471	43.020	0.121	0.112
-417.457	-189.505	-0.150	-0.002
-416.442	-200.000	0.027	0.250
-415.428	14.890	-0.232	-0.183
-414.413	-21.531	0.246	-0.152
-413.398	150.930	0.187	-0.257
-412.384	-38.249	-0.173	-0.093
-411.369	731.471	-0.017	0.047
-410.355	800.000	0.059	0.168
-409.340	472.840	0.178	0.406
-408.325	30.311	-0.106	-0.091
-407.311	65.687	-0.107	0.110
-406.296	-62.067	-0.126	-0.053
-405.282	-15.219	-0.218	-0.141
-404.267	11.649	-0.314	-0.244
-403.252	-65.030	0.219	-0.089
-402.238	-200.000	0.007	-0.288
-401.223	-62.710	-0.254	0.106
-400.209	77.650	-0.059	0.063
-399.194	-41.955	-0.279	0.144
-398.179	-200.000	0.003	0.073
-397.165	800.000	-0.091	0.360
-396.150	-72.649	0.301	-0.112
-395.136	-132.660	-0.215	0.028
-394.121	-161.377	-0.069	0.004
-393.106	-123.404	-0.064	-0.010
-392.092	-104.289	0.289	0.068
-391.077	58.053	-0.030	0.030
-390.063	303.702	0.188	-0.351
-389.048	97.895	-0.093	0.108
-388.033	28.188	-0.066	0.057
-387.019	-75.368	0.136	0.049
-386.004	-128.149	0.227	-0.033
-384.990	275.400	-0.085	-0.151
-383.975	-157.240	-0.307	0.019
-382.960	136.118	-0.259	0.341
-381.946	496.506	0.037	-0.085
-380.931	-12.435	-0.143	-0.095
-379.917	-200.000	-0.027	0.242
-378.902	-53.249	0.327	-0.152
-377.888	800.000	-0.060	-0.261
-376.873	35.045	-0.235	0.207
-375.858	800.000	-0.043	0.171
-374.844	30.066	0.280	0.241
-373.829	392.970	0.089	0.186
-372.815	-76.993	0.113	-0.040
-371.800	-95.021	-0.251	-0.068
-370.785	-200.000	-0.001	0.035
-369.771	-200.000	-0.034	-0.212
-368.756	-162.875	-0.405	0.020
-367.742	136.666	0.053	0.070
-366.727	-152.190	-0.073	-0.005
-365.712	-147.309	0.174	0.015
-364.698	-130.726	-0.191	0.026
-363.683	-200.000	-0.031	0.155
-362.669	75.138	-0.086	-0.092
-361.654	3.763	0.197	-0.145
-360.639	110.038	0.227	-0.275
-359.625	-200.000	-0.009	0.049
-358.610	-151.971	-0.149	-0.011
-357.596	-75.942	0.101	0.036
-356.581	-63.152	-0.325	-0.135
-355.566	112.570	-0.174	0.212
-354.552	-62.839	-0.346	0.144
-353.537	4.475	0.074	0.055
-352.523	-5.020	-0.109	-0.076
-351.508	51.351	0.085	-0.082
-350.493	-82.004	0.218	-0.072
-349.479	334.357	0.091	-0.178
-348.464	702.349	0.121	-0.322
-347.450	-57.310	-0.120	0.053
-346.435	186.981	0.092	-0.139
-345.420	0.893	-0.121	0.087
-344.406	233.101	0.186	-0.309
-343.391	21.023	0.237	0.194
-342.377	-123.245	-0.040	-0.007
-341.362	0.021	-0.042	0.030
-340.348	-48.976	0.230	0.111
-339.333	153.644	0.171	0.236
-338.318	-200.000	-0.030	0.164
-337.304	391.087	-0.056	-0.117
-336.289	167.342	0.104	0.149
-335.275	753.839	0.031	-0.085
-334.260	-33.977	-0.450	-0.249
-333.245	-32.192	0.226	0.127
-332.231	-146.102	-0.341	0.030
-331.216	354.153	-0.115	-0.231
-330.202	72.967	0.198	-0.208
-329.187	208.730	-0.057	0.090
-328.172	800.000	0.039	-0.153
-327.158	-200.000	-0.044	-0.222
-326.143	-38.021	0.185	-0.099
-325.129	103.358	0.214	0.252
-324.114	800.000	-0.120	-0.376
-323.099	-24.834	-0.199	0.119
-322.085	292.926	0.072	-0.131
-321.070	-168.667	-0.476	0.018
-320.056	-24.835	0.142	0.085
-319.041	-33.379	0.277	0.154
-318.026	-200.000	-0.006	0.049
-317.012	800.000	0.041	0.127
-315.997	157.920	0.081	0.114
-314.983	172.620	-0.128	-0.185
-313.968	138.544	0.135	-0.179
-312.953	-200.000	0.004	-0.136
-311.939	-200.000	-0.005	0.228
-310.924	27.580	0.269	-0.228
-309.910	-157.288	-0.271	-0.016
-308.895	-79.866	0.233	-0.079
-307.880	-148.157	-0.204	0.017
-306.866	24.997	-0.216	0.181
-305.851	171.978	-0.152	-0.220
-304.837	-142.752	-0.158	0.015
-303.822	696.616	-0.090	-0.238
-302.807	-126.853	-0.138	0.020
-301.793	800.000	0.013	-0.053
-300.778	-49.282	0.439	0.211
-299.764	1.601	-0.075	0.055
-298.749	27.475	0.222	0.188
-297.735	46.462	-0.193	0.180
-296.720	7.764	0.316	-0.238
-295.705	740.580	0.045	-0.122
-294.691	-41.422	0.205	-0.106
-293.676	306.717	0.097	0.181
-292.662	-80.950	0.282	-0.094
-291.647	-58.617	-0.287	-0.125
-290.632	198.887	0.174	0.267
-289.618	-147.891	0.223	-0.019
-288.603	-146.912	0.184	0.016
-287.589	-171.889	-0.077	-0.003
-286.574	123.191	-0.084	-0.105
-285.559	145.100	-0.038	0.051
-284.545	33.252	0.191	-0.167
-283.530	800.000	0.037	-0.134
-282.516	800.000	-0.027	0.088
-281.501	800.000	0.041	0.170
-280.486	42.004	-0.224	-0.205
-279.472	-166.746	-0.182	-0.008
-278.457	198.757	0.111	0.171
-277.443	166.734	0.082	-0.117
-276.428	-81.761	-0.112	-0.037
-275.413	423.733	-0.045	-0.096
-274.399	-28.557	0.399	-0.231
-273.384	74.274	0.251	0.265
-272.370	-200.000	-0.035	0.298
-271.355	-116.633	0.278	0.051
-270.340	52.707	0.177	-0.170
-269.326	800.000	-0.045	-0.156
-268.311	234.502	-0.116	0.193
-267.297	-38.962	0.291	-0.154
-266.282	269.320	-0.102	0.180
-265.267	-200.000	0.004	-0.206
-264.253	-200.000	-0.068	0.448
-263.238	360.698	0.064	0.128
-262.224	72.026	-0.069	-0.072
-261.209	355.022	-0.149	-0.298
-260.195	22.443	-0.082	-0.067
-259.180	-200.000	-0.033	0.180
-258.165	-200.000	0.003	0.054
-257.151	-200.000	-0.003	-0.081
-256.136	-18.965	-0.194	0.121
-255.122	-200.000	0.011	-0.051
-254.107	-4.453	-0.233	-0.162
-253.092	-200.000	0.014	0.281
-252.078	-8.701	0.276	0.186
-251.063	800.000	-0.082	0.308
-250.049	277.499	-0.224	0.400
-249.034	800.000	0.051	-0.170
-248.019	-200.000	-0.017	-0.087
-247.005	-103.900	-0.307	0.072
-245.990	627.437	-0.186	-0.472
-244.976	-200.000	0.012	-0.160
-243.961	267.175	0.056	-0.098
-242.946	-108.300	0.147	0.032
-241.932	147.335	-0.106	0.143
-240.917	-200.000	0.022	-0.175
-239.903	430.216	0.069	-0.150
-238.888	-200.000	0.023	-0.178
-237.873	-200.000	0.020	0.394
-236.859	463.021	0.107	0.241
-235.844	-98.779	0.099	0.025
-234.830	-143.618	0.129	0.012
-233.815	7.959	-0.191	0.144
-232.800	58.433	0.145	0.143
-231.786	-200.000	-0.004	0.030
-230.771	-200.000	0.025	-0.155
-229.757	704.429	-0.025	0.067
-228.742	310.996	0.053	-0.100
-227.727	-119.409	0.098	0.017
-226.713	-54.902	0.181	0.082
-225.698	486.114	0.211	-0.482
-224.684	800.000	0.046	0.146
-223.669	-200.000	-0.001	0.054
-222.655	-66.502	0.056	0.022
-221.640	331.185	0.091	-0.176
-220.625	-139.129	0.111	0.012
-219.611	36.939	-0.117	0.104
-218.596	105.461	0.052	0.061
-217.582	-97.592	0.379	0.098
-216.567	-200.000	0.006	0.175
-215.552	96.854	-0.107	-0.123
-214.538	-55.151	-0.377	0.170
-213.523	800.000	0.106	0.300
-212.509	-64.423	0.159	-0.065
-211.494	312.348	0.153	-0.288
-210.479	659.649	0.138	0.356
-209.465	-4.334	0.242	-0.168
-208.450	-118.547	0.119	0.021
-207.436	-200.000	-0.040	0.362
-206.421	319.288	-0.044	0.084
-205.406	-59.296	0.215	0.093
-204.392	-200.000	-0.007	-0.127
-203.377	13.851	-0.188	0.147
-202.363	-162.064	0.410	0.021
-201.348	6.516	-0.151	0.112
-200.333	-112.322	-0.229	-0.046
-199.319	-152.525	0.307	0.022
-198.304	-200.000	-0.002	0.194
-197.290	9.095	0.064	-0.048
-196.275	238.060	-0.046	0.077
-195.260	34.314	-0.350	-0.305
-194.246	-200.000	-0.007	0.122
-193.231	192.313	0.087	-0.131
-192.217	-200.000	-0.008	-0.434
-191.202	-200.000	-0.049	0.265
-190.187	-200.000	-0.000	0.242
-189.173	-64.198	0.200	0.082
-188.158	-200.000	-0.023	-0.386
-187.144	-165.249	0.173	0.008
-186.129	-54.196	0.111	0.050
-185.114	-56.446	0.164	-0.073
-184.100	399.951	-0.154	0.322
-183.085	-197.350	-0.297	-0.002
-182.071	630.096	-0.032	-0.080
-181.056	-59.731	-0.155	-0.066
-180.042	-119.892	0.261	0.045
-179.027	344.328	-0.163	0.320
-178.012	-200.000	-0.042	-0.219
-176.998	-200.000	0.006	-0.370
-175.983	53.319	-0.151	-0.145
-174.969	272.343	0.043	0.075
-173.954	-57.809	-0.181	0.079
-172.939	542.734	0.134	-0.320
-171.925	30.080	-0.172	0.147
-170.910	800.000	-0.081	0.307
-169.896	-92.257	-0.372	-0.105
-168.881	-65.082	0.152	0.061
-167.866	-138.210	0.245	-0.027
-166.852	-105.907	-0.179	0.040
-165.837	-31.459	0.138	0.078
-164.823	52.273	-0.069	0.066
-163.808	-170.860	0.337	-0.012
-162.793	-200.000	-0.019	-0.142
-161.779	800.000	-0.026	0.109
-160.764	-81.150	0.212	-0.070
-159.750	-137.351	0.278	0.031
-158.735	-97.958	0.294	0.076
-157.720	-200.000	-0.013	-0.125
-156.706	-183.186	0.155	0.003
-155.691	-51.608	-0.356	0.166
-154.677	-72.430	-0.174	0.064
-153.662	-115.648	0.284	0.053
-152.647	330.343	-0.177	0.341
-151.633	-200.000	0.020	0.115
-150.618	800.000	0.090	-0.280
-149.604	-47.413	0.305	0.148
-148.589	800.000	-0.040	-0.134
-147.574	-200.000	0.023	0.413
-146.560	-200.000	-0.010	0.067
-145.545	-178.676	0.317	-0.007
-144.531	-200.000	0.063	-0.288
-143.516	-138.110	0.214	-0.024
-142.502	-138.003	-0.062	0.007
-141.487	800.000	-0.066	0.183
-140.472	-200.000	-0.021	0.186
-139.458	137.713	-0.126	0.165
-138.443	800.000	0.084	0.280
-137.429	-92.753	-0.144	-0.040
-136.414	-162.978	0.216	0.010
-135.399	54.701	-0.235	0.227
-134.385	359.432	-0.071	0.143
-133.370	-25.999	0.141	-0.083
-132.356	-68.370	0.211	0.082
-131.341	-118.662	0.258	-0.046
-130.326	-119.838	-0.221	-0.038
-129.312	649.644	0.045	0.114
-128.297	-200.000	0.009	-0.077
-127.283	-9.262	0.180	-0.120
-126.268	-148.142	0.186	-0.015
-125.253	16.370	-0.178	0.141
-124.239	-57.093	0.118	-0.052
-123.224	66.149	-0.125	0.127
-122.210	-129.528	0.285	-0.039
