DTS Sentinel unit serial number:	SN413079Multiplexer serial number:	ORYXHardware model number:	OX4-SRSoftware version number:	ORYX F/W v4.00 Oryx Data Collector v3.7.2.0data status	okinstallation	princeton_trtdifferential loss correction	single-endedforward channel	channel 1reverse channel	N/Adate	2019/09/12time	18:21:34forward acquisition time	15.00reverse acquisition time	0.00gamma	496.2192k internal	0.2317k external	0.2317temperature offset calibration	1.0109default loss term (dB/km)	0.3790temperature slope calibration	1.0000multiplexer offset coefficient	1.0000multiplexer slope coefficient	1.0000fibre end	0.00T internal ref (°C)	33.37T ext. ref 1 (°C)	2.99T ext. ref 2 (°C)	28.10length (m)	temperature (°C)	Stokes	anti-Stokes-747.200	485.494	0.143	0.330
-746.185	645.908	0.134	-0.346
-745.171	800.000	0.359	-1.005
-744.156	18.304	-0.446	-0.361
-743.142	-200.000	-0.145	-0.712
-742.127	-195.908	-0.343	-0.002
-741.112	75.971	-0.258	-0.276
-740.098	-137.366	-0.524	-0.060
-739.083	443.179	-0.111	0.246
-738.069	33.490	0.405	0.356
-737.054	800.000	-0.038	0.121
-736.039	246.942	0.069	0.118
-735.025	-200.000	0.003	0.335
-734.010	223.869	-0.686	1.122
-732.996	-13.435	0.119	-0.078
-731.981	27.969	0.414	0.353
-730.966	-81.213	0.643	0.215
-729.952	617.546	0.195	-0.497
-728.937	-106.050	-0.817	0.186
-727.923	53.823	-0.386	0.375
-726.908	365.660	-0.459	-0.935
-725.894	-172.445	0.684	-0.022
-724.879	-200.000	0.104	-0.613
-723.864	-200.000	0.024	-0.405
-722.850	88.561	0.318	-0.357
-721.835	-85.402	-0.528	0.166
-720.821	302.330	-0.262	-0.489
-719.806	-25.187	0.117	0.070
-718.791	-169.583	-0.812	0.030
-717.777	-76.098	-0.752	0.269
-716.762	-200.000	0.097	-0.526
-715.748	88.021	-0.472	-0.529
-714.733	-154.776	0.654	0.044
-713.718	16.927	-0.685	-0.549
-712.704	-200.000	0.087	0.763
-711.689	204.100	-0.106	-0.165
-710.675	-114.701	1.152	-0.223
-709.660	-64.972	0.763	0.312
-708.645	800.000	0.096	0.339
-707.631	-78.436	-0.348	0.120
-706.616	169.741	0.122	0.176
-705.602	31.884	-0.686	0.598
-704.587	376.253	-0.427	0.881
-703.572	162.893	-0.317	-0.450
-702.558	800.000	-0.023	0.090
-701.543	-48.184	0.076	0.037
-700.529	12.553	0.336	-0.262
-699.514	89.016	0.308	-0.346
-698.499	-34.259	-0.435	-0.241
-697.485	-77.963	-0.721	0.251
-696.470	-200.000	0.071	0.394
-695.456	-73.917	-0.758	-0.278
-694.441	395.023	-0.236	0.497
-693.426	-120.961	-0.526	-0.089
-692.412	-134.328	-0.587	0.073
-691.397	-109.920	-0.258	0.055
-690.383	134.524	0.494	-0.647
-689.368	94.593	-0.360	-0.413
-688.354	-1.247	0.273	0.194
-687.339	3.887	0.171	0.126
-686.324	-167.916	-0.682	-0.027
-685.310	137.721	-0.231	-0.306
-684.295	-91.821	-0.302	0.087
-683.281	-110.785	0.071	-0.015
-682.266	-54.444	-0.128	-0.059
-681.251	-88.172	1.214	0.368
-680.237	-43.083	-0.399	0.204
-679.222	800.000	0.064	0.191
-678.208	177.052	0.099	-0.145
-677.193	-200.000	0.033	-0.350
-676.178	-58.540	-0.184	-0.081
-675.164	125.368	-0.209	-0.266
-674.149	49.155	0.262	0.249
-673.135	-200.000	0.001	-0.188
-672.120	-57.145	0.851	0.379
-671.105	413.060	0.243	0.523
-670.091	800.000	0.185	-0.600
-669.076	322.857	0.241	-0.464
-668.062	454.439	-0.174	-0.389
-667.047	318.175	-0.116	-0.221
-666.032	-198.451	0.566	0.003
-665.018	-94.800	-0.956	-0.262
-664.003	-200.000	0.119	-0.883
-662.989	-170.633	-0.838	0.029
-661.974	-200.000	0.157	-0.819
-660.959	-200.000	0.033	0.358
-659.945	358.902	0.170	0.343
-658.930	-118.354	-0.517	-0.093
-657.916	-200.000	0.010	-0.680
-656.901	-2.352	-0.747	-0.528
-655.886	55.489	0.385	0.376
-654.872	-100.243	0.282	0.071
-653.857	800.000	0.257	-1.131
-652.843	800.000	0.147	-0.482
-651.828	134.553	-0.385	-0.504
-650.814	800.000	0.027	-0.087
-649.799	800.000	0.095	0.396
-648.784	-43.417	-0.402	-0.205
-647.770	-47.347	-0.167	-0.082
-646.755	-50.279	-0.316	0.151
-645.741	-200.000	0.053	0.320
-644.726	-102.592	-0.549	-0.132
-643.711	-58.993	-0.860	0.374
-642.697	769.639	-0.151	0.413
-641.682	138.858	-0.287	-0.381
-640.668	800.000	0.078	-0.233
-639.653	-92.260	0.480	0.137
-638.638	-15.523	0.198	0.128
-637.624	203.835	0.313	0.489
-636.609	-111.020	-1.015	0.210
-635.595	-200.000	-0.058	-0.320
-634.580	494.995	-0.135	-0.312
-633.565	397.035	-0.181	0.382
-632.551	462.006	-0.298	-0.670
-631.536	-124.906	-0.761	0.118
-630.522	-63.283	0.374	0.155
-629.507	800.000	-0.155	0.636
-628.492	800.000	0.152	0.521
-627.478	-63.936	0.398	-0.164
-626.463	800.000	-0.233	0.679
-625.449	-112.851	0.502	0.100
-624.434	-50.154	-0.537	-0.256
-623.419	21.202	0.845	-0.691
-622.405	174.741	-0.311	-0.453
-621.390	-200.000	-0.079	0.947
-620.376	-125.371	-0.296	0.045
-619.361	-74.921	-0.408	0.147
-618.346	25.691	0.376	-0.315
-617.332	-139.386	-0.748	-0.081
-616.317	-200.000	-0.072	0.324
-615.303	800.000	-0.217	-0.631
-614.288	-118.520	-1.001	-0.178
-613.273	2.909	-0.345	0.253
-612.259	-42.467	-0.181	0.093
-611.244	-104.314	-0.272	0.064
-610.230	-200.000	-0.025	-0.143
-609.215	302.472	-0.168	-0.313
-608.201	106.850	-0.217	-0.260
-607.186	-117.469	0.341	-0.062
-606.171	-88.441	-0.497	0.149
-605.157	281.914	-0.203	0.366
-604.142	-20.245	0.513	0.318
-603.128	-190.745	-0.294	0.003
-602.113	135.816	0.076	0.100
-601.098	-170.610	-0.492	0.017
-600.084	217.724	-0.435	0.698
-599.069	758.031	0.070	0.192
-598.055	-192.970	-0.922	0.008
-597.040	-5.926	-0.530	-0.365
-596.025	365.951	0.296	-0.600
-595.011	106.731	-0.589	-0.703
-593.996	39.431	0.361	0.325
-592.982	201.452	-0.423	-0.655
-591.967	-113.646	0.771	0.152
-590.952	73.931	0.634	0.669
-589.938	309.459	0.438	-0.825
-588.923	-75.877	0.405	-0.144
-587.909	-200.000	0.013	-0.174
-586.894	30.391	0.097	-0.083
-585.879	20.038	0.355	0.288
-584.865	-12.518	-0.234	0.154
-583.850	-43.678	-0.969	-0.491
-582.836	-200.000	-0.017	-0.574
-581.821	755.113	0.173	-0.470
-580.806	121.825	-0.604	0.758
-579.792	800.000	-0.191	-0.548
-578.777	800.000	-0.144	0.417
-577.763	-157.788	0.244	0.015
-576.748	651.639	0.508	1.310
-575.733	-72.251	0.311	0.116
-574.719	800.000	0.388	-1.378
-573.704	-144.690	0.449	0.042
-572.690	144.477	-0.277	0.372
-571.675	9.398	0.219	0.167
-570.661	243.788	0.167	0.282
-569.646	-55.708	-0.455	0.205
-568.631	455.522	-0.146	0.325
-567.617	50.779	0.393	-0.374
-566.602	-154.733	1.085	0.072
-565.588	-24.092	-0.094	-0.057
-564.573	-109.483	-0.726	-0.154
-563.558	-48.519	-0.194	-0.094
-562.544	-200.000	0.034	-0.263
-561.529	-137.144	0.216	-0.025
-560.515	-109.445	0.449	-0.095
-559.500	106.831	0.440	0.525
-558.485	8.074	0.267	-0.202
-557.471	800.000	0.087	-0.306
-556.456	556.518	0.135	0.327
-555.442	753.199	0.092	-0.250
-554.427	40.957	0.304	0.276
-553.412	-78.133	0.575	-0.199
-552.398	-90.361	-0.886	-0.259
-551.383	-98.392	0.332	-0.085
-550.369	-90.808	0.477	0.138
-549.354	31.874	-0.598	0.517
-548.339	42.541	0.384	-0.351
-547.325	-200.000	0.111	-0.520
-546.310	24.255	-0.640	-0.531
-545.296	-108.639	0.399	-0.086
-544.281	-197.139	-0.602	-0.004
-543.266	-95.101	-0.353	0.096
-542.252	76.202	-0.282	-0.300
-541.237	99.799	0.487	-0.567
-540.223	36.944	-0.328	0.291
-539.208	456.025	-0.437	0.974
-538.193	-27.887	0.962	-0.560
-537.179	5.607	-0.586	-0.435
-536.164	-112.903	-0.310	-0.062
-535.150	3.478	-0.372	0.273
-534.135	205.195	0.531	0.828
-533.121	166.141	-0.192	-0.273
-532.106	188.631	0.608	0.914
-531.091	73.680	-0.150	0.158
-530.077	-200.000	-0.069	-0.629
-529.062	104.416	0.158	0.186
-528.048	212.218	0.226	-0.357
-527.033	196.472	0.058	-0.089
-526.018	709.105	-0.253	-0.672
-525.004	-12.775	0.616	-0.403
-523.989	-129.948	-0.544	0.075
-522.975	-100.899	-0.163	0.040
-521.960	149.376	0.177	0.240
-520.945	-200.000	0.114	-0.727
-519.931	800.000	-0.276	-0.887
-518.916	273.847	-0.299	0.530
-517.902	157.486	0.295	-0.410
-516.887	747.609	0.264	-0.714
-515.872	42.340	0.213	0.195
-514.858	-86.446	-0.397	-0.122
-513.843	747.317	-0.256	0.692
-512.829	487.429	0.361	-0.828
-511.814	-200.000	-0.004	-0.364
-510.799	-111.973	0.618	0.125
-509.785	-43.810	-0.292	0.147
-508.770	800.000	-0.114	-0.363
-507.756	59.964	-0.678	0.672
-506.741	-200.000	-0.059	-0.343
-505.726	161.492	0.246	-0.345
-504.712	-200.000	-0.068	-0.610
-503.697	111.327	0.503	-0.608
-502.683	800.000	0.114	0.484
-501.668	-188.877	-1.027	0.013
-500.653	188.848	-0.046	-0.070
-499.639	-200.000	0.040	0.498
-498.624	12.367	-0.595	-0.460
-497.610	2.558	0.605	-0.440
-496.595	79.496	-0.028	-0.031
-495.581	-110.131	0.370	0.077
-494.566	-200.000	0.027	-0.546
-493.551	-116.907	0.670	-0.123
-492.537	-132.493	0.231	0.030
-491.522	39.207	0.157	0.141
-490.508	-200.000	0.005	-0.040
-489.493	74.176	0.817	-0.860
-488.478	26.951	-0.184	-0.154
-487.464	-200.000	-0.006	-0.405
-486.449	53.565	-0.122	0.117
-485.435	138.879	0.487	0.641
-484.420	-68.852	-0.552	0.214
-483.405	-200.000	-0.113	-0.526
-482.391	-200.000	-0.091	-0.447
-481.376	450.707	0.156	0.344
-480.362	800.000	-0.145	-0.515
-479.347	-82.063	-0.289	0.094
-478.332	25.998	0.259	-0.217
-477.318	-86.488	0.368	-0.113
-476.303	259.469	-0.276	-0.478
-475.289	-112.601	0.149	-0.030
-474.274	45.620	0.313	-0.290
-473.259	-116.675	-0.103	-0.019
-472.245	201.790	0.167	-0.258
-471.230	-19.380	-0.263	-0.163
-470.216	-13.318	-0.753	-0.489
-469.201	53.195	-0.187	-0.179
-468.186	212.981	-0.286	0.452
-467.172	388.517	0.457	0.948
-466.157	79.209	0.483	-0.519
-465.143	69.372	-0.113	-0.116
-464.128	-200.000	0.032	0.224
-463.113	107.190	0.488	0.581
-462.099	800.000	0.211	0.878
-461.084	57.953	0.516	0.506
-460.070	538.679	-0.298	0.711
-459.055	410.118	0.042	0.090
-458.040	800.000	0.180	0.592
-457.026	67.070	0.304	-0.310
-456.011	305.667	-0.249	0.463
-454.997	-17.208	0.776	0.490
-453.982	-145.694	-0.743	-0.066
-452.968	297.000	0.402	-0.739
-451.953	-200.000	0.066	0.337
-450.938	-150.504	-0.404	0.031
-449.924	-200.000	0.001	-0.029
-448.909	-80.124	0.445	-0.149
-447.895	800.000	-0.281	-0.853
-446.880	285.388	-0.166	-0.299
-445.865	53.805	0.528	0.508
-444.851	137.367	-0.498	-0.652
-443.836	800.000	0.102	-0.286
-442.822	-200.000	-0.002	-0.248
-441.807	-52.295	-0.468	-0.217
-440.792	90.570	0.306	0.343
-439.778	-200.000	-0.002	0.043
-438.763	-129.370	0.336	0.047
-437.749	-164.220	0.333	0.015
-436.734	781.574	0.158	0.433
-435.719	-121.737	-0.320	-0.053
-434.705	-106.558	0.688	0.153
-433.690	-32.676	-0.264	0.147
-432.676	-119.630	-0.567	-0.098
-431.661	-116.801	-0.367	0.067
-430.646	23.637	0.892	-0.734
-429.632	-200.000	0.062	0.281
-428.617	-158.916	0.348	-0.020
-427.603	44.721	-0.367	0.337
-426.588	800.000	0.058	0.229
-425.573	40.034	0.807	0.725
-424.559	-200.000	0.107	0.518
-423.544	-96.167	0.689	0.183
-422.530	-200.000	0.011	0.076
-421.515	-92.229	-0.148	-0.042
-420.500	-200.000	0.097	0.949
-419.486	196.747	0.483	0.736
-418.471	-77.262	0.204	0.071
-417.457	109.989	0.476	-0.571
-416.442	-51.545	-0.472	-0.220
-415.428	29.791	-0.042	-0.036
-414.413	5.953	0.605	-0.448
-413.398	-200.000	0.108	0.973
-412.384	47.301	0.493	-0.459
-411.369	-112.625	-0.412	-0.082
-410.355	-200.000	0.057	-0.281
-409.340	800.000	0.372	1.165
-408.325	-42.862	0.264	-0.134
-407.311	-200.000	-0.082	-0.403
-406.296	47.255	-0.505	-0.470
-405.282	-40.305	-0.201	0.104
-404.267	56.990	-0.582	0.567
-403.252	98.754	-0.559	0.645
-402.238	-42.517	0.062	0.032
-401.223	342.910	0.334	-0.654
-400.209	-96.038	-0.569	0.151
-399.194	-156.080	0.459	-0.029
-398.179	-105.892	0.497	0.112
-397.165	-148.965	-0.890	0.072
-396.150	-34.021	0.517	-0.284
-395.136	111.004	-0.218	0.263
-394.121	800.000	0.066	0.199
-393.106	249.025	-0.398	-0.673
-392.092	-148.664	-0.606	-0.049
-391.077	-200.000	-0.041	0.578
-390.063	-200.000	0.075	-0.557
-389.048	64.767	0.587	-0.592
-388.033	-137.233	0.886	-0.101
-387.019	-200.000	0.057	0.697
-386.004	-35.947	0.405	-0.219
-384.990	-12.469	0.451	-0.294
-383.975	-5.211	0.406	-0.279
-382.960	-88.244	-0.455	0.136
-381.946	0.861	0.224	-0.160
-380.931	46.241	0.483	-0.447
-379.917	-27.214	0.075	-0.044
-378.902	800.000	0.161	0.526
-377.888	-29.572	0.235	-0.134
-376.873	-120.807	-0.768	0.129
-375.858	-200.000	0.062	-0.314
-374.844	-73.536	0.466	-0.170
-373.829	-8.627	0.773	0.518
-372.815	86.697	0.604	0.665
-371.800	510.883	0.317	-0.737
-370.785	-112.045	-0.455	-0.091
-369.771	-200.000	0.053	-0.528
-368.756	-200.000	-0.064	-0.697
-367.742	800.000	-0.140	-0.399
-366.727	156.659	-0.308	0.424
-365.712	-182.309	-0.662	0.012
-364.698	800.000	0.141	-0.511
-363.683	-200.000	-0.065	0.319
-362.669	-93.487	-0.283	-0.078
-361.654	-200.000	0.068	-0.355
-360.639	800.000	0.050	0.174
-359.625	68.196	-0.428	-0.437
-358.610	-91.962	0.244	0.069
-357.596	722.966	-0.181	0.482
-356.581	-200.000	-0.073	-0.624
-355.566	444.870	-0.448	0.980
-354.552	46.551	0.650	-0.602
-353.537	-2.592	0.977	-0.682
-352.523	-116.519	-0.413	-0.076
-351.508	38.330	0.548	-0.487
-350.493	-200.000	0.040	-0.208
-349.479	-112.035	-0.825	0.166
-348.464	-60.483	0.782	-0.331
-347.450	468.780	0.071	-0.159
-346.435	-126.294	0.930	-0.138
-345.420	-200.000	-0.086	0.454
-344.406	51.773	-0.367	-0.348
-343.391	800.000	0.125	0.433
-342.377	800.000	0.103	0.343
-341.362	15.651	0.143	0.112
-340.348	128.092	-0.317	0.401
-339.333	86.431	0.545	0.598
-338.318	429.697	0.273	-0.588
-337.304	53.915	-0.008	-0.007
-336.289	-85.626	0.295	0.091
-335.275	-43.704	0.643	0.323
-334.260	-160.932	-0.719	-0.038
-333.245	-22.374	0.017	-0.010
-332.231	97.346	-0.336	-0.385
-331.216	6.989	-0.720	0.534
-330.202	-128.321	-0.620	-0.088
-329.187	-200.000	0.009	-0.202
-328.172	0.367	-0.275	-0.196
-327.158	326.197	0.192	-0.366
-326.143	-200.000	0.135	0.659
-325.129	38.475	0.690	0.613
-324.114	237.207	0.164	0.270
-323.099	-125.244	0.581	-0.089
-322.085	9.742	0.609	0.460
-321.070	800.000	0.118	0.344
-320.056	-41.295	0.761	0.390
-319.041	-200.000	0.084	-0.477
-318.026	-140.442	0.421	-0.044
-317.012	-86.256	0.326	0.100
-315.997	-200.000	-0.006	-0.352
-314.983	432.244	0.430	-0.928
-313.968	-117.954	0.305	0.054
-312.953	34.797	-0.396	0.345
-311.939	14.241	0.184	0.143
-310.924	-89.389	-0.450	0.132
-309.910	194.940	0.126	0.190
-308.895	-63.506	-1.123	-0.459
-307.880	652.811	0.155	-0.395
-306.866	-200.000	0.034	0.601
-305.851	-18.804	-0.392	-0.243
-304.837	345.288	-0.086	-0.167
-303.822	1.420	0.375	-0.268
-302.807	169.172	-0.656	0.931
-301.793	-57.735	0.494	-0.215
-300.778	-122.368	0.538	-0.087
-299.764	800.000	0.262	0.897
-298.749	-126.082	0.230	0.034
-297.735	800.000	0.299	-1.115
-296.720	47.117	-0.235	0.218
-295.705	261.191	-0.385	-0.663
-294.691	19.228	0.096	0.076
-293.676	800.000	0.154	0.533
-292.662	-44.189	0.520	0.259
-291.647	-200.000	-0.003	0.240
-290.632	-200.000	-0.026	1.184
-289.618	431.151	0.173	0.372
-288.603	-96.236	-0.076	0.020
-287.589	25.928	0.472	-0.391
-286.574	800.000	-0.109	-0.386
-285.559	800.000	0.127	-0.407
-284.545	39.954	-0.604	-0.540
-283.530	800.000	0.107	0.343
-282.516	45.423	0.546	-0.501
-281.501	-97.047	0.353	-0.092
-280.486	-88.605	-0.604	0.179
-279.472	-200.000	0.044	-0.382
-278.457	-181.607	-0.519	-0.010
-277.443	-87.099	-0.198	0.060
-276.428	800.000	-0.089	-0.259
-275.413	800.000	-0.241	-0.922
-274.399	800.000	0.067	0.223
-273.384	172.682	-0.434	-0.622
-272.370	-200.000	0.133	0.665
-271.355	-52.616	-0.563	0.258
-270.340	-12.744	-0.455	-0.295
-269.326	800.000	0.142	0.409
-268.311	-9.493	-0.233	-0.154
-267.297	800.000	0.222	-0.918
-266.282	-200.000	0.169	1.296
-265.267	-143.044	1.193	-0.115
-264.253	-200.000	0.155	0.741
-263.238	73.085	-0.563	0.585
-262.224	-20.997	-0.329	0.200
-261.209	800.000	0.156	-0.617
-260.195	-111.304	-0.584	-0.119
-259.180	-63.974	0.336	0.136
-258.165	800.000	0.246	0.832
-257.151	168.439	-0.162	0.230
-256.136	-44.473	-0.469	-0.233
-255.122	-48.948	0.575	0.274
-254.107	67.090	0.243	0.246
-253.092	-200.000	0.025	0.243
-252.078	-200.000	0.012	-0.266
-251.063	-51.851	0.583	0.270
-250.049	262.479	-0.325	0.560
-249.034	-117.298	-0.297	0.054
-248.019	-66.167	-0.502	0.199
-247.005	237.911	0.306	-0.504
-245.990	-0.666	-0.389	-0.274
-244.976	800.000	0.125	0.506
-243.961	3.299	1.304	-0.942
-242.946	62.404	0.947	-0.939
-241.932	352.405	-0.131	-0.258
-240.917	266.017	0.340	0.589
-239.903	96.976	-0.375	0.427
-238.888	-200.000	0.027	0.416
-237.873	-27.998	0.344	-0.197
-236.859	-7.858	0.871	0.584
-235.844	281.567	0.188	-0.335
-234.830	-113.054	0.328	-0.064
-233.815	7.519	-1.015	0.753
-232.800	104.649	0.558	0.653
-231.786	30.836	-0.439	0.373
-230.771	164.813	-0.208	0.291
-229.757	-10.227	-0.288	-0.190
-228.742	237.570	-0.434	0.715
-227.727	800.000	-0.200	-0.602
-226.713	-129.164	-0.555	-0.077
-225.698	107.634	-0.549	0.648
-224.684	203.435	0.277	-0.424
-223.669	800.000	0.158	-0.647
-222.655	380.324	0.161	0.327
-221.640	-74.172	-0.035	0.013
-220.625	33.089	-0.583	-0.501
-219.611	-200.000	0.000	-1.076
-218.596	-137.712	-0.179	-0.020
-217.582	309.739	0.242	-0.450
-216.567	6.114	-0.372	0.273
-215.552	269.394	0.144	0.250
-214.538	179.991	-0.347	0.505
-213.523	-81.937	0.262	0.085
-212.509	800.000	0.109	-0.434
-211.494	328.746	0.373	-0.710
-210.479	-53.349	-0.418	0.190
-209.465	19.597	-0.919	0.733
-208.450	-200.000	-0.100	0.667
-207.436	-18.041	0.358	-0.222
-206.421	-200.000	-0.022	-0.479
-205.406	-104.992	-0.467	-0.106
-204.392	-13.394	0.608	0.391
-203.377	800.000	0.048	0.192
-202.363	156.935	-0.288	-0.395
-201.348	423.775	-0.260	-0.555
-200.333	495.094	0.148	0.336
-199.319	-14.889	-0.323	-0.205
-198.304	71.287	0.748	0.769
-197.290	-140.505	-0.174	-0.018
-196.275	-6.698	-0.296	-0.199
-195.260	-200.000	0.004	-0.184
-194.246	788.584	-0.175	0.475
-193.231	-200.000	-0.005	-0.227
-192.217	-32.356	-0.528	-0.292
-191.202	-21.479	0.870	-0.526
-190.187	-173.057	-1.205	-0.037
-189.173	-42.042	-0.521	0.264
-188.158	-62.172	-1.021	0.422
-187.144	212.045	-0.296	-0.462
-186.129	-200.000	0.093	0.432
-185.114	-38.159	-0.851	0.447
-184.100	-200.000	0.124	0.801
-183.085	-200.000	0.070	0.467
-182.071	297.742	0.440	0.801
-181.056	13.651	-0.153	0.118
-180.042	-200.000	0.057	0.575
-179.027	178.255	-0.543	0.785
-178.012	1.580	0.509	-0.363
-176.998	-200.000	-0.004	-0.162
-175.983	-125.840	0.123	0.018
-174.969	-136.411	0.437	-0.050
-173.954	-51.075	-0.412	-0.191
-172.939	-4.016	0.382	-0.262
-171.925	-147.056	0.079	0.007
-170.910	-105.712	-0.637	-0.143
-169.896	-36.143	0.932	0.498
-168.881	130.488	0.044	-0.055
-167.866	-200.000	-0.043	-0.229
-166.852	-200.000	0.006	-0.331
-165.837	-200.000	-0.110	0.485
-164.823	800.000	0.135	-0.492
-163.808	53.849	-0.063	-0.060
-162.793	631.812	-0.071	0.179
-161.779	-30.862	-0.713	-0.399
-160.764	171.510	-0.329	-0.467
-159.750	-200.000	0.139	-0.718
-158.735	-96.764	-0.787	0.205
-157.720	-200.000	-0.067	0.577
-156.706	75.782	0.160	0.168
-155.691	800.000	-0.196	-0.611
-154.677	-200.000	0.065	-0.451
-153.662	-106.628	-0.958	0.211
-152.647	143.767	-0.400	0.527
-151.633	3.108	-0.183	0.132
-150.618	-200.000	-0.013	-0.393
-149.604	-200.000	-0.084	0.365
-148.589	503.733	-0.246	0.564
-147.574	-200.000	0.031	0.179
-146.560	-110.368	0.263	0.054
-145.545	-139.821	1.004	-0.105
-144.531	558.405	-0.137	0.327
-143.516	-200.000	-0.007	0.315
-142.502	-107.224	0.277	0.060
-141.487	-63.624	-0.185	0.075
-140.472	-129.455	0.850	-0.117
-139.458	-163.653	-0.222	0.010
-138.443	-63.436	0.122	-0.050
-137.429	426.961	0.222	-0.474
-136.414	-165.507	-0.390	-0.017
-135.399	419.946	-0.288	-0.609
-134.385	452.080	0.366	0.799
-133.370	-121.449	-0.752	-0.124
-132.356	255.868	0.282	-0.478
-131.341	-158.300	0.633	0.036
-130.326	-200.000	0.025	0.204
-129.312	312.148	0.046	-0.086
-128.297	-63.831	-0.237	0.096
-127.283	35.723	0.207	0.179
-126.268	68.845	0.412	0.418
-125.253	800.000	-0.154	0.612
-124.239	-39.122	0.601	0.312
-123.224	140.479	0.504	-0.658
-122.210	-1.773	0.666	0.464
-121.195	789.584	-0.080	-0.216
-120.180	-89.093	0.695	-0.203
