DTS Sentinel unit serial number:	SN413079Multiplexer serial number:	ORYXHardware model number:	OX4-SRSoftware version number:	ORYX F/W v4.00 Oryx Data Collector v3.7.2.0data status	okinstallation	princeton_trtdifferential loss correction	single-endedforward channel	channel 1reverse channel	N/Adate	2019/09/17time	18:18:35forward acquisition time	60.00reverse acquisition time	0.00gamma	496.2192k internal	0.2290k external	0.2290temperature offset calibration	0.9954default loss term (dB/km)	0.3790temperature slope calibration	1.0000multiplexer offset coefficient	1.0000multiplexer slope coefficient	1.0000fibre end	0.00T internal ref (°C)	43.34T ext. ref 1 (°C)	0.29T ext. ref 2 (°C)	37.24length (m)	temperature (°C)	Stokes	anti-Stokes-747.200	55.029	-0.280	0.277
-746.185	-200.000	-0.075	-0.393
-745.171	-120.575	0.152	0.026
-744.156	-58.715	0.291	0.129
-743.142	-153.666	-0.120	-0.008
-742.127	-32.422	-0.393	-0.225
-741.112	800.000	0.067	-0.265
-740.098	800.000	0.045	0.132
-739.083	800.000	0.054	-0.171
-738.069	-68.638	-0.272	0.108
-737.054	800.000	0.114	-0.423
-736.039	-200.000	0.003	0.291
-735.025	480.111	0.099	0.229
-734.010	-200.000	0.009	0.044
-732.996	-16.025	-0.334	-0.217
-731.981	-37.081	-0.092	-0.051
-730.966	-171.110	-0.163	0.006
-729.952	23.308	0.101	0.085
-728.937	353.251	-0.096	-0.194
-727.923	-200.000	-0.032	-0.355
-726.908	67.836	-0.084	0.088
-725.894	-200.000	0.025	-0.258
-724.879	-17.584	-0.126	0.081
-723.864	-200.000	-0.005	0.065
-722.850	-200.000	0.004	0.058
-721.835	351.233	-0.120	0.243
-720.821	-112.899	-0.274	0.056
-719.806	357.464	0.203	0.415
-718.791	-85.308	0.119	-0.038
-717.777	380.405	-0.067	-0.141
-716.762	247.671	0.132	-0.228
-715.748	65.071	0.099	-0.102
-714.733	-200.000	-0.005	-0.178
-713.718	-200.000	0.005	0.191
-712.704	169.890	-0.151	0.221
-711.689	32.199	-0.099	0.088
-710.675	800.000	-0.053	0.193
-709.660	701.549	0.033	-0.090
-708.645	64.414	0.296	-0.305
-707.631	-72.567	0.121	-0.046
-706.616	182.160	-0.125	0.189
-705.602	-4.068	0.125	-0.089
-704.587	-153.461	-0.257	-0.018
-703.572	122.314	0.076	0.097
-702.558	141.015	0.317	-0.429
-701.543	-158.227	-0.066	-0.004
-700.529	-4.078	0.414	0.293
-699.514	7.727	0.147	0.112
-698.499	800.000	-0.070	0.265
-697.485	800.000	-0.051	0.149
-696.470	-200.000	-0.113	-0.550
-695.456	-49.598	0.284	0.138
-694.441	-109.942	-0.365	-0.078
-693.426	90.097	0.071	-0.081
-692.412	-54.582	0.136	0.063
-691.397	-200.000	-0.019	-0.116
-690.383	32.805	0.161	0.142
-689.368	-200.000	0.053	0.318
-688.354	-200.000	0.025	0.207
-687.339	31.216	-0.246	-0.215
-686.324	-64.174	0.140	0.058
-685.310	-200.000	-0.041	-0.343
-684.295	48.077	-0.096	-0.092
-683.281	225.701	-0.015	-0.025
-682.266	-173.089	-0.188	-0.006
-681.251	-63.223	-0.132	-0.055
-680.237	-138.667	0.149	0.017
-679.222	47.528	-0.083	-0.079
-678.208	-200.000	-0.009	0.331
-677.193	-4.408	0.281	-0.199
-676.178	41.321	-0.096	-0.088
-675.164	87.721	0.160	-0.181
-674.149	334.613	-0.068	-0.134
-673.135	-118.728	0.338	-0.061
-672.120	20.380	-0.175	0.144
-671.105	50.603	-0.095	0.092
-670.091	-46.895	-0.115	-0.057
-669.076	-99.248	-0.033	-0.009
-668.062	-51.782	0.172	-0.082
-667.047	-200.000	0.002	-0.146
-666.032	57.778	-0.223	0.223
-665.018	-200.000	-0.030	-0.193
-664.003	-104.245	-0.112	0.027
-662.989	170.924	0.268	0.393
-661.974	-7.714	0.182	-0.126
-660.959	72.322	0.129	0.137
-659.945	16.654	0.256	0.207
-658.930	31.979	-0.168	-0.148
-657.916	13.769	-0.248	-0.197
-656.901	-67.084	-0.126	0.051
-655.886	-180.867	-0.209	0.004
-654.872	-5.231	0.094	-0.066
-653.857	-48.033	-0.227	-0.112
-652.843	113.292	0.140	0.174
-651.828	252.483	0.106	0.184
-650.814	4.020	0.224	-0.167
-649.799	-47.459	0.358	0.178
-648.784	-88.597	-0.076	0.023
-647.770	800.000	-0.032	0.100
-646.755	126.448	0.111	0.143
-645.741	-18.000	0.074	-0.047
-644.726	-200.000	-0.031	-0.142
-643.711	-200.000	-0.002	-0.276
-642.697	-89.457	-0.364	-0.109
-641.682	-121.394	-0.237	0.040
-640.668	81.001	0.180	-0.198
-639.653	-149.757	-0.293	0.023
-638.638	-69.303	-0.081	-0.032
-637.624	-200.000	0.022	-0.180
-636.609	73.640	-0.148	0.159
-635.595	-152.723	0.194	-0.014
-634.580	-190.882	-0.117	0.001
-633.565	-17.425	-0.146	0.094
-632.551	-200.000	0.024	-0.146
-631.536	98.184	-0.162	-0.190
-630.522	-200.000	0.024	-0.297
-629.507	-200.000	-0.044	0.407
-628.492	-9.137	0.185	0.126
-627.478	48.919	-0.137	0.131
-626.463	74.681	0.262	0.281
-625.449	-44.950	0.193	0.098
-624.434	52.338	-0.430	-0.418
-623.419	-200.000	-0.002	0.073
-622.405	-86.179	-0.251	0.079
-621.390	-91.133	-0.191	0.056
-620.376	-84.638	0.230	0.074
-619.361	318.380	0.107	-0.207
-618.346	-200.000	-0.024	0.265
-617.332	5.197	0.037	-0.027
-616.317	-23.390	-0.205	-0.126
-615.303	430.419	-0.127	-0.280
-614.288	-87.755	0.223	-0.068
-613.273	274.333	-0.186	0.335
-612.259	45.024	0.265	-0.249
-611.244	-200.000	-0.049	-0.258
-610.230	763.329	-0.050	0.138
-609.215	108.283	0.199	0.242
-608.201	-200.000	-0.053	-0.251
-607.186	-130.286	0.212	-0.029
-606.171	-5.565	-0.450	-0.314
-605.157	160.449	-0.092	-0.131
-604.142	-200.000	-0.075	0.436
-603.128	334.558	-0.059	-0.117
-602.113	-84.047	0.120	-0.039
-601.098	800.000	0.023	0.067
-600.084	-114.843	0.516	0.100
-599.069	-200.000	0.005	0.332
-598.055	174.549	0.184	-0.272
-597.040	220.193	0.026	0.042
-596.025	97.360	-0.072	-0.085
-595.011	-54.193	-0.309	0.143
-593.996	-87.206	0.218	-0.067
-592.982	266.634	0.018	0.031
-591.967	-200.000	-0.045	-0.204
-590.952	-123.249	0.253	-0.041
-589.938	-27.486	0.147	-0.087
-588.923	-70.716	-0.223	0.086
-587.909	-27.276	-0.125	-0.074
-586.894	21.404	0.372	0.308
-585.879	-41.820	-0.047	0.025
-584.865	-145.341	-0.026	0.002
-583.850	800.000	0.124	-0.449
-582.836	104.036	0.092	-0.110
-581.821	11.895	0.047	-0.037
-580.806	364.699	-0.176	0.361
-579.792	-66.701	0.208	-0.084
-578.777	-153.798	-0.204	-0.014
-577.763	-83.366	-0.173	-0.056
-576.748	-175.010	0.309	0.009
-575.733	-71.915	-0.157	0.059
-574.719	2.678	0.211	-0.155
-573.704	1.679	-0.194	-0.142
-572.690	202.858	0.222	0.349
-571.675	2.433	-0.215	0.159
-570.661	21.942	0.215	0.178
-569.646	147.180	0.269	-0.368
-568.631	-200.000	0.051	-0.228
-567.617	91.940	0.199	0.228
-566.602	-200.000	0.018	0.235
-565.588	22.923	-0.336	0.280
-564.573	-200.000	-0.048	0.329
-563.558	-6.086	-0.069	0.048
-562.544	-106.153	-0.233	-0.053
-561.529	144.918	-0.084	0.114
-560.515	211.985	-0.051	0.082
-559.500	-8.446	0.163	-0.111
-558.485	-125.772	-0.049	0.008
-557.471	-166.658	-0.241	-0.010
-556.456	-200.000	-0.065	-0.423
-555.442	65.033	0.085	0.087
-554.427	800.000	-0.028	0.098
-553.412	800.000	-0.098	0.342
-552.398	-6.833	-0.159	-0.110
-551.383	344.432	0.122	0.244
-550.369	12.991	0.111	-0.088
-549.354	-77.514	-0.192	0.068
-548.339	33.623	0.162	0.143
-547.325	-200.000	-0.020	-0.254
-546.310	-200.000	0.002	0.034
-545.296	467.712	0.059	0.135
-544.281	698.344	-0.051	0.137
-543.266	227.116	0.142	0.234
-542.252	-40.359	0.099	-0.052
-541.237	265.329	0.044	0.078
-540.223	-200.000	-0.003	0.150
-539.208	-200.000	-0.078	-0.476
-538.193	792.538	0.030	-0.084
-537.179	53.652	0.153	-0.149
-536.164	800.000	0.055	0.221
-535.150	-109.295	0.166	0.036
-534.135	427.234	0.118	-0.259
-533.121	2.486	0.044	0.032
-532.106	225.287	0.223	-0.366
-531.091	800.000	0.022	0.063
-530.077	-132.937	0.254	0.033
-529.062	-97.346	0.173	-0.046
-528.048	28.379	0.095	0.082
-527.033	-200.000	0.001	0.410
-526.018	60.385	-0.086	-0.087
-525.004	-84.788	0.366	0.117
-523.989	200.969	0.115	-0.179
-522.975	-200.000	0.035	-0.221
-521.960	-46.393	0.227	0.113
-520.945	93.420	0.181	0.208
-519.931	61.102	-0.091	-0.092
-518.916	138.957	-0.030	0.039
-517.902	355.934	-0.161	-0.325
-516.887	2.060	0.300	0.220
-515.872	-50.594	0.237	0.113
-514.858	14.358	0.078	0.062
-513.843	-146.505	0.180	0.016
-512.829	-182.026	-0.251	-0.005
-511.814	101.298	-0.081	0.096
-510.799	113.163	-0.025	-0.031
-509.785	800.000	-0.034	-0.146
-508.770	91.824	-0.157	-0.179
-507.756	-116.061	0.109	-0.021
-506.741	184.252	-0.144	-0.216
-505.726	41.726	-0.271	-0.250
-504.712	-26.062	-0.397	0.237
-503.697	-122.303	-0.049	0.008
-502.683	-200.000	-0.031	-0.144
-501.668	32.429	-0.130	-0.114
-500.653	547.192	-0.126	0.306
-499.639	-200.000	0.021	0.116
-498.624	136.121	0.253	-0.334
-497.610	140.362	0.092	0.123
-496.595	-200.000	-0.069	-0.343
-495.581	-200.000	0.019	-0.090
-494.566	-105.990	-0.290	0.066
-493.551	-165.592	-0.168	-0.007
-492.537	-200.000	0.014	-0.113
-491.522	800.000	-0.092	-0.400
-490.508	-146.475	-0.320	-0.028
-489.493	123.585	-0.151	-0.192
-488.478	-138.170	-0.461	-0.052
-487.464	380.764	-0.093	-0.193
-486.449	800.000	0.009	0.028
-485.435	37.636	-0.236	-0.212
-484.420	-127.890	0.164	-0.024
-483.405	800.000	-0.048	-0.137
-482.391	800.000	-0.034	0.133
-481.376	-96.369	-0.152	-0.041
-480.362	591.501	0.094	0.235
-479.347	-98.456	-0.240	0.062
-478.332	800.000	-0.109	0.369
-477.318	-117.696	-0.194	-0.035
-476.303	-68.718	0.304	-0.119
-475.289	287.339	-0.149	-0.272
-474.274	800.000	-0.056	0.190
-473.259	24.012	-0.070	-0.058
-472.245	-89.940	0.203	-0.060
-471.230	71.866	0.215	0.227
-470.216	-200.000	-0.013	0.307
-469.201	4.298	0.015	-0.011
-468.186	-17.708	-0.108	-0.069
-467.172	43.823	0.154	0.143
-466.157	-66.512	0.294	-0.118
-465.143	800.000	-0.107	0.304
-464.128	-200.000	0.036	-0.246
-463.113	-77.194	0.215	0.076
-462.099	-200.000	0.018	-0.222
-461.084	-115.010	-0.179	0.034
-460.070	-112.635	0.206	-0.041
-459.055	259.134	-0.011	-0.018
-458.040	800.000	0.024	-0.100
-457.026	62.771	-0.117	0.118
-456.011	-200.000	0.007	-0.042
-454.997	38.783	-0.141	0.127
-453.982	-124.990	0.646	-0.101
-452.968	181.523	0.152	0.227
-451.953	-200.000	0.009	0.058
-450.938	-200.000	0.002	0.279
-449.924	-82.937	-0.174	0.057
-448.909	-31.258	0.083	0.047
-447.895	90.949	0.132	0.150
-446.880	22.623	0.257	-0.213
-445.865	-13.714	0.203	-0.133
-444.851	116.588	0.072	-0.090
-443.836	67.019	0.163	0.168
-442.822	466.779	0.036	0.082
-441.807	186.045	-0.044	0.067
-440.792	16.777	-0.055	-0.044
-439.778	-74.750	-0.217	-0.079
-438.763	800.000	-0.152	0.523
-437.749	163.839	0.047	0.067
-436.734	620.525	0.051	-0.131
-435.719	194.342	-0.177	-0.272
-434.705	10.927	0.146	0.113
-433.690	93.376	-0.248	-0.284
-432.676	-21.993	0.181	-0.111
-431.661	124.035	0.151	0.192
-430.646	570.536	-0.182	0.447
-429.632	-81.026	-0.018	-0.006
-428.617	-200.000	0.033	0.152
-427.603	268.393	0.091	0.162
-426.588	-200.000	0.013	-0.277
-425.573	800.000	-0.027	-0.079
-424.559	-66.613	-0.229	0.092
-423.544	-62.915	-0.054	-0.023
-422.530	-200.000	-0.002	0.167
-421.515	117.477	-0.170	0.211
-420.500	298.068	-0.066	0.122
-419.486	800.000	0.037	0.118
-418.471	52.369	0.120	-0.115
-417.457	-200.000	0.024	-0.202
-416.442	800.000	0.065	-0.202
-415.428	-58.533	-0.214	0.094
-414.413	-91.802	0.159	-0.046
-413.398	146.022	0.090	-0.122
-412.384	57.776	0.179	-0.177
-411.369	475.188	0.046	-0.106
-410.355	318.137	-0.070	-0.135
-409.340	219.961	-0.050	0.082
-408.325	51.694	-0.197	-0.189
-407.311	800.000	0.025	-0.071
-406.296	-200.000	-0.039	0.312
-405.282	320.559	-0.136	0.262
-404.267	-200.000	-0.036	-0.182
-403.252	-66.044	0.127	0.051
-402.238	22.939	-0.205	-0.170
-401.223	-29.303	-0.262	-0.152
-400.209	49.332	-0.323	0.307
-399.194	203.974	-0.214	0.335
-398.179	36.839	-0.108	-0.097
-397.165	-48.333	-0.034	-0.017
-396.150	-170.584	0.245	-0.009
-395.136	-135.025	0.569	0.069
-394.121	-96.903	0.334	0.088
-393.106	-50.021	-0.144	-0.069
-392.092	-200.000	0.022	0.218
-391.077	443.588	0.056	0.123
-390.063	-169.344	-0.327	-0.012
-389.048	-95.682	-0.243	0.066
-388.033	237.972	-0.149	0.250
-387.019	-53.084	0.272	0.126
-386.004	-68.586	-0.090	-0.035
-384.990	66.008	0.160	0.164
-383.975	93.553	-0.034	0.039
-382.960	-83.567	-0.088	-0.028
-381.946	-200.000	0.000	-0.252
-380.931	-125.485	0.072	-0.011
-379.917	-85.942	-0.159	0.050
-378.902	-200.000	-0.029	0.354
-377.888	498.576	0.199	0.462
-376.873	-107.637	-0.166	0.037
-375.858	-29.789	0.251	-0.145
-374.844	800.000	-0.079	0.255
-373.829	-102.960	0.277	-0.066
-372.815	-46.199	-0.275	-0.137
-371.800	-93.004	-0.274	-0.077
-370.785	-72.171	0.219	0.082
-369.771	14.193	0.138	0.108
-368.756	800.000	0.091	-0.374
-367.742	-38.574	0.198	-0.105
-366.727	190.422	0.128	0.194
-365.712	160.558	-0.142	-0.200
-364.698	338.532	0.065	-0.128
-363.683	-144.559	-0.054	-0.005
-362.669	-2.414	-0.241	-0.170
-361.654	50.756	0.261	-0.249
-360.639	-95.951	0.162	0.044
-359.625	6.203	-0.151	0.113
-358.610	456.614	-0.174	-0.391
-357.596	-136.224	-0.176	-0.021
-356.581	68.998	-0.128	-0.133
-355.566	-200.000	-0.024	-0.394
-354.552	1.900	0.231	0.168
-353.537	-127.518	-0.186	0.027
-352.523	115.934	-0.158	-0.195
-351.508	191.516	0.095	-0.144
-350.493	-200.000	-0.024	0.134
-349.479	-133.097	0.234	-0.030
-348.464	-200.000	-0.059	0.395
-347.450	-18.119	0.166	-0.105
-346.435	-74.887	0.081	0.029
-345.420	-35.431	0.335	0.184
-344.406	514.479	-0.122	0.287
-343.391	-200.000	-0.069	-0.406
-342.377	-200.000	-0.009	-0.138
-341.362	-200.000	0.008	-0.242
-340.348	173.520	0.062	0.090
-339.333	213.421	-0.194	-0.310
-338.318	800.000	-0.068	0.207
-337.304	-200.000	-0.081	0.370
-336.289	-44.963	-0.339	-0.170
-335.275	-90.616	-0.259	-0.075
-334.260	-200.000	-0.005	-0.047
-333.245	-72.829	-0.201	0.075
-332.231	705.442	-0.057	-0.152
-331.216	-200.000	-0.018	-0.256
-330.202	150.846	0.313	0.429
-329.187	-178.752	0.033	0.001
-328.172	-114.974	-0.155	-0.030
-327.158	77.855	-0.113	0.121
-326.143	217.026	0.214	0.343
-325.129	-200.000	-0.017	0.380
-324.114	715.076	0.021	-0.055
-323.099	800.000	0.031	-0.087
-322.085	125.459	0.108	-0.137
-321.070	220.346	-0.310	-0.501
-320.056	-58.018	-0.279	-0.123
-319.041	-95.379	0.099	0.027
-318.026	216.753	-0.131	0.209
-317.012	-123.244	-0.259	0.042
-315.997	699.236	0.051	0.135
-314.983	-200.000	-0.003	0.185
-313.968	-79.810	0.394	0.134
-312.953	-88.350	-0.059	0.018
-311.939	90.514	0.117	0.132
-310.924	-1.309	0.347	0.247
-309.910	-35.370	-0.133	0.073
-308.895	34.633	-0.180	0.159
-307.880	-101.105	0.154	0.038
-306.866	800.000	-0.044	-0.191
-305.851	-5.351	-0.237	0.164
-304.837	800.000	0.064	0.182
-303.822	-59.140	-0.303	-0.131
-302.807	-19.650	-0.121	-0.076
-301.793	-8.222	0.296	-0.201
-300.778	800.000	0.067	-0.247
-299.764	-60.483	0.136	-0.058
-298.749	39.287	-0.070	0.063
-297.735	-200.000	0.022	-0.314
-296.720	800.000	-0.105	0.314
-295.705	-11.719	0.107	0.071
-294.691	-104.325	-0.052	0.012
-293.676	800.000	0.024	-0.071
-292.662	-24.931	0.071	0.042
-291.647	607.859	-0.052	-0.130
-290.632	-21.174	0.211	0.130
-289.618	1.739	0.107	0.078
-288.603	671.748	-0.058	-0.152
-287.589	-200.000	-0.003	-0.324
-286.574	-200.000	-0.039	0.180
-285.559	-200.000	-0.013	0.058
-284.545	-49.320	-0.100	0.048
-283.530	171.793	-0.027	0.039
-282.516	-152.056	-0.187	0.014
-281.501	-122.241	-0.271	-0.045
-280.486	529.649	-0.058	-0.138
-279.472	-200.000	-0.018	-0.185
-278.457	-200.000	0.048	0.424
-277.443	319.758	-0.095	0.180
-276.428	-108.267	0.331	-0.072
-275.413	-157.357	-0.146	-0.009
-274.399	-20.276	-0.143	-0.089
-273.384	112.991	-0.137	0.167
-272.370	-32.134	0.187	-0.105
-271.355	148.840	-0.194	0.263
-270.340	-45.589	-0.309	0.154
-269.326	60.092	-0.082	-0.081
-268.311	-200.000	0.013	-0.161
-267.297	-39.071	-0.132	0.070
-266.282	175.774	0.196	0.286
-265.267	-200.000	0.033	0.201
-264.253	-2.592	-0.342	0.241
-263.238	-97.893	0.132	0.034
-262.224	208.841	0.196	0.308
-261.209	-74.731	-0.129	0.047
-260.195	59.872	0.201	-0.200
-259.180	783.283	0.080	0.221
-258.165	146.091	-0.130	-0.175
-257.151	7.477	0.139	-0.104
-256.136	-109.787	-0.032	0.007
-255.122	33.096	0.170	0.148
-254.107	-33.424	-0.089	-0.050
-253.092	-148.189	-0.194	0.016
-252.078	-54.027	0.198	0.090
-251.063	-200.000	-0.024	0.119
-250.049	-143.930	0.211	0.020
-249.034	40.510	-0.199	-0.180
-248.019	224.464	0.167	-0.272
-247.005	77.356	-0.183	0.196
-245.990	-200.000	0.013	-0.074
-244.976	411.678	-0.022	-0.047
-243.961	-68.362	0.233	0.091
-242.946	-17.625	-0.211	0.133
-241.932	-60.713	-0.166	-0.071
-240.917	-67.431	0.135	-0.053
-239.903	658.393	-0.135	-0.349
-238.888	-48.325	0.205	0.099
-237.873	-200.000	0.002	-0.388
-236.859	-200.000	0.024	-0.297
-235.844	206.449	0.135	-0.211
-234.830	-145.212	0.118	-0.011
-233.815	266.436	-0.102	0.179
-232.800	-200.000	-0.004	0.028
-231.786	-23.285	0.253	-0.153
-230.771	-200.000	0.037	0.252
-229.757	102.339	0.281	0.330
-228.742	-180.661	0.335	0.007
-227.727	-47.122	0.131	-0.064
-226.713	-31.095	-0.306	-0.173
-225.698	-107.802	-0.189	-0.041
-224.684	-125.098	0.098	-0.015
-223.669	-200.000	0.012	-0.214
-222.655	-139.567	-0.217	-0.023
-221.640	433.465	0.034	0.074
-220.625	-200.000	-0.002	-0.223
-219.611	589.455	0.103	-0.255
-218.596	800.000	-0.055	0.155
-217.582	-146.489	-0.103	-0.009
-216.567	800.000	-0.128	-0.498
-215.552	-21.315	-0.323	0.198
-214.538	19.205	-0.204	-0.164
-213.523	-144.991	0.171	0.016
-212.509	-37.741	-0.340	0.182
-211.494	56.188	0.178	0.173
-210.479	-119.034	0.104	0.018
-209.465	-68.600	-0.022	-0.009
-208.450	-97.324	0.346	0.090
-207.436	800.000	0.100	-0.289
-206.421	404.487	0.043	0.090
-205.406	-200.000	-0.001	-0.086
-204.392	-200.000	-0.009	-0.307
-203.377	605.792	0.089	-0.223
-202.363	-200.000	-0.003	-0.093
-201.348	-91.750	-0.133	0.038
-200.333	-112.614	0.149	-0.030
-199.319	174.885	-0.078	0.114
-198.304	3.983	-0.265	0.194
-197.290	70.534	-0.101	-0.104
-196.275	-114.831	0.489	0.093
-195.260	396.587	0.151	-0.317
-194.246	146.502	-0.291	-0.392
-193.231	-100.628	-0.151	0.037
-192.217	800.000	0.033	0.132
-191.202	231.137	0.070	0.114
-190.187	210.811	0.176	-0.277
-189.173	22.476	0.204	-0.167
-188.158	-94.927	0.091	0.025
-187.144	-200.000	-0.013	0.351
-186.129	-19.137	0.383	-0.238
-185.114	48.879	-0.045	-0.042
-184.100	-200.000	0.043	-0.189
-183.085	52.987	0.033	-0.032
-182.071	-200.000	0.021	0.099
-181.056	148.331	-0.115	0.156
-180.042	-165.170	-0.166	-0.007
-179.027	800.000	0.020	0.088
-178.012	-130.829	0.328	0.044
-176.998	-8.612	0.128	-0.086
-175.983	-69.455	-0.176	0.068
-174.969	-162.850	-0.288	-0.014
-173.954	-200.000	0.014	0.067
-172.939	-200.000	0.021	0.165
-171.925	86.542	-0.181	0.200
-170.910	-143.708	0.160	0.015
-169.896	-49.996	-0.018	0.008
-168.881	800.000	0.127	0.386
-167.866	-71.089	0.216	-0.081
-166.852	-129.156	-0.146	0.020
-165.837	-103.808	0.249	0.058
-164.823	27.594	0.143	-0.120
-163.808	6.010	0.289	-0.215
-162.793	-200.000	0.009	-0.077
-161.779	-128.844	-0.353	-0.050
-160.764	132.803	0.111	0.144
-159.750	800.000	0.057	-0.161
-158.735	-112.298	-0.145	0.029
-157.720	-170.358	0.218	0.008
-156.706	173.307	0.057	-0.083
-155.691	-157.182	-0.133	-0.008
-154.677	-200.000	-0.002	-0.038
-153.662	-44.526	-0.157	0.078
-152.647	194.641	-0.140	-0.212
-151.633	-132.605	-0.130	0.017
-150.618	140.524	-0.210	0.277
-149.604	650.784	0.068	0.175
-148.589	-200.000	-0.018	-0.136
-147.574	800.000	-0.180	-0.536
-146.560	-33.047	-0.162	0.090
-145.545	-200.000	-0.021	0.113
-144.531	-200.000	0.027	-0.202
-143.516	800.000	-0.107	-0.420
-142.502	3.931	-0.155	-0.113
-141.487	187.990	0.015	-0.022
-140.472	800.000	0.053	-0.157
-139.458	-200.000	0.009	0.189
-138.443	143.829	-0.004	-0.005
-137.429	-52.742	0.351	-0.162
-136.414	-75.990	0.178	0.063
-135.399	651.336	0.080	0.205
-134.385	-200.000	0.046	0.390
-133.370	-200.000	0.020	-0.269
-132.356	-2.042	0.307	0.216
-131.341	-200.000	0.038	-0.256
-130.326	225.117	-0.147	-0.237
-129.312	-114.607	-0.149	-0.029
-128.297	-200.000	0.030	-0.254
-127.283	397.632	0.125	-0.262
-126.268	800.000	0.030	0.098
-125.253	-109.321	0.176	-0.037
-124.239	-105.452	0.116	0.026
-123.224	-200.000	-0.016	-0.115
-122.210	-200.000	-0.018	0.353
-121.195	650.821	0.274	0.701
