DTS Sentinel unit serial number:	SN413079Multiplexer serial number:	ORYXHardware model number:	OX4-SRSoftware version number:	ORYX F/W v4.00 Oryx Data Collector v3.7.2.0data status	okinstallation	princeton_trtdifferential loss correction	single-endedforward channel	channel 1reverse channel	N/Adate	2019/09/12time	14:20:11forward acquisition time	60.00reverse acquisition time	0.00gamma	496.2192k internal	0.2294k external	0.2294temperature offset calibration	1.0062default loss term (dB/km)	0.3790temperature slope calibration	1.0000multiplexer offset coefficient	1.0000multiplexer slope coefficient	1.0000fibre end	0.00T internal ref (°C)	40.19T ext. ref 1 (°C)	2.25T ext. ref 2 (°C)	34.85length (m)	temperature (°C)	Stokes	anti-Stokes-747.200	-200.000	-0.052	0.295
-746.185	-200.000	-0.043	0.224
-745.171	-13.755	0.291	0.193
-744.156	-200.000	0.018	0.213
-743.142	188.801	-0.037	-0.056
-742.127	-14.785	-0.155	0.102
-741.112	90.526	-0.037	-0.042
-740.098	575.228	0.077	-0.191
-739.083	207.734	-0.150	0.240
-738.069	-158.829	0.354	0.021
-737.054	-59.664	-0.197	-0.086
-736.039	800.000	-0.072	0.233
-735.025	55.307	0.197	0.195
-734.010	-200.000	0.023	-0.371
-732.996	-109.839	-0.353	-0.076
-731.981	-23.029	-0.077	-0.047
-730.966	800.000	-0.125	-0.381
-729.952	255.010	0.091	-0.159
-728.937	-200.000	-0.050	0.283
-727.923	-143.565	-0.269	0.026
-726.908	-200.000	0.024	0.252
-725.894	-49.120	-0.319	-0.156
-724.879	178.750	-0.170	-0.254
-723.864	-72.485	0.072	0.027
-722.850	-74.618	0.306	-0.113
-721.835	-174.030	0.234	0.007
-720.821	439.293	0.113	-0.252
-719.806	-2.006	-0.247	-0.178
-718.791	800.000	-0.042	0.121
-717.777	68.820	-0.182	0.191
-716.762	450.361	-0.083	0.186
-715.748	-39.291	0.436	-0.234
-714.733	-164.220	0.510	-0.024
-713.718	-96.811	0.349	0.094
-712.704	-193.630	-0.241	0.002
-711.689	-64.685	0.397	-0.164
-710.675	800.000	-0.033	0.146
-709.660	502.752	0.081	-0.192
-708.645	165.417	0.151	-0.219
-707.631	-161.815	0.419	-0.022
-706.616	-15.937	0.138	0.089
-705.602	134.776	0.218	0.289
-704.587	-127.078	0.121	0.018
-703.572	313.673	-0.117	0.224
-702.558	58.668	-0.055	0.056
-701.543	-200.000	0.006	0.069
-700.529	-200.000	-0.018	0.089
-699.514	116.722	-0.056	-0.070
-698.499	153.698	0.063	0.088
-697.485	-200.000	-0.024	-0.273
-696.470	749.066	-0.098	-0.269
-695.456	-200.000	-0.037	-0.460
-694.441	273.230	0.166	-0.299
-693.426	-200.000	0.026	0.250
-692.412	-140.456	-0.130	-0.014
-691.397	-200.000	-0.037	0.213
-690.383	-200.000	0.046	0.288
-689.368	-46.552	-0.268	-0.134
-688.354	-139.224	0.325	0.036
-687.339	-113.679	0.103	0.021
-686.324	-200.000	-0.023	-0.171
-685.310	-200.000	0.041	0.301
-684.295	800.000	-0.050	0.202
-683.281	180.014	-0.088	0.132
-682.266	111.394	-0.043	0.052
-681.251	-200.000	0.051	0.247
-680.237	-200.000	-0.026	0.317
-679.222	-200.000	-0.021	0.147
-678.208	-95.734	0.212	-0.058
-677.193	-200.000	0.049	0.244
-676.178	-199.356	-0.602	-0.003
-675.164	-200.000	-0.018	0.097
-674.149	3.620	0.118	0.088
-673.135	-200.000	-0.018	0.381
-672.120	-121.205	0.185	0.032
-671.105	-200.000	-0.002	0.177
-670.091	-101.828	-0.290	0.072
-669.076	197.714	-0.156	-0.243
-668.062	800.000	-0.093	-0.291
-667.047	-128.688	0.253	0.036
-666.032	21.282	-0.244	-0.202
-665.018	800.000	-0.017	0.057
-664.003	148.374	-0.005	0.007
-662.989	40.009	0.289	0.264
-661.974	762.120	-0.152	0.422
-660.959	-200.000	0.027	0.277
-659.945	49.797	0.065	-0.062
-658.930	407.186	0.050	-0.108
-657.916	410.946	-0.215	0.466
-656.901	-84.346	0.204	0.066
-655.886	38.520	0.266	0.242
-654.872	275.751	0.080	0.145
-653.857	-54.473	-0.040	-0.018
-652.843	490.159	0.029	0.067
-651.828	734.876	-0.167	0.457
-650.814	-200.000	0.041	-0.224
-649.799	-73.994	-0.157	0.058
-648.784	-111.729	-0.046	-0.010
-647.770	-39.047	-0.243	0.130
-646.755	183.460	0.261	-0.393
-645.741	-200.000	-0.003	-0.198
-644.726	140.184	0.154	-0.207
-643.711	-125.376	0.265	-0.041
-642.697	-63.852	-0.175	-0.073
-641.682	-137.459	-0.172	0.020
-640.668	-114.024	-0.321	-0.063
-639.653	-65.616	-0.148	0.061
-638.638	21.742	0.051	-0.043
-637.624	800.000	-0.094	-0.305
-636.609	-105.241	0.240	-0.056
-635.595	-71.871	-0.115	0.043
-634.580	-25.051	0.186	0.113
-633.565	-67.181	-0.154	-0.062
-632.551	45.419	-0.210	0.197
-631.536	-65.150	0.274	-0.113
-630.522	800.000	0.056	-0.186
-629.507	800.000	-0.025	-0.090
-628.492	-200.000	0.014	-0.120
-627.478	-166.451	-0.058	-0.002
-626.463	-122.171	-0.226	-0.038
-625.449	-120.227	0.481	-0.084
-624.434	257.896	-0.098	-0.171
-623.419	278.863	-0.050	0.091
-622.405	-200.000	0.040	0.273
-621.390	14.739	-0.122	-0.097
-620.376	-74.161	-0.224	-0.082
-619.361	-141.186	0.230	-0.024
-618.346	168.176	0.043	0.062
-617.332	-200.000	0.002	0.084
-616.317	-38.743	-0.312	-0.167
-615.303	-138.473	0.160	-0.018
-614.288	50.534	0.117	0.112
-613.273	22.782	-0.239	-0.200
-612.259	-150.357	0.062	-0.005
-611.244	261.096	0.058	0.102
-610.230	-93.746	-0.102	0.029
-609.215	800.000	-0.071	0.207
-608.201	64.753	-0.193	-0.198
-607.186	-38.789	0.414	-0.222
-606.171	800.000	-0.033	0.107
-605.157	299.390	-0.043	-0.080
-604.142	-200.000	-0.004	-0.209
-603.128	-4.234	-0.326	0.230
-602.113	800.000	-0.076	0.265
-601.098	87.673	-0.162	0.182
-600.084	-12.453	-0.093	-0.062
-599.069	-96.461	-0.172	0.046
-598.055	47.057	0.232	0.220
-597.040	26.856	0.066	0.056
-596.025	285.770	-0.171	-0.314
-595.011	-5.515	0.257	-0.179
-593.996	-96.780	-0.189	0.050
-592.982	-77.242	0.134	-0.047
-591.967	-42.961	-0.306	-0.158
-590.952	-151.852	0.020	0.002
-589.938	-81.492	-0.243	-0.081
-588.923	95.858	-0.283	-0.328
-587.909	58.753	0.053	0.053
-586.894	-10.151	-0.136	-0.092
-585.879	153.426	0.119	-0.165
-584.865	-155.809	0.289	0.019
-583.850	82.584	0.086	-0.094
-582.836	800.000	0.074	-0.257
-581.821	-77.289	-0.176	0.062
-580.806	59.711	-0.109	0.109
-579.792	-108.180	0.308	0.068
-578.777	58.034	-0.103	-0.102
-577.763	-63.211	0.212	-0.089
-576.748	-162.879	0.191	-0.009
-575.733	321.019	0.141	0.272
-574.719	-1.123	0.120	-0.086
-573.704	-200.000	-0.002	-0.031
-572.690	-135.414	-0.410	0.050
-571.675	112.061	0.057	0.070
-570.661	26.805	-0.050	-0.043
-569.646	-200.000	-0.081	0.487
-568.631	-200.000	-0.056	-0.372
-567.617	800.000	-0.091	-0.341
-566.602	-200.000	0.033	0.171
-565.588	321.580	-0.132	0.254
-564.573	34.455	0.185	-0.164
-563.558	37.593	0.056	-0.050
-562.544	-200.000	0.028	0.204
-561.529	-36.651	-0.069	0.037
-560.515	300.118	0.120	0.226
-559.500	-200.000	0.033	0.494
-558.485	69.855	-0.180	0.188
-557.471	-9.208	-0.156	0.106
-556.456	-81.197	0.208	0.070
-555.442	42.578	0.191	-0.177
-554.427	287.231	0.105	0.192
-553.412	-200.000	0.010	0.212
-552.398	150.837	-0.096	0.133
-551.383	-54.658	-0.155	0.071
-550.369	-105.666	-0.267	0.061
-549.354	196.146	0.074	-0.115
-548.339	-35.344	0.184	-0.101
-547.325	-200.000	0.008	-0.063
-546.310	-200.000	-0.003	-0.043
-545.296	166.290	-0.168	-0.242
-544.281	355.750	0.084	0.170
-543.266	-53.790	0.014	0.007
-542.252	561.994	-0.050	-0.124
-541.237	58.080	0.084	0.084
-540.223	-200.000	0.042	-0.400
-539.208	507.398	-0.097	-0.229
-538.193	-200.000	-0.058	-0.275
-537.179	-200.000	0.029	-0.202
-536.164	-53.940	-0.480	0.222
-535.150	655.021	-0.057	0.149
-534.135	-153.088	-0.225	0.016
-533.121	800.000	0.022	0.065
-532.106	-12.717	-0.153	-0.101
-531.091	-17.998	-0.186	0.118
-530.077	-20.270	0.143	-0.089
-529.062	-200.000	-0.071	0.323
-528.048	-42.320	0.053	-0.027
-527.033	-92.823	-0.021	0.006
-526.018	130.161	0.233	0.303
-525.004	-39.313	-0.484	0.258
-523.989	-95.718	-0.084	0.023
-522.975	396.663	0.143	0.303
-521.960	-200.000	-0.009	-0.208
-520.945	-183.979	-0.180	-0.003
-519.931	-124.963	0.310	0.048
-518.916	78.604	0.132	0.143
-517.902	-200.000	0.067	-0.354
-516.887	-91.686	-0.230	-0.066
-515.872	-29.599	0.283	0.164
-514.858	62.064	-0.116	-0.117
-513.843	-200.000	0.055	-0.306
-512.829	131.592	-0.036	0.047
-511.814	-196.958	-0.401	-0.003
-510.799	-200.000	-0.012	0.169
-509.785	164.044	-0.113	-0.161
-508.770	800.000	0.159	-0.472
-507.756	57.872	-0.041	-0.041
-506.741	-55.477	0.128	0.058
-505.726	252.577	0.184	0.318
-504.712	46.814	0.199	0.187
-503.697	2.774	0.178	-0.131
-502.683	-64.769	-0.120	-0.049
-501.668	489.715	-0.080	0.185
-500.653	-131.582	-0.198	0.026
-499.639	-112.710	0.192	-0.039
-498.624	535.605	0.047	-0.113
-497.610	-24.033	0.166	0.101
-496.595	-63.867	-0.166	-0.069
-495.581	-141.916	-0.201	-0.020
-494.566	-123.969	-0.124	0.020
-493.551	2.746	-0.210	-0.155
-492.537	438.992	0.022	-0.048
-491.522	168.483	0.118	-0.170
-490.508	-76.523	-0.154	0.055
-489.493	-35.360	-0.209	0.115
-488.478	-28.859	0.209	0.122
-487.464	280.664	0.104	-0.188
-486.449	-102.573	0.253	-0.061
-485.435	-200.000	-0.013	-0.352
-484.420	-49.679	-0.193	-0.093
-483.405	58.884	-0.251	0.250
-482.391	-103.234	0.121	0.029
-481.376	-45.939	-0.097	0.049
-480.362	-123.573	0.468	-0.075
-479.347	-106.258	0.205	0.046
-478.332	-16.641	0.183	0.117
-477.318	-108.942	-0.227	0.049
-476.303	-79.309	-0.362	-0.124
-475.289	-200.000	0.004	0.023
-474.274	226.992	0.128	-0.210
-473.259	-38.128	0.275	-0.148
-472.245	-76.169	0.111	-0.040
-471.230	539.382	-0.112	0.271
-470.216	-123.332	-0.355	-0.057
-469.201	174.364	0.073	0.106
-468.186	428.923	0.060	-0.132
-467.172	-50.602	-0.044	0.021
-466.157	8.252	0.093	-0.071
-465.143	-70.482	0.100	0.038
-464.128	-35.854	-0.044	0.024
-463.113	134.564	0.216	-0.284
-462.099	-33.141	0.263	0.147
-461.084	74.678	-0.228	-0.242
-460.070	651.130	0.103	-0.267
-459.055	800.000	0.028	-0.080
-458.040	85.102	0.157	-0.175
-457.026	-72.310	-0.307	-0.115
-456.011	155.655	-0.069	0.096
-454.997	800.000	0.058	0.186
-453.982	-180.753	-0.300	-0.006
-452.968	-76.710	0.406	0.144
-451.953	-28.389	-0.135	0.079
-450.938	-112.662	-0.242	-0.049
-449.924	536.881	-0.068	-0.164
-448.909	534.475	0.041	0.098
-447.895	-109.616	0.167	0.036
-446.880	-74.410	0.289	0.105
-445.865	800.000	0.096	-0.285
-444.851	182.572	0.108	-0.160
-443.836	800.000	-0.046	-0.141
-442.822	-118.520	-0.355	-0.063
-441.807	213.134	-0.052	0.082
-440.792	247.816	-0.146	-0.250
-439.778	120.225	0.216	0.270
-438.763	-200.000	0.004	0.410
-437.749	425.260	-0.050	0.108
-436.734	-200.000	-0.027	-0.139
-435.719	-200.000	-0.010	-0.093
-434.705	-29.610	-0.241	-0.139
-433.690	-14.126	0.119	-0.078
-432.676	134.813	0.141	-0.185
-431.661	27.751	0.121	-0.103
-430.646	-58.048	-0.259	-0.114
-429.632	89.624	0.214	0.241
-428.617	-36.755	-0.144	-0.078
-427.603	314.057	0.098	0.186
-426.588	-200.000	-0.005	-0.080
-425.573	-200.000	-0.019	-0.118
-424.559	17.522	0.174	0.139
-423.544	-14.420	-0.086	0.056
-422.530	-171.711	0.090	0.003
-421.515	18.496	0.190	0.153
-420.500	396.056	0.143	0.302
-419.486	-40.871	0.150	-0.078
-418.471	-80.567	0.136	-0.046
-417.457	-24.011	0.094	-0.057
-416.442	-86.565	-0.291	0.090
-415.428	-46.598	-0.222	-0.110
-414.413	-145.547	0.107	0.010
-413.398	-200.000	0.026	-0.229
-412.384	581.185	0.133	0.330
-411.369	1.535	0.170	-0.123
-410.355	-125.202	0.200	0.031
-409.340	367.006	-0.007	0.015
-408.325	204.704	0.153	-0.240
-407.311	61.655	-0.139	-0.139
-406.296	21.330	-0.188	0.154
-405.282	-174.844	-0.305	0.009
-404.267	160.206	0.277	-0.390
-403.252	-200.000	0.000	0.208
-402.238	-200.000	0.029	0.217
-401.223	-110.924	-0.258	-0.054
-400.209	-200.000	-0.009	0.178
-399.194	-155.690	0.054	-0.004
-398.179	50.683	0.168	0.160
-397.165	164.152	0.054	0.077
-396.150	67.177	0.074	0.076
-395.136	-100.472	0.161	-0.040
-394.121	198.076	0.168	-0.259
-393.106	800.000	-0.012	0.038
-392.092	203.423	0.084	0.131
-391.077	-136.778	0.166	0.019
-390.063	-166.298	-0.320	-0.014
-389.048	-3.473	0.088	-0.062
-388.033	-50.515	-0.122	0.058
-387.019	-97.278	0.295	0.077
-386.004	-133.862	-0.281	0.035
-384.990	555.724	0.113	-0.273
-383.975	99.094	0.133	0.155
-382.960	-200.000	0.029	-0.183
-381.946	392.978	-0.104	-0.218
-380.931	-74.801	-0.330	-0.120
-379.917	-200.000	-0.002	0.131
-378.902	-130.230	0.083	-0.011
-377.888	-124.696	-0.095	-0.015
-376.873	505.889	0.072	-0.169
-375.858	-200.000	-0.008	0.107
-374.844	57.504	-0.085	-0.083
-373.829	-113.140	0.213	0.042
-372.815	-1.059	-0.115	0.082
-371.800	-200.000	0.009	-0.368
-370.785	-200.000	-0.031	0.140
-369.771	-65.142	0.376	0.153
-368.756	-12.994	-0.200	0.131
-367.742	392.740	-0.069	0.146
-366.727	617.844	-0.077	0.195
-365.712	229.936	-0.095	0.156
-364.698	-45.538	0.337	0.168
-363.683	800.000	0.033	-0.096
-362.669	540.481	0.108	0.260
-361.654	117.717	0.100	0.124
-360.639	52.134	-0.279	-0.268
-359.625	-100.684	0.092	-0.023
-358.610	-91.560	0.193	-0.055
-357.596	25.992	-0.062	0.052
-356.581	-86.733	0.243	-0.075
-355.566	610.384	0.133	0.335
-354.552	24.387	-0.097	0.080
-353.537	107.320	-0.171	0.205
-352.523	-44.743	-0.096	0.048
-351.508	-200.000	0.001	-0.026
-350.493	-72.316	-0.170	-0.064
-349.479	40.098	-0.229	-0.207
-348.464	-35.955	0.167	-0.091
-347.450	507.645	-0.060	-0.139
-346.435	800.000	-0.010	0.031
-345.420	14.255	0.200	-0.157
-344.406	268.103	0.082	0.145
-343.391	71.390	-0.315	-0.329
-342.377	-200.000	-0.040	0.434
-341.362	179.714	-0.106	0.156
-340.348	-39.386	-0.259	-0.137
-339.333	330.213	0.076	0.147
-338.318	-60.453	0.210	-0.090
-337.304	-123.353	0.132	-0.021
-336.289	-83.941	-0.073	0.023
-335.275	473.701	0.118	-0.267
-334.260	-200.000	0.007	-0.062
-333.245	-64.685	0.060	-0.024
-332.231	-37.330	0.357	0.192
-331.216	-60.901	0.222	0.095
-330.202	800.000	0.192	-0.549
-329.187	-57.853	-0.437	0.192
-328.172	-134.603	0.358	0.044
-327.158	-122.800	0.143	0.023
-326.143	641.071	-0.078	-0.199
-325.129	-200.000	-0.054	0.331
-324.114	-200.000	0.039	0.364
-323.099	800.000	0.129	0.543
-322.085	-200.000	-0.040	0.213
-321.070	-200.000	0.043	-0.313
-320.056	131.850	-0.056	-0.073
-319.041	-126.413	0.069	-0.010
-318.026	-0.738	-0.232	0.165
-317.012	453.515	-0.049	0.109
-315.997	-58.367	0.208	0.091
-314.983	20.688	0.356	0.290
-313.968	256.400	-0.043	-0.074
-312.953	-200.000	-0.018	0.159
-311.939	-26.652	-0.076	0.045
-310.924	-108.832	-0.203	-0.044
-309.910	35.706	0.115	-0.102
-308.895	423.854	-0.086	0.186
-307.880	167.999	0.032	-0.046
-306.866	119.706	-0.077	0.096
-305.851	-58.593	0.302	0.132
-304.837	390.084	-0.071	-0.148
-303.822	-112.236	-0.095	0.019
-302.807	800.000	0.060	-0.202
-301.793	-51.946	-0.111	-0.052
-300.778	70.117	0.099	0.103
-299.764	-33.722	0.222	-0.123
-298.749	800.000	-0.069	-0.208
-297.735	-125.289	0.096	0.015
-296.720	-98.522	0.139	0.036
-295.705	144.782	0.198	0.266
-294.691	-200.000	-0.034	-0.307
-293.676	-200.000	-0.003	-0.136
-292.662	-200.000	-0.056	0.357
-291.647	-179.807	0.181	0.004
-290.632	8.277	0.055	-0.042
-289.618	-200.000	-0.071	-0.437
-288.603	-200.000	-0.022	0.124
-287.589	800.000	-0.065	0.240
-286.574	-26.142	-0.110	0.065
-285.559	-45.064	-0.227	0.113
-284.545	-200.000	0.038	0.237
-283.530	-200.000	-0.019	0.087
-282.516	72.858	-0.154	-0.161
-281.501	-72.674	0.134	0.050
-280.486	12.286	-0.062	-0.048
-279.472	-200.000	-0.080	0.404
-278.457	-99.304	0.411	-0.104
-277.443	-86.329	0.048	-0.015
-276.428	-58.195	-0.196	-0.086
-275.413	235.746	-0.156	-0.258
-274.399	158.831	0.121	0.169
-273.384	-23.761	0.186	-0.112
-272.370	-125.393	-0.173	0.026
-271.355	-16.200	0.059	0.038
-270.340	800.000	0.094	0.393
-269.326	-67.391	0.310	0.122
-268.311	-200.000	-0.011	-0.190
-267.297	150.534	0.052	-0.071
-266.282	-104.599	-0.236	0.055
-265.267	-44.420	-0.092	-0.046
-264.253	148.650	-0.256	0.347
-263.238	-200.000	-0.026	0.392
-262.224	-36.849	-0.328	-0.177
-261.209	101.561	-0.294	-0.344
-260.195	2.580	0.184	-0.134
-259.180	-51.871	-0.072	-0.033
-258.165	-140.060	0.547	-0.058
-257.151	545.205	-0.088	0.210
-256.136	-33.040	-0.320	0.178
-255.122	-21.383	0.296	0.181
-254.107	-76.309	0.095	-0.033
-253.092	-85.828	-0.367	-0.114
-252.078	-126.146	-0.100	-0.015
-251.063	-70.885	0.359	-0.136
-250.049	50.225	-0.170	0.161
-249.034	561.015	-0.157	0.382
-248.019	96.777	0.109	0.125
-247.005	93.436	0.055	-0.062
-245.990	345.528	0.150	0.296
-244.976	126.842	-0.174	0.221
-243.961	-18.176	-0.082	-0.052
-242.946	55.619	-0.222	-0.215
-241.932	-103.490	0.310	0.073
-240.917	-200.000	0.013	-0.110
-239.903	-158.268	-0.088	-0.005
-238.888	-200.000	-0.016	-0.140
-237.873	81.543	0.130	-0.141
-236.859	11.903	-0.191	-0.147
-235.844	493.315	0.049	0.113
-234.830	-40.123	0.144	-0.075
-233.815	191.163	-0.045	-0.067
-232.800	-47.337	-0.287	0.140
-231.786	-100.047	0.278	-0.069
-230.771	-154.244	0.251	-0.017
-229.757	800.000	-0.035	-0.132
-228.742	118.429	0.230	-0.284
-227.727	162.036	-0.084	-0.118
-226.713	-6.140	-0.045	0.031
-225.698	-50.574	0.203	-0.096
-224.684	800.000	-0.029	-0.117
-223.669	-50.864	-0.097	0.046
-222.655	-155.821	0.159	-0.010
-221.640	800.000	-0.043	-0.124
-220.625	-200.000	0.029	0.212
-219.611	-28.102	0.326	0.189
-218.596	53.390	-0.113	0.108
-217.582	212.982	0.207	-0.328
-216.567	-167.144	-0.173	0.007
-215.552	-200.000	-0.030	0.221
-214.538	254.171	0.012	0.021
-213.523	-71.209	-0.264	-0.099
-212.509	-55.017	0.135	-0.061
-211.494	245.947	0.138	-0.232
-210.479	-200.000	-0.037	0.351
-209.465	-38.557	-0.135	-0.072
-208.450	476.616	0.047	-0.106
-207.436	60.975	0.406	0.403
-206.421	173.872	-0.008	0.012
-205.406	-78.596	-0.159	-0.054
-204.392	-153.599	-0.023	-0.002
-203.377	300.960	0.114	0.211
-202.363	19.903	0.052	-0.042
-201.348	-200.000	0.019	0.215
-200.333	-200.000	-0.004	0.084
-199.319	-72.395	0.037	0.014
-198.304	148.573	-0.134	0.181
-197.290	-61.474	-0.309	-0.130
-196.275	-200.000	0.070	-0.370
-195.260	-9.538	-0.286	-0.191
-194.246	-47.737	-0.383	0.186
-193.231	287.239	-0.226	-0.409
-192.217	-200.000	0.073	-0.372
-191.202	800.000	-0.052	-0.224
-190.187	129.421	-0.194	0.248
-189.173	-200.000	0.190	0.001
-188.158	107.440	-0.075	0.089
-187.144	617.802	0.119	0.299
-186.129	448.979	-0.046	-0.101
-185.114	450.271	0.040	0.089
-184.100	24.765	0.238	-0.197
-183.085	800.000	0.063	-0.224
-182.071	-53.687	0.361	0.165
-181.056	143.852	0.234	0.313
-180.042	-43.039	-0.272	-0.138
-179.027	-44.909	-0.073	-0.036
-178.012	-160.364	-0.073	-0.004
-176.998	-104.861	-0.164	0.038
-175.983	36.474	0.260	0.229
-174.969	-48.094	-0.225	0.109
-173.954	-3.181	0.258	0.180
-172.939	755.708	-0.053	-0.143
-171.925	476.419	0.051	0.116
-170.910	794.429	0.132	-0.362
-169.896	-8.989	-0.303	0.203
-168.881	433.603	-0.046	0.100
-167.866	-93.649	-0.296	0.082
-166.852	-51.714	0.191	0.089
-165.837	255.824	-0.225	0.385
-164.823	-200.000	0.025	0.144
-163.808	-88.118	0.150	-0.045
-162.793	42.365	0.196	-0.178
-161.779	8.573	-0.139	-0.105
-160.764	-57.630	-0.431	-0.189
-159.750	-200.000	-0.047	-0.248
-158.735	673.866	0.027	0.070
-157.720	29.846	0.198	-0.169
-156.706	-137.579	-0.175	0.020
-155.691	-114.009	0.135	-0.026
-154.677	-1.374	0.211	-0.149
-153.662	-24.007	-0.080	-0.048
-152.647	-96.238	-0.400	0.106
-151.633	63.655	0.207	-0.208
-150.618	134.069	-0.056	-0.073
-149.604	-9.130	-0.149	-0.100
-148.589	16.426	-0.226	0.179
-147.574	-87.203	-0.358	0.109
-146.560	-32.112	0.182	0.102
-145.545	-200.000	-0.003	0.060
-144.531	-68.798	-0.258	0.100
-143.516	127.589	-0.086	0.109
-142.502	3.762	0.265	0.193
-141.487	-12.356	0.164	-0.107
-140.472	15.100	-0.247	-0.193
-139.458	-28.663	0.220	-0.126
-138.443	-149.309	-0.125	0.010
-137.429	-31.306	0.393	0.221
-136.414	-125.054	-0.159	0.024
-135.399	-61.235	0.379	-0.160
-134.385	31.511	0.116	-0.100
-133.370	157.610	0.240	0.331
-132.356	-85.887	0.257	-0.079
-131.341	-48.146	0.017	0.008
-130.326	122.886	-0.078	-0.097
-129.312	-42.954	-0.038	0.019
-128.297	36.496	0.378	0.333
-127.283	-74.227	0.191	0.069
-126.268	-118.996	-0.080	-0.014
-125.253	35.136	-0.175	-0.153
-124.239	-94.922	-0.193	-0.052
-123.224	-28.959	-0.073	0.042
-122.210	6.201	-0.155	0.115
-121.195	-200.000	-0.080	0.364
