DTS Sentinel unit serial number:	SN413079Multiplexer serial number:	ORYXHardware model number:	OX4-SRSoftware version number:	ORYX F/W v4.00 Oryx Data Collector v3.7.2.0data status	okinstallation	princeton_trtdifferential loss correction	single-endedforward channel	channel 1reverse channel	N/Adate	2019/09/14time	08:18:35forward acquisition time	60.00reverse acquisition time	0.00gamma	496.2192k internal	0.2329k external	0.2329temperature offset calibration	1.0072default loss term (dB/km)	0.3790temperature slope calibration	1.0000multiplexer offset coefficient	1.0000multiplexer slope coefficient	1.0000fibre end	0.00T internal ref (°C)	27.84T ext. ref 1 (°C)	3.59T ext. ref 2 (°C)	26.12length (m)	temperature (°C)	Stokes	anti-Stokes-747.200	-200.000	0.042	-0.287
-746.185	444.014	-0.084	0.186
-745.171	26.793	0.090	0.076
-744.156	800.000	-0.046	-0.190
-743.142	-9.320	0.239	0.161
-742.127	-71.437	-0.091	0.034
-741.112	105.494	-0.029	-0.035
-740.098	-24.670	-0.401	-0.240
-739.083	367.327	0.004	-0.008
-738.069	-200.000	-0.021	-0.115
-737.054	752.537	-0.058	-0.159
-736.039	-18.242	-0.189	-0.119
-735.025	315.244	0.067	0.126
-734.010	-200.000	-0.008	-0.047
-732.996	-200.000	-0.113	-0.518
-731.981	46.498	0.133	-0.124
-730.966	-160.983	-0.200	0.011
-729.952	-76.976	0.309	0.109
-728.937	572.157	0.009	-0.022
-727.923	-21.918	0.243	0.149
-726.908	150.386	-0.119	-0.162
-725.894	42.834	-0.254	-0.233
-724.879	-159.196	-0.178	-0.010
-723.864	202.765	-0.049	0.076
-722.850	-124.053	0.127	-0.020
-721.835	-46.413	0.060	-0.029
-720.821	-200.000	-0.011	-0.080
-719.806	-172.405	-0.309	-0.010
-718.791	44.622	-0.124	0.114
-717.777	-0.119	0.295	-0.211
-716.762	-24.568	0.099	-0.059
-715.748	-200.000	0.186	0.001
-714.733	210.897	0.149	-0.235
-713.718	-81.270	0.374	0.124
-712.704	123.126	-0.092	-0.116
-711.689	-200.000	-0.025	-0.194
-710.675	-200.000	-0.067	-0.367
-709.660	800.000	0.055	-0.227
-708.645	-200.000	-0.006	-0.368
-707.631	-200.000	0.004	-0.117
-706.616	-91.096	0.136	0.039
-705.602	578.283	-0.128	-0.314
-704.587	-29.537	0.211	0.121
-703.572	-112.256	0.139	-0.028
-702.558	718.613	-0.017	-0.045
-701.543	70.078	0.172	0.178
-700.529	72.004	-0.135	-0.142
-699.514	-200.000	-0.015	-0.218
-698.499	800.000	-0.059	-0.202
-697.485	-200.000	0.022	0.140
-696.470	800.000	0.038	-0.162
-695.456	800.000	-0.029	-0.087
-694.441	-81.814	0.126	-0.041
-693.426	-118.967	0.202	-0.036
-692.412	-142.694	0.178	-0.017
-691.397	510.142	-0.032	-0.076
-690.383	-200.000	-0.006	0.189
-689.368	-148.220	-0.141	0.012
-688.354	-200.000	0.001	0.076
-687.339	294.505	0.115	-0.211
-686.324	49.434	0.251	-0.237
-685.310	37.349	-0.206	-0.184
-684.295	224.984	0.058	-0.095
-683.281	-200.000	-0.005	0.041
-682.266	-200.000	0.048	0.218
-681.251	-34.805	-0.174	-0.095
-680.237	591.231	0.111	-0.276
-679.222	800.000	-0.078	0.249
-678.208	4.317	0.162	0.119
-677.193	10.963	-0.183	-0.141
-676.178	-200.000	-0.014	0.064
-675.164	-73.620	-0.223	-0.081
-674.149	-118.563	-0.246	0.044
-673.135	800.000	-0.051	-0.163
-672.120	800.000	0.011	-0.039
-671.105	-200.000	0.043	0.217
-670.091	-200.000	-0.022	-0.192
-669.076	59.109	-0.240	0.237
-668.062	50.302	-0.229	-0.217
-667.047	84.713	-0.206	-0.226
-666.032	-108.268	0.158	-0.034
-665.018	-91.036	-0.215	0.062
-664.003	-25.911	0.253	-0.150
-662.989	29.035	-0.076	0.065
-661.974	-38.407	0.192	0.102
-660.959	81.935	0.161	-0.175
-659.945	-12.413	0.111	0.073
-658.930	-44.374	0.255	0.128
-657.916	-166.762	0.130	0.005
-656.901	-101.495	-0.177	-0.043
-655.886	-200.000	0.031	-0.204
-654.872	800.000	-0.088	-0.283
-653.857	-48.699	0.136	0.066
-652.843	-23.911	0.138	0.083
-651.828	-27.478	0.111	0.065
-650.814	571.587	-0.029	0.071
-649.799	-200.000	-0.045	-0.278
-648.784	800.000	-0.031	-0.085
-647.770	191.677	0.139	-0.210
-646.755	-200.000	-0.086	-0.393
-645.741	463.769	-0.043	-0.097
-644.726	-24.468	-0.073	0.044
-643.711	-139.705	0.344	0.037
-642.697	800.000	-0.066	-0.260
-641.682	-69.824	-0.330	-0.126
-640.668	800.000	0.027	-0.110
-639.653	-200.000	-0.052	-0.315
-638.638	-161.937	0.444	-0.022
-637.624	89.416	-0.179	0.200
-636.609	-76.471	0.183	0.064
-635.595	-23.598	-0.230	-0.138
-634.580	-33.042	0.205	-0.114
-633.565	800.000	-0.068	-0.294
-632.551	-200.000	-0.069	0.316
-631.536	800.000	0.010	-0.042
-630.522	-31.262	-0.190	0.107
-629.507	-200.000	-0.014	0.063
-628.492	-138.412	-0.185	0.020
-627.478	-133.716	0.129	0.016
-626.463	330.019	-0.106	-0.205
-625.449	-124.218	0.316	-0.050
-624.434	291.153	0.115	-0.209
-623.419	-128.743	0.153	0.022
-622.405	-84.437	0.150	-0.047
-621.390	213.566	-0.148	-0.235
-620.376	-109.642	0.605	0.128
-619.361	-103.365	-0.377	-0.089
-618.346	618.389	0.034	-0.086
-617.332	94.054	0.087	-0.099
-616.317	-62.265	-0.282	-0.118
-615.303	-14.571	0.134	0.086
-614.288	800.000	-0.037	-0.104
-613.273	-200.000	0.003	0.177
-612.259	800.000	0.040	0.132
-611.244	76.965	0.272	-0.289
-610.230	-200.000	0.056	-0.352
-609.215	-16.910	0.114	-0.072
-608.201	718.835	-0.039	-0.105
-607.186	220.519	0.118	-0.189
-606.171	-87.838	-0.403	-0.122
-605.157	-101.290	-0.217	-0.053
-604.142	129.630	0.052	-0.067
-603.128	4.607	-0.027	0.020
-602.113	74.004	-0.166	-0.175
-601.098	-169.202	0.189	0.007
-600.084	285.420	0.127	0.229
-599.069	-81.331	0.107	0.035
-598.055	800.000	-0.066	-0.284
-597.040	-98.270	-0.076	0.020
-596.025	-57.519	0.274	-0.120
-595.011	-71.460	0.018	0.007
-593.996	77.967	0.138	-0.147
-592.982	-124.825	0.212	0.033
-591.967	-200.000	0.001	0.118
-590.952	-117.068	0.359	-0.066
-589.938	-200.000	0.034	0.167
-588.923	-95.715	0.350	0.094
-587.909	76.542	0.068	-0.072
-586.894	-200.000	-0.011	-0.406
-585.879	-200.000	0.012	-0.126
-584.865	122.906	-0.052	0.065
-583.850	-64.891	-0.066	-0.027
-582.836	363.001	0.070	-0.141
-581.821	-200.000	0.049	0.271
-580.806	243.886	0.102	0.172
-579.792	-111.255	0.272	-0.056
-578.777	29.529	0.194	-0.165
-577.763	-134.397	0.221	0.027
-576.748	423.013	0.083	-0.179
-575.733	9.391	-0.082	0.062
-574.719	-71.251	0.169	0.063
-573.704	-60.855	0.198	0.084
-572.690	239.397	-0.105	-0.175
-571.675	-131.776	-0.063	-0.008
-570.661	-148.964	0.336	0.027
-569.646	-142.333	0.496	0.049
-568.631	276.519	-0.150	-0.267
-567.617	-200.000	-0.032	-0.358
-566.602	462.735	0.092	0.205
-565.588	-110.167	0.020	0.004
-564.573	-92.482	-0.261	0.073
-563.558	-200.000	-0.003	-0.283
-562.544	301.657	0.048	0.088
-561.529	800.000	-0.120	0.380
-560.515	-54.044	0.243	0.111
-559.500	800.000	-0.007	0.021
-558.485	424.336	0.068	0.147
-557.471	-200.000	-0.005	0.029
-556.456	-200.000	0.030	0.135
-555.442	-61.572	0.324	0.136
-554.427	-34.842	-0.276	0.150
-553.412	140.061	0.233	0.307
-552.398	-88.806	-0.197	-0.058
-551.383	147.703	0.097	0.130
-550.369	121.313	-0.235	-0.293
-549.354	-200.000	-0.034	-0.284
-548.339	-121.854	-0.150	-0.025
-547.325	-79.376	-0.231	-0.078
-546.310	196.206	-0.020	-0.030
-545.296	-200.000	-0.007	-0.050
-544.281	-3.692	0.243	0.168
-543.266	-104.454	-0.225	0.052
-542.252	327.440	-0.152	-0.291
-541.237	-100.274	-0.089	-0.022
-540.223	742.995	0.121	0.326
-539.208	-18.935	0.402	0.250
-538.193	454.728	-0.078	0.172
-537.179	800.000	0.055	-0.200
-536.164	47.713	0.044	0.041
-535.150	-88.004	-0.147	0.044
-534.135	800.000	-0.063	0.207
-533.121	94.504	0.034	-0.039
-532.106	-200.000	-0.029	-0.420
-531.091	-122.975	-0.365	-0.059
-530.077	15.666	-0.194	0.153
-529.062	-35.192	-0.048	0.026
-528.048	96.080	-0.197	-0.224
-527.033	-103.039	-0.104	0.025
-526.018	-200.000	-0.010	-0.051
-525.004	77.977	0.245	0.261
-523.989	166.906	-0.272	0.386
-522.975	411.258	0.054	0.114
-521.960	-111.230	-0.245	0.050
-520.945	-27.399	0.090	0.053
-519.931	-200.000	0.003	0.280
-518.916	111.478	0.268	0.323
-517.902	309.776	0.055	-0.103
-516.887	-46.277	0.071	-0.035
-515.872	-28.924	0.189	0.108
-514.858	-200.000	-0.047	0.254
-513.843	1.032	0.279	0.200
-512.829	-119.547	-0.129	0.022
-511.814	-200.000	-0.043	0.219
-510.799	-200.000	0.040	-0.272
-509.785	-126.538	0.359	-0.053
-508.770	117.955	0.255	0.313
-507.756	295.508	-0.120	0.220
-506.741	-200.000	0.017	0.210
-505.726	104.704	-0.260	-0.306
-504.712	-200.000	0.002	-0.317
-503.697	437.898	-0.202	-0.439
-502.683	-173.046	-0.094	0.003
-501.668	-66.703	-0.089	-0.035
-500.653	-8.992	-0.060	-0.040
-499.639	-162.627	-0.299	-0.015
-498.624	353.424	-0.091	0.180
-497.610	-153.276	0.189	-0.013
-496.595	-124.184	-0.215	0.034
-495.581	62.286	-0.163	-0.163
-494.566	442.799	-0.122	0.266
-493.551	800.000	0.081	-0.260
-492.537	-110.401	-0.269	-0.056
-491.522	-26.012	0.318	-0.187
-490.508	582.619	0.108	-0.264
-489.493	-200.000	-0.020	0.092
-488.478	-87.118	-0.337	0.102
-487.464	27.499	-0.155	-0.130
-486.449	-41.079	0.101	-0.052
-485.435	219.620	-0.044	-0.070
-484.420	-135.407	0.180	0.021
-483.405	67.478	-0.193	-0.196
-482.391	800.000	0.032	-0.138
-481.376	-133.532	-0.256	0.032
-480.362	133.335	-0.277	0.357
-479.347	11.122	-0.192	-0.147
-478.332	-140.077	-0.332	0.035
-477.318	-79.708	-0.256	0.086
-476.303	86.455	0.141	-0.155
-475.289	-155.965	-0.173	-0.011
-474.274	555.810	0.077	-0.184
-473.259	-105.907	0.156	0.035
-472.245	-200.000	-0.042	0.371
-471.230	-49.258	-0.214	-0.102
-470.216	-117.425	0.074	-0.013
-469.201	-89.908	-0.172	0.050
-468.186	800.000	-0.070	0.204
-467.172	-4.200	-0.084	0.058
-466.157	213.692	0.164	-0.258
-465.143	267.754	-0.234	0.408
-464.128	-200.000	-0.045	0.352
-463.113	-200.000	-0.008	-0.320
-462.099	-200.000	-0.045	-0.249
-461.084	-98.761	-0.188	-0.048
-460.070	53.269	0.163	-0.156
-459.055	71.785	0.164	-0.170
-458.040	3.481	0.072	0.052
-457.026	-6.495	0.221	0.150
-456.011	-93.010	-0.294	-0.082
-454.997	-200.000	0.045	-0.249
-453.982	-200.000	0.008	0.068
-452.968	-95.854	0.312	0.083
-451.953	-70.628	0.093	0.035
-450.938	-96.428	-0.108	0.028
-449.924	126.943	-0.203	-0.257
-448.909	-200.000	-0.025	0.124
-447.895	-200.000	-0.005	0.098
-446.880	-200.000	-0.023	0.366
-445.865	391.780	-0.200	-0.413
-444.851	800.000	0.082	0.310
-443.836	-200.000	-0.009	0.059
-442.822	-44.305	0.375	0.187
-441.807	-8.455	0.211	-0.141
-440.792	351.054	0.059	-0.117
-439.778	-99.330	-0.159	-0.040
-438.763	-52.488	0.166	0.076
-437.749	-45.449	-0.215	0.106
-436.734	164.373	-0.177	-0.249
-435.719	-187.574	0.118	-0.002
-434.705	-54.401	-0.187	-0.084
-433.690	-136.797	0.618	-0.071
-432.676	558.013	-0.073	-0.175
-431.661	320.141	-0.126	-0.238
-430.646	-66.057	-0.099	0.039
-429.632	-160.943	0.007	-0.000
-428.617	71.779	0.134	0.138
-427.603	-69.070	-0.077	-0.029
-426.588	153.600	-0.149	0.204
-425.573	-101.288	-0.436	0.106
-424.559	-114.604	-0.206	0.039
-423.544	-200.000	0.021	0.160
-422.530	-200.000	0.033	0.342
-421.515	-200.000	0.027	-0.191
-420.500	800.000	-0.050	0.155
-419.486	-103.709	-0.305	-0.071
-418.471	800.000	0.108	-0.326
-417.457	389.986	0.123	-0.254
-416.442	-50.842	0.094	-0.044
-415.428	800.000	0.089	0.268
-414.413	-48.123	0.158	0.076
-413.398	-67.276	-0.217	-0.085
-412.384	-42.710	-0.218	0.110
-411.369	-200.000	0.031	0.515
-410.355	122.611	0.150	0.187
-409.340	-71.633	-0.294	-0.109
-408.325	-93.587	0.249	-0.068
-407.311	187.448	-0.176	0.262
-406.296	-70.739	0.113	-0.042
-405.282	552.066	-0.099	0.237
-404.267	477.001	-0.095	-0.214
-403.252	51.951	0.142	-0.134
-402.238	784.979	-0.030	-0.081
-401.223	-2.425	-0.088	0.061
-400.209	569.438	0.115	-0.278
-399.194	-107.250	0.254	0.055
-398.179	-3.575	-0.146	0.101
-397.165	800.000	-0.056	-0.160
-396.150	-2.306	-0.060	0.042
-395.136	800.000	-0.085	0.242
-394.121	-109.437	0.055	0.012
-393.106	-200.000	0.008	-0.198
-392.092	-49.496	0.103	-0.049
-391.077	800.000	0.019	0.054
-390.063	10.910	0.037	0.028
-389.048	63.741	0.212	0.212
-388.033	125.331	-0.106	0.132
-387.019	659.334	0.136	0.348
-386.004	131.543	-0.148	-0.188
-384.990	168.777	0.051	0.072
-383.975	-51.251	0.269	-0.125
-382.960	72.658	0.082	0.085
-381.946	6.393	0.198	-0.146
-380.931	52.562	-0.224	0.212
-379.917	800.000	0.047	-0.138
-378.902	-200.000	0.026	0.209
-377.888	800.000	0.035	0.138
-376.873	-35.393	0.134	-0.072
-375.858	-200.000	-0.001	-0.129
-374.844	39.841	-0.089	-0.079
-373.829	-140.418	0.341	-0.035
-372.815	42.154	-0.228	0.205
-371.800	-101.851	0.178	0.043
-370.785	800.000	0.098	-0.327
-369.771	450.041	-0.156	0.341
-368.756	-200.000	0.006	0.175
-367.742	66.310	-0.085	0.086
-366.727	-128.427	-0.207	-0.029
-365.712	800.000	0.113	-0.310
-364.698	-175.847	-0.025	-0.001
-363.683	800.000	0.021	-0.061
-362.669	247.617	-0.037	-0.062
-361.654	-20.760	-0.255	-0.155
-360.639	148.609	-0.089	0.119
-359.625	-86.680	0.230	-0.070
-358.610	267.739	0.115	-0.200
-357.596	-121.672	0.040	0.007
-356.581	617.903	0.145	0.362
-355.566	-133.767	-0.273	0.034
-354.552	-85.337	0.131	0.041
-353.537	-200.000	0.012	-0.338
-352.523	-200.000	0.005	-0.099
-351.508	-200.000	0.043	0.402
-350.493	90.559	-0.113	0.125
-349.479	241.251	-0.053	0.087
-348.464	-100.055	-0.177	0.044
-347.450	69.239	0.184	0.188
-346.435	800.000	-0.113	-0.411
-345.420	-200.000	-0.043	-0.292
-344.406	58.346	-0.032	-0.031
-343.391	8.901	-0.199	-0.149
-342.377	-200.000	-0.022	0.114
-341.362	69.646	-0.143	0.146
-340.348	-200.000	0.026	-0.149
-339.333	-15.348	0.052	-0.033
-338.318	800.000	-0.060	0.178
-337.304	800.000	-0.109	0.422
-336.289	111.063	-0.071	0.085
-335.275	97.116	-0.058	0.066
-334.260	-11.479	0.272	-0.178
-333.245	128.880	-0.093	0.118
-332.231	80.751	-0.022	0.023
-331.216	800.000	0.064	0.194
-330.202	59.907	-0.146	-0.143
-329.187	-83.947	0.132	-0.042
-328.172	-200.000	-0.028	-0.251
-327.158	149.075	0.089	0.120
-326.143	-88.080	0.088	-0.026
-325.129	800.000	-0.094	-0.271
-324.114	-200.000	0.029	0.246
-323.099	641.433	0.099	0.251
-322.085	-59.564	0.288	-0.122
-321.070	-64.525	0.364	-0.147
-320.056	-200.000	0.022	0.258
-319.041	-43.197	0.231	-0.116
-318.026	-51.282	0.197	0.092
-317.012	355.861	0.046	0.090
-315.997	-23.252	-0.169	0.100
-314.983	800.000	0.100	0.328
-313.968	440.143	0.044	-0.094
-312.953	658.805	-0.015	0.038
-311.939	-174.251	0.370	0.011
-310.924	611.935	-0.024	0.059
-309.910	-148.635	0.303	0.024
-308.895	-118.426	0.017	-0.003
-307.880	-200.000	0.025	-0.297
-306.866	-200.000	-0.021	-0.412
-305.851	171.192	-0.172	-0.245
-304.837	-200.000	-0.027	-0.168
-303.822	111.868	0.188	0.224
-302.807	577.213	-0.030	0.073
-301.793	-171.465	-0.119	0.004
-300.778	-200.000	0.048	0.340
-299.764	-200.000	-0.027	-0.147
-298.749	532.110	-0.033	0.077
-297.735	455.312	0.095	-0.208
-296.720	-110.912	0.113	0.023
-295.705	2.526	0.061	-0.044
-294.691	129.020	0.111	-0.140
-293.676	-20.659	-0.111	-0.067
-292.662	33.163	-0.305	0.262
-291.647	-200.000	-0.018	0.151
-290.632	44.855	0.054	0.049
-289.618	202.011	-0.178	0.271
-288.603	116.645	0.146	-0.177
-287.589	450.917	-0.180	-0.393
-286.574	-103.488	-0.349	-0.081
-285.559	-200.000	0.086	-0.434
-284.545	-47.055	-0.152	0.073
-283.530	11.481	-0.238	-0.180
-282.516	-44.859	-0.259	0.128
-281.501	-200.000	-0.033	0.388
-280.486	-7.596	0.307	0.205
-279.472	207.200	-0.153	0.237
-278.457	125.117	0.136	-0.170
-277.443	448.931	-0.030	0.066
-276.428	-3.483	0.118	-0.081
-275.413	800.000	0.088	-0.324
-274.399	-200.000	0.003	-0.124
-273.384	-200.000	0.011	-0.095
-272.370	-42.333	0.172	-0.087
-271.355	266.392	-0.167	-0.288
-270.340	800.000	-0.097	0.372
-269.326	-136.264	0.137	0.016
-268.311	99.482	-0.049	0.056
-267.297	800.000	0.031	-0.124
-266.282	19.376	-0.191	0.152
-265.267	21.954	-0.205	-0.165
-264.253	-19.326	-0.141	0.086
-263.238	800.000	0.112	-0.331
-262.224	58.254	0.075	-0.073
-261.209	32.578	-0.272	0.233
-260.195	-200.000	0.022	-0.294
-259.180	-43.986	0.265	0.132
-258.165	-58.708	0.329	-0.141
-257.151	657.554	0.157	0.399
-256.136	800.000	-0.039	0.113
-255.122	7.712	-0.133	-0.098
-254.107	800.000	-0.064	-0.237
-253.092	-89.199	-0.074	-0.021
-252.078	-7.431	-0.231	0.155
-251.063	-200.000	-0.010	0.048
-250.049	-156.579	-0.139	0.009
-249.034	-6.316	0.129	0.087
-248.019	344.809	0.088	-0.171
-247.005	-32.773	0.172	0.095
-245.990	-194.766	0.091	-0.001
-244.976	-200.000	-0.034	0.246
-243.961	800.000	0.082	0.340
-242.946	-89.076	0.208	0.061
-241.932	459.329	0.149	-0.328
-240.917	-140.096	-0.427	-0.044
-239.903	92.247	0.106	0.118
-238.888	-200.000	0.010	-0.160
-237.873	-200.000	-0.031	-0.152
-236.859	182.657	-0.110	-0.160
-235.844	800.000	0.069	-0.293
-234.830	-10.725	-0.121	-0.079
-233.815	156.984	-0.063	-0.086
-232.800	34.970	0.174	-0.151
-231.786	-92.688	-0.642	0.178
-230.771	-200.000	0.041	0.240
-229.757	-200.000	-0.031	0.191
-228.742	800.000	-0.104	0.328
-227.727	-132.089	-0.227	0.029
-226.713	133.219	-0.134	0.171
-225.698	26.081	0.117	0.097
-224.684	86.746	-0.205	-0.223
-223.669	3.700	0.210	0.152
-222.655	162.573	-0.211	0.291
-221.640	800.000	0.047	0.169
-220.625	-72.208	0.217	-0.079
-219.611	350.300	-0.030	0.058
-218.596	-86.463	-0.132	0.040
-217.582	-137.768	-0.304	0.034
-216.567	687.169	0.080	-0.207
-215.552	96.481	0.214	0.241
-214.538	80.957	-0.157	0.167
-213.523	-200.000	0.076	0.397
-212.509	198.197	0.116	-0.174
-211.494	138.484	-0.107	0.139
-210.479	88.975	-0.141	0.155
-209.465	48.445	-0.135	0.125
-208.450	-100.722	0.047	-0.011
-207.436	-104.916	0.059	0.013
-206.421	800.000	-0.068	0.189
-205.406	-142.562	0.071	0.007
-204.392	179.819	-0.012	-0.018
-203.377	14.298	-0.205	-0.158
-202.363	118.730	0.122	-0.148
-201.348	264.326	-0.084	0.144
-200.333	55.245	-0.185	0.176
-199.319	-200.000	0.010	0.063
-198.304	-17.173	0.280	-0.174
-197.290	-23.646	0.325	0.192
-196.275	-144.643	0.096	-0.009
-195.260	-58.220	0.170	-0.073
-194.246	-116.861	0.186	-0.034
-193.231	160.927	-0.106	-0.147
-192.217	800.000	0.009	0.028
-191.202	-175.585	-0.174	0.005
-190.187	30.372	-0.119	0.100
-189.173	84.288	0.157	0.169
-188.158	77.292	-0.251	-0.263
-187.144	800.000	0.127	-0.386
-186.129	-200.000	0.049	-0.363
-185.114	-178.426	-0.478	-0.011
-184.100	-56.609	-0.274	-0.120
-183.085	-200.000	-0.059	-0.260
-182.071	-200.000	-0.039	0.217
-181.056	-29.984	-0.229	0.128
-180.042	-95.032	-0.289	-0.077
-179.027	144.811	-0.130	-0.171
-178.012	179.873	0.205	0.296
-176.998	800.000	-0.078	0.288
-175.983	792.842	0.040	-0.107
-174.969	800.000	-0.178	-0.527
-173.954	-200.000	-0.009	0.041
-172.939	-1.779	0.174	0.121
-171.925	270.965	0.060	-0.104
-170.910	469.207	-0.147	0.324
-169.896	-200.000	0.001	-0.010
-168.881	800.000	0.040	0.160
-167.866	-83.587	-0.091	0.029
-166.852	87.892	0.147	0.161
-165.837	-84.414	-0.103	0.032
-164.823	132.268	0.244	0.309
-163.808	-200.000	0.008	-0.088
-162.793	-105.453	0.238	0.053
-161.779	-165.468	0.302	0.013
-160.764	551.528	-0.126	0.299
-159.750	53.144	-0.065	0.061
-158.735	721.007	0.055	-0.143
-157.720	800.000	-0.063	0.241
-156.706	-30.109	-0.248	-0.139
-155.691	-200.000	0.018	0.194
-154.677	-119.987	0.262	-0.044
-153.662	-174.011	0.301	-0.009
-152.647	115.045	0.139	-0.167
-151.633	-39.934	0.166	-0.085
-150.618	536.899	0.112	-0.263
-149.604	800.000	-0.147	0.448
-148.589	159.997	0.282	0.387
-147.574	800.000	-0.033	0.101
-146.560	149.361	0.384	0.512
-145.545	-104.174	-0.076	-0.017
-144.531	-55.497	0.222	-0.098
-143.516	-155.402	0.085	-0.005
-142.502	223.589	0.074	0.118
-141.487	-200.000	-0.007	0.058
-140.472	-102.106	0.112	0.026
-139.458	800.000	0.069	-0.284
-138.443	11.635	0.093	-0.070
-137.429	800.000	-0.019	-0.068
-136.414	-200.000	-0.010	-0.481
-135.399	74.702	-0.269	0.278
-134.385	34.593	-0.351	0.301
-133.370	-131.484	0.083	-0.011
-132.356	800.000	-0.019	-0.080
-131.341	169.935	0.090	-0.126
-130.326	-200.000	0.047	-0.261
-129.312	174.150	0.059	0.084
-128.297	12.340	-0.138	0.105
-127.283	778.370	0.073	0.196
-126.268	-200.000	-0.040	-0.258
-125.253	-157.876	-0.108	-0.006
-124.239	-200.000	0.001	0.034
-123.224	-56.517	0.353	0.154
-122.210	349.895	-0.067	0.129
