DTS Sentinel unit serial number:	SN413079Multiplexer serial number:	ORYXHardware model number:	OX4-SRSoftware version number:	ORYX F/W v4.00 Oryx Data Collector v3.7.2.0data status	okinstallation	princeton_trtdifferential loss correction	single-endedforward channel	channel 1reverse channel	N/Adate	2019/09/15time	09:34:35forward acquisition time	60.00reverse acquisition time	0.00gamma	496.2192k internal	0.2310k external	0.2310temperature offset calibration	0.9983default loss term (dB/km)	0.3790temperature slope calibration	1.0000multiplexer offset coefficient	1.0000multiplexer slope coefficient	1.0000fibre end	0.00T internal ref (°C)	33.81T ext. ref 1 (°C)	4.92T ext. ref 2 (°C)	29.87length (m)	temperature (°C)	Stokes	anti-Stokes-747.200	-22.580	-0.074	0.046
-746.185	597.139	0.125	0.315
-745.171	-89.286	-0.102	-0.030
-744.156	-200.000	0.013	-0.101
-743.142	-13.959	0.172	-0.113
-742.127	-20.954	-0.281	-0.175
-741.112	-114.328	-0.272	-0.053
-740.098	-32.964	-0.240	0.135
-739.083	-200.000	-0.026	-0.288
-738.069	69.038	-0.316	0.330
-737.054	368.876	0.074	0.152
-736.039	157.981	-0.273	-0.384
-735.025	-27.304	0.074	0.044
-734.010	-47.120	0.190	-0.094
-732.996	-145.855	-0.206	0.019
-731.981	-67.844	-0.218	0.087
-730.966	40.755	-0.174	-0.159
-729.952	82.240	0.081	-0.089
-728.937	800.000	0.059	-0.204
-727.923	-4.220	-0.195	-0.137
-726.908	800.000	-0.012	-0.045
-725.894	-200.000	0.031	-0.215
-724.879	-47.932	-0.149	-0.073
-723.864	800.000	-0.080	-0.309
-722.850	113.198	0.212	-0.261
-721.835	21.466	-0.164	-0.136
-720.821	166.708	-0.233	-0.335
-719.806	168.476	0.211	-0.305
-718.791	337.481	0.148	-0.293
-717.777	-109.661	-0.516	0.110
-716.762	180.139	0.129	0.191
-715.748	108.261	-0.073	-0.088
-714.733	-57.243	-0.280	-0.125
-713.718	-99.900	0.051	-0.013
-712.704	67.380	0.244	0.252
-711.689	800.000	0.099	0.310
-710.675	-5.593	-0.241	0.168
-709.660	14.008	-0.119	-0.094
-708.645	518.949	0.163	-0.386
-707.631	-105.881	-0.188	0.043
-706.616	231.426	0.062	0.103
-705.602	-23.057	0.076	-0.046
-704.587	-119.001	-0.223	-0.040
-703.572	-38.208	-0.278	-0.149
-702.558	-200.000	0.017	-0.077
-701.543	-152.060	-0.164	0.012
-700.529	800.000	0.017	0.065
-699.514	266.666	-0.071	0.126
-698.499	-37.350	0.179	-0.097
-697.485	-41.418	0.145	-0.075
-696.470	-42.865	-0.100	-0.051
-695.456	-0.584	-0.033	0.024
-694.441	290.647	-0.140	0.258
-693.426	358.469	0.074	-0.151
-692.412	121.703	0.186	-0.235
-691.397	800.000	0.041	-0.178
-690.383	-200.000	-0.019	0.356
-689.368	13.695	0.176	-0.139
-688.354	-106.185	-0.408	0.093
-687.339	-93.384	0.291	-0.082
-686.324	800.000	0.063	0.212
-685.310	-200.000	-0.029	0.215
-684.295	-30.196	-0.031	0.018
-683.281	-118.385	-0.136	0.024
-682.266	417.668	-0.120	-0.259
-681.251	-95.314	0.074	0.020
-680.237	177.385	-0.132	-0.195
-679.222	-200.000	-0.028	0.174
-678.208	-13.882	-0.105	0.069
-677.193	-71.123	0.342	0.130
-676.178	-81.558	0.257	0.085
-675.164	16.743	-0.255	-0.205
-674.149	-200.000	-0.009	-0.583
-673.135	-141.396	0.153	-0.016
-672.120	800.000	-0.059	0.247
-671.105	112.913	-0.024	0.029
-670.091	-21.532	-0.221	-0.137
-669.076	48.066	0.125	-0.119
-668.062	304.773	0.059	-0.111
-667.047	-200.000	0.048	-0.314
-666.032	93.188	0.131	-0.150
-665.018	-131.658	0.098	-0.013
-664.003	-131.890	-0.490	0.065
-662.989	48.097	0.142	0.135
-661.974	-123.704	-0.249	-0.040
-660.959	84.957	-0.165	0.183
-659.945	34.870	-0.089	0.079
-658.930	-200.000	0.010	-0.190
-657.916	99.093	-0.203	-0.237
-656.901	-200.000	-0.003	0.080
-655.886	-28.970	-0.257	-0.149
-654.872	-200.000	0.001	0.042
-653.857	-113.978	-0.180	0.035
-652.843	-90.594	-0.084	0.025
-651.828	35.056	0.163	0.144
-650.814	-72.792	0.239	-0.089
-649.799	24.202	0.215	-0.180
-648.784	526.154	0.074	-0.176
-647.770	-14.789	-0.209	0.136
-646.755	-97.063	-0.258	-0.068
-645.741	-100.769	0.158	-0.039
-644.726	-200.000	0.040	0.195
-643.711	-58.893	-0.175	0.077
-642.697	41.198	-0.197	-0.180
-641.682	357.621	0.118	-0.238
-640.668	-10.060	-0.132	-0.089
-639.653	-77.829	0.322	0.113
-638.638	-200.000	0.001	-0.128
-637.624	800.000	-0.036	0.156
-636.609	122.403	0.132	-0.166
-635.595	-101.517	0.125	-0.031
-634.580	-200.000	0.015	0.180
-633.565	-72.589	-0.362	-0.135
-632.551	-177.535	-0.478	0.012
-631.536	-200.000	-0.013	-0.125
-630.522	34.825	0.154	-0.136
-629.507	-52.818	-0.368	0.171
-628.492	-36.572	0.258	0.140
-627.478	-68.289	0.270	-0.106
-626.463	-200.000	-0.016	0.198
-625.449	-200.000	0.034	-0.218
-624.434	66.938	-0.274	0.282
-623.419	11.585	0.166	0.129
-622.405	-80.344	0.127	-0.043
-621.390	-68.538	-0.209	0.082
-620.376	-57.303	0.204	-0.091
-619.361	800.000	-0.125	-0.505
-618.346	669.697	0.104	-0.273
-617.332	-200.000	0.025	-0.159
-616.317	-200.000	0.006	-0.209
-615.303	124.356	-0.008	0.011
-614.288	-191.168	-0.105	0.001
-613.273	-106.342	-0.218	-0.049
-612.259	-2.782	-0.193	-0.136
-611.244	56.378	-0.227	0.223
-610.230	-115.350	0.194	0.037
-609.215	-82.998	0.129	0.042
-608.201	800.000	0.112	-0.320
-607.186	1.351	0.106	-0.077
-606.171	800.000	0.022	0.084
-605.157	-123.494	-0.359	0.058
-604.142	51.160	-0.475	0.455
-603.128	265.171	-0.092	-0.162
-602.113	7.655	-0.126	-0.095
-601.098	733.005	0.107	0.289
-600.084	563.468	-0.122	0.298
-599.069	-170.332	-0.255	0.009
-598.055	501.764	-0.098	-0.228
-597.040	800.000	0.055	-0.216
-596.025	738.181	-0.039	-0.106
-595.011	367.836	-0.095	-0.193
-593.996	-103.818	-0.039	0.009
-592.982	602.430	-0.024	0.060
-591.967	-35.819	0.218	0.119
-590.952	-46.445	-0.367	0.182
-589.938	-53.484	-0.355	0.164
-588.923	267.745	-0.119	0.211
-587.909	800.000	0.032	0.128
-586.894	-46.151	0.049	-0.024
-585.879	-26.340	0.142	0.084
-584.865	-12.903	0.176	0.116
-583.850	-94.786	-0.326	0.089
-582.836	101.872	-0.042	0.050
-581.821	100.695	-0.110	0.129
-580.806	31.453	-0.091	0.079
-579.792	-1.384	0.078	0.056
-578.777	-200.000	-0.051	0.267
-577.763	-63.672	0.315	0.130
-576.748	125.881	0.182	0.232
-575.733	110.711	0.160	0.194
-574.719	800.000	-0.045	0.183
-573.704	-200.000	-0.040	-0.414
-572.690	-121.617	0.243	0.041
-571.675	54.176	0.086	-0.084
-570.661	54.041	0.174	-0.169
-569.646	-200.000	0.015	-0.156
-568.631	-110.948	-0.281	0.058
-567.617	149.575	0.085	0.116
-566.602	-97.667	-0.176	0.046
-565.588	-88.417	0.438	-0.132
-564.573	150.417	0.100	0.137
-563.558	243.662	0.035	0.059
-562.544	43.854	-0.213	0.197
-561.529	800.000	0.022	0.086
-560.515	620.675	0.081	-0.206
-559.500	-200.000	-0.012	-0.084
-558.485	800.000	-0.069	-0.218
-557.471	141.488	-0.142	-0.190
-556.456	-21.650	0.115	-0.071
-555.442	-200.000	0.026	-0.246
-554.427	-54.597	0.232	-0.106
-553.412	10.907	0.203	-0.156
-552.398	65.485	0.231	0.236
-551.383	-139.148	0.192	0.021
-550.369	-177.381	0.133	-0.003
-549.354	-109.615	-0.150	0.032
-548.339	-74.248	-0.206	0.075
-547.325	-200.000	0.006	-0.169
-546.310	453.266	-0.076	-0.170
-545.296	-165.914	0.336	-0.015
-544.281	5.901	-0.297	-0.222
-543.266	-200.000	0.150	-0.001
-542.252	38.631	0.182	0.163
-541.237	-200.000	0.010	-0.156
-540.223	406.561	0.056	-0.120
-539.208	-200.000	-0.033	-0.172
-538.193	-41.878	0.227	0.117
-537.179	462.261	-0.091	0.203
-536.164	48.315	-0.383	0.361
-535.150	618.810	0.123	0.312
-534.135	-37.118	0.180	0.097
-533.121	82.436	-0.126	0.138
-532.106	-49.858	-0.194	-0.093
-531.091	129.101	0.172	0.221
-530.077	104.165	-0.156	-0.185
-529.062	-96.278	-0.151	-0.040
-528.048	196.237	-0.086	-0.132
-527.033	143.927	0.093	0.124
-526.018	3.512	0.139	0.102
-525.004	49.330	0.082	-0.077
-523.989	380.991	-0.154	-0.318
-522.975	-108.556	0.042	-0.009
-521.960	800.000	-0.080	0.242
-520.945	-157.976	-0.072	-0.004
-519.931	-200.000	-0.009	0.091
-518.916	-100.698	-0.264	-0.066
-517.902	-124.875	-0.146	-0.023
-516.887	-97.721	-0.288	0.075
-515.872	175.683	-0.179	0.261
-514.858	-91.817	0.285	0.081
-513.843	-2.002	0.167	-0.118
-512.829	93.823	0.072	-0.082
-511.814	139.925	-0.230	0.305
-510.799	-149.795	-0.095	0.007
-509.785	-134.365	-0.088	0.011
-508.770	-76.620	-0.285	0.100
-507.756	20.203	-0.171	-0.139
-506.741	-177.643	-0.223	-0.005
-505.726	-151.787	0.231	0.017
-504.712	-200.000	0.079	0.501
-503.697	-200.000	-0.021	0.095
-502.683	-200.000	0.024	-0.206
-501.668	25.783	-0.326	-0.273
-500.653	-200.000	-0.002	0.030
-499.639	-128.662	0.372	0.053
-498.624	636.837	-0.184	0.469
-497.610	-200.000	0.033	-0.198
-496.595	357.389	-0.180	-0.361
-495.581	-111.134	0.179	0.037
-494.566	58.717	0.112	-0.110
-493.551	5.332	-0.263	0.195
-492.537	-90.474	0.130	0.038
-491.522	-121.026	-0.394	-0.066
-490.508	7.279	-0.135	-0.101
-489.493	-200.000	-0.017	0.219
-488.478	-92.804	-0.174	-0.049
-487.464	-105.358	0.278	0.064
-486.449	167.123	-0.181	-0.258
-485.435	-169.762	0.224	0.008
-484.420	475.838	-0.083	0.189
-483.405	800.000	-0.065	0.273
-482.391	416.617	0.060	-0.128
-481.376	-150.703	0.076	-0.006
-480.362	62.432	-0.361	0.363
-479.347	-200.000	0.025	-0.427
-478.332	385.149	-0.153	-0.317
-477.318	-91.466	0.203	-0.058
-476.303	-200.000	-0.010	0.087
-475.289	20.378	0.298	0.242
-474.274	557.426	-0.133	-0.322
-473.259	-200.000	0.054	-0.293
-472.245	-99.586	-0.162	0.041
-471.230	800.000	0.040	0.116
-470.216	-200.000	-0.023	0.128
-469.201	-30.504	-0.048	-0.027
-468.186	116.423	-0.168	-0.207
-467.172	474.701	-0.041	0.093
-466.157	800.000	-0.052	0.203
-465.143	-162.557	0.145	-0.007
-464.128	369.789	0.097	-0.196
-463.113	-187.391	-0.343	-0.005
-462.099	800.000	-0.071	-0.221
-461.084	-11.689	-0.135	-0.089
-460.070	-200.000	0.022	0.198
-459.055	65.061	-0.140	-0.143
-458.040	-64.242	-0.252	0.103
-457.026	-98.418	0.049	-0.013
-456.011	800.000	-0.040	0.124
-454.997	-36.731	0.246	-0.132
-453.982	105.903	-0.214	-0.255
-452.968	-126.052	-0.320	-0.048
-451.953	-160.887	0.119	0.006
-450.938	-200.000	0.036	0.179
-449.924	-84.244	-0.102	-0.032
-448.909	231.215	-0.165	0.271
-447.895	-25.161	0.101	-0.060
-446.880	-35.038	0.251	-0.138
-445.865	-200.000	0.015	-0.396
-444.851	-200.000	-0.043	0.235
-443.836	-200.000	0.007	0.153
-442.822	-138.438	-0.152	-0.017
-441.807	800.000	-0.055	0.162
-440.792	800.000	0.032	0.103
-439.778	6.749	0.170	-0.127
-438.763	379.563	-0.132	-0.270
-437.749	-16.017	0.346	0.221
-436.734	-24.001	0.195	-0.117
-435.719	-200.000	-0.023	-0.137
-434.705	-200.000	-0.001	0.246
-433.690	800.000	0.070	0.217
-432.676	-200.000	-0.049	0.311
-431.661	-129.273	0.161	0.022
-430.646	12.586	-0.205	-0.158
-429.632	457.286	-0.102	-0.228
-428.617	176.534	-0.181	0.264
-427.603	-147.598	-0.286	-0.024
-426.588	60.478	0.176	-0.175
-425.573	-47.344	0.228	-0.111
-424.559	-39.497	-0.193	0.101
-423.544	340.405	0.079	-0.155
-422.530	-82.537	0.161	0.052
-421.515	800.000	-0.011	0.033
-420.500	336.421	0.124	-0.242
-419.486	-127.232	0.127	0.019
-418.471	-140.612	-0.105	-0.011
-417.457	649.814	0.117	0.300
-416.442	800.000	0.095	-0.287
-415.428	171.087	-0.136	-0.195
-414.413	207.910	-0.260	0.407
-413.398	-90.852	0.435	0.126
-412.384	82.281	0.087	0.095
-411.369	515.315	-0.099	0.233
-410.355	245.397	0.023	-0.038
-409.340	14.669	0.145	-0.113
-408.325	64.049	-0.263	0.265
-407.311	-113.976	-0.260	-0.051
-406.296	-190.303	-0.564	0.006
-405.282	-104.052	0.164	-0.038
-404.267	-41.409	0.205	-0.106
-403.252	8.480	0.041	0.031
-402.238	800.000	-0.055	0.238
-401.223	-133.705	-0.479	0.060
-400.209	106.191	-0.105	-0.124
-399.194	-200.000	-0.004	-0.387
-398.179	194.626	0.061	-0.092
-397.165	-160.924	0.292	-0.015
-396.150	17.456	0.306	0.244
-395.136	-2.266	0.100	0.070
-394.121	9.846	0.168	-0.128
-393.106	49.881	0.175	0.165
-392.092	800.000	-0.037	0.133
-391.077	-88.518	-0.122	-0.036
-390.063	160.745	0.060	-0.084
-389.048	302.492	-0.123	-0.228
-388.033	-200.000	0.061	-0.389
-387.019	362.099	0.080	0.161
-386.004	170.634	-0.214	-0.308
-384.990	133.894	0.112	-0.145
-383.975	85.739	0.101	0.111
-382.960	79.346	0.095	-0.102
-381.946	800.000	-0.080	-0.239
-380.931	86.537	-0.291	-0.321
-379.917	-30.230	0.199	0.113
-378.902	-133.311	-0.153	-0.019
-377.888	-103.295	0.263	-0.062
-376.873	19.061	0.174	0.140
-375.858	292.763	-0.234	-0.427
-374.844	12.841	0.221	-0.171
-373.829	800.000	-0.096	-0.312
-372.815	-80.929	-0.364	-0.121
-371.800	109.920	-0.209	-0.251
-370.785	-101.557	-0.279	0.068
-369.771	231.283	-0.080	-0.131
-368.756	-144.038	0.078	0.007
-367.742	537.787	-0.149	-0.354
-366.727	277.396	0.059	-0.106
-365.712	5.132	0.161	0.119
-364.698	79.823	0.103	-0.111
-363.683	-63.356	0.076	0.031
-362.669	-198.855	0.307	0.002
-361.654	-200.000	0.032	0.190
-360.639	195.389	-0.041	0.063
-359.625	46.208	-0.134	-0.125
-358.610	-200.000	0.001	0.075
-357.596	104.940	0.031	0.036
-356.581	-97.426	0.141	-0.037
-355.566	-200.000	0.062	-0.540
-354.552	-200.000	0.041	0.336
-353.537	66.907	0.285	0.290
-352.523	800.000	-0.075	0.228
-351.508	-200.000	0.026	0.255
-350.493	-79.000	0.169	-0.057
-349.479	-5.476	-0.127	0.087
-348.464	116.521	0.179	-0.220
-347.450	-42.511	0.156	0.080
-346.435	-110.816	-0.057	0.012
-345.420	63.077	-0.196	-0.196
-344.406	0.832	-0.099	-0.071
-343.391	302.377	0.132	-0.244
-342.377	-200.000	0.064	-0.578
-341.362	-41.273	0.156	0.080
-340.348	80.319	-0.067	0.072
-339.333	-200.000	0.010	-0.330
-338.318	-135.627	-0.068	-0.008
-337.304	-16.651	0.237	-0.150
-336.289	800.000	0.093	-0.266
-335.275	174.199	-0.186	0.269
-334.260	-112.384	-0.050	-0.010
-333.245	-128.253	-0.223	0.032
-332.231	603.365	-0.031	-0.076
-331.216	-86.894	-0.142	0.043
-330.202	800.000	0.029	0.114
-329.187	-132.644	0.270	0.035
-328.172	-109.133	-0.276	-0.059
-327.158	-200.000	-0.008	-0.260
-326.143	33.085	-0.036	-0.031
-325.129	75.563	-0.082	0.087
-324.114	-124.785	-0.158	-0.024
-323.099	-30.842	-0.132	-0.075
-322.085	202.744	0.023	0.036
-321.070	800.000	-0.043	0.119
-320.056	-115.546	-0.127	-0.024
-319.041	-155.811	-0.312	0.020
-318.026	171.064	0.074	-0.106
-317.012	-8.450	-0.094	-0.063
-315.997	-31.530	0.084	-0.047
-314.983	259.663	0.277	-0.477
-313.968	800.000	0.054	0.170
-312.953	-86.929	-0.313	-0.095
-311.939	-200.000	0.040	0.316
-310.924	207.212	0.121	-0.188
-309.910	-33.726	-0.048	-0.027
-308.895	800.000	0.063	-0.183
-307.880	-124.224	-0.188	0.029
-306.866	-200.000	0.010	-0.337
-305.851	800.000	0.012	-0.039
-304.837	124.825	-0.098	-0.123
-303.822	-140.614	-0.105	0.011
-302.807	-38.776	0.301	0.159
-301.793	45.204	0.147	-0.135
-300.778	653.518	-0.088	0.226
-299.764	11.312	-0.155	-0.118
-298.749	800.000	0.065	-0.202
-297.735	-43.183	-0.125	-0.063
-296.720	469.081	0.158	0.354
-295.705	800.000	0.069	0.202
-294.691	-25.887	0.356	-0.209
-293.676	709.072	-0.071	0.189
-292.662	-126.069	0.191	-0.029
-291.647	800.000	0.084	0.238
-290.632	92.376	0.223	0.251
-289.618	-200.000	0.005	0.406
-288.603	-73.849	0.131	0.047
-287.589	-160.739	-0.119	0.006
-286.574	-163.977	0.459	-0.021
-285.559	39.097	0.231	-0.206
-284.545	-134.358	-0.276	-0.034
-283.530	-17.177	0.125	-0.079
-282.516	-132.123	0.089	0.012
-281.501	127.239	0.060	-0.076
-280.486	-200.000	0.059	0.281
-279.472	-30.065	-0.133	-0.076
-278.457	186.016	0.210	0.311
-277.443	-100.784	0.235	-0.058
-276.428	-92.104	0.277	-0.078
-275.413	800.000	0.046	-0.173
-274.399	-145.667	-0.306	-0.027
-273.384	-200.000	-0.008	0.040
-272.370	-200.000	-0.019	0.126
-271.355	113.620	0.153	-0.185
-270.340	-171.628	0.509	0.017
-269.326	800.000	-0.032	0.089
-268.311	-200.000	-0.004	-0.100
-267.297	28.302	-0.092	0.077
-266.282	-200.000	-0.006	-0.125
-265.267	133.566	0.184	-0.237
-264.253	202.126	0.138	-0.212
-263.238	800.000	-0.152	-0.421
-262.224	-39.389	0.171	0.089
-261.209	256.603	-0.078	-0.133
-260.195	-101.023	0.174	0.043
-259.180	-123.848	0.219	-0.034
-258.165	-59.843	-0.245	0.104
-257.151	98.359	-0.173	0.198
-256.136	158.260	-0.062	0.085
-255.122	-200.000	0.017	-0.179
-254.107	800.000	0.024	0.089
-253.092	800.000	-0.115	0.491
-252.078	-52.507	0.250	0.115
-251.063	97.680	-0.039	0.045
-250.049	126.672	0.337	0.425
-249.034	-58.509	-0.296	0.128
-248.019	800.000	-0.069	-0.224
-247.005	225.811	-0.219	0.353
-245.990	3.137	-0.105	0.076
-244.976	128.880	-0.206	0.262
-243.961	-38.988	-0.234	0.123
-242.946	90.683	0.245	0.274
-241.932	-101.711	-0.369	0.089
-240.917	-200.000	-0.040	0.193
-239.903	-10.146	0.178	0.118
-238.888	78.570	-0.218	0.232
-237.873	-70.557	-0.037	-0.014
-236.859	124.609	0.223	0.280
-235.844	800.000	-0.048	0.135
-234.830	-95.515	0.157	0.042
-233.815	-4.951	-0.004	-0.003
-232.800	-47.308	-0.217	-0.105
-231.786	-26.311	0.162	0.095
-230.771	133.046	0.094	-0.121
-229.757	129.543	0.061	0.077
-228.742	-200.000	0.002	0.084
-227.727	-85.682	-0.175	0.054
-226.713	418.742	-0.113	0.241
-225.698	-28.811	-0.231	-0.132
-224.684	154.242	-0.174	0.237
-223.669	800.000	0.065	-0.222
-222.655	182.412	0.118	0.173
-221.640	-200.000	-0.036	0.447
-220.625	278.973	0.094	-0.167
-219.611	338.353	-0.089	0.172
-218.596	-58.695	-0.210	0.091
-217.582	800.000	-0.107	-0.351
-216.567	606.369	0.063	-0.155
-215.552	570.368	0.155	0.376
-214.538	-200.000	0.005	-0.125
-213.523	375.693	0.054	-0.109
-212.509	90.982	-0.197	-0.220
-211.494	-68.733	-0.174	0.067
-210.479	-146.587	0.472	-0.041
-209.465	64.724	-0.106	0.107
-208.450	-39.505	-0.087	0.045
-207.436	-200.000	0.031	-0.231
-206.421	142.852	-0.153	-0.202
-205.406	236.165	0.031	-0.051
-204.392	126.615	-0.165	-0.208
-203.377	-76.605	0.226	0.079
-202.363	234.102	0.224	0.366
-201.348	800.000	0.045	-0.162
-200.333	-200.000	0.017	0.305
-199.319	-59.677	0.344	-0.147
-198.304	63.749	0.310	-0.310
-197.290	-79.774	0.083	-0.028
-196.275	-200.000	-0.021	-0.354
-195.260	-41.847	-0.077	0.039
-194.246	263.688	0.181	-0.313
-193.231	-5.912	0.010	-0.007
-192.217	-142.299	0.243	0.024
-191.202	-87.408	-0.164	-0.049
-190.187	10.778	0.072	-0.055
-189.173	800.000	-0.098	0.314
-188.158	-40.874	0.216	0.111
-187.144	55.349	-0.297	0.286
-186.129	511.095	0.115	0.266
-185.114	29.536	-0.173	-0.146
-184.100	4.287	-0.218	0.158
-183.085	64.461	0.106	-0.106
-182.071	-119.439	0.170	-0.029
-181.056	-28.673	0.093	-0.053
-180.042	124.650	-0.081	0.101
-179.027	590.415	-0.132	0.323
-178.012	160.663	0.101	-0.141
-176.998	-179.888	0.194	0.004
-175.983	606.890	-0.062	-0.153
-174.969	-200.000	-0.006	-0.405
-173.954	199.106	-0.085	-0.129
-172.939	-88.312	0.213	0.063
-171.925	1.284	-0.222	-0.158
-170.910	800.000	0.121	-0.446
-169.896	91.090	-0.110	0.122
-168.881	-200.000	-0.075	-0.343
-167.866	-189.902	0.379	-0.004
-166.852	366.899	-0.162	0.325
-165.837	-144.547	-0.093	0.009
-164.823	-200.000	-0.009	0.220
-163.808	-22.277	0.198	0.119
-162.793	800.000	0.040	0.125
-161.779	26.814	0.243	-0.202
-160.764	-89.429	0.333	-0.097
-159.750	-200.000	0.032	0.188
-158.735	216.008	-0.177	0.279
-157.720	-200.000	-0.059	0.345
-156.706	25.182	-0.032	-0.027
-155.691	-88.077	0.266	-0.079
-154.677	800.000	-0.050	-0.148
-153.662	582.622	0.226	0.551
-152.647	-24.652	0.376	0.222
-151.633	-144.681	0.194	0.018
-150.618	-132.788	-0.018	0.002
-149.604	-184.765	0.154	0.002
-148.589	433.681	0.065	0.141
-147.574	-55.946	0.102	0.045
-146.560	800.000	-0.030	0.120
-145.545	226.080	0.131	-0.211
-144.531	84.707	-0.175	0.190
-143.516	34.297	-0.068	-0.059
-142.502	-91.319	-0.079	-0.022
-141.487	-200.000	-0.015	0.109
-140.472	-65.858	-0.285	0.113
-139.458	69.820	-0.181	-0.185
-138.443	52.932	-0.336	-0.319
-137.429	-200.000	0.041	-0.257
-136.414	-120.147	-0.108	-0.018
-135.399	-71.504	0.056	-0.021
-134.385	-200.000	-0.013	0.356
-133.370	-200.000	-0.010	-0.238
-132.356	800.000	-0.163	-0.462
-131.341	-200.000	0.031	-0.247
-130.326	395.580	-0.102	0.211
-129.312	-200.000	0.102	-0.539
-128.297	-200.000	0.016	-0.323
-127.283	-200.000	0.030	0.228
-126.268	22.276	0.318	0.258
-125.253	-124.549	0.447	0.069
-124.239	212.469	-0.112	-0.175
-123.224	-200.000	0.004	0.245
-122.210	-200.000	-0.009	-0.107
-121.195	46.748	-0.179	-0.165
