DTS Sentinel unit serial number:	SN413079Multiplexer serial number:	ORYXHardware model number:	OX4-SRSoftware version number:	ORYX F/W v4.00 Oryx Data Collector v3.7.2.0data status	okinstallation	princeton_trtdifferential loss correction	single-endedforward channel	channel 1reverse channel	N/Adate	2019/09/15time	22:34:35forward acquisition time	60.00reverse acquisition time	0.00gamma	496.2192k internal	0.2331k external	0.2331temperature offset calibration	0.9968default loss term (dB/km)	0.3790temperature slope calibration	1.0000multiplexer offset coefficient	1.0000multiplexer slope coefficient	1.0000fibre end	0.00T internal ref (°C)	29.06T ext. ref 1 (°C)	8.78T ext. ref 2 (°C)	22.51length (m)	temperature (°C)	Stokes	anti-Stokes-747.200	-200.000	-0.005	-0.209
-746.185	467.541	-0.098	-0.222
-745.171	292.580	0.090	0.165
-744.156	-65.144	-0.102	-0.042
-743.142	647.323	0.028	-0.073
-742.127	-95.625	-0.193	-0.052
-741.112	27.031	0.055	-0.046
-740.098	-200.000	-0.074	0.584
-739.083	-200.000	-0.026	0.346
-738.069	800.000	0.038	-0.107
-737.054	-197.195	0.109	-0.001
-736.039	128.398	-0.055	0.070
-735.025	800.000	0.065	0.196
-734.010	800.000	-0.083	-0.302
-732.996	423.764	0.084	-0.181
-731.981	576.961	-0.116	0.285
-730.966	-114.894	-0.387	0.074
-729.952	16.598	0.159	0.126
-728.937	-114.342	0.429	-0.083
-727.923	153.914	-0.140	-0.193
-726.908	186.500	-0.068	-0.102
-725.894	209.151	0.182	-0.286
-724.879	12.301	-0.189	0.147
-723.864	49.042	0.060	-0.057
-722.850	-200.000	0.008	-0.194
-721.835	-76.903	0.192	-0.067
-720.821	-197.610	0.151	0.001
-719.806	34.072	-0.109	-0.095
-718.791	94.681	-0.103	-0.117
-717.777	-98.654	-0.288	-0.074
-716.762	-69.329	0.214	-0.082
-715.748	606.152	-0.034	-0.086
-714.733	-75.206	-0.386	0.139
-713.718	-11.119	-0.128	-0.085
-712.704	800.000	0.016	0.065
-711.689	-4.081	-0.245	-0.171
-710.675	56.011	-0.331	-0.323
-709.660	5.924	-0.258	0.192
-708.645	-44.922	0.124	0.062
-707.631	-43.480	0.298	-0.151
-706.616	-156.150	-0.481	0.030
-705.602	800.000	-0.117	0.336
-704.587	336.389	-0.124	0.241
-703.572	-44.799	0.093	-0.047
-702.558	-133.261	-0.272	0.034
-701.543	-8.475	-0.200	0.135
-700.529	374.859	-0.252	0.516
-699.514	236.230	-0.048	-0.080
-698.499	23.639	-0.321	-0.265
-697.485	340.676	-0.136	-0.267
-696.470	800.000	0.060	-0.215
-695.456	40.004	-0.167	-0.151
-694.441	163.329	-0.003	0.004
-693.426	-200.000	0.017	0.115
-692.412	-27.182	-0.147	-0.086
-691.397	-131.080	-0.215	-0.029
-690.383	-200.000	-0.015	0.233
-689.368	-8.900	0.224	0.151
-688.354	233.400	-0.058	-0.096
-687.339	-200.000	0.045	0.203
-686.324	-106.473	0.162	0.036
-685.310	173.709	0.028	0.040
-684.295	-69.124	0.073	-0.028
-683.281	-75.467	-0.080	-0.029
-682.266	-164.776	0.188	0.009
-681.251	-135.471	-0.138	-0.016
-680.237	3.092	-0.163	0.119
-679.222	13.166	0.184	0.143
-678.208	-200.000	-0.045	-0.294
-677.193	78.442	-0.300	-0.321
-676.178	66.653	-0.082	0.084
-675.164	-83.960	-0.144	-0.046
-674.149	-33.253	0.086	-0.048
-673.135	-42.365	0.406	0.208
-672.120	-200.000	0.031	-0.147
-671.105	-18.647	-0.161	-0.100
-670.091	450.516	0.030	0.067
-669.076	800.000	0.046	-0.193
-668.062	-42.349	-0.121	0.062
-667.047	202.360	-0.212	0.329
-666.032	-200.000	-0.005	0.062
-665.018	-62.012	-0.062	-0.026
-664.003	-45.250	-0.096	-0.048
-662.989	-162.433	-0.227	0.011
-661.974	524.606	-0.103	-0.244
-660.959	-20.987	0.051	-0.031
-659.945	-107.753	-0.382	-0.083
-658.930	-136.671	0.140	0.016
-657.916	-113.972	-0.248	-0.048
-656.901	267.325	0.038	0.066
-655.886	-200.000	0.050	0.290
-654.872	703.205	-0.041	0.109
-653.857	-200.000	-0.013	-0.225
-652.843	-151.400	0.125	-0.009
-651.828	-145.924	0.082	0.007
-650.814	57.548	0.039	0.038
-649.799	44.210	-0.297	0.274
-648.784	-86.303	-0.232	-0.072
-647.770	536.403	-0.070	-0.168
-646.755	40.437	0.152	-0.137
-645.741	-180.918	-0.237	0.005
-644.726	-104.825	0.090	-0.021
-643.711	800.000	-0.057	0.187
-642.697	-200.000	0.011	0.131
-641.682	57.365	-0.076	-0.075
-640.668	91.963	0.113	0.127
-639.653	502.099	0.081	0.188
-638.638	-200.000	0.024	0.120
-637.624	-75.061	-0.151	0.054
-636.609	-200.000	-0.002	-0.174
-635.595	-200.000	-0.017	-0.246
-634.580	800.000	0.055	0.211
-633.565	-200.000	0.036	-0.308
-632.551	285.013	-0.038	0.069
-631.536	-160.093	0.310	-0.017
-630.522	229.318	0.075	0.123
-629.507	56.844	-0.018	-0.018
-628.492	-139.383	-0.160	0.017
-627.478	-178.391	0.129	0.003
-626.463	-200.000	-0.022	-0.128
-625.449	-200.000	-0.006	0.176
-624.434	12.847	-0.200	-0.155
-623.419	800.000	0.113	-0.423
-622.405	800.000	0.063	0.254
-621.390	538.544	0.139	-0.331
-620.376	800.000	-0.060	-0.257
-619.361	-50.837	0.354	0.167
-618.346	-200.000	0.003	-0.088
-617.332	79.855	-0.057	-0.061
-616.317	208.344	0.089	0.140
-615.303	-131.283	0.247	0.033
-614.288	28.637	-0.147	0.124
-613.273	-167.376	0.491	0.020
-612.259	72.856	-0.271	-0.283
-611.244	-14.053	-0.221	-0.143
-610.230	800.000	-0.104	-0.377
-609.215	166.801	0.183	-0.259
-608.201	-119.410	-0.418	-0.073
-607.186	-152.403	-0.139	0.010
-606.171	159.698	0.257	-0.358
-605.157	172.759	-0.070	-0.101
-604.142	-165.263	-0.569	0.025
-603.128	86.262	-0.254	-0.281
-602.113	-0.259	-0.350	-0.249
-601.098	654.274	-0.050	-0.129
-600.084	13.766	-0.207	0.161
-599.069	56.548	-0.106	-0.103
-598.055	-92.138	0.281	0.079
-597.040	-149.372	0.076	-0.006
-596.025	-107.099	-0.419	0.093
-595.011	140.903	-0.164	-0.217
-593.996	183.418	-0.234	-0.347
-592.982	800.000	0.025	-0.068
-591.967	-58.681	0.241	-0.104
-590.952	185.168	0.115	-0.171
-589.938	377.913	-0.083	-0.170
-588.923	6.153	-0.088	0.065
-587.909	-170.776	-0.112	0.004
-586.894	-167.383	-0.230	0.009
-585.879	275.257	0.141	0.250
-584.865	725.499	-0.044	0.117
-583.850	-200.000	0.017	-0.470
-582.836	-17.669	0.171	-0.108
-581.821	-25.466	-0.151	0.089
-580.806	-6.183	0.231	-0.158
-579.792	-39.146	0.155	-0.081
-578.777	45.764	0.181	0.167
-577.763	800.000	-0.030	-0.102
-576.748	-66.703	-0.238	0.094
-575.733	17.167	-0.201	0.160
-574.719	-110.562	0.156	-0.032
-573.704	-82.432	0.107	-0.035
-572.690	-63.700	0.300	-0.123
-571.675	58.776	-0.215	0.211
-570.661	-200.000	-0.015	0.194
-569.646	83.338	0.221	-0.241
-568.631	450.729	0.167	-0.369
-567.617	-43.526	-0.084	-0.042
-566.602	72.861	-0.040	0.041
-565.588	546.291	0.102	0.243
-564.573	-200.000	0.352	-0.002
-563.558	133.100	0.325	-0.420
-562.544	-45.835	-0.255	-0.126
-561.529	-61.709	0.194	-0.081
-560.515	-104.637	-0.083	-0.019
-559.500	-200.000	-0.059	0.291
-558.485	-200.000	0.084	-0.632
-557.471	154.132	0.098	0.134
-556.456	58.391	-0.163	-0.160
-555.442	134.308	0.215	-0.278
-554.427	-200.000	-0.045	0.203
-553.412	-84.697	0.408	0.128
-552.398	335.809	-0.128	-0.247
-551.383	-94.895	0.171	-0.046
-550.369	-79.645	0.049	0.017
-549.354	-200.000	-0.017	0.210
-548.339	-128.572	-0.263	-0.037
-547.325	723.996	0.078	0.207
-546.310	-200.000	0.018	-0.253
-545.296	131.803	-0.104	-0.134
-544.281	-139.247	-0.325	0.035
-543.266	18.951	0.185	0.148
-542.252	-173.388	-0.482	0.015
-541.237	81.717	-0.136	-0.147
-540.223	253.024	0.033	0.057
-539.208	-80.975	-0.283	0.093
-538.193	-29.574	-0.160	-0.091
-537.179	-60.452	0.330	-0.140
-536.164	52.232	0.092	-0.087
-535.150	800.000	0.110	-0.326
-534.135	25.423	0.148	-0.123
-533.121	800.000	0.039	0.157
-532.106	-200.000	-0.011	-0.173
-531.091	-23.833	-0.043	-0.026
-530.077	149.462	-0.044	0.060
-529.062	-21.927	0.103	0.063
-528.048	-200.000	0.014	0.109
-527.033	-141.068	0.128	0.013
-526.018	800.000	-0.067	0.243
-525.004	-39.824	-0.162	0.084
-523.989	-48.033	-0.321	-0.155
-522.975	-200.000	0.010	-0.345
-521.960	-200.000	-0.313	-0.000
-520.945	-200.000	0.001	0.055
-519.931	185.192	-0.109	-0.162
-518.916	-100.943	0.268	0.066
-517.902	-200.000	-0.018	-0.096
-516.887	-200.000	-0.015	0.075
-515.872	-78.902	-0.375	-0.127
-514.858	-41.239	-0.274	-0.141
-513.843	77.367	0.176	-0.187
-512.829	-36.389	0.197	-0.106
-511.814	253.169	0.148	0.252
-510.799	119.082	-0.111	0.137
-509.785	800.000	0.088	-0.275
-508.770	379.195	0.061	0.125
-507.756	10.181	0.339	-0.257
-506.741	800.000	-0.082	-0.274
-505.726	-4.128	-0.184	0.127
-504.712	-10.102	0.156	0.103
-503.697	63.450	-0.041	-0.041
-502.683	-78.424	0.236	0.081
-501.668	53.013	0.217	0.207
-500.653	-200.000	0.009	-0.297
-499.639	-143.485	0.339	0.032
-498.624	-63.443	0.207	0.085
-497.610	-195.219	0.152	-0.001
-496.595	800.000	0.099	0.299
-495.581	800.000	-0.045	-0.147
-494.566	-191.385	-0.207	0.002
-493.551	33.848	0.208	0.181
-492.537	-200.000	0.074	0.409
-491.522	48.273	-0.216	0.202
-490.508	32.209	-0.083	-0.072
-489.493	-46.120	-0.290	0.142
-488.478	121.470	0.237	0.295
-487.464	-200.000	-0.033	0.238
-486.449	525.997	0.119	-0.279
-485.435	800.000	0.104	0.304
-484.420	584.341	-0.101	-0.247
-483.405	800.000	0.039	-0.137
-482.391	-4.362	-0.251	-0.173
-481.376	88.719	-0.069	-0.076
-480.362	-200.000	0.005	-0.290
-479.347	800.000	-0.083	0.285
-478.332	-11.091	0.341	0.224
-477.318	-200.000	-0.052	0.267
-476.303	800.000	0.084	0.296
-475.289	22.125	0.110	0.090
-474.274	147.959	-0.053	0.072
-473.259	-56.167	-0.114	-0.051
-472.245	-200.000	0.032	0.387
-471.230	89.064	0.172	0.190
-470.216	374.588	-0.046	0.093
-469.201	-44.553	-0.345	-0.171
-468.186	201.240	0.161	0.247
-467.172	-200.000	0.104	0.571
-466.157	95.438	0.166	0.188
-465.143	397.222	-0.035	0.073
-464.128	800.000	-0.066	0.209
-463.113	150.635	-0.189	-0.256
-462.099	-159.997	-0.470	0.026
-461.084	-200.000	0.028	0.334
-460.070	-117.343	0.312	-0.056
-459.055	-200.000	-0.017	0.160
-458.040	-83.746	-0.272	-0.086
-457.026	-200.000	0.051	-0.362
-456.011	800.000	-0.046	0.192
-454.997	-16.759	-0.125	-0.079
-453.982	-109.622	0.128	0.027
-452.968	-15.204	-0.093	-0.059
-451.953	278.205	-0.159	-0.282
-450.938	98.346	-0.134	-0.153
-449.924	103.685	-0.158	0.185
-448.909	-200.000	0.008	0.306
-447.895	-172.973	-0.208	0.006
-446.880	-148.314	0.378	-0.031
-445.865	-150.447	-0.361	0.028
-444.851	-200.000	0.020	-0.445
-443.836	-28.089	-0.160	0.092
-442.822	37.423	0.120	0.105
-441.807	64.584	0.249	0.249
-440.792	133.193	0.302	0.389
-439.778	307.607	-0.164	0.305
-438.763	280.668	-0.021	-0.038
-437.749	-59.227	-0.566	0.243
-436.734	-27.304	0.173	-0.100
-435.719	49.059	-0.064	0.060
-434.705	-41.606	0.129	0.066
-433.690	97.840	-0.114	0.130
-432.676	-142.935	0.134	0.013
-431.661	5.234	0.073	0.053
-430.646	-165.655	0.168	-0.007
-429.632	800.000	-0.041	0.160
-428.617	-200.000	-0.005	0.185
-427.603	752.354	0.084	-0.226
-426.588	-123.049	-0.223	0.036
-425.573	36.991	-0.130	-0.114
-424.559	15.909	0.353	0.276
-423.544	28.190	-0.051	0.043
-422.530	-63.686	-0.605	-0.247
-421.515	36.483	0.232	0.203
-420.500	-200.000	-0.039	0.180
-419.486	18.572	0.145	0.116
-418.471	-46.419	-0.299	-0.146
-417.457	-200.000	-0.001	0.083
-416.442	167.016	-0.186	-0.263
-415.428	-106.153	0.160	0.036
-414.413	-200.000	0.000	0.223
-413.398	-141.910	-0.348	-0.035
-412.384	381.776	-0.111	-0.227
-411.369	76.110	-0.194	-0.204
-410.355	-200.000	0.006	0.040
-409.340	-45.954	0.316	-0.155
-408.325	-86.484	-0.487	-0.149
-407.311	-200.000	0.005	-0.040
-406.296	49.039	-0.278	-0.260
-405.282	582.115	0.088	0.214
-404.267	83.046	-0.187	0.202
-403.252	-158.760	0.274	0.016
-402.238	800.000	-0.069	-0.197
-401.223	91.183	-0.046	-0.051
-400.209	-142.803	-0.234	-0.023
-399.194	800.000	0.077	-0.251
-398.179	-59.284	0.427	0.183
-397.165	-200.000	0.004	-0.293
-396.150	-200.000	-0.019	-0.205
-395.136	127.689	0.148	-0.187
-394.121	-123.395	-0.174	0.027
-393.106	127.851	-0.205	-0.258
-392.092	-200.000	0.054	-0.327
-391.077	-129.865	0.183	0.025
-390.063	-200.000	-0.003	-0.311
-389.048	-76.968	-0.045	-0.016
-388.033	-92.241	-0.246	-0.069
-387.019	179.111	0.212	0.307
-386.004	-101.217	0.127	0.031
-384.990	269.336	-0.142	-0.248
-383.975	52.995	0.090	-0.086
-382.960	800.000	0.096	0.264
-381.946	-21.364	0.062	-0.038
-380.931	-200.000	0.004	0.173
-379.917	-200.000	0.028	0.238
-378.902	-32.720	0.158	-0.087
-377.888	-200.000	-0.039	-0.258
-376.873	130.400	-0.153	-0.195
-375.858	185.716	0.240	0.354
-374.844	284.854	0.155	-0.278
-373.829	-112.681	0.210	0.041
-372.815	800.000	-0.069	0.236
-371.800	-105.835	-0.233	-0.052
-370.785	48.826	0.258	-0.240
-369.771	122.158	0.142	0.176
-368.756	-82.209	0.110	-0.035
-367.742	-200.000	-0.027	0.177
-366.727	21.645	0.050	-0.041
-365.712	206.005	-0.191	-0.294
-364.698	-55.061	-0.329	-0.147
-363.683	-200.000	-0.017	0.115
-362.669	-191.252	-0.233	-0.002
-361.654	186.575	0.099	-0.147
-360.639	-92.405	0.111	0.031
-359.625	190.297	-0.192	0.286
-358.610	-200.000	0.051	-0.256
-357.596	-26.620	0.140	-0.081
-356.581	-5.701	-0.326	-0.221
-355.566	-59.706	-0.151	0.064
-354.552	352.411	0.087	0.171
-353.537	210.829	0.122	0.191
-352.523	-200.000	-0.043	0.588
-351.508	281.608	-0.160	0.284
-350.493	800.000	0.048	0.171
-349.479	-75.097	0.160	0.057
-348.464	95.736	-0.079	-0.090
-347.450	342.384	0.159	-0.307
-346.435	59.342	-0.092	-0.090
-345.420	88.881	-0.150	0.165
-344.406	-58.568	-0.056	-0.024
-343.391	75.887	-0.114	0.120
-342.377	-18.500	-0.134	0.083
-341.362	368.002	0.067	-0.133
-340.348	628.355	0.074	0.186
-339.333	356.011	-0.149	-0.295
-338.318	474.687	0.213	0.475
-337.304	-200.000	0.001	0.461
-336.289	-52.896	-0.280	-0.128
-335.275	-200.000	0.050	-0.284
-334.260	207.535	0.092	-0.142
-333.245	-100.376	0.102	0.025
-332.231	800.000	-0.015	0.046
-331.216	39.836	0.239	-0.212
-330.202	-60.918	0.281	0.118
-329.187	-200.000	0.015	0.308
-328.172	-200.000	0.057	-0.275
-327.158	800.000	0.056	-0.161
-326.143	471.298	-0.066	-0.146
-325.129	-73.009	0.363	0.132
-324.114	-200.000	-0.015	-0.254
-323.099	47.343	-0.085	0.078
-322.085	-9.847	0.082	-0.054
-321.070	628.720	-0.051	0.129
-320.056	0.505	-0.134	0.095
-319.041	647.989	0.068	-0.173
-318.026	-3.465	0.171	0.118
-317.012	53.761	-0.121	0.115
-315.997	-68.456	0.401	-0.154
-314.983	-200.000	-0.008	-0.070
-313.968	-13.001	0.134	-0.086
-312.953	-200.000	-0.007	-0.037
-311.939	105.142	-0.131	-0.153
-310.924	56.228	-0.156	-0.150
-309.910	-158.160	-0.235	-0.014
-308.895	-63.442	0.021	0.008
-307.880	-88.392	-0.192	-0.057
-306.866	413.511	0.221	0.464
-305.851	-86.265	-0.181	-0.055
-304.837	-147.338	0.161	0.014
-303.822	-156.312	0.175	0.011
-302.807	142.690	0.131	-0.173
-301.793	147.825	-0.111	0.149
-300.778	203.123	0.108	0.165
-299.764	-10.571	-0.091	-0.059
-298.749	-200.000	0.004	0.240
-297.735	800.000	-0.105	0.356
-296.720	-200.000	0.049	0.293
-295.705	-29.905	-0.094	-0.053
-294.691	-46.022	0.343	0.167
-293.676	493.758	-0.146	-0.330
-292.662	-19.232	0.401	-0.246
-291.647	304.183	-0.121	0.222
-290.632	-147.453	-0.349	-0.029
-289.618	-200.000	-0.030	0.275
-288.603	-200.000	0.046	0.208
-287.589	113.377	0.141	-0.169
-286.574	-200.000	-0.007	-0.241
-285.559	322.179	0.055	-0.104
-284.545	-200.000	-0.047	0.218
-283.530	-126.302	0.063	-0.009
-282.516	-200.000	0.065	0.332
-281.501	-92.280	-0.183	0.051
-280.486	-136.678	-0.093	0.011
-279.472	-200.000	-0.001	-0.055
-278.457	-54.959	-0.263	-0.117
-277.443	-37.400	-0.083	-0.044
-276.428	400.496	0.067	-0.139
-275.413	57.049	-0.291	0.280
-274.399	800.000	-0.074	0.205
-273.384	-47.649	0.283	0.136
-272.370	-24.981	0.146	0.085
-271.355	-14.555	0.148	0.094
-270.340	30.314	-0.235	0.198
-269.326	224.990	0.098	0.156
-268.311	52.863	-0.217	-0.205
-267.297	31.734	-0.220	0.187
-266.282	5.427	-0.141	0.103
-265.267	383.592	-0.177	-0.360
-264.253	472.593	0.162	-0.361
-263.238	170.539	0.155	-0.220
-262.224	-200.000	0.007	0.153
-261.209	-63.010	-0.074	0.030
-260.195	800.000	0.047	-0.179
-259.180	196.225	0.112	0.168
-258.165	-125.804	-0.085	-0.013
-257.151	-82.768	0.245	-0.078
-256.136	-200.000	0.009	0.254
-255.122	112.659	-0.116	-0.138
-254.107	-48.019	-0.053	0.025
-253.092	-200.000	-0.029	-0.166
-252.078	270.202	-0.127	0.221
-251.063	800.000	0.068	0.206
-250.049	-200.000	0.055	0.309
-249.034	-59.308	-0.192	0.082
-248.019	-42.856	0.306	-0.153
-247.005	-200.000	0.030	0.146
-245.990	-118.651	0.075	-0.013
-244.976	-32.875	0.060	0.033
-243.961	-176.017	-0.174	-0.005
-242.946	800.000	-0.085	-0.292
-241.932	226.696	-0.129	0.206
-240.917	-168.115	-0.116	-0.004
-239.903	183.205	-0.097	0.141
-238.888	-200.000	-0.021	0.161
-237.873	415.813	0.048	0.101
-236.859	-92.487	-0.161	0.045
-235.844	-200.000	0.002	-0.307
-234.830	-76.043	-0.161	-0.056
-233.815	-9.165	0.106	-0.070
-232.800	-130.215	-0.243	-0.033
-231.786	-34.780	0.093	0.050
-230.771	13.211	-0.277	0.211
-229.757	-66.663	-0.191	0.075
-228.742	100.708	0.170	-0.195
-227.727	48.508	-0.110	0.102
-226.713	116.257	0.023	-0.028
-225.698	53.523	-0.097	0.092
-224.684	-114.352	0.279	0.053
-223.669	-110.177	0.151	-0.031
-222.655	-137.978	0.217	-0.024
-221.640	-122.365	-0.317	0.051
-220.625	125.099	0.161	-0.200
-219.611	118.529	0.196	-0.239
-218.596	-162.955	0.379	0.018
-217.582	512.902	-0.060	-0.139
-216.567	-10.652	0.273	-0.178
-215.552	-153.492	0.133	0.009
-214.538	800.000	-0.043	-0.183
-213.523	36.949	0.073	-0.063
-212.509	-200.000	0.049	0.218
-211.494	243.285	-0.070	0.116
-210.479	165.042	-0.030	0.042
-209.465	7.275	0.291	0.214
-208.450	47.344	0.311	-0.285
-207.436	-200.000	-0.015	-0.351
-206.421	-187.914	0.347	-0.004
-205.406	-22.836	-0.281	0.167
-204.392	62.295	0.111	0.109
-203.377	-200.000	-0.008	-0.170
-202.363	185.753	0.052	0.076
-201.348	-28.860	-0.309	0.175
-200.333	-200.000	0.052	-0.232
-199.319	52.235	0.293	-0.276
-198.304	-28.583	0.213	-0.121
-197.290	800.000	0.065	0.216
-196.275	289.240	-0.196	0.350
-195.260	-124.214	0.182	0.028
-194.246	84.663	-0.292	0.315
-193.231	-64.513	0.212	0.085
-192.217	-67.492	0.346	-0.134
-191.202	-98.787	0.322	0.081
-190.187	119.395	-0.067	0.082
-189.173	48.852	-0.203	-0.188
-188.158	-179.111	0.283	0.006
-187.144	-200.000	0.034	0.258
-186.129	62.844	-0.129	-0.127
-185.114	-5.435	-0.246	0.166
-184.100	-200.000	-0.025	0.206
-183.085	75.285	0.074	-0.077
-182.071	-200.000	-0.038	0.333
-181.056	800.000	0.088	0.330
-180.042	-157.551	0.267	-0.016
-179.027	279.067	-0.115	-0.202
-178.012	-200.000	0.021	0.264
-176.998	-55.421	0.428	0.189
-175.983	383.575	0.133	-0.269
-174.969	62.377	0.139	0.137
-173.954	-200.000	-0.055	-0.246
-172.939	-59.057	0.163	-0.069
-171.925	252.502	0.071	-0.120
-170.910	-76.168	-0.080	-0.028
-169.896	-165.439	-0.213	-0.009
-168.881	323.904	-0.153	0.288
-167.866	800.000	0.041	-0.114
-166.852	-170.569	0.290	-0.010
-165.837	265.889	-0.176	0.302
-164.823	-179.290	0.301	0.007
-163.808	-200.000	0.026	-0.202
-162.793	-162.622	-0.275	-0.013
-161.779	0.742	-0.152	-0.107
-160.764	150.450	0.200	-0.267
-159.750	-200.000	0.026	-0.179
-158.735	92.081	-0.103	-0.115
-157.720	-134.162	-0.147	0.018
-156.706	309.961	0.169	0.310
-155.691	5.610	-0.126	-0.092
-154.677	-144.733	-0.190	-0.017
-153.662	207.709	-0.067	0.103
-152.647	-200.000	-0.033	-0.253
-151.633	-18.783	0.149	0.092
-150.618	-49.258	-0.030	-0.014
-149.604	-77.897	-0.235	0.080
-148.589	115.136	-0.221	-0.266
-147.574	-9.184	-0.116	-0.077
-146.560	-200.000	-0.033	0.266
-145.545	242.811	0.046	0.075
-144.531	80.333	-0.213	0.225
-143.516	299.950	0.130	-0.236
-142.502	800.000	-0.052	0.164
-141.487	63.959	-0.110	0.109
-140.472	-168.405	-0.121	-0.005
-139.458	356.528	-0.152	-0.297
-138.443	-106.270	0.246	-0.054
-137.429	-36.757	0.154	0.081
-136.414	-200.000	-0.019	0.084
-135.399	800.000	0.041	0.131
-134.385	-187.194	-0.196	-0.003
-133.370	-200.000	-0.020	0.163
-132.356	-98.025	0.248	-0.063
-131.341	-200.000	-0.037	0.198
-130.326	299.300	0.078	0.142
-129.312	800.000	0.034	-0.127
-128.297	-173.489	-0.197	0.006
-127.283	-98.526	-0.355	0.089
-126.268	-55.971	-0.086	0.038
-125.253	-200.000	-0.005	0.190
-124.239	800.000	0.083	-0.238
-123.224	-102.455	0.187	-0.044
-122.210	18.708	0.205	0.161
