DTS Sentinel unit serial number:	SN413079Multiplexer serial number:	ORYXHardware model number:	OX4-SRSoftware version number:	ORYX F/W v4.00 Oryx Data Collector v3.7.2.0data status	okinstallation	princeton_trtdifferential loss correction	single-endedforward channel	channel 1reverse channel	N/Adate	2019/09/16time	18:42:35forward acquisition time	60.00reverse acquisition time	0.00gamma	496.2192k internal	0.2307k external	0.2307temperature offset calibration	0.9943default loss term (dB/km)	0.3790temperature slope calibration	1.0000multiplexer offset coefficient	1.0000multiplexer slope coefficient	1.0000fibre end	0.00T internal ref (°C)	36.20T ext. ref 1 (°C)	0.05T ext. ref 2 (°C)	29.64length (m)	temperature (°C)	Stokes	anti-Stokes-747.200	125.079	0.246	-0.316
-746.185	800.000	-0.108	0.458
-745.171	-200.000	-0.037	-0.217
-744.156	123.831	0.158	0.202
-743.142	121.208	-0.100	0.127
-742.127	-66.638	0.276	0.111
-741.112	333.298	0.160	0.315
-740.098	-17.726	-0.275	0.175
-739.083	-161.128	0.149	0.008
-738.069	-93.275	-0.146	0.041
-737.054	-110.301	0.436	0.092
-736.039	-86.394	0.220	0.069
-735.025	120.279	-0.205	0.259
-734.010	118.993	-0.230	0.289
-732.996	-200.000	-0.018	-0.183
-731.981	-120.744	-0.094	0.016
-730.966	-144.599	-0.187	0.018
-729.952	-118.908	-0.177	0.032
-728.937	75.248	-0.124	-0.133
-727.923	-60.751	-0.170	-0.073
-726.908	222.203	-0.120	-0.197
-725.894	86.484	0.044	-0.049
-724.879	-37.066	-0.150	0.082
-723.864	-81.183	-0.121	0.041
-722.850	-200.000	-0.003	-0.283
-721.835	-4.995	-0.224	-0.157
-720.821	800.000	0.078	-0.271
-719.806	-116.760	-0.278	0.052
-718.791	-34.907	0.150	0.083
-717.777	800.000	-0.034	-0.103
-716.762	242.049	-0.075	0.128
-715.748	269.634	0.066	-0.118
-714.733	22.774	-0.117	-0.097
-713.718	106.301	-0.222	0.268
-712.704	-200.000	0.002	-0.266
-711.689	246.892	0.182	-0.312
-710.675	127.071	-0.086	0.111
-709.660	96.103	-0.022	0.025
-708.645	800.000	0.049	0.202
-707.631	-78.989	0.067	-0.023
-706.616	5.351	0.384	0.287
-705.602	-137.953	0.247	0.028
-704.587	30.693	0.221	0.192
-703.572	101.431	-0.118	-0.139
-702.558	-200.000	-0.004	0.035
-701.543	-200.000	0.000	-0.016
-700.529	401.012	0.055	-0.118
-699.514	8.375	0.091	0.069
-698.499	-30.827	0.335	-0.192
-697.485	68.477	-0.075	-0.078
-696.470	800.000	-0.084	-0.301
-695.456	-120.122	-0.405	0.070
-694.441	55.791	-0.099	0.097
-693.426	11.953	0.171	0.133
-692.412	13.640	-0.227	-0.179
-691.397	259.155	-0.049	0.086
-690.383	-135.186	0.399	-0.049
-689.368	-103.869	0.097	-0.023
-688.354	-200.000	0.043	-0.239
-687.339	351.767	-0.130	-0.260
-686.324	-190.942	-0.253	0.003
-685.310	465.931	-0.041	0.094
-684.295	42.860	-0.126	-0.116
-683.281	-100.112	-0.296	0.075
-682.266	-62.724	-0.280	-0.118
-681.251	-67.996	-0.248	-0.098
-680.237	-200.000	0.007	0.063
-679.222	75.172	-0.074	0.080
-678.208	1.103	-0.281	0.204
-677.193	-119.971	0.259	-0.045
-676.178	136.693	-0.171	-0.226
-675.164	1.219	-0.278	0.202
-674.149	291.066	-0.144	-0.265
-673.135	-148.711	0.226	0.019
-672.120	-102.035	-0.125	0.030
-671.105	-158.403	-0.119	-0.007
-670.091	-200.000	0.017	-0.247
-669.076	736.444	-0.035	0.096
-668.062	800.000	-0.093	-0.269
-667.047	-80.951	0.080	-0.027
-666.032	-200.000	-0.045	0.233
-665.018	72.314	-0.198	0.209
-664.003	654.736	0.068	0.178
-662.989	-200.000	0.007	0.105
-661.974	-72.778	0.199	-0.074
-660.959	-63.284	0.275	-0.115
-659.945	-72.167	-0.340	-0.128
-658.930	-200.000	-0.002	-0.206
-657.916	-129.886	0.382	0.053
-656.901	7.572	-0.060	0.045
-655.886	228.138	-0.163	-0.269
-654.872	684.513	0.027	-0.072
-653.857	23.489	0.237	-0.198
-652.843	-200.000	0.032	-0.181
-651.828	65.594	0.211	-0.216
-650.814	555.853	-0.012	-0.030
-649.799	158.907	0.290	-0.408
-648.784	-169.182	0.158	-0.006
-647.770	22.914	0.132	0.109
-646.755	-73.820	-0.248	0.091
-645.741	-200.000	-0.010	-0.407
-644.726	-37.358	-0.229	-0.124
-643.711	-99.311	-0.098	-0.025
-642.697	782.507	-0.011	0.031
-641.682	107.795	-0.129	-0.156
-640.668	-57.170	0.158	0.070
-639.653	-96.998	0.193	0.051
-638.638	309.337	0.107	-0.203
-637.624	-36.235	-0.073	0.040
-636.609	3.561	0.459	-0.339
-635.595	-57.870	0.191	0.085
-634.580	800.000	-0.048	-0.174
-633.565	509.202	0.133	-0.314
-632.551	-64.919	0.182	0.074
-631.536	439.633	-0.068	0.150
-630.522	142.249	-0.121	-0.163
-629.507	-30.464	0.230	0.132
-628.492	-45.367	0.119	0.060
-627.478	-79.452	-0.233	-0.080
-626.463	-43.506	0.144	0.074
-625.449	-179.768	-0.265	-0.006
-624.434	32.622	-0.175	-0.153
-623.419	-200.000	-0.046	0.368
-622.405	-33.355	-0.279	0.156
-621.390	-88.205	-0.228	-0.069
-620.376	44.434	0.079	0.074
-619.361	154.993	-0.133	-0.184
-618.346	-1.257	0.436	0.311
-617.332	-200.000	-0.040	0.206
-616.317	-64.527	0.201	-0.082
-615.303	8.726	0.205	-0.156
-614.288	385.487	0.116	0.242
-613.273	800.000	-0.008	-0.031
-612.259	165.545	-0.115	-0.165
-611.244	-200.000	-0.005	0.073
-610.230	-41.867	0.269	0.140
-609.215	-200.000	-0.008	0.060
-608.201	75.658	-0.160	-0.171
-607.186	-176.009	0.428	0.011
-606.171	-1.423	-0.141	0.100
-605.157	43.559	-0.278	0.258
-604.142	12.453	-0.225	0.175
-603.128	-200.000	-0.047	-0.258
-602.113	-200.000	-0.005	-0.087
-601.098	-200.000	0.031	-0.174
-600.084	-45.638	0.115	0.058
-599.069	-200.000	-0.052	-0.342
-598.055	800.000	-0.123	-0.435
-597.040	-98.267	0.163	-0.042
-596.025	-200.000	-0.003	-0.135
-595.011	-165.494	-0.024	0.001
-593.996	-200.000	0.001	-0.308
-592.982	200.200	-0.129	-0.200
-591.967	-130.696	0.318	-0.043
-590.952	-105.905	0.171	0.039
-589.938	-200.000	-0.007	0.091
-588.923	356.633	0.145	-0.292
-587.909	97.826	0.015	-0.017
-586.894	-51.444	0.070	-0.033
-585.879	-142.330	-0.268	-0.027
-584.865	231.778	-0.017	0.028
-583.850	210.601	0.219	-0.348
-582.836	-59.235	-0.338	0.147
-581.821	-200.000	0.035	0.159
-580.806	29.848	-0.194	-0.167
-579.792	-187.243	-0.075	-0.001
-578.777	21.195	0.027	-0.022
-577.763	-54.679	0.327	-0.149
-576.748	-200.000	-0.045	0.206
-575.733	-134.202	0.116	0.014
-574.719	-73.405	-0.103	0.038
-573.704	204.424	-0.198	-0.311
-572.690	3.314	0.293	-0.215
-571.675	81.258	0.045	0.049
-570.661	-200.000	-0.036	0.203
-569.646	-200.000	-0.351	-0.000
-568.631	800.000	-0.067	-0.240
-567.617	-47.840	0.263	0.129
-566.602	529.088	-0.097	-0.231
-565.588	-87.051	-0.298	0.092
-564.573	-91.461	0.239	-0.069
-563.558	-1.921	-0.098	0.069
-562.544	800.000	0.063	-0.182
-561.529	-132.427	-0.322	0.042
-560.515	317.721	-0.227	0.435
-559.500	800.000	-0.083	0.354
-558.485	-68.652	-0.242	-0.095
-557.471	57.149	-0.109	0.108
-556.456	-200.000	-0.030	0.267
-555.442	-200.000	0.004	0.240
-554.427	-161.756	-0.237	0.012
-553.412	196.853	0.216	-0.332
-552.398	-34.147	-0.238	-0.132
-551.383	-104.384	-0.111	-0.026
-550.369	-200.000	0.008	-0.262
-549.354	228.558	0.141	0.232
-548.339	800.000	-0.028	-0.123
-547.325	414.949	0.173	0.371
-546.310	64.946	-0.261	0.266
-545.296	-95.373	-0.227	0.062
-544.281	602.467	0.128	-0.322
-543.266	-200.000	0.012	-0.148
-542.252	73.180	-0.219	-0.231
-541.237	-71.978	0.053	0.020
-540.223	-200.000	0.035	0.229
-539.208	-104.770	-0.131	0.030
-538.193	-171.097	0.170	0.006
-537.179	2.651	-0.111	-0.081
-536.164	418.306	-0.090	-0.195
-535.150	800.000	-0.056	-0.244
-534.135	135.715	0.094	-0.123
-533.121	-200.000	0.029	-0.179
-532.106	-159.883	-0.379	0.021
-531.091	800.000	-0.087	-0.343
-530.077	67.479	-0.273	-0.281
-529.062	-200.000	-0.114	0.603
-528.048	447.570	-0.050	0.112
-527.033	-99.771	-0.281	0.071
-526.018	-169.554	0.153	-0.006
-525.004	-200.000	-0.003	0.080
-523.989	16.997	0.092	0.074
-522.975	-63.190	0.154	0.064
-521.960	225.718	0.028	-0.046
-520.945	478.148	0.067	0.154
-519.931	96.369	0.171	-0.197
-518.916	78.187	-0.070	0.075
-517.902	-200.000	0.022	-0.117
-516.887	-46.690	-0.367	-0.181
-515.872	50.625	-0.157	0.149
-514.858	-200.000	-0.011	-0.087
-513.843	-89.743	-0.284	-0.084
-512.829	49.992	-0.079	0.075
-511.814	144.455	-0.236	-0.318
-510.799	-45.691	-0.409	-0.204
-509.785	-22.675	-0.160	-0.098
-508.770	64.490	0.139	0.141
-507.756	-200.000	0.043	-0.277
-506.741	-90.995	0.211	-0.061
-505.726	-44.607	-0.218	-0.110
-504.712	313.985	0.092	-0.174
-503.697	-200.000	0.006	-0.361
-502.683	124.406	-0.036	0.046
-501.668	800.000	0.108	0.404
-500.653	109.021	0.086	0.104
-499.639	69.770	-0.117	0.122
-498.624	508.052	0.081	0.189
-497.610	-118.701	0.523	-0.093
-496.595	202.893	0.088	-0.137
-495.581	-89.365	-0.097	-0.029
-494.566	22.640	0.161	0.133
-493.551	-76.901	-0.289	-0.102
-492.537	-36.420	-0.298	-0.161
-491.522	19.170	-0.348	-0.281
-490.508	-27.818	-0.071	0.041
-489.493	-133.468	-0.097	-0.012
-488.478	87.278	0.099	-0.110
-487.464	390.580	-0.118	-0.246
-486.449	800.000	-0.053	-0.186
-485.435	-200.000	0.003	-0.086
-484.420	-45.060	-0.147	-0.074
-483.405	-200.000	-0.056	0.394
-482.391	2.917	0.101	-0.074
-481.376	111.532	-0.090	-0.109
-480.362	31.929	0.099	-0.086
-479.347	-171.159	0.118	0.004
-478.332	-8.641	0.212	0.143
-477.318	193.255	0.196	0.298
-476.303	-102.344	0.221	0.053
-475.289	336.143	-0.137	0.268
-474.274	-200.000	0.019	0.272
-473.259	35.829	-0.040	-0.035
-472.245	-110.258	-0.201	-0.042
-471.230	96.692	0.191	0.220
-470.216	-76.869	0.049	-0.017
-469.201	-200.000	-0.029	0.135
-468.186	173.992	0.087	-0.126
-467.172	-200.000	0.078	-0.367
-466.157	-200.000	-0.028	0.150
-465.143	263.359	0.018	-0.031
-464.128	-9.940	-0.025	-0.017
-463.113	800.000	-0.048	-0.162
-462.099	30.062	-0.037	0.032
-461.084	119.159	-0.275	-0.343
-460.070	-200.000	0.005	0.185
-459.055	392.663	-0.250	0.523
-458.040	90.554	0.157	0.177
-457.026	247.559	0.207	-0.351
-456.011	221.335	-0.130	-0.211
-454.997	-62.396	-0.042	-0.018
-453.982	-200.000	0.001	-0.392
-452.968	48.755	-0.206	-0.194
-451.953	111.213	0.311	-0.377
-450.938	-133.542	-0.304	0.038
-449.924	800.000	0.077	-0.286
-448.909	-106.659	0.474	0.106
-447.895	-90.974	0.329	0.095
-446.880	-130.540	0.262	-0.035
-445.865	224.169	0.107	0.174
-444.851	-31.446	0.157	-0.089
-443.836	25.000	0.086	0.072
-442.822	-37.220	0.187	0.100
-441.807	78.993	-0.197	0.212
-440.792	420.010	0.124	0.267
-439.778	-116.323	0.323	-0.060
-438.763	-47.917	0.124	0.060
-437.749	285.230	-0.120	-0.218
-436.734	755.268	0.131	0.356
-435.719	46.001	-0.217	0.201
-434.705	411.449	0.128	0.273
-433.690	-200.000	-0.029	-0.213
-432.676	-39.384	0.149	0.079
-431.661	-200.000	-0.031	0.545
-430.646	765.600	-0.199	0.544
-429.632	11.973	-0.182	-0.141
-428.617	13.459	0.172	0.134
-427.603	-101.984	0.061	0.015
-426.588	-32.523	0.202	-0.113
-425.573	-200.000	0.051	-0.491
-424.559	0.668	0.112	0.080
-423.544	604.591	0.139	-0.348
-422.530	-91.240	-0.281	-0.081
-421.515	-200.000	0.129	0.000
-420.500	-71.876	0.233	0.087
-419.486	800.000	0.174	0.599
-418.471	149.450	-0.115	0.156
-417.457	195.990	0.144	0.220
-416.442	800.000	-0.092	0.278
-415.428	769.635	0.069	0.190
-414.413	-37.945	0.135	-0.072
-413.398	-41.128	-0.093	0.048
-412.384	-4.202	-0.287	-0.199
-411.369	-151.735	-0.111	-0.008
-410.355	-27.192	0.051	-0.030
-409.340	79.883	0.133	-0.144
-408.325	364.950	-0.082	0.166
-407.311	800.000	0.020	0.066
-406.296	-200.000	0.025	-0.145
-405.282	-200.000	-0.079	-0.672
-404.267	-200.000	0.020	-0.142
-403.252	-49.251	-0.202	0.097
-402.238	-100.000	-0.184	0.046
-401.223	-166.163	-0.182	0.008
-400.209	-160.414	0.207	-0.011
-399.194	98.550	-0.172	-0.199
-398.179	-45.570	0.043	0.021
-397.165	-86.073	-0.039	-0.012
-396.150	251.704	0.103	0.175
-395.136	-49.110	0.190	0.091
-394.121	-151.058	0.130	-0.010
-393.106	-200.000	0.042	-0.320
-392.092	-47.678	-0.282	-0.137
-391.077	342.868	0.005	-0.010
-390.063	-27.731	-0.172	-0.100
-389.048	-200.000	0.049	-0.258
-388.033	5.031	0.134	0.099
-387.019	-41.802	-0.039	-0.020
-386.004	-35.559	0.200	0.109
-384.990	-200.000	-0.004	0.082
-383.975	244.125	0.053	0.089
-382.960	-200.000	-0.004	0.146
-381.946	-99.428	-0.353	0.089
-380.931	-72.121	-0.337	0.125
-379.917	-11.274	0.396	-0.261
-378.902	10.206	-0.192	-0.147
-377.888	93.097	0.115	0.130
-376.873	-74.619	0.070	0.025
-375.858	-5.969	0.160	0.110
-374.844	-168.972	-0.103	0.004
-373.829	127.398	-0.070	0.089
-372.815	25.235	-0.164	-0.136
-371.800	-28.052	0.140	0.081
-370.785	-117.935	-0.113	-0.020
-369.771	-200.000	-0.007	-0.405
-368.756	-29.014	-0.118	0.068
-367.742	-23.159	0.414	0.250
-366.727	-126.582	-0.073	0.011
-365.712	262.415	0.137	-0.239
-364.698	-25.427	0.125	0.074
-363.683	-66.060	0.322	-0.129
-362.669	19.153	0.084	0.067
-361.654	-45.446	-0.144	0.072
-360.639	-29.819	0.394	-0.225
-359.625	215.378	0.051	-0.081
-358.610	800.000	-0.101	0.387
-357.596	-35.338	-0.143	-0.078
-356.581	738.254	0.106	0.285
-355.566	-46.451	-0.232	-0.114
-354.552	145.589	0.026	-0.035
-353.537	800.000	0.038	0.157
-352.523	-119.273	-0.100	-0.017
-351.508	94.738	-0.152	0.173
-350.493	85.827	0.144	-0.159
-349.479	-177.463	0.067	0.002
-348.464	-200.000	-0.061	0.306
-347.450	-61.084	-0.101	-0.043
-346.435	800.000	0.057	0.188
-345.420	-169.790	0.033	-0.001
-344.406	100.102	0.023	-0.027
-343.391	-68.005	0.074	0.029
-342.377	-35.736	-0.155	0.084
-341.362	-25.201	-0.124	0.074
-340.348	-31.328	-0.150	0.084
-339.333	-80.329	0.156	-0.052
-338.318	-8.825	-0.039	0.026
-337.304	190.013	-0.199	0.299
-336.289	-160.008	-0.180	0.010
-335.275	-63.237	0.325	0.134
-334.260	406.464	-0.047	0.098
-333.245	800.000	0.040	0.147
-332.231	407.893	-0.242	0.512
-331.216	-200.000	-0.017	0.111
-330.202	-57.576	0.078	0.034
-329.187	-108.946	-0.292	0.062
-328.172	159.677	-0.334	-0.465
-327.158	-2.475	-0.117	-0.082
-326.143	66.212	-0.243	0.247
-325.129	89.411	-0.147	0.164
-324.114	158.322	-0.085	0.118
-323.099	302.508	0.107	0.197
-322.085	800.000	0.052	-0.154
-321.070	800.000	-0.025	-0.076
-320.056	-54.215	0.154	0.070
-319.041	288.455	-0.100	0.182
-318.026	-31.945	0.049	0.027
-317.012	-200.000	-0.025	-0.390
-315.997	-49.994	0.169	-0.080
-314.983	175.216	-0.053	-0.077
-313.968	800.000	0.099	-0.301
-312.953	167.848	0.134	-0.190
-311.939	-61.656	0.103	0.043
-310.924	-200.000	-0.040	0.186
-309.910	-116.004	0.365	0.068
-308.895	-200.000	-0.019	-0.154
-307.880	8.886	-0.128	-0.096
-306.866	-200.000	-0.108	0.636
-305.851	387.558	0.064	-0.132
-304.837	-65.965	0.111	0.044
-303.822	256.306	0.068	0.117
-302.807	382.770	0.167	0.343
-301.793	351.602	0.135	0.268
-300.778	-200.000	0.002	-0.058
-299.764	68.346	-0.097	0.100
-298.749	-200.000	0.018	-0.206
-297.735	-114.598	0.130	0.025
-296.720	135.955	-0.325	0.423
-295.705	-200.000	-0.099	0.000
-294.691	-84.916	0.220	0.069
-293.676	-200.000	-0.063	0.297
-292.662	98.521	-0.143	0.165
-291.647	64.236	0.221	0.222
-290.632	-200.000	-0.032	0.423
-289.618	91.194	-0.078	0.088
-288.603	-139.305	-0.231	-0.025
-287.589	352.360	0.097	-0.193
-286.574	133.509	0.047	-0.061
-285.559	-200.000	-0.034	-0.206
-284.545	41.385	0.128	-0.116
-283.530	40.776	-0.214	0.193
-282.516	-39.567	0.017	0.009
-281.501	255.853	0.356	-0.609
-280.486	0.890	0.119	-0.085
-279.472	-81.831	-0.284	0.093
-278.457	-157.479	0.372	0.022
-277.443	-109.579	0.301	-0.063
-276.428	-200.000	0.045	0.349
-275.413	-136.713	0.375	0.043
-274.399	532.382	-0.150	-0.355
-273.384	-200.000	-0.019	0.085
-272.370	-6.508	-0.137	0.093
-271.355	-200.000	0.012	-0.142
-270.340	-16.560	0.366	-0.231
-269.326	-100.758	0.176	0.043
-268.311	-200.000	-0.041	-0.408
-267.297	-70.457	-0.340	0.128
-266.282	-140.006	-0.224	-0.024
-265.267	88.467	0.061	0.067
-264.253	80.817	0.134	0.145
-263.238	-200.000	-0.075	-0.375
-262.224	-200.000	-0.003	-0.030
-261.209	-145.757	-0.197	0.018
-260.195	-124.474	0.339	0.053
-259.180	-178.148	0.044	0.001
-258.165	-200.000	-0.073	0.376
-257.151	-36.775	0.378	-0.202
-256.136	-97.861	-0.017	0.004
-255.122	-200.000	-0.032	0.502
-254.107	-74.773	-0.223	0.080
-253.092	257.695	-0.112	-0.192
-252.078	-200.000	-0.023	-0.183
-251.063	-67.075	0.058	0.023
-250.049	-71.294	0.159	0.059
-249.034	169.083	-0.044	-0.063
-248.019	289.537	-0.037	-0.067
-247.005	81.220	0.218	-0.235
-245.990	105.491	0.148	0.175
-244.976	230.463	-0.186	0.304
-243.961	-45.505	-0.261	-0.129
-242.946	-200.000	-0.013	0.341
-241.932	92.800	0.090	0.101
-240.917	110.539	0.147	-0.176
-239.903	179.220	-0.109	-0.159
-238.888	-39.260	0.279	-0.146
-237.873	-43.994	0.225	0.113
-236.859	-200.000	-0.110	-0.505
-235.844	-200.000	0.036	-0.266
-234.830	-200.000	0.046	-0.201
-233.815	800.000	-0.009	-0.029
-232.800	38.432	0.183	0.163
-231.786	51.354	0.086	-0.082
-230.771	-47.202	-0.095	0.046
-229.757	70.176	-0.220	-0.226
-228.742	-26.847	-0.148	-0.086
-227.727	349.738	-0.065	0.127
-226.713	547.853	-0.067	0.159
-225.698	-74.468	-0.116	-0.042
-224.684	800.000	0.056	0.159
-223.669	-21.428	0.223	0.136
-222.655	336.181	-0.140	0.271
-221.640	-158.431	0.231	-0.013
-220.625	133.227	0.028	-0.036
-219.611	-86.043	-0.221	-0.068
-218.596	711.865	-0.035	0.093
-217.582	800.000	0.090	-0.375
-216.567	-74.523	-0.108	0.039
-215.552	19.170	-0.123	0.098
-214.538	234.339	0.117	-0.191
-213.523	-96.402	-0.012	0.003
-212.509	22.634	-0.040	0.033
-211.494	800.000	-0.054	0.223
-210.479	-134.707	0.369	0.045
-209.465	-149.204	-0.117	-0.009
-208.450	62.281	-0.154	-0.153
-207.436	-200.000	-0.017	-0.251
-206.421	-32.733	0.100	-0.055
-205.406	800.000	0.018	0.066
-204.392	800.000	0.022	-0.094
-203.377	-200.000	0.036	0.174
-202.363	800.000	-0.070	0.231
-201.348	-200.000	0.023	0.221
-200.333	-122.561	0.266	-0.043
-199.319	-200.000	0.015	0.302
-198.304	334.455	0.107	0.206
-197.290	-96.276	0.155	-0.041
-196.275	7.487	-0.152	0.113
-195.260	-68.427	-0.330	0.127
-194.246	-44.278	0.225	0.112
-193.231	-70.527	-0.191	0.072
-192.217	213.289	-0.239	-0.375
-191.202	-34.012	-0.370	0.203
-190.187	178.474	-0.220	0.320
-189.173	-200.000	-0.012	-0.108
-188.158	51.721	-0.209	-0.198
-187.144	-200.000	0.010	-0.052
-186.129	5.851	-0.046	-0.034
-185.114	-200.000	0.023	-0.117
-184.100	681.889	0.008	0.021
-183.085	0.171	0.320	0.227
-182.071	-110.785	-0.149	0.031
-181.056	335.755	-0.080	-0.154
-180.042	-109.060	0.286	0.060
-179.027	-200.000	0.047	-0.212
-178.012	-200.000	0.064	-0.393
-176.998	-55.665	0.194	0.086
-175.983	-200.000	-0.013	0.127
-174.969	-200.000	-0.079	-0.347
-173.954	176.736	-0.165	-0.239
-172.939	-136.406	0.105	-0.012
-171.925	-127.142	-0.211	-0.031
-170.910	800.000	0.055	0.188
-169.896	-25.425	-0.218	0.128
-168.881	70.985	-0.208	0.214
-167.866	-122.446	0.146	0.024
-166.852	8.326	0.117	-0.087
-165.837	-59.413	-0.111	-0.047
-164.823	296.975	0.039	0.071
-163.808	342.403	-0.137	0.267
-162.793	-145.958	0.245	0.022
-161.779	800.000	0.061	0.196
-160.764	800.000	-0.091	0.252
-159.750	800.000	0.083	0.276
-158.735	-62.227	-0.240	-0.099
-157.720	-102.482	-0.251	-0.060
-156.706	-192.474	0.386	0.004
-155.691	147.330	-0.095	-0.127
-154.677	-85.267	0.311	-0.097
-153.662	74.611	-0.045	-0.047
-152.647	-36.027	0.264	-0.142
-151.633	-120.685	0.103	0.017
-150.618	-64.515	0.171	-0.069
-149.604	-102.619	-0.169	0.040
-148.589	499.571	0.055	-0.126
-147.574	-174.665	0.137	0.004
-146.560	55.228	-0.169	-0.162
-145.545	-40.250	0.155	-0.080
-144.531	-200.000	-0.017	0.148
-143.516	-23.898	-0.254	0.151
-142.502	151.378	-0.068	0.091
-141.487	800.000	-0.075	-0.274
-140.472	-96.968	0.172	-0.045
-139.458	-94.748	0.065	-0.018
-138.443	-200.000	0.032	0.212
-137.429	141.429	-0.203	0.267
-136.414	-200.000	-0.011	0.099
-135.399	99.671	-0.113	0.130
-134.385	-105.837	0.119	0.027
-133.370	148.460	0.157	0.210
-132.356	47.452	-0.083	0.077
-131.341	-200.000	0.097	0.000
-130.326	-200.000	-0.013	-0.206
-129.312	754.123	-0.060	-0.160
-128.297	-95.198	-0.067	-0.018
-127.283	303.192	-0.135	-0.248
-126.268	155.569	0.112	0.153
-125.253	-162.765	0.294	0.014
-124.239	-102.024	-0.179	0.043
-123.224	262.426	0.045	0.077
-122.210	800.000	0.018	-0.071
-121.195	65.845	-0.042	0.042
