DTS Sentinel unit serial number:	SN413079Multiplexer serial number:	ORYXHardware model number:	OX4-SRSoftware version number:	ORYX F/W v4.00 Oryx Data Collector v3.7.2.0data status	okinstallation	princeton_trtdifferential loss correction	single-endedforward channel	channel 1reverse channel	N/Adate	2019/09/19time	03:34:35forward acquisition time	60.00reverse acquisition time	0.00gamma	496.2192k internal	0.2343k external	0.2343temperature offset calibration	1.0020default loss term (dB/km)	0.3790temperature slope calibration	1.0000multiplexer offset coefficient	1.0000multiplexer slope coefficient	1.0000fibre end	0.00T internal ref (°C)	20.59T ext. ref 1 (°C)	0.64T ext. ref 2 (°C)	14.40length (m)	temperature (°C)	Stokes	anti-Stokes-747.200	800.000	-0.099	-0.402
-746.185	800.000	-0.055	0.211
-745.171	31.377	-0.156	0.134
-744.156	16.630	0.220	-0.174
-743.142	-35.098	-0.385	-0.210
-742.127	-98.821	-0.320	-0.082
-741.112	558.639	0.022	0.054
-740.098	52.350	-0.153	0.146
-739.083	562.162	0.073	0.177
-738.069	-200.000	0.006	0.076
-737.054	-170.092	-0.098	-0.003
-736.039	-12.847	-0.114	-0.074
-735.025	-47.699	0.210	-0.102
-734.010	-78.363	-0.309	-0.106
-732.996	210.564	-0.180	0.283
-731.981	-200.000	0.015	-0.330
-730.966	-118.599	-0.097	-0.017
-729.952	53.607	0.044	-0.042
-728.937	800.000	-0.024	-0.093
-727.923	36.412	0.216	0.190
-726.908	-117.676	-0.349	0.063
-725.894	-200.000	-0.037	-0.269
-724.879	354.169	-0.206	-0.409
-723.864	800.000	0.222	-0.677
-722.850	-200.000	0.058	-0.461
-721.835	731.904	-0.108	-0.289
-720.821	-200.000	-0.011	-0.191
-719.806	-149.589	0.077	-0.006
-718.791	-103.614	0.175	-0.041
-717.777	-200.000	0.024	-0.189
-716.762	-20.136	-0.144	-0.089
-715.748	32.741	-0.055	-0.048
-714.733	-192.530	0.374	0.003
-713.718	-141.089	-0.296	-0.030
-712.704	77.803	-0.120	-0.128
-711.689	-200.000	-0.013	0.298
-710.675	-26.154	0.015	0.009
-709.660	-2.546	-0.236	0.165
-708.645	386.419	-0.072	-0.150
-707.631	14.138	0.225	0.175
-706.616	-100.882	-0.178	-0.044
-705.602	210.223	0.220	0.344
-704.587	-200.000	-0.020	0.378
-703.572	-55.283	0.291	0.131
-702.558	-113.122	0.173	-0.034
-701.543	-75.079	-0.226	-0.081
-700.529	-33.509	0.116	0.064
-699.514	422.175	-0.022	0.047
-698.499	136.936	0.141	0.184
-697.485	323.289	0.062	0.119
-696.470	746.537	-0.068	0.183
-695.456	-200.000	-0.034	-0.179
-694.441	7.091	-0.354	-0.264
-693.426	-55.217	-0.232	-0.104
-692.412	-35.880	0.292	0.158
-691.397	-26.234	-0.107	0.063
-690.383	800.000	-0.072	-0.261
-689.368	800.000	0.180	-0.635
-688.354	-131.816	0.284	-0.037
-687.339	159.505	-0.072	0.100
-686.324	-8.184	-0.076	0.051
-685.310	201.409	0.048	-0.074
-684.295	-25.316	-0.124	-0.074
-683.281	800.000	-0.060	-0.172
-682.266	-89.100	-0.300	-0.089
-681.251	-79.672	-0.412	-0.139
-680.237	-30.852	0.288	0.163
-679.222	100.521	-0.120	-0.139
-678.208	-160.642	-0.239	-0.013
-677.193	-20.075	-0.090	0.055
-676.178	800.000	0.017	-0.075
-675.164	-154.142	-0.246	0.017
-674.149	-49.029	0.028	-0.013
-673.135	382.189	-0.137	-0.281
-672.120	165.166	0.109	0.153
-671.105	182.261	-0.162	0.238
-670.091	551.621	0.090	0.216
-669.076	-102.822	-0.112	-0.027
-668.062	62.336	-0.217	0.216
-667.047	-200.000	-0.060	0.329
-666.032	-200.000	0.021	0.218
-665.018	-1.717	0.078	0.055
-664.003	649.724	-0.132	-0.337
-662.989	201.555	-0.049	-0.075
-661.974	449.927	0.137	-0.303
-660.959	142.467	0.245	0.324
-659.945	-73.354	0.162	-0.059
-658.930	800.000	-0.044	0.177
-657.916	-157.843	-0.177	-0.010
-656.901	-200.000	0.070	-0.535
-655.886	-200.000	-0.010	0.140
-654.872	-113.844	-0.238	-0.046
-653.857	155.765	-0.144	0.198
-652.843	-14.076	0.241	-0.155
-651.828	-200.000	0.005	-0.141
-650.814	-92.621	0.211	-0.059
-649.799	-29.534	-0.157	0.090
-648.784	62.137	-0.062	-0.062
-647.770	127.084	0.315	0.398
-646.755	479.855	0.053	0.120
-645.741	-200.000	0.002	-0.111
-644.726	-100.400	0.182	0.045
-643.711	-74.905	0.240	0.086
-642.697	699.611	0.049	0.128
-641.682	-21.930	-0.124	0.075
-640.668	-78.377	0.127	0.043
-639.653	800.000	-0.121	0.410
-638.638	800.000	-0.052	-0.219
-637.624	71.394	-0.128	0.132
-636.609	-147.047	0.217	-0.019
-635.595	242.798	0.107	-0.179
-634.580	574.623	0.058	0.142
-633.565	2.146	-0.402	-0.290
-632.551	278.385	-0.065	-0.115
-631.536	-182.846	-0.021	-0.000
-630.522	55.662	-0.087	-0.084
-629.507	-94.271	-0.184	-0.050
-628.492	-21.728	0.089	0.054
-627.478	650.110	0.097	-0.247
-626.463	-200.000	0.061	-0.315
-625.449	-174.313	-0.322	-0.009
-624.434	39.014	0.153	0.136
-623.419	466.129	0.109	0.242
-622.405	-200.000	-0.032	-0.190
-621.390	28.655	-0.151	0.127
-620.376	-200.000	0.020	-0.147
-619.361	304.410	0.089	0.164
-618.346	-196.379	-0.260	0.002
-617.332	-57.170	-0.268	-0.118
-616.317	209.298	0.127	-0.198
-615.303	-58.789	0.219	-0.094
-614.288	290.979	0.023	0.042
-613.273	-21.829	-0.201	-0.122
-612.259	151.767	0.104	0.141
-611.244	800.000	-0.076	0.317
-610.230	-111.803	0.233	-0.047
-609.215	113.975	-0.131	0.159
-608.201	264.504	0.069	-0.120
-607.186	113.061	0.276	-0.334
-606.171	166.176	-0.178	-0.251
-605.157	650.631	0.041	-0.106
-604.142	337.480	0.043	0.083
-603.128	189.549	-0.067	-0.099
-602.113	-140.844	-0.359	-0.037
-601.098	106.970	0.047	-0.056
-600.084	-89.527	-0.274	0.080
-599.069	49.953	-0.321	-0.302
-598.055	-93.531	0.389	-0.107
-597.040	-200.000	0.015	-0.148
-596.025	-200.000	0.038	-0.200
-595.011	-24.334	0.169	-0.101
-593.996	-42.367	-0.102	-0.052
-592.982	27.498	0.134	0.112
-591.967	48.665	-0.065	0.061
-590.952	74.168	0.066	0.069
-589.938	29.573	-0.205	-0.174
-588.923	-75.494	0.363	0.129
-587.909	-200.000	0.028	0.138
-586.894	-200.000	-0.051	-0.260
-585.879	800.000	-0.028	0.098
-584.865	-79.921	-0.040	0.013
-583.850	2.358	-0.244	0.176
-582.836	-140.442	-0.118	0.012
-581.821	800.000	0.079	0.310
-580.806	-122.960	0.098	0.016
-579.792	-200.000	-0.002	-0.105
-578.777	-3.003	0.042	0.029
-577.763	800.000	-0.037	0.113
-576.748	-42.953	-0.256	-0.129
-575.733	218.717	-0.169	-0.269
-574.719	111.419	0.072	-0.086
-573.704	19.831	0.096	0.077
-572.690	-148.966	-0.125	0.010
-571.675	478.502	0.138	-0.311
-570.661	-119.251	-0.167	0.029
-569.646	313.509	0.078	0.146
-568.631	-200.000	0.024	-0.156
-567.617	47.202	0.143	0.133
-566.602	201.057	-0.177	-0.271
-565.588	-200.000	0.034	-0.263
-564.573	174.481	-0.211	-0.304
-563.558	-7.581	-0.099	0.067
-562.544	-200.000	-0.022	0.519
-561.529	-47.005	0.196	-0.095
-560.515	-78.064	0.332	0.114
-559.500	147.557	-0.073	-0.098
-558.485	-118.452	0.138	0.024
-557.471	800.000	-0.045	0.134
-556.456	38.055	-0.096	-0.085
-555.442	-105.554	-0.204	-0.046
-554.427	-23.964	0.208	0.124
-553.412	-69.109	-0.262	0.100
-552.398	184.126	-0.024	-0.036
-551.383	-161.957	-0.381	0.019
-550.369	-200.000	0.009	0.058
-549.354	800.000	0.106	-0.343
-548.339	194.420	0.124	0.186
-547.325	-85.107	0.178	-0.055
-546.310	800.000	-0.087	0.253
-545.296	-164.561	0.198	-0.009
-544.281	-66.263	0.181	0.071
-543.266	-65.719	-0.168	0.067
-542.252	-139.680	0.187	0.020
-541.237	14.578	-0.128	-0.099
-540.223	-200.000	-0.018	-0.370
-539.208	392.533	0.044	-0.092
-538.193	-48.851	0.295	-0.140
-537.179	-200.000	-0.110	-0.495
-536.164	-200.000	-0.023	0.202
-535.150	-107.501	-0.046	-0.010
-534.135	31.801	-0.093	0.080
-533.121	-200.000	0.009	0.394
-532.106	-200.000	0.022	0.166
-531.091	366.835	0.063	-0.127
-530.077	-50.543	0.095	0.044
-529.062	-86.095	0.218	-0.067
-528.048	144.022	0.096	-0.127
-527.033	-200.000	-0.001	0.069
-526.018	171.411	-0.096	0.137
-525.004	-110.662	0.458	0.094
-523.989	-200.000	0.053	0.247
-522.975	800.000	-0.086	0.264
-521.960	5.902	0.143	-0.105
-520.945	-123.136	0.274	-0.044
-519.931	-28.698	-0.170	-0.097
-518.916	-200.000	-0.011	-0.163
-517.902	-49.798	0.243	0.115
-516.887	201.644	0.099	0.151
-515.872	800.000	0.004	-0.017
-514.858	-200.000	0.030	0.238
-513.843	440.032	0.044	-0.095
-512.829	800.000	0.041	-0.176
-511.814	-200.000	0.037	0.310
-510.799	11.249	0.245	0.186
-509.785	-200.000	-0.021	0.332
-508.770	800.000	0.007	0.020
-507.756	-146.517	-0.269	0.023
-506.741	11.780	0.184	-0.140
-505.726	53.890	0.104	-0.099
-504.712	110.105	-0.256	-0.305
-503.697	457.875	-0.027	-0.060
-502.683	102.499	0.232	-0.269
-501.668	-164.301	-0.239	0.011
-500.653	800.000	0.071	-0.202
-499.639	338.643	-0.040	-0.077
-498.624	119.677	0.181	0.223
-497.610	441.566	0.026	-0.056
-496.595	173.247	0.090	0.128
-495.581	-183.861	-0.181	0.003
-494.566	-54.488	0.204	-0.091
-493.551	800.000	0.042	0.132
-492.537	-92.448	0.288	-0.080
-491.522	-108.394	0.335	0.072
-490.508	800.000	-0.042	0.173
-489.493	163.088	-0.071	-0.099
-488.478	47.375	0.164	-0.152
-487.464	-155.124	-0.310	-0.020
-486.449	-163.682	-0.394	0.018
-485.435	-56.866	-0.128	-0.056
-484.420	-15.303	-0.408	0.259
-483.405	-200.000	-0.026	-0.356
-482.391	173.936	-0.129	0.185
-481.376	-18.823	-0.126	0.078
-480.362	-112.296	-0.114	0.023
-479.347	49.816	0.382	-0.357
-478.332	-35.821	0.244	-0.131
-477.318	491.379	-0.168	-0.380
-476.303	-176.339	0.409	-0.011
-475.289	-200.000	-0.003	0.069
-474.274	56.674	-0.134	0.129
-473.259	-91.450	0.124	-0.035
-472.245	800.000	-0.047	0.161
-471.230	-102.603	-0.185	-0.044
-470.216	207.708	-0.068	0.104
-469.201	309.184	-0.154	0.285
-468.186	211.833	-0.229	0.358
-467.172	800.000	0.042	0.115
-466.157	309.859	-0.053	-0.098
-465.143	-200.000	0.023	0.183
-464.128	424.392	0.032	0.069
-463.113	-117.284	0.256	-0.046
-462.099	269.676	-0.117	-0.204
-461.084	197.683	0.162	-0.245
-460.070	-151.269	-0.297	-0.022
-459.055	646.086	-0.060	0.153
-458.040	-0.730	0.209	-0.147
-457.026	-29.791	-0.118	0.066
-456.011	-111.251	-0.219	0.044
-454.997	-123.793	0.096	0.015
-453.982	82.142	0.096	0.103
-452.968	-20.621	0.196	0.119
-451.953	523.236	0.114	-0.264
-450.938	-200.000	-0.019	-0.209
-449.924	-50.153	0.141	0.066
-448.909	-62.033	-0.189	0.078
-447.895	1.248	0.220	-0.157
-446.880	-200.000	-0.013	-0.178
-445.865	230.660	-0.059	-0.096
-444.851	102.678	-0.342	-0.396
-443.836	-130.810	0.143	0.019
-442.822	-176.351	-0.297	-0.008
-441.807	-200.000	-0.049	0.251
-440.792	26.665	0.048	0.039
-439.778	100.744	-0.172	-0.198
-438.763	-67.363	0.026	0.010
-437.749	-200.000	-0.035	-0.206
-436.734	-39.113	-0.057	0.029
-435.719	-200.000	0.029	-0.147
-434.705	-44.416	-0.235	-0.116
-433.690	701.787	-0.034	0.090
-432.676	-91.293	-0.275	0.078
-431.661	481.446	0.128	-0.287
-430.646	-20.807	0.255	-0.155
-429.632	131.744	-0.138	0.176
-428.617	98.141	-0.076	-0.087
-427.603	-109.992	-0.491	0.102
-426.588	-79.724	-0.275	0.092
-425.573	-12.812	-0.130	-0.084
-424.559	-23.002	0.425	0.253
-423.544	368.214	-0.138	0.276
-422.530	-118.169	0.367	0.065
-421.515	800.000	-0.045	-0.160
-420.500	598.936	-0.079	0.193
-419.486	-89.418	-0.309	-0.090
-418.471	88.362	0.159	0.175
-417.457	-200.000	-0.058	0.263
-416.442	-86.107	0.249	0.076
-415.428	-128.320	-0.367	-0.052
-414.413	-91.137	0.322	0.091
-413.398	118.255	-0.091	0.111
-412.384	-116.152	0.345	-0.063
-411.369	-182.124	-0.384	-0.007
-410.355	25.810	-0.315	-0.259
-409.340	-116.255	0.235	0.043
-408.325	-92.799	-0.293	-0.081
-407.311	-15.916	0.315	0.198
-406.296	3.945	-0.276	0.199
-405.282	-200.000	0.039	-0.208
-404.267	-156.655	0.191	-0.012
-403.252	-200.000	-0.018	-0.110
-402.238	281.993	-0.092	0.162
-401.223	-200.000	0.040	0.244
-400.209	-200.000	-0.038	0.397
-399.194	34.621	-0.189	-0.163
-398.179	612.763	0.045	-0.112
-397.165	-82.161	-0.070	-0.023
-396.150	28.358	0.257	-0.215
-395.136	-70.711	0.072	-0.027
-394.121	259.427	-0.205	0.349
-393.106	-12.726	-0.512	-0.330
-392.092	244.758	-0.182	0.302
-391.077	236.483	-0.138	-0.226
-390.063	-128.149	0.251	0.035
-389.048	148.938	-0.053	0.070
-388.033	128.703	-0.082	-0.103
-387.019	-69.162	0.452	0.172
-386.004	-200.000	0.076	0.371
-384.990	96.507	0.115	-0.129
-383.975	27.328	-0.202	-0.167
-382.960	324.214	-0.119	0.224
-381.946	4.334	-0.235	0.170
-380.931	70.462	0.314	-0.320
-379.917	-200.000	-0.022	0.386
-378.902	-74.734	0.149	-0.053
-377.888	723.720	0.085	-0.222
-376.873	249.382	0.129	-0.215
-375.858	404.274	0.150	0.312
-374.844	-67.767	-0.440	0.170
-373.829	800.000	0.108	-0.299
-372.815	-200.000	-0.058	-0.272
-371.800	-200.000	0.039	-0.427
-370.785	170.489	-0.108	0.153
-369.771	64.080	0.080	0.079
-368.756	-101.901	0.363	-0.087
-367.742	556.105	-0.121	-0.288
-366.727	-120.515	0.051	-0.009
-365.712	-42.468	-0.243	-0.122
-364.698	800.000	-0.052	0.181
-363.683	-117.833	0.218	-0.039
-362.669	-200.000	-0.001	-0.050
-361.654	111.000	0.063	0.075
-360.639	-200.000	0.041	0.212
-359.625	-43.700	0.134	-0.066
-358.610	33.465	-0.058	0.050
-357.596	-28.522	0.076	-0.043
-356.581	299.709	-0.218	-0.397
-355.566	9.890	-0.113	0.085
-354.552	-105.438	0.205	-0.046
-353.537	-200.000	0.004	-0.213
-352.523	-81.041	0.082	-0.027
-351.508	772.869	0.034	0.091
-350.493	800.000	0.081	0.282
-349.479	83.626	0.253	-0.272
-348.464	-32.110	-0.378	-0.208
-347.450	-40.386	-0.165	0.084
-346.435	-200.000	-0.038	-0.304
-345.420	280.022	0.057	-0.100
-344.406	-70.433	-0.087	0.032
-343.391	-125.272	0.194	0.029
-342.377	-115.771	0.334	-0.062
-341.362	-126.082	-0.220	-0.033
-340.348	-140.267	0.303	0.031
-339.333	-200.000	-0.005	-0.157
-338.318	349.579	-0.070	-0.136
-337.304	-200.000	0.014	0.063
-336.289	62.811	-0.211	0.208
-335.275	-99.724	0.172	-0.042
-334.260	-160.091	0.238	0.013
-333.245	-22.622	-0.158	0.094
-332.231	-200.000	0.056	-0.286
-331.216	34.087	0.156	0.134
-330.202	-130.500	0.038	-0.005
-329.187	-45.239	-0.161	-0.079
-328.172	-44.470	0.040	0.020
-327.158	42.732	-0.375	-0.336
-326.143	-57.987	-0.150	0.064
-325.129	14.648	0.294	0.226
-324.114	483.569	-0.119	-0.267
-323.099	-200.000	-0.009	0.128
-322.085	2.797	-0.035	-0.025
-321.070	-200.000	0.036	-0.275
-320.056	-105.623	-0.202	0.045
-319.041	-55.012	0.229	-0.102
-318.026	182.439	0.110	0.159
-317.012	70.163	-0.072	-0.073
-315.997	800.000	0.069	0.198
-314.983	53.101	0.258	0.243
-313.968	-200.000	0.019	0.218
-312.953	39.984	-0.273	-0.241
-311.939	254.418	-0.160	0.270
-310.924	-138.310	-0.414	0.045
-309.910	-200.000	0.012	-0.180
-308.895	-67.476	-0.195	0.075
-307.880	373.602	0.099	-0.198
-306.866	-118.816	0.234	0.041
-305.851	9.217	0.251	0.186
-304.837	-42.116	-0.189	-0.095
-303.822	-43.907	-0.193	-0.096
-302.807	-60.622	-0.152	-0.064
-301.793	-200.000	0.003	0.164
-300.778	-200.000	-0.004	0.122
-299.764	607.958	0.106	-0.261
-298.749	-33.159	0.249	-0.136
-297.735	11.730	-0.146	-0.110
-296.720	-200.000	-0.006	0.097
-295.705	53.441	0.193	0.182
-294.691	-7.517	-0.111	-0.074
-293.676	-78.556	0.341	0.115
-292.662	-54.028	-0.284	-0.127
-291.647	-130.976	-0.581	0.076
-290.632	-26.762	-0.153	-0.088
-289.618	-61.554	0.189	-0.078
-288.603	56.247	0.149	-0.143
-287.589	-200.000	-0.026	-0.405
-286.574	173.071	-0.167	0.237
-285.559	-200.000	-0.022	-0.286
-284.545	302.298	0.144	0.262
-283.530	202.541	-0.236	0.358
-282.516	-22.914	0.178	-0.105
-281.501	268.172	-0.187	0.323
-280.486	-16.767	-0.179	-0.112
-279.472	-7.942	0.120	-0.080
-278.457	30.806	-0.119	0.100
-277.443	-51.552	0.178	0.082
-276.428	-115.260	0.205	0.038
-275.413	800.000	0.065	-0.207
-274.399	-134.617	-0.122	-0.015
-273.384	-200.000	0.013	-0.090
-272.370	800.000	0.090	-0.298
-271.355	268.058	0.038	-0.066
-270.340	772.951	0.124	0.333
-269.326	-200.000	0.044	0.469
-268.311	-22.180	-0.142	0.085
-267.297	-184.957	0.211	-0.003
-266.282	152.391	0.108	-0.145
-265.267	800.000	-0.062	-0.186
-264.253	-129.251	0.062	-0.009
-263.238	146.856	0.230	-0.304
-262.224	166.906	-0.116	-0.162
-261.209	-68.129	-0.121	0.046
-260.195	-71.142	0.209	0.077
-259.180	-83.861	-0.257	0.081
-258.165	125.218	-0.137	-0.170
-257.151	8.302	0.137	0.101
-256.136	800.000	0.012	0.043
-255.122	331.792	0.071	0.135
-254.107	21.520	-0.076	0.061
-253.092	-92.712	-0.201	-0.055
-252.078	600.776	0.104	0.253
-251.063	-32.175	-0.107	0.059
-250.049	-159.223	0.087	0.005
-249.034	-141.428	-0.051	0.005
-248.019	-200.000	-0.012	0.061
-247.005	-56.253	-0.334	0.146
-245.990	-200.000	-0.208	0.001
-244.976	-29.446	-0.142	-0.080
-243.961	-121.014	-0.094	0.015
-242.946	-72.791	0.354	0.128
-241.932	16.208	0.156	-0.121
-240.917	153.405	0.070	-0.095
-239.903	-200.000	-0.017	0.220
-238.888	106.918	0.048	-0.056
-237.873	-141.222	-0.087	-0.009
-236.859	-38.159	-0.053	0.028
-235.844	-62.679	-0.353	0.144
-234.830	116.014	0.072	-0.086
-233.815	30.369	-0.174	-0.146
-232.800	103.900	-0.289	0.334
-231.786	-102.090	0.093	-0.022
-230.771	-103.352	-0.277	0.064
-229.757	-200.000	-0.031	-0.353
-228.742	-42.861	0.216	-0.108
-227.727	-200.000	0.033	0.151
-226.713	22.786	0.233	0.187
-225.698	-167.542	0.108	-0.004
-224.684	-101.212	-0.066	-0.016
-223.669	-200.000	-0.048	-0.227
-222.655	111.242	-0.160	-0.190
-221.640	-200.000	0.008	0.115
-220.625	-200.000	0.054	0.237
-219.611	-10.884	-0.260	-0.168
-218.596	-200.000	-0.031	0.139
-217.582	-64.749	-0.178	-0.071
-216.567	-65.591	0.158	0.062
-215.552	-200.000	-0.053	0.327
-214.538	800.000	0.074	-0.225
-213.523	-10.212	0.107	-0.070
-212.509	-200.000	0.008	-0.091
-211.494	800.000	0.070	0.232
-210.479	284.986	-0.118	0.208
-209.465	384.856	0.047	-0.095
-208.450	-85.542	-0.189	-0.058
-207.436	-122.436	0.175	0.028
-206.421	-200.000	-0.028	0.358
-205.406	178.237	0.199	-0.285
-204.392	-200.000	0.019	0.444
-203.377	0.989	-0.056	0.040
-202.363	-200.000	0.007	0.162
-201.348	-65.826	-0.198	-0.078
-200.333	-200.000	0.022	0.197
-199.319	667.765	-0.059	0.149
-198.304	-149.307	-0.173	0.013
-197.290	-46.188	0.412	-0.199
-196.275	-3.477	0.144	0.098
-195.260	-200.000	0.069	0.340
-194.246	-17.952	0.238	0.146
-193.231	800.000	0.092	0.310
-192.217	-157.254	0.277	0.016
-191.202	800.000	-0.049	0.182
-190.187	230.357	-0.067	0.107
-189.173	-200.000	0.010	-0.488
-188.158	31.547	0.216	-0.182
-187.144	-200.000	0.019	0.102
-186.129	384.644	-0.116	0.234
-185.114	-199.118	-0.044	-0.000
-184.100	-7.585	0.213	-0.141
-183.085	-200.000	-0.010	-0.266
-182.071	-200.000	0.006	0.169
-181.056	-131.048	0.304	0.040
-180.042	369.154	0.126	-0.249
-179.027	800.000	-0.043	-0.128
-178.012	800.000	-0.061	0.172
-176.998	-82.348	0.155	-0.049
-175.983	283.968	-0.107	-0.189
-174.969	32.472	-0.033	-0.028
-173.954	171.998	-0.355	0.500
-172.939	12.893	0.228	0.173
-171.925	-90.811	0.240	0.068
-170.910	-73.206	-0.301	0.108
-169.896	245.301	0.186	-0.306
-168.881	-104.543	0.250	-0.056
-167.866	-156.086	-0.149	-0.009
-166.852	-102.401	0.292	0.068
-165.837	-200.000	-0.021	-0.097
-164.823	20.611	0.160	0.127
-163.808	21.517	-0.220	-0.176
-162.793	777.225	0.050	-0.133
-161.779	-71.149	-0.284	-0.104
-160.764	99.045	-0.092	-0.104
-159.750	-17.844	0.487	0.299
-158.735	-57.107	0.264	0.114
-157.720	-120.478	0.217	0.036
-156.706	-200.000	0.026	0.160
-155.691	800.000	-0.060	0.185
-154.677	-80.000	-0.139	-0.045
-153.662	133.724	-0.174	-0.220
-152.647	493.733	-0.075	-0.168
-151.633	438.549	0.135	0.288
-150.618	272.528	-0.019	0.032
-149.604	343.325	-0.072	-0.137
-148.589	800.000	0.029	0.121
-147.574	45.159	-0.115	-0.103
-146.560	106.602	0.221	0.256
-145.545	-158.936	-0.480	-0.027
-144.531	259.485	-0.033	-0.055
-143.516	-196.882	-0.187	-0.001
-142.502	-127.730	0.441	-0.062
-141.487	-200.000	0.017	0.351
-140.472	25.541	-0.150	-0.122
-139.458	-200.000	0.177	-0.000
-138.443	12.259	0.306	0.230
-137.429	200.473	-0.037	0.055
-136.414	-88.149	0.168	0.049
-135.399	-162.708	-0.096	-0.005
-134.385	-117.547	0.328	-0.058
-133.370	-123.698	0.102	0.016
-132.356	52.469	0.175	0.163
-131.341	-148.821	-0.261	-0.021
-130.326	-59.293	-0.261	0.110
-129.312	80.975	-0.051	0.054
-128.297	-99.741	0.070	0.017
-127.283	485.906	-0.041	0.091
-126.268	-87.278	-0.361	-0.107
-125.253	183.187	-0.170	-0.245
-124.239	-200.000	-0.006	-0.300
-123.224	-8.853	0.217	-0.142
-122.210	118.433	-0.082	-0.098
