DTS Sentinel unit serial number:	SN413079Multiplexer serial number:	ORYXHardware model number:	OX4-SRSoftware version number:	ORYX F/W v4.00 Oryx Data Collector v3.7.2.0data status	okinstallation	princeton_trtdifferential loss correction	single-endedforward channel	channel 1reverse channel	N/Adate	2019/09/13time	06:54:35forward acquisition time	60.00reverse acquisition time	0.00gamma	496.2192k internal	0.2336k external	0.2336temperature offset calibration	1.0157default loss term (dB/km)	0.3790temperature slope calibration	1.0000multiplexer offset coefficient	1.0000multiplexer slope coefficient	1.0000fibre end	0.00T internal ref (°C)	26.00T ext. ref 1 (°C)	4.12T ext. ref 2 (°C)	20.70length (m)	temperature (°C)	Stokes	anti-Stokes-747.200	139.082	-0.208	-0.275
-746.185	-127.826	-0.361	0.052
-745.171	308.401	-0.052	-0.098
-744.156	-140.476	-0.281	-0.029
-743.142	160.144	0.182	0.255
-742.127	59.330	-0.016	0.016
-741.112	-11.751	0.109	0.072
-740.098	6.092	-0.308	0.229
-739.083	-21.005	0.154	0.095
-738.069	-169.718	-0.556	-0.020
-737.054	188.285	0.043	0.065
-736.039	-200.000	-0.009	-0.075
-735.025	-123.495	-0.034	0.005
-734.010	-128.569	-0.480	0.068
-732.996	-125.776	0.025	0.004
-731.981	-152.415	0.269	-0.019
-730.966	71.742	-0.180	-0.188
-729.952	651.021	0.086	-0.222
-728.937	-145.962	-0.448	-0.040
-727.923	-9.369	0.103	-0.069
-726.908	-29.898	-0.055	0.032
-725.894	-56.045	-0.044	0.020
-724.879	-120.290	0.126	0.022
-723.864	-200.000	0.054	-0.322
-722.850	-142.465	0.257	0.025
-721.835	179.323	0.101	0.149
-720.821	604.781	-0.122	0.305
-719.806	-200.000	-0.003	0.061
-718.791	79.739	0.018	0.019
-717.777	31.589	-0.086	-0.074
-716.762	130.727	0.301	-0.388
-715.748	501.621	0.030	0.070
-714.733	421.080	-0.048	0.102
-713.718	119.148	0.128	0.159
-712.704	-50.990	0.063	-0.030
-711.689	-200.000	-0.075	-0.336
-710.675	-23.924	-0.512	0.307
-709.660	-84.902	0.184	-0.058
-708.645	219.745	-0.294	0.472
-707.631	800.000	-0.046	-0.152
-706.616	-81.952	0.202	-0.066
-705.602	-200.000	0.024	-0.162
-704.587	-51.806	0.434	0.203
-703.572	-200.000	-0.027	0.295
-702.558	-200.000	0.004	-0.064
-701.543	-200.000	0.043	-0.280
-700.529	-200.000	-0.021	-0.122
-699.514	-43.613	0.149	0.075
-698.499	82.764	-0.072	-0.079
-697.485	-34.912	-0.185	-0.101
-696.470	-200.000	0.007	-0.176
-695.456	184.606	-0.146	0.217
-694.441	-21.123	0.033	0.020
-693.426	3.388	-0.142	0.104
-692.412	144.366	-0.131	-0.175
-691.397	-200.000	-0.027	-0.133
-690.383	116.256	-0.134	0.164
-689.368	-122.529	0.282	0.046
-688.354	-53.651	0.151	0.069
-687.339	1.994	-0.197	0.143
-686.324	-70.808	-0.147	0.055
-685.310	-200.000	-0.039	0.418
-684.295	-56.922	-0.167	-0.074
-683.281	335.253	-0.121	0.235
-682.266	-134.740	-0.092	0.011
-681.251	-86.027	-0.336	-0.104
-680.237	146.931	-0.134	-0.181
-679.222	108.175	0.112	0.134
-678.208	-95.896	0.138	0.037
-677.193	36.982	0.205	-0.182
-676.178	40.214	-0.096	-0.087
-675.164	354.598	0.057	-0.113
-674.149	67.543	-0.272	-0.279
-673.135	-23.099	-0.086	-0.052
-672.120	-85.792	-0.413	-0.128
-671.105	-130.040	-0.225	-0.031
-670.091	7.627	0.181	0.136
-669.076	-84.348	0.119	0.038
-668.062	-63.717	-0.155	-0.064
-667.047	82.958	-0.342	0.372
-666.032	54.926	0.101	0.097
-665.018	4.992	-0.052	0.038
-664.003	-12.388	0.397	-0.260
-662.989	13.117	-0.187	-0.145
-661.974	-200.000	0.034	-0.158
-660.959	-134.388	-0.111	-0.014
-659.945	-128.497	0.279	0.040
-658.930	-45.337	0.082	0.041
-657.916	800.000	-0.018	-0.065
-656.901	-69.902	0.292	0.111
-655.886	285.084	-0.122	0.219
-654.872	-6.188	-0.110	-0.075
-653.857	349.818	-0.123	-0.243
-652.843	377.467	0.054	0.111
-651.828	-133.408	0.187	-0.023
-650.814	-105.388	-0.291	-0.066
-649.799	-200.000	-0.032	-0.263
-648.784	368.193	0.103	-0.208
-647.770	47.128	0.084	-0.078
-646.755	-71.598	-0.209	-0.078
-645.741	-200.000	-0.005	0.051
-644.726	95.270	0.034	0.039
-643.711	800.000	-0.032	0.089
-642.697	800.000	-0.073	-0.245
-641.682	-8.550	-0.101	-0.068
-640.668	-200.000	0.051	-0.287
-639.653	69.197	0.104	-0.107
-638.638	800.000	-0.028	-0.110
-637.624	197.644	-0.104	0.159
-636.609	191.008	-0.106	-0.159
-635.595	33.389	0.352	0.305
-634.580	-88.122	0.063	-0.019
-633.565	-59.263	-0.247	-0.106
-632.551	-70.170	0.137	-0.052
-631.536	-0.782	0.180	-0.128
-630.522	55.033	-0.084	-0.081
-629.507	-50.047	-0.215	-0.102
-628.492	800.000	-0.041	-0.128
-627.478	800.000	-0.099	0.321
-626.463	800.000	-0.056	-0.199
-625.449	240.360	-0.092	0.154
-624.434	-149.128	-0.207	-0.017
-623.419	-143.802	0.148	-0.014
-622.405	54.467	-0.049	-0.047
-621.390	16.967	0.124	-0.098
-620.376	229.580	-0.114	-0.187
-619.361	-152.223	-0.225	0.016
-618.346	-159.483	-0.011	-0.001
-617.332	-65.221	0.191	0.077
-616.317	323.071	0.178	0.340
-615.303	2.871	0.172	0.124
-614.288	-137.171	0.194	0.022
-613.273	51.163	-0.159	0.151
-612.259	-112.931	0.141	0.028
-611.244	25.517	0.196	-0.163
-610.230	-117.288	-0.171	-0.031
-609.215	122.893	0.181	-0.227
-608.201	-200.000	0.039	0.305
-607.186	255.055	0.158	-0.270
-606.171	-95.316	-0.273	-0.073
-605.157	500.757	0.162	-0.373
-604.142	-57.460	0.049	0.022
-603.128	160.039	0.173	-0.241
-602.113	-105.087	0.254	0.058
-601.098	-13.345	0.147	0.095
-600.084	158.301	0.184	0.255
-599.069	60.707	0.072	-0.071
-598.055	-200.000	-0.042	0.355
-597.040	-140.985	0.015	0.002
-596.025	-155.356	-0.229	0.015
-595.011	-0.394	0.155	-0.110
-593.996	-31.528	-0.132	0.074
-592.982	-31.635	-0.203	-0.114
-591.967	-7.073	0.446	-0.302
-590.952	-28.770	0.249	-0.143
-589.938	-200.000	-0.019	-0.185
-588.923	-84.575	-0.135	0.043
-587.909	-3.193	-0.287	-0.200
-586.894	12.186	0.282	-0.217
-585.879	-144.018	-0.182	0.017
-584.865	-125.334	-0.270	0.041
-583.850	144.651	0.185	0.246
-582.836	265.255	0.111	-0.193
-581.821	556.664	-0.063	0.151
-580.806	0.618	0.229	-0.163
-579.792	130.705	0.157	0.201
-578.777	-89.274	-0.216	0.063
-577.763	38.701	0.113	-0.101
-576.748	-152.524	-0.239	-0.017
-575.733	120.199	0.195	0.241
-574.719	-99.377	-0.040	-0.010
-573.704	-200.000	-0.106	-0.602
-572.690	-38.561	-0.388	0.204
-571.675	299.019	0.078	0.144
-570.661	-200.000	0.006	0.039
-569.646	-200.000	0.039	0.211
-568.631	180.893	-0.216	0.316
-567.617	-200.000	0.010	-0.347
-566.602	-200.000	0.024	-0.508
-565.588	-55.965	0.372	0.165
-564.573	59.090	-0.261	0.256
-563.558	-200.000	-0.049	-0.220
-562.544	-186.752	-0.268	-0.004
-561.529	-53.899	0.154	0.070
-560.515	692.644	-0.122	-0.320
-559.500	-200.000	0.024	0.312
-558.485	-22.510	0.233	0.140
-557.471	-85.789	0.159	-0.049
-556.456	100.318	-0.287	0.332
-555.442	53.106	0.103	0.099
-554.427	205.999	0.110	-0.170
-553.412	7.469	0.209	0.156
-552.398	-29.608	0.129	-0.073
-551.383	-69.155	-0.161	-0.062
-550.369	-4.141	-0.225	0.155
-549.354	800.000	0.060	0.167
-548.339	-200.000	0.031	-0.143
-547.325	444.728	0.053	-0.117
-546.310	-200.000	0.007	-0.047
-545.296	499.348	-0.073	-0.167
-544.281	95.236	0.198	-0.224
-543.266	-190.477	0.234	0.003
-542.252	-160.585	-0.183	0.010
-541.237	28.203	0.069	-0.058
-540.223	800.000	0.106	0.319
-539.208	-200.000	-0.003	0.338
-538.193	-200.000	0.011	0.180
-537.179	433.663	-0.137	-0.296
-536.164	-46.194	0.309	-0.151
-535.150	459.180	-0.057	-0.125
-534.135	-30.944	-0.212	0.119
-533.121	9.744	0.154	0.116
-532.106	181.837	-0.173	-0.253
-531.091	449.681	-0.053	0.115
-530.077	72.915	-0.170	0.177
-529.062	313.762	-0.067	-0.126
-528.048	48.897	-0.213	0.199
-527.033	-112.663	0.413	-0.082
-526.018	-67.603	-0.331	-0.129
-525.004	-160.333	0.312	-0.017
-523.989	34.960	-0.276	0.241
-522.975	800.000	-0.067	0.217
-521.960	-200.000	0.016	0.475
-520.945	-200.000	0.038	-0.265
-519.931	-200.000	-0.000	0.005
-518.916	-81.866	-0.107	0.035
-517.902	39.756	0.193	-0.172
-516.887	-35.883	-0.256	-0.138
-515.872	-5.541	-0.195	-0.133
-514.858	175.516	0.125	-0.181
-513.843	-200.000	-0.037	-0.330
-512.829	33.792	0.101	0.088
-511.814	-74.204	-0.131	0.047
-510.799	-82.208	-0.066	0.021
-509.785	800.000	-0.059	-0.164
-508.770	101.546	0.057	0.066
-507.756	88.222	0.207	0.228
-506.741	72.490	-0.039	0.040
-505.726	565.525	0.050	-0.120
-504.712	114.889	-0.112	0.136
-503.697	31.170	-0.053	-0.045
-502.683	-200.000	0.010	0.208
-501.668	800.000	0.075	0.220
-500.653	697.103	-0.160	-0.418
-499.639	19.649	0.245	0.196
-498.624	486.466	-0.069	0.157
-497.610	-200.000	-0.010	-0.185
-496.595	58.699	-0.156	0.152
-495.581	-13.398	0.328	0.212
-494.566	-105.326	0.451	0.102
-493.551	-163.985	-0.301	0.014
-492.537	800.000	-0.113	-0.386
-491.522	655.877	-0.030	0.077
-490.508	111.091	0.017	0.021
-489.493	55.204	-0.214	0.206
-488.478	-155.102	0.335	0.022
-487.464	-96.061	0.220	-0.058
-486.449	-39.670	-0.191	0.100
-485.435	166.846	0.213	0.300
-484.420	-36.685	0.141	-0.076
-483.405	-200.000	-0.023	0.168
-482.391	-132.995	-0.349	-0.044
-481.376	-13.185	0.287	0.185
-480.362	106.906	0.237	-0.279
-479.347	-62.930	-0.521	0.214
-478.332	-142.614	0.355	-0.035
-477.318	800.000	0.082	-0.349
-476.303	-93.897	0.142	-0.039
-475.289	-143.467	-0.320	-0.030
-474.274	3.503	0.194	0.140
-473.259	312.719	-0.088	0.163
-472.245	-162.481	-0.320	0.016
-471.230	707.459	-0.112	0.295
-470.216	-4.152	-0.319	0.220
-469.201	-83.172	0.151	-0.048
-468.186	-117.425	0.437	-0.079
-467.172	207.704	-0.060	-0.094
-466.157	88.160	-0.103	0.113
-465.143	-102.364	0.295	-0.070
-464.128	-76.232	-0.201	-0.070
-463.113	-14.070	-0.198	-0.127
-462.099	-200.000	-0.030	-0.191
-461.084	-25.605	-0.215	-0.126
-460.070	-73.701	-0.259	0.094
-459.055	-57.139	0.183	0.080
-458.040	-32.293	0.228	-0.126
-457.026	309.712	-0.053	-0.099
-456.011	129.653	0.060	-0.076
-454.997	382.471	-0.243	0.496
-453.982	-200.000	-0.296	-0.000
-452.968	-49.006	0.142	0.067
-451.953	-28.861	0.226	0.129
-450.938	800.000	-0.129	0.387
-449.924	-194.354	-0.185	-0.001
-448.909	-63.147	0.037	-0.015
-447.895	54.129	-0.172	-0.164
-446.880	-174.932	0.372	0.010
-445.865	-182.547	-0.237	0.004
-444.851	8.414	0.111	-0.083
-443.836	-200.000	-0.040	-0.286
-442.822	-122.001	-0.404	0.066
-441.807	-108.852	0.288	-0.061
-440.792	90.240	0.038	0.043
-439.778	175.366	-0.109	-0.157
-438.763	-200.000	-0.029	0.165
-437.749	-200.000	-0.015	0.197
-436.734	-200.000	0.017	0.329
-435.719	611.959	-0.102	-0.254
-434.705	141.124	0.118	-0.155
-433.690	225.844	0.051	0.083
-432.676	240.454	-0.077	0.128
-431.661	169.423	-0.136	0.192
-430.646	-56.762	0.465	-0.204
-429.632	-40.809	-0.305	-0.157
-428.617	-200.000	-0.101	-0.449
-427.603	128.530	-0.164	-0.207
-426.588	-105.369	-0.264	-0.060
-425.573	800.000	0.045	0.167
-424.559	-85.363	-0.416	0.129
-423.544	-129.687	-0.213	-0.029
-422.530	-176.827	0.220	-0.006
-421.515	-59.259	-0.292	0.125
-420.500	122.309	-0.161	-0.199
-419.486	35.974	0.190	-0.165
-418.471	552.284	-0.174	0.413
-417.457	-200.000	-0.004	0.023
-416.442	63.352	-0.471	-0.468
-415.428	800.000	-0.065	-0.264
-414.413	-17.807	0.266	0.166
-413.398	-76.414	0.220	0.077
-412.384	58.270	0.267	0.259
-411.369	-200.000	0.013	-0.062
-410.355	-1.406	-0.073	-0.051
-409.340	44.871	0.368	0.336
-408.325	-20.046	0.161	-0.098
-407.311	107.842	-0.183	-0.216
-406.296	-175.233	0.101	0.003
-405.282	15.655	0.055	0.043
-404.267	-86.925	-0.325	0.098
-403.252	-93.080	0.071	-0.020
-402.238	-200.000	-0.012	0.088
-401.223	800.000	0.119	0.360
-400.209	-47.490	-0.327	0.157
-399.194	-200.000	0.025	0.321
-398.179	18.053	-0.095	0.075
-397.165	-24.544	0.141	-0.083
-396.150	-64.847	0.104	-0.042
-395.136	-200.000	0.027	0.161
-394.121	-55.301	0.195	-0.087
-393.106	-200.000	-0.067	0.397
-392.092	800.000	-0.011	-0.039
-391.077	6.737	-0.162	0.119
-390.063	-39.509	-0.156	0.081
-389.048	22.552	-0.099	0.080
-388.033	646.440	-0.095	-0.241
-387.019	-5.385	0.355	-0.241
-386.004	-128.409	0.112	-0.016
-384.990	7.478	0.182	-0.135
-383.975	-75.573	-0.115	0.040
-382.960	-49.362	0.271	0.128
-381.946	310.150	0.064	-0.118
-380.931	-42.086	-0.021	0.011
-379.917	47.516	-0.142	-0.131
-378.902	800.000	0.099	-0.373
-377.888	74.612	-0.345	0.360
-376.873	-99.341	-0.146	-0.036
-375.858	-7.463	0.080	0.054
-374.844	800.000	0.035	0.099
-373.829	800.000	0.044	-0.129
-372.815	160.980	0.127	-0.175
-371.800	-145.054	-0.223	-0.020
-370.785	128.688	-0.159	-0.201
-369.771	-91.011	0.343	-0.098
-368.756	-87.368	-0.370	0.111
-367.742	298.648	0.079	0.144
-366.727	-77.509	0.288	0.099
-365.712	800.000	0.112	0.308
-364.698	371.107	0.074	-0.148
-363.683	800.000	-0.046	-0.169
-362.669	-102.558	0.149	0.035
-361.654	-158.402	0.208	-0.012
-360.639	-102.257	-0.309	0.073
-359.625	103.719	0.096	-0.112
-358.610	-67.029	-0.429	0.167
-357.596	800.000	-0.050	-0.212
-356.581	-14.193	-0.102	0.065
-355.566	295.224	0.034	0.062
-354.552	-156.211	0.181	-0.011
-353.537	-30.722	0.144	-0.080
-352.523	35.961	-0.082	-0.071
-351.508	-135.856	0.340	-0.040
-350.493	-200.000	-0.069	0.344
-349.479	24.817	-0.099	-0.081
-348.464	296.067	-0.126	-0.228
-347.450	800.000	-0.035	-0.141
-346.435	-4.640	0.369	-0.252
-345.420	-100.450	-0.071	0.017
-344.406	144.348	0.113	0.149
-343.391	-116.533	0.060	0.011
-342.377	-104.589	-0.314	-0.072
-341.362	137.264	0.167	0.216
-340.348	-133.681	0.190	-0.023
-339.333	-200.000	-0.054	-0.266
-338.318	800.000	-0.049	0.173
-337.304	718.542	0.057	-0.151
-336.289	301.949	0.073	-0.133
-335.275	144.427	0.087	-0.115
-334.260	-200.000	0.001	-0.073
-333.245	-40.856	-0.058	-0.030
-332.231	-125.996	-0.126	0.019
-331.216	800.000	-0.089	-0.306
-330.202	-51.701	0.071	0.033
-329.187	-108.031	-0.027	-0.006
-328.172	-200.000	0.027	-0.164
-327.158	381.866	-0.060	-0.122
-326.143	-70.458	0.137	-0.051
-325.129	416.151	0.084	-0.177
-324.114	90.371	0.193	0.214
-323.099	-91.463	-0.201	0.057
-322.085	73.269	-0.195	-0.202
-321.070	-45.908	0.093	-0.045
-320.056	-75.348	-0.471	-0.166
-319.041	-138.616	0.156	0.017
-318.026	-200.000	0.039	0.305
-317.012	-141.678	0.199	-0.020
-315.997	106.319	-0.190	0.222
-314.983	29.491	-0.315	-0.264
-313.968	-200.000	0.008	-0.308
-312.953	-200.000	-0.003	-0.432
-311.939	-200.000	0.021	-0.312
-310.924	231.633	-0.011	0.017
-309.910	204.244	0.111	0.170
-308.895	-100.170	0.309	0.076
-307.880	247.463	0.111	0.184
-306.866	4.198	0.338	-0.244
-305.851	194.187	-0.032	-0.047
-304.837	1.130	0.164	-0.116
-303.822	155.376	-0.059	0.080
-302.807	54.170	0.103	-0.098
-301.793	52.288	-0.140	0.131
-300.778	-117.463	-0.193	0.034
-299.764	-200.000	-0.007	0.049
-298.749	-77.419	0.221	0.076
-297.735	-200.000	0.025	-0.148
-296.720	-142.565	0.293	0.028
-295.705	-200.000	-0.009	0.146
-294.691	-200.000	-0.010	0.233
-293.676	105.047	0.079	0.092
-292.662	800.000	0.027	-0.095
-291.647	428.055	0.050	0.106
-290.632	-102.100	0.159	-0.038
-289.618	80.781	-0.169	0.180
-288.603	800.000	0.082	0.312
-287.589	-110.611	0.384	-0.078
-286.574	-200.000	-0.043	0.274
-285.559	-83.326	0.170	-0.054
-284.545	213.091	-0.065	-0.101
-283.530	-19.676	0.104	-0.063
-282.516	106.830	-0.222	-0.260
-281.501	235.320	0.170	-0.276
-280.486	185.414	-0.032	-0.047
-279.472	62.303	0.140	0.137
-278.457	800.000	-0.081	0.236
-277.443	149.145	-0.226	-0.301
-276.428	-189.202	0.275	0.003
-275.413	-112.402	0.259	0.051
-274.399	3.955	0.155	0.112
-273.384	-62.724	-0.369	-0.151
-272.370	-105.600	0.357	-0.080
-271.355	-130.950	-0.181	-0.024
-270.340	800.000	0.060	-0.218
-269.326	800.000	-0.084	-0.237
-268.311	423.035	0.295	0.626
-267.297	-200.000	0.014	-0.109
-266.282	-149.214	-0.159	0.013
-265.267	-86.504	0.054	0.016
-264.253	515.594	-0.067	0.155
-263.238	-200.000	-0.006	0.232
-262.224	185.156	-0.038	-0.056
-261.209	800.000	-0.027	0.107
-260.195	-121.688	0.148	-0.024
-259.180	-64.506	0.185	0.074
-258.165	-53.214	0.373	0.169
-257.151	194.484	0.079	-0.118
-256.136	-200.000	-0.029	-0.202
-255.122	800.000	-0.064	0.200
-254.107	-200.000	-0.003	0.186
-253.092	-200.000	-0.060	0.527
-252.078	303.549	-0.048	-0.087
-251.063	-41.880	-0.070	-0.035
-250.049	222.571	-0.178	-0.282
-249.034	57.234	-0.234	-0.225
-248.019	-200.000	-0.012	-0.126
-247.005	-20.288	-0.135	-0.082
-245.990	-200.000	-0.115	-0.501
-244.976	91.712	-0.194	-0.215
-243.961	55.461	0.279	-0.266
-242.946	45.518	-0.251	0.228
-241.932	-136.049	-0.155	0.018
-240.917	-134.262	-0.420	-0.051
-239.903	20.856	-0.142	0.113
-238.888	133.379	0.097	-0.124
-237.873	221.851	-0.055	0.087
-236.859	-101.857	0.158	0.038
-235.844	623.235	0.084	-0.208
-234.830	-195.012	-0.158	0.001
-233.815	-158.370	0.259	0.015
-232.800	-40.154	0.054	0.028
-231.786	-200.000	0.129	0.820
-230.771	-161.452	-0.120	-0.006
-229.757	-200.000	0.001	0.070
-228.742	-200.000	-0.015	0.070
-227.727	-200.000	0.073	0.358
-226.713	716.031	-0.035	0.092
-225.698	-83.121	-0.204	-0.065
-224.684	-200.000	0.043	-0.631
-223.669	-200.000	0.014	-0.393
-222.655	-149.876	-0.042	0.003
-221.640	-7.369	0.115	0.076
-220.625	-67.096	-0.165	0.064
-219.611	-92.269	0.226	-0.063
-218.596	-148.248	-0.088	-0.007
-217.582	-200.000	-0.003	-0.125
-216.567	-178.147	0.179	0.004
-215.552	800.000	-0.096	-0.330
-214.538	-100.946	-0.353	-0.085
-213.523	800.000	0.082	-0.230
-212.509	-62.498	0.216	-0.088
-211.494	183.308	-0.118	0.172
-210.479	-200.000	-0.006	0.119
-209.465	800.000	-0.189	0.546
-208.450	800.000	0.187	0.551
-207.436	-70.006	-0.026	0.010
-206.421	-160.695	-0.196	-0.010
-205.406	800.000	0.048	0.155
-204.392	-43.156	0.032	-0.016
-203.377	-53.981	-0.148	0.066
-202.363	693.592	0.108	0.279
-201.348	-200.000	0.055	-0.236
-200.333	248.388	0.186	-0.309
-199.319	58.773	-0.189	-0.183
-198.304	8.642	0.263	-0.195
-197.290	177.688	-0.080	0.115
-196.275	336.749	-0.128	0.244
-195.260	-146.431	0.108	-0.009
-194.246	-120.009	-0.216	0.036
-193.231	709.431	0.061	-0.158
-192.217	-22.324	0.190	-0.113
-191.202	-38.701	0.220	-0.114
-190.187	-200.000	0.014	0.081
-189.173	-42.357	-0.180	0.090
-188.158	304.471	-0.127	-0.231
-187.144	458.124	-0.119	-0.260
-186.129	-44.996	0.292	0.143
-185.114	-200.000	-0.000	0.061
-184.100	-171.375	0.212	-0.007
-183.085	-122.112	-0.189	0.031
-182.071	-61.664	0.139	-0.057
-181.056	800.000	0.063	0.184
-180.042	34.917	-0.202	-0.174
-179.027	-200.000	-0.039	0.221
-178.012	-8.301	0.366	0.242
-176.998	541.575	0.068	0.159
-175.983	-4.181	-0.234	0.159
-174.969	-200.000	0.019	0.102
-173.954	-4.272	-0.220	0.149
-172.939	328.711	0.114	-0.216
-171.925	133.139	0.138	-0.175
-170.910	-2.733	-0.327	0.224
-169.896	-39.923	0.155	-0.080
-168.881	-83.504	-0.147	-0.046
-167.866	-200.000	0.039	0.280
-166.852	-158.068	0.112	0.006
-165.837	-135.256	-0.165	0.019
-164.823	-200.000	0.023	-0.173
-163.808	-200.000	-0.073	0.365
-162.793	418.311	0.057	0.120
-161.779	-169.890	-0.333	0.012
-160.764	-166.714	0.178	0.007
-159.750	-8.539	0.287	0.189
-158.735	-200.000	0.002	-0.129
-157.720	-52.207	-0.058	-0.027
-156.706	800.000	-0.072	0.237
-155.691	-17.165	-0.241	-0.149
-154.677	-61.289	0.065	-0.027
-153.662	83.052	0.123	0.132
-152.647	-63.967	-0.539	0.216
-151.633	123.416	-0.244	0.300
-150.618	-63.890	-0.196	0.079
-149.604	-34.755	0.062	-0.033
-148.589	-111.678	0.216	-0.043
-147.574	800.000	0.038	-0.147
-146.560	800.000	-0.047	0.131
-145.545	447.374	-0.016	-0.035
-144.531	748.572	-0.035	0.092
-143.516	-128.437	0.124	0.017
-142.502	337.055	-0.050	0.095
-141.487	-161.931	-0.284	-0.014
-140.472	101.664	-0.051	-0.059
-139.458	-200.000	-0.019	0.467
-138.443	-13.600	0.251	-0.159
-137.429	45.300	-0.021	0.019
-136.414	317.056	0.034	-0.063
-135.399	-99.361	0.319	-0.079
-134.385	800.000	-0.124	0.530
-133.370	318.778	0.136	-0.253
-132.356	800.000	-0.081	-0.310
-131.341	-156.127	0.448	-0.028
-130.326	149.179	-0.177	-0.235
-129.312	237.580	-0.191	0.311
-128.297	7.576	-0.095	0.069
-127.283	-153.287	0.141	-0.010
-126.268	104.577	-0.094	0.109
-125.253	46.976	-0.123	0.112
-124.239	-124.458	0.106	-0.016
-123.224	4.648	-0.104	-0.075
-122.210	-94.392	0.278	-0.074
