DTS Sentinel unit serial number:	SN413079Multiplexer serial number:	ORYXHardware model number:	OX4-SRSoftware version number:	ORYX F/W v4.00 Oryx Data Collector v3.7.2.0data status	okinstallation	princeton_trtdifferential loss correction	single-endedforward channel	channel 1reverse channel	N/Adate	2019/09/19time	03:06:35forward acquisition time	60.00reverse acquisition time	0.00gamma	496.2192k internal	0.2344k external	0.2344temperature offset calibration	1.0020default loss term (dB/km)	0.3790temperature slope calibration	1.0000multiplexer offset coefficient	1.0000multiplexer slope coefficient	1.0000fibre end	0.00T internal ref (°C)	20.81T ext. ref 1 (°C)	0.65T ext. ref 2 (°C)	14.45length (m)	temperature (°C)	Stokes	anti-Stokes-747.200	-200.000	0.015	0.283
-746.185	-27.627	-0.182	0.106
-745.171	60.636	0.358	0.355
-744.156	-200.000	0.099	0.548
-743.142	100.424	0.015	0.018
-742.127	-27.490	0.246	-0.143
-741.112	-200.000	0.051	0.222
-740.098	800.000	0.079	0.244
-739.083	-25.737	0.447	0.264
-738.069	608.164	-0.083	0.208
-737.054	-120.188	0.239	-0.041
-736.039	-200.000	-0.063	-0.374
-735.025	186.925	-0.079	0.118
-734.010	-100.651	-0.214	0.053
-732.996	-78.635	-0.316	-0.108
-731.981	-30.730	0.202	-0.114
-730.966	-93.742	0.107	-0.030
-729.952	310.179	0.142	-0.265
-728.937	314.095	-0.063	-0.119
-727.923	-128.319	0.325	-0.046
-726.908	175.131	0.098	-0.142
-725.894	87.662	0.245	0.271
-724.879	-200.000	-0.002	0.417
-723.864	506.382	-0.063	-0.147
-722.850	50.860	0.072	0.069
-721.835	601.327	-0.030	0.074
-720.821	153.969	0.127	0.175
-719.806	367.331	-0.098	-0.198
-718.791	258.264	-0.169	-0.291
-717.777	-200.000	-0.062	-0.304
-716.762	-109.632	-0.174	-0.037
-715.748	102.204	-0.082	-0.095
-714.733	800.000	-0.050	-0.165
-713.718	-200.000	-0.004	-0.047
-712.704	-42.713	-0.081	-0.041
-711.689	399.402	0.052	-0.109
-710.675	109.132	-0.129	0.154
-709.660	525.431	-0.002	0.004
-708.645	-200.000	-0.050	-0.377
-707.631	241.033	0.238	0.397
-706.616	26.575	-0.189	0.158
-705.602	46.119	0.169	0.156
-704.587	-120.557	-0.087	0.015
-703.572	92.377	-0.121	-0.137
-702.558	182.670	0.112	-0.164
-701.543	800.000	0.044	-0.137
-700.529	-187.002	0.084	-0.001
-699.514	-42.044	-0.261	-0.134
-698.499	-24.801	0.184	0.110
-697.485	-200.000	-0.061	-0.339
-696.470	-152.570	0.005	0.000
-695.456	-119.699	0.176	-0.030
-694.441	-92.819	-0.093	-0.026
-693.426	-7.505	0.139	-0.094
-692.412	800.000	0.063	-0.230
-691.397	-81.905	-0.264	-0.086
-690.383	800.000	-0.017	0.053
-689.368	236.345	-0.099	-0.164
-688.354	546.846	0.087	-0.209
-687.339	-96.644	0.222	0.059
-686.324	-35.511	-0.132	-0.072
-685.310	-39.740	0.116	-0.061
-684.295	299.557	-0.069	0.127
-683.281	-28.151	-0.077	0.045
-682.266	97.020	0.185	-0.212
-681.251	-19.976	0.025	0.016
-680.237	-40.386	0.321	-0.166
-679.222	-143.764	-0.096	0.009
-678.208	-42.183	-0.338	-0.173
-677.193	-200.000	0.022	0.174
-676.178	-88.391	-0.380	0.113
-675.164	153.575	0.127	-0.174
-674.149	247.447	0.081	0.136
-673.135	800.000	0.070	-0.234
-672.120	99.744	-0.100	-0.115
-671.105	61.831	0.088	0.087
-670.091	142.168	-0.133	-0.176
-669.076	61.121	-0.194	-0.192
-668.062	800.000	-0.013	0.040
-667.047	285.799	-0.092	-0.166
-666.032	-29.529	0.025	-0.014
-665.018	-41.809	0.253	-0.130
-664.003	79.025	-0.076	0.081
-662.989	-200.000	-0.042	0.194
-661.974	17.525	0.145	0.115
-660.959	-23.794	-0.061	-0.037
-659.945	-200.000	-0.009	-0.195
-658.930	43.166	-0.051	0.046
-657.916	50.699	-0.161	0.152
-656.901	-25.310	-0.122	0.072
-655.886	-200.000	0.054	0.326
-654.872	9.550	0.140	0.106
-653.857	-93.169	0.100	0.028
-652.843	-99.873	0.137	0.034
-651.828	-200.000	-0.033	-0.188
-650.814	89.766	-0.165	0.184
-649.799	208.168	-0.273	0.426
-648.784	-200.000	-0.027	-0.138
-647.770	-101.412	-0.119	0.029
-646.755	-20.863	0.103	-0.063
-645.741	-200.000	-0.046	0.334
-644.726	-99.843	-0.352	0.088
-643.711	800.000	0.050	0.215
-642.697	-3.118	-0.120	-0.083
-641.682	-63.435	0.339	-0.139
-640.668	-16.129	0.123	0.078
-639.653	130.312	-0.068	0.087
-638.638	-101.407	-0.339	0.082
-637.624	-123.338	-0.194	0.031
-636.609	-152.177	-0.224	-0.016
-635.595	-200.000	0.011	0.213
-634.580	367.605	0.093	-0.186
-633.565	395.559	0.042	-0.087
-632.551	-189.267	0.164	-0.002
-631.536	-200.000	-0.044	-0.262
-630.522	-28.197	-0.153	-0.088
-629.507	-200.000	-0.000	-0.613
-628.492	-148.876	0.059	0.005
-627.478	-200.000	0.012	0.111
-626.463	-200.000	-0.049	-0.380
-625.449	40.707	-0.075	-0.068
-624.434	-110.251	-0.120	-0.025
-623.419	40.113	-0.122	0.110
-622.405	-118.163	-0.285	0.051
-621.390	-200.000	0.021	-0.159
-620.376	-163.622	-0.357	0.017
-619.361	-165.698	0.187	0.008
-618.346	11.354	-0.176	-0.134
-617.332	-65.969	-0.092	0.037
-616.317	7.646	-0.147	-0.109
-615.303	5.642	0.221	-0.162
-614.288	581.031	0.115	-0.280
-613.273	-162.791	0.152	-0.007
-612.259	-119.755	0.246	-0.042
-611.244	-104.974	0.112	-0.026
-610.230	-39.356	-0.061	0.032
-609.215	-200.000	-0.002	-0.164
-608.201	-18.834	-0.052	0.032
-607.186	-99.311	-0.119	-0.030
-606.171	800.000	-0.061	0.187
-605.157	-40.575	-0.207	0.107
-604.142	199.832	-0.056	0.086
-603.128	-140.918	-0.222	0.023
-602.113	-88.091	0.253	-0.076
-601.098	222.565	-0.099	-0.158
-600.084	-146.287	0.146	0.013
-599.069	169.382	0.111	0.158
-598.055	-200.000	0.014	-0.101
-597.040	-164.420	0.081	-0.004
-596.025	-111.858	-0.143	0.029
-595.011	66.911	-0.153	0.155
-593.996	236.361	-0.109	-0.179
-592.982	-22.093	-0.275	0.166
-591.967	-133.241	0.076	0.010
-590.952	-21.129	-0.079	0.048
-589.938	-200.000	-0.004	-0.280
-588.923	-200.000	0.003	-0.019
-587.909	-138.510	-0.118	0.013
-586.894	-18.296	-0.087	0.054
-585.879	-25.326	0.130	-0.077
-584.865	-148.119	-0.282	0.023
-583.850	-200.000	0.011	0.069
-582.836	-200.000	-0.014	-0.163
-581.821	-200.000	0.026	-0.345
-580.806	-200.000	0.058	0.281
-579.792	-160.784	0.220	-0.012
-578.777	15.830	0.111	-0.087
-577.763	-200.000	-0.060	0.298
-576.748	-200.000	-0.072	0.440
-575.733	-200.000	-0.013	0.101
-574.719	-200.000	0.069	-0.358
-573.704	-116.432	-0.331	-0.061
-572.690	604.711	-0.043	0.106
-571.675	286.164	0.083	-0.149
-570.661	800.000	0.017	0.057
-569.646	-200.000	-0.004	0.029
-568.631	-49.078	0.135	-0.064
-567.617	800.000	0.031	0.096
-566.602	-111.285	-0.527	0.107
-565.588	-66.515	0.157	-0.062
-564.573	49.072	0.320	-0.299
-563.558	135.327	-0.064	0.082
-562.544	219.349	0.179	-0.285
-561.529	110.654	-0.195	0.233
-560.515	800.000	0.090	-0.297
-559.500	253.176	-0.038	0.065
-558.485	-123.459	0.243	-0.038
-557.471	-200.000	0.032	-0.447
-556.456	-95.644	0.194	-0.052
-555.442	-200.000	-0.239	-0.001
-554.427	33.325	-0.190	0.164
-553.412	301.388	-0.117	0.214
-552.398	800.000	-0.085	-0.260
-551.383	-200.000	-0.091	0.508
-550.369	800.000	0.019	-0.062
-549.354	176.929	0.194	-0.281
-548.339	-200.000	0.034	0.207
-547.325	-165.566	0.375	-0.016
-546.310	7.298	-0.171	-0.127
-545.296	-200.000	-0.029	0.264
-544.281	-75.685	-0.231	-0.082
-543.266	599.473	-0.088	-0.217
-542.252	106.823	-0.073	0.086
-541.237	-117.094	-0.204	-0.037
-540.223	800.000	-0.062	-0.266
-539.208	-200.000	0.006	-0.336
-538.193	-200.000	0.000	0.156
-537.179	-98.703	0.117	0.030
-536.164	-0.548	-0.177	0.125
-535.150	136.394	0.206	-0.266
-534.135	-69.186	0.130	-0.050
-533.121	-44.652	0.330	-0.164
-532.106	460.616	-0.037	0.082
-531.091	-11.249	-0.229	0.150
-530.077	-200.000	-0.015	-0.136
-529.062	-200.000	-0.006	-0.164
-528.048	-115.435	0.277	0.052
-527.033	559.873	-0.047	-0.113
-526.018	800.000	-0.075	-0.273
-525.004	281.062	0.099	-0.177
-523.989	90.389	0.090	-0.100
-522.975	-58.157	-0.187	0.081
-521.960	19.252	-0.342	-0.273
-520.945	-85.161	0.048	-0.015
-519.931	154.094	0.212	-0.288
-518.916	594.924	0.149	-0.366
-517.902	-200.000	0.015	-0.146
-516.887	-200.000	0.002	-0.034
-515.872	73.534	-0.152	0.158
-514.858	17.324	-0.099	0.078
-513.843	-200.000	0.034	0.272
-512.829	-200.000	0.010	-0.054
-511.814	291.763	-0.137	0.248
-510.799	255.821	-0.047	-0.081
-509.785	-171.714	0.277	-0.009
-508.770	-8.296	-0.049	0.033
-507.756	-200.000	-0.024	0.317
-506.741	-35.802	-0.183	0.098
-505.726	158.962	-0.218	-0.300
-504.712	-200.000	0.014	0.108
-503.697	-200.000	-0.004	0.236
-502.683	176.740	-0.189	0.273
-501.668	238.516	-0.015	0.025
-500.653	135.781	-0.097	0.125
-499.639	-149.875	0.309	0.024
-498.624	-162.719	0.122	-0.006
-497.610	800.000	0.076	0.212
-496.595	213.158	-0.188	0.294
-495.581	-200.000	-0.005	-0.187
-494.566	331.871	-0.070	-0.134
-493.551	702.608	0.113	0.296
-492.537	-33.632	0.269	-0.147
-491.522	-47.301	-0.251	-0.121
-490.508	578.904	-0.050	0.122
-489.493	-172.914	0.110	-0.003
-488.478	800.000	0.063	-0.233
-487.464	173.504	-0.127	0.182
-486.449	-138.883	0.452	-0.049
-485.435	10.905	0.085	0.064
-484.420	384.340	-0.265	-0.542
-483.405	117.929	0.146	-0.178
-482.391	133.360	0.133	0.170
-481.376	155.308	-0.176	-0.240
-480.362	147.882	0.129	-0.172
-479.347	-155.691	-0.290	-0.018
-478.332	-49.958	0.420	-0.198
-477.318	204.047	-0.232	0.356
-476.303	800.000	0.066	0.216
-475.289	-74.560	0.188	-0.067
-474.274	-2.453	-0.265	-0.184
-473.259	-39.164	-0.178	-0.093
-472.245	67.714	-0.127	-0.129
-471.230	-200.000	-0.048	0.215
-470.216	-150.579	0.098	0.007
-469.201	-138.734	0.166	-0.018
-468.186	800.000	-0.055	0.180
-467.172	-68.869	-0.194	-0.074
-466.157	314.338	0.167	-0.312
-465.143	23.577	-0.148	-0.121
-464.128	316.871	0.049	0.092
-463.113	492.435	-0.099	0.224
-462.099	-116.296	-0.471	0.086
-461.084	-152.381	0.495	0.035
-460.070	201.079	0.225	0.342
-459.055	-65.161	-0.155	0.062
-458.040	58.397	0.253	-0.246
-457.026	-90.992	0.159	-0.045
-456.011	800.000	-0.005	-0.019
-454.997	-125.751	-0.039	-0.006
-453.982	0.516	-0.173	0.123
-452.968	800.000	0.056	-0.172
-451.953	800.000	0.080	-0.331
-450.938	53.926	-0.155	0.148
-449.924	76.762	0.281	-0.295
-448.909	41.820	0.277	-0.249
-447.895	-9.775	0.234	0.154
-446.880	-69.377	-0.322	-0.122
-445.865	-200.000	0.033	0.263
-444.851	96.120	-0.051	0.058
-443.836	-30.505	0.514	-0.288
-442.822	79.637	0.167	0.177
-441.807	10.010	-0.373	-0.280
-440.792	0.176	0.152	0.107
-439.778	-1.571	-0.207	0.144
-438.763	-200.000	-0.021	0.091
-437.749	-108.838	0.069	0.015
-436.734	-23.843	0.183	0.108
-435.719	144.189	0.110	0.146
-434.705	457.641	0.047	0.104
-433.690	-112.733	0.353	-0.069
-432.676	-200.000	0.018	-0.340
-431.661	-21.109	-0.150	0.091
-430.646	-200.000	-0.055	0.390
-429.632	-49.332	-0.168	-0.079
-428.617	-200.000	0.004	-0.020
-427.603	250.591	0.092	0.154
-426.588	-200.000	0.044	-0.284
-425.573	-68.850	-0.227	-0.087
-424.559	800.000	-0.062	-0.176
-423.544	-86.237	0.362	0.110
-422.530	-3.624	0.131	-0.090
-421.515	-80.102	-0.214	-0.071
-420.500	99.440	0.078	-0.089
-419.486	-36.564	0.243	0.129
-418.471	-145.926	0.299	0.026
-417.457	-25.895	-0.165	-0.096
-416.442	328.690	0.071	-0.135
-415.428	-161.548	0.064	-0.003
-414.413	-137.352	0.035	0.004
-413.398	-200.000	0.024	0.311
-412.384	337.226	-0.136	-0.261
-411.369	131.873	0.110	-0.140
-410.355	-48.058	-0.306	-0.146
-409.340	800.000	0.027	0.079
-408.325	11.031	0.048	0.036
-407.311	-118.543	-0.334	-0.058
-406.296	-49.575	0.174	0.082
-405.282	64.372	0.280	-0.279
-404.267	-127.106	-0.281	-0.041
-403.252	-153.438	0.228	-0.016
-402.238	-84.439	-0.312	-0.097
-401.223	-159.794	-0.139	0.008
-400.209	800.000	0.075	0.318
-399.194	57.757	0.307	-0.297
-398.179	800.000	0.101	-0.302
-397.165	-200.000	-0.017	0.142
-396.150	-53.116	-0.118	-0.054
-395.136	-200.000	0.021	-0.121
-394.121	-84.904	0.193	0.060
-393.106	-200.000	0.046	0.460
-392.092	-76.995	-0.267	0.092
-391.077	9.900	-0.240	0.180
-390.063	-47.328	-0.110	0.053
-389.048	-50.611	0.011	-0.005
-388.033	378.216	0.052	0.106
-387.019	78.302	0.120	0.127
-386.004	-132.147	-0.174	0.022
-384.990	-200.000	0.061	-0.297
-383.975	71.183	0.316	-0.324
-382.960	301.199	0.040	0.073
-381.946	284.882	-0.096	-0.170
-380.931	219.810	0.066	-0.105
-379.917	-141.863	0.275	-0.027
-378.902	800.000	-0.039	0.115
-377.888	40.425	0.118	-0.105
-376.873	-95.490	-0.157	-0.042
-375.858	-82.216	-0.271	-0.087
-374.844	432.623	0.078	0.166
-373.829	-12.902	-0.266	0.171
-372.815	800.000	0.031	0.088
-371.800	-81.942	0.273	0.088
-370.785	74.282	0.023	0.024
-369.771	-154.496	-0.516	0.034
-368.756	800.000	-0.119	0.492
-367.742	96.778	0.026	0.029
-366.727	-200.000	-0.025	0.250
-365.712	-39.317	0.450	-0.233
-364.698	-200.000	-0.004	-0.131
-363.683	2.999	-0.203	-0.145
-362.669	-155.264	-0.051	-0.003
-361.654	-200.000	-0.032	-0.250
-360.639	-105.397	-0.177	0.040
-359.625	-114.089	0.265	-0.051
-358.610	-36.427	0.264	-0.140
-357.596	-117.262	-0.286	-0.051
-356.581	-60.132	-0.159	-0.067
-355.566	-53.308	0.364	-0.165
-354.552	-200.000	0.028	-0.270
-353.537	283.835	0.262	-0.464
-352.523	-145.835	-0.475	-0.042
-351.508	234.433	-0.032	0.052
-350.493	-66.585	0.170	-0.066
-349.479	-200.000	0.023	0.168
-348.464	-174.909	0.204	0.006
-347.450	2.163	0.122	0.087
-346.435	12.130	-0.168	0.128
-345.420	174.219	0.146	-0.208
-344.406	800.000	0.061	-0.241
-343.391	-200.000	-0.026	-0.124
-342.377	95.267	-0.073	0.082
-341.362	-39.483	0.148	0.077
-340.348	-123.879	-0.085	-0.013
-339.333	244.818	-0.085	0.141
-338.318	328.020	-0.063	0.119
-337.304	-94.709	0.163	0.044
-336.289	-154.459	0.092	0.006
-335.275	-200.000	-0.013	0.154
-334.260	119.881	-0.066	-0.081
-333.245	681.768	0.092	-0.236
-332.231	631.980	-0.070	-0.174
-331.216	-19.980	-0.241	-0.147
-330.202	-200.000	0.000	-0.079
-329.187	-20.086	-0.065	0.040
-328.172	71.710	-0.242	0.248
-327.158	-45.866	0.275	-0.134
-326.143	-200.000	-0.013	0.306
-325.129	-155.110	0.281	-0.018
-324.114	-22.785	0.006	0.004
-323.099	800.000	0.121	-0.443
-322.085	-85.265	0.033	0.010
-321.070	9.224	0.208	0.155
-320.056	75.691	-0.168	-0.175
-319.041	-200.000	0.017	0.281
-318.026	39.394	0.317	0.279
-317.012	43.102	0.172	-0.155
-315.997	-1.808	0.114	-0.079
-314.983	-5.573	0.123	-0.083
-313.968	-14.681	-0.052	0.033
-312.953	-200.000	-0.019	-0.164
-311.939	-28.748	-0.091	0.052
-310.924	11.875	-0.132	0.100
-309.910	800.000	-0.045	0.179
-308.895	-93.593	0.311	0.085
-307.880	-52.447	0.424	0.193
-306.866	-200.000	0.025	0.228
-305.851	19.011	-0.178	-0.140
-304.837	-170.183	-0.396	-0.014
-303.822	109.632	0.083	-0.098
-302.807	-54.015	0.096	0.043
-301.793	177.769	0.060	-0.086
-300.778	-200.000	-0.046	0.227
-299.764	41.893	-0.153	-0.136
-298.749	-200.000	0.010	0.102
-297.735	800.000	-0.030	-0.097
-296.720	87.056	0.242	0.263
-295.705	1.239	0.156	0.110
-294.691	239.092	0.045	0.074
-293.676	226.649	0.101	0.162
-292.662	788.252	-0.125	-0.337
-291.647	-111.206	0.284	-0.057
-290.632	-144.392	0.516	0.047
-289.618	-200.000	-0.018	-0.208
-288.603	173.452	0.058	0.082
-287.589	-200.000	-0.085	0.000
-286.574	-106.742	-0.306	0.067
-285.559	118.932	0.193	-0.235
-284.545	-200.000	-0.027	0.242
-283.530	133.182	-0.299	-0.379
-282.516	-200.000	0.004	0.142
-281.501	800.000	-0.067	0.200
-280.486	170.601	0.223	-0.314
-279.472	800.000	0.052	-0.219
-278.457	-45.226	-0.238	-0.116
-277.443	237.491	0.196	0.319
-276.428	-158.646	-0.115	-0.007
-275.413	-200.000	-0.270	0.000
-274.399	800.000	-0.043	-0.146
-273.384	-60.639	0.256	-0.107
-272.370	-170.778	0.500	-0.017
-271.355	74.680	-0.085	0.088
-270.340	115.509	-0.155	0.186
-269.326	-72.952	-0.174	0.063
-268.311	-158.158	0.291	-0.017
-267.297	-200.000	0.015	-0.176
-266.282	-12.238	0.132	-0.085
-265.267	-200.000	0.061	0.466
-264.253	-164.420	0.073	0.003
-263.238	-125.578	-0.306	0.046
-262.224	-200.000	0.011	0.155
-261.209	-80.088	-0.268	-0.088
-260.195	-86.988	0.200	0.060
-259.180	800.000	0.055	-0.207
-258.165	800.000	-0.065	0.271
-257.151	79.539	0.062	0.066
-256.136	-69.832	0.084	-0.032
-255.122	-99.458	-0.246	0.061
-254.107	-25.229	0.103	0.060
-253.092	800.000	0.082	0.280
-252.078	-55.303	-0.420	-0.185
-251.063	-93.787	0.215	0.058
-250.049	-42.230	-0.102	-0.051
-249.034	228.886	0.141	0.226
-248.019	-200.000	-0.021	-0.263
-247.005	800.000	-0.096	-0.355
-245.990	21.302	-0.216	0.172
-244.976	20.470	0.195	0.155
-243.961	-138.889	0.124	-0.013
-242.946	-188.787	-0.149	0.002
-241.932	3.998	-0.044	-0.032
-240.917	-4.246	0.223	-0.152
-239.903	-115.902	-0.270	0.050
-238.888	177.443	0.383	0.548
-237.873	-36.204	0.117	0.062
-236.859	-200.000	0.026	-0.126
-235.844	40.452	-0.271	-0.240
-234.830	-200.000	0.028	0.514
-233.815	-135.822	0.096	0.011
-232.800	-106.261	-0.167	0.037
-231.786	60.801	0.151	0.147
-230.771	-200.000	0.040	0.395
-229.757	-200.000	-0.006	0.153
-228.742	-19.355	-0.152	-0.093
-227.727	-31.898	0.120	-0.066
-226.713	-57.890	0.145	-0.062
-225.698	94.368	-0.176	0.196
-224.684	239.183	0.079	0.129
-223.669	70.108	-0.219	-0.222
-222.655	-65.098	0.297	-0.118
-221.640	-200.000	-0.021	-0.111
-220.625	-42.424	-0.126	-0.063
-219.611	403.236	-0.116	-0.239
-218.596	-101.773	-0.355	0.084
-217.582	-69.232	0.115	-0.044
-216.567	595.817	0.038	0.091
-215.552	-200.000	0.434	-0.002
-214.538	-95.035	0.141	0.037
-213.523	800.000	-0.070	0.231
-212.509	800.000	0.016	-0.055
-211.494	-68.762	-0.222	0.084
-210.479	-200.000	0.099	0.483
-209.465	-53.236	0.145	-0.065
-208.450	29.526	-0.227	-0.189
-207.436	800.000	-0.013	-0.055
-206.421	-33.757	0.317	-0.171
-205.406	141.653	-0.077	-0.101
-204.392	-200.000	0.012	0.096
-203.377	-44.034	-0.291	0.143
-202.363	800.000	0.042	-0.156
-201.348	-119.291	-0.225	-0.038
-200.333	-200.000	0.005	0.288
-199.319	-200.000	0.014	0.258
-198.304	-106.820	0.145	-0.031
-197.290	87.278	-0.074	0.081
-196.275	-200.000	0.001	0.168
-195.260	-123.226	-0.341	0.054
-194.246	800.000	0.105	-0.347
-193.231	170.628	0.094	-0.132
-192.217	73.810	0.053	0.054
-191.202	-124.243	0.157	-0.024
-190.187	-130.475	-0.182	-0.024
-189.173	-200.000	0.064	0.378
-188.158	172.092	-0.035	-0.050
-187.144	-6.204	-0.065	-0.044
-186.129	67.345	-0.127	0.127
-185.114	54.979	0.174	0.165
-184.100	185.481	-0.161	0.234
-183.085	-165.923	-0.118	0.005
-182.071	41.866	-0.265	0.235
-181.056	47.671	0.225	0.205
-180.042	26.013	0.013	0.011
-179.027	70.363	0.339	-0.343
-178.012	-200.000	-0.042	-0.209
-176.998	-53.681	-0.345	0.154
-175.983	160.781	0.178	0.244
-174.969	800.000	-0.083	0.250
-173.954	-200.000	0.027	0.364
-172.939	-200.000	0.055	0.265
-171.925	21.883	-0.062	-0.050
-170.910	14.272	-0.324	0.247
-169.896	-200.000	-0.049	-0.441
-168.881	24.028	0.112	0.090
-167.866	-67.860	0.150	-0.057
-166.852	216.518	-0.095	0.148
-165.837	-33.510	0.078	-0.042
-164.823	-147.581	0.301	0.025
-163.808	63.256	-0.214	0.210
-162.793	-34.419	0.136	0.073
-161.779	-96.137	0.270	-0.070
-160.764	301.126	-0.182	0.328
-159.750	74.013	-0.192	0.197
-158.735	-61.357	-0.265	-0.109
-157.720	-200.000	0.005	0.160
-156.706	749.871	-0.039	-0.103
-155.691	-79.874	0.116	-0.038
-154.677	-55.225	0.058	-0.026
-153.662	-31.861	-0.101	-0.055
-152.647	-159.388	-0.044	0.002
-151.633	-127.092	-0.252	0.036
-150.618	66.271	-0.201	0.200
-149.604	171.936	0.268	0.376
-148.589	14.368	0.228	0.174
-147.574	-31.300	0.114	0.063
-146.560	784.008	0.033	-0.089
-145.545	178.901	-0.085	-0.122
-144.531	-44.465	0.291	-0.142
-143.516	85.477	0.230	-0.248
-142.502	-76.869	0.040	0.014
-141.487	-43.152	-0.120	0.059
-140.472	232.329	0.060	0.097
-139.458	78.495	0.069	0.072
-138.443	-200.000	-0.067	0.340
-137.429	-200.000	-0.036	0.193
-136.414	275.067	-0.199	0.345
-135.399	377.263	-0.167	-0.334
-134.385	297.767	0.171	-0.308
-133.370	36.233	-0.228	0.196
-132.356	-47.689	-0.146	0.069
-131.341	92.456	-0.191	-0.211
-130.326	104.369	-0.169	0.194
-129.312	580.951	-0.075	0.180
-128.297	89.940	-0.159	0.173
-127.283	50.988	-0.112	-0.104
-126.268	-39.360	-0.242	0.124
-125.253	154.636	0.132	0.178
-124.239	-81.865	0.177	0.056
-123.224	-181.096	0.312	-0.006
-122.210	-200.000	-0.061	0.289
-121.195	-34.918	-0.162	-0.086
