DTS Sentinel unit serial number:	SN413079Multiplexer serial number:	ORYXHardware model number:	OX4-SRSoftware version number:	ORYX F/W v4.00 Oryx Data Collector v3.7.2.0data status	okinstallation	princeton_trtdifferential loss correction	single-endedforward channel	channel 1reverse channel	N/Adate	2019/09/14time	05:10:35forward acquisition time	60.00reverse acquisition time	0.00gamma	496.2192k internal	0.2334k external	0.2334temperature offset calibration	1.0079default loss term (dB/km)	0.3790temperature slope calibration	1.0000multiplexer offset coefficient	1.0000multiplexer slope coefficient	1.0000fibre end	0.00T internal ref (°C)	26.89T ext. ref 1 (°C)	3.38T ext. ref 2 (°C)	21.95length (m)	temperature (°C)	Stokes	anti-Stokes-747.200	94.365	-0.112	-0.128
-746.185	760.590	-0.042	0.114
-745.171	219.654	0.269	0.434
-744.156	-200.000	-0.003	-0.201
-743.142	-69.165	-0.123	0.047
-742.127	-86.102	-0.334	0.104
-741.112	11.921	-0.053	0.041
-740.098	-39.211	0.118	0.062
-739.083	-90.015	0.137	0.040
-738.069	-94.337	-0.239	0.066
-737.054	191.981	0.075	-0.114
-736.039	-43.229	-0.157	0.080
-735.025	688.114	-0.031	-0.080
-734.010	-117.546	-0.217	0.039
-732.996	-200.000	-0.028	-0.314
-731.981	99.970	-0.172	-0.200
-730.966	600.763	0.032	-0.079
-729.952	19.021	-0.316	-0.254
-728.937	-87.880	0.106	-0.032
-727.923	-115.434	-0.193	0.036
-726.908	-164.734	0.201	0.009
-725.894	319.110	-0.063	-0.121
-724.879	-200.000	0.032	-0.461
-723.864	-200.000	-0.023	0.122
-722.850	-41.633	-0.298	-0.154
-721.835	-49.276	-0.152	-0.073
-720.821	173.514	-0.070	-0.101
-719.806	274.504	-0.136	-0.242
-718.791	-172.343	-0.210	0.007
-717.777	103.577	-0.200	-0.236
-716.762	-131.431	-0.198	0.026
-715.748	106.695	0.223	-0.265
-714.733	284.955	-0.087	-0.157
-713.718	-200.000	0.079	0.364
-712.704	688.472	0.102	0.268
-711.689	377.573	-0.075	-0.153
-710.675	-88.379	0.268	0.081
-709.660	-61.193	-0.115	0.049
-708.645	-138.073	0.313	-0.035
-707.631	76.828	0.174	0.186
-706.616	800.000	-0.171	-0.477
-705.602	800.000	-0.077	-0.255
-704.587	-200.000	-0.017	0.000
-703.572	193.032	-0.234	0.355
-702.558	-63.623	0.208	-0.086
-701.543	91.103	0.093	0.104
-700.529	132.168	-0.230	-0.298
-699.514	-1.412	0.387	0.274
-698.499	-66.993	-0.254	-0.101
-697.485	800.000	-0.064	-0.261
-696.470	-53.848	-0.352	-0.161
-695.456	40.885	0.245	-0.221
-694.441	-110.259	-0.146	0.030
-693.426	170.978	0.212	-0.305
-692.412	-200.000	-0.002	-0.125
-691.397	-200.000	0.063	-0.287
-690.383	40.281	-0.206	-0.186
-689.368	-58.350	0.245	0.107
-688.354	-200.000	0.001	-0.306
-687.339	299.250	-0.186	-0.344
-686.324	332.872	0.137	0.265
-685.310	-19.929	-0.308	-0.191
-684.295	-200.000	-0.061	-0.356
-683.281	-134.182	0.311	0.038
-682.266	-146.263	-0.389	0.034
-681.251	-80.695	0.220	-0.073
-680.237	119.904	0.142	-0.176
-679.222	35.129	-0.167	0.146
-678.208	-200.000	-0.006	0.125
-677.193	-173.372	0.150	0.005
-676.178	-23.286	-0.371	-0.224
-675.164	800.000	-0.048	-0.206
-674.149	110.419	-0.123	-0.148
-673.135	800.000	-0.101	-0.291
-672.120	232.239	-0.149	-0.245
-671.105	201.245	-0.083	-0.128
-670.091	-118.827	0.091	-0.016
-669.076	57.705	-0.036	-0.035
-668.062	-200.000	0.037	-0.289
-667.047	-103.924	-0.178	-0.042
-666.032	-200.000	-0.068	0.350
-665.018	52.414	0.035	0.033
-664.003	-47.415	-0.153	0.075
-662.989	-200.000	-0.051	0.252
-661.974	149.418	-0.176	-0.239
-660.959	-200.000	-0.008	-0.081
-659.945	12.695	0.114	-0.088
-658.930	287.137	0.054	-0.098
-657.916	193.443	-0.045	0.068
-656.901	10.137	0.052	0.039
-655.886	-200.000	0.010	0.348
-654.872	-159.497	0.292	0.016
-653.857	-200.000	-0.037	0.221
-652.843	80.240	-0.204	-0.220
-651.828	-23.184	0.170	-0.102
-650.814	60.401	-0.238	-0.236
-649.799	-31.045	0.267	0.151
-648.784	-121.780	0.207	0.034
-647.770	608.008	-0.058	0.146
-646.755	-136.516	0.134	-0.016
-645.741	-200.000	-0.055	-0.245
-644.726	311.211	-0.193	-0.362
-643.711	-119.929	-0.353	-0.061
-642.697	-117.567	-0.108	0.020
-641.682	108.510	0.136	0.163
-640.668	421.000	-0.077	0.165
-639.653	800.000	0.052	0.155
-638.638	110.551	0.150	-0.181
-637.624	-21.685	-0.263	-0.160
-636.609	-200.000	-0.004	-0.049
-635.595	469.077	0.047	0.105
-634.580	-200.000	-0.014	0.568
-633.565	-200.000	0.062	-0.314
-632.551	102.797	0.008	-0.009
-631.536	365.768	-0.054	-0.108
-630.522	89.808	-0.038	0.042
-629.507	199.932	-0.036	0.055
-628.492	-57.953	0.354	-0.155
-627.478	222.591	-0.101	-0.163
-626.463	757.300	-0.047	-0.128
-625.449	-200.000	0.019	0.109
-624.434	-200.000	-0.028	0.217
-623.419	-113.661	0.390	-0.076
-622.405	-80.275	0.208	0.069
-621.390	276.883	-0.194	-0.344
-620.376	800.000	0.054	0.213
-619.361	-38.002	-0.148	-0.079
-618.346	74.599	-0.164	0.173
-617.332	800.000	0.097	0.300
-616.317	-183.467	0.302	-0.005
-615.303	-154.232	-0.500	-0.034
-614.288	0.397	0.199	0.142
-613.273	38.776	-0.024	-0.021
-612.259	-118.019	-0.098	-0.018
-611.244	21.309	-0.110	-0.089
-610.230	-102.205	0.431	-0.104
-609.215	-93.119	-0.242	-0.067
-608.201	-101.363	0.162	0.040
-607.186	330.623	-0.209	-0.402
-606.171	138.884	-0.294	-0.386
-605.157	-154.798	0.255	-0.017
-604.142	144.756	0.128	0.171
-603.128	800.000	0.038	-0.108
-602.113	800.000	-0.010	-0.037
-601.098	-32.100	-0.293	0.164
-600.084	800.000	0.105	0.331
-599.069	471.224	-0.161	-0.361
-598.055	-50.357	0.055	0.026
-597.040	-47.724	0.368	-0.178
-596.025	83.105	-0.095	-0.104
-595.011	100.477	-0.053	-0.061
-593.996	26.586	-0.140	-0.117
-592.982	102.469	0.355	0.415
-591.967	18.518	0.158	0.126
-590.952	-149.539	-0.322	0.025
-589.938	8.151	-0.141	0.106
-588.923	800.000	-0.074	0.210
-587.909	273.436	-0.125	0.220
-586.894	-200.000	-0.032	0.366
-585.879	259.078	-0.248	0.427
-584.865	34.477	-0.237	-0.207
-583.850	96.456	0.157	-0.179
-582.836	800.000	-0.073	-0.233
-581.821	-76.532	0.166	-0.058
-580.806	62.426	0.039	-0.039
-579.792	243.462	0.125	-0.210
-578.777	800.000	0.019	0.054
-577.763	676.042	0.035	-0.091
-576.748	-20.493	0.292	-0.180
-575.733	-132.553	-0.368	-0.047
-574.719	-200.000	-0.030	0.162
-573.704	-200.000	-0.039	0.180
-572.690	-200.000	0.001	-0.095
-571.675	-76.451	-0.169	-0.059
-570.661	800.000	0.029	0.079
-569.646	-2.861	0.188	-0.131
-568.631	135.482	-0.145	0.188
-567.617	519.797	0.106	0.247
-566.602	210.666	0.082	0.129
-565.588	43.267	0.255	-0.232
-564.573	-5.280	-0.116	-0.080
-563.558	57.059	0.093	-0.090
-562.544	-62.801	-0.147	0.061
-561.529	98.344	0.150	-0.172
-560.515	800.000	0.047	-0.168
-559.500	-162.896	-0.212	-0.010
-558.485	-102.362	0.287	-0.069
-557.471	296.489	-0.058	-0.107
-556.456	-42.388	0.105	-0.054
-555.442	69.891	-0.110	0.114
-554.427	-67.073	-0.111	-0.044
-553.412	-200.000	0.083	0.377
-552.398	800.000	-0.059	0.250
-551.383	510.897	0.068	-0.158
-550.369	800.000	-0.071	-0.214
-549.354	-57.157	0.230	0.101
-548.339	-126.806	0.074	0.011
-547.325	-175.963	-0.200	0.005
-546.310	-87.680	0.126	0.038
-545.296	-125.743	-0.322	0.049
-544.281	96.416	-0.212	-0.242
-543.266	-81.160	0.236	0.078
-542.252	800.000	-0.034	0.100
-541.237	-93.930	-0.106	0.029
-540.223	204.703	-0.209	0.324
-539.208	-200.000	-0.010	0.054
-538.193	266.207	-0.143	-0.250
-537.179	221.316	-0.191	-0.306
-536.164	-31.423	-0.085	0.048
-535.150	-16.085	0.102	-0.064
-534.135	287.163	-0.129	-0.232
-533.121	8.248	0.154	-0.116
-532.106	124.227	-0.127	-0.159
-531.091	-100.334	-0.531	-0.131
-530.077	-200.000	-0.025	-0.197
-529.062	-48.003	-0.155	0.075
-528.048	-79.863	0.335	-0.112
-527.033	-89.312	-0.362	0.106
-526.018	-200.000	-0.008	-0.139
-525.004	100.287	-0.060	0.069
-523.989	800.000	-0.047	0.149
-522.975	-200.000	-0.007	0.133
-521.960	-30.998	-0.150	-0.084
-520.945	-144.406	-0.138	-0.013
-519.931	-108.671	0.621	0.133
-518.916	-8.463	-0.347	-0.232
-517.902	800.000	-0.088	0.310
-516.887	-68.720	-0.220	0.085
-515.872	245.001	0.116	-0.194
-514.858	295.816	-0.146	-0.266
-513.843	191.674	0.180	-0.270
-512.829	108.530	-0.058	0.069
-511.814	-200.000	-0.017	-0.133
-510.799	-127.163	-0.349	-0.051
-509.785	412.919	0.019	0.040
-508.770	-200.000	-0.042	-0.283
-507.756	-74.080	-0.166	0.060
-506.741	-55.368	-0.203	-0.091
-505.726	135.068	-0.033	0.042
-504.712	-98.241	0.246	-0.063
-503.697	389.846	-0.125	-0.258
-502.683	-200.000	-0.025	-0.161
-501.668	81.054	0.135	-0.146
-500.653	-0.091	0.162	-0.114
-499.639	31.965	0.101	-0.087
-498.624	67.593	0.121	0.123
-497.610	171.420	0.211	0.301
-496.595	562.140	0.079	0.190
-495.581	46.406	-0.123	0.113
-494.566	-16.787	-0.059	-0.037
-493.551	-200.000	0.000	0.211
-492.537	-131.719	-0.273	0.036
-491.522	-200.000	-0.024	-0.129
-490.508	-200.000	-0.016	0.429
-489.493	78.347	-0.027	0.029
-488.478	220.685	-0.239	0.382
-487.464	191.249	0.169	-0.253
-486.449	-103.563	-0.361	0.084
-485.435	19.043	-0.143	-0.114
-484.420	22.413	0.187	-0.152
-483.405	236.301	-0.171	0.281
-482.391	-89.573	-0.057	0.017
-481.376	118.095	0.097	-0.119
-480.362	-200.000	0.004	-0.230
-479.347	272.944	0.197	-0.346
-478.332	17.439	-0.055	-0.044
-477.318	694.708	-0.034	0.089
-476.303	800.000	-0.095	0.274
-475.289	-200.000	-0.004	-0.273
-474.274	107.248	0.182	0.215
-473.259	-32.624	-0.155	0.086
-472.245	800.000	0.057	-0.183
-471.230	18.420	0.218	0.173
-470.216	-108.541	-0.339	0.072
-469.201	-29.830	-0.179	-0.101
-468.186	64.051	-0.090	-0.090
-467.172	127.865	-0.047	-0.059
-466.157	-200.000	0.006	0.095
-465.143	-51.468	0.233	-0.108
-464.128	-200.000	0.001	-0.157
-463.113	59.333	0.207	-0.203
-462.099	-53.440	-0.061	0.028
-461.084	64.274	0.161	0.161
-460.070	104.763	-0.098	0.115
-459.055	800.000	0.116	0.374
-458.040	-200.000	0.021	0.159
-457.026	-200.000	-0.004	0.271
-456.011	-145.480	-0.237	0.021
-454.997	-84.754	-0.148	0.046
-453.982	-139.836	-0.219	-0.023
-452.968	-173.307	0.090	0.003
-451.953	66.569	-0.359	0.362
-450.938	-200.000	0.016	0.153
-449.924	-41.359	-0.190	0.097
-448.909	16.716	0.161	-0.127
-447.895	-200.000	-0.051	-0.237
-446.880	13.212	0.116	-0.090
-445.865	-121.822	-0.318	-0.052
-444.851	220.094	-0.052	0.083
-443.836	-147.990	-0.376	-0.031
-442.822	38.675	-0.227	-0.201
-441.807	117.524	0.140	-0.172
-440.792	-200.000	-0.140	-0.000
-439.778	-190.179	-0.132	0.001
-438.763	-200.000	0.022	-0.169
-437.749	-3.281	0.204	-0.141
-436.734	800.000	0.089	0.334
-435.719	-188.397	-0.372	-0.005
-434.705	-141.621	-0.262	0.026
-433.690	15.518	0.303	0.236
-432.676	-200.000	-0.083	-0.000
-431.661	-175.701	-0.204	0.005
-430.646	507.973	-0.090	0.207
-429.632	568.639	-0.049	-0.119
-428.617	392.803	0.228	-0.471
-427.603	-200.000	-0.003	-0.017
-426.588	800.000	-0.047	-0.136
-425.573	-42.537	-0.322	-0.163
-424.559	-200.000	0.002	0.218
-423.544	276.625	0.170	-0.300
-422.530	148.191	0.038	-0.051
-421.515	-200.000	-0.036	0.206
-420.500	9.858	0.100	-0.075
-419.486	206.802	0.088	0.137
-418.471	155.512	0.144	-0.197
-417.457	-150.458	-0.344	0.026
-416.442	-24.134	-0.180	0.107
-415.428	-9.454	0.065	0.043
-414.413	332.859	-0.106	0.204
-413.398	-31.793	0.228	-0.127
-412.384	3.088	0.085	-0.061
-411.369	-73.998	0.149	-0.053
-410.355	-80.997	0.437	-0.144
-409.340	540.390	0.112	0.264
-408.325	39.704	-0.140	0.124
-407.311	-87.076	-0.494	-0.149
-406.296	-41.069	0.110	0.057
-405.282	-93.735	0.109	0.030
-404.267	56.079	-0.206	0.198
-403.252	-106.942	-0.105	-0.023
-402.238	173.170	0.208	0.298
-401.223	-200.000	-0.021	0.217
-400.209	-61.149	-0.201	0.084
-399.194	-200.000	0.001	0.049
-398.179	135.817	0.074	-0.095
-397.165	130.947	0.203	0.258
-396.150	345.877	-0.115	0.223
-395.136	-23.013	-0.316	-0.189
-394.121	243.280	0.060	-0.099
-393.106	36.355	-0.287	-0.251
-392.092	-159.789	0.380	-0.021
-391.077	800.000	0.037	0.117
-390.063	-161.719	0.142	0.007
-389.048	-200.000	0.002	-0.048
-388.033	800.000	-0.067	-0.205
-387.019	-80.981	0.158	0.052
-386.004	-14.043	-0.402	-0.258
-384.990	-47.051	0.149	0.072
-383.975	46.678	-0.109	0.100
-382.960	19.966	0.302	-0.241
-381.946	800.000	-0.051	0.161
-380.931	297.816	0.133	-0.243
-379.917	324.084	-0.132	-0.249
-378.902	800.000	0.030	0.121
-377.888	-43.764	-0.212	-0.106
-376.873	10.069	0.102	0.077
-375.858	-141.265	-0.082	-0.008
-374.844	-200.000	0.000	-0.206
-373.829	800.000	0.073	0.286
-372.815	-200.000	-0.036	0.180
-371.800	361.383	0.161	0.319
-370.785	299.279	0.127	0.232
-369.771	-200.000	-0.007	-0.263
-368.756	800.000	0.092	-0.272
-367.742	-45.241	0.297	-0.146
-366.727	108.369	-0.194	-0.230
-365.712	-50.825	-0.119	0.056
-364.698	793.010	-0.082	-0.223
-363.683	-57.127	-0.313	-0.137
-362.669	-163.456	0.067	-0.003
-361.654	-200.000	-0.002	-0.205
-360.639	357.121	0.168	-0.332
-359.625	-95.757	0.069	0.018
-358.610	282.005	0.143	-0.254
-357.596	-118.912	0.192	-0.033
-356.581	800.000	0.016	-0.068
-355.566	-141.566	0.091	0.009
-354.552	-58.876	-0.220	0.094
-353.537	-2.882	-0.074	0.051
-352.523	-163.741	-0.069	0.003
-351.508	-200.000	-0.014	0.193
-350.493	156.385	0.177	-0.242
-349.479	298.106	-0.174	-0.316
-348.464	54.578	-0.127	0.121
-347.450	-154.568	-0.098	-0.006
-346.435	-200.000	-0.000	-0.008
-345.420	439.429	-0.101	-0.219
-344.406	-200.000	0.075	0.476
-343.391	360.618	-0.015	-0.030
-342.377	-82.700	-0.134	-0.043
-341.362	58.300	0.144	0.140
-340.348	-200.000	-0.012	0.155
-339.333	-60.465	0.254	0.107
-338.318	214.826	0.066	-0.103
-337.304	-200.000	0.004	0.020
-336.289	-15.955	0.145	0.091
-335.275	-200.000	-0.029	-0.148
-334.260	-200.000	0.016	-0.087
-333.245	92.575	0.015	0.017
-332.231	-200.000	-0.020	-0.180
-331.216	-34.857	-0.242	0.131
-330.202	143.788	0.152	-0.201
-329.187	-68.196	-0.476	-0.183
-328.172	800.000	0.060	-0.192
-327.158	338.780	-0.030	-0.057
-326.143	111.659	0.102	-0.122
-325.129	-116.075	0.133	0.024
-324.114	-200.000	-0.033	0.156
-323.099	51.336	0.272	0.255
-322.085	-23.098	-0.348	0.208
-321.070	116.137	-0.129	-0.156
-320.056	-200.000	-0.016	0.094
-319.041	-200.000	0.033	0.190
-318.026	57.328	0.058	-0.056
-317.012	546.011	0.051	0.120
-315.997	-125.933	0.394	-0.059
-314.983	-1.899	0.098	0.068
-313.968	42.685	0.276	-0.248
-312.953	54.717	0.241	-0.230
-311.939	-160.518	0.345	0.018
-310.924	-200.000	0.040	-0.255
-309.910	0.264	-0.161	-0.114
-308.895	154.228	-0.150	-0.203
-307.880	-141.533	-0.178	0.018
-306.866	-200.000	0.038	0.402
-305.851	-14.310	0.172	0.110
-304.837	800.000	0.005	0.019
-303.822	162.401	-0.167	0.231
-302.807	-78.088	0.042	0.014
-301.793	-200.000	-0.307	0.001
-300.778	21.829	0.140	0.113
-299.764	632.735	-0.078	-0.196
-298.749	-155.434	-0.303	-0.019
-297.735	-110.187	0.576	0.119
-296.720	56.629	-0.189	0.182
-295.705	-200.000	0.025	-0.192
-294.691	237.925	0.055	-0.090
-293.676	800.000	-0.043	-0.125
-292.662	-79.424	-0.225	0.075
-291.647	80.162	0.227	-0.241
-290.632	-125.055	-0.246	0.037
-289.618	-115.997	0.168	0.031
-288.603	-200.000	-0.054	0.361
-287.589	800.000	0.077	0.255
-286.574	-200.000	-0.013	-0.152
-285.559	-93.930	0.140	-0.038
-284.545	-34.423	-0.175	0.094
-283.530	172.850	-0.044	-0.063
-282.516	-150.179	-0.275	-0.021
-281.501	-59.999	0.289	-0.122
-280.486	189.347	-0.187	-0.277
-279.472	-147.756	0.079	-0.007
-278.457	109.726	0.177	-0.209
-277.443	791.947	0.085	-0.231
-276.428	18.754	0.302	0.239
-275.413	-50.841	-0.090	0.042
-274.399	200.955	-0.133	-0.202
-273.384	583.428	0.037	-0.090
-272.370	800.000	0.108	0.398
-271.355	-200.000	-0.020	0.160
-270.340	-58.955	-0.102	0.043
-269.326	76.578	0.102	0.107
-268.311	40.994	-0.340	-0.303
-267.297	800.000	0.067	0.189
-266.282	-56.028	0.324	-0.143
-265.267	-200.000	-0.047	0.312
-264.253	800.000	0.063	0.238
-263.238	-200.000	-0.034	0.332
-262.224	-74.098	0.414	0.148
-261.209	-72.702	0.330	-0.120
-260.195	-109.343	0.061	0.013
-259.180	-127.774	-0.147	0.021
-258.165	-194.731	0.334	0.003
-257.151	170.821	0.197	-0.278
-256.136	-136.987	0.423	-0.048
-255.122	-64.216	0.217	-0.087
-254.107	-38.012	-0.119	0.062
-253.092	396.197	0.143	0.295
-252.078	-40.253	0.392	0.201
-251.063	81.295	0.124	0.132
-250.049	800.000	-0.152	0.447
-249.034	-200.000	-0.067	-0.521
-248.019	-6.681	-0.389	-0.261
-247.005	-200.000	-0.043	0.234
-245.990	94.096	-0.197	0.221
-244.976	1.937	0.185	-0.132
-243.961	-168.713	0.213	-0.008
-242.946	-138.103	0.223	0.024
-241.932	283.896	-0.040	0.072
-240.917	16.019	0.310	-0.241
-239.903	525.016	0.105	0.244
-238.888	442.057	0.020	0.042
-237.873	-200.000	-0.005	-0.089
-236.859	-173.081	0.172	-0.005
-235.844	-37.262	0.307	-0.162
-234.830	2.631	0.178	0.127
-233.815	800.000	-0.074	0.242
-232.800	800.000	0.060	-0.222
-231.786	40.216	0.117	-0.104
-230.771	-106.696	0.415	0.091
-229.757	56.548	0.174	0.167
-228.742	57.637	0.057	0.055
-227.727	800.000	0.163	0.473
-226.713	-200.000	-0.035	-0.230
-225.698	329.901	-0.145	0.275
-224.684	-50.167	0.056	0.026
-223.669	-48.061	-0.264	0.125
-222.655	800.000	0.013	-0.037
-221.640	792.807	0.094	0.254
-220.625	800.000	0.094	0.288
-219.611	-96.170	-0.308	-0.081
-218.596	-94.744	-0.124	-0.033
-217.582	45.751	-0.319	0.290
-216.567	-61.204	-0.067	-0.028
-215.552	-66.168	0.288	-0.113
-214.538	-200.000	0.022	0.142
-213.523	-86.975	0.333	0.100
-212.509	304.258	0.075	0.136
-211.494	-200.000	-0.055	0.263
-210.479	-165.017	-0.129	-0.006
-209.465	-200.000	0.008	-0.193
-208.450	-115.304	-0.211	0.039
-207.436	-73.608	0.501	-0.180
-206.421	800.000	-0.010	-0.040
-205.406	800.000	0.090	0.259
-204.392	-153.349	-0.241	-0.017
-203.377	394.650	-0.270	-0.553
-202.363	177.555	-0.158	0.227
-201.348	-118.081	0.184	0.032
-200.333	285.716	0.093	-0.164
-199.319	-2.585	-0.128	0.088
-198.304	514.202	0.096	-0.222
-197.290	13.915	-0.296	-0.227
-196.275	-44.513	0.352	-0.173
-195.260	69.415	-0.127	-0.128
-194.246	209.173	0.175	0.270
-193.231	13.521	0.222	0.169
-192.217	57.443	-0.096	0.092
-191.202	-115.306	-0.214	0.040
-190.187	42.103	0.043	0.039
-189.173	-111.551	0.257	0.051
-188.158	-141.932	-0.362	-0.036
-187.144	-85.953	0.463	0.141
-186.129	651.449	0.066	-0.166
-185.114	-119.623	0.097	-0.017
-184.100	-65.631	0.128	0.050
-183.085	557.782	-0.147	-0.349
-182.071	-46.927	0.212	-0.102
-181.056	-194.600	-0.165	-0.001
-180.042	-72.832	-0.050	-0.018
-179.027	-104.517	0.094	-0.021
-178.012	-200.000	-0.008	0.159
-176.998	800.000	0.080	-0.255
-175.983	137.988	0.169	0.217
-174.969	-89.649	0.074	0.021
-173.954	-200.000	-0.019	0.106
-172.939	-145.465	-0.219	0.019
-171.925	-119.074	-0.262	-0.045
-170.910	-165.672	-0.320	-0.014
-169.896	800.000	-0.120	-0.364
-168.881	-130.479	0.203	0.027
-167.866	-118.039	0.100	0.018
-166.852	-200.000	0.037	0.242
-165.837	800.000	0.105	0.403
-164.823	-159.925	0.219	0.012
-163.808	72.658	0.169	0.173
-162.793	800.000	-0.102	0.279
-161.779	161.966	-0.154	0.212
-160.764	-128.001	-0.165	0.023
-159.750	148.880	-0.111	0.147
-158.735	-18.222	0.074	-0.045
-157.720	44.143	0.214	-0.193
-156.706	-152.781	-0.214	-0.015
-155.691	-200.000	-0.006	-0.029
-154.677	800.000	0.007	-0.025
-153.662	126.369	-0.230	-0.286
-152.647	221.753	0.226	-0.358
-151.633	-131.707	-0.347	-0.045
-150.618	-200.000	-0.058	-0.282
-149.604	-51.981	0.393	-0.180
-148.589	-67.555	0.067	-0.026
-147.574	36.268	0.354	-0.307
-146.560	476.544	-0.083	-0.183
-145.545	-200.000	0.007	-0.263
-144.531	-15.966	-0.246	-0.154
-143.516	-112.762	-0.232	-0.045
-142.502	89.177	0.132	0.144
-141.487	-165.294	-0.154	0.007
-140.472	794.191	-0.064	0.172
-139.458	-200.000	0.037	-0.217
-138.443	-188.660	0.302	-0.004
-137.429	614.948	0.073	0.180
-136.414	800.000	-0.152	-0.415
-135.399	201.677	-0.049	-0.075
-134.385	-106.694	-0.217	-0.047
-133.370	800.000	0.058	-0.185
-132.356	-40.592	-0.397	0.202
-131.341	-200.000	-0.004	-0.136
-130.326	110.975	0.144	-0.170
-129.312	-101.540	-0.255	-0.061
-128.297	120.824	0.320	0.390
-127.283	800.000	0.080	0.332
-126.268	-48.690	-0.085	0.040
-125.253	-200.000	-0.022	-0.096
-124.239	13.332	-0.162	0.123
-123.224	-200.000	0.002	-0.038
