DTS Sentinel unit serial number:	SN413079Multiplexer serial number:	ORYXHardware model number:	OX4-SRSoftware version number:	ORYX F/W v4.00 Oryx Data Collector v3.7.2.0data status	okinstallation	princeton_trtdifferential loss correction	single-endedforward channel	channel 1reverse channel	N/Adate	2019/09/13time	01:58:35forward acquisition time	60.00reverse acquisition time	0.00gamma	496.2192k internal	0.2331k external	0.2331temperature offset calibration	1.0147default loss term (dB/km)	0.3790temperature slope calibration	1.0000multiplexer offset coefficient	1.0000multiplexer slope coefficient	1.0000fibre end	0.00T internal ref (°C)	27.64T ext. ref 1 (°C)	3.83T ext. ref 2 (°C)	22.27length (m)	temperature (°C)	Stokes	anti-Stokes-747.200	800.000	0.011	0.035
-746.185	-1.888	-0.292	0.207
-745.171	90.089	0.364	-0.409
-744.156	-200.000	-0.062	0.275
-743.142	25.988	0.172	-0.145
-742.127	-147.203	-0.320	-0.027
-741.112	171.246	-0.068	0.098
-740.098	356.629	0.183	0.366
-739.083	33.718	-0.075	0.066
-738.069	-118.054	-0.143	0.026
-737.054	25.225	-0.245	0.205
-736.039	-50.362	0.122	0.058
-735.025	-122.955	0.364	-0.059
-734.010	-200.000	0.047	-0.306
-732.996	-85.397	-0.159	0.050
-731.981	144.011	-0.241	0.324
-730.966	64.236	0.181	0.184
-729.952	152.948	0.294	-0.404
-728.937	-61.103	-0.241	-0.102
-727.923	-200.000	-0.036	-0.256
-726.908	-111.726	-0.179	0.036
-725.894	-200.000	0.023	-0.116
-724.879	-138.827	-0.186	0.020
-723.864	27.107	0.347	-0.293
-722.850	80.200	0.059	-0.064
-721.835	-67.111	-0.351	-0.139
-720.821	-132.448	0.179	-0.023
-719.806	255.739	-0.062	-0.106
-718.791	-42.400	-0.259	0.133
-717.777	126.480	-0.209	-0.266
-716.762	228.500	0.149	0.244
-715.748	-53.435	-0.047	0.022
-714.733	-200.000	0.004	-0.248
-713.718	47.171	-0.050	-0.047
-712.704	-28.173	-0.260	0.151
-711.689	227.013	0.157	0.256
-710.675	-188.189	0.365	0.005
-709.660	10.972	-0.384	-0.295
-708.645	-46.658	-0.087	0.043
-707.631	160.578	-0.080	-0.112
-706.616	-89.596	0.047	0.014
-705.602	-35.408	-0.094	-0.051
-704.587	-110.509	0.366	0.076
-703.572	393.607	0.121	-0.253
-702.558	-35.014	-0.170	-0.093
-701.543	-107.827	-0.235	0.051
-700.529	27.889	0.111	0.094
-699.514	256.825	0.182	0.315
-698.499	-200.000	0.068	0.413
-697.485	-200.000	-0.006	0.087
-696.470	2.273	-0.338	-0.245
-695.456	-200.000	0.021	-0.204
-694.441	-200.000	0.000	0.339
-693.426	-12.057	-0.187	0.123
-692.412	131.367	0.160	0.206
-691.397	41.358	-0.084	0.077
-690.383	-200.000	0.029	-0.271
-689.368	253.954	0.139	-0.239
-688.354	-136.371	-0.140	-0.016
-687.339	225.710	-0.179	0.291
-686.324	-66.396	0.397	0.159
-685.310	800.000	-0.096	0.397
-684.295	-17.955	-0.232	-0.146
-683.281	32.737	0.257	-0.223
-682.266	-132.958	0.157	-0.020
-681.251	-135.390	0.288	0.035
-680.237	322.881	0.059	0.113
-679.222	800.000	-0.077	-0.236
-678.208	800.000	0.071	-0.261
-677.193	-200.000	0.021	-0.174
-676.178	-200.000	0.035	0.179
-675.164	-96.761	0.203	0.054
-674.149	157.741	-0.153	0.212
-673.135	-200.000	0.004	-0.229
-672.120	-78.747	-0.063	0.021
-671.105	-71.058	0.220	-0.083
-670.091	800.000	-0.008	-0.027
-669.076	26.191	0.326	-0.273
-668.062	658.210	0.076	0.196
-667.047	-34.446	0.216	-0.119
-666.032	-137.518	-0.247	0.028
-665.018	800.000	0.018	-0.077
-664.003	14.557	0.255	-0.200
-662.989	-62.628	-0.027	0.011
-661.974	400.545	-0.110	0.232
-660.959	-200.000	-0.103	0.493
-659.945	-87.566	0.142	0.043
-658.930	195.910	0.052	0.079
-657.916	165.719	0.098	-0.139
-656.901	57.237	0.309	0.303
-655.886	-200.000	0.003	-0.292
-654.872	-118.927	0.269	-0.047
-653.857	-200.000	-0.032	-0.283
-652.843	-110.546	0.218	0.045
-651.828	-80.982	-0.154	-0.051
-650.814	-131.328	0.248	0.033
-649.799	-37.233	0.256	-0.137
-648.784	373.817	-0.096	0.197
-647.770	97.082	-0.145	0.167
-646.755	4.175	-0.141	-0.103
-645.741	85.244	0.150	0.165
-644.726	39.552	-0.200	-0.180
-643.711	557.163	0.050	-0.121
-642.697	-200.000	0.014	-0.067
-641.682	387.454	0.081	-0.167
-640.668	-112.402	-0.092	0.019
-639.653	-29.459	-0.079	-0.045
-638.638	800.000	-0.070	0.293
-637.624	800.000	0.097	-0.292
-636.609	68.538	-0.112	0.116
-635.595	9.351	0.210	0.159
-634.580	-27.009	-0.194	0.114
-633.565	645.900	-0.028	-0.072
-632.551	171.723	0.094	-0.136
-631.536	-47.979	-0.392	-0.190
-630.522	-200.000	-0.001	0.154
-629.507	292.289	-0.029	-0.053
-628.492	-200.000	0.002	-0.080
-627.478	-31.572	-0.050	0.028
-626.463	158.240	0.210	0.292
-625.449	-200.000	0.023	0.153
-624.434	73.996	0.177	-0.186
-623.419	-153.183	-0.175	-0.012
-622.405	-200.000	-0.046	-0.315
-621.390	734.019	0.094	-0.251
-620.376	-121.924	-0.279	0.046
-619.361	-102.824	0.165	-0.039
-618.346	-126.130	0.250	0.038
-617.332	13.403	0.216	-0.167
-616.317	-78.231	-0.321	-0.110
-615.303	-91.470	-0.175	0.050
-614.288	-200.000	-0.048	-0.330
-613.273	488.119	0.060	-0.137
-612.259	110.501	0.084	0.101
-611.244	281.560	0.095	-0.170
-610.230	-21.856	-0.139	0.085
-609.215	800.000	0.059	0.241
-608.201	272.217	0.080	-0.141
-607.186	-56.313	0.382	-0.170
-606.171	18.158	-0.122	0.098
-605.157	-119.601	-0.363	-0.063
-604.142	201.395	-0.038	0.059
-603.128	444.626	-0.213	-0.468
-602.113	800.000	0.056	-0.195
-601.098	-61.149	-0.282	-0.119
-600.084	-159.476	0.381	-0.021
-599.069	-47.032	0.305	0.149
-598.055	562.168	-0.067	-0.163
-597.040	-200.000	0.005	0.126
-596.025	-166.712	-0.261	0.011
-595.011	-125.221	0.185	0.028
-593.996	800.000	-0.060	0.168
-592.982	-200.000	-0.003	-0.238
-591.967	-74.608	-0.314	-0.113
-590.952	-179.463	-0.186	-0.004
-589.938	-177.914	-0.367	-0.009
-588.923	800.000	-0.055	0.160
-587.909	-200.000	0.033	-0.160
-586.894	265.961	-0.113	0.197
-585.879	-128.793	0.088	-0.012
-584.865	-134.068	0.238	-0.029
-583.850	-200.000	0.012	-0.149
-582.836	256.618	-0.067	-0.115
-581.821	-200.000	-0.022	-0.115
-580.806	-82.671	0.376	0.122
-579.792	1.323	-0.345	0.248
-578.777	217.613	-0.194	-0.310
-577.763	800.000	0.111	0.391
-576.748	137.992	0.118	0.155
-575.733	-11.802	-0.071	-0.047
-574.719	111.668	-0.236	-0.285
-573.704	51.220	0.236	0.223
-572.690	-5.989	-0.321	-0.220
-571.675	-140.487	0.268	0.028
-570.661	800.000	0.024	0.087
-569.646	22.831	0.178	0.145
-568.631	1.593	-0.249	0.180
-567.617	-200.000	0.014	-0.199
-566.602	-142.859	0.291	-0.028
-565.588	-96.032	0.438	-0.117
-564.573	371.145	-0.134	-0.272
-563.558	-10.841	-0.237	-0.157
-562.544	-16.996	-0.365	-0.231
-561.529	-172.453	-0.263	-0.008
-560.515	72.428	-0.163	-0.169
-559.500	-86.693	-0.236	-0.072
-558.485	800.000	0.029	0.083
-557.471	146.952	-0.054	0.073
-556.456	800.000	-0.117	0.334
-555.442	-177.949	-0.323	0.008
-554.427	38.116	-0.111	0.099
-553.412	-34.606	-0.210	-0.115
-552.398	131.289	-0.140	-0.179
-551.383	34.708	-0.200	0.175
-550.369	-200.000	-0.023	-0.115
-549.354	789.718	-0.062	-0.171
-548.339	-77.816	0.205	-0.071
-547.325	324.153	0.084	0.159
-546.310	-20.071	0.351	-0.216
-545.296	-200.000	0.029	-0.185
-544.281	-94.235	-0.374	0.102
-543.266	134.381	0.054	-0.070
-542.252	-104.388	0.156	-0.036
-541.237	-200.000	-0.079	-0.373
-540.223	-110.110	0.168	-0.035
-539.208	-33.453	0.124	0.068
-538.193	-75.495	-0.235	0.084
-537.179	-68.675	-0.046	0.018
-536.164	158.290	-0.305	-0.423
-535.150	-121.890	-0.099	0.016
-534.135	-131.894	0.365	-0.048
-533.121	800.000	-0.075	-0.246
-532.106	-80.684	-0.275	-0.091
-531.091	-109.930	-0.259	-0.054
-530.077	800.000	0.044	-0.129
-529.062	233.659	-0.214	-0.351
-528.048	-73.553	-0.119	0.043
-527.033	384.459	-0.093	0.192
-526.018	-200.000	-0.013	-0.185
-525.004	200.874	-0.119	-0.182
-523.989	-200.000	-0.044	0.247
-522.975	40.567	-0.025	0.022
-521.960	-41.299	0.140	-0.072
-520.945	205.025	0.027	-0.042
-519.931	800.000	-0.027	0.116
-518.916	368.908	-0.100	0.202
-517.902	376.416	-0.089	0.181
-516.887	-200.000	-0.020	-0.104
-515.872	176.441	0.094	0.137
-514.858	49.477	-0.220	-0.206
-513.843	34.056	0.072	0.063
-512.829	113.824	0.101	-0.122
-511.814	800.000	0.084	-0.333
-510.799	30.484	-0.174	-0.148
-509.785	400.068	0.143	-0.298
-508.770	197.165	0.105	0.160
-507.756	-200.000	-0.043	0.201
-506.741	-99.788	-0.224	-0.056
-505.726	100.530	0.080	-0.093
-504.712	-149.592	-0.013	-0.001
-503.697	-123.090	0.093	0.015
-502.683	423.211	0.150	0.321
-501.668	-82.232	-0.411	0.133
-500.653	-30.299	-0.300	0.170
-499.639	205.370	-0.002	-0.003
-498.624	-65.324	0.281	0.113
-497.610	50.839	0.124	-0.117
-496.595	-134.067	-0.217	-0.027
-495.581	-61.097	-0.172	0.072
-494.566	-200.000	0.010	0.425
-493.551	105.556	0.094	0.110
-492.537	61.447	0.100	-0.099
-491.522	-60.012	-0.205	-0.087
-490.508	-200.000	0.056	-0.272
-489.493	-5.134	-0.151	0.104
-488.478	-200.000	-0.002	0.021
-487.464	-89.136	-0.126	0.037
-486.449	-132.384	-0.299	-0.038
-485.435	495.504	-0.097	0.223
-484.420	-132.452	0.151	-0.019
-483.405	800.000	0.060	0.228
-482.391	682.261	0.060	-0.156
-481.376	-200.000	-0.062	0.276
-480.362	11.400	-0.320	0.244
-479.347	36.014	0.103	0.090
-478.332	-200.000	0.040	0.394
-477.318	-103.498	-0.465	-0.109
-476.303	191.870	0.105	-0.157
-475.289	-200.000	0.037	-0.177
-474.274	194.041	0.114	0.172
-473.259	-72.511	0.453	-0.167
-472.245	247.608	-0.082	-0.138
-471.230	-200.000	-0.074	-0.331
-470.216	-19.315	0.175	-0.108
-469.201	151.038	0.218	-0.295
-468.186	-34.123	0.143	-0.078
-467.172	341.551	-0.070	-0.136
-466.157	-114.437	0.177	-0.034
-465.143	275.137	0.183	0.322
-464.128	-62.624	-0.382	-0.158
-463.113	-33.249	0.343	0.189
-462.099	461.108	0.055	0.123
-461.084	-40.904	-0.360	0.185
-460.070	-200.000	0.044	-0.335
-459.055	-200.000	0.050	-0.264
-458.040	-75.914	0.235	0.083
-457.026	-151.961	0.122	0.009
-456.011	-7.547	0.311	0.210
-454.997	-44.352	0.052	-0.026
-453.982	595.472	0.020	0.050
-452.968	-200.000	-0.077	-0.362
-451.953	-181.945	-0.164	0.003
-450.938	391.173	-0.101	-0.208
-449.924	333.054	0.070	-0.134
-448.909	23.525	-0.188	0.154
-447.895	-97.911	0.295	0.076
-446.880	135.463	0.048	-0.062
-445.865	-101.887	-0.044	0.011
-444.851	245.651	-0.341	-0.571
-443.836	-200.000	-0.004	-0.075
-442.822	800.000	-0.082	-0.267
-441.807	-200.000	0.033	-0.224
-440.792	-200.000	-0.025	0.257
-439.778	-130.439	-0.126	-0.017
-438.763	18.409	0.069	-0.055
-437.749	-200.000	0.009	-0.260
-436.734	19.385	0.218	0.174
-435.719	800.000	0.161	-0.512
-434.705	13.363	-0.151	0.117
-433.690	800.000	-0.015	-0.050
-432.676	18.344	-0.263	0.209
-431.661	800.000	0.100	-0.277
-430.646	-143.399	-0.211	0.020
-429.632	-200.000	-0.015	-0.152
-428.617	143.821	0.261	-0.346
-427.603	-8.967	-0.218	0.145
-426.588	61.349	0.156	0.154
-425.573	-120.465	0.200	0.034
-424.559	16.385	-0.163	0.128
-423.544	-200.000	-0.047	-0.285
-422.530	560.324	0.052	0.125
-421.515	-19.344	0.131	-0.081
-420.500	179.270	-0.245	0.357
-419.486	-121.524	0.326	-0.054
-418.471	26.774	-0.134	-0.112
-417.457	-83.488	0.312	-0.099
-416.442	89.689	-0.129	0.143
-415.428	-200.000	0.003	0.236
-414.413	197.378	0.252	0.383
-413.398	-70.575	0.278	0.104
-412.384	21.069	-0.187	-0.151
-411.369	53.769	-0.051	-0.048
-410.355	-67.017	0.251	0.098
-409.340	-200.000	0.099	-0.493
-408.325	91.822	0.157	0.176
-407.311	-117.956	-0.051	-0.009
-406.296	-25.469	0.277	0.162
-405.282	800.000	0.004	0.014
-404.267	800.000	0.071	0.262
-403.252	177.290	0.209	0.302
-402.238	37.683	-0.098	-0.087
-401.223	-164.246	-0.233	0.011
-400.209	-161.104	-0.147	-0.008
-399.194	262.891	-0.099	0.170
-398.179	-64.547	-0.458	-0.185
-397.165	141.344	0.147	-0.193
-396.150	655.881	-0.066	0.168
-395.136	-93.711	0.106	0.029
-394.121	52.890	-0.139	-0.132
-393.106	-12.524	-0.133	-0.086
-392.092	-70.533	0.019	-0.007
-391.077	-91.038	0.164	0.047
-390.063	589.211	0.063	-0.153
-389.048	0.567	-0.337	0.239
-388.033	406.462	-0.015	0.031
-387.019	-84.659	-0.362	-0.113
-386.004	158.197	0.169	0.233
-384.990	-116.288	-0.285	-0.052
-383.975	174.396	0.089	0.128
-382.960	103.625	0.150	0.175
-381.946	20.227	0.113	0.091
-380.931	-151.432	0.371	-0.027
-379.917	-200.000	0.000	0.193
-378.902	80.662	-0.272	-0.291
-377.888	-156.744	0.035	0.002
-376.873	-167.797	-0.288	0.011
-375.858	-200.000	0.004	0.297
-374.844	-67.712	-0.237	0.092
-373.829	-96.608	-0.272	-0.071
-372.815	-113.814	0.338	-0.065
-371.800	-155.695	0.204	-0.013
-370.785	-92.500	0.176	-0.049
-369.771	800.000	-0.059	0.176
-368.756	217.915	-0.119	0.188
-367.742	143.311	0.155	-0.204
-366.727	13.540	0.102	-0.078
-365.712	765.889	0.097	0.262
-364.698	496.631	-0.072	-0.165
-363.683	-8.196	-0.122	-0.081
-362.669	-194.139	0.258	-0.002
-361.654	-61.411	-0.090	0.038
-360.639	-200.000	-0.051	0.234
-359.625	800.000	-0.091	0.258
-358.610	426.927	0.090	-0.192
-357.596	235.918	-0.137	0.224
-356.581	24.791	-0.279	-0.229
-355.566	-18.037	0.186	0.115
-354.552	376.935	0.155	0.313
-353.537	203.529	0.064	0.098
-352.523	409.511	-0.153	0.321
-351.508	-96.765	-0.232	0.060
-350.493	-15.319	0.075	-0.048
-349.479	110.637	0.101	-0.120
-348.464	24.876	0.154	0.127
-347.450	46.505	-0.157	0.145
-346.435	800.000	0.085	0.279
-345.420	-123.772	-0.064	0.010
-344.406	16.920	-0.162	-0.127
-343.391	-67.671	-0.196	0.076
-342.377	-200.000	-0.004	0.094
-341.362	-138.577	-0.113	-0.012
-340.348	-148.343	-0.233	0.019
-339.333	800.000	0.009	-0.027
-338.318	150.770	0.136	0.183
-337.304	56.374	0.285	0.275
-336.289	-197.930	-0.104	-0.001
-335.275	-160.514	0.113	-0.006
-334.260	-61.839	-0.070	0.029
-333.245	-200.000	0.073	0.351
-332.231	-53.258	0.105	0.048
-331.216	770.435	-0.206	-0.556
-330.202	-169.005	0.141	-0.005
-329.187	136.802	0.194	0.250
-328.172	5.458	0.109	-0.079
-327.158	-155.760	-0.184	0.012
-326.143	147.194	0.124	-0.165
-325.129	-200.000	-0.015	0.144
-324.114	16.110	0.182	-0.142
-323.099	-200.000	0.010	-0.190
-322.085	-10.364	-0.223	-0.146
-321.070	545.603	-0.101	0.239
-320.056	-200.000	-0.016	0.071
-319.041	153.028	-0.089	0.121
-318.026	-84.359	0.193	-0.060
-317.012	-160.286	0.268	-0.014
-315.997	236.109	0.106	0.174
-314.983	92.783	0.261	-0.292
-313.968	800.000	0.109	-0.335
-312.953	-152.504	-0.229	0.016
-311.939	-92.002	0.154	-0.043
-310.924	531.015	-0.091	-0.212
-309.910	335.752	-0.122	-0.234
-308.895	-200.000	-0.011	0.115
-307.880	151.877	-0.046	0.061
-306.866	-200.000	-0.036	0.173
-305.851	-200.000	0.018	0.095
-304.837	86.248	0.060	0.066
-303.822	-158.345	0.185	0.011
-302.807	800.000	-0.069	-0.278
-301.793	-1.889	0.485	0.337
-300.778	23.151	-0.127	-0.104
-299.764	-53.984	0.102	0.046
-298.749	-44.410	-0.318	0.158
-297.735	30.641	-0.067	-0.057
-296.720	-87.321	-0.214	-0.064
-295.705	-14.643	0.262	-0.167
-294.691	800.000	0.068	-0.195
-293.676	-56.117	0.450	-0.198
-292.662	-53.086	0.202	0.092
-291.647	-177.742	-0.293	-0.007
-290.632	800.000	-0.190	-0.585
-289.618	76.177	-0.132	-0.138
-288.603	-172.889	0.201	-0.006
-287.589	-132.159	0.045	-0.006
-286.574	-63.145	0.263	-0.107
-285.559	-3.259	0.096	-0.066
-284.545	307.217	0.112	0.207
-283.530	800.000	-0.068	0.186
-282.516	199.592	-0.112	0.169
-281.501	250.384	-0.173	0.290
-280.486	-76.189	-0.247	-0.086
-279.472	-141.558	0.151	-0.015
-278.457	685.398	0.041	0.106
-277.443	-32.168	-0.306	0.169
-276.428	-42.646	0.222	-0.112
-275.413	-23.647	0.250	-0.148
-274.399	-92.553	-0.272	0.075
-273.384	-200.000	0.007	0.130
-272.370	-200.000	-0.005	0.040
-271.355	-200.000	0.065	0.293
-270.340	-188.286	-0.125	-0.002
-269.326	278.279	-0.072	0.127
-268.311	13.852	0.237	0.182
-267.297	80.940	-0.090	0.096
-266.282	20.852	0.178	0.143
-265.267	144.939	-0.212	0.280
-264.253	42.285	-0.059	-0.053
-263.238	-96.294	-0.031	0.008
-262.224	-200.000	-0.076	-0.336
-261.209	-200.000	0.039	-0.176
-260.195	565.888	-0.080	0.191
-259.180	-200.000	-0.030	0.145
-258.165	-200.000	-0.034	-0.167
-257.151	-30.627	-0.070	-0.039
-256.136	-128.731	0.187	0.026
-255.122	208.245	0.149	0.230
-254.107	-200.000	0.059	0.296
-253.092	-111.834	0.182	-0.036
-252.078	-55.347	0.089	0.039
-251.063	384.223	0.079	-0.161
-250.049	-200.000	-0.035	-0.297
-249.034	-8.326	-0.060	0.040
-248.019	800.000	-0.114	-0.390
-247.005	579.301	-0.083	-0.201
-245.990	-200.000	-0.043	-0.231
-244.976	-23.955	0.128	0.075
-243.961	-74.664	-0.262	-0.093
-242.946	-200.000	0.004	-0.110
-241.932	-0.426	0.191	-0.134
-240.917	69.804	-0.222	0.226
-239.903	-200.000	-0.008	0.434
-238.888	-121.470	0.202	0.033
-237.873	-36.366	-0.257	0.137
-236.859	-157.598	-0.141	-0.008
-235.844	125.023	-0.240	0.298
-234.830	198.057	-0.076	0.115
-233.815	-21.407	0.031	-0.019
-232.800	10.313	0.104	-0.078
-231.786	-200.000	0.031	-0.211
-230.771	-200.000	0.001	-0.043
-229.757	-54.520	0.224	-0.100
-228.742	800.000	0.124	-0.433
-227.727	-84.130	0.262	0.082
-226.713	-9.454	-0.135	0.089
-225.698	56.113	0.145	0.139
-224.684	800.000	0.050	-0.171
-223.669	-200.000	-0.068	-0.448
-222.655	-31.996	0.251	0.138
-221.640	-96.708	0.214	-0.056
-220.625	-35.445	-0.168	0.090
-219.611	-200.000	0.047	0.273
-218.596	-200.000	0.020	-0.156
-217.582	-112.665	-0.167	-0.033
-216.567	-19.190	-0.080	0.049
-215.552	-98.637	0.394	0.099
-214.538	-25.996	0.084	0.049
-213.523	-200.000	-0.003	0.095
-212.509	254.899	0.178	0.301
-211.494	-90.424	-0.316	-0.090
-210.479	-174.531	0.083	0.002
-209.465	-59.204	0.253	0.108
-208.450	193.766	-0.025	0.038
-207.436	114.313	0.124	0.148
-206.421	-109.432	-0.396	0.082
-205.406	-200.000	-0.013	-0.072
-204.392	-200.000	0.023	-0.320
-203.377	561.631	-0.101	0.241
-202.363	-200.000	0.019	0.576
-201.348	-11.534	-0.095	0.062
-200.333	381.395	0.109	-0.221
-199.319	-200.000	-0.016	0.190
-198.304	800.000	-0.058	-0.204
-197.290	542.129	-0.071	0.168
-196.275	-200.000	0.040	-0.216
-195.260	800.000	0.080	0.300
-194.246	36.139	-0.194	-0.168
-193.231	55.887	0.197	0.189
-192.217	742.421	-0.018	0.047
-191.202	344.024	0.168	-0.324
-190.187	-200.000	0.045	0.213
-189.173	-40.214	0.240	-0.123
-188.158	-200.000	0.030	0.239
-187.144	-200.000	-0.048	-0.391
-186.129	80.618	0.011	0.012
-185.114	-41.042	0.230	-0.117
-184.100	-51.925	0.273	-0.125
-183.085	121.299	0.200	-0.245
-182.071	71.256	-0.112	0.114
-181.056	-35.561	0.177	-0.095
-180.042	-163.133	0.231	0.011
-179.027	-165.646	0.405	0.017
-178.012	-74.470	-0.318	-0.113
-176.998	800.000	0.085	0.345
-175.983	800.000	-0.065	0.195
-174.969	39.576	0.148	0.131
-173.954	800.000	0.070	-0.255
-172.939	-75.504	0.200	-0.070
-171.925	-23.472	0.021	0.012
-170.910	636.537	-0.060	-0.150
-169.896	127.633	0.120	0.150
-168.881	76.870	0.041	0.043
-167.866	-200.000	0.030	0.309
-166.852	222.811	-0.177	0.280
-165.837	18.620	-0.146	0.115
-164.823	400.092	-0.138	0.285
-163.808	14.063	0.127	0.097
-162.793	-200.000	-0.012	0.177
-161.779	800.000	-0.063	0.216
-160.764	-26.318	0.259	-0.150
-159.750	686.936	0.137	0.353
-158.735	800.000	-0.038	-0.115
-157.720	-99.360	-0.173	0.043
-156.706	-48.350	0.052	0.024
-155.691	-59.412	0.272	0.115
-154.677	91.585	0.153	0.169
-153.662	-81.086	0.276	0.090
-152.647	229.308	-0.083	-0.133
-151.633	-200.000	0.001	0.213
-150.618	362.764	0.079	0.156
-149.604	-200.000	-0.003	0.065
-148.589	48.959	0.140	-0.129
-147.574	-62.857	-0.389	0.158
-146.560	-200.000	-0.026	0.294
-145.545	481.178	0.134	0.298
-144.531	-47.528	-0.265	0.127
-143.516	800.000	-0.118	0.408
-142.502	134.883	-0.044	0.056
-141.487	-200.000	0.006	0.053
-140.472	195.134	0.103	-0.154
-139.458	-88.632	-0.413	0.121
-138.443	800.000	-0.108	-0.396
-137.429	-22.557	0.061	0.036
-136.414	101.868	0.210	-0.241
-135.399	-191.533	-0.273	-0.003
-134.385	-127.662	-0.320	0.045
-133.370	-27.015	0.108	-0.062
-132.356	-200.000	0.048	-0.206
-131.341	25.933	0.210	-0.172
-130.326	-164.137	0.113	0.005
-129.312	-33.703	0.087	-0.047
-128.297	207.661	-0.018	-0.028
-127.283	347.483	-0.123	0.238
-126.268	-200.000	-0.004	0.331
-125.253	-119.424	-0.189	0.032
-124.239	-106.385	0.275	-0.060
-123.224	265.199	0.149	0.256
-122.210	-106.637	-0.288	-0.063
-121.195	-200.000	0.011	-0.147
