DTS Sentinel unit serial number:	SN413079Multiplexer serial number:	ORYXHardware model number:	OX4-SRSoftware version number:	ORYX F/W v4.00 Oryx Data Collector v3.7.2.0data status	okinstallation	princeton_trtdifferential loss correction	single-endedforward channel	channel 1reverse channel	N/Adate	2019/09/12time	19:08:34forward acquisition time	15.00reverse acquisition time	0.00gamma	496.2192k internal	0.2320k external	0.2320temperature offset calibration	1.0107default loss term (dB/km)	0.3790temperature slope calibration	1.0000multiplexer offset coefficient	1.0000multiplexer slope coefficient	1.0000fibre end	0.00T internal ref (°C)	32.62T ext. ref 1 (°C)	3.16T ext. ref 2 (°C)	27.23length (m)	temperature (°C)	Stokes	anti-Stokes-747.200	582.942	0.147	0.364
-746.185	-21.263	-0.484	0.299
-745.171	226.961	-0.442	0.726
-744.156	27.160	0.469	-0.398
-743.142	305.194	0.202	-0.380
-742.127	-7.352	-0.128	0.088
-741.112	-200.000	-0.138	-0.840
-740.098	-107.757	-0.233	0.051
-739.083	-47.523	-0.545	0.268
-738.069	-38.703	-0.068	0.036
-737.054	80.896	-0.090	-0.099
-736.039	-121.893	0.169	0.028
-735.025	670.257	0.226	0.591
-734.010	-200.000	0.012	-0.197
-732.996	-200.000	-0.075	-0.712
-731.981	-89.494	0.283	-0.084
-730.966	-136.365	-0.832	0.098
-729.952	-25.175	-1.231	0.737
-728.937	339.714	-0.107	0.211
-727.923	-50.274	0.502	0.240
-726.908	-104.212	-0.203	-0.048
-725.894	-200.000	-0.003	-0.626
-724.879	-10.519	-0.924	-0.618
-723.864	184.388	0.452	0.676
-722.850	250.213	-0.117	0.200
-721.835	-59.146	0.786	-0.342
-720.821	27.207	-0.342	0.290
-719.806	-134.220	-0.124	-0.015
-718.791	-76.648	-1.127	-0.399
-717.777	80.814	-0.419	-0.457
-716.762	437.407	-0.129	-0.283
-715.748	-59.687	0.649	-0.281
-714.733	-90.137	0.771	0.227
-713.718	184.629	-0.085	-0.127
-712.704	800.000	0.058	0.163
-711.689	800.000	0.080	-0.252
-710.675	-64.375	0.693	-0.285
-709.660	36.922	0.462	0.412
-708.645	77.656	-0.272	0.293
-707.631	148.407	-0.142	0.194
-706.616	-77.141	-0.086	-0.030
-705.602	6.259	-0.413	-0.309
-704.587	36.298	0.324	0.289
-703.572	800.000	0.147	0.525
-702.558	72.876	-0.573	0.604
-701.543	-3.930	0.648	0.454
-700.529	-200.000	0.072	0.468
-699.514	399.729	0.105	-0.223
-698.499	-200.000	-0.032	0.212
-697.485	-46.774	0.375	-0.185
-696.470	-37.775	-0.522	-0.280
-695.456	-137.792	-0.296	-0.034
-694.441	247.200	-0.078	-0.134
-693.426	175.303	0.135	-0.197
-692.412	118.558	-0.284	-0.354
-691.397	800.000	-0.108	-0.368
-690.383	-100.714	0.282	-0.070
-689.368	-200.000	0.007	0.374
-688.354	-108.411	-0.612	0.133
-687.339	-200.000	0.012	-0.124
-686.324	-200.000	0.066	-0.530
-685.310	-53.724	0.141	0.065
-684.295	171.463	-0.342	-0.496
-683.281	628.953	-0.246	0.628
-682.266	-200.000	-0.050	0.319
-681.251	-87.467	0.532	-0.162
-680.237	127.420	-0.463	0.593
-679.222	29.163	0.460	0.394
-678.208	348.615	-0.341	-0.678
-677.193	-200.000	0.067	-0.455
-676.178	8.795	-0.462	-0.351
-675.164	-84.882	0.606	0.192
-674.149	94.848	0.260	-0.298
-673.135	382.985	-0.342	0.710
-672.120	-109.558	-0.374	0.080
-671.105	-200.000	-0.045	0.604
-670.091	-40.217	0.724	-0.380
-669.076	-200.000	-0.039	-0.378
-668.062	-107.297	-0.557	0.124
-667.047	-18.595	0.338	0.213
-666.032	-159.005	-0.609	0.035
-665.018	-200.000	-0.075	-0.414
-664.003	253.868	0.271	0.467
-662.989	-28.185	-0.169	0.099
-661.974	-127.023	-0.847	0.125
-660.959	-200.000	0.036	-0.245
-659.945	-21.291	-0.423	-0.260
-658.930	-105.735	-0.373	-0.085
-657.916	800.000	-0.177	0.615
-656.901	-166.166	0.748	-0.032
-655.886	2.389	-0.455	0.332
-654.872	559.184	-0.204	-0.496
-653.857	-53.529	-0.294	-0.135
-652.843	800.000	0.138	0.416
-651.828	-168.598	-0.515	-0.020
-650.814	-200.000	-0.091	-0.450
-649.799	800.000	0.081	0.352
-648.784	95.125	0.489	0.561
-647.770	-145.429	0.527	-0.048
-646.755	-109.163	0.344	-0.074
-645.741	-32.634	0.284	0.159
-644.726	48.835	-0.474	0.448
-643.711	-200.000	-0.019	0.400
-642.697	127.654	-0.190	-0.244
-641.682	167.185	-0.363	-0.519
-640.668	800.000	0.203	-0.678
-639.653	800.000	-0.230	-0.673
-638.638	305.430	-0.109	0.204
-637.624	162.357	0.457	-0.646
-636.609	251.251	0.237	-0.406
-635.595	-60.429	-0.288	0.124
-634.580	-94.634	0.147	-0.040
-633.565	63.030	0.667	-0.673
-632.551	800.000	-0.303	-1.134
-631.536	-151.131	0.215	-0.016
-630.522	-76.001	0.411	0.146
-629.507	-61.261	-0.213	-0.090
-628.492	-147.736	-0.479	-0.040
-627.478	412.831	0.381	-0.816
-626.463	108.103	0.696	0.835
-625.449	97.727	0.515	-0.596
-624.434	427.937	0.156	-0.340
-623.419	9.753	0.180	-0.137
-622.405	-72.810	1.150	0.426
-621.390	76.652	-0.447	-0.477
-620.376	-151.404	-0.018	0.001
-619.361	235.863	-0.409	0.681
-618.346	-21.732	-0.500	0.306
-617.332	249.620	-0.121	0.207
-616.317	-200.000	0.073	0.398
-615.303	0.472	-0.188	-0.135
-614.288	-142.285	-1.152	0.115
-613.273	-91.898	-1.246	0.355
-612.259	11.695	-0.544	0.420
-611.244	800.000	-0.118	-0.479
-610.230	285.034	0.432	0.783
-609.215	-11.362	-0.485	-0.321
-608.201	424.194	0.196	-0.423
-607.186	173.458	0.512	0.743
-606.171	-90.396	0.863	0.252
-605.157	652.381	-0.079	0.203
-604.142	331.221	0.022	-0.043
-603.128	12.534	-0.898	0.697
-602.113	194.370	0.438	0.668
-601.098	-60.310	0.685	0.293
-600.084	-5.310	-0.828	-0.572
-599.069	112.466	0.447	0.544
-598.055	-74.949	-0.468	-0.168
-597.040	284.567	0.176	-0.318
-596.025	281.505	-0.321	-0.578
-595.011	-200.000	-0.030	-1.069
-593.996	-88.154	0.792	-0.239
-592.982	-55.085	-0.372	0.168
-591.967	101.633	-0.127	0.149
-590.952	301.301	-0.120	0.222
-589.938	-200.000	-0.015	-0.492
-588.923	-200.000	-0.080	0.851
-587.909	141.855	0.098	0.131
-586.894	-17.121	-0.816	0.518
-585.879	236.570	0.125	-0.208
-584.865	-103.052	0.711	0.169
-583.850	-84.099	-0.317	0.101
-582.836	-200.000	-0.086	-0.512
-581.821	474.962	0.205	-0.466
-580.806	182.145	-0.037	-0.055
-579.792	800.000	-0.240	-0.754
-578.777	104.649	-0.272	-0.323
-577.763	-200.000	-0.001	-0.102
-576.748	7.902	-0.348	0.262
-575.733	338.380	0.243	0.474
-574.719	800.000	-0.188	-0.603
-573.704	478.280	0.044	0.101
-572.690	233.526	-0.236	-0.390
-571.675	-200.000	-0.084	-0.380
-570.661	331.699	0.146	-0.282
-569.646	-108.560	-0.797	-0.172
-568.631	-91.818	0.154	0.044
-567.617	800.000	-0.296	0.951
-566.602	13.840	-0.291	-0.227
-565.588	27.558	0.294	-0.248
-564.573	-42.481	-0.434	-0.222
-563.558	-130.910	0.332	0.045
-562.544	-27.635	0.518	-0.302
-561.529	249.168	0.202	-0.344
-560.515	9.731	-0.444	-0.338
-559.500	57.858	-0.312	-0.307
-558.485	-74.024	0.447	-0.163
-557.471	-200.000	-0.103	-1.252
-556.456	-154.735	0.189	0.013
-555.442	-17.272	0.491	-0.311
-554.427	118.384	-0.228	0.283
-553.412	-110.240	0.597	0.125
-552.398	-200.000	0.080	0.401
-551.383	3.256	-0.294	-0.215
-550.369	522.667	0.148	0.350
-549.354	77.521	-0.294	0.314
-548.339	54.484	0.453	-0.438
-547.325	-144.606	-0.659	-0.061
-546.310	800.000	0.235	0.995
-545.296	125.245	0.187	-0.237
-544.281	-153.237	0.397	-0.028
-543.266	-15.085	-0.151	0.097
-542.252	-89.968	0.761	-0.223
-541.237	-200.000	-0.030	-0.217
-540.223	375.448	0.426	-0.871
-539.208	-63.001	-0.286	0.119
-538.193	-5.547	0.522	-0.359
-537.179	-153.969	-0.673	0.046
-536.164	773.739	0.076	0.209
-535.150	-66.241	0.378	0.151
-534.135	-200.000	-0.057	0.263
-533.121	251.056	0.171	-0.292
-532.106	118.699	-0.016	-0.020
-531.091	-200.000	-0.059	-0.507
-530.077	54.298	0.342	-0.330
-529.062	65.392	0.398	-0.404
-528.048	-142.280	-0.623	-0.062
-527.033	-200.000	-0.017	-0.284
-526.018	-83.792	-0.209	0.067
-525.004	36.795	-0.253	0.224
-523.989	800.000	0.361	1.012
-522.975	-0.404	-0.289	-0.206
-521.960	-77.344	-0.509	-0.177
-520.945	142.844	-0.438	-0.584
-519.931	-200.000	-0.006	0.488
-518.916	83.655	0.257	-0.281
-517.902	196.695	-0.380	0.581
-516.887	800.000	-0.057	0.230
-515.872	-73.433	-0.284	-0.104
-514.858	-90.466	0.135	-0.039
-513.843	32.376	0.460	-0.398
-512.829	-95.160	0.382	0.103
-511.814	-167.863	-0.496	-0.020
-510.799	74.411	-0.546	-0.575
-509.785	-62.365	-0.774	-0.323
-508.770	-9.241	-0.725	-0.486
-507.756	-60.343	-0.242	0.103
-506.741	775.646	-0.092	0.251
-505.726	91.050	-0.352	-0.395
-504.712	-156.043	0.675	-0.043
-503.697	-54.919	-0.479	0.216
-502.683	-42.368	-0.625	-0.320
-501.668	-20.584	-1.030	-0.634
-500.653	170.083	-0.162	0.233
-499.639	-48.423	0.164	0.079
-498.624	800.000	0.245	0.710
-497.610	800.000	-0.165	0.528
-496.595	-11.433	-0.590	0.389
-495.581	-24.943	0.541	-0.322
-494.566	184.553	0.299	-0.443
-493.551	-200.000	-0.060	-0.338
-492.537	15.223	0.683	-0.537
-491.522	-151.285	0.450	-0.034
-490.508	800.000	0.312	1.155
-489.493	43.272	-0.515	0.471
-488.478	-36.629	-0.789	0.425
-487.464	198.362	0.404	0.618
-486.449	-200.000	-0.000	0.351
-485.435	7.675	-0.299	-0.224
-484.420	208.198	0.487	0.762
-483.405	-90.020	-0.399	-0.116
-482.391	213.224	0.312	0.493
-481.376	-200.000	0.054	-0.713
-480.362	7.375	0.340	-0.254
-479.347	-200.000	-0.014	0.839
-478.332	-200.000	-0.028	-0.136
-477.318	-10.066	0.507	-0.337
-476.303	742.728	0.097	-0.262
-475.289	-73.602	0.207	0.075
-474.274	-109.435	-0.378	0.080
-473.259	-114.606	-0.460	0.088
-472.245	800.000	0.154	0.508
-471.230	76.966	-0.258	0.275
-470.216	-55.775	-0.719	-0.322
-469.201	98.251	-0.413	0.475
-468.186	-89.146	0.432	-0.128
-467.172	800.000	0.110	0.358
-466.157	445.733	0.320	-0.704
-465.143	-200.000	0.023	0.135
-464.128	-46.798	-0.226	-0.111
-463.113	520.914	-0.543	-1.275
-462.099	-200.000	0.015	0.817
-461.084	-200.000	-0.026	0.119
-460.070	39.332	-0.812	-0.727
-459.055	66.193	0.618	-0.628
-458.040	-200.000	0.068	-0.879
-457.026	34.140	0.804	-0.701
-456.011	200.443	-0.212	0.327
-454.997	39.793	-0.610	-0.547
-453.982	15.302	0.198	-0.156
-452.968	-200.000	-0.053	-0.586
-451.953	23.568	0.466	0.383
-450.938	-197.403	-0.404	0.003
-449.924	-1.015	0.485	-0.343
-448.909	109.381	-0.192	0.230
-447.895	-166.002	0.090	-0.004
-446.880	0.072	0.342	0.244
-445.865	63.738	-0.475	-0.477
-444.851	800.000	-0.140	-0.427
-443.836	65.286	0.310	0.313
-442.822	-200.000	-0.097	0.431
-441.807	104.303	-0.212	0.250
-440.792	221.766	0.164	0.264
-439.778	34.321	-0.324	-0.283
-438.763	79.949	-0.196	0.210
-437.749	23.372	0.449	0.368
-436.734	-47.387	1.105	-0.537
-435.719	-200.000	-0.030	0.170
-434.705	-34.830	-0.368	-0.201
-433.690	-200.000	-0.118	-0.790
-432.676	-200.000	0.015	0.655
-431.661	-74.068	0.378	-0.137
-430.646	-168.730	0.757	-0.029
-429.632	-4.312	0.661	-0.457
-428.617	-56.705	-0.473	0.209
-427.603	178.134	0.448	0.652
-426.588	800.000	-0.139	0.589
-425.573	-200.000	-0.009	0.544
-424.559	170.082	0.280	0.400
-423.544	51.501	-0.533	-0.506
-422.530	-53.120	0.500	0.229
-421.515	800.000	-0.250	0.874
-420.500	10.155	-0.216	-0.164
-419.486	-115.137	0.628	0.119
-418.471	27.941	0.564	-0.475
-417.457	-200.000	0.530	0.002
-416.442	325.448	-0.265	-0.507
-415.428	129.643	-0.218	-0.279
-414.413	5.849	0.350	-0.259
-413.398	408.169	0.248	-0.523
-412.384	-70.491	1.077	-0.407
-411.369	101.777	-0.356	-0.414
-410.355	-120.121	0.549	-0.094
-409.340	800.000	-0.170	0.722
-408.325	-42.376	0.500	-0.255
-407.311	95.104	0.080	-0.090
-406.296	-0.472	0.493	0.350
-405.282	-129.472	0.416	-0.058
-404.267	-75.525	-0.278	0.099
-403.252	-32.556	0.495	0.275
-402.238	-106.536	-0.259	-0.058
-401.223	258.188	0.368	-0.633
-400.209	-200.000	-0.060	-0.497
-399.194	-55.597	0.142	0.064
-398.179	800.000	-0.148	-0.590
-397.165	-149.308	-0.291	0.023
-396.150	405.955	-0.165	0.348
-395.136	-200.000	-0.010	-0.723
-394.121	-177.895	0.172	0.004
-393.106	-200.000	0.007	0.682
-392.092	200.268	0.317	-0.486
-391.077	-200.000	0.037	-0.373
-390.063	-23.857	0.279	-0.166
-389.048	-23.035	-0.540	0.325
-388.033	-64.925	-0.537	0.216
-387.019	-124.541	0.512	-0.079
-386.004	-24.107	-0.395	0.235
-384.990	145.310	0.469	-0.627
-383.975	-200.000	-0.053	-0.800
-382.960	84.119	0.112	0.123
-381.946	138.305	-0.375	0.490
-380.931	269.298	-0.293	-0.512
-379.917	47.159	0.368	-0.341
-378.902	-156.886	-0.642	0.039
-377.888	383.921	-0.170	-0.349
-376.873	408.830	-0.254	0.535
-375.858	-2.087	0.426	-0.298
-374.844	800.000	-0.155	-0.439
-373.829	-159.886	0.411	0.022
-372.815	800.000	-0.208	0.599
-371.800	130.923	0.401	0.512
-370.785	137.624	-0.267	0.348
-369.771	800.000	-0.075	-0.261
-368.756	28.366	0.224	-0.188
-367.742	249.616	0.329	-0.556
-366.727	-61.567	-0.557	0.233
-365.712	90.520	0.735	-0.820
-364.698	-74.505	0.822	-0.295
-363.683	-19.562	-0.327	0.202
-362.669	-103.871	0.709	0.165
-361.654	400.304	0.214	0.448
-360.639	102.928	0.364	0.425
-359.625	479.124	0.282	0.636
-358.610	744.158	0.096	-0.257
-357.596	34.955	-0.294	-0.256
-356.581	157.162	0.422	0.581
-355.566	456.571	-0.209	0.462
-354.552	-52.713	0.843	0.387
-353.537	-66.552	-0.419	0.166
-352.523	-2.110	-0.853	-0.597
-351.508	475.087	0.362	0.814
-350.493	-200.000	-0.034	0.768
-349.479	27.682	-0.424	0.355
-348.464	-64.173	-0.757	-0.307
-347.450	142.778	0.268	0.355
-346.435	-66.168	0.336	0.133
-345.420	800.000	0.142	0.414
-344.406	-200.000	0.035	-0.915
-343.391	-200.000	-0.047	1.214
-342.377	-62.221	-0.454	-0.188
-341.362	-200.000	0.030	-0.367
-340.348	-53.144	0.391	-0.179
-339.333	-65.690	-0.399	0.159
-338.318	83.139	0.696	0.754
-337.304	-77.587	0.363	0.125
-336.289	83.278	0.410	-0.444
-335.275	393.314	-0.351	0.727
-334.260	-106.174	0.690	0.154
-333.245	-112.810	0.316	0.062
-332.231	-59.683	-0.201	0.086
-331.216	-59.975	0.672	-0.286
-330.202	205.323	-0.217	-0.336
-329.187	-200.000	-0.039	1.041
-328.172	-200.000	-0.004	-0.378
-327.158	800.000	0.106	0.367
-326.143	-66.836	-1.090	0.429
-325.129	341.193	-0.304	0.591
-324.114	-60.371	0.195	0.083
-323.099	-162.587	-0.070	0.003
-322.085	-165.922	0.302	0.013
-321.070	271.276	-0.164	-0.287
-320.056	-14.283	-0.169	-0.108
-319.041	360.623	0.371	0.739
-318.026	64.957	-0.211	-0.212
-317.012	519.413	-0.130	-0.304
-315.997	-115.935	0.511	-0.095
-314.983	-91.815	-0.650	-0.184
-313.968	-174.972	0.810	-0.023
-312.953	177.625	-0.435	-0.631
-311.939	-200.000	0.000	0.353
-310.924	-200.000	-0.063	-0.763
-309.910	777.264	-0.142	-0.387
-308.895	133.733	0.457	-0.588
-307.880	117.954	-0.400	-0.490
-306.866	387.531	0.214	0.441
-305.851	-113.198	-0.846	0.166
-304.837	231.341	-0.231	-0.377
-303.822	-200.000	0.164	0.855
-302.807	326.912	-0.262	0.498
-301.793	-0.850	0.022	0.016
-300.778	360.544	0.390	0.776
-299.764	-61.778	-0.512	0.213
-298.749	-82.027	0.375	-0.122
-297.735	19.526	0.052	0.042
-296.720	-8.531	-0.265	-0.177
-295.705	-128.137	-0.835	-0.119
-294.691	-168.680	-0.662	0.025
-293.676	117.397	-0.084	-0.103
-292.662	-200.000	-0.143	-1.019
-291.647	-95.284	-0.700	0.187
-290.632	-27.466	-0.330	0.191
-289.618	-200.000	-0.005	-0.245
-288.603	-200.000	-0.055	-0.325
-287.589	-33.720	-0.258	0.142
-286.574	333.296	0.270	-0.519
-285.559	-24.203	0.375	0.222
-284.545	-200.000	0.015	-0.342
-283.530	-59.641	-0.565	-0.241
-282.516	-142.624	-0.164	-0.016
-281.501	54.610	-0.417	0.399
-280.486	-200.000	0.017	-0.141
-279.472	800.000	0.027	0.106
-278.457	-155.662	0.853	-0.054
-277.443	800.000	-0.179	-0.542
-276.428	800.000	0.016	0.068
-275.413	37.843	-0.244	-0.216
-274.399	732.854	0.400	1.063
-273.384	11.265	-0.899	0.684
-272.370	116.091	-0.424	0.515
-271.355	-118.963	-0.107	0.019
-270.340	-77.509	0.208	0.072
-269.326	-200.000	-0.007	0.195
-268.311	-117.295	0.479	0.086
-267.297	-165.920	-0.269	-0.011
-266.282	-120.228	0.236	0.040
-265.267	8.597	-0.417	-0.312
-264.253	217.150	0.439	-0.695
-263.238	-48.379	0.193	0.092
-262.224	-142.308	-0.947	-0.093
-261.209	-31.228	-0.886	0.496
-260.195	-178.007	-0.159	0.004
-259.180	151.549	-0.447	-0.604
-258.165	-56.000	0.316	-0.140
-257.151	800.000	0.263	0.808
-256.136	-3.183	-0.535	-0.370
-255.122	-196.878	0.605	-0.004
-254.107	142.407	0.312	0.411
-253.092	800.000	-0.146	-0.435
-252.078	-162.639	-0.240	-0.012
-251.063	-112.152	-0.316	0.063
-250.049	-109.699	1.698	0.354
-249.034	199.404	-0.111	0.169
-248.019	-98.168	0.178	0.045
-247.005	110.627	0.044	0.053
-245.990	130.460	-0.220	0.279
-244.976	11.846	0.510	-0.389
-243.961	23.486	0.524	0.427
-242.946	292.817	0.059	0.106
-241.932	-160.552	-0.906	-0.048
-240.917	800.000	0.150	0.485
-239.903	59.235	-0.396	0.387
-238.888	23.196	-0.355	0.289
-237.873	32.652	-0.534	0.458
-236.859	-77.853	0.487	-0.167
-235.844	53.307	-0.199	-0.189
-234.830	-200.000	0.010	-0.279
-233.815	221.144	-0.522	0.831
-232.800	342.508	0.365	0.707
-231.786	88.448	0.189	-0.208
-230.771	800.000	-0.284	-1.176
-229.757	226.111	-0.280	-0.450
-228.742	-73.464	-0.662	-0.239
-227.727	-200.000	-0.067	-0.455
-226.713	-49.632	0.361	-0.170
-225.698	-42.176	-0.402	-0.204
-224.684	-200.000	0.049	-0.541
-223.669	58.606	0.634	0.617
-222.655	-200.000	-0.095	0.694
-221.640	-51.234	-0.427	-0.198
-220.625	285.513	0.193	0.344
-219.611	-170.985	-0.669	-0.023
-218.596	586.601	-0.236	-0.576
-217.582	345.292	0.294	-0.572
-216.567	-200.000	-0.092	0.538
-215.552	-124.624	0.102	-0.016
-214.538	-107.085	0.907	-0.198
-213.523	61.673	-0.453	0.446
-212.509	-118.008	0.472	-0.084
-211.494	-47.628	0.630	-0.303
-210.479	-200.000	0.006	-0.102
-209.465	327.097	0.232	0.440
-208.450	-200.000	-0.055	0.587
-207.436	-37.301	-0.335	0.177
-206.421	-200.000	0.024	0.459
-205.406	800.000	0.201	0.639
-204.392	368.102	-0.325	-0.650
-203.377	14.621	0.123	-0.095
-202.363	-130.507	-0.737	-0.099
-201.348	397.510	-0.047	0.096
-200.333	-108.860	0.506	-0.107
-199.319	78.524	-0.331	0.350
-198.304	-172.859	-0.302	-0.009
-197.290	148.683	-0.405	-0.542
-196.275	-200.000	-0.150	0.903
-195.260	42.687	0.013	-0.012
-194.246	-88.339	-0.126	-0.037
-193.231	62.399	0.022	-0.022
-192.217	-22.517	-0.365	0.219
-191.202	-105.704	-0.676	0.151
-190.187	-162.881	0.697	0.034
-189.173	-192.990	-0.487	0.004
-188.158	-200.000	-0.015	0.788
-187.144	-51.158	-0.192	0.089
-186.129	-164.721	-0.939	0.042
-185.114	-73.603	0.336	-0.121
-184.100	323.768	0.614	-1.159
-183.085	27.064	0.445	0.369
-182.071	-200.000	-0.117	1.166
-181.056	10.730	0.144	-0.108
-180.042	800.000	-0.217	0.739
-179.027	-200.000	0.346	0.002
-178.012	11.622	-0.251	0.190
-176.998	800.000	-0.039	0.125
-175.983	-200.000	-0.029	0.218
-174.969	-79.141	0.581	0.195
-173.954	-93.311	0.322	0.088
-172.939	-200.000	0.030	-0.262
-171.925	74.542	0.817	0.849
-170.910	-120.652	0.323	-0.054
-169.896	-2.094	0.813	-0.564
-168.881	800.000	-0.085	-0.254
-167.866	-39.747	0.607	-0.314
-166.852	1.808	0.227	-0.162
-165.837	44.335	-0.115	-0.104
-164.823	225.530	0.047	-0.076
-163.808	179.226	-0.414	-0.599
-162.793	30.748	-0.446	0.378
-161.779	-200.000	0.040	0.600
-160.764	-88.978	-0.937	-0.274
-159.750	-200.000	0.079	-0.410
-158.735	-31.720	0.554	-0.307
-157.720	-120.218	0.638	0.108
-156.706	-180.249	0.311	0.006
-155.691	58.765	0.078	0.076
-154.677	-36.431	-0.321	0.171
-153.662	68.784	-0.604	0.613
-152.647	35.213	-0.398	0.345
-151.633	-87.679	0.703	0.210
-150.618	320.911	-0.197	0.370
-149.604	800.000	-0.358	-1.343
-148.589	-200.000	0.435	0.002
-147.574	161.677	0.496	0.685
-146.560	800.000	0.210	0.755
-145.545	-51.601	0.157	0.072
-144.531	-200.000	-0.090	-0.563
-143.516	-60.249	-0.631	-0.265
-142.502	800.000	0.156	-0.546
-141.487	-79.163	0.559	0.187
-140.472	139.878	0.260	0.338
-139.458	148.124	0.631	0.841
-138.443	101.770	-0.453	-0.522
-137.429	-189.663	-0.423	0.005
-136.414	-87.628	-0.441	0.132
-135.399	158.284	-0.306	-0.419
-134.385	277.658	-0.266	-0.468
-133.370	19.942	0.466	0.371
-132.356	-9.315	0.815	-0.537
-131.341	-200.000	-0.053	0.311
-130.326	103.323	-0.466	-0.539
-129.312	25.151	-0.448	0.367
-128.297	-164.449	0.213	0.010
-127.283	-126.917	0.664	0.096
-126.268	397.268	-0.317	0.653
-125.253	800.000	-0.055	-0.162
-124.239	800.000	-0.160	0.446
-123.224	-27.595	0.256	-0.147
-122.210	-0.474	0.289	0.202
-121.195	196.947	-0.607	0.913
