DTS Sentinel unit serial number:	SN413079Multiplexer serial number:	ORYXHardware model number:	OX4-SRSoftware version number:	ORYX F/W v4.00 Oryx Data Collector v3.7.2.0data status	okinstallation	princeton_trtdifferential loss correction	single-endedforward channel	channel 1reverse channel	N/Adate	2019/09/15time	12:06:35forward acquisition time	60.00reverse acquisition time	0.00gamma	496.2192k internal	0.2306k external	0.2306temperature offset calibration	0.9988default loss term (dB/km)	0.3790temperature slope calibration	1.0000multiplexer offset coefficient	1.0000multiplexer slope coefficient	1.0000fibre end	0.00T internal ref (°C)	34.50T ext. ref 1 (°C)	5.03T ext. ref 2 (°C)	30.80length (m)	temperature (°C)	Stokes	anti-Stokes-747.200	-180.759	-0.274	-0.006
-746.185	738.134	-0.109	0.297
-745.171	-100.940	0.026	-0.007
-744.156	11.417	-0.106	-0.083
-743.142	51.210	0.202	0.195
-742.127	-86.531	-0.177	0.055
-741.112	34.704	-0.170	-0.151
-740.098	-7.725	-0.186	0.128
-739.083	-105.038	-0.199	0.046
-738.069	372.920	-0.118	0.245
-737.054	-7.296	-0.172	0.119
-736.039	96.485	-0.230	0.268
-735.025	-105.120	0.508	0.118
-734.010	-64.028	-0.089	-0.037
-732.996	800.000	0.092	-0.291
-731.981	-188.003	0.432	-0.006
-730.966	-200.000	-0.005	-0.273
-729.952	-200.000	0.063	-0.453
-728.937	-83.756	0.119	0.039
-727.923	-70.914	0.371	-0.142
-726.908	155.027	-0.058	-0.080
-725.894	-166.628	-0.110	-0.005
-724.879	2.999	0.255	-0.188
-723.864	-200.000	-0.044	0.280
-722.850	138.931	0.110	-0.146
-721.835	68.601	-0.158	0.164
-720.821	359.397	-0.117	-0.238
-719.806	-147.678	-0.128	0.011
-718.791	739.951	-0.050	-0.136
-717.777	328.331	0.060	-0.117
-716.762	-153.689	0.251	-0.018
-715.748	-60.592	-0.080	-0.034
-714.733	-200.000	0.056	-0.287
-713.718	-200.000	-0.426	-0.001
-712.704	-177.436	-0.242	0.006
-711.689	800.000	-0.103	-0.338
-710.675	-0.801	0.128	-0.092
-709.660	-200.000	-0.008	-0.300
-708.645	67.817	-0.356	-0.369
-707.631	-200.000	0.021	-0.139
-706.616	103.219	-0.191	-0.227
-705.602	204.597	-0.210	-0.331
-704.587	-77.818	-0.101	-0.035
-703.572	-91.735	-0.278	0.080
-702.558	800.000	0.058	-0.244
-701.543	358.000	0.138	-0.280
-700.529	-74.833	0.203	-0.074
-699.514	-174.778	0.133	0.004
-698.499	-94.858	-0.416	0.114
-697.485	-12.386	-0.245	0.162
-696.470	75.938	-0.143	-0.154
-695.456	-200.000	0.001	0.040
-694.441	129.944	-0.130	0.169
-693.426	-95.256	-0.305	0.083
-692.412	800.000	0.028	-0.101
-691.397	174.965	0.125	-0.184
-690.383	375.665	0.049	-0.101
-689.368	349.643	-0.065	-0.131
-688.354	-78.096	-0.267	0.093
-687.339	-74.982	0.089	-0.032
-686.324	38.146	-0.052	-0.047
-685.310	800.000	0.079	0.223
-684.295	27.653	-0.113	0.097
-683.281	9.894	0.246	-0.190
-682.266	210.283	-0.162	-0.259
-681.251	-141.697	-0.135	0.014
-680.237	38.691	0.206	0.187
-679.222	-200.000	0.013	-0.069
-678.208	-125.043	0.321	-0.050
-677.193	-200.000	0.052	0.412
-676.178	-91.555	-0.137	0.040
-675.164	-85.157	0.084	0.027
-674.149	-39.471	0.214	-0.114
-673.135	222.828	0.174	-0.284
-672.120	-103.140	0.294	-0.070
-671.105	800.000	-0.011	-0.045
-670.091	-44.946	0.077	-0.039
-669.076	-13.971	0.219	-0.143
-668.062	-48.941	0.182	0.089
-667.047	-91.006	-0.410	0.120
-666.032	-96.273	-0.071	-0.019
-665.018	-34.677	0.118	0.066
-664.003	172.396	-0.094	-0.137
-662.989	-200.000	0.016	-0.292
-661.974	-200.000	-0.015	-0.283
-660.959	705.550	0.049	-0.130
-659.945	-11.015	-0.519	-0.347
-658.930	-200.000	0.038	-0.178
-657.916	181.839	-0.133	0.198
-656.901	-78.334	-0.464	-0.161
-655.886	800.000	0.056	0.245
-654.872	800.000	-0.031	-0.089
-653.857	-27.415	-0.130	-0.076
-652.843	136.786	0.058	-0.076
-651.828	-177.818	-0.196	-0.005
-650.814	-103.982	0.075	-0.018
-649.799	343.204	-0.071	0.141
-648.784	210.096	-0.052	-0.083
-647.770	19.847	0.321	0.262
-646.755	-85.685	0.194	0.061
-645.741	800.000	-0.059	0.200
-644.726	274.880	0.103	0.185
-643.711	682.195	-0.096	-0.253
-642.697	638.852	0.034	-0.088
-641.682	578.360	-0.112	-0.278
-640.668	800.000	-0.048	0.192
-639.653	-65.970	-0.298	0.121
-638.638	-28.786	0.168	0.098
-637.624	-109.803	-0.242	-0.052
-636.609	-4.358	0.074	-0.052
-635.595	-158.808	0.165	-0.010
-634.580	-200.000	0.043	0.225
-633.565	-34.305	0.282	-0.157
-632.551	-76.528	0.207	0.074
-631.536	245.670	-0.195	0.332
-630.522	218.246	0.033	-0.054
-629.507	100.902	0.184	-0.217
-628.492	61.989	-0.162	0.163
-627.478	637.526	0.079	0.204
-626.463	77.963	0.115	-0.124
-625.449	51.781	0.117	-0.113
-624.434	-81.075	-0.064	-0.022
-623.419	65.501	0.294	-0.301
-622.405	207.322	-0.150	0.236
-621.390	-23.957	-0.229	0.139
-620.376	-138.740	0.283	-0.031
-619.361	-57.889	0.301	0.133
-618.346	39.361	-0.252	0.228
-617.332	620.591	-0.135	0.344
-616.317	800.000	-0.080	0.251
-615.303	-102.432	-0.360	0.087
-614.288	-200.000	0.180	0.001
-613.273	-119.355	-0.308	-0.054
-612.259	773.015	0.055	0.151
-611.244	-29.291	-0.368	0.213
-610.230	206.431	0.086	-0.135
-609.215	42.764	0.230	0.212
-608.201	-200.000	0.051	0.242
-607.186	151.215	-0.048	-0.066
-606.171	-65.478	-0.165	0.067
-605.157	45.753	0.142	-0.132
-604.142	119.731	-0.035	0.044
-603.128	450.531	-0.055	0.122
-602.113	-163.961	-0.331	-0.016
-601.098	-25.820	-0.038	0.022
-600.084	-68.900	-0.143	0.056
-599.069	576.477	-0.060	-0.148
-598.055	115.233	0.205	0.253
-597.040	-30.029	-0.378	-0.218
-596.025	95.380	-0.103	-0.118
-595.011	0.949	-0.233	-0.169
-593.996	-200.000	0.029	-0.140
-592.982	718.199	0.022	0.059
-591.967	800.000	0.031	-0.129
-590.952	-140.376	-0.203	-0.021
-589.938	-53.416	0.219	0.101
-588.923	-200.000	-0.002	0.172
-587.909	22.642	0.007	0.006
-586.894	-48.704	0.239	-0.116
-585.879	-200.000	-0.013	-0.070
-584.865	-57.501	-0.199	0.088
-583.850	-140.697	-0.224	-0.023
-582.836	47.364	-0.228	-0.215
-581.821	-38.884	0.082	-0.044
-580.806	-99.388	0.164	-0.042
-579.792	-200.000	0.014	0.111
-578.777	84.133	0.058	0.064
-577.763	783.249	-0.143	-0.396
-576.748	-65.942	-0.034	-0.014
-575.733	-200.000	0.020	-0.170
-574.719	21.827	-0.206	-0.170
-573.704	179.930	-0.191	-0.282
-572.690	284.149	0.024	0.043
-571.675	12.671	-0.273	0.213
-570.661	-200.000	-0.031	0.329
-569.646	-200.000	-0.003	-0.043
-568.631	-200.000	0.011	0.100
-567.617	560.442	0.020	0.048
-566.602	107.237	-0.178	0.214
-565.588	-130.320	0.141	0.019
-564.573	800.000	-0.069	-0.269
-563.558	38.559	-0.036	0.032
-562.544	-184.328	0.356	0.006
-561.529	488.783	0.105	0.241
-560.515	66.641	0.223	-0.229
-559.500	-123.599	-0.136	-0.022
-558.485	-115.619	-0.238	0.045
-557.471	-7.713	0.181	0.124
-556.456	-38.178	0.168	-0.090
-555.442	424.571	-0.148	0.322
-554.427	-72.450	-0.227	0.085
-553.412	-200.000	-0.085	-0.425
-552.398	-200.000	-0.026	-0.142
-551.383	-200.000	0.108	0.559
-550.369	-200.000	-0.001	-0.415
-549.354	744.283	-0.079	-0.213
-548.339	26.517	-0.353	0.298
-547.325	-200.000	-0.040	-0.236
-546.310	-33.810	-0.154	-0.085
-545.296	-115.167	-0.148	0.028
-544.281	-70.517	0.204	0.078
-543.266	-200.000	0.047	-0.253
-542.252	-92.539	-0.023	0.007
-541.237	-121.424	0.191	0.032
-540.223	-79.014	-0.285	-0.098
-539.208	800.000	-0.063	-0.216
-538.193	-142.279	0.206	-0.021
-537.179	-194.674	-0.201	0.002
-536.164	-200.000	-0.019	0.211
-535.150	800.000	-0.056	0.222
-534.135	800.000	0.120	-0.442
-533.121	12.420	0.107	0.083
-532.106	150.719	0.110	0.151
-531.091	-200.000	-0.018	0.100
-530.077	-200.000	-0.018	0.088
-529.062	-200.000	-0.004	0.104
-528.048	11.090	0.153	-0.118
-527.033	264.384	0.173	-0.304
-526.018	-200.000	-0.030	-0.170
-525.004	230.233	0.067	0.111
-523.989	4.440	-0.148	0.110
-522.975	135.236	0.083	0.109
-521.960	-200.000	-0.011	0.101
-520.945	263.630	0.106	-0.186
-519.931	47.576	-0.051	-0.048
-518.916	-94.584	0.130	0.036
-517.902	-51.879	0.064	0.030
-516.887	-91.004	0.107	0.031
-515.872	325.072	-0.050	-0.097
-514.858	-31.812	-0.202	-0.114
-513.843	-97.959	-0.333	0.087
-512.829	-126.510	-0.147	-0.022
-511.814	14.364	-0.163	-0.128
-510.799	202.703	-0.206	-0.321
-509.785	-176.786	0.169	-0.004
-508.770	-13.324	0.072	-0.047
-507.756	-21.526	0.179	-0.110
-506.741	360.558	0.154	0.311
-505.726	-93.627	0.088	-0.024
-504.712	800.000	0.066	-0.195
-503.697	30.434	-0.216	-0.186
-502.683	127.777	0.087	-0.111
-501.668	658.321	-0.038	-0.098
-500.653	106.583	0.193	0.231
-499.639	-60.044	0.384	0.165
-498.624	-200.000	0.050	0.387
-497.610	-11.721	0.205	-0.136
-496.595	162.302	-0.089	0.126
-495.581	114.428	-0.092	-0.113
-494.566	-200.000	-0.024	-0.155
-493.551	-200.000	0.004	-0.204
-492.537	457.353	-0.041	-0.092
-491.522	-200.000	-0.043	-0.356
-490.508	-83.850	-0.255	0.082
-489.493	97.280	-0.192	-0.222
-488.478	-33.296	0.101	-0.056
-487.464	32.840	0.125	-0.109
-486.449	-31.587	0.078	-0.044
-485.435	-119.106	0.117	0.021
-484.420	-151.728	-0.047	-0.003
-483.405	211.539	0.113	-0.179
-482.391	113.543	0.147	-0.180
-481.376	-47.525	0.127	0.062
-480.362	-124.664	-0.114	-0.018
-479.347	17.935	0.136	0.109
-478.332	-106.651	0.123	-0.028
-477.318	-163.127	-0.103	0.005
-476.303	-20.313	-0.151	0.094
-475.289	-9.902	-0.214	-0.143
-474.274	-90.924	0.224	0.065
-473.259	-200.000	-0.010	0.372
-472.245	62.842	-0.099	-0.100
-471.230	281.129	0.134	-0.241
-470.216	-16.350	0.344	-0.219
-469.201	215.768	-0.143	-0.228
-468.186	-174.999	0.138	-0.004
-467.172	0.541	0.183	0.132
-466.157	-61.505	0.200	-0.084
-465.143	288.092	-0.110	0.201
-464.128	-200.000	-0.003	0.122
-463.113	453.710	-0.174	0.388
-462.099	66.003	-0.168	0.171
-461.084	-200.000	-0.014	0.103
-460.070	259.143	-0.080	0.138
-459.055	800.000	-0.025	-0.098
-458.040	-113.775	-0.205	-0.040
-457.026	137.963	0.085	0.112
-456.011	556.874	-0.035	0.085
-454.997	44.074	0.084	-0.077
-453.982	69.802	-0.146	0.151
-452.968	800.000	-0.082	-0.326
-451.953	-200.000	-0.043	-0.257
-450.938	69.184	0.203	0.210
-449.924	348.392	-0.165	-0.327
-448.909	-200.000	0.006	-0.081
-447.895	-200.000	-0.044	-0.200
-446.880	-200.000	0.050	-0.409
-445.865	-92.416	-0.065	0.018
-444.851	-54.994	0.184	-0.083
-443.836	800.000	-0.032	-0.089
-442.822	-47.248	0.055	-0.027
-441.807	-42.544	0.128	-0.066
-440.792	21.353	-0.168	-0.137
-439.778	40.164	0.041	0.037
-438.763	105.347	0.237	0.281
-437.749	800.000	-0.122	-0.379
-436.734	800.000	0.076	-0.213
-435.719	-22.534	-0.179	0.109
-434.705	-117.670	0.195	-0.035
-433.690	153.097	0.179	-0.246
-432.676	25.150	-0.230	0.192
-431.661	-95.945	-0.521	0.140
-430.646	183.558	-0.159	0.237
-429.632	5.399	-0.308	0.228
-428.617	-88.698	0.383	0.114
-427.603	2.181	-0.163	0.119
-426.588	-83.850	-0.163	0.052
-425.573	800.000	0.119	0.392
-424.559	43.060	0.100	0.092
-423.544	50.790	0.080	-0.076
-422.530	-29.211	0.303	-0.175
-421.515	-24.189	0.027	-0.016
-420.500	500.890	0.167	0.388
-419.486	233.725	0.052	0.086
-418.471	-200.000	0.035	0.326
-417.457	-46.150	-0.107	0.053
-416.442	-200.000	-0.025	0.349
-415.428	-59.777	0.268	-0.115
-414.413	-200.000	0.004	0.033
-413.398	-200.000	-0.015	0.310
-412.384	-66.573	-0.140	0.056
-411.369	-200.000	0.012	0.423
-410.355	-116.343	0.187	0.035
-409.340	-119.200	0.168	-0.029
-408.325	-200.000	-0.037	-0.342
-407.311	800.000	0.069	0.291
-406.296	-200.000	0.020	0.391
-405.282	39.378	-0.266	-0.239
-404.267	199.773	0.199	-0.307
-403.252	-25.664	0.257	-0.152
-402.238	148.305	0.243	0.329
-401.223	-200.000	0.030	-0.137
-400.209	60.663	-0.073	-0.072
-399.194	-200.000	0.003	-0.243
-398.179	800.000	0.023	0.094
-397.165	-128.329	0.405	-0.058
-396.150	35.750	0.183	0.161
-395.136	-159.987	0.242	-0.013
-394.121	21.983	-0.234	0.191
-393.106	118.446	-0.055	0.068
-392.092	-108.977	-0.121	-0.026
-391.077	49.531	-0.130	0.123
-390.063	-200.000	0.061	-0.308
-389.048	-61.505	-0.129	-0.054
-388.033	-114.899	-0.358	-0.068
-387.019	63.463	-0.248	-0.249
-386.004	223.872	0.051	-0.083
-384.990	270.482	0.033	-0.058
-383.975	95.435	-0.104	-0.119
-382.960	1.768	-0.054	0.039
-381.946	-200.000	-0.083	0.381
-380.931	-200.000	0.057	0.543
-379.917	-0.474	-0.080	0.057
-378.902	768.059	-0.008	-0.023
-377.888	-54.107	0.185	-0.084
-376.873	-36.805	-0.266	0.143
-375.858	-3.330	0.250	-0.175
-374.844	-200.000	-0.006	-0.450
-373.829	48.130	0.114	-0.107
-372.815	36.780	0.324	-0.287
-371.800	-41.176	-0.170	0.088
-370.785	788.175	-0.093	0.257
-369.771	-109.183	0.171	-0.037
-368.756	-47.888	0.312	0.151
-367.742	-94.847	-0.043	0.012
-366.727	198.204	0.132	-0.202
-365.712	-118.528	0.310	-0.055
-364.698	-200.000	0.028	-0.216
-363.683	-55.161	-0.043	-0.019
-362.669	23.434	0.076	0.063
-361.654	-200.000	-0.002	0.008
-360.639	-22.020	-0.179	-0.109
-359.625	-200.000	-0.041	-0.265
-358.610	-93.801	-0.053	-0.015
-357.596	-21.765	0.119	0.073
-356.581	2.293	0.126	0.091
-355.566	325.546	-0.118	-0.227
-354.552	-200.000	0.040	0.283
-353.537	-200.000	-0.009	-0.371
-352.523	-88.972	0.138	0.041
-351.508	-24.444	0.222	0.133
-350.493	381.482	-0.113	-0.232
-349.479	-165.008	0.071	-0.003
-348.464	-165.175	0.150	0.007
-347.450	-200.000	0.018	0.155
-346.435	-4.136	-0.341	-0.236
-345.420	-200.000	0.055	-0.274
-344.406	-68.158	-0.168	0.066
-343.391	113.701	0.259	0.315
-342.377	-18.121	0.179	-0.112
-341.362	528.586	-0.037	0.087
-340.348	-200.000	0.013	-0.076
-339.333	73.561	-0.144	-0.151
-338.318	800.000	-0.164	-0.474
-337.304	-35.381	-0.090	0.049
-336.289	147.040	-0.028	-0.038
-335.275	-62.383	0.191	0.080
-334.260	357.071	-0.011	0.021
-333.245	-126.167	0.115	0.017
-332.231	-131.273	-0.292	-0.039
-331.216	-200.000	-0.007	0.130
-330.202	800.000	0.125	-0.361
-329.187	-88.165	-0.065	-0.020
-328.172	-37.133	0.283	-0.151
-327.158	51.751	-0.251	0.239
-326.143	-200.000	0.017	0.115
-325.129	195.105	-0.083	-0.126
-324.114	800.000	-0.083	-0.331
-323.099	181.058	-0.133	-0.196
-322.085	394.238	-0.171	-0.356
-321.070	-61.274	0.198	-0.083
-320.056	800.000	0.078	0.249
-319.041	-4.561	0.135	-0.093
-318.026	-18.978	-0.317	0.197
-317.012	-46.696	0.159	-0.078
-315.997	-200.000	-0.064	0.292
-314.983	-200.000	0.007	-0.211
-313.968	-52.744	-0.249	0.115
-312.953	-117.553	0.164	0.030
-311.939	-200.000	0.016	0.382
-310.924	800.000	0.045	0.134
-309.910	627.680	-0.102	0.258
-308.895	-200.000	0.025	0.152
-307.880	-43.686	-0.256	0.129
-306.866	-130.224	0.095	-0.013
-305.851	800.000	0.027	-0.103
-304.837	64.776	0.011	0.011
-303.822	-200.000	0.017	-0.178
-302.807	-125.444	-0.064	0.010
-301.793	91.236	-0.048	-0.054
-300.778	-110.218	-0.178	-0.037
-299.764	286.944	-0.075	-0.135
-298.749	-92.050	0.087	0.025
-297.735	165.058	-0.233	-0.329
-296.720	9.383	-0.101	-0.077
-295.705	-155.342	0.471	-0.031
-294.691	800.000	0.093	0.352
-293.676	-200.000	-0.001	0.238
-292.662	186.829	-0.142	0.212
-291.647	-78.376	-0.217	-0.074
-290.632	-200.000	0.006	-0.064
-289.618	491.834	-0.053	0.121
-288.603	776.911	0.103	-0.281
-287.589	-49.151	0.177	0.084
-286.574	800.000	-0.111	0.422
-285.559	800.000	0.109	-0.324
-284.545	-24.752	0.010	-0.006
-283.530	166.128	0.158	-0.224
-282.516	-120.279	-0.275	0.047
-281.501	-200.000	-0.040	0.254
-280.486	-200.000	0.010	-0.290
-279.472	-60.487	-0.098	0.042
-278.457	-200.000	-0.017	-0.411
-277.443	-48.147	0.092	-0.045
-276.428	-93.120	0.034	-0.010
-275.413	18.322	0.118	0.094
-274.399	-8.694	-0.325	-0.217
-273.384	-72.727	-0.225	0.083
-272.370	-144.306	-0.119	0.011
-271.355	-107.240	0.463	0.102
-270.340	-2.319	0.139	-0.097
-269.326	-200.000	0.045	-0.430
-268.311	-107.984	-0.381	0.083
-267.297	321.868	-0.038	-0.073
-266.282	-200.000	-0.035	0.194
-265.267	204.579	-0.037	0.057
-264.253	-8.846	0.318	0.213
-263.238	800.000	-0.118	-0.361
-262.224	123.115	-0.045	-0.056
-261.209	229.703	-0.110	-0.180
-260.195	800.000	0.026	-0.077
-259.180	-142.753	-0.263	0.026
-258.165	-59.481	0.122	0.052
-257.151	-125.604	0.188	0.028
-256.136	23.289	-0.092	0.076
-255.122	-200.000	0.050	0.303
-254.107	64.604	0.100	-0.100
-253.092	120.620	0.202	-0.250
-252.078	-200.000	0.006	0.044
-251.063	666.648	-0.026	0.068
-250.049	-200.000	-0.003	-0.054
-249.034	771.103	0.092	-0.251
-248.019	-25.644	0.228	0.134
-247.005	-200.000	0.007	0.099
-245.990	-57.839	-0.274	0.119
-244.976	800.000	-0.028	0.122
-243.961	640.708	0.117	0.296
-242.946	-200.000	0.013	0.117
-241.932	137.236	0.086	-0.113
-240.917	-200.000	0.000	-0.023
-239.903	-98.066	0.261	0.067
-238.888	-41.128	-0.160	0.082
-237.873	-148.556	-0.175	-0.014
-236.859	34.978	0.174	-0.152
-235.844	-45.650	0.374	0.184
-234.830	163.418	0.152	0.213
-233.815	339.272	0.083	-0.162
-232.800	-41.304	-0.310	0.159
-231.786	-200.000	0.000	0.096
-230.771	-92.904	-0.196	-0.055
-229.757	116.444	0.125	-0.153
-228.742	-79.523	0.119	-0.040
-227.727	120.679	-0.255	0.316
-226.713	-200.000	0.337	-0.000
-225.698	-200.000	-0.011	-0.267
-224.684	513.519	-0.127	0.296
-223.669	40.102	-0.151	-0.135
-222.655	79.037	0.078	0.083
-221.640	-181.708	0.438	0.008
-220.625	-85.413	-0.298	-0.093
-219.611	-84.138	-0.373	-0.118
-218.596	-139.864	-0.207	-0.022
-217.582	-8.428	-0.158	0.106
-216.567	-116.464	0.156	-0.029
-215.552	253.109	-0.125	0.213
-214.538	139.131	0.041	-0.054
-213.523	-100.338	-0.326	0.081
-212.509	-7.217	0.036	0.024
-211.494	70.679	-0.196	0.202
-210.479	-38.967	0.212	-0.111
-209.465	-104.277	0.326	-0.075
-208.450	392.352	0.092	0.190
-207.436	139.344	-0.148	-0.194
-206.421	-200.000	-0.019	-0.112
-205.406	9.498	0.123	-0.093
-204.392	-7.403	-0.281	0.190
-203.377	-80.657	0.034	-0.011
-202.363	-50.417	-0.269	-0.127
-201.348	-128.710	0.095	-0.013
-200.333	115.224	-0.042	0.051
-199.319	53.259	0.056	0.053
-198.304	16.500	0.154	-0.122
-197.290	-96.645	0.400	-0.105
-196.275	-93.950	-0.299	0.082
-195.260	-200.000	0.005	0.220
-194.246	-65.160	0.132	-0.053
-193.231	680.613	-0.045	0.116
-192.217	800.000	-0.073	-0.225
-191.202	76.648	-0.144	-0.153
-190.187	-200.000	-0.029	0.194
-189.173	15.178	-0.321	-0.250
-188.158	-58.555	0.205	0.088
-187.144	-200.000	0.042	0.221
-186.129	-113.646	0.262	-0.051
-185.114	-200.000	0.047	-0.296
-184.100	7.807	0.172	-0.128
-183.085	185.425	0.036	-0.053
-182.071	483.469	0.103	0.232
-181.056	21.611	0.045	-0.037
-180.042	-72.473	-0.206	0.076
-179.027	27.991	-0.205	0.172
-178.012	-34.840	0.115	0.062
-176.998	-160.880	-0.310	0.016
-175.983	29.644	0.123	0.105
-174.969	-200.000	0.005	0.135
-173.954	118.692	0.023	0.028
-172.939	591.144	-0.107	0.262
-171.925	242.053	0.122	-0.203
-170.910	221.460	-0.040	0.064
-169.896	-200.000	-0.032	-0.194
-168.881	70.790	0.108	0.112
-167.866	61.395	-0.089	0.088
-166.852	-200.000	-0.003	0.016
-165.837	28.320	0.163	0.137
-164.823	77.467	-0.172	-0.182
-163.808	-200.000	-0.003	-0.051
-162.793	-50.353	0.345	-0.162
-161.779	25.051	0.176	-0.145
-160.764	-4.269	-0.292	0.201
-159.750	-200.000	-0.018	0.300
-158.735	-63.325	0.217	-0.089
-157.720	113.158	-0.103	0.124
-156.706	-200.000	0.022	-0.147
-155.691	-200.000	-0.050	-0.280
-154.677	-52.885	0.075	0.034
-153.662	-200.000	-0.022	0.169
-152.647	800.000	-0.052	0.191
-151.633	-89.543	0.156	-0.046
-150.618	800.000	-0.048	0.168
-149.604	-200.000	-0.069	0.322
-148.589	-34.592	0.264	0.144
-147.574	800.000	-0.161	-0.446
-146.560	-200.000	-0.005	-0.270
-145.545	302.065	0.066	-0.122
-144.531	-69.837	-0.256	0.097
-143.516	112.139	-0.127	-0.153
-142.502	-77.755	0.171	0.059
-141.487	172.920	0.113	-0.162
-140.472	-5.539	0.200	0.136
-139.458	-155.465	0.358	0.023
-138.443	-103.603	-0.189	0.044
-137.429	690.838	0.070	-0.183
-136.414	476.299	-0.108	0.243
-135.399	-200.000	-0.088	-0.423
-134.385	58.105	0.161	0.157
-133.370	-200.000	0.069	0.344
-132.356	356.527	0.115	0.228
-131.341	144.363	-0.058	0.077
-130.326	-26.453	0.115	-0.067
-129.312	-200.000	0.008	0.250
-128.297	-174.315	-0.045	0.001
-127.283	-49.646	0.501	-0.237
-126.268	-200.000	-0.035	0.154
-125.253	-6.469	-0.277	-0.188
-124.239	-12.029	-0.165	-0.107
-123.224	-200.000	-0.040	-0.200
-122.210	800.000	0.058	0.173
