DTS Sentinel unit serial number:	SN413079Multiplexer serial number:	ORYXHardware model number:	OX4-SRSoftware version number:	ORYX F/W v4.00 Oryx Data Collector v3.7.2.0data status	okinstallation	princeton_trtdifferential loss correction	single-endedforward channel	channel 1reverse channel	N/Adate	2019/09/14time	00:46:35forward acquisition time	60.00reverse acquisition time	0.00gamma	496.2192k internal	0.2337k external	0.2337temperature offset calibration	1.0080default loss term (dB/km)	0.3790temperature slope calibration	1.0000multiplexer offset coefficient	1.0000multiplexer slope coefficient	1.0000fibre end	0.00T internal ref (°C)	26.42T ext. ref 1 (°C)	3.17T ext. ref 2 (°C)	21.08length (m)	temperature (°C)	Stokes	anti-Stokes-747.200	-84.128	0.363	-0.116
-746.185	-143.358	0.241	0.023
-745.171	-43.236	0.279	0.142
-744.156	-200.000	-0.022	0.454
-743.142	190.579	0.125	0.188
-742.127	-84.912	-0.169	-0.053
-741.112	-200.000	0.009	-0.238
-740.098	119.803	-0.197	-0.245
-739.083	-78.236	-0.113	-0.039
-738.069	-151.739	-0.412	0.030
-737.054	-200.000	0.003	-0.289
-736.039	-113.399	-0.304	0.060
-735.025	-18.583	-0.098	-0.062
-734.010	800.000	0.015	-0.056
-732.996	-82.109	-0.082	-0.027
-731.981	-200.000	0.001	-0.033
-730.966	-139.438	-0.249	-0.027
-729.952	-52.474	0.225	-0.105
-728.937	-43.844	0.164	-0.083
-727.923	-98.901	-0.146	0.037
-726.908	55.408	-0.025	0.025
-725.894	800.000	0.040	0.112
-724.879	-42.344	0.271	-0.139
-723.864	92.830	0.058	-0.065
-722.850	-200.000	-0.076	-0.344
-721.835	474.338	-0.195	0.442
-720.821	-70.013	0.062	0.024
-719.806	800.000	-0.093	0.359
-718.791	61.842	-0.143	-0.143
-717.777	-40.993	0.026	0.013
-716.762	-23.938	-0.173	0.104
-715.748	-89.633	-0.019	0.005
-714.733	543.558	0.213	-0.509
-713.718	800.000	0.067	0.283
-712.704	-172.515	0.056	-0.002
-711.689	145.192	-0.119	-0.159
-710.675	248.082	-0.144	0.244
-709.660	17.459	-0.073	0.058
-708.645	-84.218	-0.219	0.070
-707.631	-58.260	0.328	0.143
-706.616	158.533	-0.183	-0.255
-705.602	54.204	0.099	0.095
-704.587	-17.970	-0.321	0.202
-703.572	-96.331	-0.238	-0.063
-702.558	134.167	-0.073	0.095
-701.543	96.100	0.173	0.198
-700.529	89.293	-0.151	-0.169
-699.514	-104.929	-0.266	-0.061
-698.499	-200.000	-0.039	-0.213
-697.485	-138.519	-0.186	0.020
-696.470	354.587	0.092	-0.183
-695.456	-130.843	-0.340	-0.046
-694.441	-200.000	0.031	0.221
-693.426	-135.020	-0.275	0.033
-692.412	-200.000	0.004	0.038
-691.397	95.202	-0.174	-0.198
-690.383	-162.574	0.216	0.011
-689.368	-71.343	-0.170	-0.064
-688.354	58.910	0.246	-0.243
-687.339	-12.597	0.176	-0.115
-686.324	-0.880	0.184	-0.131
-685.310	58.881	0.015	0.015
-684.295	-132.188	-0.154	-0.020
-683.281	-200.000	-0.004	0.138
-682.266	114.981	-0.182	-0.222
-681.251	-149.257	-0.141	-0.011
-680.237	-40.419	-0.080	0.042
-679.222	-60.814	0.303	-0.128
-678.208	-3.748	-0.263	-0.183
-677.193	-3.090	0.281	-0.196
-676.178	-200.000	-0.012	0.338
-675.164	309.653	-0.081	-0.152
-674.149	-53.647	-0.501	-0.229
-673.135	-180.878	-0.257	-0.005
-672.120	576.191	-0.028	0.069
-671.105	-48.221	-0.247	-0.119
-670.091	-103.508	0.330	0.078
-669.076	-191.385	-0.247	0.003
-668.062	-141.111	-0.505	-0.052
-667.047	-2.152	0.088	-0.062
-666.032	-92.086	0.147	-0.042
-665.018	-93.710	-0.135	0.037
-664.003	-200.000	-0.038	0.248
-662.989	-111.855	-0.517	0.104
-661.974	103.807	-0.357	-0.419
-660.959	-200.000	0.018	-0.296
-659.945	304.942	0.045	0.084
-658.930	-10.363	0.236	0.156
-657.916	-6.829	-0.157	-0.107
-656.901	-81.712	-0.244	-0.080
-655.886	144.267	-0.003	0.004
-654.872	-72.957	0.350	0.129
-653.857	800.000	-0.011	-0.030
-652.843	-141.951	-0.189	0.019
-651.828	-109.801	0.145	0.031
-650.814	-128.504	-0.278	-0.039
-649.799	-200.000	-0.017	0.352
-648.784	447.748	-0.121	-0.265
-647.770	-76.051	-0.128	0.045
-646.755	-105.698	0.086	0.019
-645.741	-65.274	-0.361	0.146
-644.726	-20.555	-0.201	0.124
-643.711	-135.738	-0.271	0.032
-642.697	-200.000	0.005	-0.183
-641.682	552.492	-0.078	0.187
-640.668	-64.787	-0.106	-0.043
-639.653	800.000	0.002	0.007
-638.638	-200.000	-0.020	-0.258
-637.624	23.664	0.070	0.057
-636.609	800.000	-0.026	0.106
-635.595	-99.840	-0.195	-0.049
-634.580	-15.214	-0.263	0.168
-633.565	-62.071	0.143	0.060
-632.551	-60.886	-0.553	0.234
-631.536	-200.000	-0.062	0.333
-630.522	-200.000	0.006	-0.045
-629.507	86.387	-0.203	-0.224
-628.492	298.227	-0.070	0.129
-627.478	747.859	-0.051	0.137
-626.463	310.592	0.070	-0.131
-625.449	65.442	0.039	-0.040
-624.434	560.995	-0.117	-0.282
-623.419	800.000	-0.037	-0.121
-622.405	-27.261	-0.335	-0.195
-621.390	664.570	-0.106	0.274
-620.376	-200.000	-0.062	0.273
-619.361	-116.564	0.326	0.060
-618.346	800.000	-0.030	0.106
-617.332	53.316	-0.153	0.147
-616.317	-200.000	0.044	-0.203
-615.303	-200.000	-0.047	-0.273
-614.288	800.000	0.095	0.278
-613.273	112.955	0.204	0.246
-612.259	-177.131	0.387	-0.010
-611.244	147.981	-0.096	-0.129
-610.230	-200.000	-0.054	-0.254
-609.215	-57.243	0.234	0.103
-608.201	138.885	0.138	-0.181
-607.186	103.459	-0.150	0.175
-606.171	-172.460	0.196	0.006
-605.157	176.034	0.135	-0.196
-604.142	-200.000	0.036	-0.172
-603.128	-200.000	-0.032	0.384
-602.113	-40.082	0.236	-0.123
-601.098	-36.612	-0.216	-0.116
-600.084	-200.000	-0.007	0.034
-599.069	-122.191	-0.142	-0.023
-598.055	98.409	0.074	0.086
-597.040	508.422	0.114	-0.265
-596.025	342.293	-0.060	-0.117
-595.011	202.324	-0.159	-0.245
-593.996	96.387	-0.082	0.094
-592.982	686.451	-0.059	0.154
-591.967	77.225	0.155	-0.164
-590.952	-154.209	0.229	-0.015
-589.938	119.422	-0.213	-0.263
-588.923	-148.334	0.163	0.013
-587.909	-36.952	0.144	-0.077
-586.894	523.404	0.028	-0.066
-585.879	800.000	-0.056	0.243
-584.865	8.015	0.073	-0.054
-583.850	282.408	-0.164	-0.294
-582.836	3.051	0.406	0.295
-581.821	-57.203	0.174	0.076
-580.806	-32.442	-0.044	-0.024
-579.792	-200.000	0.008	0.119
-578.777	16.048	-0.159	-0.125
-577.763	492.688	-0.041	0.093
-576.748	-24.344	-0.080	0.047
-575.733	-23.113	0.190	-0.114
-574.719	-134.508	-0.213	0.026
-573.704	-108.198	-0.260	0.056
-572.690	92.130	0.220	0.247
-571.675	-200.000	0.048	-0.541
-570.661	27.455	-0.118	-0.099
-569.646	32.726	-0.224	0.193
-568.631	-86.189	0.097	-0.030
-567.617	169.133	-0.124	0.177
-566.602	3.240	-0.246	-0.178
-565.588	-200.000	-0.001	0.412
-564.573	119.660	-0.047	0.058
-563.558	596.714	0.039	-0.096
-562.544	-134.046	-0.248	-0.031
-561.529	800.000	0.032	-0.102
-560.515	74.892	0.116	0.122
-559.500	30.248	0.111	0.095
-558.485	89.484	-0.248	0.275
-557.471	-200.000	0.023	0.000
-556.456	454.190	-0.034	0.076
-555.442	65.739	0.416	0.420
-554.427	-200.000	-0.025	-0.270
-553.412	-103.745	-0.064	0.015
-552.398	98.790	-0.105	0.121
-551.383	800.000	0.119	0.379
-550.369	-72.601	0.367	-0.135
-549.354	-118.153	-0.173	0.031
-548.339	-111.001	0.235	0.048
-547.325	-200.000	-0.002	-0.255
-546.310	-151.607	-0.121	-0.009
-545.296	-148.182	0.090	0.007
-544.281	159.492	-0.060	0.083
-543.266	-149.364	0.356	-0.028
-542.252	-38.737	-0.265	0.139
-541.237	-99.036	-0.078	0.020
-540.223	-39.140	0.056	0.029
-539.208	399.602	-0.036	-0.075
-538.193	70.153	0.142	-0.146
-537.179	-193.183	-0.201	0.002
-536.164	-149.207	-0.071	-0.006
-535.150	-200.000	0.040	0.264
-534.135	194.856	-0.034	0.051
-533.121	-113.103	-0.217	0.043
-532.106	117.384	-0.130	0.160
-531.091	-76.736	0.305	0.107
-530.077	-119.722	-0.203	-0.035
-529.062	-97.500	-0.212	-0.055
-528.048	-9.248	-0.116	0.077
-527.033	800.000	0.021	0.059
-526.018	-200.000	0.084	-0.406
-525.004	-52.947	0.248	-0.114
-523.989	98.875	0.112	-0.129
-522.975	-200.000	0.006	0.322
-521.960	31.728	-0.134	-0.115
-520.945	-103.840	0.282	0.066
-519.931	33.909	-0.099	0.086
-518.916	-0.776	-0.238	0.168
-517.902	-71.280	-0.274	-0.102
-516.887	-57.901	-0.122	-0.053
-515.872	341.588	0.186	-0.362
-514.858	-200.000	0.063	-0.331
-513.843	271.523	0.165	0.289
-512.829	-42.434	-0.127	-0.064
-511.814	631.916	-0.048	-0.120
-510.799	-132.349	-0.159	0.020
-509.785	289.978	0.110	-0.199
-508.770	26.109	0.201	-0.167
-507.756	-67.767	-0.142	0.055
-506.741	256.761	-0.059	-0.100
-505.726	-22.776	0.107	-0.064
-504.712	800.000	-0.108	-0.433
-503.697	101.470	0.145	-0.168
-502.683	-187.131	0.381	0.005
-501.668	126.498	-0.077	-0.098
-500.653	476.494	0.122	0.275
-499.639	-137.782	0.374	0.042
-498.624	-107.183	0.284	-0.062
-497.610	-25.754	0.225	0.132
-496.595	-200.000	0.038	0.353
-495.581	-200.000	-0.019	-0.145
-494.566	-94.910	-0.493	-0.133
-493.551	667.525	0.160	-0.411
-492.537	-122.584	0.303	-0.049
-491.522	690.108	0.101	-0.262
-490.508	65.125	-0.312	-0.313
-489.493	52.433	0.046	-0.044
-488.478	-200.000	-0.058	0.314
-487.464	226.163	-0.129	0.207
-486.449	71.016	0.246	-0.253
-485.435	-71.347	0.193	0.072
-484.420	-138.615	-0.174	0.019
-483.405	-138.341	0.210	-0.023
-482.391	180.113	-0.210	0.306
-481.376	70.537	0.123	-0.127
-480.362	38.981	0.108	0.096
-479.347	12.012	0.026	-0.020
-478.332	269.955	0.074	-0.128
-477.318	103.518	0.145	-0.169
-476.303	-48.906	0.229	0.109
-475.289	-22.137	-0.097	-0.059
-474.274	800.000	0.030	0.107
-473.259	-200.000	0.002	0.207
-472.245	65.003	-0.070	-0.070
-471.230	173.385	0.117	-0.167
-470.216	-44.318	0.210	0.105
-469.201	552.817	-0.024	-0.057
-468.186	-148.626	0.330	-0.027
-467.172	-95.876	-0.308	-0.082
-466.157	-200.000	-0.057	0.259
-465.143	-196.676	-0.203	-0.001
-464.128	800.000	-0.024	-0.081
-463.113	-200.000	-0.050	0.241
-462.099	21.276	0.207	-0.167
-461.084	-94.021	-0.200	0.055
-460.070	-200.000	-0.015	-0.175
-459.055	210.608	0.091	-0.141
-458.040	-12.829	0.174	-0.113
-457.026	251.386	0.107	0.181
-456.011	10.218	0.349	-0.263
-454.997	-64.232	-0.131	0.053
-453.982	800.000	-0.080	0.243
-452.968	-93.226	-0.198	0.055
-451.953	-200.000	0.053	-0.386
-450.938	-45.127	-0.455	0.225
-449.924	-157.014	0.389	-0.024
-448.909	-25.318	-0.118	0.069
-447.895	403.521	-0.124	0.259
-446.880	133.102	0.115	0.147
-445.865	29.461	-0.164	-0.138
-444.851	1.873	-0.108	-0.078
-443.836	-36.848	0.065	0.035
-442.822	85.570	-0.092	-0.101
-441.807	300.120	-0.094	0.172
-440.792	327.447	-0.102	0.194
-439.778	-123.635	0.013	-0.002
-438.763	-200.000	0.002	0.262
-437.749	-29.630	-0.122	-0.069
-436.734	800.000	-0.074	0.283
-435.719	-79.197	0.239	0.080
-434.705	800.000	0.006	0.024
-433.690	80.687	0.138	0.148
-432.676	28.587	0.473	0.397
-431.661	16.291	-0.098	-0.077
-430.646	-4.105	-0.335	-0.230
-429.632	102.690	0.149	0.173
-428.617	800.000	-0.061	-0.178
-427.603	-87.614	0.180	-0.054
-426.588	-23.130	-0.091	0.054
-425.573	-200.000	0.012	-0.104
-424.559	311.478	0.092	-0.171
-423.544	-200.000	-0.009	-0.239
-422.530	49.398	-0.147	-0.138
-421.515	192.697	0.144	0.216
-420.500	95.051	0.085	-0.096
-419.486	125.503	-0.139	-0.174
-418.471	-15.067	-0.120	-0.076
-417.457	43.736	-0.103	0.094
-416.442	108.996	0.101	0.119
-415.428	-200.000	-0.013	-0.139
-414.413	0.450	-0.059	-0.042
-413.398	92.992	0.078	-0.087
-412.384	-144.467	-0.239	0.022
-411.369	31.053	0.118	0.100
-410.355	-67.886	0.107	0.041
-409.340	371.577	0.121	0.244
-408.325	800.000	0.035	-0.145
-407.311	52.308	-0.201	-0.190
-406.296	800.000	-0.140	0.468
-405.282	596.070	-0.010	-0.025
-404.267	-30.406	-0.349	0.196
-403.252	-200.000	-0.032	0.203
-402.238	-56.081	0.162	0.072
-401.223	68.525	-0.504	-0.512
-400.209	318.620	-0.124	0.232
-399.194	800.000	0.056	0.181
-398.179	-76.187	-0.095	0.033
-397.165	126.777	0.216	0.271
-396.150	-64.410	-0.545	-0.220
-395.136	19.732	-0.139	-0.111
-394.121	132.506	0.219	-0.280
-393.106	-15.646	-0.198	-0.125
-392.092	75.092	0.143	-0.149
-391.077	19.255	-0.175	-0.139
-390.063	58.256	0.202	-0.196
-389.048	-87.307	-0.190	-0.057
-388.033	144.924	0.162	-0.214
-387.019	38.942	-0.244	0.216
-386.004	-113.208	-0.107	0.021
-384.990	-40.231	-0.183	-0.094
-383.975	306.316	0.193	0.355
-382.960	-179.745	0.333	0.007
-381.946	36.264	-0.127	0.111
-380.931	-187.128	0.286	-0.004
-379.917	31.873	-0.184	-0.157
-378.902	-130.502	-0.194	0.026
-377.888	800.000	-0.110	-0.332
-376.873	-200.000	-0.040	-0.282
-375.858	530.349	0.054	0.126
-374.844	251.155	-0.065	0.109
-373.829	-200.000	0.005	0.039
-372.815	40.593	0.061	-0.054
-371.800	800.000	-0.058	0.251
-370.785	517.983	0.039	-0.089
-369.771	-200.000	0.007	0.184
-368.756	-125.808	0.272	0.041
-367.742	-88.977	0.109	0.032
-366.727	-92.949	0.245	0.068
-365.712	-125.512	-0.303	0.046
-364.698	-79.345	0.134	0.045
-363.683	800.000	-0.027	0.082
-362.669	385.173	-0.203	0.413
-361.654	-105.491	-0.141	-0.032
-360.639	-177.864	-0.193	0.005
-359.625	173.064	0.105	0.150
-358.610	-83.421	-0.495	-0.157
-357.596	252.936	-0.022	0.038
-356.581	-129.609	0.443	0.061
-355.566	-200.000	0.016	-0.288
-354.552	-5.101	-0.266	0.181
-353.537	-69.022	-0.625	0.238
-352.523	649.174	-0.119	-0.302
-351.508	-113.197	0.165	0.032
-350.493	149.802	0.072	0.097
-349.479	-200.000	-0.002	0.085
-348.464	-116.117	0.250	0.046
-347.450	-65.833	0.376	0.149
-346.435	-54.423	0.391	0.175
-345.420	-50.282	0.314	0.147
-344.406	-180.127	0.072	-0.001
-343.391	148.637	-0.123	0.165
-342.377	1.538	0.265	0.189
-341.362	35.789	-0.169	0.146
-340.348	-200.000	-0.034	0.149
-339.333	-200.000	0.010	-0.320
-338.318	-101.823	0.232	-0.056
-337.304	191.482	0.057	-0.084
-336.289	-200.000	-0.012	0.075
-335.275	-159.409	-0.511	0.028
-334.260	-64.477	0.196	0.079
-333.245	-200.000	-0.023	0.192
-332.231	9.518	-0.231	0.173
-331.216	800.000	0.016	0.063
-330.202	289.466	0.143	0.255
-329.187	-166.880	-0.259	0.011
-328.172	-200.000	-0.028	-0.268
-327.158	-135.377	-0.241	-0.029
-326.143	-5.696	0.225	-0.152
-325.129	49.217	-0.201	0.187
-324.114	-109.150	-0.036	0.008
-323.099	10.163	0.273	-0.205
-322.085	-100.816	-0.319	0.077
-321.070	-52.594	0.200	0.091
-320.056	47.023	-0.230	-0.211
-319.041	-83.602	-0.285	0.090
-318.026	-200.000	0.038	0.259
-317.012	-200.000	0.047	0.412
-315.997	-159.737	-0.221	0.012
-314.983	-101.584	0.332	-0.080
-313.968	-38.045	-0.115	0.060
-312.953	-56.632	0.278	0.122
-311.939	800.000	-0.097	0.352
-310.924	41.763	0.309	-0.276
-309.910	-83.447	-0.103	0.033
-308.895	350.515	-0.088	-0.173
-307.880	-200.000	-0.029	-0.370
-306.866	596.161	0.110	0.268
-305.851	292.697	-0.067	0.121
-304.837	-55.706	-0.162	0.072
-303.822	-3.338	0.137	-0.094
-302.807	251.665	-0.147	-0.246
-301.793	-158.914	-0.238	0.013
-300.778	-200.000	-0.029	-0.174
-299.764	-200.000	-0.001	-0.049
-298.749	156.725	0.135	-0.184
-297.735	746.821	0.109	0.288
-296.720	-33.849	-0.124	0.068
-295.705	154.175	-0.093	0.126
-294.691	800.000	-0.076	-0.214
-293.676	-29.298	-0.199	-0.112
-292.662	-119.896	-0.123	0.021
-291.647	-52.030	-0.041	-0.019
-290.632	-35.261	0.051	-0.027
-289.618	-69.437	0.184	0.070
-288.603	-122.765	0.039	0.006
-287.589	-61.348	0.172	-0.072
-286.574	-146.768	0.155	0.013
-285.559	-131.064	0.048	0.006
-284.545	-200.000	0.023	-0.307
-283.530	-76.594	-0.225	-0.078
-282.516	-200.000	0.015	-0.285
-281.501	22.387	-0.364	0.293
-280.486	97.394	0.128	0.145
-279.472	20.620	0.284	-0.227
-278.457	-186.857	-0.043	0.001
-277.443	49.595	0.086	-0.080
-276.428	-100.475	0.159	-0.039
-275.413	566.983	-0.071	0.170
-274.399	800.000	-0.031	0.113
-273.384	800.000	-0.053	-0.205
-272.370	-46.612	-0.141	0.068
-271.355	-200.000	-0.006	0.116
-270.340	-142.829	0.249	-0.024
-269.326	800.000	-0.030	-0.102
-268.311	558.743	-0.111	0.264
-267.297	-122.229	0.086	-0.014
-266.282	-117.154	0.400	-0.072
-265.267	-68.907	-0.177	-0.067
-264.253	-157.007	-0.170	-0.010
-263.238	-109.004	0.148	0.031
-262.224	-200.000	-0.006	-0.149
-261.209	-200.000	0.004	0.180
-260.195	800.000	0.051	-0.155
-259.180	-28.663	-0.135	-0.076
-258.165	-200.000	0.045	-0.308
-257.151	117.947	-0.192	-0.232
-256.136	108.502	0.094	0.110
-255.122	-17.086	0.094	-0.058
-254.107	800.000	-0.078	0.286
-253.092	-6.535	0.101	0.068
-252.078	-200.000	-0.034	-0.151
-251.063	800.000	-0.083	-0.309
-250.049	-71.099	0.220	0.081
-249.034	73.310	0.336	0.347
-248.019	-200.000	-0.000	0.029
-247.005	684.158	-0.082	-0.211
-245.990	286.804	-0.074	0.131
-244.976	589.963	-0.031	-0.076
-243.961	181.609	0.171	0.248
-242.946	-117.094	-0.107	0.019
-241.932	98.818	-0.232	-0.264
-240.917	-200.000	-0.021	0.275
-239.903	-98.879	-0.082	-0.021
-238.888	35.072	0.181	-0.156
-237.873	-1.748	0.135	0.093
-236.859	80.782	-0.277	-0.294
-235.844	-79.375	-0.230	0.077
-234.830	-62.697	-0.349	-0.142
-233.815	677.148	0.039	0.100
-232.800	-200.000	0.038	0.227
-231.786	-101.624	0.214	-0.051
-230.771	800.000	0.108	0.375
-229.757	-133.019	0.219	-0.027
-228.742	-200.000	0.007	-0.194
-227.727	-200.000	-0.032	0.203
-226.713	155.784	-0.027	-0.037
-225.698	10.108	-0.155	-0.116
-224.684	-99.746	-0.051	0.012
-223.669	262.309	-0.054	0.092
-222.655	38.959	0.213	-0.187
-221.640	800.000	0.044	-0.135
-220.625	-200.000	0.010	-0.081
-219.611	-200.000	0.020	0.124
-218.596	-19.493	0.131	-0.080
-217.582	-127.627	0.068	0.010
-216.567	24.179	0.060	-0.049
-215.552	-60.145	-0.177	-0.074
-214.538	47.617	-0.125	0.115
-213.523	-30.051	0.021	-0.012
-212.509	-200.000	0.010	0.247
-211.494	364.556	0.099	0.195
-210.479	-3.504	-0.251	-0.172
-209.465	261.190	0.333	-0.567
-208.450	-200.000	0.062	-0.304
-207.436	612.133	-0.108	-0.266
-206.421	-149.117	0.230	-0.018
-205.406	-200.000	0.012	0.242
-204.392	-76.876	-0.275	-0.095
-203.377	31.877	0.116	-0.098
-202.363	-200.000	0.001	-0.022
-201.348	199.681	-0.070	-0.105
-200.333	-83.181	-0.124	-0.039
-199.319	-83.626	0.362	-0.114
-198.304	71.874	0.166	-0.169
-197.290	-97.709	0.146	0.037
-196.275	-102.308	-0.364	0.086
-195.260	-76.874	0.155	-0.053
-194.246	-200.000	0.005	0.292
-193.231	116.284	0.025	0.030
-192.217	737.986	-0.032	-0.083
-191.202	13.397	-0.111	-0.084
-190.187	-200.000	-0.016	0.248
-189.173	179.122	0.180	-0.259
-188.158	-17.095	-0.133	0.083
-187.144	-136.606	0.177	0.020
-186.129	-151.866	0.194	0.014
-185.114	579.421	0.110	0.265
-184.100	-40.807	-0.229	0.117
-183.085	-103.114	0.269	-0.062
-182.071	-94.508	-0.099	-0.026
-181.056	212.633	0.100	0.155
-180.042	-65.205	-0.184	0.073
-179.027	-139.518	0.055	-0.006
-178.012	-147.947	0.410	-0.034
-176.998	240.157	-0.048	-0.079
-175.983	-10.737	-0.099	-0.064
-174.969	81.162	0.125	-0.133
-173.954	800.000	0.015	-0.045
-172.939	-49.363	0.343	-0.161
-171.925	-153.795	-0.238	0.016
-170.910	-200.000	-0.004	0.142
-169.896	-23.914	0.294	-0.173
-168.881	-27.918	0.065	0.037
-167.866	800.000	-0.014	-0.051
-166.852	171.949	-0.083	0.117
-165.837	-146.419	0.128	0.011
-164.823	252.468	-0.035	-0.059
-163.808	-200.000	0.008	0.393
-162.793	516.341	0.131	-0.300
-161.779	-74.229	0.044	0.016
-160.764	700.886	0.139	-0.358
-159.750	-200.000	-0.004	0.146
-158.735	-86.020	0.117	-0.035
-157.720	158.546	0.041	0.056
-156.706	673.978	-0.127	-0.323
-155.691	-96.063	0.040	-0.011
-154.677	-122.418	0.117	0.019
-153.662	800.000	-0.067	-0.270
-152.647	-53.331	0.045	0.020
-151.633	645.293	0.033	-0.082
-150.618	6.385	0.139	0.101
-149.604	-200.000	0.042	0.254
-148.589	219.910	-0.188	0.296
-147.574	129.603	-0.285	0.358
-146.560	-119.193	0.232	-0.040
-145.545	800.000	0.067	0.202
-144.531	-105.691	0.278	0.062
-143.516	-39.847	-0.093	0.048
-142.502	81.241	0.172	0.183
-141.487	-22.853	-0.097	0.057
-140.472	-111.245	-0.372	0.075
-139.458	-200.000	-0.007	0.057
-138.443	-8.714	-0.179	0.118
-137.429	-92.129	-0.070	-0.019
-136.414	-200.000	0.001	0.109
-135.399	800.000	0.054	0.162
-134.385	-200.000	0.018	-0.140
-133.370	-96.802	0.356	-0.092
-132.356	-48.638	0.065	0.030
-131.341	-116.259	0.298	0.054
-130.326	148.000	-0.189	-0.250
-129.312	756.164	0.090	0.238
-128.297	32.502	-0.303	0.257
-127.283	-89.270	-0.256	-0.074
-126.268	-200.000	0.040	0.283
-125.253	-200.000	-0.033	0.170
-124.239	40.416	0.563	-0.497
-123.224	800.000	-0.168	0.459
-122.210	-142.831	-0.103	0.010
