DTS Sentinel unit serial number:	SN413079Multiplexer serial number:	ORYXHardware model number:	OX4-SRSoftware version number:	ORYX F/W v4.00 Oryx Data Collector v3.7.2.0data status	okinstallation	princeton_trtdifferential loss correction	single-endedforward channel	channel 1reverse channel	N/Adate	2019/09/12time	18:46:34forward acquisition time	15.00reverse acquisition time	0.00gamma	496.2192k internal	0.2319k external	0.2319temperature offset calibration	1.0102default loss term (dB/km)	0.3790temperature slope calibration	1.0000multiplexer offset coefficient	1.0000multiplexer slope coefficient	1.0000fibre end	0.00T internal ref (°C)	33.00T ext. ref 1 (°C)	2.98T ext. ref 2 (°C)	27.47length (m)	temperature (°C)	Stokes	anti-Stokes-747.200	112.907	-0.252	0.309
-746.185	1.154	-0.293	0.212
-745.171	-99.881	0.836	0.211
-744.156	318.957	-0.674	-1.293
-743.142	-200.000	-0.140	0.877
-742.127	-67.084	-0.995	-0.397
-741.112	-145.403	0.492	-0.045
-740.098	-200.000	-0.089	-0.532
-739.083	-44.712	-0.855	0.432
-738.069	-23.735	-0.395	0.240
-737.054	28.859	0.702	0.601
-736.039	-84.455	0.151	-0.048
-735.025	-122.787	-0.264	0.043
-734.010	800.000	-0.056	-0.232
-732.996	501.784	-0.505	-1.179
-731.981	127.219	-0.433	-0.555
-730.966	-52.825	-0.666	0.310
-729.952	351.763	-0.287	-0.575
-728.937	-47.295	-0.397	0.195
-727.923	615.118	-0.230	-0.582
-726.908	-27.941	-0.461	0.270
-725.894	-99.335	-0.349	0.089
-724.879	-200.000	0.015	-0.501
-723.864	800.000	-0.062	-0.254
-722.850	275.484	-0.203	0.363
-721.835	208.672	0.212	-0.335
-720.821	637.986	-0.275	-0.706
-719.806	-37.268	-0.413	0.223
-718.791	-186.834	-0.248	-0.004
-717.777	25.773	-0.577	-0.486
-716.762	-200.000	0.098	0.640
-715.748	24.735	-0.756	0.633
-714.733	800.000	-0.179	0.621
-713.718	-200.000	0.017	0.339
-712.704	-200.000	0.040	0.404
-711.689	800.000	0.114	-0.330
-710.675	-103.953	-0.267	-0.063
-709.660	-22.676	0.852	-0.520
-708.645	69.260	-0.632	0.657
-707.631	-118.858	0.850	0.151
-706.616	-200.000	0.000	-0.581
-705.602	50.530	0.249	0.238
-704.587	-93.556	-0.745	0.208
-703.572	-200.000	0.090	-0.774
-702.558	10.463	-0.693	0.533
-701.543	101.113	0.345	0.406
-700.529	749.865	0.362	-0.987
-699.514	22.060	-0.137	0.113
-698.499	-27.713	-0.435	0.255
-697.485	236.277	-0.230	0.384
-696.470	623.017	0.170	0.433
-695.456	59.364	0.278	0.276
-694.441	-85.353	0.518	0.163
-693.426	182.392	-0.230	-0.342
-692.412	-28.162	-0.267	-0.156
-691.397	43.134	-0.662	-0.610
-690.383	800.000	-0.065	-0.207
-689.368	-69.454	-0.471	0.182
-688.354	366.289	-0.231	-0.471
-687.339	303.340	0.197	-0.369
-686.324	-170.960	-0.887	0.031
-685.310	-29.419	0.104	-0.060
-684.295	119.024	-0.504	0.629
-683.281	-81.925	0.691	-0.228
-682.266	64.811	-0.931	-0.948
-681.251	800.000	-0.173	-0.619
-680.237	-14.354	-0.546	-0.355
-679.222	-10.685	0.315	0.210
-678.208	-200.000	0.048	0.427
-677.193	479.640	-0.100	-0.230
-676.178	49.083	-0.575	-0.545
-675.164	-31.547	0.372	-0.211
-674.149	-150.770	0.117	-0.009
-673.135	800.000	-0.114	-0.326
-672.120	775.827	0.061	0.167
-671.105	-38.184	0.644	0.345
-670.091	-25.353	0.460	-0.274
-669.076	-91.353	-0.713	-0.206
-668.062	800.000	-0.105	0.317
-667.047	38.330	-0.176	-0.158
-666.032	-89.485	-0.124	-0.037
-665.018	167.797	-0.340	-0.487
-664.003	54.808	-0.207	-0.201
-662.989	55.072	0.799	-0.779
-661.974	325.211	-0.064	-0.123
-660.959	-99.442	0.455	0.116
-659.945	-200.000	0.052	-0.511
-658.930	-153.283	0.464	0.033
-657.916	-200.000	-0.004	-0.073
-656.901	78.534	-0.405	0.436
-655.886	213.461	0.132	-0.210
-654.872	-25.973	-0.803	-0.476
-653.857	-131.141	-0.275	0.037
-652.843	32.787	0.135	0.117
-651.828	-200.000	0.009	0.466
-650.814	-95.894	0.583	0.157
-649.799	-50.599	0.124	0.059
-648.784	102.125	0.151	-0.178
-647.770	422.024	0.230	-0.498
-646.755	-153.401	-0.220	0.015
-645.741	17.347	0.835	-0.668
-644.726	25.726	-0.307	0.257
-643.711	466.618	-0.217	0.491
-642.697	800.000	-0.160	0.648
-641.682	-200.000	0.062	0.782
-640.668	-22.849	-0.303	-0.184
-639.653	297.664	0.214	0.397
-638.638	-200.000	0.002	-0.125
-637.624	32.971	-0.368	0.321
-636.609	-135.556	0.913	-0.109
-635.595	-178.533	-0.789	-0.018
-634.580	79.266	0.221	0.239
-633.565	800.000	-0.060	0.193
-632.551	-161.724	0.779	0.040
-631.536	-113.870	0.298	-0.058
-630.522	622.103	0.226	-0.572
-629.507	488.262	-0.519	1.193
-628.492	-108.479	-0.693	0.150
-627.478	-177.381	0.682	-0.017
-626.463	800.000	-0.145	0.438
-625.449	-200.000	-0.002	0.358
-624.434	33.920	-0.223	0.196
-623.419	140.238	-0.311	-0.413
-622.405	212.494	0.200	-0.318
-621.390	-20.760	0.933	-0.576
-620.376	134.555	-0.128	-0.167
-619.361	-200.000	-0.179	-0.866
-618.346	-93.036	-0.773	0.217
-617.332	-101.076	0.924	0.228
-616.317	117.625	-0.162	0.201
-615.303	-144.684	0.447	0.041
-614.288	-200.000	0.089	-0.871
-613.273	-35.929	0.378	-0.206
-612.259	-74.321	0.217	-0.079
-611.244	661.713	-0.062	-0.161
-610.230	-36.089	-0.879	-0.478
-609.215	-135.024	0.630	0.076
-608.201	-155.138	-0.506	-0.033
-607.186	-200.000	-0.056	-0.532
-606.171	-73.966	-0.734	-0.268
-605.157	-60.168	0.292	0.125
-604.142	-77.128	0.973	-0.341
-603.128	279.343	-0.216	-0.388
-602.113	6.161	0.166	-0.124
-601.098	800.000	-0.013	0.049
-600.084	-181.135	-0.671	-0.013
-599.069	-91.584	-0.591	-0.169
-598.055	-18.458	-0.517	0.325
-597.040	-103.898	0.913	-0.214
-596.025	51.054	0.964	-0.920
-595.011	269.796	0.308	0.544
-593.996	-60.185	-0.474	-0.203
-592.982	187.548	0.283	0.425
-591.967	-200.000	-0.028	0.548
-590.952	54.845	-0.450	-0.436
-589.938	341.374	0.298	-0.586
-588.923	329.347	0.393	0.760
-587.909	-45.470	-0.177	0.088
-586.894	536.093	-0.201	-0.479
-585.879	280.055	0.538	-0.966
-584.865	800.000	-0.157	-0.466
-583.850	-179.798	0.439	0.010
-582.836	-52.431	0.517	0.240
-581.821	-152.185	-0.385	0.028
-580.806	-200.000	-0.007	0.281
-579.792	631.563	-0.107	0.273
-578.777	396.695	-0.182	-0.382
-577.763	-200.000	0.025	0.834
-576.748	760.064	0.165	-0.449
-575.733	142.731	0.203	-0.271
-574.719	800.000	0.142	-0.444
-573.704	47.062	-0.437	-0.409
-572.690	-151.136	-0.858	0.065
-571.675	-67.695	0.660	0.260
-570.661	-193.325	-0.601	-0.005
-569.646	27.060	1.029	0.868
-568.631	-101.648	-0.574	0.140
-567.617	-58.114	-0.387	0.170
-566.602	679.318	0.175	0.458
-565.588	-28.813	0.389	-0.225
-564.573	-155.645	0.410	-0.026
-563.558	-8.439	-0.067	0.045
-562.544	35.335	0.088	-0.077
-561.529	50.557	0.229	0.218
-560.515	800.000	0.111	-0.453
-559.500	266.383	-0.341	0.599
-558.485	-200.000	0.034	0.574
-557.471	30.504	-0.326	0.280
-556.456	-127.145	0.797	-0.117
-555.442	-48.669	-0.272	-0.131
-554.427	-94.009	-0.657	-0.181
-553.412	169.418	-0.250	-0.359
-552.398	-136.574	0.735	0.085
-551.383	1.357	0.310	0.223
-550.369	-122.727	-0.850	0.138
-549.354	254.277	0.468	-0.804
-548.339	-167.715	-0.367	-0.015
-547.325	-137.033	-0.765	0.088
-546.310	800.000	-0.195	-0.543
-545.296	-47.478	0.079	0.038
-544.281	-40.717	0.958	-0.498
-543.266	79.251	0.758	-0.816
-542.252	182.599	0.273	-0.404
-541.237	-32.982	-0.553	0.308
-540.223	14.541	-0.406	0.318
-539.208	93.733	-0.428	0.486
-538.193	-200.000	0.098	-0.804
-537.179	13.604	0.262	-0.204
-536.164	64.890	-0.120	-0.121
-535.150	686.914	0.401	-1.052
-534.135	-200.000	-0.113	-0.704
-533.121	800.000	-0.183	-0.543
-532.106	192.876	-0.066	-0.100
-531.091	-157.078	-0.911	-0.056
-530.077	78.273	-0.099	-0.106
-529.062	78.868	0.303	0.325
-528.048	267.245	0.177	0.310
-527.033	32.277	-0.244	0.211
-526.018	43.190	0.554	0.508
-525.004	210.688	-0.166	0.261
-523.989	-200.000	0.066	-0.838
-522.975	285.138	0.235	-0.425
-521.960	24.829	-0.174	0.145
-520.945	-69.209	-0.647	0.250
-519.931	-200.000	0.019	1.018
-518.916	708.389	0.244	-0.646
-517.902	64.306	0.124	-0.125
-516.887	-200.000	-0.011	-0.387
-515.872	85.739	-0.190	0.210
-514.858	142.134	0.386	0.514
-513.843	-48.354	0.530	-0.256
-512.829	772.061	-0.243	0.665
-511.814	32.764	0.271	-0.235
-510.799	36.252	-0.469	0.414
-509.785	148.750	0.211	0.286
-508.770	800.000	-0.132	-0.466
-507.756	641.882	0.374	-0.956
-506.741	-6.430	0.703	-0.481
-505.726	-142.433	-0.652	-0.064
-504.712	-200.000	-0.091	-0.481
-503.697	103.979	-0.270	0.318
-502.683	-12.454	-0.591	0.387
-501.668	800.000	0.049	0.178
-500.653	-15.613	-0.337	-0.215
-499.639	-189.000	0.548	-0.007
-498.624	20.031	-0.280	0.227
-497.610	800.000	0.056	0.186
-496.595	-99.050	-0.224	-0.057
-495.581	261.413	-0.481	0.835
-494.566	-99.945	-0.254	-0.063
-493.551	-7.642	-0.299	-0.202
-492.537	218.260	-0.316	0.505
-491.522	-124.814	-0.553	-0.086
-490.508	-116.751	0.496	0.091
-489.493	109.685	0.092	0.111
-488.478	800.000	-0.080	0.243
-487.464	-74.654	-0.159	0.057
-486.449	99.606	-0.244	0.283
-485.435	120.310	0.497	-0.618
-484.420	800.000	0.166	-0.614
-483.405	-89.440	-0.323	0.095
-482.391	800.000	0.042	0.178
-481.376	-70.394	-0.118	-0.045
-480.362	405.244	-0.323	-0.681
-479.347	51.781	-0.460	-0.438
-478.332	-165.088	-0.276	0.012
-477.318	299.348	0.261	-0.480
-476.303	87.060	-0.103	0.114
-475.289	-105.439	-0.978	0.223
-474.274	75.513	0.147	0.155
-473.259	-42.178	-0.293	0.150
-472.245	-159.032	0.095	0.005
-471.230	-101.030	-0.257	-0.063
-470.216	-200.000	0.020	0.687
-469.201	-119.574	0.375	0.065
-468.186	-75.791	-0.791	0.281
-467.172	-88.484	1.045	0.312
-466.157	800.000	0.369	1.020
-465.143	-123.520	0.640	0.102
-464.128	-200.000	-0.060	0.616
-463.113	-200.000	0.090	0.497
-462.099	22.097	0.359	-0.293
-461.084	264.842	0.388	-0.676
-460.070	-88.796	-0.590	-0.175
-459.055	597.268	0.134	-0.333
-458.040	65.522	-0.225	0.228
-457.026	-200.000	-0.016	-0.263
-456.011	-116.316	0.215	-0.040
-454.997	-176.029	-0.597	-0.016
-453.982	-200.000	-0.023	0.270
-452.968	-13.538	-0.211	0.137
-451.953	268.685	-0.136	0.238
-450.938	-128.898	0.074	0.010
-449.924	-200.000	-0.072	0.493
-448.909	-200.000	0.390	-0.001
-447.895	-200.000	0.063	-0.333
-446.880	195.331	0.279	-0.424
-445.865	29.309	-0.457	0.389
-444.851	43.779	0.316	-0.290
-443.836	-81.233	0.667	-0.220
-442.822	-128.434	0.352	0.050
-441.807	800.000	-0.209	0.598
-440.792	9.352	-0.421	0.318
-439.778	454.808	-0.191	-0.423
-438.763	-86.084	-0.392	0.121
-437.749	-200.000	-0.024	-0.210
-436.734	-200.000	0.046	-0.214
-435.719	216.322	-0.433	-0.688
-434.705	-94.344	-1.221	0.333
-433.690	717.021	-0.105	-0.280
-432.676	-200.000	-0.004	0.814
-431.661	-200.000	-0.054	1.038
-430.646	-200.000	0.114	0.565
-429.632	-89.342	-0.765	-0.225
-428.617	-108.468	0.718	0.154
-427.603	555.373	0.437	1.052
-426.588	-29.097	-0.468	0.268
-425.573	-85.624	-0.429	-0.133
-424.559	-172.030	-0.643	-0.021
-423.544	-200.000	-0.180	0.942
-422.530	-200.000	0.086	-0.577
-421.515	24.512	-0.184	-0.152
-420.500	800.000	-0.099	0.362
-419.486	-200.000	-0.084	-0.745
-418.471	800.000	0.292	0.929
-417.457	-143.469	0.780	-0.074
-416.442	-35.919	-0.105	0.057
-415.428	-200.000	0.011	0.809
-414.413	-147.109	-0.957	-0.082
-413.398	115.056	0.049	0.060
-412.384	800.000	-0.101	-0.304
-411.369	117.035	0.384	0.471
-410.355	120.847	-0.466	0.579
-409.340	-200.000	-0.753	-0.000
-408.325	-200.000	-0.076	0.499
-407.311	-55.842	0.734	-0.328
-406.296	-200.000	0.067	0.538
-405.282	-146.089	0.363	0.032
-404.267	369.110	-0.124	0.250
-403.252	-106.970	-0.174	-0.039
-402.238	-8.586	-0.946	-0.635
-401.223	-200.000	-0.045	-0.217
-400.209	-200.000	0.149	1.071
-399.194	749.147	-0.280	0.755
-398.179	-71.409	0.474	0.177
-397.165	-105.188	0.488	0.111
-396.150	-200.000	0.192	-0.903
-395.136	-61.451	0.965	-0.405
-394.121	300.197	-0.132	-0.243
-393.106	-200.000	-0.003	0.238
-392.092	-130.281	-0.080	0.011
-391.077	-54.142	-0.307	-0.139
-390.063	178.832	-0.512	-0.746
-389.048	-200.000	0.051	-0.688
-388.033	-83.239	-0.395	-0.127
-387.019	-200.000	-0.007	-0.814
-386.004	-128.777	0.246	-0.035
-384.990	-40.537	-0.614	-0.318
-383.975	716.450	0.317	-0.840
-382.960	-83.816	-1.068	-0.340
-381.946	-28.958	0.237	0.136
-380.931	-134.898	-0.249	-0.030
-379.917	47.829	-0.236	0.220
-378.902	-198.419	-0.608	-0.003
-377.888	-133.297	0.333	-0.042
-376.873	677.247	0.329	-0.854
-375.858	-2.115	0.959	-0.671
-374.844	800.000	0.204	-0.841
-373.829	800.000	-0.170	0.554
-372.815	259.026	-0.211	0.363
-371.800	-156.435	-0.286	0.018
-370.785	-200.000	-0.029	-0.440
-369.771	-121.270	-0.319	-0.053
-368.756	60.956	0.612	-0.605
-367.742	-93.390	-0.213	-0.059
-366.727	36.572	0.400	0.352
-365.712	159.949	0.302	-0.420
-364.698	127.551	0.065	0.082
-363.683	800.000	-0.172	0.485
-362.669	24.583	0.372	0.307
-361.654	-142.614	0.692	0.067
-360.639	-115.834	0.793	0.148
-359.625	800.000	0.333	0.924
-358.610	-12.460	-0.162	-0.106
-357.596	75.116	0.260	-0.273
-356.581	-200.000	0.013	-0.453
-355.566	-18.844	0.173	-0.107
-354.552	-13.569	0.880	-0.568
-353.537	-100.396	0.465	-0.115
-352.523	-84.486	0.691	-0.217
-351.508	36.988	0.510	0.449
-350.493	58.892	0.265	-0.260
-349.479	-68.817	0.372	-0.143
-348.464	173.718	0.326	0.469
-347.450	-200.000	-0.143	-0.895
-346.435	-119.862	0.542	-0.093
-345.420	-200.000	-0.034	0.308
-344.406	12.250	0.294	-0.226
-343.391	-89.049	0.400	-0.118
-342.377	360.370	0.371	0.740
-341.362	96.930	-0.207	-0.236
-340.348	-200.000	-0.153	-0.728
-339.333	-113.896	0.736	-0.142
-338.318	27.583	-0.643	0.539
-337.304	139.742	0.133	-0.175
-336.289	-200.000	0.113	0.658
-335.275	-110.425	-0.868	-0.179
-334.260	-64.872	0.792	-0.319
-333.245	-56.505	1.394	0.616
-332.231	-121.235	-0.312	-0.052
-331.216	800.000	-0.123	-0.341
-330.202	290.304	0.123	0.223
-329.187	389.316	0.246	0.507
-328.172	-35.588	-0.182	0.098
-327.158	127.297	-0.114	-0.144
-326.143	197.037	-0.224	-0.340
-325.129	-75.296	-0.206	-0.073
-324.114	-200.000	-0.111	0.835
-323.099	800.000	0.231	-0.753
-322.085	-91.076	-0.533	-0.152
-321.070	-118.267	0.119	0.021
-320.056	-200.000	-0.033	-0.404
-319.041	49.021	0.252	-0.236
-318.026	-110.087	0.606	0.126
-317.012	-94.804	-0.377	0.102
-315.997	74.417	-0.750	0.784
-314.983	-161.777	-0.271	-0.014
-313.968	-132.823	0.150	-0.019
-312.953	-44.934	-0.289	-0.143
-311.939	-117.272	-1.126	0.203
-310.924	-200.000	-0.129	-0.775
-309.910	-200.000	0.014	0.083
-308.895	33.311	-0.533	0.460
-307.880	-28.790	-0.416	-0.238
-306.866	-194.558	-0.332	-0.003
-305.851	-59.709	-0.712	0.303
-304.837	-200.000	-0.035	0.659
-303.822	-56.709	0.860	0.379
-302.807	100.124	-0.014	0.017
-301.793	-91.891	0.896	-0.253
-300.778	-157.775	-0.598	-0.035
-299.764	800.000	0.072	-0.272
-298.749	91.988	0.276	0.309
-297.735	-118.660	0.646	0.113
-296.720	-16.513	0.342	-0.215
-295.705	268.744	-0.184	0.321
-294.691	800.000	0.167	-0.656
-293.676	115.843	-0.408	-0.497
-292.662	-126.753	-0.534	-0.078
-291.647	-200.000	-0.080	-0.609
-290.632	334.859	-0.174	0.334
-289.618	-12.905	-0.301	-0.195
-288.603	-103.793	-0.298	-0.069
-287.589	210.185	-0.130	0.203
-286.574	-200.000	-0.064	-0.722
-285.559	-22.696	0.767	0.460
-284.545	120.833	0.341	0.421
-283.530	-3.955	-0.390	0.269
-282.516	-51.637	-1.026	0.476
-281.501	-200.000	-0.082	-0.429
-280.486	-200.000	-0.002	0.338
-279.472	84.283	0.329	0.357
-278.457	-164.264	-0.399	0.018
-277.443	527.720	-0.322	0.754
-276.428	-27.691	0.781	0.450
-275.413	800.000	0.138	0.476
-274.399	28.606	0.485	-0.408
-273.384	800.000	-0.217	-0.913
-272.370	-12.726	-0.217	-0.140
-271.355	-18.546	-0.415	0.257
-270.340	84.577	0.818	-0.889
-269.326	-39.254	0.825	-0.430
-268.311	800.000	0.152	0.496
-267.297	800.000	-0.090	0.356
-266.282	7.512	-0.576	0.427
-265.267	9.277	0.696	0.522
-264.253	800.000	-0.194	-0.611
-263.238	36.996	0.438	0.384
-262.224	133.593	-0.318	-0.408
-261.209	250.216	0.409	0.689
-260.195	-96.315	-0.417	-0.110
-259.180	-87.653	0.428	-0.128
-258.165	-71.377	-0.330	0.123
-257.151	620.387	-0.190	-0.475
-256.136	-11.827	0.552	0.360
-255.122	-125.455	-1.120	0.169
-254.107	361.985	0.308	0.613
-253.092	-128.896	0.936	0.130
-252.078	800.000	-0.101	0.371
-251.063	55.809	0.354	-0.341
-250.049	-75.134	-0.700	0.248
-249.034	-200.000	-0.022	-0.298
-248.019	-163.050	0.889	0.043
-247.005	-200.000	0.025	-0.160
-245.990	404.753	0.337	-0.704
-244.976	800.000	-0.044	-0.169
-243.961	800.000	-0.032	0.124
-242.946	27.583	0.355	-0.297
-241.932	800.000	0.204	-0.628
-240.917	800.000	-0.021	-0.077
-239.903	153.439	0.173	-0.235
-238.888	60.822	-0.129	0.127
-237.873	-200.000	-0.042	-0.267
-236.859	251.100	-0.412	-0.695
-235.844	-156.435	0.510	0.032
-234.830	-53.701	-0.461	0.209
-233.815	-59.224	-0.599	0.256
-232.800	-200.000	0.023	0.534
-231.786	-105.143	-0.915	-0.207
-230.771	-94.813	0.673	0.181
-229.757	-200.000	-0.013	-0.112
-228.742	-200.000	0.028	-0.570
-227.727	-14.279	-0.290	0.185
-226.713	530.100	-0.214	-0.502
-225.698	-62.934	0.387	-0.159
-224.684	294.731	0.485	-0.880
-223.669	267.824	-0.177	0.307
-222.655	-61.070	0.485	-0.203
-221.640	58.354	-0.523	0.508
-220.625	-102.605	-0.807	-0.191
-219.611	-73.860	-0.451	0.162
-218.596	-120.829	0.496	0.083
-217.582	-7.915	0.177	0.118
-216.567	130.026	-0.374	0.475
-215.552	154.423	0.297	0.404
-214.538	-200.000	0.069	0.805
-213.523	31.101	-0.127	0.108
-212.509	-70.460	0.381	0.143
-211.494	-79.355	-0.499	0.167
-210.479	108.219	-0.545	0.644
-209.465	116.028	-0.035	-0.042
-208.450	800.000	-0.194	0.806
-207.436	93.017	-0.299	0.334
-206.421	7.049	-0.122	-0.090
-205.406	200.193	-0.133	0.202
-204.392	-3.751	-0.476	-0.327
-203.377	225.261	0.272	-0.436
-202.363	-66.117	-0.025	-0.010
-201.348	800.000	-0.207	-0.734
-200.333	-147.303	-0.242	-0.020
-199.319	-80.922	0.132	-0.043
-198.304	-200.000	0.026	0.246
-197.290	800.000	-0.196	0.574
-196.275	36.659	0.309	-0.270
-195.260	-130.323	-0.582	-0.078
-194.246	361.710	0.183	-0.363
-193.231	800.000	0.281	-0.770
-192.217	-28.728	0.361	-0.206
-191.202	115.048	0.292	0.352
-190.187	-73.996	0.022	0.008
-189.173	-200.000	0.048	0.210
-188.158	-94.248	0.705	0.191
-187.144	99.114	0.335	0.384
-186.129	18.277	0.430	0.340
-185.114	-200.000	0.040	0.713
-184.100	125.919	0.116	-0.145
-183.085	-50.799	0.532	-0.248
-182.071	-200.000	0.220	0.973
-181.056	-200.000	-0.149	0.894
-180.042	-65.222	0.871	0.347
-179.027	-178.316	-0.749	0.017
-178.012	748.998	0.303	0.807
-176.998	295.211	-0.354	0.641
-175.983	111.346	0.247	-0.294
-174.969	46.401	-0.300	-0.275
-173.954	-200.000	-0.009	-0.681
-172.939	-91.818	-0.751	0.211
-171.925	-200.000	0.010	-0.614
-170.910	-126.496	0.098	0.014
-169.896	14.636	-0.466	-0.360
-168.881	134.615	-0.429	-0.551
-167.866	-16.883	-0.761	-0.476
-166.852	-70.075	0.299	-0.113
-165.837	-58.805	-1.052	-0.450
-164.823	-200.000	0.153	-0.846
-163.808	281.669	0.181	-0.320
-162.793	-118.058	0.830	0.147
-161.779	-87.024	1.272	0.383
-160.764	722.856	-0.204	0.537
-159.750	292.461	0.349	0.628
-158.735	471.699	-0.188	0.417
-157.720	212.631	-0.157	0.244
-156.706	800.000	-0.212	0.906
-155.691	155.806	-0.496	0.675
-154.677	-200.000	0.039	-0.821
-153.662	-200.000	-0.101	-0.753
-152.647	120.453	0.177	-0.218
-151.633	-116.826	-0.810	-0.147
-150.618	-160.344	-0.363	0.019
-149.604	-47.353	-0.477	-0.229
-148.589	83.667	-0.078	0.084
-147.574	95.971	0.485	-0.548
-146.560	166.586	-0.349	-0.490
-145.545	-129.736	0.758	-0.103
-144.531	117.796	-0.090	-0.109
-143.516	-200.000	-0.159	-1.218
-142.502	-171.008	-0.995	-0.033
-141.487	-200.000	-0.086	-0.494
-140.472	-3.667	-0.443	-0.304
-139.458	47.910	-0.178	-0.164
-138.443	-14.437	-1.257	0.799
-137.429	-76.509	0.318	0.110
-136.414	65.960	-0.539	0.540
-135.399	-96.315	0.195	-0.051
-134.385	187.990	0.353	0.521
-133.370	-54.600	0.932	0.416
-132.356	160.183	0.583	-0.803
-131.341	234.286	0.431	-0.702
-130.326	-85.660	-0.315	0.097
-129.312	-122.111	0.589	0.095
-128.297	-200.000	0.047	-0.472
-127.283	-200.000	-0.035	-0.402
-126.268	47.925	-0.165	-0.152
-125.253	169.554	0.319	0.450
-124.239	-200.000	0.000	0.317
-123.224	-74.161	-0.340	-0.121
