DTS Sentinel unit serial number:	SN413079Multiplexer serial number:	ORYXHardware model number:	OX4-SRSoftware version number:	ORYX F/W v4.00 Oryx Data Collector v3.7.2.0data status	okinstallation	princeton_trtdifferential loss correction	single-endedforward channel	channel 1reverse channel	N/Adate	2019/09/11time	09:48:11forward acquisition time	60.00reverse acquisition time	0.00gamma	496.2192k internal	0.2304k external	0.2304temperature offset calibration	0.9958default loss term (dB/km)	0.3790temperature slope calibration	1.0000multiplexer offset coefficient	1.0000multiplexer slope coefficient	1.0000fibre end	0.00T internal ref (°C)	35.00T ext. ref 1 (°C)	0.12T ext. ref 2 (°C)	31.83length (m)	temperature (°C)	Stokes	anti-Stokes-747.200	-89.465	0.155	0.046
-746.185	42.771	-0.059	-0.055
-745.171	800.000	-0.068	-0.239
-744.156	-200.000	-0.070	0.364
-743.142	74.116	-0.197	-0.210
-742.127	-84.246	0.167	-0.054
-741.112	-46.539	-0.246	-0.123
-740.098	-37.662	0.248	0.134
-739.083	-200.000	0.008	0.090
-738.069	76.609	-0.171	-0.185
-737.054	800.000	0.117	0.404
-736.039	-117.372	-0.354	0.065
-735.025	-151.974	0.257	-0.019
-734.010	-46.701	-0.344	-0.172
-732.996	-8.212	0.040	0.027
-731.981	800.000	0.115	0.329
-730.966	-200.000	0.008	0.129
-729.952	-101.819	-0.233	-0.057
-728.937	-161.666	0.265	-0.014
-727.923	800.000	-0.061	0.229
-726.908	240.877	0.065	-0.111
-725.894	-6.622	0.229	0.158
-724.879	45.445	0.092	0.086
-723.864	-200.000	0.075	-0.562
-722.850	181.646	-0.125	-0.187
-721.835	-197.884	0.066	0.000
-720.821	1.773	-0.088	-0.065
-719.806	-91.834	-0.375	-0.108
-718.791	247.756	-0.311	-0.535
-717.777	-20.375	0.515	0.322
-716.762	26.553	0.172	0.147
-715.748	-34.320	0.351	-0.196
-714.733	292.145	-0.184	-0.342
-713.718	-28.472	-0.354	0.208
-712.704	-114.383	-0.406	-0.079
-711.689	800.000	0.058	0.199
-710.675	-200.000	0.019	0.163
-709.660	99.775	0.151	-0.178
-708.645	-72.147	-0.059	-0.022
-707.631	800.000	-0.073	-0.236
-706.616	800.000	0.048	0.167
-705.602	-200.000	-0.032	-0.263
-704.587	-183.179	-0.214	-0.004
-703.572	423.096	-0.104	0.227
-702.558	43.802	-0.185	0.172
-701.543	-158.121	-0.237	-0.014
-700.529	69.655	0.116	-0.121
-699.514	-66.208	0.256	0.104
-698.499	336.966	0.034	-0.066
-697.485	149.900	-0.115	0.158
-696.470	86.255	-0.036	0.040
-695.456	156.596	-0.178	-0.250
-694.441	-200.000	-0.004	-0.279
-693.426	800.000	-0.133	-0.498
-692.412	202.435	0.044	0.070
-691.397	-170.297	0.105	-0.004
-690.383	-87.791	0.095	-0.029
-689.368	41.920	0.061	0.056
-688.354	-12.063	-0.099	-0.066
-687.339	558.135	-0.167	-0.410
-686.324	-106.004	-0.228	-0.052
-685.310	167.789	-0.163	-0.235
-684.295	32.323	0.141	-0.124
-683.281	82.649	-0.143	0.157
-682.266	-200.000	0.001	0.121
-681.251	182.458	-0.216	-0.324
-680.237	-100.043	0.108	-0.027
-679.222	-75.606	0.157	-0.057
-678.208	-160.109	0.314	-0.017
-677.193	-200.000	0.002	-0.217
-676.178	75.533	-0.133	0.143
-675.164	248.061	-0.184	0.316
-674.149	449.117	-0.151	0.339
-673.135	114.503	-0.301	-0.372
-672.120	160.212	-0.083	0.118
-671.105	-19.335	-0.280	0.176
-670.091	274.764	-0.041	0.073
-669.076	165.280	-0.057	0.082
-668.062	-47.932	0.123	0.061
-667.047	115.940	0.186	-0.231
-666.032	-25.972	0.210	0.125
-665.018	68.081	0.195	-0.203
-664.003	225.801	-0.040	-0.065
-662.989	800.000	0.051	0.209
-661.974	135.933	0.056	0.074
-660.959	3.251	0.310	-0.229
-659.945	-200.000	-0.006	-0.192
-658.930	197.508	-0.160	0.248
-657.916	-41.841	-0.174	0.091
-656.901	-200.000	-0.012	-0.097
-655.886	65.150	-0.153	-0.157
-654.872	-127.463	-0.304	-0.045
-653.857	459.756	0.040	0.091
-652.843	20.771	-0.085	0.070
-651.828	28.783	0.223	0.192
-650.814	-200.000	-0.004	0.065
-649.799	323.231	-0.086	-0.166
-648.784	336.959	0.095	-0.187
-647.770	130.575	-0.031	0.040
-646.755	-56.941	-0.243	0.109
-645.741	-200.000	0.005	-0.129
-644.726	610.964	-0.088	-0.224
-643.711	-5.353	0.103	-0.072
-642.697	20.477	-0.085	-0.070
-641.682	-200.000	-0.031	-0.156
-640.668	45.924	-0.228	0.214
-639.653	-137.401	0.140	0.016
-638.638	405.394	-0.093	-0.199
-637.624	800.000	-0.074	-0.310
-636.609	-4.635	-0.149	0.104
-635.595	-133.601	0.272	-0.035
-634.580	364.166	0.118	-0.241
-633.565	-137.765	0.094	0.011
-632.551	-200.000	-0.033	0.154
-631.536	-47.903	-0.161	0.079
-630.522	-82.969	0.137	0.045
-629.507	-132.739	0.115	0.015
-628.492	8.660	0.153	0.117
-627.478	-60.533	-0.312	-0.134
-626.463	-200.000	0.002	0.121
-625.449	57.412	-0.185	-0.183
-624.434	117.840	-0.205	-0.256
-623.419	146.860	-0.116	-0.159
-622.405	33.720	-0.076	0.067
-621.390	38.128	-0.160	-0.144
-620.376	-47.866	-0.207	0.101
-619.361	-25.357	0.333	-0.199
-618.346	800.000	-0.057	0.237
-617.332	-16.332	0.220	0.142
-616.317	574.325	-0.044	-0.108
-615.303	63.121	0.044	0.045
-614.288	212.417	-0.196	-0.313
-613.273	-200.000	0.008	0.064
-612.259	-102.480	-0.408	-0.099
-611.244	-126.271	-0.144	0.022
-610.230	-71.922	-0.488	-0.184
-609.215	-54.996	-0.136	-0.062
-608.201	-104.381	0.318	0.075
-607.186	242.410	-0.227	0.384
-606.171	-200.000	0.005	-0.287
-605.157	167.532	0.210	-0.302
-604.142	-140.520	-0.228	0.024
-603.128	158.822	0.166	-0.233
-602.113	-15.184	0.144	0.093
-601.098	-134.308	-0.161	-0.020
-600.084	-200.000	-0.042	0.224
-599.069	90.619	0.057	-0.064
-598.055	542.795	-0.056	0.134
-597.040	-85.604	0.169	-0.053
-596.025	96.690	0.076	-0.088
-595.011	224.233	-0.158	-0.258
-593.996	215.765	0.177	-0.284
-592.982	251.432	-0.097	-0.168
-591.967	-111.085	-0.360	-0.075
-590.952	-100.478	-0.130	-0.033
-589.938	147.565	-0.113	0.154
-588.923	-185.858	0.205	-0.003
-587.909	300.286	-0.094	-0.175
-586.894	-58.266	-0.112	0.049
-585.879	147.617	0.148	-0.201
-584.865	-200.000	-0.009	-0.425
-583.850	182.919	0.048	-0.072
-582.836	-37.989	0.270	0.145
-581.821	-37.424	0.202	-0.109
-580.806	242.234	-0.106	0.179
-579.792	83.233	0.098	-0.108
-578.777	-128.866	0.198	0.028
-577.763	-200.000	0.003	0.050
-576.748	-200.000	-0.010	-0.187
-575.733	-171.603	0.194	0.006
-574.719	100.905	0.026	0.030
-573.704	298.732	0.080	0.149
-572.690	-200.000	-0.001	-0.108
-571.675	386.541	0.101	-0.211
-570.661	-90.907	0.399	-0.116
-569.646	-200.000	-0.033	-0.253
-568.631	-92.192	-0.413	0.118
-567.617	-188.176	0.066	0.001
-566.602	-200.000	-0.003	-0.059
-565.588	-144.860	0.167	-0.015
-564.573	180.171	0.064	0.095
-563.558	225.546	0.050	0.083
-562.544	-71.604	0.284	0.107
-561.529	158.273	-0.137	-0.192
-560.515	85.693	0.115	0.128
-559.500	55.096	-0.042	0.041
-558.485	126.943	0.046	-0.059
-557.471	-141.449	0.151	-0.015
-556.456	-113.911	-0.296	0.058
-555.442	-80.849	-0.243	-0.081
-554.427	-1.156	0.217	0.155
-553.412	523.696	-0.139	-0.331
-552.398	-200.000	-0.016	0.346
-551.383	97.503	-0.181	-0.210
-550.369	-105.875	-0.163	0.037
-549.354	-200.000	-0.076	0.460
-548.339	-200.000	0.026	0.176
-547.325	418.038	-0.079	-0.170
-546.310	-200.000	0.000	0.039
-545.296	136.239	-0.258	-0.339
-544.281	-95.031	0.146	-0.040
-543.266	21.337	-0.102	0.083
-542.252	272.401	-0.003	-0.005
-541.237	800.000	0.067	0.235
-540.223	593.197	0.138	0.344
-539.208	604.869	0.144	0.361
-538.193	-50.394	-0.292	0.139
-537.179	18.548	-0.261	0.211
-536.164	-66.879	0.221	-0.088
-535.150	800.000	-0.077	-0.253
-534.135	30.098	0.221	-0.190
-533.121	632.778	0.168	0.431
-532.106	-200.000	-0.064	-0.539
-531.091	-106.666	0.217	0.049
-530.077	-69.255	0.106	0.041
-529.062	-7.504	0.250	0.171
-528.048	520.591	0.086	0.204
-527.033	-142.758	-0.075	0.007
-526.018	398.216	0.104	0.219
-525.004	-109.898	-0.275	0.058
-523.989	-67.922	0.075	0.029
-522.975	-200.000	0.047	-0.270
-521.960	61.862	0.165	0.166
-520.945	-41.961	-0.499	-0.258
-519.931	800.000	0.079	-0.265
-518.916	800.000	-0.060	0.249
-517.902	629.644	-0.031	-0.080
-516.887	-200.000	-0.018	-0.275
-515.872	469.780	-0.108	0.246
-514.858	-50.778	-0.102	0.049
-513.843	-27.879	0.069	0.040
-512.829	-200.000	-0.026	-0.188
-511.814	-63.998	0.257	-0.106
-510.799	391.293	0.095	0.199
-509.785	1.251	0.163	0.118
-508.770	156.356	-0.091	-0.127
-507.756	-15.312	-0.146	0.094
-506.741	-49.885	-0.278	0.133
-505.726	-109.039	-0.313	0.067
-504.712	-107.962	0.216	0.047
-503.697	64.343	-0.248	0.252
-502.683	-119.247	-0.135	0.024
-501.668	-156.728	-0.188	-0.012
-500.653	-91.855	0.335	0.096
-499.639	538.923	0.146	-0.351
-498.624	145.882	-0.090	0.121
-497.610	-41.246	0.235	0.122
-496.595	-200.000	0.082	-0.379
-495.581	800.000	-0.058	-0.219
-494.566	-200.000	-0.012	0.220
-493.551	-200.000	-0.072	-0.347
-492.537	281.561	0.140	-0.253
-491.522	553.876	0.109	-0.264
-490.508	-200.000	-0.004	0.088
-489.493	9.143	-0.159	-0.121
-488.478	800.000	0.027	0.104
-487.464	206.778	-0.086	0.136
-486.449	-35.520	-0.112	-0.061
-485.435	-200.000	0.008	0.118
-484.420	800.000	-0.066	-0.218
-483.405	561.452	0.128	-0.312
-482.391	327.195	0.151	-0.291
-481.376	-35.843	0.221	-0.120
-480.362	39.790	-0.110	0.099
-479.347	104.617	0.081	-0.096
-478.332	653.007	-0.106	0.274
-477.318	310.935	-0.208	0.392
-476.303	-49.932	0.548	0.262
-475.289	-200.000	-0.047	0.377
-474.274	-200.000	-0.016	0.196
-473.259	-108.037	0.304	0.067
-472.245	633.621	-0.032	0.082
-471.230	-70.710	-0.260	0.099
-470.216	-120.866	0.176	-0.030
-469.201	156.408	0.159	0.221
-468.186	-200.000	-0.028	-0.219
-467.172	4.627	-0.056	-0.042
-466.157	353.724	0.037	0.074
-465.143	-200.000	-0.010	-0.198
-464.128	235.555	-0.154	-0.257
-463.113	59.813	-0.172	-0.171
-462.099	12.793	-0.119	0.092
-461.084	-72.752	0.305	0.113
-460.070	664.980	-0.134	0.349
-459.055	287.014	-0.142	0.258
-458.040	-169.458	0.154	-0.006
-457.026	-200.000	0.030	-0.499
-456.011	-62.155	-0.106	0.044
-454.997	-77.191	-0.417	-0.146
-453.982	194.813	-0.090	-0.138
-452.968	-36.502	-0.207	0.112
-451.953	-121.438	-0.175	0.029
-450.938	-200.000	0.013	-0.145
-449.924	-53.274	0.321	0.148
-448.909	-120.867	-0.168	0.029
-447.895	283.345	0.067	-0.121
-446.880	-200.000	0.011	-0.075
-445.865	7.082	-0.134	-0.101
-444.851	-78.582	-0.332	0.114
-443.836	-110.672	-0.464	0.097
-442.822	-73.278	0.230	-0.085
-441.807	-109.870	-0.171	-0.036
-440.792	800.000	0.052	0.146
-439.778	-24.443	0.269	-0.161
-438.763	-200.000	-0.071	-0.472
-437.749	56.482	0.215	0.211
-436.734	268.370	-0.167	0.294
-435.719	-16.678	0.158	-0.100
-434.705	55.692	-0.154	0.151
-433.690	-109.949	-0.083	-0.018
-432.676	18.165	0.138	-0.110
-431.661	-90.557	0.171	-0.050
-430.646	33.107	0.337	0.294
-429.632	-138.445	-0.364	-0.040
-428.617	-5.151	0.067	0.046
-427.603	-80.694	-0.028	-0.009
-426.588	-200.000	0.033	0.181
-425.573	-131.055	0.415	-0.056
-424.559	4.147	0.172	-0.126
-423.544	603.362	0.055	-0.138
-422.530	-6.314	-0.088	0.061
-421.515	800.000	-0.097	0.283
-420.500	-200.000	0.027	-0.251
-419.486	257.154	0.033	0.057
-418.471	-98.245	-0.029	0.008
-417.457	-200.000	-0.042	0.294
-416.442	-153.297	-0.447	0.031
-415.428	431.681	0.037	0.081
-414.413	-55.705	0.339	-0.153
-413.398	800.000	0.031	0.125
-412.384	196.560	-0.037	0.056
-411.369	-22.943	0.039	0.024
-410.355	800.000	-0.079	0.281
-409.340	-148.976	0.148	0.012
-408.325	-148.504	0.390	0.032
-407.311	406.759	-0.069	-0.146
-406.296	-200.000	-0.064	-0.355
-405.282	-35.244	-0.318	-0.174
-404.267	-200.000	-0.003	-0.236
-403.252	-200.000	0.049	0.250
-402.238	-78.555	0.178	-0.061
-401.223	-49.856	-0.093	-0.044
-400.209	-28.024	-0.152	-0.089
-399.194	176.008	0.236	-0.344
-398.179	-200.000	0.052	-0.267
-397.165	-200.000	0.015	-0.069
-396.150	460.463	-0.050	0.111
-395.136	-101.802	0.321	0.078
-394.121	220.910	-0.162	-0.261
-393.106	-166.465	-0.396	-0.017
-392.092	800.000	0.041	0.172
-391.077	438.547	-0.089	0.196
-390.063	-200.000	-0.008	0.524
-389.048	101.974	0.089	0.105
-388.033	14.601	-0.056	0.044
-387.019	800.000	0.122	0.349
-386.004	-114.127	0.210	0.041
-384.990	188.165	0.280	0.420
-383.975	69.823	0.122	-0.126
-382.960	-180.769	-0.252	0.005
-381.946	16.288	0.225	-0.178
-380.931	-200.000	0.026	0.121
-379.917	-200.000	0.016	-0.381
-378.902	-87.061	-0.184	0.056
-377.888	800.000	0.042	0.182
-376.873	-90.916	0.267	-0.077
-375.858	47.394	0.132	0.124
-374.844	-200.000	-0.023	-0.152
-373.829	800.000	-0.038	0.128
-372.815	121.767	0.034	0.042
-371.800	196.368	0.087	0.132
-370.785	96.831	0.169	-0.195
-369.771	-200.000	0.031	0.147
-368.756	351.347	0.027	-0.053
-367.742	46.898	0.156	0.145
-366.727	-1.814	-0.209	0.147
-365.712	25.896	-0.075	0.062
-364.698	-109.002	-0.135	-0.029
-363.683	-151.049	0.240	0.018
-362.669	-200.000	-0.043	0.318
-361.654	-124.028	-0.106	0.017
-360.639	-163.830	0.301	-0.014
-359.625	258.390	0.073	-0.126
-358.610	-200.000	-0.057	0.409
-357.596	-111.681	0.177	0.036
-356.581	125.677	0.112	-0.141
-355.566	-14.479	-0.207	0.134
-354.552	21.798	-0.071	-0.058
-353.537	3.517	-0.087	0.063
-352.523	262.286	-0.178	0.310
-351.508	42.512	0.182	0.166
-350.493	-200.000	0.010	-0.060
-349.479	50.679	-0.060	-0.057
-348.464	80.669	-0.221	0.239
-347.450	-183.399	0.203	-0.004
-346.435	-49.339	0.229	-0.110
-345.420	21.840	-0.174	-0.142
-344.406	-41.512	-0.219	-0.113
-343.391	-107.646	-0.174	0.038
-342.377	118.469	-0.008	0.010
-341.362	-68.683	0.072	-0.028
-340.348	277.324	-0.105	0.186
-339.333	-33.075	-0.244	-0.136
-338.318	-200.000	-0.028	-0.130
-337.304	-47.612	-0.243	0.118
-336.289	247.932	0.293	-0.497
-335.275	-200.000	0.006	-0.475
-334.260	-200.000	-0.018	0.206
-333.245	-104.847	0.116	0.027
-332.231	348.649	-0.097	-0.191
-331.216	76.889	-0.168	-0.179
-330.202	-120.743	-0.158	-0.027
-329.187	-112.795	0.177	-0.035
-328.172	105.571	0.098	-0.116
-327.158	63.470	0.154	0.155
-326.143	-27.155	0.126	0.074
-325.129	-200.000	-0.014	0.127
-324.114	-200.000	-0.014	-0.091
-323.099	-12.147	-0.295	0.193
-322.085	-51.740	0.043	-0.020
-321.070	-21.941	0.137	0.083
-320.056	-60.316	0.472	0.201
-319.041	-121.422	-0.226	-0.038
-318.026	146.342	0.094	-0.126
-317.012	-108.960	0.315	-0.067
-315.997	47.963	-0.108	-0.101
-314.983	-200.000	-0.008	0.099
-313.968	-2.284	-0.250	0.175
-312.953	-4.652	-0.105	-0.072
-311.939	-200.000	0.003	0.078
-310.924	-179.689	0.070	0.002
-309.910	78.991	-0.135	0.145
-308.895	-74.665	0.519	-0.187
-307.880	800.000	-0.049	-0.193
-306.866	-112.063	-0.189	0.038
-305.851	-68.365	-0.021	0.008
-304.837	-200.000	0.022	-0.099
-303.822	800.000	-0.051	0.215
-302.807	-200.000	-0.057	0.349
-301.793	-77.823	0.363	-0.125
-300.778	39.155	0.171	0.153
-299.764	-143.494	0.255	0.024
-298.749	265.183	-0.203	-0.354
-297.735	8.436	-0.220	0.166
-296.720	-58.252	0.090	0.039
-295.705	-4.040	0.314	-0.218
-294.691	-134.850	0.323	-0.039
-293.676	-64.470	0.098	0.040
-292.662	800.000	0.012	-0.049
-291.647	-200.000	-0.050	-0.413
-290.632	800.000	0.084	0.253
-289.618	648.025	-0.139	-0.356
-288.603	-138.907	0.432	-0.047
-287.589	216.185	-0.077	0.122
-286.574	800.000	-0.026	0.077
-285.559	-15.041	-0.357	0.229
-284.545	-200.000	-0.056	-0.380
-283.530	-200.000	-0.021	0.308
-282.516	-117.325	-0.237	-0.043
-281.501	-200.000	-0.006	-0.305
-280.486	10.248	0.073	-0.055
-279.472	-200.000	0.044	0.216
-278.457	447.770	-0.017	0.037
-277.443	-38.523	-0.255	0.135
-276.428	-95.793	-0.286	-0.076
-275.413	-130.170	0.553	-0.075
-274.399	90.219	0.139	0.155
-273.384	97.912	0.124	0.143
-272.370	3.197	-0.312	0.227
-271.355	132.665	-0.199	0.257
-270.340	-119.302	0.172	0.030
-269.326	-120.708	-0.184	0.031
-268.311	-200.000	0.008	0.355
-267.297	-200.000	-0.046	0.290
-266.282	-200.000	-0.013	0.107
-265.267	356.040	0.137	0.273
-264.253	-105.360	-0.255	0.058
-263.238	-40.028	0.027	0.014
-262.224	-84.890	-0.118	0.037
-261.209	43.243	-0.144	-0.131
-260.195	37.001	-0.154	0.136
-259.180	23.474	-0.279	0.230
-258.165	800.000	0.106	0.304
-257.151	800.000	-0.066	0.267
-256.136	-200.000	-0.029	0.161
-255.122	-154.179	0.273	-0.018
-254.107	-200.000	0.020	-0.125
-253.092	146.167	0.175	-0.234
-252.078	-96.062	0.152	0.040
-251.063	-200.000	0.025	-0.246
-250.049	800.000	-0.069	0.200
-249.034	-3.354	-0.243	-0.169
-248.019	-91.093	-0.233	0.067
-247.005	508.218	0.084	-0.194
-245.990	-33.332	0.126	0.070
-244.976	-9.727	-0.300	-0.199
-243.961	65.475	-0.150	0.152
-242.946	110.577	0.106	0.127
-241.932	-200.000	0.001	-0.222
-240.917	-93.123	0.143	0.040
-239.903	124.293	0.084	0.105
-238.888	-47.419	-0.086	-0.042
-237.873	21.730	0.057	0.046
-236.859	-126.219	0.291	0.043
-235.844	438.206	-0.067	0.145
-234.830	-200.000	0.020	-0.095
-233.815	19.635	0.194	-0.156
-232.800	582.437	0.029	0.070
-231.786	-51.973	-0.041	0.019
-230.771	-165.776	0.292	0.013
-229.757	316.818	-0.118	-0.223
-228.742	800.000	0.072	0.242
-227.727	-200.000	-0.019	-0.101
-226.713	-182.556	0.311	-0.006
-225.698	-119.475	-0.259	0.045
-224.684	-87.056	-0.231	-0.070
-223.669	84.084	-0.255	0.278
-222.655	131.547	0.096	-0.123
-221.640	-92.729	-0.411	0.115
-220.625	138.893	-0.369	0.484
-219.611	268.727	-0.138	0.241
-218.596	29.975	0.058	0.049
-217.582	-48.179	-0.105	0.050
-216.567	440.642	-0.124	-0.270
-215.552	-200.000	0.003	0.171
-214.538	-141.608	0.139	-0.014
-213.523	-200.000	-0.027	-0.175
-212.509	-42.015	0.289	0.147
-211.494	-152.474	0.203	-0.015
-210.479	-105.590	0.143	-0.032
-209.465	78.686	-0.164	-0.175
-208.450	23.828	0.177	0.145
-207.436	135.735	-0.161	0.209
-206.421	320.245	-0.035	-0.066
-205.406	-17.607	-0.362	0.227
-204.392	371.995	-0.087	0.175
-203.377	800.000	0.131	-0.364
-202.363	-200.000	-0.003	-0.228
-201.348	782.143	-0.115	0.313
-200.333	75.813	0.143	0.151
-199.319	-200.000	0.059	-0.319
-198.304	527.127	0.042	-0.099
-197.290	461.366	-0.004	0.008
-196.275	106.409	0.143	0.169
-195.260	800.000	0.031	0.129
-194.246	21.264	-0.229	-0.185
-193.231	-200.000	-0.022	-0.381
-192.217	467.119	0.036	0.081
-191.202	99.635	0.211	0.243
-190.187	81.194	-0.193	-0.207
-189.173	-87.518	0.163	-0.049
-188.158	-47.573	0.182	0.088
-187.144	1.363	-0.208	-0.149
-186.129	-38.573	0.105	0.055
-185.114	-100.428	-0.227	0.056
-184.100	-140.166	0.181	-0.019
-183.085	-104.255	-0.330	-0.076
-182.071	685.050	0.053	-0.137
-181.056	-73.324	-0.346	-0.126
-180.042	67.947	-0.098	0.100
-179.027	-42.348	0.111	0.057
-178.012	800.000	-0.006	-0.026
-176.998	-22.958	0.045	-0.027
-175.983	277.172	0.054	-0.096
-174.969	-68.662	0.425	-0.164
-173.954	30.988	0.420	-0.358
-172.939	-108.872	-0.259	-0.055
-171.925	-2.577	-0.061	-0.042
-170.910	125.210	-0.062	0.078
-169.896	25.980	0.058	-0.048
-168.881	-28.466	-0.158	-0.091
-167.866	800.000	0.038	-0.104
-166.852	-116.893	0.360	0.066
-165.837	-200.000	0.023	-0.188
-164.823	260.340	0.130	-0.224
-163.808	-90.187	0.402	-0.116
-162.793	-0.975	-0.105	0.074
-161.779	-62.426	0.104	0.043
-160.764	-53.571	-0.051	-0.023
-159.750	-200.000	-0.006	-0.110
-158.735	-48.446	0.062	0.030
-157.720	-120.578	-0.111	0.019
-156.706	800.000	-0.114	0.343
-155.691	-59.685	0.316	0.135
-154.677	211.690	0.097	-0.152
-153.662	-6.224	-0.284	-0.193
-152.647	-60.894	0.263	0.111
-151.633	-200.000	-0.174	-0.000
-150.618	560.896	0.074	0.179
-149.604	-132.147	0.165	0.021
-148.589	800.000	0.023	-0.069
-147.574	-59.211	0.340	-0.146
-146.560	-200.000	-0.015	0.135
-145.545	-73.473	0.159	-0.058
-144.531	-31.676	-0.125	0.070
-143.516	-200.000	-0.006	0.079
-142.502	566.394	0.080	-0.193
-141.487	66.339	0.077	-0.078
-140.472	141.978	0.195	0.258
-139.458	-150.164	0.118	-0.009
-138.443	-12.017	0.391	0.255
-137.429	57.764	0.194	-0.189
-136.414	250.375	-0.082	-0.139
-135.399	36.331	-0.291	0.255
-134.385	-200.000	-0.008	-0.136
-133.370	-92.877	0.200	0.056
-132.356	-41.647	-0.263	-0.134
-131.341	-35.952	-0.301	0.162
-130.326	-200.000	0.046	0.365
-129.312	-30.434	-0.078	0.044
-128.297	-169.768	0.297	-0.011
-127.283	-52.118	0.345	0.159
-126.268	-16.492	0.192	-0.121
-125.253	81.160	-0.235	0.253
-124.239	-43.133	-0.246	0.124
-123.224	-200.000	0.008	0.251
-122.210	-56.390	0.279	0.123
-121.195	-102.161	0.351	-0.084
