DTS Sentinel unit serial number:	SN413079Multiplexer serial number:	ORYXHardware model number:	OX4-SRSoftware version number:	ORYX F/W v4.00 Oryx Data Collector v3.7.2.0data status	okinstallation	princeton_trtdifferential loss correction	single-endedforward channel	channel 1reverse channel	N/Adate	2019/09/13time	03:42:35forward acquisition time	60.00reverse acquisition time	0.00gamma	496.2192k internal	0.2332k external	0.2332temperature offset calibration	1.0160default loss term (dB/km)	0.3790temperature slope calibration	1.0000multiplexer offset coefficient	1.0000multiplexer slope coefficient	1.0000fibre end	0.00T internal ref (°C)	27.20T ext. ref 1 (°C)	4.08T ext. ref 2 (°C)	21.54length (m)	temperature (°C)	Stokes	anti-Stokes-747.200	-52.565	-0.207	-0.096
-746.185	152.575	-0.141	-0.194
-745.171	800.000	-0.023	0.067
-744.156	800.000	0.106	0.318
-743.142	493.282	-0.138	0.318
-742.127	-200.000	-0.006	0.181
-741.112	-200.000	0.016	0.104
-740.098	-200.000	-0.019	0.406
-739.083	-95.404	0.156	0.042
-738.069	-35.658	0.397	0.216
-737.054	-54.691	0.161	-0.073
-736.039	-200.000	0.008	0.087
-735.025	319.039	0.228	0.434
-734.010	-10.299	0.178	-0.119
-732.996	-200.000	-0.319	-0.000
-731.981	219.597	0.050	-0.080
-730.966	329.599	-0.200	-0.387
-729.952	800.000	-0.058	-0.247
-728.937	247.920	-0.147	-0.249
-727.923	110.586	0.123	0.149
-726.908	-200.000	-0.006	-0.127
-725.894	-200.000	0.013	0.291
-724.879	4.972	0.039	0.029
-723.864	107.192	-0.124	-0.148
-722.850	-5.877	-0.167	-0.115
-721.835	44.236	0.148	0.136
-720.821	18.167	-0.020	-0.016
-719.806	-130.203	-0.395	0.054
-718.791	-200.000	-0.022	-0.203
-717.777	-178.896	-0.307	0.007
-716.762	-109.154	-0.396	0.085
-715.748	196.246	-0.115	0.176
-714.733	129.691	0.049	-0.064
-713.718	-200.000	-0.022	-0.256
-712.704	-200.000	0.023	0.332
-711.689	-111.094	0.212	-0.044
-710.675	-16.049	-0.145	-0.093
-709.660	31.313	-0.176	0.152
-708.645	53.133	-0.166	-0.159
-707.631	320.953	0.067	-0.128
-706.616	41.625	0.218	-0.198
-705.602	800.000	-0.024	-0.083
-704.587	800.000	0.060	-0.169
-703.572	45.961	0.062	0.057
-702.558	406.177	0.046	0.098
-701.543	27.762	-0.081	0.069
-700.529	68.921	-0.081	0.083
-699.514	188.890	0.149	0.225
-698.499	-74.581	0.249	-0.090
-697.485	282.869	0.057	0.103
-696.470	-200.000	-0.048	0.275
-695.456	-53.392	-0.469	0.216
-694.441	150.967	0.100	0.137
-693.426	-147.331	0.157	-0.013
-692.412	-5.278	0.250	-0.173
-691.397	-200.000	0.057	-0.378
-690.383	-200.000	-0.081	-0.416
-689.368	66.851	-0.257	-0.262
-688.354	-200.000	0.031	0.173
-687.339	800.000	0.107	0.325
-686.324	-22.359	0.222	-0.135
-685.310	-200.000	-0.047	-0.287
-684.295	-86.472	-0.244	-0.075
-683.281	97.108	0.127	-0.146
-682.266	800.000	-0.059	-0.233
-681.251	-11.634	-0.031	-0.021
-680.237	-95.946	0.150	-0.040
-679.222	283.482	0.103	-0.185
-678.208	-149.562	-0.231	0.018
-677.193	-200.000	-0.035	-0.168
-676.178	186.446	-0.147	0.219
-675.164	18.043	0.276	0.220
-674.149	-200.000	0.050	0.246
-673.135	137.804	0.089	0.117
-672.120	-143.800	0.141	0.013
-671.105	250.813	0.064	-0.109
-670.091	382.683	-0.106	-0.218
-669.076	129.987	-0.187	0.240
-668.062	88.639	-0.249	0.278
-667.047	-76.716	-0.188	-0.066
-666.032	468.660	0.078	0.176
-665.018	-200.000	0.018	0.143
-664.003	34.089	-0.060	0.052
-662.989	44.714	0.233	-0.215
-661.974	-186.539	-0.216	-0.003
-660.959	191.029	-0.085	-0.128
-659.945	-85.057	-0.086	0.027
-658.930	800.000	0.092	-0.300
-657.916	4.461	-0.085	-0.062
-656.901	107.693	0.303	-0.362
-655.886	18.677	-0.175	-0.140
-654.872	-18.321	-0.193	-0.121
-653.857	-200.000	-0.030	-0.225
-652.843	-12.128	0.254	-0.167
-651.828	-32.431	-0.260	0.145
-650.814	-200.000	-0.002	-0.212
-649.799	-200.000	0.035	0.156
-648.784	-126.057	-0.564	0.085
-647.770	43.915	0.200	-0.184
-646.755	68.216	-0.210	-0.215
-645.741	41.336	0.180	0.164
-644.726	-53.631	-0.228	-0.104
-643.711	-97.108	-0.108	0.028
-642.697	277.579	-0.093	0.165
-641.682	-137.102	-0.047	0.005
-640.668	66.787	-0.079	0.080
-639.653	8.367	-0.074	-0.056
-638.638	-200.000	-0.024	0.276
-637.624	151.883	0.122	-0.167
-636.609	-89.315	-0.294	-0.087
-635.595	-200.000	-0.060	-0.406
-634.580	-200.000	0.010	-0.091
-633.565	-200.000	-0.015	-0.227
-632.551	21.278	0.239	0.195
-631.536	414.222	-0.081	0.173
-630.522	-200.000	-0.003	0.338
-629.507	-49.167	-0.311	0.149
-628.492	-109.696	-0.233	-0.049
-627.478	203.332	-0.165	0.255
-626.463	0.259	-0.256	0.183
-625.449	-115.765	0.262	0.049
-624.434	7.835	-0.354	-0.266
-623.419	800.000	-0.045	0.141
-622.405	-142.415	-0.517	0.051
-621.390	-138.307	-0.170	-0.019
-620.376	-21.055	0.084	-0.051
-619.361	29.360	0.245	-0.208
-618.346	-14.368	-0.133	0.086
-617.332	112.165	-0.070	0.085
-616.317	-200.000	0.000	0.080
-615.303	251.147	0.107	0.182
-614.288	18.227	-0.079	-0.063
-613.273	232.825	-0.026	0.043
-612.259	-36.966	0.358	-0.192
-611.244	49.024	-0.215	0.202
-610.230	-200.000	-0.033	-0.309
-609.215	-23.814	0.106	0.063
-608.201	800.000	-0.115	-0.398
-607.186	207.230	0.062	-0.097
-606.171	87.588	-0.349	0.386
-605.157	-53.473	0.052	0.024
-604.142	-200.000	-0.005	0.146
-603.128	113.988	0.136	-0.166
-602.113	-200.000	0.001	-0.171
-601.098	44.829	0.271	0.249
-600.084	-200.000	-0.020	-0.240
-599.069	-80.402	0.166	-0.055
-598.055	20.086	0.059	0.048
-597.040	613.793	0.116	-0.292
-596.025	-200.000	-0.017	-0.322
-595.011	-200.000	-0.041	-0.192
-593.996	286.243	-0.126	0.227
-592.982	-200.000	-0.005	-0.207
-591.967	-126.986	-0.151	-0.022
-590.952	679.729	0.124	-0.324
-589.938	80.586	-0.225	0.243
-588.923	-200.000	0.026	0.125
-587.909	-144.363	0.211	0.020
-586.894	28.932	0.242	0.205
-585.879	-162.648	-0.384	0.019
-584.865	-74.277	0.229	0.083
-583.850	-200.000	-0.058	0.262
-582.836	-61.714	0.178	0.075
-581.821	748.451	-0.060	0.162
-580.806	800.000	-0.015	0.042
-579.792	146.903	0.169	-0.228
-578.777	-200.000	0.042	-0.198
-577.763	-89.309	-0.514	-0.151
-576.748	-66.171	0.186	0.074
-575.733	13.963	0.213	0.166
-574.719	-79.620	0.093	-0.031
-573.704	-152.947	0.246	-0.017
-572.690	800.000	-0.053	-0.199
-571.675	13.570	0.172	-0.133
-570.661	775.916	-0.103	0.280
-569.646	102.372	0.064	-0.075
-568.631	-70.630	-0.208	-0.078
-567.617	576.329	-0.116	-0.284
-566.602	29.831	-0.069	0.058
-565.588	-33.270	0.250	-0.139
-564.573	800.000	-0.095	-0.269
-563.558	-200.000	-0.010	-0.240
-562.544	-87.427	-0.270	-0.082
-561.529	-200.000	0.006	-0.140
-560.515	-14.429	0.222	0.142
-559.500	498.760	-0.180	-0.414
-558.485	-9.013	0.072	0.048
-557.471	-200.000	-0.006	0.217
-556.456	73.468	0.057	0.059
-555.442	800.000	-0.064	0.214
-554.427	-200.000	-0.005	0.220
-553.412	-44.578	-0.113	0.057
-552.398	131.947	-0.185	-0.238
-551.383	-73.718	0.066	-0.024
-550.369	-84.403	-0.173	-0.055
-549.354	520.380	0.109	-0.255
-548.339	-200.000	0.061	-0.497
-547.325	95.579	0.136	0.154
-546.310	-42.977	0.109	0.055
-545.296	800.000	0.060	-0.173
-544.281	574.300	0.118	-0.286
-543.266	800.000	0.017	-0.065
-542.252	259.399	0.140	-0.242
-541.237	-138.798	-0.330	0.036
-540.223	63.731	-0.211	-0.211
-539.208	22.899	-0.101	-0.083
-538.193	-83.765	-0.013	-0.004
-537.179	-197.388	0.306	-0.002
-536.164	-45.208	0.360	0.179
-535.150	735.183	0.133	0.356
-534.135	-139.105	-0.147	-0.016
-533.121	800.000	0.108	-0.434
-532.106	-104.005	0.300	0.070
-531.091	-115.581	0.202	-0.038
-530.077	-200.000	0.013	-0.086
-529.062	161.437	0.168	0.234
-528.048	218.592	-0.157	0.251
-527.033	492.747	-0.007	0.017
-526.018	-84.016	-0.177	0.056
-525.004	-200.000	-0.012	-0.184
-523.989	800.000	0.057	0.163
-522.975	94.334	0.224	-0.254
-521.960	-200.000	-0.016	-0.242
-520.945	511.491	0.092	0.215
-519.931	37.438	-0.178	-0.157
-518.916	-200.000	0.039	-0.298
-517.902	-22.020	-0.300	0.182
-516.887	-75.056	0.296	0.106
-515.872	765.596	0.045	-0.121
-514.858	-200.000	0.006	-0.523
-513.843	126.917	-0.128	0.162
-512.829	16.854	-0.110	0.087
-511.814	-84.848	-0.241	-0.076
-510.799	-138.935	-0.140	-0.015
-509.785	-168.990	-0.204	0.008
-508.770	36.694	0.295	0.260
-507.756	-113.263	0.116	-0.023
-506.741	-200.000	-0.003	-0.348
-505.726	54.592	0.103	-0.099
-504.712	-132.574	-0.331	-0.042
-503.697	-72.228	0.334	-0.124
-502.683	800.000	-0.024	-0.084
-501.668	-200.000	-0.028	0.142
-500.653	800.000	-0.023	0.064
-499.639	1.836	-0.074	-0.053
-498.624	800.000	0.054	0.195
-497.610	182.763	-0.067	0.098
-496.595	-200.000	-0.043	0.212
-495.581	-30.546	0.189	0.107
-494.566	-200.000	0.015	0.141
-493.551	-166.772	0.268	0.011
-492.537	-102.627	-0.247	0.059
-491.522	314.378	-0.103	-0.194
-490.508	90.579	-0.224	0.250
-489.493	2.684	-0.141	0.101
-488.478	-138.582	0.193	-0.021
-487.464	-129.225	0.201	0.028
-486.449	201.135	-0.068	-0.104
-485.435	498.487	0.080	-0.183
-484.420	-126.157	0.537	0.080
-483.405	-76.179	0.256	-0.090
-482.391	48.870	-0.224	-0.209
-481.376	-200.000	-0.015	0.317
-480.362	74.281	0.061	0.063
-479.347	800.000	0.107	0.357
-478.332	800.000	0.104	0.357
-477.318	206.917	0.041	0.064
-476.303	537.129	0.119	0.283
-475.289	161.550	-0.162	-0.225
-474.274	-200.000	-0.080	-0.407
-473.259	-97.413	-0.398	0.103
-472.245	96.537	0.071	-0.081
-471.230	-100.144	0.165	-0.041
-470.216	185.857	-0.125	0.185
-469.201	174.324	0.172	-0.247
-468.186	800.000	-0.063	0.223
-467.172	-113.448	0.153	0.030
-466.157	-112.818	0.230	0.045
-465.143	329.800	0.096	-0.184
-464.128	-157.980	0.086	-0.005
-463.113	-200.000	0.043	0.260
-462.099	-120.258	-0.514	0.087
-461.084	-200.000	0.024	-0.286
-460.070	248.270	0.061	0.102
-459.055	-200.000	0.019	0.109
-458.040	4.015	0.094	0.068
-457.026	-41.242	-0.333	-0.171
-456.011	323.176	-0.084	-0.159
-454.997	137.583	0.207	0.269
-453.982	-200.000	0.026	0.251
-452.968	-69.606	0.442	0.168
-451.953	-200.000	-0.003	-0.496
-450.938	231.155	-0.087	-0.143
-449.924	53.583	0.089	0.085
-448.909	333.904	0.103	0.198
-447.895	481.334	0.154	-0.348
-446.880	-153.536	0.141	0.010
-445.865	64.786	-0.151	0.152
-444.851	61.739	-0.027	0.027
-443.836	209.650	0.077	0.120
-442.822	98.793	-0.166	-0.190
-441.807	40.686	-0.392	0.351
-440.792	-21.788	-0.172	0.104
-439.778	188.464	0.217	-0.322
-438.763	-91.833	-0.308	0.087
-437.749	-11.848	0.008	0.005
-436.734	-200.000	0.008	0.046
-435.719	63.899	0.099	-0.099
-434.705	-92.456	-0.123	0.035
-433.690	-113.634	-0.100	0.019
-432.676	297.206	-0.122	-0.223
-431.661	800.000	-0.159	-0.518
-430.646	233.984	0.127	0.209
-429.632	-110.444	-0.084	-0.017
-428.617	542.219	-0.079	0.187
-427.603	74.800	-0.178	-0.187
-426.588	-151.681	-0.070	0.005
-425.573	-14.614	-0.323	-0.207
-424.559	-200.000	0.009	-0.086
-423.544	-166.297	0.167	0.007
-422.530	-200.000	0.033	-0.314
-421.515	-66.924	-0.408	0.160
-420.500	-59.643	0.180	-0.077
-419.486	453.403	0.132	-0.289
-418.471	-51.321	0.246	-0.114
-417.457	409.470	-0.020	-0.041
-416.442	-5.827	0.296	0.201
-415.428	31.222	0.227	-0.194
-414.413	632.565	0.004	0.011
-413.398	-200.000	0.018	0.105
-412.384	-19.529	-0.300	0.184
-411.369	-140.988	-0.301	0.031
-410.355	69.315	-0.200	0.204
-409.340	-200.000	-0.026	-0.318
-408.325	-32.864	-0.274	0.151
-407.311	23.436	0.119	-0.097
-406.296	-200.000	-0.011	-0.113
-405.282	447.158	0.097	0.212
-404.267	-69.193	0.236	-0.090
-403.252	-69.523	0.254	0.097
-402.238	-112.518	-0.260	0.051
-401.223	73.659	0.302	-0.314
-400.209	-200.000	-0.022	-0.147
-399.194	800.000	0.041	-0.168
-398.179	-120.195	-0.182	0.031
-397.165	555.392	-0.130	0.311
-396.150	214.834	0.024	0.038
-395.136	-120.565	0.214	-0.036
-394.121	19.352	0.184	0.146
-393.106	43.941	0.118	0.108
-392.092	136.410	-0.063	0.082
-391.077	238.350	0.081	0.134
-390.063	-68.160	-0.147	0.057
-389.048	-200.000	0.047	0.308
-388.033	451.157	-0.063	0.138
-387.019	800.000	-0.102	-0.330
-386.004	-200.000	-0.060	-0.440
-384.990	227.960	-0.118	0.191
-383.975	663.674	0.050	0.128
-382.960	-93.727	0.104	-0.028
-381.946	-110.792	-0.108	-0.022
-380.931	800.000	0.028	0.106
-379.917	69.225	-0.149	0.152
-378.902	-200.000	0.014	0.236
-377.888	-96.071	0.134	0.035
-376.873	678.567	-0.076	0.195
-375.858	-65.558	0.094	-0.037
-374.844	800.000	-0.047	-0.161
-373.829	800.000	-0.046	-0.142
-372.815	392.372	0.136	-0.280
-371.800	-15.416	0.079	0.050
-370.785	-164.747	0.107	0.005
-369.771	-113.320	-0.135	0.026
-368.756	389.627	0.060	-0.123
-367.742	-140.180	-0.137	-0.014
-366.727	800.000	0.144	-0.566
-365.712	-141.422	-0.060	0.006
-364.698	-84.507	-0.265	0.083
-363.683	202.347	-0.231	0.354
-362.669	-41.212	-0.149	0.076
-361.654	48.677	-0.235	0.218
-360.639	400.745	0.107	0.223
-359.625	115.935	0.258	-0.313
-358.610	800.000	-0.070	-0.226
-357.596	-187.594	-0.139	0.002
-356.581	800.000	-0.021	-0.084
-355.566	-99.238	-0.453	0.113
-354.552	-200.000	-0.002	-0.113
-353.537	105.419	-0.114	-0.133
-352.523	-89.779	0.240	-0.069
-351.508	10.216	-0.229	-0.172
-350.493	49.424	0.137	-0.128
-349.479	412.923	-0.182	-0.382
-348.464	-200.000	-0.058	-0.346
-347.450	548.709	-0.078	-0.185
-346.435	-131.531	0.203	0.026
-345.420	800.000	0.082	-0.342
-344.406	288.456	0.185	0.332
-343.391	37.903	-0.182	-0.160
-342.377	-121.378	-0.162	0.027
-341.362	-200.000	0.019	0.109
-340.348	40.963	-0.127	0.113
-339.333	-36.997	-0.209	-0.111
-338.318	25.223	-0.259	-0.213
-337.304	-108.416	-0.285	-0.061
-336.289	-87.850	-0.307	0.091
-335.275	-110.648	-0.203	0.042
-334.260	59.033	0.110	0.107
-333.245	177.371	0.076	0.109
-332.231	133.900	0.143	0.183
-331.216	-200.000	-0.065	0.318
-330.202	-43.721	-0.521	0.260
-329.187	1.692	0.097	0.069
-328.172	662.510	-0.080	-0.203
-327.158	-28.104	-0.158	-0.091
-326.143	-58.701	0.366	-0.157
-325.129	-200.000	0.004	-0.046
-324.114	-129.349	-0.058	-0.008
-323.099	87.636	0.149	0.163
-322.085	-159.611	-0.113	-0.006
-321.070	5.861	0.140	-0.103
-320.056	-119.969	-0.142	-0.024
-319.041	17.101	0.180	-0.141
-318.026	800.000	0.006	0.017
-317.012	-33.361	0.158	0.086
-315.997	800.000	0.115	0.453
-314.983	-144.303	-0.285	-0.026
-313.968	396.497	0.203	0.419
-312.953	-200.000	-0.005	0.253
-311.939	-200.000	-0.004	-0.335
-310.924	-65.202	0.354	-0.141
-309.910	-200.000	-0.009	-0.201
-308.895	-106.713	0.119	-0.026
-307.880	81.659	-0.223	-0.238
-306.866	487.917	0.174	-0.393
-305.851	-113.161	0.290	0.057
-304.837	122.744	0.086	0.106
-303.822	143.217	0.134	0.176
-302.807	-177.049	-0.112	-0.003
-301.793	-52.063	0.172	-0.079
-300.778	-200.000	-0.067	-0.378
-299.764	33.327	0.184	-0.158
-298.749	800.000	-0.060	0.170
-297.735	34.414	0.339	0.292
-296.720	-200.000	0.012	0.057
-295.705	-200.000	-0.012	-0.054
-294.691	209.971	0.051	-0.079
-293.676	-192.361	0.193	0.002
-292.662	56.232	-0.122	0.117
-291.647	44.406	0.194	0.176
-290.632	800.000	0.076	0.235
-289.618	15.195	0.263	-0.204
-288.603	155.050	-0.093	0.127
-287.589	438.590	0.027	-0.057
-286.574	424.719	-0.154	0.327
-285.559	-89.154	0.086	0.025
-284.545	540.258	0.099	0.233
-283.530	-46.046	0.115	0.056
-282.516	328.174	-0.251	0.475
-281.501	21.356	-0.339	0.273
-280.486	-95.665	-0.139	-0.037
-279.472	-200.000	0.022	-0.416
-278.457	-112.661	-0.362	-0.071
-277.443	-67.955	-0.164	0.063
-276.428	-106.181	-0.075	0.017
-275.413	-151.950	0.366	-0.026
-274.399	-36.902	0.116	-0.061
-273.384	-136.986	0.167	-0.019
-272.370	800.000	-0.014	-0.043
-271.355	71.477	0.232	0.238
-270.340	165.737	-0.109	-0.153
-269.326	30.811	0.236	-0.200
-268.311	-42.484	-0.228	0.115
-267.297	-69.095	0.095	0.036
-266.282	-200.000	-0.027	0.290
-265.267	223.217	-0.133	0.211
-264.253	418.228	0.037	-0.079
-263.238	-200.000	-0.001	-0.265
-262.224	212.626	-0.083	-0.129
-261.209	389.555	0.118	0.240
-260.195	16.347	0.106	0.083
-259.180	800.000	0.092	-0.311
-258.165	800.000	0.051	-0.198
-257.151	201.410	-0.167	0.255
-256.136	-200.000	0.005	0.254
-255.122	-200.000	-0.066	-0.489
-254.107	-108.298	0.268	-0.057
-253.092	71.256	-0.253	0.259
-252.078	208.408	0.050	0.077
-251.063	-108.766	0.150	-0.032
-250.049	-146.787	0.189	0.016
-249.034	6.265	-0.246	0.180
-248.019	-3.266	-0.225	-0.154
-247.005	-133.780	-0.068	-0.008
-245.990	135.661	0.199	0.255
-244.976	-39.996	-0.206	0.106
-243.961	-200.000	0.028	-0.245
-242.946	-200.000	0.018	-0.144
-241.932	-87.535	0.390	-0.116
-240.917	-61.295	0.217	-0.090
-239.903	-200.000	0.003	0.101
-238.888	42.570	-0.070	0.063
-237.873	-200.000	0.009	0.302
-236.859	800.000	0.172	0.494
-235.844	-200.000	0.033	0.362
-234.830	49.341	-0.157	0.146
-233.815	-112.419	-0.227	0.045
-232.800	-86.945	0.240	-0.072
-231.786	-124.551	0.229	-0.035
-230.771	148.174	0.114	0.152
-229.757	78.384	0.164	-0.173
-228.742	15.294	0.127	-0.099
-227.727	-63.251	0.150	0.061
-226.713	-134.053	-0.338	-0.041
-225.698	446.879	-0.043	-0.093
-224.684	800.000	0.024	-0.082
-223.669	134.134	0.310	-0.396
-222.655	-76.903	-0.127	0.044
-221.640	412.112	0.057	-0.119
-220.625	186.254	0.060	0.088
-219.611	643.645	0.060	0.150
-218.596	-54.672	0.064	0.029
-217.582	-200.000	0.022	-0.243
-216.567	798.636	0.076	0.208
-215.552	-53.981	0.167	-0.075
-214.538	2.529	0.127	0.090
-213.523	-7.997	0.138	0.092
-212.509	800.000	-0.037	-0.107
-211.494	-130.653	0.110	-0.015
-210.479	-200.000	0.001	-0.005
-209.465	-69.427	-0.248	-0.094
-208.450	-161.307	0.329	0.017
-207.436	-200.000	-0.012	0.168
-206.421	50.363	-0.176	0.164
-205.406	108.426	-0.068	0.080
-204.392	509.697	0.083	0.189
-203.377	-33.381	0.105	-0.057
-202.363	-147.781	-0.303	0.025
-201.348	23.759	-0.113	-0.092
-200.333	580.880	0.100	-0.242
-199.319	800.000	0.008	-0.022
-198.304	56.956	-0.250	-0.240
-197.290	-118.269	0.083	0.015
-196.275	-200.000	-0.008	0.277
-195.260	-134.890	0.197	0.024
-194.246	579.184	-0.041	0.099
-193.231	180.976	-0.107	-0.155
-192.217	-9.623	0.020	-0.013
-191.202	281.430	0.084	0.148
-190.187	-47.612	-0.347	0.166
-189.173	-200.000	-0.096	0.514
-188.158	18.068	-0.071	-0.056
-187.144	28.878	0.020	-0.017
-186.129	-109.008	0.250	-0.053
-185.114	-121.813	0.155	0.025
-184.100	137.879	-0.079	0.102
-183.085	-43.874	-0.288	0.143
-182.071	-179.649	0.340	-0.007
-181.056	-110.600	0.192	-0.039
-180.042	200.490	-0.101	-0.152
-179.027	-36.711	0.273	-0.144
-178.012	-200.000	0.032	0.527
-176.998	-77.839	0.320	0.109
-175.983	-200.000	-0.011	-0.092
-174.969	73.764	-0.174	-0.179
-173.954	-86.399	0.211	-0.064
-172.939	11.168	0.225	-0.169
-171.925	-200.000	-0.008	-0.064
-170.910	60.628	0.125	-0.121
-169.896	-200.000	0.027	0.205
-168.881	-97.421	-0.206	0.053
-167.866	-57.888	0.156	0.067
-166.852	-39.678	-0.135	0.070
-165.837	800.000	0.031	0.112
-164.823	98.292	-0.077	0.088
-163.808	21.898	0.018	0.015
-162.793	-66.438	-0.444	0.174
-161.779	-24.776	0.100	0.059
-160.764	-192.864	-0.171	0.002
-159.750	800.000	0.061	0.240
-158.735	-200.000	0.020	-0.214
-157.720	-200.000	-0.002	0.230
-156.706	-135.075	0.037	-0.004
-155.691	-84.572	-0.104	-0.032
-154.677	80.752	-0.049	-0.051
-153.662	64.568	-0.192	0.190
-152.647	28.302	0.130	0.108
-151.633	-45.696	0.298	-0.145
-150.618	703.279	0.145	-0.376
-149.604	800.000	0.065	-0.213
-148.589	22.482	0.175	-0.141
-147.574	-54.434	-0.316	0.141
-146.560	270.517	-0.032	0.056
-145.545	-127.341	0.345	0.049
-144.531	800.000	0.020	-0.061
-143.516	-31.369	0.280	0.155
-142.502	-200.000	0.369	0.001
-141.487	-19.860	0.306	0.186
-140.472	-133.863	-0.248	-0.030
-139.458	-138.581	-0.057	0.006
-138.443	-200.000	0.021	-0.266
-137.429	68.184	-0.112	0.112
-136.414	25.931	-0.136	0.112
-135.399	-86.126	0.262	-0.079
-134.385	167.137	0.309	0.431
-133.370	-200.000	-0.008	0.156
-132.356	800.000	0.172	0.533
-131.341	-47.097	-0.139	-0.067
-130.326	-200.000	0.009	-0.133
-129.312	17.136	-0.251	0.195
-128.297	-200.000	-0.020	-0.100
-127.283	-200.000	0.032	-0.155
-126.268	-45.335	-0.203	-0.099
-125.253	-45.631	0.178	-0.086
-124.239	-55.956	0.171	-0.075
-123.224	-163.251	0.145	-0.007
-122.210	698.813	-0.034	0.089
-121.195	-200.000	-0.020	0.152
