DTS Sentinel unit serial number:	SN413079Multiplexer serial number:	ORYXHardware model number:	OX4-SRSoftware version number:	ORYX F/W v4.00 Oryx Data Collector v3.7.2.0data status	okinstallation	princeton_trtdifferential loss correction	single-endedforward channel	channel 1reverse channel	N/Adate	2019/09/15time	07:46:35forward acquisition time	60.00reverse acquisition time	0.00gamma	496.2192k internal	0.2325k external	0.2325temperature offset calibration	1.0002default loss term (dB/km)	0.3790temperature slope calibration	1.0000multiplexer offset coefficient	1.0000multiplexer slope coefficient	1.0000fibre end	0.00T internal ref (°C)	30.67T ext. ref 1 (°C)	4.98T ext. ref 2 (°C)	25.78length (m)	temperature (°C)	Stokes	anti-Stokes-747.200	-39.720	0.071	-0.037
-746.185	-19.850	0.186	0.116
-745.171	-101.331	0.468	0.115
-744.156	800.000	-0.074	0.215
-743.142	800.000	0.143	-0.405
-742.127	800.000	-0.013	0.050
-741.112	264.217	0.077	-0.136
-740.098	-200.000	0.010	0.140
-739.083	30.643	0.202	-0.174
-738.069	-200.000	0.004	0.364
-737.054	-200.000	-0.004	0.042
-736.039	209.005	0.035	-0.056
-735.025	-2.824	0.095	0.067
-734.010	28.216	-0.136	-0.116
-732.996	-82.221	-0.218	0.071
-731.981	-29.086	-0.279	0.161
-730.966	800.000	0.032	0.125
-729.952	10.813	0.098	0.076
-728.937	12.447	-0.249	-0.194
-727.923	-26.603	-0.134	0.079
-726.908	-136.506	-0.286	0.033
-725.894	112.289	-0.096	-0.117
-724.879	-200.000	-0.035	0.178
-723.864	699.841	0.047	-0.126
-722.850	31.523	0.047	0.041
-721.835	-82.116	-0.239	-0.078
-720.821	-166.694	0.020	0.001
-719.806	106.875	-0.166	-0.199
-718.791	36.373	-0.164	-0.146
-717.777	-9.648	-0.238	0.160
-716.762	-200.000	0.014	0.104
-715.748	-56.378	0.105	-0.047
-714.733	-15.301	-0.176	0.114
-713.718	293.769	-0.188	0.345
-712.704	22.876	0.055	0.046
-711.689	-200.000	0.005	-0.056
-710.675	22.331	0.161	0.133
-709.660	-53.175	-0.107	0.050
-708.645	-128.805	-0.359	0.051
-707.631	84.283	0.171	-0.189
-706.616	200.842	-0.154	-0.239
-705.602	21.550	-0.099	0.081
-704.587	117.197	0.213	-0.264
-703.572	-22.592	0.013	-0.008
-702.558	40.729	0.154	-0.140
-701.543	800.000	-0.077	-0.277
-700.529	18.992	0.348	-0.281
-699.514	-156.345	-0.311	0.020
-698.499	112.528	0.240	0.293
-697.485	-96.591	0.235	0.062
-696.470	-92.220	-0.087	0.025
-695.456	-45.284	0.144	0.072
-694.441	53.239	0.075	-0.073
-693.426	194.710	-0.192	0.294
-692.412	262.417	0.084	0.147
-691.397	410.621	-0.172	0.368
-690.383	-78.541	0.162	0.056
-689.368	527.668	0.036	-0.084
-688.354	-200.000	0.010	0.260
-687.339	106.927	0.153	-0.183
-686.324	189.753	-0.116	0.175
-685.310	746.101	0.059	-0.160
-684.295	435.669	0.029	-0.063
-683.281	800.000	-0.085	0.299
-682.266	88.737	0.146	0.163
-681.251	-200.000	0.003	0.043
-680.237	800.000	0.059	0.217
-679.222	374.402	-0.077	-0.158
-678.208	492.291	0.010	-0.022
-677.193	-155.843	-0.045	0.003
-676.178	-200.000	-0.025	0.126
-675.164	-18.082	-0.161	-0.102
-674.149	-74.773	-0.087	0.031
-673.135	221.251	0.022	0.036
-672.120	2.571	0.113	0.082
-671.105	-200.000	-0.052	0.262
-670.091	-200.000	-0.026	0.275
-669.076	581.083	0.103	-0.255
-668.062	10.236	-0.200	0.153
-667.047	800.000	-0.037	-0.138
-666.032	-200.000	0.021	0.301
-665.018	-152.149	0.304	-0.022
-664.003	800.000	0.027	0.077
-662.989	-163.829	-0.206	0.010
-661.974	232.891	-0.030	0.049
-660.959	428.318	0.071	-0.155
-659.945	-125.428	0.160	0.025
-658.930	-200.000	0.023	0.229
-657.916	800.000	-0.122	0.390
-656.901	766.980	0.209	0.571
-655.886	800.000	-0.110	0.313
-654.872	53.997	0.068	0.066
-653.857	124.333	0.160	0.202
-652.843	-9.183	-0.063	-0.042
-651.828	277.224	0.071	-0.127
-650.814	174.639	0.175	-0.254
-649.799	263.800	-0.069	-0.121
-648.784	-128.317	0.030	-0.004
-647.770	23.531	0.141	-0.117
-646.755	183.820	0.109	-0.163
-645.741	800.000	-0.089	-0.317
-644.726	-76.910	0.213	0.075
-643.711	232.021	0.124	-0.204
-642.697	-200.000	0.079	-0.423
-641.682	-161.649	0.083	0.004
-640.668	-149.832	0.361	-0.028
-639.653	-88.380	-0.207	-0.062
-638.638	-200.000	-0.087	0.522
-637.624	-200.000	0.032	0.314
-636.609	-2.057	0.178	-0.125
-635.595	-39.628	0.302	0.159
-634.580	-200.000	-0.020	0.137
-633.565	-126.242	-0.186	-0.028
-632.551	120.291	-0.071	-0.089
-631.536	800.000	0.079	-0.274
-630.522	-106.366	0.166	0.037
-629.507	-33.787	-0.070	-0.039
-628.492	-26.257	-0.137	0.081
-627.478	-18.488	-0.107	0.067
-626.463	800.000	0.031	0.134
-625.449	133.944	-0.087	0.113
-624.434	-8.759	-0.215	-0.145
-623.419	632.921	-0.130	-0.331
-622.405	-200.000	0.007	-0.111
-621.390	800.000	-0.085	0.299
-620.376	-23.472	-0.209	-0.126
-619.361	114.945	0.047	-0.057
-618.346	800.000	-0.112	0.323
-617.332	-4.357	-0.170	0.118
-616.317	160.681	0.173	0.242
-615.303	132.583	0.020	-0.026
-614.288	443.956	0.152	-0.334
-613.273	308.991	0.087	-0.163
-612.259	-77.153	-0.287	0.100
-611.244	-108.841	0.249	0.054
-610.230	-162.622	-0.283	0.014
-609.215	-74.991	0.187	-0.067
-608.201	97.822	-0.056	-0.065
-607.186	-58.772	0.132	0.058
-606.171	-110.535	-0.336	0.070
-605.157	33.404	-0.259	0.225
-604.142	-137.833	0.105	-0.012
-603.128	-119.996	0.192	-0.033
-602.113	6.493	-0.255	0.190
-601.098	1.116	-0.357	0.257
-600.084	-109.500	0.235	0.050
-599.069	-200.000	-0.013	-0.132
-598.055	-200.000	0.054	0.258
-597.040	-186.141	0.168	0.002
-596.025	-77.908	0.122	-0.042
-595.011	-191.333	-0.126	0.001
-593.996	-138.019	0.182	0.020
-592.982	508.234	0.098	-0.228
-591.967	157.013	-0.158	0.220
-590.952	408.626	-0.145	-0.308
-589.938	-145.032	0.154	-0.014
-588.923	-200.000	-0.017	-0.091
-587.909	-28.456	0.153	0.088
-586.894	15.781	0.280	0.221
-585.879	800.000	-0.052	0.229
-584.865	63.982	0.291	0.294
-583.850	121.069	-0.267	0.333
-582.836	-200.000	-0.005	-0.061
-581.821	12.324	-0.093	-0.072
-580.806	318.720	0.056	0.106
-579.792	106.814	-0.119	0.141
-578.777	550.566	-0.115	0.276
-577.763	-200.000	0.017	-0.104
-576.748	57.333	0.108	0.106
-575.733	-200.000	-0.011	0.057
-574.719	800.000	0.033	-0.110
-573.704	-200.000	0.028	0.243
-572.690	-200.000	0.070	-0.312
-571.675	19.369	0.248	-0.199
-570.661	800.000	0.039	-0.157
-569.646	-83.227	-0.255	-0.082
-568.631	-26.805	-0.174	0.102
-567.617	800.000	0.031	0.099
-566.602	3.065	0.221	0.161
-565.588	260.833	-0.082	0.142
-564.573	283.528	0.159	0.286
-563.558	800.000	-0.113	0.324
-562.544	303.106	0.087	-0.162
-561.529	-9.256	-0.189	-0.126
-560.515	-12.641	-0.107	0.070
-559.500	329.391	-0.073	-0.141
-558.485	-157.066	-0.194	0.012
-557.471	202.850	-0.058	-0.089
-556.456	-155.064	0.313	0.021
-555.442	224.233	0.170	0.275
-554.427	-74.094	-0.356	-0.129
-553.412	137.089	-0.105	0.137
-552.398	-89.499	-0.309	0.091
-551.383	61.736	-0.219	0.219
-550.369	-200.000	0.027	-0.146
-549.354	25.398	-0.157	-0.130
-548.339	166.780	-0.070	-0.100
-547.325	-128.171	0.264	-0.038
-546.310	109.747	-0.165	-0.198
-545.296	-200.000	-0.008	-0.054
-544.281	-200.000	0.014	0.066
-543.266	-64.145	-0.198	-0.081
-542.252	-41.283	-0.194	-0.100
-541.237	-62.739	-0.185	0.077
-540.223	148.852	-0.184	0.249
-539.208	16.732	-0.119	0.094
-538.193	800.000	0.058	0.252
-537.179	-99.709	0.024	0.006
-536.164	-83.815	-0.351	-0.112
-535.150	23.407	-0.060	0.050
-534.135	-66.810	-0.245	-0.097
-533.121	92.426	-0.291	0.328
-532.106	-20.476	-0.099	0.061
-531.091	341.675	-0.082	-0.161
-530.077	-14.519	-0.075	0.048
-529.062	-96.541	-0.234	-0.062
-528.048	527.320	-0.247	0.582
-527.033	-200.000	0.001	0.142
-526.018	19.434	0.153	-0.123
-525.004	800.000	0.054	-0.227
-523.989	165.911	0.123	-0.174
-522.975	-200.000	0.014	-0.109
-521.960	-20.074	0.352	0.217
-520.945	-57.521	0.227	0.100
-519.931	-102.735	0.298	-0.071
-518.916	413.998	0.177	0.376
-517.902	28.819	0.071	0.060
-516.887	800.000	-0.094	0.336
-515.872	-200.000	-0.025	-0.141
-514.858	163.352	-0.092	-0.130
-513.843	-62.425	-0.341	-0.142
-512.829	40.552	0.179	-0.162
-511.814	490.347	0.090	0.206
-510.799	-101.335	0.223	0.055
-509.785	-61.438	0.195	0.082
-508.770	-18.286	-0.337	0.211
-507.756	76.940	0.085	0.091
-506.741	800.000	0.050	-0.167
-505.726	-42.479	-0.050	0.025
-504.712	-68.005	-0.069	0.027
-503.697	-146.578	0.181	0.016
-502.683	-15.738	-0.047	0.030
-501.668	-200.000	0.048	0.329
-500.653	754.846	-0.173	-0.466
-499.639	137.904	-0.157	-0.205
-498.624	800.000	0.127	-0.397
-497.610	88.475	-0.178	-0.198
-496.595	425.086	-0.047	0.102
-495.581	-200.000	0.017	0.212
-494.566	-108.417	-0.209	-0.045
-493.551	-45.834	0.033	0.016
-492.537	263.566	-0.153	0.265
-491.522	-200.000	-0.010	-0.399
-490.508	800.000	0.104	-0.295
-489.493	-200.000	0.020	-0.203
-488.478	74.311	0.105	-0.111
-487.464	-123.805	0.295	0.047
-486.449	57.363	0.308	0.301
-485.435	800.000	0.063	-0.178
-484.420	581.901	-0.073	0.180
-483.405	-55.588	0.136	-0.061
-482.391	-119.471	0.070	-0.012
-481.376	144.833	-0.136	-0.181
-480.362	800.000	-0.093	0.314
-479.347	49.287	0.079	0.074
-478.332	200.900	0.055	0.085
-477.318	-114.164	-0.153	-0.029
-476.303	118.445	-0.055	-0.068
-475.289	-113.863	0.083	-0.016
-474.274	600.080	0.056	0.138
-473.259	-81.357	0.213	0.070
-472.245	-54.141	-0.109	-0.050
-471.230	-42.477	0.079	-0.040
-470.216	70.052	0.060	-0.061
-469.201	-125.575	-0.340	0.052
-468.186	-200.000	0.062	-0.672
-467.172	359.119	0.128	-0.255
-466.157	-124.235	-0.285	0.045
-465.143	-25.955	-0.061	-0.036
-464.128	-200.000	-0.025	-0.406
-463.113	238.476	-0.069	0.114
-462.099	282.375	0.119	0.213
-461.084	-200.000	-0.004	-0.238
-460.070	-62.820	0.397	0.164
-459.055	-12.863	0.253	0.165
-458.040	258.818	-0.123	-0.211
-457.026	-78.376	-0.062	0.021
-456.011	-125.122	0.149	0.023
-454.997	800.000	-0.030	-0.106
-453.982	-8.825	-0.202	0.135
-452.968	-146.091	0.373	-0.033
-451.953	-157.934	0.400	-0.024
-450.938	800.000	-0.015	-0.054
-449.924	800.000	-0.075	-0.223
-448.909	-190.068	-0.169	0.002
-447.895	28.832	0.164	-0.138
-446.880	62.939	-0.197	0.197
-445.865	24.415	-0.077	-0.063
-444.851	59.048	0.141	-0.138
-443.836	11.730	-0.390	-0.298
-442.822	675.720	0.043	0.112
-441.807	-39.464	-0.160	-0.084
-440.792	289.473	0.121	0.219
-439.778	12.693	-0.235	-0.181
-438.763	-18.156	-0.303	-0.189
-437.749	33.367	-0.140	-0.121
-436.734	-123.663	0.044	0.007
-435.719	-200.000	-0.123	0.000
-434.705	194.059	-0.014	0.021
-433.690	81.261	0.112	-0.121
-432.676	83.282	-0.110	-0.120
-431.661	-200.000	-0.034	0.151
-430.646	69.582	0.247	0.254
-429.632	-77.782	-0.670	-0.231
-428.617	-120.682	0.195	-0.033
-427.603	800.000	0.091	-0.259
-426.588	358.896	0.089	-0.177
-425.573	-55.669	0.118	0.053
-424.559	-76.623	0.243	-0.085
-423.544	145.677	-0.051	0.068
-422.530	-69.723	0.107	0.041
-421.515	800.000	-0.049	-0.148
-420.500	800.000	-0.166	0.524
-419.486	321.558	0.135	-0.256
-418.471	-107.259	-0.193	0.042
-417.457	22.720	-0.231	-0.189
-416.442	633.327	0.069	0.175
-415.428	585.779	-0.030	0.075
-414.413	86.168	0.150	-0.165
-413.398	102.661	-0.102	-0.118
-412.384	-166.164	0.191	-0.008
-411.369	299.446	0.035	0.064
-410.355	26.275	-0.218	0.181
-409.340	-80.997	-0.119	-0.039
-408.325	-93.527	0.145	0.040
-407.311	200.013	-0.108	0.166
-406.296	-156.584	-0.270	-0.017
-405.282	246.058	-0.093	-0.156
-404.267	12.056	0.142	-0.109
-403.252	49.563	0.340	0.319
-402.238	248.097	-0.034	0.058
-401.223	37.720	0.278	0.246
-400.209	-36.018	0.263	-0.142
-399.194	136.285	-0.049	-0.063
-398.179	-139.588	-0.609	0.065
-397.165	800.000	0.085	0.234
-396.150	-200.000	0.027	-0.148
-395.136	14.395	0.110	0.085
-394.121	-114.768	0.495	-0.094
-393.106	696.141	-0.135	-0.353
-392.092	-7.094	-0.082	-0.055
-391.077	-200.000	-0.007	-0.411
-390.063	708.733	0.138	0.364
-389.048	185.844	-0.209	0.310
-388.033	-116.057	-0.092	-0.017
-387.019	405.677	0.080	-0.169
-386.004	436.745	-0.064	0.139
-384.990	-70.149	0.342	-0.129
-383.975	-13.186	-0.264	-0.171
-382.960	-130.491	-0.299	-0.040
-381.946	-200.000	0.050	-0.255
-380.931	171.277	-0.103	0.147
-379.917	-168.864	0.081	-0.003
-378.902	249.656	0.049	0.082
-377.888	470.290	0.088	-0.197
-376.873	257.631	0.169	0.289
-375.858	-70.230	0.307	0.116
-374.844	188.126	-0.069	0.103
-373.829	-41.726	-0.217	-0.111
-372.815	686.629	0.107	0.278
-371.800	-69.105	-0.169	0.065
-370.785	-93.021	0.247	-0.069
-369.771	-135.714	0.201	0.024
-368.756	-200.000	-0.008	0.119
-367.742	-64.850	-0.085	0.034
-366.727	-118.399	-0.215	-0.038
-365.712	54.907	-0.056	0.054
-364.698	204.156	0.166	0.255
-363.683	-200.000	0.030	-0.157
-362.669	-85.510	0.219	0.068
-361.654	-200.000	0.050	-0.242
-360.639	-200.000	-0.006	-0.463
-359.625	-23.572	0.321	-0.192
-358.610	105.790	-0.064	0.075
-357.596	42.877	0.176	0.159
-356.581	-200.000	0.016	0.081
-355.566	366.334	0.068	-0.136
-354.552	-149.488	0.143	-0.011
-353.537	264.234	-0.067	-0.116
-352.523	415.136	0.037	-0.079
-351.508	342.797	0.092	0.178
-350.493	800.000	0.141	-0.551
-349.479	-26.271	0.191	0.112
-348.464	-2.117	-0.256	0.179
-347.450	800.000	0.082	0.347
-346.435	59.581	-0.152	-0.149
-345.420	-31.379	-0.152	0.085
-344.406	800.000	-0.036	-0.122
-343.391	10.601	-0.260	-0.197
-342.377	434.477	-0.157	-0.339
-341.362	700.337	0.110	0.288
-340.348	-200.000	0.015	-0.134
-339.333	65.033	0.097	-0.097
-338.318	138.706	0.043	0.056
-337.304	24.971	0.118	-0.097
-336.289	-114.006	0.135	-0.026
-335.275	-55.546	0.258	0.115
-334.260	105.275	0.156	0.183
-333.245	-22.156	-0.134	-0.081
-332.231	188.406	-0.082	-0.122
-331.216	87.203	0.222	0.244
-330.202	-156.494	-0.206	-0.013
-329.187	624.471	-0.098	-0.245
-328.172	-56.140	0.288	0.127
-327.158	95.898	-0.173	-0.196
-326.143	-46.931	-0.189	0.091
-325.129	-134.147	-0.255	0.031
-324.114	800.000	0.059	0.174
-323.099	-32.136	0.111	0.062
-322.085	800.000	0.051	-0.216
-321.070	104.184	-0.192	0.224
-320.056	-71.636	0.116	0.043
-319.041	704.783	0.096	-0.251
-318.026	-98.884	0.199	0.050
-317.012	-200.000	-0.042	0.241
-315.997	615.462	-0.035	-0.087
-314.983	-65.210	0.115	-0.046
-313.968	-8.030	0.089	-0.059
-312.953	683.893	-0.073	0.189
-311.939	86.858	-0.249	-0.273
-310.924	-55.456	-0.294	-0.131
-309.910	119.381	0.092	0.113
-308.895	404.283	-0.102	-0.214
-307.880	33.023	0.164	0.141
-306.866	-41.256	0.178	-0.091
-305.851	-200.000	0.025	0.156
-304.837	-162.438	-0.357	-0.018
-303.822	145.903	-0.043	0.057
-302.807	-59.040	-0.222	-0.095
-301.793	-47.862	0.297	-0.143
-300.778	376.337	-0.054	-0.109
-299.764	-200.000	-0.008	-0.183
-298.749	-71.003	0.370	0.138
-297.735	213.070	0.083	0.131
-296.720	508.624	0.035	-0.080
-295.705	121.814	-0.100	-0.123
-294.691	-19.054	-0.175	-0.108
-293.676	591.984	-0.095	0.233
-292.662	73.078	0.181	-0.188
-291.647	-80.351	0.172	-0.057
-290.632	-17.326	0.208	0.130
-289.618	60.848	0.157	-0.154
-288.603	-168.986	0.299	0.011
-287.589	404.676	0.025	0.053
-286.574	-200.000	0.021	0.103
-285.559	213.155	0.129	-0.202
-284.545	-14.376	-0.025	0.016
-283.530	-26.040	-0.308	-0.179
-282.516	800.000	-0.076	0.213
-281.501	585.029	-0.120	0.293
-280.486	604.709	-0.212	0.522
-279.472	14.878	0.252	0.195
-278.457	335.535	0.113	0.216
-277.443	-200.000	0.061	0.347
-276.428	-200.000	-0.049	-0.266
-275.413	-156.780	-0.230	-0.014
-274.399	374.576	-0.142	0.287
-273.384	-86.982	-0.231	-0.070
-272.370	-102.727	-0.307	-0.072
-271.355	-94.694	-0.131	0.035
-270.340	-36.023	0.250	-0.134
-269.326	321.968	-0.152	-0.286
-268.311	-71.778	-0.333	-0.123
-267.297	-200.000	0.011	-0.195
-266.282	81.253	0.256	0.273
-265.267	288.397	0.113	0.202
-264.253	362.732	0.039	-0.077
-263.238	457.530	-0.065	0.143
-262.224	800.000	0.077	0.216
-261.209	215.031	-0.063	0.098
-260.195	130.391	-0.193	0.245
-259.180	800.000	-0.041	0.170
-258.165	55.057	-0.342	0.327
-257.151	229.487	0.135	0.217
-256.136	-12.216	-0.374	-0.242
-255.122	123.251	0.136	-0.169
-254.107	-12.185	-0.193	0.125
-253.092	-103.062	-0.183	0.043
-252.078	-200.000	-0.006	-0.428
-251.063	-3.704	-0.024	-0.017
-250.049	8.056	-0.086	-0.064
-249.034	-33.485	0.267	-0.146
-248.019	-200.000	-0.041	-0.384
-247.005	-72.132	0.149	-0.055
-245.990	800.000	0.116	-0.354
-244.976	-200.000	-0.025	-0.124
-243.961	360.872	0.101	-0.200
-242.946	109.853	0.125	-0.148
-241.932	257.877	0.082	-0.140
-240.917	275.516	-0.154	0.269
-239.903	116.779	0.129	0.157
-238.888	-200.000	0.032	0.193
-237.873	-22.877	-0.214	-0.128
-236.859	-200.000	0.045	0.232
-235.844	353.274	-0.188	0.369
-234.830	800.000	0.051	0.143
-233.815	50.536	0.246	0.230
-232.800	800.000	0.038	0.145
-231.786	-200.000	0.024	0.203
-230.771	118.172	-0.204	0.248
-229.757	-84.266	-0.108	-0.034
-228.742	139.805	0.089	0.115
-227.727	124.746	0.145	-0.181
-226.713	-125.494	0.271	-0.041
-225.698	-114.243	-0.136	-0.026
-224.684	359.926	-0.066	0.131
-223.669	5.236	-0.112	-0.082
-222.655	23.848	0.080	0.065
-221.640	-71.830	0.194	-0.071
-220.625	-200.000	-0.001	-0.214
-219.611	-169.471	0.048	0.002
-218.596	-92.205	0.348	-0.097
-217.582	472.636	0.113	-0.252
-216.567	-138.600	-0.235	0.025
-215.552	-200.000	0.009	0.198
-214.538	800.000	-0.025	-0.104
-213.523	-149.789	-0.359	-0.028
-212.509	-81.902	-0.276	0.089
-211.494	-139.286	0.179	-0.019
-210.479	646.305	-0.108	-0.273
-209.465	-170.182	-0.210	-0.007
-208.450	-53.811	0.255	0.115
-207.436	800.000	0.022	0.063
-206.421	-187.910	0.073	0.001
-205.406	117.609	0.077	0.093
-204.392	-85.864	0.019	-0.006
-203.377	-98.771	0.055	-0.014
-202.363	800.000	-0.067	-0.259
-201.348	-200.000	-0.015	0.131
-200.333	-61.069	-0.135	0.056
-199.319	323.833	-0.080	0.151
-198.304	527.180	0.063	-0.147
-197.290	455.892	0.127	0.278
-196.275	98.508	0.296	-0.337
-195.260	242.847	0.115	-0.190
-194.246	186.679	-0.155	-0.228
-193.231	142.701	0.130	-0.170
-192.217	2.907	0.220	0.158
-191.202	331.734	0.128	0.243
-190.187	-171.018	0.361	-0.012
-189.173	-3.430	-0.229	0.157
-188.158	-200.000	-0.021	-0.095
-187.144	201.366	0.099	-0.151
-186.129	-103.595	-0.136	-0.031
-185.114	118.630	-0.132	0.161
-184.100	-12.728	-0.226	0.145
-183.085	-129.071	-0.315	-0.044
-182.071	522.433	0.094	0.218
-181.056	-4.731	-0.223	-0.152
-180.042	1.198	0.124	-0.088
-179.027	-37.098	0.160	-0.085
-178.012	-200.000	0.018	-0.351
-176.998	800.000	-0.055	-0.202
-175.983	-200.000	0.027	-0.314
-174.969	-36.132	0.076	-0.040
-173.954	50.262	0.360	0.335
-172.939	-103.839	0.161	0.037
-171.925	502.955	-0.058	-0.132
-170.910	51.159	-0.142	0.133
-169.896	251.849	-0.162	-0.273
-168.881	52.089	-0.187	-0.176
-167.866	180.066	-0.030	-0.044
-166.852	-23.313	0.218	0.130
-165.837	243.668	0.037	0.061
-164.823	144.040	0.159	-0.209
-163.808	-30.289	-0.107	-0.060
-162.793	-74.636	0.372	-0.132
-161.779	-55.169	0.276	0.123
-160.764	243.507	0.059	0.097
-159.750	-68.730	0.343	0.131
-158.735	-133.782	-0.236	0.029
-157.720	-17.373	0.139	0.086
-156.706	-200.000	0.028	0.312
-155.691	-172.168	0.207	0.007
-154.677	117.309	-0.058	-0.070
-153.662	-107.335	-0.222	0.048
-152.647	-113.587	-0.200	-0.038
-151.633	800.000	-0.015	0.050
-150.618	-200.000	-0.241	-0.001
-149.604	2.300	0.273	0.195
-148.589	26.677	-0.225	0.186
-147.574	-81.440	0.348	0.113
-146.560	-200.000	0.013	0.132
-145.545	-111.071	0.188	0.038
-144.531	167.041	0.073	-0.102
-143.516	-30.957	-0.034	-0.019
-142.502	-200.000	-0.002	-0.031
-141.487	-90.981	0.296	-0.084
-140.472	-40.513	0.148	0.075
-139.458	-200.000	0.015	-0.131
-138.443	-200.000	-0.002	0.167
-137.429	-169.345	-0.138	-0.005
-136.414	-200.000	-0.017	-0.282
-135.399	-123.406	0.438	-0.069
-134.385	-90.195	-0.259	-0.074
-133.370	-27.517	0.126	0.072
-132.356	181.497	0.008	0.011
-131.341	-160.967	0.254	-0.013
-130.326	-34.532	0.257	-0.138
-129.312	63.596	-0.002	0.002
-128.297	-124.607	-0.235	0.036
-127.283	800.000	0.039	0.111
-126.268	-120.346	-0.298	-0.050
-125.253	546.601	0.089	-0.209
-124.239	-76.266	-0.170	-0.059
-123.224	-28.568	0.064	-0.036
-122.210	169.118	0.063	0.088
-121.195	-144.627	-0.058	0.005
-120.180	394.199	0.143	0.292
