DTS Sentinel unit serial number:	SN413079Multiplexer serial number:	ORYXHardware model number:	OX4-SRSoftware version number:	ORYX F/W v4.00 Oryx Data Collector v3.7.2.0data status	okinstallation	princeton_trtdifferential loss correction	single-endedforward channel	channel 1reverse channel	N/Adate	2019/09/11time	04:08:11forward acquisition time	60.00reverse acquisition time	0.00gamma	496.2192k internal	0.2330k external	0.2330temperature offset calibration	0.9922default loss term (dB/km)	0.3790temperature slope calibration	1.0000multiplexer offset coefficient	1.0000multiplexer slope coefficient	1.0000fibre end	0.00T internal ref (°C)	29.56T ext. ref 1 (°C)	-0.29T ext. ref 2 (°C)	23.58length (m)	temperature (°C)	Stokes	anti-Stokes-747.200	-16.552	0.063	-0.040
-746.185	-62.486	0.186	-0.078
-745.171	-200.000	0.008	0.068
-744.156	-187.808	-0.332	0.004
-743.142	-32.905	-0.156	-0.087
-742.127	58.741	0.223	0.221
-741.112	178.133	-0.168	0.246
-740.098	-44.250	0.061	0.031
-739.083	-20.741	0.131	0.081
-738.069	133.307	-0.192	0.250
-737.054	107.224	0.092	0.111
-736.039	-59.438	-0.275	-0.119
-735.025	800.000	-0.032	0.143
-734.010	-44.253	-0.115	0.058
-732.996	-81.618	0.406	0.134
-731.981	-45.762	-0.162	0.081
-730.966	104.809	-0.093	-0.110
-729.952	124.386	0.328	0.416
-728.937	62.309	0.168	-0.169
-727.923	-200.000	-0.023	-0.310
-726.908	66.819	0.091	-0.094
-725.894	800.000	-0.086	-0.354
-724.879	58.186	0.112	0.110
-723.864	-200.000	-0.035	-0.448
-722.850	-200.000	-0.045	-0.262
-721.835	-7.242	0.342	0.233
-720.821	-135.277	0.170	0.021
-719.806	182.497	-0.331	-0.490
-718.791	-200.000	-0.005	0.102
-717.777	-132.365	0.270	-0.035
-716.762	151.257	-0.296	-0.405
-715.748	-3.955	0.088	-0.061
-714.733	55.379	-0.127	-0.124
-713.718	84.816	-0.115	0.126
-712.704	317.582	-0.086	0.164
-711.689	-41.931	0.264	-0.136
-710.675	-39.555	0.209	0.110
-709.660	-200.000	-0.001	0.061
-708.645	-10.442	0.125	0.083
-707.631	-124.164	0.061	0.010
-706.616	16.976	0.136	-0.109
-705.602	17.372	0.027	-0.021
-704.587	-200.000	0.004	-0.062
-703.572	800.000	0.051	-0.147
-702.558	63.943	-0.166	-0.168
-701.543	352.062	0.095	-0.190
-700.529	55.202	-0.200	-0.194
-699.514	-126.121	0.062	-0.009
-698.499	46.221	-0.136	-0.127
-697.485	-200.000	-0.040	-0.287
-696.470	93.649	-0.184	-0.210
-695.456	-200.000	-0.004	-0.100
-694.441	-91.500	-0.193	-0.055
-693.426	251.771	-0.106	-0.182
-692.412	800.000	-0.043	0.146
-691.397	246.668	-0.310	0.525
-690.383	-0.904	-0.146	0.104
-689.368	-183.610	0.151	-0.003
-688.354	27.996	-0.208	-0.176
-687.339	-161.220	0.058	-0.003
-686.324	75.999	0.152	-0.161
-685.310	54.669	0.216	0.209
-684.295	-200.000	-0.004	-0.287
-683.281	-34.945	-0.198	-0.109
-682.266	280.831	-0.060	-0.108
-681.251	278.414	-0.093	0.167
-680.237	-91.513	-0.106	0.030
-679.222	240.441	-0.116	0.195
-678.208	233.717	-0.186	-0.308
-677.193	-200.000	-0.006	0.210
-676.178	76.121	-0.139	-0.148
-675.164	-14.601	0.301	-0.195
-674.149	560.853	-0.081	-0.197
-673.135	-132.827	-0.081	-0.010
-672.120	-143.497	-0.249	-0.024
-671.105	-10.409	0.070	0.047
-670.091	511.979	0.115	0.269
-669.076	-115.451	-0.186	-0.035
-668.062	11.360	-0.061	-0.047
-667.047	114.903	0.057	0.070
-666.032	-119.660	-0.056	0.010
-665.018	-200.000	-0.033	-0.407
-664.003	-49.845	0.305	-0.145
-662.989	-89.405	0.139	0.041
-661.974	-129.110	0.159	0.022
-660.959	-200.000	-0.021	-0.269
-659.945	179.250	0.073	-0.106
-658.930	100.238	-0.207	-0.241
-657.916	-200.000	0.019	-0.356
-656.901	272.519	-0.029	-0.051
-655.886	-126.109	-0.182	-0.027
-654.872	210.037	0.072	-0.113
-653.857	-164.639	0.101	-0.005
-652.843	103.324	-0.126	0.148
-651.828	-200.000	0.026	-0.187
-650.814	75.517	0.192	0.204
-649.799	-151.014	0.128	0.010
-648.784	-186.022	0.125	0.002
-647.770	-53.946	-0.242	0.110
-646.755	-125.698	-0.022	0.003
-645.741	-60.875	0.081	-0.034
-644.726	-200.000	0.046	-0.379
-643.711	593.077	0.070	0.174
-642.697	161.145	0.192	0.269
-641.682	325.145	-0.139	0.266
-640.668	-8.027	0.263	-0.178
-639.653	110.567	-0.041	-0.049
-638.638	800.000	-0.014	0.048
-637.624	84.413	0.215	-0.236
-636.609	800.000	-0.099	0.297
-635.595	-55.794	0.210	-0.094
-634.580	-200.000	0.036	-0.332
-633.565	299.046	-0.040	-0.073
-632.551	440.651	0.092	0.203
-631.536	800.000	-0.042	0.162
-630.522	333.898	0.045	-0.088
-629.507	432.149	0.093	0.202
-628.492	-21.727	0.041	0.025
-627.478	463.840	0.086	0.192
-626.463	-30.355	0.243	-0.138
-625.449	128.767	-0.216	0.276
-624.434	-200.000	-0.042	0.246
-623.419	-103.259	0.042	0.010
-622.405	-3.725	-0.143	0.099
-621.390	61.273	-0.207	-0.206
-620.376	-77.259	0.092	0.032
-619.361	707.491	0.126	0.334
-618.346	-176.280	-0.366	-0.010
-617.332	33.270	-0.023	-0.020
-616.317	-38.073	0.213	-0.113
-615.303	-200.000	0.025	0.260
-614.288	-200.000	0.007	0.272
-613.273	-74.277	-0.193	0.070
-612.259	-50.212	0.040	0.019
-611.244	-123.640	0.194	0.031
-610.230	-200.000	-0.114	-0.506
-609.215	-200.000	0.040	-0.372
-608.201	204.336	-0.063	-0.098
-607.186	229.189	-0.083	-0.135
-606.171	-114.623	-0.454	-0.087
-605.157	3.098	-0.180	0.131
-604.142	384.014	0.095	-0.195
-603.128	98.710	-0.161	-0.186
-602.113	189.799	0.232	0.349
-601.098	-64.510	0.143	-0.058
-600.084	395.443	0.054	0.113
-599.069	-165.212	-0.152	0.007
-598.055	59.726	-0.272	0.268
-597.040	-95.977	-0.211	0.056
-596.025	31.263	-0.162	-0.139
-595.011	4.300	-0.196	0.143
-593.996	-27.948	-0.075	0.043
-592.982	-80.541	-0.190	0.063
-591.967	-2.785	0.156	0.109
-590.952	-11.743	0.089	-0.059
-589.938	645.396	-0.042	-0.106
-588.923	-54.876	-0.120	0.054
-587.909	59.221	-0.054	0.053
-586.894	-43.642	-0.172	-0.087
-585.879	257.428	0.182	0.314
-584.865	-152.441	0.439	-0.032
-583.850	128.014	-0.093	0.119
-582.836	-157.741	0.272	0.016
-581.821	134.313	0.078	-0.101
-580.806	800.000	0.101	0.287
-579.792	-7.304	-0.190	-0.129
-578.777	-55.930	0.038	-0.017
-577.763	-53.756	0.254	-0.116
-576.748	-144.129	-0.286	0.027
-575.733	-60.847	0.252	-0.107
-574.719	-200.000	0.045	-0.458
-573.704	313.472	0.101	-0.191
-572.690	-72.661	-0.194	0.071
-571.675	800.000	-0.031	-0.128
-570.661	439.977	0.053	-0.116
-569.646	34.677	-0.395	0.345
-568.631	-75.413	-0.398	-0.142
-567.617	-54.445	-0.150	0.068
-566.602	108.838	-0.177	0.212
-565.588	-57.757	-0.122	0.053
-564.573	-9.913	-0.072	0.048
-563.558	664.685	-0.116	-0.299
-562.544	-135.038	-0.261	-0.031
-561.529	-156.932	0.166	-0.010
-560.515	238.820	0.047	0.078
-559.500	-38.509	-0.139	0.073
-558.485	-97.808	0.172	0.044
-557.471	8.729	-0.164	-0.123
-556.456	-200.000	-0.022	0.268
-555.442	800.000	0.044	-0.186
-554.427	-89.243	-0.104	-0.031
-553.412	113.754	-0.086	-0.105
-552.398	70.544	0.151	-0.156
-551.383	339.275	0.125	0.244
-550.369	-117.941	0.299	0.053
-549.354	800.000	0.104	-0.401
-548.339	800.000	-0.088	0.349
-547.325	-200.000	-0.017	0.294
-546.310	-62.680	0.434	-0.180
-545.296	124.202	-0.086	-0.108
-544.281	800.000	-0.053	-0.226
-543.266	-100.243	-0.015	-0.004
-542.252	-200.000	0.001	-0.208
-541.237	553.651	-0.046	-0.111
-540.223	-18.844	0.074	0.046
-539.208	-39.676	0.139	-0.073
-538.193	571.085	0.081	0.196
-537.179	652.687	0.087	-0.223
-536.164	40.323	0.145	-0.130
-535.150	7.252	-0.151	-0.113
-534.135	-42.465	-0.167	0.085
-533.121	4.320	-0.131	0.096
-532.106	33.705	-0.138	0.120
-531.091	-86.447	0.224	0.069
-530.077	-42.031	0.212	0.108
-529.062	-44.749	-0.190	-0.095
-528.048	207.104	0.152	-0.237
-527.033	-47.716	0.103	0.050
-526.018	-200.000	-0.015	0.074
-525.004	-111.410	-0.320	-0.065
-523.989	800.000	-0.062	-0.185
-522.975	-126.319	0.131	-0.020
-521.960	59.726	0.124	0.122
-520.945	34.434	-0.063	-0.055
-519.931	281.835	0.129	0.230
-518.916	-28.208	-0.455	-0.262
-517.902	-17.489	-0.109	-0.068
-516.887	-106.996	-0.028	0.006
-515.872	-200.000	-0.073	-0.538
-514.858	423.499	-0.062	-0.134
-513.843	800.000	-0.045	-0.144
-512.829	-140.779	0.184	-0.019
-511.814	800.000	0.087	0.359
-510.799	-200.000	-0.000	-0.121
-509.785	-161.785	0.135	0.007
-508.770	-200.000	-0.069	-0.516
-507.756	197.115	0.117	-0.178
-506.741	-40.997	-0.193	-0.099
-505.726	-200.000	0.011	0.088
-504.712	185.101	0.071	0.105
-503.697	-109.906	0.124	-0.026
-502.683	-88.687	-0.166	-0.049
-501.668	-82.675	-0.007	0.002
-500.653	-146.616	0.136	-0.012
-499.639	-15.931	0.223	0.141
-498.624	-89.083	0.381	-0.112
-497.610	206.264	-0.099	0.154
-496.595	58.992	0.165	0.162
-495.581	-102.477	0.214	-0.051
-494.566	142.315	0.119	-0.158
-493.551	99.331	0.106	-0.122
-492.537	129.962	-0.138	0.176
-491.522	-200.000	0.050	-0.323
-490.508	-60.534	0.105	0.044
-489.493	-200.000	0.044	-0.378
-488.478	-139.381	-0.213	0.023
-487.464	-98.160	-0.315	-0.081
-486.449	15.333	0.188	0.147
-485.435	223.989	0.097	-0.156
-484.420	-107.554	0.242	0.053
-483.405	-49.543	0.034	0.016
-482.391	-135.635	0.110	-0.013
-481.376	-200.000	-0.028	0.126
-480.362	-59.275	-0.187	0.080
-479.347	-39.892	0.285	0.148
-478.332	587.320	-0.049	-0.120
-477.318	800.000	0.027	-0.112
-476.303	-139.242	0.031	-0.003
-475.289	800.000	-0.041	-0.132
-474.274	-116.069	-0.168	-0.031
-473.259	-0.739	0.175	-0.124
-472.245	-81.470	-0.208	-0.068
-471.230	-9.994	0.211	0.139
-470.216	-155.807	0.507	0.032
-469.201	-71.076	0.201	0.075
-468.186	-43.003	-0.188	-0.095
-467.172	-103.679	0.461	-0.108
-466.157	800.000	0.054	-0.176
-465.143	113.369	0.260	-0.315
-464.128	800.000	0.006	-0.020
-463.113	639.859	-0.060	0.152
-462.099	-111.382	-0.185	-0.037
-461.084	322.090	-0.061	-0.116
-460.070	19.880	0.177	0.142
-459.055	-146.791	-0.281	-0.024
-458.040	495.379	-0.134	0.307
-457.026	247.138	-0.076	0.128
-456.011	-98.818	-0.189	-0.048
-454.997	-96.117	0.234	-0.062
-453.982	-78.518	0.264	0.090
-452.968	24.782	-0.124	-0.102
-451.953	268.193	-0.238	0.415
-450.938	10.494	0.381	0.289
-449.924	-59.185	0.063	0.027
-448.909	-79.553	0.088	0.030
-447.895	17.898	0.243	-0.192
-446.880	328.157	-0.049	-0.093
-445.865	-82.673	0.214	-0.069
-444.851	-87.124	-0.103	-0.031
-443.836	139.902	-0.121	-0.158
-442.822	-83.507	0.423	0.135
-441.807	6.893	-0.219	0.162
-440.792	-61.933	-0.245	0.102
-439.778	35.696	0.152	0.133
-438.763	741.992	-0.053	0.142
-437.749	800.000	-0.035	-0.118
-436.734	-200.000	-0.029	-0.170
-435.719	310.837	0.160	0.299
-434.705	-128.131	0.206	0.029
-433.690	-10.811	-0.198	0.130
-432.676	68.994	0.131	0.134
-431.661	78.131	-0.045	0.048
-430.646	4.181	-0.091	-0.066
-429.632	-75.378	-0.214	0.076
-428.617	-66.320	0.241	-0.095
-427.603	-1.739	0.245	0.171
-426.588	-21.368	-0.218	-0.132
-425.573	528.172	0.178	0.417
-424.559	-5.755	-0.185	0.126
-423.544	-200.000	0.055	0.271
-422.530	628.663	-0.019	0.047
-421.515	142.442	-0.280	-0.370
-420.500	800.000	0.070	0.196
-419.486	800.000	0.157	0.495
-418.471	-159.717	-0.093	0.005
-417.457	800.000	-0.081	-0.260
-416.442	100.991	-0.016	-0.018
-415.428	-106.995	-0.205	0.045
-414.413	15.279	-0.333	0.259
-413.398	800.000	0.066	-0.252
-412.384	437.795	-0.100	0.216
-411.369	-200.000	0.021	0.158
-410.355	-200.000	-0.041	0.220
-409.340	57.745	-0.029	0.028
-408.325	181.714	-0.127	-0.186
-407.311	-14.775	0.291	0.186
-406.296	800.000	0.122	-0.400
-405.282	-64.124	0.305	-0.124
-404.267	226.971	-0.046	0.075
-403.252	-37.705	0.120	0.063
-402.238	69.853	0.032	0.033
-401.223	-96.877	-0.367	0.096
-400.209	800.000	-0.070	0.247
-399.194	99.980	-0.117	-0.135
-398.179	800.000	0.073	0.242
-397.165	158.720	-0.087	0.120
-396.150	-12.227	-0.116	-0.075
-395.136	-200.000	0.003	-0.172
-394.121	800.000	0.020	0.073
-393.106	19.257	-0.340	0.271
-392.092	-200.000	0.030	0.318
-391.077	65.227	0.248	0.249
-390.063	-55.729	0.220	-0.098
-389.048	-25.070	-0.291	-0.171
-388.033	-153.367	-0.371	-0.026
-387.019	61.594	0.178	0.176
-386.004	-200.000	0.017	0.107
-384.990	800.000	-0.026	0.084
-383.975	-135.289	0.326	0.039
-382.960	59.480	-0.147	-0.143
-381.946	-147.302	-0.083	0.007
-380.931	383.560	0.064	-0.130
-379.917	-79.739	0.197	0.066
-378.902	-31.937	-0.327	-0.182
-377.888	-200.000	-0.054	-0.255
-376.873	144.252	0.142	0.189
-375.858	-87.669	0.104	0.031
-374.844	-200.000	0.087	-0.442
-373.829	-200.000	-0.052	-0.260
-372.815	-19.519	-0.189	0.116
-371.800	78.394	0.176	-0.187
-370.785	-11.855	-0.060	-0.039
-369.771	80.707	0.006	-0.006
-368.756	800.000	-0.063	-0.236
-367.742	-23.791	0.116	-0.069
-366.727	-72.403	0.206	0.076
-365.712	221.911	0.149	-0.237
-364.698	111.260	0.037	-0.044
-363.683	-200.000	0.013	-0.202
-362.669	800.000	0.027	-0.092
-361.654	-40.153	-0.047	0.024
-360.639	150.194	0.088	0.118
-359.625	9.873	-0.513	0.386
-358.610	193.098	0.157	0.235
-357.596	-176.711	-0.057	-0.001
-356.581	683.687	0.041	-0.106
-355.566	800.000	-0.114	-0.315
-354.552	-97.740	0.201	-0.052
-353.537	-63.146	-0.267	-0.109
-352.523	-25.135	0.132	0.078
-351.508	276.495	0.086	-0.151
-350.493	148.716	-0.053	0.071
-349.479	10.771	-0.228	0.172
-348.464	797.771	0.054	0.147
-347.450	-57.798	0.159	-0.069
-346.435	-139.599	-0.220	-0.023
-345.420	-80.824	0.049	0.016
-344.406	126.292	-0.249	0.312
-343.391	323.918	0.153	-0.290
-342.377	-200.000	0.055	0.370
-341.362	562.668	0.063	-0.152
-340.348	-21.137	-0.222	0.135
-339.333	19.760	-0.180	0.143
-338.318	-16.088	0.221	-0.140
-337.304	327.410	-0.069	-0.131
-336.289	-200.000	-0.065	0.329
-335.275	119.415	-0.137	0.168
-334.260	108.933	-0.197	0.234
-333.245	-48.801	0.392	0.186
-332.231	-82.593	0.180	0.058
-331.216	700.672	0.031	-0.081
-330.202	-200.000	0.030	-0.276
-329.187	-117.132	-0.193	0.035
-328.172	-200.000	0.025	0.187
-327.158	89.775	-0.121	0.134
-326.143	-200.000	-0.029	0.469
-325.129	60.273	-0.057	0.056
-324.114	800.000	0.039	-0.138
-323.099	68.801	0.016	-0.017
-322.085	800.000	0.020	0.065
-321.070	145.325	0.057	0.075
-320.056	-30.050	0.186	0.105
-319.041	-100.729	-0.082	0.020
-318.026	-117.449	-0.231	-0.041
-317.012	-78.033	0.093	-0.032
-315.997	169.812	0.189	-0.267
-314.983	79.637	0.239	-0.254
-313.968	257.605	0.236	-0.403
-312.953	-82.033	-0.447	-0.144
-311.939	-70.905	0.229	0.085
-310.924	-30.784	-0.172	0.096
-309.910	20.554	-0.139	0.111
-308.895	-135.590	0.288	-0.034
-307.880	-157.583	-0.192	-0.011
-306.866	-12.033	0.308	-0.200
-305.851	-200.000	0.070	0.389
-304.837	242.731	0.112	0.186
-303.822	238.013	-0.205	-0.336
-302.807	372.225	0.037	0.074
-301.793	-2.621	0.083	-0.058
-300.778	120.508	-0.130	0.159
-299.764	-200.000	-0.010	0.368
-298.749	-147.320	0.163	0.014
-297.735	153.680	0.108	0.146
-296.720	-102.644	-0.133	0.031
-295.705	-162.048	0.475	0.024
-294.691	-76.882	-0.414	0.143
-293.676	-200.000	0.024	-0.116
-292.662	-200.000	0.028	-0.127
-291.647	140.108	-0.034	-0.044
-290.632	-200.000	-0.039	-0.231
-289.618	-88.250	-0.441	-0.131
-288.603	608.347	0.019	-0.046
-287.589	258.190	-0.032	-0.054
-286.574	149.703	0.167	-0.224
-285.559	-200.000	0.013	-0.167
-284.545	355.677	0.139	-0.274
-283.530	-46.807	0.278	-0.134
-282.516	95.411	-0.090	0.101
-281.501	722.238	-0.058	0.154
-280.486	-200.000	0.052	0.361
-279.472	800.000	0.056	0.179
-278.457	-56.028	-0.333	-0.147
-277.443	800.000	-0.071	-0.229
-276.428	495.590	0.117	-0.266
-275.413	-84.868	0.318	-0.099
-274.399	-126.286	0.104	-0.015
-273.384	151.304	0.084	-0.113
-272.370	-200.000	-0.032	-0.316
-271.355	-17.275	-0.305	-0.190
-270.340	285.313	0.182	-0.324
-269.326	38.756	-0.162	-0.142
-268.311	739.887	-0.054	-0.144
-267.297	800.000	-0.035	-0.103
-266.282	-162.413	-0.102	-0.005
-265.267	40.296	0.132	-0.117
-264.253	-40.468	-0.224	-0.115
-263.238	-119.965	0.226	-0.038
-262.224	195.363	0.053	0.079
-261.209	55.437	-0.274	-0.262
-260.195	-82.732	0.227	0.073
-259.180	100.226	0.094	-0.108
-258.165	-98.383	-0.280	0.071
-257.151	74.414	0.123	-0.127
-256.136	91.211	-0.385	-0.427
-255.122	-107.058	-0.149	-0.032
-254.107	-79.723	0.255	0.085
-253.092	60.246	-0.111	-0.108
-252.078	104.990	0.082	0.096
-251.063	-81.696	-0.294	0.095
-250.049	177.299	-0.142	0.204
-249.034	-200.000	0.030	-0.190
-248.019	-30.098	-0.252	-0.142
-247.005	370.433	-0.106	0.212
-245.990	-200.000	-0.004	0.165
-244.976	-20.701	-0.101	-0.061
-243.961	-38.705	0.179	-0.093
-242.946	-200.000	-0.003	0.035
-241.932	-200.000	-0.005	-0.148
-240.917	-76.284	0.156	-0.054
-239.903	114.345	0.159	-0.191
-238.888	-200.000	0.001	-0.088
-237.873	-148.269	-0.233	-0.019
-236.859	800.000	-0.020	0.055
-235.844	-51.549	0.035	0.016
-234.830	-200.000	-0.012	-0.281
-233.815	800.000	-0.114	0.337
-232.800	749.363	0.049	0.130
-231.786	-183.346	0.153	-0.003
-230.771	-6.796	0.300	0.201
-229.757	-95.516	-0.180	-0.048
-228.742	-76.504	0.195	-0.068
-227.727	63.312	-0.175	0.173
-226.713	-67.230	-0.174	0.068
-225.698	-52.614	-0.273	-0.124
-224.684	308.327	0.032	-0.060
-223.669	75.008	-0.228	0.237
-222.655	6.774	-0.062	-0.046
-221.640	-66.544	0.226	0.088
-220.625	-93.745	0.200	-0.054
-219.611	-200.000	-0.012	0.136
-218.596	55.103	-0.251	0.239
-217.582	369.062	-0.061	0.121
-216.567	-200.000	0.071	0.337
-215.552	62.781	0.208	-0.205
-214.538	609.798	-0.041	0.102
-213.523	60.249	-0.077	0.075
-212.509	-200.000	-0.031	-0.193
-211.494	35.302	0.236	0.204
-210.479	800.000	0.121	0.500
-209.465	-111.813	-0.155	-0.031
-208.450	-141.620	0.164	-0.016
-207.436	-138.789	0.192	0.021
-206.421	-63.803	-0.242	0.098
-205.406	151.798	0.126	0.170
-204.392	800.000	-0.042	-0.126
-203.377	-123.116	0.140	-0.022
-202.363	-200.000	-0.072	-0.366
-201.348	-200.000	-0.034	0.147
-200.333	-200.000	-0.031	0.139
-199.319	-130.853	-0.123	0.016
-198.304	-89.241	0.126	-0.037
-197.290	229.817	0.038	-0.061
-196.275	-7.276	0.189	-0.126
-195.260	116.005	-0.193	-0.233
-194.246	454.224	0.146	-0.319
-193.231	-5.676	0.164	-0.111
-192.217	-181.077	0.154	0.003
-191.202	-110.496	-0.117	-0.024
-190.187	-137.662	-0.094	0.010
-189.173	-34.653	-0.146	0.079
-188.158	84.343	0.047	-0.051
-187.144	-15.952	-0.285	0.179
-186.129	-200.000	-0.001	0.038
-185.114	375.220	-0.042	0.083
-184.100	4.366	-0.200	0.145
-183.085	-200.000	-0.028	-0.173
-182.071	-112.041	0.137	0.027
-181.056	-60.645	-0.268	-0.112
-180.042	-200.000	-0.001	-0.094
-179.027	800.000	-0.035	-0.145
-178.012	98.437	0.106	-0.120
-176.998	-174.203	0.206	-0.006
-175.983	-106.274	-0.125	-0.028
-174.969	-200.000	0.016	0.263
-173.954	-200.000	-0.012	-0.072
-172.939	-133.880	0.218	-0.027
-171.925	479.609	0.082	-0.182
-170.910	-115.021	0.247	0.046
-169.896	-145.647	-0.205	0.018
-168.881	800.000	-0.176	0.492
-167.866	-142.847	-0.136	-0.013
-166.852	-81.037	-0.300	-0.098
-165.837	-200.000	-0.014	0.392
-164.823	-200.000	-0.010	0.090
-163.808	58.557	0.121	0.117
-162.793	-73.834	0.070	-0.025
-161.779	137.028	-0.054	-0.070
-160.764	504.335	0.079	0.181
-159.750	-200.000	-0.011	-0.144
-158.735	-159.019	-0.080	0.004
-157.720	-200.000	0.065	0.383
-156.706	800.000	0.044	-0.136
-155.691	-21.476	0.104	-0.062
-154.677	800.000	-0.045	0.172
-153.662	67.459	-0.236	0.237
-152.647	800.000	-0.009	-0.033
-151.633	-200.000	0.060	-0.349
-150.618	-200.000	0.012	-0.164
-149.604	-84.141	0.417	-0.130
-148.589	71.863	-0.161	-0.165
-147.574	-38.201	0.117	0.061
-146.560	800.000	-0.019	0.053
-145.545	-200.000	-0.012	-0.149
-144.531	22.896	0.323	0.260
-143.516	-188.112	-0.453	0.006
-142.502	-15.252	0.149	-0.094
-141.487	-7.705	0.208	-0.138
-140.472	-42.382	-0.155	-0.078
-139.458	-19.090	-0.157	-0.096
-138.443	-132.032	0.174	0.022
-137.429	-200.000	-0.018	-0.114
-136.414	-200.000	-0.009	0.073
-135.399	-8.972	0.076	0.050
-134.385	-151.354	0.077	0.006
-133.370	-200.000	0.009	0.492
-132.356	800.000	0.059	0.172
-131.341	561.750	0.057	-0.135
-130.326	91.994	-0.156	-0.172
-129.312	445.875	0.189	0.408
-128.297	-200.000	-0.030	0.165
-127.283	58.499	-0.143	0.138
-126.268	-200.000	-0.015	-0.288
-125.253	-71.300	-0.184	0.068
-124.239	19.951	0.230	-0.182
-123.224	389.817	0.110	0.225
-122.210	-2.915	0.163	-0.112
-121.195	-140.143	0.238	-0.025
