DTS Sentinel unit serial number:	SN413079Multiplexer serial number:	ORYXHardware model number:	OX4-SRSoftware version number:	ORYX F/W v4.00 Oryx Data Collector v3.7.2.0data status	okinstallation	princeton_trtdifferential loss correction	single-endedforward channel	channel 1reverse channel	N/Adate	2019/09/15time	20:38:36forward acquisition time	60.00reverse acquisition time	0.00gamma	496.2192k internal	0.2325k external	0.2325temperature offset calibration	0.9958default loss term (dB/km)	0.3790temperature slope calibration	1.0000multiplexer offset coefficient	1.0000multiplexer slope coefficient	1.0000fibre end	0.00T internal ref (°C)	32.94T ext. ref 1 (°C)	7.87T ext. ref 2 (°C)	24.68length (m)	temperature (°C)	Stokes	anti-Stokes-747.200	-25.654	-0.132	-0.079
-746.185	-28.668	0.133	0.077
-745.171	-200.000	0.021	-0.171
-744.156	98.390	-0.153	0.178
-743.142	-88.193	-0.188	-0.057
-742.127	-89.052	-0.041	-0.012
-741.112	-6.310	-0.087	0.060
-740.098	-200.000	0.006	0.448
-739.083	-124.179	0.241	-0.038
-738.069	178.277	-0.135	0.199
-737.054	-90.731	-0.450	0.131
-736.039	-119.684	-0.428	-0.075
-735.025	-200.000	0.035	0.239
-734.010	800.000	-0.078	-0.221
-732.996	759.697	0.081	-0.223
-731.981	662.023	0.094	-0.243
-730.966	251.690	-0.075	0.128
-729.952	529.957	-0.090	0.214
-728.937	-33.641	0.201	0.112
-727.923	-200.000	-0.048	-0.304
-726.908	-200.000	0.033	0.264
-725.894	800.000	0.009	-0.034
-724.879	-200.000	0.015	0.205
-723.864	206.215	-0.034	-0.053
-722.850	-4.095	-0.016	0.011
-721.835	-40.700	0.084	-0.044
-720.821	-200.000	0.005	-0.203
-719.806	-200.000	0.058	0.561
-718.791	-200.000	-0.005	0.127
-717.777	-200.000	0.032	-0.198
-716.762	800.000	0.111	-0.365
-715.748	-4.832	0.170	-0.118
-714.733	212.228	0.105	-0.167
-713.718	15.520	-0.182	0.144
-712.704	-14.845	0.249	0.161
-711.689	-134.080	0.138	0.017
-710.675	-37.525	-0.134	-0.072
-709.660	-200.000	-0.024	0.319
-708.645	-95.773	-0.738	-0.199
-707.631	-91.603	-0.325	-0.093
-706.616	354.637	0.104	0.208
-705.602	35.705	-0.161	-0.143
-704.587	222.009	-0.070	0.114
-703.572	89.501	-0.221	0.248
-702.558	-90.688	-0.285	-0.083
-701.543	155.281	0.044	0.061
-700.529	-157.115	0.084	0.005
-699.514	-200.000	0.048	-0.234
-698.499	-7.861	0.167	-0.113
-697.485	64.776	0.183	0.186
-696.470	64.608	-0.101	-0.102
-695.456	-48.172	0.268	-0.130
-694.441	-26.323	-0.111	0.066
-693.426	-53.578	-0.270	0.124
-692.412	225.438	0.144	-0.235
-691.397	47.322	-0.051	-0.048
-690.383	147.646	-0.093	-0.126
-689.368	-146.568	0.295	-0.026
-688.354	4.854	-0.159	0.118
-687.339	24.205	-0.146	0.121
-686.324	19.516	-0.188	-0.152
-685.310	108.356	-0.119	-0.143
-684.295	-66.186	-0.226	-0.091
-683.281	800.000	0.073	-0.281
-682.266	-126.229	-0.109	-0.016
-681.251	-200.000	0.021	0.243
-680.237	-23.372	0.069	-0.042
-679.222	-200.000	0.009	0.099
-678.208	800.000	-0.030	-0.112
-677.193	37.433	0.102	0.091
-676.178	-200.000	-0.066	-0.326
-675.164	-99.812	0.202	0.051
-674.149	-123.120	-0.348	-0.056
-673.135	255.657	0.109	-0.188
-672.120	-66.965	-0.187	0.074
-671.105	-200.000	-0.394	0.000
-670.091	-41.022	0.438	0.227
-669.076	-155.054	0.083	0.005
-668.062	108.897	-0.066	-0.080
-667.047	-49.078	0.235	0.113
-666.032	246.925	0.115	0.196
-665.018	-61.184	-0.146	-0.062
-664.003	-34.153	-0.067	-0.037
-662.989	241.934	0.064	-0.107
-661.974	-200.000	-0.118	0.000
-660.959	75.437	0.184	0.195
-659.945	-200.000	-0.015	0.265
-658.930	800.000	0.101	0.385
-657.916	-174.368	0.241	-0.007
-656.901	-65.966	0.205	-0.082
-655.886	-102.538	-0.151	-0.036
-654.872	-191.785	-0.209	0.002
-653.857	-110.117	-0.073	0.015
-652.843	43.767	0.276	-0.254
-651.828	235.791	-0.164	0.272
-650.814	-85.084	-0.269	0.085
-649.799	69.223	0.121	-0.125
-648.784	800.000	-0.040	-0.146
-647.770	68.877	-0.166	0.172
-646.755	297.655	0.024	0.044
-645.741	-18.411	0.195	0.122
-644.726	398.990	-0.075	0.159
-643.711	-89.696	-0.278	-0.082
-642.697	-200.000	-0.000	-0.048
-641.682	-200.000	-0.253	-0.001
-640.668	775.070	-0.057	-0.157
-639.653	-200.000	-0.004	0.022
-638.638	-200.000	-0.011	-0.220
-637.624	-96.420	-0.215	0.057
-636.609	502.349	0.043	-0.099
-635.595	-89.893	-0.107	-0.032
-634.580	-2.928	-0.171	0.120
-633.565	-145.881	-0.150	-0.013
-632.551	-200.000	0.032	0.174
-631.536	-116.898	0.258	0.047
-630.522	-36.016	-0.270	-0.147
-629.507	153.650	-0.043	-0.059
-628.492	85.878	-0.203	0.225
-627.478	800.000	0.029	0.081
-626.463	277.183	-0.138	-0.247
-625.449	258.686	0.192	-0.333
-624.434	800.000	0.067	-0.195
-623.419	-197.965	-0.103	-0.001
-622.405	-17.818	-0.347	-0.218
-621.390	-40.765	0.261	-0.136
-620.376	110.683	-0.110	0.133
-619.361	-173.035	-0.389	-0.012
-618.346	-158.735	-0.441	0.025
-617.332	302.596	0.104	-0.194
-616.317	-200.000	-0.001	0.117
-615.303	-133.341	0.120	0.015
-614.288	50.170	0.179	-0.170
-613.273	82.251	0.149	0.163
-612.259	-6.830	-0.021	-0.014
-611.244	319.898	-0.172	-0.328
-610.230	-45.722	-0.282	-0.140
-609.215	-200.000	-0.010	0.211
-608.201	62.300	-0.062	-0.062
-607.186	-200.000	-0.020	0.250
-606.171	-200.000	-0.026	-0.285
-605.157	111.310	0.182	-0.220
-604.142	-82.749	-0.119	-0.039
-603.128	-200.000	-0.004	-0.088
-602.113	-112.485	-0.247	-0.049
-601.098	230.794	-0.120	-0.196
-600.084	-117.232	-0.067	0.012
-599.069	290.665	-0.195	-0.356
-598.055	-27.498	-0.149	0.087
-597.040	112.622	-0.173	-0.211
-596.025	-130.532	0.084	0.011
-595.011	-76.876	0.224	-0.079
-593.996	-200.000	-0.000	0.091
-592.982	800.000	0.133	0.502
-591.967	-127.134	-0.476	-0.070
-590.952	800.000	-0.051	0.186
-589.938	366.754	0.059	0.120
-588.923	-200.000	0.047	0.210
-587.909	-131.596	-0.120	0.016
-586.894	-23.701	-0.145	0.087
-585.879	-83.940	0.325	-0.104
-584.865	75.539	0.059	0.063
-583.850	-85.014	0.114	0.036
-582.836	-32.021	0.210	0.118
-581.821	-48.895	-0.009	0.004
-580.806	116.068	-0.076	0.093
-579.792	32.006	0.217	-0.188
-578.777	377.508	0.185	0.379
-577.763	-66.816	-0.094	0.037
-576.748	-41.611	0.202	0.104
-575.733	228.811	-0.031	-0.051
-574.719	-91.766	0.376	-0.107
-573.704	-56.730	-0.153	0.068
-572.690	-200.000	-0.011	-0.135
-571.675	79.400	0.403	0.433
-570.661	-200.000	-0.026	-0.265
-569.646	6.879	0.147	-0.110
-568.631	54.002	-0.373	0.360
-567.617	177.434	-0.216	0.315
-566.602	-76.946	-0.239	-0.084
-565.588	-97.014	0.294	-0.077
-564.573	-200.000	-0.088	0.398
-563.558	-82.215	-0.212	0.069
-562.544	41.614	-0.150	-0.136
-561.529	-116.241	0.147	-0.027
-560.515	8.636	-0.294	0.222
-559.500	-200.000	0.109	-0.515
-558.485	62.462	0.162	-0.162
-557.471	-90.160	-0.178	0.052
-556.456	146.203	0.113	0.152
-555.442	375.202	0.074	-0.150
-554.427	-200.000	-0.031	-0.309
-553.412	-148.443	-0.380	-0.031
-552.398	-156.350	-0.241	0.015
-551.383	164.540	0.127	0.180
-550.369	-190.235	-0.110	-0.001
-549.354	71.637	0.185	-0.192
-548.339	-200.000	-0.042	-0.237
-547.325	-135.047	0.178	-0.022
-546.310	352.390	-0.129	0.256
-545.296	717.444	0.094	-0.251
-544.281	116.801	-0.064	-0.079
-543.266	-46.512	-0.147	0.072
-542.252	-200.000	-0.065	-0.343
-541.237	2.609	0.256	-0.185
-540.223	-40.092	-0.349	0.182
-539.208	153.515	0.141	0.193
-538.193	-200.000	0.032	-0.469
-537.179	800.000	-0.034	-0.102
-536.164	159.034	0.078	-0.109
-535.150	52.501	0.259	-0.248
-534.135	165.992	0.169	-0.240
-533.121	66.502	-0.227	0.231
-532.106	116.021	-0.156	0.192
-531.091	-65.648	0.486	-0.195
-530.077	-116.674	0.022	0.004
-529.062	107.942	-0.201	-0.239
-528.048	564.177	-0.082	-0.198
-527.033	-9.749	0.272	0.181
-526.018	497.149	0.037	0.085
-525.004	33.375	-0.220	0.191
-523.989	800.000	0.057	0.181
-522.975	800.000	0.020	-0.063
-521.960	283.520	-0.163	0.293
-520.945	-52.026	-0.127	-0.059
-519.931	-141.079	0.338	0.035
-518.916	169.142	0.137	0.196
-517.902	-160.570	-0.156	-0.008
-516.887	-200.000	0.018	0.086
-515.872	-191.101	-0.041	0.000
-514.858	-44.315	-0.058	-0.029
-513.843	141.402	-0.267	0.354
-512.829	25.071	0.092	0.077
-511.814	1.122	-0.365	0.262
-510.799	-200.000	-0.004	0.209
-509.785	-9.959	-0.219	-0.145
-508.770	-79.890	0.385	-0.129
-507.756	232.696	0.028	0.046
-506.741	98.023	-0.258	0.297
-505.726	661.974	0.050	0.129
-504.712	-111.067	0.214	-0.044
-503.697	-26.817	0.172	0.101
-502.683	-34.278	-0.157	-0.086
-501.668	-76.750	0.177	-0.062
-500.653	-27.362	0.326	-0.190
-499.639	-157.897	-0.158	0.009
-498.624	800.000	0.067	-0.279
-497.610	-200.000	-0.011	-0.205
-496.595	8.984	0.197	0.148
-495.581	21.475	-0.012	0.009
-494.566	22.337	-0.126	-0.103
-493.551	437.133	-0.060	0.131
-492.537	-90.709	0.233	-0.067
-491.522	-36.603	-0.131	-0.070
-490.508	-131.826	-0.393	-0.051
-489.493	182.437	0.068	0.100
-488.478	-30.086	-0.107	-0.061
-487.464	-200.000	0.007	-0.044
-486.449	-4.278	-0.053	-0.037
-485.435	-86.663	0.081	-0.025
-484.420	52.452	0.149	-0.142
-483.405	236.206	0.234	-0.386
-482.391	25.248	-0.060	0.049
-481.376	-99.891	-0.208	0.052
-480.362	-74.730	-0.021	-0.008
-479.347	-111.467	-0.167	0.034
-478.332	-200.000	0.028	0.258
-477.318	431.613	0.113	0.245
-476.303	165.838	0.015	-0.021
-475.289	800.000	0.039	0.130
-474.274	-133.636	-0.397	0.050
-473.259	-200.000	-0.006	-0.089
-472.245	69.980	-0.186	-0.192
-471.230	-2.806	-0.172	-0.120
-470.216	-153.748	-0.255	0.018
-469.201	-121.892	-0.281	-0.046
-468.186	53.303	0.119	0.114
-467.172	58.209	0.208	-0.203
-466.157	-92.382	-0.045	0.013
-465.143	-200.000	-0.039	-0.174
-464.128	29.235	0.037	0.031
-463.113	-29.116	-0.300	-0.172
-462.099	80.487	-0.224	-0.240
-461.084	454.388	-0.151	0.334
-460.070	15.827	0.229	0.180
-459.055	-137.723	-0.580	0.065
-458.040	177.581	-0.077	-0.112
-457.026	800.000	0.115	-0.438
-456.011	-123.941	-0.226	0.035
-454.997	44.601	-0.221	-0.203
-453.982	-200.000	0.040	0.305
-452.968	13.911	-0.309	0.240
-451.953	-200.000	-0.011	0.323
-450.938	108.879	0.270	-0.323
-449.924	132.791	-0.170	-0.219
-448.909	2.278	-0.079	-0.057
-447.895	-122.915	0.309	0.050
-446.880	95.721	0.049	-0.056
-445.865	162.726	0.138	-0.193
-444.851	50.146	-0.131	-0.123
-443.836	439.319	0.113	0.247
-442.822	390.693	-0.072	0.150
-441.807	-150.979	-0.057	-0.004
-440.792	-22.467	-0.265	-0.160
-439.778	395.550	0.064	0.133
-438.763	800.000	-0.072	0.264
-437.749	-200.000	0.009	0.104
-436.734	298.458	0.100	0.183
-435.719	88.802	0.154	0.171
-434.705	177.910	0.045	-0.066
-433.690	-30.996	-0.112	0.063
-432.676	162.938	-0.091	-0.127
-431.661	800.000	-0.051	-0.143
-430.646	-200.000	-0.024	0.310
-429.632	28.992	0.183	-0.155
-428.617	48.905	-0.132	-0.124
-427.603	-200.000	-0.016	0.276
-426.588	-200.000	0.008	0.235
-425.573	-139.781	0.164	0.017
-424.559	-142.624	-0.198	-0.019
-423.544	-200.000	-0.024	0.190
-422.530	-51.543	0.288	-0.134
-421.515	420.090	0.037	-0.079
-420.500	-200.000	-0.027	-0.160
-419.486	-58.248	-0.228	0.099
-418.471	172.535	0.153	-0.219
-417.457	443.266	-0.059	0.129
-416.442	-96.991	-0.303	0.079
-415.428	-73.380	0.260	-0.095
-414.413	800.000	-0.066	-0.218
-413.398	-128.559	0.183	-0.026
-412.384	-158.408	-0.226	0.013
-411.369	115.668	0.301	0.366
-410.355	-200.000	0.025	0.261
-409.340	800.000	-0.085	0.263
-408.325	-70.718	0.325	-0.122
-407.311	-106.127	-0.104	-0.023
-406.296	-92.013	-0.162	-0.046
-405.282	718.218	0.159	-0.421
-404.267	-5.630	-0.171	0.117
-403.252	-200.000	0.005	-0.035
-402.238	211.316	-0.014	0.023
-401.223	-114.070	0.095	0.018
-400.209	-8.800	-0.236	-0.157
-399.194	-145.619	0.175	0.016
-398.179	-200.000	0.003	0.051
-397.165	54.057	0.055	0.053
-396.150	-35.852	0.109	-0.059
-395.136	-199.453	0.113	0.001
-394.121	33.986	-0.154	0.133
-393.106	-200.000	0.014	0.068
-392.092	-40.033	-0.087	0.045
-391.077	-41.874	-0.217	-0.111
-390.063	-30.044	0.245	-0.139
-389.048	-138.359	0.260	-0.029
-388.033	-11.767	0.155	0.101
-387.019	-112.885	-0.219	-0.043
-386.004	161.014	0.099	-0.137
-384.990	-1.671	-0.107	0.075
-383.975	800.000	0.047	0.197
-382.960	-89.752	-0.288	0.084
-381.946	-200.000	-0.009	0.103
-380.931	240.029	-0.071	-0.118
-379.917	401.995	-0.016	0.033
-378.902	-172.587	-0.247	-0.008
-377.888	-8.818	0.151	0.101
-376.873	47.126	-0.268	0.248
-375.858	800.000	0.072	-0.226
-374.844	32.253	-0.122	-0.105
-373.829	800.000	0.056	-0.214
-372.815	-104.186	-0.138	-0.032
-371.800	-44.566	-0.110	-0.055
-370.785	293.745	-0.017	-0.030
-369.771	-200.000	-0.046	-0.212
-368.756	-83.624	0.171	0.054
-367.742	-28.923	-0.028	0.016
-366.727	-61.714	0.241	-0.100
-365.712	106.954	0.093	0.110
-364.698	-200.000	-0.063	-0.290
-363.683	-200.000	-0.035	-0.312
-362.669	-180.463	0.338	0.007
-361.654	-26.206	0.105	0.062
-360.639	-200.000	0.010	-0.125
-359.625	800.000	-0.089	0.311
-358.610	800.000	0.086	0.352
-357.596	564.147	-0.112	0.270
-356.581	229.977	0.166	-0.270
-355.566	126.266	-0.229	0.288
-354.552	800.000	-0.077	-0.325
-353.537	-79.255	-0.223	0.075
-352.523	83.004	-0.161	0.174
-351.508	-106.338	-0.185	-0.041
-350.493	-194.391	-0.333	0.003
-349.479	-41.295	0.048	-0.025
-348.464	800.000	0.079	-0.259
-347.450	-74.848	-0.301	0.107
-346.435	-68.304	0.090	-0.035
-345.420	-143.661	0.307	-0.029
-344.406	2.925	-0.114	-0.082
-343.391	-63.116	0.202	0.083
-342.377	127.994	-0.072	-0.091
-341.362	800.000	-0.047	-0.180
-340.348	-200.000	0.041	0.276
-339.333	198.456	0.055	0.083
-338.318	81.975	0.334	0.360
-337.304	-171.517	-0.086	-0.003
-336.289	98.592	-0.159	0.182
-335.275	-126.539	0.306	0.045
-334.260	391.213	-0.095	0.195
-333.245	197.188	-0.261	-0.396
-332.231	-90.690	-0.357	-0.102
-331.216	360.867	0.095	0.189
-330.202	-53.307	-0.261	0.119
-329.187	-200.000	-0.009	-0.046
-328.172	-63.832	0.461	0.188
-327.158	-129.691	0.143	0.020
-326.143	227.369	0.106	0.171
-325.129	-200.000	0.055	-0.459
-324.114	800.000	-0.103	-0.365
-323.099	-35.478	-0.107	0.057
-322.085	-13.471	-0.213	0.137
-321.070	98.149	-0.209	-0.238
-320.056	-200.000	-0.009	-0.318
-319.041	800.000	0.065	0.215
-318.026	-163.729	0.299	0.014
-317.012	24.370	-0.207	-0.170
-315.997	-109.993	0.187	-0.039
-314.983	80.602	-0.221	0.237
-313.968	190.056	-0.040	-0.060
-312.953	800.000	0.085	0.261
-311.939	127.170	0.124	-0.156
-310.924	-143.028	-0.348	-0.033
-309.910	-41.802	0.028	-0.014
-308.895	-102.015	0.215	0.051
-307.880	297.961	-0.178	0.324
-306.866	249.395	0.177	0.298
-305.851	167.553	0.225	-0.317
-304.837	291.613	-0.181	-0.327
-303.822	-162.689	-0.254	-0.012
-302.807	-98.850	-0.362	-0.091
-301.793	58.063	-0.230	0.224
-300.778	-129.916	0.026	0.004
-299.764	116.514	0.052	0.064
-298.749	-145.060	0.381	0.034
-297.735	797.684	-0.061	-0.166
-296.720	-55.268	-0.128	0.057
-295.705	459.953	0.025	0.056
-294.691	-67.887	0.414	-0.160
-293.676	-184.773	-0.169	-0.003
-292.662	800.000	0.019	0.067
-291.647	131.153	-0.195	-0.248
-290.632	-30.923	-0.290	0.162
-289.618	-200.000	0.036	0.202
-288.603	74.051	0.268	-0.279
-287.589	-200.000	0.029	0.146
-286.574	142.278	-0.107	0.140
-285.559	-1.027	0.083	-0.058
-284.545	182.052	0.206	-0.300
-283.530	-69.840	0.255	0.096
-282.516	-152.552	0.197	0.014
-281.501	593.087	-0.092	0.225
-280.486	20.179	0.170	-0.136
-279.472	-161.940	-0.252	0.013
-278.457	47.904	-0.083	0.077
-277.443	800.000	0.042	-0.173
-276.428	-200.000	0.000	-0.178
-275.413	-200.000	-0.034	0.260
-274.399	123.319	-0.105	0.131
-273.384	752.353	0.034	0.090
-272.370	-1.520	-0.145	-0.101
-271.355	133.854	0.071	0.091
-270.340	249.020	0.111	0.186
-269.326	-141.367	-0.245	-0.025
-268.311	800.000	0.096	0.304
-267.297	-67.704	0.106	0.041
-266.282	800.000	-0.047	-0.148
-265.267	-200.000	-0.007	-0.239
-264.253	-69.072	-0.021	-0.008
-263.238	127.909	-0.118	-0.149
-262.224	-116.781	0.161	-0.029
-261.209	-107.883	-0.181	-0.039
-260.195	260.352	-0.015	-0.026
-259.180	188.159	-0.014	-0.020
-258.165	26.701	-0.093	-0.077
-257.151	-142.464	0.179	-0.017
-256.136	74.854	-0.083	-0.086
-255.122	40.426	0.187	-0.166
-254.107	-111.400	0.320	-0.065
-253.092	-95.719	0.261	0.069
-252.078	-124.900	0.446	0.068
-251.063	-200.000	-0.007	-0.102
-250.049	-127.027	0.349	-0.051
-249.034	-84.799	-0.468	0.146
-248.019	168.442	-0.081	0.114
-247.005	603.302	0.081	0.199
-245.990	800.000	-0.061	0.221
-244.976	-200.000	0.002	0.044
-243.961	603.991	-0.112	-0.276
-242.946	-51.670	0.207	-0.095
-241.932	-200.000	-0.004	0.267
-240.917	85.704	-0.296	0.322
-239.903	-169.384	0.249	0.009
-238.888	-43.247	-0.390	-0.195
-237.873	-76.519	0.203	0.071
-236.859	35.942	0.176	-0.153
-235.844	800.000	0.065	-0.244
-234.830	-115.412	0.159	-0.030
-233.815	-200.000	-0.002	-0.019
-232.800	159.948	-0.181	0.249
-231.786	92.901	-0.145	-0.162
-230.771	269.997	-0.079	0.137
-229.757	-51.595	-0.220	-0.102
-228.742	184.254	0.126	0.184
-227.727	-200.000	-0.013	-0.135
-226.713	-11.583	0.082	0.053
-225.698	-147.986	0.291	0.024
-224.684	125.415	0.300	-0.375
-223.669	-200.000	-0.009	-0.273
-222.655	-126.028	-0.042	0.006
-221.640	-91.122	0.244	-0.069
-220.625	-87.402	0.377	-0.113
-219.611	101.395	0.273	-0.315
-218.596	-4.546	-0.187	0.128
-217.582	48.428	-0.105	0.098
-216.567	-34.686	0.209	0.113
-215.552	102.829	-0.032	-0.037
-214.538	800.000	0.018	-0.052
-213.523	-124.963	0.154	-0.023
-212.509	800.000	0.036	-0.104
-211.494	1.260	0.471	0.334
-210.479	89.275	0.118	-0.130
-209.465	-47.941	0.140	-0.067
-208.450	115.131	0.090	-0.109
-207.436	-200.000	-0.008	-0.140
-206.421	800.000	-0.029	0.099
-205.406	192.123	0.113	-0.168
-204.392	68.890	0.044	-0.045
-203.377	-126.786	-0.221	-0.032
-202.363	289.276	0.052	-0.094
-201.348	282.033	-0.151	0.267
-200.333	12.682	-0.122	0.093
-199.319	238.667	-0.082	-0.134
-198.304	-50.666	0.164	0.076
-197.290	-99.352	0.230	-0.057
-196.275	-50.307	-0.209	-0.097
-195.260	-106.963	0.228	0.050
-194.246	-91.488	0.151	0.042
-193.231	-200.000	0.023	0.198
-192.217	-26.252	0.293	0.170
-191.202	283.051	0.080	0.141
-190.187	-92.940	-0.592	0.163
-189.173	345.403	0.167	0.325
-188.158	-109.148	-0.031	0.007
-187.144	-11.096	0.277	0.180
-186.129	-1.658	0.363	0.252
-185.114	-161.784	0.145	-0.007
-184.100	404.462	0.124	0.257
-183.085	-79.554	-0.065	0.022
-182.071	-200.000	0.042	-0.249
-181.056	38.439	0.165	-0.145
-180.042	-200.000	0.029	-0.255
-179.027	78.063	-0.026	0.027
-178.012	193.869	-0.094	0.141
-176.998	-200.000	0.064	-0.364
-175.983	343.993	-0.081	-0.157
-174.969	-195.794	0.402	-0.003
-173.954	-166.494	-0.097	-0.004
-172.939	98.288	-0.134	-0.153
-171.925	-139.772	0.143	0.015
-170.910	270.834	0.075	0.131
-169.896	61.540	-0.067	0.066
-168.881	800.000	0.065	0.268
-167.866	-53.160	0.349	0.158
-166.852	-163.066	0.128	-0.006
-165.837	6.802	0.265	0.195
-164.823	512.576	0.141	0.325
-163.808	223.938	-0.098	0.155
-162.793	56.145	0.135	0.130
-161.779	155.703	-0.113	-0.153
-160.764	65.003	0.140	0.139
-159.750	-141.520	0.414	-0.041
-158.735	230.162	-0.144	0.232
-157.720	-33.440	-0.115	-0.063
-156.706	-108.534	0.244	0.052
-155.691	-29.778	-0.200	-0.112
-154.677	-84.592	0.172	0.053
-153.662	122.042	0.249	-0.307
-152.647	800.000	0.061	0.217
-151.633	-128.528	0.076	0.011
-150.618	800.000	0.026	0.092
-149.604	331.130	0.130	-0.247
-148.589	-60.526	-0.384	-0.161
-147.574	-40.306	-0.143	0.073
-146.560	33.797	-0.144	-0.124
-145.545	-80.143	0.136	-0.045
-144.531	-37.273	0.176	-0.093
-143.516	-200.000	0.041	-0.319
-142.502	-79.788	0.216	0.072
-141.487	255.047	0.140	-0.236
-140.472	-200.000	-0.001	-0.277
-139.458	-200.000	0.015	0.301
-138.443	-84.743	-0.134	0.042
-137.429	-200.000	0.011	-0.079
-136.414	613.115	-0.133	0.329
-135.399	-56.562	0.292	-0.127
-134.385	-200.000	0.068	0.446
-133.370	34.923	-0.151	-0.130
-132.356	-57.888	-0.141	0.061
-131.341	-200.000	0.107	0.463
-130.326	-54.553	-0.176	-0.079
-129.312	-72.500	-0.316	0.115
-128.297	-50.756	0.193	0.089
-127.283	-10.556	0.282	-0.184
-126.268	-200.000	0.038	-0.268
-125.253	-61.346	0.323	0.134
-124.239	-67.893	0.164	0.063
-123.224	-55.980	-0.157	0.069
-122.210	-12.644	0.208	0.133
-121.195	800.000	0.055	0.202
