DTS Sentinel unit serial number:	SN413079Multiplexer serial number:	ORYXHardware model number:	OX4-SRSoftware version number:	ORYX F/W v4.00 Oryx Data Collector v3.7.2.0data status	okinstallation	princeton_trtdifferential loss correction	single-endedforward channel	channel 1reverse channel	N/Adate	2019/09/14time	16:02:35forward acquisition time	60.00reverse acquisition time	0.00gamma	496.2192k internal	0.2295k external	0.2295temperature offset calibration	1.0072default loss term (dB/km)	0.3790temperature slope calibration	1.0000multiplexer offset coefficient	1.0000multiplexer slope coefficient	1.0000fibre end	0.00T internal ref (°C)	38.50T ext. ref 1 (°C)	5.10T ext. ref 2 (°C)	32.84length (m)	temperature (°C)	Stokes	anti-Stokes-747.200	-119.858	0.240	-0.042
-746.185	-65.340	0.483	0.199
-745.171	-200.000	-0.009	-0.236
-744.156	-81.806	-0.125	0.042
-743.142	13.540	-0.178	-0.141
-742.127	-140.797	0.360	0.038
-741.112	36.178	-0.163	-0.147
-740.098	-200.000	0.016	0.193
-739.083	171.910	0.141	0.208
-738.069	-17.497	-0.278	0.179
-737.054	-200.000	0.028	-0.407
-736.039	35.548	-0.157	-0.141
-735.025	555.208	0.018	-0.045
-734.010	-200.000	0.050	-0.526
-732.996	-124.322	-0.117	-0.019
-731.981	30.866	-0.237	-0.208
-730.966	-45.276	0.193	-0.098
-729.952	-200.000	0.012	-0.243
-728.937	-200.000	0.047	-0.255
-727.923	-200.000	0.025	-0.331
-726.908	44.830	0.074	0.069
-725.894	-139.580	-0.139	-0.015
-724.879	229.238	-0.197	0.328
-723.864	183.232	-0.178	0.268
-722.850	-200.000	-0.007	-0.104
-721.835	-89.276	0.296	0.089
-720.821	35.698	-0.169	0.151
-719.806	167.817	0.055	0.080
-718.791	-98.576	-0.307	-0.080
-717.777	-200.000	0.024	-0.241
-716.762	32.697	-0.135	-0.120
-715.748	-200.000	-0.036	-0.410
-714.733	32.141	0.341	-0.300
-713.718	562.332	0.046	0.114
-712.704	-200.000	0.007	-0.099
-711.689	800.000	0.054	-0.231
-710.675	60.782	0.101	-0.103
-709.660	347.942	-0.098	0.197
-708.645	-122.251	-0.269	-0.045
-707.631	-171.483	0.476	0.016
-706.616	99.510	-0.245	0.289
-705.602	-67.004	-0.136	-0.055
-704.587	-84.963	-0.234	-0.075
-703.572	67.985	-0.201	-0.210
-702.558	-83.685	-0.203	0.066
-701.543	-193.886	0.108	-0.001
-700.529	-93.890	-0.143	-0.040
-699.514	-200.000	0.015	-0.081
-698.499	426.897	0.058	-0.127
-697.485	800.000	0.050	-0.152
-696.470	149.535	0.172	0.238
-695.456	-200.000	-0.022	-0.284
-694.441	-200.000	-0.039	-0.293
-693.426	800.000	-0.036	0.136
-692.412	26.545	0.145	0.124
-691.397	800.000	-0.067	-0.201
-690.383	-31.154	-0.319	-0.183
-689.368	-68.913	0.085	-0.034
-688.354	130.791	0.431	0.564
-687.339	-68.858	-0.120	0.047
-686.324	21.639	-0.203	-0.169
-685.310	800.000	-0.101	0.373
-684.295	289.033	0.139	0.258
-683.281	139.660	0.121	-0.163
-682.266	-184.844	0.124	-0.002
-681.251	33.840	0.210	-0.187
-680.237	128.400	-0.119	-0.154
-679.222	-65.624	-0.163	-0.067
-678.208	-126.726	-0.212	-0.032
-677.193	-176.476	-0.326	0.009
-676.178	401.043	0.007	-0.014
-675.164	-63.422	0.160	0.067
-674.149	275.072	-0.056	0.100
-673.135	-84.789	0.128	-0.041
-672.120	36.513	0.094	0.085
-671.105	6.837	-0.213	0.162
-670.091	800.000	-0.042	0.162
-669.076	-200.000	-0.011	0.156
-668.062	-78.373	0.159	0.056
-667.047	-200.000	0.037	0.278
-666.032	-48.355	-0.109	0.053
-665.018	215.295	0.055	-0.089
-664.003	-119.578	-0.364	-0.064
-662.989	439.343	-0.075	-0.166
-661.974	800.000	0.034	0.111
-660.959	-79.047	0.121	-0.042
-659.945	800.000	-0.028	0.101
-658.930	-96.636	-0.235	0.063
-657.916	2.399	0.115	-0.085
-656.901	429.849	-0.050	-0.110
-655.886	735.338	0.148	-0.403
-654.872	-103.477	-0.404	-0.097
-653.857	-89.254	0.309	0.093
-652.843	-125.848	0.125	-0.019
-651.828	-106.207	-0.259	-0.059
-650.814	396.528	0.109	-0.231
-649.799	505.883	-0.053	-0.125
-648.784	83.217	-0.177	-0.196
-647.770	-32.152	0.189	0.108
-646.755	195.087	-0.175	0.271
-645.741	-200.000	-0.011	0.154
-644.726	-23.926	-0.163	0.099
-643.711	800.000	-0.100	0.413
-642.697	483.623	0.068	0.156
-641.682	34.935	-0.361	-0.322
-640.668	-100.408	0.019	-0.005
-639.653	203.661	-0.190	0.299
-638.638	205.327	0.041	0.065
-637.624	36.202	-0.068	0.061
-636.609	-129.878	0.211	-0.029
-635.595	-19.917	-0.065	-0.041
-634.580	-200.000	-0.004	-0.283
-633.565	124.500	-0.026	-0.033
-632.551	-61.584	-0.047	-0.020
-631.536	439.321	0.100	-0.223
-630.522	800.000	-0.078	-0.261
-629.507	-200.000	0.005	0.119
-628.492	11.385	-0.219	-0.171
-627.478	-200.000	0.011	0.105
-626.463	-87.820	-0.227	0.069
-625.449	800.000	0.052	0.200
-624.434	80.072	0.049	0.054
-623.419	-200.000	0.025	0.155
-622.405	66.785	0.201	0.208
-621.390	-63.762	0.322	0.134
-620.376	-124.928	0.143	-0.022
-619.361	-143.960	-0.289	0.028
-618.346	-119.178	-0.402	-0.071
-617.332	-200.000	-0.010	0.227
-616.317	-56.968	-0.207	-0.093
-615.303	-79.481	0.178	-0.061
-614.288	313.759	0.106	-0.204
-613.273	476.946	0.054	-0.124
-612.259	-95.208	0.153	-0.042
-611.244	-46.377	0.011	-0.005
-610.230	-200.000	0.004	-0.123
-609.215	148.718	0.098	-0.134
-608.201	36.871	-0.089	-0.080
-607.186	-34.047	-0.431	0.241
-606.171	-50.022	0.364	-0.175
-605.157	248.019	-0.056	-0.096
-604.142	-21.273	0.164	-0.102
-603.128	-200.000	0.011	-0.158
-602.113	-42.554	0.129	0.067
-601.098	-200.000	-0.004	-0.091
-600.084	-44.081	0.276	0.141
-599.069	800.000	-0.030	-0.098
-598.055	58.923	-0.165	0.165
-597.040	-200.000	0.023	0.115
-596.025	-200.000	0.028	-0.214
-595.011	724.443	0.064	-0.172
-593.996	-92.938	0.485	0.138
-592.982	-200.000	0.019	-0.126
-591.967	800.000	-0.100	0.295
-590.952	-200.000	-0.006	0.092
-589.938	28.248	0.139	-0.119
-588.923	-109.166	0.040	-0.009
-587.909	255.625	-0.050	-0.088
-586.894	-106.075	0.173	0.039
-585.879	-1.662	-0.248	0.177
-584.865	800.000	0.017	-0.071
-583.850	393.748	0.134	0.283
-582.836	50.855	0.034	-0.033
-581.821	327.446	-0.114	-0.222
-580.806	-200.000	-0.009	-0.344
-579.792	-200.000	-0.003	0.041
-578.777	451.050	-0.053	-0.119
-577.763	-200.000	0.010	-0.079
-576.748	-123.393	0.161	-0.026
-575.733	-105.452	-0.276	-0.064
-574.719	195.431	-0.109	0.168
-573.704	800.000	-0.169	0.544
-572.690	97.516	-0.274	-0.319
-571.675	318.481	-0.098	-0.188
-570.661	-122.355	0.090	-0.015
-569.646	278.083	-0.100	-0.180
-568.631	-200.000	0.057	-0.350
-567.617	-102.072	-0.050	0.012
-566.602	-90.056	0.369	0.109
-565.588	-200.000	0.012	0.253
-564.573	-109.421	-0.218	0.047
-563.558	-153.677	0.248	0.017
-562.544	-133.267	0.176	0.022
-561.529	224.336	-0.040	-0.066
-560.515	-134.828	-0.260	-0.032
-559.500	50.623	0.073	-0.070
-558.485	-190.531	0.265	-0.003
-557.471	-113.127	0.509	-0.102
-556.456	-4.486	-0.105	-0.073
-555.442	800.000	-0.094	0.398
-554.427	218.745	-0.041	0.067
-553.412	21.273	0.256	-0.211
-552.398	60.165	0.155	-0.155
-551.383	46.423	0.353	-0.333
-550.369	106.417	0.096	-0.115
-549.354	67.496	-0.041	-0.042
-548.339	64.670	0.124	-0.127
-547.325	-26.973	0.102	-0.060
-546.310	800.000	-0.041	-0.147
-545.296	134.860	-0.246	-0.324
-544.281	153.368	0.231	0.321
-543.266	-16.173	0.302	-0.195
-542.252	800.000	-0.016	0.056
-541.237	34.211	0.056	0.050
-540.223	800.000	0.055	0.199
-539.208	-200.000	-0.016	0.189
-538.193	361.204	-0.155	0.316
-537.179	-112.099	-0.132	0.027
-536.164	-145.939	0.097	0.009
-535.150	-112.081	-0.152	0.031
-534.135	42.417	-0.046	-0.043
-533.121	198.446	-0.130	0.201
-532.106	-109.985	-0.282	0.060
-531.091	-55.197	-0.052	-0.024
-530.077	74.938	0.196	0.209
-529.062	-83.089	0.257	0.084
-528.048	-200.000	0.005	0.114
-527.033	800.000	-0.130	-0.508
-526.018	-64.445	-0.251	0.103
-525.004	108.353	-0.061	0.074
-523.989	-28.392	0.132	-0.077
-522.975	22.501	0.266	-0.221
-521.960	-146.828	-0.246	0.021
-520.945	70.310	0.165	0.173
-519.931	-200.000	-0.004	-0.285
-518.916	-144.617	-0.072	-0.007
-517.902	228.539	-0.041	0.068
-516.887	179.923	-0.083	-0.123
-515.872	-25.974	-0.158	-0.094
-514.858	234.091	-0.200	-0.334
-513.843	-200.000	0.016	0.203
-512.829	-107.256	-0.199	-0.044
-511.814	237.435	0.070	0.118
-510.799	-183.095	-0.142	-0.003
-509.785	-105.999	-0.215	0.049
-508.770	24.977	0.112	0.094
-507.756	-15.183	-0.330	0.214
-506.741	-23.332	-0.297	-0.181
-505.726	-152.373	0.148	-0.011
-504.712	-155.344	-0.291	0.019
-503.697	-108.601	0.173	0.038
-502.683	-85.755	-0.170	0.053
-501.668	235.921	-0.062	0.104
-500.653	-48.936	0.242	-0.117
-499.639	-39.957	-0.170	0.090
-498.624	-200.000	0.026	0.115
-497.610	-161.994	0.182	0.009
-496.595	-102.219	0.318	-0.077
-495.581	-115.781	0.518	-0.098
-494.566	165.392	-0.042	-0.060
-493.551	-127.559	0.273	-0.040
-492.537	-200.000	0.008	0.299
-491.522	-200.000	-0.000	-0.146
-490.508	-48.717	0.353	-0.171
-489.493	58.992	0.158	0.158
-488.478	-2.090	0.118	-0.084
-487.464	800.000	-0.041	0.161
-486.449	58.370	-0.113	0.112
-485.435	-200.000	-0.037	-0.174
-484.420	-32.291	0.348	-0.197
-483.405	60.783	-0.343	0.344
-482.391	-168.488	-0.300	-0.012
-481.376	-200.000	0.007	-0.386
-480.362	-74.910	0.067	-0.024
-479.347	-49.326	0.293	0.141
-478.332	455.547	0.045	-0.100
-477.318	-200.000	-0.018	0.214
-476.303	549.087	0.154	-0.374
-475.289	-200.000	-0.016	-0.347
-474.274	-200.000	0.031	-0.140
-473.259	10.186	0.049	0.037
-472.245	-133.777	-0.151	0.019
-471.230	-97.503	0.119	-0.031
-470.216	800.000	-0.084	-0.310
-469.201	36.410	0.224	-0.200
-468.186	-138.368	-0.149	-0.017
-467.172	122.962	0.119	-0.150
-466.157	-165.277	-0.311	-0.014
-465.143	-30.218	-0.191	-0.110
-464.128	-127.641	-0.333	-0.049
-463.113	-71.445	0.155	0.059
-462.099	-78.630	-0.223	0.077
-461.084	800.000	0.034	-0.113
-460.070	514.142	0.058	-0.136
-459.055	-36.429	-0.107	-0.058
-458.040	-54.345	0.070	-0.032
-457.026	-107.324	0.214	-0.047
-456.011	-200.000	0.013	0.116
-454.997	166.077	0.120	-0.172
-453.982	-103.765	-0.363	0.086
-452.968	34.893	-0.065	-0.057
-451.953	800.000	0.107	-0.454
-450.938	185.415	-0.050	0.075
-449.924	-132.290	0.162	0.021
-448.909	-200.000	-0.008	-0.230
-447.895	452.980	-0.049	-0.109
-446.880	320.776	0.089	-0.171
-445.865	11.780	0.179	-0.139
-444.851	-63.743	0.148	0.061
-443.836	-200.000	0.003	0.053
-442.822	48.623	-0.060	-0.056
-441.807	194.212	0.124	0.190
-440.792	72.868	0.114	0.120
-439.778	-200.000	-0.003	-0.050
-438.763	389.028	-0.174	0.364
-437.749	-200.000	-0.054	-0.286
-436.734	-200.000	-0.003	-0.125
-435.719	691.713	0.071	0.188
-434.705	64.335	0.166	0.169
-433.690	800.000	0.083	0.339
-432.676	546.420	0.114	0.276
-431.661	-55.840	-0.123	-0.055
-430.646	800.000	0.033	0.112
-429.632	-85.659	-0.224	0.070
-428.617	-33.944	-0.128	-0.071
-427.603	800.000	0.052	-0.147
-426.588	-64.807	0.233	-0.095
-425.573	638.218	-0.103	-0.265
-424.559	-64.826	-0.266	-0.109
-423.544	-52.957	-0.260	0.121
-422.530	377.311	0.159	-0.328
-421.515	12.458	-0.192	-0.149
-420.500	-108.235	0.098	0.021
-419.486	393.476	-0.144	0.303
-418.471	144.198	0.105	0.141
-417.457	-200.000	-0.025	-0.115
-416.442	-15.893	-0.221	0.142
-415.428	-181.070	0.212	0.004
-414.413	-200.000	-0.049	-0.293
-413.398	-200.000	-0.042	0.213
-412.384	10.410	0.183	-0.141
-411.369	220.648	0.238	0.386
-410.355	90.616	-0.274	0.309
-409.340	-33.945	-0.137	-0.076
-408.325	571.549	-0.121	0.297
-407.311	-200.000	0.004	0.020
-406.296	-19.979	-0.202	-0.126
-405.282	-200.000	0.041	0.224
-404.267	198.129	0.113	0.174
-403.252	-200.000	0.038	0.320
-402.238	-101.335	0.338	0.083
-401.223	92.085	-0.155	0.176
-400.209	-88.201	-0.489	-0.148
-399.194	482.774	-0.072	0.164
-398.179	-129.557	0.461	0.064
-397.165	45.984	-0.232	-0.217
-396.150	-66.042	0.077	-0.031
-395.136	-82.207	0.450	0.148
-394.121	-6.555	0.177	-0.121
-393.106	-200.000	0.005	-0.125
-392.092	-123.259	-0.188	0.030
-391.077	800.000	-0.032	-0.123
-390.063	-58.106	0.153	0.067
-389.048	-122.753	0.421	0.069
-388.033	103.402	-0.135	0.159
-387.019	-135.233	0.353	-0.043
-386.004	381.014	-0.056	-0.116
-384.990	-200.000	0.006	-0.114
-383.975	-108.293	0.147	-0.032
-382.960	-200.000	-0.014	0.246
-381.946	-84.354	0.323	-0.103
-380.931	87.789	-0.041	0.046
-379.917	800.000	-0.072	0.291
-378.902	-200.000	-0.043	0.363
-377.888	-184.892	-0.134	0.002
-376.873	176.440	0.128	-0.187
-375.858	800.000	-0.077	-0.326
-374.844	133.694	0.116	0.151
-373.829	271.041	-0.109	0.194
-372.815	-31.997	0.136	0.077
-371.800	-133.923	0.219	-0.027
-370.785	632.017	-0.128	-0.325
-369.771	12.708	-0.291	-0.226
-368.756	3.468	0.206	-0.151
-367.742	110.261	0.044	-0.053
-366.727	10.369	-0.107	-0.082
-365.712	-200.000	0.014	-0.219
-364.698	-58.193	0.422	-0.185
-363.683	-200.000	-0.023	0.196
-362.669	-95.582	-0.317	-0.086
-361.654	-200.000	0.006	-0.081
-360.639	-14.488	0.279	-0.181
-359.625	3.418	0.186	0.136
-358.610	-105.737	-0.254	0.058
-357.596	-90.174	-0.045	0.013
-356.581	37.422	-0.132	0.118
-355.566	800.000	0.027	-0.094
-354.552	-200.000	0.040	0.319
-353.537	-31.365	-0.313	-0.177
-352.523	-200.000	-0.051	0.234
-351.508	800.000	-0.058	-0.182
-350.493	58.620	-0.170	-0.168
-349.479	38.860	-0.292	-0.262
-348.464	-118.994	0.220	-0.039
-347.450	314.791	0.076	0.144
-346.435	-127.563	0.124	0.018
-345.420	-200.000	0.002	0.016
-344.406	211.317	0.068	0.107
-343.391	197.726	-0.183	-0.281
-342.377	-86.421	0.276	0.085
-341.362	22.061	-0.243	0.199
-340.348	-200.000	-0.021	-0.234
-339.333	-200.000	0.041	0.209
-338.318	-200.000	0.022	0.373
-337.304	-61.435	-0.233	0.098
-336.289	-166.933	-0.159	-0.007
-335.275	-152.077	0.151	-0.011
-334.260	800.000	0.033	-0.117
-333.245	482.586	0.073	0.167
-332.231	-42.815	-0.106	-0.054
-331.216	298.375	0.152	-0.281
-330.202	800.000	-0.089	0.329
-329.187	-18.798	0.121	0.076
-328.172	-115.641	-0.152	-0.029
-327.158	199.746	0.113	-0.174
-326.143	800.000	-0.075	-0.285
-325.129	800.000	-0.051	-0.152
-324.114	-146.238	0.274	0.024
-323.099	-2.661	-0.193	-0.136
-322.085	800.000	0.066	-0.209
-321.070	-167.072	0.273	0.011
-320.056	321.388	0.029	-0.055
-319.041	800.000	-0.068	0.216
-318.026	457.917	0.052	-0.116
-317.012	-4.463	0.089	0.062
-315.997	28.278	0.106	0.090
-314.983	35.890	0.152	0.135
-313.968	344.361	0.092	0.182
-312.953	93.722	-0.269	-0.307
-311.939	347.139	0.113	-0.224
-310.924	-47.719	0.073	0.035
-309.910	354.157	0.176	-0.352
-308.895	117.505	0.157	0.194
-307.880	796.543	-0.097	0.268
-306.866	-0.553	-0.060	0.043
-305.851	-182.859	0.051	-0.001
-304.837	-200.000	-0.022	-0.172
-303.822	264.141	0.160	0.279
-302.807	-200.000	-0.026	-0.116
-301.793	-111.767	0.135	-0.027
-300.778	-131.866	0.148	0.019
-299.764	-69.928	-0.119	-0.045
-298.749	380.552	-0.073	-0.151
-297.735	30.694	-0.149	0.128
-296.720	120.545	0.069	-0.086
-295.705	-200.000	-0.011	-0.267
-294.691	250.373	-0.122	-0.208
-293.676	-141.508	0.202	0.020
-292.662	-24.565	-0.200	0.120
-291.647	84.062	-0.224	0.246
-290.632	-39.485	-0.086	-0.045
-289.618	-200.000	0.025	-0.216
-288.603	800.000	-0.092	-0.342
-287.589	186.380	-0.052	-0.077
-286.574	67.208	0.206	0.211
-285.559	-94.418	0.210	0.058
-284.545	393.150	0.132	-0.276
-283.530	38.926	0.058	-0.052
-282.516	209.818	0.175	-0.275
-281.501	-200.000	-0.005	0.249
-280.486	253.508	-0.116	0.199
-279.472	-86.585	0.223	-0.069
-278.457	-200.000	0.033	0.252
-277.443	294.022	0.046	-0.084
-276.428	-155.119	-0.173	-0.011
-275.413	-200.000	-0.059	0.304
-274.399	18.029	0.204	0.163
-273.384	-87.996	0.210	0.063
-272.370	-166.069	-0.245	-0.010
-271.355	-200.000	0.003	-0.086
-270.340	800.000	-0.077	0.267
-269.326	-200.000	0.024	-0.116
-268.311	-42.166	-0.354	0.181
-267.297	-34.249	0.350	0.193
-266.282	241.810	0.115	-0.194
-265.267	-83.560	-0.518	-0.166
-264.253	-136.893	-0.222	0.026
-263.238	96.919	-0.262	0.301
-262.224	-200.000	-0.026	0.157
-261.209	-172.046	0.191	0.006
-260.195	-200.000	0.034	-0.451
-259.180	119.280	-0.192	0.238
-258.165	-112.824	0.088	0.017
-257.151	218.251	-0.084	0.135
-256.136	-200.000	0.013	-0.261
-255.122	106.689	-0.254	-0.302
-254.107	-9.294	0.346	0.232
-253.092	-200.000	-0.060	0.320
-252.078	127.330	0.150	0.191
-251.063	800.000	0.079	-0.276
-250.049	-122.407	-0.274	-0.045
-249.034	-48.706	0.045	-0.022
-248.019	-200.000	0.067	0.307
-247.005	-107.956	0.218	-0.048
-245.990	-200.000	-0.007	-0.155
-244.976	-200.000	0.059	0.364
-243.961	39.040	-0.116	-0.104
-242.946	800.000	-0.021	0.069
-241.932	-89.464	0.286	-0.084
-240.917	5.513	-0.100	-0.074
-239.903	800.000	-0.079	-0.306
-238.888	-200.000	-0.076	-0.379
-237.873	-200.000	0.020	0.167
-236.859	800.000	-0.081	0.254
-235.844	-58.269	0.065	-0.028
-234.830	800.000	-0.039	-0.136
-233.815	-153.597	-0.046	0.003
-232.800	-200.000	0.011	-0.053
-231.786	-200.000	-0.046	0.204
-230.771	-13.589	0.083	0.054
-229.757	800.000	0.082	0.277
-228.742	-200.000	-0.033	0.176
-227.727	39.754	-0.103	-0.093
-226.713	-24.217	-0.168	-0.101
-225.698	177.242	-0.038	-0.056
-224.684	-153.005	0.178	0.013
-223.669	-138.434	-0.208	0.023
-222.655	-127.109	0.270	0.040
-221.640	18.466	-0.107	-0.085
-220.625	519.707	-0.097	-0.227
-219.611	108.404	-0.292	0.349
-218.596	-200.000	0.002	0.430
-217.582	-99.289	-0.293	0.074
-216.567	486.826	0.026	-0.059
-215.552	-71.165	-0.104	-0.039
-214.538	40.579	-0.286	-0.258
-213.523	63.261	-0.347	0.349
-212.509	47.489	0.116	0.108
-211.494	-200.000	0.029	0.141
-210.479	-200.000	0.013	0.249
-209.465	157.670	-0.087	0.120
-208.450	157.278	0.127	-0.176
-207.436	-79.471	0.201	-0.068
-206.421	-200.000	-0.053	0.240
-205.406	-21.661	0.101	-0.062
-204.392	264.566	-0.165	0.287
-203.377	-200.000	0.037	0.298
-202.363	-200.000	0.025	-0.310
-201.348	571.253	-0.104	0.254
-200.333	-154.848	-0.317	-0.021
-199.319	-40.001	-0.042	-0.022
-198.304	86.466	0.094	0.104
-197.290	-33.499	0.272	0.150
-196.275	69.668	-0.375	0.387
-195.260	-153.527	0.171	-0.012
-194.246	161.583	-0.075	0.105
-193.231	59.253	-0.124	0.122
-192.217	-106.450	0.149	-0.033
-191.202	196.055	0.045	-0.069
-190.187	-17.579	-0.437	0.275
-189.173	-127.936	-0.254	-0.036
-188.158	-81.417	-0.509	0.168
-187.144	-131.694	0.145	-0.019
-186.129	-132.679	0.059	-0.008
-185.114	618.982	0.135	-0.339
-184.100	-66.152	-0.150	0.060
-183.085	224.033	0.093	0.150
-182.071	-114.448	0.151	-0.029
-181.056	-200.000	0.015	-0.212
-180.042	-105.929	0.166	-0.037
-179.027	184.552	-0.217	-0.321
-178.012	-162.619	-0.039	0.002
-176.998	800.000	-0.045	-0.153
-175.983	-200.000	0.013	-0.167
-174.969	-12.276	-0.094	0.061
-173.954	-200.000	-0.052	0.304
-172.939	800.000	0.068	-0.248
-171.925	105.285	0.034	-0.040
-170.910	-90.473	0.267	0.077
-169.896	-74.665	-0.155	-0.056
-168.881	-13.003	-0.345	-0.225
-167.866	800.000	0.020	-0.057
-166.852	-94.006	0.176	0.048
-165.837	-57.819	-0.319	-0.139
-164.823	-200.000	-0.033	0.150
-163.808	34.149	0.108	-0.094
-162.793	-132.494	0.069	0.009
-161.779	-200.000	-0.009	-0.063
-160.764	800.000	-0.040	0.165
-159.750	127.076	0.095	-0.120
-158.735	29.216	0.012	-0.010
-157.720	-139.695	0.382	-0.041
-156.706	-200.000	0.004	0.063
-155.691	-200.000	0.048	0.332
-154.677	111.673	0.153	-0.185
-153.662	800.000	-0.026	0.072
-152.647	611.829	0.093	0.232
-151.633	62.092	-0.123	-0.123
-150.618	30.238	-0.186	0.159
-149.604	-200.000	-0.033	0.255
-148.589	770.661	0.126	0.343
-147.574	-200.000	-0.038	-0.220
-146.560	-17.648	0.161	0.101
-145.545	-61.883	0.220	-0.092
-144.531	-200.000	0.035	-0.157
-143.516	89.650	0.038	0.042
-142.502	800.000	0.036	-0.118
-141.487	-80.665	-0.258	0.086
-140.472	-157.956	-0.634	-0.037
-139.458	-200.000	0.012	-0.297
-138.443	-200.000	0.016	0.262
-137.429	74.989	-0.103	-0.108
-136.414	53.700	0.195	-0.187
-135.399	800.000	0.043	0.162
-134.385	-121.124	-0.205	-0.034
-133.370	126.110	0.117	-0.147
-132.356	609.842	0.205	-0.512
-131.341	-83.741	-0.209	0.067
-130.326	-53.594	-0.079	-0.036
-129.312	50.464	-0.292	0.275
-128.297	-200.000	-0.001	0.345
-127.283	-56.397	-0.065	0.029
-126.268	-200.000	-0.037	0.309
-125.253	-34.573	0.208	-0.114
-124.239	-71.436	0.152	0.057
-123.224	145.724	-0.155	-0.208
