DTS Sentinel unit serial number:	SN413079Multiplexer serial number:	ORYXHardware model number:	OX4-SRSoftware version number:	ORYX F/W v4.00 Oryx Data Collector v3.7.2.0data status	okinstallation	princeton_trtdifferential loss correction	single-endedforward channel	channel 1reverse channel	N/Adate	2019/09/16time	03:34:35forward acquisition time	60.00reverse acquisition time	0.00gamma	496.2192k internal	0.2331k external	0.2331temperature offset calibration	0.9981default loss term (dB/km)	0.3790temperature slope calibration	1.0000multiplexer offset coefficient	1.0000multiplexer slope coefficient	1.0000fibre end	0.00T internal ref (°C)	27.62T ext. ref 1 (°C)	10.59T ext. ref 2 (°C)	21.69length (m)	temperature (°C)	Stokes	anti-Stokes-747.200	-200.000	0.004	0.316
-746.185	-130.156	-0.391	0.054
-745.171	-200.000	0.002	-0.084
-744.156	-113.712	0.025	-0.005
-743.142	-200.000	-0.011	-0.226
-742.127	7.254	-0.267	0.201
-741.112	-162.744	0.220	-0.011
-740.098	-146.737	0.298	0.026
-739.083	707.837	-0.031	0.082
-738.069	570.353	0.125	0.306
-737.054	-200.000	-0.033	0.192
-736.039	250.506	0.034	0.059
-735.025	77.746	-0.095	-0.102
-734.010	65.040	0.088	0.089
-732.996	-9.690	-0.291	-0.195
-731.981	110.905	0.019	-0.023
-730.966	-71.943	-0.242	-0.091
-729.952	139.678	-0.232	-0.308
-728.937	800.000	0.075	-0.282
-727.923	-83.453	0.343	-0.111
-726.908	-200.000	0.050	-0.561
-725.894	336.553	-0.019	-0.036
-724.879	-61.173	-0.157	0.066
-723.864	800.000	0.049	0.154
-722.850	17.400	0.082	-0.065
-721.835	800.000	-0.086	-0.285
-720.821	-48.752	-0.076	-0.037
-719.806	462.129	-0.059	0.133
-718.791	-57.132	0.034	-0.015
-717.777	800.000	0.040	0.140
-716.762	300.243	-0.131	0.244
-715.748	22.513	0.137	0.112
-714.733	-137.220	-0.227	0.026
-713.718	-200.000	-0.009	-0.064
-712.704	-100.828	-0.187	-0.046
-711.689	-20.003	-0.223	0.138
-710.675	-0.351	-0.116	-0.083
-709.660	-15.577	-0.090	-0.058
-708.645	-81.323	-0.063	0.021
-707.631	10.965	0.285	-0.219
-706.616	213.884	0.064	-0.101
-705.602	-117.114	-0.091	0.017
-704.587	244.567	-0.184	0.312
-703.572	58.298	-0.159	0.157
-702.558	-150.486	0.151	-0.012
-701.543	800.000	-0.087	0.268
-700.529	94.867	0.176	0.201
-699.514	114.028	-0.152	0.186
-698.499	-115.685	0.277	-0.052
-697.485	160.044	0.107	0.149
-696.470	348.189	0.169	-0.335
-695.456	-200.000	0.029	-0.260
-694.441	311.681	0.159	-0.300
-693.426	800.000	-0.049	-0.138
-692.412	59.013	0.111	-0.110
-691.397	-168.530	0.234	-0.009
-690.383	-63.596	-0.071	0.029
-689.368	-61.909	-0.160	-0.067
-688.354	173.343	-0.152	0.221
-687.339	85.766	0.084	0.092
-686.324	-88.310	-0.216	0.065
-685.310	-46.756	-0.134	0.066
-684.295	174.250	-0.023	0.033
-683.281	160.109	0.301	0.421
-682.266	-200.000	0.007	-0.228
-681.251	31.567	0.151	-0.131
-680.237	-61.594	-0.183	0.077
-679.222	-135.282	0.126	0.015
-678.208	-200.000	-0.015	0.167
-677.193	-153.030	0.200	0.014
-676.178	800.000	0.050	-0.156
-675.164	-94.464	-0.361	0.099
-674.149	-26.470	0.410	-0.241
-673.135	-200.000	-0.014	-0.185
-672.120	800.000	0.015	0.066
-671.105	165.402	0.150	-0.212
-670.091	-200.000	-0.067	0.312
-669.076	-142.833	0.063	0.006
-668.062	-70.458	-0.014	0.005
-667.047	-95.477	0.048	0.013
-666.032	26.528	-0.062	0.052
-665.018	-85.993	-0.277	-0.086
-664.003	-200.000	0.012	0.248
-662.989	-34.872	0.205	0.112
-661.974	800.000	0.073	-0.265
-660.959	-134.664	-0.521	-0.064
-659.945	-65.492	-0.221	-0.089
-658.930	-118.462	0.092	-0.016
-657.916	617.962	0.121	0.304
-656.901	312.859	0.040	0.075
-655.886	479.794	0.155	0.353
-654.872	-47.445	-0.195	0.095
-653.857	764.816	0.014	-0.037
-652.843	-126.328	0.103	-0.015
-651.828	-200.000	0.012	-0.087
-650.814	502.019	-0.041	-0.096
-649.799	-89.826	-0.218	0.064
-648.784	-55.789	-0.258	0.116
-647.770	664.220	-0.095	-0.247
-646.755	637.384	-0.206	-0.524
-645.741	187.591	-0.064	0.096
-644.726	96.570	0.078	-0.090
-643.711	800.000	-0.039	-0.117
-642.697	800.000	-0.090	0.275
-641.682	-88.689	-0.258	-0.077
-640.668	57.421	0.136	-0.133
-639.653	105.080	0.050	-0.059
-638.638	-181.239	-0.317	0.006
-637.624	-102.188	0.111	0.027
-636.609	9.724	-0.154	-0.117
-635.595	733.457	0.116	0.310
-634.580	-200.000	-0.086	-0.387
-633.565	-200.000	-0.002	-0.150
-632.551	-7.765	-0.203	0.137
-631.536	-62.200	0.349	0.146
-630.522	-180.345	0.096	0.002
-629.507	134.532	0.081	0.105
-628.492	249.307	-0.061	0.104
-627.478	-108.090	-0.070	-0.015
-626.463	-200.000	-0.025	0.387
-625.449	408.073	-0.196	0.415
-624.434	8.472	0.215	0.162
-623.419	-200.000	0.058	-0.299
-622.405	-3.120	-0.140	0.098
-621.390	-80.375	0.261	0.087
-620.376	11.905	-0.215	-0.166
-619.361	147.554	-0.031	0.041
-618.346	-180.462	-0.261	0.005
-617.332	-42.874	-0.242	-0.123
-616.317	147.687	0.068	-0.092
-615.303	800.000	0.096	0.375
-614.288	-110.404	0.096	-0.020
-613.273	-118.136	0.080	0.014
-612.259	-200.000	0.006	0.067
-611.244	-168.015	-0.329	0.013
-610.230	800.000	-0.039	-0.161
-609.215	273.615	0.082	0.146
-608.201	-29.498	-0.009	0.005
-607.186	-72.707	0.319	0.118
-606.171	166.668	-0.065	0.093
-605.157	800.000	-0.100	-0.437
-604.142	800.000	0.039	0.150
-603.128	266.011	0.095	-0.166
-602.113	21.670	0.146	0.119
-601.098	75.380	0.026	0.027
-600.084	-105.362	0.512	0.117
-599.069	-74.520	-0.121	-0.044
-598.055	-25.934	0.264	0.155
-597.040	-58.133	-0.100	0.044
-596.025	-200.000	0.011	-0.111
-595.011	800.000	-0.044	-0.142
-593.996	47.130	0.229	-0.214
-592.982	-2.527	-0.216	-0.151
-591.967	-172.005	0.560	0.018
-590.952	322.200	-0.105	0.199
-589.938	-86.606	0.054	0.017
-588.923	800.000	0.017	-0.065
-587.909	191.745	-0.331	-0.499
-586.894	-200.000	0.023	-0.125
-585.879	-200.000	0.005	0.088
-584.865	-114.821	-0.303	0.058
-583.850	-9.552	-0.336	0.224
-582.836	111.324	-0.099	0.119
-581.821	-102.736	-0.187	-0.045
-580.806	800.000	0.073	0.260
-579.792	-39.187	-0.151	-0.079
-578.777	594.974	-0.109	0.269
-577.763	603.789	0.126	0.315
-576.748	-200.000	0.013	0.109
-575.733	-93.126	-0.083	0.023
-574.719	108.484	-0.119	0.143
-573.704	-20.819	0.234	0.143
-572.690	64.659	0.174	0.175
-571.675	666.351	-0.082	0.212
-570.661	-68.392	0.044	-0.017
-569.646	-15.937	0.114	-0.073
-568.631	-105.744	0.282	-0.064
-567.617	170.340	0.100	-0.143
-566.602	-32.238	-0.035	0.020
-565.588	-8.549	-0.169	-0.114
-564.573	-200.000	-0.039	0.184
-563.558	-200.000	-0.032	-0.235
-562.544	466.656	-0.194	-0.434
-561.529	-114.520	-0.331	-0.063
-560.515	-200.000	-0.011	-0.154
-559.500	-43.515	0.381	0.192
-558.485	419.281	-0.084	-0.180
-557.471	10.002	0.053	-0.040
-556.456	-9.792	-0.080	0.053
-555.442	-150.858	0.183	0.014
-554.427	-200.000	0.036	-0.198
-553.412	53.759	-0.076	0.073
-552.398	10.596	-0.137	-0.105
-551.383	-78.519	0.176	0.060
-550.369	55.258	-0.200	-0.193
-549.354	-200.000	-0.028	0.427
-548.339	-84.923	0.256	0.080
-547.325	-10.831	-0.255	0.168
-546.310	-99.316	-0.232	0.058
-545.296	-171.678	0.205	-0.007
-544.281	-79.303	-0.006	0.002
-543.266	-200.000	0.027	-0.153
-542.252	17.843	-0.260	0.207
-541.237	-9.143	-0.124	-0.083
-540.223	-11.425	0.302	-0.198
-539.208	58.732	0.259	-0.254
-538.193	-85.718	-0.184	-0.057
-537.179	-200.000	-0.002	0.125
-536.164	-131.828	0.250	0.033
-535.150	-147.092	-0.232	0.020
-534.135	-2.095	0.062	-0.044
-533.121	-72.175	0.161	0.060
-532.106	30.096	-0.146	0.124
-531.091	0.597	0.178	0.127
-530.077	15.846	0.172	0.135
-529.062	800.000	-0.119	0.333
-528.048	-200.000	-0.006	-0.109
-527.033	55.793	-0.204	0.197
-526.018	-200.000	0.056	0.244
-525.004	-127.519	-0.128	0.018
-523.989	470.814	-0.087	-0.195
-522.975	-200.000	-0.034	-0.194
-521.960	105.152	0.174	-0.205
-520.945	-105.067	-0.143	0.033
-519.931	200.695	0.151	0.232
-518.916	-200.000	0.021	0.317
-517.902	-72.163	-0.159	-0.059
-516.887	-121.599	0.071	-0.012
-515.872	-20.492	-0.045	-0.027
-514.858	-75.629	-0.068	0.024
-513.843	-12.368	0.039	0.025
-512.829	-200.000	-0.011	-0.356
-511.814	53.280	-0.281	-0.268
-510.799	640.267	0.172	-0.437
-509.785	68.633	-0.046	-0.047
-508.770	203.288	-0.118	0.182
-507.756	-49.353	-0.439	-0.209
-506.741	-117.830	0.343	-0.061
-505.726	-185.905	-0.242	-0.004
-504.712	-33.599	0.141	-0.078
-503.697	-161.083	0.237	-0.012
-502.683	-59.170	0.236	-0.102
-501.668	-150.381	0.242	-0.019
-500.653	629.259	-0.190	-0.479
-499.639	-156.270	-0.162	-0.010
-498.624	-70.992	-0.149	-0.056
-497.610	-200.000	0.004	-0.042
-496.595	800.000	-0.084	-0.233
-495.581	-84.166	0.097	0.031
-494.566	273.541	0.158	-0.279
-493.551	321.501	0.085	-0.162
-492.537	127.450	0.087	-0.110
-491.522	-200.000	-0.016	0.093
-490.508	34.190	-0.180	-0.156
-489.493	-25.575	-0.174	-0.102
-488.478	-64.303	-0.420	-0.171
-487.464	-111.229	0.291	0.059
-486.449	-19.271	0.164	-0.101
-485.435	36.272	-0.213	-0.187
-484.420	76.871	-0.201	0.213
-483.405	10.083	0.174	-0.132
-482.391	-200.000	0.008	0.272
-481.376	-94.562	-0.277	0.075
-480.362	175.213	-0.198	0.286
-479.347	-200.000	0.000	-0.030
-478.332	35.751	-0.133	0.117
-477.318	401.392	0.169	-0.353
-476.303	-158.262	0.295	-0.017
-475.289	-15.054	0.509	-0.325
-474.274	13.219	0.222	0.171
-473.259	-177.052	0.090	-0.002
-472.245	508.348	0.109	-0.253
-471.230	-51.375	0.114	-0.053
-470.216	386.165	-0.150	-0.308
-469.201	-22.337	0.279	-0.169
-468.186	-200.000	-0.018	0.311
-467.172	800.000	0.037	-0.120
-466.157	49.444	0.182	-0.170
-465.143	-8.416	-0.103	0.069
-464.128	-122.416	-0.121	-0.020
-463.113	107.000	0.268	0.317
-462.099	-56.244	0.176	-0.078
-461.084	-200.000	-0.063	-0.308
-460.070	23.886	-0.293	0.241
-459.055	-35.667	-0.223	-0.120
-458.040	-120.619	-0.275	-0.046
-457.026	-200.000	-0.028	-0.131
-456.011	-96.241	0.118	0.031
-454.997	800.000	0.046	-0.152
-453.982	55.625	-0.044	0.043
-452.968	618.729	0.020	-0.049
-451.953	162.440	-0.147	-0.205
-450.938	-200.000	-0.003	0.057
-449.924	-200.000	0.027	0.218
-448.909	800.000	-0.026	0.104
-447.895	533.990	-0.020	0.048
-446.880	113.356	-0.182	-0.220
-445.865	-167.419	0.244	-0.010
-444.851	-138.910	-0.391	0.042
-443.836	236.028	-0.121	-0.199
-442.822	-130.130	-0.041	0.006
-441.807	-134.085	-0.211	0.026
-440.792	427.017	0.097	-0.208
-439.778	231.889	-0.068	0.112
-438.763	81.154	-0.223	-0.239
-437.749	-55.003	0.193	-0.086
-436.734	-106.666	0.090	0.020
-435.719	-163.138	0.101	0.005
-434.705	-26.078	-0.215	0.126
-433.690	286.258	0.048	0.086
-432.676	-200.000	0.014	0.082
-431.661	48.909	-0.164	0.153
-430.646	-70.867	-0.212	-0.079
-429.632	259.127	0.155	0.266
-428.617	-38.476	0.110	-0.058
-427.603	6.440	0.270	-0.199
-426.588	-138.721	-0.235	0.026
-425.573	-117.337	0.375	-0.068
-424.559	437.054	0.225	0.488
-423.544	313.961	0.108	0.202
-422.530	704.881	-0.160	0.419
-421.515	-200.000	-0.074	0.417
-420.500	-42.232	0.249	-0.126
-419.486	267.890	-0.047	-0.082
-418.471	130.091	-0.279	-0.355
-417.457	110.029	-0.064	0.077
-416.442	-103.170	0.207	0.049
-415.428	167.170	0.096	0.135
-414.413	-153.539	-0.181	0.012
-413.398	-96.144	0.113	0.030
-412.384	50.226	0.190	-0.179
-411.369	800.000	0.017	-0.050
-410.355	-50.720	0.221	0.103
-409.340	800.000	-0.145	-0.408
-408.325	195.298	0.188	-0.284
-407.311	-45.794	0.160	0.078
-406.296	232.985	-0.184	0.301
-405.282	-200.000	-0.020	-0.130
-404.267	-200.000	0.031	-0.259
-403.252	372.171	0.121	0.243
-402.238	140.641	-0.060	0.079
-401.223	531.102	-0.159	0.374
-400.209	196.704	0.067	-0.101
-399.194	-89.475	0.101	0.029
-398.179	-200.000	0.281	-0.001
-397.165	-101.110	-0.125	-0.031
-396.150	-200.000	-0.016	0.090
-395.136	70.079	0.070	0.071
-394.121	724.609	-0.122	-0.323
-393.106	800.000	0.135	0.373
-392.092	80.353	-0.022	-0.024
-391.077	195.246	-0.172	0.259
-390.063	196.708	0.220	-0.333
-389.048	-160.238	0.402	0.022
-388.033	264.600	-0.103	-0.178
-387.019	126.546	-0.106	-0.133
-386.004	-151.276	-0.424	0.031
-384.990	193.073	-0.172	0.258
-383.975	428.393	-0.131	0.281
-382.960	119.156	-0.084	-0.103
-381.946	37.366	-0.138	0.122
-380.931	-132.775	0.223	-0.028
-379.917	-200.000	0.004	0.317
-378.902	800.000	0.029	0.104
-377.888	800.000	0.004	0.011
-376.873	543.804	-0.103	0.244
-375.858	47.970	-0.092	0.085
-374.844	-200.000	0.001	-0.295
-373.829	473.833	-0.128	-0.286
-372.815	-61.722	0.203	0.084
-371.800	167.877	-0.025	-0.036
-370.785	20.470	0.182	0.146
-369.771	-133.628	0.054	-0.007
-368.756	-112.907	-0.207	0.041
-367.742	9.758	0.327	0.246
-366.727	-167.582	0.149	-0.006
-365.712	-27.246	0.286	-0.165
-364.698	-76.066	-0.271	-0.095
-363.683	-179.911	-0.328	0.007
-362.669	-92.867	0.194	-0.054
-361.654	189.923	0.182	0.271
-360.639	-30.280	0.221	-0.125
-359.625	-200.000	0.044	0.232
-358.610	-152.510	-0.300	-0.021
-357.596	800.000	0.046	0.130
-356.581	-96.959	-0.372	-0.097
-355.566	-89.105	-0.067	0.020
-354.552	87.949	0.118	0.129
-353.537	-9.244	0.286	-0.189
-352.523	118.353	-0.128	-0.157
-351.508	-55.715	-0.156	0.069
-350.493	-200.000	-0.007	0.034
-349.479	-20.504	0.532	0.324
-348.464	294.366	-0.113	0.205
-347.450	-200.000	-0.027	-0.157
-346.435	-123.968	0.277	-0.043
-345.420	-81.677	0.187	-0.061
-344.406	228.659	-0.129	-0.209
-343.391	-10.474	-0.381	-0.250
-342.377	255.498	0.238	-0.404
-341.362	47.120	0.096	0.088
-340.348	-114.836	0.141	0.027
-339.333	4.914	0.158	-0.115
-338.318	102.751	0.180	-0.209
-337.304	-46.222	0.179	0.087
-336.289	-200.000	0.025	-0.227
-335.275	169.069	0.192	-0.272
-334.260	249.525	-0.044	-0.075
-333.245	153.744	0.122	0.166
-332.231	-37.831	0.219	-0.116
-331.216	-200.000	-0.042	0.213
-330.202	107.471	-0.117	-0.138
-329.187	215.388	-0.209	-0.329
-328.172	-67.603	-0.118	0.046
-327.158	455.406	0.067	0.148
-326.143	800.000	0.054	-0.167
-325.129	411.515	0.040	0.085
-324.114	20.206	-0.346	-0.276
-323.099	-79.601	0.289	0.097
-322.085	88.504	-0.134	0.147
-321.070	-200.000	0.005	-0.210
-320.056	-102.808	-0.315	0.074
-319.041	404.627	-0.092	-0.192
-318.026	24.699	-0.060	-0.049
-317.012	16.624	0.094	0.073
-315.997	596.891	0.066	0.163
-314.983	800.000	0.080	0.314
-313.968	800.000	0.056	-0.224
-312.953	169.940	-0.080	0.114
-311.939	-34.911	-0.142	-0.077
-310.924	-200.000	-0.015	-0.129
-309.910	334.009	0.068	-0.130
-308.895	60.005	0.159	-0.156
-307.880	-48.101	0.154	-0.074
-306.866	-109.435	0.095	-0.020
-305.851	-40.182	0.123	-0.064
-304.837	-143.697	-0.239	0.022
-303.822	-163.688	-0.081	-0.004
-302.807	-182.151	0.241	-0.004
-301.793	-200.000	0.013	0.091
-300.778	91.662	0.168	-0.187
-299.764	88.330	0.021	-0.023
-298.749	661.883	-0.021	-0.053
-297.735	-92.642	-0.118	-0.033
-296.720	305.581	-0.036	-0.067
-295.705	-138.615	-0.184	-0.020
-294.691	-200.000	0.023	-0.126
-293.676	71.616	0.069	0.071
-292.662	-48.331	-0.218	-0.104
-291.647	-22.659	0.173	-0.103
-290.632	800.000	0.077	-0.224
-289.618	168.668	0.044	0.063
-288.603	-200.000	-0.070	0.410
-287.589	-182.577	0.349	-0.006
-286.574	124.110	0.115	0.143
-285.559	436.877	0.082	0.177
-284.545	-145.867	0.041	-0.004
-283.530	800.000	0.011	-0.036
-282.516	-59.024	0.354	0.151
-281.501	-200.000	0.007	-0.073
-280.486	623.402	-0.209	0.521
-279.472	-197.400	0.181	-0.001
-278.457	161.980	0.116	-0.161
-277.443	-5.672	0.208	-0.141
-276.428	15.423	-0.285	-0.221
-275.413	40.514	-0.033	0.030
-274.399	51.455	0.065	-0.061
-273.384	413.441	-0.140	-0.295
-272.370	431.946	0.072	-0.155
-271.355	710.434	-0.066	0.173
-270.340	-200.000	-0.019	-0.198
-269.326	-13.787	0.183	0.117
-268.311	60.321	-0.183	-0.179
-267.297	6.017	-0.114	0.083
-266.282	33.554	0.008	0.007
-265.267	-200.000	0.063	0.299
-264.253	-200.000	-0.043	0.384
-263.238	-200.000	-0.023	-0.164
-262.224	800.000	0.091	0.335
-261.209	-36.887	-0.221	0.117
-260.195	-59.440	-0.020	0.008
-259.180	-74.452	0.144	0.051
-258.165	-200.000	-0.054	0.490
-257.151	-61.487	0.299	-0.124
-256.136	11.986	0.090	-0.068
-255.122	107.109	-0.046	0.053
-254.107	62.709	0.132	0.130
-253.092	-125.698	0.088	0.013
-252.078	-20.064	0.314	0.191
-251.063	800.000	-0.064	-0.196
-250.049	-200.000	-0.035	-0.260
-249.034	-200.000	-0.021	-0.112
-248.019	-23.291	0.156	-0.093
-247.005	-90.732	-0.242	-0.069
-245.990	195.421	-0.163	0.244
-244.976	-33.639	0.135	-0.073
-243.961	-15.323	0.154	-0.097
-242.946	-200.000	0.013	-0.180
-241.932	-200.000	0.019	-0.104
-240.917	-71.647	-0.151	0.056
-239.903	15.385	-0.054	0.042
-238.888	800.000	-0.126	-0.408
-237.873	-20.715	-0.165	-0.100
-236.859	459.742	-0.091	-0.199
-235.844	-112.445	-0.221	-0.044
-234.830	242.377	0.008	0.013
-233.815	298.051	-0.045	-0.082
-232.800	-91.125	0.240	0.068
-231.786	132.670	-0.237	0.301
-230.771	28.232	-0.219	0.183
-229.757	766.080	-0.074	-0.199
-228.742	-200.000	0.014	-0.184
-227.727	800.000	-0.086	0.245
-226.713	368.018	0.090	0.180
-225.698	-200.000	0.113	0.000
-224.684	-200.000	0.020	-0.262
-223.669	-20.052	0.178	0.108
-222.655	-0.749	0.205	0.143
-221.640	-200.000	0.005	-0.164
-220.625	414.543	0.157	-0.331
-219.611	56.340	0.149	-0.143
-218.596	737.379	-0.049	0.129
-217.582	98.313	0.193	0.219
-216.567	142.587	-0.184	0.241
-215.552	177.131	-0.142	0.204
-214.538	-200.000	0.001	0.006
-213.523	209.058	0.092	-0.142
-212.509	-200.000	-0.023	-0.146
-211.494	-159.882	-0.154	-0.008
-210.479	-3.445	0.104	0.071
-209.465	-72.591	0.200	-0.073
-208.450	180.292	0.111	0.161
-207.436	5.997	-0.186	0.136
-206.421	300.806	-0.131	0.239
-205.406	290.277	0.206	0.370
-204.392	101.163	-0.062	-0.071
-203.377	667.805	0.112	-0.286
-202.363	-78.583	-0.594	0.200
-201.348	-4.922	0.135	0.092
-200.333	-200.000	-0.053	-0.302
-199.319	-200.000	-0.024	0.246
-198.304	-75.192	-0.125	0.044
-197.290	-29.682	-0.133	-0.075
-196.275	-22.605	0.103	0.062
-195.260	260.425	-0.061	-0.104
-194.246	-138.438	-0.298	-0.032
-193.231	480.281	-0.134	0.299
-192.217	-87.699	0.236	0.070
-191.202	137.857	-0.187	0.241
-190.187	86.504	0.110	-0.119
-189.173	-94.127	0.298	0.081
-188.158	-200.000	-0.110	0.520
-187.144	295.571	-0.139	-0.250
-186.129	-109.519	-0.064	0.013
-185.114	-180.063	0.136	-0.003
-184.100	800.000	-0.031	0.116
-183.085	-108.663	0.271	-0.057
-182.071	81.545	-0.270	0.288
-181.056	-72.328	-0.303	-0.111
-180.042	-200.000	-0.002	0.028
-179.027	-17.101	0.325	-0.202
-178.012	-200.000	0.020	-0.216
-176.998	-159.486	0.157	-0.009
-175.983	-20.292	-0.184	0.111
-174.969	627.715	-0.122	-0.303
-173.954	36.155	0.129	-0.112
-172.939	-200.000	0.039	0.389
-171.925	-79.572	0.145	-0.048
-170.910	-103.397	-0.236	-0.055
-169.896	348.956	-0.118	0.229
-168.881	247.812	-0.048	0.080
-167.866	222.044	-0.053	0.084
-166.852	2.197	-0.101	0.072
-165.837	174.436	-0.186	-0.265
-164.823	-43.461	-0.015	-0.008
-163.808	-89.359	-0.151	0.044
-162.793	-141.755	-0.251	0.025
-161.779	-49.615	0.114	0.053
-160.764	-200.000	0.112	0.507
-159.750	77.661	0.273	0.286
-158.735	229.456	-0.183	0.293
-157.720	84.396	0.099	0.107
-156.706	90.216	-0.182	0.201
-155.691	37.654	-0.158	0.138
-154.677	-141.563	0.366	0.036
-153.662	-157.471	0.205	0.012
-152.647	28.066	-0.451	-0.374
-151.633	800.000	0.078	-0.330
-150.618	135.510	-0.099	-0.127
-149.604	-200.000	-0.029	0.132
-148.589	-83.082	0.159	-0.050
-147.574	-200.000	0.001	0.086
-146.560	800.000	-0.052	-0.214
-145.545	-200.000	0.001	-0.005
-144.531	800.000	-0.126	0.438
-143.516	-200.000	0.029	-0.237
-142.502	-116.524	-0.200	-0.036
-141.487	-200.000	-0.062	0.278
-140.472	-98.609	0.381	0.096
-139.458	-47.403	-0.167	-0.080
-138.443	-122.414	-0.269	-0.043
-137.429	-110.587	0.316	-0.064
-136.414	-200.000	-0.012	0.128
-135.399	356.522	-0.160	0.313
-134.385	-115.426	0.238	-0.044
-133.370	108.139	-0.364	-0.426
-132.356	-27.776	-0.161	-0.092
-131.341	-10.376	0.065	-0.043
-130.326	800.000	0.033	0.098
-129.312	-130.234	0.261	-0.035
-128.297	49.226	-0.235	-0.217
-127.283	-101.892	-0.345	0.082
-126.268	-53.821	0.324	0.145
-125.253	142.793	0.042	-0.055
-124.239	-200.000	-0.044	0.369
-123.224	449.542	0.161	0.350
-122.210	98.403	0.141	0.160
-121.195	413.471	0.141	0.295
