DTS Sentinel unit serial number:	SN413079Multiplexer serial number:	ORYXHardware model number:	OX4-SRSoftware version number:	ORYX F/W v4.00 Oryx Data Collector v3.7.2.0data status	okinstallation	princeton_trtdifferential loss correction	single-endedforward channel	channel 1reverse channel	N/Adate	2019/09/19time	13:58:35forward acquisition time	60.00reverse acquisition time	0.00gamma	496.2192k internal	0.2325k external	0.2325temperature offset calibration	1.0019default loss term (dB/km)	0.3790temperature slope calibration	1.0000multiplexer offset coefficient	1.0000multiplexer slope coefficient	1.0000fibre end	0.00T internal ref (°C)	31.06T ext. ref 1 (°C)	1.01T ext. ref 2 (°C)	28.24length (m)	temperature (°C)	Stokes	anti-Stokes-747.200	-54.033	0.037	-0.017
-746.185	27.862	-0.168	0.143
-745.171	-200.000	0.004	0.212
-744.156	-200.000	0.042	0.331
-743.142	800.000	0.062	-0.180
-742.127	193.340	-0.095	0.146
-741.112	-71.535	-0.164	-0.062
-740.098	43.624	0.315	0.290
-739.083	-200.000	0.029	0.135
-738.069	154.363	0.155	-0.215
-737.054	33.092	0.137	-0.120
-736.039	55.234	-0.230	0.224
-735.025	122.406	0.047	0.059
-734.010	87.996	-0.236	-0.264
-732.996	-89.396	0.047	-0.014
-731.981	110.523	0.169	0.205
-730.966	-30.845	-0.282	-0.161
-729.952	-130.824	-0.124	0.017
-728.937	264.152	0.156	0.275
-727.923	0.877	-0.210	0.152
-726.908	344.063	0.188	0.372
-725.894	378.020	-0.147	0.302
-724.879	38.076	-0.167	-0.150
-723.864	-158.603	-0.173	0.010
-722.850	118.032	0.133	-0.165
-721.835	-36.945	-0.373	-0.202
-720.821	549.526	-0.103	-0.249
-719.806	495.516	0.120	-0.277
-718.791	-200.000	0.067	-0.425
-717.777	-200.000	-0.039	-0.423
-716.762	-200.000	0.184	0.000
-715.748	-53.417	-0.058	-0.027
-714.733	-43.298	-0.394	-0.201
-713.718	650.929	-0.061	0.157
-712.704	-76.585	0.027	0.010
-711.689	158.372	-0.134	-0.187
-710.675	-71.195	-0.116	-0.044
-709.660	100.636	-0.413	-0.483
-708.645	-96.548	-0.353	0.094
-707.631	-84.388	-0.470	-0.150
-706.616	188.443	0.106	-0.160
-705.602	-70.712	-0.128	0.049
-704.587	800.000	-0.059	-0.258
-703.572	-73.463	0.117	0.043
-702.558	-16.698	-0.189	-0.120
-701.543	175.670	-0.196	0.287
-700.529	-200.000	-0.002	-0.183
-699.514	2.505	-0.158	-0.115
-698.499	800.000	-0.029	-0.091
-697.485	267.096	0.066	-0.117
-696.470	495.407	-0.151	-0.349
-695.456	492.770	0.016	0.036
-694.441	-147.593	0.156	0.013
-693.426	659.814	0.057	-0.148
-692.412	-200.000	-0.068	-0.321
-691.397	-200.000	0.007	0.105
-690.383	-78.358	-0.367	0.127
-689.368	-123.131	-0.196	0.032
-688.354	-149.701	0.083	0.007
-687.339	-77.753	-0.340	-0.118
-686.324	-70.121	0.130	-0.050
-685.310	207.490	0.165	-0.259
-684.295	151.183	-0.147	-0.201
-683.281	-65.431	0.121	0.049
-682.266	-124.286	-0.246	-0.039
-681.251	437.451	-0.065	-0.143
-680.237	-63.764	0.133	-0.055
-679.222	-122.587	0.069	-0.011
-678.208	-49.066	-0.203	-0.098
-677.193	-91.636	0.140	-0.040
-676.178	-146.999	-0.390	-0.034
-675.164	128.179	-0.225	0.289
-674.149	41.053	0.224	0.204
-673.135	-29.067	-0.238	0.137
-672.120	800.000	-0.050	0.163
-671.105	800.000	-0.091	-0.374
-670.091	574.213	0.065	-0.160
-669.076	140.186	-0.230	-0.305
-668.062	60.862	0.103	0.103
-667.047	-112.210	0.235	0.047
-666.032	-148.136	0.259	0.022
-665.018	34.107	-0.251	0.220
-664.003	-200.000	-0.011	0.141
-662.989	69.603	-0.061	-0.063
-661.974	319.599	0.066	-0.126
-660.959	326.869	-0.130	0.251
-659.945	-52.572	0.268	-0.125
-658.930	-58.513	0.292	-0.127
-657.916	35.176	-0.193	-0.170
-656.901	-39.085	-0.061	0.032
-655.886	-7.218	0.396	-0.270
-654.872	-26.567	-0.264	0.156
-653.857	153.453	-0.160	-0.220
-652.843	-200.000	-0.049	-0.229
-651.828	-200.000	-0.005	-0.295
-650.814	-64.434	0.219	-0.089
-649.799	290.321	0.133	0.244
-648.784	-165.799	-0.248	-0.011
-647.770	-200.000	0.013	-0.124
-646.755	-163.805	-0.298	0.014
-645.741	12.439	-0.322	-0.250
-644.726	-200.000	-0.058	-0.257
-643.711	-172.031	0.318	-0.010
-642.697	-140.988	0.385	0.040
-641.682	-2.127	0.071	-0.050
-640.668	-82.705	0.144	-0.047
-639.653	47.387	0.106	-0.099
-638.638	30.025	-0.080	-0.069
-637.624	-149.380	-0.332	-0.027
-636.609	55.994	-0.125	0.122
-635.595	-36.605	-0.299	-0.162
-634.580	-52.859	0.258	-0.119
-633.565	-200.000	0.050	-0.306
-632.551	139.632	0.183	0.243
-631.536	-77.954	-0.236	-0.082
-630.522	-200.000	0.060	0.307
-629.507	349.738	-0.080	0.158
-628.492	800.000	0.099	0.359
-627.478	-200.000	-0.001	-0.189
-626.463	-200.000	0.007	-0.177
-625.449	735.837	0.081	0.219
-624.434	23.897	-0.449	-0.372
-623.419	252.686	0.102	0.175
-622.405	367.420	0.112	-0.227
-621.390	297.520	0.063	-0.116
-620.376	151.744	0.198	-0.272
-619.361	237.300	0.093	-0.155
-618.346	-200.000	0.031	-0.143
-617.332	-200.000	-0.007	-0.068
-616.317	-0.826	0.140	0.100
-615.303	-105.717	-0.206	0.047
-614.288	800.000	0.055	-0.167
-613.273	-30.602	0.098	-0.056
-612.259	565.488	-0.061	-0.148
-611.244	493.112	0.162	-0.374
-610.230	-34.235	-0.168	-0.093
-609.215	-98.559	-0.146	-0.037
-608.201	-68.371	0.161	0.063
-607.186	-75.927	0.311	-0.111
-606.171	632.405	-0.094	-0.240
-605.157	800.000	0.104	-0.422
-604.142	283.543	-0.037	-0.066
-603.128	800.000	0.069	-0.247
-602.113	260.645	-0.120	-0.208
-601.098	-73.469	-0.337	0.123
-600.084	-200.000	0.039	-0.236
-599.069	29.654	-0.307	-0.262
-598.055	545.574	0.099	-0.236
-597.040	800.000	0.090	-0.258
-596.025	-181.689	-0.081	0.002
-595.011	242.591	0.092	-0.154
-593.996	-199.659	0.358	-0.002
-592.982	-34.267	0.194	-0.107
-591.967	721.753	0.122	-0.325
-590.952	396.133	0.148	-0.311
-589.938	80.104	0.149	0.161
-588.923	141.321	-0.095	-0.126
-587.909	30.640	0.272	-0.234
-586.894	-200.000	0.021	-0.266
-585.879	800.000	-0.083	-0.239
-584.865	203.010	0.128	0.199
-583.850	-24.225	-0.293	0.175
-582.836	-200.000	-0.017	0.235
-581.821	-200.000	-0.010	-0.324
-580.806	-200.000	-0.029	0.265
-579.792	373.486	-0.185	-0.377
-578.777	-200.000	-0.002	0.093
-577.763	137.346	0.073	0.096
-576.748	2.769	0.182	0.132
-575.733	-122.802	-0.120	0.019
-574.719	378.558	-0.074	0.153
-573.704	-76.021	-0.015	0.005
-572.690	439.653	-0.135	-0.295
-571.675	424.933	-0.089	-0.192
-570.661	800.000	0.108	0.365
-569.646	-200.000	0.027	0.193
-568.631	-149.230	0.237	-0.019
-567.617	-184.013	0.092	-0.002
-566.602	-200.000	-0.004	0.170
-565.588	289.083	0.164	0.298
-564.573	-200.000	-0.018	-0.097
-563.558	-163.650	-0.127	-0.006
-562.544	103.464	-0.145	0.170
-561.529	117.826	-0.147	0.181
-560.515	-21.063	-0.228	-0.140
-559.500	456.545	0.082	0.182
-558.485	-200.000	-0.022	0.257
-557.471	800.000	0.055	-0.163
-556.456	-59.410	0.241	0.104
-555.442	-200.000	0.031	0.215
-554.427	-39.588	0.155	0.081
-553.412	-200.000	-0.021	-0.106
-552.398	415.722	0.084	-0.180
-551.383	800.000	-0.056	-0.240
-550.369	167.362	0.145	-0.206
-549.354	800.000	0.069	-0.203
-548.339	-169.836	-0.485	-0.017
-547.325	20.892	-0.320	-0.260
-546.310	-76.745	0.106	0.037
-545.296	149.302	0.056	-0.076
-544.281	107.973	0.186	-0.222
-543.266	-2.971	0.315	-0.221
-542.252	295.064	0.081	-0.149
-541.237	-133.986	-0.442	0.055
-540.223	-57.649	0.366	0.160
-539.208	-170.884	0.361	-0.012
-538.193	-200.000	0.008	-0.330
-537.179	-10.458	0.167	0.111
-536.164	226.627	-0.194	-0.315
-535.150	104.674	-0.091	0.107
-534.135	-85.219	-0.078	-0.024
-533.121	273.386	0.096	-0.169
-532.106	-29.333	0.184	-0.105
-531.091	-200.000	0.049	0.469
-530.077	-200.000	-0.000	-0.242
-529.062	-22.450	0.165	0.100
-528.048	-49.593	0.038	0.018
-527.033	-88.186	0.122	-0.036
-526.018	-128.976	-0.091	-0.013
-525.004	-4.580	-0.120	0.083
-523.989	-200.000	-0.028	-0.195
-522.975	-136.006	-0.175	0.021
-521.960	-111.932	-0.180	0.036
-520.945	800.000	-0.035	0.149
-519.931	800.000	-0.060	0.232
-518.916	-200.000	0.014	0.221
-517.902	396.676	-0.161	-0.336
-516.887	31.443	-0.203	-0.175
-515.872	-58.543	0.167	0.072
-514.858	91.864	-0.141	-0.158
-513.843	401.613	-0.102	0.213
-512.829	336.839	-0.040	-0.079
-511.814	-94.779	0.088	-0.024
-510.799	-200.000	0.019	-0.232
-509.785	-152.893	0.194	0.014
-508.770	171.242	-0.084	0.121
-507.756	-149.214	0.159	0.013
-506.741	800.000	-0.077	-0.309
-505.726	-108.885	-0.109	-0.023
-504.712	800.000	-0.065	-0.202
-503.697	71.358	-0.135	0.140
-502.683	-72.702	-0.172	0.064
-501.668	800.000	0.042	-0.161
-500.653	244.623	-0.177	0.298
-499.639	-28.389	-0.256	0.148
-498.624	-189.231	-0.271	0.003
-497.610	800.000	0.074	0.285
-496.595	20.976	0.253	0.205
-495.581	325.064	-0.060	-0.114
-494.566	-200.000	0.197	-0.001
-493.551	-107.998	-0.215	-0.047
-492.537	-200.000	0.006	0.055
-491.522	112.466	-0.142	-0.171
-490.508	-200.000	-0.034	0.341
-489.493	-83.316	0.097	-0.031
-488.478	-94.622	0.087	-0.024
-487.464	800.000	-0.031	-0.115
-486.449	-200.000	0.021	0.111
-485.435	11.377	-0.176	0.135
-484.420	636.636	0.014	-0.037
-483.405	770.135	0.026	0.071
-482.391	-200.000	0.051	0.303
-481.376	800.000	0.037	0.120
-480.362	-61.271	-0.060	0.025
-479.347	200.256	-0.167	0.255
-478.332	-163.615	-0.149	-0.007
-477.318	128.659	0.110	0.140
-476.303	-200.000	0.036	-0.213
-475.289	-141.823	-0.257	0.026
-474.274	-41.623	-0.309	0.159
-473.259	-5.436	0.090	-0.062
-472.245	200.224	0.163	-0.250
-471.230	166.212	-0.108	-0.152
-470.216	-200.000	-0.003	0.367
-469.201	-161.839	-0.183	0.009
-468.186	68.255	0.249	-0.254
-467.172	-200.000	0.066	-0.418
-466.157	-168.772	0.404	0.015
-465.143	-130.615	-0.399	0.054
-464.128	800.000	-0.010	0.038
-463.113	-200.000	0.025	-0.142
-462.099	187.917	0.063	-0.094
-461.084	-200.000	-0.039	0.307
-460.070	-78.583	0.175	0.060
-459.055	-17.467	0.183	0.115
-458.040	-27.181	0.136	0.079
-457.026	-114.967	-0.083	0.016
-456.011	-52.711	0.197	0.091
-454.997	-17.388	-0.400	0.251
-453.982	10.102	-0.120	0.091
-452.968	-180.259	0.267	-0.006
-451.953	-200.000	0.016	-0.372
-450.938	142.283	0.235	-0.311
-449.924	-44.822	0.127	0.063
-448.909	546.715	-0.062	-0.147
-447.895	640.470	0.163	-0.413
-446.880	-200.000	0.025	-0.228
-445.865	-101.037	0.179	0.044
-444.851	-28.945	0.269	-0.154
-443.836	644.411	-0.024	0.062
-442.822	153.028	-0.089	0.121
-441.807	496.942	-0.098	-0.225
-440.792	-156.382	0.292	-0.018
-439.778	-158.009	-0.171	0.010
-438.763	471.315	-0.088	0.198
-437.749	-200.000	-0.011	0.096
-436.734	-51.411	-0.404	-0.188
-435.719	-168.764	0.160	0.006
-434.705	-101.537	0.075	-0.018
-433.690	133.101	-0.157	-0.202
-432.676	52.010	0.071	-0.068
-431.661	-99.040	0.152	0.038
-430.646	-90.386	-0.030	0.009
-429.632	75.623	-0.120	-0.127
-428.617	226.436	0.099	0.160
-427.603	287.662	-0.077	0.139
-426.588	-200.000	-0.018	0.217
-425.573	295.195	-0.166	-0.303
-424.559	-23.227	0.272	-0.163
-423.544	-164.750	-0.120	-0.005
-422.530	800.000	0.089	0.278
-421.515	800.000	0.096	-0.311
-420.500	23.090	0.181	0.148
-419.486	331.802	-0.032	-0.061
-418.471	-76.601	-0.335	-0.117
-417.457	-162.440	-0.236	-0.012
-416.442	800.000	0.023	0.073
-415.428	644.261	0.066	-0.168
-414.413	175.984	-0.204	0.295
-413.398	-148.868	-0.248	-0.020
-412.384	515.638	0.101	0.236
-411.369	-145.766	0.272	-0.024
-410.355	109.299	0.158	0.188
-409.340	7.201	-0.340	0.253
-408.325	-57.695	0.351	-0.153
-407.311	-7.755	-0.120	0.081
-406.296	-77.644	-0.046	-0.016
-405.282	600.461	0.044	0.110
-404.267	-200.000	-0.009	0.157
-403.252	-132.336	0.363	0.047
-402.238	-6.440	0.431	0.293
-401.223	-39.083	0.217	-0.114
-400.209	5.125	-0.270	0.198
-399.194	20.009	0.247	0.198
-398.179	-200.000	-0.062	0.281
-397.165	244.326	-0.057	0.096
-396.150	-137.868	0.169	0.019
-395.136	24.028	-0.190	-0.156
-394.121	-168.050	-0.277	0.011
-393.106	-136.479	-0.229	-0.026
-392.092	-66.543	0.084	-0.033
-391.077	-81.957	0.090	-0.029
-390.063	-136.140	0.096	-0.011
-389.048	-82.337	-0.241	0.078
-388.033	2.166	-0.083	0.060
-387.019	-55.863	0.168	-0.075
-386.004	-200.000	0.017	0.116
-384.990	11.931	-0.057	0.044
-383.975	-200.000	-0.062	-0.585
-382.960	141.649	-0.100	-0.132
-381.946	800.000	0.028	-0.107
-380.931	800.000	0.035	0.141
-379.917	-53.718	-0.129	0.059
-378.902	-69.414	0.214	-0.082
-377.888	148.406	-0.133	0.179
-376.873	24.796	0.128	0.106
-375.858	-0.906	0.374	0.263
-374.844	-77.723	-0.091	-0.031
-373.829	800.000	-0.110	-0.415
-372.815	-2.916	-0.345	0.240
-371.800	699.998	-0.097	-0.255
-370.785	220.811	0.138	0.220
-369.771	-116.377	-0.183	-0.034
-368.756	45.384	0.072	-0.066
-367.742	99.780	-0.101	0.116
-366.727	800.000	-0.123	0.392
-365.712	-86.701	-0.088	-0.027
-364.698	68.464	-0.244	-0.249
-363.683	-150.945	0.278	0.021
-362.669	-156.742	-0.303	-0.019
-361.654	800.000	0.039	0.108
-360.639	111.844	-0.121	-0.145
-359.625	-200.000	-0.008	0.119
-358.610	-156.019	0.200	0.013
-357.596	-200.000	0.031	-0.319
-356.581	263.251	0.106	-0.184
-355.566	-175.886	0.239	-0.006
-354.552	-200.000	-0.046	0.401
-353.537	-200.000	-0.021	0.182
-352.523	-200.000	-0.096	0.508
-351.508	800.000	-0.021	-0.083
-350.493	-200.000	-0.025	-0.129
-349.479	35.553	-0.248	-0.216
-348.464	13.574	0.026	0.020
-347.450	-24.542	-0.300	-0.177
-346.435	-200.000	-0.064	-0.280
-345.420	23.623	-0.339	-0.277
-344.406	453.843	0.225	-0.496
-343.391	-91.789	0.102	-0.029
-342.377	-200.000	-0.001	0.344
-341.362	224.564	-0.027	0.044
-340.348	247.178	-0.105	0.175
-339.333	167.496	-0.266	-0.376
-338.318	555.151	-0.023	-0.055
-337.304	330.345	-0.136	0.261
-336.289	800.000	0.048	0.160
-335.275	-4.064	-0.207	0.142
-334.260	233.484	0.249	0.408
-333.245	-178.831	-0.200	0.005
-332.231	385.745	-0.065	0.134
-331.216	-53.497	0.119	0.054
-330.202	152.625	-0.079	-0.107
-329.187	800.000	-0.039	0.156
-328.172	-16.233	0.098	0.062
-327.158	800.000	-0.029	-0.105
-326.143	0.191	-0.176	0.125
-325.129	800.000	-0.075	0.294
-324.114	-10.341	0.179	-0.118
-323.099	800.000	0.034	0.120
-322.085	715.059	0.116	-0.306
-321.070	19.256	0.119	0.095
-320.056	-8.839	-0.033	-0.022
-319.041	335.115	0.021	-0.040
-318.026	24.182	-0.180	-0.148
-317.012	800.000	0.043	-0.154
-315.997	-200.000	0.026	0.340
-314.983	-194.357	-0.174	0.001
-313.968	-200.000	-0.058	-0.356
-312.953	-200.000	0.073	0.373
-311.939	-130.551	-0.220	0.029
-310.924	800.000	-0.081	0.260
-309.910	67.764	-0.125	-0.126
-308.895	800.000	0.039	-0.109
-307.880	42.206	0.098	-0.088
-306.866	430.541	-0.056	0.121
-305.851	-200.000	-0.001	-0.162
-304.837	203.817	0.156	0.240
-303.822	800.000	0.111	-0.386
-302.807	-124.018	0.038	0.006
-301.793	-78.863	-0.198	-0.067
-300.778	-200.000	0.044	0.390
-299.764	7.180	0.061	0.045
-298.749	-64.732	-0.156	-0.063
-297.735	-200.000	0.030	-0.192
-296.720	85.167	0.080	0.088
-295.705	78.993	0.209	-0.222
-294.691	800.000	0.080	-0.267
-293.676	-200.000	-0.086	-0.418
-292.662	46.213	-0.193	0.178
-291.647	92.599	0.144	0.161
-290.632	-86.376	0.071	-0.022
-289.618	-200.000	-0.015	0.159
-288.603	-129.189	-0.224	-0.031
-287.589	-22.148	-0.180	0.109
-286.574	-106.819	0.208	0.046
-285.559	33.104	0.104	-0.089
-284.545	55.044	-0.147	0.141
-283.530	-99.796	0.256	-0.063
-282.516	-135.725	0.114	0.013
-281.501	-140.292	0.075	0.008
-280.486	-60.676	0.111	-0.047
-279.472	27.853	-0.132	-0.110
-278.457	-64.979	0.175	0.070
-277.443	-200.000	-0.026	0.320
-276.428	-23.284	-0.139	0.083
-275.413	175.611	-0.181	0.259
-274.399	143.195	0.125	0.165
-273.384	43.611	-0.141	-0.128
-272.370	800.000	-0.012	-0.053
-271.355	339.685	-0.105	0.203
-270.340	-64.031	-0.107	-0.043
-269.326	143.473	-0.112	0.148
-268.311	-200.000	-0.002	0.358
-267.297	-200.000	0.024	-0.155
-266.282	-94.375	0.136	-0.037
-265.267	-191.312	0.226	-0.002
-264.253	800.000	0.008	0.025
-263.238	157.498	-0.034	-0.047
-262.224	-120.519	0.429	0.072
-261.209	143.026	0.143	0.189
-260.195	487.285	0.105	-0.238
-259.180	-45.929	-0.031	-0.015
-258.165	-200.000	-0.012	0.593
-257.151	-200.000	-0.006	-0.078
-256.136	-200.000	-0.000	-0.117
-255.122	96.436	-0.145	0.165
-254.107	-187.792	0.294	-0.004
-253.092	-200.000	-0.002	0.252
-252.078	-143.625	-0.255	0.024
-251.063	-200.000	-0.039	0.354
-250.049	-34.495	0.155	-0.084
-249.034	-200.000	0.000	0.128
-248.019	-55.819	-0.079	0.035
-247.005	25.868	0.251	-0.207
-245.990	-78.765	0.242	0.082
-244.976	800.000	-0.077	0.218
-243.961	430.851	-0.096	0.207
-242.946	353.178	-0.039	-0.077
-241.932	-200.000	0.006	0.188
-240.917	-200.000	-0.032	0.223
-239.903	-57.724	0.285	-0.124
-238.888	157.748	-0.044	-0.060
-237.873	-102.995	0.059	-0.014
-236.859	486.797	0.080	-0.181
-235.844	-200.000	0.009	-0.046
-234.830	800.000	-0.020	-0.066
-233.815	-200.000	0.003	0.077
-232.800	-200.000	-0.020	0.357
-231.786	-200.000	-0.002	0.354
-230.771	-82.078	-0.183	0.059
-229.757	-43.995	0.295	-0.147
-228.742	109.882	-0.092	0.109
-227.727	-58.931	-0.300	-0.128
-226.713	23.437	0.069	-0.056
-225.698	-87.439	-0.300	0.090
-224.684	800.000	-0.084	-0.325
-223.669	216.197	0.083	-0.130
-222.655	-200.000	0.359	-0.001
-221.640	55.503	-0.148	-0.142
-220.625	-13.123	0.189	-0.122
-219.611	13.414	0.272	0.209
-218.596	-200.000	0.000	0.396
-217.582	-43.540	-0.192	0.096
-216.567	527.971	-0.106	0.247
-215.552	-200.000	-0.014	-0.288
-214.538	38.875	-0.307	0.271
-213.523	65.675	-0.010	0.010
-212.509	-200.000	-0.001	0.209
-211.494	800.000	0.076	0.299
-210.479	-195.001	0.385	0.003
-209.465	393.138	0.131	0.270
-208.450	28.508	0.307	0.257
-207.436	133.693	-0.058	0.074
-206.421	130.412	-0.313	0.396
-205.406	-200.000	-0.032	0.175
-204.392	800.000	0.103	0.300
-203.377	800.000	-0.127	0.362
-202.363	306.945	0.201	-0.369
-201.348	278.584	0.160	-0.282
-200.333	-7.717	-0.175	-0.117
-199.319	158.986	-0.344	-0.472
-198.304	-200.000	-0.018	0.176
-197.290	800.000	-0.080	0.221
-196.275	-200.000	-0.005	0.170
-195.260	800.000	0.080	0.274
-194.246	-86.463	0.157	-0.048
-193.231	211.327	0.069	-0.107
-192.217	79.626	0.161	0.170
-191.202	782.190	0.131	-0.354
-190.187	211.151	0.097	-0.150
-189.173	226.908	0.074	-0.119
-188.158	-200.000	-0.045	-0.234
-187.144	-78.867	-0.137	-0.046
-186.129	35.429	-0.255	0.221
-185.114	127.536	-0.096	-0.120
-184.100	800.000	-0.077	0.283
-183.085	41.591	-0.128	-0.115
-182.071	-200.000	0.007	-0.228
-181.056	-200.000	-0.012	-0.089
-180.042	-62.122	-0.104	-0.043
-179.027	237.193	-0.076	-0.125
-178.012	-200.000	0.047	0.324
-176.998	377.110	0.074	-0.149
-175.983	-84.641	-0.159	0.049
-174.969	-48.940	0.211	0.100
-173.954	-200.000	0.016	0.078
-172.939	-74.922	0.289	0.102
-171.925	-10.167	-0.375	0.246
-170.910	-88.913	-0.205	0.060
-169.896	8.438	0.110	-0.082
-168.881	800.000	0.105	-0.311
-167.866	800.000	0.045	-0.179
-166.852	-8.741	-0.222	0.147
-165.837	6.803	-0.245	0.180
-164.823	55.903	0.211	0.202
-163.808	23.879	0.237	-0.193
-162.793	-100.721	0.055	-0.013
-161.779	-115.595	0.412	0.076
-160.764	-20.514	0.243	0.147
-159.750	-47.040	-0.437	-0.210
-158.735	-77.946	-0.273	-0.093
-157.720	-69.165	-0.168	-0.064
-156.706	87.152	-0.063	-0.069
-155.691	-200.000	-0.022	0.230
-154.677	-100.643	0.272	-0.066
-153.662	-132.782	0.219	-0.028
-152.647	-200.000	-0.010	-0.144
-151.633	58.886	0.185	-0.180
-150.618	-106.022	-0.290	0.064
-149.604	-90.094	0.211	0.061
-148.589	-64.159	-0.328	0.132
-147.574	115.858	-0.208	0.251
-146.560	51.278	-0.203	-0.190
-145.545	112.442	0.123	0.147
-144.531	5.637	-0.318	-0.232
-143.516	-78.783	0.367	-0.123
-142.502	200.195	0.112	-0.169
-141.487	54.276	-0.305	0.289
-140.472	-25.560	-0.199	0.116
-139.458	-200.000	-0.011	0.219
-138.443	-140.811	-0.207	0.021
-137.429	-51.284	-0.199	-0.092
-136.414	-134.571	0.337	-0.040
-135.399	357.951	-0.030	-0.059
-134.385	-18.639	-0.101	-0.062
-133.370	-200.000	0.038	-0.253
-132.356	-143.575	-0.381	-0.036
-131.341	800.000	-0.109	0.384
-130.326	800.000	-0.052	0.217
-129.312	210.949	-0.013	0.021
-128.297	-74.750	-0.054	-0.019
-127.283	553.448	0.057	0.135
-126.268	-200.000	-0.074	-0.365
-125.253	4.216	-0.316	-0.228
-124.239	-84.262	-0.147	0.046
-123.224	111.939	0.278	0.331
-122.210	-200.000	0.007	0.044
