DTS Sentinel unit serial number:	SN413079Multiplexer serial number:	ORYXHardware model number:	OX4-SRSoftware version number:	ORYX F/W v4.00 Oryx Data Collector v3.7.2.0data status	okinstallation	princeton_trtdifferential loss correction	single-endedforward channel	channel 1reverse channel	N/Adate	2019/09/15time	16:10:35forward acquisition time	60.00reverse acquisition time	0.00gamma	496.2192k internal	0.2291k external	0.2291temperature offset calibration	0.9936default loss term (dB/km)	0.3790temperature slope calibration	1.0000multiplexer offset coefficient	1.0000multiplexer slope coefficient	1.0000fibre end	0.00T internal ref (°C)	43.20T ext. ref 1 (°C)	5.40T ext. ref 2 (°C)	40.80length (m)	temperature (°C)	Stokes	anti-Stokes-747.200	-22.352	-0.200	-0.124
-746.185	-200.000	-0.003	0.025
-745.171	-40.992	0.031	0.016
-744.156	127.469	-0.195	0.253
-743.142	-14.449	0.063	0.041
-742.127	287.822	0.142	0.263
-741.112	-103.088	0.389	-0.094
-740.098	183.256	0.109	0.164
-739.083	92.867	0.143	-0.165
-738.069	-20.536	-0.066	-0.041
-737.054	-200.000	-0.002	-0.147
-736.039	332.736	0.039	0.078
-735.025	102.077	0.145	0.174
-734.010	800.000	0.095	-0.311
-732.996	-151.890	-0.062	-0.005
-731.981	-27.854	-0.221	-0.131
-730.966	800.000	-0.096	0.304
-729.952	-8.729	0.239	-0.164
-728.937	-200.000	-0.016	0.092
-727.923	-100.572	0.306	-0.078
-726.908	94.704	0.076	-0.088
-725.894	-44.992	0.042	0.021
-724.879	7.627	0.137	0.105
-723.864	-200.000	-0.027	-0.151
-722.850	84.345	-0.169	-0.190
-721.835	-200.000	0.008	0.273
-720.821	191.474	0.290	-0.447
-719.806	-200.000	0.006	-0.201
-718.791	190.075	0.190	0.292
-717.777	533.370	-0.027	0.066
-716.762	249.834	-0.023	0.041
-715.748	-14.526	0.123	-0.081
-714.733	-200.000	0.026	-0.209
-713.718	45.126	-0.098	0.092
-712.704	-200.000	0.050	0.409
-711.689	-137.286	0.358	-0.042
-710.675	1.373	0.182	0.133
-709.660	19.651	-0.059	0.049
-708.645	10.962	0.144	0.112
-707.631	29.531	0.052	0.045
-706.616	167.222	0.127	-0.185
-705.602	17.778	-0.265	-0.215
-704.587	-24.422	-0.270	-0.165
-703.572	-95.706	0.168	0.046
-702.558	-1.065	-0.077	0.056
-701.543	-132.172	0.162	0.022
-700.529	12.099	0.208	-0.163
-699.514	-61.983	-0.011	0.005
-698.499	-200.000	-0.075	0.494
-697.485	191.146	-0.155	0.238
-696.470	290.472	0.079	-0.147
-695.456	4.883	-0.250	-0.188
-694.441	175.920	0.091	0.135
-693.426	40.155	0.175	0.161
-692.412	-200.000	0.016	0.137
-691.397	-108.210	0.110	-0.024
-690.383	428.761	-0.055	-0.120
-689.368	-89.183	-0.136	0.041
-688.354	32.180	0.198	0.174
-687.339	-127.887	0.110	0.016
-686.324	-200.000	-0.015	-0.391
-685.310	135.964	-0.231	-0.308
-684.295	-200.000	0.032	-0.186
-683.281	141.311	0.079	-0.106
-682.266	800.000	-0.002	0.006
-681.251	-60.245	-0.230	-0.100
-680.237	-26.562	0.308	-0.184
-679.222	-44.168	-0.178	0.091
-678.208	-53.647	0.048	-0.023
-677.193	-200.000	-0.016	-0.213
-676.178	-158.792	-0.379	-0.022
-675.164	112.088	0.098	0.121
-674.149	-2.093	-0.109	-0.078
-673.135	-136.166	0.567	0.068
-672.120	-141.929	0.201	-0.020
-671.105	34.824	-0.190	0.170
-670.091	315.284	-0.045	0.086
-669.076	-5.686	0.160	0.112
-668.062	-43.785	0.257	0.132
-667.047	126.180	0.161	-0.208
-666.032	-139.391	-0.479	-0.052
-665.018	463.829	0.108	0.247
-664.003	-200.000	-0.006	-0.095
-662.989	-29.150	0.222	-0.130
-661.974	318.882	0.112	-0.217
-660.959	-142.654	0.089	-0.009
-659.945	-42.646	0.221	0.115
-658.930	-131.527	-0.078	-0.011
-657.916	34.999	-0.119	0.106
-656.901	800.000	0.049	0.149
-655.886	-200.000	0.028	0.267
-654.872	-75.988	-0.134	0.049
-653.857	-24.937	0.178	-0.108
-652.843	347.278	0.052	-0.105
-651.828	-6.293	0.044	-0.031
-650.814	39.126	-0.010	0.009
-649.799	27.477	-0.135	0.116
-648.784	44.879	0.128	-0.120
-647.770	6.592	0.165	-0.125
-646.755	39.309	0.129	0.118
-645.741	-105.630	-0.176	0.041
-644.726	-156.512	-0.334	0.021
-643.711	-3.446	-0.414	-0.294
-642.697	543.820	0.102	0.248
-641.682	-44.197	-0.042	0.022
-640.668	70.880	0.294	-0.311
-639.653	-158.974	-0.123	0.007
-638.638	-82.623	-0.210	-0.069
-637.624	82.093	0.129	-0.142
-636.609	268.036	-0.061	-0.108
-635.595	-119.644	-0.392	0.069
-634.580	228.559	-0.097	0.161
-633.565	662.311	-0.133	-0.350
-632.551	-158.092	0.106	0.006
-631.536	780.652	-0.031	-0.086
-630.522	638.867	-0.052	0.134
-629.507	19.290	0.099	-0.081
-628.492	-45.521	-0.217	-0.110
-627.478	498.499	-0.041	-0.096
-626.463	-108.095	0.210	0.046
-625.449	800.000	-0.079	-0.230
-624.434	-57.861	-0.108	-0.048
-623.419	382.453	-0.032	-0.067
-622.405	501.656	0.059	-0.140
-621.390	-89.077	-0.083	0.025
-620.376	-153.483	0.223	-0.016
-619.361	-200.000	-0.087	-0.000
-618.346	-200.000	0.069	-0.577
-617.332	-3.636	0.295	0.209
-616.317	-200.000	-0.024	-0.109
-615.303	-77.506	0.237	0.084
-614.288	-61.616	0.071	-0.030
-613.273	250.735	-0.008	0.014
-612.259	120.532	-0.008	-0.010
-611.244	61.437	-0.100	-0.101
-610.230	-58.114	0.142	-0.063
-609.215	800.000	-0.016	-0.055
-608.201	-145.910	-0.172	0.016
-607.186	75.993	-0.051	-0.055
-606.171	-200.000	-0.024	0.187
-605.157	32.124	-0.212	0.186
-604.142	-153.591	-0.234	0.016
-603.128	-39.203	-0.204	0.109
-602.113	-200.000	0.003	-0.100
-601.098	-21.060	-0.083	0.052
-600.084	-200.000	0.049	0.431
-599.069	-25.171	-0.344	-0.207
-598.055	111.218	-0.167	0.205
-597.040	-149.903	0.412	-0.033
-596.025	-42.214	0.337	0.175
-595.011	-92.598	0.392	0.112
-593.996	-37.052	0.078	0.042
-592.982	-157.220	-0.373	0.023
-591.967	414.625	-0.067	-0.145
-590.952	228.203	-0.046	-0.077
-589.938	-47.570	-0.038	0.019
-588.923	25.641	0.283	0.240
-587.909	225.512	0.085	-0.140
-586.894	-39.811	0.241	-0.128
-585.879	499.651	-0.128	0.300
-584.865	42.613	-0.269	-0.249
-583.850	-21.921	0.185	-0.114
-582.836	-200.000	-0.043	-0.226
-581.821	-200.000	0.092	-0.475
-580.806	-32.470	-0.035	-0.020
-579.792	-69.239	-0.532	-0.208
-578.777	-159.840	0.502	-0.028
-577.763	-6.009	-0.026	0.018
-576.748	-156.463	-0.201	0.013
-575.733	-108.253	-0.079	-0.017
-574.719	22.008	0.203	0.169
-573.704	21.027	0.343	0.283
-572.690	-76.529	0.248	0.089
-571.675	-30.137	-0.232	0.134
-570.661	56.356	0.049	0.049
-569.646	332.988	0.093	-0.184
-568.631	138.889	-0.153	-0.205
-567.617	-126.919	-0.193	-0.029
-566.602	-3.158	-0.204	0.145
-565.588	-79.993	0.080	-0.027
-564.573	-200.000	-0.007	0.073
-563.558	-82.415	0.238	-0.079
-562.544	506.453	-0.096	0.226
-561.529	-11.580	0.231	0.155
-560.515	800.000	-0.010	0.033
-559.500	-66.749	-0.205	0.083
-558.485	-94.953	-0.107	0.030
-557.471	-31.302	-0.091	-0.052
-556.456	-62.284	0.197	0.083
-555.442	16.467	-0.141	0.113
-554.427	-200.000	-0.010	-0.140
-553.412	35.169	0.135	0.121
-552.398	154.909	-0.063	-0.088
-551.383	435.514	0.049	-0.108
-550.369	-200.000	0.038	0.206
-549.354	-53.866	-0.288	-0.134
-548.339	-116.466	0.370	-0.069
-547.325	193.138	0.114	0.175
-546.310	64.819	0.292	-0.299
-545.296	-95.443	-0.406	-0.111
-544.281	105.881	0.056	0.067
-543.266	-190.573	0.229	0.003
-542.252	92.664	0.060	0.069
-541.237	-20.464	-0.208	-0.130
-540.223	-67.882	-0.298	-0.118
-539.208	182.041	0.083	-0.124
-538.193	-82.802	0.115	-0.038
-537.179	109.622	0.082	0.099
-536.164	-139.026	-0.446	-0.049
-535.150	384.687	0.026	0.054
-534.135	56.456	-0.099	-0.098
-533.121	98.258	-0.199	-0.233
-532.106	-133.348	-0.341	0.044
-531.091	227.019	-0.180	0.298
-530.077	-200.000	-0.021	0.168
-529.062	-128.459	-0.243	-0.035
-528.048	-200.000	-0.027	-0.281
-527.033	347.162	-0.080	0.159
-526.018	-200.000	-0.029	0.209
-525.004	-80.801	0.144	0.049
-523.989	800.000	-0.074	0.245
-522.975	354.283	0.018	0.036
-521.960	-14.229	0.290	-0.190
-520.945	172.794	0.254	-0.371
-519.931	800.000	0.014	0.046
-518.916	800.000	-0.021	0.076
-517.902	-163.207	-0.259	-0.013
-516.887	20.633	0.115	-0.094
-515.872	-167.999	0.258	0.010
-514.858	-86.619	0.403	0.125
-513.843	-14.577	0.152	-0.099
-512.829	69.899	-0.160	-0.168
-511.814	-4.786	-0.166	-0.116
-510.799	-70.930	0.161	0.062
-509.785	-49.470	0.304	0.147
-508.770	-200.000	-0.019	-0.169
-507.756	-98.904	0.120	0.031
-506.741	18.736	-0.191	-0.155
-505.726	-83.629	-0.290	0.094
-504.712	274.643	0.068	0.122
-503.697	451.241	-0.042	-0.093
-502.683	45.683	0.138	-0.130
-501.668	225.820	-0.167	0.274
-500.653	197.349	-0.095	0.148
-499.639	87.848	0.073	0.082
-498.624	39.495	0.206	-0.187
-497.610	-115.543	-0.177	-0.034
-496.595	-200.000	0.064	-0.301
-495.581	-73.420	-0.225	-0.083
-494.566	116.999	0.046	-0.058
-493.551	-152.808	-0.213	-0.015
-492.537	-86.825	0.284	0.088
-491.522	-100.745	0.245	0.061
-490.508	-47.614	-0.228	0.112
-489.493	-4.584	-0.032	-0.022
-488.478	244.503	0.092	-0.157
-487.464	-200.000	-0.022	-0.324
-486.449	1.231	0.101	-0.074
-485.435	-200.000	-0.045	-0.470
-484.420	-200.000	-0.015	-0.200
-483.405	65.170	0.308	0.316
-482.391	373.933	0.123	-0.254
-481.376	-187.558	-0.121	0.002
-480.362	-31.294	0.208	0.119
-479.347	-31.990	0.169	0.096
-478.332	175.400	-0.142	0.208
-477.318	-200.000	-0.017	-0.270
-476.303	250.310	-0.093	0.160
-475.289	-116.135	0.195	-0.037
-474.274	-68.971	-0.103	0.040
-473.259	130.464	0.072	-0.094
-472.245	-25.266	-0.200	0.120
-471.230	-20.743	-0.017	-0.011
-470.216	339.864	0.066	-0.130
-469.201	-200.000	0.004	-0.116
-468.186	-92.705	0.140	0.040
-467.172	80.414	-0.395	0.431
-466.157	800.000	-0.039	0.139
-465.143	515.328	0.032	0.075
-464.128	1.618	0.069	0.051
-463.113	370.072	0.141	0.290
-462.099	-70.204	0.329	0.126
-461.084	192.108	-0.057	-0.088
-460.070	10.845	-0.210	0.162
-459.055	-65.862	-0.219	0.089
-458.040	68.868	-0.149	0.155
-457.026	152.020	0.065	0.090
-456.011	-200.000	-0.006	0.132
-454.997	157.544	-0.188	0.263
-453.982	-200.000	0.008	0.119
-452.968	497.383	0.075	-0.176
-451.953	-134.062	0.242	0.030
-450.938	-72.709	0.243	0.091
-449.924	-38.213	-0.246	-0.132
-448.909	-62.503	-0.514	0.216
-447.895	-61.722	-0.103	0.044
-446.880	161.524	-0.034	0.049
-445.865	423.371	0.056	-0.122
-444.851	-140.208	0.423	-0.045
-443.836	-154.054	-0.304	0.021
-442.822	198.418	0.139	0.216
-441.807	95.340	0.259	0.298
-440.792	-43.677	0.082	0.042
-439.778	436.495	-0.160	0.353
-438.763	-200.000	0.057	-0.302
-437.749	-71.281	-0.140	-0.053
-436.734	-200.000	0.048	-0.223
-435.719	20.319	-0.279	0.228
-434.705	333.327	0.198	-0.387
-433.690	-9.076	0.170	0.115
-432.676	-65.998	-0.435	-0.176
-431.661	800.000	0.085	0.324
-430.646	47.508	0.099	0.093
-429.632	-200.000	0.002	0.309
-428.617	-68.145	0.204	0.080
-427.603	48.749	0.138	0.130
-426.588	277.213	-0.077	0.138
-425.573	169.999	-0.129	0.186
-424.559	-165.243	-0.216	0.010
-423.544	0.464	0.153	0.110
-422.530	-78.465	-0.059	0.020
-421.515	-69.288	-0.139	0.054
-420.500	92.907	-0.145	-0.165
-419.486	149.002	0.178	-0.244
-418.471	-200.000	0.009	-0.413
-417.457	167.377	0.209	-0.299
-416.442	9.218	-0.142	-0.108
-415.428	-70.601	-0.178	-0.068
-414.413	-39.622	0.291	0.154
-413.398	800.000	-0.069	-0.285
-412.384	38.078	-0.241	0.217
-411.369	-131.158	-0.416	-0.056
-410.355	588.409	0.190	0.473
-409.340	-96.300	0.075	-0.020
-408.325	-41.267	0.307	0.160
-407.311	-200.000	-0.004	0.050
-406.296	800.000	0.136	0.420
-405.282	-21.982	-0.161	0.099
-404.267	117.735	-0.117	-0.145
-403.252	-58.121	-0.112	0.049
-402.238	800.000	0.074	0.239
-401.223	329.402	0.101	-0.196
-400.209	-126.244	-0.297	-0.045
-399.194	800.000	-0.079	-0.328
-398.179	-53.327	0.167	0.077
-397.165	31.693	0.204	-0.177
-396.150	-200.000	-0.020	-0.143
-395.136	6.924	-0.218	0.164
-394.121	-172.860	-0.042	0.001
-393.106	5.777	0.087	-0.065
-392.092	-94.749	-0.119	0.033
-391.077	534.310	0.064	0.154
-390.063	-200.000	0.003	-0.309
-389.048	-200.000	-0.026	-0.164
-388.033	800.000	-0.128	-0.375
-387.019	-55.889	0.135	0.061
-386.004	465.395	0.024	-0.055
-384.990	800.000	0.090	0.255
-383.975	800.000	0.062	-0.253
-382.960	406.232	0.080	0.171
-381.946	-132.107	-0.208	0.027
-380.931	-200.000	-0.017	-0.269
-379.917	-200.000	0.018	0.259
-378.902	-149.287	-0.146	-0.012
-377.888	-44.996	-0.138	-0.069
-376.873	168.652	-0.086	0.124
-375.858	232.147	-0.175	-0.290
-374.844	-7.823	0.236	0.161
-373.829	55.726	-0.084	0.082
-372.815	-200.000	0.019	0.084
-371.800	-106.910	-0.188	-0.042
-370.785	-75.803	-0.214	0.077
-369.771	-200.000	0.037	-0.179
-368.756	-31.759	0.239	-0.135
-367.742	-106.843	0.364	-0.082
-366.727	-186.382	0.193	0.003
-365.712	-121.544	0.129	-0.022
-364.698	800.000	0.029	-0.127
-363.683	449.451	-0.089	-0.198
-362.669	169.543	0.166	0.239
-361.654	665.209	0.108	-0.280
-360.639	-200.000	-0.006	0.159
-359.625	-200.000	0.034	-0.247
-358.610	25.205	0.116	-0.097
-357.596	48.669	0.027	-0.025
-356.581	-200.000	-0.012	0.055
-355.566	28.142	0.056	-0.047
-354.552	-146.789	-0.138	-0.012
-353.537	28.506	0.072	-0.062
-352.523	-104.628	0.225	-0.052
-351.508	-111.772	-0.205	0.042
-350.493	643.897	-0.133	-0.342
-349.479	-21.296	-0.075	-0.046
-348.464	-200.000	-0.009	0.141
-347.450	800.000	0.107	-0.298
-346.435	51.608	0.170	-0.163
-345.420	680.880	0.082	0.215
-344.406	-63.768	-0.103	0.043
-343.391	135.171	0.250	-0.327
-342.377	-62.348	0.195	-0.082
-341.362	-49.766	0.195	0.093
-340.348	14.232	0.251	0.197
-339.333	76.961	-0.107	-0.114
-338.318	-112.184	0.174	-0.035
-337.304	287.351	0.172	0.313
-336.289	-111.355	-0.220	0.045
-335.275	139.240	-0.145	0.193
-334.260	-122.739	-0.186	0.030
-333.245	800.000	-0.040	-0.117
-332.231	267.780	0.108	0.190
-331.216	-11.282	0.164	0.109
-330.202	703.125	0.063	-0.169
-329.187	-200.000	0.032	0.201
-328.172	184.101	-0.031	-0.047
-327.158	-39.433	0.298	-0.157
-326.143	324.104	-0.089	-0.172
-325.129	-104.482	-0.361	0.084
-324.114	124.051	-0.063	-0.080
-323.099	-200.000	-0.011	0.137
-322.085	199.556	0.145	0.223
-321.070	-200.000	0.030	-0.196
-320.056	-200.000	0.055	-0.322
-319.041	-106.642	-0.260	0.058
-318.026	-67.626	0.196	0.077
-317.012	-191.763	0.089	0.001
-315.997	-59.297	-0.302	0.131
-314.983	581.108	-0.178	0.438
-313.968	-200.000	-0.022	0.301
-312.953	-200.000	0.023	-0.177
-311.939	-153.499	-0.277	-0.019
-310.924	16.166	0.101	-0.080
-309.910	-200.000	-0.003	-0.031
-308.895	-94.618	0.005	0.001
-307.880	-174.478	-0.169	0.005
-306.866	72.029	0.063	-0.066
-305.851	-187.821	0.191	0.003
-304.837	45.757	0.239	0.223
-303.822	-27.880	0.037	0.022
-302.807	800.000	-0.049	0.140
-301.793	105.313	0.222	0.264
-300.778	141.997	0.046	-0.061
-299.764	-35.099	0.149	0.082
-298.749	-25.377	0.278	-0.165
-297.735	69.985	0.137	0.143
-296.720	800.000	0.060	0.183
-295.705	-32.774	0.310	-0.174
-294.691	-63.936	0.038	-0.016
-293.676	800.000	0.008	0.034
-292.662	57.635	0.206	0.203
-291.647	115.772	0.254	0.313
-290.632	16.516	0.126	-0.101
-289.618	-118.617	-0.312	-0.055
-288.603	-200.000	-0.038	0.351
-287.589	92.673	-0.099	-0.113
-286.574	660.210	-0.094	-0.245
-285.559	-137.718	0.069	-0.008
-284.545	97.858	-0.181	0.210
-283.530	-52.810	-0.400	-0.185
-282.516	62.636	0.090	-0.091
-281.501	-62.278	0.198	0.083
-280.486	298.466	0.151	0.279
-279.472	232.513	-0.084	0.138
-278.457	544.367	-0.012	0.030
-277.443	-162.671	-0.352	0.017
-276.428	-113.066	-0.205	-0.041
-275.413	-200.000	0.021	-0.187
-274.399	130.463	-0.091	-0.118
-273.384	800.000	-0.034	-0.106
-272.370	455.168	-0.050	-0.111
-271.355	421.656	-0.038	-0.082
-270.340	-4.441	-0.244	-0.170
-269.326	249.793	-0.210	0.359
-268.311	697.586	-0.098	0.259
-267.297	800.000	-0.046	0.191
-266.282	-17.073	0.176	-0.112
-265.267	-196.214	0.408	-0.003
-264.253	118.558	-0.097	-0.120
-263.238	88.542	0.126	0.141
-262.224	255.904	-0.006	0.010
-261.209	-200.000	0.022	0.236
-260.195	455.689	0.077	0.171
-259.180	211.890	0.108	-0.172
-258.165	-2.020	-0.211	-0.149
-257.151	-122.545	0.080	0.013
-256.136	-175.908	-0.377	-0.010
-255.122	-200.000	-0.005	-0.335
-254.107	-122.033	-0.311	0.051
-253.092	-200.000	0.011	0.444
-252.078	21.061	0.165	-0.135
-251.063	800.000	-0.067	0.192
-250.049	-28.234	-0.027	-0.015
-249.034	-17.636	-0.282	-0.178
-248.019	397.289	0.032	-0.068
-247.005	41.627	0.078	0.071
-245.990	-153.470	-0.064	0.004
-244.976	-200.000	0.021	-0.221
-243.961	-101.933	0.484	0.117
-242.946	-69.866	0.150	-0.057
-241.932	-4.825	-0.082	0.057
-240.917	253.970	-0.241	-0.414
-239.903	195.028	-0.264	0.403
-238.888	-90.765	0.176	0.051
-237.873	-111.787	0.360	-0.073
-236.859	-200.000	-0.011	-0.201
-235.844	-200.000	0.042	-0.200
-234.830	800.000	-0.021	0.065
-233.815	262.024	-0.095	-0.166
-232.800	800.000	-0.051	-0.156
-231.786	-136.756	-0.294	0.034
-230.771	315.858	0.084	0.159
-229.757	-22.951	0.159	-0.096
-228.742	-119.770	0.274	0.047
-227.727	-132.849	-0.236	-0.030
-226.713	184.714	0.042	-0.062
-225.698	-200.000	-0.045	0.225
-224.684	-109.002	0.107	-0.023
-223.669	86.868	-0.290	0.321
-222.655	79.312	-0.287	-0.309
-221.640	92.520	0.103	-0.116
-220.625	-37.344	-0.205	-0.110
-219.611	115.084	-0.166	0.203
-218.596	-136.940	0.128	0.015
-217.582	-80.878	0.060	-0.020
-216.567	-200.000	0.038	0.179
-215.552	-91.633	0.138	0.039
-214.538	-48.222	-0.267	-0.129
-213.523	-136.886	0.250	0.029
-212.509	395.535	-0.112	0.234
-211.494	12.204	-0.166	0.128
-210.479	-68.386	-0.157	-0.061
-209.465	-63.305	0.374	0.154
-208.450	-200.000	0.063	-0.519
-207.436	-61.175	-0.349	-0.147
-206.421	129.330	-0.164	-0.210
-205.406	-104.587	0.115	0.027
-204.392	-200.000	0.158	-0.001
-203.377	-185.266	0.287	0.004
-202.363	56.039	-0.091	-0.088
-201.348	29.356	0.099	0.084
-200.333	-64.096	0.116	-0.048
-199.319	800.000	-0.048	-0.175
-198.304	-200.000	-0.006	-0.115
-197.290	21.030	0.125	0.101
-196.275	201.037	0.123	-0.189
-195.260	-39.452	-0.344	-0.181
-194.246	-21.876	-0.151	0.092
-193.231	-34.118	0.162	0.089
-192.217	149.562	0.162	-0.220
-191.202	800.000	0.127	-0.413
-190.187	-156.035	-0.237	-0.015
-189.173	-68.833	0.198	-0.077
-188.158	241.091	-0.161	-0.270
-187.144	-106.105	0.348	0.078
-186.129	-200.000	-0.048	0.384
-185.114	-200.000	-0.029	0.354
-184.100	-200.000	0.053	0.297
-183.085	74.151	0.136	-0.143
-182.071	467.981	-0.083	-0.186
-181.056	281.625	-0.075	0.134
-180.042	-48.724	-0.320	0.154
-179.027	-61.539	-0.135	0.057
-178.012	-99.435	-0.214	-0.054
-176.998	-121.756	0.282	0.047
-175.983	-7.487	0.418	-0.283
-174.969	40.381	0.194	-0.175
-173.954	7.901	0.251	0.188
-172.939	47.325	-0.344	0.321
-171.925	574.763	0.062	-0.151
-170.910	800.000	0.059	0.256
-169.896	-102.073	-0.273	-0.066
-168.881	215.406	0.096	-0.152
-167.866	-11.268	0.324	0.214
-166.852	-7.293	-0.022	0.015
-165.837	-107.855	0.065	-0.014
-164.823	800.000	0.043	0.181
-163.808	-58.207	-0.128	-0.056
-162.793	-200.000	-0.006	0.047
-161.779	35.215	-0.194	0.170
-160.764	-200.000	0.031	0.353
-159.750	161.898	-0.050	0.070
-158.735	-156.485	0.205	0.013
-157.720	174.885	-0.243	0.351
-156.706	-68.029	-0.357	0.139
-155.691	120.791	-0.096	-0.119
-154.677	800.000	0.043	-0.153
-153.662	89.046	-0.075	-0.083
-152.647	-85.070	0.424	-0.133
-151.633	-63.718	0.266	-0.109
-150.618	132.074	0.107	0.138
-149.604	9.345	-0.111	-0.084
-148.589	-75.485	0.265	0.094
-147.574	215.065	-0.093	0.148
-146.560	800.000	-0.060	0.216
-145.545	32.820	0.288	-0.250
-144.531	3.686	-0.079	-0.058
-143.516	-122.593	0.221	-0.036
-142.502	58.120	0.310	-0.303
-141.487	58.472	0.181	0.178
-140.472	800.000	-0.039	-0.128
-139.458	800.000	-0.138	-0.435
-138.443	89.403	0.021	-0.023
-137.429	800.000	-0.061	-0.185
-136.414	-46.408	0.291	-0.143
-135.399	-16.046	0.262	-0.167
-134.385	-157.411	-0.261	-0.016
-133.370	-200.000	-0.005	0.026
-132.356	-81.485	-0.093	-0.031
-131.341	343.334	0.176	-0.344
-130.326	-48.207	0.440	-0.212
-129.312	-25.704	0.385	-0.227
-128.297	-31.921	0.030	0.017
-127.283	294.031	0.120	-0.219
-126.268	-67.203	0.324	0.128
-125.253	-69.835	0.153	0.058
-124.239	604.598	-0.177	0.441
-123.224	-95.832	0.229	0.061
-122.210	-114.354	0.184	0.035
-121.195	363.804	-0.137	0.274
-120.180	800.000	-0.113	0.431
