DTS Sentinel unit serial number:	SN413079Multiplexer serial number:	ORYXHardware model number:	OX4-SRSoftware version number:	ORYX F/W v4.00 Oryx Data Collector v3.7.2.0data status	okinstallation	princeton_trtdifferential loss correction	single-endedforward channel	channel 1reverse channel	N/Adate	2019/09/18time	05:02:35forward acquisition time	60.00reverse acquisition time	0.00gamma	496.2192k internal	0.2338k external	0.2338temperature offset calibration	0.9978default loss term (dB/km)	0.3790temperature slope calibration	1.0000multiplexer offset coefficient	1.0000multiplexer slope coefficient	1.0000fibre end	0.00T internal ref (°C)	23.50T ext. ref 1 (°C)	0.18T ext. ref 2 (°C)	17.74length (m)	temperature (°C)	Stokes	anti-Stokes-747.200	638.808	0.038	0.097
-746.185	-21.957	-0.128	0.078
-745.171	-14.540	0.233	0.150
-744.156	180.093	-0.264	0.389
-743.142	236.451	-0.140	0.232
-742.127	-200.000	0.048	0.393
-741.112	213.889	-0.018	-0.029
-740.098	11.265	-0.119	0.091
-739.083	99.403	-0.304	-0.353
-738.069	-113.190	-0.380	-0.075
-737.054	-200.000	-0.018	0.112
-736.039	288.196	-0.062	0.112
-735.025	-200.000	-0.036	0.318
-734.010	326.218	0.123	-0.237
-732.996	109.364	-0.213	-0.256
-731.981	223.087	-0.135	0.219
-730.966	-115.473	-0.368	0.070
-729.952	800.000	-0.104	-0.344
-728.937	-50.207	-0.301	0.143
-727.923	-200.000	-0.018	0.121
-726.908	800.000	-0.056	-0.245
-725.894	-200.000	0.037	-0.259
-724.879	-129.017	-0.251	-0.035
-723.864	800.000	0.047	-0.163
-722.850	121.291	0.227	-0.283
-721.835	800.000	0.078	-0.245
-720.821	17.685	-0.252	-0.201
-719.806	102.382	0.069	0.081
-718.791	124.654	-0.138	-0.174
-717.777	-27.750	-0.124	-0.072
-716.762	-34.228	-0.174	-0.096
-715.748	336.901	-0.269	-0.524
-714.733	-67.056	-0.063	-0.025
-713.718	115.123	0.078	-0.096
-712.704	-200.000	0.010	-0.217
-711.689	-200.000	0.066	-0.291
-710.675	99.359	-0.137	-0.158
-709.660	-32.008	-0.257	-0.144
-708.645	33.013	0.188	0.163
-707.631	-200.000	0.010	-0.105
-706.616	-87.562	-0.305	-0.092
-705.602	-163.205	0.334	-0.016
-704.587	-160.434	0.178	-0.010
-703.572	-184.294	-0.314	0.005
-702.558	413.244	-0.031	0.067
-701.543	-200.000	0.010	0.067
-700.529	37.969	0.233	0.208
-699.514	-200.000	-0.029	-0.246
-698.499	-200.000	0.030	0.311
-697.485	-173.720	-0.349	-0.010
-696.470	178.593	-0.105	-0.153
-695.456	-110.101	-0.067	0.014
-694.441	512.872	-0.167	-0.390
-693.426	772.780	0.029	-0.080
-692.412	22.371	-0.149	0.122
-691.397	-200.000	0.046	0.469
-690.383	-117.602	-0.126	0.023
-689.368	238.367	-0.207	-0.344
-688.354	50.873	-0.075	0.071
-687.339	-72.200	-0.086	-0.032
-686.324	-54.810	0.169	-0.076
-685.310	-86.254	-0.234	-0.072
-684.295	41.819	0.342	0.310
-683.281	800.000	-0.051	-0.160
-682.266	9.639	-0.455	-0.345
-681.251	-158.456	-0.328	0.019
-680.237	-54.627	-0.152	0.069
-679.222	-29.475	-0.162	0.093
-678.208	-20.798	-0.124	-0.076
-677.193	49.521	0.172	-0.162
-676.178	800.000	-0.048	-0.169
-675.164	-200.000	-0.032	0.210
-674.149	-124.965	-0.155	0.024
-673.135	119.286	0.063	0.079
-672.120	-56.374	0.029	0.013
-671.105	752.103	0.130	0.352
-670.091	167.872	-0.141	0.201
-669.076	-200.000	-0.022	-0.256
-668.062	570.182	0.142	0.346
-667.047	68.730	-0.080	-0.082
-666.032	-200.000	0.017	0.165
-665.018	438.363	0.036	-0.078
-664.003	-200.000	0.015	0.232
-662.989	-170.497	-0.442	0.015
-661.974	800.000	0.090	-0.305
-660.959	-35.358	0.052	0.028
-659.945	-131.359	-0.181	0.024
-658.930	-43.544	0.357	0.180
-657.916	350.274	-0.092	-0.181
-656.901	-119.511	-0.070	-0.012
-655.886	288.548	0.043	-0.077
-654.872	-115.305	-0.381	0.072
-653.857	22.386	0.335	0.274
-652.843	-43.182	-0.248	0.125
-651.828	555.536	0.093	-0.225
-650.814	-149.518	0.235	-0.019
-649.799	36.688	-0.275	-0.243
-648.784	-200.000	0.005	-0.188
-647.770	688.263	-0.035	-0.091
-646.755	-161.250	-0.308	0.016
-645.741	135.398	0.129	-0.167
-644.726	-23.386	-0.243	-0.146
-643.711	270.106	0.144	0.252
-642.697	408.207	-0.053	-0.112
-641.682	224.441	0.178	-0.288
-640.668	-200.000	0.030	-0.360
-639.653	-200.000	-0.028	0.141
-638.638	176.588	0.143	0.208
-637.624	8.610	-0.174	-0.131
-636.609	-200.000	0.083	-0.546
-635.595	-131.332	0.196	-0.026
-634.580	-90.455	0.168	0.049
-633.565	-93.827	-0.489	-0.134
-632.551	-55.568	0.102	-0.045
-631.536	187.065	-0.183	-0.273
-630.522	26.823	0.062	0.052
-629.507	496.005	0.136	-0.313
-628.492	413.925	-0.088	-0.188
-627.478	-147.079	-0.249	-0.021
-626.463	252.304	0.112	0.190
-625.449	-46.127	0.159	0.078
-624.434	29.645	-0.183	-0.156
-623.419	175.550	0.071	0.102
-622.405	-118.446	0.302	0.053
-621.390	103.641	-0.119	0.139
-620.376	261.392	0.057	-0.098
-619.361	515.420	0.045	-0.104
-618.346	-89.087	-0.122	0.036
-617.332	370.992	-0.088	-0.178
-616.317	800.000	0.090	-0.323
-615.303	-73.844	0.111	0.040
-614.288	-67.769	0.155	0.061
-613.273	86.200	-0.278	-0.306
-612.259	41.304	-0.079	0.071
-611.244	-24.839	-0.200	0.119
-610.230	-74.480	0.103	-0.037
-609.215	300.627	-0.090	-0.166
-608.201	18.134	0.173	0.138
-607.186	-56.819	-0.185	0.082
-606.171	38.139	-0.136	0.121
-605.157	89.739	-0.141	0.157
-604.142	800.000	0.027	-0.090
-603.128	-113.852	-0.117	-0.023
-602.113	159.970	-0.099	-0.138
-601.098	49.726	-0.275	0.259
-600.084	800.000	-0.012	0.046
-599.069	800.000	-0.033	-0.126
-598.055	-39.719	0.103	-0.054
-597.040	800.000	0.051	0.153
-596.025	-10.832	0.184	0.121
-595.011	-76.559	0.299	0.105
-593.996	-55.302	-0.163	-0.073
-592.982	-123.343	0.344	0.055
-591.967	-119.400	0.295	0.051
-590.952	-200.000	-0.022	0.343
-589.938	800.000	0.021	-0.076
-588.923	-70.289	0.492	-0.186
-587.909	168.229	0.228	0.323
-586.894	-13.759	-0.089	0.057
-585.879	-11.320	0.156	0.103
-584.865	-198.064	0.166	-0.001
-583.850	800.000	0.009	-0.034
-582.836	-200.000	0.029	-0.336
-581.821	-77.850	-0.044	-0.015
-580.806	128.375	-0.223	0.283
-579.792	80.311	-0.043	-0.047
-578.777	-158.825	0.048	0.003
-577.763	233.461	-0.103	0.168
-576.748	101.305	0.036	-0.042
-575.733	155.889	0.020	-0.028
-574.719	4.378	-0.296	-0.217
-573.704	13.151	-0.260	-0.201
-572.690	284.294	0.105	0.188
-571.675	6.246	-0.273	-0.201
-570.661	-200.000	0.032	0.272
-569.646	149.743	-0.067	-0.091
-568.631	-149.687	0.031	-0.002
-567.617	-63.162	0.291	-0.120
-566.602	-16.115	0.215	-0.136
-565.588	-141.157	0.162	0.016
-564.573	800.000	0.072	-0.311
-563.558	712.093	0.090	-0.237
-562.544	-24.355	-0.220	-0.131
-561.529	-130.856	0.157	-0.021
-560.515	-200.000	0.025	0.129
-559.500	11.160	-0.206	-0.157
-558.485	440.574	-0.118	0.257
-557.471	433.886	-0.041	0.089
-556.456	-140.921	-0.124	0.013
-555.442	800.000	0.039	0.143
-554.427	-145.447	-0.226	0.020
-553.412	800.000	0.165	0.511
-552.398	-200.000	0.003	0.125
-551.383	-200.000	0.064	-0.281
-550.369	-200.000	0.039	0.269
-549.354	380.154	-0.074	-0.151
-548.339	-200.000	0.041	-0.183
-547.325	36.337	0.305	-0.268
-546.310	800.000	-0.073	-0.254
-545.296	800.000	0.056	-0.185
-544.281	-76.229	0.124	-0.044
-543.266	800.000	-0.090	-0.288
-542.252	-29.800	-0.094	-0.053
-541.237	299.877	-0.117	0.215
-540.223	-200.000	-0.022	-0.402
-539.208	536.769	-0.106	-0.251
-538.193	90.300	-0.235	-0.261
-537.179	800.000	0.057	-0.183
-536.164	230.344	0.195	-0.317
-535.150	800.000	-0.124	-0.351
-534.135	48.282	-0.102	0.095
-533.121	-140.930	-0.263	-0.027
-532.106	-200.000	-0.004	0.164
-531.091	60.339	0.176	0.173
-530.077	-200.000	-0.021	0.101
-529.062	-53.324	-0.231	-0.105
-528.048	137.484	-0.050	0.065
-527.033	134.007	-0.178	0.229
-526.018	159.072	-0.068	0.094
-525.004	-126.802	-0.221	0.032
-523.989	298.452	0.116	-0.212
-522.975	-200.000	-0.032	-0.157
-521.960	-200.000	-0.012	0.104
-520.945	-20.289	-0.262	0.161
-519.931	-63.045	-0.080	-0.033
-518.916	350.503	0.091	0.179
-517.902	-200.000	0.004	-0.387
-516.887	-107.267	-0.408	0.089
-515.872	-60.763	0.122	-0.051
-514.858	297.777	-0.066	0.120
-513.843	635.790	0.115	-0.290
-512.829	192.042	0.086	0.128
-511.814	800.000	0.050	0.216
-510.799	133.570	-0.074	-0.095
-509.785	-63.229	-0.113	-0.046
-508.770	-200.000	-0.018	0.174
-507.756	27.517	-0.202	-0.169
-506.741	196.513	-0.118	0.178
-505.726	216.508	0.175	0.276
-504.712	-112.223	-0.496	-0.099
-503.697	800.000	-0.045	0.172
-502.683	-105.938	0.081	0.018
-501.668	185.068	0.141	0.208
-500.653	-62.953	-0.209	-0.086
-499.639	-6.666	0.291	0.197
-498.624	-115.414	0.098	-0.018
-497.610	-60.954	0.076	0.032
-496.595	-65.826	-0.087	0.035
-495.581	-73.661	0.148	-0.054
-494.566	-200.000	0.028	0.219
-493.551	-6.159	-0.245	0.166
-492.537	800.000	-0.079	0.285
-491.522	205.178	-0.170	0.262
-490.508	-75.659	0.403	0.142
-489.493	182.383	-0.108	0.158
-488.478	-98.424	-0.206	-0.052
-487.464	188.258	-0.186	-0.276
-486.449	800.000	0.019	-0.066
-485.435	426.749	0.076	0.163
-484.420	-69.854	-0.219	0.083
-483.405	-112.863	0.043	-0.008
-482.391	33.275	0.094	0.081
-481.376	9.182	0.307	0.230
-480.362	-65.240	0.118	0.047
-479.347	-42.370	-0.196	-0.099
-478.332	272.688	-0.081	-0.143
-477.318	62.233	0.078	-0.078
-476.303	800.000	0.052	-0.187
-475.289	-141.668	-0.280	0.028
-474.274	-25.303	0.087	-0.051
-473.259	62.489	0.141	-0.140
-472.245	-200.000	-0.033	0.520
-471.230	141.650	0.168	0.221
-470.216	-22.292	-0.129	0.077
-469.201	2.382	0.307	0.220
-468.186	-9.561	-0.261	-0.173
-467.172	-200.000	-0.019	-0.183
-466.157	-4.490	-0.132	0.091
-465.143	-150.660	-0.148	0.011
-464.128	55.640	0.273	0.263
-463.113	254.362	-0.117	0.199
-462.099	736.592	-0.099	-0.262
-461.084	-200.000	-0.019	0.116
-460.070	-53.709	-0.023	-0.010
-459.055	303.966	0.178	-0.328
-458.040	-185.102	-0.135	-0.002
-457.026	3.080	0.141	0.102
-456.011	728.104	0.027	0.071
-454.997	18.437	0.209	-0.166
-453.982	-200.000	0.002	0.078
-452.968	219.564	-0.112	0.178
-451.953	-104.331	-0.246	-0.057
-450.938	-5.460	0.113	0.077
-449.924	72.983	-0.010	-0.010
-448.909	-62.669	-0.583	0.240
-447.895	278.042	-0.096	0.170
-446.880	-146.392	-0.328	0.028
-445.865	-200.000	0.073	0.356
-444.851	11.678	-0.257	-0.196
-443.836	-61.108	0.221	-0.092
-442.822	132.199	-0.197	-0.252
-441.807	50.837	0.098	-0.092
-440.792	-41.544	0.126	-0.064
-439.778	715.785	0.101	-0.264
-438.763	-128.016	0.088	0.013
-437.749	-85.225	0.220	-0.068
-436.734	82.240	-0.301	-0.323
-435.719	113.417	-0.046	-0.056
-434.705	-200.000	-0.046	-0.237
-433.690	-200.000	-0.022	-0.127
-432.676	17.325	-0.139	0.110
-431.661	-50.992	0.256	-0.119
-430.646	800.000	0.069	0.196
-429.632	129.152	-0.122	0.154
-428.617	-200.000	0.005	0.223
-427.603	8.018	-0.050	-0.037
-426.588	636.022	-0.123	-0.308
-425.573	-13.922	-0.174	0.111
-424.559	218.768	-0.080	0.126
-423.544	-109.848	0.251	0.052
-422.530	800.000	0.023	0.088
-421.515	-122.713	0.156	0.025
-420.500	94.517	-0.072	0.081
-419.486	-200.000	-0.069	-0.382
-418.471	40.823	0.098	0.087
-417.457	412.292	-0.076	-0.160
-416.442	800.000	-0.055	-0.233
-415.428	-200.000	0.049	-0.329
-414.413	23.559	-0.105	0.086
-413.398	-167.226	0.071	-0.003
-412.384	-157.323	0.049	-0.003
-411.369	-149.145	0.133	0.011
-410.355	30.038	0.187	-0.158
-409.340	-131.733	-0.016	-0.002
-408.325	-200.000	-0.017	-0.155
-407.311	-133.373	0.105	-0.013
-406.296	37.638	0.089	-0.078
-405.282	62.316	-0.100	0.099
-404.267	448.662	0.105	0.229
-403.252	-200.000	0.024	0.159
-402.238	-200.000	-0.033	0.162
-401.223	-148.340	-0.434	-0.035
-400.209	-157.908	0.286	-0.017
-399.194	-200.000	0.004	0.157
-398.179	800.000	0.034	0.100
-397.165	244.224	-0.027	-0.044
-396.150	55.915	0.260	0.249
-395.136	800.000	0.027	0.084
-394.121	-53.697	0.349	0.158
-393.106	-200.000	-0.016	0.107
-392.092	-108.338	-0.126	0.027
-391.077	-82.895	0.197	0.063
-390.063	-38.829	-0.221	0.115
-389.048	-20.498	0.039	0.024
-388.033	-60.480	-0.157	-0.066
-387.019	-136.309	-0.079	-0.009
-386.004	-200.000	-0.002	0.129
-384.990	219.432	-0.119	-0.188
-383.975	-200.000	0.010	0.165
-382.960	800.000	-0.043	0.176
-381.946	-31.894	-0.318	0.176
-380.931	50.748	0.160	0.150
-379.917	-60.470	0.283	-0.119
-378.902	-121.204	-0.333	-0.055
-377.888	-200.000	-0.070	-0.313
-376.873	60.663	0.055	0.053
-375.858	108.481	-0.135	0.159
-374.844	-200.000	-0.023	-0.208
-373.829	-200.000	0.008	-0.261
-372.815	273.914	0.083	-0.145
-371.800	-52.416	0.499	-0.228
-370.785	-28.565	-0.356	0.203
-369.771	57.630	-0.106	-0.102
-368.756	62.708	-0.113	-0.111
-367.742	-22.739	0.178	0.106
-366.727	-70.267	0.181	0.068
-365.712	-200.000	0.022	0.146
-364.698	-200.000	0.027	0.315
-363.683	346.444	-0.196	-0.381
-362.669	53.246	-0.256	-0.243
-361.654	153.763	-0.071	0.096
-360.639	800.000	0.086	0.346
-359.625	222.064	-0.050	0.079
-358.610	186.760	0.050	0.074
-357.596	-55.045	0.159	0.071
-356.581	10.852	-0.299	0.226
-355.566	800.000	0.110	0.374
-354.552	150.455	-0.061	0.082
-353.537	-23.990	0.031	0.018
-352.523	800.000	-0.075	0.232
-351.508	-50.707	-0.408	0.190
-350.493	-200.000	-0.020	-0.120
-349.479	-165.441	0.331	0.014
-348.464	569.605	-0.123	-0.297
-347.450	-100.351	-0.326	0.080
-346.435	-80.066	0.325	0.108
-345.420	-155.005	-0.383	-0.025
-344.406	-172.065	-0.418	0.013
-343.391	-171.707	0.386	0.013
-342.377	209.679	-0.106	0.165
-341.362	196.155	0.041	-0.061
-340.348	-20.332	0.201	-0.122
-339.333	119.808	-0.083	-0.101
-338.318	-118.970	0.067	-0.012
-337.304	-102.057	-0.336	0.080
-336.289	-200.000	-0.036	-0.168
-335.275	-200.000	-0.036	-0.374
-334.260	-145.792	0.218	0.019
-333.245	-117.224	0.323	0.058
-332.231	800.000	0.042	0.147
-331.216	236.970	-0.034	0.055
-330.202	98.023	-0.032	0.036
-329.187	-77.067	0.236	-0.081
-328.172	800.000	0.109	-0.301
-327.158	-135.402	-0.180	-0.021
-326.143	655.875	-0.144	0.365
-325.129	-200.000	0.017	0.187
-324.114	-104.065	-0.335	0.077
-323.099	-1.481	-0.187	-0.130
-322.085	-200.000	-0.005	-0.048
-321.070	-200.000	0.000	-0.063
-320.056	331.730	0.127	0.242
-319.041	-77.125	0.247	0.085
-318.026	-103.325	0.311	-0.072
-317.012	-82.934	-0.129	0.041
-315.997	-200.000	0.074	0.464
-314.983	-139.370	-0.064	-0.007
-313.968	800.000	-0.066	0.213
-312.953	-200.000	0.016	0.077
-311.939	239.854	-0.095	-0.156
-310.924	-140.437	0.191	0.020
-309.910	-24.431	0.192	-0.113
-308.895	-174.634	0.134	0.004
-307.880	500.218	-0.201	-0.458
-306.866	-200.000	-0.041	0.264
-305.851	-67.511	0.071	0.027
-304.837	143.232	-0.020	-0.026
-303.822	34.017	0.134	-0.115
-302.807	-200.000	0.034	-0.263
-301.793	-200.000	0.008	-0.117
-300.778	148.330	-0.296	-0.394
-299.764	-72.339	0.444	0.162
-298.749	75.416	-0.187	-0.195
-297.735	-54.859	0.518	-0.231
-296.720	800.000	0.073	-0.215
-295.705	475.479	0.035	0.078
-294.691	-200.000	-0.017	0.326
-293.676	-200.000	0.003	0.136
-292.662	139.201	-0.062	-0.081
-291.647	487.960	0.109	-0.245
-290.632	-118.093	-0.379	0.067
-289.618	-192.216	-0.283	0.003
-288.603	300.975	-0.063	-0.114
-287.589	-200.000	0.031	0.248
-286.574	63.203	0.178	-0.176
-285.559	73.571	-0.047	0.048
-284.545	-200.000	-0.026	-0.145
-283.530	262.996	-0.222	-0.380
-282.516	-45.079	0.305	0.150
-281.501	-117.890	0.314	0.055
-280.486	99.068	0.125	-0.142
-279.472	-200.000	0.030	-0.244
-278.457	-166.545	-0.172	-0.007
-277.443	76.192	-0.299	-0.312
-276.428	-43.466	0.262	0.130
-275.413	-200.000	0.019	0.084
-274.399	326.621	-0.140	-0.264
-273.384	-132.026	0.487	0.062
-272.370	-57.893	0.250	-0.108
-271.355	800.000	-0.063	0.247
-270.340	-200.000	-0.081	0.360
-269.326	-26.900	-0.252	0.145
-268.311	-140.626	0.294	0.030
-267.297	180.020	-0.038	0.054
-266.282	-200.000	-0.043	-0.206
-265.267	-170.436	-0.198	0.007
-264.253	472.497	0.167	0.370
-263.238	-10.676	-0.094	-0.061
-262.224	227.944	0.169	-0.270
-261.209	-35.798	0.139	-0.074
-260.195	-200.000	0.028	-0.188
-259.180	5.672	0.154	0.112
-258.165	-109.808	0.306	-0.063
-257.151	-20.742	0.346	0.209
-256.136	-200.000	0.069	0.310
-255.122	7.018	-0.328	0.241
-254.107	-115.737	-0.278	0.051
-253.092	-90.510	0.036	0.010
-252.078	3.733	0.267	-0.192
-251.063	800.000	0.052	-0.218
-250.049	-119.610	0.180	-0.031
-249.034	7.339	0.279	-0.205
-248.019	-200.000	0.017	-0.302
-247.005	-45.900	0.126	0.061
-245.990	-122.454	-0.026	-0.004
-244.976	-23.491	0.134	-0.079
-243.961	-130.822	0.158	-0.021
-242.946	800.000	-0.074	0.212
-241.932	-200.000	0.007	-0.068
-240.917	95.885	0.138	-0.155
-239.903	-117.709	-0.115	-0.020
-238.888	269.677	0.116	0.201
-237.873	334.029	0.088	0.168
-236.859	104.750	0.064	0.074
-235.844	49.846	0.081	-0.075
-234.830	-29.383	-0.202	-0.113
-233.815	626.994	0.090	0.222
-232.800	-100.089	-0.209	-0.051
-231.786	-184.916	0.330	-0.005
-230.771	43.665	0.191	-0.172
-229.757	-200.000	0.022	-0.221
-228.742	-35.434	0.203	0.108
-227.727	5.189	-0.244	0.177
-226.713	-200.000	0.034	-0.215
-225.698	-45.161	-0.166	-0.081
-224.684	-126.292	0.411	0.060
-223.669	-90.048	-0.372	-0.107
-222.655	171.204	-0.086	0.122
-221.640	-148.953	0.211	0.017
-220.625	-13.912	-0.107	0.068
-219.611	10.549	0.121	-0.090
-218.596	-200.000	-0.066	0.467
-217.582	77.043	-0.104	0.109
-216.567	130.802	-0.051	-0.064
-215.552	229.365	0.067	-0.107
-214.538	-200.000	0.002	-0.161
-213.523	-132.244	0.210	-0.027
-212.509	-200.000	-0.001	-0.107
-211.494	77.993	-0.202	-0.212
-210.479	-121.970	-0.275	-0.044
-209.465	144.012	-0.182	0.239
-208.450	-29.317	0.190	-0.107
-207.436	15.798	-0.154	0.119
-206.421	-200.000	0.018	0.111
-205.406	74.251	0.192	0.198
-204.392	483.400	-0.163	-0.364
-203.377	27.660	-0.142	-0.118
-202.363	-95.959	-0.275	0.072
-201.348	-0.464	-0.413	0.288
-200.333	39.594	0.281	0.248
-199.319	425.201	-0.087	0.185
-198.304	45.717	-0.223	-0.202
-197.290	-108.275	0.123	0.026
-196.275	-79.384	-0.263	-0.087
-195.260	-137.243	0.455	0.051
-194.246	-22.055	0.209	0.125
-193.231	99.739	-0.355	0.404
-192.217	136.042	-0.155	0.198
-191.202	100.100	0.051	-0.058
-190.187	-82.043	0.158	0.051
-189.173	800.000	-0.015	-0.040
-188.158	350.765	0.114	0.221
-187.144	359.596	0.176	0.346
-186.129	-92.437	0.252	-0.070
-185.114	-67.419	-0.051	-0.020
-184.100	800.000	0.052	0.161
-183.085	-92.142	-0.275	0.076
-182.071	86.997	0.176	-0.191
-181.056	396.778	0.123	0.251
-180.042	-99.487	-0.135	0.033
-179.027	-170.563	-0.059	-0.002
-178.012	113.750	0.081	-0.097
-176.998	404.396	-0.101	-0.208
-175.983	41.133	0.265	0.235
-174.969	0.409	-0.064	0.045
-173.954	-44.058	-0.227	0.112
-172.939	-200.000	0.044	-0.252
-171.925	133.596	0.047	-0.060
-170.910	-97.718	0.305	0.078
-169.896	800.000	-0.076	-0.252
-168.881	-24.202	-0.337	0.198
-167.866	84.084	0.113	0.122
-166.852	-99.545	0.398	-0.098
-165.837	204.291	-0.144	-0.219
-164.823	-96.366	0.266	0.069
-163.808	407.911	-0.079	0.164
-162.793	21.638	0.181	0.144
-161.779	-154.725	0.108	-0.007
-160.764	396.472	-0.032	0.066
-159.750	-200.000	0.050	0.280
-158.735	-64.498	-0.037	-0.015
-157.720	800.000	-0.061	-0.206
-156.706	-83.407	0.326	-0.103
-155.691	58.641	0.193	0.186
-154.677	72.964	0.049	0.050
-153.662	80.016	-0.084	-0.088
-152.647	-200.000	-0.004	-0.143
-151.633	-62.354	-0.200	0.082
-150.618	296.902	-0.137	-0.247
-149.604	47.581	-0.179	-0.164
-148.589	-103.377	-0.271	0.063
-147.574	-192.565	-0.116	-0.001
-146.560	261.421	0.143	0.244
-145.545	11.673	-0.039	0.029
-144.531	800.000	0.080	0.253
-143.516	45.300	-0.133	0.120
-142.502	-200.000	-0.060	0.000
-141.487	99.679	0.090	-0.103
-140.472	-200.000	0.006	0.236
-139.458	-132.504	0.298	0.038
-138.443	-123.996	0.067	-0.010
-137.429	57.505	0.181	0.174
-136.414	49.112	0.183	-0.168
-135.399	62.731	-0.151	-0.148
-134.385	-9.536	0.273	-0.179
-133.370	800.000	0.119	-0.472
-132.356	355.881	-0.145	0.282
-131.341	-23.975	-0.065	0.038
-130.326	69.616	-0.163	0.164
-129.312	-49.347	-0.323	0.151
-128.297	-64.429	0.164	-0.065
-127.283	-63.210	-0.297	-0.120
-126.268	-72.328	0.307	0.111
-125.253	-0.595	0.340	-0.236
-124.239	-200.000	-0.002	-0.213
-123.224	800.000	-0.102	-0.343
-122.210	-200.000	-0.016	0.210
-121.195	-144.967	-0.259	-0.023
