DTS Sentinel unit serial number:	SN413079Multiplexer serial number:	ORYXHardware model number:	OX4-SRSoftware version number:	ORYX F/W v4.00 Oryx Data Collector v3.7.2.0data status	okinstallation	princeton_trtdifferential loss correction	single-endedforward channel	channel 1reverse channel	N/Adate	2019/09/16time	08:38:35forward acquisition time	60.00reverse acquisition time	0.00gamma	496.2192k internal	0.2324k external	0.2324temperature offset calibration	0.9974default loss term (dB/km)	0.3790temperature slope calibration	1.0000multiplexer offset coefficient	1.0000multiplexer slope coefficient	1.0000fibre end	0.00T internal ref (°C)	29.56T ext. ref 1 (°C)	11.93T ext. ref 2 (°C)	26.33length (m)	temperature (°C)	Stokes	anti-Stokes-747.200	108.384	-0.117	0.141
-746.185	89.550	-0.147	-0.166
-745.171	-200.000	0.004	0.114
-744.156	106.398	0.185	0.222
-743.142	-162.529	-0.375	-0.019
-742.127	-46.944	-0.182	0.090
-741.112	11.280	0.226	0.174
-740.098	421.609	-0.037	-0.081
-739.083	-91.094	0.450	0.130
-738.069	-200.000	-0.028	0.260
-737.054	-200.000	-0.015	-0.131
-736.039	-106.994	-0.167	-0.037
-735.025	289.854	-0.039	0.072
-734.010	-36.674	-0.120	0.065
-732.996	-46.523	-0.249	0.123
-731.981	23.003	0.313	0.259
-730.966	-137.779	0.109	-0.012
-729.952	800.000	0.057	-0.201
-728.937	16.300	0.135	-0.107
-727.923	-42.276	-0.181	-0.093
-726.908	727.118	-0.050	-0.134
-725.894	139.191	-0.051	0.067
-724.879	800.000	-0.076	-0.300
-723.864	800.000	0.063	-0.212
-722.850	164.446	0.148	-0.211
-721.835	-115.020	-0.165	0.032
-720.821	603.437	0.150	-0.378
-719.806	800.000	0.022	-0.093
-718.791	-5.915	-0.068	-0.047
-717.777	-86.874	-0.198	0.061
-716.762	800.000	0.038	-0.156
-715.748	-110.286	-0.065	0.014
-714.733	66.754	-0.216	-0.222
-713.718	-126.965	0.337	-0.050
-712.704	-62.108	-0.243	0.102
-711.689	-200.000	-0.047	-0.252
-710.675	49.097	-0.017	-0.016
-709.660	517.211	-0.141	0.333
-708.645	411.254	-0.054	0.115
-707.631	800.000	0.121	-0.362
-706.616	-78.026	0.064	0.022
-705.602	-200.000	0.004	-0.209
-704.587	98.370	0.177	-0.206
-703.572	-160.668	0.075	-0.004
-702.558	-135.539	0.116	-0.014
-701.543	322.361	0.198	0.380
-700.529	31.291	-0.143	0.124
-699.514	105.952	-0.165	0.196
-698.499	-45.159	-0.259	-0.130
-697.485	-200.000	-0.012	0.085
-696.470	-200.000	-0.018	-0.295
-695.456	-74.105	-0.235	0.086
-694.441	800.000	0.089	-0.355
-693.426	293.813	0.038	0.069
-692.412	371.017	0.054	0.111
-691.397	-184.541	-0.544	0.009
-690.383	800.000	0.019	-0.055
-689.368	800.000	0.069	-0.195
-688.354	329.956	-0.064	0.125
-687.339	-19.888	-0.342	-0.213
-686.324	399.874	-0.126	-0.266
-685.310	-200.000	0.035	-0.173
-684.295	-16.098	0.055	0.035
-683.281	162.886	-0.133	0.188
-682.266	274.376	0.194	0.346
-681.251	97.392	-0.406	0.470
-680.237	-200.000	0.003	0.156
-679.222	488.765	-0.125	0.288
-678.208	-200.000	-0.051	-0.509
-677.193	114.083	-0.160	0.195
-676.178	29.998	-0.075	-0.065
-675.164	417.519	0.097	-0.208
-674.149	772.925	-0.070	-0.193
-673.135	-75.512	0.085	0.030
-672.120	128.070	-0.119	-0.152
-671.105	-19.712	-0.385	0.240
-670.091	-108.055	-0.090	-0.020
-669.076	30.430	-0.182	-0.156
-668.062	286.427	0.149	-0.270
-667.047	328.423	0.019	0.037
-666.032	-93.045	0.176	-0.049
-665.018	-106.926	-0.209	-0.047
-664.003	165.874	0.046	0.066
-662.989	195.368	0.037	-0.056
-661.974	-74.653	-0.286	0.104
-660.959	800.000	0.059	-0.178
-659.945	-200.000	-0.056	0.293
-658.930	-85.733	-0.229	0.072
-657.916	-69.771	-0.216	0.083
-656.901	-200.000	-0.021	0.153
-655.886	-200.000	-0.007	-0.176
-654.872	391.891	0.081	0.170
-653.857	247.251	0.158	-0.269
-652.843	-200.000	0.008	0.183
-651.828	-200.000	0.016	-0.212
-650.814	96.877	0.096	-0.110
-649.799	-200.000	0.035	-0.158
-648.784	175.715	0.050	-0.073
-647.770	42.398	-0.088	-0.081
-646.755	-200.000	-0.004	-0.041
-645.741	-63.445	-0.116	0.048
-644.726	-200.000	-0.059	-0.311
-643.711	22.541	0.197	-0.162
-642.697	-75.932	-0.161	0.057
-641.682	218.109	-0.060	-0.096
-640.668	-45.783	0.259	-0.129
-639.653	-13.194	-0.542	-0.354
-638.638	298.316	0.084	-0.155
-637.624	117.222	-0.032	-0.040
-636.609	-67.046	0.210	0.083
-635.595	-200.000	-0.000	0.102
-634.580	235.437	-0.300	-0.499
-633.565	87.408	0.229	0.255
-632.551	-200.000	-0.021	-0.121
-631.536	-200.000	-0.048	0.231
-630.522	-16.369	-0.074	0.047
-629.507	-200.000	-0.039	0.373
-628.492	262.823	-0.076	-0.132
-627.478	105.735	-0.268	0.319
-626.463	-200.000	-0.007	0.194
-625.449	-68.287	0.162	0.063
-624.434	800.000	0.015	0.049
-623.419	-22.993	-0.152	0.092
-622.405	800.000	0.015	-0.050
-621.390	-77.422	0.326	0.114
-620.376	282.380	0.026	-0.048
-619.361	-138.044	0.080	0.009
-618.346	-200.000	-0.031	-0.181
-617.332	58.398	0.174	-0.172
-616.317	-200.000	-0.062	0.314
-615.303	20.204	-0.181	0.147
-614.288	-4.399	0.134	-0.093
-613.273	300.795	-0.094	-0.175
-612.259	-123.756	0.180	0.029
-611.244	62.444	0.192	0.193
-610.230	267.200	0.082	0.143
-609.215	328.801	0.112	-0.217
-608.201	60.401	0.119	0.119
-607.186	-6.585	-0.194	-0.132
-606.171	-123.938	0.143	0.023
-605.157	800.000	-0.097	-0.351
-604.142	-26.537	0.407	0.239
-603.128	179.355	-0.168	-0.247
-602.113	-200.000	-0.056	-0.336
-601.098	-67.400	-0.300	-0.118
-600.084	-200.000	-0.030	0.206
-599.069	-174.815	-0.094	-0.003
-598.055	-28.650	-0.205	-0.119
-597.040	85.236	0.030	-0.034
-596.025	-200.000	0.010	-0.313
-595.011	-123.533	-0.025	-0.004
-593.996	348.219	0.046	0.091
-592.982	684.646	-0.166	0.436
-591.967	229.300	-0.143	-0.235
-590.952	51.608	0.213	0.204
-589.938	-111.157	-0.140	-0.029
-588.923	-200.000	-0.030	-0.173
-587.909	-14.013	0.089	-0.058
-586.894	-27.824	0.098	-0.057
-585.879	25.271	0.207	0.172
-584.865	237.029	-0.162	-0.269
-583.850	800.000	-0.028	0.119
-582.836	156.790	0.073	-0.101
-581.821	-36.167	-0.138	-0.075
-580.806	135.198	-0.150	-0.196
-579.792	-35.179	0.135	0.074
-578.777	-200.000	-0.031	-0.173
-577.763	-82.861	-0.157	0.051
-576.748	-102.936	0.387	0.092
-575.733	402.467	0.031	0.065
-574.719	433.467	-0.139	-0.304
-573.704	-200.000	-0.005	-0.090
-572.690	-200.000	-0.038	-0.187
-571.675	366.506	0.045	-0.090
-570.661	800.000	0.104	0.382
-569.646	122.334	-0.230	0.288
-568.631	-39.526	-0.249	0.131
-567.617	-80.259	-0.033	-0.011
-566.602	113.349	0.137	0.167
-565.588	328.535	-0.025	0.049
-564.573	-132.819	0.395	0.051
-563.558	-134.115	-0.222	-0.028
-562.544	-104.550	0.267	-0.062
-561.529	82.608	-0.169	-0.184
-560.515	11.370	-0.159	0.122
-559.500	217.210	-0.169	-0.270
-558.485	-170.782	0.074	0.003
-557.471	-200.000	-0.005	-0.148
-556.456	24.018	-0.174	-0.144
-555.442	147.972	0.221	-0.299
-554.427	800.000	-0.077	-0.242
-553.412	-103.547	-0.169	-0.040
-552.398	701.948	0.053	-0.140
-551.383	-200.000	-0.005	0.259
-550.369	-200.000	-0.019	0.366
-549.354	800.000	0.049	-0.214
-548.339	214.053	0.165	-0.262
-547.325	112.539	0.227	0.276
-546.310	-188.506	-0.310	0.004
-545.296	102.524	-0.133	-0.155
-544.281	800.000	0.065	0.274
-543.266	6.030	0.182	-0.135
-542.252	-200.000	-0.009	0.226
-541.237	-38.578	0.155	-0.082
-540.223	-99.870	0.458	-0.115
-539.208	-85.368	0.120	-0.038
-538.193	548.101	0.167	-0.401
-537.179	-200.000	0.010	0.044
-536.164	-200.000	0.059	0.270
-535.150	-152.598	-0.262	-0.019
-534.135	60.305	0.159	0.157
-533.121	164.380	-0.151	0.213
-532.106	-131.420	0.245	-0.032
-531.091	510.581	-0.059	-0.136
-530.077	481.975	0.049	0.111
-529.062	-159.741	0.279	0.015
-528.048	-200.000	0.004	0.252
-527.033	-11.487	-0.207	-0.137
-526.018	293.775	0.067	0.122
-525.004	-138.744	0.170	0.019
-523.989	-200.000	0.036	0.309
-522.975	-58.727	-0.142	0.062
-521.960	101.418	-0.312	-0.364
-520.945	-94.113	-0.101	0.028
-519.931	108.262	-0.160	0.191
-518.916	-6.450	0.214	0.146
-517.902	-200.000	-0.011	0.096
-516.887	4.150	-0.328	-0.240
-515.872	294.179	0.105	0.191
-514.858	50.880	0.121	-0.115
-513.843	-113.976	-0.161	-0.031
-512.829	-46.988	-0.077	-0.038
-511.814	-139.224	0.054	-0.006
-510.799	40.086	-0.252	0.227
-509.785	800.000	0.076	-0.254
-508.770	224.293	-0.159	-0.257
-507.756	-50.878	-0.131	-0.062
-506.741	-57.666	0.272	-0.119
-505.726	19.909	-0.071	-0.057
-504.712	800.000	-0.063	0.183
-503.697	-200.000	-0.020	-0.409
-502.683	41.605	0.331	-0.300
-501.668	800.000	-0.132	-0.385
-500.653	-32.733	-0.230	0.128
-499.639	270.468	0.097	0.170
-498.624	-6.513	-0.335	0.228
-497.610	77.076	0.176	0.187
-496.595	-200.000	-0.003	0.036
-495.581	25.937	0.077	-0.064
-494.566	41.415	0.257	-0.233
-493.551	-200.000	0.003	-0.339
-492.537	800.000	0.015	0.053
-491.522	-64.572	-0.202	-0.082
-490.508	-160.685	0.247	-0.013
-489.493	-113.180	0.426	-0.084
-488.478	-172.686	-0.290	-0.009
-487.464	235.617	-0.030	-0.050
-486.449	-41.363	-0.198	0.102
-485.435	-200.000	-0.025	-0.265
-484.420	-83.855	-0.137	-0.044
-483.405	800.000	0.054	0.159
-482.391	-4.809	-0.125	-0.086
-481.376	-200.000	0.003	0.232
-480.362	67.368	-0.218	0.222
-479.347	479.975	0.131	-0.298
-478.332	-82.073	-0.190	-0.062
-477.318	86.526	-0.138	-0.152
-476.303	319.201	-0.099	0.188
-475.289	48.182	-0.190	-0.177
-474.274	123.175	-0.093	-0.117
-473.259	-200.000	0.010	-0.162
-472.245	135.483	0.168	-0.218
-471.230	-131.608	-0.095	-0.012
-470.216	-200.000	-0.006	0.218
-469.201	-106.885	-0.379	0.084
-468.186	-77.710	0.273	0.094
-467.172	-17.452	0.324	-0.203
-466.157	58.863	-0.081	-0.080
-465.143	-18.195	0.265	-0.166
-464.128	-200.000	-0.013	-0.256
-463.113	-34.129	0.174	0.095
-462.099	148.315	0.125	0.169
-461.084	145.194	0.176	-0.235
-460.070	-200.000	0.007	0.031
-459.055	800.000	0.043	0.147
-458.040	279.135	-0.095	-0.168
-457.026	278.738	-0.156	-0.277
-456.011	-128.760	0.170	-0.024
-454.997	800.000	-0.028	0.088
-453.982	-129.237	0.035	0.005
-452.968	-112.255	-0.160	-0.032
-451.953	-200.000	0.051	-0.268
-450.938	103.773	0.122	0.144
-449.924	800.000	0.077	-0.244
-448.909	-113.317	0.044	0.009
-447.895	189.136	-0.129	-0.193
-446.880	-200.000	-0.013	0.100
-445.865	0.156	-0.157	-0.112
-444.851	-66.811	0.039	0.015
-443.836	-64.588	0.161	0.065
-442.822	-12.731	-0.141	-0.092
-441.807	800.000	0.024	0.081
-440.792	-124.420	0.098	-0.015
-439.778	-200.000	0.045	-0.338
-438.763	-200.000	0.001	0.060
-437.749	112.863	0.128	0.155
-436.734	95.782	-0.037	0.042
-435.719	-14.356	0.273	0.175
-434.705	286.004	-0.011	0.019
-433.690	577.617	0.116	-0.284
-432.676	-19.134	0.072	-0.045
-431.661	18.285	0.417	0.332
-430.646	-65.540	0.207	0.083
-429.632	56.080	-0.047	-0.045
-428.617	-111.934	0.054	0.011
-427.603	356.119	0.043	-0.086
-426.588	-16.461	0.154	-0.097
-425.573	378.819	0.112	-0.229
-424.559	-200.000	0.071	-0.340
-423.544	-200.000	0.001	-0.151
-422.530	-89.850	0.164	-0.048
-421.515	-113.904	-0.048	0.009
-420.500	96.766	-0.174	0.199
-419.486	-126.047	0.502	0.075
-418.471	-200.000	-0.026	-0.161
-417.457	-124.029	-0.269	0.042
-416.442	432.056	-0.087	-0.188
-415.428	-199.095	0.061	-0.000
-414.413	108.719	0.156	-0.186
-413.398	-163.558	-0.185	0.009
-412.384	251.277	0.050	0.084
-411.369	-200.000	0.022	-0.172
-410.355	258.107	0.095	-0.163
-409.340	-81.646	0.409	0.134
-408.325	370.587	-0.048	0.098
-407.311	553.513	-0.032	-0.076
-406.296	-163.430	0.351	-0.017
-405.282	-21.658	-0.214	0.130
-404.267	-200.000	-0.012	-0.144
-403.252	4.647	-0.079	0.058
-402.238	-22.499	-0.163	-0.098
-401.223	-85.405	-0.086	0.027
-400.209	798.290	0.034	0.094
-399.194	-200.000	-0.061	-0.325
-398.179	-81.970	-0.303	0.099
-397.165	151.231	0.263	0.356
-396.150	-61.853	0.288	-0.120
-395.136	508.109	-0.180	-0.417
-394.121	69.943	-0.160	0.164
-393.106	16.691	0.164	0.129
-392.092	322.191	0.070	-0.133
-391.077	-200.000	-0.030	0.269
-390.063	4.721	-0.330	0.241
-389.048	294.820	0.135	0.246
-388.033	-200.000	0.028	-0.128
-387.019	-200.000	0.058	-0.254
-386.004	201.003	0.093	-0.142
-384.990	154.442	0.138	0.188
-383.975	-3.079	-0.503	0.349
-382.960	800.000	0.097	0.357
-381.946	-200.000	0.034	-0.243
-380.931	16.620	0.132	0.104
-379.917	456.035	-0.100	0.221
-378.902	800.000	-0.016	-0.066
-377.888	418.333	-0.062	-0.132
-376.873	668.115	-0.014	-0.036
-375.858	800.000	-0.090	-0.257
-374.844	548.280	-0.105	-0.249
-373.829	443.949	-0.082	-0.178
-372.815	-11.256	0.358	0.235
-371.800	68.324	0.206	-0.210
-370.785	759.451	-0.038	0.101
-369.771	3.251	0.160	-0.116
-368.756	-200.000	-0.068	0.315
-367.742	-59.243	0.386	-0.165
-366.727	-60.956	0.075	0.031
-365.712	-200.000	-0.077	0.390
-364.698	8.801	-0.129	0.096
-363.683	153.530	0.059	-0.080
-362.669	-200.000	0.002	-0.102
-361.654	-200.000	0.044	-0.209
-360.639	174.833	-0.047	0.067
-359.625	406.533	0.119	0.250
-358.610	295.373	-0.032	-0.058
-357.596	-200.000	0.029	-0.360
-356.581	95.666	0.024	-0.027
-355.566	155.172	-0.256	0.350
-354.552	-69.102	-0.205	-0.078
-353.537	-200.000	0.017	-0.314
-352.523	-200.000	-0.010	-0.160
-351.508	-200.000	-0.043	0.258
-350.493	-28.678	-0.068	0.039
-349.479	-200.000	-0.002	0.335
-348.464	36.312	0.260	0.228
-347.450	-17.304	-0.185	0.116
-346.435	693.320	-0.114	-0.297
-345.420	-200.000	-0.010	0.081
-344.406	-94.570	0.227	0.061
-343.391	90.440	-0.088	0.097
-342.377	-80.798	-0.178	0.059
-341.362	617.903	0.023	0.057
-340.348	-47.590	-0.029	-0.014
-339.333	800.000	0.120	0.421
-338.318	-200.000	-0.015	0.377
-337.304	800.000	-0.092	0.279
-336.289	-60.643	0.233	0.098
-335.275	378.843	-0.081	0.165
-334.260	14.125	-0.286	-0.222
-333.245	-49.650	-0.357	0.169
-332.231	-132.850	0.316	0.040
-331.216	319.205	0.181	-0.341
-330.202	-48.814	-0.410	-0.196
-329.187	14.558	0.073	-0.057
-328.172	-178.102	0.163	0.004
-327.158	8.064	-0.315	0.235
-326.143	18.532	0.117	0.093
-325.129	160.504	0.122	0.169
-324.114	-152.964	0.255	-0.018
-323.099	-34.951	0.195	-0.106
-322.085	-116.627	0.111	0.020
-321.070	80.544	-0.201	-0.215
-320.056	-3.078	0.180	0.125
-319.041	-200.000	0.011	0.229
-318.026	-200.000	0.015	0.219
-317.012	-128.990	0.084	-0.012
-315.997	89.171	-0.157	-0.174
-314.983	555.093	-0.120	0.287
-313.968	-200.000	0.024	0.181
-312.953	36.808	0.028	-0.025
-311.939	391.674	-0.116	0.239
-310.924	-54.066	0.232	-0.105
-309.910	-55.363	-0.076	-0.034
-308.895	30.137	-0.249	0.211
-307.880	-124.673	0.186	0.029
-306.866	-102.537	-0.079	-0.019
-305.851	681.187	-0.101	0.260
-304.837	-169.670	0.128	0.005
-303.822	128.133	-0.083	0.105
-302.807	197.566	0.112	0.170
-301.793	-102.920	-0.366	-0.086
-300.778	89.699	-0.213	-0.236
-299.764	-55.624	-0.047	0.021
-298.749	800.000	-0.047	0.173
-297.735	-4.669	-0.134	0.092
-296.720	354.123	-0.039	-0.077
-295.705	634.455	-0.128	0.323
-294.691	-103.514	-0.257	0.060
-293.676	-45.553	-0.368	-0.181
-292.662	-4.991	-0.177	0.121
-291.647	191.954	-0.297	0.443
-290.632	50.855	-0.080	0.076
-289.618	-1.427	-0.237	0.166
-288.603	-60.590	0.214	-0.090
-287.589	-45.919	-0.067	0.033
-286.574	-200.000	-0.062	0.435
-285.559	-122.995	0.088	-0.014
-284.545	-190.198	-0.516	0.006
-283.530	168.109	0.149	-0.210
-282.516	-60.717	-0.230	-0.097
-281.501	-200.000	-0.016	-0.074
-280.486	-200.000	0.022	-0.188
-279.472	617.078	0.083	0.206
-278.457	800.000	-0.082	0.234
-277.443	-85.293	-0.315	0.098
-276.428	-200.000	0.001	-0.132
-275.413	-200.000	0.049	-0.385
-274.399	170.889	0.190	-0.270
-273.384	169.765	-0.086	-0.121
-272.370	152.546	0.097	0.131
-271.355	-19.532	0.151	-0.093
-270.340	-27.993	0.086	-0.050
-269.326	-11.026	-0.186	-0.122
-268.311	112.214	0.187	-0.224
-267.297	218.505	0.040	0.063
-266.282	-55.371	-0.209	-0.093
-265.267	196.229	-0.141	-0.212
-264.253	357.102	-0.118	0.234
-263.238	-167.923	-0.102	0.004
-262.224	27.993	0.292	-0.244
-261.209	-126.708	0.039	0.006
-260.195	-17.817	-0.231	0.144
-259.180	72.857	-0.285	-0.295
-258.165	125.897	-0.101	0.127
-257.151	768.456	-0.032	0.085
-256.136	143.329	-0.112	0.148
-255.122	-131.518	0.385	0.050
-254.107	173.345	-0.119	-0.171
-253.092	-65.420	-0.253	-0.101
-252.078	-59.931	0.120	-0.051
-251.063	663.561	0.079	-0.202
-250.049	73.352	-0.199	0.206
-249.034	-200.000	0.021	-0.163
-248.019	24.611	0.117	0.096
-247.005	-200.000	0.023	-0.238
-245.990	800.000	0.059	-0.169
-244.976	-200.000	0.034	0.194
-243.961	578.188	0.172	-0.417
-242.946	-54.945	0.128	-0.057
-241.932	-200.000	0.054	0.250
-240.917	253.456	-0.191	0.323
-239.903	55.743	0.070	-0.067
-238.888	-120.829	0.133	0.022
-237.873	-98.430	-0.188	-0.048
-236.859	800.000	-0.054	0.203
-235.844	2.555	-0.093	-0.067
-234.830	640.743	0.035	0.087
-233.815	-71.780	-0.236	0.087
-232.800	569.871	-0.080	-0.191
-231.786	98.804	-0.076	0.086
-230.771	4.077	-0.189	-0.137
-229.757	-21.654	0.120	0.072
-228.742	348.528	-0.051	0.100
-227.727	-178.162	0.338	0.008
-226.713	-200.000	0.021	-0.185
-225.698	167.731	-0.192	0.269
-224.684	1.676	0.093	0.066
-223.669	800.000	0.014	0.048
-222.655	256.053	0.185	0.314
-221.640	-82.387	-0.171	-0.055
-220.625	-200.000	-0.005	-0.033
-219.611	618.188	-0.060	-0.148
-218.596	-200.000	-0.118	0.000
-217.582	109.611	0.127	0.150
-216.567	-88.785	-0.250	-0.074
-215.552	524.893	0.183	-0.426
-214.538	-36.416	0.239	-0.127
-213.523	-23.044	0.092	0.055
-212.509	1.895	-0.236	0.169
-211.494	800.000	0.107	-0.344
-210.479	800.000	0.099	0.348
-209.465	-19.605	-0.153	-0.093
-208.450	-200.000	0.012	0.090
-207.436	-200.000	-0.004	0.279
-206.421	-133.390	0.142	-0.018
-205.406	22.691	0.144	-0.116
-204.392	800.000	0.035	-0.100
-203.377	346.482	0.075	0.146
-202.363	-71.551	-0.231	-0.085
-201.348	-20.942	0.325	0.197
-200.333	124.681	-0.050	0.063
-199.319	-193.331	0.156	0.001
-198.304	-41.035	0.112	0.057
-197.290	-172.095	0.070	0.002
-196.275	-200.000	0.017	0.124
-195.260	-51.093	-0.137	0.064
-194.246	781.402	-0.062	0.168
-193.231	-6.876	0.112	0.075
-192.217	-200.000	0.040	-0.221
-191.202	800.000	0.024	0.067
-190.187	-20.030	-0.117	0.071
-189.173	83.016	0.159	-0.171
-188.158	197.295	-0.018	0.027
-187.144	-134.032	-0.405	0.049
-186.129	355.565	0.166	0.327
-185.114	579.732	0.019	-0.046
-184.100	66.321	0.116	-0.116
-183.085	229.470	0.186	-0.299
-182.071	-122.101	-0.161	0.026
-181.056	699.143	0.039	0.102
-180.042	84.331	0.071	0.077
-179.027	-92.436	0.262	-0.073
-178.012	183.091	0.118	0.172
-176.998	229.965	0.142	0.229
-175.983	-200.000	0.036	0.241
-174.969	-147.841	0.148	0.012
-173.954	800.000	-0.083	0.308
-172.939	-140.027	-0.127	-0.013
-171.925	147.392	0.041	0.055
-170.910	-200.000	0.005	0.043
-169.896	-53.624	-0.205	-0.092
-168.881	-102.820	-0.174	-0.041
-167.866	-79.432	-0.228	0.076
-166.852	125.268	-0.177	0.221
-165.837	5.621	0.193	-0.141
-164.823	-41.976	-0.082	-0.042
-163.808	-83.736	0.189	0.059
-162.793	-200.000	0.035	0.152
-161.779	87.012	0.161	-0.175
-160.764	0.521	0.351	0.248
-159.750	298.941	0.223	-0.405
-158.735	14.640	-0.329	-0.253
-157.720	-61.144	0.174	0.072
-156.706	40.442	-0.158	0.140
-155.691	-74.900	0.099	0.035
-154.677	307.732	0.209	0.385
-153.662	371.002	0.104	0.209
-152.647	-200.000	-0.020	0.239
-151.633	-34.074	-0.060	0.033
-150.618	308.444	-0.211	0.389
-149.604	-200.000	0.056	0.425
-148.589	-99.611	0.139	0.034
-147.574	-138.423	-0.209	0.023
-146.560	-200.000	0.019	0.115
-145.545	200.176	-0.137	-0.207
-144.531	-93.662	0.055	-0.015
-143.516	800.000	-0.140	0.528
-142.502	15.318	-0.185	0.143
-141.487	-26.688	0.212	0.123
-140.472	-56.209	0.224	0.098
-139.458	250.482	-0.138	0.231
-138.443	-82.052	0.290	0.093
-137.429	-69.483	-0.117	-0.044
-136.414	-87.357	-0.169	0.051
-135.399	279.336	0.053	0.093
-134.385	75.087	-0.062	-0.064
-133.370	82.679	-0.104	0.111
-132.356	800.000	0.104	-0.373
-131.341	19.622	0.239	-0.189
-130.326	800.000	0.114	-0.367
-129.312	-109.318	-0.133	0.028
-128.297	-129.097	-0.253	0.035
-127.283	11.834	0.317	0.240
-126.268	-106.543	0.231	-0.051
-125.253	13.295	0.071	0.054
-124.239	-65.541	-0.221	0.087
-123.224	-20.376	0.243	0.147
-122.210	-90.659	0.379	-0.108
-121.195	800.000	-0.074	-0.262
