DTS Sentinel unit serial number:	SN413079Multiplexer serial number:	ORYXHardware model number:	OX4-SRSoftware version number:	ORYX F/W v4.00 Oryx Data Collector v3.7.2.0data status	okinstallation	princeton_trtdifferential loss correction	single-endedforward channel	channel 1reverse channel	N/Adate	2019/09/12time	11:12:11forward acquisition time	60.00reverse acquisition time	0.00gamma	496.2192k internal	0.2296k external	0.2296temperature offset calibration	1.0046default loss term (dB/km)	0.3790temperature slope calibration	1.0000multiplexer offset coefficient	1.0000multiplexer slope coefficient	1.0000fibre end	0.00T internal ref (°C)	38.81T ext. ref 1 (°C)	1.93T ext. ref 2 (°C)	36.08length (m)	temperature (°C)	Stokes	anti-Stokes-747.200	14.577	0.239	0.190
-746.185	-12.196	0.050	-0.033
-745.171	72.189	0.149	0.159
-744.156	-34.895	-0.260	-0.145
-743.142	136.700	0.221	0.295
-742.127	-23.283	0.255	0.156
-741.112	-185.900	-0.111	0.002
-740.098	-56.458	-0.175	-0.079
-739.083	204.239	0.080	0.126
-738.069	450.380	0.160	0.360
-737.054	149.939	-0.133	-0.184
-736.039	85.851	0.124	-0.139
-735.025	70.522	-0.068	0.072
-734.010	63.758	-0.147	-0.151
-732.996	-70.983	-0.365	-0.140
-731.981	-58.484	0.277	-0.123
-730.966	-142.463	-0.251	-0.025
-729.952	-200.000	0.001	-0.018
-728.937	-69.059	0.146	-0.057
-727.923	-146.891	-0.128	-0.011
-726.908	800.000	-0.043	-0.123
-725.894	37.715	0.194	-0.176
-724.879	800.000	-0.018	0.053
-723.864	-123.259	-0.207	0.034
-722.850	-176.009	-0.260	0.007
-721.835	183.840	0.169	0.256
-720.821	-84.146	-0.113	-0.036
-719.806	800.000	0.074	0.234
-718.791	695.930	-0.079	-0.211
-717.777	42.152	0.134	0.125
-716.762	-175.969	0.582	0.016
-715.748	396.237	-0.075	0.159
-714.733	-59.566	-0.190	0.083
-713.718	50.604	-0.039	0.038
-712.704	-2.988	-0.140	0.100
-711.689	166.795	-0.136	-0.197
-710.675	-27.060	0.131	0.078
-709.660	111.148	-0.208	0.256
-708.645	-55.144	-0.154	0.071
-707.631	-200.000	0.008	0.100
-706.616	-145.852	0.214	-0.019
-705.602	299.850	0.134	-0.253
-704.587	-180.235	0.328	0.007
-703.572	-200.000	-0.022	0.286
-702.558	736.041	0.113	-0.309
-701.543	-107.916	0.082	-0.018
-700.529	192.313	-0.140	-0.216
-699.514	542.704	-0.114	-0.278
-698.499	-153.008	0.222	0.016
-697.485	16.547	0.186	-0.150
-696.470	61.200	-0.090	0.091
-695.456	643.506	0.139	0.361
-694.441	717.378	0.092	-0.250
-693.426	94.204	0.164	-0.190
-692.412	-71.929	-0.199	-0.076
-691.397	795.398	0.014	0.039
-690.383	169.601	0.021	0.031
-689.368	-78.893	-0.106	0.037
-688.354	100.325	-0.080	0.095
-687.339	275.252	0.032	-0.057
-686.324	800.000	0.101	0.366
-685.310	-94.293	0.292	0.081
-684.295	-147.245	0.192	0.017
-683.281	-200.000	0.046	0.223
-682.266	800.000	-0.087	-0.283
-681.251	-125.567	-0.052	-0.008
-680.237	-110.475	-0.176	-0.037
-679.222	427.689	0.131	-0.289
-678.208	800.000	0.097	0.310
-677.193	115.716	-0.203	0.254
-676.178	184.378	-0.011	-0.016
-675.164	-176.800	0.028	0.001
-674.149	349.660	-0.009	0.017
-673.135	64.789	-0.235	0.242
-672.120	-200.000	-0.011	0.189
-671.105	271.630	-0.078	-0.140
-670.091	529.591	-0.022	-0.052
-669.076	98.174	0.082	-0.096
-668.062	-200.000	-0.007	0.150
-667.047	-200.000	0.032	-0.242
-666.032	-157.313	0.103	-0.006
-665.018	-46.140	0.226	-0.113
-664.003	100.066	-0.245	-0.289
-662.989	208.644	0.178	-0.283
-661.974	-200.000	-0.013	0.156
-660.959	-7.157	0.187	-0.129
-659.945	-200.000	0.011	0.060
-658.930	-115.855	-0.375	-0.071
-657.916	365.246	-0.080	0.165
-656.901	-85.791	0.189	0.060
-655.886	12.241	-0.162	-0.127
-654.872	371.653	0.193	-0.399
-653.857	65.464	0.076	0.078
-652.843	-107.434	-0.354	-0.079
-651.828	-163.113	0.162	-0.008
-650.814	-118.955	-0.379	0.068
-649.799	-200.000	0.020	-0.278
-648.784	9.625	0.316	-0.244
-647.770	-112.031	-0.070	-0.014
-646.755	-125.789	-0.236	-0.036
-645.741	7.995	-0.064	0.049
-644.726	-200.000	0.015	-0.132
-643.711	-48.675	0.230	0.112
-642.697	100.401	0.215	-0.254
-641.682	18.145	0.160	-0.130
-640.668	138.318	-0.072	0.096
-639.653	293.369	0.033	0.062
-638.638	-84.592	-0.155	-0.050
-637.624	270.237	0.076	0.136
-636.609	800.000	0.083	0.293
-635.595	169.258	0.180	0.262
-634.580	4.405	0.142	0.106
-633.565	-200.000	-0.001	-0.034
-632.551	-76.976	0.108	0.038
-631.536	171.021	0.045	-0.065
-630.522	-200.000	-0.044	0.503
-629.507	-101.444	-0.029	-0.007
-628.492	572.708	0.122	-0.302
-627.478	-66.975	-0.174	-0.070
-626.463	170.273	0.260	-0.378
-625.449	543.408	0.172	-0.418
-624.434	-200.000	-0.058	0.359
-623.419	-200.000	0.021	-0.301
-622.405	-200.000	-0.042	-0.350
-621.390	-93.676	0.156	-0.044
-620.376	-3.819	-0.075	0.053
-619.361	357.979	-0.045	-0.091
-618.346	-200.000	-0.016	0.214
-617.332	-187.442	-0.214	-0.003
-616.317	216.010	-0.144	0.232
-615.303	264.265	0.095	0.169
-614.288	-200.000	-0.006	0.167
-613.273	504.436	0.050	0.117
-612.259	-120.305	-0.194	-0.034
-611.244	214.104	-0.159	-0.256
-610.230	800.000	0.071	0.223
-609.215	-127.431	-0.094	-0.014
-608.201	-40.361	-0.255	0.135
-607.186	-200.000	-0.028	0.208
-606.171	467.860	-0.118	0.268
-605.157	157.112	-0.086	-0.121
-604.142	147.615	0.121	-0.166
-603.128	-99.961	0.089	-0.023
-602.113	-78.195	-0.176	-0.062
-601.098	451.736	-0.062	-0.138
-600.084	-67.750	-0.183	-0.073
-599.069	-128.572	0.181	-0.026
-598.055	17.352	0.205	0.166
-597.040	-61.542	0.134	-0.057
-596.025	-38.163	-0.241	-0.130
-595.011	-122.151	-0.182	-0.030
-593.996	-164.867	0.228	-0.010
-592.982	-31.378	0.146	-0.083
-591.967	-200.000	0.012	0.172
-590.952	351.168	-0.114	-0.230
-589.938	-94.374	0.233	0.065
-588.923	-16.620	0.332	0.214
-587.909	-95.193	-0.134	0.037
-586.894	441.813	0.165	0.367
-585.879	328.523	-0.118	0.230
-584.865	100.222	0.069	-0.081
-583.850	15.007	0.141	-0.112
-582.836	-200.000	0.010	-0.145
-581.821	800.000	-0.095	-0.333
-580.806	-20.439	0.283	0.177
-579.792	-200.000	0.032	0.293
-578.777	-151.413	0.100	-0.008
-577.763	-49.472	-0.134	0.065
-576.748	-200.000	0.000	0.092
-575.733	-66.402	-0.094	-0.038
-574.719	800.000	-0.008	0.031
-573.704	549.724	0.030	-0.073
-572.690	-70.600	0.219	0.084
-571.675	22.365	-0.356	-0.295
-570.661	-200.000	0.061	0.314
-569.646	-39.742	0.116	-0.062
-568.631	-2.087	-0.223	0.159
-567.617	330.094	0.093	0.181
-566.602	54.790	-0.043	0.042
-565.588	800.000	-0.052	-0.183
-564.573	-22.126	-0.279	-0.172
-563.558	800.000	0.090	-0.378
-562.544	138.379	0.151	0.201
-561.529	43.796	0.151	-0.140
-560.515	-46.016	0.204	-0.102
-559.500	-176.777	-0.132	0.003
-558.485	-26.042	-0.265	-0.158
-557.471	-97.594	0.160	-0.042
-556.456	-63.769	0.065	-0.027
-555.442	-200.000	-0.031	0.353
-554.427	800.000	-0.082	-0.268
-553.412	226.410	-0.195	-0.320
-552.398	-200.000	0.003	0.316
-551.383	241.219	0.198	0.335
-550.369	268.658	0.178	0.317
-549.354	455.525	0.077	-0.173
-548.339	-200.000	0.093	0.423
-547.325	800.000	0.067	0.211
-546.310	39.190	-0.164	-0.149
-545.296	-24.231	0.176	-0.107
-544.281	7.898	-0.105	-0.080
-543.266	26.228	0.091	0.077
-542.252	-200.000	-0.057	0.314
-541.237	214.630	0.175	0.280
-540.223	-101.300	-0.147	0.036
-539.208	-200.000	0.003	0.083
-538.193	-129.434	-0.369	0.052
-537.179	-200.000	-0.030	-0.207
-536.164	-200.000	0.017	-0.337
-535.150	-10.192	-0.117	0.079
-534.135	106.091	0.081	0.097
-533.121	-200.000	-0.048	-0.356
-532.106	470.760	-0.082	-0.188
-531.091	-118.286	-0.412	-0.074
-530.077	-58.585	0.068	-0.030
-529.062	245.717	0.080	-0.136
-528.048	-200.000	-0.020	0.120
-527.033	-200.000	0.013	-0.091
-526.018	-92.955	-0.180	0.051
-525.004	800.000	0.073	-0.247
-523.989	-200.000	0.042	-0.282
-522.975	-16.925	-0.091	-0.058
-521.960	800.000	-0.112	0.430
-520.945	-103.495	0.309	-0.074
-519.931	368.354	0.025	0.050
-518.916	800.000	-0.106	0.304
-517.902	-25.475	-0.285	-0.171
-516.887	-148.820	0.043	-0.004
-515.872	295.608	0.186	-0.345
-514.858	-156.855	0.160	0.010
-513.843	-200.000	0.006	-0.153
-512.829	-108.983	-0.109	0.024
-511.814	-150.243	-0.152	0.012
-510.799	-200.000	0.029	-0.170
-509.785	111.579	-0.014	-0.017
-508.770	-200.000	0.010	-0.196
-507.756	-157.020	0.119	-0.007
-506.741	800.000	-0.100	-0.366
-505.726	-75.642	-0.052	0.019
-504.712	-90.401	-0.027	-0.008
-503.697	-4.379	0.193	0.135
-502.683	-159.525	-0.211	0.012
-501.668	16.224	0.132	0.105
-500.653	800.000	-0.046	0.150
-499.639	-147.628	-0.196	-0.017
-498.624	-25.746	0.150	0.090
-497.610	226.467	-0.049	-0.080
-496.595	-154.340	0.284	-0.019
-495.581	800.000	0.095	0.383
-494.566	-158.010	-0.371	-0.022
-493.551	554.904	-0.098	-0.238
-492.537	557.859	0.116	0.283
-491.522	-119.144	0.052	0.009
-490.508	11.278	0.160	-0.124
-489.493	-200.000	0.033	-0.153
-488.478	107.544	0.126	-0.152
-487.464	353.197	-0.239	-0.480
-486.449	-22.457	-0.046	-0.028
-485.435	11.071	0.154	-0.119
-484.420	800.000	0.057	0.204
-483.405	92.971	-0.221	0.253
-482.391	-200.000	-0.024	-0.225
-481.376	-195.158	-0.401	-0.003
-480.362	7.106	-0.192	-0.145
-479.347	-50.042	-0.068	-0.033
-478.332	313.424	-0.189	-0.359
-477.318	-178.430	0.166	0.004
-476.303	800.000	-0.065	-0.197
-475.289	41.914	-0.129	-0.118
-474.274	9.059	0.252	-0.192
-473.259	-95.578	0.097	-0.026
-472.245	-155.397	-0.304	0.020
-471.230	-103.542	0.141	0.034
-470.216	163.837	-0.033	0.047
-469.201	417.532	0.110	0.237
-468.186	-37.474	0.120	0.065
-467.172	-37.173	-0.216	-0.117
-466.157	299.761	-0.183	-0.341
-465.143	-39.818	-0.148	-0.078
-464.128	-22.149	0.299	0.183
-463.113	-96.867	-0.318	-0.084
-462.099	-200.000	-0.018	-0.174
-461.084	160.617	-0.403	0.568
-460.070	135.925	-0.071	0.094
-459.055	-86.108	-0.281	-0.088
-458.040	136.927	-0.084	-0.111
-457.026	543.300	0.083	0.199
-456.011	-132.536	-0.151	0.020
-454.997	-200.000	0.015	-0.306
-453.982	-200.000	0.033	-0.358
-452.968	800.000	0.105	-0.299
-451.953	17.696	-0.188	-0.151
-450.938	140.754	-0.154	-0.206
-449.924	442.036	-0.142	0.315
-448.909	24.057	-0.214	-0.178
-447.895	-74.885	-0.284	-0.103
-446.880	119.825	0.212	0.266
-445.865	45.744	0.141	-0.132
-444.851	800.000	-0.083	0.279
-443.836	21.984	0.254	-0.209
-442.822	7.011	0.134	-0.101
-441.807	361.438	0.115	0.232
-440.792	-200.000	-0.034	0.184
-439.778	800.000	-0.081	-0.252
-438.763	-200.000	0.014	-0.220
-437.749	800.000	-0.056	0.239
-436.734	-94.380	0.428	0.118
-435.719	254.168	0.123	-0.212
-434.705	-200.000	0.017	-0.200
-433.690	664.582	-0.130	0.339
-432.676	387.494	-0.048	-0.100
-431.661	588.604	0.057	-0.141
-430.646	35.140	0.146	0.129
-429.632	-7.180	0.327	0.224
-428.617	-73.920	-0.089	0.033
-427.603	338.002	-0.090	0.177
-426.588	-200.000	0.004	0.125
-425.573	800.000	-0.026	0.104
-424.559	19.111	0.130	0.105
-423.544	-25.506	-0.125	-0.075
-422.530	-200.000	-0.018	-0.206
-421.515	-15.396	-0.191	-0.123
-420.500	-88.638	-0.341	0.102
-419.486	-200.000	0.023	-0.188
-418.471	54.807	0.075	0.073
-417.457	-65.303	0.294	0.119
-416.442	411.187	0.055	0.117
-415.428	318.449	-0.018	0.035
-414.413	-42.017	-0.112	-0.058
-413.398	-200.000	-0.027	0.365
-412.384	-200.000	0.040	0.205
-411.369	-157.075	-0.096	0.006
-410.355	113.195	-0.011	0.014
-409.340	171.649	0.154	0.223
-408.325	-143.609	-0.389	0.037
-407.311	-26.228	0.304	0.180
-406.296	-118.886	-0.129	0.023
-405.282	-25.972	0.198	0.118
-404.267	-93.217	0.129	-0.036
-403.252	101.462	-0.327	-0.384
-402.238	800.000	-0.057	-0.240
-401.223	-178.948	0.241	0.005
-400.209	-70.852	0.062	-0.023
-399.194	-200.000	-0.007	-0.122
-398.179	800.000	0.018	-0.063
-397.165	-72.809	-0.158	0.059
-396.150	800.000	0.098	0.313
-395.136	-200.000	-0.019	0.275
-394.121	800.000	0.143	-0.450
-393.106	-54.075	0.247	0.113
-392.092	-6.510	-0.292	-0.201
-391.077	106.009	0.118	0.140
-390.063	-102.028	-0.138	0.034
-389.048	-11.579	0.245	-0.163
-388.033	-44.505	0.284	-0.143
-387.019	800.000	-0.102	0.399
-386.004	-200.000	-0.044	0.196
-384.990	56.066	-0.109	0.106
-383.975	-114.715	0.133	0.026
-382.960	56.974	-0.224	0.220
-381.946	113.329	0.185	-0.226
-380.931	22.751	0.282	-0.233
-379.917	-68.719	0.070	-0.027
-378.902	148.636	-0.156	0.212
-377.888	-87.862	-0.150	0.045
-376.873	-89.141	-0.305	-0.091
-375.858	418.670	-0.090	-0.195
-374.844	-157.963	0.200	-0.012
-373.829	-64.926	0.341	-0.139
-372.815	-134.352	0.091	-0.011
-371.800	13.159	-0.090	-0.070
-370.785	8.484	-0.172	-0.130
-369.771	-137.512	0.240	-0.027
-368.756	-23.379	-0.167	-0.101
-367.742	-200.000	0.030	-0.189
-366.727	-20.720	-0.055	-0.034
-365.712	283.311	-0.140	0.253
-364.698	92.413	0.129	0.147
-363.683	345.575	-0.112	0.221
-362.669	24.422	0.081	-0.068
-361.654	-8.476	0.137	-0.093
-360.639	-46.407	-0.294	-0.145
-359.625	-25.899	-0.189	-0.112
-358.610	-30.680	-0.235	-0.134
-357.596	102.196	-0.161	-0.189
-356.581	-85.629	-0.328	0.103
-355.566	-82.335	-0.045	-0.015
-354.552	62.241	0.101	0.101
-353.537	-49.586	-0.096	-0.046
-352.523	-200.000	0.016	-0.170
-351.508	418.207	0.071	0.152
-350.493	-200.000	-0.019	0.167
-349.479	-151.271	0.172	0.013
-348.464	-200.000	-0.021	-0.116
-347.450	800.000	0.131	0.569
-346.435	-73.145	-0.240	-0.088
-345.420	390.092	-0.143	-0.298
-344.406	23.601	0.245	0.203
-343.391	30.619	0.177	-0.152
-342.377	-200.000	0.228	-0.001
-341.362	-200.000	-0.020	0.174
-340.348	227.038	-0.046	0.076
-339.333	-105.051	0.102	-0.023
-338.318	273.274	0.046	0.082
-337.304	103.964	0.089	0.106
-336.289	-19.227	0.301	0.188
-335.275	60.188	-0.243	0.242
-334.260	-70.318	-0.342	-0.131
-333.245	-55.809	-0.307	-0.138
-332.231	-200.000	0.040	0.404
-331.216	-164.004	0.297	0.014
-330.202	417.252	-0.076	-0.162
-329.187	800.000	-0.088	0.311
-328.172	800.000	0.029	-0.095
-327.158	-164.389	0.298	0.014
-326.143	165.093	-0.056	-0.079
-325.129	28.771	0.280	-0.238
-324.114	-173.631	0.301	-0.009
-323.099	-77.885	0.306	0.106
-322.085	-161.691	0.280	0.014
-321.070	118.038	0.277	-0.343
-320.056	-54.728	0.374	0.170
-319.041	280.104	0.084	-0.151
-318.026	-200.000	-0.040	-0.214
-317.012	158.518	0.019	0.026
-315.997	800.000	0.126	-0.479
-314.983	-200.000	-0.020	-0.103
-313.968	94.506	-0.104	-0.118
-312.953	569.866	-0.065	0.158
-311.939	-84.268	-0.194	0.062
-310.924	158.152	0.041	0.057
-309.910	-107.861	0.307	0.067
-308.895	-106.810	0.034	-0.008
-307.880	641.352	-0.167	0.427
-306.866	800.000	-0.057	0.209
-305.851	95.662	0.014	-0.016
-304.837	502.276	-0.106	-0.246
-303.822	800.000	-0.065	0.277
-302.807	-200.000	0.019	0.275
-301.793	-200.000	-0.019	0.166
-300.778	-1.297	0.174	0.123
-299.764	-48.338	0.158	-0.077
-298.749	-200.000	0.029	0.200
-297.735	-42.837	-0.072	0.037
-296.720	564.148	-0.109	0.265
-295.705	-200.000	0.022	0.102
-294.691	82.991	0.146	-0.160
-293.676	198.126	0.171	0.263
-292.662	164.312	0.106	0.150
-291.647	-112.758	0.197	-0.039
-290.632	-84.598	0.220	-0.070
-289.618	-108.975	-0.107	0.023
-288.603	249.656	-0.102	-0.174
-287.589	-200.000	-0.003	-0.339
-286.574	600.270	0.124	-0.309
-285.559	-0.962	0.076	-0.054
-284.545	90.629	0.061	0.068
-283.530	12.207	0.223	0.173
-282.516	275.878	0.227	0.404
-281.501	800.000	-0.065	-0.216
-280.486	-119.523	0.211	-0.037
-279.472	-17.492	0.122	-0.077
-278.457	800.000	0.083	0.281
-277.443	-168.982	0.313	-0.012
-276.428	96.146	-0.250	-0.286
-275.413	128.834	-0.173	0.221
-274.399	-131.870	-0.177	0.023
-273.384	-200.000	-0.004	-0.059
-272.370	377.380	-0.038	0.077
-271.355	-58.009	-0.231	-0.101
-270.340	759.443	-0.161	0.438
-269.326	-164.650	-0.052	0.002
-268.311	-105.254	0.320	-0.073
-267.297	90.726	-0.318	-0.357
-266.282	195.051	-0.174	0.265
-265.267	-68.844	0.094	0.037
-264.253	-200.000	0.025	0.183
-263.238	-32.817	0.133	-0.074
-262.224	-48.620	0.153	0.074
-261.209	-99.493	-0.242	0.061
-260.195	361.396	-0.088	-0.177
-259.180	227.530	-0.127	-0.207
-258.165	-70.836	0.162	-0.061
-257.151	-91.369	-0.195	-0.056
-256.136	-91.722	-0.367	-0.105
-255.122	-182.294	-0.271	-0.005
-254.107	-182.608	0.214	0.004
-253.092	715.847	-0.064	-0.171
-252.078	125.887	0.210	-0.266
-251.063	-200.000	-0.030	-0.138
-250.049	-200.000	0.019	-0.193
-249.034	-148.788	0.227	0.018
-248.019	-200.000	-0.042	-0.206
-247.005	90.132	0.103	0.116
-245.990	-200.000	-0.052	0.350
-244.976	-200.000	-0.002	0.172
-243.961	-20.907	-0.278	0.171
-242.946	-89.880	0.143	-0.042
-241.932	6.012	0.190	-0.141
-240.917	-200.000	-0.021	0.166
-239.903	800.000	0.141	0.406
-238.888	84.722	0.017	0.018
-237.873	168.991	-0.139	0.199
-236.859	189.145	-0.213	-0.320
-235.844	94.440	-0.177	0.202
-234.830	85.879	-0.079	0.087
-233.815	-75.699	0.425	0.151
-232.800	800.000	0.072	0.212
-231.786	-4.009	0.291	0.202
-230.771	-28.073	0.288	0.167
-229.757	-56.404	0.268	-0.119
-228.742	409.200	0.157	0.334
-227.727	-141.494	-0.238	-0.024
-226.713	41.240	-0.074	0.067
-225.698	-14.255	-0.132	0.085
-224.684	800.000	-0.049	-0.189
-223.669	-120.155	-0.030	-0.005
-222.655	316.193	-0.061	0.115
-221.640	-72.189	-0.127	-0.047
-220.625	-90.062	-0.101	-0.030
-219.611	-47.716	0.251	0.122
-218.596	-200.000	-0.013	0.193
-217.582	800.000	0.005	-0.019
-216.567	218.402	-0.176	0.281
-215.552	-200.000	-0.008	-0.144
-214.538	-29.531	0.120	0.069
-213.523	92.242	0.074	0.083
-212.509	-105.240	-0.389	-0.089
-211.494	-29.656	-0.427	-0.244
-210.479	800.000	-0.058	0.228
-209.465	-200.000	0.051	-0.276
-208.450	800.000	0.089	0.247
-207.436	-95.179	-0.268	0.072
-206.421	11.815	0.232	0.178
-205.406	-84.498	-0.086	-0.027
-204.392	25.766	0.089	0.074
-203.377	151.318	-0.288	0.392
-202.363	-200.000	0.020	-0.110
-201.348	359.093	0.042	0.084
-200.333	-25.162	-0.397	-0.235
-199.319	-15.710	0.148	-0.095
-198.304	390.752	-0.041	0.085
-197.290	-200.000	-0.017	-0.296
-196.275	-9.743	-0.237	0.158
-195.260	-200.000	-0.004	-0.198
-194.246	373.011	0.018	0.036
-193.231	210.988	0.097	0.152
-192.217	81.455	0.283	-0.306
-191.202	118.295	-0.227	-0.280
-190.187	-200.000	-0.003	-0.217
-189.173	-200.000	0.017	-0.219
-188.158	134.070	-0.073	0.095
-187.144	274.150	-0.153	0.270
-186.129	-84.127	0.197	-0.063
-185.114	-200.000	-0.041	-0.351
-184.100	46.885	0.389	-0.361
-183.085	-200.000	0.012	-0.096
-182.071	-200.000	0.024	-0.237
-181.056	247.175	-0.067	0.113
-180.042	14.351	0.374	0.292
-179.027	-34.679	0.052	-0.028
-178.012	-160.652	0.259	0.014
-176.998	800.000	-0.062	-0.194
-175.983	14.771	-0.171	0.133
-174.969	755.309	-0.059	0.160
-173.954	318.459	0.087	0.165
-172.939	482.788	0.034	-0.076
-171.925	800.000	0.045	-0.191
-170.910	800.000	-0.024	-0.074
-169.896	-98.390	0.057	-0.015
-168.881	415.788	0.081	-0.173
-167.866	-88.604	-0.242	0.072
-166.852	-176.067	-0.324	-0.009
-165.837	-80.132	-0.243	-0.081
-164.823	-88.180	0.235	-0.070
-163.808	800.000	-0.079	-0.297
-162.793	105.963	-0.147	0.173
-161.779	-200.000	0.006	0.092
-160.764	681.484	0.069	-0.178
-159.750	-109.120	-0.257	-0.055
-158.735	-45.441	-0.207	0.103
-157.720	-167.441	-0.278	-0.011
-156.706	800.000	-0.055	-0.219
-155.691	-81.784	0.130	-0.043
-154.677	176.429	0.056	-0.081
-153.662	28.555	0.121	-0.103
-152.647	-200.000	-0.033	0.317
-151.633	-200.000	-0.046	0.295
-150.618	-35.983	0.147	0.079
-149.604	111.599	-0.128	-0.155
-148.589	-200.000	0.033	0.215
-147.574	382.853	-0.070	-0.143
-146.560	800.000	-0.098	-0.273
-145.545	56.196	-0.341	0.331
-144.531	-8.712	0.136	-0.091
-143.516	-79.939	0.175	-0.059
-142.502	183.079	-0.181	-0.267
-141.487	-84.918	0.042	-0.013
-140.472	-1.891	0.150	-0.106
-139.458	-200.000	-0.008	-0.351
-138.443	-200.000	-0.010	0.283
-137.429	100.049	0.190	-0.220
-136.414	-91.848	-0.195	-0.055
-135.399	123.643	0.072	0.091
-134.385	195.388	0.216	-0.327
-133.370	-200.000	0.044	-0.514
-132.356	273.672	-0.045	0.079
-131.341	-168.752	-0.047	-0.002
-130.326	40.686	-0.314	0.283
-129.312	143.888	-0.106	-0.141
-128.297	-200.000	0.007	0.131
-127.283	-100.761	0.138	-0.034
-126.268	88.073	-0.188	0.208
-125.253	-152.362	0.240	-0.017
-124.239	-132.943	0.121	-0.015
-123.224	133.730	0.088	-0.114
-122.210	-115.706	0.472	-0.088
