DTS Sentinel unit serial number:	SN413079Multiplexer serial number:	ORYXHardware model number:	OX4-SRSoftware version number:	ORYX F/W v4.00 Oryx Data Collector v3.7.2.0data status	okinstallation	princeton_trtdifferential loss correction	single-endedforward channel	channel 1reverse channel	N/Adate	2019/09/19time	01:58:35forward acquisition time	60.00reverse acquisition time	0.00gamma	496.2192k internal	0.2344k external	0.2344temperature offset calibration	1.0018default loss term (dB/km)	0.3790temperature slope calibration	1.0000multiplexer offset coefficient	1.0000multiplexer slope coefficient	1.0000fibre end	0.00T internal ref (°C)	21.25T ext. ref 1 (°C)	0.68T ext. ref 2 (°C)	14.91length (m)	temperature (°C)	Stokes	anti-Stokes-747.200	800.000	0.053	-0.180
-746.185	-158.471	-0.138	0.008
-745.171	-160.985	0.194	-0.010
-744.156	-200.000	0.015	-0.185
-743.142	-200.000	0.023	-0.452
-742.127	-132.271	-0.146	0.019
-741.112	-57.230	-0.101	-0.045
-740.098	63.792	-0.106	0.107
-739.083	-200.000	0.090	0.431
-738.069	800.000	-0.038	-0.123
-737.054	199.001	-0.097	0.149
-736.039	-24.194	-0.121	0.072
-735.025	78.791	0.143	0.154
-734.010	800.000	0.098	-0.316
-732.996	101.079	-0.128	-0.149
-731.981	-118.785	-0.124	-0.022
-730.966	73.118	-0.103	-0.108
-729.952	102.358	0.116	-0.135
-728.937	278.768	0.162	-0.288
-727.923	88.894	-0.111	-0.123
-726.908	-48.341	0.061	0.029
-725.894	-32.629	-0.384	-0.214
-724.879	303.298	-0.252	0.467
-723.864	111.471	-0.241	-0.290
-722.850	200.724	0.178	0.274
-721.835	-66.105	-0.561	0.224
-720.821	-65.456	-0.294	-0.118
-719.806	-89.882	0.072	-0.021
-718.791	713.018	0.058	0.154
-717.777	277.244	-0.106	0.188
-716.762	146.677	-0.178	-0.240
-715.748	-200.000	0.012	-0.149
-714.733	-200.000	0.074	0.537
-713.718	375.604	-0.056	-0.113
-712.704	-122.116	-0.065	-0.011
-711.689	-88.471	0.097	0.029
-710.675	-78.835	0.135	-0.046
-709.660	42.145	0.187	0.170
-708.645	98.403	-0.100	-0.115
-707.631	700.999	-0.082	-0.216
-706.616	-4.928	0.253	-0.174
-705.602	51.693	-0.128	-0.122
-704.587	40.967	0.108	-0.098
-703.572	590.676	0.105	0.260
-702.558	-200.000	-0.052	-0.301
-701.543	-17.001	0.133	0.084
-700.529	29.434	0.203	-0.173
-699.514	-55.143	0.169	-0.076
-698.499	-11.755	0.165	-0.108
-697.485	-200.000	0.035	-0.218
-696.470	382.091	-0.083	0.171
-695.456	-27.215	0.275	-0.160
-694.441	-29.435	0.177	0.101
-693.426	-200.000	-0.001	-0.395
-692.412	-200.000	-0.028	0.248
-691.397	-68.356	0.063	0.024
-690.383	-66.273	-0.318	-0.126
-689.368	39.874	-0.284	-0.255
-688.354	800.000	0.064	-0.185
-687.339	-80.289	0.197	-0.066
-686.324	-67.782	0.127	0.049
-685.310	13.641	0.095	0.074
-684.295	-25.169	0.259	-0.153
-683.281	-200.000	0.022	-0.237
-682.266	-60.012	-0.274	-0.117
-681.251	8.270	0.112	0.084
-680.237	-27.117	0.195	0.114
-679.222	46.258	0.158	0.146
-678.208	-86.453	0.322	0.099
-677.193	-180.436	-0.474	-0.010
-676.178	65.313	0.108	0.109
-675.164	253.853	0.102	0.174
-674.149	-5.754	0.146	0.099
-673.135	-87.203	-0.356	-0.108
-672.120	-36.685	0.039	0.021
-671.105	-200.000	-0.017	-0.094
-670.091	800.000	-0.113	-0.483
-669.076	234.520	0.021	-0.035
-668.062	55.698	0.110	-0.106
-667.047	553.468	-0.125	0.301
-666.032	-136.552	0.080	0.009
-665.018	221.319	0.072	0.116
-664.003	800.000	0.039	-0.167
-662.989	150.659	-0.093	-0.126
-661.974	-17.948	-0.301	0.189
-660.959	-85.723	0.260	-0.080
-659.945	-200.000	-0.042	-0.226
-658.930	-181.886	0.045	0.001
-657.916	39.284	-0.172	-0.154
-656.901	6.630	0.194	-0.144
-655.886	-170.566	0.243	-0.008
-654.872	21.656	-0.031	-0.025
-653.857	92.570	0.093	0.104
-652.843	129.781	0.193	0.247
-651.828	367.315	0.226	0.455
-650.814	-200.000	-0.058	0.313
-649.799	25.822	-0.225	0.187
-648.784	30.965	0.116	-0.099
-647.770	122.817	-0.036	-0.045
-646.755	-32.789	-0.259	-0.143
-645.741	-78.185	0.121	-0.042
-644.726	-200.000	-0.025	-0.182
-643.711	81.802	0.273	0.295
-642.697	-5.331	-0.267	0.183
-641.682	191.915	-0.076	0.115
-640.668	-9.028	0.091	-0.060
-639.653	-200.000	-0.004	-0.022
-638.638	-112.694	0.222	-0.044
-637.624	424.495	0.049	-0.104
-636.609	-157.059	-0.305	0.019
-635.595	-99.708	0.322	0.080
-634.580	-27.776	-0.281	-0.163
-633.565	-13.725	-0.044	-0.028
-632.551	-200.000	-0.006	0.062
-631.536	-99.506	0.339	-0.085
-630.522	-44.416	-0.219	-0.109
-629.507	-200.000	0.049	0.298
-628.492	524.886	-0.025	-0.059
-627.478	-200.000	0.001	-0.232
-626.463	222.862	-0.172	-0.277
-625.449	800.000	0.043	-0.121
-624.434	-200.000	0.041	-0.334
-623.419	2.308	-0.310	-0.224
-622.405	273.806	-0.040	-0.071
-621.390	634.025	0.091	-0.230
-620.376	285.090	0.044	-0.079
-619.361	-20.988	-0.243	0.148
-618.346	-32.371	0.375	0.208
-617.332	-126.795	-0.475	-0.070
-616.317	800.000	-0.023	-0.097
-615.303	97.415	-0.076	0.087
-614.288	54.805	-0.151	-0.145
-613.273	183.376	0.128	-0.188
-612.259	251.731	0.102	-0.173
-611.244	-200.000	0.040	-0.404
-610.230	-129.560	0.117	0.016
-609.215	105.820	0.136	-0.160
-608.201	48.194	0.026	-0.024
-607.186	-156.863	0.122	0.007
-606.171	327.562	-0.080	-0.152
-605.157	800.000	-0.093	-0.343
-604.142	-98.315	-0.402	0.103
-603.128	161.603	0.129	-0.180
-602.113	-26.374	-0.309	0.181
-601.098	-78.366	-0.353	-0.121
-600.084	-200.000	0.053	-0.332
-599.069	-89.185	0.066	0.019
-598.055	416.246	0.059	-0.125
-597.040	-200.000	0.035	-0.184
-596.025	-10.443	-0.118	-0.078
-595.011	240.667	0.151	-0.251
-593.996	-149.319	-0.173	-0.014
-592.982	-46.033	0.207	-0.102
-591.967	-106.850	0.076	-0.017
-590.952	-200.000	0.372	0.001
-589.938	-74.212	-0.023	0.008
-588.923	-17.886	-0.242	0.151
-587.909	-34.357	0.262	0.143
-586.894	88.629	0.056	-0.061
-585.879	252.970	0.014	0.024
-584.865	95.712	-0.160	-0.182
-583.850	-136.337	0.059	0.007
-582.836	0.352	-0.298	-0.211
-581.821	-200.000	-0.360	-0.001
-580.806	-7.186	-0.158	0.106
-579.792	-16.322	0.101	-0.064
-578.777	-200.000	0.027	-0.470
-577.763	-130.205	0.061	0.008
-576.748	-38.047	-0.207	-0.109
-575.733	-140.484	0.089	-0.009
-574.719	-11.470	-0.094	0.062
-573.704	140.748	0.013	0.017
-572.690	-200.000	0.030	-0.192
-571.675	-98.364	-0.337	0.086
-570.661	-200.000	0.003	-0.041
-569.646	-200.000	-0.010	-0.137
-568.631	101.852	-0.247	0.287
-567.617	98.121	0.108	-0.124
-566.602	-59.004	-0.068	0.029
-565.588	800.000	-0.105	0.299
-564.573	29.543	-0.060	0.051
-563.558	-47.613	-0.301	0.145
-562.544	800.000	0.056	-0.176
-561.529	-37.535	-0.343	0.182
-560.515	357.995	-0.118	-0.233
-559.500	-75.813	0.291	0.103
-558.485	1.167	-0.327	-0.233
-557.471	800.000	-0.038	-0.141
-556.456	-200.000	0.035	0.204
-555.442	-103.062	0.207	-0.049
-554.427	-26.982	0.308	0.179
-553.412	67.392	0.103	0.105
-552.398	-200.000	-0.031	0.371
-551.383	66.171	-0.059	-0.059
-550.369	171.980	-0.130	0.186
-549.354	-123.013	-0.220	-0.035
-548.339	-105.058	-0.095	-0.021
-547.325	-200.000	-0.001	0.035
-546.310	-119.120	-0.087	0.015
-545.296	-42.913	0.143	-0.072
-544.281	-21.735	-0.054	-0.032
-543.266	-98.506	0.134	0.034
-542.252	525.147	0.047	0.110
-541.237	-108.585	-0.187	-0.040
-540.223	151.736	0.036	-0.049
-539.208	-31.676	0.247	0.137
-538.193	105.713	-0.286	-0.336
-537.179	-178.790	0.054	-0.001
-536.164	30.235	0.130	-0.110
-535.150	-28.713	-0.159	-0.091
-534.135	800.000	-0.056	0.186
-533.121	800.000	0.072	0.307
-532.106	7.591	0.180	-0.134
-531.091	265.826	0.128	-0.221
-530.077	800.000	-0.039	-0.164
-529.062	-8.624	0.118	-0.079
-528.048	-21.228	0.217	0.132
-527.033	-56.408	0.068	-0.030
-526.018	168.272	-0.201	-0.284
-525.004	-200.000	-0.011	-0.102
-523.989	43.380	-0.209	0.190
-522.975	616.628	-0.041	-0.102
-521.960	19.602	-0.263	-0.210
-520.945	-15.760	-0.136	0.086
-519.931	254.077	-0.156	-0.264
-518.916	800.000	-0.040	-0.124
-517.902	156.659	-0.280	0.384
-516.887	-51.786	0.181	0.084
-515.872	565.045	-0.057	0.138
-514.858	350.966	-0.169	-0.332
-513.843	800.000	-0.077	-0.220
-512.829	-200.000	-0.014	0.153
-511.814	-65.443	0.112	0.045
-510.799	300.186	-0.065	0.119
-509.785	-58.585	-0.117	0.051
-508.770	-73.482	-0.244	-0.089
-507.756	-192.986	-0.020	0.000
-506.741	-22.716	-0.212	0.127
-505.726	17.178	0.173	0.136
-504.712	800.000	-0.088	0.342
-503.697	34.465	-0.035	-0.031
-502.683	121.863	0.067	0.083
-501.668	-62.275	-0.336	-0.139
-500.653	800.000	0.079	0.301
-499.639	-57.177	-0.244	0.106
-498.624	-70.831	0.130	0.049
-497.610	12.674	0.240	0.184
-496.595	-200.000	-0.029	0.135
-495.581	214.478	0.074	0.117
-494.566	-177.220	0.294	0.007
-493.551	-22.080	0.027	0.016
-492.537	-121.374	-0.370	-0.061
-491.522	-149.586	-0.178	-0.014
-490.508	250.023	0.148	-0.249
-489.493	31.763	-0.167	-0.142
-488.478	-83.387	0.050	0.016
-487.464	-200.000	-0.001	0.064
-486.449	69.996	0.143	0.146
-485.435	17.714	0.239	0.189
-484.420	800.000	0.120	-0.445
-483.405	-6.797	-0.292	0.197
-482.391	-200.000	0.001	0.161
-481.376	677.604	-0.041	0.107
-480.362	565.689	-0.118	-0.283
-479.347	-200.000	-0.021	-0.212
-478.332	222.184	0.040	-0.064
-477.318	-149.221	0.299	0.024
-476.303	44.237	-0.156	0.142
-475.289	-5.141	0.129	0.088
-474.274	284.490	-0.067	0.119
-473.259	354.759	0.130	0.255
-472.245	-200.000	0.014	0.449
-471.230	-64.045	0.127	0.051
-470.216	-126.426	-0.326	-0.048
-469.201	-126.704	0.224	0.033
-468.186	-13.349	0.116	0.075
-467.172	19.518	-0.202	0.161
-466.157	58.070	0.149	0.145
-465.143	-200.000	-0.000	-0.047
-464.128	-125.465	0.126	0.019
-463.113	39.057	0.186	0.165
-462.099	38.090	0.060	-0.053
-461.084	212.515	-0.120	-0.187
-460.070	347.274	-0.049	0.096
-459.055	-200.000	0.042	-0.200
-458.040	220.826	0.049	-0.077
-457.026	-40.902	0.281	-0.144
-456.011	800.000	0.029	-0.118
-454.997	-200.000	-0.069	0.359
-453.982	-135.392	-0.432	0.051
-452.968	-137.122	-0.309	0.035
-451.953	-105.577	-0.072	0.016
-450.938	-200.000	0.035	0.153
-449.924	-200.000	-0.017	0.189
-448.909	-100.077	-0.309	0.076
-447.895	53.359	-0.287	-0.272
-446.880	524.157	0.064	-0.150
-445.865	-106.882	-0.161	0.035
-444.851	-200.000	0.042	-0.454
-443.836	409.545	-0.087	0.183
-442.822	-48.928	-0.229	-0.109
-441.807	-200.000	0.032	-0.218
-440.792	2.863	-0.260	0.187
-439.778	800.000	0.122	0.336
-438.763	800.000	0.080	-0.279
-437.749	488.571	-0.175	0.395
-436.734	-47.327	-0.433	0.208
-435.719	-128.494	0.103	0.015
-434.705	800.000	0.022	-0.064
-433.690	260.206	-0.161	-0.275
-432.676	172.059	0.030	-0.043
-431.661	104.601	-0.089	-0.103
-430.646	800.000	-0.085	0.250
-429.632	60.929	0.101	-0.099
-428.617	95.580	0.187	0.211
-427.603	800.000	0.103	0.309
-426.588	-128.910	-0.145	0.020
-425.573	494.440	-0.089	-0.202
-424.559	-168.537	-0.331	0.013
-423.544	139.127	0.242	0.315
-422.530	191.229	-0.145	0.216
-421.515	37.540	0.143	0.125
-420.500	-60.777	0.153	0.064
-419.486	270.914	0.185	-0.322
-418.471	35.218	-0.294	0.254
-417.457	318.300	0.069	0.128
-416.442	19.337	0.061	-0.048
-415.428	-45.208	0.154	-0.075
-414.413	170.215	-0.147	0.208
-413.398	-32.643	-0.163	-0.089
-412.384	800.000	-0.030	0.123
-411.369	800.000	-0.109	0.450
-410.355	-70.103	0.101	-0.038
-409.340	-200.000	0.039	-0.173
-408.325	-26.644	0.224	0.130
-407.311	-146.847	-0.114	-0.010
-406.296	45.563	0.269	0.245
-405.282	-52.204	0.120	0.055
-404.267	-37.783	0.033	-0.017
-403.252	800.000	-0.049	-0.168
-402.238	-110.794	0.356	-0.072
-401.223	-50.722	-0.093	0.043
-400.209	52.202	-0.116	0.109
-399.194	-200.000	0.024	-0.143
-398.179	-49.999	-0.108	-0.051
-397.165	540.705	-0.077	0.182
-396.150	-140.536	0.041	0.004
-395.136	-113.465	0.227	0.044
-394.121	81.948	-0.174	0.186
-393.106	-200.000	0.018	-0.142
-392.092	-84.815	-0.155	0.048
-391.077	75.029	-0.229	0.238
-390.063	282.449	0.039	0.069
-389.048	754.315	-0.049	-0.129
-388.033	177.304	-0.283	-0.407
-387.019	-200.000	0.037	0.273
-386.004	131.202	-0.038	-0.048
-384.990	-113.251	-0.014	0.003
-383.975	-56.952	-0.198	-0.086
-382.960	-15.672	-0.360	-0.227
-381.946	41.880	0.078	0.070
-380.931	71.350	0.192	-0.196
-379.917	170.130	-0.134	0.190
-378.902	-117.762	0.233	-0.041
-377.888	800.000	0.162	0.454
-376.873	800.000	-0.095	-0.349
-375.858	-136.883	-0.255	-0.029
-374.844	800.000	0.117	-0.399
-373.829	-57.947	0.201	-0.087
-372.815	-0.464	0.164	0.115
-371.800	67.902	-0.124	0.125
-370.785	127.364	0.054	-0.067
-369.771	-82.697	0.061	0.020
-368.756	152.341	-0.068	0.092
-367.742	-37.947	0.331	0.173
-366.727	-4.937	0.326	-0.222
-365.712	345.702	0.065	0.126
-364.698	37.636	-0.133	0.117
-363.683	800.000	-0.071	0.215
-362.669	230.095	0.117	-0.188
-361.654	800.000	-0.072	0.251
-360.639	265.496	0.082	0.141
-359.625	-59.106	0.142	0.060
-358.610	-148.137	-0.065	0.005
-357.596	-145.194	0.103	0.009
-356.581	228.633	-0.135	-0.216
-355.566	157.687	0.094	0.129
-354.552	-158.392	-0.142	0.008
-353.537	407.769	-0.055	-0.114
-352.523	800.000	0.064	0.183
-351.508	23.127	0.099	0.080
-350.493	44.585	0.166	0.151
-349.479	-135.926	-0.271	-0.031
-348.464	-200.000	-0.026	-0.215
-347.450	-140.302	0.146	0.015
-346.435	-200.000	-0.066	-0.296
-345.420	-60.823	0.210	-0.088
-344.406	194.813	-0.126	0.189
-343.391	38.897	-0.155	0.136
-342.377	-200.000	-0.047	-0.394
-341.362	-178.712	0.120	0.003
-340.348	17.149	-0.325	-0.254
-339.333	-152.133	0.207	-0.015
-338.318	175.262	0.036	0.051
-337.304	152.980	-0.274	0.369
-336.289	800.000	-0.051	-0.189
-335.275	800.000	-0.016	0.055
-334.260	-130.396	0.287	-0.038
-333.245	26.867	-0.279	-0.231
-332.231	-13.736	0.407	0.259
-331.216	-200.000	0.005	-0.353
-330.202	-94.307	0.279	0.075
-329.187	-84.599	-0.142	-0.044
-328.172	67.489	0.084	-0.084
-327.158	-83.919	0.178	-0.056
-326.143	-45.619	0.145	-0.071
-325.129	106.912	0.236	-0.275
-324.114	-200.000	-0.001	-0.044
-323.099	131.549	-0.116	0.147
-322.085	-107.393	-0.232	0.050
-321.070	592.203	0.149	-0.363
-320.056	-119.030	0.197	0.034
-319.041	204.037	0.093	-0.142
-318.026	800.000	-0.018	0.064
-317.012	-59.911	-0.141	-0.059
-315.997	19.451	-0.320	0.253
-314.983	-133.774	0.384	0.047
-313.968	-200.000	0.031	0.155
-312.953	-138.155	0.089	-0.010
-311.939	-200.000	0.003	-0.060
-310.924	-104.428	0.377	-0.086
-309.910	81.657	0.251	0.267
-308.895	-37.944	-0.342	0.179
-307.880	-33.513	0.135	-0.073
-306.866	-59.157	0.136	-0.058
-305.851	93.739	-0.165	-0.184
-304.837	-97.887	0.145	-0.037
-303.822	54.399	0.140	0.133
-302.807	-10.867	0.186	0.121
-301.793	-56.952	-0.071	0.031
-300.778	8.649	0.280	0.208
-299.764	410.669	-0.058	-0.120
-298.749	197.022	-0.027	-0.041
-297.735	-18.091	0.150	-0.092
-296.720	-149.582	0.232	0.018
-295.705	50.025	0.161	-0.149
-294.691	-200.000	-0.039	-0.514
-293.676	-129.264	0.168	0.023
-292.662	-200.000	-0.002	0.344
-291.647	-200.000	0.008	0.188
-290.632	-108.893	-0.044	-0.009
-289.618	-169.043	0.497	0.018
-288.603	-193.513	-0.021	0.000
-287.589	-200.000	-0.029	0.181
-286.574	9.209	0.304	0.226
-285.559	-93.550	-0.053	-0.014
-284.545	748.402	-0.115	-0.306
-283.530	-136.499	-0.181	0.021
-282.516	-200.000	-0.001	0.163
-281.501	-61.429	-0.201	-0.083
-280.486	800.000	0.012	0.045
-279.472	-68.585	0.209	-0.080
-278.457	49.472	-0.287	-0.266
-277.443	32.236	-0.256	0.217
-276.428	800.000	-0.053	0.167
-275.413	17.319	0.177	0.138
-274.399	75.758	0.050	0.052
-273.384	-82.889	-0.072	0.023
-272.370	-113.035	-0.100	0.019
-271.355	-167.259	0.182	0.007
-270.340	-194.245	0.144	-0.001
-269.326	678.143	0.083	0.212
-268.311	-200.000	-0.013	0.076
-267.297	-100.879	0.236	0.057
-266.282	-200.000	-0.017	-0.102
-265.267	-164.479	0.139	0.006
-264.253	800.000	-0.031	0.120
-263.238	-66.556	-0.146	0.057
-262.224	-46.115	-0.079	-0.038
-261.209	-200.000	0.042	-0.333
-260.195	-200.000	-0.013	-0.131
-259.180	66.431	0.076	-0.076
-258.165	80.601	0.152	-0.161
-257.151	376.126	-0.004	0.009
-256.136	20.593	0.194	-0.154
-255.122	48.712	0.282	0.260
-254.107	800.000	-0.048	-0.202
-253.092	800.000	0.073	0.253
-252.078	67.989	0.249	-0.250
-251.063	-200.000	-0.001	0.147
-250.049	76.211	-0.126	0.131
-249.034	2.835	0.178	0.127
-248.019	132.977	0.163	-0.206
-247.005	279.114	-0.062	0.109
-245.990	800.000	0.079	-0.224
-244.976	-94.825	-0.238	0.063
-243.961	151.563	0.215	0.288
-242.946	-200.000	-0.026	-0.145
-241.932	-11.556	-0.039	0.025
-240.917	8.033	0.120	0.088
-239.903	-200.000	0.009	-0.077
-238.888	-105.255	-0.322	-0.072
-237.873	372.012	0.111	-0.221
-236.859	654.642	-0.125	-0.314
-235.844	377.490	0.151	-0.302
-234.830	-200.000	0.031	0.353
-233.815	36.821	-0.045	0.039
-232.800	247.113	0.134	-0.223
-231.786	285.547	0.046	-0.081
-230.771	25.785	-0.254	-0.208
-229.757	800.000	-0.096	0.291
-228.742	117.772	0.284	-0.342
-227.727	800.000	-0.014	0.060
-226.713	800.000	-0.050	0.167
-225.698	236.476	0.157	0.255
-224.684	338.858	0.056	-0.108
-223.669	-88.566	0.118	0.035
-222.655	-200.000	0.005	0.044
-221.640	95.327	0.280	-0.312
-220.625	800.000	0.063	-0.196
-219.611	-54.298	-0.227	-0.101
-218.596	170.936	-0.124	0.174
-217.582	-200.000	0.020	0.534
-216.567	-115.424	0.321	0.059
-215.552	-200.000	0.002	-0.147
-214.538	-25.598	0.231	0.134
-213.523	377.227	0.072	-0.143
-212.509	-51.263	0.246	-0.113
-211.494	-33.672	-0.199	0.108
-210.479	1.463	-0.268	0.189
-209.465	-28.137	0.277	0.157
-208.450	-200.000	0.013	0.190
-207.436	78.333	-0.278	0.291
-206.421	-109.124	0.336	-0.070
-205.406	-83.788	0.139	0.043
-204.392	245.567	0.036	-0.059
-203.377	800.000	-0.054	0.174
-202.363	-28.003	-0.182	-0.103
-201.348	-200.000	-0.027	0.232
-200.333	-116.330	0.353	0.064
-199.319	-45.616	-0.090	-0.044
-198.304	15.186	-0.121	0.093
-197.290	-26.319	-0.198	0.114
-196.275	560.850	-0.112	-0.264
-195.260	97.996	0.220	0.248
-194.246	-22.007	-0.289	0.172
-193.231	151.115	0.108	-0.144
-192.217	-66.437	0.247	0.096
-191.202	252.861	-0.122	0.205
-190.187	8.701	0.285	-0.211
-189.173	-89.134	-0.126	0.037
-188.158	58.628	-0.115	-0.111
-187.144	52.263	0.283	0.264
-186.129	-200.000	-0.019	-0.203
-185.114	-161.594	-0.168	-0.008
-184.100	800.000	-0.144	0.396
-183.085	-200.000	-0.039	0.219
-182.071	41.380	-0.202	-0.179
-181.056	-94.401	0.288	0.077
-180.042	800.000	0.118	0.420
-179.027	312.437	0.048	-0.089
-178.012	-123.021	-0.258	-0.041
-176.998	-57.217	-0.153	-0.066
-175.983	521.800	0.115	0.264
-174.969	304.396	-0.034	0.061
-173.954	36.356	-0.246	-0.212
-172.939	800.000	0.059	0.221
-171.925	41.889	0.090	-0.080
-170.910	348.881	0.041	0.080
-169.896	-64.581	0.292	-0.116
-168.881	325.698	0.190	-0.356
-167.866	800.000	-0.011	0.032
-166.852	-42.841	-0.194	0.097
-165.837	-24.089	-0.131	0.077
-164.823	60.090	0.255	-0.247
-163.808	-200.000	-0.064	0.284
-162.793	-1.718	0.277	-0.191
-161.779	382.385	0.074	0.150
-160.764	-16.626	0.033	-0.020
-159.750	-200.000	-0.001	0.315
-158.735	25.094	0.188	0.152
-157.720	-161.968	0.178	-0.009
-156.706	19.779	-0.509	-0.401
-155.691	-79.843	-0.360	0.118
-154.677	423.545	0.083	-0.175
-153.662	800.000	-0.091	-0.325
-152.647	117.055	0.302	-0.363
-151.633	191.520	-0.044	-0.065
-150.618	-128.056	0.020	0.003
-149.604	-133.974	0.486	-0.059
-148.589	95.878	-0.064	-0.071
-147.574	-200.000	-0.025	0.112
-146.560	188.250	0.186	0.271
-145.545	162.519	0.093	-0.128
-144.531	97.356	0.132	-0.148
-143.516	800.000	-0.030	0.118
-142.502	800.000	-0.064	0.183
-141.487	-2.813	-0.074	-0.051
-140.472	-88.585	0.307	-0.089
-139.458	800.000	0.141	-0.394
-138.443	-40.985	0.413	0.209
-137.429	-76.714	-0.359	0.123
-136.414	-30.711	-0.177	-0.098
-135.399	800.000	0.094	-0.289
-134.385	294.124	0.236	0.422
-133.370	207.580	-0.219	-0.334
-132.356	-69.228	0.201	-0.076
-131.341	-60.418	-0.169	0.070
-130.326	-34.675	-0.186	0.100
-129.312	-41.752	0.159	-0.080
-128.297	-200.000	0.069	-0.447
-127.283	-16.586	-0.035	-0.022
-126.268	-124.353	-0.182	-0.028
-125.253	8.139	-0.169	0.124
-124.239	-33.257	0.122	0.066
-123.224	-35.127	-0.186	0.099
-122.210	427.171	0.010	0.020
-121.195	-200.000	-0.005	-0.459
-120.180	115.116	-0.015	0.018
