DTS Sentinel unit serial number:	SN413079Multiplexer serial number:	ORYXHardware model number:	OX4-SRSoftware version number:	ORYX F/W v4.00 Oryx Data Collector v3.7.2.0data status	okinstallation	princeton_trtdifferential loss correction	single-endedforward channel	channel 1reverse channel	N/Adate	2019/09/14time	06:14:35forward acquisition time	60.00reverse acquisition time	0.00gamma	496.2192k internal	0.2336k external	0.2336temperature offset calibration	1.0080default loss term (dB/km)	0.3790temperature slope calibration	1.0000multiplexer offset coefficient	1.0000multiplexer slope coefficient	1.0000fibre end	0.00T internal ref (°C)	26.69T ext. ref 1 (°C)	3.41T ext. ref 2 (°C)	20.75length (m)	temperature (°C)	Stokes	anti-Stokes-747.200	-63.704	0.204	-0.084
-746.185	115.336	-0.354	0.434
-745.171	-200.000	-0.050	-0.245
-744.156	-87.602	-0.178	-0.054
-743.142	-65.042	0.248	-0.100
-742.127	-200.000	-0.038	0.236
-741.112	-65.936	0.189	0.076
-740.098	292.270	-0.238	0.436
-739.083	-200.000	-0.003	-0.125
-738.069	-106.268	-0.056	-0.012
-737.054	60.275	-0.208	0.206
-736.039	-87.759	-0.269	-0.081
-735.025	39.198	0.176	0.158
-734.010	-200.000	-0.039	-0.235
-732.996	-200.000	-0.039	-0.452
-731.981	467.889	0.125	0.281
-730.966	-67.404	-0.224	-0.088
-729.952	204.742	-0.274	-0.426
-728.937	-17.913	-0.209	-0.131
-727.923	-200.000	0.033	0.161
-726.908	17.892	-0.171	0.136
-725.894	334.740	-0.054	-0.105
-724.879	125.057	0.055	-0.069
-723.864	800.000	0.041	0.120
-722.850	246.112	0.065	-0.110
-721.835	-57.131	-0.216	-0.096
-720.821	-173.180	-0.270	-0.008
-719.806	-95.333	0.205	-0.055
-718.791	-140.911	0.085	0.009
-717.777	-81.802	-0.129	0.042
-716.762	-144.520	0.174	-0.016
-715.748	246.100	0.075	0.127
-714.733	-87.629	-0.395	-0.120
-713.718	43.107	0.122	-0.111
-712.704	572.945	-0.132	-0.323
-711.689	-24.094	-0.074	0.044
-710.675	-131.253	0.122	-0.016
-709.660	24.315	-0.101	-0.084
-708.645	257.186	-0.203	-0.350
-707.631	800.000	-0.183	0.533
-706.616	-21.326	0.211	0.129
-705.602	6.550	0.181	0.135
-704.587	256.993	0.008	0.014
-703.572	-54.722	-0.139	0.063
-702.558	-200.000	-0.051	-0.419
-701.543	-25.510	-0.295	-0.175
-700.529	288.795	0.054	-0.099
-699.514	358.842	0.098	0.196
-698.499	58.950	0.129	0.127
-697.485	-67.291	0.311	0.123
-696.470	39.377	-0.120	-0.108
-695.456	-117.161	0.212	-0.039
-694.441	-200.000	0.005	-0.086
-693.426	-104.902	0.312	0.072
-692.412	-120.627	0.179	0.030
-691.397	-178.430	-0.159	0.004
-690.383	162.145	-0.005	-0.007
-689.368	134.593	0.118	0.153
-688.354	-200.000	0.011	-0.191
-687.339	800.000	0.068	-0.276
-686.324	-135.643	-0.327	-0.039
-685.310	-121.266	-0.165	-0.028
-684.295	-161.710	0.312	0.016
-683.281	-192.190	-0.247	0.002
-682.266	-161.738	0.219	0.011
-681.251	207.460	0.076	-0.119
-680.237	227.228	-0.184	-0.299
-679.222	78.694	-0.311	-0.333
-678.208	-200.000	-0.046	-0.264
-677.193	149.443	0.131	0.178
-676.178	-110.973	-0.318	0.065
-675.164	-58.887	0.181	-0.078
-674.149	150.810	-0.192	0.261
-673.135	68.264	-0.098	0.101
-672.120	800.000	0.023	0.074
-671.105	-82.391	0.134	-0.044
-670.091	4.737	-0.338	0.248
-669.076	-4.529	-0.060	0.041
-668.062	196.544	0.041	0.063
-667.047	-200.000	0.023	0.140
-666.032	-104.391	-0.136	-0.032
-665.018	177.225	-0.085	0.124
-664.003	16.474	-0.132	-0.104
-662.989	-29.471	-0.147	-0.084
-661.974	-108.393	-0.121	0.026
-660.959	800.000	-0.031	-0.104
-659.945	243.742	0.083	0.139
-658.930	-176.567	0.254	-0.007
-657.916	647.637	-0.106	0.270
-656.901	757.696	-0.112	0.305
-655.886	99.275	-0.158	-0.183
-654.872	43.222	0.219	-0.200
-653.857	800.000	-0.066	-0.223
-652.843	-99.445	-0.131	0.033
-651.828	-200.000	0.116	-0.546
-650.814	82.547	-0.155	0.168
-649.799	145.251	-0.103	0.138
-648.784	509.437	0.246	-0.573
-647.770	4.206	-0.032	-0.023
-646.755	-4.968	-0.056	0.038
-645.741	-200.000	-0.061	-0.279
-644.726	-29.768	0.222	0.127
-643.711	-200.000	0.013	-0.330
-642.697	117.853	0.173	-0.213
-641.682	515.475	-0.085	-0.198
-640.668	-47.977	-0.133	0.064
-639.653	-114.046	0.142	-0.027
-638.638	-85.956	-0.242	0.075
-637.624	188.037	0.077	-0.115
-636.609	142.053	0.039	0.051
-635.595	165.695	-0.071	-0.100
-634.580	148.949	0.175	0.236
-633.565	97.323	0.050	0.057
-632.551	608.082	0.114	-0.283
-631.536	-118.672	0.254	0.045
-630.522	461.820	0.018	-0.040
-629.507	-82.903	0.309	-0.100
-628.492	800.000	-0.027	-0.082
-627.478	208.378	-0.206	0.323
-626.463	465.853	0.048	0.106
-625.449	218.740	-0.033	-0.052
-624.434	792.063	-0.077	-0.212
-623.419	227.314	-0.073	0.118
-622.405	155.213	0.148	-0.203
-621.390	15.296	-0.254	-0.199
-620.376	-79.585	-0.197	0.067
-619.361	137.704	0.042	-0.054
-618.346	130.558	-0.140	0.179
-617.332	-56.030	-0.252	0.112
-616.317	-24.862	-0.282	-0.168
-615.303	800.000	-0.065	0.267
-614.288	588.830	0.119	-0.292
-613.273	334.714	-0.075	-0.144
-612.259	-147.912	-0.216	-0.018
-611.244	-200.000	0.036	0.222
-610.230	243.842	0.223	-0.373
-609.215	299.251	0.033	-0.062
-608.201	-139.161	-0.251	0.027
-607.186	-200.000	0.004	0.069
-606.171	136.366	0.111	-0.145
-605.157	800.000	-0.093	-0.296
-604.142	-200.000	0.000	-0.108
-603.128	-149.701	-0.242	0.019
-602.113	-59.102	0.090	0.039
-601.098	800.000	-0.032	0.125
-600.084	-31.400	-0.164	-0.092
-599.069	800.000	0.109	0.351
-598.055	40.066	-0.153	-0.137
-597.040	58.548	-0.180	-0.176
-596.025	800.000	-0.085	0.330
-595.011	-72.364	0.364	-0.135
-593.996	-47.231	-0.065	0.032
-592.982	-20.538	0.056	-0.034
-591.967	48.922	-0.205	0.192
-590.952	221.904	0.060	-0.096
-589.938	391.290	-0.186	0.386
-588.923	-105.913	0.488	-0.110
-587.909	800.000	-0.088	-0.281
-586.894	800.000	0.080	-0.266
-585.879	-200.000	-0.022	0.164
-584.865	12.729	0.436	0.336
-583.850	211.303	0.109	-0.171
-582.836	-200.000	-0.010	-0.249
-581.821	-135.882	0.160	0.019
-580.806	94.241	0.085	0.096
-579.792	-128.418	-0.294	-0.042
-578.777	-69.959	-0.120	-0.046
-577.763	418.162	0.066	-0.142
-576.748	-60.172	0.245	-0.104
-575.733	-24.565	0.205	-0.122
-574.719	746.816	-0.125	0.336
-573.704	-110.243	-0.056	0.012
-572.690	87.666	-0.187	-0.207
-571.675	-45.786	-0.072	0.035
-570.661	-127.668	0.333	-0.048
-569.646	-99.223	0.097	0.024
-568.631	-9.638	0.255	0.170
-567.617	-85.601	0.218	0.068
-566.602	-200.000	0.037	0.340
-565.588	800.000	-0.084	0.287
-564.573	123.973	-0.210	0.263
-563.558	-47.485	0.181	-0.088
-562.544	-200.000	0.041	-0.255
-561.529	-175.903	-0.397	-0.011
-560.515	-200.000	-0.036	-0.281
-559.500	253.845	0.087	-0.148
-558.485	-93.675	-0.325	-0.089
-557.471	-130.385	0.262	-0.035
-556.456	-60.236	-0.132	-0.056
-555.442	-200.000	-0.005	-0.088
-554.427	-4.585	0.189	-0.130
-553.412	800.000	-0.085	-0.312
-552.398	-91.817	-0.158	-0.045
-551.383	-2.939	-0.128	0.089
-550.369	-151.930	-0.334	-0.024
-549.354	1.842	0.096	-0.069
-548.339	-139.001	-0.103	-0.011
-547.325	384.566	0.076	-0.156
-546.310	352.888	0.215	0.425
-545.296	159.782	0.070	0.098
-544.281	78.776	0.197	0.210
-543.266	-190.838	0.197	0.002
-542.252	-200.000	0.055	-0.303
-541.237	155.737	0.075	-0.103
-540.223	77.209	-0.178	-0.189
-539.208	-200.000	0.067	-0.582
-538.193	148.713	-0.253	0.341
-537.179	-79.526	0.070	0.023
-536.164	360.149	-0.022	0.044
-535.150	-85.844	-0.398	-0.123
-534.135	124.033	-0.108	-0.135
-533.121	305.950	-0.225	0.416
-532.106	-33.915	0.129	-0.071
-531.091	-45.725	-0.173	-0.085
-530.077	20.162	0.050	0.040
-529.062	-200.000	-0.001	-0.144
-528.048	149.100	-0.245	-0.331
-527.033	-200.000	-0.034	-0.275
-526.018	83.632	-0.273	-0.297
-525.004	270.314	-0.135	0.236
-523.989	8.013	0.241	-0.180
-522.975	800.000	-0.042	-0.120
-521.960	3.191	0.319	0.231
-520.945	23.171	0.087	0.071
-519.931	-174.771	0.205	-0.006
-518.916	291.527	0.129	-0.234
-517.902	223.736	-0.067	0.108
-516.887	39.677	-0.188	0.168
-515.872	-200.000	0.012	0.194
-514.858	-50.310	0.134	-0.063
-513.843	-85.233	-0.243	-0.076
-512.829	-169.510	-0.098	0.004
-511.814	-61.941	-0.071	-0.030
-510.799	-190.254	0.094	0.001
-509.785	1.635	0.082	-0.058
-508.770	-200.000	-0.002	0.085
-507.756	-158.982	0.320	-0.018
-506.741	484.641	0.050	-0.113
-505.726	500.300	-0.035	-0.080
-504.712	567.230	-0.066	-0.158
-503.697	800.000	-0.069	0.295
-502.683	-200.000	0.021	0.126
-501.668	588.938	0.099	-0.243
-500.653	112.164	-0.290	0.348
-499.639	-200.000	-0.080	0.358
-498.624	6.246	0.186	0.137
-497.610	800.000	0.082	0.343
-496.595	-22.017	0.159	0.096
-495.581	99.533	-0.191	0.219
-494.566	160.415	0.145	-0.201
-493.551	-19.459	0.195	-0.120
-492.537	800.000	0.020	-0.064
-491.522	-13.126	-0.162	0.105
-490.508	-139.578	-0.080	-0.008
-489.493	-66.905	-0.166	-0.065
-488.478	-106.591	-0.085	-0.019
-487.464	73.147	-0.269	0.279
-486.449	30.074	0.081	0.068
-485.435	13.931	-0.223	-0.172
-484.420	-200.000	-0.032	-0.143
-483.405	800.000	-0.142	-0.420
-482.391	-200.000	0.028	-0.245
-481.376	258.008	-0.087	-0.148
-480.362	800.000	0.055	0.236
-479.347	124.409	0.147	0.183
-478.332	-72.627	0.093	0.034
-477.318	-84.966	-0.202	0.063
-476.303	39.177	-0.185	0.164
-475.289	-9.055	0.038	0.025
-474.274	-136.807	-0.242	-0.028
-473.259	-200.000	-0.010	0.057
-472.245	-155.380	0.090	0.006
-471.230	196.512	-0.069	-0.104
-470.216	-164.782	0.176	0.008
-469.201	-71.595	0.289	0.107
-468.186	128.773	0.096	0.122
-467.172	-15.356	-0.416	-0.264
-466.157	-166.134	-0.165	0.007
-465.143	-200.000	-0.039	0.284
-464.128	-126.549	0.188	-0.028
-463.113	195.234	0.018	0.028
-462.099	220.465	-0.064	-0.102
-461.084	234.171	-0.141	-0.231
-460.070	-41.217	-0.127	0.065
-459.055	8.933	-0.113	-0.084
-458.040	-44.136	-0.343	0.171
-457.026	-200.000	-0.010	-0.176
-456.011	-125.393	0.219	-0.033
-454.997	1.926	-0.100	-0.072
-453.982	352.274	0.189	-0.371
-452.968	-200.000	0.010	-0.265
-451.953	232.469	0.045	0.073
-450.938	-200.000	-0.009	0.456
-449.924	85.274	-0.279	0.304
-448.909	77.850	-0.146	-0.154
-447.895	-107.575	-0.100	0.022
-446.880	364.614	0.120	0.240
-445.865	45.876	-0.094	0.086
-444.851	380.434	0.068	0.138
-443.836	376.714	-0.081	-0.164
-442.822	161.003	-0.133	0.185
-441.807	-96.806	0.461	0.120
-440.792	-200.000	0.436	0.000
-439.778	129.885	-0.088	-0.112
-438.763	-143.612	-0.305	-0.029
-437.749	407.725	-0.075	-0.158
-436.734	86.857	-0.182	-0.199
-435.719	-200.000	0.022	-0.113
-434.705	164.375	-0.054	-0.075
-433.690	74.030	-0.397	0.413
-432.676	-33.765	0.125	-0.068
-431.661	-200.000	0.003	-0.236
-430.646	-27.797	0.452	0.260
-429.632	128.098	0.246	-0.311
-428.617	-40.468	-0.190	-0.098
-427.603	28.516	0.311	-0.261
-426.588	800.000	0.054	-0.233
-425.573	635.478	0.112	0.283
-424.559	-200.000	0.011	-0.092
-423.544	-48.478	-0.344	-0.164
-422.530	800.000	0.081	-0.314
-421.515	800.000	0.020	0.080
-420.500	-99.777	0.121	0.030
-419.486	35.202	-0.286	0.249
-418.471	-85.739	-0.088	0.027
-417.457	8.304	-0.070	-0.052
-416.442	-159.467	0.322	-0.018
-415.428	478.938	-0.035	0.079
-414.413	-28.254	-0.233	0.133
-413.398	340.104	-0.116	-0.225
-412.384	-200.000	0.009	-0.102
-411.369	-90.684	0.070	0.020
-410.355	8.442	0.046	-0.034
-409.340	40.885	-0.074	0.067
-408.325	184.789	-0.096	0.142
-407.311	-200.000	-0.002	0.145
-406.296	30.756	-0.167	-0.141
-405.282	181.579	-0.027	0.040
-404.267	-50.661	-0.182	-0.085
-403.252	-95.730	0.102	-0.027
-402.238	-97.324	-0.240	0.062
-401.223	-200.000	0.021	-0.265
-400.209	-21.098	-0.291	-0.177
-399.194	-28.908	-0.334	0.190
-398.179	-50.547	0.179	0.084
-397.165	20.096	0.188	-0.150
-396.150	-98.162	-0.223	-0.057
-395.136	-86.973	-0.083	-0.025
-394.121	-200.000	0.024	-0.168
-393.106	-45.772	-0.139	-0.068
-392.092	1.924	-0.170	-0.122
-391.077	57.021	-0.077	0.074
-390.063	-26.189	-0.027	0.016
-389.048	34.657	0.115	0.100
-388.033	21.419	-0.185	-0.149
-387.019	32.380	0.073	-0.063
-386.004	-172.555	0.103	-0.003
-384.990	174.973	-0.131	-0.187
-383.975	-200.000	-0.039	-0.296
-382.960	393.811	0.028	-0.057
-381.946	128.816	-0.042	0.053
-380.931	800.000	0.058	0.246
-379.917	800.000	0.057	-0.199
-378.902	-37.757	-0.100	-0.053
-377.888	800.000	0.116	-0.338
-376.873	171.104	0.211	-0.299
-375.858	63.918	-0.104	0.104
-374.844	117.866	0.138	0.168
-373.829	-120.080	-0.271	-0.046
-372.815	-28.977	0.326	0.186
-371.800	167.193	0.202	0.284
-370.785	800.000	-0.027	-0.094
-369.771	-163.199	-0.138	0.007
-368.756	193.593	-0.077	0.116
-367.742	800.000	-0.068	0.277
-366.727	-200.000	0.026	-0.207
-365.712	-15.045	-0.074	0.047
-364.698	-200.000	0.130	-0.613
-363.683	-118.034	0.058	0.010
-362.669	-101.773	0.228	0.055
-361.654	-139.394	0.276	0.029
-360.639	-36.273	-0.069	0.037
-359.625	-53.183	0.044	-0.020
-358.610	-129.059	0.251	-0.035
-357.596	121.216	0.125	-0.153
-356.581	183.289	-0.072	-0.105
-355.566	-9.579	0.297	0.196
-354.552	118.740	0.115	-0.141
-353.537	-200.000	-0.070	0.475
-352.523	-154.518	0.112	-0.007
-351.508	-67.631	-0.057	0.022
-350.493	91.012	-0.148	-0.165
-349.479	21.615	-0.167	-0.134
-348.464	-200.000	0.037	0.353
-347.450	-56.601	-0.113	0.049
-346.435	-200.000	-0.029	-0.167
-345.420	14.357	0.111	0.086
-344.406	350.851	0.056	-0.109
-343.391	-64.509	0.278	0.112
-342.377	80.791	-0.173	0.185
-341.362	-200.000	0.002	0.214
-340.348	-200.000	0.019	-0.250
-339.333	17.978	-0.206	-0.163
-338.318	-165.960	-0.137	0.006
-337.304	57.920	-0.011	0.010
-336.289	168.911	-0.161	0.228
-335.275	800.000	-0.065	-0.271
-334.260	8.925	0.223	-0.167
-333.245	-200.000	-0.050	0.234
-332.231	-58.533	0.199	-0.085
-331.216	800.000	-0.092	-0.303
-330.202	-174.908	0.065	-0.002
-329.187	-29.051	0.085	-0.048
-328.172	135.576	-0.184	0.237
-327.158	-200.000	0.038	0.222
-326.143	9.198	0.174	0.130
-325.129	-27.379	0.258	0.148
-324.114	1.632	0.335	0.239
-323.099	-47.042	0.155	0.075
-322.085	-161.280	-0.281	-0.014
-321.070	-200.000	0.004	0.285
-320.056	242.475	0.047	0.078
-319.041	236.871	-0.159	-0.261
-318.026	-79.123	0.153	0.051
-317.012	-148.917	-0.280	0.022
-315.997	374.918	0.077	-0.155
-314.983	76.867	0.039	0.041
-313.968	-200.000	0.029	-0.260
-312.953	135.995	-0.279	-0.359
-311.939	344.653	0.102	0.198
-310.924	766.544	0.092	-0.247
-309.910	587.522	0.076	-0.184
-308.895	82.745	-0.136	0.145
-307.880	-89.102	0.202	0.059
-306.866	30.226	-0.157	0.133
-305.851	-51.224	0.198	0.092
-304.837	800.000	-0.080	-0.273
-303.822	132.507	-0.222	0.282
-302.807	-2.505	0.177	0.123
-301.793	-102.417	-0.264	0.062
-300.778	-38.486	0.118	0.062
-299.764	58.035	-0.293	0.284
-298.749	-200.000	-0.040	0.317
-297.735	-49.704	-0.213	0.100
-296.720	482.915	0.107	0.240
-295.705	800.000	0.063	0.212
-294.691	22.664	0.499	-0.403
-293.676	-62.900	-0.094	-0.038
-292.662	-135.483	-0.253	0.030
-291.647	-180.026	0.199	-0.004
-290.632	-96.346	-0.137	-0.036
-289.618	-126.616	0.275	0.040
-288.603	71.136	0.396	-0.405
-287.589	665.510	0.038	0.096
-286.574	800.000	-0.044	0.167
-285.559	156.353	0.249	0.339
-284.545	-200.000	0.002	-0.036
-283.530	31.173	0.133	0.112
-282.516	-54.758	0.536	-0.239
-281.501	-200.000	-0.052	0.278
-280.486	-146.186	-0.063	-0.005
-279.472	800.000	0.040	-0.163
-278.457	86.957	-0.317	0.345
-277.443	189.525	-0.211	-0.313
-276.428	550.597	-0.087	-0.206
-275.413	-169.688	0.121	-0.004
-274.399	95.755	0.062	-0.070
-273.384	478.536	0.032	0.072
-272.370	-100.097	-0.055	-0.014
-271.355	239.729	-0.099	0.163
-270.340	-84.599	-0.230	-0.071
-269.326	-31.503	0.098	0.054
-268.311	118.869	-0.104	0.127
-267.297	-200.000	-0.044	-0.326
-266.282	-0.606	0.060	0.042
-265.267	-148.938	-0.161	0.013
-264.253	-55.513	-0.074	0.033
-263.238	83.992	-0.150	-0.162
-262.224	-21.547	0.202	-0.122
-261.209	65.278	0.190	-0.189
-260.195	-118.656	0.449	-0.078
-259.180	800.000	-0.070	-0.209
-258.165	72.321	0.229	-0.235
-257.151	-46.098	-0.101	0.049
-256.136	-39.724	-0.306	-0.158
-255.122	-94.623	0.261	0.070
-254.107	-200.000	-0.002	-0.183
-253.092	-200.000	0.060	0.368
-252.078	-200.000	0.032	0.173
-251.063	-200.000	-0.066	0.437
-250.049	800.000	0.063	0.212
-249.034	-140.088	0.159	0.016
-248.019	-48.503	0.086	0.041
-247.005	800.000	-0.017	-0.055
-245.990	6.375	0.013	-0.009
-244.976	80.802	-0.146	0.155
-243.961	-25.631	0.097	0.056
-242.946	-17.586	0.145	-0.090
-241.932	-31.667	0.367	-0.203
-240.917	-96.927	0.220	-0.057
-239.903	259.105	0.137	0.233
-238.888	119.506	0.055	-0.067
-237.873	607.411	0.045	-0.110
-236.859	-114.633	-0.148	0.028
-235.844	275.516	0.184	0.322
-234.830	202.771	-0.068	-0.103
-233.815	-133.602	0.209	-0.026
-232.800	75.700	0.232	0.241
-231.786	-2.035	-0.189	0.130
-230.771	252.656	-0.093	-0.156
-229.757	16.556	-0.032	0.025
-228.742	-62.711	0.295	0.120
-227.727	-28.277	0.050	0.028
-226.713	106.981	0.056	-0.066
-225.698	-66.547	0.298	-0.117
-224.684	-7.746	-0.155	0.103
-223.669	112.230	-0.055	-0.065
-222.655	-200.000	-0.014	-0.099
-221.640	143.768	-0.114	-0.149
-220.625	-86.516	0.202	-0.061
-219.611	-63.437	-0.298	0.121
-218.596	-145.099	0.211	-0.019
-217.582	595.422	0.167	0.408
-216.567	-200.000	0.100	0.481
-215.552	-200.000	-0.024	0.124
-214.538	-86.561	-0.196	-0.059
-213.523	-200.000	-0.028	0.253
-212.509	-200.000	0.066	0.291
-211.494	40.241	0.049	0.044
-210.479	-113.188	-0.111	-0.022
-209.465	9.774	-0.063	0.047
-208.450	800.000	-0.056	0.224
-207.436	25.552	-0.042	0.034
-206.421	-200.000	-0.047	0.253
-205.406	-39.647	0.280	-0.144
-204.392	88.344	0.204	0.223
-203.377	800.000	0.084	0.253
-202.363	394.944	0.114	0.233
-201.348	-153.386	0.132	-0.009
-200.333	435.289	-0.158	-0.339
-199.319	-26.356	-0.113	-0.065
-198.304	-84.371	-0.330	0.102
-197.290	-109.856	-0.097	0.020
-196.275	-200.000	-0.004	-0.148
-195.260	-72.464	0.111	0.040
-194.246	-34.602	-0.268	-0.144
-193.231	-43.333	-0.183	-0.091
-192.217	-200.000	0.047	-0.243
-191.202	-50.395	-0.152	-0.070
-190.187	447.789	-0.049	0.107
-189.173	58.323	-0.184	-0.177
-188.158	-200.000	0.113	0.516
-187.144	34.880	0.214	0.184
-186.129	-66.462	-0.239	-0.093
-185.114	800.000	-0.059	0.224
-184.100	-47.155	-0.354	-0.170
-183.085	187.553	0.194	0.284
-182.071	24.803	-0.220	0.179
-181.056	-65.346	-0.375	-0.148
-180.042	800.000	-0.050	0.158
-179.027	-76.030	-0.459	0.159
-178.012	-55.781	-0.060	0.026
-176.998	334.188	-0.090	0.172
-175.983	48.814	0.114	-0.105
-174.969	-112.589	-0.083	-0.016
-173.954	-129.141	0.172	-0.024
-172.939	-200.000	-0.003	-0.280
-171.925	4.748	0.230	0.166
-170.910	-113.067	-0.177	0.034
-169.896	-33.442	0.264	-0.143
-168.881	-200.000	-0.004	-0.030
-167.866	800.000	-0.071	-0.218
-166.852	-180.391	0.420	-0.009
-165.837	-200.000	-0.001	0.101
-164.823	20.356	-0.107	0.085
-163.808	800.000	-0.041	0.172
-162.793	-43.921	0.083	-0.041
-161.779	-54.068	0.269	0.120
-160.764	800.000	0.037	0.129
-159.750	-150.974	-0.221	-0.016
-158.735	-128.550	0.239	0.033
-157.720	800.000	-0.081	0.273
-156.706	85.300	0.194	0.209
-155.691	-162.644	-0.157	-0.008
-154.677	10.635	0.147	0.110
-153.662	-118.032	0.290	0.051
-152.647	-17.327	0.199	-0.123
-151.633	-18.629	-0.351	-0.215
-150.618	82.107	-0.133	-0.142
-149.604	-6.399	0.246	-0.165
-148.589	289.964	0.070	-0.125
-147.574	800.000	-0.069	0.290
-146.560	-178.616	0.423	0.010
-145.545	-15.914	0.189	0.118
-144.531	111.144	-0.212	0.251
-143.516	-2.524	0.239	-0.164
-142.502	-76.223	0.062	-0.021
-141.487	-200.000	0.033	0.224
-140.472	-92.678	0.251	0.069
-139.458	-200.000	-0.024	0.201
-138.443	79.063	0.057	-0.060
-137.429	-151.018	0.093	-0.007
-136.414	238.762	0.058	-0.095
-135.399	-200.000	-0.058	0.308
-134.385	800.000	0.079	0.246
-133.370	-200.000	-0.026	0.202
-132.356	-200.000	-0.009	0.140
-131.341	-62.342	0.090	-0.037
-130.326	-74.243	0.408	-0.145
-129.312	113.502	-0.187	0.223
-128.297	-67.774	0.122	0.047
-127.283	800.000	0.059	0.205
-126.268	-146.107	0.241	0.021
-125.253	-133.920	-0.242	0.029
-124.239	800.000	0.037	-0.125
-123.224	-117.048	0.531	0.095
-122.210	-120.631	-0.354	0.059
-121.195	173.775	0.046	-0.065
