DTS Sentinel unit serial number:	SN413079Multiplexer serial number:	ORYXHardware model number:	OX4-SRSoftware version number:	ORYX F/W v4.00 Oryx Data Collector v3.7.2.0data status	okinstallation	princeton_trtdifferential loss correction	single-endedforward channel	channel 1reverse channel	N/Adate	2019/09/13time	17:02:35forward acquisition time	60.00reverse acquisition time	0.00gamma	496.2192k internal	0.2301k external	0.2301temperature offset calibration	1.0144default loss term (dB/km)	0.3790temperature slope calibration	1.0000multiplexer offset coefficient	1.0000multiplexer slope coefficient	1.0000fibre end	0.00T internal ref (°C)	35.00T ext. ref 1 (°C)	4.83T ext. ref 2 (°C)	33.92length (m)	temperature (°C)	Stokes	anti-Stokes-747.200	196.361	-0.047	0.072
-746.185	548.354	-0.046	0.111
-745.171	-200.000	-0.023	-0.281
-744.156	67.696	-0.216	0.225
-743.142	-17.800	-0.192	-0.123
-742.127	141.435	0.145	0.195
-741.112	-93.366	-0.121	-0.034
-740.098	-200.000	-0.032	0.373
-739.083	88.814	0.117	-0.133
-738.069	19.540	-0.093	-0.077
-737.054	-200.000	-0.026	-0.244
-736.039	174.680	0.018	0.027
-735.025	87.128	-0.104	0.117
-734.010	-200.000	-0.014	0.246
-732.996	307.154	-0.186	-0.352
-731.981	-83.381	-0.127	-0.042
-730.966	37.576	-0.227	-0.206
-729.952	255.607	-0.143	0.251
-728.937	-92.270	-0.102	-0.029
-727.923	-149.045	-0.173	0.014
-726.908	105.084	0.141	-0.170
-725.894	62.714	0.140	-0.143
-724.879	74.423	-0.074	0.079
-723.864	-200.000	-0.020	-0.264
-722.850	198.217	-0.194	0.302
-721.835	-115.641	-0.214	0.041
-720.821	29.130	-0.129	-0.111
-719.806	-200.000	0.052	0.314
-718.791	-143.370	-0.349	0.034
-717.777	367.037	-0.203	-0.416
-716.762	101.595	-0.163	-0.194
-715.748	-200.000	0.015	0.184
-714.733	32.247	0.021	-0.019
-713.718	-70.855	-0.110	0.042
-712.704	147.002	0.063	-0.086
-711.689	-59.084	-0.065	0.028
-710.675	-21.843	0.210	0.130
-709.660	-15.340	-0.021	0.014
-708.645	-200.000	-0.008	-0.109
-707.631	-200.000	0.016	-0.126
-706.616	-200.000	-0.027	-0.147
-705.602	43.130	0.048	0.044
-704.587	185.911	0.152	-0.230
-703.572	-109.056	-0.365	-0.079
-702.558	488.826	-0.059	0.138
-701.543	208.542	0.049	-0.078
-700.529	-200.000	0.007	-0.189
-699.514	-200.000	0.001	-0.118
-698.499	582.173	-0.088	0.220
-697.485	-197.510	-0.099	0.001
-696.470	-37.952	-0.304	-0.164
-695.456	-26.918	0.269	0.160
-694.441	-75.586	-0.496	-0.179
-693.426	126.373	0.198	0.255
-692.412	-174.136	0.216	-0.006
-691.397	-105.857	0.304	-0.070
-690.383	-66.409	0.288	-0.116
-689.368	288.475	-0.103	-0.189
-688.354	112.276	0.100	-0.123
-687.339	-29.573	-0.328	0.191
-686.324	9.230	-0.082	-0.063
-685.310	522.811	0.121	-0.290
-684.295	81.018	0.069	0.075
-683.281	222.918	0.027	0.044
-682.266	12.555	-0.150	0.118
-681.251	-53.058	0.258	0.121
-680.237	-89.321	-0.223	-0.067
-679.222	-200.000	-0.002	0.231
-678.208	59.839	0.164	-0.164
-677.193	621.927	0.033	-0.084
-676.178	800.000	-0.042	-0.130
-675.164	-200.000	0.027	0.181
-674.149	-38.682	-0.115	-0.062
-673.135	-73.691	0.036	-0.013
-672.120	55.194	0.266	-0.261
-671.105	-9.395	-0.146	-0.099
-670.091	-100.649	0.278	-0.070
-669.076	-200.000	0.011	0.099
-668.062	-200.000	0.014	-0.152
-667.047	-23.967	-0.178	-0.108
-666.032	-67.125	0.608	-0.244
-665.018	800.000	-0.063	-0.215
-664.003	134.169	-0.063	0.083
-662.989	-152.394	0.130	0.010
-661.974	-72.661	0.151	-0.057
-660.959	87.368	0.108	0.121
-659.945	-117.791	-0.328	-0.060
-658.930	-200.000	0.000	-0.177
-657.916	800.000	-0.065	-0.206
-656.901	-8.748	0.297	0.202
-655.886	703.073	0.138	0.368
-654.872	-15.891	0.187	0.121
-653.857	22.368	-0.058	-0.048
-652.843	774.178	-0.088	-0.245
-651.828	-162.408	-0.239	-0.012
-650.814	670.884	-0.045	0.118
-649.799	-200.000	0.032	-0.145
-648.784	-76.646	0.051	-0.018
-647.770	66.699	-0.059	0.061
-646.755	-200.000	-0.023	0.189
-645.741	31.152	-0.209	0.182
-644.726	-71.891	-0.373	-0.141
-643.711	-200.000	0.010	-0.261
-642.697	-200.000	-0.032	-0.227
-641.682	473.904	0.013	-0.029
-640.668	-39.126	0.067	0.036
-639.653	45.805	0.097	0.091
-638.638	-21.385	-0.196	-0.122
-637.624	-107.433	0.111	0.025
-636.609	190.824	-0.188	-0.287
-635.595	-140.682	0.320	-0.034
-634.580	60.230	0.222	0.223
-633.565	-141.081	0.250	0.026
-632.551	721.090	-0.108	-0.292
-631.536	-150.602	0.101	0.008
-630.522	800.000	0.022	-0.099
-629.507	-200.000	-0.022	0.168
-628.492	-79.344	0.132	0.045
-627.478	18.717	-0.161	0.131
-626.463	-146.301	-0.284	0.025
-625.449	140.195	-0.040	-0.053
-624.434	37.209	0.228	-0.205
-623.419	-200.000	-0.005	0.120
-622.405	800.000	-0.091	0.269
-621.390	112.779	0.066	0.082
-620.376	-200.000	-0.008	-0.211
-619.361	-98.033	0.309	-0.081
-618.346	-78.517	0.148	0.051
-617.332	800.000	-0.056	-0.218
-616.317	-66.546	-0.226	0.091
-615.303	-200.000	0.012	-0.229
-614.288	58.828	-0.123	-0.122
-613.273	211.630	-0.056	-0.089
-612.259	-27.508	0.133	-0.079
-611.244	111.939	0.229	-0.280
-610.230	-70.768	-0.021	-0.008
-609.215	-141.347	0.195	0.020
-608.201	-126.306	-0.132	-0.020
-607.186	-200.000	-0.001	0.086
-606.171	-68.116	-0.141	-0.056
-605.157	-200.000	0.002	0.180
-604.142	-141.283	-0.404	-0.042
-603.128	-109.660	0.328	-0.070
-602.113	164.153	0.086	-0.123
-601.098	34.050	0.382	-0.337
-600.084	376.382	0.062	-0.129
-599.069	68.883	-0.146	-0.152
-598.055	-200.000	-0.034	0.401
-597.040	-11.732	0.219	0.146
-596.025	178.577	-0.136	-0.201
-595.011	-69.926	0.364	-0.141
-593.996	-56.484	0.093	-0.042
-592.982	-17.836	-0.120	0.077
-591.967	550.197	0.016	0.039
-590.952	-63.001	0.075	-0.032
-589.938	-91.605	0.156	-0.045
-588.923	800.000	-0.061	0.244
-587.909	502.340	-0.037	-0.086
-586.894	-200.000	-0.015	-0.068
-585.879	115.687	0.130	-0.161
-584.865	-106.654	0.285	0.064
-583.850	521.281	-0.055	-0.131
-582.836	117.874	-0.197	0.246
-581.821	-178.193	0.088	0.002
-580.806	-118.977	0.173	0.031
-579.792	139.049	-0.190	0.253
-578.777	-25.122	-0.286	0.172
-577.763	15.544	0.259	0.206
-576.748	-128.492	-0.258	0.037
-575.733	-156.440	-0.198	0.013
-574.719	-200.000	-0.023	0.107
-573.704	376.489	0.051	-0.105
-572.690	-200.000	-0.018	0.262
-571.675	436.416	-0.107	-0.237
-570.661	75.872	0.225	0.241
-569.646	41.606	0.155	-0.142
-568.631	566.865	-0.016	-0.040
-567.617	168.032	0.094	-0.136
-566.602	-68.655	0.221	0.087
-565.588	641.393	-0.131	0.339
-564.573	-29.812	0.100	0.058
-563.558	-45.525	0.230	-0.115
-562.544	-200.000	-0.004	-0.119
-561.529	-101.855	0.200	-0.049
-560.515	-74.414	-0.234	0.086
-559.500	70.381	0.070	-0.074
-558.485	23.349	0.272	0.226
-557.471	36.740	0.097	-0.087
-556.456	800.000	-0.019	0.079
-555.442	-2.170	0.225	0.160
-554.427	-200.000	0.027	0.225
-553.412	-38.327	0.132	-0.071
-552.398	-200.000	-0.023	-0.149
-551.383	171.035	0.130	-0.189
-550.369	315.982	-0.018	-0.034
-549.354	-200.000	0.055	-0.287
-548.339	125.432	-0.149	-0.190
-547.325	-80.114	-0.258	-0.087
-546.310	800.000	-0.018	-0.075
-545.296	-200.000	0.004	-0.304
-544.281	-111.861	-0.333	0.068
-543.266	88.163	-0.289	-0.324
-542.252	-96.136	-0.030	-0.008
-541.237	43.139	-0.237	-0.219
-540.223	-117.355	0.175	-0.032
-539.208	139.726	0.126	-0.168
-538.193	185.014	-0.160	0.241
-537.179	-80.534	0.403	0.136
-536.164	-6.358	-0.120	-0.083
-535.150	13.378	0.148	0.116
-534.135	800.000	-0.123	0.379
-533.121	-153.600	-0.264	0.018
-532.106	-200.000	-0.021	0.248
-531.091	-140.082	-0.197	-0.021
-530.077	-200.000	-0.079	0.385
-529.062	-130.447	-0.069	-0.009
-528.048	-200.000	-0.007	-0.071
-527.033	-95.058	-0.047	-0.013
-526.018	327.160	-0.089	-0.172
-525.004	294.002	0.085	-0.157
-523.989	-110.461	-0.191	0.040
-522.975	-200.000	0.013	0.072
-521.960	-14.032	0.224	-0.146
-520.945	563.949	-0.044	0.107
-519.931	-200.000	-0.042	-0.276
-518.916	-62.621	0.068	0.028
-517.902	-200.000	0.016	0.122
-516.887	205.903	0.105	0.166
-515.872	800.000	0.047	0.171
-514.858	800.000	0.043	0.155
-513.843	-80.223	-0.336	0.114
-512.829	-119.620	-0.234	-0.041
-511.814	235.321	0.074	-0.124
-510.799	72.415	0.181	-0.191
-509.785	57.530	0.051	-0.050
-508.770	-99.830	-0.236	0.060
-507.756	-200.000	-0.027	-0.182
-506.741	-127.373	0.137	-0.020
-505.726	-30.854	0.252	0.144
-504.712	30.508	0.047	-0.041
-503.697	-200.000	-0.049	-0.284
-502.683	387.576	-0.080	-0.166
-501.668	-14.781	-0.201	-0.130
-500.653	-200.000	-0.018	0.305
-499.639	-45.426	-0.176	-0.088
-498.624	-200.000	0.043	0.317
-497.610	130.223	-0.041	0.053
-496.595	-87.325	0.226	0.069
-495.581	-9.553	0.033	0.022
-494.566	-150.678	-0.145	0.011
-493.551	59.030	-0.171	0.170
-492.537	-38.505	-0.227	-0.121
-491.522	-200.000	-0.033	0.291
-490.508	-39.946	0.380	0.200
-489.493	-17.493	-0.172	-0.109
-488.478	146.207	0.028	-0.037
-487.464	153.554	-0.106	-0.146
-486.449	21.749	0.147	0.121
-485.435	800.000	0.028	0.111
-484.420	-18.717	0.192	-0.120
-483.405	-58.862	0.084	0.037
-482.391	-200.000	0.010	0.251
-481.376	-96.476	0.183	0.049
-480.362	653.045	0.146	-0.379
-479.347	-57.575	-0.132	0.058
-478.332	2.846	0.207	0.152
-477.318	141.887	-0.154	-0.206
-476.303	51.133	0.200	0.192
-475.289	456.308	-0.094	-0.210
-474.274	-101.668	0.162	-0.040
-473.259	-100.016	0.046	-0.012
-472.245	-93.616	0.216	0.060
-471.230	-200.000	0.040	-0.206
-470.216	-122.410	-0.327	-0.054
-469.201	-200.000	-0.036	0.644
-468.186	-25.751	-0.099	-0.059
-467.172	-200.000	-0.049	0.404
-466.157	800.000	-0.076	0.320
-465.143	800.000	0.067	0.290
-464.128	-200.000	-0.034	0.292
-463.113	-20.468	0.226	-0.140
-462.099	-150.677	0.085	-0.007
-461.084	81.661	0.200	-0.218
-460.070	-200.000	0.006	-0.129
-459.055	-200.000	0.040	-0.374
-458.040	-137.694	-0.266	0.030
-457.026	-25.439	0.315	0.188
-456.011	193.625	0.075	-0.114
-454.997	68.333	-0.132	0.136
-453.982	69.232	-0.133	0.138
-452.968	-41.988	0.195	-0.101
-451.953	-49.518	-0.194	-0.093
-450.938	87.130	0.212	-0.236
-449.924	190.804	0.118	-0.179
-448.909	63.792	0.217	-0.219
-447.895	-161.963	-0.388	-0.020
-446.880	-173.338	0.271	0.008
-445.865	128.707	-0.018	0.024
-444.851	-200.000	0.004	-0.025
-443.836	20.987	0.194	0.159
-442.822	-200.000	-0.005	-0.202
-441.807	-174.515	-0.197	0.006
-440.792	-42.314	-0.060	-0.031
-439.778	-32.557	-0.044	-0.025
-438.763	-200.000	0.032	0.177
-437.749	125.634	-0.204	0.259
-436.734	-87.116	0.423	0.130
-435.719	-200.000	-0.052	-0.235
-434.705	-135.294	0.079	-0.010
-433.690	800.000	0.072	-0.293
-432.676	-164.508	-0.169	-0.008
-431.661	-100.220	-0.350	0.088
-430.646	124.206	-0.278	0.352
-429.632	499.596	-0.175	0.407
-428.617	267.266	0.047	-0.082
-427.603	-30.838	-0.153	-0.087
-426.588	-200.000	-0.005	-0.089
-425.573	-200.000	0.032	-0.192
-424.559	-36.239	0.117	0.064
-423.544	-200.000	-0.007	0.129
-422.530	-52.818	0.062	-0.029
-421.515	-139.863	0.506	0.054
-420.500	116.881	-0.261	0.323
-419.486	167.180	-0.043	0.062
-418.471	-85.629	0.160	0.050
-417.457	47.295	-0.032	-0.030
-416.442	-200.000	0.009	0.235
-415.428	-131.989	-0.070	0.009
-414.413	122.292	-0.127	-0.160
-413.398	-200.000	0.003	0.104
-412.384	628.592	-0.063	0.160
-411.369	-156.874	-0.270	0.017
-410.355	8.629	-0.312	0.237
-409.340	-32.999	-0.185	-0.103
-408.325	34.821	0.123	0.108
-407.311	-118.867	0.067	0.012
-406.296	130.184	0.080	-0.103
-405.282	-200.000	0.036	0.235
-404.267	-75.857	-0.135	0.048
-403.252	183.387	-0.040	0.059
-402.238	-200.000	0.027	0.148
-401.223	800.000	-0.049	0.165
-400.209	44.336	-0.490	0.452
-399.194	-24.129	0.106	-0.064
-398.179	-122.922	-0.050	0.008
-397.165	136.071	0.204	0.267
-396.150	12.368	-0.191	0.148
-395.136	-34.565	0.254	0.140
-394.121	-120.830	0.116	0.020
-393.106	5.510	0.184	-0.137
-392.092	-46.969	-0.092	0.045
-391.077	-91.300	-0.127	-0.037
-390.063	467.151	-0.079	0.178
-389.048	-200.000	-0.041	-0.235
-388.033	19.304	-0.144	-0.116
-387.019	723.232	-0.091	0.245
-386.004	800.000	-0.074	0.217
-384.990	-200.000	-0.005	-0.065
-383.975	235.324	-0.047	-0.078
-382.960	661.894	0.116	-0.300
-381.946	55.130	-0.211	-0.205
-380.931	585.894	-0.073	-0.179
-379.917	301.159	-0.079	-0.146
-378.902	-9.287	-0.178	-0.119
-377.888	-63.242	0.070	-0.029
-376.873	-10.017	-0.241	0.161
-375.858	-200.000	0.019	0.155
-374.844	-19.371	0.167	0.104
-373.829	61.957	0.143	-0.143
-372.815	-200.000	-0.005	-0.209
-371.800	41.746	-0.091	0.083
-370.785	-200.000	-0.060	-0.431
-369.771	-109.814	0.192	-0.040
-368.756	-200.000	-0.000	0.344
-367.742	51.308	-0.163	0.156
-366.727	-158.575	-0.152	0.009
-365.712	-200.000	-0.072	-0.388
-364.698	-88.388	-0.342	0.103
-363.683	486.011	-0.022	-0.050
-362.669	-81.976	-0.067	-0.022
-361.654	-98.215	0.143	0.037
-360.639	-77.299	0.203	0.071
-359.625	62.036	0.162	-0.163
-358.610	-154.898	0.183	-0.012
-357.596	286.354	-0.223	0.403
-356.581	-97.559	0.456	0.119
-355.566	-65.779	-0.177	0.071
-354.552	50.392	0.059	-0.056
-353.537	-184.608	-0.164	0.003
-352.523	-200.000	0.005	0.162
-351.508	-23.974	0.189	0.114
-350.493	-73.015	-0.181	0.067
-349.479	-173.229	-0.311	-0.010
-348.464	-104.292	-0.334	-0.078
-347.450	86.346	-0.097	-0.108
-346.435	35.339	0.061	-0.054
-345.420	-3.686	-0.283	-0.197
-344.406	-75.368	0.125	0.045
-343.391	-200.000	-0.054	0.274
-342.377	-115.241	-0.298	-0.057
-341.362	-200.000	-0.029	0.296
-340.348	-200.000	-0.010	0.222
-339.333	-200.000	-0.014	-0.241
-338.318	114.618	-0.048	-0.058
-337.304	249.250	0.094	-0.160
-336.289	83.127	-0.148	0.162
-335.275	48.516	-0.185	0.174
-334.260	-20.185	-0.255	0.158
-333.245	-200.000	-0.012	0.073
-332.231	-113.201	0.196	-0.039
-331.216	333.293	0.173	0.336
-330.202	40.592	0.311	-0.282
-329.187	-33.366	0.202	-0.112
-328.172	-26.042	-0.194	0.114
-327.158	800.000	-0.134	0.469
-326.143	257.281	0.126	0.217
-325.129	40.451	-0.179	0.162
-324.114	-24.072	0.317	0.190
-323.099	-200.000	-0.011	-0.151
-322.085	-146.168	0.152	0.013
-321.070	-20.737	0.139	0.085
-320.056	800.000	-0.046	0.158
-319.041	-97.640	0.170	0.044
-318.026	193.607	-0.139	0.210
-317.012	182.567	-0.107	-0.158
-315.997	188.516	-0.021	0.031
-314.983	-32.635	-0.082	0.046
-313.968	-184.562	0.139	0.002
-312.953	232.899	0.122	-0.201
-311.939	-96.310	-0.164	0.044
-310.924	-65.789	0.286	-0.115
-309.910	-12.356	0.477	0.313
-308.895	12.628	-0.073	0.057
-307.880	11.421	0.252	-0.193
-306.866	-200.000	0.005	-0.356
-305.851	-81.313	-0.068	-0.022
-304.837	-200.000	0.045	-0.221
-303.822	800.000	-0.140	0.393
-302.807	-45.813	0.238	0.118
-301.793	-63.079	0.297	0.123
-300.778	-146.849	-0.229	0.020
-299.764	122.334	-0.122	0.153
-298.749	-200.000	-0.053	-0.244
-297.735	-200.000	0.052	-0.289
-296.720	256.246	0.094	-0.162
-295.705	698.505	-0.053	0.141
-294.691	-161.190	-0.182	0.009
-293.676	399.823	0.160	-0.337
-292.662	800.000	-0.058	-0.163
-291.647	-25.549	0.205	0.121
-290.632	-100.706	0.348	0.086
-289.618	71.728	-0.222	-0.232
-288.603	-38.869	0.290	-0.153
-287.589	-200.000	0.003	-0.246
-286.574	800.000	0.079	-0.305
-285.559	-200.000	-0.076	-0.359
-284.545	51.823	0.198	-0.189
-283.530	530.372	-0.074	0.176
-282.516	47.066	0.147	-0.137
-281.501	-115.015	0.273	0.052
-280.486	33.943	0.089	0.078
-279.472	-33.867	0.159	0.088
-278.457	-109.586	0.019	-0.004
-277.443	-89.281	0.145	0.043
-276.428	151.586	-0.148	0.202
-275.413	183.882	-0.218	0.323
-274.399	2.664	-0.166	0.120
-273.384	188.802	0.133	-0.200
-272.370	318.841	-0.274	-0.520
-271.355	-27.418	0.377	0.220
-270.340	-200.000	0.019	-0.132
-269.326	-25.073	-0.218	-0.130
-268.311	253.174	-0.021	-0.036
-267.297	-200.000	0.023	-0.123
-266.282	589.154	0.060	0.147
-265.267	-200.000	0.010	-0.093
-264.253	110.746	0.110	-0.133
-263.238	-90.857	-0.143	0.041
-262.224	106.581	0.228	0.271
-261.209	-23.587	0.223	0.134
-260.195	356.869	-0.220	0.439
-259.180	39.656	0.048	-0.043
-258.165	205.639	0.087	0.135
-257.151	-173.770	-0.181	0.005
-256.136	13.638	0.262	-0.204
-255.122	-200.000	-0.025	0.215
-254.107	800.000	-0.046	-0.151
-253.092	-174.876	0.321	-0.009
-252.078	-81.572	-0.076	-0.025
-251.063	-200.000	-0.039	-0.294
-250.049	711.265	0.024	0.064
-249.034	800.000	-0.116	0.338
-248.019	390.463	-0.091	0.189
-247.005	-25.474	-0.186	-0.110
-245.990	-63.162	0.039	0.016
-244.976	-200.000	0.030	-0.244
-243.961	109.197	-0.192	-0.229
-242.946	-147.647	0.062	0.005
-241.932	3.862	-0.065	0.047
-240.917	-200.000	0.020	-0.305
-239.903	800.000	0.025	0.098
-238.888	17.208	0.230	0.183
-237.873	256.249	0.117	-0.201
-236.859	-200.000	0.000	0.022
-235.844	98.298	0.090	0.103
-234.830	-200.000	-0.003	0.213
-233.815	622.529	-0.066	-0.165
-232.800	679.497	0.161	0.419
-231.786	-200.000	-0.034	-0.268
-230.771	69.101	-0.150	-0.154
-229.757	139.182	-0.085	0.111
-228.742	-114.596	-0.368	-0.070
-227.727	-36.663	0.301	0.161
-226.713	190.060	-0.232	0.347
-225.698	397.364	0.067	-0.140
-224.684	85.589	-0.132	0.145
-223.669	196.313	-0.069	-0.105
-222.655	-134.609	0.318	-0.039
-221.640	-121.298	-0.101	-0.017
-220.625	201.315	-0.169	-0.261
-219.611	3.133	0.169	-0.122
-218.596	-22.872	0.048	0.029
-217.582	-44.996	0.061	-0.030
-216.567	-55.334	-0.344	-0.154
-215.552	-16.551	0.172	-0.109
-214.538	26.502	-0.097	0.081
-213.523	-200.000	0.013	0.135
-212.509	632.138	0.162	-0.410
-211.494	89.742	0.098	-0.109
-210.479	-66.688	-0.279	0.110
-209.465	-100.726	-0.144	-0.035
-208.450	176.661	0.122	0.177
-207.436	-66.806	-0.246	-0.097
-206.421	-114.506	0.299	0.057
-205.406	-55.535	-0.120	-0.054
-204.392	-179.801	0.382	0.008
-203.377	-200.000	-0.046	-0.260
-202.363	54.016	0.296	-0.285
-201.348	-200.000	-0.021	-0.116
-200.333	762.677	0.049	0.132
-199.319	101.776	0.067	0.078
-198.304	109.135	-0.109	-0.130
-197.290	-185.919	0.202	-0.003
-196.275	-10.755	-0.116	0.076
-195.260	-124.959	-0.072	-0.011
-194.246	-75.531	-0.161	0.057
-193.231	-200.000	0.015	-0.272
-192.217	-50.508	-0.281	-0.132
-191.202	800.000	-0.076	0.238
-190.187	-7.883	0.050	0.034
-189.173	273.984	-0.163	-0.288
-188.158	165.629	-0.116	0.164
-187.144	-9.766	-0.163	0.108
-186.129	3.598	-0.171	0.124
-185.114	-117.930	0.222	-0.040
-184.100	-147.719	0.300	-0.025
-183.085	-200.000	-0.008	-0.422
-182.071	-18.421	0.145	-0.090
-181.056	261.198	0.125	-0.216
-180.042	228.048	0.045	-0.073
-179.027	-200.000	-0.014	0.170
-178.012	259.189	-0.151	0.259
-176.998	800.000	-0.058	-0.222
-175.983	-200.000	0.008	-0.286
-174.969	-200.000	-0.005	-0.239
-173.954	-200.000	0.011	-0.102
-172.939	88.956	0.064	-0.071
-171.925	9.297	-0.410	-0.309
-170.910	-110.643	-0.388	0.080
-169.896	800.000	0.069	-0.211
-168.881	42.233	0.200	0.181
-167.866	-68.608	0.190	-0.073
-166.852	165.709	0.015	-0.021
-165.837	57.194	-0.114	0.110
-164.823	800.000	0.080	-0.242
-163.808	800.000	-0.030	-0.084
-162.793	9.529	-0.365	0.276
-161.779	743.942	-0.117	0.313
-160.764	-200.000	-0.010	-0.251
-159.750	70.747	0.025	0.026
-158.735	800.000	-0.061	-0.175
-157.720	800.000	0.013	-0.045
-156.706	59.252	0.077	0.075
-155.691	59.921	0.242	0.238
-154.677	-102.570	-0.356	0.085
-153.662	-200.000	0.013	-0.073
-152.647	-97.047	-0.196	-0.051
-151.633	800.000	-0.016	0.067
-150.618	131.401	0.086	0.109
-149.604	4.455	0.057	0.042
-148.589	-41.688	-0.363	-0.186
-147.574	222.391	-0.065	-0.104
-146.560	49.014	-0.042	-0.040
-145.545	-24.246	0.213	0.126
-144.531	153.112	0.219	-0.299
-143.516	-83.229	0.321	0.103
-142.502	800.000	-0.057	0.235
-141.487	-114.326	0.014	0.003
-140.472	28.157	-0.134	0.113
-139.458	-200.000	-0.026	0.138
-138.443	-129.041	-0.109	0.015
-137.429	-200.000	-0.013	0.143
-136.414	-101.949	-0.249	-0.060
-135.399	-11.025	-0.133	0.087
-134.385	-200.000	0.034	-0.402
-133.370	221.858	0.157	-0.251
-132.356	47.380	0.110	0.102
-131.341	-59.228	-0.469	-0.201
-130.326	765.820	0.097	0.263
-129.312	-23.826	0.194	0.116
-128.297	225.029	-0.073	-0.117
-127.283	259.309	0.040	0.069
-126.268	-87.333	0.252	0.076
-125.253	41.129	-0.170	-0.153
-124.239	202.165	-0.179	0.275
-123.224	46.894	0.035	0.032
-122.210	-200.000	0.084	-0.406
