DTS Sentinel unit serial number:	SN413079Multiplexer serial number:	ORYXHardware model number:	OX4-SRSoftware version number:	ORYX F/W v4.00 Oryx Data Collector v3.7.2.0data status	okinstallation	princeton_trtdifferential loss correction	single-endedforward channel	channel 1reverse channel	N/Adate	2019/09/15time	21:14:35forward acquisition time	60.00reverse acquisition time	0.00gamma	496.2192k internal	0.2329k external	0.2329temperature offset calibration	0.9959default loss term (dB/km)	0.3790temperature slope calibration	1.0000multiplexer offset coefficient	1.0000multiplexer slope coefficient	1.0000fibre end	0.00T internal ref (°C)	31.25T ext. ref 1 (°C)	8.17T ext. ref 2 (°C)	24.23length (m)	temperature (°C)	Stokes	anti-Stokes-747.200	-31.711	0.158	-0.089
-746.185	-200.000	0.011	-0.104
-745.171	-200.000	0.086	0.421
-744.156	-96.232	-0.217	-0.058
-743.142	-200.000	0.043	-0.208
-742.127	-200.000	-0.042	0.203
-741.112	-24.071	0.099	0.060
-740.098	552.019	-0.055	-0.132
-739.083	-200.000	0.013	0.073
-738.069	800.000	0.062	0.175
-737.054	49.248	-0.203	0.192
-736.039	5.788	-0.088	0.065
-735.025	90.964	0.360	0.407
-734.010	-18.791	-0.294	0.184
-732.996	421.226	-0.178	-0.384
-731.981	800.000	0.060	-0.167
-730.966	-116.192	-0.131	0.025
-729.952	-104.491	-0.021	0.005
-728.937	574.606	-0.124	-0.304
-727.923	-48.690	0.045	0.022
-726.908	800.000	0.049	0.150
-725.894	12.910	0.052	-0.041
-724.879	-200.000	-0.024	-0.263
-723.864	23.996	0.184	-0.153
-722.850	-200.000	0.037	-0.283
-721.835	-200.000	-0.004	0.046
-720.821	-26.734	-0.370	0.218
-719.806	-200.000	-0.388	-0.001
-718.791	800.000	0.016	0.054
-717.777	-34.113	0.270	0.149
-716.762	38.883	-0.306	-0.276
-715.748	-59.617	-0.216	0.093
-714.733	-179.078	-0.165	-0.004
-713.718	277.149	-0.243	-0.435
-712.704	-200.000	0.004	-0.347
-711.689	25.517	0.245	0.205
-710.675	-54.773	0.126	-0.057
-709.660	800.000	-0.110	-0.340
-708.645	-88.437	0.272	-0.082
-707.631	800.000	0.022	0.094
-706.616	-4.701	0.318	0.221
-705.602	391.363	-0.061	-0.127
-704.587	216.322	0.067	-0.106
-703.572	630.846	-0.050	0.128
-702.558	-65.721	-0.272	0.110
-701.543	62.606	0.244	0.245
-700.529	177.413	0.155	0.227
-699.514	-200.000	-0.037	0.237
-698.499	-23.153	0.108	0.065
-697.485	-150.015	-0.160	-0.013
-696.470	-124.309	-0.184	-0.029
-695.456	208.533	0.035	0.055
-694.441	795.190	-0.053	-0.145
-693.426	114.259	0.175	-0.214
-692.412	61.917	0.216	-0.216
-691.397	7.912	-0.101	0.076
-690.383	-200.000	0.004	-0.474
-689.368	-200.000	0.007	0.037
-688.354	-1.929	0.317	0.224
-687.339	-200.000	0.016	0.098
-686.324	141.718	0.171	0.228
-685.310	93.648	0.200	0.228
-684.295	800.000	-0.100	-0.368
-683.281	-200.000	-0.041	0.397
-682.266	447.001	0.101	0.223
-681.251	-200.000	0.020	-0.286
-680.237	302.683	-0.145	-0.271
-679.222	-24.898	-0.220	0.132
-678.208	216.867	-0.070	-0.113
-677.193	12.272	-0.121	0.094
-676.178	133.526	0.155	0.201
-675.164	-5.909	0.234	0.161
-674.149	-98.615	0.393	-0.101
-673.135	21.867	0.153	-0.126
-672.120	108.515	-0.249	0.299
-671.105	-200.000	0.015	0.185
-670.091	153.674	0.125	-0.173
-669.076	86.432	-0.309	-0.343
-668.062	-200.000	-0.027	0.147
-667.047	-200.000	0.014	0.315
-666.032	254.904	-0.132	0.227
-665.018	272.271	0.017	0.030
-664.003	73.472	0.239	-0.251
-662.989	-32.282	-0.295	-0.165
-661.974	-200.000	0.010	0.077
-660.959	-118.336	0.124	0.022
-659.945	-175.712	-0.071	0.002
-658.930	-200.000	-0.057	-0.332
-657.916	-29.622	0.334	-0.191
-656.901	75.290	0.163	0.172
-655.886	63.667	-0.173	-0.174
-654.872	-200.000	0.023	0.103
-653.857	800.000	-0.038	0.125
-652.843	149.844	0.232	0.316
-651.828	454.577	-0.041	0.091
-650.814	-200.000	-0.018	0.096
-649.799	251.422	-0.091	-0.155
-648.784	175.907	0.019	-0.028
-647.770	-12.170	-0.312	-0.205
-646.755	143.922	0.038	-0.050
-645.741	411.613	0.016	-0.035
-644.726	-36.240	-0.151	-0.082
-643.711	-103.327	-0.110	-0.026
-642.697	12.954	-0.111	0.086
-641.682	-169.582	-0.488	0.018
-640.668	800.000	-0.008	0.022
-639.653	-30.654	0.108	-0.061
-638.638	-200.000	0.000	-0.239
-637.624	-29.804	0.209	0.119
-636.609	154.800	-0.103	0.142
-635.595	-151.389	-0.111	-0.008
-634.580	-2.734	0.229	-0.161
-633.565	800.000	-0.029	-0.092
-632.551	-176.769	-0.223	0.006
-631.536	46.027	0.032	-0.030
-630.522	-90.032	-0.416	-0.122
-629.507	-123.911	-0.060	0.009
-628.492	-131.462	-0.186	0.025
-627.478	99.537	-0.210	-0.243
-626.463	-116.044	-0.324	0.061
-625.449	5.798	-0.216	0.160
-624.434	67.339	-0.132	-0.135
-623.419	267.015	0.025	0.043
-622.405	102.336	0.169	0.198
-621.390	-76.590	-0.084	0.029
-620.376	784.901	-0.015	-0.042
-619.361	-88.278	0.165	-0.049
-618.346	65.451	-0.299	0.304
-617.332	-126.320	-0.096	-0.014
-616.317	-200.000	-0.025	0.245
-615.303	-200.000	0.016	-0.089
-614.288	13.057	-0.162	-0.126
-613.273	-200.000	-0.057	-0.260
-612.259	-170.496	-0.117	-0.004
-611.244	800.000	0.154	0.427
-610.230	29.468	-0.265	0.226
-609.215	-196.722	0.088	0.001
-608.201	8.307	0.134	0.101
-607.186	-174.555	0.171	0.005
-606.171	-200.000	0.499	-0.002
-605.157	566.389	-0.021	0.050
-604.142	-52.636	0.323	-0.149
-603.128	12.847	-0.176	-0.136
-602.113	-119.367	0.255	-0.044
-601.098	-8.144	-0.363	-0.245
-600.084	80.983	0.143	-0.154
-599.069	70.162	-0.210	-0.217
-598.055	105.815	0.252	0.298
-597.040	462.832	0.145	0.325
-596.025	-11.573	-0.027	-0.018
-595.011	800.000	0.167	-0.482
-593.996	800.000	-0.078	-0.218
-592.982	-42.379	0.248	-0.127
-591.967	-155.121	0.248	-0.016
-590.952	-174.025	-0.359	0.011
-589.938	-105.250	-0.137	0.031
-588.923	-73.660	-0.309	-0.113
-587.909	8.133	0.044	-0.033
-586.894	47.012	-0.183	-0.170
-585.879	77.923	-0.102	-0.109
-584.865	43.421	-0.293	-0.268
-583.850	-200.000	0.007	-0.108
-582.836	130.540	-0.164	-0.210
-581.821	159.603	0.085	0.118
-580.806	-55.700	-0.379	0.170
-579.792	-200.000	0.004	0.076
-578.777	-4.635	-0.101	0.070
-577.763	-154.607	0.122	-0.008
-576.748	52.680	0.215	-0.206
-575.733	-20.986	-0.174	-0.107
-574.719	-135.478	-0.149	0.018
-573.704	-153.166	0.075	-0.005
-572.690	103.675	-0.046	0.054
-571.675	59.756	-0.189	0.186
-570.661	313.374	0.075	-0.141
-569.646	-127.743	-0.112	0.016
-568.631	2.336	-0.376	0.272
-567.617	-146.272	-0.092	-0.008
-566.602	125.882	-0.188	0.237
-565.588	-96.572	0.278	-0.073
-564.573	74.160	-0.196	0.206
-563.558	-34.422	-0.207	0.113
-562.544	-200.000	0.011	0.216
-561.529	-67.104	-0.304	-0.120
-560.515	-154.849	-0.306	0.020
-559.500	-78.137	-0.299	-0.103
-558.485	55.778	0.109	0.106
-557.471	-58.509	-0.316	0.137
-556.456	-138.508	-0.235	0.026
-555.442	-128.973	0.208	-0.029
-554.427	195.305	0.135	0.205
-553.412	-35.255	-0.194	0.106
-552.398	385.980	0.096	0.198
-551.383	-86.360	0.134	-0.041
-550.369	800.000	0.048	-0.164
-549.354	-200.000	-0.011	-0.157
-548.339	324.352	0.089	-0.171
-547.325	-107.734	0.241	0.053
-546.310	252.172	-0.148	-0.252
-545.296	-130.628	0.228	-0.031
-544.281	27.041	0.220	0.185
-543.266	580.774	0.173	0.425
-542.252	-200.000	0.077	-0.468
-541.237	-23.106	-0.210	0.126
-540.223	8.339	-0.129	-0.097
-539.208	709.076	-0.068	-0.180
-538.193	-4.751	0.263	0.181
-537.179	179.144	-0.098	-0.143
-536.164	555.973	-0.137	-0.329
-535.150	257.503	0.027	-0.047
-534.135	323.931	-0.034	-0.064
-533.121	800.000	-0.031	-0.103
-532.106	69.795	0.226	-0.233
-531.091	227.288	0.173	0.280
-530.077	800.000	-0.019	-0.061
-529.062	247.807	0.138	0.234
-528.048	245.491	0.098	0.164
-527.033	-112.649	-0.204	-0.041
-526.018	344.139	0.133	0.261
-525.004	-200.000	-0.061	-0.347
-523.989	274.177	0.075	-0.133
-522.975	-84.237	0.055	0.017
-521.960	262.393	0.039	-0.068
-520.945	-43.683	0.264	0.133
-519.931	7.038	0.122	-0.091
-518.916	8.388	0.443	0.332
-517.902	235.101	0.197	0.325
-516.887	-106.791	0.057	-0.013
-515.872	177.232	-0.203	0.296
-514.858	360.044	0.091	0.181
-513.843	-200.000	0.006	-0.478
-512.829	219.598	-0.165	0.264
-511.814	58.413	0.074	-0.073
-510.799	127.542	-0.216	0.274
-509.785	800.000	0.029	-0.099
-508.770	351.374	0.173	-0.341
-507.756	-35.227	-0.064	-0.035
-506.741	109.488	0.182	-0.218
-505.726	-145.747	-0.210	-0.019
-504.712	408.175	-0.176	-0.371
-503.697	-2.137	0.251	0.176
-502.683	-31.930	-0.254	0.142
-501.668	-200.000	0.017	0.139
-500.653	-200.000	-0.011	0.092
-499.639	-142.406	-0.444	0.044
-498.624	-124.078	0.135	0.021
-497.610	-41.753	0.183	-0.094
-496.595	-8.434	0.186	-0.125
-495.581	275.777	-0.053	0.093
-494.566	800.000	-0.033	0.108
-493.551	117.128	0.213	0.261
-492.537	-89.913	0.090	0.026
-491.522	-77.691	-0.153	-0.053
-490.508	800.000	0.105	0.351
-489.493	289.711	-0.116	0.210
-488.478	-66.983	0.140	-0.055
-487.464	-200.000	-0.056	0.287
-486.449	0.479	0.335	-0.239
-485.435	-157.267	-0.256	-0.015
-484.420	33.395	0.186	0.161
-483.405	-40.926	-0.238	0.123
-482.391	-15.867	0.201	0.127
-481.376	800.000	-0.078	-0.296
-480.362	-180.750	-0.202	-0.004
-479.347	-193.768	0.441	-0.004
-478.332	761.716	0.014	0.038
-477.318	-123.389	0.164	-0.026
-476.303	-200.000	0.039	0.228
-475.289	-151.732	0.150	0.011
-474.274	-106.879	-0.232	-0.051
-473.259	454.457	-0.034	-0.075
-472.245	-94.955	-0.191	0.052
-471.230	74.195	0.110	0.115
-470.216	24.641	0.047	0.039
-469.201	-176.949	0.124	0.003
-468.186	-119.061	0.527	-0.092
-467.172	-200.000	0.033	0.151
-466.157	-200.000	0.008	0.176
-465.143	-200.000	0.013	0.197
-464.128	-200.000	-0.095	-0.448
-463.113	53.125	0.030	-0.029
-462.099	40.261	-0.011	0.010
-461.084	-38.843	-0.205	0.108
-460.070	-200.000	-0.007	-0.056
-459.055	312.951	0.161	0.301
-458.040	-79.776	-0.185	-0.062
-457.026	800.000	-0.040	0.145
-456.011	233.232	-0.045	-0.074
-454.997	73.015	0.100	0.104
-453.982	-200.000	-0.008	-0.047
-452.968	222.720	0.183	0.294
-451.953	-68.677	0.276	0.106
-450.938	-145.439	0.219	0.020
-449.924	9.945	-0.114	-0.086
-448.909	-4.468	-0.213	-0.147
-447.895	800.000	0.095	0.297
-446.880	800.000	0.078	-0.264
-445.865	-165.317	0.178	0.008
-444.851	800.000	-0.103	0.283
-443.836	-128.571	-0.214	-0.030
-442.822	-21.583	0.351	0.213
-441.807	54.621	-0.177	0.170
-440.792	-57.408	-0.310	-0.135
-439.778	-81.178	0.112	-0.037
-438.763	800.000	-0.016	0.050
-437.749	-106.497	-0.216	-0.048
-436.734	-200.000	0.004	0.180
-435.719	-200.000	0.063	-0.320
-434.705	-63.975	-0.079	-0.032
-433.690	15.390	-0.106	-0.083
-432.676	-13.345	-0.291	-0.188
-431.661	-115.530	0.123	0.023
-430.646	-1.111	0.126	-0.089
-429.632	65.624	-0.233	0.235
-428.617	-77.011	0.119	-0.041
-427.603	84.000	0.236	-0.257
-426.588	562.602	0.049	-0.118
-425.573	-23.745	0.303	-0.181
-424.559	-200.000	0.033	0.220
-423.544	-187.601	-0.164	-0.002
-422.530	85.853	-0.225	0.246
-421.515	24.173	0.218	-0.179
-420.500	-79.793	0.016	0.005
-419.486	-200.000	0.025	0.275
-418.471	33.738	-0.047	-0.041
-417.457	-95.926	-0.162	0.043
-416.442	7.745	0.312	0.232
-415.428	-90.468	-0.104	-0.030
-414.413	-53.603	0.290	-0.132
-413.398	9.200	-0.163	-0.122
-412.384	134.138	0.231	0.298
-411.369	292.841	0.065	-0.118
-410.355	327.029	-0.115	-0.220
-409.340	134.768	-0.038	0.049
-408.325	-168.247	0.127	0.005
-407.311	800.000	0.018	-0.075
-406.296	-65.750	-0.260	0.104
-405.282	-200.000	0.057	0.306
-404.267	-200.000	-0.012	-0.062
-403.252	-129.944	-0.123	0.017
-402.238	145.515	0.041	0.055
-401.223	-200.000	0.016	0.286
-400.209	289.660	0.147	-0.265
-399.194	-62.163	-0.263	0.109
-398.179	800.000	-0.077	0.265
-397.165	-187.312	0.106	-0.001
-396.150	800.000	0.034	0.144
-395.136	-54.593	-0.161	-0.072
-394.121	800.000	0.092	-0.354
-393.106	-147.701	-0.375	-0.031
-392.092	123.066	0.163	-0.203
-391.077	667.375	0.147	-0.378
-390.063	-171.859	0.220	-0.007
-389.048	45.927	0.201	0.185
-388.033	215.211	-0.051	-0.081
-387.019	-30.688	0.399	-0.224
-386.004	538.238	-0.100	0.237
-384.990	-200.000	-0.031	0.291
-383.975	800.000	0.051	0.160
-382.960	-1.161	-0.164	-0.115
-381.946	321.581	0.055	-0.103
-380.931	-200.000	0.094	-0.461
-379.917	-79.930	0.256	-0.085
-378.902	-165.585	0.201	0.009
-377.888	-13.805	0.171	-0.110
-376.873	-200.000	-0.008	0.039
-375.858	-99.009	0.285	-0.072
-374.844	97.712	-0.213	0.243
-373.829	113.067	0.163	-0.196
-372.815	-200.000	0.027	0.358
-371.800	800.000	-0.066	-0.219
-370.785	-0.248	0.110	-0.077
-369.771	800.000	-0.085	-0.237
-368.756	-109.479	-0.285	0.060
-367.742	-5.594	0.419	0.285
-366.727	155.563	-0.092	0.126
-365.712	-19.580	-0.186	0.115
-364.698	-200.000	-0.074	0.403
-363.683	-15.956	0.155	-0.098
-362.669	-114.468	0.289	-0.055
-361.654	620.193	-0.095	0.236
-360.639	354.347	0.069	-0.136
-359.625	-200.000	0.055	0.328
-358.610	-32.608	0.277	0.153
-357.596	29.366	-0.054	-0.045
-356.581	-140.678	0.190	-0.020
-355.566	-200.000	0.014	0.173
-354.552	-20.868	0.254	-0.155
-353.537	-43.264	0.307	0.154
-352.523	290.933	-0.051	0.093
-351.508	-134.997	-0.184	0.022
-350.493	-200.000	0.022	-0.224
-349.479	-19.958	0.137	0.084
-348.464	50.237	0.180	0.169
-347.450	9.435	0.103	-0.078
-346.435	-200.000	0.027	-0.316
-345.420	230.297	0.121	-0.197
-344.406	-57.307	-0.308	-0.134
-343.391	119.762	0.338	0.415
-342.377	-200.000	-0.026	-0.285
-341.362	800.000	-0.093	-0.326
-340.348	-50.205	0.528	0.248
-339.333	-159.626	-0.189	-0.010
-338.318	150.436	0.310	0.418
-337.304	777.480	-0.071	0.193
-336.289	800.000	-0.111	-0.363
-335.275	68.000	0.182	0.184
-334.260	747.106	-0.103	0.274
-333.245	800.000	-0.044	0.159
-332.231	160.559	-0.155	0.214
-331.216	26.035	0.255	0.211
-330.202	770.556	-0.131	-0.353
-329.187	-62.154	-0.340	-0.141
-328.172	-57.067	0.068	-0.030
-327.158	151.578	-0.038	-0.051
-326.143	-110.299	0.186	-0.038
-325.129	-200.000	0.061	0.302
-324.114	-200.000	-0.013	0.365
-323.099	-200.000	0.005	0.173
-322.085	52.615	-0.304	-0.288
-321.070	-77.715	-0.396	0.136
-320.056	124.685	0.114	-0.142
-319.041	800.000	0.044	0.163
-318.026	53.353	0.069	0.066
-317.012	372.746	-0.198	-0.398
-315.997	-60.253	0.149	-0.063
-314.983	-121.534	-0.158	0.026
-313.968	-54.661	-0.151	-0.068
-312.953	-200.000	0.032	-0.189
-311.939	-79.756	0.086	0.029
-310.924	87.865	-0.125	-0.137
-309.910	-145.801	-0.100	-0.009
-308.895	353.091	-0.216	-0.424
-307.880	-23.442	-0.222	0.132
-306.866	-200.000	-0.031	0.229
-305.851	-200.000	-0.012	0.246
-304.837	140.448	-0.226	-0.295
-303.822	-17.597	-0.229	-0.142
-302.807	-200.000	0.047	0.390
-301.793	242.885	-0.194	-0.321
-300.778	-8.861	0.235	-0.156
-299.764	800.000	0.007	-0.027
-298.749	154.896	0.296	-0.403
-297.735	-200.000	0.229	0.000
-296.720	58.812	0.122	-0.119
-295.705	-200.000	-0.013	-0.091
-294.691	-23.386	0.162	0.096
-293.676	6.916	-0.236	0.174
-292.662	-112.765	0.091	0.018
-291.647	181.476	0.408	-0.593
-290.632	34.697	0.042	-0.037
-289.618	348.176	-0.009	0.018
-288.603	-140.043	0.158	0.016
-287.589	-69.105	0.157	0.060
-286.574	546.721	0.056	-0.133
-285.559	-6.324	-0.104	0.070
-284.545	-162.314	0.229	0.011
-283.530	-26.224	-0.182	0.106
-282.516	800.000	0.067	-0.203
-281.501	-70.610	0.213	-0.080
-280.486	629.672	-0.123	-0.309
-279.472	800.000	0.072	-0.205
-278.457	-15.272	0.203	0.128
-277.443	-200.000	-0.014	0.061
-276.428	-140.866	-0.312	0.032
-275.413	233.270	0.007	0.012
-274.399	-30.827	0.163	-0.091
-273.384	-18.688	-0.273	0.168
-272.370	11.856	0.136	0.103
-271.355	-101.746	-0.249	0.060
-270.340	-77.748	0.403	-0.138
-269.326	26.870	0.293	-0.243
-268.311	-124.826	0.082	-0.012
-267.297	39.541	0.092	0.081
-266.282	-73.668	-0.121	0.044
-265.267	-200.000	-0.203	-0.001
-264.253	82.699	0.440	-0.472
-263.238	67.950	-0.163	-0.165
-262.224	-128.628	-0.235	0.033
-261.209	-200.000	-0.016	-0.290
-260.195	63.303	0.040	0.040
-259.180	-40.131	-0.435	0.224
-258.165	-129.407	-0.067	0.009
-257.151	-200.000	-0.032	0.501
-256.136	-200.000	-0.002	0.034
-255.122	31.317	-0.114	-0.097
-254.107	-145.209	-0.042	-0.004
-253.092	85.434	0.219	-0.238
-252.078	-109.037	0.211	-0.044
-251.063	-38.202	0.126	-0.066
-250.049	-111.651	-0.204	0.041
-249.034	-200.000	0.000	0.041
-248.019	-120.357	0.543	-0.091
-247.005	40.507	0.208	0.185
-245.990	800.000	-0.098	-0.341
-244.976	106.038	0.086	-0.100
-243.961	-200.000	0.061	0.320
-242.946	-163.192	-0.236	0.011
-241.932	502.815	0.059	0.135
-240.917	84.427	-0.179	0.194
-239.903	787.557	-0.066	0.179
-238.888	-36.296	-0.349	-0.186
-237.873	-77.226	0.168	0.058
-236.859	-200.000	-0.003	0.093
-235.844	51.452	0.104	-0.098
-234.830	-35.314	-0.132	-0.071
-233.815	-106.997	-0.530	0.116
-232.800	-57.659	0.257	-0.111
-231.786	-115.928	-0.189	-0.035
-230.771	282.413	-0.103	0.183
-229.757	723.429	-0.050	0.133
-228.742	793.571	0.081	0.219
-227.727	18.321	-0.159	0.125
-226.713	-173.462	0.286	0.009
-225.698	-13.884	0.246	-0.157
-224.684	119.101	-0.082	0.100
-223.669	-152.548	0.254	-0.018
-222.655	-130.144	-0.408	-0.055
-221.640	-195.766	-0.355	0.003
-220.625	173.802	0.088	0.125
-219.611	-120.498	0.355	-0.059
-218.596	74.913	-0.122	-0.127
-217.582	-200.000	0.020	-0.397
-216.567	89.493	0.087	-0.096
-215.552	437.891	-0.070	-0.151
-214.538	113.500	0.317	0.380
-213.523	209.416	-0.087	0.135
-212.509	-41.599	-0.063	-0.032
-211.494	684.974	-0.197	0.506
-210.479	-200.000	0.011	0.188
-209.465	-200.000	0.014	-0.095
-208.450	75.799	-0.223	0.233
-207.436	-0.330	0.221	0.155
-206.421	-51.582	-0.163	-0.075
-205.406	-189.959	-0.254	0.003
-204.392	-122.418	-0.172	-0.028
-203.377	-141.194	-0.072	-0.007
-202.363	-175.405	0.163	-0.004
-201.348	-8.770	0.138	-0.091
-200.333	-70.587	0.299	0.111
-199.319	511.727	0.154	-0.354
-198.304	268.293	-0.224	-0.388
-197.290	455.963	0.052	0.113
-196.275	179.753	-0.101	-0.145
-195.260	-200.000	-0.008	0.192
-194.246	-200.000	-0.023	-0.188
-193.231	158.084	0.061	0.083
-192.217	-73.534	-0.270	-0.097
-191.202	-22.356	-0.200	-0.120
-190.187	462.561	0.159	-0.351
-189.173	16.457	-0.139	0.108
-188.158	-164.714	0.205	0.009
-187.144	103.871	0.147	-0.170
-186.129	-155.935	0.451	0.028
-185.114	-89.830	0.322	-0.093
-184.100	-81.027	0.124	0.040
-183.085	-82.830	-0.118	0.038
-182.071	382.664	-0.119	0.241
-181.056	-161.623	-0.171	0.009
-180.042	-200.000	0.008	0.075
-179.027	317.027	-0.168	0.312
-178.012	44.681	0.129	0.117
-176.998	-200.000	-0.027	0.311
-175.983	78.901	0.103	-0.109
-174.969	406.964	-0.133	-0.277
-173.954	-200.000	0.022	-0.339
-172.939	-110.462	0.030	0.006
-171.925	127.199	-0.057	0.071
-170.910	-167.346	-0.352	0.014
-169.896	208.101	-0.033	-0.051
-168.881	103.653	-0.159	0.184
-167.866	641.857	0.116	-0.290
-166.852	139.106	-0.232	-0.300
-165.837	-98.287	0.202	-0.051
-164.823	56.247	-0.081	-0.077
-163.808	279.080	0.228	0.400
-162.793	-118.397	-0.461	0.080
-161.779	0.829	-0.381	-0.269
-160.764	251.500	0.066	0.111
-159.750	-14.495	-0.330	-0.209
-158.735	800.000	0.065	0.207
-157.720	-200.000	-0.012	0.390
-156.706	-159.528	0.269	0.015
-155.691	-96.249	-0.156	-0.041
-154.677	68.179	0.141	0.142
-153.662	-88.471	0.116	-0.034
-152.647	800.000	0.115	-0.409
-151.633	295.374	-0.120	-0.216
-150.618	-143.754	0.180	0.017
-149.604	-200.000	-0.013	-0.136
-148.589	-63.667	0.115	0.046
-147.574	-149.473	-0.205	-0.016
-146.560	-200.000	0.001	-0.101
-145.545	-200.000	-0.008	-0.041
-144.531	800.000	-0.058	0.183
-143.516	-108.097	-0.181	-0.039
-142.502	48.090	-0.098	0.090
-141.487	378.453	-0.093	-0.188
-140.472	321.991	-0.096	-0.180
-139.458	800.000	0.103	-0.336
-138.443	-2.565	-0.124	0.086
-137.429	-60.107	0.360	-0.151
-136.414	-126.655	0.362	0.053
-135.399	-91.685	0.064	0.018
-134.385	-200.000	-0.025	0.145
-133.370	-200.000	-0.026	-0.141
-132.356	-12.693	0.298	0.191
-131.341	800.000	0.034	-0.104
-130.326	-200.000	-0.062	0.348
-129.312	-126.538	0.106	0.016
-128.297	-70.285	0.279	0.104
-127.283	-2.970	-0.136	0.093
-126.268	-30.628	-0.221	-0.123
-125.253	39.907	-0.125	-0.110
-124.239	-169.433	0.066	-0.002
-123.224	800.000	-0.087	-0.322
-122.210	-177.696	0.244	-0.006
-121.195	800.000	-0.060	0.201
