DTS Sentinel unit serial number:	SN413079Multiplexer serial number:	ORYXHardware model number:	OX4-SRSoftware version number:	ORYX F/W v4.00 Oryx Data Collector v3.7.2.0data status	okinstallation	princeton_trtdifferential loss correction	single-endedforward channel	channel 1reverse channel	N/Adate	2019/09/14time	16:34:35forward acquisition time	60.00reverse acquisition time	0.00gamma	496.2192k internal	0.2295k external	0.2295temperature offset calibration	1.0060default loss term (dB/km)	0.3790temperature slope calibration	1.0000multiplexer offset coefficient	1.0000multiplexer slope coefficient	1.0000fibre end	0.00T internal ref (°C)	38.00T ext. ref 1 (°C)	5.05T ext. ref 2 (°C)	33.98length (m)	temperature (°C)	Stokes	anti-Stokes-747.200	-200.000	-0.077	0.448
-746.185	-187.153	0.152	-0.002
-745.171	424.455	0.026	0.058
-744.156	235.284	0.095	0.161
-743.142	-200.000	-0.037	-0.224
-742.127	-67.019	-0.340	0.137
-741.112	800.000	-0.134	-0.448
-740.098	631.227	-0.050	-0.130
-739.083	-200.000	0.027	-0.124
-738.069	-34.483	0.153	-0.086
-737.054	-51.087	-0.241	0.116
-736.039	-18.217	-0.117	-0.075
-735.025	-122.468	0.482	0.080
-734.010	755.400	0.104	-0.287
-732.996	-62.279	-0.383	-0.163
-731.981	800.000	-0.056	0.194
-730.966	-103.532	-0.297	-0.071
-729.952	-33.899	-0.218	0.123
-728.937	121.190	0.081	-0.103
-727.923	-200.000	0.032	-0.236
-726.908	-34.930	0.360	0.201
-725.894	-29.611	-0.091	-0.053
-724.879	22.793	-0.117	0.098
-723.864	-200.000	-0.061	-0.304
-722.850	107.168	0.075	-0.091
-721.835	800.000	-0.052	-0.201
-720.821	-200.000	0.047	-0.400
-719.806	800.000	-0.073	-0.291
-718.791	-200.000	0.004	-0.122
-717.777	-112.308	-0.225	0.046
-716.762	-140.633	0.181	0.019
-715.748	-178.646	-0.264	0.006
-714.733	800.000	-0.086	-0.288
-713.718	-98.383	0.233	0.061
-712.704	-39.060	-0.128	-0.069
-711.689	597.597	0.042	-0.108
-710.675	208.648	-0.202	0.323
-709.660	-58.657	0.376	-0.166
-708.645	800.000	-0.124	-0.470
-707.631	601.072	-0.006	0.015
-706.616	389.093	0.032	0.067
-705.602	-170.933	0.378	0.013
-704.587	-200.000	-0.015	-0.209
-703.572	-180.340	0.430	0.009
-702.558	159.095	0.128	-0.182
-701.543	-96.914	0.402	0.108
-700.529	-200.000	-0.031	-0.235
-699.514	-85.450	-0.335	0.107
-698.499	27.175	-0.114	-0.097
-697.485	800.000	0.058	0.226
-696.470	39.147	0.135	0.123
-695.456	-141.019	-0.053	-0.006
-694.441	-200.000	0.058	-0.294
-693.426	136.630	0.218	-0.290
-692.412	20.000	0.143	-0.118
-691.397	-139.981	0.227	-0.024
-690.383	-179.786	0.168	-0.004
-689.368	-45.078	0.222	0.113
-688.354	43.535	0.391	-0.365
-687.339	-200.000	-0.006	-0.167
-686.324	-31.945	-0.087	-0.050
-685.310	18.499	0.134	0.109
-684.295	5.241	0.118	-0.089
-683.281	-45.395	0.444	-0.225
-682.266	-121.282	-0.247	-0.042
-681.251	-63.840	-0.270	-0.113
-680.237	-47.163	-0.176	-0.088
-679.222	28.859	-0.058	0.050
-678.208	67.858	-0.183	0.191
-677.193	-115.596	-0.361	-0.069
-676.178	-130.719	0.268	-0.037
-675.164	800.000	-0.056	-0.160
-674.149	-179.642	-0.200	-0.004
-673.135	-200.000	-0.061	0.274
-672.120	-46.595	-0.101	0.050
-671.105	-200.000	-0.010	-0.071
-670.091	-200.000	-0.054	-0.276
-669.076	800.000	-0.149	-0.533
-668.062	106.995	0.065	-0.079
-667.047	-61.110	-0.415	-0.178
-666.032	-26.078	-0.328	0.197
-665.018	9.429	-0.112	-0.086
-664.003	-186.537	-0.101	-0.001
-662.989	92.997	-0.035	0.041
-661.974	-200.000	0.013	-0.228
-660.959	7.552	0.093	-0.071
-659.945	800.000	0.045	0.145
-658.930	1.300	-0.301	0.221
-657.916	-18.535	0.114	-0.072
-656.901	-200.000	-0.014	-0.129
-655.886	800.000	-0.064	-0.267
-654.872	-154.696	-0.247	0.017
-653.857	800.000	0.060	-0.252
-652.843	-164.186	-0.257	-0.012
-651.828	-200.000	0.003	-0.089
-650.814	-107.315	-0.107	0.024
-649.799	-78.781	-0.352	-0.122
-648.784	447.139	-0.172	0.385
-647.770	86.762	0.194	0.218
-646.755	-200.000	0.034	-0.240
-645.741	-200.000	0.077	0.491
-644.726	5.828	0.177	0.133
-643.711	800.000	-0.126	0.430
-642.697	409.383	0.034	0.074
-641.682	14.243	0.189	-0.150
-640.668	44.051	-0.141	-0.132
-639.653	215.796	0.197	-0.319
-638.638	-74.870	-0.266	-0.097
-637.624	-200.000	0.017	0.323
-636.609	20.370	-0.364	0.299
-635.595	61.351	0.196	-0.198
-634.580	-54.784	-0.319	0.146
-633.565	-200.000	0.011	0.140
-632.551	-108.420	-0.164	0.036
-631.536	-50.088	-0.205	0.099
-630.522	3.081	-0.155	-0.115
-629.507	-60.400	0.386	0.167
-628.492	-134.947	0.156	-0.019
-627.478	-38.727	0.177	0.095
-626.463	-31.279	-0.109	-0.062
-625.449	482.562	-0.125	0.289
-624.434	-93.737	0.178	0.050
-623.419	-13.951	0.115	-0.076
-622.405	-200.000	-0.007	-0.182
-621.390	444.628	0.019	-0.043
-620.376	161.133	0.093	0.133
-619.361	-91.907	-0.268	-0.077
-618.346	-200.000	-0.029	-0.259
-617.332	4.184	-0.078	-0.058
-616.317	42.298	0.189	0.175
-615.303	800.000	0.035	0.128
-614.288	129.662	-0.185	0.241
-613.273	236.062	0.065	-0.110
-612.259	-85.484	0.407	-0.129
-611.244	228.933	0.073	-0.122
-610.230	-200.000	-0.206	0.000
-609.215	103.011	0.094	-0.111
-608.201	86.882	-0.067	-0.075
-607.186	-200.000	-0.002	0.291
-606.171	677.828	0.069	0.183
-605.157	35.889	0.125	0.112
-604.142	-88.031	-0.246	0.075
-603.128	-117.449	-0.239	-0.044
-602.113	218.310	-0.174	-0.283
-601.098	-110.978	-0.200	-0.042
-600.084	-18.990	0.088	-0.056
-599.069	-200.000	-0.285	0.000
-598.055	747.064	-0.105	-0.288
-597.040	800.000	0.079	0.233
-596.025	-125.169	0.324	-0.051
-595.011	-148.660	-0.176	-0.015
-593.996	-105.488	0.267	-0.062
-592.982	113.710	0.013	-0.016
-591.967	-200.000	-0.029	-0.185
-590.952	216.507	-0.236	0.382
-589.938	-200.000	0.019	-0.100
-588.923	-170.534	-0.315	0.011
-587.909	-200.000	-0.002	0.164
-586.894	-91.028	0.292	0.085
-585.879	48.606	-0.078	0.074
-584.865	-91.069	-0.336	0.098
-583.850	747.970	-0.025	0.067
-582.836	-200.000	-0.021	0.251
-581.821	-112.260	0.260	-0.053
-580.806	-200.000	0.011	0.185
-579.792	-34.162	0.049	-0.027
-578.777	241.313	-0.083	-0.141
-577.763	-200.000	-0.064	-0.552
-576.748	9.595	0.466	-0.359
-575.733	35.757	-0.061	-0.055
-574.719	-200.000	0.000	0.112
-573.704	-114.002	-0.257	-0.051
-572.690	90.485	0.183	-0.208
-571.675	47.323	0.163	0.154
-570.661	735.055	0.072	0.197
-569.646	20.298	-0.302	-0.248
-568.631	-200.000	-0.030	-0.275
-567.617	-200.000	-0.010	0.113
-566.602	629.815	0.098	-0.251
-565.588	-82.709	0.196	0.064
-564.573	477.409	0.087	0.199
-563.558	63.021	-0.350	-0.356
-562.544	-200.000	0.034	-0.157
-561.529	-200.000	0.001	0.011
-560.515	200.081	0.081	-0.126
-559.500	86.629	0.234	0.262
-558.485	-171.006	-0.236	-0.008
-557.471	4.825	-0.194	-0.144
-556.456	-36.442	0.168	-0.092
-555.442	-28.943	0.161	-0.094
-554.427	612.165	0.055	0.140
-553.412	387.194	0.023	0.049
-552.398	-145.785	-0.081	0.007
-551.383	34.788	0.221	-0.196
-550.369	71.671	0.445	-0.470
-549.354	575.793	0.042	-0.105
-548.339	-31.174	0.159	-0.091
-547.325	11.411	0.293	-0.228
-546.310	800.000	-0.113	-0.421
-545.296	-91.271	0.327	0.095
-544.281	-69.182	-0.396	-0.155
-543.266	-108.071	-0.265	-0.058
-542.252	19.312	-0.197	0.161
-541.237	-125.944	0.140	0.021
-540.223	81.225	-0.148	-0.162
-539.208	-33.844	-0.020	0.011
-538.193	178.632	0.232	-0.344
-537.179	-95.954	-0.302	-0.082
-536.164	21.617	-0.104	0.086
-535.150	107.449	0.062	0.075
-534.135	800.000	0.017	-0.071
-533.121	108.746	0.091	0.110
-532.106	-36.368	-0.137	0.075
-531.091	292.419	-0.088	0.163
-530.077	116.913	-0.163	-0.203
-529.062	-99.183	0.115	0.029
-528.048	565.285	-0.074	-0.181
-527.033	47.698	-0.129	0.122
-526.018	-93.913	0.137	-0.038
-525.004	800.000	-0.079	-0.266
-523.989	-150.335	-0.008	0.001
-522.975	-164.388	-0.226	0.010
-521.960	688.862	0.180	0.478
-520.945	-200.000	-0.029	0.134
-519.931	800.000	-0.052	0.176
-518.916	-100.882	-0.241	0.060
-517.902	800.000	-0.039	-0.127
-516.887	494.784	0.120	0.278
-515.872	111.718	-0.128	0.156
-514.858	-112.174	-0.424	0.086
-513.843	-134.030	-0.365	0.046
-512.829	-36.065	-0.142	-0.078
-511.814	95.732	-0.052	-0.060
-510.799	-49.807	0.153	0.074
-509.785	19.668	0.247	0.202
-508.770	-33.350	-0.272	0.153
-507.756	800.000	-0.116	-0.344
-506.741	595.867	-0.107	-0.267
-505.726	44.551	0.104	-0.097
-504.712	-58.207	0.206	-0.091
-503.697	-200.000	-0.024	0.232
-502.683	472.291	0.086	0.197
-501.668	-169.426	0.236	-0.009
-500.653	-48.468	-0.218	-0.106
-499.639	17.811	-0.197	-0.159
-498.624	1.723	-0.110	-0.080
-497.610	-117.288	-0.299	-0.055
-496.595	-200.000	0.025	0.220
-495.581	-146.811	0.149	-0.013
-494.566	310.972	-0.141	-0.267
-493.551	684.719	0.128	0.337
-492.537	41.951	-0.175	-0.161
-491.522	-200.000	-0.045	-0.308
-490.508	800.000	0.066	0.193
-489.493	-102.152	0.132	0.032
-488.478	-4.116	-0.225	-0.158
-487.464	-98.939	0.076	-0.020
-486.449	7.011	0.216	-0.163
-485.435	77.617	-0.156	-0.168
-484.420	-100.128	-0.146	-0.037
-483.405	126.224	-0.099	0.127
-482.391	-200.000	-0.038	0.359
-481.376	-98.830	-0.178	-0.046
-480.362	-83.989	0.132	0.043
-479.347	52.477	-0.163	-0.158
-478.332	50.380	0.039	0.038
-477.318	-200.000	0.076	0.507
-476.303	-200.000	0.033	-0.167
-475.289	-87.636	-0.142	0.044
-474.274	800.000	-0.040	-0.172
-473.259	177.117	-0.077	-0.114
-472.245	401.679	-0.039	0.082
-471.230	24.476	0.082	-0.069
-470.216	-1.040	0.107	0.077
-469.201	158.381	0.064	-0.090
-468.186	-200.000	0.041	0.233
-467.172	17.184	-0.060	0.048
-466.157	-25.569	0.384	0.229
-465.143	-4.259	0.340	-0.238
-464.128	229.470	0.211	-0.349
-463.113	-193.140	0.131	-0.001
-462.099	138.863	0.120	0.159
-461.084	48.476	-0.209	-0.198
-460.070	-182.689	-0.140	-0.003
-459.055	666.319	-0.140	0.366
-458.040	45.626	0.273	0.255
-457.026	-8.854	-0.348	0.236
-456.011	-200.000	-0.034	-0.236
-454.997	221.234	-0.186	-0.301
-453.982	617.924	0.109	0.277
-452.968	25.537	0.100	-0.084
-451.953	-84.673	-0.255	0.081
-450.938	-200.000	0.011	0.121
-449.924	-200.000	-0.029	-0.253
-448.909	-137.236	-0.280	-0.032
-447.895	25.275	-0.244	-0.204
-446.880	800.000	0.087	0.267
-445.865	264.348	0.086	0.151
-444.851	-200.000	0.024	0.226
-443.836	63.662	0.138	0.140
-442.822	-200.000	0.018	0.218
-441.807	-120.627	0.156	-0.027
-440.792	40.850	-0.101	0.092
-439.778	148.005	0.117	-0.160
-438.763	103.332	0.030	0.036
-437.749	246.956	0.141	0.240
-436.734	-100.116	0.328	0.083
-435.719	-30.818	0.100	-0.057
-434.705	-150.793	0.172	-0.013
-433.690	336.710	-0.060	0.118
-432.676	-80.352	0.331	0.112
-431.661	23.086	-0.076	0.063
-430.646	800.000	0.061	-0.174
-429.632	-1.675	-0.238	0.170
-428.617	-105.663	0.168	0.038
-427.603	13.508	0.048	0.037
-426.588	-200.000	0.011	-0.110
-425.573	-25.320	0.135	0.081
-424.559	-14.423	0.091	-0.059
-423.544	-200.000	0.038	-0.241
-422.530	-43.638	0.143	-0.073
-421.515	-65.220	-0.098	0.040
-420.500	-174.017	-0.370	-0.011
-419.486	-53.103	0.104	-0.048
-418.471	-116.701	-0.141	-0.026
-417.457	-2.813	0.176	0.124
-416.442	-200.000	0.002	-0.258
-415.428	43.855	0.249	-0.230
-414.413	-193.804	0.159	0.001
-413.398	30.450	-0.304	0.262
-412.384	291.171	0.035	0.064
-411.369	-0.667	-0.195	0.140
-410.355	3.700	0.070	-0.051
-409.340	-76.883	0.119	0.042
-408.325	48.954	0.066	-0.062
-407.311	312.552	-0.048	-0.091
-406.296	800.000	-0.084	-0.293
-405.282	-152.130	0.276	-0.020
-404.267	-125.516	0.277	-0.042
-403.252	17.301	-0.083	0.066
-402.238	-114.714	0.335	-0.065
-401.223	6.212	-0.113	-0.084
-400.209	-165.773	0.185	0.008
-399.194	229.982	-0.092	0.151
-398.179	800.000	0.022	-0.068
-397.165	65.288	-0.090	0.092
-396.150	297.113	0.077	0.143
-395.136	-134.220	-0.184	0.023
-394.121	-200.000	0.054	-0.277
-393.106	-200.000	-0.007	0.146
-392.092	800.000	0.041	0.132
-391.077	-25.956	-0.116	-0.069
-390.063	135.245	-0.194	0.254
-389.048	-142.181	-0.336	-0.034
-388.033	267.175	-0.051	0.091
-387.019	165.557	-0.121	0.172
-386.004	87.933	0.335	-0.375
-384.990	-92.682	0.204	-0.057
-383.975	-200.000	-0.027	0.221
-382.960	415.728	0.099	0.212
-381.946	-160.149	-0.301	-0.016
-380.931	406.938	-0.096	-0.203
-379.917	-124.143	0.122	0.019
-378.902	-121.702	-0.212	0.035
-377.888	-200.000	-0.055	0.264
-376.873	61.356	0.135	0.135
-375.858	50.974	-0.237	-0.226
-374.844	-200.000	0.039	-0.206
-373.829	800.000	-0.080	0.247
-372.815	-149.701	0.240	-0.019
-371.800	-169.271	-0.212	0.008
-370.785	800.000	-0.052	-0.173
-369.771	279.467	-0.050	-0.090
-368.756	74.802	-0.147	-0.155
-367.742	30.206	0.346	0.298
-366.727	-141.451	-0.040	0.004
-365.712	-200.000	0.020	-0.171
-364.698	9.760	0.237	0.181
-363.683	-124.145	-0.141	0.022
-362.669	-189.060	-0.127	-0.002
-361.654	-163.805	0.359	0.017
-360.639	-200.000	-0.004	-0.136
-359.625	-50.146	-0.223	-0.106
-358.610	800.000	0.022	0.089
-357.596	-106.897	-0.139	0.031
-356.581	800.000	0.141	-0.415
-355.566	-118.953	0.142	-0.025
-354.552	-200.000	-0.059	0.298
-353.537	17.461	-0.138	-0.110
-352.523	394.110	0.122	-0.257
-351.508	-68.077	0.310	-0.122
-350.493	256.912	-0.185	0.320
-349.479	-117.852	0.153	0.028
-348.464	800.000	0.105	0.321
-347.450	303.247	-0.183	0.341
-346.435	-50.450	-0.315	-0.150
-345.420	800.000	0.116	-0.357
-344.406	-126.555	0.142	0.021
-343.391	800.000	0.056	-0.199
-342.377	-69.298	0.130	0.050
-341.362	-81.100	0.255	-0.085
-340.348	-27.010	-0.298	-0.175
-339.333	155.070	0.077	-0.106
-338.318	-41.007	0.176	-0.092
-337.304	-154.330	0.051	0.003
-336.289	-152.220	0.007	-0.000
-335.275	376.041	0.032	0.066
-334.260	-67.802	-0.137	0.054
-333.245	-17.832	-0.145	0.091
-332.231	-200.000	0.010	-0.099
-331.216	12.097	-0.068	-0.053
-330.202	595.200	0.091	0.227
-329.187	28.840	-0.265	0.226
-328.172	800.000	0.048	-0.198
-327.158	-118.130	0.105	0.019
-326.143	-89.765	-0.114	-0.034
-325.129	-200.000	-0.005	0.372
-324.114	800.000	0.099	0.336
-323.099	-200.000	-0.013	-0.108
-322.085	-119.628	-0.146	0.025
-321.070	-180.671	0.237	-0.005
-320.056	59.832	0.271	0.269
-319.041	-146.401	0.407	-0.036
-318.026	405.425	0.106	-0.225
-317.012	382.427	-0.064	-0.133
-315.997	-127.105	-0.106	-0.016
-314.983	656.117	-0.042	-0.109
-313.968	-1.848	0.141	-0.100
-312.953	223.687	0.046	0.075
-311.939	-200.000	-0.002	0.077
-310.924	-14.205	-0.143	0.092
-309.910	-200.000	-0.004	0.232
-308.895	-52.714	-0.115	0.053
-307.880	17.900	-0.330	-0.264
-306.866	464.733	-0.071	-0.159
-305.851	25.265	0.129	-0.108
-304.837	-105.159	-0.272	-0.062
-303.822	594.620	0.060	0.148
-302.807	-87.898	0.396	0.120
-301.793	94.199	0.270	-0.308
-300.778	-200.000	0.021	-0.337
-299.764	-60.393	-0.134	0.057
-298.749	-37.150	-0.179	0.096
-297.735	800.000	0.014	-0.057
-296.720	-87.651	0.291	-0.088
-295.705	20.643	-0.324	0.264
-294.691	-66.177	-0.305	0.122
-293.676	37.067	0.172	-0.153
-292.662	68.844	0.208	0.214
-291.647	-44.626	-0.212	-0.106
-290.632	-105.441	0.447	-0.102
-289.618	-127.923	0.411	0.059
-288.603	-200.000	0.024	0.201
-287.589	-13.814	-0.083	0.054
-286.574	239.867	-0.160	0.267
-285.559	-50.403	-0.256	-0.121
-284.545	-26.098	0.078	-0.046
-283.530	-67.607	-0.153	0.060
-282.516	42.030	-0.118	-0.108
-281.501	-36.267	0.402	-0.217
-280.486	-97.317	0.253	0.066
-279.472	453.735	-0.138	-0.307
-278.457	800.000	0.057	-0.180
-277.443	121.516	-0.238	0.298
-276.428	-92.330	0.071	0.020
-275.413	-107.848	-0.093	-0.020
-274.399	169.880	-0.098	-0.140
-273.384	-68.086	-0.236	-0.092
-272.370	-87.283	0.081	0.025
-271.355	800.000	-0.069	0.198
-270.340	-200.000	-0.005	-0.316
-269.326	147.125	0.181	0.245
-268.311	-21.902	0.220	0.134
-267.297	-126.858	0.218	-0.032
-266.282	-80.281	0.457	0.153
-265.267	-49.844	0.034	0.016
-264.253	179.982	-0.120	-0.177
-263.238	800.000	0.013	-0.038
-262.224	40.379	-0.317	-0.287
-261.209	800.000	0.073	-0.235
-260.195	-200.000	-0.003	0.064
-259.180	-99.517	0.283	-0.071
-258.165	77.609	0.179	0.191
-257.151	326.999	0.165	-0.316
-256.136	-200.000	-0.024	0.303
-255.122	107.249	0.129	0.154
-254.107	-18.431	-0.100	-0.063
-253.092	-200.000	0.025	0.244
-252.078	246.038	-0.105	0.178
-251.063	-66.200	0.213	0.085
-250.049	800.000	0.021	-0.073
-249.034	-200.000	0.017	-0.169
-248.019	-130.242	0.262	-0.036
-247.005	84.896	-0.093	-0.102
-245.990	-200.000	-0.004	-0.107
-244.976	-0.731	-0.277	-0.197
-243.961	-66.950	0.045	-0.018
-242.946	-58.768	0.147	0.064
-241.932	-67.864	-0.105	-0.041
-240.917	-78.743	0.162	-0.056
-239.903	259.688	-0.138	-0.238
-238.888	-143.787	0.180	0.017
-237.873	800.000	-0.056	0.193
-236.859	229.798	-0.054	0.089
-235.844	800.000	-0.027	-0.087
-234.830	800.000	-0.055	-0.162
-233.815	-47.501	-0.027	-0.013
-232.800	37.458	0.126	0.112
-231.786	-200.000	0.014	-0.176
-230.771	476.222	0.138	-0.312
-229.757	327.868	0.193	0.370
-228.742	88.623	-0.323	0.359
-227.727	-47.480	-0.206	0.100
-226.713	-18.703	0.273	0.170
-225.698	-45.155	0.162	-0.081
-224.684	800.000	-0.054	0.212
-223.669	-56.674	-0.246	-0.109
-222.655	220.481	0.116	0.186
-221.640	463.251	0.040	0.089
-220.625	472.144	0.071	0.160
-219.611	90.269	-0.275	-0.308
-218.596	800.000	-0.029	-0.104
-217.582	800.000	0.012	0.051
-216.567	656.313	0.040	0.103
-215.552	63.800	-0.081	-0.081
-214.538	160.145	-0.032	-0.044
-213.523	800.000	-0.103	0.328
-212.509	-67.906	0.233	0.091
-211.494	-99.585	-0.275	0.069
-210.479	-200.000	-0.004	-0.136
-209.465	800.000	0.098	0.322
-208.450	-148.601	-0.253	-0.021
-207.436	-42.794	0.371	0.189
-206.421	800.000	0.054	-0.151
-205.406	-73.753	-0.211	-0.077
-204.392	-50.715	-0.320	0.151
-203.377	74.099	0.205	0.216
-202.363	112.214	-0.199	-0.241
-201.348	800.000	-0.033	0.121
-200.333	464.064	0.129	-0.289
-199.319	-189.901	0.133	0.002
-198.304	-100.754	0.292	0.072
-197.290	-200.000	0.032	-0.162
-196.275	43.402	0.183	0.167
-195.260	-200.000	-0.006	0.089
-194.246	78.973	-0.072	-0.077
-193.231	800.000	-0.039	0.158
-192.217	-200.000	-0.002	0.358
-191.202	246.169	0.144	-0.244
-190.187	464.532	0.099	-0.221
-189.173	-78.519	-0.378	-0.130
-188.158	-200.000	-0.004	-0.079
-187.144	199.746	-0.081	-0.125
-186.129	-200.000	-0.017	0.098
-185.114	-57.504	-0.075	-0.033
-184.100	303.049	-0.080	0.148
-183.085	-200.000	0.007	0.180
-182.071	-59.653	0.126	0.054
-181.056	674.520	-0.054	-0.141
-180.042	-131.116	-0.096	0.013
-179.027	27.102	-0.336	-0.282
-178.012	577.961	0.081	-0.199
-176.998	89.595	-0.076	-0.085
-175.983	-112.667	-0.142	0.028
-174.969	800.000	-0.077	-0.335
-173.954	-69.815	-0.208	-0.079
-172.939	118.881	0.245	-0.302
-171.925	7.095	-0.314	-0.234
-170.910	-54.796	-0.237	0.107
-169.896	-96.921	0.408	0.107
-168.881	754.823	0.077	-0.208
-167.866	414.344	0.080	-0.170
-166.852	168.589	-0.315	0.448
-165.837	-200.000	0.026	0.287
-164.823	-200.000	-0.018	0.093
-163.808	87.229	0.207	0.229
-162.793	-62.530	-0.212	0.088
-161.779	800.000	0.025	0.083
-160.764	11.664	-0.215	-0.165
-159.750	-178.250	0.150	0.004
-158.735	800.000	0.074	-0.207
-157.720	288.848	-0.188	0.341
-156.706	-200.000	0.014	-0.213
-155.691	800.000	0.121	-0.422
-154.677	164.431	-0.005	0.006
-153.662	-104.213	-0.174	-0.040
-152.647	800.000	-0.089	0.352
-151.633	-41.497	0.238	-0.122
-150.618	-119.357	0.344	-0.060
-149.604	162.760	-0.057	-0.080
-148.589	78.009	-0.181	-0.193
-147.574	-148.086	0.062	0.005
-146.560	-58.083	0.281	0.122
-145.545	316.425	-0.113	0.212
-144.531	-200.000	-0.008	0.293
-143.516	28.962	0.388	0.329
-142.502	-200.000	-0.012	0.139
-141.487	-156.200	0.219	0.014
-140.472	-83.027	0.414	-0.133
-139.458	-200.000	-0.020	-0.345
-138.443	130.708	0.102	0.130
-137.429	625.731	0.053	-0.135
-136.414	-200.000	0.113	0.000
-135.399	-50.974	-0.058	0.027
-134.385	-68.586	0.161	-0.062
-133.370	11.941	-0.236	-0.181
-132.356	-10.394	-0.126	0.083
-131.341	-42.920	-0.354	0.179
-130.326	800.000	-0.115	-0.330
-129.312	-41.687	-0.159	0.081
-128.297	-39.611	-0.047	-0.025
-127.283	-22.585	-0.387	-0.233
-126.268	-200.000	-0.039	-0.310
-125.253	-64.443	-0.187	0.076
-124.239	569.533	-0.014	0.034
-123.224	66.951	0.175	-0.177
-122.210	362.412	0.088	0.176
-121.195	62.562	-0.144	0.143
