DTS Sentinel unit serial number:	SN413079Multiplexer serial number:	ORYXHardware model number:	OX4-SRSoftware version number:	ORYX F/W v4.00 Oryx Data Collector v3.7.2.0data status	okinstallation	princeton_trtdifferential loss correction	single-endedforward channel	channel 1reverse channel	N/Adate	2019/09/13time	18:50:35forward acquisition time	60.00reverse acquisition time	0.00gamma	496.2192k internal	0.2320k external	0.2320temperature offset calibration	1.0123default loss term (dB/km)	0.3790temperature slope calibration	1.0000multiplexer offset coefficient	1.0000multiplexer slope coefficient	1.0000fibre end	0.00T internal ref (°C)	32.37T ext. ref 1 (°C)	4.04T ext. ref 2 (°C)	25.64length (m)	temperature (°C)	Stokes	anti-Stokes-747.200	-90.012	0.089	0.026
-746.185	732.608	0.072	0.194
-745.171	-56.592	0.181	0.081
-744.156	-70.238	-0.110	-0.042
-743.142	-200.000	0.021	0.294
-742.127	-38.332	0.176	-0.094
-741.112	238.383	-0.152	0.255
-740.098	190.672	-0.204	0.310
-739.083	-43.803	0.177	-0.090
-738.069	12.796	-0.218	0.170
-737.054	-200.000	0.024	-0.237
-736.039	182.097	0.077	-0.114
-735.025	800.000	-0.072	-0.283
-734.010	-53.446	-0.259	-0.120
-732.996	-52.265	-0.158	-0.074
-731.981	-127.179	-0.163	0.024
-730.966	86.062	-0.147	-0.164
-729.952	-136.375	-0.350	-0.041
-728.937	477.435	0.071	-0.162
-727.923	112.825	-0.159	-0.194
-726.908	274.001	0.092	0.164
-725.894	24.429	0.048	-0.040
-724.879	207.728	-0.168	-0.265
-723.864	-151.090	-0.242	0.018
-722.850	524.494	-0.075	0.179
-721.835	227.873	-0.211	0.346
-720.821	-108.793	0.031	-0.007
-719.806	347.894	-0.055	-0.110
-718.791	86.274	0.065	0.073
-717.777	-115.056	0.299	0.057
-716.762	-12.667	-0.111	-0.073
-715.748	800.000	-0.081	0.239
-714.733	46.434	-0.266	-0.249
-713.718	-124.823	0.093	0.014
-712.704	-200.000	-0.024	-0.144
-711.689	-59.945	-0.090	-0.039
-710.675	-200.000	-0.032	0.211
-709.660	-140.611	0.504	-0.053
-708.645	179.283	0.077	0.114
-707.631	-200.000	-0.003	0.083
-706.616	246.659	0.197	-0.336
-705.602	666.454	0.117	-0.304
-704.587	-147.002	0.446	0.039
-703.572	250.827	0.096	-0.165
-702.558	-94.642	-0.305	-0.084
-701.543	240.594	0.133	-0.223
-700.529	-140.548	0.237	-0.025
-699.514	-200.000	-0.002	-0.192
-698.499	-83.496	0.240	0.077
-697.485	-200.000	0.005	0.229
-696.470	-10.754	0.105	0.070
-695.456	19.897	-0.082	-0.066
-694.441	-200.000	0.006	-0.055
-693.426	619.655	-0.088	0.223
-692.412	800.000	0.047	0.200
-691.397	255.306	-0.205	0.354
-690.383	-25.942	-0.184	0.109
-689.368	-102.969	-0.219	0.052
-688.354	-105.895	0.351	0.080
-687.339	-51.365	0.170	0.080
-686.324	-54.778	0.185	-0.084
-685.310	-49.367	-0.155	-0.075
-684.295	800.000	0.025	0.088
-683.281	-200.000	0.018	0.172
-682.266	-164.416	-0.258	-0.012
-681.251	100.702	-0.072	0.085
-680.237	-175.978	-0.312	-0.008
-679.222	-200.000	-0.047	0.350
-678.208	-116.947	-0.299	0.055
-677.193	-40.376	0.124	0.065
-676.178	-100.341	-0.370	0.093
-675.164	62.352	-0.171	0.173
-674.149	-200.000	0.004	-0.246
-673.135	209.170	0.087	0.137
-672.120	800.000	-0.012	0.040
-671.105	-200.000	0.015	-0.161
-670.091	-89.469	-0.114	-0.034
-669.076	211.122	0.148	-0.235
-668.062	-143.892	0.135	-0.013
-667.047	242.491	0.063	-0.105
-666.032	281.927	-0.096	-0.174
-665.018	800.000	0.081	-0.253
-664.003	-115.512	-0.364	0.069
-662.989	-27.924	-0.030	0.018
-661.974	-77.541	-0.039	-0.014
-660.959	322.715	0.092	-0.177
-659.945	291.963	-0.093	0.170
-658.930	217.898	0.147	0.236
-657.916	-157.485	0.278	-0.017
-656.901	-53.325	-0.506	0.234
-655.886	246.036	-0.127	0.215
-654.872	-88.951	0.077	0.023
-653.857	35.815	0.382	-0.339
-652.843	-200.000	0.016	-0.218
-651.828	-200.000	0.051	-0.307
-650.814	40.646	-0.083	-0.075
-649.799	-25.476	-0.153	-0.091
-648.784	633.720	-0.067	-0.170
-647.770	357.030	0.147	-0.296
-646.755	-200.000	-0.030	-0.183
-645.741	59.784	0.133	0.132
-644.726	-71.033	-0.310	0.117
-643.711	-27.225	0.290	-0.170
-642.697	15.416	-0.300	-0.237
-641.682	226.696	0.123	0.202
-640.668	-86.926	-0.282	0.087
-639.653	-82.501	0.170	-0.055
-638.638	240.511	-0.153	0.257
-637.624	-133.714	0.167	-0.021
-636.609	800.000	0.095	-0.366
-635.595	12.781	-0.198	0.154
-634.580	755.841	0.020	0.053
-633.565	-172.042	-0.279	-0.009
-632.551	-16.014	0.344	-0.220
-631.536	108.105	0.110	-0.132
-630.522	-43.201	0.105	-0.054
-629.507	-38.707	0.235	0.125
-628.492	-116.042	0.084	0.016
-627.478	-200.000	0.007	0.122
-626.463	11.843	0.160	0.124
-625.449	-73.075	-0.212	0.078
-624.434	-160.218	0.154	-0.008
-623.419	-80.102	-0.196	-0.066
-622.405	-200.000	0.016	0.090
-621.390	-200.000	0.039	0.177
-620.376	312.528	0.074	-0.139
-619.361	121.662	-0.243	0.305
-618.346	38.997	-0.070	-0.063
-617.332	134.517	-0.147	-0.191
-616.317	-76.725	-0.076	-0.027
-615.303	-25.543	0.288	0.171
-614.288	800.000	-0.026	-0.108
-613.273	-200.000	0.014	-0.127
-612.259	110.597	-0.108	-0.131
-611.244	-200.000	-0.045	-0.307
-610.230	-74.593	-0.031	-0.011
-609.215	800.000	-0.113	-0.345
-608.201	-180.133	0.163	-0.003
-607.186	800.000	-0.062	0.270
-606.171	-142.786	-0.333	-0.033
-605.157	-200.000	-0.040	0.219
-604.142	117.570	0.133	0.165
-603.128	792.182	-0.118	-0.326
-602.113	-92.007	-0.319	-0.091
-601.098	-36.609	0.142	0.077
-600.084	-127.185	0.124	-0.018
-599.069	237.298	-0.107	-0.179
-598.055	-200.000	0.054	0.374
-597.040	-35.100	-0.043	0.024
-596.025	-200.000	-0.044	-0.433
-595.011	-27.414	-0.204	0.119
-593.996	-25.468	-0.327	0.194
-592.982	21.975	-0.054	0.044
-591.967	131.418	-0.090	0.116
-590.952	347.042	-0.110	0.217
-589.938	109.064	-0.121	0.145
-588.923	42.253	0.175	0.159
-587.909	-200.000	-0.028	-0.272
-586.894	70.625	0.082	0.085
-585.879	18.142	-0.315	0.252
-584.865	-153.999	-0.104	0.007
-583.850	-91.542	0.216	0.062
-582.836	800.000	0.099	0.328
-581.821	-65.251	0.159	-0.064
-580.806	74.676	0.187	0.198
-579.792	-21.882	-0.275	0.168
-578.777	5.036	-0.128	0.095
-577.763	-128.404	0.217	0.031
-576.748	266.389	-0.152	0.266
-575.733	-107.324	-0.143	-0.032
-574.719	-146.129	-0.162	0.014
-573.704	800.000	-0.059	0.225
-572.690	-139.308	-0.277	0.030
-571.675	-169.505	0.395	0.014
-570.661	-69.712	-0.128	-0.049
-569.646	33.960	-0.171	-0.149
-568.631	-64.266	0.284	-0.116
-567.617	800.000	-0.058	0.207
-566.602	-200.000	-0.018	-0.456
-565.588	472.115	0.050	-0.112
-564.573	-103.856	0.128	0.030
-563.558	-200.000	-0.024	-0.244
-562.544	175.944	0.053	0.077
-561.529	199.693	0.101	-0.156
-560.515	-148.164	-0.229	0.019
-559.500	-24.656	-0.160	-0.096
-558.485	-64.867	0.102	-0.042
-557.471	393.326	0.014	0.030
-556.456	512.982	0.092	-0.216
-555.442	315.128	0.067	-0.126
-554.427	-200.000	-0.026	-0.237
-553.412	33.865	-0.192	0.167
-552.398	-200.000	0.018	-0.207
-551.383	18.903	-0.129	-0.104
-550.369	179.185	0.069	-0.101
-549.354	-125.960	-0.356	-0.054
-548.339	-130.596	0.330	0.045
-547.325	-15.662	-0.321	-0.205
-546.310	117.694	-0.137	-0.170
-545.296	-138.537	-0.099	-0.011
-544.281	240.628	-0.130	-0.217
-543.266	443.821	-0.055	0.121
-542.252	429.731	0.199	0.431
-541.237	15.324	0.258	-0.203
-540.223	-132.044	0.405	0.053
-539.208	-64.398	0.093	-0.038
-538.193	384.244	0.114	0.236
-537.179	-22.568	0.236	0.143
-536.164	119.756	0.161	-0.200
-535.150	-100.249	0.279	0.070
-534.135	-53.129	0.176	0.081
-533.121	800.000	0.106	0.464
-532.106	-200.000	-0.043	-0.222
-531.091	-165.068	0.255	0.011
-530.077	-200.000	-0.039	0.469
-529.062	285.525	0.093	-0.168
-528.048	-85.332	0.294	0.092
-527.033	-108.974	0.367	-0.078
-526.018	377.254	0.125	0.257
-525.004	800.000	0.036	0.152
-523.989	-120.683	-0.394	-0.067
-522.975	31.147	-0.101	-0.087
-521.960	-64.176	-0.117	0.048
-520.945	185.889	0.047	-0.070
-519.931	68.221	-0.022	0.023
-518.916	-129.027	0.089	-0.013
-517.902	-12.854	0.399	0.261
-516.887	169.935	-0.073	-0.104
-515.872	109.463	0.057	0.068
-514.858	337.497	-0.041	-0.081
-513.843	232.535	0.185	0.305
-512.829	-121.140	-0.239	0.040
-511.814	379.120	-0.196	0.403
-510.799	466.493	0.045	0.100
-509.785	203.806	0.139	-0.215
-508.770	49.102	0.087	-0.082
-507.756	406.682	0.025	0.053
-506.741	82.648	0.151	-0.164
-505.726	-66.167	-0.065	0.026
-504.712	-40.720	0.361	0.187
-503.697	58.391	0.315	0.309
-502.683	-200.000	0.003	0.294
-501.668	-143.263	0.125	0.012
-500.653	800.000	0.075	-0.269
-499.639	50.994	-0.105	-0.099
-498.624	415.530	-0.072	-0.154
-497.610	-184.396	-0.116	0.002
-496.595	426.989	-0.051	0.110
-495.581	-1.239	0.210	-0.148
-494.566	-139.510	-0.242	-0.026
-493.551	-200.000	-0.067	0.346
-492.537	1.982	0.202	0.146
-491.522	284.793	-0.173	-0.311
-490.508	176.257	-0.224	-0.326
-489.493	-35.542	0.189	-0.103
-488.478	93.527	-0.145	-0.165
-487.464	521.385	0.052	-0.122
-486.449	-68.870	-0.197	-0.076
-485.435	78.637	0.140	-0.150
-484.420	800.000	0.079	-0.241
-483.405	800.000	0.032	0.115
-482.391	310.143	0.081	-0.152
-481.376	184.026	0.159	-0.236
-480.362	-58.503	0.142	0.062
-479.347	-135.421	0.079	-0.009
-478.332	64.757	-0.069	-0.070
-477.318	45.437	-0.200	0.185
-476.303	61.804	0.279	-0.278
-475.289	-75.242	-0.349	0.125
-474.274	800.000	0.050	0.145
-473.259	225.076	-0.164	-0.265
-472.245	800.000	0.046	0.165
-471.230	280.470	0.110	0.198
-470.216	800.000	0.063	0.250
-469.201	-200.000	-0.024	-0.296
-468.186	-200.000	-0.011	-0.109
-467.172	800.000	0.027	-0.092
-466.157	-200.000	0.014	-0.153
-465.143	800.000	-0.064	-0.269
-464.128	-30.935	-0.154	-0.087
-463.113	-95.752	0.264	0.070
-462.099	-3.640	0.052	-0.036
-461.084	176.771	-0.191	-0.278
-460.070	800.000	0.082	0.247
-459.055	-36.712	0.207	-0.111
-458.040	2.369	-0.624	-0.452
-457.026	90.580	0.078	-0.088
-456.011	-49.751	0.324	-0.154
-454.997	-30.691	-0.113	-0.064
-453.982	-200.000	0.002	0.095
-452.968	57.060	-0.173	-0.169
-451.953	-200.000	-0.006	0.076
-450.938	153.379	-0.051	0.069
-449.924	259.807	-0.124	0.213
-448.909	213.798	-0.115	-0.182
-447.895	83.491	0.129	0.141
-446.880	800.000	0.045	-0.188
-445.865	-3.128	0.271	0.189
-444.851	-200.000	0.053	0.452
-443.836	35.386	0.099	0.087
-442.822	49.953	0.085	-0.080
-441.807	-51.638	-0.188	-0.088
-440.792	55.970	0.149	-0.145
-439.778	-200.000	0.014	-0.213
-438.763	80.517	0.138	0.148
-437.749	5.365	-0.304	0.224
-436.734	-126.720	-0.233	-0.034
-435.719	22.822	-0.310	0.254
-434.705	267.752	-0.145	0.254
-433.690	-28.519	0.202	-0.116
-432.676	471.793	0.096	-0.215
-431.661	176.431	0.049	0.070
-430.646	-200.000	0.069	-0.326
-429.632	-200.000	0.003	0.089
-428.617	-200.000	-0.096	0.000
-427.603	-50.814	0.152	-0.071
-426.588	-60.659	0.078	-0.033
-425.573	187.296	0.218	0.325
-424.559	-200.000	0.063	-0.335
-423.544	-23.171	0.206	-0.124
-422.530	531.364	-0.143	-0.338
-421.515	-163.115	-0.394	0.019
-420.500	167.246	0.192	0.272
-419.486	-49.852	0.062	0.029
-418.471	-108.146	-0.386	0.083
-417.457	54.182	-0.145	-0.139
-416.442	-137.330	-0.170	0.019
-415.428	-117.967	0.113	0.020
-414.413	-0.176	0.152	-0.108
-413.398	80.327	0.265	0.285
-412.384	-76.129	-0.278	0.098
-411.369	-21.386	0.048	0.029
-410.355	-149.793	0.011	0.001
-409.340	-138.787	0.148	0.016
-408.325	535.745	-0.048	0.114
-407.311	462.864	-0.038	0.085
-406.296	-54.045	-0.070	0.032
-405.282	-200.000	-0.025	0.117
-404.267	-200.000	0.034	0.207
-403.252	-200.000	0.004	0.173
-402.238	-87.313	0.296	-0.090
-401.223	-118.364	-0.265	0.047
-400.209	-120.685	0.303	0.051
-399.194	800.000	0.027	-0.074
-398.179	586.777	0.045	-0.112
-397.165	-200.000	0.010	-0.205
-396.150	-16.066	-0.217	-0.137
-395.136	-114.190	0.088	0.017
-394.121	0.655	-0.125	0.089
-393.106	-130.714	-0.345	-0.046
-392.092	-94.473	0.331	-0.090
-391.077	303.144	-0.270	-0.499
-390.063	194.416	0.134	-0.203
-389.048	-200.000	-0.015	0.146
-388.033	-160.971	0.158	0.008
-387.019	-51.146	-0.250	-0.117
-386.004	77.043	-0.204	-0.216
-384.990	-64.544	0.179	-0.072
-383.975	-200.000	0.026	-0.123
-382.960	616.247	-0.052	-0.131
-381.946	205.811	-0.004	0.007
-380.931	10.533	0.188	-0.143
-379.917	572.708	0.096	-0.234
-378.902	-41.764	0.066	0.034
-377.888	30.829	0.234	0.200
-376.873	16.061	-0.247	-0.194
-375.858	20.929	-0.229	-0.185
-374.844	-200.000	-0.027	0.133
-373.829	178.363	-0.038	-0.056
-372.815	-200.000	0.009	-0.134
-371.800	-200.000	-0.032	-0.240
-370.785	-172.353	0.152	0.005
-369.771	-63.219	-0.296	0.122
-368.756	399.466	-0.072	-0.151
-367.742	-35.908	0.039	-0.021
-366.727	-143.464	0.269	0.026
-365.712	109.841	-0.115	0.137
-364.698	-68.905	0.124	0.048
-363.683	389.271	0.037	0.075
-362.669	-130.036	-0.058	-0.008
-361.654	-200.000	0.012	0.077
-360.639	106.014	-0.043	-0.051
-359.625	-24.597	0.131	-0.078
-358.610	90.959	0.209	-0.233
-357.596	-169.789	0.235	0.008
-356.581	22.793	0.101	-0.082
-355.566	133.177	-0.066	0.085
-354.552	-6.132	-0.175	-0.119
-353.537	1.301	-0.154	-0.110
-352.523	-133.552	-0.271	0.034
-351.508	39.067	0.284	-0.253
-350.493	-200.000	0.029	0.205
-349.479	-90.217	-0.223	-0.064
-348.464	297.585	0.243	-0.444
-347.450	-30.607	-0.265	-0.149
-346.435	8.362	0.217	0.162
-345.420	25.130	-0.332	0.274
-344.406	9.284	0.147	-0.111
-343.391	-165.439	0.301	-0.013
-342.377	71.011	0.262	-0.271
-341.362	137.069	0.073	-0.094
-340.348	800.000	0.114	0.344
-339.333	9.661	0.119	-0.090
-338.318	-31.350	0.272	0.152
-337.304	255.921	-0.035	-0.059
-336.289	-75.174	0.331	0.118
-335.275	-57.750	-0.107	0.047
-334.260	494.120	0.088	-0.201
-333.245	-200.000	-0.014	-0.282
-332.231	800.000	0.086	0.237
-331.216	-95.927	0.083	-0.022
-330.202	-200.000	0.009	-0.162
-329.187	800.000	0.056	0.197
-328.172	-200.000	0.036	0.305
-327.158	-200.000	-0.044	0.305
-326.143	-126.218	-0.309	0.046
-325.129	-200.000	0.009	0.178
-324.114	8.014	-0.079	-0.059
-323.099	35.389	-0.065	-0.057
-322.085	216.736	-0.209	0.331
-321.070	-71.779	-0.462	0.171
-320.056	677.988	-0.104	-0.268
-319.041	224.110	-0.101	0.162
-318.026	-18.588	0.212	0.132
-317.012	232.640	0.156	0.254
-315.997	-32.540	0.289	0.160
-314.983	-200.000	-0.017	-0.099
-313.968	-17.670	-0.297	0.186
-312.953	-174.207	0.227	-0.007
-311.939	-200.000	0.048	-0.347
-310.924	-184.931	-0.352	-0.006
-309.910	-117.851	-0.117	-0.021
-308.895	800.000	-0.082	0.320
-307.880	-168.008	-0.368	-0.014
-306.866	242.494	0.092	-0.153
-305.851	31.000	-0.239	-0.204
-304.837	-74.329	0.088	0.031
-303.822	90.284	-0.081	0.090
-302.807	-26.234	0.138	-0.081
-301.793	-21.560	-0.335	-0.203
-300.778	-200.000	0.038	-0.227
-299.764	-0.747	0.084	0.059
-298.749	104.581	-0.060	-0.071
-297.735	60.510	-0.251	0.247
-296.720	-200.000	0.003	-0.260
-295.705	-44.402	-0.258	-0.128
-294.691	198.123	-0.182	0.277
-293.676	-124.639	0.102	-0.016
-292.662	800.000	-0.040	0.152
-291.647	800.000	0.069	0.206
-290.632	275.593	-0.182	0.321
-289.618	115.401	-0.075	-0.092
-288.603	800.000	-0.114	0.367
-287.589	70.242	0.378	0.387
-286.574	-88.308	-0.058	-0.017
-285.559	800.000	0.017	-0.064
-284.545	227.121	-0.113	-0.182
-283.530	173.018	-0.052	-0.074
-282.516	-200.000	-0.008	0.336
-281.501	553.152	-0.152	0.362
-280.486	145.494	-0.191	0.254
-279.472	23.184	-0.034	0.028
-278.457	800.000	-0.062	0.175
-277.443	-200.000	-0.241	0.001
-276.428	31.596	-0.235	0.201
-275.413	800.000	-0.067	0.230
-274.399	-87.620	0.172	0.052
-273.384	267.219	-0.129	-0.223
-272.370	16.269	-0.019	0.015
-271.355	34.187	-0.041	0.036
-270.340	-56.026	-0.155	0.069
-269.326	12.145	0.225	0.172
-268.311	33.270	-0.117	0.100
-267.297	515.560	-0.179	0.415
-266.282	800.000	0.112	0.352
-265.267	-200.000	0.050	-0.282
-264.253	-200.000	-0.005	-0.030
-263.238	800.000	0.064	-0.217
-262.224	-200.000	-0.011	-0.050
-261.209	-87.925	0.204	0.061
-260.195	-57.931	0.289	-0.125
-259.180	-69.882	-0.126	-0.048
-258.165	37.463	0.111	-0.098
-257.151	58.618	0.164	-0.159
-256.136	418.936	-0.088	0.186
-255.122	-166.800	-0.234	-0.010
-254.107	709.139	0.111	0.290
-253.092	-200.000	-0.004	-0.055
-252.078	-47.538	-0.160	0.077
-251.063	-200.000	0.023	-0.498
-250.049	-200.000	-0.001	0.251
-249.034	342.007	-0.209	0.405
-248.019	129.483	-0.233	0.295
-247.005	-120.153	0.184	0.031
-245.990	-98.296	-0.148	0.038
-244.976	29.108	0.180	0.151
-243.961	-24.160	0.211	-0.125
-242.946	-200.000	0.033	0.233
-241.932	-122.123	0.223	0.036
-240.917	293.665	-0.060	0.108
-239.903	-200.000	-0.022	-0.236
-238.888	26.095	0.163	-0.135
-237.873	-56.409	-0.190	-0.084
-236.859	-113.229	0.258	0.050
-235.844	238.962	-0.074	0.122
-234.830	335.743	0.083	0.160
-233.815	-15.145	-0.171	0.109
-232.800	286.569	-0.223	-0.399
-231.786	-200.000	-0.025	-0.269
-230.771	9.245	0.149	-0.112
-229.757	30.572	0.157	0.133
-228.742	81.542	0.069	-0.074
-227.727	-168.586	-0.086	0.003
-226.713	-80.273	0.029	0.010
-225.698	187.492	0.139	0.205
-224.684	-200.000	0.032	-0.264
-223.669	158.074	-0.107	-0.148
-222.655	66.947	0.088	-0.089
-221.640	-53.983	0.094	-0.042
-220.625	-61.090	-0.237	-0.099
-219.611	84.034	-0.181	0.196
-218.596	-200.000	-0.011	0.208
-217.582	-72.691	-0.183	-0.067
-216.567	-200.000	0.014	0.127
-215.552	-200.000	-0.019	-0.528
-214.538	-200.000	0.016	-0.472
-213.523	274.754	0.069	0.121
-212.509	800.000	-0.014	-0.043
-211.494	-37.880	-0.114	-0.060
-210.479	-167.952	0.373	-0.014
-209.465	-125.826	0.126	-0.019
-208.450	-140.192	0.140	0.014
-207.436	-200.000	-0.011	-0.170
-206.421	6.940	-0.217	0.160
-205.406	-200.000	-0.006	0.212
-204.392	322.214	-0.026	-0.050
-203.377	-32.526	0.282	0.155
-202.363	-197.699	0.083	-0.001
-201.348	164.505	-0.137	0.191
-200.333	-40.390	0.045	-0.023
-199.319	-122.938	-0.306	0.049
-198.304	-48.589	-0.031	-0.015
-197.290	-4.034	0.145	-0.099
-196.275	-165.090	0.035	-0.002
-195.260	-200.000	0.004	-0.521
-194.246	-71.339	0.134	0.050
-193.231	-65.552	-0.360	-0.143
-192.217	-200.000	0.006	-0.065
-191.202	-141.510	0.075	-0.007
-190.187	118.118	-0.043	-0.052
-189.173	-121.483	0.211	-0.035
-188.158	-200.000	0.020	0.293
-187.144	-59.035	-0.315	-0.134
-186.129	-94.755	0.238	0.064
-185.114	211.527	-0.165	-0.257
-184.100	-178.198	-0.195	0.005
-183.085	-129.019	0.427	0.059
-182.071	800.000	-0.012	0.032
-181.056	-200.000	0.018	-0.115
-180.042	338.372	-0.166	0.320
-179.027	-36.973	-0.238	-0.126
-178.012	245.191	-0.043	0.072
-176.998	-83.863	0.044	-0.014
-175.983	-77.458	0.207	-0.071
-174.969	-42.681	0.445	0.224
-173.954	-14.223	-0.285	-0.182
-172.939	-200.000	0.060	-0.452
-171.925	-200.000	-0.042	0.334
-170.910	-131.104	-0.208	-0.027
-169.896	99.975	-0.165	0.189
-168.881	-14.933	0.273	0.173
-167.866	-200.000	-0.027	-0.278
-166.852	116.390	0.050	-0.060
-165.837	-200.000	-0.055	0.280
-164.823	-86.694	0.430	-0.130
-163.808	381.197	-0.101	-0.206
-162.793	800.000	-0.039	-0.136
-161.779	-158.819	0.296	-0.017
-160.764	-83.243	0.142	-0.045
-159.750	-200.000	0.025	0.199
-158.735	109.791	0.084	-0.099
-157.720	800.000	-0.072	0.303
-156.706	-200.000	0.021	-0.116
-155.691	800.000	-0.072	0.309
-154.677	-39.394	-0.146	0.076
-153.662	681.926	0.057	-0.147
-152.647	6.175	-0.144	-0.106
-151.633	52.434	0.357	0.336
-150.618	718.682	0.124	-0.326
-149.604	261.827	0.112	-0.191
-148.589	273.221	0.037	-0.065
-147.574	548.146	0.051	-0.120
-146.560	-111.200	0.198	-0.040
-145.545	-112.975	0.351	-0.069
-144.531	-200.000	-0.007	0.049
-143.516	-141.199	-0.082	-0.008
-142.502	800.000	-0.004	0.019
-141.487	-200.000	0.045	0.223
-140.472	-51.349	0.100	0.046
-139.458	69.334	-0.200	-0.203
-138.443	-49.523	-0.277	-0.130
-137.429	221.320	0.103	0.163
-136.414	-200.000	-0.051	-0.300
-135.399	213.475	-0.108	0.168
-134.385	-200.000	0.035	0.295
-133.370	-96.179	-0.243	0.064
-132.356	21.943	0.238	0.192
-131.341	206.726	-0.190	0.292
-130.326	800.000	-0.055	-0.159
-129.312	517.657	-0.103	0.238
-128.297	-147.541	-0.277	-0.023
-127.283	204.456	0.167	-0.256
-126.268	74.961	-0.064	0.066
-125.253	-200.000	0.006	0.101
-124.239	-27.150	-0.287	0.165
-123.224	89.609	0.185	0.203
-122.210	-133.788	-0.179	0.022
-121.195	691.528	-0.113	-0.292
