DTS Sentinel unit serial number:	SN413079Multiplexer serial number:	ORYXHardware model number:	OX4-SRSoftware version number:	ORYX F/W v4.00 Oryx Data Collector v3.7.2.0data status	okinstallation	princeton_trtdifferential loss correction	single-endedforward channel	channel 1reverse channel	N/Adate	2019/09/16time	23:10:35forward acquisition time	60.00reverse acquisition time	0.00gamma	496.2192k internal	0.2326k external	0.2326temperature offset calibration	0.9962default loss term (dB/km)	0.3790temperature slope calibration	1.0000multiplexer offset coefficient	1.0000multiplexer slope coefficient	1.0000fibre end	0.00T internal ref (°C)	30.19T ext. ref 1 (°C)	0.09T ext. ref 2 (°C)	23.80length (m)	temperature (°C)	Stokes	anti-Stokes-747.200	-200.000	0.016	-0.444
-746.185	800.000	-0.015	-0.065
-745.171	-119.600	-0.088	-0.015
-744.156	-100.813	-0.178	0.044
-743.142	-18.061	0.091	0.057
-742.127	-157.618	-0.069	0.004
-741.112	-200.000	-0.022	0.234
-740.098	-200.000	0.035	0.286
-739.083	-200.000	0.009	-0.235
-738.069	-114.352	-0.301	-0.058
-737.054	376.161	-0.138	-0.285
-736.039	-159.534	0.045	0.003
-735.025	-17.742	-0.143	-0.091
-734.010	158.174	-0.164	0.229
-732.996	-200.000	-0.035	-0.196
-731.981	800.000	-0.151	-0.430
-730.966	-139.482	-0.092	-0.010
-729.952	800.000	-0.041	-0.135
-728.937	-120.324	0.140	-0.024
-727.923	350.140	-0.066	0.131
-726.908	-22.614	-0.288	0.176
-725.894	-50.182	0.129	0.062
-724.879	-200.000	0.024	0.173
-723.864	-43.862	-0.298	-0.151
-722.850	18.464	-0.059	0.047
-721.835	323.912	0.091	0.174
-720.821	-189.838	-0.298	0.003
-719.806	-40.574	0.334	0.175
-718.791	-129.329	-0.078	-0.011
-717.777	-90.775	0.291	0.084
-716.762	800.000	0.140	-0.435
-715.748	30.921	-0.246	-0.212
-714.733	80.269	-0.187	0.202
-713.718	74.890	-0.044	-0.046
-712.704	-88.769	-0.209	0.063
-711.689	-200.000	-0.008	-0.162
-710.675	-146.930	0.122	-0.011
-709.660	-200.000	0.015	-0.196
-708.645	182.681	0.063	-0.094
-707.631	-176.814	-0.226	-0.006
-706.616	-5.960	-0.077	0.053
-705.602	332.048	0.121	0.235
-704.587	77.118	-0.340	0.364
-703.572	-110.508	-0.131	0.027
-702.558	143.101	-0.172	0.230
-701.543	14.332	-0.096	-0.076
-700.529	-108.528	0.387	0.084
-699.514	656.642	-0.111	-0.288
-698.499	121.446	-0.192	0.241
-697.485	-157.761	-0.459	0.027
-696.470	-58.895	-0.252	0.110
-695.456	18.660	-0.175	-0.141
-694.441	-92.621	0.298	0.084
-693.426	-66.345	0.339	-0.136
-692.412	-67.153	0.245	-0.097
-691.397	800.000	-0.105	-0.299
-690.383	109.993	-0.153	0.184
-689.368	448.883	-0.206	0.458
-688.354	-91.239	0.150	-0.043
-687.339	-200.000	-0.025	0.253
-686.324	14.731	0.056	-0.044
-685.310	-112.115	0.462	0.093
-684.295	-200.000	-0.001	0.021
-683.281	-200.000	0.052	-0.302
-682.266	-83.535	0.139	0.045
-681.251	800.000	-0.057	-0.245
-680.237	-21.600	0.279	0.171
-679.222	-200.000	0.003	-0.157
-678.208	102.976	-0.256	-0.302
-677.193	38.651	-0.141	-0.126
-676.178	164.928	0.117	0.166
-675.164	-170.977	-0.108	-0.004
-674.149	800.000	0.102	-0.305
-673.135	2.050	-0.154	-0.112
-672.120	800.000	0.119	-0.510
-671.105	-132.156	-0.412	0.054
-670.091	-200.000	-0.049	-0.317
-669.076	10.172	0.236	-0.180
-668.062	563.309	-0.118	-0.287
-667.047	46.993	0.144	0.135
-666.032	-200.000	-0.015	-0.214
-665.018	-82.618	-0.464	0.151
-664.003	-18.119	-0.235	-0.148
-662.989	115.033	-0.161	-0.198
-661.974	429.732	-0.181	-0.393
-660.959	-87.419	-0.356	-0.108
-659.945	-69.605	-0.502	0.193
-658.930	80.472	-0.191	0.207
-657.916	800.000	0.048	-0.141
-656.901	-12.669	-0.139	-0.091
-655.886	14.117	-0.280	-0.219
-654.872	87.016	0.069	-0.076
-653.857	-109.193	-0.373	-0.080
-652.843	-88.180	0.126	-0.038
-651.828	-132.415	0.113	0.015
-650.814	-149.614	0.069	-0.005
-649.799	-41.166	0.148	0.077
-648.784	-78.117	0.151	0.052
-647.770	451.201	-0.092	0.204
-646.755	14.640	0.101	0.079
-645.741	-10.047	0.090	0.060
-644.726	-76.497	-0.516	-0.182
-643.711	-72.217	-0.107	0.040
-642.697	465.759	-0.064	-0.144
-641.682	199.179	0.068	-0.104
-640.668	-58.771	-0.335	0.146
-639.653	-35.551	-0.188	0.103
-638.638	800.000	0.036	-0.136
-637.624	-100.048	-0.270	0.068
-636.609	472.279	-0.027	-0.061
-635.595	-41.965	-0.041	-0.021
-634.580	430.204	0.040	-0.088
-633.565	-96.648	0.194	0.051
-632.551	517.979	-0.032	0.074
-631.536	6.979	0.394	-0.295
-630.522	13.789	0.258	-0.201
-629.507	225.801	0.082	-0.134
-628.492	800.000	-0.048	0.186
-627.478	-27.807	-0.195	0.114
-626.463	191.977	-0.180	-0.272
-625.449	15.976	-0.138	0.109
-624.434	-200.000	-0.008	-0.070
-623.419	14.854	-0.120	0.095
-622.405	41.246	0.046	-0.042
-621.390	-78.346	0.318	-0.109
-620.376	-110.397	0.192	-0.040
-619.361	-46.844	-0.197	0.097
-618.346	-24.788	-0.212	-0.126
-617.332	-59.069	-0.107	0.046
-616.317	87.813	-0.291	-0.323
-615.303	10.484	-0.193	0.148
-614.288	21.714	0.232	-0.190
-613.273	85.497	0.112	-0.123
-612.259	334.771	0.113	-0.220
-611.244	41.318	-0.210	-0.191
-610.230	-68.719	0.606	-0.235
-609.215	189.974	-0.187	-0.282
-608.201	44.967	-0.094	-0.087
-607.186	158.550	0.023	0.033
-606.171	-200.000	-0.018	-0.121
-605.157	-200.000	0.036	-0.162
-604.142	-133.066	-0.162	0.021
-603.128	98.827	-0.088	0.102
-602.113	7.881	-0.090	-0.068
-601.098	31.710	-0.221	0.191
-600.084	525.290	0.135	0.319
-599.069	800.000	-0.133	-0.412
-598.055	-200.000	-0.016	-0.193
-597.040	-26.871	0.321	0.188
-596.025	-162.517	-0.335	0.017
-595.011	800.000	-0.012	0.035
-593.996	-200.000	0.001	-0.162
-592.982	-54.931	0.309	-0.140
-591.967	-116.165	-0.233	0.043
-590.952	-200.000	-0.005	0.191
-589.938	202.043	-0.265	0.410
-588.923	298.508	-0.143	-0.264
-587.909	-200.000	0.021	0.186
-586.894	-96.301	0.258	0.068
-585.879	-127.560	0.411	0.060
-584.865	26.010	0.188	0.157
-583.850	4.068	0.112	-0.082
-582.836	480.634	0.080	-0.181
-581.821	800.000	0.069	0.214
-580.806	-195.464	-0.121	0.001
-579.792	800.000	-0.095	-0.312
-578.777	-5.297	0.088	0.060
-577.763	800.000	0.060	-0.226
-576.748	129.828	-0.092	-0.118
-575.733	-85.311	-0.419	-0.131
-574.719	-200.000	-0.020	-0.159
-573.704	-200.000	0.054	0.310
-572.690	-0.672	-0.132	0.094
-571.675	-200.000	-0.007	-0.041
-570.661	50.129	0.038	0.036
-569.646	-70.038	0.265	0.101
-568.631	149.908	0.239	-0.325
-567.617	-36.548	0.139	-0.075
-566.602	21.311	0.219	0.178
-565.588	44.264	0.082	0.076
-564.573	-200.000	0.010	-0.217
-563.558	194.289	-0.068	-0.103
-562.544	-72.185	-0.214	-0.079
-561.529	574.843	-0.168	-0.410
-560.515	-200.000	-0.011	0.145
-559.500	686.480	0.051	-0.133
-558.485	-200.000	-0.003	-0.074
-557.471	327.989	-0.221	0.425
-556.456	-24.371	0.207	-0.123
-555.442	-138.398	0.185	0.020
-554.427	6.715	0.133	-0.099
-553.412	715.003	-0.096	0.254
-552.398	-47.070	0.169	-0.082
-551.383	-200.000	-0.035	0.229
-550.369	-34.298	0.280	-0.154
-549.354	70.137	0.129	0.133
-548.339	183.573	-0.196	0.291
-547.325	160.505	0.110	0.154
-546.310	-53.184	0.119	0.055
-545.296	-53.367	0.062	-0.029
-544.281	-58.675	0.272	-0.118
-543.266	54.757	-0.152	0.146
-542.252	-200.000	-0.026	-0.341
-541.237	800.000	-0.019	0.073
-540.223	264.499	0.085	-0.148
-539.208	-63.658	0.263	0.108
-538.193	74.812	0.200	-0.211
-537.179	-54.146	-0.283	-0.129
-536.164	61.773	-0.291	-0.290
-535.150	-136.841	-0.288	0.033
-534.135	-200.000	-0.012	0.107
-533.121	-96.220	0.215	0.057
-532.106	-143.874	0.282	-0.027
-531.091	42.080	-0.083	0.075
-530.077	110.431	-0.135	0.162
-529.062	520.408	0.154	-0.361
-528.048	800.000	0.027	-0.097
-527.033	-17.482	-0.105	0.066
-526.018	-28.349	-0.086	-0.050
-525.004	234.427	-0.041	0.067
-523.989	163.945	-0.112	0.158
-522.975	-200.000	-0.006	0.143
-521.960	800.000	0.037	0.105
-520.945	-135.424	-0.331	0.039
-519.931	103.230	0.059	0.069
-518.916	25.321	0.147	0.122
-517.902	-200.000	-0.039	0.238
-516.887	150.112	0.082	0.112
-515.872	-95.887	-0.210	-0.056
-514.858	-61.586	0.063	-0.026
-513.843	-200.000	-0.008	-0.315
-512.829	-200.000	-0.006	-0.090
-511.814	-80.657	-0.137	-0.046
-510.799	2.712	-0.272	-0.197
-509.785	538.444	0.069	0.165
-508.770	-23.321	-0.112	0.067
-507.756	-200.000	-0.029	0.127
-506.741	800.000	0.094	0.278
-505.726	-109.299	-0.319	-0.068
-504.712	-200.000	0.007	-0.105
-503.697	213.907	0.131	0.206
-502.683	-82.853	-0.080	0.026
-501.668	-121.300	0.266	0.044
-500.653	800.000	-0.047	0.200
-499.639	169.221	0.085	0.121
-498.624	168.090	-0.142	-0.202
-497.610	-184.894	-0.263	-0.004
-496.595	-15.931	0.102	-0.065
-495.581	1.514	-0.099	-0.071
-494.566	78.823	-0.019	0.020
-493.551	2.455	-0.174	-0.126
-492.537	756.700	-0.035	0.094
-491.522	800.000	-0.165	0.593
-490.508	-3.756	-0.172	0.119
-489.493	49.259	-0.212	-0.199
-488.478	-168.384	0.337	-0.013
-487.464	130.233	-0.103	0.131
-486.449	800.000	-0.073	-0.233
-485.435	47.584	0.071	-0.066
-484.420	-1.434	-0.034	-0.024
-483.405	261.675	0.144	0.249
-482.391	-0.610	-0.287	-0.203
-481.376	800.000	-0.116	0.458
-480.362	-12.210	-0.318	0.207
-479.347	399.666	-0.040	0.084
-478.332	-200.000	-0.016	-0.161
-477.318	149.980	-0.077	-0.104
-476.303	-31.170	0.091	0.051
-475.289	424.944	0.137	0.294
-474.274	64.323	-0.195	0.196
-473.259	275.440	-0.174	0.307
-472.245	-180.891	-0.103	-0.002
-471.230	-47.210	-0.125	0.061
-470.216	-109.812	-0.052	0.011
-469.201	1.536	0.328	-0.236
-468.186	-11.390	-0.453	0.298
-467.172	79.363	0.053	0.057
-466.157	-200.000	-0.025	-0.344
-465.143	580.527	0.172	0.419
-464.128	800.000	0.163	0.528
-463.113	-14.382	0.239	0.153
-462.099	280.804	0.196	-0.350
-461.084	-145.738	0.505	0.045
-460.070	-67.246	-0.274	-0.107
-459.055	-134.411	0.182	0.022
-458.040	-200.000	0.035	-0.218
-457.026	39.392	0.046	-0.041
-456.011	119.785	0.407	-0.504
-454.997	296.024	-0.131	-0.239
-453.982	63.147	-0.035	0.035
-452.968	800.000	0.075	0.257
-451.953	3.493	0.100	0.073
-450.938	227.434	-0.121	-0.196
-449.924	516.577	0.038	-0.088
-448.909	-46.162	-0.204	-0.100
-447.895	-200.000	0.057	0.267
-446.880	603.893	-0.119	-0.295
-445.865	-128.619	-0.258	0.036
-444.851	800.000	-0.089	-0.285
-443.836	706.699	-0.152	-0.401
-442.822	-200.000	-0.013	0.155
-441.807	48.908	-0.162	0.152
-440.792	-117.487	-0.086	-0.015
-439.778	49.366	-0.248	-0.232
-438.763	638.371	0.103	-0.261
-437.749	-200.000	0.060	-0.426
-436.734	354.797	0.192	0.381
-435.719	110.133	-0.077	0.092
-434.705	-200.000	0.029	-0.152
-433.690	-163.450	0.194	0.009
-432.676	33.976	0.292	0.253
-431.661	-200.000	-0.009	-0.043
-430.646	-200.000	0.005	0.236
-429.632	-200.000	0.095	0.453
-428.617	-136.899	-0.161	0.018
-427.603	155.215	0.117	-0.161
-426.588	-112.267	-0.495	0.099
-425.573	800.000	0.062	0.245
-424.559	77.078	-0.340	0.360
-423.544	-15.458	0.205	-0.130
-422.530	-200.000	0.001	-0.121
-421.515	-200.000	0.032	0.168
-420.500	-126.434	0.321	0.048
-419.486	-88.517	-0.196	-0.058
-418.471	-130.045	0.227	0.031
-417.457	157.135	-0.200	-0.275
-416.442	423.010	-0.101	-0.216
-415.428	-108.070	0.368	0.080
-414.413	-28.108	-0.312	0.180
-413.398	800.000	-0.052	-0.148
-412.384	123.372	-0.150	0.187
-411.369	-69.291	-0.265	0.102
-410.355	577.387	0.081	-0.197
-409.340	133.310	-0.053	-0.068
-408.325	98.282	-0.248	-0.284
-407.311	800.000	0.130	-0.377
-406.296	-200.000	0.012	0.103
-405.282	206.679	0.119	0.185
-404.267	-200.000	-0.031	-0.167
-403.252	800.000	0.022	-0.082
-402.238	-12.730	-0.116	-0.075
-401.223	19.246	0.188	-0.150
-400.209	800.000	-0.065	0.201
-399.194	800.000	0.044	-0.164
-398.179	800.000	0.026	0.106
-397.165	-28.655	-0.103	0.059
-396.150	-15.521	0.246	-0.156
-395.136	124.742	0.157	0.196
-394.121	486.222	0.050	0.113
-393.106	800.000	-0.029	0.122
-392.092	-200.000	0.016	0.291
-391.077	-200.000	0.004	-0.025
-390.063	800.000	0.044	0.147
-389.048	800.000	0.057	0.164
-388.033	61.428	-0.042	-0.041
-387.019	61.922	-0.036	-0.036
-386.004	516.633	-0.136	-0.316
-384.990	-189.346	0.330	0.004
-383.975	10.550	0.116	0.088
-382.960	-200.000	-0.009	-0.061
-381.946	175.243	0.157	-0.226
-380.931	-132.548	0.225	0.029
-379.917	234.800	-0.163	0.267
-378.902	-85.010	0.292	-0.091
-377.888	-198.069	-0.202	0.001
-376.873	800.000	-0.108	0.309
-375.858	-128.479	-0.037	0.005
-374.844	-200.000	0.052	-0.239
-373.829	-136.991	-0.072	0.008
-372.815	-75.248	-0.203	0.072
-371.800	-152.940	-0.078	0.005
-370.785	707.163	-0.141	-0.371
-369.771	-120.042	0.284	0.048
-368.756	-148.655	-0.222	0.018
-367.742	-200.000	0.052	0.302
-366.727	-200.000	0.002	-0.080
-365.712	-120.470	0.261	-0.044
-364.698	-56.001	0.228	-0.101
-363.683	46.344	0.083	-0.076
-362.669	61.697	-0.044	0.044
-361.654	-19.460	0.179	0.110
-360.639	-200.000	0.022	0.140
-359.625	-200.000	-0.018	-0.081
-358.610	116.984	-0.147	0.180
-357.596	-11.786	0.244	0.159
-356.581	8.694	-0.115	0.086
-355.566	8.797	-0.149	-0.112
-354.552	-9.200	0.197	-0.131
-353.537	168.267	0.174	-0.246
-352.523	-4.329	-0.137	-0.094
-351.508	800.000	0.111	-0.315
-350.493	-200.000	0.050	-0.254
-349.479	800.000	0.034	-0.093
-348.464	-154.706	0.227	-0.015
-347.450	42.019	0.299	0.270
-346.435	-109.375	0.029	0.006
-345.420	-200.000	-0.029	-0.318
-344.406	279.591	0.180	0.319
-343.391	-165.226	-0.054	-0.002
-342.377	0.690	0.166	-0.118
-341.362	-83.092	-0.177	-0.057
-340.348	-36.464	-0.133	-0.071
-339.333	-121.145	0.119	0.020
-338.318	1.460	-0.167	-0.119
-337.304	-64.232	-0.260	-0.105
-336.289	-61.180	0.199	-0.083
-335.275	158.082	0.174	-0.239
-334.260	-200.000	-0.003	0.139
-333.245	-133.770	0.167	0.021
-332.231	241.464	-0.086	-0.143
-331.216	-200.000	0.012	-0.264
-330.202	16.874	-0.202	0.159
-329.187	-46.096	-0.161	0.079
-328.172	-200.000	-0.003	0.100
-327.158	26.563	0.243	-0.202
-326.143	-138.415	-0.243	-0.027
-325.129	31.386	0.151	0.129
-324.114	11.672	0.267	-0.204
-323.099	-200.000	-0.022	-0.102
-322.085	-80.829	-0.091	0.030
-321.070	133.188	0.222	-0.285
-320.056	62.906	-0.257	0.255
-319.041	693.863	0.104	0.271
-318.026	-58.956	0.186	0.080
-317.012	-143.784	0.074	-0.007
-315.997	800.000	0.055	-0.171
-314.983	68.240	-0.326	-0.331
-313.968	-136.472	-0.116	0.013
-312.953	-73.564	-0.243	0.088
-311.939	-123.346	-0.306	0.048
-310.924	79.600	0.247	0.262
-309.910	800.000	0.186	0.571
-308.895	-160.267	-0.150	-0.008
-307.880	-200.000	0.017	0.084
-306.866	-200.000	-0.006	0.365
-305.851	-126.550	0.136	0.020
-304.837	-123.175	-0.250	-0.040
-303.822	-200.000	-0.023	0.103
-302.807	164.826	-0.188	-0.263
-301.793	-57.208	0.300	0.131
-300.778	70.219	0.069	0.070
-299.764	-200.000	0.019	-0.082
-298.749	302.104	0.140	0.256
-297.735	-200.000	0.015	0.270
-296.720	-115.883	-0.256	0.047
-295.705	154.123	-0.160	0.218
-294.691	-26.120	0.135	0.079
-293.676	-45.983	0.125	0.061
-292.662	-30.011	-0.222	-0.125
-291.647	656.637	0.123	-0.312
-290.632	-200.000	-0.029	-0.283
-289.618	614.234	0.043	0.106
-288.603	172.721	-0.120	0.171
-287.589	632.983	0.033	-0.083
-286.574	659.195	-0.094	0.239
-285.559	800.000	-0.041	-0.128
-284.545	-31.595	-0.158	0.088
-283.530	-106.751	-0.200	0.044
-282.516	203.954	0.059	0.090
-281.501	68.731	-0.150	-0.152
-280.486	800.000	0.060	0.190
-279.472	336.878	-0.100	0.193
-278.457	28.874	-0.048	-0.040
-277.443	488.961	-0.030	-0.069
-276.428	90.327	0.356	0.394
-275.413	37.511	0.057	0.050
-274.399	-200.000	-0.010	0.124
-273.384	-53.783	0.273	-0.123
-272.370	87.178	-0.117	-0.129
-271.355	-104.241	-0.234	-0.054
-270.340	-83.713	-0.295	-0.093
-269.326	124.349	0.174	-0.217
-268.311	800.000	-0.112	-0.351
-267.297	-200.000	0.002	-0.132
-266.282	800.000	-0.034	0.103
-265.267	1.397	-0.197	-0.140
-264.253	375.241	0.167	-0.337
-263.238	629.618	0.084	-0.211
-262.224	-200.000	0.025	-0.318
-261.209	-200.000	-0.043	0.212
-260.195	-200.000	-0.023	0.323
-259.180	66.366	0.058	-0.058
-258.165	63.167	0.231	0.229
-257.151	800.000	-0.062	0.221
-256.136	43.544	-0.038	0.034
-255.122	-200.000	0.001	0.276
-254.107	30.766	-0.178	0.151
-253.092	-104.776	-0.018	-0.004
-252.078	94.037	0.083	0.093
-251.063	-57.499	0.140	0.061
-250.049	23.753	-0.327	-0.267
-249.034	800.000	-0.035	-0.130
-248.019	307.263	-0.195	-0.359
-247.005	-83.280	-0.325	-0.103
-245.990	-184.752	-0.244	0.004
-244.976	397.532	-0.128	0.264
-243.961	-136.278	0.342	-0.039
-242.946	-200.000	0.010	0.142
-241.932	800.000	0.020	0.057
-240.917	-119.332	0.104	0.018
-239.903	-139.221	0.387	0.041
-238.888	-200.000	0.009	0.044
-237.873	-35.051	-0.398	-0.215
-236.859	53.043	-0.139	-0.132
-235.844	370.593	-0.228	0.456
-234.830	-200.000	0.005	0.304
-233.815	-32.380	-0.149	0.082
-232.800	120.055	-0.031	0.038
-231.786	-60.541	0.114	-0.048
-230.771	230.664	0.049	-0.079
-229.757	-200.000	0.042	-0.181
-228.742	-34.030	0.163	0.089
-227.727	347.946	-0.043	-0.084
-226.713	800.000	0.045	-0.188
-225.698	800.000	0.053	-0.185
-224.684	-200.000	-0.006	-0.130
-223.669	-14.285	0.463	0.295
-222.655	-200.000	0.038	-0.312
-221.640	-84.753	0.057	-0.018
-220.625	210.278	0.178	-0.276
-219.611	-200.000	-0.014	0.118
-218.596	371.395	0.213	0.427
-217.582	-200.000	-0.001	-0.061
-216.567	317.636	0.124	-0.233
-215.552	11.077	-0.019	-0.015
-214.538	-62.486	0.155	-0.064
-213.523	-200.000	-0.011	0.166
-212.509	800.000	-0.038	-0.123
-211.494	450.628	0.064	-0.140
-210.479	-84.527	0.300	-0.094
-209.465	-96.504	-0.038	0.010
-208.450	-200.000	0.004	0.229
-207.436	-200.000	0.033	0.372
-206.421	-92.246	0.396	-0.110
-205.406	-61.179	-0.207	-0.086
-204.392	-200.000	-0.054	0.390
-203.377	543.477	-0.050	0.118
-202.363	428.190	0.181	0.387
-201.348	-151.960	-0.204	0.015
-200.333	800.000	0.080	-0.221
-199.319	-200.000	-0.008	-0.074
-198.304	-71.223	-0.293	0.109
-197.290	-200.000	-0.051	0.375
-196.275	800.000	0.050	-0.190
-195.260	-109.774	-0.142	0.030
-194.246	-22.793	0.410	0.245
-193.231	-200.000	0.008	-0.223
-192.217	171.968	-0.146	-0.208
-191.202	-91.204	0.326	-0.092
-190.187	-200.000	0.065	0.403
-189.173	-200.000	0.020	-0.138
-188.158	800.000	0.099	0.417
-187.144	655.824	-0.076	-0.193
-186.129	-200.000	0.038	-0.195
-185.114	-22.937	-0.203	0.121
-184.100	800.000	0.050	0.150
-183.085	21.642	-0.054	-0.043
-182.071	254.626	0.137	0.231
-181.056	-74.974	0.142	0.050
-180.042	-94.900	-0.091	-0.024
-179.027	-23.473	-0.233	0.138
-178.012	-200.000	-0.052	0.392
-176.998	-51.976	-0.143	0.066
-175.983	-147.380	0.169	0.014
-174.969	-200.000	0.016	-0.073
-173.954	-200.000	0.026	0.200
-172.939	-200.000	0.008	0.041
-171.925	-6.044	-0.134	-0.090
-170.910	-169.582	-0.062	-0.002
-169.896	-37.010	0.201	0.106
-168.881	-147.564	0.218	-0.018
-167.866	442.936	-0.076	0.165
-166.852	800.000	-0.065	-0.254
-165.837	-200.000	0.025	-0.243
-164.823	77.925	0.188	-0.198
-163.808	14.438	0.180	-0.139
-162.793	-129.519	-0.094	0.013
-161.779	253.671	-0.135	-0.227
-160.764	-105.486	0.315	-0.070
-159.750	-67.118	-0.332	0.129
-158.735	-200.000	0.005	-0.248
-157.720	-95.241	-0.229	-0.061
-156.706	-27.778	-0.069	0.040
-155.691	-66.650	0.040	-0.016
-154.677	63.039	0.242	-0.238
-153.662	-99.473	0.318	-0.079
-152.647	68.672	-0.130	-0.132
-151.633	-46.625	-0.259	-0.125
-150.618	608.963	0.159	0.392
-149.604	-200.000	0.091	0.425
-148.589	-77.705	0.157	0.053
-147.574	-3.194	0.294	0.202
-146.560	-56.523	-0.022	0.010
-145.545	135.487	0.070	-0.089
-144.531	269.678	-0.076	-0.131
-143.516	65.051	0.188	-0.187
-142.502	120.981	0.128	0.157
-141.487	22.022	-0.142	-0.114
-140.472	-35.631	-0.160	-0.085
-139.458	-145.686	-0.202	-0.018
-138.443	106.810	-0.173	-0.202
-137.429	800.000	-0.037	0.129
-136.414	-34.941	-0.259	0.139
-135.399	-5.087	0.271	0.184
-134.385	-200.000	-0.010	-0.410
-133.370	800.000	0.073	-0.254
-132.356	-28.896	0.243	0.138
-131.341	-200.000	0.002	-0.246
-130.326	-39.372	-0.138	-0.072
-129.312	178.928	0.051	-0.073
-128.297	-133.196	-0.325	0.041
-127.283	569.105	0.131	-0.314
-126.268	388.268	0.274	-0.558
-125.253	157.114	-0.062	0.084
-124.239	800.000	0.114	0.365
-123.224	102.249	-0.294	0.338
-122.210	-200.000	-0.004	-0.065
