DTS Sentinel unit serial number:	SN413079Multiplexer serial number:	ORYXHardware model number:	OX4-SRSoftware version number:	ORYX F/W v4.00 Oryx Data Collector v3.7.2.0data status	okinstallation	princeton_trtdifferential loss correction	single-endedforward channel	channel 1reverse channel	N/Adate	2019/09/11time	07:48:11forward acquisition time	60.00reverse acquisition time	0.00gamma	496.2192k internal	0.2323k external	0.2323temperature offset calibration	0.9914default loss term (dB/km)	0.3790temperature slope calibration	1.0000multiplexer offset coefficient	1.0000multiplexer slope coefficient	1.0000fibre end	0.00T internal ref (°C)	31.69T ext. ref 1 (°C)	0.09T ext. ref 2 (°C)	28.32length (m)	temperature (°C)	Stokes	anti-Stokes-747.200	-200.000	0.021	0.493
-746.185	56.627	0.163	-0.160
-745.171	-4.371	-0.239	-0.167
-744.156	669.149	-0.088	0.231
-743.142	-108.675	0.092	0.020
-742.127	94.616	0.091	0.105
-741.112	126.057	-0.026	0.033
-740.098	-90.569	-0.294	0.086
-739.083	800.000	0.082	-0.296
-738.069	75.688	-0.279	0.298
-737.054	697.382	-0.029	0.078
-736.039	15.590	-0.137	0.109
-735.025	-105.809	0.103	-0.023
-734.010	-79.609	0.238	0.081
-732.996	-15.525	-0.285	-0.184
-731.981	318.417	-0.153	-0.293
-730.966	-72.953	0.182	-0.068
-729.952	-157.772	-0.294	0.018
-728.937	-3.099	-0.200	-0.141
-727.923	115.019	0.091	0.113
-726.908	-66.307	-0.296	0.119
-725.894	-200.000	-0.000	-0.104
-724.879	-200.000	0.016	-0.085
-723.864	-117.730	0.263	0.048
-722.850	64.243	0.080	-0.081
-721.835	138.419	-0.123	-0.163
-720.821	622.010	-0.129	-0.329
-719.806	-132.743	0.051	-0.007
-718.791	-200.000	-0.033	-0.280
-717.777	-3.398	0.189	-0.133
-716.762	367.417	-0.097	0.198
-715.748	-27.218	0.269	-0.158
-714.733	-157.248	0.204	-0.012
-713.718	-124.075	0.561	-0.089
-712.704	-11.844	-0.266	0.176
-711.689	25.801	-0.159	0.133
-710.675	-99.220	-0.179	-0.046
-709.660	-54.431	0.035	-0.016
-708.645	51.382	0.301	0.288
-707.631	-80.385	0.281	-0.095
-706.616	30.466	0.161	-0.139
-705.602	-73.488	0.337	-0.124
-704.587	-104.094	0.175	-0.041
-703.572	625.272	0.114	-0.289
-702.558	-200.000	-0.053	-0.273
-701.543	-200.000	-0.034	0.160
-700.529	-200.000	0.058	0.400
-699.514	11.553	-0.176	-0.136
-698.499	-87.653	0.205	0.062
-697.485	-166.582	-0.365	-0.015
-696.470	-114.958	0.334	-0.064
-695.456	-4.615	0.133	-0.092
-694.441	191.956	-0.116	0.176
-693.426	30.108	-0.045	0.039
-692.412	-74.207	0.184	0.067
-691.397	-54.553	0.147	-0.067
-690.383	-86.050	0.247	-0.077
-689.368	167.299	0.148	-0.212
-688.354	-84.840	-0.105	0.033
-687.339	32.326	-0.196	-0.171
-686.324	516.930	-0.133	-0.315
-685.310	118.570	0.112	-0.139
-684.295	6.800	0.139	-0.104
-683.281	-18.010	-0.185	0.117
-682.266	-167.792	-0.333	0.013
-681.251	143.373	0.076	0.103
-680.237	-200.000	0.020	-0.179
-679.222	800.000	-0.046	-0.147
-678.208	-119.696	0.352	-0.061
-677.193	704.742	-0.179	0.475
-676.178	73.072	0.106	-0.111
-675.164	-200.000	-0.004	-0.071
-674.149	-200.000	0.010	0.126
-673.135	-19.459	0.288	-0.180
-672.120	800.000	0.076	0.268
-671.105	-18.410	0.116	-0.073
-670.091	-127.177	0.328	-0.048
-669.076	-92.253	0.130	-0.037
-668.062	-64.176	-0.146	0.060
-667.047	-119.515	0.265	-0.046
-666.032	578.936	0.035	0.087
-665.018	800.000	0.087	-0.282
-664.003	-200.000	-0.010	0.319
-662.989	-200.000	0.043	-0.274
-661.974	36.307	0.076	-0.067
-660.959	-53.519	-0.248	0.114
-659.945	585.256	0.108	0.267
-658.930	800.000	0.044	0.175
-657.916	-147.777	0.054	-0.005
-656.901	37.705	-0.064	-0.057
-655.886	311.030	-0.077	-0.144
-654.872	78.108	-0.079	-0.085
-653.857	-67.835	-0.203	-0.080
-652.843	-105.826	-0.116	-0.026
-651.828	-74.248	-0.248	-0.090
-650.814	-200.000	0.044	-0.279
-649.799	-153.066	-0.170	0.012
-648.784	-33.089	-0.024	0.013
-647.770	-200.000	0.029	0.322
-646.755	-200.000	0.008	0.148
-645.741	525.260	0.116	0.276
-644.726	81.390	0.048	-0.052
-643.711	146.421	0.030	-0.040
-642.697	-93.898	0.259	0.072
-641.682	25.510	0.081	0.068
-640.668	35.149	-0.151	0.133
-639.653	92.339	-0.164	-0.186
-638.638	419.530	-0.060	-0.130
-637.624	-144.323	0.216	0.020
-636.609	-110.741	-0.399	-0.083
-635.595	-200.000	-0.002	0.012
-634.580	-79.210	0.160	0.055
-633.565	-200.000	0.058	-0.361
-632.551	-200.000	0.013	-0.125
-631.536	495.817	0.100	-0.232
-630.522	265.898	-0.155	-0.272
-629.507	-19.166	0.281	-0.175
-628.492	-21.032	-0.114	0.070
-627.478	-200.000	-0.035	0.293
-626.463	-129.265	-0.145	-0.020
-625.449	40.899	-0.382	0.347
-624.434	572.393	-0.058	0.143
-623.419	40.043	-0.247	0.223
-622.405	102.692	-0.254	0.299
-621.390	-200.000	-0.004	0.149
-620.376	-200.000	-0.083	0.372
-619.361	-112.382	-0.243	0.049
-618.346	-115.762	-0.240	0.045
-617.332	-88.308	0.201	0.060
-616.317	208.962	-0.144	0.227
-615.303	-90.607	0.318	-0.092
-614.288	90.679	0.028	0.032
-613.273	98.535	0.216	0.250
-612.259	800.000	-0.006	0.025
-611.244	161.499	-0.032	0.045
-610.230	800.000	-0.080	0.261
-609.215	-200.000	-0.069	0.329
-608.201	-57.326	-0.124	0.055
-607.186	326.200	0.078	0.151
-606.171	800.000	0.052	-0.228
-605.157	430.827	0.141	0.307
-604.142	-98.269	-0.042	0.011
-603.128	-55.274	-0.148	-0.067
-602.113	-53.867	0.056	-0.025
-601.098	630.240	0.101	-0.256
-600.084	23.433	0.174	-0.144
-599.069	152.261	-0.101	0.139
-598.055	-100.183	0.344	-0.086
-597.040	-44.626	0.175	0.088
-596.025	286.646	0.196	-0.355
-595.011	-200.000	-0.034	-0.398
-593.996	-200.000	-0.014	-0.238
-592.982	500.198	0.178	-0.413
-591.967	121.685	-0.186	-0.233
-590.952	-200.000	0.024	-0.120
-589.938	27.809	-0.210	-0.178
-588.923	300.056	-0.140	-0.259
-587.909	81.909	-0.170	-0.185
-586.894	-19.276	-0.154	-0.096
-585.879	5.750	0.160	-0.118
-584.865	800.000	-0.036	-0.135
-583.850	-49.302	-0.191	-0.092
-582.836	-52.612	0.572	0.265
-581.821	447.440	0.064	0.141
-580.806	800.000	-0.008	0.035
-579.792	-200.000	-0.039	0.264
-578.777	-141.141	-0.237	-0.024
-577.763	16.125	0.144	-0.114
-576.748	52.361	-0.035	-0.033
-575.733	-87.582	-0.249	-0.075
-574.719	-200.000	0.020	0.206
-573.704	-52.976	0.177	-0.082
-572.690	-116.887	0.090	0.017
-571.675	-110.991	-0.198	0.041
-570.661	-105.110	0.228	-0.052
-569.646	-200.000	0.024	-0.348
-568.631	290.882	0.042	0.077
-567.617	-20.189	0.250	-0.155
-566.602	197.160	0.189	-0.290
-565.588	-88.345	-0.277	0.083
-564.573	-45.627	0.100	0.049
-563.558	370.501	0.110	-0.223
-562.544	-48.274	0.282	0.137
-561.529	522.977	-0.190	-0.448
-560.515	-200.000	-0.041	-0.632
-559.500	57.080	-0.076	0.074
-558.485	-128.462	-0.246	-0.035
-557.471	800.000	-0.049	-0.200
-556.456	354.463	0.113	-0.225
-555.442	-19.870	-0.178	0.110
-554.427	-200.000	0.025	0.142
-553.412	800.000	0.093	-0.311
-552.398	-200.000	-0.014	0.078
-551.383	49.691	-0.034	-0.032
-550.369	-132.575	-0.564	0.073
-549.354	800.000	-0.027	-0.081
-548.339	-200.000	0.017	0.218
-547.325	-58.838	0.270	-0.117
-546.310	134.213	0.081	0.106
-545.296	-200.000	-0.004	-0.304
-544.281	58.758	-0.074	0.073
-543.266	179.709	-0.131	0.192
-542.252	44.915	-0.121	-0.111
-541.237	-13.596	-0.185	0.120
-540.223	800.000	-0.046	-0.134
-539.208	69.490	0.243	0.250
-538.193	-55.743	-0.181	-0.081
-537.179	387.934	-0.159	0.330
-536.164	144.981	-0.033	0.044
-535.150	36.497	-0.152	0.134
-534.135	-200.000	-0.016	-0.106
-533.121	21.084	0.175	-0.142
-532.106	-139.714	0.088	-0.009
-531.091	123.776	-0.137	0.172
-530.077	-42.605	0.245	0.125
-529.062	108.903	-0.146	0.175
-528.048	-118.484	-0.263	0.047
-527.033	-200.000	0.068	-0.375
-526.018	102.706	-0.232	-0.272
-525.004	-29.849	-0.140	0.080
-523.989	31.020	-0.098	0.084
-522.975	-7.063	-0.192	-0.131
-521.960	-134.290	0.199	-0.024
-520.945	800.000	-0.012	-0.037
-519.931	-89.569	0.300	-0.088
-518.916	68.686	-0.050	-0.051
-517.902	800.000	0.057	-0.231
-516.887	-109.681	-0.152	-0.032
-515.872	800.000	-0.005	0.015
-514.858	10.371	-0.184	0.140
-513.843	-168.703	0.193	0.007
-512.829	-56.635	0.157	-0.069
-511.814	-7.106	0.063	0.043
-510.799	14.647	-0.172	-0.134
-509.785	-47.788	0.305	-0.148
-508.770	-56.424	0.099	0.044
-507.756	-153.163	0.157	0.011
-506.741	134.317	-0.102	0.132
-505.726	301.672	-0.093	-0.173
-504.712	800.000	0.047	0.145
-503.697	-200.000	-0.010	-0.382
-502.683	-67.608	-0.116	-0.045
-501.668	800.000	0.057	-0.237
-500.653	223.956	0.171	0.277
-499.639	-174.904	0.079	-0.002
-498.624	500.395	-0.082	0.189
-497.610	0.257	0.362	-0.259
-496.595	518.573	0.028	-0.066
-495.581	-86.591	0.244	-0.075
-494.566	50.594	-0.105	-0.099
-493.551	800.000	-0.016	0.048
-492.537	718.774	0.078	0.206
-491.522	-33.370	0.194	0.107
-490.508	-13.358	-0.205	0.133
-489.493	800.000	0.030	-0.092
-488.478	752.613	0.129	-0.349
-487.464	800.000	-0.081	0.275
-486.449	-34.767	0.209	-0.114
-485.435	-124.642	0.337	0.052
-484.420	-112.317	0.183	0.037
-483.405	-25.861	-0.094	-0.056
-482.391	173.528	0.163	-0.235
-481.376	800.000	-0.074	-0.305
-480.362	256.605	-0.012	-0.021
-479.347	-200.000	-0.005	-0.091
-478.332	-70.200	0.131	-0.050
-477.318	212.582	-0.159	-0.251
-476.303	132.764	-0.143	-0.184
-475.289	-147.690	0.157	-0.013
-474.274	-138.144	-0.284	-0.032
-473.259	-39.302	0.130	0.068
-472.245	74.127	-0.096	0.101
-471.230	178.265	-0.141	-0.206
-470.216	-48.477	0.221	0.106
-469.201	262.197	-0.091	-0.158
-468.186	-200.000	0.003	0.236
-467.172	-121.700	0.191	0.032
-466.157	79.455	0.139	-0.149
-465.143	47.645	0.204	-0.190
-464.128	-200.000	0.146	0.000
-463.113	-123.001	-0.118	-0.019
-462.099	-103.814	-0.066	0.015
-461.084	-82.074	-0.077	0.025
-460.070	-40.510	-0.210	-0.109
-459.055	-149.806	-0.464	-0.036
-458.040	231.495	-0.074	-0.122
-457.026	800.000	0.081	-0.257
-456.011	0.630	0.156	-0.112
-454.997	-171.051	-0.176	0.006
-453.982	-145.007	-0.165	-0.015
-452.968	212.119	-0.094	-0.148
-451.953	-200.000	0.008	-0.060
-450.938	-18.473	0.195	0.122
-449.924	160.805	-0.031	-0.044
-448.909	18.508	-0.134	0.107
-447.895	204.416	-0.122	0.189
-446.880	-42.627	-0.125	-0.064
-445.865	-24.717	-0.276	-0.164
-444.851	-200.000	-0.046	0.318
-443.836	-72.845	-0.099	-0.036
-442.822	-28.353	0.198	-0.114
-441.807	-200.000	-0.016	-0.319
-440.792	304.106	0.141	0.262
-439.778	90.917	0.148	0.166
-438.763	-45.196	-0.219	-0.109
-437.749	-200.000	0.016	0.203
-436.734	56.215	-0.121	-0.117
-435.719	-200.000	-0.028	0.150
-434.705	28.916	0.292	0.247
-433.690	19.447	0.041	0.033
-432.676	-200.000	0.036	0.187
-431.661	-39.786	-0.320	-0.167
-430.646	-8.173	-0.213	0.143
-429.632	-43.445	-0.284	0.143
-428.617	240.880	-0.206	0.343
-427.603	-92.326	0.076	0.021
-426.588	-88.499	-0.213	-0.063
-425.573	139.748	0.116	-0.153
-424.559	-200.000	0.002	-0.233
-423.544	-155.091	0.246	-0.016
-422.530	-200.000	-0.018	-0.139
-421.515	-47.861	-0.111	-0.054
-420.500	528.866	0.087	-0.204
-419.486	-151.858	0.120	-0.009
-418.471	219.774	-0.295	0.471
-417.457	177.846	0.116	-0.168
-416.442	800.000	0.065	0.203
-415.428	800.000	0.066	0.248
-414.413	25.246	0.168	0.139
-413.398	422.733	0.145	0.310
-412.384	800.000	-0.051	0.212
-411.369	284.641	-0.053	0.095
-410.355	-64.117	0.049	0.020
-409.340	-174.215	0.596	-0.017
-408.325	-93.873	-0.443	-0.121
-407.311	489.711	-0.056	0.127
-406.296	430.402	-0.121	0.262
-405.282	-79.781	0.118	0.039
-404.267	-113.558	-0.184	-0.036
-403.252	-101.998	-0.424	-0.102
-402.238	-155.139	-0.125	-0.008
-401.223	1.914	-0.185	-0.133
-400.209	-96.116	-0.294	0.078
-399.194	-10.147	-0.237	-0.157
-398.179	-67.633	-0.306	0.119
-397.165	160.138	-0.170	0.236
-396.150	-200.000	0.091	0.000
-395.136	-156.512	-0.223	-0.014
-394.121	-200.000	0.013	0.137
-393.106	-160.180	-0.189	0.010
-392.092	-79.839	0.176	-0.059
-391.077	-96.958	0.417	-0.109
-390.063	2.505	-0.209	-0.151
-389.048	800.000	-0.037	-0.130
-388.033	-200.000	0.016	-0.071
-387.019	466.077	-0.056	-0.124
-386.004	-52.070	-0.167	0.077
-384.990	161.762	0.085	0.118
-383.975	-82.936	0.127	0.041
-382.960	-69.980	-0.175	0.067
-381.946	296.379	-0.014	-0.026
-380.931	-46.942	-0.279	-0.136
-379.917	-200.000	0.007	-0.158
-378.902	-200.000	0.038	-0.222
-377.888	-200.000	0.020	0.197
-376.873	-27.142	0.114	0.066
-375.858	800.000	-0.180	-0.503
-374.844	291.655	-0.032	-0.058
-373.829	37.364	-0.130	0.114
-372.815	-14.660	-0.113	0.073
-371.800	-22.114	0.274	0.166
-370.785	-200.000	-0.009	-0.092
-369.771	272.030	-0.142	-0.249
-368.756	-200.000	-0.010	-0.106
-367.742	-84.136	0.339	0.107
-366.727	251.951	0.107	0.182
-365.712	198.541	-0.176	-0.268
-364.698	180.683	0.077	0.113
-363.683	-200.000	-0.083	0.375
-362.669	-118.068	0.469	-0.083
-361.654	-200.000	-0.004	0.293
-360.639	74.516	0.330	0.346
-359.625	406.770	0.171	0.359
-358.610	755.492	0.062	0.166
-357.596	-25.969	0.140	0.082
-356.581	285.500	0.029	-0.051
-355.566	245.462	0.074	-0.123
-354.552	-173.141	-0.096	0.003
-353.537	800.000	0.047	0.188
-352.523	-73.508	0.259	0.094
-351.508	-200.000	0.014	-0.230
-350.493	-83.814	-0.197	0.062
-349.479	-200.000	0.004	-0.032
-348.464	-120.919	0.203	-0.034
-347.450	-165.291	0.295	-0.013
-346.435	800.000	-0.075	-0.214
-345.420	-96.073	0.176	-0.047
-344.406	-30.682	0.108	0.061
-343.391	304.718	-0.056	-0.103
-342.377	186.139	-0.164	0.243
-341.362	800.000	-0.148	-0.504
-340.348	-150.011	-0.071	-0.006
-339.333	24.637	0.229	0.189
-338.318	50.238	0.144	0.136
-337.304	-200.000	0.012	0.140
-336.289	-117.163	0.374	0.068
-335.275	164.367	-0.102	-0.143
-334.260	-200.000	-0.014	0.338
-333.245	113.001	0.051	0.062
-332.231	75.128	-0.208	0.218
-331.216	86.333	0.164	0.179
-330.202	-59.424	-0.199	0.085
-329.187	33.717	0.355	0.307
-328.172	10.453	-0.215	-0.163
-327.158	-86.548	-0.285	0.087
-326.143	-200.000	-0.038	0.172
-325.129	800.000	-0.026	0.098
-324.114	800.000	0.035	0.135
-323.099	-96.319	0.205	0.054
-322.085	-14.365	0.165	0.106
-321.070	800.000	0.020	-0.057
-320.056	-181.531	-0.190	0.004
-319.041	-200.000	-0.012	-0.067
-318.026	-66.731	0.300	-0.118
-317.012	800.000	0.018	0.054
-315.997	384.126	-0.157	-0.321
-314.983	-47.608	-0.121	-0.058
-313.968	220.526	0.111	0.177
-312.953	-200.000	0.018	0.184
-311.939	-141.421	-0.278	-0.028
-310.924	1.692	0.156	0.111
-309.910	-200.000	-0.053	-0.388
-308.895	355.193	-0.172	-0.340
-307.880	800.000	0.111	0.341
-306.866	71.651	-0.118	-0.121
-305.851	-96.584	0.396	0.104
-304.837	-102.410	-0.154	0.037
-303.822	583.051	0.107	-0.261
-302.807	-77.262	0.353	0.122
-301.793	-200.000	0.020	-0.353
-300.778	280.875	0.074	0.131
-299.764	-200.000	0.024	0.372
-298.749	-121.017	-0.281	0.047
-297.735	28.267	-0.120	-0.101
-296.720	141.139	-0.260	0.341
-295.705	800.000	-0.087	0.330
-294.691	147.604	-0.123	0.164
-293.676	76.867	0.040	-0.042
-292.662	-117.581	0.187	0.033
-291.647	264.029	-0.138	-0.239
-290.632	575.452	0.029	-0.071
-289.618	-35.628	0.053	0.029
-288.603	510.332	0.064	-0.147
-287.589	10.862	0.342	0.259
-286.574	119.845	-0.129	0.159
-285.559	-156.235	-0.145	0.009
-284.545	482.739	-0.140	-0.315
-283.530	-1.553	0.031	0.021
-282.516	-200.000	0.018	-0.159
-281.501	-35.896	-0.072	0.038
-280.486	215.527	-0.125	-0.197
-279.472	-38.786	-0.143	-0.075
-278.457	800.000	0.097	0.329
-277.443	-200.000	-0.042	0.283
-276.428	-200.000	-0.006	-0.114
-275.413	-71.154	-0.127	-0.047
-274.399	-200.000	-0.010	-0.087
-273.384	-130.877	-0.171	0.023
-272.370	175.058	0.125	0.179
-271.355	190.408	0.088	-0.132
-270.340	-200.000	0.064	-0.314
-269.326	119.737	0.064	-0.078
-268.311	800.000	0.055	-0.196
-267.297	24.774	-0.245	-0.201
-266.282	-76.559	0.286	0.100
-265.267	800.000	-0.115	-0.442
-264.253	98.823	-0.163	-0.186
-263.238	-194.415	-0.219	0.002
-262.224	-147.510	0.504	0.042
-261.209	-62.374	0.143	0.059
-260.195	5.014	0.095	-0.069
-259.180	-95.263	0.207	-0.055
-258.165	-57.630	-0.287	-0.125
-257.151	-124.557	0.137	-0.021
-256.136	-200.000	-0.007	0.403
-255.122	150.719	-0.015	0.021
-254.107	-110.585	0.209	-0.043
-253.092	-124.113	-0.194	0.030
-252.078	800.000	0.029	-0.101
-251.063	-200.000	-0.007	-0.209
-250.049	88.049	-0.039	-0.043
-249.034	-200.000	-0.059	0.541
-248.019	-76.374	-0.472	-0.164
-247.005	-200.000	-0.021	0.230
-245.990	-138.116	-0.187	-0.021
-244.976	-136.921	0.213	0.024
-243.961	-76.910	0.247	0.086
-242.946	-200.000	0.006	0.294
-241.932	10.347	0.018	0.014
-240.917	97.487	0.235	-0.267
-239.903	-194.935	-0.120	0.001
-238.888	-200.000	0.015	0.082
-237.873	138.869	0.081	0.105
-236.859	-52.640	-0.166	0.076
-235.844	-200.000	-0.010	0.171
-234.830	328.553	-0.072	-0.138
-233.815	73.643	-0.165	0.171
-232.800	-111.161	-0.094	0.019
-231.786	249.075	-0.175	-0.294
-230.771	211.603	-0.115	0.179
-229.757	-163.625	0.257	-0.012
-228.742	430.779	0.215	0.462
-227.727	-126.086	-0.352	0.052
-226.713	-87.119	0.321	0.097
-225.698	628.895	0.100	-0.250
-224.684	92.406	-0.315	-0.352
-223.669	-24.600	-0.199	-0.117
-222.655	90.008	0.085	0.094
-221.640	-200.000	-0.017	0.116
-220.625	423.691	-0.092	-0.197
-219.611	-200.000	-0.005	0.071
-218.596	4.219	0.156	-0.113
-217.582	-61.116	-0.056	0.023
-216.567	47.464	-0.172	-0.158
-215.552	773.792	-0.112	-0.301
-214.538	-133.915	0.177	-0.022
-213.523	-189.080	-0.115	0.001
-212.509	800.000	0.033	-0.131
-211.494	8.535	0.333	0.248
-210.479	193.974	-0.149	-0.224
-209.465	-51.745	-0.353	-0.163
-208.450	-149.344	0.234	-0.018
-207.436	354.805	-0.148	0.291
-206.421	-200.000	-0.005	0.063
-205.406	113.192	0.183	0.220
-204.392	20.733	0.222	0.177
-203.377	800.000	0.030	-0.124
-202.363	800.000	0.060	-0.206
-201.348	-78.757	0.053	-0.018
-200.333	241.772	-0.076	-0.126
-199.319	-1.429	0.107	0.075
-198.304	-157.754	-0.242	0.014
-197.290	-104.602	-0.202	0.046
-196.275	-200.000	-0.035	0.162
-195.260	111.395	0.158	-0.189
-194.246	282.642	-0.135	0.240
-193.231	-38.408	-0.270	-0.141
-192.217	51.827	0.158	0.149
-191.202	-19.178	0.212	-0.130
-190.187	4.746	-0.283	-0.206
-189.173	-79.719	-0.175	-0.058
-188.158	-13.322	0.162	0.104
-187.144	-77.964	0.162	0.055
-186.129	-115.877	0.217	-0.040
-185.114	-200.000	0.025	0.268
-184.100	24.972	0.183	-0.150
-183.085	-62.556	0.092	-0.038
-182.071	-105.598	0.087	-0.019
-181.056	-200.000	0.002	-0.026
-180.042	264.244	0.274	0.472
-179.027	82.421	0.108	-0.116
-178.012	-200.000	-0.011	-0.291
-176.998	-65.681	-0.111	-0.044
-175.983	-123.799	0.451	0.070
-174.969	-77.754	-0.240	0.082
-173.954	25.699	-0.094	-0.077
-172.939	-200.000	-0.011	0.091
-171.925	26.644	0.211	0.175
-170.910	47.310	-0.133	0.122
-169.896	800.000	-0.035	0.110
-168.881	56.835	0.090	0.087
-167.866	21.565	0.145	0.116
-166.852	800.000	-0.072	0.273
-165.837	-200.000	0.000	-0.113
-164.823	-23.693	0.301	0.178
-163.808	-200.000	-0.018	-0.093
-162.793	800.000	-0.024	-0.098
-161.779	-108.975	0.151	0.032
-160.764	-43.446	-0.243	-0.121
-159.750	102.857	0.146	0.168
-158.735	-200.000	-0.004	0.051
-157.720	-87.929	0.133	-0.040
-156.706	-86.272	-0.230	-0.070
-155.691	-90.614	0.528	-0.151
-154.677	-194.447	0.115	0.001
-153.662	-143.714	0.201	0.019
-152.647	187.953	-0.029	0.043
-151.633	-200.000	-0.029	0.130
-150.618	-84.361	-0.267	0.083
-149.604	599.098	0.055	-0.134
-148.589	-13.734	0.365	-0.233
-147.574	-3.885	0.238	-0.163
-146.560	573.551	-0.029	-0.071
-145.545	100.901	0.131	0.150
-144.531	-39.228	-0.039	0.020
-143.516	97.522	0.069	0.078
-142.502	-79.706	-0.179	-0.059
-141.487	800.000	-0.106	-0.301
-140.472	-200.000	0.084	-0.528
-139.458	392.494	0.168	0.345
-138.443	425.777	-0.039	0.082
-137.429	-200.000	-0.014	-0.161
-136.414	800.000	-0.033	-0.100
-135.399	-36.506	0.319	-0.169
-134.385	720.611	-0.018	0.047
-133.370	12.988	-0.202	-0.154
-132.356	-44.305	-0.185	0.091
-131.341	115.090	0.167	-0.201
-130.326	800.000	0.019	0.061
-129.312	85.209	0.207	-0.224
-128.297	14.396	-0.170	0.131
-127.283	144.491	0.275	-0.362
-126.268	-0.932	-0.071	-0.050
-125.253	-74.131	0.028	0.010
-124.239	301.764	0.112	-0.205
-123.224	-14.216	-0.372	0.237
-122.210	53.923	0.175	0.166
-121.195	364.873	-0.156	0.309
