DTS Sentinel unit serial number:	SN413079Multiplexer serial number:	ORYXHardware model number:	OX4-SRSoftware version number:	ORYX F/W v4.00 Oryx Data Collector v3.7.2.0data status	okinstallation	princeton_trtdifferential loss correction	single-endedforward channel	channel 1reverse channel	N/Adate	2019/09/14time	09:38:35forward acquisition time	60.00reverse acquisition time	0.00gamma	496.2192k internal	0.2319k external	0.2319temperature offset calibration	1.0069default loss term (dB/km)	0.3790temperature slope calibration	1.0000multiplexer offset coefficient	1.0000multiplexer slope coefficient	1.0000fibre end	0.00T internal ref (°C)	31.89T ext. ref 1 (°C)	3.90T ext. ref 2 (°C)	30.00length (m)	temperature (°C)	Stokes	anti-Stokes-747.200	800.000	0.075	0.233
-746.185	750.991	0.047	-0.128
-745.171	321.766	-0.118	-0.228
-744.156	164.870	-0.050	0.071
-743.142	13.278	0.096	0.075
-742.127	-57.593	0.124	0.055
-741.112	10.738	0.368	-0.284
-740.098	-112.514	-0.257	0.052
-739.083	8.800	0.337	0.257
-738.069	-53.272	0.220	-0.102
-737.054	-50.693	0.032	0.015
-736.039	-150.332	-0.378	0.029
-735.025	-64.600	-0.046	-0.019
-734.010	-41.921	-0.116	-0.060
-732.996	-27.877	0.167	-0.098
-731.981	171.115	0.081	-0.118
-730.966	-142.194	0.239	-0.024
-729.952	-69.652	0.095	0.037
-728.937	576.198	0.048	-0.117
-727.923	-2.216	-0.179	-0.127
-726.908	-60.857	0.259	-0.111
-725.894	158.127	0.162	0.228
-724.879	-6.387	-0.250	-0.172
-723.864	-45.868	0.327	-0.163
-722.850	-118.481	-0.172	-0.031
-721.835	208.172	0.125	-0.198
-720.821	12.904	0.075	0.059
-719.806	162.398	-0.054	0.077
-718.791	115.683	0.107	-0.132
-717.777	420.628	0.143	0.310
-716.762	-22.277	-0.215	-0.132
-715.748	718.751	0.059	-0.158
-714.733	181.993	0.053	-0.079
-713.718	273.786	0.144	0.258
-712.704	-67.472	0.291	0.115
-711.689	-20.791	-0.121	-0.075
-710.675	-107.562	-0.171	0.038
-709.660	382.031	0.144	-0.300
-708.645	-200.000	0.067	-0.422
-707.631	800.000	0.054	-0.189
-706.616	18.473	-0.171	0.138
-705.602	-102.040	-0.241	-0.059
-704.587	-184.625	-0.524	-0.009
-703.572	675.610	0.078	0.204
-702.558	-95.160	-0.237	-0.065
-701.543	-48.793	0.247	-0.120
-700.529	-104.798	0.182	0.042
-699.514	7.090	-0.172	0.129
-698.499	-192.732	0.456	-0.004
-697.485	-53.084	-0.111	-0.051
-696.470	54.672	-0.278	0.271
-695.456	-166.857	0.267	0.011
-694.441	-53.341	-0.127	-0.059
-693.426	-200.000	-0.012	-0.127
-692.412	800.000	0.064	-0.242
-691.397	-200.000	0.058	0.290
-690.383	-146.630	0.160	0.014
-689.368	6.979	0.108	-0.081
-688.354	-8.915	-0.057	-0.039
-687.339	58.737	-0.464	-0.461
-686.324	-200.000	0.063	0.333
-685.310	743.206	0.024	0.064
-684.295	341.799	-0.054	-0.107
-683.281	244.609	-0.150	0.254
-682.266	575.420	0.126	0.312
-681.251	48.642	0.163	0.154
-680.237	-95.433	-0.232	0.063
-679.222	-200.000	-0.018	-0.174
-678.208	-84.688	-0.231	0.074
-677.193	800.000	-0.014	-0.056
-676.178	-200.000	0.038	-0.202
-675.164	-28.205	-0.114	-0.066
-674.149	10.022	-0.152	0.117
-673.135	-200.000	0.019	0.197
-672.120	54.218	0.168	0.163
-671.105	688.222	-0.053	0.141
-670.091	59.857	-0.305	-0.304
-669.076	800.000	-0.034	-0.136
-668.062	25.839	-0.231	0.194
-667.047	799.108	-0.023	0.064
-666.032	-200.000	0.002	0.136
-665.018	-29.909	-0.216	-0.124
-664.003	46.990	-0.132	0.123
-662.989	-59.165	0.243	0.105
-661.974	116.867	-0.108	0.133
-660.959	-86.918	-0.139	0.043
-659.945	-135.838	0.306	-0.036
-658.930	-200.000	-0.017	-0.125
-657.916	-32.920	0.289	-0.162
-656.901	595.770	-0.095	-0.236
-655.886	-200.000	-0.059	-0.384
-654.872	110.008	0.093	0.112
-653.857	427.750	0.131	-0.285
-652.843	40.154	0.113	-0.103
-651.828	-129.883	0.071	-0.010
-650.814	462.236	-0.133	0.300
-649.799	-85.756	0.090	0.028
-648.784	-104.021	0.275	0.065
-647.770	-17.407	-0.316	-0.200
-646.755	-144.030	0.191	0.018
-645.741	62.654	-0.096	-0.097
-644.726	33.193	0.167	-0.146
-643.711	355.690	0.093	-0.186
-642.697	-200.000	0.022	-0.165
-641.682	349.718	-0.119	0.236
-640.668	-87.817	0.102	-0.031
-639.653	42.448	-0.318	0.291
-638.638	42.793	0.275	-0.253
-637.624	-6.136	-0.181	-0.125
-636.609	-114.726	0.180	-0.035
-635.595	-4.837	0.122	0.085
-634.580	-151.138	0.088	0.007
-633.565	21.549	0.189	0.155
-632.551	113.873	0.133	0.163
-631.536	-169.780	-0.145	-0.005
-630.522	-200.000	0.007	-0.098
-629.507	-200.000	-0.068	0.367
-628.492	-84.678	-0.356	-0.113
-627.478	-200.000	0.008	0.168
-626.463	237.497	-0.076	-0.128
-625.449	220.491	-0.131	0.211
-624.434	77.929	-0.141	-0.152
-623.419	-100.063	-0.182	0.046
-622.405	357.011	0.196	-0.393
-621.390	180.410	0.196	0.290
-620.376	59.841	-0.288	0.286
-619.361	769.883	0.083	0.228
-618.346	491.315	-0.111	0.255
-617.332	800.000	-0.036	-0.110
-616.317	-38.332	0.040	-0.021
-615.303	364.685	0.146	-0.296
-614.288	421.364	0.047	-0.100
-613.273	-200.000	-0.020	-0.115
-612.259	67.958	-0.178	0.183
-611.244	-200.000	-0.005	0.394
-610.230	84.776	-0.176	-0.194
-609.215	800.000	0.051	-0.189
-608.201	4.077	0.162	-0.119
-607.186	320.418	-0.065	-0.124
-606.171	450.276	0.081	0.179
-605.157	62.326	0.233	-0.234
-604.142	154.931	0.108	0.149
-603.128	800.000	0.047	0.165
-602.113	-97.272	0.074	0.020
-601.098	23.644	-0.243	-0.201
-600.084	-200.000	0.006	-0.063
-599.069	-113.452	0.115	-0.023
-598.055	162.560	0.037	0.052
-597.040	84.210	-0.136	-0.149
-596.025	474.486	-0.093	0.210
-595.011	-72.577	0.228	-0.085
-593.996	-55.662	0.062	0.028
-592.982	-200.000	0.008	0.209
-591.967	-200.000	0.030	0.214
-590.952	-200.000	-0.075	-0.347
-589.938	204.237	0.153	0.238
-588.923	380.667	0.153	0.316
-587.909	-28.457	-0.283	-0.164
-586.894	29.810	0.157	-0.134
-585.879	800.000	0.045	-0.136
-584.865	-99.038	-0.471	-0.120
-583.850	104.079	-0.178	-0.210
-582.836	800.000	0.043	-0.124
-581.821	-123.809	0.459	-0.073
-580.806	80.085	0.037	0.040
-579.792	11.555	-0.144	-0.111
-578.777	800.000	0.080	-0.272
-577.763	113.186	-0.188	-0.230
-576.748	-11.166	0.088	0.058
-575.733	800.000	0.133	0.530
-574.719	-16.130	0.096	0.061
-573.704	800.000	-0.077	-0.260
-572.690	418.820	0.126	0.270
-571.675	84.387	0.043	0.048
-570.661	357.033	-0.104	0.208
-569.646	-169.598	0.180	-0.007
-568.631	-44.618	0.136	0.068
-567.617	277.006	-0.169	0.302
-566.602	252.094	0.109	0.186
-565.588	-150.014	0.331	-0.026
-564.573	-118.150	-0.047	0.008
-563.558	371.000	-0.135	-0.274
-562.544	-81.751	-0.223	0.073
-561.529	228.948	-0.066	0.109
-560.515	-197.699	0.231	0.001
-559.500	-88.115	0.163	0.049
-558.485	800.000	-0.118	-0.479
-557.471	-135.180	-0.217	0.026
-556.456	800.000	0.127	0.354
-555.442	800.000	0.102	-0.392
-554.427	-118.374	0.106	0.019
-553.412	427.689	-0.063	-0.136
-552.398	103.759	-0.126	-0.148
-551.383	-174.834	-0.229	0.006
-550.369	537.619	0.071	0.169
-549.354	69.863	-0.287	0.297
-548.339	-200.000	0.010	-0.252
-547.325	-126.257	0.259	0.039
-546.310	98.301	0.164	-0.190
-545.296	15.455	0.034	0.027
-544.281	800.000	0.041	-0.175
-543.266	-200.000	0.005	-0.196
-542.252	-93.149	-0.133	0.037
-541.237	44.431	0.080	0.074
-540.223	6.996	-0.187	0.140
-539.208	316.727	-0.096	-0.182
-538.193	81.066	0.182	0.197
-537.179	-200.000	0.015	-0.068
-536.164	-64.022	0.087	0.036
-535.150	-51.706	-0.091	-0.042
-534.135	-4.491	0.097	-0.067
-533.121	-161.873	0.418	-0.021
-532.106	800.000	-0.016	0.050
-531.091	-200.000	-0.026	-0.156
-530.077	375.323	0.045	-0.091
-529.062	-112.053	0.179	-0.036
-528.048	800.000	0.028	-0.102
-527.033	800.000	0.026	0.091
-526.018	-200.000	0.026	0.192
-525.004	-200.000	-0.037	-0.211
-523.989	-29.065	-0.338	-0.195
-522.975	120.633	-0.077	0.096
-521.960	61.567	0.061	0.061
-520.945	-83.605	-0.148	-0.048
-519.931	212.944	0.051	0.080
-518.916	161.457	0.115	0.162
-517.902	-200.000	0.016	-0.084
-516.887	376.989	0.055	-0.112
-515.872	800.000	-0.052	0.176
-514.858	175.465	-0.158	0.230
-513.843	-137.958	-0.246	0.028
-512.829	-164.472	0.259	0.012
-511.814	611.379	-0.078	-0.195
-510.799	4.106	-0.183	0.134
-509.785	-19.824	-0.316	0.196
-508.770	119.730	-0.225	-0.279
-507.756	12.089	0.169	-0.130
-506.741	800.000	0.071	0.298
-505.726	-161.056	-0.013	0.001
-504.712	795.489	0.083	0.230
-503.697	-106.815	-0.303	-0.067
-502.683	79.352	0.145	0.156
-501.668	-200.000	0.004	-0.075
-500.653	492.980	-0.142	0.326
-499.639	800.000	0.041	-0.134
-498.624	-57.800	0.167	-0.073
-497.610	234.008	0.069	-0.114
-496.595	-0.754	-0.345	-0.245
-495.581	4.482	-0.092	0.068
-494.566	150.164	-0.140	-0.191
-493.551	-58.728	-0.277	-0.120
-492.537	321.031	-0.137	-0.260
-491.522	-200.000	0.005	-0.066
-490.508	-42.284	-0.263	0.135
-489.493	-200.000	-0.002	-0.161
-488.478	-48.059	-0.254	-0.123
-487.464	800.000	-0.046	0.151
-486.449	-200.000	0.014	-0.356
-485.435	169.476	0.075	-0.107
-484.420	-142.492	0.242	-0.024
-483.405	-40.445	0.116	-0.060
-482.391	-200.000	-0.003	-0.314
-481.376	13.243	-0.150	0.117
-480.362	736.395	0.078	0.209
-479.347	-200.000	0.029	-0.193
-478.332	-144.667	0.142	-0.013
-477.318	65.961	-0.336	0.341
-476.303	-115.025	-0.218	0.041
-475.289	414.795	0.109	-0.233
-474.274	-153.424	0.167	-0.012
-473.259	-135.357	-0.367	-0.044
-472.245	-135.044	0.288	-0.035
-471.230	-62.344	-0.209	-0.087
-470.216	512.909	-0.054	0.126
-469.201	359.340	-0.160	-0.319
-468.186	21.704	-0.110	0.090
-467.172	-99.794	-0.113	0.028
-466.157	-105.900	0.286	-0.064
-465.143	-108.765	-0.363	-0.078
-464.128	691.421	-0.072	0.188
-463.113	91.371	-0.074	-0.083
-462.099	734.417	0.070	0.188
-461.084	-37.943	0.092	-0.049
-460.070	800.000	0.071	0.254
-459.055	800.000	-0.044	-0.138
-458.040	663.493	-0.053	-0.136
-457.026	-119.461	0.200	-0.035
-456.011	337.718	-0.095	-0.186
-454.997	-157.269	-0.153	-0.009
-453.982	800.000	0.045	-0.195
-452.968	-41.295	-0.130	-0.067
-451.953	308.829	0.098	-0.183
-450.938	226.645	0.057	-0.093
-449.924	-88.835	0.128	0.038
-448.909	-200.000	0.003	0.234
-447.895	268.799	0.094	-0.165
-446.880	210.020	0.093	0.147
-445.865	326.737	0.079	0.152
-444.851	-13.189	0.105	-0.068
-443.836	60.982	0.104	-0.103
-442.822	-19.048	0.131	-0.081
-441.807	757.154	0.076	-0.205
-440.792	-200.000	-0.017	-0.115
-439.778	188.254	0.061	-0.091
-438.763	-70.840	-0.302	0.114
-437.749	-117.775	-0.357	-0.064
-436.734	-1.027	0.167	-0.118
-435.719	-94.407	0.162	-0.044
-434.705	-135.537	0.205	-0.024
-433.690	-45.249	0.254	0.126
-432.676	141.264	0.173	0.228
-431.661	47.338	-0.311	0.289
-430.646	-10.451	-0.310	-0.205
-429.632	380.808	0.061	-0.126
-428.617	123.996	0.171	-0.215
-427.603	-129.426	-0.229	0.032
-426.588	131.884	-0.087	-0.111
-425.573	-74.944	-0.269	0.096
-424.559	-91.251	0.110	0.031
-423.544	800.000	0.064	0.251
-422.530	-131.062	-0.181	-0.024
-421.515	-149.350	-0.295	-0.023
-420.500	-196.394	0.489	-0.003
-419.486	-200.000	0.049	-0.222
-418.471	108.433	0.123	0.146
-417.457	-16.593	-0.283	0.179
-416.442	-74.276	-0.037	-0.013
-415.428	-21.000	-0.103	-0.063
-414.413	-200.000	-0.045	0.277
-413.398	-128.578	-0.153	0.022
-412.384	402.978	0.112	0.235
-411.369	297.453	0.026	-0.048
-410.355	-63.440	-0.068	-0.028
-409.340	-200.000	0.036	0.305
-408.325	202.071	-0.136	-0.209
-407.311	105.669	-0.129	-0.152
-406.296	268.326	-0.024	-0.041
-405.282	-66.305	-0.375	-0.149
-404.267	-33.872	-0.209	0.115
-403.252	456.119	-0.098	0.217
-402.238	800.000	-0.031	0.117
-401.223	120.068	0.136	0.169
-400.209	-53.282	-0.170	0.078
-399.194	-200.000	-0.010	0.087
-398.179	-108.886	-0.193	0.041
-397.165	-23.280	0.127	0.076
-396.150	-48.058	-0.036	-0.018
-395.136	16.733	-0.201	-0.158
-394.121	-27.311	-0.044	-0.026
-393.106	353.971	-0.083	-0.164
-392.092	57.413	-0.105	0.102
-391.077	-49.010	0.024	-0.011
-390.063	323.559	0.136	-0.258
-389.048	131.437	0.223	-0.286
-388.033	-45.704	-0.163	-0.080
-387.019	-131.366	0.178	0.024
-386.004	-55.413	0.145	-0.065
-384.990	145.679	-0.176	0.235
-383.975	68.180	0.126	0.128
-382.960	-195.866	-0.139	0.001
-381.946	-132.633	0.274	0.035
-380.931	-200.000	0.028	0.457
-379.917	800.000	-0.029	0.116
-378.902	74.893	-0.258	0.271
-377.888	163.709	-0.131	0.184
-376.873	-33.111	-0.362	-0.200
-375.858	800.000	0.146	-0.418
-374.844	-1.211	0.132	-0.093
-373.829	-200.000	0.008	-0.134
-372.815	152.575	0.010	0.014
-371.800	-200.000	0.028	-0.193
-370.785	-200.000	0.038	-0.295
-369.771	-116.328	0.213	0.039
-368.756	176.473	-0.193	0.280
-367.742	-190.931	0.234	-0.002
-366.727	-164.555	0.294	0.013
-365.712	800.000	-0.089	0.317
-364.698	-200.000	0.018	-0.130
-363.683	60.107	-0.112	-0.110
-362.669	-128.757	-0.132	0.018
-361.654	175.620	0.205	0.297
-360.639	31.547	-0.116	0.099
-359.625	-21.635	-0.101	-0.061
-358.610	-200.000	-0.030	-0.237
-357.596	284.128	0.037	-0.066
-356.581	800.000	-0.070	0.204
-355.566	70.786	0.207	0.214
-354.552	47.762	0.143	-0.133
-353.537	-200.000	0.039	0.254
-352.523	-101.970	-0.174	0.042
-351.508	-51.861	0.140	-0.065
-350.493	-128.863	-0.250	0.035
-349.479	374.185	-0.060	0.122
-348.464	267.171	0.217	-0.377
-347.450	10.361	0.285	-0.216
-346.435	73.900	0.062	-0.064
-345.420	145.614	0.305	-0.407
-344.406	-200.000	-0.078	-0.384
-343.391	-150.506	-0.184	0.014
-342.377	-61.382	-0.058	0.024
-341.362	-75.854	0.195	-0.069
-340.348	-86.789	-0.276	-0.084
-339.333	149.990	-0.058	0.079
-338.318	-192.758	-0.429	-0.004
-337.304	-92.718	0.092	-0.026
-336.289	41.537	0.152	0.137
-335.275	-200.000	-0.022	0.214
-334.260	-172.730	0.225	-0.007
-333.245	-90.137	0.159	0.046
-332.231	-4.210	0.240	0.165
-331.216	-11.172	0.219	0.144
-330.202	-186.776	-0.124	0.002
-329.187	-116.799	0.139	0.025
-328.172	-0.599	0.226	0.159
-327.158	67.873	-0.075	0.076
-326.143	-105.821	0.397	0.089
-325.129	-77.706	0.275	-0.095
-324.114	170.452	-0.037	0.052
-323.099	298.852	-0.191	0.349
-322.085	800.000	-0.100	0.322
-321.070	7.389	-0.270	-0.201
-320.056	-91.585	0.162	0.046
-319.041	-91.793	0.198	0.056
-318.026	-61.150	-0.086	0.036
-317.012	-200.000	-0.016	0.182
-315.997	283.162	-0.019	0.035
-314.983	-108.853	0.359	0.076
-313.968	-141.800	-0.568	0.057
-312.953	-0.590	0.042	-0.030
-311.939	-1.105	-0.437	0.308
-310.924	-78.762	0.326	-0.111
-309.910	40.277	-0.048	-0.043
-308.895	800.000	0.094	0.336
-307.880	-200.000	0.006	-0.574
-306.866	800.000	0.041	-0.126
-305.851	-200.000	0.021	0.335
-304.837	540.728	0.101	0.240
-303.822	42.557	0.299	-0.270
-302.807	117.171	0.178	-0.217
-301.793	-74.056	0.044	0.016
-300.778	116.595	0.187	0.228
-299.764	12.336	-0.396	-0.304
-298.749	-200.000	-0.032	0.152
-297.735	-200.000	0.019	-0.244
-296.720	-45.475	0.167	-0.082
-295.705	214.266	-0.130	0.205
-294.691	-21.262	0.180	-0.109
-293.676	-39.607	-0.143	0.074
-292.662	-61.253	0.271	-0.113
-291.647	-136.565	-0.208	0.024
-290.632	79.466	-0.175	0.186
-289.618	-50.841	0.320	-0.149
-288.603	418.512	0.051	0.108
-287.589	55.703	0.052	0.051
-286.574	-18.273	0.113	0.070
-285.559	800.000	-0.121	0.381
-284.545	-94.785	0.120	-0.032
-283.530	-9.602	-0.064	0.042
-282.516	-71.142	-0.208	0.078
-281.501	129.381	-0.157	0.200
-280.486	-28.775	-0.140	-0.080
-279.472	-67.424	0.280	-0.109
-278.457	66.696	-0.275	0.278
-277.443	-47.388	-0.141	0.068
-276.428	-200.000	0.055	0.255
-275.413	800.000	-0.013	0.044
-274.399	-200.000	0.017	0.074
-273.384	-200.000	0.032	0.253
-272.370	-136.237	-0.439	-0.051
-271.355	800.000	0.013	-0.046
-270.340	-143.941	-0.217	0.020
-269.326	-8.472	-0.101	-0.067
-268.311	48.705	0.200	0.186
-267.297	-118.371	0.132	-0.023
-266.282	85.414	-0.174	-0.190
-265.267	17.696	0.402	-0.318
-264.253	547.292	-0.108	0.257
-263.238	-120.149	-0.351	0.060
-262.224	-200.000	-0.002	-0.042
-261.209	-113.105	0.104	0.020
-260.195	800.000	-0.060	-0.250
-259.180	-200.000	0.014	0.160
-258.165	800.000	0.067	0.218
-257.151	165.926	0.127	-0.178
-256.136	800.000	0.033	0.102
-255.122	-35.745	0.106	-0.057
-254.107	-148.847	-0.236	0.019
-253.092	-200.000	-0.011	0.326
-252.078	-103.665	0.153	0.036
-251.063	800.000	-0.037	0.116
-250.049	-166.202	-0.118	-0.005
-249.034	-90.171	0.210	0.061
-248.019	27.692	0.160	-0.133
-247.005	800.000	-0.037	-0.132
-245.990	29.212	-0.072	0.061
-244.976	0.160	-0.241	0.170
-243.961	-61.008	0.012	0.005
-242.946	-200.000	0.007	-0.206
-241.932	-200.000	-0.027	-0.150
-240.917	-97.828	0.231	0.059
-239.903	49.703	0.240	0.224
-238.888	119.094	0.154	-0.189
-237.873	800.000	-0.079	-0.217
-236.859	171.721	-0.051	-0.073
-235.844	-162.496	0.050	0.002
-234.830	-2.175	-0.066	0.046
-233.815	-200.000	-0.052	-0.345
-232.800	-154.972	-0.221	-0.014
-231.786	-142.892	0.127	-0.012
-230.771	413.533	-0.021	0.044
-229.757	-158.051	0.134	0.008
-228.742	14.139	0.107	0.083
-227.727	-43.449	-0.029	-0.014
-226.713	-200.000	-0.013	0.237
-225.698	-156.731	0.122	-0.007
-224.684	-93.456	-0.337	0.092
-223.669	25.758	-0.076	-0.063
-222.655	272.251	0.056	-0.097
-221.640	800.000	-0.083	-0.257
-220.625	-128.812	-0.266	0.037
-219.611	800.000	-0.007	0.030
-218.596	5.246	-0.227	0.166
-217.582	37.367	-0.159	-0.140
-216.567	-62.831	0.372	0.153
-215.552	-100.552	0.370	0.091
-214.538	-79.482	0.351	0.118
-213.523	17.052	0.296	0.232
-212.509	-86.559	0.178	0.054
-211.494	19.249	-0.121	0.096
-210.479	-122.660	0.286	-0.046
-209.465	127.035	-0.185	0.232
-208.450	131.949	-0.001	0.001
-207.436	-200.000	0.024	-0.122
-206.421	0.626	0.121	-0.086
-205.406	152.809	0.138	-0.187
-204.392	166.013	-0.134	0.187
-203.377	278.171	0.136	-0.239
-202.363	-26.245	0.047	0.027
-201.348	39.746	0.220	0.195
-200.333	-164.845	0.296	0.013
-199.319	-1.461	0.184	-0.128
-198.304	-20.345	-0.199	0.121
-197.290	606.998	-0.108	0.266
-196.275	-92.217	-0.078	-0.022
-195.260	-138.735	0.249	0.027
-194.246	-200.000	-0.025	-0.274
-193.231	-200.000	0.000	-0.052
-192.217	-84.580	0.154	-0.048
-191.202	53.150	-0.292	-0.277
-190.187	-111.629	-0.099	0.020
-189.173	-64.108	0.093	-0.038
-188.158	-200.000	-0.084	-0.422
-187.144	-95.518	-0.276	-0.073
-186.129	165.209	-0.107	0.149
-185.114	-196.353	-0.448	-0.003
-184.100	405.993	0.082	-0.171
-183.085	800.000	-0.007	0.026
-182.071	-22.198	0.217	-0.130
-181.056	800.000	-0.177	-0.508
-180.042	51.966	-0.215	0.203
-179.027	-200.000	0.026	0.285
-178.012	215.016	-0.007	0.011
-176.998	800.000	-0.109	-0.393
-175.983	59.781	0.236	0.230
-174.969	159.026	0.095	-0.131
-173.954	-200.000	0.052	0.303
-172.939	800.000	0.087	0.278
-171.925	-169.655	0.309	0.011
-170.910	26.580	-0.226	-0.187
-169.896	-100.884	0.166	-0.040
-168.881	104.032	0.170	0.198
-167.866	-101.618	-0.108	0.026
-166.852	-46.704	-0.283	-0.137
-165.837	-163.117	0.512	0.024
-164.823	250.850	0.073	-0.123
-163.808	89.500	0.251	-0.277
-162.793	-200.000	0.019	-0.153
-161.779	-56.185	0.015	0.007
-160.764	525.343	-0.056	-0.131
-159.750	-200.000	-0.006	-0.165
-158.735	-117.746	-0.129	-0.023
-157.720	74.926	0.264	-0.275
-156.706	-8.466	0.011	-0.007
-155.691	-108.413	-0.202	0.043
-154.677	-14.205	-0.114	0.073
-153.662	-26.797	0.198	0.114
-152.647	420.287	-0.203	0.431
-151.633	-138.989	-0.315	0.034
-150.618	-29.341	-0.186	-0.105
-149.604	-130.625	-0.356	-0.047
-148.589	151.367	-0.074	0.099
-147.574	-42.603	0.089	-0.045
-146.560	-200.000	0.006	0.289
-145.545	-200.000	-0.006	-0.313
-144.531	-83.433	0.166	-0.053
-143.516	800.000	-0.079	0.294
-142.502	-51.094	0.424	0.197
-141.487	-184.405	0.123	-0.002
-140.472	-136.134	-0.331	-0.038
-139.458	-101.623	0.181	-0.044
-138.443	-80.110	-0.321	-0.106
-137.429	-200.000	-0.002	-0.129
-136.414	-153.119	-0.162	0.011
-135.399	800.000	0.048	0.202
-134.385	-200.000	-0.025	-0.172
-133.370	260.546	0.143	-0.245
-132.356	800.000	-0.073	0.278
-131.341	-200.000	-0.035	-0.166
-130.326	-42.753	-0.184	0.093
-129.312	291.747	0.058	-0.104
-128.297	-200.000	-0.012	-0.332
-127.283	-96.795	-0.086	-0.022
-126.268	-63.135	0.214	-0.087
-125.253	-200.000	0.003	0.149
-124.239	98.488	-0.101	-0.115
-123.224	38.372	0.144	0.127
-122.210	-75.811	0.188	0.066
-121.195	-200.000	0.017	0.132
