DTS Sentinel unit serial number:	SN413079Multiplexer serial number:	ORYXHardware model number:	OX4-SRSoftware version number:	ORYX F/W v4.00 Oryx Data Collector v3.7.2.0data status	okinstallation	princeton_trtdifferential loss correction	single-endedforward channel	channel 1reverse channel	N/Adate	2019/09/10time	18:24:11forward acquisition time	60.00reverse acquisition time	0.00gamma	496.2192k internal	0.2305k external	0.2305temperature offset calibration	0.9932default loss term (dB/km)	0.3790temperature slope calibration	1.0000multiplexer offset coefficient	1.0000multiplexer slope coefficient	1.0000fibre end	0.00T internal ref (°C)	36.14T ext. ref 1 (°C)	-0.39T ext. ref 2 (°C)	28.26length (m)	temperature (°C)	Stokes	anti-Stokes-747.200	325.180	0.229	-0.446
-746.185	156.381	-0.190	0.268
-745.171	302.288	0.108	0.202
-744.156	522.884	-0.079	-0.189
-743.142	-67.814	0.245	0.098
-742.127	-200.000	-0.011	0.085
-741.112	-200.000	-0.004	-0.027
-740.098	45.002	0.022	0.021
-739.083	-53.532	0.059	0.028
-738.069	-200.000	0.030	0.281
-737.054	800.000	-0.073	-0.207
-736.039	-117.961	0.141	0.026
-735.025	800.000	0.064	0.216
-734.010	-51.444	-0.343	-0.163
-732.996	349.825	-0.076	0.153
-731.981	112.247	-0.187	-0.230
-730.966	392.115	-0.087	-0.184
-729.952	69.559	-0.323	0.338
-728.937	-102.008	-0.126	0.031
-727.923	800.000	0.057	-0.183
-726.908	306.965	-0.004	0.008
-725.894	-200.000	-0.018	-0.257
-724.879	454.589	-0.150	-0.337
-723.864	126.036	-0.095	-0.122
-722.850	65.144	0.041	-0.042
-721.835	-84.761	0.184	0.059
-720.821	-110.184	-0.264	-0.056
-719.806	-130.743	-0.221	0.030
-718.791	-25.188	-0.277	-0.167
-717.777	-41.157	-0.149	-0.078
-716.762	-200.000	-0.031	-0.330
-715.748	-148.279	0.123	-0.010
-714.733	103.607	0.258	-0.308
-713.718	-200.000	-0.059	-0.319
-712.704	-200.000	-0.029	0.340
-711.689	-88.064	0.121	-0.037
-710.675	-61.046	-0.367	-0.158
-709.660	409.126	-0.023	0.050
-708.645	22.740	0.117	0.097
-707.631	-153.459	-0.248	0.017
-706.616	-122.921	-0.195	-0.032
-705.602	-200.000	-0.028	-0.241
-704.587	-131.952	-0.316	-0.042
-703.572	210.601	-0.130	0.207
-702.558	-56.741	0.175	-0.079
-701.543	293.270	0.104	-0.192
-700.529	85.601	-0.066	-0.074
-699.514	207.385	-0.076	-0.121
-698.499	669.173	-0.033	0.087
-697.485	-52.906	0.174	-0.081
-696.470	800.000	0.078	-0.288
-695.456	-200.000	0.028	0.129
-694.441	43.621	0.299	-0.278
-693.426	58.838	-0.157	-0.157
-692.412	-42.551	0.197	0.102
-691.397	800.000	0.056	0.249
-690.383	159.853	0.102	0.144
-689.368	-74.345	0.223	-0.082
-688.354	-138.412	-0.231	0.026
-687.339	800.000	0.052	-0.202
-686.324	-45.025	0.062	0.031
-685.310	233.321	-0.194	0.324
-684.295	-62.199	-0.196	-0.083
-683.281	-133.563	-0.127	0.016
-682.266	81.545	0.207	0.227
-681.251	-160.931	-0.260	0.014
-680.237	-23.293	-0.136	0.083
-679.222	203.710	-0.096	0.151
-678.208	-200.000	-0.010	0.107
-677.193	-75.291	-0.219	-0.079
-676.178	-109.790	0.139	-0.030
-675.164	35.305	-0.152	-0.135
-674.149	8.881	0.010	0.008
-673.135	-200.000	0.001	0.011
-672.120	60.461	-0.194	0.195
-671.105	27.593	0.142	-0.121
-670.091	800.000	-0.099	0.343
-669.076	-171.198	-0.175	-0.006
-668.062	-200.000	0.024	-0.434
-667.047	51.652	-0.128	0.123
-666.032	234.422	0.043	0.071
-665.018	130.321	0.212	-0.276
-664.003	-200.000	0.055	-0.352
-662.989	-33.394	0.189	-0.106
-661.974	-154.921	-0.223	0.015
-660.959	-154.747	-0.151	-0.010
-659.945	-71.132	-0.181	-0.069
-658.930	441.328	0.041	0.091
-657.916	126.224	0.146	0.187
-656.901	117.229	0.051	0.064
-655.886	44.745	-0.106	-0.099
-654.872	179.884	0.128	-0.191
-653.857	800.000	-0.065	-0.194
-652.843	280.278	0.090	0.163
-651.828	-200.000	0.003	-0.175
-650.814	-39.252	0.213	0.113
-649.799	35.806	0.326	-0.291
-648.784	688.227	0.011	0.030
-647.770	157.104	-0.101	0.142
-646.755	21.578	0.139	-0.115
-645.741	56.446	0.098	-0.097
-644.726	-133.889	-0.204	-0.026
-643.711	53.184	0.038	-0.037
-642.697	800.000	-0.035	0.115
-641.682	-159.796	0.140	0.008
-640.668	-87.058	-0.161	-0.050
-639.653	-200.000	-0.016	0.090
-638.638	-200.000	0.005	-0.412
-637.624	-200.000	0.242	0.000
-636.609	29.536	0.068	0.059
-635.595	-113.146	-0.365	-0.073
-634.580	-100.113	-0.141	0.036
-633.565	352.680	0.065	0.130
-632.551	101.403	-0.101	-0.119
-631.536	-200.000	-0.024	-0.200
-630.522	202.530	0.212	0.332
-629.507	-95.759	0.290	-0.078
-628.492	800.000	-0.042	0.138
-627.478	147.752	0.087	0.119
-626.463	-200.000	0.013	-0.062
-625.449	800.000	0.097	-0.279
-624.434	357.017	0.151	-0.305
-623.419	-36.096	-0.163	0.089
-622.405	213.794	-0.272	-0.435
-621.390	-67.657	0.216	-0.085
-620.376	-200.000	-0.001	0.450
-619.361	195.420	-0.276	0.424
-618.346	800.000	-0.088	-0.332
-617.332	-107.519	-0.096	-0.021
-616.317	-60.804	0.077	0.033
-615.303	5.363	0.048	-0.036
-614.288	-134.008	-0.321	0.040
-613.273	-200.000	-0.004	0.419
-612.259	53.085	-0.248	0.240
-611.244	377.444	0.135	-0.279
-610.230	-200.000	-0.032	0.219
-609.215	248.454	-0.184	-0.315
-608.201	321.935	0.076	0.146
-607.186	-200.000	0.121	0.675
-606.171	-29.698	-0.271	0.157
-605.157	289.650	-0.162	0.297
-604.142	90.462	-0.064	-0.072
-603.128	125.495	-0.073	0.094
-602.113	-34.996	-0.214	-0.118
-601.098	-71.159	-0.170	0.064
-600.084	-91.473	0.094	0.027
-599.069	-134.451	-0.090	-0.011
-598.055	-28.699	-0.085	-0.050
-597.040	-200.000	0.046	-0.288
-596.025	-200.000	0.048	-0.215
-595.011	-5.051	-0.117	-0.081
-593.996	-161.685	0.305	-0.016
-592.982	345.291	-0.013	-0.027
-591.967	-78.278	0.210	-0.073
-590.952	392.420	-0.093	-0.196
-589.938	495.919	0.109	-0.254
-588.923	-51.781	-0.118	0.056
-587.909	-121.745	-0.344	-0.057
-586.894	-37.781	0.315	0.169
-585.879	-200.000	0.007	0.079
-584.865	169.509	0.042	-0.061
-583.850	-200.000	0.007	-0.126
-582.836	-14.478	0.235	-0.153
-581.821	194.077	-0.133	-0.204
-580.806	-105.021	-0.034	0.008
-579.792	-3.927	0.262	-0.184
-578.777	34.051	-0.083	-0.073
-577.763	-200.000	0.006	-0.084
-576.748	-74.723	-0.371	0.135
-575.733	-31.795	-0.084	0.047
-574.719	-180.931	0.172	0.004
-573.704	134.891	0.067	-0.088
-572.690	291.980	-0.088	-0.162
-571.675	-200.000	0.010	0.112
-570.661	191.450	0.065	-0.098
-569.646	75.625	-0.424	-0.452
-568.631	800.000	0.056	0.176
-567.617	-1.818	-0.032	0.023
-566.602	117.098	0.197	-0.245
-565.588	155.594	0.152	0.211
-564.573	-154.500	0.315	-0.021
-563.558	103.515	-0.194	0.230
-562.544	-139.032	0.178	-0.019
-561.529	75.289	-0.092	0.098
-560.515	-51.354	-0.179	0.085
-559.500	18.327	-0.097	-0.079
-558.485	253.260	0.128	-0.222
-557.471	-198.336	0.160	-0.001
-556.456	-200.000	0.029	-0.135
-555.442	266.089	-0.138	0.243
-554.427	636.801	-0.173	0.444
-553.412	271.172	-0.067	0.120
-552.398	-147.259	0.184	0.016
-551.383	47.303	-0.283	-0.266
-550.369	-99.440	-0.113	-0.029
-549.354	-200.000	-0.045	0.298
-548.339	373.381	0.125	-0.257
-547.325	350.075	0.071	-0.142
-546.310	769.280	0.040	-0.110
-545.296	-200.000	-0.012	-0.229
-544.281	800.000	-0.079	-0.261
-543.266	-200.000	-0.050	-0.253
-542.252	-132.447	-0.308	-0.040
-541.237	800.000	-0.041	-0.155
-540.223	28.509	-0.355	-0.304
-539.208	-127.333	-0.049	-0.007
-538.193	-92.884	0.063	-0.018
-537.179	-139.405	-0.165	-0.018
-536.164	241.608	-0.123	-0.208
-535.150	232.080	-0.156	-0.259
-534.135	251.117	-0.030	0.052
-533.121	-128.268	0.190	0.027
-532.106	-200.000	0.012	0.074
-531.091	157.524	0.147	-0.206
-530.077	800.000	-0.041	-0.121
-529.062	108.313	-0.175	0.211
-528.048	33.945	0.174	-0.153
-527.033	587.919	-0.186	0.461
-526.018	-200.000	0.015	-0.190
-525.004	-200.000	-0.028	-0.137
-523.989	-200.000	-0.008	0.148
-522.975	226.689	-0.131	-0.214
-521.960	-66.840	-0.287	-0.114
-520.945	-36.511	0.326	0.177
-519.931	545.814	-0.025	0.061
-518.916	-130.180	-0.113	0.016
-517.902	-17.062	-0.049	-0.031
-516.887	8.812	0.251	0.191
-515.872	800.000	-0.082	0.317
-514.858	72.706	0.117	0.123
-513.843	-26.346	0.172	0.102
-512.829	82.163	0.095	-0.104
-511.814	291.869	-0.077	-0.142
-510.799	-144.921	-0.335	-0.031
-509.785	-22.205	-0.289	0.177
-508.770	-0.121	0.221	0.159
-507.756	-56.880	-0.216	0.096
-506.741	-123.240	-0.220	0.036
-505.726	418.815	0.082	-0.177
-504.712	-113.583	0.140	-0.028
-503.697	800.000	0.075	-0.264
-502.683	469.044	0.122	-0.275
-501.668	-136.973	0.350	-0.040
-500.653	-55.914	0.115	0.052
-499.639	-118.190	-0.309	0.056
-498.624	-28.297	0.119	0.069
-497.610	-113.979	-0.054	0.010
-496.595	61.478	-0.373	-0.374
-495.581	135.147	0.044	-0.058
-494.566	141.206	-0.045	-0.060
-493.551	107.223	-0.115	0.138
-492.537	-76.911	0.296	0.104
-491.522	-24.027	0.101	-0.061
-490.508	-98.947	-0.314	-0.080
-489.493	800.000	-0.059	-0.209
-488.478	13.496	-0.187	-0.147
-487.464	800.000	0.072	-0.224
-486.449	267.604	-0.069	0.122
-485.435	-36.934	0.048	-0.026
-484.420	44.520	0.239	0.221
-483.405	526.476	-0.105	-0.250
-482.391	41.355	-0.239	0.218
-481.376	149.576	0.131	0.178
-480.362	-200.000	-0.010	0.208
-479.347	-64.600	0.077	0.031
-478.332	-200.000	0.025	-0.167
-477.318	-200.000	-0.006	0.166
-476.303	276.209	0.121	0.216
-475.289	48.229	0.222	-0.209
-474.274	1.631	0.178	0.129
-473.259	413.877	-0.171	0.367
-472.245	-33.819	0.129	0.071
-471.230	-17.863	0.194	-0.123
-470.216	-37.154	0.109	0.059
-469.201	-105.672	-0.163	-0.037
-468.186	310.443	-0.077	-0.145
-467.172	-89.783	-0.291	0.086
-466.157	-119.048	0.114	0.020
-465.143	744.001	0.113	-0.306
-464.128	-51.854	0.115	0.054
-463.113	-200.000	-0.009	0.043
-462.099	36.974	0.197	0.175
-461.084	-24.287	0.140	-0.084
-460.070	-93.802	0.023	-0.006
-459.055	-129.788	-0.229	-0.032
-458.040	-200.000	-0.063	0.288
-457.026	-132.996	-0.082	-0.010
-456.011	-32.860	-0.171	-0.096
-454.997	-108.202	-0.023	-0.005
-453.982	91.059	-0.126	-0.142
-452.968	142.464	0.140	0.187
-451.953	-136.573	-0.245	-0.029
-450.938	87.090	-0.346	-0.385
-449.924	-19.016	0.160	0.100
-448.909	233.466	0.171	0.284
-447.895	97.553	-0.150	-0.173
-446.880	200.322	-0.133	0.205
-445.865	40.682	0.324	0.294
-444.851	-81.542	-0.122	0.040
-443.836	452.962	0.062	0.137
-442.822	-123.290	-0.309	-0.050
-441.807	-200.000	0.011	0.319
-440.792	-200.000	0.039	0.246
-439.778	25.862	0.288	-0.241
-438.763	-21.244	-0.213	0.131
-437.749	-200.000	-0.001	0.006
-436.734	255.876	-0.268	0.462
-435.719	-200.000	0.066	-0.389
-434.705	218.466	-0.116	-0.187
-433.690	211.930	-0.028	-0.044
-432.676	-120.865	-0.050	0.009
-431.661	-200.000	0.023	0.385
-430.646	602.712	0.140	-0.350
-429.632	21.245	-0.145	-0.119
-428.617	-20.579	0.210	-0.130
-427.603	227.238	-0.062	-0.101
-426.588	-36.501	-0.128	0.069
-425.573	-98.739	-0.148	0.038
-424.559	198.762	0.115	-0.177
-423.544	-67.081	0.161	-0.064
-422.530	-200.000	-0.019	0.120
-421.515	-45.436	0.280	0.140
-420.500	-200.000	-0.011	-0.345
-419.486	-141.287	0.360	-0.037
-418.471	-170.724	-0.040	-0.001
-417.457	-200.000	0.008	-0.389
-416.442	112.753	-0.045	0.054
-415.428	-200.000	0.015	-0.198
-414.413	220.719	0.186	-0.300
-413.398	-57.109	0.194	0.086
-412.384	-33.653	0.257	-0.143
-411.369	51.625	0.024	0.023
-410.355	-200.000	0.016	-0.242
-409.340	-58.587	-0.234	-0.102
-408.325	800.000	-0.036	0.128
-407.311	-132.693	0.078	-0.010
-406.296	126.985	-0.152	-0.193
-405.282	703.583	-0.092	-0.243
-404.267	-129.148	-0.302	-0.042
-403.252	776.581	0.068	0.188
-402.238	11.691	-0.184	0.141
-401.223	-53.534	0.118	0.054
-400.209	-164.450	-0.189	-0.009
-399.194	-49.359	-0.065	-0.031
-398.179	-18.181	-0.224	-0.141
-397.165	-200.000	0.037	0.226
-396.150	42.515	0.189	0.172
-395.136	800.000	-0.023	0.076
-394.121	-136.230	0.214	0.025
-393.106	800.000	0.033	0.105
-392.092	800.000	-0.092	0.281
-391.077	44.805	0.084	0.078
-390.063	-87.816	0.173	-0.052
-389.048	-140.840	0.106	0.011
-388.033	-200.000	-0.032	-0.151
-387.019	800.000	-0.052	-0.215
-386.004	800.000	0.072	-0.202
-384.990	800.000	0.073	-0.288
-383.975	-200.000	0.050	-0.316
-382.960	-200.000	-0.018	0.456
-381.946	264.887	-0.115	0.202
-380.931	76.141	0.152	0.162
-379.917	87.080	-0.168	0.186
-378.902	145.026	0.236	-0.317
-377.888	-91.865	-0.082	0.023
-376.873	-126.108	0.192	0.029
-375.858	-107.343	0.384	-0.085
-374.844	24.737	-0.182	0.151
-373.829	213.744	-0.161	0.255
-372.815	-200.000	-0.036	0.243
-371.800	-55.353	-0.154	0.069
-370.785	296.940	-0.079	0.146
-369.771	126.171	-0.065	0.082
-368.756	-88.638	0.209	0.062
-367.742	430.356	0.106	0.230
-366.727	332.931	-0.139	0.269
-365.712	-145.028	0.322	-0.029
-364.698	263.451	-0.194	0.339
-363.683	170.331	0.154	-0.221
-362.669	-57.778	0.254	0.111
-361.654	800.000	-0.023	-0.068
-360.639	386.251	-0.206	-0.427
-359.625	74.799	0.036	-0.038
-358.610	434.518	0.082	0.178
-357.596	-11.343	0.056	-0.037
-356.581	-200.000	-0.017	0.269
-355.566	-86.026	-0.276	0.085
-354.552	-121.792	-0.290	-0.048
-353.537	124.495	-0.334	-0.421
-352.523	122.403	0.135	-0.169
-351.508	-91.602	0.397	0.113
-350.493	184.062	-0.073	0.109
-349.479	800.000	0.046	-0.199
-348.464	80.952	0.118	0.127
-347.450	-200.000	0.008	-0.327
-346.435	800.000	0.036	0.109
-345.420	-24.205	-0.143	0.086
-344.406	-200.000	0.023	0.135
-343.391	-49.716	-0.187	-0.089
-342.377	-101.092	-0.400	0.098
-341.362	-149.706	0.140	0.011
-340.348	-200.000	0.026	0.283
-339.333	568.709	0.048	-0.116
-338.318	163.887	-0.179	0.252
-337.304	-84.772	-0.027	-0.009
-336.289	-105.032	-0.334	0.077
-335.275	-200.000	0.007	0.121
-334.260	-200.000	-0.014	-0.172
-333.245	379.824	-0.088	0.180
-332.231	-141.288	0.209	0.021
-331.216	800.000	-0.064	0.192
-330.202	-118.768	0.335	0.059
-329.187	-55.724	-0.085	-0.038
-328.172	-163.712	0.114	-0.005
-327.158	57.764	0.046	-0.045
-326.143	-19.738	-0.152	0.094
-325.129	175.963	-0.202	0.294
-324.114	-200.000	0.015	-0.163
-323.099	-22.310	-0.151	0.091
-322.085	475.083	-0.135	0.304
-321.070	-151.109	0.090	0.007
-320.056	-107.997	0.067	-0.015
-319.041	160.568	0.044	-0.062
-318.026	164.781	-0.269	-0.380
-317.012	800.000	-0.034	0.109
-315.997	-55.025	0.254	-0.115
-314.983	126.391	0.107	0.135
-313.968	507.395	0.068	0.159
-312.953	112.590	0.175	0.212
-311.939	15.299	0.440	-0.345
-310.924	-66.564	0.263	-0.104
-309.910	-117.856	0.096	0.017
-308.895	-108.803	0.142	0.030
-307.880	-13.111	0.073	0.047
-306.866	800.000	0.040	-0.133
-305.851	178.542	-0.073	-0.107
-304.837	-44.451	-0.115	0.058
-303.822	-64.270	0.327	0.133
-302.807	50.861	-0.108	-0.102
-301.793	-64.878	0.449	-0.182
-300.778	-121.247	-0.029	0.005
-299.764	-136.837	0.292	0.034
-298.749	208.871	0.035	0.055
-297.735	598.843	-0.178	-0.441
-296.720	363.126	-0.083	0.167
-295.705	-200.000	-0.005	0.218
-294.691	92.672	-0.294	-0.332
-293.676	-132.151	0.436	0.057
-292.662	-164.060	-0.213	0.010
-291.647	-200.000	0.055	-0.474
-290.632	-200.000	0.005	0.087
-289.618	-200.000	0.018	-0.222
-288.603	-66.166	-0.306	-0.122
-287.589	-200.000	-0.018	0.253
-286.574	-69.206	0.291	-0.112
-285.559	440.473	-0.063	-0.137
-284.545	53.449	-0.185	0.178
-283.530	-12.297	-0.287	0.188
-282.516	-162.536	0.158	0.008
-281.501	-200.000	-0.047	0.271
-280.486	-44.874	0.263	0.131
-279.472	54.810	0.261	0.251
-278.457	35.039	-0.304	0.266
-277.443	-78.158	-0.387	0.133
-276.428	165.629	0.134	0.190
-275.413	359.767	0.077	0.153
-274.399	37.784	-0.231	0.205
-273.384	100.173	-0.141	0.163
-272.370	-146.005	-0.087	0.008
-271.355	-87.423	0.319	0.097
-270.340	-114.362	0.297	0.057
-269.326	6.788	0.095	-0.071
-268.311	93.284	-0.399	-0.451
-267.297	-2.588	-0.191	0.134
-266.282	120.828	-0.051	0.063
-265.267	674.634	0.107	0.277
-264.253	800.000	0.095	0.264
-263.238	-112.464	0.273	0.054
-262.224	67.988	-0.301	0.307
-261.209	55.522	-0.181	0.175
-260.195	-200.000	-0.022	-0.098
-259.180	-39.383	-0.173	-0.091
-258.165	6.165	0.139	0.103
-257.151	44.440	-0.202	-0.185
-256.136	361.404	0.075	-0.150
-255.122	174.427	-0.094	-0.136
-254.107	-200.000	-0.009	-0.123
-253.092	-54.622	0.337	0.152
-252.078	-14.882	0.211	-0.135
-251.063	111.390	-0.071	-0.085
-250.049	31.491	0.143	-0.122
-249.034	800.000	0.009	-0.036
-248.019	-134.513	0.229	-0.028
-247.005	800.000	-0.140	-0.546
-245.990	561.195	0.058	0.139
-244.976	74.251	-0.248	0.260
-243.961	-200.000	-0.006	0.327
-242.946	-43.543	0.205	0.104
-241.932	-200.000	0.009	-0.075
-240.917	-139.796	-0.240	-0.025
-239.903	502.476	0.152	-0.350
-238.888	-200.000	0.025	0.120
-237.873	-200.000	0.079	0.418
-236.859	800.000	-0.075	-0.214
-235.844	159.622	0.109	-0.152
-234.830	-49.959	-0.173	0.082
-233.815	-200.000	0.029	-0.141
-232.800	-48.546	0.312	-0.150
-231.786	145.009	0.102	0.136
-230.771	-93.033	-0.224	-0.062
-229.757	-200.000	-0.027	0.410
-228.742	-200.000	0.006	0.151
-227.727	-43.535	0.212	-0.107
-226.713	107.511	0.234	-0.278
-225.698	69.327	-0.102	-0.105
-224.684	800.000	0.134	-0.414
-223.669	774.257	-0.108	-0.293
-222.655	-200.000	0.044	0.195
-221.640	-200.000	-0.072	0.491
-220.625	42.004	0.225	0.204
-219.611	243.006	-0.083	0.138
-218.596	187.939	0.110	0.164
-217.582	90.430	-0.076	0.085
-216.567	-130.202	0.203	0.028
-215.552	-67.657	0.280	-0.109
-214.538	26.981	-0.150	-0.125
-213.523	800.000	0.020	-0.067
-212.509	105.663	-0.055	0.065
-211.494	545.772	-0.120	-0.286
-210.479	-110.238	-0.203	0.042
-209.465	-169.092	0.155	0.006
-208.450	-200.000	-0.002	0.140
-207.436	138.565	0.290	0.380
-206.421	-55.337	-0.140	0.063
-205.406	-200.000	0.012	0.276
-204.392	202.275	-0.165	-0.254
-203.377	116.450	-0.085	-0.104
-202.363	-200.000	0.008	-0.228
-201.348	103.489	0.272	0.319
-200.333	-200.000	-0.012	0.077
-199.319	435.523	-0.105	0.227
-198.304	497.808	-0.152	0.349
-197.290	-106.968	0.107	0.024
-196.275	-29.161	0.090	0.051
-195.260	-53.679	0.249	-0.113
-194.246	434.960	-0.052	0.112
-193.231	142.707	0.192	0.254
-192.217	541.123	0.267	0.634
-191.202	800.000	0.084	0.231
-190.187	7.973	0.100	-0.075
-189.173	-200.000	0.008	-0.451
-188.158	-200.000	-0.031	-0.254
-187.144	-7.720	0.250	0.168
-186.129	-127.226	-0.165	-0.024
-185.114	-10.507	0.087	-0.057
-184.100	-200.000	0.017	-0.252
-183.085	201.122	0.075	0.116
-182.071	19.073	-0.143	0.114
-181.056	-200.000	0.037	-0.230
-180.042	57.065	-0.232	-0.225
-179.027	212.051	-0.128	-0.201
-178.012	113.615	-0.106	-0.128
-176.998	-200.000	0.031	0.248
-175.983	465.181	0.123	-0.275
-174.969	-47.698	-0.170	-0.082
-173.954	147.037	0.076	-0.102
-172.939	-200.000	0.042	0.236
-171.925	-52.624	-0.280	0.129
-170.910	2.400	0.081	0.058
-169.896	-200.000	-0.008	-0.373
-168.881	-44.967	-0.193	-0.095
-167.866	-200.000	-0.271	-0.001
-166.852	-200.000	-0.051	0.315
-165.837	-200.000	0.048	-0.262
-164.823	800.000	0.020	-0.074
-163.808	286.494	0.210	-0.378
-162.793	-92.137	-0.226	-0.063
-161.779	99.687	0.130	-0.150
-160.764	-59.040	0.179	0.077
-159.750	550.599	0.084	0.201
-158.735	-200.000	-0.012	-0.204
-157.720	-165.103	-0.209	-0.009
-156.706	-200.000	0.028	0.148
-155.691	-23.884	0.221	-0.132
-154.677	800.000	0.027	-0.115
-153.662	12.448	0.149	0.114
-152.647	-131.205	0.315	-0.042
-151.633	-23.917	-0.340	-0.202
-150.618	-200.000	0.012	0.259
-149.604	-200.000	0.016	0.145
-148.589	-28.505	0.269	0.154
-147.574	-200.000	-0.010	0.291
-146.560	17.988	0.285	-0.226
-145.545	82.481	0.171	0.185
-144.531	170.056	0.208	-0.295
-143.516	-200.000	-0.050	0.282
-142.502	800.000	0.008	0.027
-141.487	-29.292	0.163	-0.093
-140.472	-132.082	0.391	0.051
-139.458	-200.000	0.052	0.354
-138.443	71.958	-0.201	-0.207
-137.429	-2.415	0.142	0.099
-136.414	-127.030	0.309	-0.045
-135.399	-77.351	-0.390	0.135
-134.385	-187.288	0.324	-0.004
-133.370	-47.753	0.096	0.046
-132.356	-200.000	-0.045	0.264
-131.341	280.087	-0.152	-0.271
-130.326	-0.515	0.298	-0.210
-129.312	-200.000	-0.056	-0.458
-128.297	-200.000	0.018	-0.161
-127.283	14.679	-0.099	-0.077
-126.268	-172.582	0.357	-0.011
-125.253	18.229	0.220	-0.174
-124.239	20.245	-0.360	0.289
-123.224	-166.095	0.317	-0.013
-122.210	523.098	0.067	-0.157
