DTS Sentinel unit serial number:	SN413079Multiplexer serial number:	ORYXHardware model number:	OX4-SRSoftware version number:	ORYX F/W v4.00 Oryx Data Collector v3.7.2.0data status	okinstallation	princeton_trtdifferential loss correction	single-endedforward channel	channel 1reverse channel	N/Adate	2019/09/16time	13:06:35forward acquisition time	60.00reverse acquisition time	0.00gamma	496.2192k internal	0.2294k external	0.2294temperature offset calibration	0.9947default loss term (dB/km)	0.3790temperature slope calibration	1.0000multiplexer offset coefficient	1.0000multiplexer slope coefficient	1.0000fibre end	0.00T internal ref (°C)	40.81T ext. ref 1 (°C)	13.63T ext. ref 2 (°C)	38.75length (m)	temperature (°C)	Stokes	anti-Stokes-747.200	-200.000	-0.032	0.170
-746.185	509.912	0.038	0.090
-745.171	-164.112	0.243	0.012
-744.156	-48.227	-0.082	-0.041
-743.142	-200.000	-0.007	-0.091
-742.127	-8.818	-0.149	0.102
-741.112	-200.000	0.002	0.138
-740.098	800.000	-0.063	0.195
-739.083	21.422	0.260	0.216
-738.069	-26.718	-0.193	-0.116
-737.054	101.748	0.238	-0.283
-736.039	250.490	-0.117	-0.203
-735.025	573.780	0.046	0.116
-734.010	-6.597	-0.250	0.174
-732.996	328.457	-0.093	-0.182
-731.981	-114.533	-0.132	-0.026
-730.966	423.166	-0.192	0.422
-729.952	14.641	-0.144	-0.115
-728.937	-200.000	0.046	-0.297
-727.923	-116.781	-0.071	0.013
-726.908	800.000	0.029	-0.095
-725.894	-7.111	-0.205	-0.142
-724.879	-180.555	-0.336	0.007
-723.864	-86.607	0.175	0.055
-722.850	-143.852	-0.359	0.035
-721.835	316.502	-0.103	0.199
-720.821	-97.570	-0.332	0.088
-719.806	281.138	-0.181	0.331
-718.791	98.250	0.213	0.250
-717.777	26.929	0.286	-0.245
-716.762	-200.000	0.032	0.240
-715.748	-58.710	0.234	0.104
-714.733	-88.187	-0.349	0.107
-713.718	-200.000	0.022	-0.161
-712.704	78.515	0.127	0.139
-711.689	-62.834	0.157	-0.066
-710.675	800.000	0.047	0.137
-709.660	-79.740	0.207	-0.071
-708.645	-159.141	0.132	-0.008
-707.631	-57.729	0.268	-0.120
-706.616	-169.005	-0.137	-0.005
-705.602	-6.520	-0.236	-0.164
-704.587	354.813	0.166	-0.338
-703.572	-200.000	-0.016	-0.180
-702.558	-200.000	-0.036	0.303
-701.543	-95.608	-0.306	-0.084
-700.529	96.265	0.052	0.060
-699.514	77.261	-0.232	0.252
-698.499	-47.378	0.045	0.022
-697.485	-76.637	0.306	0.109
-696.470	-51.482	-0.075	0.036
-695.456	-147.892	-0.321	0.027
-694.441	-109.336	0.236	-0.051
-693.426	-200.000	-0.042	-0.190
-692.412	197.729	0.130	0.203
-691.397	157.687	0.118	-0.167
-690.383	431.737	0.063	0.140
-689.368	800.000	0.126	0.381
-688.354	-200.000	-0.004	-0.317
-687.339	-94.425	-0.158	0.044
-686.324	262.514	0.043	0.075
-685.310	-200.000	0.018	0.264
-684.295	-7.285	0.138	-0.096
-683.281	112.805	-0.108	-0.134
-682.266	-200.000	-0.011	0.350
-681.251	-46.262	-0.074	-0.037
-680.237	-200.000	-0.041	-0.339
-679.222	800.000	0.032	-0.133
-678.208	800.000	0.025	0.110
-677.193	-184.223	0.155	-0.003
-676.178	800.000	0.026	0.086
-675.164	-40.841	0.258	-0.136
-674.149	-127.853	-0.378	0.056
-673.135	-17.269	-0.309	-0.198
-672.120	-168.764	0.290	-0.011
-671.105	398.387	-0.069	0.147
-670.091	-126.332	0.269	-0.041
-669.076	-72.555	0.390	0.147
-668.062	-126.296	-0.223	0.034
-667.047	349.834	-0.077	-0.156
-666.032	17.375	-0.192	-0.155
-665.018	125.053	-0.269	0.346
-664.003	-40.205	0.022	0.012
-662.989	109.406	0.138	-0.168
-661.974	436.696	0.104	0.232
-660.959	-103.497	-0.349	-0.084
-659.945	-125.733	0.064	-0.010
-658.930	-64.937	-0.114	-0.047
-657.916	314.280	-0.291	-0.558
-656.901	121.459	0.047	0.060
-655.886	800.000	-0.014	0.054
-654.872	-200.000	0.064	-0.375
-653.857	101.609	-0.029	0.035
-652.843	800.000	0.085	-0.239
-651.828	800.000	-0.200	-0.597
-650.814	-91.996	-0.055	0.016
-649.799	-8.026	0.164	0.113
-648.784	161.455	-0.035	0.050
-647.770	92.655	-0.086	0.099
-646.755	230.022	-0.179	-0.298
-645.741	46.509	0.180	0.171
-644.726	-103.958	0.213	-0.051
-643.711	-160.075	-0.028	-0.002
-642.697	84.203	0.248	-0.276
-641.682	-200.000	-0.008	-0.055
-640.668	-200.000	0.017	-0.147
-639.653	224.195	-0.099	-0.162
-638.638	-32.166	-0.134	-0.076
-637.624	52.767	-0.274	0.267
-636.609	-9.676	-0.240	0.163
-635.595	108.638	0.091	-0.110
-634.580	169.910	-0.143	0.208
-633.565	363.104	-0.099	0.202
-632.551	434.529	0.069	-0.152
-631.536	42.993	0.145	0.134
-630.522	-80.394	-0.287	0.098
-629.507	15.122	-0.149	0.119
-628.492	234.335	-0.288	-0.483
-627.478	-200.000	-0.043	-0.210
-626.463	-136.572	0.323	0.038
-625.449	-28.202	0.072	0.043
-624.434	-24.057	-0.170	0.103
-623.419	223.402	-0.058	-0.096
-622.405	150.697	0.104	0.144
-621.390	66.604	-0.028	-0.029
-620.376	800.000	-0.034	0.116
-619.361	744.627	0.080	-0.220
-618.346	281.694	-0.094	-0.171
-617.332	-200.000	0.002	0.315
-616.317	-55.977	0.308	-0.140
-615.303	15.633	0.243	-0.194
-614.288	138.594	0.183	0.244
-613.273	18.914	-0.032	0.026
-612.259	-117.800	0.254	0.046
-611.244	800.000	-0.036	0.122
-610.230	228.212	0.100	-0.166
-609.215	167.617	-0.167	0.241
-608.201	31.087	0.079	0.069
-607.186	-200.000	0.010	-0.166
-606.171	71.407	-0.147	-0.155
-605.157	-81.907	-0.326	0.109
-604.142	-162.152	0.161	0.008
-603.128	362.923	0.084	0.171
-602.113	84.911	-0.020	-0.022
-601.098	-57.378	-0.294	0.131
-600.084	-200.000	0.001	0.235
-599.069	126.935	-0.079	-0.102
-598.055	-200.000	-0.003	-0.070
-597.040	-200.000	-0.004	0.038
-596.025	800.000	-0.097	0.354
-595.011	65.378	0.083	-0.086
-593.996	-1.645	0.306	-0.219
-592.982	299.449	0.064	0.120
-591.967	56.109	0.159	0.157
-590.952	645.069	-0.037	0.095
-589.938	174.928	-0.147	0.216
-588.923	-51.248	-0.236	0.112
-587.909	-200.000	-0.021	-0.126
-586.894	-15.611	-0.173	0.112
-585.879	255.182	-0.015	0.027
-584.865	-62.575	-0.353	0.149
-583.850	800.000	0.049	-0.185
-582.836	800.000	0.015	0.056
-581.821	-52.348	-0.091	-0.043
-580.806	800.000	-0.043	0.123
-579.792	-6.927	-0.058	0.040
-578.777	-149.984	-0.237	0.019
-577.763	-105.790	0.388	-0.089
-576.748	-200.000	0.011	0.464
-575.733	457.355	-0.111	-0.250
-574.719	-200.000	0.001	0.245
-573.704	97.848	-0.142	0.165
-572.690	-200.000	0.016	-0.173
-571.675	-200.000	-0.075	-0.363
-570.661	39.393	0.084	-0.076
-569.646	73.883	0.191	0.204
-568.631	-189.072	0.248	-0.003
-567.617	-200.000	0.024	0.464
-566.602	-115.739	0.494	-0.094
-565.588	233.599	0.042	-0.070
-564.573	112.936	-0.050	-0.061
-563.558	-17.970	0.177	-0.112
-562.544	308.673	-0.147	0.278
-561.529	-41.133	0.190	-0.100
-560.515	-64.078	-0.147	-0.061
-559.500	-76.538	0.350	0.125
-558.485	-200.000	-0.012	-0.244
-557.471	169.440	-0.055	0.079
-556.456	108.830	0.086	-0.105
-555.442	-19.196	-0.121	0.076
-554.427	-200.000	-0.003	-0.043
-553.412	-30.461	-0.178	-0.103
-552.398	705.030	0.139	-0.372
-551.383	609.244	-0.074	-0.188
-550.369	10.428	-0.409	0.316
-549.354	-11.996	-0.250	-0.166
-548.339	-73.982	-0.124	0.046
-547.325	-50.684	-0.110	0.053
-546.310	100.311	-0.156	-0.184
-545.296	-145.457	-0.196	0.018
-544.281	44.854	-0.074	0.069
-543.266	360.231	-0.077	0.157
-542.252	-117.430	0.134	-0.025
-541.237	-200.000	-0.023	-0.134
-540.223	800.000	0.137	-0.417
-539.208	800.000	0.066	0.265
-538.193	-200.000	-0.052	0.453
-537.179	287.719	0.150	0.274
-536.164	125.972	0.240	0.308
-535.150	-96.397	-0.221	0.059
-534.135	-101.348	-0.319	-0.079
-533.121	800.000	-0.038	-0.130
-532.106	-105.159	0.105	0.024
-531.091	-152.485	-0.191	-0.014
-530.077	42.793	0.066	0.061
-529.062	-80.991	-0.239	0.080
-528.048	85.566	-0.133	-0.149
-527.033	-66.432	0.433	0.174
-526.018	-52.880	0.165	-0.077
-525.004	-19.857	0.248	-0.155
-523.989	-200.000	-0.005	-0.033
-522.975	-122.533	0.185	-0.031
-521.960	-90.633	0.399	-0.117
-520.945	-200.000	0.018	-0.101
-519.931	-151.845	0.361	0.027
-518.916	-200.000	-0.038	0.187
-517.902	92.460	-0.083	-0.094
-516.887	800.000	-0.077	-0.224
-515.872	59.688	0.267	-0.267
-514.858	-200.000	0.001	-0.090
-513.843	-200.000	0.004	0.216
-512.829	-115.678	0.283	0.054
-511.814	86.991	-0.145	0.163
-510.799	-41.239	0.116	0.061
-509.785	-105.561	0.283	0.065
-508.770	-26.023	0.057	0.034
-507.756	147.230	0.145	-0.198
-506.741	-5.201	-0.112	0.078
-505.726	144.228	0.171	0.232
-504.712	71.494	-0.132	-0.138
-503.697	-200.000	0.006	-0.132
-502.683	-200.000	0.022	0.179
-501.668	12.355	0.162	0.126
-500.653	800.000	-0.056	-0.192
-499.639	-200.000	-0.339	0.000
-498.624	44.561	-0.093	0.086
-497.610	-107.368	-0.245	0.055
-496.595	-27.970	0.275	-0.161
-495.581	-177.563	-0.166	0.004
-494.566	-71.700	0.242	0.091
-493.551	270.790	0.197	0.352
-492.537	29.589	0.069	-0.060
-491.522	-0.818	0.172	0.123
-490.508	-200.000	0.391	0.002
-489.493	-138.125	0.178	0.020
-488.478	-140.198	0.149	0.016
-487.464	-200.000	0.005	-0.414
-486.449	-200.000	0.096	0.428
-485.435	-200.000	-0.019	0.112
-484.420	381.982	0.018	-0.038
-483.405	-109.275	-0.243	0.052
-482.391	-200.000	-0.037	-0.397
-481.376	172.620	-0.109	-0.159
-480.362	-10.096	0.122	-0.082
-479.347	-27.966	-0.153	-0.090
-478.332	-20.723	0.219	-0.136
-477.318	800.000	-0.130	-0.400
-476.303	60.901	0.124	-0.124
-475.289	295.683	-0.134	0.249
-474.274	-153.560	-0.156	0.011
-473.259	63.364	-0.080	0.081
-472.245	-80.427	0.222	0.075
-471.230	800.000	-0.110	-0.373
-470.216	-23.137	-0.133	0.081
-469.201	-130.811	0.172	-0.023
-468.186	267.600	0.078	-0.139
-467.172	-187.698	-0.274	0.004
-466.157	-200.000	0.034	-0.424
-465.143	121.181	-0.097	0.122
-464.128	-146.693	0.185	0.016
-463.113	-54.104	0.306	0.141
-462.099	490.542	0.105	0.243
-461.084	656.774	-0.160	-0.415
-460.070	10.901	0.076	0.059
-459.055	355.839	0.064	-0.129
-458.040	-29.695	0.220	0.127
-457.026	-107.662	0.264	0.058
-456.011	452.783	0.067	-0.150
-454.997	304.192	-0.116	0.217
-453.982	-200.000	-0.024	-0.236
-452.968	-35.828	-0.162	0.089
-451.953	-111.583	-0.265	0.054
-450.938	-200.000	0.025	-0.117
-449.924	574.712	0.058	-0.143
-448.909	58.412	0.441	0.437
-447.895	78.811	-0.026	-0.028
-446.880	-8.407	0.009	-0.006
-445.865	179.733	-0.101	-0.150
-444.851	800.000	-0.034	0.096
-443.836	-91.892	-0.144	0.041
-442.822	800.000	0.051	-0.150
-441.807	-47.779	0.281	0.138
-440.792	-188.696	0.139	0.002
-439.778	41.041	0.209	0.191
-438.763	107.259	-0.201	0.242
-437.749	800.000	0.055	0.225
-436.734	-200.000	-0.004	0.033
-435.719	-200.000	-0.010	0.079
-434.705	-43.647	0.243	0.124
-433.690	-19.982	-0.172	-0.107
-432.676	-15.641	-0.186	0.120
-431.661	226.988	-0.144	-0.236
-430.646	-200.000	0.002	0.191
-429.632	-28.916	0.284	0.165
-428.617	-188.552	0.252	-0.003
-427.603	389.444	0.050	0.105
-426.588	116.610	0.094	-0.117
-425.573	-100.062	-0.169	0.043
-424.559	-200.000	-0.051	-0.271
-423.544	-111.328	-0.256	0.053
-422.530	-200.000	-0.070	-0.494
-421.515	-200.000	-0.016	-0.225
-420.500	10.210	0.129	-0.099
-419.486	113.653	0.137	-0.168
-418.471	800.000	-0.087	-0.318
-417.457	545.910	0.124	0.300
-416.442	-17.670	0.250	0.158
-415.428	175.552	0.063	0.092
-414.413	140.181	0.063	-0.083
-413.398	-125.443	-0.246	-0.038
-412.384	-200.000	0.097	-0.530
-411.369	597.882	-0.086	-0.214
-410.355	5.410	0.255	-0.190
-409.340	317.112	0.053	-0.102
-408.325	-74.621	-0.424	0.154
-407.311	44.811	-0.194	0.180
-406.296	-77.999	-0.111	-0.038
-405.282	295.096	0.104	0.192
-404.267	-73.074	-0.209	0.078
-403.252	-53.313	-0.271	-0.125
-402.238	-68.925	-0.194	-0.075
-401.223	356.071	-0.135	-0.272
-400.209	-108.909	-0.132	-0.029
-399.194	-114.589	0.336	-0.065
-398.179	-111.940	-0.201	-0.041
-397.165	265.766	0.154	-0.271
-396.150	-200.000	-0.051	-0.244
-395.136	-46.821	0.183	-0.090
-394.121	-200.000	-0.051	0.259
-393.106	344.727	-0.099	-0.196
-392.092	-200.000	-0.033	0.149
-391.077	754.477	0.074	0.201
-390.063	72.640	0.241	-0.254
-389.048	20.354	0.241	-0.196
-388.033	800.000	-0.056	-0.169
-387.019	44.896	-0.129	0.120
-386.004	291.018	0.081	-0.149
-384.990	157.214	0.214	-0.299
-383.975	181.037	0.031	0.046
-382.960	138.190	-0.131	-0.174
-381.946	54.083	-0.132	0.128
-380.931	-200.000	-0.015	-0.330
-379.917	-121.757	0.170	0.028
-378.902	-141.331	-0.272	-0.028
-377.888	-94.764	-0.125	-0.034
-376.873	-95.903	-0.275	0.074
-375.858	-52.586	0.133	-0.062
-374.844	-94.073	-0.158	0.044
-373.829	22.657	0.271	0.224
-372.815	119.680	-0.045	0.056
-371.800	221.154	-0.145	-0.234
-370.785	111.982	0.029	0.036
-369.771	263.567	0.134	0.236
-368.756	103.564	-0.229	0.271
-367.742	-3.000	0.310	0.218
-366.727	-200.000	-0.031	-0.172
-365.712	510.215	0.058	0.137
-364.698	480.808	0.116	0.265
-363.683	276.629	0.139	0.248
-362.669	-34.715	-0.074	-0.041
-361.654	800.000	0.143	-0.514
-360.639	-77.253	0.401	0.141
-359.625	-111.482	-0.189	-0.039
-358.610	800.000	-0.036	0.115
-357.596	24.135	-0.035	0.029
-356.581	-157.435	-0.122	-0.007
-355.566	20.035	-0.117	0.095
-354.552	-63.114	-0.105	0.044
-353.537	-8.076	-0.199	-0.135
-352.523	-54.411	0.068	-0.031
-351.508	156.222	0.101	-0.140
-350.493	-200.000	-0.011	0.254
-349.479	-69.987	0.059	0.022
-348.464	-120.424	-0.246	-0.042
-347.450	800.000	-0.056	0.168
-346.435	-125.063	-0.191	-0.029
-345.420	222.371	-0.131	0.211
-344.406	48.926	-0.095	0.090
-343.391	0.073	-0.053	-0.038
-342.377	31.674	-0.125	0.109
-341.362	-45.034	0.185	-0.092
-340.348	99.793	0.057	0.067
-339.333	-36.770	0.125	-0.068
-338.318	-8.982	0.337	-0.227
-337.304	122.417	-0.131	-0.165
-336.289	-200.000	0.003	0.234
-335.275	-144.377	-0.204	0.019
-334.260	43.778	0.160	0.148
-333.245	-46.540	-0.174	-0.086
-332.231	-200.000	-0.000	-0.012
-331.216	338.184	-0.152	-0.298
-330.202	170.288	0.118	0.170
-329.187	-95.328	-0.194	0.052
-328.172	62.243	0.009	-0.009
-327.158	-109.384	0.106	-0.023
-326.143	-117.884	-0.062	0.011
-325.129	-64.926	-0.039	0.016
-324.114	-144.601	0.145	-0.013
-323.099	-127.498	0.133	0.019
-322.085	-200.000	-0.054	-0.592
-321.070	150.184	0.131	0.179
-320.056	-4.014	-0.114	0.080
-319.041	77.301	0.201	0.215
-318.026	-88.023	0.179	-0.054
-317.012	-65.865	0.358	0.144
-315.997	796.860	0.169	0.467
-314.983	-200.000	0.062	0.356
-313.968	-33.981	-0.424	0.235
-312.953	-46.145	0.191	-0.095
-311.939	-28.195	0.098	0.057
-310.924	-200.000	-0.015	-0.347
-309.910	508.293	-0.074	-0.172
-308.895	-200.000	-0.025	0.227
-307.880	190.583	-0.204	0.308
-306.866	-11.191	-0.336	0.222
-305.851	669.047	-0.047	0.121
-304.837	116.224	-0.148	-0.183
-303.822	176.167	0.124	0.181
-302.807	-200.000	0.014	-0.258
-301.793	-23.823	0.128	-0.077
-300.778	-158.230	0.280	0.016
-299.764	259.489	-0.118	0.204
-298.749	288.503	-0.070	-0.128
-297.735	61.726	0.248	0.249
-296.720	-97.926	0.211	-0.055
-295.705	144.897	-0.081	-0.109
-294.691	208.157	-0.040	-0.062
-293.676	-134.100	-0.474	-0.059
-292.662	0.095	-0.023	-0.016
-291.647	35.590	0.257	-0.227
-290.632	-186.632	-0.341	0.005
-289.618	-40.227	0.145	-0.076
-288.603	-87.463	-0.135	-0.041
-287.589	754.840	0.084	-0.229
-286.574	-200.000	0.056	-0.326
-285.559	-200.000	-0.016	0.082
-284.545	-22.048	0.209	0.128
-283.530	353.423	-0.124	-0.247
-282.516	-200.000	0.005	0.093
-281.501	-200.000	-0.013	-0.193
-280.486	-72.117	-0.648	-0.242
-279.472	123.777	-0.130	-0.164
-278.457	-39.486	-0.282	0.148
-277.443	415.905	-0.116	0.248
-276.428	-116.286	-0.312	-0.058
-275.413	-175.997	-0.108	0.003
-274.399	30.652	0.106	-0.091
-273.384	-39.085	0.129	-0.068
-272.370	177.364	0.087	-0.127
-271.355	-200.000	-0.002	0.141
-270.340	443.641	0.169	0.372
-269.326	-200.000	-0.004	-0.225
-268.311	261.554	-0.120	0.208
-267.297	-145.975	0.231	-0.021
-266.282	-200.000	0.001	0.057
-265.267	-200.000	0.055	-0.315
-264.253	-83.534	0.168	0.054
-263.238	-139.684	0.086	-0.009
-262.224	-200.000	-0.039	-0.391
-261.209	61.954	-0.078	-0.078
-260.195	9.126	0.187	-0.142
-259.180	295.106	-0.160	0.294
-258.165	-200.000	-0.086	0.516
-257.151	107.273	-0.126	-0.151
-256.136	725.514	-0.052	-0.140
-255.122	-152.704	0.300	-0.021
-254.107	-200.000	-0.030	0.183
-253.092	723.773	-0.012	0.032
-252.078	10.421	-0.076	-0.058
-251.063	-17.897	-0.242	-0.152
-250.049	-69.998	-0.113	0.043
-249.034	800.000	-0.127	0.448
-248.019	102.949	0.046	-0.054
-247.005	-200.000	-0.017	-0.260
-245.990	386.877	0.148	-0.306
-244.976	-157.523	-0.169	0.010
-243.961	121.983	-0.258	0.323
-242.946	351.165	0.069	-0.136
-241.932	-29.011	0.175	0.101
-240.917	-68.331	0.147	-0.057
-239.903	349.018	0.121	-0.240
-238.888	43.579	0.132	0.121
-237.873	-200.000	-0.033	0.250
-236.859	49.760	0.018	-0.017
-235.844	-61.589	0.162	0.068
-234.830	118.422	-0.087	0.107
-233.815	392.366	-0.131	-0.273
-232.800	17.990	-0.094	0.075
-231.786	-10.095	-0.094	0.063
-230.771	-96.511	-0.304	0.080
-229.757	657.413	0.099	-0.255
-228.742	-133.386	-0.233	-0.029
-227.727	-73.762	-0.208	-0.076
-226.713	-59.593	-0.099	0.043
-225.698	-30.456	0.263	-0.150
-224.684	31.320	-0.242	0.208
-223.669	616.215	-0.039	0.098
-222.655	400.392	-0.087	-0.183
-221.640	-25.556	0.238	0.141
-220.625	75.214	-0.194	0.205
-219.611	795.619	0.135	0.373
-218.596	-200.000	0.011	0.061
-217.582	-148.792	-0.195	0.016
-216.567	-84.048	-0.215	0.068
-215.552	456.003	0.140	0.311
-214.538	-36.100	0.125	0.068
-213.523	277.406	0.063	-0.112
-212.509	-17.994	-0.263	0.165
-211.494	496.549	-0.064	-0.146
-210.479	-200.000	0.019	0.196
-209.465	-17.431	-0.192	0.121
-208.450	-161.512	0.166	-0.009
-207.436	-200.000	0.004	-0.357
-206.421	-81.897	0.247	0.081
-205.406	-200.000	-0.020	-0.128
-204.392	-200.000	-0.068	0.298
-203.377	800.000	0.097	0.392
-202.363	-10.390	-0.071	-0.047
-201.348	-200.000	-0.020	0.272
-200.333	80.624	-0.132	-0.142
-199.319	20.302	0.112	-0.091
-198.304	198.437	-0.211	-0.323
-197.290	-200.000	-0.038	-0.187
-196.275	-22.271	-0.183	0.111
-195.260	-150.789	-0.337	0.026
-194.246	103.924	0.119	-0.140
-193.231	489.311	0.066	-0.151
-192.217	369.235	-0.124	0.250
-191.202	111.510	0.050	-0.061
-190.187	-74.742	0.126	0.045
-189.173	-25.314	0.136	-0.080
-188.158	-32.111	0.395	0.221
-187.144	-0.336	0.176	0.125
-186.129	-73.494	0.181	-0.066
-185.114	321.550	0.026	0.049
-184.100	-182.720	0.504	-0.009
-183.085	-15.225	0.046	0.029
-182.071	-68.480	-0.206	-0.080
-181.056	-59.792	-0.120	-0.051
-180.042	-64.678	-0.334	0.136
-179.027	186.015	-0.104	0.155
-178.012	-125.790	-0.153	0.023
-176.998	137.474	0.079	-0.104
-175.983	117.227	-0.157	-0.193
-174.969	-200.000	0.228	-0.000
-173.954	10.983	0.072	-0.055
-172.939	38.207	0.118	-0.105
-171.925	337.776	0.055	0.107
-170.910	-200.000	-0.044	0.196
-169.896	-91.717	-0.176	-0.050
-168.881	680.994	-0.035	0.090
-167.866	-200.000	0.009	0.229
-166.852	394.366	-0.024	0.049
-165.837	-200.000	-0.028	-0.345
-164.823	267.610	0.168	-0.294
-163.808	800.000	0.064	0.279
-162.793	-124.412	0.151	-0.023
-161.779	101.835	-0.110	-0.128
-160.764	-65.959	-0.115	-0.046
-159.750	-200.000	-0.032	0.254
-158.735	-100.577	-0.150	-0.037
-157.720	-200.000	-0.043	0.191
-156.706	52.699	0.129	-0.123
-155.691	444.421	0.039	-0.086
-154.677	-91.253	0.096	0.027
-153.662	-10.803	-0.178	-0.118
-152.647	800.000	0.075	-0.290
-151.633	800.000	-0.104	-0.298
-150.618	-35.987	-0.290	0.157
-149.604	-200.000	-0.029	0.144
-148.589	-80.264	-0.309	0.103
-147.574	-186.024	0.360	-0.005
-146.560	111.446	0.139	-0.168
-145.545	480.217	-0.090	0.203
-144.531	237.645	0.078	0.130
-143.516	260.281	-0.141	0.244
-142.502	-200.000	-0.044	0.394
-141.487	181.836	-0.067	-0.098
-140.472	106.532	0.032	0.037
-139.458	-24.243	-0.056	-0.033
-138.443	-200.000	0.004	-0.080
-137.429	-3.882	0.374	-0.259
-136.414	396.095	0.150	-0.313
-135.399	167.728	0.129	0.183
-134.385	-128.623	0.191	0.027
-133.370	-37.228	-0.251	0.134
-132.356	-27.446	-0.057	-0.033
-131.341	132.585	-0.101	-0.130
-130.326	146.822	-0.306	-0.410
-129.312	-88.194	-0.128	-0.038
-128.297	-76.689	-0.239	0.084
-127.283	-200.000	0.021	0.387
-126.268	195.954	-0.144	0.218
-125.253	-200.000	0.052	-0.352
-124.239	-104.490	-0.118	-0.027
-123.224	800.000	0.020	0.074
-122.210	-200.000	-0.012	-0.323
