DTS Sentinel unit serial number:	SN413079Multiplexer serial number:	ORYXHardware model number:	OX4-SRSoftware version number:	ORYX F/W v4.00 Oryx Data Collector v3.7.2.0data status	okinstallation	princeton_trtdifferential loss correction	single-endedforward channel	channel 1reverse channel	N/Adate	2019/09/17time	05:46:35forward acquisition time	60.00reverse acquisition time	0.00gamma	496.2192k internal	0.2325k external	0.2325temperature offset calibration	0.9970default loss term (dB/km)	0.3790temperature slope calibration	1.0000multiplexer offset coefficient	1.0000multiplexer slope coefficient	1.0000fibre end	0.00T internal ref (°C)	29.00T ext. ref 1 (°C)	0.13T ext. ref 2 (°C)	22.80length (m)	temperature (°C)	Stokes	anti-Stokes-747.200	-34.807	0.116	0.064
-746.185	800.000	0.116	0.332
-745.171	-27.060	0.166	-0.098
-744.156	126.796	0.341	0.436
-743.142	800.000	0.028	-0.117
-742.127	304.240	-0.110	0.206
-741.112	33.119	-0.015	0.013
-740.098	57.608	0.029	0.029
-739.083	50.685	0.117	0.112
-738.069	150.534	-0.141	0.193
-737.054	56.709	0.118	-0.115
-736.039	-65.152	0.074	-0.030
-735.025	-1.459	0.292	0.208
-734.010	-52.052	-0.384	-0.180
-732.996	-134.579	-0.295	0.036
-731.981	-77.903	-0.058	0.020
-730.966	-195.164	-0.187	-0.001
-729.952	-99.935	0.135	-0.034
-728.937	-24.185	-0.081	-0.049
-727.923	372.200	-0.051	-0.105
-726.908	-200.000	-0.030	-0.208
-725.894	70.667	-0.038	0.039
-724.879	99.927	0.109	0.127
-723.864	800.000	0.089	-0.324
-722.850	-2.337	-0.189	-0.133
-721.835	70.639	-0.344	-0.359
-720.821	800.000	0.060	-0.247
-719.806	-200.000	0.037	-0.174
-718.791	78.972	-0.200	-0.216
-717.777	58.489	-0.126	-0.125
-716.762	-31.591	-0.209	-0.118
-715.748	260.545	-0.059	-0.103
-714.733	800.000	-0.040	0.129
-713.718	-107.024	0.044	0.010
-712.704	-26.593	0.383	-0.226
-711.689	80.895	-0.077	0.083
-710.675	370.505	0.101	-0.206
-709.660	-120.530	-0.199	0.034
-708.645	275.930	-0.052	0.094
-707.631	166.441	0.164	-0.234
-706.616	102.471	-0.098	0.115
-705.602	137.495	0.122	-0.161
-704.587	-135.962	-0.463	-0.055
-703.572	800.000	-0.052	-0.173
-702.558	-68.287	0.027	0.011
-701.543	-120.609	0.491	-0.084
-700.529	800.000	-0.066	0.225
-699.514	-82.311	0.081	-0.027
-698.499	3.709	0.155	-0.114
-697.485	800.000	-0.038	-0.150
-696.470	11.089	-0.300	-0.231
-695.456	24.911	-0.191	-0.159
-694.441	-200.000	-0.073	-0.477
-693.426	587.585	-0.088	-0.219
-692.412	284.070	0.221	0.400
-691.397	-154.439	-0.110	-0.007
-690.383	-99.687	0.385	0.097
-689.368	-200.000	-0.004	-0.080
-688.354	0.387	-0.071	-0.051
-687.339	616.445	0.049	-0.123
-686.324	308.313	-0.038	0.071
-685.310	-102.781	-0.117	-0.028
-684.295	-200.000	-0.001	0.110
-683.281	25.536	0.281	-0.236
-682.266	-62.267	-0.198	0.083
-681.251	784.263	0.050	-0.138
-680.237	800.000	0.114	-0.350
-679.222	348.532	0.048	-0.095
-678.208	-74.297	0.235	-0.085
-677.193	-120.178	0.455	-0.078
-676.178	-24.005	-0.310	0.186
-675.164	800.000	0.062	0.260
-674.149	143.482	-0.218	0.292
-673.135	112.800	0.113	-0.137
-672.120	-80.453	-0.077	-0.026
-671.105	-79.676	0.279	-0.095
-670.091	-157.018	-0.202	-0.012
-669.076	589.974	0.023	0.057
-668.062	16.871	-0.304	-0.242
-667.047	-200.000	-0.066	-0.359
-666.032	70.828	0.209	0.218
-665.018	-117.462	-0.397	0.072
-664.003	-59.426	-0.172	0.075
-662.989	800.000	-0.041	0.127
-661.974	-200.000	0.001	-0.005
-660.959	165.172	-0.244	0.346
-659.945	-137.385	-0.128	-0.015
-658.930	-200.000	0.093	-0.432
-657.916	-88.242	-0.215	-0.065
-656.901	-137.560	-0.307	-0.035
-655.886	-200.000	-0.020	0.163
-654.872	329.286	0.093	-0.180
-653.857	-56.587	-0.060	-0.027
-652.843	51.582	-0.199	-0.190
-651.828	-106.153	-0.380	0.086
-650.814	800.000	-0.107	-0.361
-649.799	-200.000	-0.042	0.265
-648.784	25.378	-0.053	0.045
-647.770	-140.101	-0.207	-0.022
-646.755	-200.000	0.008	0.088
-645.741	-161.566	-0.113	0.006
-644.726	800.000	0.098	0.304
-643.711	-200.000	-0.029	-0.195
-642.697	21.421	0.098	-0.080
-641.682	-29.918	0.149	-0.085
-640.668	-135.911	-0.376	-0.045
-639.653	-194.372	-0.102	-0.001
-638.638	198.270	-0.151	0.232
-637.624	64.708	-0.159	-0.161
-636.609	230.049	0.094	-0.154
-635.595	-157.622	-0.328	-0.020
-634.580	-133.403	-0.082	-0.010
-633.565	-60.010	0.173	0.074
-632.551	-200.000	-0.002	0.312
-631.536	-90.377	0.286	0.083
-630.522	68.359	-0.116	0.120
-629.507	-25.366	0.229	0.136
-628.492	-200.000	0.020	0.352
-627.478	562.062	-0.081	0.196
-626.463	800.000	0.048	0.174
-625.449	409.263	-0.123	-0.263
-624.434	-38.197	-0.173	-0.092
-623.419	170.068	0.093	0.134
-622.405	-123.944	0.127	-0.020
-621.390	205.195	-0.299	0.466
-620.376	-123.871	-0.311	-0.049
-619.361	-73.351	0.233	0.086
-618.346	100.506	-0.139	-0.162
-617.332	-167.539	-0.283	0.011
-616.317	51.574	-0.133	0.127
-615.303	-24.425	-0.176	-0.105
-614.288	656.915	-0.069	-0.177
-613.273	160.069	-0.184	-0.257
-612.259	-110.710	-0.237	-0.049
-611.244	-200.000	0.034	0.291
-610.230	53.991	0.062	0.060
-609.215	-74.197	0.156	-0.057
-608.201	232.760	-0.157	-0.260
-607.186	248.647	-0.062	0.106
-606.171	-200.000	-0.014	-0.159
-605.157	-200.000	0.031	0.300
-604.142	459.092	-0.083	-0.186
-603.128	-56.454	0.275	-0.122
-602.113	-136.532	-0.173	-0.020
-601.098	800.000	-0.040	-0.172
-600.084	-98.716	0.083	0.021
-599.069	54.737	0.205	0.199
-598.055	-83.307	-0.017	0.005
-597.040	260.913	0.274	-0.476
-596.025	800.000	0.115	-0.365
-595.011	-200.000	-0.022	0.318
-593.996	-15.227	-0.102	0.065
-592.982	78.321	0.177	0.189
-591.967	800.000	-0.031	-0.116
-590.952	63.071	0.220	-0.221
-589.938	363.249	0.210	-0.424
-588.923	-7.103	-0.164	0.112
-587.909	-40.848	-0.114	0.059
-586.894	-123.694	-0.056	0.009
-585.879	800.000	-0.092	-0.284
-584.865	34.271	-0.086	-0.075
-583.850	267.460	-0.019	0.034
-582.836	800.000	0.047	-0.150
-581.821	-200.000	0.003	-0.280
-580.806	-72.322	0.348	0.129
-579.792	-87.427	-0.325	0.099
-578.777	-50.305	-0.153	-0.073
-577.763	-81.706	0.116	0.038
-576.748	-200.000	0.029	0.173
-575.733	-200.000	-0.007	-0.207
-574.719	800.000	-0.094	-0.295
-573.704	588.310	-0.078	-0.193
-572.690	66.815	-0.105	0.107
-571.675	42.846	-0.096	0.088
-570.661	46.041	0.110	0.102
-569.646	-37.785	0.240	0.128
-568.631	-37.098	-0.241	0.129
-567.617	-159.347	-0.121	-0.007
-566.602	19.481	0.142	-0.115
-565.588	-28.992	0.103	0.059
-564.573	-79.594	-0.152	-0.051
-563.558	693.731	0.101	0.264
-562.544	-136.213	-0.310	-0.036
-561.529	-200.000	-0.008	-0.056
-560.515	37.612	0.265	0.236
-559.500	-200.000	0.040	-0.214
-558.485	51.945	-0.172	0.164
-557.471	389.836	0.174	0.361
-556.456	-200.000	-0.044	-0.387
-555.442	-40.928	0.029	-0.015
-554.427	-73.053	-0.136	-0.050
-553.412	38.469	0.208	0.186
-552.398	-116.409	-0.457	0.085
-551.383	96.625	-0.044	-0.051
-550.369	-200.000	-0.022	0.106
-549.354	770.497	-0.132	-0.360
-548.339	-126.157	-0.062	0.009
-547.325	-98.673	-0.466	0.119
-546.310	347.522	-0.083	-0.164
-545.296	-70.334	-0.091	-0.035
-544.281	49.094	-0.081	0.077
-543.266	-35.044	-0.155	-0.085
-542.252	134.211	0.067	-0.087
-541.237	303.936	0.111	-0.207
-540.223	-3.154	0.282	-0.197
-539.208	45.457	-0.063	-0.058
-538.193	800.000	-0.037	0.125
-537.179	450.743	0.128	-0.284
-536.164	108.253	0.118	-0.141
-535.150	-171.060	0.249	-0.008
-534.135	10.976	0.138	-0.106
-533.121	31.292	0.161	-0.138
-532.106	-17.936	0.167	-0.105
-531.091	800.000	-0.082	-0.237
-530.077	-42.613	0.267	0.136
-529.062	-122.417	0.272	-0.044
-528.048	-85.914	-0.240	0.074
-527.033	120.693	0.187	0.232
-526.018	418.194	0.113	0.242
-525.004	140.596	0.128	-0.169
-523.989	-22.727	-0.145	-0.087
-522.975	524.162	0.033	0.077
-521.960	-200.000	0.054	-0.295
-520.945	-125.312	0.065	-0.010
-519.931	-200.000	-0.050	0.275
-518.916	-101.103	-0.292	0.072
-517.902	800.000	0.096	-0.360
-516.887	137.906	-0.090	-0.118
-515.872	109.581	0.131	-0.158
-514.858	14.140	-0.028	0.022
-513.843	-157.007	-0.203	0.012
-512.829	618.710	-0.086	0.216
-511.814	-200.000	-0.058	0.302
-510.799	230.958	0.083	0.136
-509.785	-129.730	0.144	0.020
-508.770	-70.473	-0.167	-0.063
-507.756	-200.000	-0.018	-0.156
-506.741	242.979	0.118	0.197
-505.726	-170.414	0.083	-0.003
-504.712	800.000	0.065	0.210
-503.697	-136.981	0.416	-0.048
-502.683	14.532	0.248	-0.194
-501.668	94.116	-0.167	-0.189
-500.653	206.766	-0.030	0.046
-499.639	68.392	-0.089	-0.091
-498.624	63.482	0.168	-0.169
-497.610	-100.102	0.151	-0.037
-496.595	116.412	-0.203	0.249
-495.581	227.336	-0.060	0.097
-494.566	275.020	0.087	0.154
-493.551	-112.074	-0.162	-0.033
-492.537	-7.507	-0.265	-0.179
-491.522	-8.582	0.232	-0.156
-490.508	-87.976	0.321	-0.096
-489.493	-132.717	0.233	0.030
-488.478	-200.000	0.016	0.069
-487.464	107.121	0.261	-0.310
-486.449	247.429	-0.071	0.120
-485.435	-29.568	-0.288	-0.164
-484.420	-53.678	-0.173	0.079
-483.405	-200.000	0.006	-0.114
-482.391	-65.559	0.173	-0.069
-481.376	410.494	0.040	0.085
-480.362	800.000	-0.056	0.240
-479.347	-82.379	-0.101	0.033
-478.332	800.000	-0.032	0.108
-477.318	-93.844	0.183	0.050
-476.303	215.359	0.078	-0.123
-475.289	67.369	0.116	-0.118
-474.274	558.103	0.071	0.171
-473.259	33.626	-0.083	-0.072
-472.245	800.000	-0.101	-0.432
-471.230	148.870	0.131	-0.176
-470.216	-200.000	-0.013	-0.297
-469.201	49.204	-0.093	0.087
-468.186	280.617	0.132	0.235
-467.172	-43.071	0.213	-0.108
-466.157	-91.367	-0.155	-0.044
-465.143	154.274	0.084	0.115
-464.128	33.767	-0.158	0.137
-463.113	-92.472	-0.210	0.059
-462.099	114.284	0.120	0.145
-461.084	-137.791	-0.308	0.034
-460.070	-31.031	-0.212	0.119
-459.055	303.705	0.189	0.349
-458.040	245.245	-0.052	0.088
-457.026	-31.329	0.114	0.064
-456.011	14.138	0.073	-0.056
-454.997	-160.478	0.213	-0.011
-453.982	-45.408	-0.145	-0.072
-452.968	-190.326	0.060	0.001
-451.953	57.068	0.242	0.236
-450.938	19.059	-0.115	-0.092
-449.924	800.000	-0.109	-0.314
-448.909	-26.550	0.077	-0.045
-447.895	53.297	0.080	0.076
-446.880	-200.000	-0.033	0.222
-445.865	-200.000	0.055	0.257
-444.851	2.289	-0.212	-0.153
-443.836	-31.624	0.296	-0.166
-442.822	-162.484	-0.333	-0.016
-441.807	-70.785	-0.219	0.083
-440.792	109.933	0.075	-0.089
-439.778	-149.407	-0.426	0.034
-438.763	-89.358	0.253	-0.074
-437.749	-6.312	0.363	-0.247
-436.734	-122.891	-0.231	0.037
-435.719	-61.122	-0.182	-0.076
-434.705	-200.000	0.044	-0.392
-433.690	334.437	-0.064	0.123
-432.676	149.662	0.156	0.211
-431.661	-107.996	0.261	0.057
-430.646	34.344	-0.360	-0.313
-429.632	200.698	-0.137	0.210
-428.617	96.237	-0.044	0.050
-427.603	-61.447	0.449	-0.188
-426.588	152.347	0.050	-0.068
-425.573	319.703	0.103	-0.194
-424.559	74.520	0.076	0.080
-423.544	33.488	0.359	0.311
-422.530	-31.364	-0.100	0.056
-421.515	124.524	-0.104	-0.130
-420.500	-144.590	0.209	0.019
-419.486	800.000	0.051	0.150
-418.471	-160.439	-0.046	0.002
-417.457	522.786	-0.024	0.057
-416.442	-81.978	0.304	0.099
-415.428	800.000	-0.036	-0.137
-414.413	-86.217	-0.245	0.075
-413.398	25.835	-0.219	0.182
-412.384	243.350	-0.176	0.295
-411.369	-37.805	-0.267	-0.142
-410.355	9.978	-0.396	-0.300
-409.340	-135.570	-0.110	-0.013
-408.325	-200.000	-0.019	-0.173
-407.311	69.295	-0.108	-0.110
-406.296	800.000	0.015	-0.056
-405.282	-12.020	-0.200	0.131
-404.267	-200.000	-0.022	-0.206
-403.252	-103.958	-0.008	0.002
-402.238	418.087	0.169	0.360
-401.223	576.127	-0.049	-0.119
-400.209	-63.660	-0.182	-0.074
-399.194	-72.444	-0.220	-0.081
-398.179	-6.905	0.081	-0.055
-397.165	-1.303	0.224	0.157
-396.150	-85.123	0.185	0.058
-395.136	-153.386	0.126	-0.009
-394.121	155.230	0.100	0.137
-393.106	328.406	-0.077	0.148
-392.092	544.939	-0.104	0.247
-391.077	800.000	-0.026	-0.102
-390.063	800.000	0.062	0.212
-389.048	-54.088	-0.156	0.071
-388.033	-60.693	0.297	-0.125
-387.019	800.000	-0.067	0.191
-386.004	517.675	-0.169	0.395
-384.990	414.882	-0.028	0.060
-383.975	-200.000	0.001	-0.167
-382.960	-99.629	-0.200	-0.050
-381.946	102.246	0.188	-0.219
-380.931	-193.391	0.293	0.003
-379.917	-82.100	0.399	0.130
-378.902	-70.216	0.229	-0.086
-377.888	-200.000	0.019	0.088
-376.873	800.000	0.093	-0.388
-375.858	-151.008	-0.197	0.015
-374.844	-37.210	0.186	-0.099
-373.829	150.652	-0.080	0.108
-372.815	-191.414	0.533	0.005
-371.800	20.220	-0.272	-0.218
-370.785	8.684	0.079	-0.059
-369.771	210.202	0.106	-0.165
-368.756	-89.452	-0.244	-0.071
-367.742	-71.777	0.246	-0.091
-366.727	622.454	0.024	0.060
-365.712	158.466	-0.226	0.312
-364.698	-174.626	0.105	0.003
-363.683	-87.452	0.381	-0.115
-362.669	174.971	0.170	0.245
-361.654	-6.223	-0.147	-0.100
-360.639	115.469	-0.272	-0.331
-359.625	-200.000	0.001	0.279
-358.610	343.961	-0.171	0.334
-357.596	-12.954	-0.196	0.127
-356.581	-200.000	0.043	-0.205
-355.566	7.379	-0.059	-0.044
-354.552	-50.012	0.248	0.117
-353.537	-22.060	0.126	0.076
-352.523	38.314	0.309	0.274
-351.508	0.396	-0.243	0.173
-350.493	-72.043	-0.218	0.081
-349.479	26.155	-0.299	0.248
-348.464	-65.543	0.028	0.011
-347.450	-58.149	0.093	0.040
-346.435	-122.294	-0.201	-0.033
-345.420	-41.582	-0.236	0.120
-344.406	38.615	-0.202	0.179
-343.391	-32.355	0.159	-0.088
-342.377	800.000	0.061	0.221
-341.362	707.331	0.090	-0.236
-340.348	-139.687	0.196	-0.021
-339.333	242.599	-0.094	-0.155
-338.318	-3.277	-0.028	-0.019
-337.304	-43.963	0.071	-0.036
-336.289	800.000	-0.040	0.135
-335.275	-114.141	0.130	-0.025
-334.260	87.509	0.284	0.312
-333.245	-80.981	0.204	-0.067
-332.231	-28.969	0.121	0.069
-331.216	423.276	0.141	-0.301
-330.202	-200.000	0.062	-0.289
-329.187	800.000	-0.018	0.050
-328.172	-104.067	-0.180	0.042
-327.158	800.000	-0.076	0.225
-326.143	-130.728	0.256	-0.034
-325.129	-200.000	0.005	-0.129
-324.114	19.932	-0.152	-0.122
-323.099	31.921	-0.121	-0.104
-322.085	-200.000	0.024	0.163
-321.070	249.386	-0.036	-0.060
-320.056	-46.448	0.166	0.081
-319.041	42.695	-0.195	0.176
-318.026	-78.750	-0.161	0.054
-317.012	-124.579	-0.060	0.009
-315.997	-104.291	0.092	0.021
-314.983	-200.000	-0.019	-0.273
-313.968	550.525	-0.086	0.205
-312.953	-110.423	-0.099	0.020
-311.939	423.000	-0.144	-0.308
-310.924	-200.000	0.023	-0.113
-309.910	30.914	-0.042	0.035
-308.895	-200.000	0.053	0.374
-307.880	-89.562	0.067	-0.020
-306.866	-151.592	0.274	0.020
-305.851	-200.000	0.038	-0.361
-304.837	32.452	-0.094	0.080
-303.822	501.737	0.169	-0.386
-302.807	-104.277	0.267	-0.062
-301.793	115.777	0.080	-0.097
-300.778	-166.798	-0.296	-0.012
-299.764	-42.940	-0.059	-0.030
-298.749	-200.000	-0.014	0.152
-297.735	-24.871	-0.142	0.084
-296.720	102.132	0.081	0.094
-295.705	13.285	0.266	0.204
-294.691	-85.060	-0.337	-0.105
-293.676	105.949	0.149	0.175
-292.662	-52.188	-0.285	0.131
-291.647	20.663	-0.126	-0.101
-290.632	-200.000	-0.076	-0.392
-289.618	-70.668	-0.130	-0.049
-288.603	70.539	-0.103	0.105
-287.589	-147.156	-0.231	-0.020
-286.574	-154.031	-0.270	-0.018
-285.559	488.689	-0.097	0.219
-284.545	-5.437	-0.183	-0.125
-283.530	800.000	0.069	-0.211
-282.516	291.800	-0.116	0.210
-281.501	-200.000	-0.016	0.216
-280.486	-48.227	0.280	-0.134
-279.472	-61.594	0.318	-0.132
-278.457	-0.169	0.083	-0.058
-277.443	-200.000	0.001	-0.296
-276.428	-200.000	0.040	0.200
-275.413	-200.000	0.026	-0.272
-274.399	-94.482	0.272	0.074
-273.384	-183.283	-0.232	0.004
-272.370	-80.192	0.106	0.035
-271.355	125.014	0.186	0.232
-270.340	336.924	-0.109	-0.209
-269.326	-70.076	0.122	-0.046
-268.311	74.530	0.200	-0.208
-267.297	58.110	0.040	-0.038
-266.282	-200.000	0.029	0.439
-265.267	-50.603	-0.434	0.203
-264.253	166.106	-0.066	0.093
-263.238	18.300	-0.110	0.087
-262.224	173.114	-0.119	0.170
-261.209	163.153	0.233	-0.324
-260.195	-23.469	-0.267	0.159
-259.180	-95.189	0.237	-0.063
-258.165	800.000	-0.104	-0.343
-257.151	-200.000	-0.049	0.217
-256.136	-200.000	0.005	0.052
-255.122	624.843	0.098	-0.244
-254.107	432.721	0.059	0.127
-253.092	166.990	-0.166	0.233
-252.078	211.062	0.045	0.070
-251.063	-152.063	0.194	-0.014
-250.049	641.340	-0.083	-0.209
-249.034	-95.571	-0.324	0.086
-248.019	-200.000	-0.011	-0.097
-247.005	674.762	0.082	0.211
-245.990	164.948	-0.145	0.202
-244.976	-200.000	0.030	-0.349
-243.961	-40.496	0.185	-0.095
-242.946	16.605	0.116	0.090
-241.932	685.663	0.097	0.251
-240.917	105.228	-0.084	-0.098
-239.903	447.072	0.168	0.366
-238.888	800.000	-0.029	-0.114
-237.873	-124.727	-0.449	0.069
-236.859	231.415	-0.106	-0.172
-235.844	34.442	0.066	-0.057
-234.830	77.843	0.045	0.047
-233.815	55.907	0.110	-0.106
-232.800	-200.000	0.021	0.172
-231.786	222.075	-0.117	-0.186
-230.771	-200.000	0.016	-0.273
-229.757	414.777	-0.069	-0.145
-228.742	76.099	-0.169	-0.176
-227.727	545.036	0.118	-0.279
-226.713	-200.000	0.016	0.134
-225.698	4.517	0.048	0.035
-224.684	-76.005	0.094	-0.033
-223.669	-114.852	0.353	-0.067
-222.655	-13.198	0.089	0.057
-221.640	-47.608	0.165	-0.079
-220.625	795.738	-0.074	-0.200
-219.611	-52.818	0.097	0.044
-218.596	-200.000	0.129	0.579
-217.582	-75.481	0.271	0.095
-216.567	27.721	-0.289	0.240
-215.552	-200.000	-0.017	-0.079
-214.538	-179.753	0.404	0.009
-213.523	-100.669	-0.272	0.066
-212.509	65.861	-0.078	0.078
-211.494	-34.305	-0.251	0.136
-210.479	94.623	0.207	0.233
-209.465	215.387	0.149	0.233
-208.450	-200.000	-0.011	0.202
-207.436	11.203	0.173	0.131
-206.421	800.000	0.040	0.143
-205.406	102.404	-0.272	0.315
-204.392	-75.263	-0.303	0.107
-203.377	223.431	0.134	-0.213
-202.363	-113.409	0.286	0.055
-201.348	138.225	-0.059	0.076
-200.333	800.000	0.083	-0.295
-199.319	351.859	-0.070	-0.137
-198.304	-87.680	0.285	0.085
-197.290	-41.419	-0.235	0.120
-196.275	-160.262	-0.162	0.009
-195.260	-172.520	-0.235	0.007
-194.246	0.925	-0.246	0.174
-193.231	-13.476	0.127	-0.081
-192.217	-77.115	-0.048	-0.016
-191.202	-149.129	-0.151	-0.012
-190.187	-21.007	0.355	0.215
-189.173	406.762	0.228	0.475
-188.158	-76.691	-0.306	-0.106
-187.144	-200.000	-0.015	-0.190
-186.129	183.374	-0.107	-0.157
-185.114	409.155	-0.076	-0.160
-184.100	125.781	-0.314	-0.391
-183.085	-155.167	-0.157	0.010
-182.071	-34.011	0.188	-0.102
-181.056	-132.714	0.482	-0.061
-180.042	-129.854	0.233	-0.032
-179.027	404.320	0.222	-0.461
-178.012	469.099	0.042	0.092
-176.998	230.753	0.107	-0.173
-175.983	0.541	-0.134	0.095
-174.969	-157.458	0.544	-0.032
-173.954	30.610	-0.191	-0.161
-172.939	-101.598	-0.073	0.018
-171.925	784.086	-0.043	-0.117
-170.910	220.975	0.035	0.055
-169.896	797.337	0.039	-0.107
-168.881	-114.163	-0.369	0.070
-167.866	-101.749	-0.191	0.046
-166.852	65.597	0.067	0.067
-165.837	78.938	0.104	-0.110
-164.823	-200.000	0.016	-0.385
-163.808	-200.000	0.032	0.387
-162.793	-79.642	0.187	0.062
-161.779	-200.000	0.024	-0.192
-160.764	-70.621	-0.100	-0.037
-159.750	-116.506	0.099	0.018
-158.735	-200.000	0.043	0.265
-157.720	63.766	0.078	-0.078
-156.706	656.594	-0.116	-0.295
-155.691	0.803	0.154	0.109
-154.677	-56.800	-0.140	0.061
-153.662	-200.000	-0.018	0.276
-152.647	57.129	0.060	0.057
-151.633	-200.000	-0.022	-0.116
-150.618	132.001	0.095	0.121
-149.604	1.934	-0.110	0.078
-148.589	-149.576	0.136	0.011
-147.574	22.105	-0.168	0.135
-146.560	219.710	-0.062	-0.097
-145.545	-12.611	0.187	0.120
-144.531	-200.000	-0.016	0.133
-143.516	-34.718	-0.191	0.103
-142.502	-200.000	0.122	0.559
-141.487	135.105	0.164	0.210
-140.472	441.505	-0.104	-0.224
-139.458	15.020	-0.067	-0.052
-138.443	-86.845	-0.171	0.051
-137.429	-0.428	-0.117	-0.082
-136.414	48.447	-0.190	0.175
-135.399	-200.000	-0.006	-0.267
-134.385	127.919	0.016	0.020
-133.370	-46.277	-0.052	0.025
-132.356	-72.366	-0.101	-0.037
-131.341	18.497	-0.146	-0.115
-130.326	-94.650	-0.182	-0.049
-129.312	488.456	-0.086	0.192
-128.297	800.000	0.040	0.118
-127.283	332.198	-0.196	-0.372
-126.268	-7.896	-0.095	0.063
-125.253	192.958	0.096	0.143
-124.239	562.840	0.073	0.174
-123.224	-106.910	-0.375	0.082
-122.210	-11.359	-0.036	-0.023
-121.195	-54.447	-0.430	0.192
