DTS Sentinel unit serial number:	SN413079Multiplexer serial number:	ORYXHardware model number:	OX4-SRSoftware version number:	ORYX F/W v4.00 Oryx Data Collector v3.7.2.0data status	okinstallation	princeton_trtdifferential loss correction	single-endedforward channel	channel 1reverse channel	N/Adate	2019/09/12time	21:34:36forward acquisition time	60.00reverse acquisition time	0.00gamma	496.2192k internal	0.2326k external	0.2326temperature offset calibration	1.0139default loss term (dB/km)	0.3790temperature slope calibration	1.0000multiplexer offset coefficient	1.0000multiplexer slope coefficient	1.0000fibre end	0.00T internal ref (°C)	30.39T ext. ref 1 (°C)	3.68T ext. ref 2 (°C)	25.04length (m)	temperature (°C)	Stokes	anti-Stokes-747.200	-200.000	-0.034	0.241
-746.185	-35.459	-0.202	0.111
-745.171	-164.692	-0.179	-0.008
-744.156	-74.704	0.226	0.082
-743.142	-61.403	0.404	0.171
-742.127	-27.382	-0.385	0.226
-741.112	800.000	-0.065	-0.188
-740.098	-200.000	0.003	0.402
-739.083	283.498	-0.116	0.210
-738.069	-200.000	0.024	0.379
-737.054	-187.984	0.058	0.001
-736.039	-150.702	-0.329	0.025
-735.025	-68.551	-0.052	0.020
-734.010	-60.106	-0.132	0.057
-732.996	-9.001	-0.097	0.065
-731.981	-38.993	0.186	0.099
-730.966	-200.000	0.004	0.169
-729.952	94.668	-0.079	-0.091
-728.937	-120.742	-0.139	0.024
-727.923	184.905	-0.066	0.099
-726.908	-129.981	-0.530	0.073
-725.894	800.000	-0.073	-0.264
-724.879	-200.000	-0.058	0.337
-723.864	471.423	-0.044	0.101
-722.850	3.910	-0.013	-0.009
-721.835	652.325	0.078	0.201
-720.821	490.856	-0.132	-0.305
-719.806	-77.543	-0.476	-0.166
-718.791	-200.000	0.051	0.336
-717.777	800.000	0.076	-0.252
-716.762	800.000	-0.050	0.175
-715.748	286.200	0.042	-0.076
-714.733	800.000	0.035	0.132
-713.718	-119.475	-0.115	-0.020
-712.704	-16.741	-0.259	0.165
-711.689	800.000	0.073	-0.311
-710.675	-54.671	-0.178	-0.081
-709.660	197.390	0.135	-0.208
-708.645	118.228	0.097	0.121
-707.631	800.000	-0.012	-0.038
-706.616	224.660	-0.045	-0.073
-705.602	-171.007	-0.403	0.014
-704.587	202.009	-0.121	-0.188
-703.572	-84.124	-0.090	-0.029
-702.558	153.445	-0.190	0.262
-701.543	26.212	0.094	-0.079
-700.529	800.000	0.054	-0.174
-699.514	42.708	-0.207	-0.190
-698.499	-176.931	0.170	0.004
-697.485	-200.000	-0.006	-0.266
-696.470	-154.034	0.182	0.012
-695.456	-90.655	-0.308	0.090
-694.441	83.888	-0.046	-0.050
-693.426	-89.152	-0.132	0.039
-692.412	-105.376	0.126	0.029
-691.397	-35.855	-0.125	0.068
-690.383	119.081	-0.246	-0.306
-689.368	-184.170	-0.248	-0.004
-688.354	-20.556	-0.216	-0.134
-687.339	490.568	0.178	0.409
-686.324	-11.621	-0.032	0.021
-685.310	-113.684	0.297	0.058
-684.295	607.975	-0.047	-0.118
-683.281	-144.412	0.232	0.022
-682.266	-121.027	-0.178	0.030
-681.251	800.000	0.055	-0.186
-680.237	-200.000	0.019	-0.308
-679.222	-27.044	0.116	-0.068
-678.208	800.000	0.028	0.082
-677.193	570.014	0.094	0.230
-676.178	-200.000	0.001	0.065
-675.164	257.426	0.124	0.214
-674.149	89.960	0.255	0.286
-673.135	-11.296	0.089	0.059
-672.120	11.972	-0.399	-0.309
-671.105	41.491	0.073	0.067
-670.091	245.603	-0.113	-0.192
-669.076	218.363	0.093	-0.149
-668.062	137.833	-0.168	-0.221
-667.047	49.042	0.100	0.094
-666.032	-166.026	-0.132	0.006
-665.018	800.000	-0.022	-0.091
-664.003	-96.224	0.053	-0.014
-662.989	-118.447	0.171	-0.030
-661.974	76.095	0.064	0.068
-660.959	-200.000	-0.062	0.289
-659.945	-171.737	-0.089	-0.003
-658.930	645.684	0.087	-0.224
-657.916	-77.553	0.233	-0.081
-656.901	65.749	0.197	0.200
-655.886	20.142	-0.175	-0.142
-654.872	-146.143	0.243	-0.022
-653.857	-200.000	-0.068	0.331
-652.843	499.439	-0.086	-0.198
-651.828	800.000	0.089	-0.256
-650.814	136.155	0.234	-0.307
-649.799	-116.683	-0.295	-0.054
-648.784	74.006	-0.102	-0.107
-647.770	800.000	0.006	-0.026
-646.755	-200.000	-0.035	-0.326
-645.741	-136.865	-0.234	-0.027
-644.726	270.781	-0.056	0.100
-643.711	-100.803	0.211	0.052
-642.697	17.824	0.124	-0.099
-641.682	194.854	0.060	-0.092
-640.668	-26.772	0.123	-0.072
-639.653	110.444	-0.090	-0.108
-638.638	-18.878	-0.149	0.093
-637.624	129.295	0.170	0.218
-636.609	365.510	-0.056	0.114
-635.595	-121.690	0.226	0.038
-634.580	91.047	-0.140	0.158
-633.565	200.163	-0.192	-0.296
-632.551	-81.273	-0.256	-0.085
-631.536	-126.761	0.254	0.038
-630.522	527.723	0.069	0.164
-629.507	-200.000	0.013	-0.153
-628.492	266.514	0.117	-0.205
-627.478	569.713	-0.096	-0.235
-626.463	-146.039	0.294	-0.026
-625.449	371.089	0.097	0.198
-624.434	-115.697	-0.376	-0.071
-623.419	-48.594	-0.219	0.106
-622.405	23.449	-0.323	-0.267
-621.390	113.637	0.079	-0.097
-620.376	85.552	-0.034	-0.037
-619.361	-8.132	0.109	0.074
-618.346	-200.000	-0.025	0.233
-617.332	-6.806	0.111	-0.076
-616.317	-200.000	-0.012	-0.153
-615.303	800.000	0.021	-0.064
-614.288	346.629	0.080	0.158
-613.273	800.000	0.051	0.170
-612.259	29.754	-0.202	0.173
-611.244	-71.958	0.060	-0.022
-610.230	45.966	-0.120	-0.111
-609.215	-1.660	0.073	-0.052
-608.201	-4.380	-0.159	0.110
-607.186	800.000	-0.037	-0.111
-606.171	-77.726	0.178	0.062
-605.157	148.547	0.124	0.168
-604.142	-4.876	0.216	-0.149
-603.128	-200.000	-0.010	0.084
-602.113	508.077	-0.072	0.168
-601.098	-200.000	-0.006	0.063
-600.084	108.848	-0.135	0.162
-599.069	-200.000	-0.008	-0.196
-598.055	-155.062	0.016	0.001
-597.040	-166.969	0.192	0.008
-596.025	-35.864	0.150	0.082
-595.011	-200.000	-0.045	-0.387
-593.996	35.284	0.357	-0.314
-592.982	-22.183	0.277	0.169
-591.967	-200.000	0.027	0.180
-590.952	121.074	-0.043	0.054
-589.938	-39.665	-0.182	-0.095
-588.923	123.649	-0.302	0.380
-587.909	-200.000	-0.075	0.366
-586.894	-88.747	-0.036	0.011
-585.879	800.000	-0.074	0.230
-584.865	-71.240	-0.242	-0.091
-583.850	43.820	-0.156	0.143
-582.836	800.000	-0.042	-0.117
-581.821	450.552	-0.078	0.172
-580.806	-43.430	-0.144	-0.073
-579.792	240.676	-0.062	0.104
-578.777	-165.242	0.380	0.017
-577.763	64.465	0.282	0.285
-576.748	-29.786	0.306	0.175
-575.733	-200.000	0.019	0.095
-574.719	-118.449	0.049	-0.009
-573.704	57.464	0.451	-0.441
-572.690	68.298	0.047	-0.048
-571.675	-38.999	-0.406	0.214
-570.661	800.000	0.024	-0.069
-569.646	-119.277	0.529	0.092
-568.631	-52.802	0.060	-0.028
-567.617	-16.558	-0.285	0.181
-566.602	581.691	-0.109	-0.268
-565.588	-98.381	0.146	0.038
-564.573	40.879	0.203	-0.184
-563.558	598.234	-0.054	-0.133
-562.544	-31.332	-0.262	-0.148
-561.529	78.642	-0.007	-0.007
-560.515	463.453	-0.055	-0.123
-559.500	391.072	0.049	0.103
-558.485	-129.068	-0.117	-0.016
-557.471	631.913	-0.093	-0.236
-556.456	-200.000	-0.008	0.322
-555.442	-200.000	-0.020	-0.151
-554.427	355.569	-0.077	-0.154
-553.412	-122.233	-0.062	-0.010
-552.398	378.480	-0.068	-0.139
-551.383	-25.678	-0.212	0.125
-550.369	502.539	-0.050	-0.116
-549.354	-48.541	0.228	-0.110
-548.339	168.777	-0.165	0.235
-547.325	-87.020	0.342	0.104
-546.310	243.146	-0.043	0.072
-545.296	158.384	-0.168	-0.233
-544.281	7.666	-0.034	0.026
-543.266	573.290	-0.131	0.319
-542.252	-200.000	0.011	0.209
-541.237	-189.269	0.077	0.001
-540.223	-200.000	0.005	-0.048
-539.208	800.000	0.057	-0.177
-538.193	76.554	0.145	-0.153
-537.179	-134.480	-0.254	-0.031
-536.164	439.387	-0.039	0.085
-535.150	-125.066	-0.089	0.014
-534.135	-79.229	-0.103	-0.035
-533.121	800.000	-0.104	-0.338
-532.106	-200.000	0.063	0.323
-531.091	169.590	-0.166	0.237
-530.077	95.881	-0.034	-0.039
-529.062	-26.658	0.039	-0.023
-528.048	-138.981	0.316	0.034
-527.033	800.000	-0.033	0.114
-526.018	-16.535	-0.045	-0.029
-525.004	800.000	-0.084	0.289
-523.989	800.000	-0.092	0.275
-522.975	40.933	-0.194	0.175
-521.960	374.334	0.115	0.234
-520.945	-86.373	0.153	0.047
-519.931	800.000	-0.055	-0.236
-518.916	78.800	-0.160	-0.172
-517.902	-131.863	0.396	-0.052
-516.887	583.135	-0.042	-0.103
-515.872	717.861	0.121	0.321
-514.858	-68.128	-0.248	-0.097
-513.843	-200.000	0.004	0.027
-512.829	-118.304	-0.150	0.027
-511.814	800.000	0.123	-0.411
-510.799	-93.835	-0.203	-0.056
-509.785	-86.509	-0.178	-0.055
-508.770	70.286	-0.153	0.158
-507.756	-104.107	0.630	0.147
-506.741	-147.866	-0.135	-0.011
-505.726	-1.908	0.258	-0.181
-504.712	-130.038	-0.114	0.016
-503.697	800.000	0.074	-0.257
-502.683	-105.948	0.485	-0.109
-501.668	-10.704	0.168	-0.111
-500.653	187.165	-0.140	0.208
-499.639	800.000	-0.062	-0.187
-498.624	-90.791	0.073	0.021
-497.610	-95.744	-0.230	-0.061
-496.595	-67.316	0.300	-0.118
-495.581	-45.995	0.018	-0.009
-494.566	556.602	-0.041	-0.100
-493.551	594.916	0.072	-0.179
-492.537	346.809	-0.199	0.391
-491.522	-18.033	-0.100	0.062
-490.508	-108.958	0.191	0.041
-489.493	800.000	-0.019	-0.067
-488.478	68.797	0.114	-0.117
-487.464	-200.000	0.033	-0.220
-486.449	800.000	-0.128	-0.419
-485.435	55.480	0.282	0.273
-484.420	71.486	0.180	-0.186
-483.405	-27.519	-0.148	-0.086
-482.391	800.000	-0.010	0.035
-481.376	384.249	-0.030	0.061
-480.362	438.407	0.171	0.373
-479.347	169.911	-0.036	0.051
-478.332	-3.791	-0.187	0.130
-477.318	-148.983	-0.056	0.004
-476.303	11.031	-0.248	0.189
-475.289	24.980	-0.124	0.103
-474.274	197.445	0.149	-0.227
-473.259	-153.556	-0.208	-0.014
-472.245	-170.873	0.369	-0.013
-471.230	411.548	-0.127	0.269
-470.216	55.144	0.216	-0.208
-469.201	-200.000	-0.004	0.282
-468.186	16.956	0.174	0.137
-467.172	800.000	0.076	-0.297
-466.157	800.000	-0.051	-0.149
-465.143	-172.862	0.124	-0.004
-464.128	33.948	0.107	-0.093
-463.113	-56.089	0.217	-0.097
-462.099	158.148	0.114	-0.157
-461.084	-200.000	0.041	-0.312
-460.070	-195.246	0.141	0.001
-459.055	192.115	-0.145	-0.218
-458.040	-159.676	-0.153	-0.008
-457.026	118.123	0.222	-0.273
-456.011	255.957	0.141	-0.241
-454.997	13.172	0.229	-0.177
-453.982	-46.048	0.198	-0.097
-452.968	-143.330	0.174	-0.017
-451.953	282.068	-0.134	-0.240
-450.938	17.105	0.211	-0.167
-449.924	-54.944	-0.206	0.093
-448.909	-142.672	0.154	0.015
-447.895	-22.809	-0.093	0.056
-446.880	-200.000	0.059	0.523
-445.865	-84.759	0.421	-0.132
-444.851	-79.187	-0.160	0.054
-443.836	53.189	-0.173	-0.165
-442.822	-33.275	0.090	-0.050
-441.807	-149.405	0.071	0.006
-440.792	-95.260	-0.188	0.050
-439.778	-51.021	-0.238	0.111
-438.763	-160.293	-0.105	0.006
-437.749	800.000	0.062	0.186
-436.734	-200.000	-0.064	0.325
-435.719	94.626	-0.153	0.173
-434.705	-124.361	-0.357	-0.055
-433.690	397.253	-0.193	-0.402
-432.676	426.361	0.098	0.211
-431.661	-200.000	0.008	-0.122
-430.646	264.728	-0.090	-0.156
-429.632	-77.805	-0.163	0.056
-428.617	349.596	0.102	0.201
-427.603	78.926	-0.155	-0.165
-426.588	-200.000	0.007	-0.067
-425.573	-200.000	0.101	-0.474
-424.559	250.867	0.093	-0.157
-423.544	-151.206	0.092	0.007
-422.530	503.941	0.083	0.191
-421.515	-9.173	0.195	-0.130
-420.500	-54.647	-0.274	0.124
-419.486	800.000	-0.063	0.218
-418.471	31.750	0.144	0.123
-417.457	800.000	-0.043	-0.139
-416.442	748.725	-0.020	-0.055
-415.428	21.106	0.201	-0.163
-414.413	-159.455	-0.353	-0.020
-413.398	105.276	-0.153	0.179
-412.384	340.626	0.116	0.226
-411.369	-25.579	0.226	0.133
-410.355	-200.000	-0.018	0.190
-409.340	-76.937	-0.154	-0.053
-408.325	-80.764	0.075	-0.025
-407.311	-200.000	0.086	-0.488
-406.296	-200.000	-0.016	-0.182
-405.282	-68.820	-0.195	0.075
-404.267	-75.503	0.158	0.056
-403.252	219.300	-0.155	0.247
-402.238	-200.000	-0.043	-0.307
-401.223	163.617	0.102	-0.143
-400.209	-25.101	0.098	-0.058
-399.194	-166.901	0.308	-0.013
-398.179	-43.211	-0.085	-0.043
-397.165	157.262	0.096	-0.132
-396.150	-70.213	0.219	0.083
-395.136	-109.633	0.292	0.061
-394.121	733.698	-0.137	-0.364
-393.106	-4.548	0.167	0.115
-392.092	-200.000	0.017	0.138
-391.077	800.000	0.038	-0.113
-390.063	35.833	0.340	0.297
-389.048	-200.000	-0.028	0.207
-388.033	-200.000	0.000	0.223
-387.019	-82.718	-0.350	0.113
-386.004	-111.685	-0.306	0.062
-384.990	-17.947	0.239	0.149
-383.975	312.734	-0.099	-0.185
-382.960	-135.772	-0.445	-0.052
-381.946	800.000	0.029	0.117
-380.931	-200.000	0.013	-0.091
-379.917	-200.000	0.060	0.270
-378.902	414.629	-0.083	-0.176
-377.888	-116.262	-0.159	0.029
-376.873	800.000	0.122	-0.498
-375.858	5.784	-0.124	-0.091
-374.844	7.209	-0.165	-0.122
-373.829	-63.776	0.310	0.126
-372.815	230.761	0.230	-0.374
-371.800	137.749	0.069	-0.090
-370.785	-50.033	0.271	0.128
-369.771	-61.010	-0.098	-0.041
-368.756	-200.000	0.049	-0.284
-367.742	93.848	-0.298	-0.336
-366.727	597.794	-0.109	0.268
-365.712	-139.921	-0.175	-0.018
-364.698	53.853	0.073	0.070
-363.683	340.930	0.088	0.171
-362.669	-47.854	0.145	-0.070
-361.654	287.019	0.138	0.248
-360.639	35.841	0.079	0.069
-359.625	800.000	0.003	0.009
-358.610	-200.000	0.012	-0.079
-357.596	-200.000	-0.067	0.306
-356.581	-3.387	0.003	0.002
-355.566	16.769	-0.322	0.253
-354.552	32.858	0.235	0.202
-353.537	139.156	-0.062	-0.081
-352.523	-44.633	-0.154	-0.077
-351.508	122.576	0.031	0.038
-350.493	800.000	0.073	0.274
-349.479	-50.837	-0.172	-0.080
-348.464	80.528	0.046	0.049
-347.450	182.202	-0.072	-0.105
-346.435	196.621	-0.174	-0.264
-345.420	120.734	0.116	-0.143
-344.406	51.405	0.105	0.099
-343.391	210.005	0.170	-0.265
-342.377	104.791	-0.040	-0.047
-341.362	348.389	0.065	-0.127
-340.348	-29.298	0.228	0.130
-339.333	190.742	-0.125	-0.187
-338.318	-58.394	-0.124	-0.054
-337.304	83.807	0.072	-0.078
-336.289	-200.000	-0.002	0.217
-335.275	219.827	0.167	-0.266
-334.260	-200.000	0.041	-0.213
-333.245	800.000	-0.047	-0.188
-332.231	-18.577	0.152	0.094
-331.216	603.475	0.028	0.070
-330.202	54.611	0.029	-0.028
-329.187	-200.000	0.000	0.241
-328.172	496.542	0.046	-0.104
-327.158	-200.000	-0.050	0.219
-326.143	698.299	-0.120	-0.313
-325.129	800.000	-0.082	-0.277
-324.114	-50.910	-0.166	-0.078
-323.099	12.944	-0.213	0.163
-322.085	-11.630	0.239	0.156
-321.070	-200.000	-0.060	-0.314
-320.056	-200.000	0.000	0.200
-319.041	20.302	0.207	-0.166
-318.026	-200.000	-0.039	0.267
-317.012	-200.000	-0.025	0.355
-315.997	-91.126	0.091	0.026
-314.983	800.000	0.080	0.234
-313.968	800.000	0.051	-0.147
-312.953	-200.000	-0.008	0.397
-311.939	190.575	0.152	-0.227
-310.924	185.654	-0.116	-0.170
-309.910	271.481	-0.059	-0.103
-308.895	375.912	0.161	0.326
-307.880	-200.000	-0.012	0.100
-306.866	-8.413	0.138	0.092
-305.851	15.305	-0.243	-0.189
-304.837	261.146	-0.138	0.237
-303.822	-82.372	-0.109	0.035
-302.807	-168.737	-0.447	-0.017
-301.793	-179.593	0.399	0.009
-300.778	199.081	0.150	-0.227
-299.764	-107.325	-0.104	-0.023
-298.749	324.913	-0.095	-0.181
-297.735	-103.195	0.227	0.053
-296.720	97.241	-0.421	-0.479
-295.705	-36.180	0.045	-0.024
-294.691	-48.368	-0.108	-0.051
-293.676	21.707	0.085	0.068
-292.662	-64.566	0.198	0.080
-291.647	149.128	-0.285	0.382
-290.632	-41.914	0.106	-0.054
-289.618	73.246	-0.104	0.108
-288.603	9.064	-0.263	-0.197
-287.589	-167.187	0.225	-0.009
-286.574	-57.416	0.224	0.097
-285.559	-27.538	0.087	-0.050
-284.545	-200.000	0.024	0.275
-283.530	-66.669	-0.094	-0.037
-282.516	-49.470	0.302	0.143
-281.501	-174.834	-0.038	0.001
-280.486	-153.576	-0.371	-0.025
-279.472	-50.893	-0.082	0.038
-278.457	65.531	0.125	-0.126
-277.443	22.340	-0.168	-0.136
-276.428	-79.327	-0.235	0.079
-275.413	128.941	-0.137	0.173
-274.399	-200.000	-0.014	-0.281
-273.384	-28.818	-0.257	-0.146
-272.370	-114.380	-0.289	0.055
-271.355	-5.694	0.243	0.165
-270.340	64.113	0.146	-0.146
-269.326	178.832	0.193	-0.280
-268.311	-17.665	-0.228	-0.142
-267.297	129.274	-0.141	-0.179
-266.282	-69.764	0.043	-0.016
-265.267	-100.994	0.136	0.033
-264.253	144.026	-0.121	-0.159
-263.238	152.234	0.067	-0.091
-262.224	-60.271	-0.132	0.056
-261.209	-95.396	-0.074	0.020
-260.195	-112.135	-0.366	0.073
-259.180	93.455	-0.204	-0.229
-258.165	274.206	0.125	0.219
-257.151	285.595	-0.104	0.185
-256.136	800.000	-0.129	0.360
-255.122	392.842	-0.155	0.320
-254.107	-47.060	-0.133	-0.064
-253.092	-109.453	0.255	-0.053
-252.078	-200.000	-0.028	0.143
-251.063	-49.748	0.137	-0.064
-250.049	-26.273	0.193	-0.112
-249.034	180.894	-0.187	-0.272
-248.019	-27.898	0.309	-0.177
-247.005	-200.000	0.042	-0.194
-245.990	-163.217	-0.193	-0.009
-244.976	326.272	-0.094	0.178
-243.961	-200.000	-0.038	0.450
-242.946	24.265	-0.302	0.247
-241.932	58.381	0.112	0.109
-240.917	-200.000	0.051	-0.299
-239.903	-57.894	-0.247	-0.107
-238.888	-156.383	-0.173	0.011
-237.873	9.275	0.085	-0.064
-236.859	-7.464	0.028	0.019
-235.844	24.632	-0.088	0.072
-234.830	336.783	0.102	0.196
-233.815	30.475	-0.443	-0.375
-232.800	-125.936	0.210	-0.031
-231.786	-143.846	-0.255	0.024
-230.771	-83.669	0.014	0.004
-229.757	520.313	0.166	-0.385
-228.742	-76.006	0.156	-0.055
-227.727	-200.000	0.099	0.453
-226.713	192.047	-0.137	0.205
-225.698	-200.000	-0.016	-0.152
-224.684	-151.820	0.342	-0.025
-223.669	-38.846	-0.218	-0.113
-222.655	535.843	0.044	0.103
-221.640	70.848	-0.119	0.121
-220.625	273.634	0.062	0.107
-219.611	79.457	-0.142	-0.151
-218.596	-200.000	-0.001	0.176
-217.582	-200.000	0.011	0.090
-216.567	554.572	0.091	0.215
-215.552	-200.000	-0.014	-0.107
-214.538	-69.201	0.040	0.015
-213.523	-200.000	0.017	-0.141
-212.509	33.316	-0.229	0.197
-211.494	-50.945	0.047	-0.022
-210.479	-200.000	0.010	0.275
-209.465	800.000	0.080	0.274
-208.450	-200.000	0.011	-0.092
-207.436	-196.625	0.092	0.001
-206.421	-200.000	0.006	0.143
-205.406	24.259	0.051	-0.041
-204.392	-112.282	-0.120	-0.024
-203.377	-17.737	0.231	0.144
-202.363	111.160	0.182	-0.216
-201.348	341.007	-0.101	0.196
-200.333	76.818	0.234	0.245
-199.319	89.345	0.056	-0.062
-198.304	18.424	-0.357	0.281
-197.290	357.252	-0.075	0.148
-196.275	-17.554	-0.162	-0.101
-195.260	-200.000	0.019	0.113
-194.246	800.000	0.030	-0.112
-193.231	-149.144	0.182	0.014
-192.217	484.037	-0.080	0.179
-191.202	-43.350	-0.556	-0.277
-190.187	-69.342	-0.203	-0.077
-189.173	692.465	-0.065	0.168
-188.158	17.635	0.134	0.105
-187.144	-190.808	0.456	0.005
-186.129	722.815	-0.165	-0.434
-185.114	54.031	0.112	-0.107
-184.100	250.865	-0.054	-0.091
-183.085	-200.000	-0.012	0.095
-182.071	333.400	-0.172	0.329
-181.056	149.490	0.080	0.106
-180.042	-48.082	0.080	0.038
-179.027	18.187	0.127	0.100
-178.012	-200.000	-0.034	0.416
-176.998	-200.000	0.033	-0.269
-175.983	-200.000	0.028	-0.400
-174.969	26.763	-0.310	0.256
-173.954	141.991	-0.084	0.109
-172.939	-141.265	0.248	-0.025
-171.925	120.935	0.151	-0.185
-170.910	7.058	0.207	-0.153
-169.896	-19.092	0.115	-0.071
-168.881	626.982	0.051	0.127
-167.866	-3.198	-0.219	0.150
-166.852	-65.074	0.307	0.122
-165.837	-196.485	-0.292	0.002
-164.823	-109.512	0.111	-0.023
-163.808	4.108	0.204	-0.148
-162.793	-69.494	0.317	0.120
-161.779	-200.000	0.027	0.287
-160.764	223.602	0.204	0.325
-159.750	-31.926	0.122	0.067
-158.735	-58.110	-0.383	0.165
-157.720	99.615	0.286	-0.326
-156.706	250.733	-0.066	0.111
-155.691	-111.662	0.039	-0.008
-154.677	437.852	-0.188	-0.404
-153.662	243.580	0.046	-0.076
-152.647	600.830	-0.067	-0.164
-151.633	800.000	-0.109	0.349
-150.618	-0.920	0.106	-0.074
-149.604	367.105	-0.143	-0.284
-148.589	-200.000	0.031	-0.361
-147.574	800.000	-0.071	-0.242
-146.560	-70.322	0.077	-0.029
-145.545	195.670	-0.039	-0.058
-144.531	379.603	0.055	0.111
-143.516	-91.083	0.381	-0.108
-142.502	-200.000	-0.054	0.299
-141.487	-120.101	0.164	0.028
-140.472	294.653	0.090	0.162
-139.458	267.267	-0.102	0.176
-138.443	-72.509	0.260	0.095
-137.429	109.415	0.026	0.031
-136.414	9.029	-0.324	0.241
-135.399	-23.388	0.355	0.210
-134.385	-200.000	-0.030	-0.133
-133.370	237.322	-0.058	-0.095
-132.356	33.217	0.185	-0.158
-131.341	128.753	0.113	-0.142
-130.326	-63.262	-0.494	0.200
-129.312	242.870	0.159	0.263
-128.297	-73.811	-0.099	-0.035
-127.283	800.000	0.075	0.236
-126.268	-200.000	0.012	0.131
-125.253	-114.747	-0.342	-0.064
-124.239	-142.349	0.255	-0.025
-123.224	-10.422	0.127	0.083
-122.210	-90.877	0.302	-0.085
-121.195	-200.000	0.021	-0.298
