DTS Sentinel unit serial number:	SN413079Multiplexer serial number:	ORYXHardware model number:	OX4-SRSoftware version number:	ORYX F/W v4.00 Oryx Data Collector v3.7.2.0data status	okinstallation	princeton_trtdifferential loss correction	single-endedforward channel	channel 1reverse channel	N/Adate	2019/09/13time	03:02:35forward acquisition time	60.00reverse acquisition time	0.00gamma	496.2192k internal	0.2331k external	0.2331temperature offset calibration	1.0160default loss term (dB/km)	0.3790temperature slope calibration	1.0000multiplexer offset coefficient	1.0000multiplexer slope coefficient	1.0000fibre end	0.00T internal ref (°C)	27.42T ext. ref 1 (°C)	4.05T ext. ref 2 (°C)	22.17length (m)	temperature (°C)	Stokes	anti-Stokes-747.200	-143.423	0.312	-0.030
-746.185	81.943	-0.270	0.294
-745.171	-200.000	0.103	0.547
-744.156	-75.152	-0.145	-0.052
-743.142	123.177	-0.207	0.260
-742.127	86.653	0.058	0.065
-741.112	-200.000	-0.004	0.167
-740.098	-200.000	-0.042	0.347
-739.083	-71.872	0.138	-0.052
-738.069	473.956	-0.140	0.319
-737.054	-51.488	0.170	0.080
-736.039	-70.662	-0.100	0.038
-735.025	800.000	-0.016	-0.047
-734.010	100.270	-0.086	-0.100
-732.996	-35.529	0.199	-0.109
-731.981	135.766	-0.103	-0.135
-730.966	-138.248	-0.366	0.041
-729.952	-200.000	0.008	-0.130
-728.937	-200.000	0.003	-0.125
-727.923	121.701	-0.203	-0.254
-726.908	-103.715	-0.380	-0.089
-725.894	-65.091	-0.396	-0.161
-724.879	99.269	0.059	0.069
-723.864	274.501	-0.026	0.046
-722.850	-141.356	-0.212	-0.022
-721.835	-1.282	0.016	-0.012
-720.821	-200.000	-0.054	-0.270
-719.806	597.012	-0.171	-0.427
-718.791	-121.161	0.219	0.037
-717.777	-76.003	-0.237	0.084
-716.762	89.139	0.187	-0.209
-715.748	-27.186	0.070	-0.041
-714.733	606.139	0.039	-0.099
-713.718	-200.000	0.023	-0.189
-712.704	800.000	-0.092	-0.304
-711.689	9.932	-0.139	-0.106
-710.675	-200.000	0.014	-0.286
-709.660	-55.751	0.250	0.112
-708.645	134.267	0.214	0.278
-707.631	90.988	-0.219	0.247
-706.616	541.137	-0.051	0.122
-705.602	-200.000	-0.003	-0.138
-704.587	73.924	-0.117	0.124
-703.572	-101.508	-0.485	0.119
-702.558	68.027	0.134	-0.138
-701.543	105.400	-0.205	0.243
-700.529	756.377	-0.087	-0.236
-699.514	-57.831	-0.168	0.074
-698.499	46.604	-0.170	0.159
-697.485	-66.606	-0.350	0.139
-696.470	-200.000	0.045	-0.202
-695.456	-116.862	-0.105	0.019
-694.441	-111.478	0.199	0.041
-693.426	5.423	0.284	-0.210
-692.412	132.144	-0.039	-0.051
-691.397	-200.000	-0.118	0.701
-690.383	-98.776	0.335	-0.086
-689.368	16.202	0.210	0.166
-688.354	74.428	0.114	-0.120
-687.339	61.262	-0.280	-0.279
-686.324	-200.000	0.106	-0.514
-685.310	-109.793	-0.144	0.030
-684.295	-67.739	0.340	-0.134
-683.281	42.461	0.153	-0.140
-682.266	-40.544	-0.315	0.164
-681.251	-200.000	0.027	-0.152
-680.237	-85.942	-0.070	0.022
-679.222	-73.711	-0.085	0.031
-678.208	800.000	-0.044	0.153
-677.193	-37.505	0.374	0.200
-676.178	133.297	0.112	0.145
-675.164	601.665	-0.032	-0.079
-674.149	-2.072	0.161	0.113
-673.135	-200.000	-0.051	-0.280
-672.120	312.737	-0.170	0.320
-671.105	-151.872	0.139	-0.010
-670.091	800.000	0.043	0.175
-669.076	-134.568	-0.246	0.030
-668.062	-200.000	0.040	0.393
-667.047	-2.603	0.059	-0.041
-666.032	99.315	0.126	-0.146
-665.018	-101.458	0.280	0.068
-664.003	-106.187	0.023	0.005
-662.989	182.116	-0.158	-0.234
-661.974	-103.908	-0.135	-0.032
-660.959	-95.808	-0.218	-0.058
-659.945	-87.674	0.308	0.093
-658.930	-115.082	0.287	0.055
-657.916	-200.000	0.023	-0.132
-656.901	800.000	0.132	0.369
-655.886	-200.000	-0.021	0.212
-654.872	-117.804	0.213	-0.038
-653.857	133.382	0.178	0.230
-652.843	-200.000	0.005	0.277
-651.828	-72.834	0.211	-0.078
-650.814	351.989	0.036	0.072
-649.799	153.238	-0.031	0.042
-648.784	515.191	-0.066	0.155
-647.770	-53.103	-0.239	0.110
-646.755	800.000	0.073	-0.217
-645.741	148.857	-0.135	0.183
-644.726	-111.799	-0.119	0.024
-643.711	97.403	-0.208	-0.239
-642.697	-200.000	-0.002	-0.148
-641.682	26.789	-0.119	-0.100
-640.668	107.946	-0.191	-0.228
-639.653	81.687	0.297	-0.322
-638.638	-200.000	0.001	-0.341
-637.624	212.151	-0.102	-0.161
-636.609	73.207	-0.154	-0.161
-635.595	-135.964	0.445	0.052
-634.580	800.000	0.063	-0.184
-633.565	-159.642	-0.175	-0.010
-632.551	-83.252	-0.142	0.046
-631.536	762.518	-0.130	-0.352
-630.522	-61.957	-0.232	-0.097
-629.507	-26.342	0.155	0.091
-628.492	800.000	0.019	0.064
-627.478	-26.067	-0.177	-0.104
-626.463	-158.733	-0.230	0.013
-625.449	19.757	0.377	-0.304
-624.434	95.944	-0.089	0.102
-623.419	-85.426	-0.300	-0.094
-622.405	-77.804	-0.329	-0.114
-621.390	225.377	0.036	0.058
-620.376	-115.254	-0.201	-0.038
-619.361	-200.000	-0.061	0.423
-618.346	-66.960	0.214	0.085
-617.332	366.883	0.139	0.281
-616.317	-200.000	-0.011	-0.098
-615.303	597.583	-0.022	0.056
-614.288	231.994	-0.373	-0.613
-613.273	672.045	-0.178	-0.462
-612.259	18.799	0.102	0.081
-611.244	-200.000	0.028	0.131
-610.230	-140.125	-0.284	0.030
-609.215	24.078	-0.196	-0.162
-608.201	-200.000	-0.007	-0.171
-607.186	-27.715	0.186	0.108
-606.171	-120.398	-0.356	0.061
-605.157	604.128	0.026	0.064
-604.142	800.000	0.099	0.410
-603.128	-200.000	0.004	0.079
-602.113	-133.693	-0.385	0.048
-601.098	800.000	-0.071	0.274
-600.084	-2.936	0.342	-0.239
-599.069	-25.636	0.091	-0.054
-598.055	-184.067	0.276	0.005
-597.040	-110.263	-0.373	-0.078
-596.025	-123.827	-0.373	0.059
-595.011	800.000	-0.064	-0.222
-593.996	-193.874	0.051	-0.000
-592.982	-104.172	-0.207	-0.048
-591.967	-141.556	-0.182	-0.018
-590.952	-123.881	0.155	0.024
-589.938	-200.000	-0.009	0.088
-588.923	-143.153	0.155	-0.015
-587.909	-117.783	-0.245	0.044
-586.894	800.000	0.029	0.109
-585.879	-61.810	-0.156	0.065
-584.865	-154.223	0.568	0.038
-583.850	-200.000	0.014	0.084
-582.836	-34.532	0.209	0.114
-581.821	-112.948	-0.419	0.083
-580.806	98.803	-0.080	-0.093
-579.792	257.588	0.121	-0.208
-578.777	45.838	-0.109	-0.101
-577.763	800.000	0.026	0.074
-576.748	2.167	-0.345	0.249
-575.733	-200.000	0.034	0.267
-574.719	800.000	0.072	0.276
-573.704	40.920	-0.183	-0.165
-572.690	-53.758	-0.020	0.009
-571.675	44.090	0.303	0.278
-570.661	286.236	0.108	-0.195
-569.646	-149.164	-0.132	0.011
-568.631	-172.275	-0.095	0.003
-567.617	-200.000	0.014	-0.204
-566.602	-96.280	-0.347	0.092
-565.588	-100.081	-0.069	0.017
-564.573	800.000	-0.057	0.193
-563.558	-200.000	0.001	-0.118
-562.544	-40.025	-0.255	0.133
-561.529	-200.000	0.004	0.200
-560.515	-62.086	0.226	0.094
-559.500	-51.280	-0.351	0.164
-558.485	554.241	0.151	-0.363
-557.471	-200.000	0.040	-0.182
-556.456	-112.163	0.344	-0.069
-555.442	-121.862	0.330	0.054
-554.427	-38.401	0.132	-0.070
-553.412	27.850	-0.018	0.015
-552.398	-114.728	0.182	-0.035
-551.383	78.702	0.083	-0.089
-550.369	-76.039	0.211	0.074
-549.354	-61.599	-0.217	0.091
-548.339	88.884	0.290	0.323
-547.325	-200.000	-0.028	0.167
-546.310	-200.000	0.027	-0.159
-545.296	-200.000	-0.010	0.234
-544.281	79.991	-0.177	-0.190
-543.266	-39.460	0.223	-0.117
-542.252	-75.996	0.410	0.145
-541.237	-67.014	-0.203	-0.080
-540.223	800.000	-0.046	0.179
-539.208	62.260	0.105	0.105
-538.193	252.478	-0.114	-0.194
-537.179	-200.000	0.036	0.294
-536.164	-200.000	0.023	0.177
-535.150	-200.000	-0.037	0.423
-534.135	70.848	0.321	0.331
-533.121	-127.894	-0.030	-0.004
-532.106	728.726	0.086	-0.229
-531.091	800.000	-0.051	0.148
-530.077	-200.000	0.084	0.387
-529.062	-10.011	0.025	-0.017
-528.048	-116.285	-0.092	-0.017
-527.033	-137.806	0.100	0.011
-526.018	-200.000	-0.001	0.047
-525.004	-109.539	-0.191	-0.040
-523.989	499.244	0.013	0.029
-522.975	-3.749	0.109	0.076
-521.960	189.137	-0.039	-0.058
-520.945	84.146	-0.174	-0.190
-519.931	-59.030	0.184	0.079
-518.916	-21.413	-0.161	-0.098
-517.902	630.286	0.116	-0.292
-516.887	-62.053	-0.048	-0.020
-515.872	-200.000	-0.117	-0.539
-514.858	452.508	-0.067	-0.147
-513.843	263.717	0.160	0.278
-512.829	136.706	-0.094	-0.123
-511.814	314.096	-0.086	-0.162
-510.799	-200.000	-0.023	-0.109
-509.785	-20.888	-0.126	0.077
-508.770	-116.348	-0.354	0.065
-507.756	-200.000	0.052	0.337
-506.741	580.110	-0.048	0.117
-505.726	-153.836	0.134	0.009
-504.712	-92.919	0.345	0.096
-503.697	-57.637	-0.239	-0.104
-502.683	86.909	-0.161	-0.178
-501.668	126.577	0.041	-0.052
-500.653	-200.000	-0.016	-0.156
-499.639	4.377	-0.041	-0.030
-498.624	92.432	-0.106	-0.119
-497.610	60.930	-0.072	0.071
-496.595	-200.000	0.002	-0.162
-495.581	118.682	0.059	-0.072
-494.566	800.000	-0.081	0.322
-493.551	114.552	-0.163	-0.197
-492.537	-18.398	0.119	0.074
-491.522	-200.000	0.070	-0.339
-490.508	90.510	-0.294	-0.328
-489.493	28.170	-0.168	0.141
-488.478	-93.605	-0.043	-0.012
-487.464	-33.583	-0.178	0.098
-486.449	-163.603	-0.120	-0.006
-485.435	350.886	-0.155	-0.305
-484.420	-35.062	-0.298	0.162
-483.405	-10.999	0.121	0.079
-482.391	-32.239	-0.014	-0.008
-481.376	-200.000	-0.029	0.129
-480.362	-88.371	-0.325	-0.097
-479.347	-200.000	-0.050	-0.341
-478.332	666.801	0.127	0.327
-477.318	-146.689	-0.233	0.020
-476.303	-20.064	0.243	-0.149
-475.289	30.134	-0.124	0.105
-474.274	279.617	0.035	0.062
-473.259	58.313	0.098	-0.096
-472.245	-71.137	0.150	0.056
-471.230	68.382	-0.136	0.139
-470.216	-200.000	0.016	-0.158
-469.201	-200.000	-0.013	0.093
-468.186	-112.628	-0.297	-0.059
-467.172	800.000	0.051	0.161
-466.157	-145.973	-0.128	-0.011
-465.143	242.360	-0.157	0.261
-464.128	800.000	0.084	-0.309
-463.113	-60.125	-0.547	0.232
-462.099	-55.127	-0.134	0.060
-461.084	800.000	0.035	0.119
-460.070	-200.000	-0.028	-0.154
-459.055	-41.637	0.211	0.108
-458.040	800.000	0.044	-0.156
-457.026	471.419	0.159	-0.355
-456.011	-200.000	-0.002	-0.103
-454.997	800.000	-0.046	-0.189
-453.982	118.785	0.057	0.070
-452.968	-121.170	0.262	0.044
-451.953	-200.000	-0.004	0.179
-450.938	800.000	-0.045	-0.177
-449.924	-49.421	0.103	0.049
-448.909	112.490	0.102	-0.122
-447.895	-122.577	0.163	0.026
-446.880	800.000	0.021	-0.065
-445.865	-200.000	-0.023	0.177
-444.851	264.502	-0.230	0.398
-443.836	800.000	-0.053	0.177
-442.822	-75.565	-0.281	-0.099
-441.807	-200.000	-0.008	0.364
-440.792	758.662	0.098	-0.265
-439.778	78.711	0.134	-0.142
-438.763	-67.600	-0.109	-0.043
-437.749	49.243	0.018	-0.017
-436.734	-96.497	-0.208	0.055
-435.719	-94.298	0.129	-0.035
-434.705	-69.565	0.334	-0.127
-433.690	31.868	0.043	-0.037
-432.676	-125.513	0.159	-0.024
-431.661	800.000	0.066	-0.191
-430.646	590.816	-0.108	-0.264
-429.632	32.231	-0.245	-0.210
-428.617	177.531	-0.089	-0.129
-427.603	-79.897	-0.065	0.022
-426.588	51.604	0.096	0.090
-425.573	-90.020	-0.260	-0.075
-424.559	-200.000	0.011	0.069
-423.544	679.974	-0.045	-0.115
-422.530	-200.000	-0.054	-0.255
-421.515	-24.814	0.097	0.057
-420.500	-120.450	-0.108	-0.018
-419.486	-200.000	-0.011	-0.160
-418.471	93.618	0.124	-0.139
-417.457	-21.148	0.129	0.079
-416.442	112.662	-0.032	0.038
-415.428	115.973	-0.324	-0.394
-414.413	-151.315	0.260	0.019
-413.398	15.445	-0.112	-0.087
-412.384	-106.941	-0.084	-0.018
-411.369	-63.088	-0.269	0.110
-410.355	-49.164	0.302	-0.143
-409.340	800.000	-0.173	-0.596
-408.325	-200.000	0.041	0.406
-407.311	-200.000	-0.050	0.235
-406.296	-99.074	-0.222	0.056
-405.282	-200.000	0.051	-0.270
-404.267	-167.504	-0.305	0.012
-403.252	53.080	-0.070	-0.067
-402.238	107.473	0.216	0.255
-401.223	65.394	0.265	-0.266
-400.209	-200.000	-0.025	0.284
-399.194	191.085	0.072	0.107
-398.179	63.674	0.080	-0.079
-397.165	595.210	0.062	0.152
-396.150	122.820	0.072	0.089
-395.136	29.237	0.168	-0.142
-394.121	-7.073	-0.201	0.136
-393.106	-143.421	-0.155	0.015
-392.092	-37.746	-0.010	-0.005
-391.077	564.484	-0.036	0.087
-390.063	16.123	0.191	-0.150
-389.048	-150.541	0.139	0.011
-388.033	168.379	-0.027	0.038
-387.019	-141.501	0.112	-0.011
-386.004	-119.047	-0.223	0.039
-384.990	562.518	0.086	0.206
-383.975	-116.014	0.014	0.003
-382.960	-59.742	0.212	0.090
-381.946	-200.000	0.052	0.430
-380.931	-2.777	0.147	-0.102
-379.917	-15.617	0.108	0.068
-378.902	-35.253	0.267	0.144
-377.888	800.000	-0.027	-0.093
-376.873	-109.998	-0.207	0.043
-375.858	-41.138	-0.024	-0.012
-374.844	152.773	0.089	-0.120
-373.829	-14.311	-0.092	-0.059
-372.815	-77.437	-0.182	-0.063
-371.800	-123.471	0.291	0.046
-370.785	10.126	0.157	0.118
-369.771	177.373	-0.240	0.346
-368.756	-200.000	0.008	-0.096
-367.742	-29.057	-0.068	0.039
-366.727	-119.783	0.626	0.107
-365.712	-68.425	-0.177	0.068
-364.698	-95.715	0.357	-0.095
-363.683	-200.000	0.003	-0.025
-362.669	458.970	0.087	0.192
-361.654	-200.000	0.067	0.332
-360.639	-200.000	0.024	0.241
-359.625	264.269	-0.075	-0.129
-358.610	-81.205	-0.055	-0.018
-357.596	800.000	-0.058	-0.188
-356.581	-112.802	0.272	-0.053
-355.566	99.788	0.111	0.127
-354.552	800.000	0.016	-0.062
-353.537	-44.186	-0.082	-0.041
-352.523	-27.237	-0.281	0.162
-351.508	-143.394	0.468	0.044
-350.493	-200.000	0.046	0.260
-349.479	13.172	-0.099	0.076
-348.464	800.000	-0.097	-0.329
-347.450	445.845	-0.169	-0.368
-346.435	-116.012	0.164	-0.030
-345.420	665.801	0.082	-0.211
-344.406	285.455	-0.089	-0.159
-343.391	-32.651	0.094	-0.052
-342.377	-66.962	0.124	-0.049
-341.362	-200.000	-0.075	0.412
-340.348	-82.014	0.185	0.060
-339.333	-116.295	-0.429	-0.079
-338.318	-151.102	-0.076	-0.006
-337.304	-43.541	0.158	-0.079
-336.289	173.088	-0.070	0.100
-335.275	-160.001	0.298	-0.016
-334.260	-200.000	0.008	0.233
-333.245	-58.117	0.066	0.029
-332.231	482.165	-0.074	0.165
-331.216	62.750	0.192	0.190
-330.202	313.491	0.052	-0.097
-329.187	-3.801	-0.230	-0.158
-328.172	659.193	0.052	-0.132
-327.158	-12.632	-0.195	0.126
-326.143	-112.161	0.223	0.044
-325.129	-200.000	0.043	0.236
-324.114	40.748	0.253	0.226
-323.099	416.383	-0.188	-0.396
-322.085	47.793	0.252	-0.233
-321.070	-72.737	0.179	-0.065
-320.056	595.695	0.046	0.114
-319.041	800.000	0.070	0.266
-318.026	234.069	-0.074	0.120
-317.012	53.003	0.150	0.142
-315.997	8.500	0.158	0.118
-314.983	206.561	0.137	0.211
-313.968	38.927	-0.108	-0.096
-312.953	659.834	0.139	-0.355
-311.939	133.259	-0.036	0.046
-310.924	115.818	0.124	-0.150
-309.910	-54.575	0.224	0.100
-308.895	-130.917	0.298	-0.039
-307.880	62.609	-0.284	-0.281
-306.866	-200.000	-0.005	-0.405
-305.851	-15.102	0.068	0.043
-304.837	78.183	-0.220	-0.232
-303.822	-120.803	0.247	0.041
-302.807	-200.000	0.001	-0.202
-301.793	-83.767	0.195	0.061
-300.778	131.746	-0.155	-0.197
-299.764	-38.431	-0.293	-0.153
-298.749	-200.000	0.019	0.308
-297.735	-156.503	0.229	0.014
-296.720	-42.030	0.311	0.158
-295.705	727.709	0.028	0.073
-294.691	-60.841	-0.210	0.088
-293.676	-22.029	0.286	0.172
-292.662	-200.000	-0.050	-0.320
-291.647	-48.954	-0.189	0.090
-290.632	517.490	-0.072	0.165
-289.618	244.657	0.068	0.113
-288.603	353.504	-0.107	0.211
-287.589	344.179	-0.047	0.092
-286.574	-77.180	-0.133	-0.046
-285.559	10.974	0.157	0.118
-284.545	-122.084	0.113	-0.018
-283.530	800.000	-0.089	0.308
-282.516	-176.567	0.050	0.001
-281.501	-125.562	0.149	0.022
-280.486	34.543	-0.180	-0.155
-279.472	547.907	-0.060	-0.142
-278.457	44.893	-0.388	0.353
-277.443	244.054	0.027	0.044
-276.428	351.033	0.158	-0.308
-275.413	-22.814	-0.202	0.121
-274.399	-200.000	0.019	0.247
-273.384	-170.322	0.034	-0.001
-272.370	495.547	-0.082	-0.187
-271.355	271.420	-0.124	0.216
-270.340	-200.000	0.044	-0.192
-269.326	105.672	0.106	0.124
-268.311	-130.295	0.108	-0.014
-267.297	774.129	0.034	-0.091
-266.282	-150.203	-0.009	-0.001
-265.267	-94.669	0.429	-0.115
-264.253	-200.000	0.017	0.192
-263.238	-151.171	0.149	0.011
-262.224	-30.728	0.225	-0.126
-261.209	-200.000	-0.078	0.345
-260.195	-106.063	-0.240	-0.053
-259.180	-68.439	-0.154	0.059
-258.165	-4.542	-0.120	-0.082
-257.151	89.612	-0.135	-0.149
-256.136	-64.435	0.253	0.101
-255.122	35.738	0.298	-0.259
-254.107	-200.000	-0.015	-0.084
-253.092	800.000	0.055	0.228
-252.078	-200.000	-0.013	0.101
-251.063	-120.105	0.285	0.048
-250.049	-112.472	-0.281	0.055
-249.034	291.869	-0.180	-0.324
-248.019	549.140	-0.094	-0.223
-247.005	155.756	-0.047	0.064
-245.990	800.000	0.164	0.490
-244.976	-74.509	-0.380	0.135
-243.961	-88.701	-0.154	0.045
-242.946	-60.960	0.181	-0.075
-241.932	22.063	0.062	0.050
-240.917	-13.503	0.177	0.113
-239.903	77.843	-0.042	-0.044
-238.888	10.786	-0.154	0.116
-237.873	154.785	0.022	-0.030
-236.859	-22.459	0.197	0.118
-235.844	81.007	0.104	-0.111
-234.830	-106.289	0.157	0.035
-233.815	54.162	0.068	0.065
-232.800	-15.772	0.122	-0.077
-231.786	244.777	-0.179	-0.298
-230.771	191.069	0.409	-0.607
-229.757	-167.833	0.223	-0.009
-228.742	4.801	-0.134	-0.097
-227.727	-16.424	-0.125	0.078
-226.713	800.000	-0.036	0.099
-225.698	243.258	-0.144	0.239
-224.684	168.830	0.058	0.081
-223.669	-200.000	-0.028	-0.152
-222.655	-200.000	-0.032	0.201
-221.640	719.540	-0.109	0.284
-220.625	800.000	0.041	0.113
-219.611	-200.000	0.005	0.143
-218.596	128.289	0.212	-0.265
-217.582	-88.951	-0.234	0.068
-216.567	-9.336	0.155	-0.102
-215.552	-138.382	-0.185	0.020
-214.538	-200.000	0.041	0.218
-213.523	800.000	-0.016	0.059
-212.509	-65.089	0.219	-0.087
-211.494	-31.696	-0.334	-0.185
-210.479	232.871	0.143	-0.232
-209.465	-48.631	0.236	0.112
-208.450	-12.109	-0.295	-0.190
-207.436	27.527	0.246	-0.204
-206.421	-87.508	0.378	-0.113
-205.406	140.662	0.135	-0.176
-204.392	-102.838	0.122	0.029
-203.377	-200.000	0.002	0.123
-202.363	-31.553	0.161	-0.089
-201.348	207.173	-0.160	0.246
-200.333	800.000	-0.121	0.388
-199.319	143.072	-0.100	-0.131
-198.304	-163.266	-0.371	-0.018
-197.290	-84.368	0.043	-0.013
-196.275	-200.000	0.016	0.245
-195.260	235.663	0.392	-0.639
-194.246	-200.000	0.048	0.288
-193.231	-186.144	0.221	-0.003
-192.217	163.458	0.174	-0.241
-191.202	800.000	-0.059	0.231
-190.187	58.862	-0.099	-0.096
-189.173	121.852	0.302	0.371
-188.158	-177.953	-0.107	-0.003
-187.144	-200.000	0.002	0.096
-186.129	800.000	0.070	-0.252
-185.114	800.000	0.026	0.077
-184.100	301.158	0.225	0.409
-183.085	-79.360	-0.182	0.061
-182.071	-78.980	-0.293	-0.098
-181.056	-51.060	-0.072	0.033
-180.042	-44.859	-0.152	0.075
-179.027	-170.405	-0.511	0.018
-178.012	-181.693	0.149	0.003
-176.998	-186.224	0.492	-0.007
-175.983	272.900	-0.172	-0.299
-174.969	-61.422	0.058	-0.024
-173.954	521.386	-0.112	0.259
-172.939	-109.756	-0.198	0.041
-171.925	27.832	-0.322	-0.267
-170.910	65.316	0.144	-0.143
-169.896	-47.983	0.106	0.051
-168.881	-125.371	-0.367	-0.055
-167.866	-116.148	0.299	0.055
-166.852	145.274	0.064	0.085
-165.837	-107.291	-0.029	-0.006
-164.823	-73.041	0.231	0.084
-163.808	-139.805	0.337	0.035
-162.793	-36.224	-0.263	0.140
-161.779	312.679	0.089	-0.165
-160.764	-200.000	-0.014	-0.141
-159.750	19.343	0.034	-0.027
-158.735	63.504	0.314	-0.310
-157.720	800.000	-0.035	0.117
-156.706	-200.000	0.059	-0.472
-155.691	267.423	0.053	0.091
-154.677	514.602	-0.043	0.098
-153.662	236.766	-0.103	0.168
-152.647	-11.905	0.207	0.133
-151.633	76.189	0.038	0.039
-150.618	-4.348	-0.352	-0.239
-149.604	741.575	-0.133	0.352
-148.589	-200.000	-0.035	-0.166
-147.574	-200.000	0.013	0.241
-146.560	594.306	0.096	0.233
-145.545	143.616	0.161	0.211
-144.531	4.223	-0.111	0.080
-143.516	-3.772	-0.240	-0.164
-142.502	-46.578	0.185	0.089
-141.487	-200.000	0.025	0.248
-140.472	-123.682	-0.175	0.027
-139.458	-4.146	0.123	0.083
-138.443	42.938	0.204	-0.182
-137.429	-200.000	-0.000	-0.021
-136.414	-64.646	-0.117	-0.047
-135.399	-17.132	0.240	0.149
-134.385	-124.682	0.231	0.035
-133.370	-13.206	-0.287	-0.183
-132.356	-137.313	0.188	0.021
-131.341	-100.937	0.201	-0.049
-130.326	787.130	-0.036	0.096
-129.312	-200.000	0.015	-0.252
-128.297	-174.573	-0.104	0.003
-127.283	227.796	-0.207	-0.331
-126.268	-200.000	0.012	0.073
-125.253	38.749	-0.088	0.077
-124.239	-88.911	-0.078	-0.023
-123.224	560.046	0.125	0.296
-122.210	155.779	-0.206	0.278
-121.195	34.113	0.113	0.097
