DTS Sentinel unit serial number:	SN413079Multiplexer serial number:	ORYXHardware model number:	OX4-SRSoftware version number:	ORYX F/W v4.00 Oryx Data Collector v3.7.2.0data status	okinstallation	princeton_trtdifferential loss correction	single-endedforward channel	channel 1reverse channel	N/Adate	2019/09/12time	09:24:11forward acquisition time	60.00reverse acquisition time	0.00gamma	496.2192k internal	0.2302k external	0.2302temperature offset calibration	1.0044default loss term (dB/km)	0.3790temperature slope calibration	1.0000multiplexer offset coefficient	1.0000multiplexer slope coefficient	1.0000fibre end	0.00T internal ref (°C)	35.23T ext. ref 1 (°C)	1.81T ext. ref 2 (°C)	33.81length (m)	temperature (°C)	Stokes	anti-Stokes-747.200	-113.002	-0.091	-0.018
-746.185	22.885	-0.206	0.172
-745.171	60.557	-0.191	0.193
-744.156	800.000	-0.143	0.460
-743.142	-117.854	0.382	-0.070
-742.127	489.278	-0.257	0.600
-741.112	800.000	0.082	0.293
-740.098	-200.000	-0.042	0.386
-739.083	-2.932	0.136	0.097
-738.069	-43.757	-0.295	0.151
-737.054	163.643	0.131	0.187
-736.039	128.290	-0.233	0.302
-735.025	572.223	-0.083	0.205
-734.010	-11.575	-0.288	0.193
-732.996	-11.312	-0.022	0.014
-731.981	209.769	0.078	-0.125
-730.966	293.005	-0.139	-0.259
-729.952	-151.903	-0.118	-0.009
-728.937	-27.458	-0.138	0.082
-727.923	-56.993	-0.274	-0.123
-726.908	323.181	0.049	0.096
-725.894	-52.823	-0.633	-0.297
-724.879	-71.403	-0.212	0.081
-723.864	117.583	0.143	0.179
-722.850	-192.608	0.372	0.004
-721.835	-124.976	0.266	0.042
-720.821	-129.813	-0.180	-0.025
-719.806	6.627	-0.054	0.041
-718.791	184.730	0.236	-0.357
-717.777	185.124	0.028	0.042
-716.762	16.786	-0.231	-0.186
-715.748	184.415	-0.132	-0.199
-714.733	113.519	-0.074	-0.091
-713.718	-38.853	-0.353	0.190
-712.704	20.483	0.019	-0.016
-711.689	149.144	-0.156	0.215
-710.675	115.163	-0.119	0.148
-709.660	-26.675	0.295	0.176
-708.645	-93.731	-0.053	0.015
-707.631	88.535	0.130	-0.147
-706.616	-200.000	-0.012	0.067
-705.602	-192.219	-0.293	-0.003
-704.587	8.640	0.034	-0.026
-703.572	-28.608	-0.082	-0.048
-702.558	800.000	-0.075	-0.214
-701.543	243.745	-0.059	0.100
-700.529	29.805	-0.118	-0.102
-699.514	-112.962	-0.190	0.038
-698.499	-115.661	0.203	0.039
-697.485	-81.791	-0.268	-0.089
-696.470	-149.040	-0.101	-0.008
-695.456	-114.651	-0.340	-0.066
-694.441	-13.640	0.029	-0.019
-693.426	800.000	-0.053	0.192
-692.412	48.180	-0.201	-0.192
-691.397	-62.144	-0.125	-0.053
-690.383	-121.164	-0.153	-0.026
-689.368	-200.000	-0.026	0.119
-688.354	-200.000	0.025	-0.137
-687.339	491.716	0.052	-0.121
-686.324	-18.433	-0.162	0.103
-685.310	-12.334	0.117	-0.078
-684.295	-200.000	0.023	-0.366
-683.281	-100.829	-0.265	-0.066
-682.266	43.842	-0.303	0.282
-681.251	-63.521	-0.358	-0.149
-680.237	27.692	-0.120	-0.102
-679.222	262.479	0.053	0.093
-678.208	-111.581	-0.108	0.022
-677.193	-164.432	0.186	-0.009
-676.178	-109.398	-0.247	0.053
-675.164	26.391	-0.140	-0.119
-674.149	800.000	-0.028	0.104
-673.135	220.707	-0.183	0.298
-672.120	193.811	0.094	0.144
-671.105	-37.846	0.077	0.042
-670.091	-200.000	0.050	0.225
-669.076	611.918	0.061	-0.156
-668.062	-200.000	0.009	-0.196
-667.047	663.298	0.141	-0.370
-666.032	-200.000	-0.041	-0.207
-665.018	439.358	-0.047	-0.105
-664.003	231.057	-0.093	0.155
-662.989	800.000	0.019	-0.079
-661.974	-200.000	-0.007	-0.519
-660.959	-66.463	0.037	0.015
-659.945	-97.786	-0.321	-0.084
-658.930	287.699	0.005	0.009
-657.916	8.140	-0.256	-0.195
-656.901	-61.164	0.158	-0.068
-655.886	800.000	-0.046	0.195
-654.872	-78.937	-0.180	-0.062
-653.857	-200.000	-0.110	0.500
-652.843	31.671	-0.103	-0.090
-651.828	-131.849	0.268	0.036
-650.814	-0.748	0.353	0.254
-649.799	-104.714	-0.201	-0.047
-648.784	405.551	0.153	0.328
-647.770	647.051	0.049	0.128
-646.755	-95.502	0.184	-0.050
-645.741	-150.259	0.137	0.011
-644.726	234.247	0.118	-0.197
-643.711	650.049	-0.097	-0.252
-642.697	4.918	0.103	-0.077
-641.682	-84.222	-0.198	0.064
-640.668	-7.564	0.313	0.215
-639.653	-74.345	-0.282	-0.103
-638.638	-96.160	-0.302	-0.081
-637.624	-200.000	-0.010	-0.185
-636.609	-15.720	0.119	0.077
-635.595	98.413	-0.245	-0.287
-634.580	44.558	0.087	0.082
-633.565	-180.799	0.197	-0.004
-632.551	-16.687	0.180	-0.115
-631.536	-111.960	0.222	-0.045
-630.522	-154.141	-0.093	-0.006
-629.507	800.000	-0.093	-0.352
-628.492	-42.572	-0.150	-0.078
-627.478	800.000	0.095	0.322
-626.463	247.243	-0.112	0.192
-625.449	236.262	-0.028	0.047
-624.434	460.918	0.112	-0.254
-623.419	-10.459	0.191	0.128
-622.405	18.297	-0.134	0.108
-621.390	531.299	-0.044	-0.106
-620.376	142.962	-0.065	-0.087
-619.361	615.433	-0.109	0.277
-618.346	-77.981	0.089	0.031
-617.332	49.819	0.233	-0.223
-616.317	-200.000	0.026	0.213
-615.303	-200.000	0.015	0.121
-614.288	-200.000	0.110	-0.584
-613.273	-94.607	0.347	-0.096
-612.259	264.222	-0.135	0.238
-611.244	-145.923	-0.105	0.009
-610.230	-36.688	0.110	0.060
-609.215	-40.463	0.026	-0.014
-608.201	12.639	0.166	-0.130
-607.186	800.000	0.021	0.090
-606.171	217.854	-0.249	-0.402
-605.157	91.665	0.138	-0.158
-604.142	-170.491	0.076	-0.003
-603.128	109.774	-0.080	0.097
-602.113	207.374	0.074	0.117
-601.098	-7.341	0.398	0.274
-600.084	-200.000	0.007	0.238
-599.069	-200.000	0.016	0.086
-598.055	-14.637	-0.123	-0.080
-597.040	180.391	-0.167	0.248
-596.025	-200.000	-0.004	-0.095
-595.011	-53.440	-0.246	-0.114
-593.996	549.721	-0.183	-0.445
-592.982	53.487	0.126	-0.123
-591.967	137.385	0.099	-0.131
-590.952	-184.642	0.142	0.002
-589.938	-93.175	-0.099	0.028
-588.923	-125.822	-0.101	0.015
-587.909	100.331	0.201	-0.236
-586.894	-41.324	0.391	-0.204
-585.879	-41.452	-0.209	-0.109
-584.865	201.294	-0.151	0.236
-583.850	413.124	0.060	0.129
-582.836	-170.667	0.143	0.005
-581.821	76.611	-0.096	-0.103
-580.806	-91.732	0.101	0.029
-579.792	-85.761	0.065	-0.020
-578.777	-82.586	0.132	0.043
-577.763	-200.000	0.030	-0.293
-576.748	290.109	-0.195	0.358
-575.733	22.251	-0.014	0.012
-574.719	-19.067	0.288	0.181
-573.704	-200.000	0.088	0.416
-572.690	119.367	0.182	0.228
-571.675	-89.318	0.229	-0.068
-570.661	77.154	-0.063	-0.067
-569.646	56.718	-0.124	-0.122
-568.631	-200.000	0.003	0.210
-567.617	-104.217	-0.335	0.079
-566.602	-187.991	-0.325	0.004
-565.588	-200.000	-0.040	0.276
-564.573	-150.444	-0.270	-0.021
-563.558	-200.000	-0.042	-0.300
-562.544	-200.000	-0.001	0.468
-561.529	-200.000	-0.005	0.267
-560.515	0.754	0.166	0.121
-559.500	158.144	-0.201	0.282
-558.485	167.473	0.038	-0.054
-557.471	83.022	-0.075	-0.082
-556.456	-72.098	-0.068	0.026
-555.442	-85.509	-0.062	-0.019
-554.427	117.841	-0.139	-0.173
-553.412	183.817	0.247	-0.370
-552.398	-84.596	0.070	-0.022
-551.383	-200.000	0.002	0.164
-550.369	138.616	-0.212	0.282
-549.354	621.952	0.050	0.128
-548.339	96.800	-0.222	-0.257
-547.325	-200.000	-0.003	0.244
-546.310	-4.055	-0.079	0.056
-545.296	-1.980	-0.116	-0.083
-544.281	-36.254	0.217	0.118
-543.266	-170.814	-0.411	-0.014
-542.252	133.785	0.085	0.111
-541.237	294.881	-0.117	-0.216
-540.223	-54.106	0.034	0.016
-539.208	425.199	-0.009	-0.019
-538.193	-4.138	-0.170	-0.119
-537.179	73.476	-0.068	-0.072
-536.164	573.565	-0.054	-0.133
-535.150	-143.141	0.293	0.029
-534.135	-43.988	0.272	-0.138
-533.121	53.089	-0.065	-0.063
-532.106	800.000	-0.009	0.029
-531.091	-65.042	-0.151	0.061
-530.077	-20.526	-0.201	0.125
-529.062	-200.000	0.042	-0.339
-528.048	-200.000	-0.002	0.158
-527.033	-200.000	-0.036	-0.322
-526.018	305.453	0.039	0.074
-525.004	-77.020	0.441	0.156
-523.989	-57.553	0.229	-0.102
-522.975	-107.486	-0.182	0.040
-521.960	-200.000	0.004	0.355
-520.945	43.079	-0.082	-0.076
-519.931	800.000	0.117	-0.450
-518.916	-115.187	-0.177	-0.034
-517.902	-200.000	-0.002	-0.239
-516.887	-45.388	0.286	-0.143
-515.872	8.510	-0.103	0.079
-514.858	431.396	0.085	0.186
-513.843	110.246	0.071	0.086
-512.829	634.473	0.029	-0.075
-511.814	57.307	-0.261	-0.257
-510.799	-19.843	0.267	-0.167
-509.785	-200.000	0.052	-0.249
-508.770	15.386	-0.216	0.171
-507.756	-57.440	0.175	-0.078
-506.741	-164.457	0.219	0.010
-505.726	-118.299	-0.354	-0.064
-504.712	-200.000	-0.046	0.284
-503.697	-135.112	0.245	-0.030
-502.683	-107.850	0.090	0.020
-501.668	-76.883	0.348	-0.123
-500.653	-200.000	-0.021	-0.105
-499.639	-132.524	-0.106	0.014
-498.624	139.251	-0.202	0.268
-497.610	-49.231	0.040	-0.020
-496.595	128.429	-0.216	-0.278
-495.581	448.745	0.143	0.318
-494.566	-200.000	0.011	-0.075
-493.551	-142.877	0.169	-0.017
-492.537	-37.783	0.204	-0.110
-491.522	328.231	0.056	-0.108
-490.508	114.926	-0.005	-0.006
-489.493	800.000	0.050	0.153
-488.478	187.319	0.161	-0.243
-487.464	-200.000	0.076	-0.460
-486.449	-47.018	0.173	-0.085
-485.435	800.000	0.033	-0.109
-484.420	800.000	-0.026	0.097
-483.405	556.510	0.057	0.138
-482.391	33.475	-0.172	0.151
-481.376	-112.724	0.160	-0.032
-480.362	-125.388	0.280	-0.043
-479.347	-22.071	-0.035	0.021
-478.332	-200.000	0.015	-0.257
-477.318	101.112	0.177	0.208
-476.303	800.000	-0.075	0.227
-475.289	-200.000	-0.036	-0.309
-474.274	-187.642	-0.144	0.002
-473.259	-150.710	-0.229	-0.018
-472.245	800.000	-0.090	0.338
-471.230	481.541	0.153	-0.351
-470.216	61.856	-0.084	0.085
-469.201	800.000	-0.079	-0.234
-468.186	30.023	0.167	0.143
-467.172	376.927	0.034	-0.070
-466.157	57.877	-0.201	-0.198
-465.143	11.755	-0.233	-0.181
-464.128	-73.133	-0.208	-0.077
-463.113	174.814	0.110	0.161
-462.099	326.402	0.055	-0.107
-461.084	183.673	0.220	-0.328
-460.070	-143.465	-0.315	-0.030
-459.055	-35.544	-0.400	-0.219
-458.040	-103.736	-0.400	-0.094
-457.026	142.365	0.162	0.216
-456.011	-200.000	0.011	0.203
-454.997	291.095	0.211	-0.387
-453.982	-200.000	-0.027	-0.276
-452.968	-60.160	-0.259	0.111
-451.953	-67.883	0.330	-0.130
-450.938	416.792	-0.139	0.299
-449.924	36.557	-0.145	0.129
-448.909	-200.000	0.001	0.061
-447.895	-200.000	-0.018	0.193
-446.880	-68.468	0.116	0.045
-445.865	-33.313	0.043	-0.024
-444.851	-200.000	-0.020	0.137
-443.836	221.293	-0.224	0.363
-442.822	-176.844	0.207	0.005
-441.807	-42.154	-0.270	0.139
-440.792	-60.215	-0.209	0.090
-439.778	162.137	-0.170	-0.239
-438.763	-140.752	-0.166	-0.017
-437.749	-104.175	0.374	0.088
-436.734	-96.685	-0.394	0.104
-435.719	-200.000	0.030	0.445
-434.705	-76.884	0.142	-0.050
-433.690	-200.000	-0.028	0.146
-432.676	800.000	-0.129	0.375
-431.661	-95.799	0.304	0.082
-430.646	79.120	-0.117	-0.127
-429.632	74.629	0.100	-0.106
-428.617	474.288	0.164	-0.372
-427.603	243.805	0.071	0.120
-426.588	33.986	0.080	-0.070
-425.573	800.000	-0.054	-0.174
-424.559	-92.649	-0.510	0.144
-423.544	-64.354	0.267	0.109
-422.530	-135.513	-0.251	0.030
-421.515	-99.594	0.163	0.041
-420.500	490.418	0.010	-0.023
-419.486	800.000	0.053	-0.200
-418.471	18.086	0.285	-0.229
-417.457	-125.433	0.297	-0.045
-416.442	287.376	0.086	-0.156
-415.428	-89.796	-0.138	0.041
-414.413	50.790	-0.075	0.072
-413.398	-14.080	0.362	-0.235
-412.384	-87.433	0.206	-0.063
-411.369	-51.871	0.204	0.095
-410.355	101.896	0.317	0.372
-409.340	113.943	-0.208	0.255
-408.325	346.390	-0.100	-0.197
-407.311	-200.000	-0.078	-0.384
-406.296	-116.347	0.368	0.069
-405.282	130.254	0.118	0.152
-404.267	142.088	0.095	0.126
-403.252	-137.089	-0.174	0.020
-402.238	-200.000	-0.003	0.225
-401.223	-200.000	0.008	-0.156
-400.209	-34.813	-0.066	0.036
-399.194	-78.380	-0.096	0.033
-398.179	-148.351	0.382	-0.032
-397.165	-47.149	-0.183	-0.090
-396.150	-200.000	0.031	0.243
-395.136	-50.288	0.049	-0.023
-394.121	143.082	-0.165	-0.220
-393.106	704.093	0.013	0.034
-392.092	-200.000	-0.018	-0.157
-391.077	67.339	0.301	-0.309
-390.063	-200.000	-0.033	-0.345
-389.048	139.689	0.246	0.325
-388.033	-43.749	0.075	-0.038
-387.019	364.294	0.094	0.191
-386.004	73.889	-0.143	-0.151
-384.990	249.748	0.058	0.100
-383.975	-61.139	-0.202	-0.085
-382.960	-200.000	0.041	-0.237
-381.946	-1.479	-0.089	-0.063
-380.931	-67.292	0.238	-0.094
-379.917	-92.639	-0.142	0.040
-378.902	-29.332	0.227	-0.131
-377.888	-174.779	-0.118	0.003
-376.873	-200.000	0.032	0.183
-375.858	800.000	0.063	0.230
-374.844	-200.000	-0.024	0.139
-373.829	-61.797	-0.170	-0.072
-372.815	24.099	0.222	-0.184
-371.800	-123.168	0.159	0.026
-370.785	102.673	-0.113	0.133
-369.771	157.881	0.093	0.130
-368.756	-49.275	0.179	-0.086
-367.742	800.000	-0.112	-0.312
-366.727	-137.159	0.169	0.019
-365.712	355.660	-0.054	-0.109
-364.698	-108.775	-0.231	-0.050
-363.683	-1.831	0.093	0.066
-362.669	62.542	0.154	0.154
-361.654	-59.755	0.357	0.153
-360.639	-200.000	0.004	0.410
-359.625	336.465	0.115	0.223
-358.610	-100.048	-0.178	-0.045
-357.596	296.968	0.080	-0.148
-356.581	-67.305	-0.386	-0.152
-355.566	267.166	-0.123	0.216
-354.552	800.000	0.051	0.171
-353.537	-144.241	-0.055	0.005
-352.523	114.032	0.212	-0.258
-351.508	40.395	-0.409	0.369
-350.493	279.290	0.097	0.173
-349.479	800.000	0.090	-0.303
-348.464	163.203	0.113	0.160
-347.450	135.476	-0.069	0.090
-346.435	-72.330	-0.118	-0.044
-345.420	53.794	0.221	-0.213
-344.406	800.000	-0.096	0.404
-343.391	-200.000	0.016	0.106
-342.377	7.009	0.021	0.016
-341.362	11.637	-0.057	0.044
-340.348	343.491	0.100	-0.196
-339.333	-200.000	-0.019	0.137
-338.318	18.825	-0.209	0.168
-337.304	151.758	-0.116	0.159
-336.289	761.734	-0.145	-0.395
-335.275	-23.637	-0.073	0.044
-334.260	12.087	-0.173	0.134
-333.245	105.565	-0.099	-0.117
-332.231	74.252	0.085	0.089
-331.216	-96.267	-0.161	-0.043
-330.202	-200.000	-0.001	-0.149
-329.187	-200.000	0.066	-0.360
-328.172	800.000	0.071	0.225
-327.158	274.546	0.132	0.234
-326.143	-128.675	-0.293	0.041
-325.129	221.689	-0.133	-0.214
-324.114	-36.432	-0.245	0.132
-323.099	-183.391	-0.175	0.003
-322.085	-200.000	-0.052	-0.347
-321.070	800.000	-0.039	-0.168
-320.056	128.048	0.245	0.313
-319.041	13.070	-0.438	0.340
-318.026	11.106	-0.164	-0.125
-317.012	170.905	-0.080	0.114
-315.997	164.154	-0.232	0.327
-314.983	62.264	-0.180	0.180
-313.968	33.676	-0.134	-0.117
-312.953	-74.966	-0.346	0.124
-311.939	-85.793	0.280	-0.087
-310.924	-200.000	0.055	0.291
-309.910	800.000	-0.037	0.158
-308.895	800.000	-0.038	0.128
-307.880	370.339	0.043	0.087
-306.866	-146.008	0.315	0.028
-305.851	721.562	-0.123	0.329
-304.837	-136.768	-0.023	0.003
-303.822	268.648	0.114	-0.200
-302.807	-200.000	0.008	-0.036
-301.793	-162.681	0.130	0.006
-300.778	102.032	-0.174	-0.203
-299.764	-89.098	0.259	-0.077
-298.749	-200.000	-0.004	-0.211
-297.735	-4.842	-0.087	-0.060
-296.720	-28.703	-0.192	-0.111
-295.705	-200.000	-0.050	0.273
-294.691	-30.036	-0.091	0.052
-293.676	-131.641	-0.249	0.033
-292.662	-23.517	-0.075	0.045
-291.647	542.219	-0.162	-0.387
-290.632	-200.000	0.038	-0.320
-289.618	56.762	0.392	0.382
-288.603	47.644	0.339	0.317
-287.589	306.724	0.191	0.357
-286.574	800.000	0.036	-0.104
-285.559	-13.740	-0.110	-0.071
-284.545	-200.000	-0.008	-0.445
-283.530	-146.063	-0.325	-0.029
-282.516	-14.142	0.176	-0.113
-281.501	-148.919	0.020	-0.002
-280.486	-71.448	0.286	0.107
-279.472	174.771	0.077	-0.111
-278.457	-40.493	0.037	0.019
-277.443	-108.248	-0.278	-0.060
-276.428	-200.000	0.080	-0.395
-275.413	63.814	0.208	-0.210
-274.399	-200.000	0.016	0.278
-273.384	16.215	-0.200	-0.158
-272.370	317.067	-0.024	0.045
-271.355	-63.714	0.087	0.035
-270.340	-145.316	-0.270	-0.024
-269.326	131.340	-0.082	-0.105
-268.311	800.000	0.123	0.344
-267.297	-110.076	0.207	0.043
-266.282	317.122	-0.158	-0.300
-265.267	180.993	-0.112	-0.164
-264.253	-90.381	-0.247	0.072
-263.238	3.389	0.215	0.157
-262.224	91.666	-0.145	0.163
-261.209	-65.680	-0.222	-0.089
-260.195	-90.863	0.156	-0.045
-259.180	-73.182	-0.078	-0.029
-258.165	69.624	0.039	-0.040
-257.151	-200.000	-0.120	-0.706
-256.136	800.000	-0.091	-0.264
-255.122	580.923	-0.064	-0.156
-254.107	-80.956	0.153	-0.051
-253.092	-72.153	-0.116	-0.043
-252.078	-200.000	0.079	0.409
-251.063	116.021	0.292	-0.358
-250.049	-71.441	0.224	-0.084
-249.034	222.906	0.100	0.161
-248.019	-35.595	-0.384	0.208
-247.005	51.886	0.237	-0.225
-245.990	-200.000	0.080	0.391
-244.976	42.023	0.279	0.253
-243.961	-50.018	0.227	0.107
-242.946	-56.502	0.136	-0.060
-241.932	40.597	0.173	0.156
-240.917	-149.619	0.232	-0.018
-239.903	285.950	-0.087	-0.156
-238.888	21.493	-0.206	-0.168
-237.873	-200.000	-0.038	-0.204
-236.859	70.197	-0.073	0.075
-235.844	-35.884	-0.156	-0.084
-234.830	-118.305	0.102	-0.018
-233.815	-101.069	-0.337	0.082
-232.800	427.992	0.129	-0.278
-231.786	-68.962	0.119	0.046
-230.771	-200.000	0.042	0.248
-229.757	399.895	-0.106	0.221
-228.742	30.022	-0.212	0.180
-227.727	114.441	0.324	-0.394
-226.713	-200.000	0.016	-0.233
-225.698	800.000	-0.055	-0.194
-224.684	-97.740	-0.153	-0.040
-223.669	-1.263	-0.204	-0.144
-222.655	-41.127	-0.115	-0.059
-221.640	800.000	0.021	0.081
-220.625	-200.000	-0.034	0.208
-219.611	392.081	-0.011	-0.022
-218.596	298.636	-0.084	0.153
-217.582	60.206	-0.245	-0.242
-216.567	12.118	0.127	0.097
-215.552	-66.604	-0.148	0.059
-214.538	16.930	-0.097	-0.077
-213.523	-14.130	0.184	-0.119
-212.509	-154.890	-0.465	-0.031
-211.494	-21.962	0.290	-0.176
-210.479	183.432	0.039	0.057
-209.465	-25.797	-0.285	-0.168
-208.450	64.096	0.132	-0.132
-207.436	-200.000	0.045	0.217
-206.421	800.000	0.071	0.205
-205.406	-172.424	0.339	-0.011
-204.392	-4.015	-0.333	-0.230
-203.377	-152.416	-0.183	-0.013
-202.363	465.172	0.117	-0.261
-201.348	30.097	-0.119	-0.101
-200.333	-200.000	0.014	-0.366
-199.319	-94.709	0.158	0.043
-198.304	-21.626	-0.188	-0.114
-197.290	244.985	-0.248	0.416
-196.275	34.774	-0.231	0.201
-195.260	-9.165	0.290	-0.194
-194.246	-4.041	-0.210	-0.145
-193.231	-175.583	-0.212	0.006
-192.217	135.794	-0.269	0.350
-191.202	-88.533	0.144	0.043
-190.187	-53.192	0.247	-0.113
-189.173	-72.325	0.218	0.081
-188.158	145.181	-0.278	0.370
-187.144	-59.635	-0.139	0.059
-186.129	-149.893	0.086	-0.007
-185.114	-147.893	-0.174	-0.014
-184.100	-200.000	-0.043	-0.314
-183.085	49.497	0.020	-0.018
-182.071	22.844	-0.105	-0.086
-181.056	314.642	0.018	-0.033
-180.042	-200.000	-0.073	0.560
-179.027	99.812	-0.335	0.386
-178.012	11.824	0.245	0.188
-176.998	-173.943	0.129	0.004
-175.983	800.000	-0.038	0.105
-174.969	800.000	0.087	-0.250
-173.954	-131.396	0.070	0.009
-172.939	-200.000	0.010	0.519
-171.925	-107.182	-0.314	0.069
-170.910	153.678	0.224	-0.306
-169.896	-73.345	-0.246	-0.090
-168.881	-173.502	-0.250	0.008
-167.866	-200.000	0.059	0.270
-166.852	157.500	0.192	-0.264
-165.837	139.761	-0.090	0.118
-164.823	-67.301	-0.138	-0.054
-163.808	430.429	-0.162	0.349
-162.793	159.262	0.190	-0.264
-161.779	-85.812	-0.054	0.017
-160.764	-144.298	0.363	0.034
-159.750	-157.716	0.421	0.025
-158.735	800.000	-0.192	0.535
-157.720	-200.000	0.004	-0.065
-156.706	-93.646	0.397	0.109
-155.691	-161.861	0.206	0.010
-154.677	351.950	-0.047	-0.092
-153.662	-128.986	0.097	-0.014
-152.647	112.983	-0.172	0.208
-151.633	-104.698	0.388	0.089
-150.618	-12.928	-0.107	0.069
-149.604	-200.000	0.005	-0.151
-148.589	-38.636	-0.048	0.025
-147.574	144.272	-0.130	-0.173
-146.560	-116.803	0.339	0.062
-145.545	-95.563	-0.062	0.017
-144.531	-200.000	0.046	-0.410
-143.516	-106.513	0.468	-0.104
-142.502	-200.000	0.035	0.219
-141.487	-119.233	-0.133	0.023
-140.472	376.659	-0.141	-0.287
-139.458	-55.273	-0.217	-0.097
-138.443	77.919	-0.070	-0.075
-137.429	223.595	-0.161	-0.258
-136.414	43.456	0.299	0.272
-135.399	-200.000	-0.012	-0.323
-134.385	800.000	0.085	0.302
-133.370	-101.485	-0.080	0.019
-132.356	-119.246	0.088	0.015
-131.341	21.232	0.229	0.185
-130.326	800.000	-0.125	-0.392
-129.312	800.000	0.105	0.333
-128.297	474.789	-0.097	-0.218
-127.283	-102.472	-0.190	-0.045
-126.268	119.109	0.142	0.175
-125.253	-200.000	-0.019	0.129
-124.239	-27.820	-0.136	0.079
-123.224	666.381	0.048	0.122
-122.210	-19.225	-0.107	0.066
