DTS Sentinel unit serial number:	SN413079Multiplexer serial number:	ORYXHardware model number:	OX4-SRSoftware version number:	ORYX F/W v4.00 Oryx Data Collector v3.7.2.0data status	okinstallation	princeton_trtdifferential loss correction	single-endedforward channel	channel 1reverse channel	N/Adate	2019/09/12time	03:28:11forward acquisition time	60.00reverse acquisition time	0.00gamma	496.2192k internal	0.2322k external	0.2322temperature offset calibration	1.0082default loss term (dB/km)	0.3790temperature slope calibration	1.0000multiplexer offset coefficient	1.0000multiplexer slope coefficient	1.0000fibre end	0.00T internal ref (°C)	32.19T ext. ref 1 (°C)	2.13T ext. ref 2 (°C)	27.22length (m)	temperature (°C)	Stokes	anti-Stokes-747.200	-96.876	-0.293	0.078
-746.185	-86.914	-0.254	-0.078
-745.171	-135.461	0.177	-0.021
-744.156	-75.886	-0.082	-0.029
-743.142	45.261	-0.205	0.191
-742.127	800.000	-0.094	0.399
-741.112	-194.302	-0.189	-0.002
-740.098	165.475	-0.147	0.210
-739.083	17.229	0.109	0.087
-738.069	128.592	0.330	0.424
-737.054	130.159	-0.126	-0.163
-736.039	800.000	-0.036	-0.138
-735.025	319.483	0.143	-0.274
-734.010	-200.000	-0.007	-0.071
-732.996	167.950	-0.179	-0.257
-731.981	130.500	0.118	-0.153
-730.966	-102.094	-0.027	-0.007
-729.952	424.748	-0.166	0.362
-728.937	-96.410	0.170	0.045
-727.923	800.000	-0.053	-0.222
-726.908	-39.018	0.122	0.065
-725.894	83.420	0.045	-0.050
-724.879	-146.773	0.237	0.021
-723.864	800.000	-0.038	0.145
-722.850	800.000	-0.057	-0.251
-721.835	-63.367	-0.102	-0.042
-720.821	-101.248	-0.432	-0.107
-719.806	-200.000	-0.009	0.229
-718.791	246.367	-0.220	0.375
-717.777	51.426	-0.313	-0.300
-716.762	-171.805	-0.258	-0.009
-715.748	-200.000	0.033	-0.345
-714.733	-171.701	-0.064	-0.002
-713.718	-96.416	-0.161	-0.043
-712.704	-137.883	-0.233	0.026
-711.689	-200.000	-0.014	0.072
-710.675	66.135	0.032	0.033
-709.660	195.524	-0.202	0.310
-708.645	-83.727	0.456	0.147
-707.631	-149.119	-0.237	-0.019
-706.616	-3.276	0.315	-0.222
-705.602	3.515	-0.184	-0.136
-704.587	800.000	-0.025	0.092
-703.572	-16.737	0.149	-0.095
-702.558	-113.017	-0.228	0.045
-701.543	571.330	0.066	-0.163
-700.529	-175.997	0.241	-0.006
-699.514	173.062	0.329	0.478
-698.499	-200.000	-0.039	0.210
-697.485	65.568	0.193	-0.197
-696.470	88.948	-0.203	0.228
-695.456	304.255	0.138	0.258
-694.441	-70.314	0.262	0.100
-693.426	-134.956	-0.045	-0.006
-692.412	167.809	-0.036	-0.052
-691.397	211.997	0.176	0.279
-690.383	-37.034	-0.272	0.147
-689.368	-200.000	0.007	-0.244
-688.354	-14.432	-0.310	-0.201
-687.339	-158.512	-0.105	-0.006
-686.324	20.178	0.091	-0.074
-685.310	-80.199	-0.105	0.036
-684.295	-37.552	0.098	0.053
-683.281	-92.777	-0.363	0.102
-682.266	-133.025	-0.111	0.014
-681.251	-166.854	-0.355	-0.015
-680.237	-200.000	-0.039	-0.230
-679.222	-126.246	-0.279	-0.042
-678.208	800.000	-0.130	-0.536
-677.193	45.407	-0.055	-0.051
-676.178	262.784	0.142	-0.249
-675.164	-200.000	0.049	-0.286
-674.149	800.000	0.045	-0.175
-673.135	-200.000	0.033	0.302
-672.120	495.317	0.135	-0.312
-671.105	401.739	0.107	-0.226
-670.091	315.012	0.170	-0.324
-669.076	-110.301	0.119	0.025
-668.062	-54.446	-0.348	-0.159
-667.047	-200.000	-0.040	0.247
-666.032	205.431	-0.114	0.179
-665.018	-38.553	-0.280	0.149
-664.003	-35.971	-0.113	-0.062
-662.989	-53.351	-0.303	0.140
-661.974	-147.417	-0.100	-0.009
-660.959	259.055	0.048	0.083
-659.945	-200.000	0.065	-0.392
-658.930	171.942	0.265	-0.383
-657.916	-4.790	0.160	-0.111
-656.901	800.000	0.011	0.043
-655.886	-200.000	0.037	0.288
-654.872	-37.489	-0.088	0.047
-653.857	384.075	-0.143	-0.297
-652.843	-92.285	-0.386	-0.110
-651.828	191.932	0.192	-0.291
-650.814	467.549	0.106	-0.239
-649.799	-131.885	0.225	0.030
-648.784	-72.136	-0.203	-0.076
-647.770	-5.290	0.173	-0.120
-646.755	18.787	0.277	-0.223
-645.741	-48.500	-0.126	0.061
-644.726	-166.419	0.124	-0.005
-643.711	-159.363	0.297	0.017
-642.697	79.116	-0.188	-0.203
-641.682	216.720	-0.075	0.120
-640.668	473.156	0.023	-0.052
-639.653	-95.230	0.246	0.067
-638.638	-23.439	0.115	0.069
-637.624	800.000	-0.038	0.122
-636.609	70.249	-0.047	0.049
-635.595	800.000	-0.090	-0.370
-634.580	-134.418	0.240	0.030
-633.565	33.673	-0.255	0.223
-632.551	-200.000	0.014	-0.073
-631.536	-79.222	0.347	-0.118
-630.522	-138.565	0.060	0.007
-629.507	-20.438	0.265	-0.164
-628.492	655.412	0.065	-0.168
-627.478	61.024	0.078	-0.078
-626.463	800.000	-0.040	-0.132
-625.449	68.469	0.039	-0.040
-624.434	-171.536	-0.028	-0.001
-623.419	-123.713	0.281	-0.045
-622.405	-84.132	-0.265	0.085
-621.390	20.521	0.183	0.148
-620.376	144.267	-0.212	0.284
-619.361	-34.120	0.320	0.177
-618.346	800.000	0.045	0.129
-617.332	800.000	0.060	0.183
-616.317	16.785	0.192	-0.153
-615.303	-128.046	0.062	-0.009
-614.288	127.811	0.128	-0.164
-613.273	195.868	0.107	0.164
-612.259	-200.000	0.023	-0.131
-611.244	1.145	-0.128	0.093
-610.230	83.320	0.095	-0.104
-609.215	95.327	0.060	-0.069
-608.201	-38.796	-0.134	0.071
-607.186	504.506	-0.101	0.236
-606.171	120.223	-0.052	-0.064
-605.157	3.846	0.237	-0.174
-604.142	211.685	0.048	-0.076
-603.128	-200.000	0.049	0.313
-602.113	397.225	-0.031	0.066
-601.098	-186.455	-0.149	-0.002
-600.084	-200.000	0.024	0.170
-599.069	-46.317	-0.155	-0.077
-598.055	135.237	0.136	0.178
-597.040	800.000	-0.061	0.179
-596.025	-166.344	-0.391	-0.017
-595.011	-34.090	0.118	0.065
-593.996	-200.000	-0.015	0.158
-592.982	-34.316	0.274	0.151
-591.967	800.000	-0.089	0.290
-590.952	-89.609	-0.164	-0.048
-589.938	-200.000	-0.024	-0.118
-588.923	-124.554	0.427	-0.067
-587.909	-133.258	-0.087	0.011
-586.894	-104.838	0.286	-0.066
-585.879	83.086	-0.104	-0.114
-584.865	249.601	0.083	0.142
-583.850	255.104	-0.142	-0.245
-582.836	535.787	-0.131	-0.312
-581.821	30.932	-0.105	-0.090
-580.806	39.107	0.197	0.177
-579.792	-200.000	-0.076	0.388
-578.777	-153.469	0.172	0.012
-577.763	-200.000	-0.000	-0.033
-576.748	-77.573	-0.125	-0.043
-575.733	-200.000	0.016	0.106
-574.719	56.289	-0.193	-0.188
-573.704	250.487	0.132	0.225
-572.690	-200.000	-0.018	0.116
-571.675	-200.000	-0.060	0.275
-570.661	6.777	-0.215	-0.161
-569.646	-200.000	0.035	-0.184
-568.631	-44.846	-0.112	0.056
-567.617	-200.000	0.049	0.364
-566.602	-62.216	-0.095	0.040
-565.588	-200.000	-0.022	-0.352
-564.573	-148.858	0.403	0.033
-563.558	40.582	-0.179	-0.162
-562.544	800.000	0.057	-0.166
-561.529	38.444	-0.228	-0.204
-560.515	800.000	-0.132	-0.365
-559.500	-200.000	0.094	-0.562
-558.485	210.894	-0.136	0.215
-557.471	-161.679	0.202	0.010
-556.456	436.306	-0.142	0.309
-555.442	-41.699	-0.121	-0.062
-554.427	-100.811	0.219	-0.054
-553.412	74.101	-0.263	0.277
-552.398	-51.228	0.106	-0.050
-551.383	186.650	0.098	-0.147
-550.369	189.599	-0.078	-0.117
-549.354	-200.000	0.053	-0.373
-548.339	-150.776	-0.151	-0.011
-547.325	-136.934	0.548	0.063
-546.310	-200.000	0.011	0.252
-545.296	676.180	0.090	0.233
-544.281	16.702	0.190	-0.151
-543.266	19.433	0.101	-0.082
-542.252	-45.268	0.139	0.069
-541.237	-12.616	-0.258	-0.169
-540.223	-130.288	-0.187	-0.025
-539.208	97.971	0.196	0.226
-538.193	-141.224	-0.153	0.016
-537.179	-11.320	0.071	0.047
-536.164	156.381	0.052	0.072
-535.150	-128.093	0.096	0.014
-534.135	134.473	0.065	-0.084
-533.121	206.230	-0.077	-0.120
-532.106	-107.131	-0.213	0.047
-531.091	-107.634	0.257	-0.056
-530.077	104.575	0.199	-0.235
-529.062	-1.778	-0.103	-0.073
-528.048	-92.373	0.062	0.018
-527.033	179.396	-0.259	0.380
-526.018	104.096	-0.101	-0.120
-525.004	-17.259	-0.160	0.101
-523.989	129.996	-0.112	0.143
-522.975	-12.926	0.086	-0.056
-521.960	-28.306	0.134	-0.078
-520.945	-200.000	-0.038	-0.168
-519.931	-115.033	-0.177	0.034
-518.916	44.758	-0.156	-0.144
-517.902	-161.659	-0.013	-0.001
-516.887	-200.000	0.017	0.136
-515.872	800.000	0.083	0.293
-514.858	800.000	0.080	-0.279
-513.843	-72.471	-0.223	-0.082
-512.829	-200.000	-0.007	-0.225
-511.814	-94.893	0.137	0.037
-510.799	-142.511	-0.055	0.005
-509.785	-196.278	0.268	-0.002
-508.770	237.500	0.172	-0.286
-507.756	-136.777	-0.421	-0.049
-506.741	-184.559	0.223	-0.004
-505.726	-91.832	-0.288	-0.082
-504.712	-200.000	-0.001	-0.230
-503.697	60.098	-0.158	-0.156
-502.683	-125.793	0.651	-0.098
-501.668	146.602	0.140	-0.188
-500.653	-72.474	0.102	0.038
-499.639	800.000	-0.024	-0.080
-498.624	-200.000	-0.016	-0.375
-497.610	-50.789	-0.169	0.079
-496.595	-97.158	0.134	-0.035
-495.581	155.166	0.124	0.171
-494.566	289.622	0.194	0.351
-493.551	-170.141	-0.316	0.011
-492.537	32.917	-0.054	-0.047
-491.522	179.293	-0.083	-0.121
-490.508	318.506	0.068	0.128
-489.493	-87.921	-0.183	0.055
-488.478	-200.000	0.008	0.253
-487.464	-66.306	-0.153	-0.061
-486.449	-46.306	0.244	-0.120
-485.435	-155.757	0.370	-0.024
-484.420	-200.000	0.009	-0.156
-483.405	78.240	0.149	-0.160
-482.391	414.168	0.072	-0.154
-481.376	-200.000	-0.054	-0.238
-480.362	-200.000	0.063	-0.367
-479.347	-55.518	-0.429	-0.192
-478.332	-134.783	-0.260	-0.032
-477.318	-5.111	0.044	0.030
-476.303	-75.000	0.382	-0.137
-475.289	-159.634	-0.192	-0.011
-474.274	-165.352	-0.351	0.015
-473.259	800.000	0.079	-0.313
-472.245	-200.000	-0.006	-0.171
-471.230	800.000	-0.037	0.157
-470.216	278.615	-0.065	0.116
-469.201	-200.000	-0.011	-0.264
-468.186	-200.000	0.056	0.354
-467.172	-134.853	0.199	-0.024
-466.157	-94.137	-0.139	0.038
-465.143	-61.650	-0.311	-0.130
-464.128	-154.094	0.395	0.027
-463.113	-124.841	0.109	-0.017
-462.099	109.532	-0.164	0.196
-461.084	-200.000	-0.003	-0.270
-460.070	-200.000	0.024	-0.282
-459.055	-200.000	-0.016	-0.166
-458.040	800.000	0.049	0.160
-457.026	208.894	-0.108	0.169
-456.011	-0.118	0.195	0.139
-454.997	610.083	-0.078	0.196
-453.982	-112.694	0.410	0.081
-452.968	201.420	-0.061	-0.094
-451.953	-126.732	-0.192	0.028
-450.938	-12.303	-0.040	-0.026
-449.924	-76.625	-0.237	-0.083
-448.909	484.930	-0.083	-0.190
-447.895	-200.000	-0.044	-0.246
-446.880	-137.371	0.209	0.024
-445.865	623.714	-0.079	-0.199
-444.851	-200.000	0.018	-0.441
-443.836	-21.436	0.162	-0.099
-442.822	-154.829	0.118	-0.008
-441.807	211.721	0.244	-0.384
-440.792	-200.000	-0.068	0.308
-439.778	-136.631	0.043	0.005
-438.763	-104.655	0.047	0.011
-437.749	-76.106	-0.108	0.038
-436.734	-50.230	-0.021	-0.010
-435.719	52.900	0.198	0.189
-434.705	-105.551	-0.207	0.047
-433.690	76.333	0.089	-0.094
-432.676	-10.441	-0.179	0.118
-431.661	-200.000	-0.007	0.035
-430.646	121.840	0.151	-0.189
-429.632	76.953	-0.122	-0.129
-428.617	-200.000	-0.002	-0.191
-427.603	-163.581	-0.197	0.009
-426.588	95.671	-0.007	-0.008
-425.573	800.000	0.065	0.206
-424.559	37.205	0.123	0.109
-423.544	115.268	-0.078	0.096
-422.530	-94.457	0.118	0.032
-421.515	113.171	0.240	0.290
-420.500	-30.837	-0.005	0.003
-419.486	-200.000	0.004	-0.214
-418.471	800.000	-0.056	-0.228
-417.457	-151.626	0.055	-0.004
-416.442	78.153	-0.253	-0.269
-415.428	16.426	0.108	0.085
-414.413	800.000	0.038	0.146
-413.398	46.896	0.043	0.040
-412.384	-129.205	0.132	-0.018
-411.369	-200.000	-0.067	0.339
-410.355	114.833	0.067	0.082
-409.340	-129.345	-0.060	-0.008
-408.325	-87.234	-0.233	-0.071
-407.311	88.023	-0.254	-0.280
-406.296	-101.801	0.172	0.042
-405.282	-78.345	0.290	0.099
-404.267	-28.482	-0.162	0.093
-403.252	443.352	0.062	0.136
-402.238	56.659	0.099	0.096
-401.223	166.740	0.040	0.057
-400.209	-200.000	-0.010	-0.047
-399.194	187.928	0.081	0.120
-398.179	800.000	-0.031	-0.130
-397.165	-200.000	0.023	0.178
-396.150	-200.000	0.022	-0.276
-395.136	-150.089	0.071	-0.006
-394.121	298.544	0.138	0.253
-393.106	58.871	-0.358	-0.351
-392.092	-90.341	-0.355	0.103
-391.077	-106.153	0.096	0.021
-390.063	93.634	-0.128	-0.144
-389.048	-200.000	0.020	0.180
-388.033	-124.713	-0.201	-0.031
-387.019	-198.785	0.411	-0.002
-386.004	-9.556	0.235	-0.156
-384.990	41.789	-0.263	0.237
-383.975	266.346	-0.073	0.127
-382.960	800.000	0.031	0.113
-381.946	253.421	-0.079	-0.134
-380.931	568.199	0.050	-0.122
-379.917	556.816	-0.099	0.239
-378.902	82.516	-0.113	-0.122
-377.888	83.668	0.208	-0.226
-376.873	783.820	-0.214	0.583
-375.858	-25.032	-0.090	0.053
-374.844	136.292	-0.094	0.122
-373.829	266.454	0.084	-0.147
-372.815	-65.630	-0.539	-0.215
-371.800	91.345	0.107	-0.119
-370.785	712.002	0.038	0.101
-369.771	-50.445	0.500	0.235
-368.756	-11.275	0.072	-0.047
-367.742	-82.163	-0.206	-0.067
-366.727	31.213	0.043	-0.037
-365.712	36.255	-0.176	-0.154
-364.698	-72.110	-0.142	0.052
-363.683	-18.686	-0.229	0.142
-362.669	-200.000	-0.104	0.573
-361.654	45.927	-0.150	0.139
-360.639	-78.250	-0.247	0.085
-359.625	269.829	-0.115	-0.200
-358.610	-177.541	-0.368	-0.009
-357.596	134.920	-0.147	0.190
-356.581	-88.027	-0.099	0.030
-355.566	-65.947	-0.252	-0.100
-354.552	-78.907	0.197	-0.067
-353.537	-92.962	0.099	0.028
-352.523	-200.000	-0.018	0.317
-351.508	-37.531	-0.414	-0.220
-350.493	-17.045	-0.296	-0.186
-349.479	336.752	0.068	-0.132
-348.464	215.692	-0.038	-0.060
-347.450	43.858	0.340	0.310
-346.435	-200.000	-0.043	-0.383
-345.420	213.616	-0.197	-0.310
-344.406	-79.650	-0.134	-0.045
-343.391	-200.000	0.014	0.263
-342.377	-6.254	0.066	0.045
-341.362	-19.671	0.173	-0.106
-340.348	-200.000	0.013	-0.539
-339.333	-137.996	0.210	0.023
-338.318	-147.695	-0.258	-0.022
-337.304	-53.250	0.104	-0.048
-336.289	128.753	-0.083	0.106
-335.275	18.534	0.127	0.101
-334.260	800.000	0.073	0.309
-333.245	800.000	0.007	0.025
-332.231	-144.382	-0.177	-0.016
-331.216	-200.000	0.018	-0.417
-330.202	18.416	0.138	-0.110
-329.187	29.093	-0.193	0.162
-328.172	-3.101	0.209	-0.145
-327.158	294.667	-0.024	-0.043
-326.143	-98.383	-0.156	0.040
-325.129	22.576	0.190	0.154
-324.114	-2.851	0.155	0.108
-323.099	-107.534	0.384	0.084
-322.085	734.508	-0.062	0.164
-321.070	-200.000	-0.077	0.532
-320.056	-95.266	-0.173	-0.046
-319.041	-31.366	0.153	-0.086
-318.026	124.604	-0.186	0.232
-317.012	-110.440	-0.187	-0.039
-315.997	14.477	-0.079	-0.061
-314.983	675.195	0.105	0.272
-313.968	-43.899	0.151	0.075
-312.953	-58.515	0.369	-0.159
-311.939	279.491	-0.106	0.188
-310.924	-200.000	0.003	0.279
-309.910	308.080	0.142	0.263
-308.895	107.981	-0.085	-0.100
-307.880	-66.658	0.094	0.037
-306.866	12.711	-0.177	0.135
-305.851	468.166	-0.119	-0.266
-304.837	-0.679	0.209	0.147
-303.822	-133.726	-0.275	0.034
-302.807	266.857	0.088	0.152
-301.793	83.007	-0.051	0.055
-300.778	22.788	-0.225	0.183
-299.764	800.000	-0.078	0.242
-298.749	-96.761	-0.105	0.028
-297.735	98.913	-0.158	-0.181
-296.720	-120.048	0.163	-0.028
-295.705	-25.415	0.357	-0.210
-294.691	279.357	-0.153	0.271
-293.676	-8.666	0.070	0.047
-292.662	-81.374	0.181	0.059
-291.647	-33.515	0.147	-0.080
-290.632	-136.679	-0.020	-0.002
-289.618	-200.000	0.086	-0.441
-288.603	-82.705	-0.181	-0.058
-287.589	105.055	0.081	-0.095
-286.574	11.206	0.170	0.129
-285.559	-200.000	-0.006	0.160
-284.545	0.186	-0.116	0.082
-283.530	-138.679	-0.266	0.029
-282.516	119.841	-0.100	-0.123
-281.501	35.790	0.071	-0.062
-280.486	-2.290	-0.290	-0.202
-279.472	800.000	-0.049	-0.179
-278.457	-93.120	-0.361	0.100
-277.443	339.864	0.055	-0.107
-276.428	227.554	-0.238	-0.383
-275.413	-200.000	0.019	0.309
-274.399	-200.000	-0.035	0.233
-273.384	13.794	0.381	-0.294
-272.370	-59.208	0.266	-0.114
-271.355	156.141	0.097	0.132
-270.340	-44.177	-0.143	0.071
-269.326	99.449	-0.176	0.202
-268.311	368.532	-0.084	-0.168
-267.297	107.553	0.143	-0.169
-266.282	-109.418	0.248	-0.052
-265.267	800.000	-0.066	0.217
-264.253	75.242	-0.243	0.254
-263.238	-103.752	0.047	-0.011
-262.224	-82.397	-0.411	0.132
-261.209	-96.060	-0.095	-0.025
-260.195	-1.280	0.206	-0.144
-259.180	-200.000	-0.025	0.219
-258.165	27.227	-0.194	-0.162
-257.151	-67.546	0.090	0.035
-256.136	-188.286	0.076	-0.001
-255.122	-25.753	-0.243	0.142
-254.107	-200.000	0.094	-0.413
-253.092	-76.556	-0.070	0.024
-252.078	800.000	0.059	0.171
-251.063	-99.453	-0.034	0.009
-250.049	-157.366	0.242	0.014
-249.034	431.227	-0.146	0.313
-248.019	133.779	-0.212	0.272
-247.005	37.935	-0.097	-0.086
-245.990	-200.000	0.006	-0.143
-244.976	-200.000	0.102	-0.000
-243.961	24.197	0.289	0.236
-242.946	800.000	-0.016	-0.071
-241.932	73.372	0.065	0.068
-240.917	-17.188	-0.143	0.089
-239.903	110.609	0.101	-0.120
-238.888	293.420	-0.106	0.192
-237.873	800.000	0.012	0.047
-236.859	-12.866	0.303	-0.195
-235.844	37.045	0.089	0.078
-234.830	258.920	-0.002	0.004
-233.815	-41.631	-0.043	-0.022
-232.800	17.163	0.091	0.072
-231.786	800.000	-0.030	-0.099
-230.771	3.774	0.148	0.107
-229.757	-103.454	-0.028	-0.007
-228.742	800.000	0.049	-0.190
-227.727	-123.486	0.200	-0.032
-226.713	800.000	0.060	-0.256
-225.698	-200.000	0.010	-0.112
-224.684	27.104	0.063	-0.052
-223.669	-67.675	-0.157	-0.061
-222.655	-200.000	0.035	0.437
-221.640	226.564	-0.071	-0.115
-220.625	372.002	0.188	-0.378
-219.611	1.062	-0.108	-0.077
-218.596	-200.000	-0.039	0.290
-217.582	440.131	0.064	-0.139
-216.567	-152.248	-0.188	0.013
-215.552	110.603	-0.121	0.144
-214.538	-10.371	-0.253	-0.166
-213.523	-19.832	-0.077	0.047
-212.509	-32.017	-0.253	-0.140
-211.494	371.076	0.100	-0.201
-210.479	-165.596	-0.146	-0.006
-209.465	100.463	-0.034	0.039
-208.450	-46.580	-0.319	0.155
-207.436	-64.702	0.249	-0.100
-206.421	198.458	0.141	0.213
-205.406	-160.123	0.256	0.014
-204.392	-85.923	-0.502	0.154
-203.377	187.561	-0.172	0.254
-202.363	14.138	0.252	0.194
-201.348	-40.451	0.343	0.176
-200.333	-115.516	-0.145	-0.027
-199.319	473.625	-0.022	0.049
-198.304	-97.678	0.330	0.085
-197.290	123.654	-0.140	0.173
-196.275	800.000	0.044	-0.170
-195.260	4.821	0.167	0.122
-194.246	345.115	0.089	0.173
-193.231	665.020	-0.120	0.306
-192.217	-82.806	-0.105	0.033
-191.202	-200.000	0.031	-0.353
-190.187	96.953	-0.092	-0.105
-189.173	-76.249	0.107	-0.037
-188.158	284.400	0.194	-0.345
-187.144	-122.598	0.125	-0.020
-186.129	-11.124	0.159	0.104
-185.114	7.006	-0.236	-0.174
-184.100	10.385	-0.216	0.163
-183.085	479.198	0.119	0.268
-182.071	-200.000	-0.002	-0.137
-181.056	172.673	0.046	0.066
-180.042	-128.082	0.499	0.071
-179.027	181.861	-0.114	0.166
-178.012	49.583	-0.046	0.043
-176.998	696.927	-0.037	-0.097
-175.983	54.396	-0.266	0.254
-174.969	-90.465	0.156	0.045
-173.954	-200.000	-0.003	0.299
-172.939	364.846	-0.038	0.076
-171.925	97.375	0.132	-0.150
-170.910	-200.000	0.049	0.252
-169.896	-48.390	0.182	-0.087
-168.881	-13.345	-0.064	-0.041
-167.866	-127.560	0.178	-0.026
-166.852	-200.000	-0.061	-0.266
-165.837	72.649	0.121	0.124
-164.823	-104.653	-0.183	0.042
-163.808	-65.001	-0.169	-0.067
-162.793	17.668	0.060	-0.047
-161.779	442.443	0.066	-0.143
-160.764	686.596	-0.077	0.199
-159.750	175.095	-0.093	0.133
-158.735	457.875	-0.073	0.159
-157.720	800.000	-0.118	-0.348
-156.706	451.494	-0.028	-0.061
-155.691	15.648	0.057	-0.044
-154.677	-81.053	-0.204	0.067
-153.662	18.593	0.202	-0.160
-152.647	800.000	-0.023	0.097
-151.633	-19.726	-0.180	0.110
-150.618	-13.770	-0.455	0.291
-149.604	382.689	-0.064	-0.130
-148.589	-200.000	0.024	0.293
-147.574	184.124	0.155	0.227
-146.560	-10.075	-0.040	0.026
-145.545	9.152	0.275	0.205
-144.531	150.115	-0.117	-0.157
-143.516	-200.000	-0.017	0.147
-142.502	-66.155	0.156	0.061
-141.487	-200.000	0.072	-0.401
-140.472	274.317	0.069	0.121
-139.458	-0.874	0.068	-0.048
-138.443	-44.755	0.177	0.087
-137.429	90.394	-0.133	0.147
-136.414	-20.312	-0.229	-0.139
-135.399	46.419	-0.110	-0.100
-134.385	-126.729	-0.192	0.028
-133.370	-200.000	0.008	-0.084
-132.356	-200.000	-0.020	-0.210
-131.341	-200.000	0.013	0.243
-130.326	80.172	-0.201	-0.213
-129.312	-200.000	0.010	-0.219
-128.297	123.999	0.187	-0.232
-127.283	-200.000	-0.008	-0.222
-126.268	52.037	-0.187	0.176
-125.253	-101.581	-0.357	-0.086
-124.239	-200.000	0.013	-0.076
-123.224	-28.635	-0.045	-0.026
-122.210	186.167	-0.074	0.108
