DTS Sentinel unit serial number:	SN413079Multiplexer serial number:	ORYXHardware model number:	OX4-SRSoftware version number:	ORYX F/W v4.00 Oryx Data Collector v3.7.2.0data status	okinstallation	princeton_trtdifferential loss correction	single-endedforward channel	channel 1reverse channel	N/Adate	2019/09/18time	09:42:35forward acquisition time	60.00reverse acquisition time	0.00gamma	496.2192k internal	0.2333k external	0.2333temperature offset calibration	0.9972default loss term (dB/km)	0.3790temperature slope calibration	1.0000multiplexer offset coefficient	1.0000multiplexer slope coefficient	1.0000fibre end	0.00T internal ref (°C)	26.81T ext. ref 1 (°C)	0.28T ext. ref 2 (°C)	23.41length (m)	temperature (°C)	Stokes	anti-Stokes-747.200	414.845	0.112	0.240
-746.185	72.585	-0.247	0.259
-745.171	-57.647	0.403	0.178
-744.156	-200.000	-0.025	0.269
-743.142	-92.836	0.191	0.054
-742.127	-200.000	0.077	0.352
-741.112	244.458	-0.101	0.171
-740.098	138.859	0.171	-0.226
-739.083	-23.997	-0.271	-0.163
-738.069	15.787	0.086	0.068
-737.054	-10.922	-0.050	-0.033
-736.039	219.250	0.106	-0.170
-735.025	433.248	-0.122	0.267
-734.010	605.246	-0.091	-0.228
-732.996	139.081	0.222	0.293
-731.981	800.000	0.047	-0.167
-730.966	338.698	0.080	-0.157
-729.952	-160.685	0.458	-0.024
-728.937	89.183	-0.093	-0.104
-727.923	13.702	-0.244	0.190
-726.908	125.793	-0.046	0.058
-725.894	800.000	0.085	-0.370
-724.879	20.529	-0.345	0.280
-723.864	30.109	0.214	0.183
-722.850	57.591	0.118	-0.116
-721.835	-99.493	-0.203	-0.051
-720.821	-200.000	0.046	0.255
-719.806	68.139	-0.250	-0.257
-718.791	800.000	0.041	-0.132
-717.777	800.000	0.043	0.186
-716.762	-47.900	0.063	0.031
-715.748	223.420	0.080	0.129
-714.733	800.000	0.108	-0.447
-713.718	533.184	0.135	-0.321
-712.704	25.650	-0.156	0.131
-711.689	-200.000	0.057	0.280
-710.675	370.037	-0.058	-0.118
-709.660	-153.147	-0.199	0.014
-708.645	-101.538	0.209	-0.051
-707.631	-65.673	-0.038	0.015
-706.616	-41.356	0.217	-0.112
-705.602	-200.000	-0.008	-0.088
-704.587	-40.597	0.276	-0.144
-703.572	-25.426	-0.171	0.102
-702.558	-46.970	-0.222	0.109
-701.543	-168.688	-0.058	-0.002
-700.529	-9.649	-0.186	0.124
-699.514	286.434	0.207	0.375
-698.499	-200.000	-0.018	-0.147
-697.485	-82.483	-0.281	-0.092
-696.470	-104.631	0.029	0.007
-695.456	-153.263	0.209	-0.015
-694.441	118.905	-0.052	-0.064
-693.426	-140.590	-0.220	0.023
-692.412	-125.759	0.231	0.035
-691.397	-174.568	-0.318	0.009
-690.383	-8.488	0.302	0.203
-689.368	-148.597	-0.097	0.008
-688.354	-105.253	0.116	-0.027
-687.339	-200.000	0.024	-0.156
-686.324	-56.506	0.245	0.109
-685.310	160.377	-0.208	0.291
-684.295	800.000	-0.042	-0.119
-683.281	-124.723	-0.198	0.031
-682.266	-126.404	-0.318	-0.047
-681.251	638.767	-0.078	-0.199
-680.237	197.269	0.175	0.268
-679.222	800.000	-0.077	-0.220
-678.208	800.000	-0.085	0.257
-677.193	800.000	0.104	-0.422
-676.178	-47.127	0.115	-0.056
-675.164	-120.233	-0.194	0.033
-674.149	-200.000	0.009	-0.217
-673.135	12.778	-0.178	-0.138
-672.120	-123.192	-0.100	0.016
-671.105	-140.015	0.241	-0.026
-670.091	-35.587	0.130	-0.071
-669.076	-133.535	-0.088	0.011
-668.062	81.239	-0.083	-0.090
-667.047	518.312	-0.219	-0.514
-666.032	-162.074	0.187	0.009
-665.018	118.342	0.096	0.118
-664.003	503.191	-0.132	0.305
-662.989	-26.684	-0.029	0.017
-661.974	120.294	0.054	-0.067
-660.959	13.934	-0.245	-0.191
-659.945	-133.362	-0.070	0.009
-658.930	44.242	0.217	0.199
-657.916	-200.000	0.040	-0.202
-656.901	289.923	0.221	-0.402
-655.886	467.477	0.127	-0.285
-654.872	18.999	0.226	0.182
-653.857	-17.992	-0.177	-0.111
-652.843	-36.192	0.397	-0.215
-651.828	198.615	-0.085	0.130
-650.814	-70.236	0.052	-0.020
-649.799	-94.841	0.228	-0.062
-648.784	245.455	0.056	0.094
-647.770	-51.289	-0.245	0.115
-646.755	-74.156	0.248	-0.090
-645.741	800.000	-0.041	-0.169
-644.726	-200.000	-0.075	-0.449
-643.711	-200.000	0.026	-0.249
-642.697	-200.000	-0.016	0.192
-641.682	309.794	-0.086	-0.162
-640.668	-87.045	0.100	0.030
-639.653	114.360	0.112	0.137
-638.638	286.259	0.085	0.154
-637.624	-42.981	-0.362	0.184
-636.609	-55.330	-0.272	-0.122
-635.595	-91.062	-0.092	0.027
-634.580	47.308	0.306	-0.285
-633.565	-188.977	-0.264	-0.003
-632.551	39.906	0.088	0.079
-631.536	341.163	-0.280	-0.547
-630.522	319.264	-0.134	0.254
-629.507	22.659	-0.068	0.056
-628.492	-43.180	0.234	-0.118
-627.478	256.388	-0.073	-0.126
-626.463	-168.064	0.344	0.013
-625.449	56.258	-0.057	-0.055
-624.434	3.313	-0.173	0.126
-623.419	252.299	0.030	0.051
-622.405	-19.005	0.093	0.058
-621.390	-57.538	-0.073	0.032
-620.376	175.245	0.286	0.415
-619.361	-36.966	0.131	0.071
-618.346	-107.131	-0.051	-0.011
-617.332	-23.336	-0.169	-0.102
-616.317	-109.493	0.334	0.071
-615.303	-32.530	0.330	0.184
-614.288	424.637	0.150	0.322
-613.273	38.848	0.133	-0.119
-612.259	65.670	0.332	0.336
-611.244	-52.142	0.111	0.052
-610.230	312.296	-0.317	-0.596
-609.215	-200.000	0.061	0.307
-608.201	-121.856	-0.152	-0.025
-607.186	635.988	-0.034	0.086
-606.171	-120.858	-0.153	-0.026
-605.157	-200.000	-0.058	-0.352
-604.142	3.853	-0.248	-0.181
-603.128	-125.905	-0.427	0.064
-602.113	167.774	0.324	0.461
-601.098	-84.530	0.128	0.041
-600.084	800.000	-0.015	-0.050
-599.069	-137.756	-0.109	0.012
-598.055	-171.883	0.183	0.006
-597.040	-200.000	-0.026	0.289
-596.025	-41.528	-0.345	0.177
-595.011	22.170	-0.107	-0.087
-593.996	-52.342	0.373	0.172
-592.982	800.000	-0.028	-0.102
-591.967	14.438	-0.144	0.112
-590.952	-95.170	-0.038	0.010
-589.938	83.753	0.168	-0.183
-588.923	-127.346	-0.227	0.033
-587.909	-200.000	0.025	-0.276
-586.894	-200.000	0.007	0.323
-585.879	-4.271	0.084	0.058
-584.865	-56.065	0.301	-0.134
-583.850	-69.839	0.175	-0.067
-582.836	60.040	-0.147	0.145
-581.821	800.000	0.061	0.229
-580.806	317.582	-0.044	-0.083
-579.792	10.277	-0.325	0.247
-578.777	119.814	0.188	0.232
-577.763	800.000	-0.025	0.090
-576.748	177.982	-0.220	-0.320
-575.733	59.541	-0.288	-0.283
-574.719	-148.135	0.240	0.020
-573.704	-67.770	-0.079	0.031
-572.690	-109.113	-0.085	0.018
-571.675	94.345	0.153	-0.173
-570.661	118.738	-0.236	0.291
-569.646	-16.791	-0.230	0.145
-568.631	800.000	0.085	-0.361
-567.617	-116.028	0.174	0.032
-566.602	75.860	-0.100	0.106
-565.588	231.970	0.250	-0.409
-564.573	61.753	0.134	0.134
-563.558	-200.000	0.017	0.301
-562.544	-14.249	0.135	-0.087
-561.529	-200.000	-0.010	-0.235
-560.515	-55.799	-0.048	0.021
-559.500	-200.000	-0.001	-0.022
-558.485	177.020	0.026	0.038
-557.471	-200.000	-0.289	-0.000
-556.456	800.000	-0.066	-0.235
-555.442	-106.232	0.410	-0.092
-554.427	-92.876	-0.059	0.017
-553.412	423.874	0.050	-0.107
-552.398	-200.000	0.010	-0.173
-551.383	-34.617	-0.386	0.211
-550.369	4.132	-0.204	-0.149
-549.354	-45.490	-0.087	0.043
-548.339	-88.012	-0.373	0.112
-547.325	-50.076	-0.385	0.182
-546.310	17.647	-0.271	0.215
-545.296	-121.427	-0.307	-0.051
-544.281	-97.673	-0.064	-0.017
-543.266	-123.249	0.074	0.012
-542.252	9.143	-0.108	-0.082
-541.237	-74.063	-0.190	0.069
-540.223	-42.481	-0.132	0.067
-539.208	800.000	-0.016	-0.056
-538.193	2.543	0.155	0.112
-537.179	-2.032	0.326	0.228
-536.164	258.116	-0.089	-0.153
-535.150	-126.766	0.177	0.026
-534.135	-171.619	0.318	-0.010
-533.121	-103.167	0.301	-0.071
-532.106	-85.048	-0.189	-0.059
-531.091	-9.508	0.227	0.151
-530.077	46.042	-0.177	0.163
-529.062	20.175	0.085	-0.068
-528.048	-200.000	-0.012	-0.235
-527.033	73.055	-0.307	-0.320
-526.018	800.000	-0.007	-0.027
-525.004	63.569	-0.160	-0.160
-523.989	213.198	-0.182	0.287
-522.975	800.000	-0.023	-0.071
-521.960	-163.819	0.326	-0.015
-520.945	-49.241	-0.260	0.124
-519.931	-36.373	0.175	0.094
-518.916	-200.000	0.034	-0.157
-517.902	-125.749	-0.105	0.016
-516.887	-76.385	-0.131	0.046
-515.872	205.263	0.210	-0.325
-514.858	-120.669	0.469	0.079
-513.843	-200.000	-0.051	0.305
-512.829	-142.739	0.169	0.016
-511.814	773.721	0.068	-0.186
-510.799	800.000	0.030	-0.099
-509.785	583.486	0.119	-0.290
-508.770	-34.619	0.085	-0.046
-507.756	-113.370	-0.331	-0.065
-506.741	-114.148	-0.207	0.040
-505.726	-98.618	-0.099	0.025
-504.712	102.279	0.088	0.103
-503.697	0.278	0.201	-0.143
-502.683	104.871	-0.160	-0.188
-501.668	800.000	0.068	-0.190
-500.653	-30.295	0.156	0.088
-499.639	405.425	-0.058	0.123
-498.624	-200.000	0.006	-0.202
-497.610	-200.000	0.061	0.307
-496.595	800.000	0.082	0.313
-495.581	800.000	-0.144	-0.461
-494.566	-200.000	-0.006	-0.088
-493.551	-39.167	-0.214	-0.112
-492.537	155.884	0.119	-0.163
-491.522	114.164	0.183	-0.222
-490.508	86.732	0.126	-0.139
-489.493	335.934	-0.133	0.257
-488.478	800.000	-0.073	0.246
-487.464	-52.634	0.207	0.095
-486.449	24.878	0.020	-0.017
-485.435	72.045	0.273	0.282
-484.420	-200.000	-0.001	-0.035
-483.405	-200.000	0.011	0.077
-482.391	-108.604	0.117	-0.025
-481.376	-200.000	-0.078	-0.402
-480.362	-64.185	0.469	0.190
-479.347	-103.950	0.156	-0.036
-478.332	-94.262	0.344	-0.094
-477.318	-104.878	-0.181	0.041
-476.303	395.074	-0.150	0.310
-475.289	-200.000	0.010	-0.257
-474.274	-200.000	-0.015	0.179
-473.259	295.687	0.078	-0.142
-472.245	-166.235	-0.236	-0.010
-471.230	-161.271	-0.180	0.009
-470.216	182.059	-0.130	0.191
-469.201	-20.306	-0.108	-0.066
-468.186	26.719	0.099	0.083
-467.172	-200.000	0.005	0.273
-466.157	24.832	-0.084	0.070
-465.143	123.013	0.087	0.108
-464.128	686.074	0.050	-0.129
-463.113	-140.344	0.271	-0.028
-462.099	-90.569	-0.482	-0.139
-461.084	800.000	-0.003	-0.012
-460.070	-184.911	-0.239	0.004
-459.055	-200.000	-0.015	0.083
-458.040	800.000	0.078	0.242
-457.026	19.618	-0.113	0.091
-456.011	800.000	0.090	-0.358
-454.997	326.701	-0.040	-0.076
-453.982	-200.000	-0.011	-0.096
-452.968	-56.761	-0.039	0.017
-451.953	278.608	-0.183	-0.325
-450.938	239.670	-0.062	0.103
-449.924	-200.000	-0.101	0.755
-448.909	115.681	-0.158	-0.191
-447.895	260.787	0.100	-0.172
-446.880	-23.944	-0.116	0.069
-445.865	-45.850	0.201	0.099
-444.851	-200.000	-0.019	0.139
-443.836	800.000	0.034	-0.124
-442.822	120.460	-0.170	-0.209
-441.807	62.631	0.111	-0.111
-440.792	-45.646	0.123	-0.060
-439.778	58.762	0.138	-0.134
-438.763	167.862	0.191	-0.270
-437.749	-113.806	0.194	0.037
-436.734	-136.267	-0.040	-0.005
-435.719	-200.000	-0.024	-0.438
-434.705	-110.724	0.207	-0.042
-433.690	-200.000	-0.007	0.276
-432.676	-52.078	-0.274	-0.126
-431.661	123.780	-0.130	-0.162
-430.646	-191.804	0.100	0.001
-429.632	207.841	0.206	-0.319
-428.617	-200.000	-0.040	-0.338
-427.603	511.265	0.112	-0.258
-426.588	-39.961	0.108	0.056
-425.573	800.000	-0.021	0.065
-424.559	223.303	0.003	-0.005
-423.544	-30.073	-0.154	-0.087
-422.530	-200.000	-0.063	-0.320
-421.515	-72.158	-0.038	-0.014
-420.500	3.086	-0.318	0.230
-419.486	-200.000	0.374	0.001
-418.471	281.643	0.171	0.304
-417.457	800.000	-0.090	-0.390
-416.442	-18.259	0.148	-0.092
-415.428	-200.000	0.007	0.071
-414.413	32.114	-0.029	0.025
-413.398	-86.585	-0.368	0.112
-412.384	570.945	-0.110	0.265
-411.369	75.918	0.064	0.068
-410.355	193.558	0.299	-0.448
-409.340	-178.553	-0.355	-0.008
-408.325	-140.025	-0.261	-0.027
-407.311	-49.174	0.195	0.092
-406.296	-94.674	0.195	-0.053
-405.282	-200.000	0.010	-0.339
-404.267	153.296	-0.111	-0.151
-403.252	-85.634	-0.219	-0.068
-402.238	789.203	-0.134	-0.364
-401.223	33.788	0.224	-0.193
-400.209	-83.962	0.476	0.150
-399.194	72.581	0.156	0.162
-398.179	274.269	0.077	-0.136
-397.165	800.000	-0.083	-0.302
-396.150	-116.461	0.025	0.005
-395.136	150.326	0.137	-0.184
-394.121	788.840	0.074	-0.201
-393.106	-126.448	-0.229	-0.034
-392.092	243.804	-0.138	0.230
-391.077	-133.151	-0.113	0.014
-390.063	-179.221	0.078	0.002
-389.048	800.000	-0.078	0.309
-388.033	-149.344	-0.274	0.022
-387.019	259.168	0.068	-0.117
-386.004	-182.997	0.239	-0.004
-384.990	800.000	-0.021	-0.075
-383.975	-200.000	-0.027	-0.144
-382.960	-200.000	0.017	-0.401
-381.946	-100.262	0.232	0.057
-380.931	730.994	0.151	0.399
-379.917	-200.000	-0.035	-0.155
-378.902	-200.000	0.001	0.174
-377.888	-200.000	-0.008	0.262
-376.873	-101.863	0.089	0.021
-375.858	800.000	0.080	0.292
-374.844	26.085	0.151	0.125
-373.829	36.430	-0.127	-0.111
-372.815	-9.136	-0.161	0.107
-371.800	-155.776	0.137	-0.009
-370.785	-114.491	-0.139	-0.026
-369.771	147.237	-0.111	0.148
-368.756	5.133	0.050	0.037
-367.742	800.000	-0.103	-0.338
-366.727	-200.000	0.040	-0.555
-365.712	-103.130	-0.131	0.031
-364.698	-200.000	-0.025	0.285
-363.683	17.360	0.104	-0.082
-362.669	426.733	-0.122	0.262
-361.654	106.665	0.103	0.121
-360.639	-200.000	-0.038	0.295
-359.625	-153.781	0.500	-0.034
-358.610	34.158	0.204	-0.176
-357.596	800.000	-0.161	-0.491
-356.581	-104.380	-0.230	-0.053
-355.566	-38.486	-0.126	0.066
-354.552	440.999	-0.057	0.124
-353.537	147.090	0.071	0.095
-352.523	387.518	-0.099	-0.203
-351.508	174.300	0.154	-0.220
-350.493	-41.674	-0.109	0.055
-349.479	-200.000	0.002	0.127
-348.464	-15.874	0.113	-0.071
-347.450	591.980	0.079	0.193
-346.435	120.481	-0.135	0.166
-345.420	48.358	0.175	-0.162
-344.406	-200.000	0.022	-0.245
-343.391	800.000	-0.036	0.143
-342.377	173.142	0.044	-0.062
-341.362	78.714	0.414	-0.438
-340.348	-14.113	0.337	-0.215
-339.333	219.045	-0.081	-0.128
-338.318	-175.932	-0.092	0.002
-337.304	7.035	0.177	0.131
-336.289	237.280	-0.109	0.179
-335.275	-24.887	-0.194	-0.114
-334.260	-106.041	-0.273	0.061
-333.245	194.836	-0.150	0.224
-332.231	596.289	-0.045	-0.110
-331.216	800.000	-0.130	0.396
-330.202	20.681	-0.107	0.086
-329.187	-200.000	0.009	0.184
-328.172	-139.063	-0.252	-0.027
-327.158	-200.000	-0.051	0.232
-326.143	-176.818	0.179	0.004
-325.129	-132.959	-0.222	0.028
-324.114	-77.125	0.232	-0.080
-323.099	10.457	-0.193	0.145
-322.085	397.120	-0.071	0.147
-321.070	-82.889	-0.091	-0.029
-320.056	2.952	-0.247	-0.177
-319.041	800.000	-0.049	0.187
-318.026	445.446	0.179	-0.389
-317.012	265.308	-0.108	0.187
-315.997	800.000	0.079	-0.268
-314.983	-200.000	-0.064	0.422
-313.968	-37.071	0.035	0.018
-312.953	800.000	-0.129	0.388
-311.939	800.000	0.031	-0.112
-310.924	-91.222	-0.128	0.036
-309.910	-7.712	0.345	-0.231
-308.895	236.567	-0.137	0.224
-307.880	-200.000	-0.015	0.078
-306.866	-132.060	0.379	0.049
-305.851	-88.684	-0.154	0.045
-304.837	-200.000	0.010	-0.056
-303.822	-42.700	0.098	-0.049
-302.807	-25.179	-0.068	0.040
-301.793	-156.093	-0.073	-0.005
-300.778	-73.988	-0.086	0.031
-299.764	-85.118	0.097	0.030
-298.749	22.090	0.344	0.277
-297.735	105.174	-0.069	0.080
-296.720	-122.464	-0.136	-0.022
-295.705	-85.792	-0.154	0.047
-294.691	564.650	-0.119	0.286
-293.676	-200.000	0.016	0.385
-292.662	-78.622	0.239	0.081
-291.647	58.717	0.023	0.022
-290.632	800.000	-0.029	-0.086
-289.618	-82.512	0.112	0.036
-288.603	-127.714	-0.308	0.044
-287.589	800.000	0.047	0.177
-286.574	411.451	0.211	-0.443
-285.559	-65.224	0.157	0.062
-284.545	-63.845	-0.248	0.100
-283.530	482.752	0.061	-0.137
-282.516	269.322	0.143	-0.247
-281.501	-14.891	0.152	-0.097
-280.486	-200.000	0.040	0.201
-279.472	10.475	-0.120	0.090
-278.457	-77.422	0.109	0.037
-277.443	-138.638	0.156	-0.017
-276.428	12.127	0.307	0.234
-275.413	223.286	-0.011	0.017
-274.399	-91.831	0.218	0.061
-273.384	-200.000	0.032	-0.279
-272.370	-61.362	-0.129	0.054
-271.355	-200.000	-0.049	0.283
-270.340	693.304	-0.049	-0.128
-269.326	-130.827	0.207	-0.027
-268.311	-125.567	-0.251	0.038
-267.297	-84.746	0.178	0.055
-266.282	-85.534	-0.091	0.028
-265.267	-50.183	-0.224	0.105
-264.253	-78.318	0.392	0.133
-263.238	-42.220	-0.273	0.138
-262.224	-87.047	0.283	-0.085
-261.209	198.909	0.122	-0.185
-260.195	-200.000	0.044	0.374
-259.180	-94.674	-0.173	0.046
-258.165	5.565	-0.110	-0.080
-257.151	191.479	-0.107	0.159
-256.136	-108.298	0.330	-0.070
-255.122	-200.000	-0.025	0.112
-254.107	-200.000	-0.061	-0.312
-253.092	127.681	-0.402	0.504
-252.078	30.396	0.064	0.054
-251.063	-200.000	-0.021	-0.123
-250.049	33.234	-0.147	0.125
-249.034	391.585	0.091	0.187
-248.019	-200.000	-0.021	-0.151
-247.005	-13.274	-0.191	-0.122
-245.990	-46.085	0.301	0.146
-244.976	-200.000	-0.010	-0.117
-243.961	37.195	-0.237	0.207
-242.946	475.902	-0.085	-0.190
-241.932	-50.329	-0.114	-0.053
-240.917	800.000	0.060	0.166
-239.903	-64.578	0.338	0.135
-238.888	187.523	-0.173	0.255
-237.873	-7.409	0.102	-0.068
-236.859	-146.868	0.092	0.008
-235.844	-117.766	0.122	-0.022
-234.830	76.178	-0.048	0.051
-233.815	39.262	-0.197	0.174
-232.800	-200.000	-0.014	0.297
-231.786	-200.000	-0.022	0.313
-230.771	-97.342	-0.382	0.098
-229.757	273.291	-0.118	-0.206
-228.742	-200.000	-0.042	-0.185
-227.727	120.517	0.108	-0.132
-226.713	-82.556	0.113	-0.036
-225.698	24.812	0.104	0.085
-224.684	213.543	0.118	-0.184
-223.669	735.768	-0.103	0.271
-222.655	88.382	-0.267	0.292
-221.640	114.055	0.116	-0.139
-220.625	-133.433	0.177	0.022
-219.611	-200.000	-0.003	-0.231
-218.596	-94.777	0.298	-0.080
-217.582	635.312	-0.063	-0.156
-216.567	71.947	0.193	-0.198
-215.552	800.000	0.067	-0.245
-214.538	-200.000	-0.026	-0.258
-213.523	-139.026	0.086	0.009
-212.509	-50.422	-0.039	0.018
-211.494	-121.918	-0.101	-0.016
-210.479	373.086	0.004	-0.007
-209.465	-44.406	-0.159	-0.079
-208.450	-90.863	0.057	0.016
-207.436	800.000	0.097	0.363
-206.421	422.638	0.067	-0.141
-205.406	684.950	0.099	0.254
-204.392	84.987	-0.288	0.310
-203.377	56.741	0.090	0.087
-202.363	148.293	0.196	0.260
-201.348	-69.014	-0.274	-0.104
-200.333	264.580	0.171	-0.294
-199.319	800.000	0.096	-0.394
-198.304	-200.000	0.024	0.147
-197.290	-80.828	-0.167	0.055
-196.275	-200.000	-0.037	-0.284
-195.260	-100.910	-0.325	0.079
-194.246	70.634	-0.314	0.320
-193.231	-117.061	0.284	0.051
-192.217	-12.501	-0.405	0.260
-191.202	225.035	-0.117	-0.186
-190.187	800.000	-0.035	-0.133
-189.173	308.938	0.131	-0.241
-188.158	800.000	-0.076	-0.315
-187.144	-22.542	-0.049	-0.029
-186.129	-30.337	-0.392	0.219
-185.114	-67.745	0.135	0.052
-184.100	800.000	-0.083	0.225
-183.085	-3.904	0.321	0.219
-182.071	-106.182	-0.135	-0.030
-181.056	800.000	-0.081	-0.219
-180.042	-22.510	-0.246	-0.146
-179.027	296.956	0.088	-0.158
-178.012	-169.958	0.115	0.004
-176.998	16.337	0.146	-0.113
-175.983	-200.000	0.074	-0.383
-174.969	65.447	-0.229	-0.227
-173.954	-158.551	0.235	-0.013
-172.939	-10.190	-0.346	0.226
-171.925	88.073	-0.145	-0.159
-170.910	-34.832	-0.211	0.113
-169.896	-49.709	0.131	0.061
-168.881	-200.000	-0.017	0.338
-167.866	27.135	-0.064	0.052
-166.852	-17.058	0.212	0.131
-165.837	-108.486	0.244	-0.052
-164.823	-200.000	0.001	-0.321
-163.808	800.000	0.059	0.245
-162.793	332.079	0.103	0.194
-161.779	71.372	0.089	-0.091
-160.764	93.157	-0.041	-0.045
-159.750	-136.746	-0.391	0.044
-158.735	128.823	-0.146	-0.183
-157.720	37.921	0.113	0.099
-156.706	20.567	0.480	0.382
-155.691	-11.532	-0.175	-0.113
-154.677	-147.345	0.225	-0.019
-153.662	43.565	-0.064	0.058
-152.647	9.243	0.337	-0.251
-151.633	-112.374	0.185	0.036
-150.618	-200.000	0.012	0.157
-149.604	99.684	-0.087	-0.099
-148.589	53.219	0.109	0.102
-147.574	95.900	-0.207	-0.232
-146.560	800.000	0.064	-0.189
-145.545	-64.431	0.137	0.055
-144.531	19.805	0.065	0.051
-143.516	-200.000	0.034	0.196
-142.502	82.414	0.083	0.088
-141.487	800.000	0.068	0.186
-140.472	800.000	-0.052	0.167
-139.458	-200.000	0.025	0.152
-138.443	87.373	0.151	0.164
-137.429	-15.676	-0.305	0.191
-136.414	105.238	0.068	0.079
-135.399	-67.743	-0.396	-0.152
-134.385	295.062	-0.109	0.196
-133.370	-157.706	0.148	0.009
-132.356	130.783	0.186	-0.234
-131.341	-89.417	0.131	0.038
-130.326	800.000	0.052	0.220
-129.312	800.000	-0.074	-0.272
-128.297	800.000	0.085	-0.269
-127.283	800.000	0.057	-0.237
-126.268	-38.834	-0.171	-0.088
-125.253	42.401	0.199	-0.177
-124.239	272.604	0.066	0.115
-123.224	-84.635	0.137	-0.042
-122.210	284.560	0.034	-0.060
-121.195	-200.000	-0.018	0.192
