DTS Sentinel unit serial number:	SN413079Multiplexer serial number:	ORYXHardware model number:	OX4-SRSoftware version number:	ORYX F/W v4.00 Oryx Data Collector v3.7.2.0data status	okinstallation	princeton_trtdifferential loss correction	single-endedforward channel	channel 1reverse channel	N/Adate	2019/09/15time	20:30:35forward acquisition time	60.00reverse acquisition time	0.00gamma	496.2192k internal	0.2324k external	0.2324temperature offset calibration	0.9960default loss term (dB/km)	0.3790temperature slope calibration	1.0000multiplexer offset coefficient	1.0000multiplexer slope coefficient	1.0000fibre end	0.00T internal ref (°C)	33.42T ext. ref 1 (°C)	7.81T ext. ref 2 (°C)	25.19length (m)	temperature (°C)	Stokes	anti-Stokes-747.200	-200.000	0.027	-0.162
-746.185	-109.154	0.196	-0.042
-745.171	-109.974	-0.307	-0.065
-744.156	-20.074	-0.148	0.092
-743.142	-200.000	-0.027	-0.274
-742.127	359.720	-0.119	-0.240
-741.112	-1.044	0.299	-0.214
-740.098	-77.833	0.112	0.039
-739.083	-200.000	0.008	0.109
-738.069	800.000	-0.094	0.327
-737.054	800.000	0.025	0.096
-736.039	-122.647	-0.356	0.058
-735.025	-41.824	0.226	0.117
-734.010	-200.000	0.002	0.214
-732.996	-180.209	0.189	-0.004
-731.981	85.494	0.050	-0.055
-730.966	369.565	-0.066	-0.135
-729.952	691.750	0.034	0.089
-728.937	-39.078	-0.017	0.009
-727.923	62.145	-0.059	0.060
-726.908	-44.089	-0.248	-0.126
-725.894	800.000	-0.108	-0.354
-724.879	1.624	-0.358	-0.260
-723.864	-118.015	0.085	-0.015
-722.850	207.100	-0.070	0.111
-721.835	401.345	-0.122	-0.257
-720.821	-3.747	-0.146	-0.102
-719.806	-18.271	-0.087	-0.055
-718.791	-200.000	-0.064	-0.342
-717.777	800.000	0.102	-0.287
-716.762	-41.794	0.123	0.064
-715.748	481.821	0.023	0.052
-714.733	9.682	-0.219	-0.168
-713.718	800.000	0.044	-0.183
-712.704	-200.000	0.014	0.193
-711.689	800.000	0.090	-0.326
-710.675	-82.226	-0.161	-0.053
-709.660	84.673	-0.175	-0.194
-708.645	-120.981	-0.298	-0.050
-707.631	-200.000	0.016	-0.186
-706.616	12.796	-0.056	-0.043
-705.602	159.317	0.162	-0.228
-704.587	-89.594	-0.533	0.158
-703.572	-8.622	-0.171	0.116
-702.558	-200.000	0.010	-0.093
-701.543	332.568	-0.027	0.052
-700.529	389.006	0.115	0.240
-699.514	20.393	0.386	-0.314
-698.499	512.232	0.104	-0.245
-697.485	422.368	-0.090	-0.194
-696.470	-200.000	-0.013	-0.068
-695.456	-5.258	-0.262	0.182
-694.441	800.000	-0.079	-0.249
-693.426	-106.939	0.082	0.018
-692.412	-50.964	0.197	0.093
-691.397	-200.000	-0.238	0.000
-690.383	-200.000	-0.016	-0.215
-689.368	26.128	0.275	-0.231
-688.354	47.605	-0.160	-0.150
-687.339	-108.224	-0.215	-0.047
-686.324	105.826	-0.081	0.096
-685.310	115.195	0.174	-0.214
-684.295	-48.132	0.099	-0.048
-683.281	-188.542	0.192	-0.002
-682.266	329.376	0.054	-0.106
-681.251	367.847	0.116	0.237
-680.237	265.367	0.106	-0.186
-679.222	-200.000	-0.016	-0.219
-678.208	89.892	-0.080	-0.090
-677.193	134.250	0.112	0.146
-676.178	184.398	0.179	-0.267
-675.164	-29.462	0.168	0.097
-674.149	21.288	-0.108	0.089
-673.135	-200.000	-0.004	0.100
-672.120	-99.809	0.336	0.085
-671.105	-45.607	-0.326	0.162
-670.091	330.533	-0.141	0.272
-669.076	663.500	0.105	-0.272
-668.062	-81.227	-0.147	-0.049
-667.047	17.896	0.114	-0.092
-666.032	-34.914	-0.331	-0.182
-665.018	229.659	-0.134	-0.220
-664.003	-100.368	-0.424	0.106
-662.989	205.808	-0.113	0.177
-661.974	335.212	0.085	-0.165
-660.959	-91.240	0.090	-0.026
-659.945	-121.048	0.294	-0.050
-658.930	-200.000	-0.021	-0.190
-657.916	-14.549	0.158	0.102
-656.901	-114.272	-0.225	0.044
-655.886	566.094	0.146	0.356
-654.872	-53.693	-0.126	-0.058
-653.857	-79.874	-0.072	-0.024
-652.843	-33.592	-0.144	0.080
-651.828	-47.939	-0.347	-0.169
-650.814	86.132	-0.229	-0.253
-649.799	-66.364	0.169	-0.068
-648.784	266.804	-0.143	0.251
-647.770	169.779	-0.142	-0.204
-646.755	-200.000	0.013	0.321
-645.741	-125.153	-0.354	0.055
-644.726	102.539	0.067	0.078
-643.711	-56.713	-0.061	0.027
-642.697	309.270	0.097	-0.182
-641.682	-108.500	-0.208	0.045
-640.668	121.878	0.142	0.178
-639.653	-160.981	-0.191	-0.010
-638.638	-45.312	0.112	-0.056
-637.624	800.000	0.032	0.138
-636.609	-49.977	0.241	-0.115
-635.595	235.795	0.143	0.238
-634.580	800.000	-0.013	0.040
-633.565	-93.563	0.230	0.064
-632.551	-77.681	-0.130	-0.045
-631.536	-160.975	-0.068	-0.004
-630.522	34.791	0.418	-0.368
-629.507	341.803	-0.080	-0.157
-628.492	-200.000	0.008	0.173
-627.478	104.174	-0.025	-0.030
-626.463	-126.110	0.189	0.028
-625.449	-85.295	0.147	0.046
-624.434	222.412	0.119	-0.192
-623.419	-25.692	-0.236	-0.140
-622.405	-65.269	0.216	0.087
-621.390	35.686	0.148	-0.131
-620.376	-200.000	-0.003	0.041
-619.361	-55.102	-0.216	-0.098
-618.346	702.631	-0.122	-0.323
-617.332	-91.558	-0.168	0.048
-616.317	-200.000	0.058	0.284
-615.303	-200.000	0.025	-0.236
-614.288	81.339	-0.217	-0.235
-613.273	-41.011	-0.241	0.125
-612.259	94.680	-0.108	0.124
-611.244	136.776	-0.047	0.062
-610.230	-200.000	-0.019	0.154
-609.215	-100.478	-0.286	0.071
-608.201	24.242	-0.264	-0.219
-607.186	-87.806	-0.098	-0.030
-606.171	464.696	0.058	0.131
-605.157	189.441	0.253	0.382
-604.142	800.000	0.082	-0.269
-603.128	206.353	0.047	0.073
-602.113	-101.635	0.281	0.068
-601.098	-86.601	-0.046	0.014
-600.084	-10.748	0.194	0.129
-599.069	-176.211	-0.107	-0.003
-598.055	-200.000	0.010	-0.211
-597.040	-31.659	-0.023	0.013
-596.025	184.393	-0.246	-0.366
-595.011	41.366	-0.148	0.135
-593.996	50.176	0.127	-0.120
-592.982	-166.447	0.141	0.006
-591.967	47.562	0.109	0.102
-590.952	-38.974	-0.338	0.178
-589.938	800.000	-0.083	0.296
-588.923	-7.642	-0.236	0.160
-587.909	20.263	-0.171	-0.139
-586.894	-111.232	0.103	-0.021
-585.879	-67.740	0.083	-0.033
-584.865	-67.697	-0.217	-0.085
-583.850	216.558	-0.228	-0.364
-582.836	-13.612	-0.265	0.172
-581.821	120.184	-0.088	0.109
-580.806	-83.884	0.207	-0.066
-579.792	-139.647	0.485	-0.052
-578.777	-109.866	0.238	0.050
-577.763	800.000	-0.090	0.315
-576.748	-200.000	0.005	-0.073
-575.733	-62.171	-0.284	-0.119
-574.719	-38.248	0.294	-0.156
-573.704	800.000	-0.021	0.080
-572.690	-200.000	0.007	0.246
-571.675	241.028	0.066	-0.110
-570.661	73.193	-0.144	0.151
-569.646	449.897	-0.132	0.292
-568.631	330.608	-0.065	0.125
-567.617	-200.000	-0.017	-0.149
-566.602	126.880	0.085	-0.108
-565.588	-27.813	0.199	-0.115
-564.573	-200.000	0.004	0.125
-563.558	-127.413	0.414	0.060
-562.544	-6.635	-0.116	0.079
-561.529	-108.505	0.126	0.027
-560.515	28.575	-0.256	-0.217
-559.500	311.524	0.147	-0.277
-558.485	220.653	0.237	-0.380
-557.471	-200.000	-0.012	0.211
-556.456	175.948	0.130	0.189
-555.442	-143.609	-0.162	-0.015
-554.427	425.415	0.053	-0.115
-553.412	-87.750	-0.158	0.048
-552.398	-108.342	-0.465	-0.100
-551.383	122.698	0.198	0.248
-550.369	412.979	-0.163	-0.348
-549.354	-200.000	0.015	0.131
-548.339	-200.000	0.005	0.522
-547.325	-110.904	0.256	-0.053
-546.310	-0.931	-0.057	0.041
-545.296	74.637	-0.280	0.295
-544.281	-37.271	-0.290	0.156
-543.266	-136.826	0.127	0.015
-542.252	23.167	0.206	0.169
-541.237	-200.000	0.028	-0.245
-540.223	-24.055	0.027	-0.016
-539.208	-77.294	-0.350	-0.122
-538.193	5.517	-0.116	-0.085
-537.179	47.742	-0.213	0.199
-536.164	30.579	-0.260	0.222
-535.150	-200.000	0.068	-0.445
-534.135	438.834	0.029	0.064
-533.121	-155.881	-0.186	0.012
-532.106	295.998	0.017	-0.032
-531.091	-158.724	-0.313	-0.018
-530.077	608.127	0.147	-0.368
-529.062	74.422	0.041	-0.043
-528.048	104.964	-0.108	0.127
-527.033	-200.000	-0.016	0.123
-526.018	-200.000	-0.001	0.070
-525.004	-138.649	-0.381	-0.042
-523.989	-40.450	0.331	-0.172
-522.975	-18.745	-0.175	0.109
-521.960	-20.188	0.107	0.066
-520.945	-68.954	-0.118	0.045
-519.931	-68.108	-0.123	0.048
-518.916	307.135	-0.087	-0.162
-517.902	-101.459	0.147	0.036
-516.887	-24.859	-0.236	0.141
-515.872	-49.439	0.143	-0.068
-514.858	50.721	-0.119	-0.112
-513.843	-88.207	-0.176	0.053
-512.829	-41.958	-0.119	-0.061
-511.814	-152.707	0.323	0.023
-510.799	70.892	-0.076	0.079
-509.785	154.262	-0.082	-0.113
-508.770	15.037	0.082	0.064
-507.756	-15.915	0.325	0.207
-506.741	318.442	0.164	-0.310
-505.726	48.880	-0.128	0.120
-504.712	309.848	-0.123	0.230
-503.697	-200.000	-0.035	-0.232
-502.683	40.102	-0.084	0.076
-501.668	-60.759	0.050	0.021
-500.653	-73.924	0.233	-0.084
-499.639	-66.037	0.290	0.116
-498.624	163.480	-0.106	0.149
-497.610	-73.046	0.301	-0.111
-496.595	124.095	0.070	-0.088
-495.581	-200.000	0.058	0.269
-494.566	-200.000	-0.009	-0.318
-493.551	-157.969	-0.229	-0.014
-492.537	800.000	0.065	-0.229
-491.522	26.864	0.142	0.119
-490.508	26.927	0.333	-0.279
-489.493	800.000	-0.087	-0.291
-488.478	800.000	-0.048	-0.168
-487.464	-121.862	0.296	0.049
-486.449	-83.306	0.080	-0.026
-485.435	663.396	0.066	0.170
-484.420	293.343	0.198	0.360
-483.405	-200.000	0.002	-0.425
-482.391	32.113	-0.200	-0.172
-481.376	247.816	0.161	-0.273
-480.362	800.000	-0.021	-0.080
-479.347	-200.000	-0.022	-0.162
-478.332	-52.081	-0.225	0.105
-477.318	42.954	-0.165	-0.150
-476.303	252.295	0.071	0.121
-475.289	-116.060	-0.108	0.020
-474.274	407.438	0.064	0.136
-473.259	-82.788	-0.309	0.100
-472.245	245.191	-0.073	-0.122
-471.230	-2.653	0.213	-0.149
-470.216	-150.670	-0.093	0.007
-469.201	64.626	-0.125	0.126
-468.186	-200.000	-0.033	0.444
-467.172	-143.116	-0.203	0.020
-466.157	15.011	0.234	0.183
-465.143	-200.000	0.098	-0.431
-464.128	-200.000	-0.036	-0.227
-463.113	-200.000	-0.070	-0.337
-462.099	105.646	-0.130	0.154
-461.084	800.000	-0.040	0.147
-460.070	-137.538	0.155	0.017
-459.055	-200.000	0.024	0.166
-458.040	256.057	-0.162	-0.277
-457.026	-72.147	-0.152	0.056
-456.011	69.499	-0.189	0.194
-454.997	159.109	-0.061	-0.085
-453.982	-132.198	0.116	-0.015
-452.968	43.076	0.098	0.089
-451.953	-179.199	0.148	-0.003
-450.938	-58.802	-0.133	0.057
-449.924	-200.000	-0.090	0.447
-448.909	85.393	-0.212	0.233
-447.895	-99.895	-0.181	0.045
-446.880	800.000	-0.038	-0.166
-445.865	-46.405	0.154	-0.075
-444.851	800.000	0.045	0.128
-443.836	-70.371	-0.118	-0.045
-442.822	-52.302	0.091	-0.042
-441.807	-200.000	0.021	0.287
-440.792	800.000	0.033	-0.093
-439.778	-29.997	-0.215	-0.122
-438.763	-53.731	0.333	-0.152
-437.749	-108.359	-0.202	-0.044
-436.734	-144.719	-0.094	0.009
-435.719	690.968	-0.079	0.206
-434.705	-200.000	0.041	-0.211
-433.690	8.818	0.165	0.124
-432.676	-200.000	-0.031	0.138
-431.661	95.044	-0.101	-0.114
-430.646	-43.548	0.151	0.076
-429.632	-78.982	-0.127	0.043
-428.617	-200.000	0.044	0.209
-427.603	-200.000	0.014	0.222
-426.588	-200.000	0.004	-0.122
-425.573	102.019	-0.168	-0.196
-424.559	543.244	0.026	0.062
-423.544	107.928	-0.123	0.146
-422.530	27.225	-0.128	-0.108
-421.515	800.000	-0.072	-0.258
-420.500	-200.000	-0.050	0.371
-419.486	-200.000	0.029	-0.185
-418.471	-200.000	-0.043	-0.291
-417.457	359.100	0.033	0.066
-416.442	-59.769	0.130	0.055
-415.428	77.904	-0.116	-0.123
-414.413	40.791	-0.311	0.280
-413.398	216.536	-0.253	0.401
-412.384	90.682	0.220	0.246
-411.369	-169.672	-0.345	0.012
-410.355	-3.648	-0.197	-0.136
-409.340	39.405	-0.175	0.156
-408.325	224.354	-0.117	-0.189
-407.311	213.400	-0.069	0.108
-406.296	-84.291	0.131	0.041
-405.282	-126.254	-0.087	-0.013
-404.267	-116.629	-0.135	0.025
-403.252	364.704	0.162	-0.325
-402.238	-200.000	-0.081	0.393
-401.223	185.501	-0.167	0.247
-400.209	387.781	0.103	0.212
-399.194	-11.092	0.180	-0.118
-398.179	-24.560	0.238	0.141
-397.165	-200.000	0.001	-0.164
-396.150	-62.608	-0.023	-0.010
-395.136	800.000	0.046	-0.140
-394.121	419.655	-0.040	-0.084
-393.106	205.994	-0.175	0.272
-392.092	-200.000	0.019	0.292
-391.077	-91.879	-0.290	0.082
-390.063	-22.475	0.318	-0.192
-389.048	-24.628	0.111	-0.066
-388.033	800.000	0.016	0.059
-387.019	-132.238	-0.250	-0.032
-386.004	42.468	-0.111	0.101
-384.990	-157.189	0.239	-0.014
-383.975	-0.350	0.225	-0.159
-382.960	328.479	-0.012	-0.024
-381.946	-12.660	0.218	0.142
-380.931	0.225	0.106	0.075
-379.917	-118.759	-0.196	-0.034
-378.902	-153.349	0.439	0.030
-377.888	-126.658	0.108	-0.016
-376.873	469.531	-0.051	0.115
-375.858	34.159	0.129	0.112
-374.844	-182.837	0.440	-0.008
-373.829	-200.000	-0.021	0.171
-372.815	552.505	-0.110	-0.262
-371.800	-200.000	0.011	0.350
-370.785	-200.000	0.015	0.197
-369.771	-200.000	0.058	-0.693
-368.756	-179.283	0.290	-0.006
-367.742	118.992	0.229	-0.282
-366.727	-200.000	-0.002	-0.022
-365.712	217.161	0.149	-0.237
-364.698	46.668	0.021	-0.019
-363.683	-200.000	0.048	-0.289
-362.669	159.582	-0.083	-0.114
-361.654	-32.966	0.246	0.136
-360.639	-200.000	0.011	-0.124
-359.625	-132.120	-0.299	-0.039
-358.610	105.762	0.146	-0.172
-357.596	800.000	0.047	0.145
-356.581	349.817	0.099	0.195
-355.566	800.000	-0.092	0.328
-354.552	252.472	0.040	-0.067
-353.537	718.879	-0.032	-0.085
-352.523	94.232	0.102	0.115
-351.508	56.566	-0.194	-0.188
-350.493	-200.000	0.015	0.156
-349.479	-148.621	-0.262	0.021
-348.464	254.924	-0.179	-0.305
-347.450	-95.050	-0.354	-0.095
-346.435	48.253	0.286	-0.266
-345.420	-200.000	-0.007	-0.231
-344.406	-200.000	0.028	-0.201
-343.391	-120.297	0.297	0.050
-342.377	-16.789	-0.461	0.290
-341.362	-35.522	-0.143	-0.077
-340.348	-138.199	0.092	-0.010
-339.333	-69.655	0.112	-0.043
-338.318	-62.689	-0.268	0.110
-337.304	335.276	0.085	0.164
-336.289	-111.531	0.290	-0.059
-335.275	320.797	0.064	0.121
-334.260	800.000	0.050	0.161
-333.245	6.259	-0.117	0.087
-332.231	-144.795	-0.104	0.009
-331.216	-130.252	0.096	-0.013
-330.202	-200.000	-0.004	-0.071
-329.187	800.000	-0.036	0.128
-328.172	172.299	-0.098	-0.140
-327.158	-104.134	0.088	-0.020
-326.143	77.115	-0.141	0.149
-325.129	106.104	-0.136	-0.160
-324.114	800.000	0.092	-0.293
-323.099	-69.230	-0.427	-0.163
-322.085	-16.681	0.101	-0.064
-321.070	-8.100	-0.143	-0.096
-320.056	-72.932	-0.049	-0.018
-319.041	251.240	0.207	0.350
-318.026	800.000	0.044	0.130
-317.012	-33.855	0.227	-0.124
-315.997	76.058	-0.114	-0.120
-314.983	169.159	-0.113	0.160
-313.968	-148.573	0.282	-0.023
-312.953	-83.141	0.163	-0.052
-311.939	-104.966	-0.331	0.075
-310.924	-76.048	0.234	0.082
-309.910	131.674	-0.050	0.064
-308.895	-12.866	-0.099	-0.064
-307.880	-68.122	0.132	-0.051
-306.866	-59.720	-0.172	0.073
-305.851	-81.761	-0.067	-0.022
-304.837	-175.787	-0.111	0.003
-303.822	-15.637	0.135	0.086
-302.807	800.000	0.057	0.239
-301.793	139.626	-0.079	0.103
-300.778	-92.323	-0.078	-0.022
-299.764	176.434	0.059	-0.084
-298.749	-14.833	0.052	-0.033
-297.735	800.000	0.071	-0.215
-296.720	-107.530	-0.163	0.035
-295.705	-99.372	0.295	0.074
-294.691	-61.488	-0.359	0.150
-293.676	-200.000	0.043	0.439
-292.662	800.000	-0.062	0.194
-291.647	281.872	-0.041	0.073
-290.632	-200.000	0.052	-0.318
-289.618	-125.478	-0.352	-0.053
-288.603	-72.682	0.113	-0.041
-287.589	-73.327	0.070	0.026
-286.574	-41.766	0.390	-0.199
-285.559	257.813	-0.124	-0.212
-284.545	-200.000	-0.019	-0.258
-283.530	-57.540	-0.339	-0.147
-282.516	-87.753	0.236	-0.070
-281.501	342.340	0.016	-0.030
-280.486	139.396	-0.093	0.121
-279.472	205.517	-0.117	0.180
-278.457	-46.741	0.127	-0.062
-277.443	119.187	0.265	0.325
-276.428	-37.624	0.205	-0.108
-275.413	159.574	0.077	-0.106
-274.399	203.326	0.114	-0.175
-273.384	270.512	-0.065	0.113
-272.370	-53.246	-0.049	-0.022
-271.355	111.209	-0.084	0.100
-270.340	-200.000	-0.024	0.315
-269.326	31.292	0.333	-0.283
-268.311	-72.828	0.164	-0.060
-267.297	-200.000	0.042	0.427
-266.282	-200.000	0.061	-0.282
-265.267	85.808	-0.102	-0.112
-264.253	-70.509	0.073	0.027
-263.238	-200.000	0.012	0.196
-262.224	-111.915	-0.139	0.028
-261.209	-85.559	0.026	-0.008
-260.195	-101.581	-0.119	-0.029
-259.180	-58.885	-0.053	-0.023
-258.165	-132.300	0.319	-0.041
-257.151	-16.590	0.100	0.062
-256.136	-200.000	0.019	-0.145
-255.122	-103.258	0.247	0.058
-254.107	800.000	-0.115	-0.454
-253.092	-12.752	-0.315	-0.203
-252.078	-200.000	-0.052	-0.376
-251.063	-200.000	-0.008	0.081
-250.049	-58.258	0.106	0.046
-249.034	153.098	0.220	-0.298
-248.019	-96.984	0.180	0.047
-247.005	264.479	0.110	-0.190
-245.990	-120.639	0.098	0.016
-244.976	-185.789	0.413	-0.006
-243.961	800.000	0.080	0.265
-242.946	-166.465	0.376	0.016
-241.932	800.000	-0.088	0.245
-240.917	-55.832	-0.156	0.069
-239.903	-92.348	-0.306	-0.085
-238.888	748.548	-0.038	0.101
-237.873	-20.414	0.076	0.046
-236.859	117.305	0.101	0.123
-235.844	-48.543	0.187	0.089
-234.830	-36.430	-0.234	-0.125
-233.815	-113.330	0.272	0.053
-232.800	231.813	-0.058	-0.094
-231.786	55.014	0.169	0.161
-230.771	6.447	-0.167	0.123
-229.757	-81.124	0.227	0.074
-228.742	399.857	0.123	-0.256
-227.727	-105.272	0.113	-0.025
-226.713	234.129	-0.187	0.305
-225.698	-2.695	-0.133	0.092
-224.684	363.163	0.115	0.228
-223.669	-126.689	0.393	0.058
-222.655	-25.430	-0.045	-0.026
-221.640	352.719	0.032	-0.062
-220.625	-200.000	0.057	0.369
-219.611	-200.000	0.012	-0.170
-218.596	261.673	0.075	0.129
-217.582	-151.252	-0.183	-0.014
-216.567	152.564	0.154	0.207
-215.552	-200.000	-0.013	0.122
-214.538	256.065	0.120	-0.204
-213.523	800.000	-0.121	0.499
-212.509	-17.543	-0.233	-0.145
-211.494	-200.000	0.051	0.227
-210.479	-38.487	0.219	-0.115
-209.465	231.827	0.279	-0.452
-208.450	689.046	0.074	0.193
-207.436	800.000	0.048	0.204
-206.421	-124.373	0.169	-0.026
-205.406	-60.395	0.307	0.129
-204.392	-24.212	-0.252	-0.149
-203.377	236.875	0.050	0.081
-202.363	800.000	0.013	-0.046
-201.348	-108.553	0.290	0.062
-200.333	-188.811	0.273	-0.003
-199.319	92.985	-0.218	-0.243
-198.304	208.923	0.156	-0.242
-197.290	-155.445	-0.488	-0.031
-196.275	170.379	0.154	-0.218
-195.260	108.049	-0.089	-0.105
-194.246	-163.523	0.275	0.013
-193.231	26.838	-0.025	-0.021
-192.217	27.692	-0.216	-0.180
-191.202	-19.570	0.189	-0.116
-190.187	182.230	-0.116	0.169
-189.173	-79.984	-0.480	0.159
-188.158	-39.150	-0.125	0.065
-187.144	121.725	-0.122	0.151
-186.129	-200.000	-0.015	-0.080
-185.114	15.161	-0.233	-0.180
-184.100	800.000	0.006	-0.018
-183.085	417.033	0.112	-0.235
-182.071	51.841	-0.357	0.336
-181.056	-86.640	-0.106	0.032
-180.042	-40.517	-0.071	-0.036
-179.027	-90.344	0.175	0.050
-178.012	-7.685	0.136	0.091
-176.998	280.861	-0.135	-0.238
-175.983	-124.844	-0.037	0.006
-174.969	800.000	-0.069	-0.258
-173.954	25.587	-0.118	0.097
-172.939	0.926	-0.250	0.177
-171.925	79.766	0.193	-0.205
-170.910	800.000	0.056	0.188
-169.896	-70.244	0.259	-0.097
-168.881	-136.794	-0.145	-0.016
-167.866	237.652	-0.297	0.487
-166.852	433.957	-0.089	-0.191
-165.837	231.820	0.237	-0.384
-164.823	123.820	0.124	0.154
-163.808	-200.000	-0.023	-0.125
-162.793	-117.475	-0.229	-0.041
-161.779	-70.298	-0.175	0.066
-160.764	94.223	-0.134	-0.150
-159.750	-200.000	0.031	0.157
-158.735	217.119	0.135	-0.212
-157.720	-200.000	0.020	-0.134
-156.706	-183.163	0.486	-0.008
-155.691	-200.000	-0.025	-0.398
-154.677	-116.616	-0.114	0.021
-153.662	8.117	0.232	0.172
-152.647	-59.596	0.182	0.077
-151.633	676.878	-0.124	-0.319
-150.618	-9.171	-0.155	0.102
-149.604	18.013	0.330	-0.260
-148.589	256.069	-0.105	-0.179
-147.574	-103.549	-0.095	0.022
-146.560	26.643	0.102	0.084
-145.545	-2.262	-0.104	-0.072
-144.531	52.755	-0.227	-0.214
-143.516	406.808	0.153	-0.320
-142.502	-200.000	-0.022	0.173
-141.487	399.396	0.195	-0.402
-140.472	407.076	0.046	-0.096
-139.458	-137.597	0.315	0.035
-138.443	-103.864	-0.477	-0.110
-137.429	-131.521	0.192	-0.025
-136.414	-66.874	-0.285	0.111
-135.399	-107.240	0.299	0.065
-134.385	-162.120	0.081	-0.004
-133.370	-145.703	0.069	-0.006
-132.356	-200.000	0.016	-0.155
-131.341	16.824	0.159	0.124
-130.326	-200.000	-0.006	0.043
-129.312	309.225	0.222	-0.409
-128.297	119.396	-0.219	0.268
-127.283	-30.554	-0.183	0.102
-126.268	49.093	-0.066	0.061
-125.253	420.851	-0.158	-0.334
-124.239	350.105	0.156	0.305
-123.224	-27.570	-0.082	0.047
-122.210	-137.973	-0.390	-0.043
