DTS Sentinel unit serial number:	SN413079Multiplexer serial number:	ORYXHardware model number:	OX4-SRSoftware version number:	ORYX F/W v4.00 Oryx Data Collector v3.7.2.0data status	okinstallation	princeton_trtdifferential loss correction	single-endedforward channel	channel 1reverse channel	N/Adate	2019/09/16time	23:30:35forward acquisition time	60.00reverse acquisition time	0.00gamma	496.2192k internal	0.2325k external	0.2325temperature offset calibration	0.9956default loss term (dB/km)	0.3790temperature slope calibration	1.0000multiplexer offset coefficient	1.0000multiplexer slope coefficient	1.0000fibre end	0.00T internal ref (°C)	29.87T ext. ref 1 (°C)	0.09T ext. ref 2 (°C)	23.59length (m)	temperature (°C)	Stokes	anti-Stokes-747.200	-200.000	0.033	0.265
-746.185	-200.000	-0.003	0.086
-745.171	-200.000	0.006	0.305
-744.156	74.830	-0.155	0.164
-743.142	-105.478	-0.175	-0.040
-742.127	-147.612	0.110	-0.009
-741.112	-62.908	0.364	0.152
-740.098	-36.915	-0.204	0.111
-739.083	-183.869	-0.133	-0.002
-738.069	-92.788	-0.056	0.016
-737.054	318.545	0.192	0.367
-736.039	-68.223	-0.215	0.084
-735.025	-200.000	-0.022	0.246
-734.010	-123.445	0.187	0.030
-732.996	98.342	-0.027	-0.031
-731.981	120.191	-0.131	-0.164
-730.966	-84.703	-0.218	0.069
-729.952	-12.647	-0.094	0.062
-728.937	-200.000	0.277	0.001
-727.923	-90.702	-0.331	0.097
-726.908	46.413	0.053	0.050
-725.894	107.118	0.255	0.305
-724.879	130.961	-0.149	-0.192
-723.864	-158.965	-0.150	-0.009
-722.850	-200.000	0.011	-0.465
-721.835	3.844	-0.159	-0.117
-720.821	91.219	0.036	-0.041
-719.806	-200.000	-0.021	-0.163
-718.791	-124.547	-0.433	-0.068
-717.777	-200.000	0.003	0.145
-716.762	-200.000	0.012	0.339
-715.748	22.328	-0.186	-0.153
-714.733	-200.000	-0.004	-0.191
-713.718	134.606	0.164	-0.214
-712.704	800.000	0.067	0.197
-711.689	-54.388	-0.212	-0.097
-710.675	-28.443	-0.147	0.085
-709.660	-200.000	0.027	0.167
-708.645	-13.306	-0.194	0.127
-707.631	-44.394	0.245	-0.123
-706.616	-26.756	-0.139	-0.082
-705.602	-111.309	-0.252	-0.052
-704.587	-39.980	0.201	-0.106
-703.572	-30.929	0.166	0.095
-702.558	-168.292	-0.179	0.007
-701.543	144.726	0.159	-0.214
-700.529	-200.000	0.012	0.110
-699.514	90.787	0.063	0.071
-698.499	-93.529	-0.558	0.155
-697.485	-200.000	-0.046	-0.209
-696.470	3.342	-0.095	0.070
-695.456	-1.739	0.124	0.088
-694.441	-9.312	-0.160	-0.107
-693.426	-200.000	-0.025	-0.267
-692.412	5.822	-0.268	0.200
-691.397	-108.400	-0.194	0.042
-690.383	-45.307	-0.166	-0.083
-689.368	-109.694	0.162	-0.034
-688.354	-42.935	-0.131	-0.067
-687.339	-137.029	-0.047	0.005
-686.324	407.988	0.151	-0.321
-685.310	-200.000	0.018	-0.291
-684.295	-18.071	0.217	-0.137
-683.281	110.893	0.101	-0.122
-682.266	441.945	0.102	0.226
-681.251	800.000	-0.021	0.075
-680.237	269.959	0.113	-0.200
-679.222	800.000	-0.051	-0.213
-678.208	14.615	0.147	-0.116
-677.193	121.404	-0.066	-0.082
-676.178	-24.979	-0.182	0.109
-675.164	-76.872	0.245	0.086
-674.149	-129.683	-0.381	0.053
-673.135	-105.212	-0.264	0.061
-672.120	-81.428	0.270	0.090
-671.105	-116.828	-0.563	-0.104
-670.091	484.845	0.066	-0.152
-669.076	-95.309	0.187	0.050
-668.062	256.645	0.060	0.103
-667.047	362.192	-0.113	-0.228
-666.032	95.840	-0.067	-0.077
-665.018	-71.812	-0.430	-0.161
-664.003	800.000	0.134	0.502
-662.989	-200.000	0.037	-0.166
-661.974	83.665	-0.062	-0.068
-660.959	-30.555	-0.079	-0.045
-659.945	300.573	0.098	-0.181
-658.930	355.738	0.029	-0.058
-657.916	-200.000	-0.049	-0.351
-656.901	-40.629	-0.166	0.087
-655.886	-92.130	0.162	0.046
-654.872	206.080	-0.084	-0.131
-653.857	-91.503	0.248	0.071
-652.843	-13.220	-0.236	-0.154
-651.828	-137.954	0.168	-0.019
-650.814	-200.000	0.000	0.063
-649.799	-192.673	0.285	0.003
-648.784	-153.235	-0.326	0.023
-647.770	342.009	0.136	-0.266
-646.755	-35.731	0.285	-0.155
-645.741	-200.000	0.035	-0.389
-644.726	-112.450	-0.167	-0.034
-643.711	-89.869	-0.417	-0.122
-642.697	-84.314	-0.221	-0.070
-641.682	63.757	0.087	0.088
-640.668	91.911	-0.260	-0.294
-639.653	800.000	0.051	0.147
-638.638	164.563	0.150	-0.213
-637.624	719.481	-0.041	-0.110
-636.609	-187.694	-0.267	-0.004
-635.595	377.940	0.082	-0.168
-634.580	800.000	0.018	0.059
-633.565	-109.463	-0.151	0.032
-632.551	-200.000	-0.013	0.148
-631.536	-30.010	-0.217	0.124
-630.522	-41.796	-0.290	0.149
-629.507	-113.570	0.077	0.015
-628.492	800.000	-0.048	0.209
-627.478	-117.070	0.144	-0.026
-626.463	-30.385	-0.186	0.106
-625.449	39.717	0.394	-0.355
-624.434	-23.650	0.208	-0.125
-623.419	228.664	0.056	-0.092
-622.405	-141.338	-0.259	0.026
-621.390	-1.447	-0.092	0.065
-620.376	234.884	0.176	-0.292
-619.361	-59.303	-0.272	0.118
-618.346	124.657	0.181	-0.229
-617.332	-173.016	0.169	-0.005
-616.317	361.000	-0.122	0.246
-615.303	30.391	0.234	0.201
-614.288	378.297	-0.075	-0.154
-613.273	-103.392	0.204	0.048
-612.259	63.036	0.142	-0.143
-611.244	290.733	-0.146	-0.266
-610.230	-156.035	-0.341	0.022
-609.215	71.209	-0.265	-0.276
-608.201	33.979	-0.315	-0.276
-607.186	242.357	0.108	-0.182
-606.171	422.475	-0.059	-0.126
-605.157	-200.000	-0.004	0.095
-604.142	-200.000	0.070	0.416
-603.128	-90.052	0.378	-0.110
-602.113	17.761	-0.136	-0.109
-601.098	-200.000	-0.020	-0.111
-600.084	-200.000	0.012	-0.187
-599.069	-152.845	-0.131	0.009
-598.055	62.762	-0.189	-0.190
-597.040	34.697	-0.141	-0.124
-596.025	39.293	0.049	0.044
-595.011	1.305	-0.123	0.089
-593.996	800.000	0.015	-0.043
-592.982	800.000	0.079	-0.290
-591.967	10.010	-0.066	-0.051
-590.952	-70.729	0.133	-0.050
-589.938	141.385	-0.117	0.156
-588.923	-200.000	0.003	-0.033
-587.909	-139.311	-0.208	0.022
-586.894	10.189	-0.036	-0.027
-585.879	-109.534	0.285	0.060
-584.865	-200.000	0.076	0.335
-583.850	-8.196	-0.213	0.144
-582.836	-46.457	0.159	0.078
-581.821	-104.692	0.198	-0.046
-580.806	-127.470	0.079	-0.011
-579.792	800.000	-0.082	-0.354
-578.777	390.957	0.078	0.162
-577.763	-114.075	-0.062	-0.012
-576.748	-200.000	0.036	-0.189
-575.733	-100.400	-0.263	-0.065
-574.719	16.756	0.132	0.104
-573.704	800.000	-0.117	-0.364
-572.690	-59.201	0.251	-0.109
-571.675	46.972	-0.062	-0.058
-570.661	-115.276	0.152	-0.029
-569.646	-113.364	-0.285	-0.056
-568.631	-200.000	0.034	0.150
-567.617	186.747	0.127	-0.190
-566.602	307.791	0.117	0.219
-565.588	-74.579	-0.147	0.053
-564.573	236.570	-0.129	0.214
-563.558	134.393	-0.100	-0.130
-562.544	55.564	-0.083	-0.081
-561.529	-200.000	-0.008	0.049
-560.515	1.364	-0.190	-0.137
-559.500	-14.001	-0.036	-0.023
-558.485	-101.354	0.099	-0.024
-557.471	17.001	-0.147	0.117
-556.456	-200.000	0.011	0.104
-555.442	-163.932	0.470	-0.022
-554.427	-144.961	0.163	-0.015
-553.412	-48.857	-0.413	-0.198
-552.398	307.332	0.028	-0.052
-551.383	130.384	0.168	0.215
-550.369	-129.362	-0.152	0.021
-549.354	-111.657	0.494	0.100
-548.339	206.728	-0.203	0.317
-547.325	-58.748	0.306	-0.133
-546.310	311.925	0.111	-0.209
-545.296	146.764	0.071	0.095
-544.281	-33.938	0.140	-0.077
-543.266	-78.730	-0.196	0.067
-542.252	255.476	-0.035	0.060
-541.237	134.835	0.146	-0.189
-540.223	286.149	-0.149	0.270
-539.208	57.214	0.264	0.258
-538.193	800.000	0.155	0.439
-537.179	-153.840	-0.133	0.009
-536.164	-182.960	-0.222	0.004
-535.150	-200.000	0.006	-0.084
-534.135	800.000	0.080	-0.247
-533.121	4.678	-0.198	0.146
-532.106	133.378	0.073	-0.095
-531.091	800.000	0.042	-0.130
-530.077	-200.000	0.018	-0.279
-529.062	-22.950	-0.389	-0.235
-528.048	-34.184	0.045	-0.025
-527.033	-200.000	-0.009	0.120
-526.018	172.030	-0.108	0.155
-525.004	-200.000	-0.000	0.083
-523.989	9.481	-0.117	0.089
-522.975	543.608	0.094	-0.225
-521.960	-117.085	-0.171	-0.031
-520.945	-90.221	0.309	0.090
-519.931	-127.616	-0.124	-0.018
-518.916	436.116	0.099	0.215
-517.902	56.690	-0.037	-0.036
-516.887	-173.917	-0.202	0.006
-515.872	800.000	-0.086	0.267
-514.858	-77.072	0.207	-0.072
-513.843	66.396	0.102	-0.104
-512.829	-109.760	0.050	0.011
-511.814	-49.320	0.175	-0.084
-510.799	-200.000	0.006	-0.103
-509.785	800.000	-0.052	-0.180
-508.770	-3.827	-0.157	0.109
-507.756	146.749	-0.262	-0.352
-506.741	71.776	-0.262	-0.273
-505.726	-129.414	0.275	-0.038
-504.712	-149.525	-0.213	-0.017
-503.697	-200.000	-0.009	0.285
-502.683	-125.735	-0.155	0.023
-501.668	-176.563	0.126	0.003
-500.653	167.528	0.306	0.435
-499.639	-75.904	-0.278	0.098
-498.624	225.489	0.196	-0.317
-497.610	281.243	0.153	-0.273
-496.595	116.114	-0.090	-0.110
-495.581	-200.000	0.013	0.116
-494.566	-134.519	-0.470	-0.057
-493.551	182.338	0.216	0.318
-492.537	145.570	-0.060	-0.080
-491.522	-142.162	0.188	0.019
-490.508	-52.304	-0.171	-0.079
-489.493	-90.170	0.137	-0.040
-488.478	800.000	0.057	-0.202
-487.464	-200.000	0.051	0.272
-486.449	-27.961	-0.365	-0.211
-485.435	800.000	-0.074	0.263
-484.420	-49.765	-0.017	0.008
-483.405	206.639	-0.029	-0.045
-482.391	176.767	0.045	-0.065
-481.376	-200.000	0.000	0.044
-480.362	-83.282	-0.086	-0.027
-479.347	-200.000	-0.027	0.259
-478.332	-55.053	0.034	0.015
-477.318	249.879	0.134	0.227
-476.303	-200.000	0.035	0.167
-475.289	36.044	-0.085	-0.075
-474.274	-131.627	0.191	-0.025
-473.259	113.824	-0.143	0.174
-472.245	86.277	-0.248	0.273
-471.230	-172.093	0.155	0.005
-470.216	-200.000	-0.015	-0.211
-469.201	115.417	0.181	-0.221
-468.186	255.098	0.073	-0.126
-467.172	-51.402	-0.168	0.078
-466.157	800.000	0.051	0.194
-465.143	7.288	0.163	-0.121
-464.128	-69.124	0.380	-0.146
-463.113	19.571	0.074	-0.059
-462.099	10.000	0.088	-0.067
-461.084	-134.520	-0.122	-0.015
-460.070	-200.000	-0.004	-0.088
-459.055	75.391	0.247	-0.260
-458.040	-24.387	0.064	-0.038
-457.026	-160.864	0.156	-0.008
-456.011	258.849	-0.068	-0.118
-454.997	800.000	0.071	0.264
-453.982	-200.000	-0.035	0.189
-452.968	-122.147	-0.508	-0.083
-451.953	-200.000	-0.015	0.134
-450.938	800.000	0.006	-0.022
-449.924	-200.000	-0.002	-0.217
-448.909	-200.000	0.024	0.271
-447.895	56.634	0.124	0.120
-446.880	9.042	-0.209	-0.157
-445.865	154.623	-0.072	0.099
-444.851	65.593	-0.043	0.043
-443.836	-75.397	-0.214	0.076
-442.822	70.514	0.359	0.371
-441.807	-200.000	-0.073	-0.371
-440.792	342.122	-0.057	0.111
-439.778	0.352	0.127	-0.090
-438.763	124.234	-0.183	-0.229
-437.749	-169.345	0.227	0.008
-436.734	414.252	-0.168	0.358
-435.719	22.676	0.150	0.122
-434.705	204.564	-0.122	-0.189
-433.690	800.000	0.077	-0.328
-432.676	-200.000	0.021	-0.110
-431.661	-34.965	0.093	0.050
-430.646	-200.000	0.012	0.406
-429.632	-23.583	-0.206	0.123
-428.617	-40.469	-0.205	0.106
-427.603	12.084	0.310	-0.238
-426.588	-191.198	-0.279	-0.003
-425.573	110.797	0.110	0.132
-424.559	17.861	0.177	-0.140
-423.544	-200.000	-0.019	0.209
-422.530	-104.825	-0.228	-0.052
-421.515	-73.895	0.159	-0.058
-420.500	-119.169	-0.083	-0.014
-419.486	800.000	0.015	-0.048
-418.471	108.268	-0.131	0.156
-417.457	151.948	-0.138	-0.188
-416.442	-118.122	0.244	0.043
-415.428	-110.736	0.207	-0.043
-414.413	800.000	0.025	-0.090
-413.398	-24.235	-0.379	0.225
-412.384	-54.657	0.035	-0.016
-411.369	-25.022	0.103	0.061
-410.355	60.997	-0.066	0.065
-409.340	69.189	0.160	-0.164
-408.325	-59.272	-0.058	0.025
-407.311	-14.057	0.095	0.061
-406.296	457.037	-0.101	-0.224
-405.282	-86.603	-0.089	0.027
-404.267	7.145	-0.072	-0.053
-403.252	-200.000	0.004	0.047
-402.238	-200.000	0.029	-0.151
-401.223	66.323	0.215	0.217
-400.209	-103.016	-0.138	0.033
-399.194	-51.979	0.419	0.194
-398.179	-5.889	0.120	-0.082
-397.165	-200.000	-0.113	-0.506
-396.150	425.315	0.068	0.145
-395.136	588.397	-0.119	0.291
-394.121	800.000	-0.060	-0.188
-393.106	-27.328	0.082	0.048
-392.092	240.880	-0.075	-0.125
-391.077	-53.229	-0.055	0.025
-390.063	38.953	0.131	-0.117
-389.048	181.887	0.085	0.125
-388.033	41.417	-0.134	0.121
-387.019	-78.681	-0.335	0.114
-386.004	-30.840	-0.095	-0.053
-384.990	-72.597	0.039	0.014
-383.975	-59.743	-0.245	0.104
-382.960	700.804	-0.103	0.269
-381.946	123.019	-0.171	0.213
-380.931	232.754	-0.026	-0.043
-379.917	-200.000	-0.003	0.190
-378.902	104.231	-0.107	-0.125
-377.888	800.000	-0.025	0.102
-376.873	-14.097	0.034	-0.022
-375.858	372.063	-0.052	0.105
-374.844	-108.442	0.253	0.054
-373.829	-14.388	0.022	0.014
-372.815	-32.333	0.452	0.251
-371.800	-2.372	-0.266	-0.185
-370.785	-9.806	0.075	-0.050
-369.771	800.000	-0.060	-0.215
-368.756	141.270	0.141	0.186
-367.742	-200.000	-0.015	-0.103
-366.727	19.430	-0.259	0.207
-365.712	-42.145	0.180	0.091
-364.698	32.720	0.288	-0.248
-363.683	-123.900	-0.163	-0.026
-362.669	-25.027	0.146	0.086
-361.654	508.980	0.140	0.324
-360.639	-150.349	-0.190	0.015
-359.625	368.272	0.176	-0.353
-358.610	-122.772	-0.159	-0.025
-357.596	-48.660	0.114	0.055
-356.581	800.000	0.033	-0.145
-355.566	-38.864	-0.224	-0.117
-354.552	-18.782	0.053	0.033
-353.537	-200.000	0.003	-0.233
-352.523	800.000	0.063	0.184
-351.508	-200.000	-0.015	0.106
-350.493	-72.265	0.078	0.029
-349.479	-33.189	0.202	0.111
-348.464	266.012	-0.102	0.178
-347.450	-39.436	-0.347	-0.181
-346.435	-26.532	-0.044	0.026
-345.420	-130.983	0.286	0.038
-344.406	-113.147	-0.173	0.034
-343.391	418.357	-0.098	-0.207
-342.377	-200.000	-0.071	-0.375
-341.362	144.627	-0.058	0.076
-340.348	98.414	-0.102	0.117
-339.333	-200.000	-0.014	-0.265
-338.318	150.176	-0.064	0.086
-337.304	227.030	-0.058	0.094
-336.289	-32.836	0.128	-0.071
-335.275	-125.972	0.118	-0.018
-334.260	800.000	0.032	0.115
-333.245	-80.769	-0.132	-0.044
-332.231	-200.000	-0.036	-0.167
-331.216	-36.472	-0.282	-0.151
-330.202	5.660	0.418	0.307
-329.187	-9.017	-0.338	0.225
-328.172	59.581	-0.227	0.223
-327.158	800.000	0.045	0.132
-326.143	-8.695	-0.109	-0.073
-325.129	571.610	0.057	-0.137
-324.114	-127.785	0.172	0.025
-323.099	-95.200	0.233	-0.062
-322.085	208.352	0.279	0.432
-321.070	-55.342	-0.250	-0.111
-320.056	127.304	0.048	0.060
-319.041	-118.087	0.270	0.048
-318.026	800.000	0.027	-0.080
-317.012	-200.000	-0.027	-0.228
-315.997	-200.000	-0.036	0.249
-314.983	11.588	-0.128	-0.098
-313.968	114.242	-0.063	0.076
-312.953	669.878	-0.023	0.058
-311.939	-200.000	-0.012	-0.115
-310.924	-58.710	0.290	-0.125
-309.910	-30.775	0.064	-0.036
-308.895	-99.838	-0.280	-0.069
-307.880	-200.000	0.021	0.200
-306.866	343.470	-0.110	-0.213
-305.851	-92.466	-0.325	-0.091
-304.837	20.202	0.161	-0.129
-303.822	-200.000	0.031	0.246
-302.807	394.659	-0.033	0.068
-301.793	495.787	-0.049	-0.112
-300.778	-64.256	-0.196	-0.079
-299.764	620.778	0.053	0.133
-298.749	271.581	-0.102	0.178
-297.735	36.155	0.052	0.046
-296.720	-200.000	0.005	-0.408
-295.705	427.708	0.137	-0.293
-294.691	-84.749	-0.038	0.012
-293.676	206.256	-0.170	-0.263
-292.662	230.203	0.244	0.396
-291.647	800.000	0.109	0.302
-290.632	-37.482	0.283	0.150
-289.618	-81.088	-0.228	-0.075
-288.603	-200.000	-0.014	0.063
-287.589	85.966	-0.082	0.089
-286.574	10.694	0.146	0.110
-285.559	533.204	0.154	0.362
-284.545	-51.049	0.097	0.045
-283.530	103.585	0.109	0.127
-282.516	-200.000	-0.009	0.186
-281.501	-97.496	-0.310	-0.080
-280.486	-200.000	0.021	-0.163
-279.472	800.000	0.084	-0.315
-278.457	146.766	-0.011	0.014
-277.443	242.396	0.088	-0.146
-276.428	-86.496	0.120	0.036
-275.413	-200.000	0.005	-0.248
-274.399	-200.000	-0.023	-0.177
-273.384	485.407	0.099	-0.224
-272.370	-43.002	-0.164	0.082
-271.355	-29.853	0.104	0.059
-270.340	-100.240	0.203	-0.050
-269.326	-170.203	0.287	-0.010
-268.311	-60.525	0.184	-0.077
-267.297	-53.521	0.167	0.076
-266.282	-91.996	-0.134	0.038
-265.267	323.151	0.061	-0.114
-264.253	-200.000	0.018	-0.254
-263.238	213.559	0.148	0.232
-262.224	514.124	0.066	-0.153
-261.209	89.518	0.252	0.279
-260.195	23.226	-0.277	0.225
-259.180	276.797	0.113	0.199
-258.165	-177.949	-0.265	-0.006
-257.151	-200.000	0.020	0.337
-256.136	102.547	-0.103	0.120
-255.122	-73.679	-0.142	-0.051
-254.107	188.105	0.099	-0.147
-253.092	-90.633	0.117	0.034
-252.078	31.605	0.080	0.068
-251.063	-90.072	0.397	-0.115
-250.049	-31.457	0.174	-0.097
-249.034	-16.894	0.342	-0.214
-248.019	-200.000	-0.023	0.188
-247.005	-200.000	-0.000	0.131
-245.990	-200.000	-0.011	-0.352
-244.976	13.805	0.081	-0.062
-243.961	172.379	-0.052	-0.074
-242.946	45.346	0.089	0.082
-241.932	800.000	-0.077	-0.254
-240.917	391.113	0.051	-0.104
-239.903	319.169	0.150	0.281
-238.888	92.267	-0.120	-0.133
-237.873	-200.000	-0.012	0.073
-236.859	-109.358	0.070	0.015
-235.844	184.457	0.219	0.321
-234.830	-180.298	-0.174	0.004
-233.815	22.940	-0.269	0.218
-232.800	-144.340	0.154	0.014
-231.786	800.000	-0.061	-0.219
-230.771	65.265	0.165	-0.165
-229.757	58.891	-0.004	-0.003
-228.742	28.328	-0.164	0.137
-227.727	189.828	-0.236	-0.350
-226.713	800.000	-0.052	0.214
-225.698	-57.940	-0.424	0.183
-224.684	593.183	-0.185	0.451
-223.669	-200.000	-0.006	0.048
-222.655	-76.439	0.200	0.069
-221.640	-16.853	-0.200	-0.125
-220.625	738.420	0.093	0.248
-219.611	-90.396	0.181	-0.052
-218.596	77.352	-0.241	-0.253
-217.582	-71.405	0.412	0.153
-216.567	-119.883	-0.254	-0.043
-215.552	205.503	-0.176	0.270
-214.538	-66.732	0.070	0.027
-213.523	-200.000	0.072	-0.346
-212.509	-60.067	-0.301	-0.127
-211.494	-33.811	0.340	-0.185
-210.479	-92.904	0.137	0.038
-209.465	163.016	-0.036	0.050
-208.450	-144.845	-0.128	-0.012
-207.436	-0.868	0.357	0.250
-206.421	-146.134	0.283	-0.025
-205.406	-200.000	-0.003	-0.344
-204.392	-33.595	0.207	-0.113
-203.377	131.538	0.078	0.100
-202.363	215.513	-0.135	0.211
-201.348	66.635	-0.271	0.273
-200.333	146.350	0.099	0.131
-199.319	-93.210	-0.211	-0.058
-198.304	19.864	0.077	-0.061
-197.290	-10.998	0.358	-0.233
-196.275	-200.000	0.011	-0.106
-195.260	-108.843	-0.119	0.025
-194.246	-200.000	-0.006	0.167
-193.231	723.362	-0.045	-0.119
-192.217	151.466	-0.054	0.072
-191.202	111.448	0.179	0.214
-190.187	-127.159	0.034	0.005
-189.173	26.398	-0.069	0.057
-188.158	-111.918	0.157	-0.031
-187.144	133.374	0.092	0.118
-186.129	248.018	-0.091	0.152
-185.114	-122.350	0.351	0.057
-184.100	-86.488	0.101	0.031
-183.085	11.337	-0.083	0.063
-182.071	-111.338	0.148	-0.030
-181.056	184.646	0.110	-0.161
-180.042	327.301	-0.054	-0.101
-179.027	319.104	-0.115	0.215
-178.012	-60.756	0.085	0.035
-176.998	82.226	-0.030	-0.032
-175.983	-200.000	0.033	-0.183
-174.969	317.874	-0.167	0.312
-173.954	74.280	-0.177	-0.183
-172.939	800.000	0.081	-0.237
-171.925	800.000	0.021	0.065
-170.910	247.255	0.072	-0.121
-169.896	-143.791	-0.299	0.028
-168.881	126.850	-0.059	0.074
-167.866	790.964	-0.049	-0.134
-166.852	-60.237	-0.177	-0.075
-165.837	-200.000	0.055	0.253
-164.823	458.520	-0.119	0.260
-163.808	-65.527	-0.342	-0.135
-162.793	-110.765	0.320	0.065
-161.779	-42.544	-0.092	0.046
-160.764	1.508	-0.160	0.113
-159.750	321.296	-0.098	0.184
-158.735	-100.781	0.167	0.040
-157.720	184.468	0.197	-0.288
-156.706	-81.075	-0.201	0.066
-155.691	-200.000	0.013	-0.441
-154.677	-106.557	0.221	-0.049
-153.662	-26.427	-0.328	0.189
-152.647	800.000	-0.060	0.250
-151.633	94.677	0.166	0.186
-150.618	800.000	-0.059	0.194
-149.604	-109.839	-0.456	-0.094
-148.589	27.716	-0.086	-0.072
-147.574	75.020	0.071	0.074
-146.560	-200.000	0.051	0.326
-145.545	-200.000	-0.019	-0.410
-144.531	243.353	0.187	-0.310
-143.516	309.379	0.077	0.141
-142.502	24.969	0.191	0.156
-141.487	-21.104	0.348	0.210
-140.472	-48.740	0.120	0.057
-139.458	-63.709	0.252	-0.102
-138.443	-200.000	-0.045	-0.329
-137.429	800.000	0.099	0.418
-136.414	-200.000	-0.041	0.359
-135.399	34.844	-0.029	0.025
-134.385	52.145	-0.211	-0.198
-133.370	-33.194	0.183	-0.100
-132.356	133.294	-0.190	0.242
-131.341	-128.144	-0.381	0.054
-130.326	17.794	0.121	0.095
-129.312	-137.758	-0.233	0.026
-128.297	234.396	0.144	-0.233
-127.283	46.825	0.094	-0.086
-126.268	188.619	0.019	0.028
-125.253	35.270	0.136	-0.117
-124.239	-198.034	-0.197	0.001
-123.224	110.635	-0.334	-0.395
-122.210	73.327	-0.019	0.019
-121.195	-36.385	-0.248	0.131
