DTS Sentinel unit serial number:	SN413079Multiplexer serial number:	ORYXHardware model number:	OX4-SRSoftware version number:	ORYX F/W v4.00 Oryx Data Collector v3.7.2.0data status	okinstallation	princeton_trtdifferential loss correction	single-endedforward channel	channel 1reverse channel	N/Adate	2019/09/18time	08:18:35forward acquisition time	60.00reverse acquisition time	0.00gamma	496.2192k internal	0.2337k external	0.2337temperature offset calibration	0.9977default loss term (dB/km)	0.3790temperature slope calibration	1.0000multiplexer offset coefficient	1.0000multiplexer slope coefficient	1.0000fibre end	0.00T internal ref (°C)	24.02T ext. ref 1 (°C)	0.21T ext. ref 2 (°C)	19.62length (m)	temperature (°C)	Stokes	anti-Stokes-747.200	18.814	-0.235	-0.189
-746.185	-15.632	0.207	0.133
-745.171	75.958	-0.081	-0.086
-744.156	-167.533	-0.327	0.013
-743.142	-19.725	-0.363	-0.226
-742.127	-148.976	0.254	-0.021
-741.112	800.000	0.071	-0.254
-740.098	96.968	-0.132	-0.151
-739.083	-74.222	0.248	0.090
-738.069	-23.256	0.255	0.154
-737.054	168.052	-0.064	0.091
-736.039	-71.205	-0.341	-0.128
-735.025	156.163	0.037	-0.052
-734.010	-200.000	-0.026	-0.140
-732.996	800.000	-0.081	-0.321
-731.981	-105.971	-0.394	-0.089
-730.966	-200.000	0.035	-0.408
-729.952	122.254	-0.077	-0.097
-728.937	621.581	-0.046	-0.117
-727.923	-200.000	-0.009	0.199
-726.908	-103.989	-0.036	0.008
-725.894	-82.950	-0.420	0.136
-724.879	571.175	-0.056	-0.136
-723.864	135.693	0.052	-0.068
-722.850	-143.166	0.126	0.012
-721.835	-45.810	-0.233	0.115
-720.821	800.000	-0.071	-0.239
-719.806	235.389	0.132	-0.218
-718.791	525.754	0.046	-0.108
-717.777	204.279	0.130	0.202
-716.762	181.081	0.094	-0.138
-715.748	-89.396	-0.493	0.146
-714.733	48.909	-0.057	0.053
-713.718	65.003	-0.207	-0.209
-712.704	-200.000	-0.026	-0.304
-711.689	800.000	-0.026	-0.083
-710.675	-200.000	-0.034	-0.000
-709.660	-155.464	0.312	0.020
-708.645	-49.305	-0.282	-0.135
-707.631	-200.000	-0.014	-0.574
-706.616	201.157	-0.036	-0.056
-705.602	51.591	-0.190	-0.181
-704.587	800.000	0.070	0.260
-703.572	-3.778	-0.210	-0.146
-702.558	398.800	0.060	0.126
-701.543	-64.611	0.192	0.078
-700.529	-17.549	-0.115	0.072
-699.514	-152.705	0.168	-0.012
-698.499	-6.714	-0.109	0.074
-697.485	-200.000	0.013	-0.352
-696.470	-200.000	-0.065	-0.292
-695.456	98.896	0.039	-0.046
-694.441	25.451	0.287	-0.239
-693.426	-200.000	-0.053	-0.459
-692.412	492.005	0.076	0.175
-691.397	73.663	-0.300	0.315
-690.383	-200.000	0.003	-0.173
-689.368	-200.000	0.003	-0.221
-688.354	96.012	-0.142	-0.162
-687.339	33.202	0.116	0.101
-686.324	30.660	-0.070	0.060
-685.310	-17.733	-0.084	-0.053
-684.295	-200.000	0.023	-0.121
-683.281	-119.987	-0.161	0.028
-682.266	95.159	-0.039	0.044
-681.251	80.100	-0.044	-0.047
-680.237	-17.933	-0.344	0.216
-679.222	-134.745	-0.391	-0.048
-678.208	-31.795	0.313	-0.176
-677.193	-5.314	0.240	-0.165
-676.178	678.647	-0.134	0.349
-675.164	800.000	-0.041	-0.135
-674.149	-200.000	-0.061	-0.286
-673.135	62.899	-0.055	-0.055
-672.120	139.107	0.167	-0.220
-671.105	391.276	0.061	0.127
-670.091	-47.907	0.128	-0.062
-669.076	-200.000	-0.030	-0.224
-668.062	-151.616	0.244	0.018
-667.047	-91.973	-0.272	0.077
-666.032	96.212	0.049	-0.056
-665.018	-122.016	-0.378	-0.062
-664.003	-50.575	0.122	0.058
-662.989	234.195	0.146	0.241
-661.974	-28.958	-0.167	0.096
-660.959	-127.971	0.207	0.030
-659.945	-27.996	-0.230	0.133
-658.930	-57.368	-0.255	-0.112
-657.916	-0.630	0.325	-0.231
-656.901	283.218	0.067	-0.121
-655.886	16.453	-0.092	-0.073
-654.872	48.329	-0.132	0.124
-653.857	-116.164	0.123	-0.023
-652.843	11.320	0.164	0.126
-651.828	-42.023	0.144	0.074
-650.814	310.058	-0.087	0.164
-649.799	44.211	-0.166	0.153
-648.784	-200.000	0.005	0.185
-647.770	-98.102	-0.347	-0.089
-646.755	-40.543	0.294	-0.153
-645.741	173.438	-0.159	0.230
-644.726	65.001	-0.064	0.065
-643.711	434.074	0.104	-0.225
-642.697	99.296	0.093	0.107
-641.682	-1.115	0.114	0.080
-640.668	355.620	0.039	0.077
-639.653	257.308	0.052	-0.090
-638.638	205.795	-0.069	0.107
-637.624	-98.391	-0.061	-0.016
-636.609	112.768	0.040	-0.048
-635.595	-151.645	0.351	-0.026
-634.580	-200.000	-0.043	-0.268
-633.565	289.743	0.040	-0.073
-632.551	-200.000	0.050	0.304
-631.536	-200.000	0.046	0.483
-630.522	-200.000	-0.044	-0.203
-629.507	-103.301	-0.282	-0.067
-628.492	-200.000	-0.015	-0.127
-627.478	-200.000	0.016	0.072
-626.463	800.000	-0.065	-0.199
-625.449	800.000	0.050	0.153
-624.434	277.220	-0.197	-0.350
-623.419	184.932	-0.155	-0.230
-622.405	-170.053	0.268	0.010
-621.390	-200.000	-0.004	0.067
-620.376	800.000	-0.030	0.107
-619.361	531.497	-0.069	-0.163
-618.346	480.524	-0.114	0.257
-617.332	145.667	-0.115	0.154
-616.317	-85.342	-0.160	0.050
-615.303	-26.043	-0.293	0.172
-614.288	-39.295	-0.126	-0.066
-613.273	800.000	0.043	0.132
-612.259	223.206	-0.191	0.307
-611.244	-9.648	0.286	0.190
-610.230	353.024	0.122	0.241
-609.215	800.000	-0.067	0.273
-608.201	-200.000	0.002	-0.025
-607.186	-200.000	0.032	-0.180
-606.171	85.125	0.047	0.052
-605.157	188.350	-0.089	0.132
-604.142	47.879	-0.256	0.239
-603.128	-118.993	-0.144	0.025
-602.113	-17.434	0.283	-0.178
-601.098	75.749	0.103	0.109
-600.084	-2.003	-0.156	0.109
-599.069	-76.128	0.246	-0.087
-598.055	800.000	-0.075	0.265
-597.040	296.249	0.039	0.072
-596.025	562.901	0.043	0.105
-595.011	76.891	-0.411	-0.436
-593.996	108.541	0.267	0.318
-592.982	-46.461	-0.103	0.051
-591.967	800.000	0.187	0.538
-590.952	-200.000	-0.026	0.417
-589.938	-101.357	0.085	-0.021
-588.923	-26.380	0.119	0.069
-587.909	231.491	0.117	0.191
-586.894	-200.000	-0.030	-0.205
-585.879	-200.000	0.008	0.074
-584.865	-200.000	0.024	-0.137
-583.850	-16.255	0.299	-0.189
-582.836	-200.000	-0.001	-0.014
-581.821	-200.000	0.039	0.264
-580.806	626.975	0.148	-0.372
-579.792	-55.877	0.175	0.078
-578.777	140.506	0.196	0.259
-577.763	-58.354	-0.340	-0.147
-576.748	132.551	0.228	0.293
-575.733	77.183	0.105	0.111
-574.719	-200.000	-0.002	0.230
-573.704	50.474	-0.136	-0.128
-572.690	-200.000	0.016	-0.366
-571.675	44.749	0.141	0.129
-570.661	280.898	0.109	0.195
-569.646	614.338	0.127	0.318
-568.631	148.242	-0.072	0.097
-567.617	-101.782	-0.454	-0.110
-566.602	-20.789	-0.096	-0.059
-565.588	-200.000	0.035	-0.190
-564.573	605.898	0.075	-0.187
-563.558	276.311	-0.173	0.307
-562.544	235.749	-0.096	0.159
-561.529	211.938	-0.325	-0.511
-560.515	-65.019	0.240	-0.096
-559.500	49.963	-0.314	0.295
-558.485	224.880	0.136	0.220
-557.471	-200.000	0.065	0.327
-556.456	800.000	-0.027	-0.079
-555.442	7.431	0.288	0.215
-554.427	63.054	0.106	-0.106
-553.412	-66.328	0.125	0.049
-552.398	-86.942	-0.332	0.101
-551.383	132.059	-0.110	0.141
-550.369	-1.713	0.042	-0.029
-549.354	277.899	0.090	-0.160
-548.339	800.000	-0.076	-0.305
-547.325	-36.691	0.092	0.049
-546.310	3.976	-0.232	-0.169
-545.296	170.639	-0.270	0.386
-544.281	18.294	-0.122	-0.097
-543.266	-33.016	0.198	0.110
-542.252	-200.000	-0.007	-0.153
-541.237	-200.000	-0.009	0.149
-540.223	29.385	0.203	-0.172
-539.208	-57.135	0.215	-0.094
-538.193	-17.507	0.188	-0.118
-537.179	5.729	-0.350	0.257
-536.164	-41.284	0.227	0.116
-535.150	-10.120	-0.093	0.062
-534.135	152.445	0.381	-0.518
-533.121	-104.537	-0.261	-0.060
-532.106	800.000	0.044	0.125
-531.091	139.037	-0.020	-0.026
-530.077	800.000	0.087	0.300
-529.062	800.000	-0.036	0.120
-528.048	800.000	-0.006	-0.024
-527.033	23.344	-0.116	0.095
-526.018	168.106	0.116	-0.164
-525.004	656.076	-0.069	-0.176
-523.989	-200.000	0.051	-0.282
-522.975	-8.831	-0.209	0.139
-521.960	385.548	0.070	0.144
-520.945	148.437	-0.166	-0.223
-519.931	-155.351	-0.367	-0.024
-518.916	800.000	0.067	0.245
-517.902	-109.893	-0.428	0.089
-516.887	-178.826	0.214	-0.005
-515.872	200.040	-0.235	0.359
-514.858	-200.000	0.006	-0.082
-513.843	3.458	-0.050	0.037
-512.829	-86.499	-0.253	-0.077
-511.814	-98.314	0.250	-0.064
-510.799	43.163	-0.205	-0.186
-509.785	-200.000	-0.041	-0.320
-508.770	-200.000	-0.052	-0.313
-507.756	-133.998	-0.156	0.019
-506.741	-115.752	-0.245	-0.046
-505.726	398.290	0.107	-0.222
-504.712	729.206	0.101	-0.270
-503.697	800.000	-0.119	0.394
-502.683	644.592	0.164	-0.416
-501.668	-74.045	0.348	0.126
-500.653	782.697	0.042	0.115
-499.639	507.764	-0.132	-0.305
-498.624	-5.826	-0.183	0.125
-497.610	160.678	-0.083	0.115
-496.595	-200.000	-0.033	-0.225
-495.581	-47.727	0.140	-0.067
-494.566	-200.000	-0.049	-0.435
-493.551	343.211	-0.154	-0.300
-492.537	800.000	0.019	0.054
-491.522	-178.149	-0.067	-0.002
-490.508	-152.359	-0.097	-0.007
-489.493	-120.580	-0.405	0.068
-488.478	-47.481	0.474	0.229
-487.464	70.362	-0.104	-0.106
-486.449	-200.000	-0.043	-0.289
-485.435	-200.000	0.018	-0.332
-484.420	-200.000	0.034	-0.200
-483.405	-200.000	-0.043	-0.189
-482.391	-58.001	-0.224	0.097
-481.376	62.597	-0.095	0.095
-480.362	-6.368	-0.158	-0.107
-479.347	-9.685	-0.342	-0.226
-478.332	157.044	-0.044	-0.061
-477.318	-112.977	0.335	-0.066
-476.303	-56.296	0.210	0.093
-475.289	66.800	0.087	-0.088
-474.274	30.688	0.175	0.149
-473.259	348.354	-0.177	0.346
-472.245	-200.000	-0.030	-0.317
-471.230	63.326	-0.040	-0.040
-470.216	-55.116	0.054	-0.024
-469.201	-64.981	0.073	-0.029
-468.186	-65.117	-0.227	-0.091
-467.172	-200.000	0.021	0.159
-466.157	-55.319	-0.204	-0.091
-465.143	111.148	0.119	0.142
-464.128	688.411	0.005	-0.013
-463.113	-141.478	0.318	0.032
-462.099	244.674	-0.109	-0.182
-461.084	-101.764	0.190	0.046
-460.070	-105.647	0.365	-0.082
-459.055	510.885	-0.083	-0.193
-458.040	70.394	0.044	-0.045
-457.026	61.272	0.139	0.137
-456.011	56.787	0.180	0.174
-454.997	-198.768	0.386	0.002
-453.982	108.503	0.127	-0.151
-452.968	-200.000	0.050	0.448
-451.953	323.771	-0.173	-0.328
-450.938	494.689	-0.093	0.211
-449.924	-115.777	-0.132	-0.025
-448.909	-42.824	0.179	-0.090
-447.895	92.614	0.225	-0.252
-446.880	-120.144	-0.196	-0.033
-445.865	-95.650	-0.293	-0.078
-444.851	3.040	0.311	0.224
-443.836	-50.327	-0.228	-0.107
-442.822	18.548	-0.248	-0.196
-441.807	235.986	-0.084	-0.137
-440.792	163.682	0.186	0.259
-439.778	-106.310	-0.170	-0.038
-438.763	-142.731	-0.112	0.011
-437.749	-200.000	0.042	0.395
-436.734	-44.758	-0.166	-0.082
-435.719	-32.363	-0.214	-0.119
-434.705	800.000	0.141	-0.412
-433.690	70.437	-0.181	-0.185
-432.676	800.000	-0.040	0.161
-431.661	-34.014	0.418	-0.228
-430.646	-67.161	0.127	-0.050
-429.632	800.000	0.022	-0.073
-428.617	321.534	0.122	0.231
-427.603	44.934	0.052	0.048
-426.588	-33.805	0.340	0.186
-425.573	407.015	0.074	0.156
-424.559	-141.138	0.203	0.021
-423.544	-109.158	0.392	0.083
-422.530	-64.426	-0.223	-0.090
-421.515	800.000	-0.113	0.322
-420.500	-58.320	0.422	0.182
-419.486	800.000	-0.084	0.331
-418.471	-122.422	0.497	-0.080
-417.457	185.420	-0.176	0.259
-416.442	-200.000	0.006	-0.232
-415.428	-128.001	-0.262	0.037
-414.413	-135.281	-0.273	0.032
-413.398	-91.756	-0.104	-0.029
-412.384	-107.229	-0.349	-0.076
-411.369	-21.617	0.366	-0.221
-410.355	-95.301	-0.260	0.069
-409.340	-50.333	-0.096	0.045
-408.325	17.709	0.233	0.183
-407.311	800.000	-0.075	-0.268
-406.296	-200.000	-0.042	0.228
-405.282	184.169	0.228	-0.334
-404.267	738.110	-0.033	-0.088
-403.252	-128.927	-0.122	0.017
-402.238	-54.299	0.165	0.074
-401.223	-28.586	-0.268	-0.153
-400.209	155.037	0.042	0.057
-399.194	-200.000	0.069	-0.386
-398.179	248.533	-0.141	-0.236
-397.165	26.437	0.150	0.124
-396.150	-36.984	0.286	0.152
-395.136	-102.056	-0.182	0.044
-394.121	88.609	0.177	0.195
-393.106	169.987	-0.072	-0.102
-392.092	481.560	0.069	-0.155
-391.077	255.916	-0.038	0.064
-390.063	-50.651	-0.199	-0.093
-389.048	122.671	0.138	0.171
-388.033	-175.692	0.024	0.001
-387.019	-141.273	-0.067	0.007
-386.004	146.664	-0.063	-0.084
-384.990	-200.000	-0.017	-0.110
-383.975	20.946	0.146	0.117
-382.960	32.297	0.218	-0.186
-381.946	-36.317	0.180	0.096
-380.931	-200.000	0.028	0.230
-379.917	-138.954	0.181	0.019
-378.902	-193.939	0.096	0.001
-377.888	149.887	0.126	-0.169
-376.873	-200.000	-0.012	0.126
-375.858	-32.374	0.386	-0.213
-374.844	108.379	-0.124	-0.147
-373.829	296.581	-0.139	0.251
-372.815	-200.000	-0.038	-0.166
-371.800	78.881	-0.101	-0.107
-370.785	800.000	0.048	-0.160
-369.771	141.083	-0.188	0.245
-368.756	800.000	-0.093	-0.324
-367.742	-59.103	-0.112	0.048
-366.727	-190.246	0.186	-0.002
-365.712	-13.365	0.321	0.206
-364.698	240.086	0.045	-0.074
-363.683	-104.729	-0.503	-0.114
-362.669	95.635	0.397	0.448
-361.654	68.792	0.161	-0.163
-360.639	55.040	-0.195	0.186
-359.625	-200.000	-0.035	-0.204
-358.610	48.850	-0.223	-0.207
-357.596	800.000	-0.013	-0.038
-356.581	-23.089	0.108	0.065
-355.566	206.305	-0.124	-0.191
-354.552	435.523	0.128	0.276
-353.537	282.373	0.053	0.094
-352.523	-200.000	-0.277	-0.000
-351.508	-200.000	-0.062	-0.319
-350.493	82.486	0.190	-0.204
-349.479	-200.000	0.011	0.100
-348.464	108.631	-0.148	-0.174
-347.450	41.636	-0.064	-0.057
-346.435	-50.278	-0.314	0.147
-345.420	-76.597	-0.496	0.172
-344.406	-141.640	0.287	0.029
-343.391	-92.005	-0.190	0.053
-342.377	-16.293	0.136	0.085
-341.362	-58.727	0.287	0.123
-340.348	-80.500	0.230	0.076
-339.333	-200.000	-0.058	-0.371
-338.318	-122.866	0.207	0.033
-337.304	-200.000	-0.010	-0.207
-336.289	256.224	0.150	0.254
-335.275	-148.261	-0.181	0.015
-334.260	36.005	-0.159	0.138
-333.245	-200.000	-0.313	-0.001
-332.231	731.605	-0.115	-0.303
-331.216	-200.000	0.016	-0.126
-330.202	251.835	-0.177	0.298
-329.187	-151.470	-0.297	-0.022
-328.172	356.444	-0.061	-0.120
-327.158	800.000	-0.011	-0.032
-326.143	-200.000	0.042	-0.207
-325.129	-14.412	-0.333	0.212
-324.114	-103.313	0.043	0.010
-323.099	-191.727	0.269	-0.003
-322.085	-200.000	-0.008	0.248
-321.070	-200.000	-0.002	-0.295
-320.056	-48.572	-0.308	-0.146
-319.041	800.000	0.029	-0.081
-318.026	41.049	0.116	0.103
-317.012	-200.000	-0.057	0.368
-315.997	196.877	0.145	0.218
-314.983	-151.559	-0.200	-0.015
-313.968	-138.049	-0.212	0.023
-312.953	-104.140	0.087	0.020
-311.939	-132.673	-0.254	0.032
-310.924	23.110	-0.263	-0.213
-309.910	-53.601	0.285	0.128
-308.895	-4.082	0.059	-0.041
-307.880	378.157	0.127	-0.256
-306.866	40.515	-0.098	0.087
-305.851	-23.428	0.092	-0.055
-304.837	-80.744	-0.081	0.026
-303.822	-20.364	-0.156	0.095
-302.807	6.978	0.286	0.211
-301.793	110.435	-0.181	-0.215
-300.778	800.000	0.023	0.072
-299.764	-92.080	0.277	-0.077
-298.749	87.299	-0.094	0.102
-297.735	800.000	-0.164	-0.495
-296.720	-14.691	0.575	0.364
-295.705	112.265	0.151	0.180
-294.691	8.003	-0.194	0.144
-293.676	95.465	0.120	-0.135
-292.662	39.915	-0.204	0.181
-291.647	-108.081	0.126	0.027
-290.632	-200.000	-0.084	-0.369
-289.618	29.956	-0.307	-0.258
-288.603	-103.964	0.236	0.054
-287.589	-69.668	0.031	-0.012
-286.574	-138.583	-0.327	-0.035
-285.559	218.341	0.038	-0.060
-284.545	104.878	-0.082	0.095
-283.530	104.452	-0.280	-0.325
-282.516	800.000	-0.057	0.192
-281.501	-92.814	0.327	0.090
-280.486	-86.319	-0.310	0.094
-279.472	-200.000	0.026	0.165
-278.457	178.552	-0.040	0.058
-277.443	431.084	0.070	0.149
-276.428	-131.945	0.260	-0.033
-275.413	241.251	0.016	-0.027
-274.399	-103.082	0.220	-0.051
-273.384	425.280	-0.094	0.200
-272.370	-143.626	0.372	-0.035
-271.355	-41.578	-0.456	-0.231
-270.340	800.000	-0.046	-0.156
-269.326	-177.586	0.237	0.006
-268.311	-28.121	-0.254	0.145
-267.297	-30.278	-0.201	-0.112
-266.282	-135.086	-0.103	-0.012
-265.267	51.063	0.277	0.259
-264.253	-19.081	-0.039	-0.024
-263.238	-65.581	-0.342	-0.135
-262.224	-80.723	-0.311	0.102
-261.209	82.379	0.135	-0.144
-260.195	800.000	0.063	0.230
-259.180	800.000	0.069	0.284
-258.165	559.697	-0.100	-0.239
-257.151	-200.000	0.024	-0.127
-256.136	41.549	-0.337	-0.301
-255.122	85.496	-0.128	0.138
-254.107	202.088	-0.130	-0.198
-253.092	800.000	0.013	-0.055
-252.078	-200.000	-0.039	-0.354
-251.063	-56.963	-0.361	0.157
-250.049	51.910	0.066	0.062
-249.034	-25.668	-0.328	0.191
-248.019	24.826	-0.057	0.046
-247.005	-92.816	-0.134	0.037
-245.990	-59.372	-0.244	-0.104
-244.976	-22.628	0.178	0.106
-243.961	-51.458	0.081	-0.037
-242.946	-140.783	0.366	0.037
-241.932	506.369	0.152	-0.347
-240.917	-0.406	-0.108	0.075
-239.903	-66.708	-0.088	-0.034
-238.888	278.063	0.201	0.352
-237.873	-113.350	-0.089	0.017
-236.859	-73.763	-0.110	0.040
-235.844	308.658	0.191	0.351
-234.830	-116.963	-0.220	0.040
-233.815	-11.211	-0.252	-0.163
-232.800	-55.480	0.129	0.057
-231.786	93.456	0.085	-0.095
-230.771	267.545	0.091	0.156
-229.757	-136.218	-0.106	0.012
-228.742	20.149	0.266	-0.211
-227.727	365.917	0.058	-0.115
-226.713	-18.640	-0.227	-0.139
-225.698	-162.334	0.295	0.014
-224.684	-14.115	0.134	0.085
-223.669	90.962	-0.214	0.236
-222.655	800.000	0.044	-0.151
-221.640	-32.917	0.210	0.114
-220.625	-53.103	-0.171	-0.077
-219.611	36.109	0.382	0.331
-218.596	800.000	-0.073	0.248
-217.582	-168.409	0.300	0.011
-216.567	-73.512	0.305	-0.109
-215.552	525.890	0.097	0.224
-214.538	483.421	-0.096	0.216
-213.523	800.000	0.092	-0.259
-212.509	-86.371	0.329	0.099
-211.494	218.172	-0.204	0.319
-210.479	-88.179	0.051	0.015
-209.465	-151.220	-0.259	-0.019
-208.450	545.839	-0.062	0.147
-207.436	-109.652	0.208	0.043
-206.421	-13.795	-0.124	0.079
-205.406	-200.000	0.032	-0.320
-204.392	-40.932	-0.084	-0.043
-203.377	386.995	-0.102	-0.207
-202.363	190.322	0.138	-0.204
-201.348	59.687	0.141	0.137
-200.333	-94.088	0.131	-0.035
-199.319	76.973	0.063	-0.066
-198.304	-37.709	0.250	-0.131
-197.290	146.833	-0.096	0.127
-196.275	-67.909	-0.076	-0.029
-195.260	800.000	-0.067	0.222
-194.246	774.449	0.171	-0.457
-193.231	82.371	0.075	-0.080
-192.217	800.000	0.037	0.134
-191.202	800.000	-0.064	0.209
-190.187	800.000	0.088	-0.283
-189.173	-29.080	0.282	0.159
-188.158	-200.000	0.018	0.206
-187.144	78.169	0.257	-0.270
-186.129	-200.000	0.045	-0.211
-185.114	-77.966	0.149	-0.050
-184.100	-124.884	0.361	0.055
-183.085	111.121	-0.242	-0.286
-182.071	35.626	-0.233	-0.201
-181.056	-200.000	-0.015	-0.170
-180.042	-133.665	0.170	0.021
-179.027	10.447	-0.097	-0.072
-178.012	34.485	0.259	0.222
-176.998	-200.000	-0.007	0.418
-175.983	800.000	0.066	0.214
-174.969	-87.252	-0.087	0.026
-173.954	800.000	0.073	-0.287
-172.939	-39.852	-0.050	-0.026
-171.925	800.000	0.129	-0.374
-170.910	137.469	0.118	-0.152
-169.896	-99.850	0.153	0.038
-168.881	-31.181	0.063	0.035
-167.866	-48.324	0.106	0.050
-166.852	-200.000	0.020	-0.124
-165.837	-48.717	-0.220	0.104
-164.823	800.000	0.081	-0.278
-163.808	-200.000	-0.010	0.179
-162.793	378.586	0.130	0.261
-161.779	-98.794	-0.083	0.021
-160.764	-42.767	0.098	0.049
-159.750	800.000	0.101	-0.281
-158.735	-29.170	-0.103	0.058
-157.720	-142.123	-0.121	-0.012
-156.706	-115.043	-0.281	-0.052
-155.691	201.465	-0.093	0.141
-154.677	-131.152	-0.110	-0.014
-153.662	53.807	0.032	-0.030
-152.647	10.512	0.151	-0.113
-151.633	-168.801	0.264	-0.010
-150.618	252.541	0.192	0.321
-149.604	-72.153	-0.073	0.026
-148.589	-200.000	0.017	-0.463
-147.574	-142.378	-0.191	-0.018
-146.560	-200.000	0.021	-0.379
-145.545	-200.000	0.029	0.130
-144.531	-116.733	0.255	0.046
-143.516	-200.000	-0.015	-0.145
-142.502	369.162	0.165	-0.327
-141.487	-105.704	-0.134	0.030
-140.472	-8.527	-0.108	-0.071
-139.458	-147.999	0.132	-0.011
-138.443	800.000	0.078	-0.238
-137.429	43.643	-0.366	-0.328
-136.414	-200.000	-0.006	-0.239
-135.399	-200.000	-0.077	-0.452
-134.385	800.000	0.023	-0.073
-133.370	-36.925	0.205	0.108
-132.356	2.628	-0.169	0.120
-131.341	411.821	0.046	0.097
-130.326	10.934	-0.181	-0.135
-129.312	485.429	-0.098	0.219
-128.297	-78.515	0.302	0.101
-127.283	506.356	-0.008	-0.018
-126.268	-2.153	-0.191	0.132
-125.253	37.278	0.143	-0.124
-124.239	-92.361	-0.206	0.057
-123.224	-73.753	0.283	-0.101
-122.210	247.920	0.024	-0.039
-121.195	-200.000	0.043	0.300
