DTS Sentinel unit serial number:	SN413079Multiplexer serial number:	ORYXHardware model number:	OX4-SRSoftware version number:	ORYX F/W v4.00 Oryx Data Collector v3.7.2.0data status	okinstallation	princeton_trtdifferential loss correction	single-endedforward channel	channel 1reverse channel	N/Adate	2019/09/12time	07:32:11forward acquisition time	60.00reverse acquisition time	0.00gamma	496.2192k internal	0.2317k external	0.2317temperature offset calibration	1.0044default loss term (dB/km)	0.3790temperature slope calibration	1.0000multiplexer offset coefficient	1.0000multiplexer slope coefficient	1.0000fibre end	0.00T internal ref (°C)	32.53T ext. ref 1 (°C)	1.62T ext. ref 2 (°C)	29.11length (m)	temperature (°C)	Stokes	anti-Stokes-747.200	391.433	-0.127	0.268
-746.185	800.000	-0.023	0.079
-745.171	272.792	0.078	0.139
-744.156	-45.075	-0.159	0.080
-743.142	-200.000	-0.037	0.194
-742.127	295.170	-0.238	0.442
-741.112	800.000	-0.147	0.477
-740.098	-37.701	-0.264	0.142
-739.083	-33.350	-0.194	-0.109
-738.069	800.000	0.086	0.252
-737.054	-7.473	0.202	-0.139
-736.039	800.000	0.074	0.245
-735.025	162.956	0.169	0.240
-734.010	8.114	-0.145	0.110
-732.996	800.000	-0.063	-0.210
-731.981	149.802	-0.256	-0.351
-730.966	223.539	-0.284	-0.464
-729.952	40.970	-0.129	-0.118
-728.937	-55.330	0.341	-0.155
-727.923	-118.476	0.400	0.072
-726.908	800.000	0.104	0.413
-725.894	-76.329	0.029	-0.010
-724.879	42.487	-0.111	0.102
-723.864	420.757	0.126	-0.273
-722.850	-105.527	-0.057	-0.013
-721.835	-200.000	0.003	-0.252
-720.821	-17.351	0.172	-0.109
-719.806	-74.479	0.095	0.035
-718.791	99.976	-0.156	-0.182
-717.777	74.501	0.095	0.101
-716.762	-114.871	0.284	0.055
-715.748	800.000	-0.052	0.159
-714.733	0.522	-0.230	-0.166
-713.718	-200.000	-0.024	-0.199
-712.704	-191.825	0.233	-0.002
-711.689	-35.149	0.154	-0.085
-710.675	92.850	0.141	0.161
-709.660	-160.973	-0.152	-0.008
-708.645	155.642	0.113	-0.158
-707.631	-109.861	0.278	0.059
-706.616	86.579	-0.117	-0.130
-705.602	-126.387	0.299	-0.045
-704.587	-145.833	-0.214	-0.019
-703.572	393.216	0.171	0.361
-702.558	361.578	-0.095	0.193
-701.543	32.401	-0.276	0.241
-700.529	155.672	0.052	-0.072
-699.514	-88.981	-0.329	0.099
-698.499	45.210	0.194	-0.181
-697.485	-200.000	-0.011	-0.275
-696.470	-200.000	0.008	-0.195
-695.456	291.621	-0.073	-0.134
-694.441	800.000	0.067	0.265
-693.426	800.000	0.116	0.442
-692.412	36.287	-0.266	-0.237
-691.397	-71.021	-0.115	0.044
-690.383	-200.000	-0.033	-0.169
-689.368	-37.354	-0.305	-0.165
-688.354	158.409	0.226	-0.317
-687.339	-120.768	-0.302	-0.051
-686.324	-200.000	0.040	-0.215
-685.310	800.000	-0.120	-0.341
-684.295	-200.000	-0.020	0.146
-683.281	800.000	0.028	0.098
-682.266	-169.851	-0.407	-0.015
-681.251	-9.429	0.236	0.159
-680.237	124.243	0.165	0.209
-679.222	116.507	-0.271	-0.335
-678.208	675.613	0.047	0.123
-677.193	-200.000	-0.001	-0.057
-676.178	-129.129	-0.215	0.030
-675.164	-69.573	-0.199	-0.077
-674.149	6.019	0.043	0.032
-673.135	-118.463	0.136	-0.024
-672.120	30.776	0.230	-0.199
-671.105	-200.000	-0.079	0.397
-670.091	0.280	0.295	-0.212
-669.076	13.462	-0.322	-0.252
-668.062	-31.474	-0.267	-0.152
-667.047	-200.000	-0.044	0.290
-666.032	-40.692	-0.263	-0.138
-665.018	74.772	-0.031	0.033
-664.003	80.466	-0.081	-0.088
-662.989	-181.503	0.183	-0.004
-661.974	-162.204	-0.278	0.014
-660.959	84.579	-0.307	-0.339
-659.945	41.326	0.142	0.129
-658.930	-200.000	-0.004	-0.383
-657.916	48.155	-0.015	-0.014
-656.901	-62.779	-0.224	-0.093
-655.886	85.596	-0.186	-0.207
-654.872	26.405	-0.195	0.165
-653.857	69.230	-0.132	-0.137
-652.843	307.671	-0.040	0.075
-651.828	-200.000	0.008	-0.036
-650.814	-83.092	0.087	0.028
-649.799	448.507	-0.100	-0.222
-648.784	-41.399	-0.199	-0.103
-647.770	352.768	-0.126	-0.252
-646.755	-200.000	-0.017	-0.408
-645.741	45.933	0.347	0.324
-644.726	-74.948	-0.162	-0.059
-643.711	-134.088	-0.121	0.015
-642.697	171.764	-0.021	-0.030
-641.682	-179.750	0.072	-0.002
-640.668	-68.253	0.152	-0.060
-639.653	-200.000	-0.002	0.020
-638.638	2.449	0.307	-0.224
-637.624	466.891	0.017	-0.039
-636.609	800.000	-0.121	0.338
-635.595	10.525	-0.122	-0.093
-634.580	800.000	0.146	-0.434
-633.565	250.065	-0.159	0.272
-632.551	373.085	0.050	-0.103
-631.536	-146.663	-0.222	-0.019
-630.522	492.394	-0.109	-0.252
-629.507	-200.000	0.023	-0.151
-628.492	310.216	0.057	0.108
-627.478	329.344	0.057	-0.111
-626.463	21.268	-0.149	0.122
-625.449	-173.912	-0.207	0.006
-624.434	176.880	0.244	-0.358
-623.419	18.478	-0.144	-0.116
-622.405	-72.570	0.196	0.073
-621.390	-57.300	-0.192	0.085
-620.376	-200.000	0.009	0.198
-619.361	74.461	0.153	-0.162
-618.346	-40.858	0.172	-0.089
-617.332	169.165	0.182	0.262
-616.317	12.220	0.041	0.032
-615.303	773.844	-0.071	-0.196
-614.288	-200.000	0.039	0.350
-613.273	-41.046	-0.167	-0.087
-612.259	16.611	0.246	-0.196
-611.244	800.000	-0.015	-0.050
-610.230	-73.110	-0.181	0.067
-609.215	-103.819	0.161	0.038
-608.201	-129.816	-0.185	-0.026
-607.186	-83.292	-0.132	0.043
-606.171	46.693	-0.129	-0.121
-605.157	-50.002	-0.073	0.035
-604.142	-44.827	0.115	0.058
-603.128	212.191	-0.272	0.431
-602.113	-33.261	-0.181	0.101
-601.098	800.000	0.051	-0.183
-600.084	-196.876	-0.412	-0.003
-599.069	195.079	-0.087	-0.133
-598.055	558.860	-0.049	0.118
-597.040	-37.790	-0.262	0.140
-596.025	-109.847	-0.074	0.016
-595.011	-200.000	-0.014	0.255
-593.996	456.720	0.183	0.408
-592.982	235.940	-0.166	-0.276
-591.967	800.000	-0.050	0.196
-590.952	25.006	-0.228	0.190
-589.938	199.741	-0.114	-0.176
-588.923	-61.984	-0.372	-0.156
-587.909	-200.000	-0.013	-0.186
-586.894	800.000	-0.067	0.200
-585.879	463.900	-0.120	0.270
-584.865	348.166	0.126	-0.249
-583.850	-200.000	0.012	-0.126
-582.836	34.098	0.027	0.024
-581.821	672.185	-0.034	-0.090
-580.806	800.000	-0.064	0.247
-579.792	-200.000	-0.057	0.264
-578.777	530.581	-0.078	-0.185
-577.763	-79.114	-0.206	0.071
-576.748	272.118	-0.061	0.108
-575.733	-105.640	-0.091	-0.021
-574.719	141.728	0.154	0.205
-573.704	800.000	0.126	0.432
-572.690	-200.000	-0.017	-0.116
-571.675	-200.000	-0.023	0.103
-570.661	686.288	0.120	-0.314
-569.646	-200.000	-0.003	-0.083
-568.631	360.243	-0.106	0.213
-567.617	-26.679	0.148	0.087
-566.602	800.000	-0.028	0.088
-565.588	19.998	0.161	0.131
-564.573	-122.967	0.025	0.004
-563.558	-112.151	-0.087	0.018
-562.544	-96.715	-0.212	-0.056
-561.529	190.039	-0.275	-0.415
-560.515	-29.262	0.084	0.049
-559.500	-200.000	0.009	0.198
-558.485	-14.332	0.265	0.172
-557.471	-34.434	-0.194	-0.107
-556.456	-113.596	-0.260	-0.051
-555.442	-200.000	-0.009	-0.118
-554.427	-200.000	-0.012	-0.088
-553.412	-200.000	0.025	-0.252
-552.398	-6.193	-0.109	-0.075
-551.383	396.109	0.044	0.093
-550.369	539.843	-0.109	-0.260
-549.354	-85.434	-0.229	0.072
-548.339	-48.044	-0.383	-0.186
-547.325	227.589	0.139	-0.227
-546.310	72.362	0.085	0.089
-545.296	-200.000	-0.012	-0.163
-544.281	800.000	-0.043	0.119
-543.266	800.000	-0.028	0.109
-542.252	115.528	0.105	0.129
-541.237	40.429	-0.112	-0.102
-540.223	-30.109	-0.291	0.166
-539.208	51.253	0.114	-0.109
-538.193	-131.594	0.197	0.026
-537.179	-200.000	0.004	0.161
-536.164	-200.000	0.063	0.287
-535.150	-97.991	0.150	-0.039
-534.135	388.062	0.083	-0.172
-533.121	-58.555	-0.256	-0.112
-532.106	-75.384	-0.249	-0.089
-531.091	88.429	-0.239	-0.267
-530.077	-14.399	-0.122	0.079
-529.062	107.717	-0.120	0.144
-528.048	-112.779	-0.167	0.033
-527.033	-168.507	-0.437	0.017
-526.018	14.342	0.129	-0.101
-525.004	-137.744	-0.095	0.011
-523.989	-200.000	0.032	-0.368
-522.975	-68.205	-0.063	-0.025
-521.960	-200.000	0.023	-0.268
-520.945	-123.443	0.507	0.081
-519.931	-92.184	-0.270	0.077
-518.916	-200.000	0.016	0.098
-517.902	-200.000	-0.025	0.438
-516.887	-200.000	-0.042	-0.281
-515.872	-113.465	0.166	-0.033
-514.858	-40.539	-0.085	0.044
-513.843	800.000	-0.039	-0.166
-512.829	113.259	-0.170	0.207
-511.814	-159.300	-0.215	0.012
-510.799	-200.000	-0.041	0.296
-509.785	51.264	-0.244	-0.233
-508.770	86.669	0.294	-0.325
-507.756	21.454	-0.150	0.122
-506.741	-200.000	0.032	-0.196
-505.726	323.083	0.032	-0.061
-504.712	344.140	0.139	0.273
-503.697	-38.005	0.433	0.231
-502.683	149.630	0.097	0.132
-501.668	-109.535	0.221	-0.047
-500.653	-50.362	0.435	-0.206
-499.639	-65.877	-0.220	-0.088
-498.624	67.028	-0.219	0.224
-497.610	131.312	0.111	-0.143
-496.595	-116.992	0.191	0.035
-495.581	588.393	0.119	0.294
-494.566	-18.131	-0.375	-0.235
-493.551	800.000	0.054	-0.197
-492.537	-5.959	-0.368	0.252
-491.522	154.724	-0.127	-0.175
-490.508	-7.464	-0.073	-0.049
-489.493	-166.040	0.214	0.009
-488.478	47.851	0.041	0.038
-487.464	-200.000	0.104	0.543
-486.449	-125.643	0.374	-0.057
-485.435	68.733	0.160	-0.165
-484.420	-200.000	-0.037	0.338
-483.405	23.863	-0.339	0.280
-482.391	-33.626	0.195	0.108
-481.376	-200.000	-0.003	-0.149
-480.362	96.052	0.119	0.137
-479.347	-85.092	-0.156	-0.049
-478.332	-200.000	-0.049	-0.275
-477.318	-98.880	-0.129	-0.033
-476.303	-18.674	-0.078	0.049
-475.289	44.463	0.081	0.074
-474.274	-53.306	0.078	-0.036
-473.259	175.630	-0.183	-0.266
-472.245	-86.995	-0.149	0.046
-471.230	-51.751	0.073	-0.034
-470.216	265.254	0.102	-0.178
-469.201	331.690	-0.127	0.245
-468.186	-79.432	-0.268	-0.091
-467.172	-44.073	0.109	-0.055
-466.157	123.044	-0.096	-0.120
-465.143	-200.000	-0.071	-0.498
-464.128	-161.798	0.171	0.009
-463.113	-142.082	-0.404	0.040
-462.099	-87.231	-0.168	-0.051
-461.084	-85.594	-0.128	0.040
-460.070	-135.563	-0.343	-0.041
-459.055	-200.000	0.001	-0.074
-458.040	-200.000	-0.025	0.132
-457.026	800.000	-0.014	0.043
-456.011	112.677	-0.113	-0.137
-454.997	356.711	0.204	-0.406
-453.982	-196.412	0.190	0.001
-452.968	101.926	-0.185	-0.216
-451.953	299.742	-0.115	0.213
-450.938	64.115	0.121	0.122
-449.924	-200.000	0.033	-0.155
-448.909	-7.451	0.225	-0.153
-447.895	800.000	-0.056	-0.199
-446.880	-101.783	-0.248	0.060
-445.865	252.693	-0.156	-0.266
-444.851	-200.000	0.042	-0.190
-443.836	-200.000	0.027	0.247
-442.822	-59.322	-0.022	-0.009
-441.807	16.744	-0.082	-0.065
-440.792	136.313	0.131	-0.170
-439.778	44.495	-0.156	0.143
-438.763	-200.000	-0.025	-0.221
-437.749	286.936	-0.095	0.172
-436.734	800.000	0.110	-0.356
-435.719	-77.107	-0.412	-0.144
-434.705	31.540	-0.080	-0.069
-433.690	36.484	0.146	0.129
-432.676	457.533	0.131	-0.291
-431.661	-200.000	0.023	-0.107
-430.646	172.447	-0.189	0.272
-429.632	54.214	-0.049	-0.047
-428.617	-84.814	0.321	0.101
-427.603	-200.000	0.063	-0.294
-426.588	121.846	-0.185	-0.231
-425.573	-200.000	-0.059	-0.332
-424.559	-200.000	-0.065	0.323
-423.544	800.000	0.081	0.224
-422.530	194.851	-0.257	-0.389
-421.515	-44.512	-0.348	-0.174
-420.500	800.000	-0.066	0.190
-419.486	-124.823	-0.091	-0.014
-418.471	800.000	0.054	-0.228
-417.457	-81.247	0.547	-0.180
-416.442	189.133	-0.095	0.143
-415.428	-32.597	0.083	-0.046
-414.413	-159.155	-0.209	0.012
-413.398	26.682	-0.216	-0.181
-412.384	34.051	0.280	-0.244
-411.369	800.000	-0.108	0.315
-410.355	800.000	-0.084	-0.277
-409.340	-200.000	-0.005	0.156
-408.325	-38.163	0.078	-0.041
-407.311	111.610	0.196	0.236
-406.296	-104.062	0.349	0.081
-405.282	-140.949	-0.459	-0.047
-404.267	-32.616	-0.048	0.027
-403.252	186.016	0.236	-0.350
-402.238	-200.000	-0.009	0.276
-401.223	-200.000	0.010	-0.042
-400.209	-68.137	-0.132	-0.051
-399.194	-167.093	-0.229	0.009
-398.179	-18.758	0.308	-0.191
-397.165	74.232	0.281	0.295
-396.150	14.977	0.325	0.254
-395.136	800.000	-0.068	-0.210
-394.121	-163.841	0.304	-0.014
-393.106	-111.449	0.259	0.053
-392.092	246.218	-0.119	0.201
-391.077	-74.493	-0.025	0.009
-390.063	335.211	-0.032	-0.062
-389.048	37.950	-0.173	0.154
-388.033	29.000	0.329	-0.278
-387.019	800.000	-0.025	-0.100
-386.004	408.271	0.101	0.213
-384.990	-138.487	0.259	-0.028
-383.975	194.861	0.128	-0.194
-382.960	-28.722	-0.219	-0.126
-381.946	435.054	-0.061	-0.133
-380.931	89.371	0.041	0.046
-379.917	7.937	0.167	0.125
-378.902	800.000	-0.060	0.236
-377.888	-68.398	0.132	-0.051
-376.873	-133.728	-0.225	-0.028
-375.858	-71.972	0.139	-0.051
-374.844	-78.929	-0.399	0.136
-373.829	-75.013	0.045	-0.016
-372.815	569.349	0.125	0.304
-371.800	800.000	0.115	0.396
-370.785	65.152	0.079	0.080
-369.771	148.094	0.206	0.277
-368.756	-96.271	0.105	0.028
-367.742	-105.697	-0.259	-0.058
-366.727	-200.000	0.061	0.348
-365.712	800.000	-0.038	0.147
-364.698	-79.879	-0.158	0.053
-363.683	-200.000	-0.020	0.100
-362.669	-200.000	0.026	0.435
-361.654	324.774	0.020	-0.039
-360.639	279.087	-0.080	0.142
-359.625	156.359	-0.060	0.083
-358.610	-87.072	-0.157	0.048
-357.596	-42.901	-0.418	0.212
-356.581	254.501	0.039	0.066
-355.566	-80.625	-0.272	0.090
-354.552	-134.949	0.273	-0.033
-353.537	-200.000	-0.026	-0.252
-352.523	800.000	0.048	0.156
-351.508	2.145	0.154	0.111
-350.493	-200.000	0.027	-0.206
-349.479	-104.467	0.331	-0.076
-348.464	-28.587	0.029	-0.017
-347.450	-111.345	0.244	-0.050
-346.435	-119.170	-0.372	-0.065
-345.420	30.601	0.138	-0.118
-344.406	-65.690	-0.053	-0.021
-343.391	-19.030	0.197	0.122
-342.377	130.269	0.328	-0.419
-341.362	-141.688	0.299	0.030
-340.348	135.658	-0.092	0.120
-339.333	-127.289	0.120	0.017
-338.318	-16.198	-0.104	-0.066
-337.304	-80.556	0.232	0.077
-336.289	724.692	0.061	-0.163
-335.275	-6.619	-0.250	-0.169
-334.260	195.178	-0.206	0.312
-333.245	-12.487	-0.220	-0.143
-332.231	-110.318	0.279	-0.058
-331.216	81.218	-0.106	0.114
-330.202	800.000	-0.109	-0.354
-329.187	-59.876	0.161	0.068
-328.172	178.433	-0.189	0.274
-327.158	-89.363	-0.087	-0.026
-326.143	-79.637	0.068	-0.023
-325.129	116.060	0.063	-0.077
-324.114	479.370	0.019	0.043
-323.099	-51.492	0.106	-0.049
-322.085	275.580	-0.111	-0.197
-321.070	593.369	-0.065	-0.159
-320.056	-53.177	0.039	-0.018
-319.041	305.896	-0.082	0.152
-318.026	-93.834	0.050	0.014
-317.012	63.269	-0.058	0.058
-315.997	3.304	0.160	0.116
-314.983	-200.000	-0.028	0.134
-313.968	-200.000	-0.016	-0.111
-312.953	-200.000	0.021	0.426
-311.939	800.000	0.020	-0.079
-310.924	-88.871	-0.257	-0.076
-309.910	800.000	-0.111	0.471
-308.895	-200.000	0.035	-0.192
-307.880	800.000	-0.084	0.289
-306.866	800.000	-0.062	-0.246
-305.851	-48.030	-0.044	-0.021
-304.837	-200.000	0.021	0.184
-303.822	-67.432	0.329	-0.129
-302.807	161.313	-0.097	-0.135
-301.793	-146.416	0.206	0.018
-300.778	-56.977	0.379	-0.166
-299.764	800.000	0.035	-0.109
-298.749	49.112	-0.366	0.342
-297.735	37.851	0.229	0.202
-296.720	-92.478	0.048	-0.013
-295.705	111.725	0.175	0.210
-294.691	124.516	0.110	-0.137
-293.676	-180.496	0.128	0.003
-292.662	-183.539	0.229	0.004
-291.647	-64.766	0.316	0.127
-290.632	73.406	0.246	0.256
-289.618	304.250	0.123	0.226
-288.603	-200.000	-0.019	0.254
-287.589	166.128	0.113	0.159
-286.574	-200.000	-0.062	0.364
-285.559	-146.770	-0.341	-0.029
-284.545	274.705	0.154	0.272
-283.530	-200.000	-0.031	-0.176
-282.516	-200.000	-0.076	0.477
-281.501	-109.320	0.275	0.058
-280.486	-200.000	0.004	-0.281
-279.472	25.302	0.162	-0.134
-278.457	-0.774	-0.271	-0.191
-277.443	44.885	0.192	0.175
-276.428	85.852	0.113	0.123
-275.413	800.000	0.091	-0.260
-274.399	254.639	0.077	0.132
-273.384	7.996	0.180	-0.134
-272.370	85.023	0.256	0.279
-271.355	242.219	0.063	0.105
-270.340	-200.000	0.023	0.235
-269.326	-200.000	0.026	-0.173
-268.311	-92.400	0.339	-0.095
-267.297	213.592	-0.209	0.328
-266.282	800.000	0.032	-0.120
-265.267	-174.804	-0.089	0.002
-264.253	323.971	0.109	0.207
-263.238	-69.969	0.070	-0.026
-262.224	800.000	0.040	-0.167
-261.209	-13.581	-0.503	-0.324
-260.195	113.913	0.226	-0.273
-259.180	800.000	0.040	-0.142
-258.165	-108.147	0.132	-0.028
-257.151	-200.000	0.003	0.466
-256.136	-200.000	0.001	-0.088
-255.122	169.803	0.253	0.360
-254.107	727.853	-0.051	-0.134
-253.092	1.292	-0.068	0.049
-252.078	41.933	0.066	0.060
-251.063	-94.632	-0.241	0.065
-250.049	-143.241	-0.158	0.015
-249.034	1.346	-0.346	-0.247
-248.019	384.738	-0.125	0.256
-247.005	-200.000	0.004	0.067
-245.990	50.328	0.157	-0.147
-244.976	-200.000	0.088	-0.390
-243.961	44.995	0.148	-0.135
-242.946	-128.969	-0.086	0.012
-241.932	32.151	0.140	0.120
-240.917	-96.465	-0.292	0.076
-239.903	399.229	0.182	0.378
-238.888	28.411	0.189	-0.159
-237.873	-69.281	-0.286	-0.109
-236.859	800.000	0.075	0.291
-235.844	469.249	0.073	0.163
-234.830	168.649	0.124	0.176
-233.815	-200.000	0.081	0.446
-232.800	-33.119	0.191	0.105
-231.786	-113.679	0.293	-0.057
-230.771	302.501	0.232	-0.426
-229.757	218.910	-0.125	-0.198
-228.742	51.814	0.145	0.137
-227.727	81.930	0.147	0.158
-226.713	-60.283	0.017	-0.007
-225.698	506.750	0.043	-0.100
-224.684	-200.000	0.033	-0.148
-223.669	800.000	-0.034	0.094
-222.655	47.573	-0.090	-0.083
-221.640	98.099	-0.239	-0.273
-220.625	-129.390	0.179	0.025
-219.611	-86.734	-0.181	-0.055
-218.596	800.000	0.071	-0.261
-217.582	800.000	-0.014	-0.051
-216.567	473.920	0.146	-0.326
-215.552	-200.000	-0.451	-0.001
-214.538	510.639	0.109	-0.251
-213.523	-73.576	0.353	-0.128
-212.509	-13.778	-0.182	0.117
-211.494	2.676	0.173	-0.124
-210.479	57.720	-0.132	0.128
-209.465	-47.866	-0.038	-0.018
-208.450	-108.604	-0.179	-0.038
-207.436	190.437	0.036	-0.054
-206.421	-27.527	-0.051	-0.029
-205.406	144.673	-0.231	-0.306
-204.392	-112.571	0.232	-0.046
-203.377	800.000	0.042	0.138
-202.363	257.528	0.093	-0.158
-201.348	-135.845	0.157	-0.018
-200.333	-190.938	0.282	0.003
-199.319	-11.041	0.327	0.214
-198.304	96.271	-0.069	-0.078
-197.290	-89.758	-0.206	0.060
-196.275	56.794	0.231	0.223
-195.260	497.988	0.077	0.176
-194.246	-187.843	-0.199	-0.003
-193.231	-100.511	0.239	-0.059
-192.217	-17.747	0.254	0.158
-191.202	593.490	0.073	0.180
-190.187	-43.137	0.165	-0.083
-189.173	9.887	0.155	-0.117
-188.158	-200.000	0.009	0.226
-187.144	-134.211	0.053	-0.006
-186.129	-72.458	0.063	0.023
-185.114	-0.662	0.073	-0.052
-184.100	800.000	-0.071	-0.239
-183.085	-113.847	0.106	0.020
-182.071	247.968	-0.073	0.122
-181.056	-200.000	0.059	-0.348
-180.042	236.160	-0.045	0.074
-179.027	368.949	0.087	0.174
-178.012	445.923	-0.157	-0.341
-176.998	800.000	-0.072	0.198
-175.983	-200.000	0.018	-0.146
-174.969	387.424	0.149	0.305
-173.954	415.218	0.115	-0.242
-172.939	-82.894	-0.312	-0.100
-171.925	-104.490	0.285	0.065
-170.910	-25.122	-0.308	0.180
-169.896	-179.909	0.240	-0.005
-168.881	-200.000	0.006	-0.156
-167.866	116.764	-0.085	0.103
-166.852	-62.787	-0.277	0.114
-165.837	800.000	0.033	-0.096
-164.823	82.735	0.167	0.179
-163.808	305.383	0.010	0.018
-162.793	147.671	0.105	0.139
-161.779	93.944	0.180	-0.202
-160.764	-200.000	0.005	-0.165
-159.750	89.356	0.156	0.173
-158.735	91.678	0.295	-0.328
-157.720	8.119	-0.133	-0.099
-156.706	-103.564	-0.425	0.099
-155.691	-190.725	0.194	0.002
-154.677	181.357	0.033	-0.048
-153.662	53.634	-0.100	0.095
-152.647	95.402	-0.241	-0.272
-151.633	195.646	-0.120	0.180
-150.618	800.000	-0.050	-0.209
-149.604	800.000	0.101	0.278
-148.589	66.489	0.293	0.295
-147.574	-200.000	0.048	0.791
-146.560	-200.000	-0.020	0.265
-145.545	106.617	-0.089	0.105
-144.531	775.459	-0.031	-0.084
-143.516	800.000	-0.038	-0.146
-142.502	60.441	-0.034	0.033
-141.487	28.796	-0.269	-0.226
-140.472	-171.950	-0.261	0.008
-139.458	151.790	0.139	0.187
-138.443	70.066	0.107	-0.110
-137.429	39.421	0.221	-0.195
-136.414	-62.156	-0.258	-0.106
-135.399	-26.982	-0.050	0.029
-134.385	800.000	-0.081	0.241
-133.370	353.003	0.043	-0.084
-132.356	-3.887	-0.181	-0.124
-131.341	276.866	0.039	-0.068
-130.326	-120.865	0.226	-0.038
-129.312	-34.585	0.232	0.126
-128.297	-149.470	0.321	0.025
-127.283	220.921	-0.139	-0.221
-126.268	167.289	-0.119	0.167
-125.253	21.229	-0.092	-0.074
-124.239	800.000	-0.030	0.117
-123.224	-200.000	-0.007	0.286
-122.210	-200.000	-0.001	0.037
-121.195	800.000	0.077	0.325
