DTS Sentinel unit serial number:	SN413079Multiplexer serial number:	ORYXHardware model number:	OX4-SRSoftware version number:	ORYX F/W v4.00 Oryx Data Collector v3.7.2.0data status	okinstallation	princeton_trtdifferential loss correction	single-endedforward channel	channel 1reverse channel	N/Adate	2019/09/19time	10:58:35forward acquisition time	60.00reverse acquisition time	0.00gamma	496.2192k internal	0.2338k external	0.2338temperature offset calibration	1.0008default loss term (dB/km)	0.3790temperature slope calibration	1.0000multiplexer offset coefficient	1.0000multiplexer slope coefficient	1.0000fibre end	0.00T internal ref (°C)	24.84T ext. ref 1 (°C)	0.75T ext. ref 2 (°C)	20.40length (m)	temperature (°C)	Stokes	anti-Stokes-747.200	10.337	-0.026	0.020
-746.185	76.900	0.146	0.155
-745.171	-88.252	0.240	0.072
-744.156	800.000	0.077	0.297
-743.142	-200.000	0.034	-0.185
-742.127	-174.333	0.123	-0.004
-741.112	-143.991	0.424	-0.040
-740.098	-200.000	0.034	0.615
-739.083	674.252	0.047	-0.122
-738.069	-50.255	-0.147	0.070
-737.054	-72.349	-0.316	0.117
-736.039	-82.028	-0.123	-0.040
-735.025	-192.774	-0.101	0.001
-734.010	-200.000	-0.015	-0.320
-732.996	190.606	-0.147	-0.222
-731.981	158.397	0.105	0.146
-730.966	-77.380	-0.304	-0.106
-729.952	387.605	-0.069	0.142
-728.937	544.146	0.074	-0.178
-727.923	-181.310	-0.270	0.005
-726.908	800.000	-0.084	0.297
-725.894	-55.103	0.364	-0.164
-724.879	103.046	0.119	0.140
-723.864	-122.271	-0.502	0.082
-722.850	43.317	0.098	0.090
-721.835	37.606	-0.094	-0.084
-720.821	-12.755	0.180	0.118
-719.806	13.909	0.263	0.205
-718.791	-81.177	-0.086	-0.029
-717.777	-166.690	-0.247	0.010
-716.762	-84.887	0.333	-0.105
-715.748	-200.000	-0.111	0.671
-714.733	-33.305	-0.140	-0.078
-713.718	-52.286	0.224	0.104
-712.704	204.827	0.071	0.111
-711.689	-150.342	-0.361	-0.028
-710.675	59.968	-0.107	-0.105
-709.660	-200.000	-0.002	-0.062
-708.645	22.808	0.145	-0.119
-707.631	-4.722	0.249	0.172
-706.616	-84.103	0.528	-0.168
-705.602	-61.218	-0.279	0.118
-704.587	29.956	-0.116	0.099
-703.572	800.000	-0.083	-0.262
-702.558	564.392	-0.110	-0.268
-701.543	336.882	-0.077	0.149
-700.529	-200.000	-0.055	-0.556
-699.514	-20.278	0.085	-0.053
-698.499	-70.886	-0.159	0.060
-697.485	0.146	-0.073	0.052
-696.470	83.703	-0.043	-0.047
-695.456	-200.000	0.008	0.385
-694.441	-200.000	-0.022	-0.102
-693.426	-176.598	-0.184	-0.005
-692.412	24.013	-0.343	0.283
-691.397	-200.000	-0.123	0.000
-690.383	-200.000	0.002	-0.074
-689.368	-200.000	0.017	0.331
-688.354	-57.284	0.019	-0.008
-687.339	22.616	-0.085	0.069
-686.324	-101.757	-0.277	0.067
-685.310	-200.000	-0.065	-0.457
-684.295	800.000	-0.053	-0.189
-683.281	-200.000	0.019	-0.207
-682.266	-13.015	0.212	0.138
-681.251	-68.779	0.343	0.133
-680.237	-200.000	0.031	0.297
-679.222	-200.000	-0.085	-0.463
-678.208	-200.000	0.031	0.365
-677.193	96.280	-0.211	-0.241
-676.178	4.561	0.094	0.069
-675.164	42.116	0.133	-0.121
-674.149	-70.525	-0.093	0.035
-673.135	574.191	-0.092	-0.224
-672.120	800.000	-0.035	0.120
-671.105	-116.482	-0.354	-0.065
-670.091	20.425	0.161	0.130
-669.076	-111.808	-0.270	0.055
-668.062	50.708	-0.169	-0.160
-667.047	-105.385	-0.430	0.098
-666.032	27.093	-0.065	0.055
-665.018	-200.000	-0.037	-0.298
-664.003	-200.000	0.015	0.160
-662.989	149.206	-0.162	-0.219
-661.974	-111.917	0.126	-0.025
-660.959	392.555	-0.088	0.183
-659.945	280.054	-0.033	0.058
-658.930	300.116	-0.115	-0.212
-657.916	-84.057	-0.017	0.005
-656.901	97.681	0.056	0.064
-655.886	70.022	-0.213	-0.220
-654.872	800.000	-0.075	-0.224
-653.857	68.039	0.051	-0.052
-652.843	77.277	-0.137	0.145
-651.828	47.150	-0.230	0.214
-650.814	488.971	-0.155	0.353
-649.799	-200.000	0.049	-0.426
-648.784	-155.999	-0.084	0.005
-647.770	800.000	0.027	-0.083
-646.755	150.058	-0.070	0.096
-645.741	117.756	0.151	0.186
-644.726	-91.610	0.354	-0.101
-643.711	800.000	0.044	0.154
-642.697	245.684	0.176	0.296
-641.682	-11.117	-0.057	-0.038
-640.668	357.722	0.140	0.280
-639.653	-136.912	0.255	-0.029
-638.638	92.021	0.161	0.181
-637.624	234.655	-0.151	-0.249
-636.609	-79.612	-0.081	0.027
-635.595	45.520	-0.126	0.116
-634.580	37.679	0.214	-0.190
-633.565	-10.128	0.101	-0.067
-632.551	138.942	0.130	-0.171
-631.536	-6.266	0.221	-0.150
-630.522	133.686	0.019	0.024
-629.507	-41.855	-0.235	0.120
-628.492	43.053	0.322	-0.293
-627.478	-13.257	0.140	-0.091
-626.463	128.287	-0.093	-0.119
-625.449	-200.000	-0.058	0.294
-624.434	262.925	-0.086	-0.150
-623.419	-200.000	0.003	-0.199
-622.405	-200.000	0.022	-0.573
-621.390	-48.808	-0.218	-0.104
-620.376	15.703	-0.224	0.176
-619.361	0.980	0.057	0.041
-618.346	114.152	-0.133	0.161
-617.332	-7.005	0.182	-0.124
-616.317	-108.901	-0.072	0.015
-615.303	553.203	-0.032	0.078
-614.288	-200.000	0.027	0.153
-613.273	0.932	0.326	0.233
-612.259	-39.151	-0.114	-0.060
-611.244	18.516	0.158	0.126
-610.230	50.228	-0.194	0.183
-609.215	-200.000	0.038	0.409
-608.201	-71.717	-0.224	0.083
-607.186	-28.293	0.329	-0.190
-606.171	800.000	-0.063	0.186
-605.157	-22.629	-0.055	0.033
-604.142	9.928	-0.191	-0.145
-603.128	-43.163	-0.185	-0.094
-602.113	-151.184	-0.091	0.007
-601.098	-126.786	0.164	-0.024
-600.084	-17.009	0.289	-0.182
-599.069	-200.000	0.053	0.000
-598.055	202.042	0.062	-0.095
-597.040	-10.927	-0.348	-0.229
-596.025	540.317	-0.044	0.104
-595.011	242.102	-0.071	0.118
-593.996	-200.000	0.003	0.024
-592.982	-68.332	-0.108	-0.042
-591.967	155.309	0.157	-0.215
-590.952	-6.894	0.201	0.136
-589.938	-200.000	0.044	0.222
-588.923	13.965	-0.174	0.135
-587.909	-13.472	-0.433	-0.280
-586.894	-200.000	0.045	-0.331
-585.879	-200.000	0.006	-0.044
-584.865	18.568	-0.132	0.105
-583.850	6.395	-0.074	-0.055
-582.836	-200.000	-0.030	0.304
-581.821	-144.338	-0.093	0.009
-580.806	461.564	0.106	-0.236
-579.792	471.846	0.124	-0.279
-578.777	-107.147	-0.109	0.024
-577.763	-199.106	0.109	-0.001
-576.748	-200.000	-0.007	0.079
-575.733	506.907	-0.143	-0.330
-574.719	-177.187	0.286	-0.007
-573.704	154.878	0.222	-0.304
-572.690	-115.004	-0.036	0.007
-571.675	-74.374	0.227	0.082
-570.661	-140.332	0.290	0.030
-569.646	62.666	-0.278	-0.277
-568.631	405.084	-0.075	0.158
-567.617	-89.767	-0.232	0.068
-566.602	145.613	-0.149	0.199
-565.588	323.958	-0.131	0.249
-564.573	554.489	-0.169	0.406
-563.558	-200.000	0.033	-0.228
-562.544	-200.000	0.012	-0.094
-561.529	-188.836	-0.233	0.003
-560.515	103.395	0.072	-0.084
-559.500	17.742	-0.137	0.108
-558.485	506.654	-0.080	-0.184
-557.471	28.517	0.331	-0.279
-556.456	-87.458	-0.246	0.074
-555.442	-58.089	-0.264	0.115
-554.427	118.572	0.312	0.384
-553.412	800.000	0.089	0.266
-552.398	607.544	0.086	-0.215
-551.383	-5.743	-0.037	-0.026
-550.369	8.714	-0.138	-0.104
-549.354	-200.000	-0.013	0.066
-548.339	-35.396	0.041	-0.022
-547.325	-19.333	0.095	-0.058
-546.310	800.000	0.143	0.422
-545.296	39.382	-0.164	0.146
-544.281	35.980	0.171	0.150
-543.266	488.375	-0.074	-0.168
-542.252	-43.034	-0.084	-0.043
-541.237	-38.976	0.273	0.143
-540.223	73.189	-0.377	-0.393
-539.208	-91.599	0.243	0.069
-538.193	-200.000	-0.015	0.402
-537.179	-53.207	0.378	-0.173
-536.164	-200.000	-0.015	-0.329
-535.150	89.670	-0.141	0.157
-534.135	-200.000	-0.026	0.245
-533.121	-183.599	0.330	0.006
-532.106	73.678	-0.145	-0.152
-531.091	307.230	0.073	0.135
-530.077	-73.843	-0.273	0.099
-529.062	-200.000	-0.018	0.274
-528.048	183.634	-0.231	-0.340
-527.033	-200.000	0.022	-0.115
-526.018	-112.368	-0.324	-0.064
-525.004	-80.949	-0.120	0.039
-523.989	-171.419	0.330	-0.011
-522.975	525.198	-0.032	0.074
-521.960	-200.000	0.035	-0.165
-520.945	-200.000	-0.050	0.251
-519.931	-84.767	-0.413	0.129
-518.916	97.496	-0.077	-0.088
-517.902	-200.000	-0.062	-0.349
-516.887	293.839	0.075	-0.136
-515.872	-37.762	0.103	-0.055
-514.858	29.898	0.322	-0.273
-513.843	-200.000	0.020	0.189
-512.829	69.785	0.166	-0.171
-511.814	368.677	0.069	-0.138
-510.799	-88.606	0.213	0.063
-509.785	800.000	0.051	0.153
-508.770	-114.453	0.356	0.068
-507.756	800.000	-0.068	0.193
-506.741	218.995	0.030	0.048
-505.726	7.456	-0.198	-0.147
-504.712	-128.250	0.109	-0.015
-503.697	800.000	-0.094	-0.279
-502.683	-200.000	-0.026	0.178
-501.668	255.470	-0.056	0.095
-500.653	0.442	-0.136	0.097
-499.639	-117.917	0.239	0.043
-498.624	149.305	0.147	-0.198
-497.610	-58.092	-0.235	0.102
-496.595	21.786	0.090	0.073
-495.581	-171.927	0.240	0.008
-494.566	-61.887	-0.450	-0.187
-493.551	553.984	-0.061	-0.145
-492.537	-128.780	0.055	0.008
-491.522	236.195	-0.069	0.113
-490.508	800.000	0.040	0.168
-489.493	-200.000	-0.016	-0.072
-488.478	-200.000	-0.068	0.418
-487.464	-115.457	-0.011	0.002
-486.449	555.128	-0.156	-0.373
-485.435	-63.251	-0.197	0.080
-484.420	-123.546	0.060	0.010
-483.405	84.394	0.261	0.283
-482.391	-200.000	0.008	-0.380
-481.376	800.000	-0.043	0.152
-480.362	135.154	-0.216	0.279
-479.347	-82.016	-0.146	0.047
-478.332	13.365	0.159	-0.123
-477.318	800.000	-0.118	0.326
-476.303	-200.000	0.027	-0.268
-475.289	177.165	0.282	0.407
-474.274	-105.681	-0.207	-0.047
-473.259	357.018	-0.060	-0.118
-472.245	-37.400	-0.343	-0.182
-471.230	188.124	0.152	-0.225
-470.216	-142.304	-0.139	0.014
-469.201	-125.450	0.183	-0.028
-468.186	-200.000	0.001	0.343
-467.172	-200.000	0.082	0.374
-466.157	-27.888	-0.192	0.110
-465.143	175.638	-0.289	-0.415
-464.128	-89.678	0.302	0.088
-463.113	284.950	-0.085	-0.151
-462.099	-78.860	-0.204	-0.069
-461.084	17.192	-0.207	-0.163
-460.070	-133.418	-0.106	0.013
-459.055	16.454	0.170	0.134
-458.040	-159.725	-0.328	0.018
-457.026	771.339	-0.099	0.269
-456.011	-103.369	-0.270	0.063
-454.997	188.911	0.130	-0.193
-453.982	8.625	0.344	-0.257
-452.968	-41.154	-0.152	-0.078
-451.953	6.651	-0.178	0.131
-450.938	-149.164	0.110	-0.009
-449.924	800.000	-0.062	0.221
-448.909	800.000	0.005	0.019
-447.895	-176.143	-0.403	-0.011
-446.880	-51.033	0.245	-0.114
-445.865	-132.144	-0.142	0.018
-444.851	-200.000	-0.045	-0.407
-443.836	-73.495	0.202	-0.073
-442.822	-36.748	0.070	-0.037
-441.807	-58.334	-0.107	-0.046
-440.792	-200.000	0.058	-0.564
-439.778	-200.000	-0.013	0.200
-438.763	113.312	-0.254	0.305
-437.749	-200.000	-0.000	-0.054
-436.734	-5.662	-0.267	-0.182
-435.719	-81.568	0.387	-0.126
-434.705	-32.134	-0.279	-0.154
-433.690	-129.034	0.338	0.047
-432.676	-41.525	-0.201	-0.103
-431.661	170.562	-0.182	0.258
-430.646	211.094	-0.073	-0.113
-429.632	-160.181	0.072	-0.004
-428.617	-91.460	0.145	-0.041
-427.603	-200.000	0.004	0.127
-426.588	-27.906	0.148	0.085
-425.573	202.130	-0.256	-0.391
-424.559	-200.000	-0.008	-0.276
-423.544	443.688	0.082	-0.178
-422.530	7.396	0.064	0.048
-421.515	-96.197	-0.203	0.053
-420.500	-46.500	-0.136	-0.066
-419.486	97.249	-0.103	0.117
-418.471	360.530	-0.062	0.124
-417.457	386.895	-0.172	-0.352
-416.442	-135.328	-0.146	-0.017
-415.428	-94.184	0.057	-0.016
-414.413	800.000	0.069	-0.257
-413.398	-30.437	-0.115	0.065
-412.384	281.640	0.104	0.185
-411.369	1.167	0.267	-0.190
-410.355	409.047	0.070	0.146
-409.340	-140.096	-0.316	0.033
-408.325	58.873	0.171	0.166
-407.311	161.425	-0.041	-0.057
-406.296	78.628	-0.069	0.073
-405.282	-169.768	0.158	0.006
-404.267	46.375	0.078	-0.072
-403.252	48.608	-0.088	0.082
-402.238	-200.000	-0.046	0.304
-401.223	-133.841	0.141	0.017
-400.209	-200.000	-0.033	0.354
-399.194	133.374	-0.093	-0.119
-398.179	800.000	0.082	-0.252
-397.165	73.003	-0.152	0.157
-396.150	-146.564	-0.287	0.025
-395.136	0.900	-0.197	-0.140
-394.121	135.997	0.035	-0.046
-393.106	-141.569	0.117	0.012
-392.092	76.522	0.257	-0.270
-391.077	24.962	0.260	0.213
-390.063	10.869	-0.105	0.079
-389.048	40.409	0.083	0.074
-388.033	-167.465	-0.108	-0.004
-387.019	800.000	0.058	-0.224
-386.004	79.931	0.145	-0.154
-384.990	174.949	0.204	-0.291
-383.975	-200.000	0.004	-0.369
-382.960	-167.676	0.167	0.007
-381.946	0.291	-0.267	-0.189
-380.931	-39.004	0.044	0.023
-379.917	-193.927	-0.068	-0.001
-378.902	-85.497	-0.297	0.092
-377.888	193.868	0.097	-0.145
-376.873	104.277	0.090	-0.104
-375.858	240.163	-0.190	0.313
-374.844	-113.483	0.293	0.057
-373.829	-200.000	0.009	-0.133
-372.815	-200.000	-0.056	-0.243
-371.800	81.755	-0.159	0.170
-370.785	-40.301	-0.264	-0.136
-369.771	15.507	0.077	0.060
-368.756	-66.344	0.085	0.034
-367.742	197.067	-0.050	-0.076
-366.727	-200.000	-0.021	0.108
-365.712	-18.283	0.171	0.106
-364.698	-200.000	0.004	0.109
-363.683	2.432	0.068	-0.049
-362.669	89.925	0.141	-0.156
-361.654	-18.677	-0.124	-0.077
-360.639	541.660	-0.212	-0.500
-359.625	-129.099	0.166	-0.023
-358.610	100.676	-0.111	0.128
-357.596	-140.876	-0.296	-0.030
-356.581	800.000	-0.067	0.239
-355.566	800.000	-0.105	0.353
-354.552	71.205	0.198	-0.203
-353.537	341.847	-0.163	0.316
-352.523	-200.000	0.002	-0.094
-351.508	57.211	-0.265	-0.255
-350.493	125.786	-0.224	0.280
-349.479	-93.301	-0.139	0.038
-348.464	800.000	-0.044	-0.129
-347.450	149.806	-0.165	-0.221
-346.435	636.513	-0.007	0.018
-345.420	-112.112	0.254	0.050
-344.406	217.628	0.112	-0.176
-343.391	-200.000	0.015	0.206
-342.377	-75.468	-0.409	0.144
-341.362	-113.172	0.324	-0.063
-340.348	56.798	-0.175	-0.168
-339.333	-40.389	-0.081	0.041
-338.318	-75.228	-0.094	-0.033
-337.304	130.235	0.225	0.284
-336.289	-200.000	-0.005	0.062
-335.275	-12.626	-0.181	-0.117
-334.260	510.016	-0.076	-0.174
-333.245	77.746	0.130	0.137
-332.231	-77.995	-0.180	0.061
-331.216	-50.710	0.138	0.064
-330.202	-200.000	-0.034	0.234
-329.187	-135.279	0.072	0.008
-328.172	-104.451	0.123	-0.028
-327.158	541.738	0.158	-0.372
-326.143	24.100	-0.018	0.015
-325.129	413.556	0.183	0.383
-324.114	-200.000	0.030	0.202
-323.099	-140.395	-0.244	0.025
-322.085	-57.438	0.207	0.090
-321.070	-71.276	0.097	-0.036
-320.056	-200.000	0.011	-0.098
-319.041	-33.672	-0.079	-0.043
-318.026	-200.000	0.052	0.322
-317.012	800.000	-0.075	-0.213
-315.997	643.118	0.079	-0.198
-314.983	14.608	-0.099	-0.076
-313.968	-200.000	-0.014	0.255
-312.953	173.519	-0.247	0.351
-311.939	-200.000	-0.023	0.414
-310.924	3.087	0.253	-0.181
-309.910	667.279	0.032	0.081
-308.895	800.000	0.066	0.283
-307.880	-83.245	-0.111	0.035
-306.866	719.145	0.058	-0.153
-305.851	-22.643	0.077	-0.046
-304.837	-37.191	-0.168	0.089
-303.822	800.000	-0.053	-0.220
-302.807	67.319	0.121	-0.121
-301.793	319.291	-0.135	-0.252
-300.778	-6.085	-0.127	0.086
-299.764	-86.627	-0.153	0.046
-298.749	330.783	0.115	-0.219
-297.735	561.991	-0.103	0.246
-296.720	341.699	0.033	-0.063
-295.705	-162.101	0.096	-0.005
-294.691	-40.314	0.173	-0.089
-293.676	193.167	-0.154	-0.229
-292.662	127.430	-0.147	0.184
-291.647	126.664	0.182	-0.227
-290.632	-150.168	0.039	0.003
-289.618	139.106	-0.081	0.105
-288.603	-43.247	0.211	-0.105
-287.589	144.856	-0.069	0.091
-286.574	-167.456	0.204	0.008
-285.559	126.800	-0.121	-0.151
-284.545	-125.956	-0.072	0.011
-283.530	117.592	0.103	0.125
-282.516	137.461	-0.273	-0.352
-281.501	-90.706	0.189	0.054
-280.486	-44.738	0.110	-0.054
-279.472	34.704	0.082	-0.071
-278.457	394.284	-0.022	-0.044
-277.443	511.752	0.124	0.285
-276.428	-81.753	-0.304	-0.098
-275.413	376.882	-0.114	0.229
-274.399	-37.066	0.401	0.211
-273.384	106.018	-0.275	-0.321
-272.370	-149.372	0.421	0.033
-271.355	800.000	0.100	0.417
-270.340	-34.067	0.181	0.098
-269.326	-0.768	0.099	0.069
-268.311	397.600	0.068	-0.139
-267.297	-200.000	0.000	0.129
-266.282	-80.181	-0.142	0.047
-265.267	-8.366	-0.317	-0.210
-264.253	-12.203	-0.194	-0.125
-263.238	40.093	-0.103	0.091
-262.224	-47.675	-0.244	0.116
-261.209	66.313	0.054	-0.054
-260.195	604.555	0.036	-0.089
-259.180	-70.089	-0.072	0.027
-258.165	-200.000	-0.022	-0.164
-257.151	133.383	0.056	-0.071
-256.136	-200.000	-0.003	0.093
-255.122	-17.252	-0.215	0.134
-254.107	-200.000	-0.017	0.173
-253.092	-190.357	-0.166	0.002
-252.078	-79.136	0.334	-0.112
-251.063	-188.295	-0.166	-0.002
-250.049	54.033	0.200	0.190
-249.034	63.134	-0.230	0.227
-248.019	6.780	0.082	0.060
-247.005	-174.522	0.031	-0.001
-245.990	-200.000	0.005	-0.161
-244.976	-153.206	0.151	-0.010
-243.961	-200.000	0.017	-0.194
-242.946	800.000	0.063	-0.204
-241.932	340.873	-0.239	0.458
-240.917	695.593	0.020	0.052
-239.903	-200.000	0.033	-0.210
-238.888	800.000	-0.055	-0.175
-237.873	-55.592	-0.054	0.024
-236.859	800.000	-0.067	-0.209
-235.844	-162.006	-0.282	0.014
-234.830	356.669	-0.019	0.037
-233.815	717.511	0.074	-0.193
-232.800	85.391	0.110	0.119
-231.786	477.674	-0.063	0.141
-230.771	136.539	-0.076	-0.098
-229.757	-79.521	0.258	0.086
-228.742	-200.000	-0.016	-0.133
-227.727	-200.000	-0.006	-0.195
-226.713	29.289	0.160	-0.134
-225.698	-114.505	0.023	0.004
-224.684	800.000	0.100	0.298
-223.669	-24.619	0.265	-0.155
-222.655	800.000	-0.013	0.055
-221.640	-59.149	0.267	-0.113
-220.625	-50.307	0.142	0.066
-219.611	276.654	-0.145	0.252
-218.596	763.827	-0.115	0.307
-217.582	34.851	-0.125	-0.108
-216.567	185.952	0.246	-0.359
-215.552	-200.000	-0.016	-0.248
-214.538	181.920	0.274	0.397
-213.523	118.472	0.100	0.121
-212.509	-166.460	-0.177	-0.007
-211.494	387.125	0.077	-0.157
-210.479	-136.265	0.396	0.045
-209.465	35.507	-0.213	-0.184
-208.450	-81.110	0.221	0.072
-207.436	-128.588	-0.077	-0.011
-206.421	58.127	-0.217	0.209
-205.406	122.866	-0.073	-0.090
-204.392	800.000	-0.031	0.132
-203.377	-200.000	-0.091	0.417
-202.363	-42.515	-0.111	-0.056
-201.348	-200.000	-0.012	0.148
-200.333	-100.921	-0.180	-0.043
-199.319	72.445	0.108	0.111
-198.304	-98.881	0.259	-0.065
-197.290	-160.573	0.306	0.016
-196.275	-200.000	0.001	0.195
-195.260	-200.000	0.081	0.509
-194.246	-70.467	0.140	0.052
-193.231	-200.000	0.007	-0.352
-192.217	374.054	0.089	-0.178
-191.202	-200.000	-0.009	0.169
-190.187	20.504	-0.257	0.204
-189.173	800.000	0.092	0.352
-188.158	120.972	-0.223	-0.272
-187.144	48.170	0.138	-0.127
-186.129	-200.000	0.002	-0.090
-185.114	-200.000	0.020	-0.108
-184.100	-200.000	-0.030	-0.175
-183.085	-114.951	0.280	-0.052
-182.071	-102.801	0.262	-0.061
-181.056	-27.428	0.158	0.090
-180.042	-38.116	-0.060	-0.031
-179.027	36.910	-0.112	0.097
-178.012	800.000	0.116	0.326
-176.998	800.000	0.062	0.250
-175.983	192.047	0.200	-0.295
-174.969	-64.953	0.376	-0.149
-173.954	798.498	-0.082	0.222
-172.939	23.782	-0.077	-0.062
-171.925	-108.679	-0.123	0.026
-170.910	-32.979	-0.259	-0.141
-169.896	-106.589	0.174	0.038
-168.881	-200.000	-0.355	0.000
-167.866	35.005	0.099	-0.085
-166.852	800.000	0.003	-0.010
-165.837	-200.000	-0.009	0.063
-164.823	-200.000	-0.039	0.249
-163.808	94.409	0.192	0.213
-162.793	366.014	0.139	0.275
-161.779	37.742	0.086	-0.075
-160.764	-72.572	0.058	0.021
-159.750	-147.954	0.296	0.024
-158.735	-125.202	-0.342	-0.051
-157.720	-31.338	0.327	-0.181
-156.706	-0.949	0.040	0.027
-155.691	421.650	-0.201	0.423
-154.677	114.976	0.298	-0.356
-153.662	-59.585	0.282	0.119
-152.647	-90.588	-0.247	-0.070
-151.633	-41.452	0.328	-0.166
-150.618	-114.244	-0.235	0.044
-149.604	173.348	-0.171	0.242
-148.589	-63.309	0.260	0.105
-147.574	16.505	-0.180	-0.139
-146.560	-75.876	-0.103	0.036
-145.545	7.138	0.359	0.263
-144.531	-72.476	0.142	0.051
-143.516	258.989	0.118	0.200
-142.502	-116.788	0.098	0.018
-141.487	451.099	-0.141	0.305
-140.472	-200.000	0.041	0.308
-139.458	-12.411	-0.192	0.123
-138.443	172.949	-0.224	0.317
-137.429	-170.034	0.379	0.013
-136.414	120.537	0.289	-0.352
-135.399	-200.000	-0.263	0.001
-134.385	-76.891	-0.258	0.088
-133.370	317.858	-0.086	-0.160
-132.356	-107.902	-0.357	0.076
-131.341	-38.264	-0.215	0.112
-130.326	48.861	0.075	0.069
-129.312	-122.868	0.315	0.050
-128.297	-89.498	-0.102	-0.029
-127.283	-200.000	0.025	0.108
-126.268	-128.658	0.244	-0.034
-125.253	37.013	-0.032	0.028
-124.239	51.790	0.101	0.095
-123.224	467.294	0.132	0.291
-122.210	87.042	0.236	0.255
-121.195	-59.439	-0.318	-0.134
-120.180	-135.307	-0.191	0.022
