DTS Sentinel unit serial number:	SN413079Multiplexer serial number:	ORYXHardware model number:	OX4-SRSoftware version number:	ORYX F/W v4.00 Oryx Data Collector v3.7.2.0data status	okinstallation	princeton_trtdifferential loss correction	single-endedforward channel	channel 1reverse channel	N/Adate	2019/09/19time	07:26:35forward acquisition time	60.00reverse acquisition time	0.00gamma	496.2192k internal	0.2342k external	0.2342temperature offset calibration	1.0012default loss term (dB/km)	0.3790temperature slope calibration	1.0000multiplexer offset coefficient	1.0000multiplexer slope coefficient	1.0000fibre end	0.00T internal ref (°C)	19.19T ext. ref 1 (°C)	0.55T ext. ref 2 (°C)	13.80length (m)	temperature (°C)	Stokes	anti-Stokes-747.200	-102.633	0.143	-0.034
-746.185	207.089	-0.212	0.332
-745.171	103.785	-0.275	0.324
-744.156	-200.000	-0.051	0.293
-743.142	-16.711	-0.098	0.062
-742.127	79.539	-0.093	-0.100
-741.112	-141.630	-0.190	-0.019
-740.098	800.000	0.027	-0.117
-739.083	-89.671	-0.159	0.047
-738.069	-159.681	-0.143	-0.008
-737.054	-200.000	0.072	-0.487
-736.039	-1.168	-0.404	-0.286
-735.025	800.000	0.054	0.218
-734.010	-60.770	-0.051	0.022
-732.996	767.765	0.044	0.121
-731.981	-36.824	-0.005	0.003
-730.966	309.924	-0.104	0.195
-729.952	-78.322	-0.448	-0.154
-728.937	-200.000	0.016	0.245
-727.923	-131.351	0.112	0.015
-726.908	-56.773	0.132	0.059
-725.894	-41.444	-0.470	-0.242
-724.879	355.384	0.124	0.247
-723.864	-200.000	-0.006	-0.368
-722.850	-200.000	-0.015	0.220
-721.835	800.000	-0.016	-0.048
-720.821	-39.040	0.151	0.079
-719.806	800.000	-0.051	-0.176
-718.791	-153.435	0.202	-0.014
-717.777	-3.763	-0.259	-0.180
-716.762	-159.603	0.255	0.014
-715.748	452.091	0.085	0.188
-714.733	35.255	-0.200	0.176
-713.718	800.000	-0.096	0.267
-712.704	-45.954	-0.172	0.085
-711.689	566.158	-0.028	-0.068
-710.675	8.142	-0.258	-0.194
-709.660	153.201	-0.051	-0.070
-708.645	24.775	0.071	-0.059
-707.631	432.882	0.176	-0.381
-706.616	-200.000	-0.057	0.419
-705.602	16.483	-0.348	-0.275
-704.587	-200.000	-0.020	0.221
-703.572	-200.000	0.018	-0.206
-702.558	239.284	0.036	0.060
-701.543	-200.000	-0.002	-0.113
-700.529	334.192	0.015	-0.029
-699.514	-105.097	-0.288	0.066
-698.499	-85.046	-0.333	0.104
-697.485	0.784	-0.247	0.177
-696.470	74.595	-0.152	0.160
-695.456	13.649	0.257	-0.200
-694.441	21.960	0.147	-0.120
-693.426	87.529	0.202	-0.224
-692.412	429.628	-0.039	0.084
-691.397	310.955	0.067	0.126
-690.383	-165.431	-0.171	0.007
-689.368	479.171	-0.042	0.094
-688.354	-96.052	-0.214	-0.057
-687.339	-128.486	-0.242	-0.034
-686.324	-200.000	0.034	-0.163
-685.310	59.553	-0.064	-0.063
-684.295	-80.390	-0.292	0.098
-683.281	800.000	0.066	-0.206
-682.266	151.979	0.182	-0.248
-681.251	33.689	-0.131	0.114
-680.237	-200.000	-0.052	0.274
-679.222	138.110	0.077	0.101
-678.208	420.184	-0.234	0.501
-677.193	-112.460	-0.451	-0.090
-676.178	-129.986	-0.196	0.027
-675.164	800.000	0.061	-0.192
-674.149	95.633	-0.043	-0.049
-673.135	800.000	-0.142	-0.396
-672.120	-12.491	0.183	-0.120
-671.105	-162.354	-0.261	-0.013
-670.091	800.000	0.061	-0.170
-669.076	-4.963	0.066	0.045
-668.062	26.500	0.059	-0.049
-667.047	-60.851	-0.263	0.111
-666.032	-34.375	0.048	0.026
-665.018	-49.573	-0.366	0.174
-664.003	389.803	0.043	0.088
-662.989	71.006	-0.148	-0.153
-661.974	-64.636	-0.163	0.066
-660.959	-123.219	0.552	0.088
-659.945	-168.230	0.094	0.004
-658.930	-154.011	-0.017	0.001
-657.916	25.507	0.172	-0.143
-656.901	-30.096	0.278	0.158
-655.886	-87.333	-0.184	0.056
-654.872	-122.015	-0.218	0.036
-653.857	-63.197	-0.137	-0.056
-652.843	-155.245	0.164	0.011
-651.828	-17.282	-0.272	-0.171
-650.814	767.428	-0.055	-0.150
-649.799	800.000	-0.021	-0.064
-648.784	-93.139	-0.226	-0.063
-647.770	-1.429	-0.145	0.102
-646.755	-4.052	0.178	0.123
-645.741	356.847	0.034	-0.068
-644.726	62.536	-0.180	0.180
-643.711	72.744	-0.101	-0.105
-642.697	254.838	-0.103	-0.176
-641.682	19.845	0.270	-0.217
-640.668	-75.033	-0.161	0.057
-639.653	800.000	0.063	-0.232
-638.638	266.177	-0.007	0.013
-637.624	-53.960	0.345	0.157
-636.609	-100.915	0.351	0.086
-635.595	800.000	0.043	0.132
-634.580	18.241	0.197	-0.157
-633.565	82.668	-0.144	-0.156
-632.551	-102.580	0.268	-0.064
-631.536	36.496	0.232	0.204
-630.522	299.266	-0.184	0.337
-629.507	-86.897	-0.389	-0.119
-628.492	319.427	-0.093	0.175
-627.478	-12.192	0.289	-0.189
-626.463	800.000	-0.039	-0.154
-625.449	-200.000	-0.053	-0.374
-624.434	-66.708	-0.276	0.109
-623.419	20.054	-0.130	-0.104
-622.405	113.025	0.310	0.375
-621.390	-58.153	0.195	0.085
-620.376	87.567	-0.102	0.113
-619.361	-102.494	-0.265	-0.063
-618.346	-155.865	0.227	0.014
-617.332	-126.629	0.240	-0.035
-616.317	800.000	-0.084	0.279
-615.303	-200.000	-0.040	-0.335
-614.288	-102.111	0.250	0.060
-613.273	-119.135	0.305	-0.053
-612.259	50.726	-0.069	-0.065
-611.244	-136.234	0.116	-0.013
-610.230	141.131	-0.162	0.214
-609.215	-200.000	0.011	0.192
-608.201	-34.437	-0.395	-0.216
-607.186	-134.306	-0.116	0.014
-606.171	-131.503	-0.152	-0.020
-605.157	800.000	0.085	0.281
-604.142	-200.000	-0.025	-0.425
-603.128	-24.297	0.118	-0.070
-602.113	418.584	0.063	-0.135
-601.098	2.239	-0.107	0.077
-600.084	79.868	0.225	-0.240
-599.069	150.310	0.156	0.211
-598.055	-143.320	-0.293	-0.028
-597.040	-200.000	-0.005	0.121
-596.025	30.491	0.142	-0.121
-595.011	61.097	0.164	0.163
-593.996	11.395	-0.204	-0.156
-592.982	-200.000	-0.026	0.135
-591.967	94.835	0.159	-0.180
-590.952	335.417	-0.099	-0.191
-589.938	800.000	0.092	0.283
-588.923	-94.401	-0.152	-0.041
-587.909	101.029	-0.110	-0.127
-586.894	-56.655	-0.209	-0.092
-585.879	800.000	-0.082	-0.274
-584.865	33.075	0.200	0.172
-583.850	-187.233	-0.240	0.003
-582.836	-200.000	0.013	-0.167
-581.821	-65.214	-0.388	-0.156
-580.806	-84.046	0.216	-0.068
-579.792	-65.646	0.198	0.079
-578.777	-34.291	-0.081	0.044
-577.763	364.049	0.043	0.086
-576.748	-75.113	0.209	0.074
-575.733	556.565	-0.064	0.153
-574.719	119.957	-0.058	0.072
-573.704	41.308	0.173	0.156
-572.690	-62.396	0.096	-0.040
-571.675	-200.000	0.043	0.189
-570.661	-123.794	0.067	0.011
-569.646	144.150	-0.103	-0.137
-568.631	539.674	-0.164	0.388
-567.617	-200.000	0.036	-0.216
-566.602	-200.000	-0.034	0.155
-565.588	-200.000	0.144	-0.001
-564.573	-200.000	0.060	0.386
-563.558	-66.595	0.324	0.128
-562.544	501.080	0.076	-0.175
-561.529	-200.000	-0.009	-0.135
-560.515	105.819	-0.098	0.116
-559.500	162.674	0.203	0.283
-558.485	1.239	0.237	0.169
-557.471	-135.448	-0.279	-0.033
-556.456	518.685	0.020	-0.047
-555.442	101.861	0.045	0.052
-554.427	-200.000	0.035	0.266
-553.412	-200.000	0.013	-0.083
-552.398	800.000	0.046	-0.139
-551.383	-200.000	-0.067	-0.410
-550.369	-17.069	0.170	0.106
-549.354	168.469	0.087	-0.123
-548.339	-9.960	0.190	-0.126
-547.325	-200.000	-0.024	0.250
-546.310	-110.354	-0.026	-0.005
-545.296	458.744	-0.120	0.265
-544.281	63.970	0.077	0.077
-543.266	-200.000	0.017	0.174
-542.252	-106.535	-0.053	0.012
-541.237	192.772	0.098	0.147
-540.223	-50.935	-0.159	-0.074
-539.208	800.000	0.013	-0.050
-538.193	-200.000	0.011	-0.254
-537.179	-200.000	-0.010	-0.044
-536.164	430.754	0.145	0.313
-535.150	13.385	0.326	-0.251
-534.135	-200.000	-0.012	-0.131
-533.121	61.997	-0.163	0.161
-532.106	153.408	-0.328	-0.446
-531.091	-200.000	0.047	-0.251
-530.077	-28.695	-0.287	-0.164
-529.062	800.000	-0.044	-0.156
-528.048	800.000	-0.140	0.469
-527.033	-200.000	-0.084	-0.509
-526.018	-15.729	0.180	0.114
-525.004	236.602	-0.004	0.007
-523.989	-79.366	0.264	0.089
-522.975	-200.000	0.023	-0.181
-521.960	-162.016	-0.239	-0.012
-520.945	-133.362	0.064	-0.008
-519.931	-71.456	-0.050	-0.019
-518.916	-200.000	0.037	0.207
-517.902	-82.203	0.277	0.090
-516.887	158.214	-0.250	0.344
-515.872	-24.696	-0.233	0.137
-514.858	-200.000	-0.037	-0.185
-513.843	112.634	-0.025	-0.030
-512.829	56.711	-0.121	-0.117
-511.814	239.475	-0.087	0.144
-510.799	-94.785	0.309	0.083
-509.785	-43.773	-0.257	-0.128
-508.770	-7.312	-0.174	0.117
-507.756	452.132	0.024	0.052
-506.741	24.509	-0.343	-0.282
-505.726	621.329	-0.079	-0.197
-504.712	219.137	-0.171	0.272
-503.697	-121.427	-0.124	-0.020
-502.683	75.364	-0.096	0.101
-501.668	-129.965	-0.346	0.047
-500.653	196.210	-0.166	0.251
-499.639	-80.847	0.168	0.055
-498.624	-127.401	-0.435	-0.063
-497.610	-142.775	-0.523	0.051
-496.595	-128.500	0.094	0.013
-495.581	51.258	0.276	0.260
-494.566	-124.266	-0.045	0.007
-493.551	-68.604	0.377	-0.145
-492.537	31.758	0.258	0.220
-491.522	-133.220	0.226	0.028
-490.508	800.000	0.083	-0.305
-489.493	184.589	-0.176	-0.258
-488.478	800.000	0.117	0.345
-487.464	204.532	0.045	0.069
-486.449	139.245	-0.251	-0.327
-485.435	-50.463	-0.402	0.188
-484.420	-200.000	0.012	0.060
-483.405	-200.000	0.014	-0.075
-482.391	122.496	0.093	0.115
-481.376	-165.280	0.101	-0.004
-480.362	77.571	0.278	0.294
-479.347	-1.994	-0.270	0.188
-478.332	-123.074	-0.411	-0.065
-477.318	-200.000	-0.058	-0.325
-476.303	-2.383	-0.251	-0.174
-475.289	-59.775	-0.260	-0.110
-474.274	-110.852	-0.264	0.054
-473.259	-200.000	0.001	0.069
-472.245	169.245	-0.101	-0.143
-471.230	800.000	0.052	0.147
-470.216	131.870	-0.102	0.130
-469.201	-134.863	-0.057	-0.007
-468.186	227.101	-0.124	0.200
-467.172	-200.000	-0.008	0.323
-466.157	-74.376	-0.218	0.078
-465.143	32.317	-0.069	0.059
-464.128	25.865	-0.291	0.240
-463.113	223.927	-0.074	0.118
-462.099	-104.104	-0.198	0.046
-461.084	-91.233	0.182	-0.052
-460.070	-135.382	-0.135	0.016
-459.055	-46.425	0.128	-0.062
-458.040	800.000	0.115	-0.343
-457.026	428.306	-0.062	0.133
-456.011	-38.043	0.021	-0.011
-454.997	-64.891	-0.165	-0.066
-453.982	800.000	-0.071	0.250
-452.968	181.753	-0.227	-0.330
-451.953	-200.000	0.075	0.369
-450.938	103.482	0.094	-0.109
-449.924	84.937	0.235	-0.255
-448.909	-200.000	-0.006	-0.081
-447.895	-79.613	0.064	0.021
-446.880	-200.000	-0.151	-0.000
-445.865	26.432	-0.256	0.212
-444.851	-200.000	-0.014	0.189
-443.836	800.000	0.164	0.449
-442.822	-200.000	0.002	0.230
-441.807	374.001	0.144	-0.291
-440.792	-200.000	-0.035	0.183
-439.778	115.258	-0.068	0.082
-438.763	-49.317	0.361	-0.171
-437.749	800.000	0.003	0.012
-436.734	-135.792	0.350	-0.041
-435.719	24.405	0.122	-0.100
-434.705	365.492	-0.132	-0.262
-433.690	-192.146	0.155	0.001
-432.676	-86.896	0.169	0.051
-431.661	13.203	0.054	-0.042
-430.646	77.050	0.147	0.154
-429.632	-200.000	0.011	0.166
-428.617	-20.835	-0.356	0.216
-427.603	213.535	-0.165	-0.258
-426.588	-44.144	-0.177	-0.088
-425.573	800.000	0.030	0.118
-424.559	206.763	-0.098	-0.152
-423.544	800.000	0.131	-0.419
-422.530	231.151	0.028	0.045
-421.515	-200.000	-0.086	-0.443
-420.500	46.784	-0.317	-0.292
-419.486	-72.661	0.225	0.082
-418.471	-32.743	-0.283	-0.156
-417.457	800.000	-0.035	0.111
-416.442	-200.000	-0.009	-0.314
-415.428	-122.738	0.234	-0.037
-414.413	397.863	-0.108	-0.223
-413.398	-86.671	-0.518	-0.157
-412.384	6.049	-0.247	0.181
-411.369	-76.752	0.189	-0.065
-410.355	-151.445	0.125	-0.009
-409.340	351.077	0.104	-0.203
-408.325	-200.000	0.088	0.449
-407.311	800.000	-0.075	0.318
-406.296	-37.189	-0.155	0.082
-405.282	-48.037	0.097	0.046
-404.267	-200.000	0.020	-0.109
-403.252	-81.987	0.181	-0.058
-402.238	-0.755	-0.121	0.085
-401.223	11.432	-0.223	0.169
-400.209	-147.411	-0.023	-0.002
-399.194	-35.757	0.080	-0.043
-398.179	24.235	-0.278	-0.227
-397.165	276.335	0.157	-0.275
-396.150	800.000	-0.071	0.240
-395.136	-39.342	0.114	-0.059
-394.121	316.023	0.106	-0.198
-393.106	150.772	0.098	-0.132
-392.092	26.885	-0.387	-0.320
-391.077	-133.567	0.318	0.039
-390.063	383.309	-0.102	-0.208
-389.048	-200.000	-0.047	-0.379
-388.033	-77.351	0.091	-0.031
-387.019	669.327	-0.067	-0.172
-386.004	800.000	0.090	-0.262
-384.990	-71.746	-0.016	0.006
-383.975	248.607	-0.061	-0.102
-382.960	-200.000	-0.015	0.077
-381.946	800.000	0.082	-0.253
-380.931	-185.395	-0.128	-0.002
-379.917	-151.592	0.301	-0.022
-378.902	-67.933	-0.258	-0.099
-377.888	638.489	0.128	0.321
-376.873	-200.000	-0.034	0.227
-375.858	-136.927	0.148	-0.017
-374.844	-107.990	0.094	0.020
-373.829	-93.639	-0.238	-0.065
-372.815	-124.728	-0.032	0.005
-371.800	-59.326	0.077	0.033
-370.785	-84.457	-0.249	0.078
-369.771	-156.045	-0.220	0.014
-368.756	576.295	-0.042	-0.100
-367.742	691.189	0.060	0.154
-366.727	800.000	-0.035	-0.127
-365.712	-60.137	0.329	-0.139
-364.698	-200.000	0.005	0.086
-363.683	198.981	0.050	0.075
-362.669	800.000	0.018	0.064
-361.654	800.000	-0.078	0.256
-360.639	436.030	0.062	-0.133
-359.625	-200.000	-0.022	0.159
-358.610	317.802	0.232	-0.434
-357.596	187.541	0.079	0.116
-356.581	133.247	-0.275	-0.351
-355.566	19.367	0.179	-0.142
-354.552	40.110	0.258	-0.229
-353.537	275.898	0.061	-0.106
-352.523	-75.645	0.204	-0.071
-351.508	200.820	-0.141	-0.214
-350.493	-60.707	-0.319	-0.133
-349.479	-50.677	-0.272	0.126
-348.464	800.000	0.098	0.308
-347.450	800.000	-0.058	0.199
-346.435	515.566	-0.076	0.176
-345.420	800.000	-0.055	0.161
-344.406	791.288	0.100	-0.272
-343.391	800.000	-0.034	0.122
-342.377	547.687	-0.104	-0.246
-341.362	753.787	0.131	-0.349
-340.348	-185.406	0.490	0.007
-339.333	-200.000	0.042	0.257
-338.318	656.727	-0.044	0.112
-337.304	-25.414	0.134	0.078
-336.289	28.057	-0.103	0.086
-335.275	-63.973	0.156	0.063
-334.260	206.255	0.127	0.194
-333.245	523.183	0.074	0.171
-332.231	-200.000	0.011	0.152
-331.216	-200.000	-0.020	0.139
-330.202	-25.314	0.326	-0.190
-329.187	-120.217	0.080	-0.013
-328.172	-200.000	-0.026	-0.133
-327.158	2.951	0.033	0.024
-326.143	-156.483	0.322	-0.020
-325.129	301.384	0.104	0.190
-324.114	159.107	-0.130	0.178
-323.099	7.045	-0.170	-0.125
-322.085	-50.959	0.482	-0.223
-321.070	120.887	0.166	-0.204
-320.056	-153.177	0.273	0.019
-319.041	-200.000	-0.074	-0.341
-318.026	-200.000	0.025	-0.127
-317.012	288.662	-0.217	0.387
-315.997	-133.848	0.122	0.015
-314.983	472.884	0.047	0.105
-313.968	-6.788	0.064	0.043
-312.953	-200.000	-0.000	0.199
-311.939	800.000	-0.096	-0.290
-310.924	269.102	-0.135	-0.234
-309.910	-125.381	0.142	-0.021
-308.895	86.283	-0.208	-0.226
-307.880	36.883	0.275	0.239
-306.866	174.020	-0.111	0.158
-305.851	-200.000	0.008	0.083
-304.837	91.594	-0.138	-0.153
-303.822	-200.000	-0.005	0.086
-302.807	155.433	0.042	-0.057
-301.793	-200.000	-0.011	-0.198
-300.778	-9.880	0.087	0.057
-299.764	-80.565	-0.372	-0.122
-298.749	126.387	0.239	-0.297
-297.735	-143.566	-0.105	-0.010
-296.720	-91.116	0.104	0.029
-295.705	238.929	-0.083	-0.136
-294.691	317.092	-0.070	-0.130
-293.676	42.388	-0.109	-0.098
-292.662	138.147	-0.269	-0.347
-291.647	-200.000	-0.006	-0.090
-290.632	-200.000	0.022	-0.169
-289.618	199.137	0.034	0.052
-288.603	-200.000	0.013	-0.174
-287.589	800.000	0.031	0.134
-286.574	323.294	0.120	-0.225
-285.559	-200.000	-0.039	0.254
-284.545	-144.248	-0.184	-0.017
-283.530	-3.691	0.180	-0.123
-282.516	153.212	0.239	-0.322
-281.501	-106.549	0.426	0.093
-280.486	-200.000	0.031	0.138
-279.472	-44.847	0.295	0.145
-278.457	800.000	-0.039	-0.147
-277.443	566.235	-0.047	0.112
-276.428	-46.403	-0.369	0.178
-275.413	-200.000	-0.037	0.265
-274.399	-200.000	-0.026	-0.213
-273.384	-183.118	-0.248	-0.004
-272.370	-72.067	0.143	-0.052
-271.355	-101.768	-0.151	-0.036
-270.340	-200.000	0.038	0.364
-269.326	800.000	0.050	0.137
-268.311	-31.332	-0.059	-0.033
-267.297	121.537	-0.053	0.065
-266.282	52.519	-0.100	0.094
-265.267	-47.825	-0.226	-0.108
-264.253	-24.428	0.114	0.067
-263.238	-200.000	0.010	-0.127
-262.224	-47.269	-0.140	0.067
-261.209	-138.470	-0.136	0.015
-260.195	800.000	0.068	0.280
-259.180	-122.520	-0.315	-0.050
-258.165	-200.000	0.005	-0.031
-257.151	-138.735	-0.386	-0.041
-256.136	800.000	0.096	-0.312
-255.122	-78.402	0.192	0.065
-254.107	-102.856	-0.072	-0.017
-253.092	-37.106	-0.149	0.078
-252.078	59.004	-0.027	0.026
-251.063	-164.504	-0.382	0.017
-250.049	71.268	0.052	0.053
-249.034	-26.535	-0.190	0.109
-248.019	-100.865	0.254	0.061
-247.005	35.276	0.200	-0.173
-245.990	100.280	-0.060	0.069
-244.976	-112.265	0.101	-0.020
-243.961	352.282	0.173	0.338
-242.946	-200.000	0.025	-0.143
-241.932	361.377	0.142	-0.280
-240.917	-2.715	0.184	-0.126
-239.903	-139.916	-0.169	0.018
-238.888	800.000	0.031	-0.107
-237.873	-200.000	0.068	-0.581
-236.859	800.000	0.088	0.300
-235.844	-87.686	0.096	0.028
-234.830	800.000	0.045	0.165
-233.815	44.981	0.431	0.390
-232.800	-91.611	-0.472	0.132
-231.786	-62.697	-0.294	-0.120
-230.771	-200.000	0.087	0.411
-229.757	-41.512	-0.237	0.120
-228.742	-200.000	0.007	-0.206
-227.727	86.899	-0.166	-0.180
-226.713	398.645	-0.092	0.189
-225.698	538.051	0.156	0.364
-224.684	800.000	-0.155	-0.436
-223.669	-146.850	-0.419	0.035
-222.655	50.699	-0.163	0.151
-221.640	-39.476	0.304	0.157
-220.625	-146.316	0.408	-0.035
-219.611	-141.097	-0.565	0.057
-218.596	-200.000	0.027	-0.143
-217.582	800.000	-0.035	0.104
-216.567	-124.157	0.292	-0.045
-215.552	111.036	-0.067	-0.079
-214.538	412.000	-0.101	0.211
-213.523	-166.561	0.377	-0.015
-212.509	-90.901	0.351	0.099
-211.494	-200.000	0.200	-0.001
-210.479	-181.295	0.146	-0.003
-209.465	768.531	0.055	0.146
-208.450	325.645	0.046	0.087
-207.436	400.927	-0.039	0.080
-206.421	-200.000	-0.109	-0.499
-205.406	159.317	0.092	-0.125
-204.392	-200.000	0.040	0.323
-203.377	-200.000	-0.017	0.160
-202.363	636.585	0.022	0.054
-201.348	251.102	0.177	-0.296
-200.333	-19.359	-0.056	-0.034
-199.319	-200.000	0.046	0.301
-198.304	-20.225	0.090	-0.054
-197.290	800.000	-0.051	0.150
-196.275	-55.131	-0.125	-0.055
-195.260	-0.673	0.033	-0.023
-194.246	251.904	-0.082	0.137
-193.231	-135.765	-0.178	-0.021
-192.217	-200.000	-0.011	0.126
-191.202	800.000	0.107	0.376
-190.187	590.101	0.047	0.115
-189.173	-111.079	0.086	0.017
-188.158	-53.070	0.145	-0.065
-187.144	3.705	-0.082	-0.059
-186.129	-21.833	0.069	0.041
-185.114	-80.781	0.401	0.131
-184.100	43.753	-0.282	-0.253
-183.085	90.535	-0.168	0.184
-182.071	-200.000	-0.009	0.208
-181.056	-77.108	-0.092	0.032
-180.042	-73.978	0.379	-0.135
-179.027	-200.000	-0.003	0.053
-178.012	64.332	0.213	0.210
-176.998	241.118	-0.105	-0.172
-175.983	41.207	-0.154	0.136
-174.969	-31.491	-0.279	-0.154
-173.954	-66.002	-0.075	0.029
-172.939	-192.165	0.195	0.002
-171.925	-160.259	0.216	0.011
-170.910	-154.343	0.301	0.020
-169.896	-200.000	0.013	0.096
-168.881	317.180	0.140	-0.259
-167.866	800.000	-0.047	0.200
-166.852	87.495	-0.205	-0.223
-165.837	-39.509	0.385	0.197
-164.823	-34.037	0.165	0.089
-163.808	-59.101	-0.231	0.098
-162.793	-200.000	0.005	-0.379
-161.779	800.000	-0.119	-0.381
-160.764	-70.434	0.275	-0.102
-159.750	65.078	-0.159	0.158
-158.735	-113.582	0.494	0.095
-157.720	337.237	0.045	0.086
-156.706	170.204	-0.187	-0.262
-155.691	-150.380	0.272	-0.021
-154.677	-56.760	0.293	0.127
-153.662	55.755	0.066	-0.062
-152.647	504.197	-0.130	0.295
-151.633	423.019	0.058	0.123
-150.618	25.097	0.079	-0.064
-149.604	-46.573	0.137	0.066
-148.589	123.727	-0.113	0.139
-147.574	104.014	-0.180	0.207
-146.560	206.864	0.132	0.202
-145.545	-200.000	0.015	-0.134
-144.531	-125.765	-0.284	0.042
-143.516	541.322	-0.081	-0.189
-142.502	73.897	-0.346	-0.356
-141.487	22.629	0.178	-0.143
-140.472	-200.000	0.005	-0.132
-139.458	164.873	-0.163	-0.226
-138.443	800.000	-0.135	0.443
-137.429	-22.114	-0.104	-0.062
-136.414	35.047	0.129	0.110
-135.399	-186.453	0.351	-0.005
-134.385	679.015	0.083	-0.210
-133.370	54.945	-0.199	0.188
-132.356	307.033	-0.029	-0.052
-131.341	309.023	-0.192	0.351
-130.326	0.767	0.209	-0.146
-129.312	-200.000	0.010	-0.126
-128.297	-60.358	0.249	-0.104
-127.283	-49.306	0.074	0.034
-126.268	4.496	0.105	0.076
-125.253	-34.143	0.126	0.067
-124.239	-200.000	0.034	0.255
-123.224	-79.065	-0.145	-0.048
-122.210	-41.610	0.113	-0.057
-121.195	174.950	-0.062	0.087
