DTS Sentinel unit serial number:	SN413079Multiplexer serial number:	ORYXHardware model number:	OX4-SRSoftware version number:	ORYX F/W v4.00 Oryx Data Collector v3.7.2.0data status	okinstallation	princeton_trtdifferential loss correction	single-endedforward channel	channel 1reverse channel	N/Adate	2019/09/16time	10:50:35forward acquisition time	60.00reverse acquisition time	0.00gamma	496.2192k internal	0.2301k external	0.2301temperature offset calibration	0.9962default loss term (dB/km)	0.3790temperature slope calibration	1.0000multiplexer offset coefficient	1.0000multiplexer slope coefficient	1.0000fibre end	0.00T internal ref (°C)	36.37T ext. ref 1 (°C)	12.69T ext. ref 2 (°C)	34.40length (m)	temperature (°C)	Stokes	anti-Stokes-747.200	98.350	-0.139	0.163
-746.185	69.058	-0.317	0.333
-745.171	338.747	0.128	-0.255
-744.156	98.714	0.141	-0.166
-743.142	-88.115	-0.185	-0.057
-742.127	-200.000	0.012	0.131
-741.112	-200.000	0.008	0.048
-740.098	-43.208	0.168	0.087
-739.083	800.000	0.055	0.158
-738.069	175.439	-0.185	0.274
-737.054	-42.394	0.180	0.094
-736.039	-161.457	-0.149	-0.008
-735.025	794.973	0.150	0.422
-734.010	-73.864	0.083	-0.031
-732.996	24.990	0.123	0.104
-731.981	-95.721	0.238	-0.065
-730.966	-129.489	-0.314	-0.044
-729.952	-200.000	0.034	0.175
-728.937	-200.000	0.032	0.148
-727.923	9.632	-0.104	-0.080
-726.908	-117.786	-0.245	-0.045
-725.894	198.769	0.095	0.148
-724.879	89.687	0.296	-0.337
-723.864	-13.670	0.139	-0.092
-722.850	299.307	-0.086	-0.162
-721.835	-122.900	-0.158	0.026
-720.821	-200.000	0.003	0.066
-719.806	-65.341	-0.136	0.056
-718.791	-68.965	-0.201	0.079
-717.777	-200.000	0.014	-0.459
-716.762	786.752	0.015	0.042
-715.748	261.253	0.115	-0.202
-714.733	182.578	-0.186	0.279
-713.718	372.837	0.133	-0.275
-712.704	106.050	0.107	0.129
-711.689	800.000	0.042	-0.128
-710.675	800.000	-0.023	-0.070
-709.660	-121.269	0.387	-0.066
-708.645	173.376	0.178	-0.262
-707.631	-139.420	0.440	0.048
-706.616	-74.708	-0.203	-0.074
-705.602	800.000	0.054	-0.172
-704.587	-99.767	-0.377	-0.096
-703.572	781.709	0.060	-0.168
-702.558	270.322	0.086	0.154
-701.543	-200.000	0.033	-0.187
-700.529	222.094	-0.184	0.301
-699.514	-107.957	-0.158	-0.035
-698.499	584.829	0.173	-0.434
-697.485	100.560	-0.249	-0.294
-696.470	-200.000	0.044	-0.369
-695.456	164.806	0.241	0.346
-694.441	-200.000	-0.027	-0.191
-693.426	-200.000	0.014	0.000
-692.412	-200.000	0.143	-0.649
-691.397	47.148	-0.076	-0.072
-690.383	-62.820	0.230	-0.097
-689.368	2.238	0.015	0.011
-688.354	-7.402	0.223	-0.154
-687.339	-200.000	-0.015	0.397
-686.324	-10.131	-0.213	-0.144
-685.310	162.597	-0.116	0.166
-684.295	88.770	0.166	0.188
-683.281	43.571	0.163	0.152
-682.266	-9.323	0.237	0.161
-681.251	-200.000	-0.017	-0.239
-680.237	14.921	0.212	0.169
-679.222	-61.128	0.092	-0.039
-678.208	-110.974	0.118	0.025
-677.193	84.169	-0.194	0.216
-676.178	-87.590	-0.396	-0.122
-675.164	198.962	-0.221	-0.344
-674.149	-8.579	0.013	0.009
-673.135	-68.048	0.283	0.112
-672.120	103.537	-0.163	-0.195
-671.105	3.007	-0.135	0.100
-670.091	-198.545	-0.250	0.001
-669.076	-26.923	-0.218	-0.130
-668.062	-50.493	0.314	-0.151
-667.047	508.285	-0.070	0.164
-666.032	-38.119	0.153	-0.082
-665.018	40.305	-0.090	0.082
-664.003	-49.460	0.327	-0.158
-662.989	-13.771	0.038	0.025
-661.974	119.616	-0.196	-0.246
-660.959	800.000	-0.081	-0.246
-659.945	-134.581	-0.271	-0.034
-658.930	716.973	-0.137	0.369
-657.916	664.091	-0.005	0.014
-656.901	174.725	-0.213	-0.314
-655.886	-200.000	0.007	-0.042
-654.872	-191.935	0.160	-0.002
-653.857	33.419	0.241	0.213
-652.843	333.980	0.024	-0.048
-651.828	-13.156	0.104	-0.069
-650.814	-46.497	0.117	0.058
-649.799	112.264	0.189	0.232
-648.784	363.076	-0.084	-0.172
-647.770	-46.541	0.095	-0.047
-646.755	69.977	-0.213	-0.223
-645.741	800.000	0.080	0.316
-644.726	190.043	0.129	0.197
-643.711	-137.677	-0.447	0.051
-642.697	511.006	0.126	0.299
-641.682	576.162	-0.020	0.049
-640.668	-200.000	-0.051	0.259
-639.653	-135.758	-0.079	0.009
-638.638	73.417	-0.182	-0.193
-637.624	725.880	-0.076	-0.205
-636.609	454.079	0.083	-0.187
-635.595	-106.531	-0.177	-0.040
-634.580	710.920	-0.057	0.153
-633.565	-200.000	0.003	0.087
-632.551	-97.670	-0.297	-0.078
-631.536	-72.410	0.344	0.129
-630.522	-106.886	-0.242	-0.054
-629.507	-195.453	0.204	-0.002
-628.492	-200.000	0.016	0.218
-627.478	-84.457	-0.230	-0.074
-626.463	800.000	0.048	-0.176
-625.449	466.528	0.137	0.312
-624.434	-185.529	-0.119	0.002
-623.419	-200.000	0.046	0.284
-622.405	91.546	-0.242	0.276
-621.390	9.991	-0.358	-0.276
-620.376	26.048	0.143	0.121
-619.361	-25.120	0.067	-0.040
-618.346	370.840	-0.168	0.345
-617.332	-200.000	0.003	0.017
-616.317	-97.127	0.155	-0.041
-615.303	800.000	0.076	0.312
-614.288	719.643	-0.117	0.314
-613.273	16.830	-0.236	0.190
-612.259	-23.386	0.065	-0.040
-611.244	-149.879	-0.319	-0.025
-610.230	-120.582	-0.286	0.049
-609.215	57.779	0.097	0.097
-608.201	110.991	0.049	-0.060
-607.186	-140.282	-0.165	0.017
-606.171	800.000	0.049	-0.179
-605.157	229.161	0.157	-0.259
-604.142	-7.665	-0.183	-0.125
-603.128	25.988	-0.201	0.170
-602.113	133.096	-0.232	-0.303
-601.098	196.910	-0.124	-0.191
-600.084	-54.752	-0.242	-0.111
-599.069	-200.000	-0.004	-0.162
-598.055	143.622	0.273	-0.368
-597.040	-39.498	0.376	0.199
-596.025	-159.503	-0.299	-0.017
-595.011	-109.349	-0.451	0.097
-593.996	-200.000	0.010	-0.058
-592.982	-18.122	0.325	-0.206
-591.967	-41.075	0.357	0.187
-590.952	-93.806	-0.346	-0.096
-589.938	800.000	0.061	0.187
-588.923	13.762	0.366	-0.288
-587.909	-29.923	-0.134	0.078
-586.894	3.570	0.126	-0.093
-585.879	-143.951	0.130	-0.012
-584.865	95.517	0.051	0.059
-583.850	-87.317	0.202	0.062
-582.836	47.313	-0.171	-0.161
-581.821	-194.336	0.211	-0.002
-580.806	634.433	0.032	0.082
-579.792	-74.744	-0.254	-0.092
-578.777	21.669	0.089	0.073
-577.763	207.508	0.089	-0.141
-576.748	-200.000	-0.008	0.106
-575.733	-142.223	0.189	0.019
-574.719	-102.023	-0.116	-0.028
-573.704	7.782	0.133	0.101
-572.690	800.000	0.028	-0.082
-571.675	472.289	-0.088	0.201
-570.661	-7.740	0.253	-0.173
-569.646	-200.000	-0.001	0.207
-568.631	178.600	-0.125	0.185
-567.617	217.682	-0.099	0.159
-566.602	-2.958	0.103	-0.073
-565.588	21.133	-0.088	0.072
-564.573	-13.742	0.093	-0.061
-563.558	-200.000	0.008	-0.076
-562.544	-95.951	-0.223	-0.060
-561.529	279.724	-0.251	-0.453
-560.515	756.698	0.085	0.233
-559.500	-200.000	0.002	0.098
-558.485	15.970	0.134	0.107
-557.471	-94.764	-0.114	0.031
-556.456	625.078	-0.123	-0.315
-555.442	1.521	0.219	-0.160
-554.427	30.674	-0.211	0.183
-553.412	287.739	0.199	0.364
-552.398	23.123	0.115	-0.096
-551.383	-72.361	-0.142	-0.053
-550.369	81.647	-0.079	-0.086
-549.354	-56.424	-0.238	0.107
-548.339	374.583	-0.045	0.093
-547.325	-124.637	0.357	0.056
-546.310	92.224	0.095	0.109
-545.296	242.264	-0.180	-0.305
-544.281	800.000	-0.079	-0.323
-543.266	-159.555	0.247	0.014
-542.252	256.867	-0.107	0.187
-541.237	-57.760	0.330	-0.146
-540.223	-27.734	-0.157	0.092
-539.208	-100.688	-0.227	-0.057
-538.193	800.000	-0.023	0.073
-537.179	-66.841	-0.200	-0.080
-536.164	549.630	-0.071	0.172
-535.150	-200.000	0.028	0.295
-534.135	-200.000	-0.033	-0.150
-533.121	-200.000	-0.015	0.166
-532.106	263.967	-0.080	0.140
-531.091	-72.842	0.096	0.036
-530.077	-200.000	-0.036	-0.354
-529.062	-200.000	-0.010	0.104
-528.048	103.793	-0.197	-0.233
-527.033	118.068	-0.111	0.138
-526.018	90.355	-0.090	0.102
-525.004	27.664	-0.320	-0.273
-523.989	-175.834	-0.304	-0.008
-522.975	-2.064	0.071	-0.051
-521.960	-17.217	0.399	-0.254
-520.945	-200.000	0.006	-0.039
-519.931	4.300	-0.289	-0.214
-518.916	-200.000	-0.010	0.052
-517.902	-200.000	0.042	-0.208
-516.887	162.765	-0.148	-0.210
-515.872	176.674	0.089	-0.131
-514.858	155.232	-0.154	0.214
-513.843	-76.063	0.184	-0.066
-512.829	68.630	0.063	-0.065
-511.814	2.238	-0.168	0.123
-510.799	262.536	-0.063	0.111
-509.785	-103.072	-0.116	0.028
-508.770	68.624	-0.167	-0.173
-507.756	-137.203	-0.268	-0.031
-506.741	-106.698	-0.021	-0.005
-505.726	-148.352	-0.463	0.038
-504.712	229.022	-0.139	-0.229
-503.697	214.491	0.053	-0.085
-502.683	140.137	0.094	-0.125
-501.668	-54.153	-0.341	0.156
-500.653	-29.258	0.093	0.054
-499.639	-80.833	0.053	-0.018
-498.624	140.318	-0.149	0.198
-497.610	162.180	0.092	0.131
-496.595	-89.265	-0.116	-0.034
-495.581	100.162	0.086	0.101
-494.566	-62.345	-0.327	0.137
-493.551	13.510	0.092	-0.072
-492.537	172.416	-0.087	0.127
-491.522	-200.000	0.030	-0.260
-490.508	-99.208	0.269	0.069
-489.493	126.780	-0.284	-0.363
-488.478	544.870	-0.076	0.183
-487.464	-168.594	0.107	0.004
-486.449	22.586	0.251	-0.208
-485.435	800.000	0.100	0.285
-484.420	-72.696	0.051	-0.019
-483.405	29.628	0.170	-0.146
-482.391	-155.838	0.371	-0.024
-481.376	-200.000	-0.026	-0.164
-480.362	115.672	-0.204	-0.252
-479.347	704.318	0.083	-0.222
-478.332	482.282	-0.117	-0.269
-477.318	36.407	-0.256	-0.228
-476.303	-156.919	0.158	-0.010
-475.289	83.890	-0.183	0.201
-474.274	130.507	-0.127	-0.164
-473.259	-122.645	0.236	-0.039
-472.245	-103.066	0.434	0.104
-471.230	-67.129	-0.383	0.152
-470.216	-67.124	0.243	-0.097
-469.201	-36.502	0.311	0.169
-468.186	800.000	0.032	-0.090
-467.172	-70.325	-0.204	-0.078
-466.157	-200.000	-0.016	0.226
-465.143	-81.873	0.122	-0.040
-464.128	-19.736	-0.109	-0.068
-463.113	33.967	0.242	-0.213
-462.099	-159.677	0.066	-0.004
-461.084	53.493	-0.133	0.129
-460.070	-200.000	0.023	-0.144
-459.055	81.258	0.275	-0.300
-458.040	108.490	0.034	0.041
-457.026	800.000	0.096	0.303
-456.011	76.249	-0.060	0.065
-454.997	57.478	-0.125	-0.123
-453.982	-97.590	0.322	-0.084
-452.968	-200.000	-0.009	-0.235
-451.953	-137.154	-0.231	0.026
-450.938	-97.376	0.167	0.044
-449.924	108.031	0.117	-0.140
-448.909	-200.000	-0.017	0.209
-447.895	-13.338	0.125	0.082
-446.880	118.656	0.091	0.113
-445.865	-105.259	-0.461	-0.106
-444.851	-32.003	0.122	0.069
-443.836	-119.785	-0.229	-0.040
-442.822	-60.431	0.173	-0.074
-441.807	-0.112	0.109	-0.079
-440.792	-187.730	0.456	0.006
-439.778	-54.367	-0.149	-0.068
-438.763	-22.959	0.079	0.048
-437.749	-200.000	-0.016	0.299
-436.734	800.000	0.032	-0.112
-435.719	46.509	0.237	-0.222
-434.705	-200.000	-0.024	0.282
-433.690	-129.261	-0.443	0.062
-432.676	-65.025	0.101	-0.041
-431.661	-118.363	-0.381	0.068
-430.646	-138.757	0.200	-0.022
-429.632	262.016	0.101	-0.177
-428.617	-200.000	0.007	-0.319
-427.603	-102.453	0.265	0.064
-426.588	201.639	0.134	-0.208
-425.573	-164.736	-0.168	0.008
-424.559	-27.021	0.115	0.068
-423.544	-200.000	0.002	-0.194
-422.530	-76.333	0.199	-0.070
-421.515	-129.517	-0.252	0.035
-420.500	-200.000	0.016	-0.241
-419.486	-61.487	-0.070	0.029
-418.471	170.899	-0.082	0.118
-417.457	800.000	-0.110	0.344
-416.442	-101.834	0.319	-0.078
-415.428	-200.000	0.037	-0.286
-414.413	252.474	-0.084	-0.144
-413.398	-147.239	0.186	0.016
-412.384	-200.000	0.010	0.206
-411.369	474.462	0.131	-0.297
-410.355	-75.711	0.293	-0.105
-409.340	33.113	-0.116	0.101
-408.325	121.323	-0.214	-0.268
-407.311	90.892	-0.125	0.141
-406.296	57.449	-0.102	-0.100
-405.282	364.717	0.091	-0.185
-404.267	-186.426	0.137	-0.002
-403.252	-111.970	-0.034	-0.007
-402.238	57.465	-0.324	-0.319
-401.223	263.665	-0.199	-0.349
-400.209	130.180	-0.285	0.367
-399.194	-200.000	0.033	-0.217
-398.179	-70.822	-0.214	0.081
-397.165	464.790	-0.070	0.157
-396.150	45.760	0.098	0.091
-395.136	-200.000	0.078	0.380
-394.121	-15.555	0.218	-0.140
-393.106	-59.880	0.193	0.083
-392.092	800.000	-0.051	0.147
-391.077	-100.644	0.055	0.014
-390.063	-8.145	0.102	-0.069
-389.048	323.087	0.114	-0.218
-388.033	350.323	0.199	-0.395
-387.019	-102.195	0.251	0.061
-386.004	-104.719	0.287	0.066
-384.990	-174.969	-0.098	-0.003
-383.975	63.104	-0.076	0.076
-382.960	431.180	0.091	-0.198
-381.946	-200.000	0.030	0.175
-380.931	800.000	0.062	0.177
-379.917	-83.421	0.137	-0.044
-378.902	220.160	0.075	0.122
-377.888	-27.346	0.314	0.183
-376.873	216.442	0.145	-0.232
-375.858	-69.298	0.222	0.086
-374.844	-3.567	0.269	0.188
-373.829	64.729	-0.099	-0.100
-372.815	800.000	-0.034	0.148
-371.800	-115.824	0.104	0.020
-370.785	-34.743	0.222	-0.122
-369.771	59.708	0.148	-0.147
-368.756	-200.000	-0.001	0.281
-367.742	392.144	0.101	0.211
-366.727	-19.871	-0.061	0.038
-365.712	147.365	0.148	-0.200
-364.698	-200.000	0.031	0.249
-363.683	-139.401	0.235	-0.025
-362.669	-139.916	0.301	0.032
-361.654	411.413	0.064	0.137
-360.639	-18.190	0.157	0.099
-359.625	-65.786	0.054	0.022
-358.610	15.894	0.215	0.170
-357.596	181.756	0.096	-0.142
-356.581	-105.415	-0.336	0.077
-355.566	58.942	-0.100	0.098
-354.552	-200.000	0.014	0.198
-353.537	800.000	-0.025	0.072
-352.523	194.811	-0.124	-0.190
-351.508	-200.000	-0.007	0.071
-350.493	800.000	-0.051	-0.181
-349.479	-135.290	-0.433	0.052
-348.464	236.658	0.078	0.129
-347.450	36.836	0.172	0.152
-346.435	93.708	0.206	0.234
-345.420	-200.000	0.015	-0.074
-344.406	15.981	0.215	0.170
-343.391	-125.193	0.319	-0.049
-342.377	314.445	0.181	0.342
-341.362	-200.000	0.006	0.100
-340.348	-200.000	-0.024	-0.115
-339.333	491.184	0.141	-0.323
-338.318	5.894	0.179	-0.133
-337.304	-25.935	-0.141	0.083
-336.289	-136.138	0.125	-0.015
-335.275	78.595	-0.120	0.129
-334.260	17.592	-0.208	0.166
-333.245	-26.863	0.134	0.079
-332.231	3.813	0.094	-0.069
-331.216	25.093	0.198	-0.164
-330.202	-200.000	0.005	-0.209
-329.187	87.474	0.133	-0.147
-328.172	102.780	-0.147	-0.173
-327.158	408.529	0.075	0.160
-326.143	78.786	0.302	-0.324
-325.129	-45.584	0.287	0.143
-324.114	-175.098	0.377	-0.010
-323.099	-99.812	-0.140	0.035
-322.085	-161.366	0.093	-0.005
-321.070	800.000	0.043	0.173
-320.056	101.267	-0.111	0.130
-319.041	-200.000	-0.029	-0.134
-318.026	322.051	-0.136	0.259
-317.012	-74.005	0.129	-0.047
-315.997	-27.753	-0.027	0.016
-314.983	372.796	-0.166	-0.338
-313.968	-200.000	-0.020	-0.109
-312.953	199.045	-0.156	0.239
-311.939	800.000	-0.049	-0.177
-310.924	275.221	-0.138	-0.245
-309.910	-200.000	0.220	0.000
-308.895	22.122	0.254	-0.208
-307.880	800.000	-0.170	-0.474
-306.866	-88.636	-0.195	-0.058
-305.851	800.000	0.040	0.136
-304.837	43.617	0.070	0.064
-303.822	56.423	-0.331	-0.322
-302.807	-200.000	0.039	-0.405
-301.793	485.911	-0.161	0.367
-300.778	800.000	-0.049	0.174
-299.764	-95.073	-0.156	-0.042
-298.749	94.620	0.045	0.051
-297.735	480.219	0.089	0.201
-296.720	681.736	0.047	0.123
-295.705	178.982	-0.110	0.161
-294.691	7.263	-0.175	0.131
-293.676	78.255	0.127	-0.136
-292.662	-73.486	-0.372	-0.136
-291.647	373.632	-0.081	0.165
-290.632	800.000	-0.045	0.134
-289.618	-200.000	-0.050	-0.249
-288.603	53.898	-0.237	-0.228
-287.589	-78.572	-0.425	0.145
-286.574	71.603	0.368	0.382
-285.559	-200.000	0.025	0.135
-284.545	-113.007	0.092	-0.018
-283.530	279.817	-0.171	-0.306
-282.516	43.129	0.175	-0.160
-281.501	-200.000	0.027	0.222
-280.486	-200.000	-0.042	0.323
-279.472	-82.179	0.135	0.044
-278.457	355.009	0.166	0.330
-277.443	-104.054	0.048	-0.011
-276.428	-91.107	-0.258	-0.074
-275.413	200.118	-0.038	0.058
-274.399	-200.000	0.014	0.167
-273.384	264.354	0.030	-0.052
-272.370	-15.211	0.157	0.100
-271.355	491.401	0.032	0.073
-270.340	-77.067	-0.082	0.028
-269.326	-54.138	-0.231	0.105
-268.311	800.000	0.021	0.087
-267.297	800.000	0.107	0.401
-266.282	-200.000	0.007	0.389
-265.267	35.598	0.262	-0.230
-264.253	-99.140	-0.195	0.049
-263.238	94.873	0.145	0.165
-262.224	-157.523	-0.395	0.024
-261.209	243.594	-0.098	0.165
-260.195	-200.000	-0.008	-0.111
-259.180	-108.548	0.077	-0.017
-258.165	-98.671	0.138	0.035
-257.151	-175.951	-0.449	0.012
-256.136	47.273	0.148	0.138
-255.122	60.745	0.066	0.065
-254.107	-200.000	0.017	-0.082
-253.092	800.000	-0.099	-0.283
-252.078	-200.000	-0.033	0.160
-251.063	800.000	-0.085	0.260
-250.049	-5.266	-0.289	-0.199
-249.034	-92.829	0.228	0.064
-248.019	-166.465	0.134	0.006
-247.005	521.698	-0.025	0.059
-245.990	204.776	-0.187	0.290
-244.976	-53.589	-0.389	-0.178
-243.961	-67.975	0.235	-0.092
-242.946	-96.693	0.244	-0.064
-241.932	649.237	-0.140	0.357
-240.917	-99.197	0.073	0.018
-239.903	657.175	-0.063	-0.162
-238.888	192.476	0.029	0.043
-237.873	591.858	0.076	-0.187
-236.859	-200.000	-0.002	-0.139
-235.844	236.441	-0.084	0.138
-234.830	64.520	0.086	0.087
-233.815	88.530	-0.156	-0.173
-232.800	800.000	0.025	0.073
-231.786	138.648	-0.123	0.161
-230.771	-5.930	0.153	-0.105
-229.757	800.000	0.076	0.241
-228.742	-164.902	0.147	0.007
-227.727	-78.461	0.151	0.052
-226.713	-200.000	-0.014	0.354
-225.698	-79.329	0.249	0.084
-224.684	-81.640	0.292	-0.096
-223.669	8.614	-0.271	0.204
-222.655	800.000	-0.088	-0.277
-221.640	-58.900	-0.064	-0.028
-220.625	-200.000	-0.004	0.081
-219.611	-75.633	0.271	-0.096
-218.596	-26.837	-0.112	-0.065
-217.582	26.216	-0.258	-0.215
-216.567	-13.079	-0.179	-0.116
-215.552	-74.886	-0.241	-0.086
-214.538	-104.201	-0.108	-0.025
-213.523	800.000	0.067	0.259
-212.509	-54.275	0.283	-0.128
-211.494	-41.182	0.101	-0.052
-210.479	200.165	0.166	-0.255
-209.465	-52.725	0.191	-0.088
-208.450	93.267	0.285	0.322
-207.436	-101.897	0.273	0.066
-206.421	-153.866	0.064	-0.004
-205.406	192.273	-0.339	0.511
-204.392	344.138	-0.149	0.292
-203.377	800.000	0.045	0.190
-202.363	-111.173	-0.054	0.011
-201.348	-200.000	0.044	-0.342
-200.333	-97.932	-0.013	-0.003
-199.319	800.000	-0.068	-0.201
-198.304	800.000	0.046	-0.198
-197.290	320.890	-0.119	-0.226
-196.275	423.853	-0.070	0.150
-195.260	-27.439	0.343	0.199
-194.246	-101.845	0.179	-0.043
-193.231	-145.821	0.396	0.035
-192.217	-57.179	-0.338	-0.148
-191.202	116.990	0.120	-0.147
-190.187	217.643	-0.041	-0.065
-189.173	-53.242	-0.181	0.083
-188.158	-200.000	-0.007	-0.049
-187.144	214.238	-0.132	-0.208
-186.129	257.222	-0.162	-0.277
-185.114	-92.906	-0.083	-0.023
-184.100	800.000	-0.052	-0.177
-183.085	-139.967	0.107	0.011
-182.071	142.688	0.027	-0.036
-181.056	-52.946	-0.315	0.144
-180.042	-161.453	-0.204	-0.010
-179.027	286.246	0.149	-0.268
-178.012	-200.000	0.008	-0.093
-176.998	33.968	-0.242	-0.211
-175.983	-75.020	0.136	0.048
-174.969	-200.000	0.027	0.162
-173.954	-150.795	0.184	-0.014
-172.939	-79.760	0.083	-0.028
-171.925	602.813	-0.076	-0.187
-170.910	106.454	-0.285	-0.337
-169.896	210.866	0.022	-0.035
-168.881	-138.454	-0.304	-0.033
-167.866	-200.000	-0.032	0.162
-166.852	338.600	0.119	-0.231
-165.837	-200.000	0.014	-0.107
-164.823	21.734	-0.097	0.078
-163.808	-140.602	-0.229	0.024
-162.793	-200.000	-0.071	0.363
-161.779	553.591	0.041	0.097
-160.764	-114.414	0.073	0.014
-159.750	24.332	0.171	-0.141
-158.735	179.244	-0.134	-0.195
-157.720	11.223	0.131	-0.100
-156.706	71.174	-0.150	0.155
-155.691	-200.000	-0.001	0.273
-154.677	-200.000	-0.022	0.287
-153.662	-48.022	0.161	-0.078
-152.647	-64.728	-0.294	0.119
-151.633	-120.478	0.283	0.048
-150.618	206.488	-0.048	-0.075
-149.604	90.428	0.134	0.149
-148.589	254.144	-0.112	-0.191
-147.574	-163.970	-0.287	-0.013
-146.560	146.491	-0.131	-0.175
-145.545	-11.740	-0.092	0.060
-144.531	-200.000	-0.057	0.326
-143.516	-200.000	0.021	-0.112
-142.502	13.613	-0.173	0.134
-141.487	-174.125	0.422	-0.012
-140.472	-0.960	0.061	0.043
-139.458	-200.000	-0.027	-0.241
-138.443	-12.224	0.223	0.145
-137.429	-164.038	0.387	0.018
-136.414	-120.023	0.056	0.010
-135.399	-23.310	-0.230	0.138
-134.385	-119.074	0.228	0.040
-133.370	-7.519	-0.074	0.050
-132.356	-200.000	0.002	0.135
-131.341	-200.000	-0.019	-0.248
-130.326	81.674	-0.141	-0.152
-129.312	199.000	-0.234	-0.356
-128.297	333.141	-0.223	0.429
-127.283	-90.825	0.180	-0.052
-126.268	264.913	0.156	0.270
-125.253	82.324	-0.193	0.208
-124.239	134.008	0.140	-0.181
-123.224	130.959	-0.036	0.046
-122.210	-68.683	0.398	-0.153
-121.195	62.074	0.066	-0.065
-120.180	35.829	0.172	0.151
