DTS Sentinel unit serial number:	SN413079Multiplexer serial number:	ORYXHardware model number:	OX4-SRSoftware version number:	ORYX F/W v4.00 Oryx Data Collector v3.7.2.0data status	okinstallation	princeton_trtdifferential loss correction	single-endedforward channel	channel 1reverse channel	N/Adate	2019/09/11time	20:48:11forward acquisition time	60.00reverse acquisition time	0.00gamma	496.2192k internal	0.2306k external	0.2306temperature offset calibration	1.0046default loss term (dB/km)	0.3790temperature slope calibration	1.0000multiplexer offset coefficient	1.0000multiplexer slope coefficient	1.0000fibre end	0.00T internal ref (°C)	37.03T ext. ref 1 (°C)	1.64T ext. ref 2 (°C)	30.78length (m)	temperature (°C)	Stokes	anti-Stokes-747.200	108.988	0.059	-0.071
-746.185	415.350	0.063	-0.136
-745.171	-40.249	-0.142	-0.075
-744.156	-200.000	0.008	0.144
-743.142	56.409	-0.098	-0.097
-742.127	-85.750	-0.179	-0.057
-741.112	-36.064	0.087	-0.048
-740.098	-52.189	0.204	0.096
-739.083	-93.027	-0.206	0.059
-738.069	75.714	0.088	-0.095
-737.054	800.000	0.032	-0.103
-736.039	96.120	-0.294	-0.342
-735.025	119.361	0.044	0.056
-734.010	-155.275	-0.210	-0.014
-732.996	-200.000	0.041	-0.290
-731.981	800.000	0.140	-0.439
-730.966	-6.903	0.024	-0.017
-729.952	71.974	0.092	0.098
-728.937	-124.538	0.192	-0.030
-727.923	-33.627	0.092	-0.052
-726.908	-132.069	-0.533	-0.070
-725.894	-200.000	0.099	-0.000
-724.879	-127.031	0.436	-0.065
-723.864	-38.976	-0.067	-0.036
-722.850	-13.730	0.071	0.047
-721.835	20.007	-0.270	0.221
-720.821	274.887	-0.149	0.269
-719.806	800.000	-0.066	-0.190
-718.791	-200.000	-0.031	-0.194
-717.777	100.217	-0.157	0.185
-716.762	338.529	-0.105	-0.208
-715.748	-31.519	0.230	0.131
-714.733	-74.484	0.101	0.037
-713.718	-142.168	-0.290	0.029
-712.704	-200.000	-0.067	-0.401
-711.689	-69.318	0.113	0.044
-710.675	63.141	-0.055	-0.056
-709.660	-200.000	-0.011	-0.106
-708.645	631.295	-0.083	0.213
-707.631	-134.693	-0.458	-0.057
-706.616	493.846	0.116	-0.270
-705.602	-200.000	0.012	-0.217
-704.587	83.499	0.045	0.050
-703.572	-200.000	-0.067	0.396
-702.558	-152.212	-0.086	-0.006
-701.543	-200.000	0.017	-0.126
-700.529	-106.752	0.331	-0.075
-699.514	226.057	-0.214	0.352
-698.499	-200.000	-0.008	-0.212
-697.485	-63.028	-0.370	0.155
-696.470	52.270	-0.321	-0.310
-695.456	-171.824	0.207	0.007
-694.441	1.611	0.243	-0.178
-693.426	-113.759	0.173	0.034
-692.412	-14.669	0.186	0.122
-691.397	-81.163	-0.160	0.054
-690.383	274.308	-0.116	0.208
-689.368	-200.000	0.008	0.071
-688.354	-159.585	-0.027	0.002
-687.339	-200.000	0.015	-0.405
-686.324	-200.000	0.014	-0.317
-685.310	67.582	-0.103	0.107
-684.295	800.000	-0.061	-0.255
-683.281	234.791	0.189	0.317
-682.266	250.424	-0.193	0.333
-681.251	-196.973	0.231	0.002
-680.237	-200.000	0.007	0.292
-679.222	-124.102	-0.412	-0.066
-678.208	241.489	-0.047	-0.079
-677.193	-74.095	-0.304	-0.112
-676.178	618.702	0.053	0.135
-675.164	-200.000	0.036	-0.212
-674.149	-200.000	-0.003	-0.058
-673.135	527.483	0.116	-0.278
-672.120	-200.000	-0.014	0.099
-671.105	-44.219	0.214	-0.109
-670.091	-200.000	0.029	0.197
-669.076	56.431	0.064	0.063
-668.062	-39.058	-0.074	-0.039
-667.047	70.365	-0.156	0.163
-666.032	88.635	-0.084	0.095
-665.018	-111.346	0.192	0.040
-664.003	38.787	-0.163	0.147
-662.989	800.000	0.059	-0.168
-661.974	-63.292	0.222	0.093
-660.959	136.107	-0.077	0.102
-659.945	-172.125	0.111	0.004
-658.930	-40.308	0.291	-0.153
-657.916	-5.049	0.041	-0.029
-656.901	800.000	0.147	-0.439
-655.886	-74.976	0.093	-0.034
-654.872	-200.000	-0.015	-0.102
-653.857	18.491	-0.068	-0.055
-652.843	800.000	0.084	-0.288
-651.828	-19.605	0.246	-0.154
-650.814	800.000	-0.086	-0.260
-649.799	793.136	-0.056	-0.155
-648.784	-86.801	-0.215	-0.067
-647.770	-89.701	0.110	0.033
-646.755	-67.474	-0.023	-0.009
-645.741	-43.690	0.146	-0.075
-644.726	-151.674	-0.316	0.024
-643.711	-58.656	0.256	-0.112
-642.697	163.482	0.058	0.082
-641.682	-98.918	0.155	-0.040
-640.668	-113.197	-0.323	-0.064
-639.653	-93.860	-0.170	0.048
-638.638	251.014	-0.136	0.235
-637.624	-146.288	-0.363	0.032
-636.609	800.000	0.073	-0.224
-635.595	649.259	-0.051	0.132
-634.580	-200.000	-0.016	-0.369
-633.565	-132.823	-0.144	-0.019
-632.551	-28.759	-0.091	-0.053
-631.536	121.578	-0.059	-0.074
-630.522	164.062	0.063	-0.090
-629.507	38.979	-0.274	-0.248
-628.492	800.000	-0.053	0.209
-627.478	18.009	0.100	-0.081
-626.463	800.000	-0.122	-0.355
-625.449	345.777	-0.084	0.167
-624.434	233.890	0.034	0.056
-623.419	12.625	0.109	-0.085
-622.405	553.952	0.066	0.160
-621.390	154.811	0.096	-0.134
-620.376	-200.000	0.005	0.205
-619.361	151.509	0.254	0.350
-618.346	-185.653	-0.274	0.004
-617.332	42.155	0.047	0.043
-616.317	87.646	0.113	-0.127
-615.303	-200.000	-0.008	-0.041
-614.288	242.490	-0.165	-0.279
-613.273	-39.264	-0.048	-0.025
-612.259	-5.871	0.278	0.192
-611.244	-200.000	0.015	-0.217
-610.230	-46.685	0.306	0.152
-609.215	-200.000	-0.046	0.347
-608.201	-130.783	-0.348	0.047
-607.186	-200.000	-0.012	-0.164
-606.171	-46.200	0.135	0.067
-605.157	240.068	-0.245	0.414
-604.142	800.000	0.087	0.285
-603.128	-30.772	-0.069	-0.040
-602.113	-200.000	0.000	-0.357
-601.098	-66.334	-0.053	-0.021
-600.084	153.730	0.125	0.174
-599.069	-16.588	-0.259	0.166
-598.055	-200.000	-0.025	0.231
-597.040	-94.497	0.186	0.051
-596.025	800.000	-0.050	-0.165
-595.011	0.525	0.060	-0.043
-593.996	-130.209	-0.236	-0.032
-592.982	-200.000	0.003	-0.098
-591.967	-200.000	0.019	-0.109
-590.952	24.655	0.176	-0.148
-589.938	-109.348	-0.218	0.047
-588.923	69.793	0.118	-0.122
-587.909	-88.426	-0.266	0.080
-586.894	-52.407	0.211	0.099
-585.879	-109.158	0.396	0.085
-584.865	43.153	-0.032	0.029
-583.850	-132.221	0.108	0.014
-582.836	-118.374	-0.297	-0.053
-581.821	458.374	-0.107	0.241
-580.806	114.172	0.167	0.205
-579.792	224.348	0.263	0.430
-578.777	51.393	-0.205	-0.197
-577.763	800.000	-0.152	-0.528
-576.748	-19.425	0.142	-0.089
-575.733	-85.989	0.049	0.015
-574.719	-156.750	0.077	0.005
-573.704	-200.000	0.048	-0.328
-572.690	23.173	0.144	-0.120
-571.675	-200.000	-0.012	0.241
-570.661	-200.000	-0.003	0.130
-569.646	-143.387	-0.333	-0.032
-568.631	800.000	0.070	0.261
-567.617	179.617	0.070	-0.103
-566.602	228.601	-0.218	-0.360
-565.588	800.000	0.075	0.331
-564.573	363.897	0.177	0.360
-563.558	785.512	0.019	0.053
-562.544	-54.586	0.153	-0.070
-561.529	-200.000	0.029	-0.377
-560.515	-121.687	-0.354	0.059
-559.500	-64.677	0.237	0.097
-558.485	-56.723	-0.195	-0.087
-557.471	-200.000	-0.009	0.143
-556.456	-84.017	-0.148	-0.048
-555.442	800.000	0.023	0.093
-554.427	-200.000	-0.011	-0.145
-553.412	173.288	-0.063	-0.092
-552.398	-36.549	-0.218	-0.119
-551.383	-99.686	0.125	-0.032
-550.369	-200.000	-0.002	0.035
-549.354	-35.365	-0.167	0.091
-548.339	161.888	-0.160	-0.226
-547.325	210.516	-0.077	0.123
-546.310	-58.997	-0.166	0.072
-545.296	35.960	-0.159	-0.142
-544.281	436.656	0.095	0.208
-543.266	-13.269	0.334	0.219
-542.252	-139.857	-0.217	0.023
-541.237	1.836	0.153	0.111
-540.223	-105.760	0.266	0.061
-539.208	-144.152	-0.486	0.046
-538.193	-23.705	0.221	-0.134
-537.179	800.000	0.035	0.119
-536.164	-17.691	0.238	-0.151
-535.150	800.000	0.059	0.171
-534.135	-183.770	0.098	0.002
-533.121	-200.000	-0.039	-0.205
-532.106	-12.050	-0.137	-0.090
-531.091	-175.768	0.229	-0.006
-530.077	151.673	-0.159	-0.219
-529.062	-158.451	-0.247	0.014
-528.048	-200.000	-0.003	-0.059
-527.033	-83.400	-0.015	0.005
-526.018	-152.123	-0.234	-0.017
-525.004	-183.583	-0.229	-0.004
-523.989	-61.140	0.338	-0.144
-522.975	-117.622	-0.154	0.028
-521.960	65.271	-0.198	0.202
-520.945	-95.333	0.389	0.106
-519.931	-48.434	0.099	0.048
-518.916	470.362	-0.062	-0.142
-517.902	-200.000	0.008	-0.314
-516.887	-200.000	0.014	0.349
-515.872	31.244	0.021	-0.018
-514.858	-128.814	-0.301	0.043
-513.843	23.510	0.168	0.139
-512.829	299.229	0.143	0.265
-511.814	108.244	0.125	0.150
-510.799	-200.000	0.010	0.084
-509.785	109.227	0.074	-0.089
-508.770	-147.188	-0.110	-0.009
-507.756	72.531	0.161	-0.170
-506.741	-135.488	0.293	0.035
-505.726	-20.070	-0.119	-0.074
-504.712	73.558	-0.257	-0.271
-503.697	-5.533	-0.270	-0.187
-502.683	392.445	0.118	0.248
-501.668	68.169	-0.274	-0.283
-500.653	-82.659	0.162	-0.053
-499.639	-200.000	-0.036	0.203
-498.624	748.635	-0.116	-0.316
-497.610	-200.000	0.368	-0.001
-496.595	244.320	-0.141	-0.239
-495.581	-57.762	-0.130	-0.057
-494.566	-200.000	0.014	-0.093
-493.551	-136.297	-0.138	-0.016
-492.537	-102.803	-0.169	-0.040
-491.522	-93.101	0.333	-0.093
-490.508	-54.831	-0.151	0.069
-489.493	-38.873	-0.360	-0.191
-488.478	39.182	0.058	0.053
-487.464	-51.399	0.119	-0.056
-486.449	-200.000	0.040	-0.444
-485.435	-52.695	0.216	-0.100
-484.420	-56.289	0.246	-0.110
-483.405	-166.067	-0.199	0.009
-482.391	-25.314	0.381	-0.227
-481.376	-75.112	-0.076	-0.027
-480.362	-143.491	-0.163	0.016
-479.347	350.528	-0.038	-0.075
-478.332	-200.000	0.009	-0.154
-477.318	-18.214	-0.212	-0.134
-476.303	91.730	-0.042	0.048
-475.289	-200.000	0.007	0.149
-474.274	52.404	0.265	-0.255
-473.259	-200.000	-0.025	0.243
-472.245	82.130	-0.068	-0.075
-471.230	-200.000	0.047	-0.295
-470.216	-200.000	0.025	0.193
-469.201	-79.810	-0.037	-0.012
-468.186	-89.393	-0.302	-0.089
-467.172	-190.655	0.216	-0.002
-466.157	110.157	-0.119	0.143
-465.143	113.573	0.047	-0.058
-464.128	139.763	-0.082	-0.108
-463.113	319.391	-0.065	-0.124
-462.099	-200.000	-0.085	0.379
-461.084	-200.000	0.006	-0.057
-460.070	-154.975	0.447	0.030
-459.055	72.479	-0.111	-0.117
-458.040	56.989	-0.358	-0.351
-457.026	762.728	0.035	0.096
-456.011	117.833	-0.059	0.073
-454.997	121.800	0.074	0.093
-453.982	-200.000	-0.055	0.306
-452.968	69.320	0.126	-0.131
-451.953	-34.767	0.262	-0.144
-450.938	-49.933	-0.145	-0.069
-449.924	-101.738	-0.146	0.035
-448.909	-186.345	-0.293	-0.004
-447.895	-22.999	0.208	-0.126
-446.880	-132.450	-0.098	0.013
-445.865	-200.000	-0.014	-0.263
-444.851	800.000	0.063	0.209
-443.836	-59.124	0.196	-0.085
-442.822	-57.584	-0.221	0.097
-441.807	245.209	0.112	0.189
-440.792	-20.003	0.159	-0.099
-439.778	99.700	0.111	-0.129
-438.763	-200.000	-0.033	0.407
-437.749	-76.192	0.363	-0.129
-436.734	19.574	-0.127	-0.103
-435.719	-66.360	0.161	-0.064
-434.705	-145.232	0.260	-0.024
-433.690	108.863	0.101	0.121
-432.676	-96.751	-0.097	-0.026
-431.661	-139.305	-0.627	-0.068
-430.646	800.000	-0.030	-0.106
-429.632	-64.086	0.129	-0.053
-428.617	-200.000	-0.028	-0.203
-427.603	125.426	-0.227	-0.287
-426.588	513.591	-0.103	-0.241
-425.573	-20.215	0.124	-0.077
-424.559	-121.173	-0.155	0.026
-423.544	80.307	0.128	0.138
-422.530	-200.000	0.005	0.065
-421.515	191.021	0.038	-0.057
-420.500	-200.000	-0.039	-0.255
-419.486	800.000	0.029	0.097
-418.471	800.000	0.091	0.374
-417.457	34.434	-0.111	0.098
-416.442	62.577	-0.027	-0.027
-415.428	-200.000	0.068	-0.449
-414.413	378.681	0.135	0.277
-413.398	-51.466	0.108	-0.051
-412.384	-55.830	-0.090	0.040
-411.369	235.092	0.305	0.506
-410.355	800.000	0.134	0.408
-409.340	-71.755	0.240	0.090
-408.325	-125.999	0.129	-0.020
-407.311	-114.551	0.050	-0.010
-406.296	-55.106	0.056	0.025
-405.282	403.838	-0.125	0.265
-404.267	-97.663	0.246	-0.064
-403.252	-200.000	0.029	0.144
-402.238	238.781	0.220	0.367
-401.223	99.374	-0.256	-0.298
-400.209	353.927	-0.118	-0.235
-399.194	616.671	0.046	-0.117
-398.179	79.507	-0.072	0.078
-397.165	-200.000	-0.035	-0.253
-396.150	-51.658	0.157	-0.073
-395.136	396.603	-0.163	0.343
-394.121	-162.899	0.092	0.005
-393.106	-200.000	0.018	0.349
-392.092	720.351	0.032	0.084
-391.077	-63.131	-0.099	0.041
-390.063	-144.085	-0.435	-0.041
-389.048	-177.895	-0.307	-0.007
-388.033	-51.119	0.200	-0.094
-387.019	27.161	-0.156	0.131
-386.004	-59.751	0.086	0.037
-384.990	800.000	-0.019	-0.054
-383.975	-155.864	-0.431	-0.028
-382.960	123.025	-0.070	0.088
-381.946	-117.926	0.264	0.047
-380.931	117.487	0.021	-0.026
-379.917	-200.000	0.038	0.203
-378.902	78.075	-0.180	0.192
-377.888	-157.115	-0.237	0.014
-376.873	-200.000	-0.043	-0.354
-375.858	-22.730	-0.109	0.066
-374.844	159.355	-0.148	-0.206
-373.829	-200.000	-0.007	0.073
-372.815	319.955	0.129	0.245
-371.800	-200.000	-0.010	-0.141
-370.785	-117.002	0.165	0.030
-369.771	-121.933	0.287	0.047
-368.756	-184.337	-0.205	-0.003
-367.742	157.640	0.135	-0.188
-366.727	0.243	0.070	-0.050
-365.712	-200.000	-0.005	0.156
-364.698	-54.325	-0.224	0.102
-363.683	-12.954	-0.031	-0.020
-362.669	5.950	0.055	0.041
-361.654	148.882	0.214	0.290
-360.639	-62.759	0.290	0.121
-359.625	132.417	-0.076	0.098
-358.610	-105.562	0.242	0.055
-357.596	549.331	-0.101	-0.244
-356.581	-14.649	0.161	-0.104
-355.566	250.996	0.078	0.133
-354.552	800.000	0.113	0.357
-353.537	565.798	0.069	-0.167
-352.523	44.192	0.167	0.153
-351.508	-65.269	0.324	-0.131
-350.493	69.814	-0.099	-0.103
-349.479	136.653	-0.119	0.156
-348.464	-81.213	0.264	0.087
-347.450	10.717	-0.243	-0.186
-346.435	-200.000	-0.016	-0.211
-345.420	-166.615	-0.309	-0.013
-344.406	-54.724	-0.213	-0.096
-343.391	800.000	-0.080	-0.244
-342.377	-6.903	-0.113	-0.077
-341.362	-167.535	0.243	0.010
-340.348	494.680	0.124	-0.284
-339.333	-130.949	0.169	0.023
-338.318	800.000	-0.090	0.260
-337.304	145.903	-0.151	-0.203
-336.289	293.112	-0.048	-0.089
-335.275	-200.000	-0.028	-0.137
-334.260	163.666	-0.130	-0.184
-333.245	0.183	0.104	-0.075
-332.231	-7.553	-0.376	-0.255
-331.216	20.529	-0.230	-0.186
-330.202	455.301	-0.122	0.270
-329.187	-200.000	-0.022	0.419
-328.172	79.607	0.311	-0.334
-327.158	70.750	-0.134	0.138
-326.143	31.690	0.214	-0.184
-325.129	-99.084	-0.221	-0.056
-324.114	648.389	-0.035	-0.089
-323.099	-200.000	-0.044	0.258
-322.085	-110.238	0.308	0.064
-321.070	-189.423	0.160	-0.002
-320.056	-23.598	-0.266	0.159
-319.041	3.306	0.248	0.180
-318.026	800.000	0.125	-0.347
-317.012	12.401	-0.099	-0.077
-315.997	-37.473	-0.293	0.157
-314.983	-200.000	-0.045	0.270
-313.968	117.959	0.106	-0.131
-312.953	173.111	0.026	-0.038
-311.939	-200.000	0.037	0.313
-310.924	67.142	0.018	0.018
-309.910	143.505	-0.149	0.199
-308.895	-110.169	0.222	0.046
-307.880	5.405	-0.102	0.075
-306.866	-149.254	-0.189	-0.015
-305.851	-200.000	0.012	-0.152
-304.837	-151.554	-0.152	-0.011
-303.822	-23.411	0.341	0.205
-302.807	800.000	-0.057	-0.216
-301.793	-29.149	-0.377	0.216
-300.778	-80.709	0.272	0.090
-299.764	800.000	0.061	0.185
-298.749	112.429	0.109	-0.132
-297.735	-128.850	0.166	0.023
-296.720	105.521	-0.135	0.160
-295.705	212.723	0.082	0.130
-294.691	-120.506	0.351	-0.060
-293.676	-18.306	0.046	-0.029
-292.662	3.646	0.181	-0.132
-291.647	202.087	0.044	-0.068
-290.632	-200.000	0.006	0.112
-289.618	626.466	-0.066	0.165
-288.603	-200.000	-0.057	0.302
-287.589	44.790	0.077	0.071
-286.574	-102.117	0.077	0.019
-285.559	-31.903	0.349	0.195
-284.545	-87.289	-0.351	0.107
-283.530	-83.248	0.202	0.065
-282.516	-102.012	0.155	0.037
-281.501	-200.000	0.192	0.000
-280.486	137.595	-0.114	0.149
-279.472	-200.000	-0.052	0.352
-278.457	89.696	0.104	0.116
-277.443	764.725	-0.170	-0.460
-276.428	98.101	-0.156	0.179
-275.413	77.128	-0.244	-0.259
-274.399	-200.000	0.106	-0.466
-273.384	368.255	-0.144	-0.290
-272.370	-118.834	0.304	0.053
-271.355	-154.924	0.092	-0.006
-270.340	-200.000	0.046	0.264
-269.326	230.490	0.049	-0.081
-268.311	-200.000	0.033	0.197
-267.297	182.680	-0.060	0.088
-266.282	467.117	0.079	0.178
-265.267	110.494	0.058	-0.070
-264.253	800.000	0.036	0.118
-263.238	-200.000	-0.001	0.083
-262.224	-200.000	0.004	0.331
-261.209	-20.872	-0.081	-0.050
-260.195	10.852	-0.160	0.122
-259.180	-151.044	0.248	-0.019
-258.165	-123.611	0.147	-0.023
-257.151	-162.983	-0.205	-0.010
-256.136	-200.000	-0.040	0.191
-255.122	800.000	0.082	-0.282
-254.107	211.279	-0.136	-0.214
-253.092	-122.627	0.341	-0.055
-252.078	-106.286	0.121	0.027
-251.063	-200.000	0.020	0.108
-250.049	43.288	-0.106	-0.097
-249.034	-200.000	-0.017	-0.227
-248.019	-10.432	-0.118	0.078
-247.005	174.178	0.088	-0.127
-245.990	800.000	-0.029	0.103
-244.976	800.000	-0.099	-0.279
-243.961	-200.000	-0.015	-0.417
-242.946	77.640	-0.176	-0.187
-241.932	-125.801	-0.137	0.021
-240.917	-37.438	0.261	-0.139
-239.903	-162.196	-0.097	-0.005
-238.888	-200.000	0.029	-0.186
-237.873	-59.599	-0.201	0.086
-236.859	-200.000	0.017	0.246
-235.844	130.683	0.241	0.309
-234.830	471.699	0.142	0.318
-233.815	-159.543	-0.280	-0.016
-232.800	-63.196	0.107	-0.044
-231.786	23.394	-0.275	0.226
-230.771	-52.762	-0.135	0.062
-229.757	56.804	-0.167	0.162
-228.742	-78.389	0.145	-0.050
-227.727	-130.433	0.354	0.048
-226.713	800.000	0.038	-0.125
-225.698	87.871	0.162	-0.179
-224.684	800.000	0.068	0.225
-223.669	87.042	-0.180	-0.198
-222.655	800.000	-0.171	0.543
-221.640	-21.541	-0.336	-0.204
-220.625	155.372	0.092	-0.126
-219.611	87.229	-0.325	-0.359
-218.596	47.955	-0.221	0.206
-217.582	80.287	-0.083	0.089
-216.567	-32.370	-0.194	0.108
-215.552	-0.747	0.057	-0.040
-214.538	74.006	-0.129	0.135
-213.523	-29.328	-0.180	0.103
-212.509	-200.000	-0.013	0.119
-211.494	-46.279	0.131	-0.064
-210.479	-200.000	-0.078	-0.378
-209.465	800.000	0.056	0.205
-208.450	-32.916	-0.132	0.073
-207.436	-192.877	0.170	0.002
-206.421	-18.533	0.431	0.268
-205.406	34.127	0.060	0.052
-204.392	-15.277	0.134	-0.086
-203.377	323.824	0.138	0.263
-202.363	562.753	-0.085	0.204
-201.348	-24.115	0.106	-0.063
-200.333	-172.832	-0.456	0.014
-199.319	-200.000	0.064	-0.324
-198.304	800.000	-0.052	0.228
-197.290	-79.152	0.170	0.057
-196.275	287.596	0.055	-0.099
-195.260	646.561	0.026	-0.066
-194.246	-200.000	0.003	0.207
-193.231	130.346	-0.048	0.061
-192.217	-200.000	0.033	0.163
-191.202	63.869	-0.100	0.100
-190.187	-60.119	-0.136	-0.058
-189.173	445.505	-0.032	-0.071
-188.158	-84.376	-0.211	0.066
-187.144	-76.512	-0.233	-0.081
-186.129	-81.004	0.375	-0.124
-185.114	-18.649	-0.127	0.079
-184.100	-200.000	0.015	-0.145
-183.085	332.297	0.095	-0.183
-182.071	-200.000	-0.028	-0.216
-181.056	438.139	-0.140	-0.304
-180.042	800.000	0.025	0.079
-179.027	-45.682	0.295	0.145
-178.012	-57.908	0.300	-0.130
-176.998	-200.000	0.056	-0.516
-175.983	-26.325	0.140	-0.082
-174.969	800.000	0.050	-0.139
-173.954	800.000	-0.068	-0.239
-172.939	-124.191	0.082	-0.013
-171.925	-33.883	0.225	0.123
-170.910	-49.899	0.119	-0.056
-169.896	-18.782	0.076	0.047
-168.881	342.465	0.088	0.171
-167.866	640.895	-0.045	0.115
-166.852	275.435	-0.059	-0.103
-165.837	649.646	0.023	0.059
-164.823	800.000	0.054	0.226
-163.808	800.000	-0.052	-0.160
-162.793	-200.000	0.004	0.030
-161.779	49.675	-0.066	-0.062
-160.764	70.589	-0.267	0.275
-159.750	-176.907	-0.164	-0.004
-158.735	224.636	0.171	0.275
-157.720	15.213	0.099	-0.077
-156.706	155.057	0.086	-0.117
-155.691	67.671	-0.104	-0.105
-154.677	-116.380	0.510	-0.094
-153.662	-154.286	-0.228	-0.015
-152.647	-177.006	0.293	0.007
-151.633	73.838	0.090	-0.093
-150.618	791.427	0.097	0.266
-149.604	85.834	-0.152	0.166
-148.589	13.951	-0.066	-0.051
-147.574	44.380	0.192	0.175
-146.560	-27.411	0.113	-0.066
-145.545	-200.000	0.027	0.127
-144.531	89.707	0.117	0.130
-143.516	85.323	-0.140	0.153
-142.502	343.102	-0.117	0.228
-141.487	-200.000	0.032	-0.303
-140.472	800.000	-0.099	0.311
-139.458	-50.497	-0.197	-0.093
-138.443	800.000	0.104	0.352
-137.429	-68.648	0.134	-0.052
-136.414	-159.019	-0.149	0.008
-135.399	37.469	0.082	-0.072
-134.385	-90.092	0.251	0.073
-133.370	-88.869	0.293	0.086
-132.356	204.895	0.089	0.137
-131.341	446.390	-0.182	0.398
-130.326	-30.922	-0.019	0.011
-129.312	55.019	0.046	-0.044
-128.297	247.869	0.064	-0.108
-127.283	-59.520	0.270	-0.115
-126.268	137.438	0.108	-0.140
-125.253	-114.535	-0.083	0.016
-124.239	164.499	0.039	-0.055
-123.224	800.000	0.057	0.230
-122.210	-200.000	-0.038	0.356
