DTS Sentinel unit serial number:	SN413079Multiplexer serial number:	ORYXHardware model number:	OX4-SRSoftware version number:	ORYX F/W v4.00 Oryx Data Collector v3.7.2.0data status	okinstallation	princeton_trtdifferential loss correction	single-endedforward channel	channel 1reverse channel	N/Adate	2019/09/19time	10:22:35forward acquisition time	60.00reverse acquisition time	0.00gamma	496.2192k internal	0.2339k external	0.2339temperature offset calibration	1.0008default loss term (dB/km)	0.3790temperature slope calibration	1.0000multiplexer offset coefficient	1.0000multiplexer slope coefficient	1.0000fibre end	0.00T internal ref (°C)	24.22T ext. ref 1 (°C)	0.71T ext. ref 2 (°C)	19.84length (m)	temperature (°C)	Stokes	anti-Stokes-747.200	-200.000	0.025	0.356
-746.185	-23.449	-0.157	-0.095
-745.171	-200.000	0.018	0.250
-744.156	-142.232	-0.314	0.031
-743.142	-200.000	0.025	0.149
-742.127	-120.117	-0.233	-0.040
-741.112	-200.000	0.022	0.101
-740.098	-200.000	-0.023	0.254
-739.083	-51.195	0.172	-0.081
-738.069	-56.585	0.165	0.073
-737.054	296.341	-0.219	0.402
-736.039	-120.298	-0.529	-0.090
-735.025	-72.604	0.173	0.064
-734.010	294.976	0.144	-0.264
-732.996	3.521	-0.183	0.134
-731.981	96.379	0.185	0.212
-730.966	-73.008	-0.271	-0.100
-729.952	390.806	0.042	-0.088
-728.937	14.086	0.042	0.033
-727.923	-162.235	0.101	0.005
-726.908	121.110	-0.168	0.209
-725.894	800.000	-0.122	-0.354
-724.879	671.407	0.095	-0.247
-723.864	-200.000	0.024	-0.397
-722.850	800.000	-0.041	0.122
-721.835	800.000	0.063	-0.256
-720.821	9.214	0.166	-0.126
-719.806	-156.504	-0.081	-0.005
-718.791	16.826	-0.093	-0.074
-717.777	-200.000	0.018	0.208
-716.762	31.698	-0.103	-0.089
-715.748	-157.937	-0.155	-0.009
-714.733	73.589	0.098	0.103
-713.718	-200.000	-0.018	0.145
-712.704	-200.000	0.071	-0.378
-711.689	-200.000	0.015	0.118
-710.675	60.622	-0.095	0.094
-709.660	-8.729	0.307	0.206
-708.645	80.074	0.067	-0.072
-707.631	7.940	-0.264	0.198
-706.616	285.685	-0.116	0.209
-705.602	95.093	0.147	0.168
-704.587	-114.418	-0.173	-0.033
-703.572	-40.934	0.180	-0.093
-702.558	171.959	-0.163	-0.235
-701.543	800.000	-0.019	-0.061
-700.529	23.613	0.182	-0.150
-699.514	-98.100	-0.199	-0.051
-698.499	179.458	0.160	-0.234
-697.485	105.078	-0.179	-0.212
-696.470	256.551	-0.191	-0.328
-695.456	-200.000	0.019	0.098
-694.441	-122.206	-0.028	0.005
-693.426	206.067	-0.051	0.079
-692.412	-34.169	-0.038	-0.021
-691.397	-56.979	-0.302	0.134
-690.383	-69.243	0.298	0.115
-689.368	-200.000	-0.006	-0.109
-688.354	-28.453	-0.260	-0.150
-687.339	243.600	0.118	-0.198
-686.324	-82.122	0.090	0.030
-685.310	-111.793	-0.326	-0.066
-684.295	-200.000	0.047	0.425
-683.281	-200.000	-0.001	-0.219
-682.266	255.814	0.115	-0.198
-681.251	-200.000	-0.031	-0.493
-680.237	800.000	-0.069	-0.193
-679.222	543.122	-0.046	0.111
-678.208	-200.000	-0.018	-0.089
-677.193	94.681	0.087	-0.099
-676.178	181.096	-0.033	0.049
-675.164	-55.709	-0.070	-0.031
-674.149	-71.197	-0.216	-0.081
-673.135	-95.356	-0.228	-0.061
-672.120	800.000	0.028	-0.089
-671.105	255.014	-0.286	0.489
-670.091	-46.733	0.195	-0.095
-669.076	-200.000	-0.016	0.200
-668.062	-55.634	0.194	-0.087
-667.047	8.750	-0.167	0.126
-666.032	31.951	-0.211	-0.182
-665.018	-9.080	-0.333	-0.223
-664.003	113.307	-0.217	0.263
-662.989	800.000	-0.023	0.065
-661.974	-200.000	-0.000	-0.182
-660.959	165.883	-0.235	-0.332
-659.945	-200.000	0.016	-0.122
-658.930	94.280	-0.219	0.249
-657.916	71.121	-0.042	-0.044
-656.901	-123.282	-0.170	0.027
-655.886	-200.000	0.062	-0.312
-654.872	242.972	0.129	-0.215
-653.857	-12.492	-0.131	-0.085
-652.843	-19.087	0.134	0.084
-651.828	-172.175	-0.489	0.016
-650.814	215.877	-0.091	-0.144
-649.799	-200.000	0.006	-0.039
-648.784	83.521	0.126	0.137
-647.770	800.000	-0.028	-0.118
-646.755	-200.000	0.048	-0.319
-645.741	-78.222	0.331	-0.114
-644.726	655.786	-0.194	-0.498
-643.711	632.346	-0.028	-0.070
-642.697	130.800	-0.173	0.222
-641.682	-78.411	-0.212	0.073
-640.668	-200.000	0.002	0.129
-639.653	800.000	-0.031	-0.099
-638.638	-127.542	-0.079	0.011
-637.624	800.000	0.049	0.184
-636.609	190.561	-0.022	-0.034
-635.595	291.633	-0.165	0.300
-634.580	184.221	0.205	0.303
-633.565	102.281	0.110	-0.128
-632.551	-200.000	-0.047	0.227
-631.536	-131.654	0.180	-0.024
-630.522	-200.000	-0.039	-0.241
-629.507	-170.383	-0.309	0.011
-628.492	150.699	-0.083	-0.113
-627.478	-20.006	0.179	-0.111
-626.463	-156.078	-0.299	0.019
-625.449	800.000	0.030	-0.102
-624.434	-116.643	-0.212	-0.039
-623.419	-200.000	0.034	-0.188
-622.405	-116.064	-0.114	-0.021
-621.390	-95.774	0.130	0.035
-620.376	308.403	0.059	0.109
-619.361	-23.244	0.154	-0.093
-618.346	44.970	0.100	0.092
-617.332	-90.077	0.173	0.050
-616.317	-129.359	-0.040	-0.005
-615.303	-36.691	-0.037	0.020
-614.288	-200.000	0.043	-0.686
-613.273	-165.348	0.149	0.007
-612.259	-77.281	-0.055	-0.019
-611.244	100.661	-0.130	0.150
-610.230	800.000	-0.084	-0.262
-609.215	-139.511	-0.056	-0.006
-608.201	138.178	-0.090	-0.117
-607.186	-46.588	-0.095	0.046
-606.171	12.108	0.264	-0.203
-605.157	338.973	-0.153	-0.297
-604.142	-200.000	0.017	0.204
-603.128	129.731	-0.089	-0.113
-602.113	-172.779	0.300	0.009
-601.098	639.163	0.035	0.089
-600.084	-200.000	-0.035	0.215
-599.069	-7.524	-0.156	-0.105
-598.055	-200.000	-0.014	-0.196
-597.040	-200.000	-0.023	0.136
-596.025	800.000	-0.119	-0.365
-595.011	-14.849	0.232	-0.148
-593.996	38.859	-0.115	-0.102
-592.982	-161.813	0.234	-0.012
-591.967	-148.879	0.085	-0.007
-590.952	66.012	0.292	0.296
-589.938	532.625	-0.132	-0.312
-588.923	679.956	-0.044	0.115
-587.909	-121.102	0.365	-0.061
-586.894	159.727	0.031	0.043
-585.879	-74.413	-0.146	0.052
-584.865	115.158	-0.063	-0.077
-583.850	-54.053	0.092	-0.042
-582.836	-200.000	-0.024	0.422
-581.821	-158.101	-0.155	0.009
-580.806	-144.063	0.182	0.017
-579.792	184.644	0.125	0.184
-578.777	800.000	0.029	-0.125
-577.763	-84.032	0.043	0.014
-576.748	-3.718	0.150	-0.104
-575.733	-25.078	-0.161	0.095
-574.719	800.000	-0.097	0.278
-573.704	-162.333	0.302	0.015
-572.690	-74.920	-0.054	0.019
-571.675	-105.028	0.116	-0.027
-570.661	656.990	-0.123	-0.316
-569.646	-64.278	0.099	0.040
-568.631	405.593	0.080	-0.168
-567.617	800.000	0.052	0.199
-566.602	-121.877	0.078	-0.013
-565.588	247.187	0.221	-0.372
-564.573	-131.308	-0.168	0.022
-563.558	-200.000	0.037	-0.248
-562.544	28.511	-0.233	-0.196
-561.529	-200.000	0.001	-0.032
-560.515	-135.964	-0.056	0.007
-559.500	-12.141	0.207	0.135
-558.485	800.000	-0.016	-0.056
-557.471	800.000	-0.024	0.076
-556.456	-76.768	-0.436	0.152
-555.442	96.978	0.033	-0.038
-554.427	135.761	-0.104	-0.135
-553.412	273.734	0.097	0.171
-552.398	-35.711	-0.275	0.149
-551.383	-149.783	0.217	0.017
-550.369	-160.676	0.059	0.003
-549.354	800.000	0.100	0.326
-548.339	39.633	-0.199	0.177
-547.325	-53.333	0.186	0.085
-546.310	200.308	0.113	-0.173
-545.296	-37.549	-0.221	0.117
-544.281	-200.000	0.025	-0.270
-543.266	-200.000	-0.000	-0.045
-542.252	282.115	-0.020	0.036
-541.237	-200.000	-0.010	-0.443
-540.223	712.319	-0.059	-0.155
-539.208	257.844	0.178	-0.304
-538.193	23.338	-0.046	-0.038
-537.179	102.761	0.142	0.165
-536.164	360.348	-0.118	0.236
-535.150	-82.296	0.292	0.095
-534.135	-50.355	-0.203	0.095
-533.121	-102.976	0.366	-0.086
-532.106	-200.000	-0.012	0.173
-531.091	-39.916	-0.372	0.193
-530.077	800.000	0.070	-0.246
-529.062	44.390	-0.129	0.118
-528.048	-28.174	-0.363	0.208
-527.033	-118.422	-0.128	-0.023
-526.018	-200.000	-0.002	0.271
-525.004	-23.650	-0.201	-0.120
-523.989	-200.000	-0.003	0.124
-522.975	134.944	-0.054	-0.069
-521.960	800.000	-0.019	0.059
-520.945	800.000	-0.032	0.122
-519.931	47.418	-0.218	-0.202
-518.916	-200.000	-0.051	-0.290
-517.902	-30.375	0.270	0.152
-516.887	-25.897	0.146	-0.086
-515.872	-27.348	0.073	-0.042
-514.858	-200.000	-0.017	0.138
-513.843	112.300	0.051	-0.062
-512.829	-200.000	-0.007	-0.187
-511.814	-50.488	0.080	0.038
-510.799	-45.936	-0.127	0.062
-509.785	-78.313	-0.251	-0.086
-508.770	800.000	-0.049	-0.144
-507.756	176.249	-0.172	0.249
-506.741	-200.000	0.013	-0.080
-505.726	-200.000	0.014	-0.270
-504.712	-112.766	0.331	-0.065
-503.697	-7.248	0.133	-0.089
-502.683	800.000	0.016	0.053
-501.668	358.666	-0.053	-0.105
-500.653	-32.387	0.222	0.123
-499.639	-200.000	-0.011	0.058
-498.624	461.265	0.019	-0.043
-497.610	-92.495	-0.065	0.018
-496.595	-74.113	-0.120	-0.043
-495.581	-200.000	0.012	-0.121
-494.566	-144.087	-0.148	-0.014
-493.551	242.534	0.126	-0.210
-492.537	-91.560	0.090	-0.026
-491.522	-200.000	0.020	0.128
-490.508	-68.777	-0.158	0.061
-489.493	-29.485	-0.160	-0.091
-488.478	-200.000	-0.054	0.290
-487.464	-200.000	-0.002	0.020
-486.449	800.000	-0.053	-0.220
-485.435	-125.752	-0.165	0.025
-484.420	800.000	-0.078	0.222
-483.405	408.570	-0.027	-0.058
-482.391	438.301	-0.143	-0.310
-481.376	800.000	0.122	-0.379
-480.362	-52.923	0.018	-0.008
-479.347	-163.809	0.070	0.003
-478.332	-75.712	0.217	-0.077
-477.318	374.445	-0.081	-0.163
-476.303	21.750	0.209	0.169
-475.289	800.000	0.008	-0.034
-474.274	114.526	-0.232	0.281
-473.259	12.015	-0.220	0.168
-472.245	209.552	-0.109	-0.169
-471.230	800.000	0.012	-0.048
-470.216	263.258	0.023	0.040
-469.201	-24.286	0.363	-0.215
-468.186	-11.517	0.101	-0.066
-467.172	-168.451	-0.110	-0.004
-466.157	-200.000	-0.005	-0.145
-465.143	800.000	0.129	-0.368
-464.128	25.913	-0.171	0.142
-463.113	595.853	0.004	0.011
-462.099	-200.000	0.032	0.316
-461.084	112.369	0.055	0.066
-460.070	101.799	0.057	0.066
-459.055	-21.100	0.089	0.054
-458.040	160.480	-0.091	-0.125
-457.026	-135.196	-0.181	0.021
-456.011	-17.984	0.196	0.122
-454.997	94.082	-0.097	0.110
-453.982	614.571	-0.106	-0.262
-452.968	-69.480	0.386	0.147
-451.953	-80.874	-0.167	-0.055
-450.938	50.690	0.172	-0.162
-449.924	-62.169	-0.091	-0.038
-448.909	-127.707	0.302	-0.043
-447.895	175.953	-0.072	0.104
-446.880	-6.135	0.264	0.179
-445.865	451.176	0.057	0.125
-444.851	209.126	-0.066	-0.103
-443.836	-81.449	-0.302	-0.099
-442.822	-200.000	-0.063	0.342
-441.807	-41.824	0.322	0.164
-440.792	-67.351	0.083	-0.033
-439.778	225.261	0.131	-0.211
-438.763	-200.000	-0.011	0.264
-437.749	-200.000	0.022	0.134
-436.734	45.474	-0.113	-0.103
-435.719	-30.791	0.219	0.123
-434.705	-39.555	0.324	-0.168
-433.690	-200.000	0.024	-0.222
-432.676	58.172	0.139	-0.135
-431.661	94.624	0.122	0.137
-430.646	-133.507	-0.291	0.036
-429.632	-200.000	-0.005	0.111
-428.617	-56.035	-0.325	-0.143
-427.603	115.719	0.201	0.243
-426.588	-112.947	0.322	-0.063
-425.573	231.642	-0.154	0.251
-424.559	800.000	-0.061	0.200
-423.544	-200.000	0.038	0.215
-422.530	800.000	-0.031	-0.126
-421.515	-200.000	0.076	0.428
-420.500	11.052	0.129	0.097
-419.486	-137.440	-0.273	0.031
-418.471	-200.000	-0.035	-0.155
-417.457	359.913	0.112	0.221
-416.442	230.536	0.106	-0.172
-415.428	800.000	-0.100	0.305
-414.413	-88.129	0.453	0.134
-413.398	-84.250	-0.286	-0.090
-412.384	628.626	-0.133	0.332
-411.369	153.212	-0.034	0.047
-410.355	-182.308	0.146	-0.003
-409.340	-42.677	-0.247	0.124
-408.325	-84.590	-0.553	0.173
-407.311	-114.123	-0.194	-0.037
-406.296	10.813	0.302	0.228
-405.282	104.433	0.172	0.200
-404.267	175.132	0.031	0.045
-403.252	74.963	0.186	-0.194
-402.238	800.000	0.099	-0.307
-401.223	56.013	0.182	-0.174
-400.209	800.000	0.079	0.280
-399.194	327.023	0.073	0.139
-398.179	-53.550	0.149	0.068
-397.165	-200.000	0.010	0.167
-396.150	-200.000	0.012	0.123
-395.136	357.650	-0.052	-0.104
-394.121	347.883	0.173	-0.338
-393.106	-120.033	0.180	0.031
-392.092	-156.080	-0.135	-0.008
-391.077	-200.000	-0.056	-0.327
-390.063	-200.000	-0.005	-0.187
-389.048	-35.066	0.256	0.138
-388.033	-198.310	-0.236	-0.001
-387.019	171.821	0.120	-0.170
-386.004	14.620	-0.059	-0.046
-384.990	-119.055	-0.125	0.022
-383.975	-95.148	0.175	-0.047
-382.960	-83.582	0.395	-0.125
-381.946	13.190	-0.278	0.213
-380.931	-67.102	0.543	0.212
-379.917	-188.899	0.222	0.003
-378.902	246.328	0.315	-0.525
-377.888	-200.000	0.040	-0.175
-376.873	-200.000	-0.026	0.400
-375.858	-82.031	0.036	0.012
-374.844	-200.000	0.037	0.385
-373.829	-142.741	0.337	-0.033
-372.815	-200.000	0.068	0.420
-371.800	-200.000	0.024	0.181
-370.785	-28.785	-0.151	0.086
-369.771	-200.000	-0.008	-0.128
-368.756	-91.035	-0.136	-0.039
-367.742	3.595	-0.286	-0.206
-366.727	-200.000	0.034	-0.161
-365.712	13.121	-0.371	-0.284
-364.698	-64.947	0.146	0.058
-363.683	161.421	0.118	-0.163
-362.669	82.980	0.205	-0.220
-361.654	130.874	0.147	-0.187
-360.639	-131.468	-0.224	0.029
-359.625	800.000	-0.089	-0.285
-358.610	-104.753	0.202	-0.046
-357.596	-27.829	-0.290	0.166
-356.581	-10.234	-0.037	-0.024
-355.566	67.307	0.091	-0.092
-354.552	800.000	-0.098	0.289
-353.537	-69.070	-0.392	0.149
-352.523	-200.000	-0.002	0.186
-351.508	49.918	0.174	0.162
-350.493	21.067	-0.283	-0.227
-349.479	-113.453	-0.235	0.046
-348.464	1.838	0.197	0.140
-347.450	-38.586	0.363	0.189
-346.435	800.000	-0.074	0.213
-345.420	-200.000	-0.025	0.320
-344.406	800.000	0.054	-0.165
-343.391	-157.062	-0.611	0.037
-342.377	800.000	-0.080	0.240
-341.362	-200.000	0.010	0.316
-340.348	-51.062	-0.120	0.055
-339.333	-86.688	-0.401	0.121
-338.318	-65.968	-0.326	0.129
-337.304	101.983	-0.194	-0.224
-336.289	-10.494	-0.293	-0.191
-335.275	-200.000	-0.030	0.158
-334.260	100.985	0.141	-0.162
-333.245	-92.905	-0.082	-0.023
-332.231	130.654	-0.185	0.234
-331.216	650.283	0.013	-0.033
-330.202	-200.000	-0.002	0.191
-329.187	107.799	0.133	-0.157
-328.172	800.000	0.032	-0.114
-327.158	437.453	-0.076	-0.164
-326.143	-66.984	0.213	-0.083
-325.129	-110.601	0.306	0.062
-324.114	183.924	-0.070	-0.102
-323.099	800.000	0.073	0.297
-322.085	173.147	-0.198	-0.281
-321.070	-200.000	0.026	-0.123
-320.056	281.542	-0.046	-0.081
-319.041	-200.000	-0.017	-0.115
-318.026	419.423	0.060	-0.127
-317.012	-141.236	-0.194	-0.019
-315.997	85.279	0.150	0.163
-314.983	401.677	0.034	-0.071
-313.968	45.077	0.124	-0.113
-312.953	-16.441	-0.037	0.023
-311.939	790.857	-0.115	-0.312
-310.924	175.699	0.051	0.073
-309.910	-158.577	-0.167	0.009
-308.895	557.724	-0.137	0.326
-307.880	-200.000	-0.016	0.169
-306.866	-42.959	-0.079	-0.039
-305.851	206.062	-0.145	-0.222
-304.837	316.435	0.073	0.135
-303.822	-48.905	-0.094	-0.044
-302.807	-3.414	0.170	-0.117
-301.793	-200.000	-0.021	0.143
-300.778	-79.799	-0.190	0.063
-299.764	13.576	0.256	-0.196
-298.749	-85.613	-0.365	0.112
-297.735	590.887	-0.068	0.166
-296.720	-54.643	0.296	-0.132
-295.705	109.413	0.187	0.221
-294.691	-200.000	0.012	0.067
-293.676	-31.965	-0.154	-0.085
-292.662	-200.000	0.003	-0.048
-291.647	-200.000	0.028	0.395
-290.632	8.382	0.223	-0.166
-289.618	-200.000	-0.004	0.178
-288.603	61.663	0.103	0.101
-287.589	-4.338	-0.093	0.063
-286.574	-116.079	-0.486	-0.089
-285.559	49.343	0.288	0.267
-284.545	-62.130	-0.314	0.129
-283.530	-200.000	0.042	-0.185
-282.516	259.877	0.106	0.180
-281.501	-92.937	-0.206	-0.057
-280.486	-38.814	0.257	-0.133
-279.472	341.322	-0.079	0.152
-278.457	800.000	-0.050	0.183
-277.443	-38.274	0.199	0.104
-276.428	-99.146	0.316	-0.079
-275.413	759.192	0.177	-0.473
-274.399	94.354	0.036	-0.040
-273.384	314.187	0.173	0.321
-272.370	-114.965	0.371	0.070
-271.355	-57.201	-0.181	-0.079
-270.340	-155.125	-0.138	-0.009
-269.326	-14.936	-0.131	-0.082
-268.311	-52.181	0.079	-0.036
-267.297	55.407	0.193	0.184
-266.282	199.109	-0.059	0.089
-265.267	-113.218	-0.169	0.033
-264.253	216.966	0.073	0.114
-263.238	213.082	-0.179	-0.278
-262.224	63.855	0.113	-0.112
-261.209	-147.028	-0.148	-0.012
-260.195	-5.262	-0.024	-0.016
-259.180	239.809	0.074	0.121
-258.165	23.154	0.083	-0.067
-257.151	-200.000	0.013	-0.076
-256.136	-20.965	-0.124	0.075
-255.122	-200.000	0.065	-0.316
-254.107	0.201	0.094	-0.066
-253.092	-200.000	0.006	-0.086
-252.078	-200.000	-0.008	-0.247
-251.063	174.620	-0.144	-0.205
-250.049	-92.129	0.072	0.020
-249.034	76.408	-0.306	-0.319
-248.019	407.600	-0.055	0.114
-247.005	-200.000	0.018	-0.227
-245.990	186.277	0.107	-0.157
-244.976	-105.029	0.111	0.025
-243.961	600.062	0.133	0.324
-242.946	-39.976	-0.105	0.054
-241.932	-200.000	-0.004	-0.316
-240.917	-200.000	0.042	0.228
-239.903	-155.189	0.090	0.006
-238.888	-162.523	-0.336	0.016
-237.873	800.000	0.032	0.129
-236.859	-200.000	0.067	0.334
-235.844	800.000	-0.056	0.222
-234.830	-176.399	0.023	-0.001
-233.815	800.000	-0.052	-0.189
-232.800	800.000	0.028	0.091
-231.786	32.759	-0.108	-0.092
-230.771	90.965	-0.258	-0.285
-229.757	36.531	0.155	0.135
-228.742	5.918	-0.146	0.106
-227.727	26.155	-0.121	-0.100
-226.713	-46.295	-0.246	0.119
-225.698	-36.742	0.153	0.081
-224.684	-51.403	-0.100	0.046
-223.669	-5.587	0.216	0.146
-222.655	43.775	-0.087	0.078
-221.640	145.754	-0.083	0.109
-220.625	-173.494	0.160	0.005
-219.611	-69.825	-0.091	-0.034
-218.596	432.902	0.142	0.302
-217.582	52.982	0.211	-0.199
-216.567	800.000	-0.149	-0.432
-215.552	29.791	0.237	-0.199
-214.538	-178.854	0.366	0.008
-213.523	25.778	-0.274	0.224
-212.509	484.028	0.108	0.241
-211.494	577.011	0.147	-0.354
-210.479	800.000	-0.046	-0.190
-209.465	-200.000	0.003	-0.190
-208.450	-165.507	0.239	0.010
-207.436	12.112	0.048	-0.036
-206.421	44.912	0.188	-0.170
-205.406	-87.270	0.230	0.069
-204.392	-100.811	-0.150	0.036
-203.377	49.023	0.123	0.113
-202.363	-64.626	-0.168	-0.067
-201.348	614.647	-0.078	-0.191
-200.333	523.861	0.198	0.456
-199.319	-200.000	0.017	-0.090
-198.304	-200.000	0.000	-0.188
-197.290	-112.791	-0.083	-0.016
-196.275	800.000	0.074	0.262
-195.260	-200.000	-0.014	0.241
-194.246	-1.179	0.200	-0.139
-193.231	-64.969	-0.249	-0.099
-192.217	315.990	0.124	-0.229
-191.202	-87.911	0.133	0.039
-190.187	-170.297	-0.240	-0.008
-189.173	-32.586	-0.188	-0.103
-188.158	-44.141	-0.305	0.150
-187.144	800.000	0.025	-0.072
-186.129	-109.598	-0.121	-0.025
-185.114	-161.358	0.240	-0.012
-184.100	-72.341	-0.060	-0.022
-183.085	227.567	0.132	0.211
-182.071	-200.000	-0.004	0.059
-181.056	-13.723	-0.256	0.163
-180.042	-200.000	-0.015	-0.178
-179.027	-99.527	0.074	0.018
-178.012	183.501	-0.127	0.185
-176.998	325.152	0.066	0.124
-175.983	-138.518	0.061	0.007
-174.969	-59.561	-0.106	-0.045
-173.954	4.123	-0.541	0.388
-172.939	89.511	0.011	-0.012
-171.925	-119.687	-0.051	0.009
-170.910	800.000	0.053	-0.175
-169.896	-200.000	0.006	-0.216
-168.881	-139.490	-0.088	-0.009
-167.866	149.930	0.170	-0.226
-166.852	197.480	0.043	-0.065
-165.837	-25.236	-0.055	-0.032
-164.823	157.066	0.076	0.103
-163.808	241.862	-0.155	0.254
-162.793	502.256	0.118	0.266
-161.779	800.000	-0.059	0.216
-160.764	231.555	-0.095	0.152
-159.750	-21.692	0.016	-0.009
-158.735	-102.520	-0.137	-0.032
-157.720	-200.000	0.056	-0.316
-156.706	800.000	0.026	0.090
-155.691	367.217	-0.078	-0.155
-154.677	491.344	-0.113	0.254
-153.662	-200.000	-0.022	-0.287
-152.647	-38.470	-0.170	0.088
-151.633	800.000	0.120	-0.348
-150.618	-33.939	-0.222	-0.120
-149.604	-160.626	-0.125	0.007
-148.589	26.172	-0.228	0.186
-147.574	-26.330	0.213	0.123
-146.560	800.000	-0.031	0.115
-145.545	800.000	-0.071	0.245
-144.531	103.903	-0.153	0.176
-143.516	121.894	0.238	-0.291
-142.502	-35.178	-0.056	0.030
-141.487	-7.613	0.152	-0.101
-140.472	82.113	0.136	0.144
-139.458	800.000	0.040	0.159
-138.443	-200.000	0.023	-0.147
-137.429	-91.696	-0.346	0.096
-136.414	36.853	0.270	0.234
-135.399	143.049	0.227	-0.296
-134.385	-169.166	0.184	-0.007
-133.370	-200.000	0.002	0.357
-132.356	800.000	0.012	0.034
-131.341	-86.068	0.109	0.033
-130.326	161.425	-0.041	0.056
-129.312	38.343	0.062	0.054
-128.297	-200.000	0.021	-0.194
-127.283	413.852	0.071	-0.148
-126.268	139.523	-0.123	0.158
-125.253	-200.000	0.021	0.188
-124.239	-11.990	0.194	-0.124
-123.224	-65.954	0.244	-0.096
-122.210	-48.597	0.221	0.104
