DTS Sentinel unit serial number:	SN413079Multiplexer serial number:	ORYXHardware model number:	OX4-SRSoftware version number:	ORYX F/W v4.00 Oryx Data Collector v3.7.2.0data status	okinstallation	princeton_trtdifferential loss correction	single-endedforward channel	channel 1reverse channel	N/Adate	2019/09/11time	07:28:11forward acquisition time	60.00reverse acquisition time	0.00gamma	496.2192k internal	0.2327k external	0.2327temperature offset calibration	0.9913default loss term (dB/km)	0.3790temperature slope calibration	1.0000multiplexer offset coefficient	1.0000multiplexer slope coefficient	1.0000fibre end	0.00T internal ref (°C)	31.00T ext. ref 1 (°C)	-0.07T ext. ref 2 (°C)	27.51length (m)	temperature (°C)	Stokes	anti-Stokes-747.200	-94.416	-0.253	0.070
-746.185	800.000	0.059	0.194
-745.171	-2.905	-0.081	-0.057
-744.156	357.014	-0.113	0.227
-743.142	-63.496	-0.261	0.108
-742.127	94.903	-0.130	0.149
-741.112	-200.000	0.055	-0.437
-740.098	-18.198	0.087	-0.055
-739.083	30.951	-0.155	-0.134
-738.069	608.643	-0.126	0.317
-737.054	119.851	0.058	-0.072
-736.039	34.492	-0.225	-0.198
-735.025	535.834	-0.076	0.181
-734.010	-91.379	-0.186	-0.054
-732.996	12.414	0.464	-0.360
-731.981	7.895	0.134	-0.101
-730.966	-45.977	-0.128	0.064
-729.952	-154.709	-0.171	0.011
-728.937	-31.222	0.072	-0.041
-727.923	338.151	0.052	-0.101
-726.908	-200.000	0.043	-0.365
-725.894	-200.000	0.031	-0.239
-724.879	69.336	0.048	-0.050
-723.864	-200.000	-0.008	-0.337
-722.850	95.758	-0.147	-0.169
-721.835	-200.000	-0.020	0.375
-720.821	-200.000	-0.047	-0.372
-719.806	-200.000	0.045	-0.444
-718.791	190.899	-0.109	-0.164
-717.777	331.155	0.033	0.065
-716.762	800.000	-0.079	0.327
-715.748	393.058	0.073	0.153
-714.733	782.104	0.151	-0.416
-713.718	14.831	0.151	0.119
-712.704	742.034	0.047	-0.127
-711.689	-96.699	-0.145	0.038
-710.675	318.886	0.129	-0.245
-709.660	800.000	0.085	-0.368
-708.645	140.274	0.017	-0.023
-707.631	174.785	0.015	0.022
-706.616	800.000	0.132	0.460
-705.602	-44.041	0.153	0.077
-704.587	-200.000	-0.011	-0.180
-703.572	-73.611	0.248	0.091
-702.558	169.794	0.293	0.421
-701.543	106.493	-0.175	-0.209
-700.529	133.119	-0.145	0.189
-699.514	-79.896	-0.167	-0.057
-698.499	-200.000	0.021	-0.439
-697.485	-68.423	-0.387	-0.151
-696.470	-200.000	-0.004	-0.100
-695.456	-43.715	0.394	-0.200
-694.441	-42.992	0.248	-0.126
-693.426	-21.342	-0.198	0.122
-692.412	121.065	-0.071	-0.089
-691.397	-46.860	-0.220	0.108
-690.383	53.709	-0.135	0.130
-689.368	-40.679	-0.380	0.198
-688.354	800.000	-0.074	-0.323
-687.339	118.560	0.121	0.150
-686.324	263.448	0.129	0.225
-685.310	-97.155	-0.332	0.087
-684.295	3.843	-0.154	0.113
-683.281	800.000	-0.056	0.171
-682.266	-8.776	-0.025	0.017
-681.251	43.288	-0.199	0.182
-680.237	-23.872	-0.113	-0.068
-679.222	-7.026	0.039	-0.027
-678.208	-96.254	-0.323	0.086
-677.193	81.793	-0.103	-0.112
-676.178	-89.695	0.109	0.032
-675.164	-200.000	0.021	0.243
-674.149	-200.000	-0.025	-0.119
-673.135	96.633	-0.067	0.077
-672.120	383.597	-0.060	-0.124
-671.105	-59.900	-0.097	0.042
-670.091	-115.803	-0.137	0.026
-669.076	-111.712	-0.177	0.036
-668.062	-17.955	0.291	0.183
-667.047	-15.394	0.013	-0.008
-666.032	62.597	-0.150	-0.150
-665.018	-53.556	-0.084	-0.039
-664.003	-99.144	-0.140	0.036
-662.989	800.000	0.065	0.231
-661.974	-2.449	0.088	-0.062
-660.959	800.000	0.034	-0.115
-659.945	800.000	0.011	0.049
-658.930	-181.753	0.432	0.008
-657.916	55.027	-0.222	0.216
-656.901	98.306	0.061	0.070
-655.886	-200.000	-0.033	0.434
-654.872	-0.057	-0.105	0.075
-653.857	-107.315	-0.318	0.070
-652.843	-150.375	-0.515	0.040
-651.828	-114.226	0.048	-0.009
-650.814	800.000	-0.096	0.277
-649.799	-74.771	0.226	-0.081
-648.784	-137.943	-0.489	-0.055
-647.770	169.237	-0.185	0.265
-646.755	46.803	0.189	-0.176
-645.741	-200.000	0.000	0.282
-644.726	15.662	-0.140	-0.110
-643.711	26.696	-0.077	-0.065
-642.697	794.895	0.030	0.084
-641.682	-200.000	-0.030	-0.379
-640.668	800.000	0.043	0.150
-639.653	-200.000	-0.019	0.348
-638.638	-200.000	-0.021	-0.128
-637.624	-49.305	0.065	0.031
-636.609	-129.032	-0.098	-0.014
-635.595	221.074	0.277	-0.446
-634.580	-200.000	-0.046	-0.338
-633.565	-25.434	-0.268	-0.159
-632.551	-15.039	-0.170	-0.109
-631.536	95.388	-0.399	0.457
-630.522	281.330	-0.176	0.316
-629.507	32.736	-0.149	-0.130
-628.492	172.663	0.114	0.165
-627.478	-200.000	0.066	0.339
-626.463	-200.000	0.030	0.289
-625.449	-36.019	0.180	0.098
-624.434	800.000	-0.107	0.362
-623.419	-116.435	-0.002	0.000
-622.405	-10.655	-0.155	-0.103
-621.390	167.519	-0.102	-0.146
-620.376	-184.259	0.334	0.006
-619.361	58.501	0.146	-0.144
-618.346	-200.000	0.032	-0.200
-617.332	-2.835	-0.111	-0.078
-616.317	-108.864	-0.083	-0.018
-615.303	-200.000	0.054	0.268
-614.288	467.533	-0.127	0.286
-613.273	-200.000	0.078	-0.612
-612.259	-200.000	-0.055	-0.342
-611.244	-0.868	-0.162	-0.115
-610.230	28.256	0.228	0.194
-609.215	-200.000	-0.006	-0.201
-608.201	0.543	-0.289	-0.207
-607.186	312.598	0.086	-0.162
-606.171	288.880	-0.173	0.315
-605.157	-62.108	0.057	0.024
-604.142	-57.466	0.220	-0.097
-603.128	-85.722	-0.332	-0.103
-602.113	-200.000	0.008	-0.074
-601.098	327.487	-0.067	-0.129
-600.084	-6.199	0.296	-0.203
-599.069	-73.637	-0.090	-0.033
-598.055	104.985	-0.048	0.057
-597.040	-121.089	-0.099	0.017
-596.025	-77.421	-0.207	0.072
-595.011	70.318	-0.219	-0.227
-593.996	213.229	-0.069	-0.109
-592.982	-36.150	-0.198	0.107
-591.967	-50.982	0.207	0.097
-590.952	-166.429	0.012	-0.000
-589.938	-108.006	-0.125	-0.027
-588.923	-200.000	-0.013	-0.097
-587.909	535.170	0.009	0.021
-586.894	665.851	0.032	-0.084
-585.879	-121.584	0.135	-0.022
-584.865	294.339	0.061	0.111
-583.850	207.077	-0.190	-0.297
-582.836	-200.000	-0.041	-0.220
-581.821	-200.000	0.002	-0.167
-580.806	-43.117	-0.299	-0.152
-579.792	-168.663	0.143	-0.005
-578.777	-139.843	-0.093	0.010
-577.763	-96.256	0.264	0.070
-576.748	19.819	0.291	-0.235
-575.733	-14.388	0.110	0.071
-574.719	-200.000	0.029	-0.255
-573.704	-200.000	0.026	-0.359
-572.690	48.130	0.025	0.023
-571.675	-200.000	0.020	-0.228
-570.661	155.321	0.196	0.270
-569.646	-93.312	0.249	-0.069
-568.631	589.145	0.107	0.265
-567.617	-44.972	-0.152	-0.076
-566.602	800.000	0.196	0.556
-565.588	-78.107	0.146	0.050
-564.573	146.569	0.172	-0.231
-563.558	800.000	0.039	0.113
-562.544	-109.774	-0.242	-0.051
-561.529	-21.766	-0.200	0.122
-560.515	229.353	0.180	-0.294
-559.500	-137.074	0.084	-0.010
-558.485	-149.828	0.086	-0.007
-557.471	181.944	0.187	0.276
-556.456	31.474	-0.186	0.160
-555.442	27.282	-0.237	0.199
-554.427	-103.449	0.224	-0.053
-553.412	-200.000	0.011	0.204
-552.398	125.944	-0.058	0.073
-551.383	800.000	-0.048	-0.186
-550.369	421.666	0.254	0.545
-549.354	-85.520	0.246	0.076
-548.339	-72.729	0.128	-0.047
-547.325	-90.501	-0.156	-0.045
-546.310	96.956	-0.052	0.059
-545.296	275.099	0.039	0.069
-544.281	14.476	-0.028	0.022
-543.266	-175.033	0.371	-0.010
-542.252	800.000	-0.008	0.021
-541.237	-200.000	-0.025	-0.140
-540.223	-67.895	-0.218	-0.085
-539.208	-56.893	0.090	-0.040
-538.193	-200.000	-0.013	-0.298
-537.179	16.509	-0.146	-0.115
-536.164	-200.000	0.000	0.041
-535.150	394.525	-0.127	-0.266
-534.135	-154.369	-0.225	0.015
-533.121	223.315	0.096	-0.154
-532.106	-15.170	-0.213	-0.136
-531.091	-200.000	-0.008	0.129
-530.077	-81.214	-0.260	0.086
-529.062	-109.888	-0.273	0.057
-528.048	-40.959	-0.097	-0.050
-527.033	225.032	0.061	-0.099
-526.018	-83.378	-0.177	-0.057
-525.004	167.699	0.232	0.330
-523.989	289.495	0.038	0.069
-522.975	-75.631	0.166	0.059
-521.960	121.942	0.251	0.313
-520.945	15.097	0.169	0.132
-519.931	204.361	0.123	-0.190
-518.916	-200.000	0.010	-0.054
-517.902	433.623	0.144	0.312
-516.887	-115.163	0.076	-0.014
-515.872	-36.311	0.235	0.127
-514.858	-164.323	-0.095	0.004
-513.843	-23.491	-0.108	0.065
-512.829	44.445	-0.118	-0.109
-511.814	-200.000	0.009	0.239
-510.799	387.649	-0.193	0.399
-509.785	-95.001	-0.178	-0.048
-508.770	210.520	0.063	-0.098
-507.756	-32.446	0.206	0.114
-506.741	129.396	0.126	-0.161
-505.726	4.607	0.249	-0.182
-504.712	-60.845	-0.308	0.130
-503.697	202.832	-0.129	0.199
-502.683	362.168	0.032	0.064
-501.668	-200.000	-0.056	0.259
-500.653	47.357	-0.018	-0.017
-499.639	39.360	0.066	-0.059
-498.624	-52.749	0.091	-0.042
-497.610	-200.000	0.018	-0.107
-496.595	20.125	0.128	0.103
-495.581	-10.759	-0.117	-0.077
-494.566	107.891	0.176	-0.209
-493.551	-129.550	0.260	-0.036
-492.537	218.829	0.232	-0.370
-491.522	-26.884	0.226	0.132
-490.508	92.581	0.213	0.240
-489.493	-41.006	0.248	0.128
-488.478	-145.490	0.177	-0.016
-487.464	-118.447	-0.247	0.044
-486.449	800.000	0.079	0.328
-485.435	-158.304	-0.020	0.001
-484.420	-200.000	-0.014	-0.176
-483.405	-22.222	-0.280	-0.169
-482.391	-104.615	0.239	0.055
-481.376	-92.412	0.301	0.084
-480.362	-148.899	-0.342	-0.028
-479.347	-134.293	-0.264	-0.032
-478.332	51.243	-0.213	0.202
-477.318	3.840	0.398	-0.290
-476.303	800.000	-0.115	0.434
-475.289	-60.434	0.217	0.092
-474.274	-7.397	0.175	-0.118
-473.259	-161.484	-0.236	0.012
-472.245	535.857	0.072	-0.171
-471.230	250.108	0.125	-0.211
-470.216	-162.222	-0.228	-0.011
-469.201	800.000	-0.017	0.048
-468.186	-45.872	-0.096	-0.047
-467.172	-42.826	-0.262	-0.133
-466.157	-112.993	0.638	0.126
-465.143	388.450	-0.056	-0.115
-464.128	-98.593	0.189	0.048
-463.113	800.000	0.018	-0.052
-462.099	216.044	-0.099	-0.157
-461.084	800.000	-0.045	0.173
-460.070	286.614	-0.184	-0.332
-459.055	371.333	-0.104	-0.211
-458.040	-107.305	0.044	-0.010
-457.026	-200.000	-0.031	-0.276
-456.011	-200.000	0.014	0.167
-454.997	800.000	0.076	0.259
-453.982	130.832	-0.191	-0.244
-452.968	800.000	-0.085	0.239
-451.953	-34.963	-0.237	0.129
-450.938	800.000	-0.103	-0.408
-449.924	51.403	-0.155	-0.146
-448.909	-72.730	0.228	-0.084
-447.895	130.612	-0.092	-0.117
-446.880	170.031	0.153	0.217
-445.865	-176.914	-0.293	-0.007
-444.851	286.241	0.198	-0.357
-443.836	749.103	0.168	-0.450
-442.822	800.000	-0.039	-0.138
-441.807	129.903	0.142	0.181
-440.792	800.000	-0.021	0.064
-439.778	-200.000	0.016	-0.079
-438.763	558.714	-0.153	-0.367
-437.749	112.462	-0.136	-0.164
-436.734	23.235	-0.113	0.092
-435.719	-99.034	0.195	-0.049
-434.705	369.070	0.196	-0.395
-433.690	45.244	-0.144	0.132
-432.676	622.404	-0.063	-0.158
-431.661	592.907	0.108	-0.266
-430.646	218.446	0.054	0.086
-429.632	25.413	-0.129	0.107
-428.617	-10.312	0.103	0.068
-427.603	-200.000	-0.047	0.230
-426.588	-119.269	0.063	-0.011
-425.573	-74.613	0.324	0.116
-424.559	287.327	-0.073	-0.131
-423.544	78.682	0.127	0.136
-422.530	7.022	-0.166	-0.123
-421.515	-81.387	-0.141	-0.046
-420.500	-200.000	0.059	-0.269
-419.486	184.777	-0.189	0.279
-418.471	162.446	-0.060	-0.084
-417.457	-58.741	-0.240	0.103
-416.442	-84.965	0.155	0.048
-415.428	789.212	-0.083	-0.227
-414.413	666.008	0.005	-0.012
-413.398	-164.478	-0.534	0.024
-412.384	80.254	0.242	-0.260
-411.369	-46.703	0.089	0.043
-410.355	-48.487	-0.250	-0.120
-409.340	800.000	-0.089	-0.287
-408.325	-200.000	0.017	-0.281
-407.311	73.243	0.200	-0.208
-406.296	-200.000	0.001	-0.268
-405.282	-125.556	-0.238	0.036
-404.267	94.589	-0.187	-0.211
-403.252	-200.000	-0.015	-0.145
-402.238	-91.738	0.151	0.043
-401.223	-158.091	0.279	-0.016
-400.209	-200.000	-0.020	0.211
-399.194	-200.000	0.006	-0.038
-398.179	-107.026	-0.239	0.053
-397.165	-56.312	0.138	0.061
-396.150	-122.577	-0.227	-0.037
-395.136	800.000	0.071	0.289
-394.121	800.000	0.129	0.387
-393.106	442.283	-0.036	0.078
-392.092	61.602	0.138	0.136
-391.077	-111.895	-0.190	0.038
-390.063	37.398	-0.225	-0.198
-389.048	182.384	-0.105	-0.154
-388.033	241.665	0.130	-0.216
-387.019	-78.258	0.177	0.060
-386.004	-145.255	0.118	-0.011
-384.990	800.000	0.017	-0.060
-383.975	42.067	-0.223	0.202
-382.960	-100.600	0.382	-0.094
-381.946	-200.000	-0.015	0.143
-380.931	19.691	-0.157	0.125
-379.917	213.901	0.083	0.131
-378.902	-200.000	0.014	-0.151
-377.888	117.566	-0.015	0.019
-376.873	192.202	0.070	-0.104
-375.858	29.929	0.137	-0.116
-374.844	-165.500	0.155	0.007
-373.829	69.651	0.099	-0.101
-372.815	-58.750	0.211	0.091
-371.800	-200.000	-0.025	-0.153
-370.785	61.354	-0.103	-0.102
-369.771	-3.476	-0.081	-0.056
-368.756	-27.611	-0.049	0.029
-367.742	73.728	-0.179	-0.186
-366.727	3.779	0.128	0.093
-365.712	800.000	0.028	-0.118
-364.698	-145.901	0.290	0.026
-363.683	-114.144	-0.295	-0.057
-362.669	-148.283	0.222	0.018
-361.654	88.504	0.146	0.162
-360.639	-200.000	-0.060	0.269
-359.625	-74.921	-0.060	0.021
-358.610	125.692	-0.212	-0.266
-357.596	-64.899	-0.135	0.054
-356.581	-200.000	-0.007	0.218
-355.566	800.000	-0.077	0.259
-354.552	506.895	0.017	0.038
-353.537	-0.090	0.028	-0.020
-352.523	-200.000	-0.017	-0.209
-351.508	56.675	-0.286	0.277
-350.493	382.182	0.104	-0.213
-349.479	-47.473	-0.116	0.056
-348.464	-14.241	0.156	0.100
-347.450	-200.000	-0.017	0.294
-346.435	28.550	-0.198	0.166
-345.420	492.167	0.069	0.157
-344.406	-115.170	0.142	0.027
-343.391	-200.000	0.004	0.144
-342.377	-10.147	0.232	-0.153
-341.362	-200.000	-0.002	-0.012
-340.348	133.854	0.184	-0.237
-339.333	800.000	-0.044	-0.127
-338.318	-192.082	0.415	-0.004
-337.304	76.647	0.303	0.319
-336.289	-63.024	-0.299	0.123
-335.275	43.573	0.274	-0.249
-334.260	-200.000	-0.005	-0.031
-333.245	-54.269	-0.175	0.079
-332.231	-110.705	0.077	0.016
-331.216	156.604	-0.072	-0.099
-330.202	800.000	0.088	-0.254
-329.187	248.508	0.045	0.075
-328.172	212.161	-0.133	0.208
-327.158	-200.000	0.046	0.228
-326.143	156.559	0.066	-0.090
-325.129	225.477	0.052	0.083
-324.114	-200.000	-0.014	-0.126
-323.099	-200.000	0.007	-0.214
-322.085	552.794	-0.073	-0.174
-321.070	776.090	0.022	0.058
-320.056	-149.315	-0.389	0.031
-319.041	-124.557	-0.196	-0.030
-318.026	-102.288	0.143	-0.034
-317.012	125.289	0.094	-0.117
-315.997	-200.000	0.015	0.080
-314.983	-123.893	0.284	-0.044
-313.968	-200.000	-0.047	0.285
-312.953	-3.842	-0.015	-0.011
-311.939	153.284	0.066	0.089
-310.924	-171.897	-0.272	-0.009
-309.910	455.132	0.248	-0.545
-308.895	-81.671	0.183	-0.059
-307.880	-97.653	0.409	0.105
-306.866	-41.328	-0.298	-0.152
-305.851	-200.000	0.022	-0.136
-304.837	800.000	0.003	0.009
-303.822	78.323	0.086	0.091
-302.807	155.916	0.028	0.038
-301.793	-96.736	0.136	-0.035
-300.778	-55.196	0.075	-0.033
-299.764	201.247	-0.092	-0.141
-298.749	98.412	0.096	0.110
-297.735	549.513	-0.072	0.172
-296.720	-200.000	0.060	0.299
-295.705	-200.000	-0.004	0.126
-294.691	-107.192	-0.216	-0.047
-293.676	-200.000	-0.005	-0.042
-292.662	-200.000	-0.001	-0.234
-291.647	-63.559	-0.154	0.063
-290.632	-200.000	-0.001	0.261
-289.618	-146.693	0.177	0.015
-288.603	800.000	-0.085	-0.350
-287.589	-1.564	-0.199	-0.139
-286.574	581.808	0.062	0.150
-285.559	-139.041	-0.381	-0.041
-284.545	-200.000	0.013	0.068
-283.530	116.290	0.073	0.089
-282.516	76.863	-0.185	-0.194
-281.501	782.467	-0.092	-0.248
-280.486	147.970	-0.161	-0.215
-279.472	-11.854	-0.108	0.070
-278.457	800.000	-0.049	0.159
-277.443	-64.554	0.385	-0.155
-276.428	515.839	0.131	0.303
-275.413	-200.000	-0.010	0.539
-274.399	-18.759	0.267	0.165
-273.384	-35.857	-0.092	0.049
-272.370	-131.186	0.063	0.008
-271.355	-54.589	-0.382	0.171
-270.340	-125.167	-0.350	0.053
-269.326	800.000	-0.052	-0.144
-268.311	-94.008	-0.184	-0.050
-267.297	78.549	0.165	-0.174
-266.282	505.256	0.092	-0.211
-265.267	67.392	0.227	-0.229
-264.253	7.522	0.141	-0.104
-263.238	-88.628	0.266	-0.078
-262.224	330.934	-0.063	-0.121
-261.209	-37.625	-0.390	0.206
-260.195	202.538	0.022	0.034
-259.180	207.659	-0.088	-0.136
-258.165	-30.764	0.174	0.098
-257.151	-200.000	0.019	-0.178
-256.136	-200.000	0.038	0.214
-255.122	21.985	0.207	0.167
-254.107	480.621	0.135	0.303
-253.092	149.469	0.099	-0.132
-252.078	-3.410	0.406	0.280
-251.063	-15.527	0.239	0.151
-250.049	-16.836	0.062	0.039
-249.034	-200.000	0.003	-0.036
-248.019	-36.128	-0.329	0.176
-247.005	-107.042	0.139	0.030
-245.990	-175.053	0.219	0.006
-244.976	-162.600	0.263	0.013
-243.961	-15.297	0.060	0.038
-242.946	112.961	-0.206	-0.247
-241.932	-47.670	-0.113	-0.054
-240.917	-200.000	-0.256	-0.001
-239.903	116.590	0.150	0.181
-238.888	556.854	-0.055	-0.131
-237.873	48.002	0.204	0.188
-236.859	-200.000	0.000	0.177
-235.844	423.120	-0.049	-0.105
-234.830	-200.000	0.036	-0.270
-233.815	-34.149	0.124	-0.068
-232.800	800.000	-0.032	0.110
-231.786	58.128	-0.149	0.144
-230.771	-44.232	-0.028	0.014
-229.757	149.911	0.057	0.076
-228.742	391.185	-0.153	-0.315
-227.727	20.371	0.335	0.268
-226.713	-200.000	-0.001	-0.111
-225.698	17.745	-0.166	-0.131
-224.684	-68.397	0.108	0.042
-223.669	-124.595	0.046	-0.007
-222.655	475.516	0.121	0.271
-221.640	-200.000	0.019	-0.162
-220.625	-38.207	-0.192	-0.100
-219.611	-118.643	-0.108	0.019
-218.596	-125.114	0.184	-0.028
-217.582	-33.381	-0.064	0.035
-216.567	75.175	-0.234	0.244
-215.552	-192.387	0.203	0.002
-214.538	-104.810	-0.173	0.039
-213.523	42.092	-0.139	0.125
-212.509	800.000	0.078	0.245
-211.494	-173.314	0.342	-0.010
-210.479	-200.000	-0.008	0.141
-209.465	-38.009	-0.213	-0.112
-208.450	-61.721	-0.270	-0.112
-207.436	19.878	-0.112	-0.089
-206.421	-200.000	0.088	0.536
-205.406	24.367	0.400	0.326
-204.392	800.000	0.143	0.421
-203.377	-200.000	0.048	0.228
-202.363	-200.000	0.007	0.287
-201.348	480.875	0.044	-0.099
-200.333	338.576	-0.216	-0.414
-199.319	-143.441	-0.225	-0.021
-198.304	-200.000	-0.003	-0.267
-197.290	-161.500	-0.356	0.018
-196.275	37.198	0.175	0.153
-195.260	-200.000	-0.030	-0.351
-194.246	-200.000	0.008	-0.048
-193.231	59.395	0.043	-0.042
-192.217	800.000	0.025	-0.109
-191.202	-22.149	0.201	0.121
-190.187	59.532	-0.281	-0.273
-189.173	-200.000	-0.015	0.099
-188.158	150.979	-0.041	-0.056
-187.144	-75.785	-0.091	-0.032
-186.129	-64.125	0.122	-0.049
-185.114	39.616	0.162	-0.143
-184.100	-124.538	-0.251	0.038
-183.085	73.200	-0.159	-0.164
-182.071	-200.000	-0.422	0.002
-181.056	-78.154	-0.324	0.110
-180.042	460.752	0.097	0.214
-179.027	434.336	0.056	0.120
-178.012	-200.000	-0.017	0.281
-176.998	-82.651	0.157	0.050
-175.983	-135.761	0.156	-0.018
-174.969	800.000	0.065	-0.196
-173.954	-151.174	-0.195	0.014
-172.939	800.000	-0.043	-0.178
-171.925	384.169	-0.067	0.135
-170.910	-41.899	0.322	0.163
-169.896	88.012	0.124	-0.136
-168.881	80.126	0.213	0.225
-167.866	-200.000	-0.015	0.202
-166.852	-153.942	0.160	0.011
-165.837	-200.000	0.035	-0.252
-164.823	-171.745	-0.182	0.006
-163.808	-127.723	-0.369	0.053
-162.793	54.958	0.117	-0.111
-161.779	618.765	-0.243	0.602
-160.764	800.000	0.104	0.358
-159.750	43.346	0.095	-0.086
-158.735	-103.109	-0.241	-0.056
-157.720	-92.917	-0.103	0.028
-156.706	2.953	-0.232	0.166
-155.691	-8.866	-0.264	0.174
-154.677	-200.000	-0.013	0.059
-153.662	163.673	0.031	-0.043
-152.647	11.313	-0.043	0.032
-151.633	-200.000	0.001	0.114
-150.618	-200.000	0.019	0.416
-149.604	800.000	-0.038	0.126
-148.589	581.801	0.167	0.404
-147.574	-105.880	-0.343	0.076
-146.560	-62.823	0.258	0.105
-145.545	-200.000	-0.015	-0.251
-144.531	-109.163	0.184	-0.039
-143.516	800.000	0.092	-0.292
-142.502	-112.384	0.456	-0.090
-141.487	-200.000	-0.035	0.207
-140.472	-65.346	0.157	0.062
-139.458	-29.287	0.191	0.108
-138.443	-151.079	-0.249	-0.018
-137.429	-58.687	-0.357	-0.152
-136.414	110.480	0.027	-0.031
-135.399	-200.000	0.039	0.176
-134.385	127.382	0.205	-0.256
-133.370	-175.038	0.315	0.009
-132.356	800.000	0.094	0.373
-131.341	465.988	0.026	0.057
-130.326	-149.656	0.060	-0.005
-129.312	421.256	0.241	0.509
-128.297	-84.354	-0.030	0.009
-127.283	84.597	0.263	-0.283
-126.268	800.000	0.121	-0.426
-125.253	71.514	-0.382	-0.390
-124.239	-200.000	0.063	-0.388
-123.224	-114.329	0.271	-0.051
-122.210	800.000	0.025	0.095
-121.195	-9.111	0.168	-0.110
