DTS Sentinel unit serial number:	SN413079Multiplexer serial number:	ORYXHardware model number:	OX4-SRSoftware version number:	ORYX F/W v4.00 Oryx Data Collector v3.7.2.0data status	okinstallation	princeton_trtdifferential loss correction	single-endedforward channel	channel 1reverse channel	N/Adate	2019/09/11time	10:44:11forward acquisition time	60.00reverse acquisition time	0.00gamma	496.2192k internal	0.2298k external	0.2298temperature offset calibration	0.9952default loss term (dB/km)	0.3790temperature slope calibration	1.0000multiplexer offset coefficient	1.0000multiplexer slope coefficient	1.0000fibre end	0.00T internal ref (°C)	36.77T ext. ref 1 (°C)	0.17T ext. ref 2 (°C)	33.76length (m)	temperature (°C)	Stokes	anti-Stokes-747.200	7.584	0.350	0.267
-746.185	312.993	0.169	0.324
-745.171	-191.754	0.275	-0.003
-744.156	117.486	-0.118	0.148
-743.142	-189.083	0.227	-0.003
-742.127	-123.240	-0.150	-0.024
-741.112	209.663	-0.203	-0.324
-740.098	-200.000	0.023	0.247
-739.083	-32.452	0.256	-0.146
-738.069	-147.971	0.205	0.017
-737.054	-12.975	0.408	-0.271
-736.039	-200.000	-0.064	-0.368
-735.025	-33.361	0.116	0.065
-734.010	54.135	-0.255	-0.251
-732.996	338.022	-0.060	-0.119
-731.981	170.339	-0.216	-0.315
-730.966	10.337	0.075	-0.058
-729.952	800.000	-0.050	-0.169
-728.937	-26.408	-0.163	-0.098
-727.923	25.213	0.341	-0.289
-726.908	18.604	0.177	-0.144
-725.894	108.525	0.023	0.028
-724.879	-65.659	-0.245	0.100
-723.864	-157.053	0.159	-0.010
-722.850	106.814	0.137	0.166
-721.835	213.119	-0.204	-0.329
-720.821	-200.000	-0.076	-0.544
-719.806	466.143	-0.079	-0.180
-718.791	-200.000	-0.002	-0.047
-717.777	168.912	-0.087	-0.126
-716.762	124.041	-0.240	-0.307
-715.748	-96.675	0.044	-0.012
-714.733	-163.466	-0.311	0.015
-713.718	-200.000	-0.031	-0.273
-712.704	201.382	0.092	0.145
-711.689	48.601	-0.113	0.108
-710.675	-34.141	0.189	0.106
-709.660	320.040	-0.119	0.230
-708.645	28.668	-0.100	0.086
-707.631	43.302	-0.064	0.060
-706.616	-152.955	0.042	0.003
-705.602	114.843	-0.215	-0.268
-704.587	-103.922	0.313	-0.075
-703.572	149.276	-0.139	0.192
-702.558	-131.573	0.136	-0.018
-701.543	-200.000	-0.001	-0.286
-700.529	435.408	-0.105	-0.232
-699.514	-116.038	0.091	-0.017
-698.499	-200.000	-0.024	-0.274
-697.485	349.055	-0.095	0.191
-696.470	-200.000	-0.020	-0.307
-695.456	60.386	0.217	-0.219
-694.441	-200.000	-0.026	0.222
-693.426	-74.412	0.243	0.089
-692.412	-44.773	0.212	0.108
-691.397	-200.000	0.029	-0.167
-690.383	57.987	-0.247	0.246
-689.368	93.815	-0.136	0.157
-688.354	436.775	-0.061	0.135
-687.339	-119.829	-0.318	-0.056
-686.324	321.778	0.026	-0.051
-685.310	29.984	0.317	-0.275
-684.295	93.267	-0.198	-0.229
-683.281	-111.053	-0.537	0.112
-682.266	172.863	0.052	-0.076
-681.251	-108.874	-0.281	-0.061
-680.237	5.235	-0.187	0.140
-679.222	-200.000	-0.003	-0.217
-678.208	67.479	-0.229	0.238
-677.193	-108.278	-0.169	-0.037
-676.178	-178.037	-0.329	-0.008
-675.164	-200.000	-0.016	-0.224
-674.149	800.000	0.167	-0.481
-673.135	-164.103	-0.302	-0.014
-672.120	-115.017	0.078	0.015
-671.105	-200.000	-0.040	0.287
-670.091	33.513	0.062	-0.055
-669.076	-28.721	0.168	-0.099
-668.062	-200.000	0.069	-0.404
-667.047	5.221	-0.150	0.113
-666.032	-41.397	-0.318	0.167
-665.018	-30.498	-0.090	-0.052
-664.003	-92.482	-0.281	-0.080
-662.989	-57.163	-0.334	-0.150
-661.974	-200.000	0.075	-0.435
-660.959	-100.856	-0.108	0.027
-659.945	-14.551	-0.079	-0.052
-658.930	-57.973	0.248	-0.110
-657.916	-43.977	-0.306	0.156
-656.901	-29.221	-0.094	0.055
-655.886	-18.011	0.135	0.086
-654.872	-131.751	-0.272	0.036
-653.857	-134.094	-0.119	0.015
-652.843	-102.395	0.210	-0.051
-651.828	532.309	-0.079	0.190
-650.814	-180.448	0.177	0.004
-649.799	92.677	0.204	-0.235
-648.784	-200.000	0.040	-0.338
-647.770	-40.825	0.074	-0.039
-646.755	107.533	0.311	0.376
-645.741	-77.229	0.268	0.095
-644.726	800.000	0.014	-0.047
-643.711	-200.000	0.035	-0.273
-642.697	-128.264	-0.284	0.041
-641.682	800.000	-0.019	-0.067
-640.668	-142.302	-0.136	0.014
-639.653	-40.200	-0.401	-0.213
-638.638	102.216	-0.097	0.115
-637.624	154.019	-0.105	0.147
-636.609	-81.248	0.220	-0.074
-635.595	371.610	-0.150	-0.310
-634.580	-66.957	0.214	-0.086
-633.565	-200.000	-0.008	0.287
-632.551	-5.719	0.221	0.154
-631.536	241.755	0.116	-0.196
-630.522	-87.150	0.126	-0.039
-629.507	-55.986	0.074	-0.034
-628.492	557.403	0.093	-0.228
-627.478	-200.000	-0.046	0.601
-626.463	379.237	0.096	-0.199
-625.449	209.049	-0.180	-0.287
-624.434	800.000	-0.039	0.126
-623.419	-200.000	0.012	-0.236
-622.405	-57.565	0.213	-0.095
-621.390	325.080	0.112	0.217
-620.376	-200.000	0.003	-0.284
-619.361	737.732	-0.028	-0.077
-618.346	449.889	0.171	-0.384
-617.332	-37.090	0.416	0.227
-616.317	-200.000	0.031	0.150
-615.303	-183.318	-0.245	0.004
-614.288	-34.633	-0.176	0.098
-613.273	-200.000	0.036	0.175
-612.259	374.095	0.091	-0.188
-611.244	171.045	-0.048	-0.070
-610.230	-137.227	0.173	-0.020
-609.215	-200.000	-0.019	0.282
-608.201	29.317	-0.129	-0.111
-607.186	54.606	0.215	-0.210
-606.171	-25.099	0.298	-0.180
-605.157	-200.000	-0.060	-0.290
-604.142	-105.942	0.298	-0.068
-603.128	-107.187	-0.211	0.047
-602.113	75.365	-0.065	0.070
-601.098	80.119	0.266	0.290
-600.084	-89.468	-0.231	-0.069
-599.069	72.828	-0.265	0.281
-598.055	357.664	0.049	-0.100
-597.040	111.531	0.172	0.210
-596.025	272.127	-0.025	-0.044
-595.011	105.785	0.080	0.096
-593.996	-23.992	0.142	-0.086
-592.982	-200.000	-0.015	-0.202
-591.967	-136.988	-0.152	-0.018
-590.952	800.000	-0.044	0.163
-589.938	-93.040	-0.210	0.059
-588.923	20.826	0.176	0.145
-587.909	672.356	0.028	0.074
-586.894	-200.000	-0.011	0.341
-585.879	-6.942	-0.037	0.025
-584.865	-21.919	-0.197	0.122
-583.850	728.367	0.034	-0.093
-582.836	800.000	-0.065	-0.214
-581.821	-55.218	0.250	-0.114
-580.806	-174.249	-0.264	0.008
-579.792	-25.024	0.116	-0.070
-578.777	21.925	0.059	0.049
-577.763	156.007	0.130	0.182
-576.748	91.974	-0.140	-0.159
-575.733	330.577	0.098	-0.191
-574.719	-122.412	-0.424	0.070
-573.704	-181.678	-0.168	0.003
-572.690	-65.846	0.092	-0.037
-571.675	-28.702	-0.231	-0.135
-570.661	-136.671	-0.442	-0.052
-569.646	461.646	-0.041	0.092
-568.631	46.704	-0.257	0.242
-567.617	-30.780	-0.254	-0.146
-566.602	800.000	-0.012	-0.044
-565.588	-103.763	-0.203	0.048
-564.573	50.890	0.053	-0.051
-563.558	800.000	0.034	0.100
-562.544	-130.024	-0.216	0.030
-561.529	38.967	0.239	-0.217
-560.515	800.000	0.047	0.199
-559.500	-27.553	-0.247	0.145
-558.485	-23.140	-0.281	-0.171
-557.471	305.574	-0.166	0.313
-556.456	280.370	0.048	0.088
-555.442	80.060	-0.093	0.101
-554.427	-162.203	0.191	0.010
-553.412	-112.124	0.157	-0.032
-552.398	141.662	0.177	-0.237
-551.383	-93.623	0.252	0.070
-550.369	800.000	0.028	-0.103
-549.354	-130.125	0.145	-0.020
-548.339	800.000	0.055	0.157
-547.325	13.517	0.086	-0.067
-546.310	9.414	-0.267	0.205
-545.296	101.933	-0.097	-0.114
-544.281	-14.364	-0.402	-0.263
-543.266	198.732	0.214	0.332
-542.252	-200.000	0.002	0.064
-541.237	-200.000	0.025	0.195
-540.223	-159.904	-0.124	0.007
-539.208	-135.958	-0.369	-0.044
-538.193	800.000	-0.019	-0.076
-537.179	-77.519	0.206	0.072
-536.164	-77.102	0.504	0.178
-535.150	332.098	0.046	0.090
-534.135	-153.236	-0.268	-0.019
-533.121	14.743	0.191	-0.151
-532.106	81.486	0.236	-0.258
-531.091	4.975	0.192	-0.143
-530.077	190.221	-0.127	0.193
-529.062	320.473	-0.082	0.158
-528.048	754.819	0.076	-0.207
-527.033	180.910	-0.135	-0.200
-526.018	28.657	0.219	-0.188
-525.004	-33.024	0.210	0.118
-523.989	-63.799	-0.209	0.087
-522.975	-200.000	0.006	-0.109
-521.960	420.107	-0.145	-0.315
-520.945	-22.445	0.324	-0.199
-519.931	-200.000	-0.021	0.284
-518.916	51.161	0.317	0.305
-517.902	-109.589	-0.235	0.050
-516.887	-159.267	-0.482	0.027
-515.872	800.000	-0.044	-0.188
-514.858	-95.509	0.199	0.054
-513.843	233.432	-0.056	0.093
-512.829	-114.456	-0.245	-0.048
-511.814	-75.817	-0.062	0.022
-510.799	1.395	0.210	0.153
-509.785	800.000	0.070	0.272
-508.770	-29.405	0.012	-0.007
-507.756	35.678	0.214	-0.190
-506.741	-97.566	-0.235	0.062
-505.726	63.788	0.108	-0.109
-504.712	-200.000	-0.056	0.250
-503.697	73.112	0.142	-0.150
-502.683	116.620	0.191	-0.237
-501.668	-68.538	0.138	0.054
-500.653	-200.000	0.004	-0.136
-499.639	739.836	-0.033	-0.089
-498.624	-200.000	0.034	-0.165
-497.610	65.216	-0.280	0.286
-496.595	-79.653	-0.353	0.120
-495.581	547.369	0.070	0.169
-494.566	72.744	-0.206	-0.218
-493.551	113.583	0.079	0.096
-492.537	109.687	-0.165	0.200
-491.522	-91.047	-0.263	0.076
-490.508	-41.226	0.237	0.123
-489.493	121.163	-0.111	0.140
-488.478	-110.667	-0.239	-0.050
-487.464	474.588	0.032	-0.072
-486.449	-200.000	0.067	-0.382
-485.435	-200.000	0.009	-0.084
-484.420	-200.000	-0.044	-0.203
-483.405	108.200	0.144	-0.173
-482.391	-175.246	-0.161	0.004
-481.376	-141.791	-0.207	0.021
-480.362	-66.014	0.084	0.034
-479.347	800.000	-0.084	0.256
-478.332	-105.915	-0.143	-0.033
-477.318	-200.000	-0.033	0.249
-476.303	37.769	-0.153	0.137
-475.289	-102.184	-0.253	-0.061
-474.274	-60.503	0.266	0.114
-473.259	4.295	-0.081	0.060
-472.245	-200.000	0.013	0.180
-471.230	-200.000	0.022	0.185
-470.216	-200.000	0.019	0.185
-469.201	289.739	-0.113	0.207
-468.186	371.694	0.056	0.115
-467.172	-200.000	0.002	-0.278
-466.157	-48.804	-0.282	0.137
-465.143	135.197	0.085	0.111
-464.128	-143.872	-0.109	0.010
-463.113	800.000	-0.119	0.371
-462.099	86.170	0.158	0.175
-461.084	-37.755	-0.121	-0.065
-460.070	-51.249	-0.264	0.125
-459.055	615.874	0.036	-0.091
-458.040	107.114	0.115	0.137
-457.026	-200.000	0.026	0.366
-456.011	-136.656	-0.190	0.022
-454.997	22.901	0.380	-0.315
-453.982	-200.000	-0.034	-0.231
-452.968	-200.000	0.063	0.403
-451.953	109.970	-0.084	-0.101
-450.938	485.794	-0.111	-0.256
-449.924	14.496	-0.021	-0.017
-448.909	-191.406	0.228	-0.002
-447.895	800.000	0.060	-0.181
-446.880	686.218	-0.144	-0.379
-445.865	-200.000	0.029	0.371
-444.851	800.000	0.094	-0.404
-443.836	-200.000	-0.018	-0.100
-442.822	215.918	0.108	-0.173
-441.807	-107.132	0.043	-0.010
-440.792	1.986	-0.154	0.112
-439.778	215.788	-0.024	-0.038
-438.763	57.147	0.126	0.124
-437.749	-179.306	0.105	-0.002
-436.734	277.044	0.048	-0.085
-435.719	127.615	-0.175	0.224
-434.705	-26.837	0.346	0.204
-433.690	-37.335	-0.188	-0.101
-432.676	194.275	0.130	0.198
-431.661	224.940	-0.146	0.238
-430.646	-200.000	-0.048	0.224
-429.632	800.000	0.028	-0.116
-428.617	27.876	0.314	-0.267
-427.603	-200.000	0.034	0.238
-426.588	243.498	0.206	0.349
-425.573	189.791	0.083	-0.125
-424.559	-30.664	-0.245	0.140
-423.544	-33.026	0.153	0.085
-422.530	19.184	-0.211	-0.171
-421.515	-130.667	0.118	0.016
-420.500	34.593	-0.188	-0.165
-419.486	-200.000	0.003	-0.369
-418.471	-36.382	0.168	0.091
-417.457	24.037	0.202	-0.168
-416.442	18.928	-0.078	-0.063
-415.428	11.004	0.163	0.126
-414.413	-74.444	0.287	-0.104
-413.398	90.398	0.251	-0.284
-412.384	266.429	0.104	0.184
-411.369	-101.672	0.401	0.098
-410.355	315.176	0.190	-0.361
-409.340	-200.000	0.039	0.261
-408.325	800.000	-0.019	0.074
-407.311	-200.000	0.008	-0.054
-406.296	-52.952	-0.229	-0.106
-405.282	-62.105	0.441	-0.185
-404.267	677.346	0.054	-0.141
-403.252	-121.026	0.326	-0.055
-402.238	48.608	-0.127	-0.120
-401.223	291.056	0.163	0.298
-400.209	481.560	0.068	0.156
-399.194	232.904	0.068	0.112
-398.179	-113.873	0.400	-0.078
-397.165	77.673	-0.130	-0.140
-396.150	27.693	0.186	-0.158
-395.136	736.119	-0.180	-0.485
-394.121	-173.196	-0.047	-0.001
-393.106	-56.209	-0.166	-0.075
-392.092	97.120	0.217	0.250
-391.077	238.358	0.157	-0.263
-390.063	-118.276	-0.243	-0.044
-389.048	17.271	-0.052	0.042
-388.033	-200.000	0.037	-0.214
-387.019	-77.593	-0.040	-0.014
-386.004	-200.000	0.009	0.047
-384.990	-200.000	0.071	-0.328
-383.975	-79.324	0.176	-0.060
-382.960	-69.350	0.231	-0.089
-381.946	-129.510	0.088	0.012
-380.931	25.867	0.104	-0.087
-379.917	-100.911	0.213	-0.053
-378.902	-200.000	-0.014	0.384
-377.888	31.814	-0.167	-0.144
-376.873	272.432	-0.029	-0.051
-375.858	115.335	0.200	0.246
-374.844	613.178	-0.154	-0.389
-373.829	10.930	0.214	-0.165
-372.815	800.000	-0.073	0.310
-371.800	19.239	0.101	0.081
-370.785	-200.000	-0.006	0.045
-369.771	-71.848	-0.213	-0.080
-368.756	-67.113	0.283	0.112
-367.742	9.063	0.221	-0.168
-366.727	800.000	-0.036	0.119
-365.712	-57.634	-0.272	0.120
-364.698	-186.102	0.310	-0.005
-363.683	206.580	-0.082	0.129
-362.669	-19.716	-0.097	-0.060
-361.654	-22.626	0.234	-0.142
-360.639	15.190	-0.128	0.101
-359.625	800.000	0.025	0.095
-358.610	-19.021	0.205	0.128
-357.596	-93.465	-0.038	0.011
-356.581	-62.712	0.467	-0.195
-355.566	-200.000	0.034	-0.286
-354.552	-200.000	-0.028	0.274
-353.537	-200.000	0.039	0.249
-352.523	-113.589	0.164	-0.032
-351.508	180.864	0.210	-0.310
-350.493	-50.029	-0.175	-0.084
-349.479	-200.000	-0.022	-0.256
-348.464	800.000	-0.090	-0.373
-347.450	800.000	0.054	0.187
-346.435	237.552	-0.132	0.221
-345.420	-122.588	-0.283	0.046
-344.406	76.240	-0.141	-0.150
-343.391	-118.363	0.287	0.051
-342.377	-200.000	-0.005	-0.061
-341.362	-114.843	0.079	0.015
-340.348	-56.789	0.233	-0.104
-339.333	77.096	0.305	0.326
-338.318	-61.566	0.208	-0.088
-337.304	-147.297	-0.270	0.023
-336.289	-200.000	0.055	0.270
-335.275	46.110	-0.113	0.105
-334.260	86.562	-0.136	-0.150
-333.245	127.431	0.210	0.268
-332.231	-145.001	0.153	0.014
-331.216	-200.000	0.048	-0.248
-330.202	-30.300	-0.282	0.161
-329.187	-84.349	0.213	0.068
-328.172	79.116	0.115	0.124
-327.158	-97.678	-0.116	0.030
-326.143	-183.537	-0.233	0.004
-325.129	-6.415	0.232	-0.159
-324.114	-46.869	-0.437	-0.215
-323.099	381.321	-0.041	-0.085
-322.085	359.499	0.034	0.068
-321.070	360.937	-0.052	-0.104
-320.056	-200.000	-0.023	0.435
-319.041	86.688	-0.099	0.110
-318.026	58.631	-0.044	-0.043
-317.012	800.000	-0.041	-0.167
-315.997	-117.963	-0.179	-0.032
-314.983	-200.000	-0.013	0.115
-313.968	318.585	0.036	0.069
-312.953	-182.474	0.343	-0.006
-311.939	191.192	0.083	-0.125
-310.924	-200.000	0.050	0.424
-309.910	-38.841	-0.501	-0.265
-308.895	-92.615	0.226	0.064
-307.880	31.266	0.153	-0.132
-306.866	-129.992	-0.421	0.058
-305.851	-127.157	0.122	-0.018
-304.837	-200.000	0.049	-0.259
-303.822	-200.000	-0.081	-0.400
-302.807	275.218	-0.057	0.102
-301.793	23.721	-0.093	-0.077
-300.778	-63.087	0.072	-0.030
-299.764	-200.000	-0.048	-0.317
-298.749	22.783	-0.299	-0.246
-297.735	800.000	0.157	-0.448
-296.720	-73.633	-0.175	0.064
-295.705	-47.386	0.023	0.011
-294.691	-11.300	0.106	-0.070
-293.676	-73.483	0.122	-0.045
-292.662	31.928	0.253	0.219
-291.647	-200.000	0.006	-0.241
-290.632	-200.000	-0.066	-0.381
-289.618	109.605	-0.335	0.403
-288.603	429.515	0.091	-0.198
-287.589	-64.543	-0.046	0.019
-286.574	22.768	0.164	0.135
-285.559	632.036	0.026	-0.066
-284.545	47.454	-0.063	0.059
-283.530	19.325	-0.052	0.042
-282.516	-41.195	0.323	-0.167
-281.501	-60.369	-0.404	0.172
-280.486	7.691	0.333	-0.250
-279.472	351.465	-0.119	-0.237
-278.457	403.175	-0.121	0.255
-277.443	553.151	-0.096	-0.232
-276.428	199.421	0.074	-0.113
-275.413	-156.679	-0.446	0.028
-274.399	46.346	-0.144	-0.134
-273.384	-200.000	-0.029	-0.378
-272.370	800.000	-0.101	-0.407
-271.355	85.770	0.046	-0.051
-270.340	222.309	0.126	-0.203
-269.326	-4.979	0.328	0.226
-268.311	-200.000	0.008	0.523
-267.297	-174.205	-0.111	-0.003
-266.282	92.808	-0.133	-0.150
-265.267	-85.771	-0.093	0.029
-264.253	135.604	-0.103	0.134
-263.238	427.502	-0.114	0.246
-262.224	-200.000	0.001	-0.214
-261.209	-73.476	-0.175	0.064
-260.195	437.612	0.137	-0.300
-259.180	-40.316	0.481	0.250
-258.165	-72.771	0.032	0.012
-257.151	-25.449	0.257	0.152
-256.136	-59.570	-0.107	0.046
-255.122	800.000	0.019	0.078
-254.107	-47.909	0.061	-0.030
-253.092	302.597	-0.062	-0.115
-252.078	-150.612	0.276	0.021
-251.063	-109.434	-0.302	0.064
-250.049	-200.000	-0.043	-0.272
-249.034	-54.415	0.033	0.015
-248.019	-52.597	0.179	0.083
-247.005	-182.523	-0.018	0.000
-245.990	-63.366	0.131	0.054
-244.976	-65.829	0.084	0.034
-243.961	-134.134	0.131	0.016
-242.946	-200.000	0.032	0.241
-241.932	-84.426	-0.100	-0.032
-240.917	201.435	-0.262	0.404
-239.903	-200.000	-0.015	-0.073
-238.888	104.361	0.163	0.191
-237.873	-106.948	-0.128	0.028
-236.859	549.371	-0.181	0.435
-235.844	800.000	-0.059	0.188
-234.830	631.940	0.064	-0.162
-233.815	-12.145	-0.200	0.131
-232.800	-200.000	0.010	0.080
-231.786	-85.649	-0.232	-0.072
-230.771	-109.440	0.355	0.075
-229.757	52.897	-0.100	0.096
-228.742	-114.486	0.205	-0.039
-227.727	-176.745	-0.229	0.006
-226.713	-38.530	-0.164	-0.087
-225.698	-153.028	0.096	0.007
-224.684	-200.000	0.045	0.484
-223.669	410.843	0.034	-0.072
-222.655	-103.580	0.171	0.040
-221.640	-70.816	-0.315	-0.119
-220.625	-138.113	-0.392	0.044
-219.611	308.044	-0.039	-0.072
-218.596	800.000	0.075	-0.306
-217.582	248.451	0.059	0.100
-216.567	61.210	-0.257	-0.255
-215.552	-2.477	0.021	0.015
-214.538	584.834	0.086	0.212
-213.523	122.840	-0.123	0.155
-212.509	-200.000	-0.034	0.204
-211.494	800.000	0.027	0.089
-210.479	-200.000	-0.010	-0.050
-209.465	-194.769	-0.254	0.002
-208.450	800.000	-0.090	-0.257
-207.436	474.272	-0.110	0.249
-206.421	-200.000	0.011	-0.082
-205.406	-200.000	0.003	-0.136
-204.392	800.000	0.108	0.311
-203.377	359.652	0.095	0.190
-202.363	800.000	-0.037	0.127
-201.348	285.775	-0.094	-0.169
-200.333	581.816	-0.084	-0.205
-199.319	-83.877	-0.416	-0.132
-198.304	800.000	0.044	0.160
-197.290	-143.176	0.135	-0.013
-196.275	-200.000	-0.012	-0.093
-195.260	-142.304	0.188	-0.019
-194.246	-23.053	0.122	-0.073
-193.231	339.590	-0.158	0.308
-192.217	-200.000	-0.071	0.337
-191.202	86.274	-0.092	0.101
-190.187	800.000	0.059	-0.252
-189.173	-200.000	-0.038	-0.274
-188.158	122.961	-0.240	0.300
-187.144	-151.264	-0.176	0.013
-186.129	-151.841	-0.323	0.024
-185.114	95.736	0.209	-0.238
-184.100	377.639	-0.182	0.372
-183.085	-39.388	-0.126	0.066
-182.071	800.000	-0.032	-0.106
-181.056	-41.581	0.268	-0.137
-180.042	-93.584	0.238	-0.066
-179.027	15.936	0.137	-0.108
-178.012	-75.645	0.271	0.096
-176.998	-0.760	-0.071	0.050
-175.983	305.850	-0.151	0.281
-174.969	-200.000	0.022	0.149
-173.954	77.265	-0.176	0.187
-172.939	-111.135	0.081	-0.017
-171.925	30.310	-0.236	0.201
-170.910	-62.187	-0.032	0.013
-169.896	800.000	-0.085	-0.252
-168.881	82.774	-0.294	0.319
-167.866	3.330	0.071	-0.052
-166.852	-40.381	-0.040	-0.021
-165.837	-20.978	0.002	-0.001
-164.823	-152.176	-0.309	-0.022
-163.808	-37.545	-0.087	-0.046
-162.793	-28.083	0.105	-0.061
-161.779	-144.994	-0.351	0.032
-160.764	-29.652	-0.111	-0.063
-159.750	-146.536	-0.292	-0.025
-158.735	-160.934	0.237	-0.012
-157.720	800.000	0.069	-0.257
-156.706	-200.000	0.024	0.458
-155.691	-66.936	0.133	-0.052
-154.677	639.807	0.081	-0.206
-153.662	-86.195	0.284	0.087
-152.647	-200.000	0.042	-0.312
-151.633	-200.000	-0.302	-0.000
-150.618	88.958	0.107	0.119
-149.604	-200.000	0.023	-0.201
-148.589	-39.595	-0.398	-0.208
-147.574	72.867	-0.261	0.272
-146.560	5.898	-0.080	-0.059
-145.545	-23.702	-0.203	0.121
-144.531	-0.192	-0.039	0.028
-143.516	-125.393	0.260	-0.039
-142.502	24.829	-0.146	-0.121
-141.487	81.606	0.011	0.012
-140.472	-200.000	0.034	0.227
-139.458	-46.782	-0.249	-0.122
-138.443	-174.377	-0.086	-0.002
-137.429	800.000	-0.051	0.146
-136.414	-60.073	-0.227	-0.097
-135.399	79.524	-0.136	-0.146
-134.385	-129.983	0.307	0.042
-133.370	174.615	0.206	0.297
-132.356	16.001	0.083	0.065
-131.341	-200.000	0.070	-0.314
-130.326	-35.612	0.201	-0.109
-129.312	44.508	-0.238	0.218
-128.297	-200.000	0.001	0.109
-127.283	-135.015	-0.237	-0.028
-126.268	412.263	0.086	0.182
-125.253	-116.057	0.033	0.006
-124.239	49.451	0.121	0.113
-123.224	126.624	0.028	0.036
-122.210	-76.419	-0.066	-0.023
