DTS Sentinel unit serial number:	SN413079Multiplexer serial number:	ORYXHardware model number:	OX4-SRSoftware version number:	ORYX F/W v4.00 Oryx Data Collector v3.7.2.0data status	okinstallation	princeton_trtdifferential loss correction	single-endedforward channel	channel 1reverse channel	N/Adate	2019/09/14time	13:34:35forward acquisition time	60.00reverse acquisition time	0.00gamma	496.2192k internal	0.2294k external	0.2294temperature offset calibration	1.0088default loss term (dB/km)	0.3790temperature slope calibration	1.0000multiplexer offset coefficient	1.0000multiplexer slope coefficient	1.0000fibre end	0.00T internal ref (°C)	37.94T ext. ref 1 (°C)	4.91T ext. ref 2 (°C)	32.90length (m)	temperature (°C)	Stokes	anti-Stokes-747.200	800.000	-0.090	0.335
-746.185	-99.972	0.167	0.043
-745.171	67.916	0.156	-0.163
-744.156	-40.372	-0.145	-0.077
-743.142	62.056	-0.155	-0.158
-742.127	-176.847	0.278	0.007
-741.112	119.351	0.073	0.093
-740.098	-94.340	-0.144	-0.040
-739.083	800.000	-0.126	-0.409
-738.069	-65.048	0.235	0.097
-737.054	81.191	0.189	0.209
-736.039	31.457	0.064	0.056
-735.025	-11.695	0.245	0.164
-734.010	339.848	-0.142	-0.283
-732.996	-65.240	-0.315	-0.130
-731.981	800.000	-0.081	0.241
-730.966	212.916	0.194	0.313
-729.952	131.538	0.144	-0.189
-728.937	800.000	0.007	-0.021
-727.923	-104.493	-0.259	0.061
-726.908	-12.636	0.207	-0.138
-725.894	-42.732	-0.252	0.131
-724.879	42.117	-0.256	-0.238
-723.864	79.101	0.126	-0.137
-722.850	800.000	-0.080	-0.261
-721.835	296.754	-0.062	-0.116
-720.821	668.684	-0.140	-0.369
-719.806	218.267	-0.126	0.205
-718.791	11.889	-0.140	0.110
-717.777	-200.000	-0.040	0.264
-716.762	-106.121	0.114	-0.026
-715.748	-3.354	0.228	0.162
-714.733	-79.998	-0.082	-0.028
-713.718	39.897	-0.278	-0.255
-712.704	-200.000	0.060	-0.535
-711.689	-1.853	-0.106	0.076
-710.675	-86.837	0.264	0.082
-709.660	56.220	0.185	0.183
-708.645	109.675	-0.121	0.148
-707.631	-60.666	0.173	-0.075
-706.616	197.641	-0.176	0.275
-705.602	171.863	-0.171	-0.251
-704.587	-157.725	0.103	-0.006
-703.572	-200.000	-0.029	0.207
-702.558	11.929	0.019	0.015
-701.543	-127.594	0.068	0.010
-700.529	-36.442	0.244	-0.134
-699.514	-64.018	-0.187	-0.078
-698.499	-200.000	-0.036	-0.464
-697.485	154.053	0.090	-0.126
-696.470	198.284	0.073	-0.114
-695.456	-200.000	0.023	0.113
-694.441	-99.713	0.196	-0.050
-693.426	-49.085	-0.198	0.097
-692.412	-200.000	-0.001	-0.019
-691.397	-127.845	-0.151	0.022
-690.383	-98.277	0.147	-0.038
-689.368	613.837	0.076	-0.194
-688.354	-93.798	-0.162	0.045
-687.339	478.628	0.153	-0.353
-686.324	-200.000	-0.007	-0.086
-685.310	126.194	0.103	-0.133
-684.295	-96.595	0.180	0.048
-683.281	-200.000	-0.045	0.376
-682.266	-200.000	-0.038	0.344
-681.251	-200.000	-0.003	-0.119
-680.237	15.853	-0.113	0.091
-679.222	124.163	-0.116	0.149
-678.208	9.595	-0.148	0.114
-677.193	224.098	-0.210	-0.345
-676.178	94.765	-0.116	-0.135
-675.164	-93.407	-0.018	-0.005
-674.149	384.890	0.033	0.069
-673.135	413.461	-0.054	-0.118
-672.120	-122.847	0.220	-0.036
-671.105	-184.787	-0.360	-0.006
-670.091	73.907	-0.032	0.034
-669.076	-175.819	-0.205	0.006
-668.062	800.000	-0.011	-0.041
-667.047	-84.483	-0.055	0.018
-666.032	36.564	0.096	0.086
-665.018	34.266	-0.266	0.237
-664.003	-200.000	0.034	-0.279
-662.989	-200.000	-0.000	0.243
-661.974	-200.000	-0.046	0.294
-660.959	139.623	-0.061	-0.082
-659.945	-117.462	-0.264	-0.049
-658.930	-200.000	-0.008	-0.146
-657.916	229.383	0.223	-0.371
-656.901	-51.101	0.103	-0.049
-655.886	-200.000	-0.011	-0.234
-654.872	-79.932	-0.148	-0.051
-653.857	83.609	-0.199	-0.221
-652.843	-80.570	-0.287	0.097
-651.828	-144.714	-0.209	0.020
-650.814	-109.257	0.283	0.061
-649.799	195.794	-0.117	0.181
-648.784	245.283	-0.112	-0.193
-647.770	127.716	0.110	-0.142
-646.755	-119.976	-0.278	-0.049
-645.741	-200.000	0.024	0.176
-644.726	24.187	0.274	-0.231
-643.711	-164.924	-0.156	0.007
-642.697	595.262	0.047	0.118
-641.682	260.420	0.065	-0.115
-640.668	107.511	0.139	-0.168
-639.653	-86.211	-0.240	-0.075
-638.638	-88.192	0.371	0.113
-637.624	7.787	-0.137	-0.104
-636.609	607.272	-0.044	0.112
-635.595	-200.000	0.048	0.249
-634.580	-64.715	0.132	-0.054
-633.565	800.000	-0.091	0.306
-632.551	-75.396	-0.266	0.097
-631.536	207.473	0.098	0.156
-630.522	-59.408	0.229	-0.100
-629.507	-139.143	0.075	0.008
-628.492	188.987	0.077	0.117
-627.478	-91.701	0.142	-0.041
-626.463	-200.000	-0.005	-0.223
-625.449	800.000	0.043	0.160
-624.434	634.995	-0.060	0.155
-623.419	15.985	-0.328	0.263
-622.405	800.000	0.020	0.068
-621.390	226.855	-0.078	-0.128
-620.376	-79.464	0.328	-0.113
-619.361	-5.568	-0.085	-0.060
-618.346	-51.114	0.132	0.063
-617.332	193.696	-0.161	-0.248
-616.317	311.912	-0.141	0.269
-615.303	-200.000	0.007	-0.293
-614.288	-137.028	-0.043	-0.005
-613.273	18.347	-0.356	0.289
-612.259	-119.288	0.223	-0.040
-611.244	522.571	0.056	-0.135
-610.230	7.210	0.061	0.046
-609.215	-91.618	-0.454	0.132
-608.201	119.733	0.168	0.211
-607.186	-168.125	0.131	0.005
-606.171	-200.000	-0.015	-0.113
-605.157	596.010	0.053	-0.134
-604.142	-200.000	0.063	-0.358
-603.128	-126.998	0.215	-0.032
-602.113	-65.365	-0.360	-0.147
-601.098	800.000	-0.081	0.259
-600.084	302.211	-0.158	0.298
-599.069	-200.000	-0.005	-0.333
-598.055	-78.928	-0.225	0.078
-597.040	441.786	-0.077	0.170
-596.025	-55.081	0.350	0.160
-595.011	-200.000	0.039	0.207
-593.996	48.123	-0.126	-0.120
-592.982	800.000	-0.111	-0.402
-591.967	-71.606	-0.171	-0.065
-590.952	-200.000	0.036	-0.258
-589.938	71.299	-0.210	-0.221
-588.923	-81.331	0.290	-0.097
-587.909	-9.066	-0.351	0.239
-586.894	-138.113	-0.338	0.038
-585.879	81.967	-0.156	-0.172
-584.865	-200.000	-0.008	-0.154
-583.850	-148.914	-0.256	-0.021
-582.836	608.507	-0.075	0.189
-581.821	-103.980	0.286	0.068
-580.806	-48.655	-0.437	-0.214
-579.792	196.988	0.051	0.080
-578.777	-200.000	-0.034	-0.236
-577.763	-111.391	-0.085	0.018
-576.748	-200.000	0.057	-0.334
-575.733	-200.000	0.006	-0.029
-574.719	223.810	0.091	0.150
-573.704	-141.038	-0.232	0.024
-572.690	469.730	-0.188	-0.429
-571.675	-63.997	-0.187	-0.078
-570.661	-190.702	-0.086	-0.001
-569.646	-91.146	0.411	-0.120
-568.631	112.793	0.046	0.057
-567.617	-94.698	-0.241	0.067
-566.602	133.225	-0.220	-0.289
-565.588	-162.376	-0.161	0.008
-564.573	197.313	0.050	-0.077
-563.558	-117.536	0.322	0.059
-562.544	800.000	0.055	-0.183
-561.529	800.000	-0.062	-0.223
-560.515	151.679	-0.125	-0.173
-559.500	-200.000	0.035	-0.349
-558.485	-176.466	-0.118	0.003
-557.471	-120.146	0.131	-0.023
-556.456	243.955	0.033	0.056
-555.442	800.000	-0.165	-0.493
-554.427	-44.714	0.071	0.036
-553.412	96.483	0.246	-0.286
-552.398	547.012	0.103	-0.250
-551.383	-143.897	0.254	0.024
-550.369	85.213	0.246	0.274
-549.354	-200.000	-0.033	0.175
-548.339	779.589	-0.076	0.211
-547.325	44.946	-0.131	0.122
-546.310	-88.306	0.404	0.123
-545.296	300.386	0.220	-0.411
-544.281	-47.222	-0.125	-0.062
-543.266	36.514	0.132	0.118
-542.252	-200.000	-0.006	-0.059
-541.237	-200.000	-0.053	-0.359
-540.223	-115.326	-0.092	0.018
-539.208	-10.652	-0.097	0.065
-538.193	25.371	-0.234	-0.197
-537.179	-144.754	-0.281	-0.026
-536.164	-200.000	-0.072	-0.328
-535.150	-93.456	0.080	-0.022
-534.135	800.000	-0.113	0.374
-533.121	-93.334	-0.398	-0.112
-532.106	9.560	-0.156	0.120
-531.091	-66.839	0.279	0.112
-530.077	-200.000	0.026	-0.145
-529.062	-200.000	0.021	-0.272
-528.048	668.342	-0.033	0.088
-527.033	800.000	-0.039	0.168
-526.018	569.098	-0.117	0.289
-525.004	-101.940	0.111	0.027
-523.989	-61.508	0.127	-0.054
-522.975	-29.567	0.202	0.117
-521.960	-172.500	0.436	-0.014
-520.945	87.296	0.098	-0.110
-519.931	21.087	0.146	0.120
-518.916	-167.856	-0.285	0.011
-517.902	-110.621	0.129	-0.027
-516.887	191.010	-0.144	-0.219
-515.872	33.335	-0.119	-0.105
-514.858	13.348	0.216	-0.170
-513.843	-52.265	0.161	-0.076
-512.829	543.900	0.038	-0.092
-511.814	-80.430	0.271	-0.092
-510.799	-200.000	0.014	-0.353
-509.785	-45.954	-0.135	0.068
-508.770	67.703	-0.110	-0.114
-507.756	19.431	-0.080	0.065
-506.741	-73.309	-0.286	-0.106
-505.726	263.639	-0.103	0.181
-504.712	-12.621	0.252	0.166
-503.697	-200.000	-0.079	-0.442
-502.683	715.498	0.049	-0.132
-501.668	-139.179	0.194	0.021
-500.653	40.665	0.274	-0.250
-499.639	-125.856	-0.104	-0.016
-498.624	175.182	0.226	0.332
-497.610	124.812	-0.105	0.134
-496.595	-29.581	-0.252	-0.146
-495.581	265.321	-0.107	-0.189
-494.566	-111.646	-0.543	-0.112
-493.551	-136.340	-0.308	-0.036
-492.537	242.745	-0.104	-0.176
-491.522	-83.943	-0.036	-0.012
-490.508	750.910	0.159	0.434
-489.493	800.000	-0.035	0.100
-488.478	-200.000	0.027	-0.162
-487.464	560.707	-0.193	-0.471
-486.449	155.771	-0.099	-0.138
-485.435	-113.915	-0.497	0.098
-484.420	323.848	-0.131	-0.253
-483.405	800.000	0.048	0.183
-482.391	-200.000	-0.033	-0.357
-481.376	-24.786	0.407	0.245
-480.362	-75.618	-0.021	0.008
-479.347	-21.951	0.084	0.051
-478.332	98.211	0.111	0.130
-477.318	-124.609	0.100	-0.016
-476.303	326.356	-0.206	-0.399
-475.289	-200.000	-0.002	0.096
-474.274	751.682	0.053	0.146
-473.259	-115.942	0.397	0.075
-472.245	-31.421	0.237	0.135
-471.230	-200.000	-0.019	-0.341
-470.216	171.584	0.200	0.290
-469.201	18.682	-0.111	0.090
-468.186	85.713	0.217	-0.242
-467.172	800.000	-0.100	-0.302
-466.157	-200.000	-0.016	0.086
-465.143	209.346	-0.187	0.296
-464.128	-69.381	-0.148	0.057
-463.113	20.659	0.352	0.288
-462.099	289.884	-0.020	-0.037
-461.084	-168.356	-0.398	-0.015
-460.070	-15.661	-0.146	0.094
-459.055	23.179	0.174	0.144
-458.040	-85.114	-0.350	0.111
-457.026	-5.211	-0.171	0.119
-456.011	322.809	0.103	-0.199
-454.997	36.011	0.373	0.332
-453.982	94.879	0.154	0.177
-452.968	800.000	-0.110	0.395
-451.953	-58.914	0.187	0.082
-450.938	203.531	0.170	-0.267
-449.924	288.313	0.173	-0.317
-448.909	-200.000	0.001	-0.254
-447.895	-95.628	-0.414	0.112
-446.880	42.003	0.213	0.195
-445.865	36.236	0.239	0.213
-444.851	-200.000	-0.005	0.025
-443.836	511.800	-0.200	-0.471
-442.822	221.772	0.055	0.089
-441.807	6.261	0.176	-0.132
-440.792	148.124	0.167	0.228
-439.778	604.558	0.070	-0.176
-438.763	-200.000	-0.017	-0.251
-437.749	-7.233	-0.048	-0.033
-436.734	44.004	-0.057	-0.053
-435.719	-80.763	-0.343	0.115
-434.705	-126.372	-0.278	0.042
-433.690	800.000	0.150	0.474
-432.676	800.000	-0.133	0.409
-431.661	-200.000	-0.031	0.301
-430.646	7.260	0.032	0.024
-429.632	-166.712	0.176	-0.007
-428.617	-123.835	-0.173	0.028
-427.603	92.503	-0.213	0.242
-426.588	178.400	-0.167	-0.247
-425.573	-149.333	0.206	-0.017
-424.559	623.039	0.145	-0.368
-423.544	-200.000	-0.019	0.234
-422.530	24.662	0.279	0.233
-421.515	-139.686	-0.226	0.024
-420.500	9.380	-0.142	0.109
-419.486	-11.051	-0.412	0.274
-418.471	727.377	0.052	-0.139
-417.457	314.334	0.115	-0.219
-416.442	-175.462	0.304	-0.008
-415.428	-4.489	0.329	0.229
-414.413	-108.377	-0.174	-0.038
-413.398	-116.257	0.228	0.043
-412.384	-59.592	0.248	0.108
-411.369	84.336	0.106	0.117
-410.355	-110.676	-0.229	0.048
-409.340	-113.957	-0.058	-0.011
-408.325	-200.000	0.007	-0.173
-407.311	103.930	-0.228	-0.270
-406.296	118.657	-0.214	0.267
-405.282	-200.000	0.057	0.254
-404.267	195.695	-0.089	0.136
-403.252	426.988	0.142	0.308
-402.238	208.167	0.192	-0.303
-401.223	800.000	-0.098	0.295
-400.209	60.010	-0.125	-0.124
-399.194	239.223	-0.164	-0.275
-398.179	-53.659	-0.075	-0.035
-397.165	800.000	-0.026	-0.094
-396.150	-101.899	0.402	-0.098
-395.136	10.887	-0.141	0.109
-394.121	800.000	-0.013	0.043
-393.106	-68.062	0.039	-0.016
-392.092	-200.000	-0.034	-0.160
-391.077	314.438	0.172	-0.327
-390.063	-200.000	-0.007	-0.351
-389.048	-200.000	-0.008	-0.145
-388.033	-200.000	0.009	-0.063
-387.019	-9.946	0.166	0.111
-386.004	-92.889	0.260	-0.073
-384.990	421.670	0.027	-0.057
-383.975	345.520	0.188	-0.372
-382.960	-57.551	0.182	-0.081
-381.946	-66.887	-0.152	0.060
-380.931	167.673	-0.132	-0.190
-379.917	446.317	-0.091	-0.202
-378.902	-200.000	-0.020	0.263
-377.888	396.164	0.049	0.103
-376.873	-90.021	-0.418	-0.123
-375.858	-33.724	-0.176	0.098
-374.844	13.256	0.196	-0.153
-373.829	-70.416	0.095	0.036
-372.815	11.775	-0.184	0.142
-371.800	-158.011	0.287	0.017
-370.785	-39.903	0.172	0.091
-369.771	668.112	0.068	-0.176
-368.756	29.733	-0.111	-0.095
-367.742	-186.351	0.268	-0.004
-366.727	-157.501	0.298	-0.018
-365.712	-45.804	-0.241	-0.120
-364.698	-123.518	-0.314	0.050
-363.683	224.433	-0.065	0.105
-362.669	375.301	-0.088	-0.181
-361.654	15.589	0.244	-0.193
-360.639	-63.358	0.194	-0.080
-359.625	-124.492	-0.060	0.009
-358.610	-27.865	0.454	-0.265
-357.596	-10.842	-0.064	0.043
-356.581	800.000	-0.076	0.244
-355.566	392.647	-0.155	-0.325
-354.552	-49.449	0.111	-0.053
-353.537	116.478	0.070	-0.087
-352.523	-7.574	-0.346	0.236
-351.508	283.803	-0.188	-0.339
-350.493	177.512	-0.100	-0.146
-349.479	800.000	0.115	-0.360
-348.464	-134.597	0.128	-0.016
-347.450	-89.398	0.190	0.056
-346.435	-68.287	0.204	-0.080
-345.420	-200.000	0.005	0.065
-344.406	-120.816	0.229	0.039
-343.391	-200.000	-0.007	-0.177
-342.377	-43.780	0.219	0.111
-341.362	381.913	-0.052	-0.107
-340.348	198.308	0.158	0.244
-339.333	-120.728	0.302	-0.051
-338.318	-120.394	-0.266	-0.046
-337.304	-134.804	-0.101	0.012
-336.289	-191.129	-0.121	-0.001
-335.275	800.000	0.136	0.436
-334.260	-109.535	0.196	0.042
-333.245	-30.754	-0.340	0.193
-332.231	366.286	-0.147	-0.297
-331.216	80.766	-0.054	0.059
-330.202	-108.056	0.413	-0.090
-329.187	-143.211	-0.227	0.022
-328.172	-76.164	0.128	0.045
-327.158	-50.528	0.002	-0.001
-326.143	-54.307	-0.271	-0.124
-325.129	-200.000	0.008	0.191
-324.114	800.000	0.082	0.314
-323.099	800.000	-0.118	0.327
-322.085	27.231	-0.130	-0.110
-321.070	-81.063	-0.057	0.019
-320.056	-92.580	0.180	-0.051
-319.041	800.000	0.050	0.176
-318.026	-200.000	-0.011	0.067
-317.012	-200.000	0.019	0.245
-315.997	290.521	-0.256	0.468
-314.983	-12.001	0.140	0.093
-313.968	-107.370	-0.212	0.047
-312.953	36.703	-0.188	0.167
-311.939	32.292	-0.091	0.079
-310.924	-118.831	-0.275	0.049
-309.910	800.000	0.148	-0.475
-308.895	800.000	-0.016	0.050
-307.880	43.811	-0.301	-0.277
-306.866	-51.831	0.358	-0.168
-305.851	-200.000	0.162	0.001
-304.837	467.911	-0.043	0.097
-303.822	-69.766	-0.234	-0.090
-302.807	800.000	-0.093	-0.386
-301.793	71.363	0.273	0.284
-300.778	-63.529	-0.280	-0.115
-299.764	208.583	0.082	-0.128
-298.749	540.624	-0.151	0.362
-297.735	768.040	-0.100	0.274
-296.720	45.375	-0.197	-0.183
-295.705	645.973	0.062	0.158
-294.691	-200.000	0.270	-0.001
-293.676	-156.825	-0.223	0.014
-292.662	188.223	0.092	-0.137
-291.647	68.572	-0.142	-0.147
-290.632	-200.000	0.005	0.058
-289.618	70.136	0.035	-0.036
-288.603	211.890	0.128	0.203
-287.589	-53.415	0.178	0.082
-286.574	-45.313	0.283	0.141
-285.559	508.328	-0.129	0.301
-284.545	442.193	-0.023	0.051
-283.530	69.960	-0.194	0.201
-282.516	-200.000	0.029	0.172
-281.501	-131.814	-0.235	-0.031
-280.486	53.188	-0.080	-0.077
-279.472	-80.392	-0.076	-0.025
-278.457	241.249	0.108	-0.180
-277.443	800.000	-0.148	0.474
-276.428	-122.842	-0.115	-0.019
-275.413	11.432	-0.325	-0.250
-274.399	-134.986	0.124	-0.015
-273.384	-200.000	-0.003	0.049
-272.370	8.299	-0.188	0.142
-271.355	152.119	-0.152	-0.208
-270.340	239.997	-0.210	0.352
-269.326	251.628	-0.150	-0.256
-268.311	-200.000	0.018	0.153
-267.297	-200.000	0.028	0.193
-266.282	-109.883	0.034	-0.007
-265.267	-138.437	0.244	-0.027
-264.253	-129.185	0.300	0.042
-263.238	800.000	0.039	-0.142
-262.224	-10.140	0.132	-0.088
-261.209	-106.015	0.404	0.091
-260.195	638.981	-0.096	0.246
-259.180	-17.140	-0.172	-0.109
-258.165	800.000	0.139	0.437
-257.151	-200.000	-0.025	0.247
-256.136	-169.709	0.302	0.011
-255.122	-200.000	0.013	-0.263
-254.107	708.900	0.033	0.088
-253.092	-8.113	0.238	0.161
-252.078	44.306	0.173	0.159
-251.063	108.219	0.175	0.209
-250.049	307.140	0.117	0.219
-249.034	44.909	0.190	0.176
-248.019	302.772	-0.108	0.200
-247.005	-170.946	0.150	0.005
-245.990	15.318	0.241	0.189
-244.976	-34.873	-0.193	0.106
-243.961	436.075	-0.084	-0.184
-242.946	122.159	0.094	-0.118
-241.932	19.237	0.294	-0.237
-240.917	-61.261	-0.138	0.058
-239.903	-163.353	0.196	-0.009
-238.888	-200.000	0.033	0.515
-237.873	244.630	-0.141	-0.238
-236.859	-116.404	0.143	0.027
-235.844	-119.676	-0.446	-0.077
-234.830	-107.050	-0.203	0.045
-233.815	-59.623	-0.141	-0.061
-232.800	-33.027	-0.038	-0.021
-231.786	54.468	0.056	-0.054
-230.771	160.926	-0.187	0.261
-229.757	-200.000	0.040	-0.251
-228.742	-17.121	0.220	-0.139
-227.727	-125.908	-0.391	-0.059
-226.713	213.703	-0.106	0.167
-225.698	68.667	-0.303	-0.311
-224.684	-200.000	-0.019	-0.146
-223.669	-200.000	-0.212	-0.001
-222.655	-113.864	0.329	0.064
-221.640	108.678	-0.095	-0.114
-220.625	-71.067	0.242	0.091
-219.611	-200.000	-0.005	-0.110
-218.596	271.020	-0.148	0.261
-217.582	583.040	-0.111	0.272
-216.567	2.559	0.045	-0.032
-215.552	15.289	0.143	-0.113
-214.538	-108.276	0.316	0.068
-213.523	14.598	0.200	0.156
-212.509	-29.366	-0.165	-0.095
-211.494	-175.820	-0.098	0.003
-210.479	236.962	0.107	-0.178
-209.465	-200.000	0.011	0.159
-208.450	-200.000	0.009	0.117
-207.436	-31.928	0.317	0.178
-206.421	-200.000	-0.034	-0.180
-205.406	-200.000	0.034	-0.447
-204.392	45.534	0.201	-0.186
-203.377	82.089	-0.105	-0.114
-202.363	-63.428	0.097	-0.040
-201.348	73.130	0.190	0.199
-200.333	-105.001	-0.240	-0.055
-199.319	-200.000	-0.022	-0.200
-198.304	-164.105	-0.358	0.017
-197.290	-90.602	0.318	-0.092
-196.275	-15.561	0.144	0.092
-195.260	47.882	0.138	0.129
-194.246	-200.000	-0.027	0.267
-193.231	-23.268	-0.148	-0.089
-192.217	-200.000	-0.005	0.145
-191.202	62.430	0.100	0.100
-190.187	37.906	-0.224	0.199
-189.173	514.305	0.061	-0.143
-188.158	1.211	0.155	0.112
-187.144	-134.712	-0.201	-0.024
-186.129	26.953	0.015	-0.013
-185.114	-78.152	0.394	-0.136
-184.100	158.153	-0.028	-0.039
-183.085	-48.987	0.479	0.229
-182.071	2.695	0.299	0.217
-181.056	95.942	-0.095	-0.109
-180.042	-200.000	0.024	-0.407
-179.027	-136.658	-0.193	0.022
-178.012	-12.625	-0.070	0.045
-176.998	178.340	0.156	0.228
-175.983	374.490	0.167	0.340
-174.969	-4.025	-0.239	0.166
-173.954	-15.533	0.173	0.110
-172.939	-83.448	-0.075	0.024
-171.925	6.100	-0.340	-0.252
-170.910	199.166	0.069	-0.106
-169.896	-120.164	-0.397	0.068
-168.881	-7.293	0.114	0.077
-167.866	-200.000	-0.013	0.083
-166.852	697.949	0.122	0.322
-165.837	-200.000	0.004	-0.096
-164.823	-110.486	0.088	0.018
-163.808	136.929	0.131	0.171
-162.793	-122.562	0.278	-0.045
-161.779	57.953	-0.062	-0.060
-160.764	800.000	-0.090	0.283
-159.750	157.041	0.134	0.185
-158.735	-142.745	0.213	0.021
-157.720	-70.307	-0.093	0.035
-156.706	-157.157	0.068	0.004
-155.691	-161.221	-0.244	-0.013
-154.677	-48.285	-0.112	-0.054
-153.662	-71.873	0.236	-0.088
-152.647	-149.627	-0.170	-0.013
-151.633	78.793	0.028	-0.029
-150.618	-165.888	-0.257	-0.011
-149.604	289.151	0.060	0.109
-148.589	149.507	-0.112	0.152
-147.574	-4.312	0.071	-0.049
-146.560	-174.154	-0.455	-0.013
-145.545	247.666	-0.101	-0.171
-144.531	-14.180	0.209	0.135
-143.516	800.000	-0.031	0.094
-142.502	-67.372	-0.329	0.129
-141.487	-147.326	-0.094	-0.008
-140.472	456.166	-0.022	-0.048
-139.458	523.731	0.049	0.115
-138.443	-157.235	-0.099	-0.006
-137.429	-200.000	0.010	-0.323
-136.414	-119.820	-0.091	-0.016
-135.399	129.801	0.191	0.245
-134.385	-58.977	0.188	0.081
-133.370	800.000	0.063	0.274
-132.356	-120.808	0.291	-0.049
-131.341	-114.193	0.393	0.076
-130.326	-44.161	0.109	0.055
-129.312	-179.672	-0.471	0.010
-128.297	-200.000	-0.046	0.302
-127.283	-143.727	0.230	-0.022
-126.268	33.418	-0.060	0.052
-125.253	-170.656	0.140	-0.005
-124.239	-67.293	-0.347	-0.136
-123.224	-200.000	-0.009	-0.137
-122.210	174.030	0.262	0.378
