DTS Sentinel unit serial number:	SN413079Multiplexer serial number:	ORYXHardware model number:	OX4-SRSoftware version number:	ORYX F/W v4.00 Oryx Data Collector v3.7.2.0data status	okinstallation	princeton_trtdifferential loss correction	single-endedforward channel	channel 1reverse channel	N/Adate	2019/09/12time	06:32:11forward acquisition time	60.00reverse acquisition time	0.00gamma	496.2192k internal	0.2320k external	0.2320temperature offset calibration	1.0047default loss term (dB/km)	0.3790temperature slope calibration	1.0000multiplexer offset coefficient	1.0000multiplexer slope coefficient	1.0000fibre end	0.00T internal ref (°C)	32.16T ext. ref 1 (°C)	1.57T ext. ref 2 (°C)	27.27length (m)	temperature (°C)	Stokes	anti-Stokes-747.200	35.332	-0.208	0.185
-746.185	-110.739	-0.153	-0.032
-745.171	420.878	0.027	0.058
-744.156	-200.000	0.019	0.112
-743.142	-31.693	0.166	0.094
-742.127	-200.000	0.027	0.276
-741.112	43.699	-0.283	0.262
-740.098	-190.205	-0.236	0.003
-739.083	800.000	-0.097	0.296
-738.069	-200.000	0.041	0.303
-737.054	89.741	-0.126	0.142
-736.039	-62.537	-0.345	0.145
-735.025	19.161	0.257	0.209
-734.010	-181.924	-0.361	0.007
-732.996	800.000	0.083	0.255
-731.981	-37.380	-0.291	-0.157
-730.966	325.958	0.043	0.083
-729.952	10.073	-0.237	-0.182
-728.937	362.673	-0.187	0.380
-727.923	630.335	-0.062	0.159
-726.908	55.250	0.383	-0.374
-725.894	-58.443	-0.191	0.084
-724.879	-88.748	-0.188	0.056
-723.864	267.039	-0.106	-0.188
-722.850	-200.000	0.005	0.111
-721.835	800.000	-0.029	-0.083
-720.821	-200.000	-0.023	-0.130
-719.806	-200.000	-0.028	-0.222
-718.791	34.407	-0.062	-0.054
-717.777	53.880	0.306	-0.297
-716.762	-50.681	-0.188	0.089
-715.748	-4.473	-0.097	0.068
-714.733	800.000	0.045	0.178
-713.718	191.641	-0.066	0.101
-712.704	-14.300	-0.192	-0.125
-711.689	-170.342	0.345	-0.012
-710.675	-200.000	-0.015	-0.105
-709.660	41.073	-0.144	-0.131
-708.645	294.920	0.099	0.183
-707.631	-122.422	-0.191	-0.031
-706.616	-8.148	0.156	-0.106
-705.602	587.604	-0.086	-0.215
-704.587	-100.666	-0.319	-0.080
-703.572	95.025	0.184	-0.211
-702.558	-139.716	-0.137	0.015
-701.543	-61.657	-0.338	-0.143
-700.529	276.865	0.123	-0.220
-699.514	-114.491	0.103	-0.020
-698.499	-169.887	0.196	0.007
-697.485	-200.000	0.009	0.100
-696.470	-200.000	0.002	0.024
-695.456	404.314	-0.116	-0.247
-694.441	-200.000	0.085	-0.387
-693.426	800.000	0.047	0.139
-692.412	800.000	-0.051	0.175
-691.397	11.935	0.117	-0.091
-690.383	-49.474	-0.095	0.046
-689.368	189.815	-0.243	-0.368
-688.354	-166.417	0.109	-0.005
-687.339	234.035	0.185	-0.307
-686.324	-100.980	0.354	0.088
-685.310	-74.036	0.068	0.025
-684.295	-68.332	0.205	-0.081
-683.281	-200.000	-0.013	-0.291
-682.266	-115.157	-0.348	-0.067
-681.251	-32.766	0.190	-0.107
-680.237	-200.000	-0.018	0.257
-679.222	373.455	0.095	-0.195
-678.208	181.983	0.046	0.069
-677.193	-74.479	0.166	0.060
-676.178	331.067	0.095	0.185
-675.164	-74.949	-0.145	-0.052
-674.149	-84.630	0.433	-0.137
-673.135	-148.018	0.071	-0.006
-672.120	165.887	-0.145	0.207
-671.105	-90.210	0.314	-0.092
-670.091	-91.902	-0.196	0.056
-669.076	11.256	-0.080	0.062
-668.062	-20.912	0.151	0.093
-667.047	-200.000	0.014	0.524
-666.032	423.248	-0.012	-0.027
-665.018	-95.795	-0.061	0.016
-664.003	329.210	0.110	0.214
-662.989	3.649	0.117	0.086
-661.974	87.540	-0.101	-0.113
-660.959	386.800	0.189	0.393
-659.945	78.864	0.049	0.053
-658.930	102.899	-0.147	0.174
-657.916	-10.300	-0.242	0.162
-656.901	56.715	0.105	-0.103
-655.886	31.598	-0.128	0.111
-654.872	-41.580	-0.223	-0.115
-653.857	420.094	0.057	-0.122
-652.843	-138.238	0.167	-0.019
-651.828	708.011	0.083	-0.222
-650.814	-115.921	0.242	-0.046
-649.799	-95.434	-0.279	-0.076
-648.784	-2.616	-0.160	0.113
-647.770	-99.078	0.148	-0.038
-646.755	-108.296	0.286	0.062
-645.741	800.000	-0.097	-0.296
-644.726	800.000	0.062	-0.177
-643.711	-64.681	-0.034	-0.014
-642.697	-126.849	-0.189	-0.028
-641.682	358.312	-0.039	-0.079
-640.668	-95.972	0.134	-0.036
-639.653	-78.661	0.335	0.115
-638.638	-172.415	-0.208	0.007
-637.624	-75.338	0.183	-0.066
-636.609	800.000	0.036	0.125
-635.595	160.081	-0.166	0.233
-634.580	113.609	-0.187	-0.229
-633.565	-82.863	-0.240	-0.078
-632.551	-31.502	-0.266	0.150
-631.536	-85.184	-0.318	-0.100
-630.522	-200.000	-0.026	-0.123
-629.507	-200.000	0.336	-0.001
-628.492	-200.000	-0.004	-0.183
-627.478	800.000	0.083	0.290
-626.463	22.884	-0.146	-0.121
-625.449	2.074	-0.148	0.107
-624.434	-153.675	0.284	-0.020
-623.419	-200.000	0.031	-0.229
-622.405	-127.775	0.262	-0.038
-621.390	-3.422	-0.075	-0.052
-620.376	245.003	-0.212	-0.358
-619.361	-200.000	-0.007	0.145
-618.346	-112.175	0.177	-0.036
-617.332	114.847	-0.130	-0.160
-616.317	556.256	-0.046	0.112
-615.303	800.000	0.100	-0.351
-614.288	-200.000	-0.007	0.117
-613.273	-108.288	-0.136	0.030
-612.259	-200.000	0.030	0.223
-611.244	478.241	0.074	-0.167
-610.230	3.766	-0.216	-0.159
-609.215	-200.000	-0.034	0.334
-608.201	142.875	-0.145	-0.194
-607.186	-45.542	0.128	0.064
-606.171	11.939	-0.341	-0.263
-605.157	-135.462	0.334	0.040
-604.142	800.000	-0.078	-0.265
-603.128	39.315	-0.163	0.147
-602.113	68.582	-0.077	0.080
-601.098	-200.000	0.004	-0.047
-600.084	144.449	0.198	0.266
-599.069	-101.297	0.275	-0.067
-598.055	142.994	-0.069	-0.092
-597.040	-200.000	0.009	-0.123
-596.025	-159.909	-0.319	-0.018
-595.011	106.548	-0.174	-0.207
-593.996	162.431	-0.099	0.139
-592.982	-20.938	-0.151	-0.093
-591.967	800.000	0.073	-0.228
-590.952	-33.478	0.212	0.118
-589.938	-3.483	-0.381	-0.267
-588.923	58.917	0.175	-0.173
-587.909	-61.105	-0.334	-0.142
-586.894	-200.000	0.019	-0.405
-585.879	800.000	0.077	-0.229
-584.865	1.723	-0.283	0.205
-583.850	13.325	0.060	0.047
-582.836	-80.284	-0.394	0.133
-581.821	784.445	-0.043	0.119
-580.806	-93.931	0.501	0.138
-579.792	-167.249	0.162	-0.007
-578.777	598.351	-0.031	0.077
-577.763	224.348	-0.198	0.321
-576.748	-166.871	0.144	-0.006
-575.733	-112.687	0.468	0.093
-574.719	37.837	-0.099	0.088
-573.704	-62.651	-0.069	-0.029
-572.690	-28.402	0.111	0.064
-571.675	257.338	0.119	-0.206
-570.661	-200.000	-0.036	-0.171
-569.646	32.135	0.113	-0.098
-568.631	279.365	-0.050	0.089
-567.617	-111.543	0.297	-0.061
-566.602	9.864	0.070	-0.053
-565.588	16.000	-0.158	0.125
-564.573	28.482	-0.102	-0.087
-563.558	800.000	0.047	0.196
-562.544	-200.000	0.077	-0.484
-561.529	-42.963	-0.157	-0.080
-560.515	594.400	0.071	-0.177
-559.500	-200.000	-0.006	-0.144
-558.485	-35.908	-0.103	0.056
-557.471	-67.276	0.015	0.006
-556.456	26.476	0.131	-0.110
-555.442	-200.000	0.010	0.072
-554.427	82.743	0.207	-0.225
-553.412	-95.550	-0.301	0.081
-552.398	-37.589	0.103	-0.055
-551.383	-178.038	-0.245	-0.006
-550.369	416.289	0.130	-0.278
-549.354	265.973	0.057	0.100
-548.339	-200.000	-0.014	0.277
-547.325	485.306	-0.094	0.215
-546.310	380.672	0.148	0.304
-545.296	77.268	-0.031	-0.033
-544.281	-200.000	-0.007	-0.454
-543.266	-94.512	0.153	-0.042
-542.252	-200.000	0.027	0.317
-541.237	-200.000	-0.021	0.131
-540.223	280.557	-0.172	0.308
-539.208	-54.241	0.166	-0.076
-538.193	85.347	0.248	-0.274
-537.179	312.204	-0.102	0.191
-536.164	38.468	-0.259	0.231
-535.150	800.000	-0.098	0.273
-534.135	-200.000	-0.036	-0.380
-533.121	22.671	0.243	-0.199
-532.106	-200.000	0.013	0.089
-531.091	342.202	-0.047	0.092
-530.077	-146.083	0.086	-0.008
-529.062	-17.222	0.110	-0.069
-528.048	-200.000	0.026	0.130
-527.033	-200.000	-0.048	-0.318
-526.018	608.134	-0.115	-0.288
-525.004	87.314	0.105	0.117
-523.989	181.542	-0.144	0.213
-522.975	-200.000	-0.010	0.068
-521.960	348.616	-0.172	-0.341
-520.945	-29.540	-0.220	-0.126
-519.931	9.246	-0.305	0.231
-518.916	-145.473	0.216	-0.020
-517.902	-54.352	-0.299	0.136
-516.887	-146.867	0.063	0.005
-515.872	-110.860	0.350	0.072
-514.858	-17.738	0.107	0.068
-513.843	-154.554	0.291	0.019
-512.829	-200.000	0.049	-0.259
-511.814	-53.815	0.226	-0.103
-510.799	-121.656	0.178	-0.029
-509.785	-67.374	-0.304	0.120
-508.770	-200.000	-0.069	0.324
-507.756	-92.290	-0.306	-0.086
-506.741	-11.683	0.089	-0.058
-505.726	32.430	-0.174	0.150
-504.712	-92.207	-0.206	0.058
-503.697	-128.504	-0.277	-0.039
-502.683	149.179	-0.058	-0.079
-501.668	677.194	-0.056	0.146
-500.653	-1.542	0.254	0.180
-499.639	21.927	0.041	-0.034
-498.624	-24.924	-0.375	0.223
-497.610	-120.015	0.197	-0.034
-496.595	-65.561	-0.298	-0.120
-495.581	-126.764	-0.208	-0.031
-494.566	-93.768	-0.017	0.005
-493.551	-49.403	-0.081	0.039
-492.537	74.439	-0.179	0.189
-491.522	417.075	0.042	0.090
-490.508	44.728	-0.157	0.145
-489.493	41.130	-0.119	0.107
-488.478	-96.799	0.168	0.044
-487.464	292.539	-0.102	0.186
-486.449	-22.111	-0.091	0.055
-485.435	165.596	-0.151	-0.214
-484.420	-200.000	-0.365	-0.001
-483.405	-71.428	0.142	0.053
-482.391	-200.000	-0.004	-0.196
-481.376	-200.000	0.034	-0.266
-480.362	-35.801	-0.104	0.057
-479.347	-32.678	-0.244	-0.136
-478.332	-60.905	0.235	0.100
-477.318	-165.307	0.098	-0.004
-476.303	-55.581	-0.305	-0.137
-475.289	-37.099	0.105	-0.056
-474.274	-114.761	-0.263	0.050
-473.259	179.451	0.184	-0.270
-472.245	-39.653	-0.266	0.139
-471.230	-180.416	-0.115	-0.002
-470.216	-56.628	-0.087	0.039
-469.201	-200.000	0.002	-0.044
-468.186	-151.671	0.473	0.035
-467.172	-66.334	-0.438	0.174
-466.157	800.000	0.067	0.255
-465.143	-200.000	-0.019	-0.439
-464.128	-69.663	-0.042	-0.016
-463.113	-200.000	0.011	-0.186
-462.099	626.933	0.111	-0.279
-461.084	-98.305	-0.087	0.022
-460.070	-76.297	-0.148	0.052
-459.055	-200.000	0.000	-0.010
-458.040	-200.000	0.036	-0.247
-457.026	29.779	0.078	0.067
-456.011	-200.000	0.032	0.342
-454.997	-57.241	0.216	0.095
-453.982	93.354	0.113	0.128
-452.968	586.237	0.060	0.147
-451.953	-200.000	0.016	-0.162
-450.938	-100.427	-0.026	0.006
-449.924	308.983	0.171	0.320
-448.909	-200.000	0.028	-0.282
-447.895	77.988	-0.169	-0.180
-446.880	800.000	-0.051	0.219
-445.865	188.212	0.200	0.299
-444.851	-140.280	-0.192	-0.020
-443.836	257.687	-0.121	-0.207
-442.822	-143.538	-0.278	0.026
-441.807	-171.245	0.286	0.010
-440.792	-200.000	0.009	-0.100
-439.778	40.506	-0.079	-0.071
-438.763	-33.414	-0.385	0.213
-437.749	-200.000	0.042	-0.207
-436.734	-200.000	-0.053	0.288
-435.719	-69.087	-0.272	-0.105
-434.705	-200.000	0.022	-0.228
-433.690	-117.983	0.430	0.077
-432.676	496.774	0.039	-0.090
-431.661	-200.000	0.023	0.146
-430.646	14.743	-0.200	0.156
-429.632	-28.487	0.165	0.095
-428.617	555.860	-0.041	0.098
-427.603	6.882	0.202	0.151
-426.588	151.511	0.062	-0.084
-425.573	-121.583	-0.145	-0.024
-424.559	800.000	0.033	-0.117
-423.544	223.294	-0.086	-0.138
-422.530	-10.746	0.074	-0.049
-421.515	15.008	0.101	0.079
-420.500	97.700	-0.082	0.094
-419.486	130.636	0.082	0.105
-418.471	281.774	-0.131	0.235
-417.457	-59.020	0.205	-0.088
-416.442	10.808	-0.185	-0.141
-415.428	427.619	0.053	-0.114
-414.413	-6.122	0.217	-0.148
-413.398	-200.000	-0.014	0.077
-412.384	-21.658	-0.390	0.237
-411.369	-8.823	0.089	-0.060
-410.355	-0.724	0.125	-0.089
-409.340	308.361	-0.004	0.008
-408.325	188.980	-0.079	-0.118
-407.311	800.000	-0.032	0.121
-406.296	651.152	0.068	-0.174
-405.282	-61.447	-0.147	-0.062
-404.267	130.224	0.046	0.059
-403.252	-200.000	0.044	0.300
-402.238	-74.564	-0.279	-0.100
-401.223	-200.000	0.030	-0.150
-400.209	59.563	0.164	-0.161
-399.194	800.000	-0.015	-0.063
-398.179	-200.000	-0.044	-0.291
-397.165	302.722	0.128	-0.236
-396.150	212.139	-0.136	-0.214
-395.136	715.429	-0.059	0.157
-394.121	60.776	-0.148	-0.146
-393.106	-117.162	0.304	0.055
-392.092	-18.326	-0.284	-0.177
-391.077	-200.000	-0.028	0.158
-390.063	-94.119	0.203	0.055
-389.048	-187.610	0.138	-0.002
-388.033	-200.000	0.128	0.000
-387.019	174.528	-0.020	-0.029
-386.004	-65.655	-0.061	-0.025
-384.990	400.835	-0.135	0.282
-383.975	800.000	0.015	-0.058
-382.960	194.072	0.146	-0.221
-381.946	-81.541	-0.247	0.081
-380.931	-94.391	-0.224	0.061
-379.917	-117.017	-0.184	-0.033
-378.902	-83.456	0.180	-0.057
-377.888	286.747	-0.134	-0.241
-376.873	232.469	0.110	0.180
-375.858	-8.562	0.170	0.114
-374.844	200.754	0.135	-0.207
-373.829	121.919	0.261	0.325
-372.815	601.962	-0.079	-0.196
-371.800	-63.021	-0.140	0.058
-370.785	27.091	-0.211	-0.176
-369.771	-200.000	0.017	-0.276
-368.756	675.594	-0.070	0.182
-367.742	800.000	0.071	-0.222
-366.727	-75.075	0.472	-0.168
-365.712	551.553	-0.083	-0.198
-364.698	-187.723	0.173	-0.002
-363.683	-100.645	-0.177	-0.044
-362.669	319.828	-0.041	0.077
-361.654	253.399	-0.124	-0.211
-360.639	-200.000	-0.007	0.180
-359.625	85.492	0.048	-0.052
-358.610	-200.000	0.018	0.121
-357.596	158.983	-0.174	-0.241
-356.581	-147.806	-0.460	0.038
-355.566	-200.000	0.001	0.191
-354.552	-53.293	-0.239	-0.109
-353.537	163.409	0.120	-0.169
-352.523	-200.000	-0.002	0.127
-351.508	800.000	0.046	0.167
-350.493	64.606	-0.159	0.160
-349.479	647.774	0.068	-0.173
-348.464	16.076	-0.236	0.185
-347.450	53.740	-0.162	-0.155
-346.435	-10.974	0.082	-0.054
-345.420	106.353	-0.258	0.305
-344.406	-200.000	-0.019	-0.083
-343.391	135.419	-0.068	0.088
-342.377	527.704	-0.154	0.360
-341.362	-200.000	0.018	0.432
-340.348	-82.208	0.228	0.074
-339.333	-130.942	-0.092	-0.012
-338.318	275.547	0.216	-0.381
-337.304	-102.591	-0.198	-0.047
-336.289	-200.000	0.019	0.172
-335.275	183.138	0.103	0.152
-334.260	214.481	0.096	0.152
-333.245	-79.376	0.252	0.085
-332.231	315.393	-0.081	-0.152
-331.216	-200.000	-0.000	-0.274
-330.202	-72.458	0.259	0.095
-329.187	-135.213	0.419	-0.050
-328.172	-200.000	0.039	0.176
-327.158	36.642	0.247	0.217
-326.143	-17.223	-0.265	-0.166
-325.129	-56.665	-0.201	0.089
-324.114	-168.648	0.243	0.009
-323.099	-175.142	0.222	-0.006
-322.085	233.083	0.028	0.046
-321.070	-16.165	0.046	-0.029
-320.056	-112.185	-0.305	0.061
-319.041	244.394	-0.052	0.088
-318.026	292.764	-0.152	-0.276
-317.012	-87.161	0.567	-0.171
-315.997	-121.301	-0.246	0.041
-314.983	-169.363	-0.231	0.008
-313.968	-27.215	0.044	-0.025
-312.953	46.370	0.238	-0.219
-311.939	-200.000	-0.005	0.237
-310.924	-68.553	0.148	-0.057
-309.910	800.000	-0.037	-0.106
-308.895	-121.282	0.113	-0.019
-307.880	540.856	-0.127	0.301
-306.866	142.436	0.034	-0.045
-305.851	374.763	-0.068	-0.138
-304.837	-200.000	-0.032	0.279
-303.822	-124.526	0.206	0.032
-302.807	800.000	-0.064	0.195
-301.793	-158.316	0.153	0.009
-300.778	-80.303	0.108	0.036
-299.764	655.889	-0.138	-0.352
-298.749	-200.000	-0.038	0.296
-297.735	800.000	0.056	0.182
-296.720	-107.382	-0.067	0.015
-295.705	-19.488	-0.180	0.111
-294.691	74.554	0.195	0.204
-293.676	-87.013	-0.115	0.035
-292.662	-200.000	-0.014	0.147
-291.647	-18.706	-0.418	-0.259
-290.632	223.363	0.117	-0.188
-289.618	260.069	-0.126	0.216
-288.603	-81.114	0.190	-0.062
-287.589	-49.066	-0.184	-0.087
-286.574	375.492	0.060	-0.122
-285.559	-39.718	0.436	-0.226
-284.545	-200.000	-0.021	-0.263
-283.530	165.950	-0.079	0.110
-282.516	145.342	0.145	0.193
-281.501	-142.310	0.016	-0.002
-280.486	-200.000	0.024	0.175
-279.472	-55.893	-0.242	-0.107
-278.457	65.660	0.126	0.127
-277.443	-200.000	0.016	0.194
-276.428	327.768	-0.271	0.517
-275.413	-130.935	0.375	-0.050
-274.399	-19.830	0.291	-0.178
-273.384	474.681	0.068	-0.152
-272.370	-119.049	0.199	0.035
-271.355	204.083	-0.154	0.237
-270.340	-200.000	0.020	0.273
-269.326	-65.968	0.315	-0.125
-268.311	-200.000	0.029	-0.455
-267.297	-189.137	0.536	0.006
-266.282	-200.000	0.019	0.091
-265.267	-200.000	0.015	-0.229
-264.253	221.918	0.151	0.241
-263.238	-200.000	0.025	0.142
-262.224	-84.653	-0.059	-0.018
-261.209	100.324	0.180	0.207
-260.195	-65.854	0.072	0.029
-259.180	515.542	-0.037	-0.086
-258.165	19.241	0.223	-0.177
-257.151	-200.000	0.012	-0.092
-256.136	800.000	0.045	-0.152
-255.122	224.228	0.191	0.306
-254.107	266.698	-0.073	0.127
-253.092	800.000	-0.117	-0.349
-252.078	-116.535	0.254	0.046
-251.063	-200.000	-0.005	-0.051
-250.049	-200.000	-0.047	-0.249
-249.034	800.000	-0.005	0.020
-248.019	800.000	0.030	0.089
-247.005	82.532	-0.159	0.171
-245.990	-200.000	0.007	0.057
-244.976	-200.000	-0.028	-0.306
-243.961	-11.038	0.174	0.114
-242.946	121.974	-0.242	0.300
-241.932	-144.150	-0.207	-0.019
-240.917	796.899	0.074	-0.201
-239.903	245.814	-0.034	0.057
-238.888	92.125	-0.072	-0.081
-237.873	251.977	0.140	0.237
-236.859	-30.097	-0.230	0.130
-235.844	-107.673	0.292	-0.063
-234.830	-200.000	0.083	-0.419
-233.815	-91.013	0.070	0.020
-232.800	-66.940	0.336	-0.131
-231.786	-200.000	-0.017	0.099
-230.771	-200.000	0.017	-0.280
-229.757	-84.939	-0.249	0.078
-228.742	-56.865	-0.136	-0.060
-227.727	-23.177	-0.200	-0.119
-226.713	237.973	0.065	0.107
-225.698	800.000	0.097	0.364
-224.684	-200.000	0.016	-0.114
-223.669	-52.339	-0.125	0.057
-222.655	69.499	0.203	-0.207
-221.640	-200.000	0.030	0.316
-220.625	-9.650	-0.398	-0.263
-219.611	-200.000	0.016	0.192
-218.596	-145.153	-0.320	0.029
-217.582	171.633	0.088	-0.125
-216.567	-151.472	0.162	-0.012
-215.552	111.305	0.099	0.118
-214.538	312.063	0.095	-0.176
-213.523	-200.000	-0.074	0.371
-212.509	-9.629	-0.122	-0.081
-211.494	-79.003	-0.063	0.021
-210.479	-109.481	0.221	0.046
-209.465	-62.126	-0.197	-0.081
-208.450	289.881	0.146	0.263
-207.436	-132.721	0.079	-0.010
-206.421	-200.000	-0.013	-0.160
-205.406	-93.571	-0.223	0.061
-204.392	-51.481	-0.432	0.200
-203.377	-200.000	0.024	-0.386
-202.363	800.000	0.065	0.203
-201.348	18.600	-0.101	0.080
-200.333	-165.601	0.346	-0.015
-199.319	800.000	-0.103	0.317
-198.304	205.002	-0.086	0.132
-197.290	-118.915	0.108	-0.019
-196.275	-22.877	-0.216	0.129
-195.260	-200.000	0.123	-0.000
-194.246	150.355	0.066	0.088
-193.231	-200.000	0.068	-0.367
-192.217	-56.961	0.127	0.056
-191.202	-200.000	0.089	-0.391
-190.187	161.764	0.036	0.050
-189.173	71.447	0.143	-0.147
-188.158	-170.962	-0.261	-0.009
-187.144	6.664	0.059	0.044
-186.129	-50.281	-0.108	0.051
-185.114	42.463	-0.278	0.250
-184.100	-129.934	0.276	0.037
-183.085	67.880	0.215	0.218
-182.071	-200.000	-0.010	0.114
-181.056	-56.249	-0.099	-0.043
-180.042	-43.396	0.173	-0.087
-179.027	-158.372	0.168	0.010
-178.012	-53.208	0.326	-0.148
-176.998	800.000	0.108	-0.384
-175.983	-118.653	0.282	0.049
-174.969	-87.814	0.135	0.040
-173.954	107.152	-0.031	-0.037
-172.939	1.873	0.205	0.146
-171.925	-79.555	0.232	0.078
-170.910	223.614	0.076	0.121
-169.896	-24.282	-0.168	-0.099
-168.881	-200.000	-0.003	0.205
-167.866	-157.306	0.233	0.014
-166.852	-119.158	-0.283	-0.049
-165.837	-200.000	0.017	-0.139
-164.823	4.882	0.214	0.156
-163.808	-200.000	-0.037	0.175
-162.793	73.433	-0.141	-0.146
-161.779	7.571	0.084	-0.062
-160.764	164.188	0.137	0.191
-159.750	141.165	0.099	-0.129
-158.735	-200.000	-0.016	0.411
-157.720	40.110	-0.077	0.068
-156.706	298.342	-0.171	0.311
-155.691	-49.329	0.194	-0.092
-154.677	-72.503	0.126	0.046
-153.662	33.725	0.134	0.115
-152.647	-77.429	-0.110	0.038
-151.633	-36.525	0.011	0.006
-150.618	277.964	0.102	-0.180
-149.604	21.487	0.178	-0.143
-148.589	-97.951	0.111	0.028
-147.574	-128.970	-0.353	0.049
-146.560	-135.366	0.092	0.011
-145.545	33.873	0.320	0.275
-144.531	800.000	-0.160	0.453
-143.516	800.000	-0.096	0.269
-142.502	-102.492	-0.129	-0.030
-141.487	-121.167	0.461	0.076
-140.472	309.003	0.154	0.283
-139.458	-149.079	-0.130	-0.010
-138.443	-29.024	-0.536	-0.304
-137.429	98.407	-0.188	0.213
-136.414	800.000	0.027	-0.088
-135.399	97.613	0.107	0.122
-134.385	-64.905	-0.365	0.146
-133.370	281.857	-0.094	-0.167
-132.356	-200.000	0.064	-0.395
-131.341	-178.738	0.150	0.003
-130.326	584.199	0.016	0.038
-129.312	-112.232	-0.134	0.027
-128.297	646.659	-0.059	0.148
-127.283	273.509	0.024	-0.043
-126.268	-159.912	0.152	-0.008
-125.253	800.000	-0.110	0.346
-124.239	-200.000	-0.001	0.172
-123.224	193.976	-0.169	-0.253
-122.210	-200.000	-0.017	-0.157
