DTS Sentinel unit serial number:	SN413079Multiplexer serial number:	ORYXHardware model number:	OX4-SRSoftware version number:	ORYX F/W v4.00 Oryx Data Collector v3.7.2.0data status	okinstallation	princeton_trtdifferential loss correction	single-endedforward channel	channel 1reverse channel	N/Adate	2019/09/11time	21:44:11forward acquisition time	60.00reverse acquisition time	0.00gamma	496.2192k internal	0.2312k external	0.2312temperature offset calibration	1.0048default loss term (dB/km)	0.3790temperature slope calibration	1.0000multiplexer offset coefficient	1.0000multiplexer slope coefficient	1.0000fibre end	0.00T internal ref (°C)	35.78T ext. ref 1 (°C)	1.68T ext. ref 2 (°C)	30.13length (m)	temperature (°C)	Stokes	anti-Stokes-747.200	800.000	0.034	-0.109
-746.185	56.902	-0.151	0.149
-745.171	-27.061	-0.156	0.092
-744.156	75.990	-0.123	0.132
-743.142	-139.663	-0.345	0.037
-742.127	-159.647	0.255	0.014
-741.112	15.689	0.211	0.168
-740.098	257.011	0.038	-0.067
-739.083	-63.736	-0.112	0.046
-738.069	416.339	-0.023	-0.050
-737.054	-123.673	0.188	-0.030
-736.039	-200.000	-0.148	-0.000
-735.025	-127.909	0.463	-0.068
-734.010	6.553	-0.187	-0.141
-732.996	-4.004	-0.259	0.182
-731.981	-123.490	-0.256	0.041
-730.966	-166.044	-0.297	0.013
-729.952	73.811	0.235	0.250
-728.937	-92.242	-0.312	0.089
-727.923	-53.023	0.168	0.078
-726.908	44.791	0.134	-0.125
-725.894	137.209	-0.361	0.479
-724.879	-101.491	0.167	0.041
-723.864	-15.885	-0.161	0.104
-722.850	412.079	-0.111	-0.240
-721.835	-19.826	-0.126	-0.079
-720.821	-96.873	0.082	-0.022
-719.806	-4.520	-0.392	-0.275
-718.791	647.943	-0.083	-0.214
-717.777	-96.440	-0.228	0.061
-716.762	-47.209	-0.323	-0.159
-715.748	-86.737	0.130	-0.040
-714.733	510.911	-0.099	-0.233
-713.718	-141.237	0.051	0.005
-712.704	-62.190	0.230	0.097
-711.689	1.392	-0.092	-0.067
-710.675	-49.408	0.081	0.039
-709.660	800.000	0.053	-0.229
-708.645	-200.000	-0.025	0.212
-707.631	-200.000	0.009	0.096
-706.616	239.124	-0.037	-0.063
-705.602	-200.000	0.010	-0.128
-704.587	570.272	0.084	0.208
-703.572	373.780	0.123	0.254
-702.558	100.946	0.176	0.208
-701.543	-54.513	0.309	0.142
-700.529	253.774	-0.176	-0.305
-699.514	-84.785	-0.480	0.153
-698.499	-14.101	0.311	-0.204
-697.485	543.702	-0.099	-0.239
-696.470	201.576	-0.153	-0.239
-695.456	-155.671	-0.264	-0.017
-694.441	-155.572	-0.206	0.013
-693.426	-200.000	-0.014	0.146
-692.412	-120.709	0.400	-0.069
-691.397	-158.499	-0.153	-0.009
-690.383	-200.000	0.005	0.050
-689.368	-168.273	-0.291	0.011
-688.354	-41.814	0.258	-0.134
-687.339	800.000	-0.066	-0.226
-686.324	241.820	0.011	-0.019
-685.310	-200.000	-0.055	0.248
-684.295	-7.677	0.416	-0.285
-683.281	-200.000	0.037	-0.234
-682.266	-8.132	-0.127	0.087
-681.251	658.107	-0.016	0.043
-680.237	-33.151	0.143	-0.080
-679.222	34.179	-0.177	-0.157
-678.208	-200.000	-0.029	-0.398
-677.193	800.000	0.068	0.204
-676.178	-200.000	-0.198	0.000
-675.164	-91.821	0.285	-0.082
-674.149	800.000	0.031	0.122
-673.135	-200.000	-0.002	-0.114
-672.120	580.574	0.076	-0.189
-671.105	-9.377	0.114	-0.077
-670.091	-12.325	0.103	-0.068
-669.076	-106.998	0.331	0.074
-668.062	-200.000	-0.004	0.213
-667.047	293.032	0.162	-0.300
-666.032	-29.864	0.102	0.059
-665.018	800.000	-0.059	-0.243
-664.003	-92.022	-0.177	-0.051
-662.989	-75.370	-0.257	0.093
-661.974	7.534	0.231	-0.175
-660.959	-33.384	0.053	0.030
-659.945	22.159	0.354	0.292
-658.930	-52.818	-0.331	-0.154
-657.916	-177.025	0.043	0.001
-656.901	618.888	-0.065	0.166
-655.886	574.905	-0.105	-0.259
-654.872	217.034	-0.101	-0.162
-653.857	-200.000	-0.041	0.183
-652.843	-200.000	0.034	0.396
-651.828	-200.000	0.088	-0.416
-650.814	-60.980	0.157	-0.067
-649.799	-75.912	-0.140	0.050
-648.784	67.553	0.120	0.124
-647.770	-74.370	0.053	0.020
-646.755	67.296	-0.359	-0.370
-645.741	497.488	0.043	-0.100
-644.726	-108.863	0.285	-0.062
-643.711	-200.000	-0.002	-0.010
-642.697	-200.000	-0.065	-0.351
-641.682	-139.432	0.046	-0.005
-640.668	119.798	0.135	-0.169
-639.653	-120.433	-0.167	-0.029
-638.638	-82.111	-0.075	-0.025
-637.624	-200.000	-0.029	-0.183
-636.609	340.827	-0.169	-0.333
-635.595	800.000	0.036	-0.154
-634.580	600.530	-0.055	-0.139
-633.565	231.108	-0.063	-0.104
-632.551	800.000	0.056	0.233
-631.536	-146.732	-0.225	-0.020
-630.522	-200.000	-0.041	-0.202
-629.507	-25.873	-0.193	0.115
-628.492	-31.649	0.366	0.207
-627.478	-194.553	-0.451	0.004
-626.463	-200.000	-0.050	0.313
-625.449	11.364	-0.127	-0.098
-624.434	-83.984	-0.055	-0.018
-623.419	-200.000	-0.004	-0.119
-622.405	-23.945	0.246	0.148
-621.390	308.302	-0.039	0.073
-620.376	-116.165	-0.132	0.025
-619.361	-129.094	0.107	-0.015
-618.346	19.639	0.219	0.178
-617.332	-200.000	-0.011	-0.182
-616.317	27.144	0.283	0.240
-615.303	-105.350	0.082	0.019
-614.288	-19.924	-0.173	-0.108
-613.273	-200.000	-0.006	0.213
-612.259	-60.341	0.206	-0.089
-611.244	66.317	-0.137	-0.140
-610.230	-3.016	0.260	-0.183
-609.215	-47.910	-0.201	-0.098
-608.201	-200.000	-0.043	0.286
-607.186	-57.671	0.222	-0.098
-606.171	450.484	-0.011	-0.024
-605.157	262.874	-0.047	0.083
-604.142	262.122	-0.041	-0.072
-603.128	-90.617	-0.191	-0.056
-602.113	23.716	0.210	-0.175
-601.098	201.934	0.090	-0.140
-600.084	504.080	-0.095	-0.221
-599.069	90.122	0.106	-0.120
-598.055	-200.000	-0.058	-0.312
-597.040	-180.397	-0.245	-0.005
-596.025	647.142	0.153	-0.395
-595.011	-88.691	0.446	0.134
-593.996	-56.511	0.091	-0.041
-592.982	29.298	-0.277	0.237
-591.967	-130.754	-0.218	0.029
-590.952	-76.497	-0.304	-0.108
-589.938	-77.029	0.313	-0.110
-588.923	43.152	-0.191	0.175
-587.909	392.754	0.126	0.265
-586.894	-200.000	0.013	0.078
-585.879	-36.928	-0.126	0.068
-584.865	-10.214	0.165	-0.110
-583.850	-119.714	0.172	-0.030
-582.836	800.000	-0.060	-0.170
-581.821	800.000	-0.058	-0.218
-580.806	-115.971	-0.195	0.037
-579.792	129.203	-0.076	0.098
-578.777	69.251	-0.308	0.320
-577.763	-200.000	0.035	0.220
-576.748	-46.357	-0.171	0.085
-575.733	83.892	-0.310	0.341
-574.719	-84.004	-0.471	0.151
-573.704	-60.917	-0.134	-0.057
-572.690	-118.406	-0.209	-0.037
-571.675	40.399	-0.114	-0.104
-570.661	-200.000	0.072	-0.381
-569.646	9.035	0.102	-0.078
-568.631	-79.942	-0.017	0.006
-567.617	-12.619	0.247	-0.163
-566.602	-110.933	-0.168	-0.035
-565.588	-74.790	-0.360	0.130
-564.573	5.708	0.106	0.079
-563.558	62.726	-0.052	0.052
-562.544	-20.833	-0.295	0.182
-561.529	800.000	0.067	-0.198
-560.515	-198.317	-0.553	-0.003
-559.500	105.371	0.104	-0.124
-558.485	-15.926	-0.057	-0.037
-557.471	-14.297	-0.133	-0.087
-556.456	-68.955	0.282	-0.109
-555.442	-146.036	0.209	0.019
-554.427	516.084	0.194	0.456
-553.412	-21.113	-0.310	-0.191
-552.398	21.982	0.299	-0.245
-551.383	-200.000	0.022	-0.114
-550.369	124.091	0.207	0.262
-549.354	162.219	-0.314	0.443
-548.339	13.889	0.188	0.147
-547.325	73.480	0.047	0.050
-546.310	11.030	0.154	0.118
-545.296	-200.000	-0.027	0.194
-544.281	-200.000	-0.026	-0.173
-543.266	23.875	0.195	-0.162
-542.252	-60.156	0.243	-0.104
-541.237	-25.047	-0.091	-0.054
-540.223	642.267	-0.085	0.218
-539.208	218.421	0.048	0.077
-538.193	147.397	0.146	0.198
-537.179	-43.487	0.069	-0.035
-536.164	800.000	0.041	-0.132
-535.150	-51.096	-0.241	0.114
-534.135	800.000	0.065	-0.257
-533.121	224.021	-0.167	-0.272
-532.106	-18.727	-0.200	0.125
-531.091	737.104	-0.056	0.151
-530.077	60.410	-0.059	-0.058
-529.062	365.247	-0.187	-0.379
-528.048	800.000	0.101	-0.433
-527.033	104.894	0.188	-0.223
-526.018	800.000	0.052	-0.164
-525.004	-200.000	-0.001	-0.232
-523.989	236.788	0.100	0.167
-522.975	-112.851	0.029	0.006
-521.960	396.125	-0.157	-0.331
-520.945	122.525	0.095	-0.120
-519.931	56.305	-0.065	0.063
-518.916	450.377	-0.168	0.373
-517.902	126.484	-0.084	-0.107
-516.887	800.000	0.098	-0.407
-515.872	-22.913	-0.089	0.054
-514.858	56.473	-0.117	0.114
-513.843	47.216	0.251	0.235
-512.829	-0.541	-0.178	-0.127
-511.814	-200.000	-0.061	-0.285
-510.799	45.671	-0.362	-0.336
-509.785	-46.634	-0.160	0.079
-508.770	473.031	0.132	0.299
-507.756	-91.022	-0.212	0.061
-506.741	23.320	-0.158	-0.131
-505.726	12.336	-0.060	0.046
-504.712	-166.858	0.106	0.004
-503.697	-17.268	-0.151	-0.096
-502.683	14.224	0.208	-0.163
-501.668	-200.000	-0.039	-0.441
-500.653	-9.200	-0.380	0.256
-499.639	-74.395	0.211	0.076
-498.624	-200.000	0.023	-0.182
-497.610	-59.425	-0.294	-0.127
-496.595	-121.395	0.270	0.045
-495.581	-157.383	-0.332	0.020
-494.566	-200.000	0.018	0.088
-493.551	-61.914	-0.193	0.081
-492.537	-200.000	-0.032	-0.253
-491.522	19.559	0.048	0.039
-490.508	464.405	-0.017	-0.039
-489.493	60.962	0.176	0.175
-488.478	-200.000	0.041	-0.218
-487.464	-88.399	0.168	0.050
-486.449	800.000	-0.037	0.152
-485.435	-9.925	0.228	-0.152
-484.420	800.000	0.055	0.165
-483.405	800.000	0.041	0.167
-482.391	800.000	-0.011	0.041
-481.376	86.681	-0.250	-0.277
-480.362	-200.000	0.001	-0.197
-479.347	-200.000	0.023	0.194
-478.332	56.679	0.163	0.160
-477.318	635.754	-0.071	0.180
-476.303	137.062	0.044	-0.058
-475.289	-22.021	-0.029	-0.018
-474.274	31.343	-0.237	0.204
-473.259	-166.928	-0.304	0.013
-472.245	-136.640	0.153	-0.018
-471.230	-200.000	-0.010	0.096
-470.216	-23.590	-0.086	-0.052
-469.201	-50.864	-0.086	0.041
-468.186	95.702	0.212	0.243
-467.172	341.704	0.208	0.409
-466.157	-200.000	0.015	-0.174
-465.143	-16.116	-0.385	-0.246
-464.128	174.115	0.210	-0.305
-463.113	-72.928	-0.175	-0.065
-462.099	648.713	0.157	-0.402
-461.084	-148.049	-0.048	-0.004
-460.070	-127.609	-0.180	-0.026
-459.055	279.998	-0.122	-0.218
-458.040	18.159	-0.255	-0.204
-457.026	800.000	0.117	-0.390
-456.011	-200.000	-0.005	-0.211
-454.997	-28.898	0.288	-0.166
-453.982	32.889	-0.074	0.064
-452.968	592.772	-0.053	0.131
-451.953	-89.099	0.161	-0.048
-450.938	-21.486	0.288	0.176
-449.924	70.183	-0.213	0.221
-448.909	-118.462	-0.434	-0.077
-447.895	800.000	-0.104	-0.423
-446.880	47.754	0.210	-0.197
-445.865	800.000	0.056	0.167
-444.851	22.753	-0.105	-0.087
-443.836	-136.878	0.149	-0.017
-442.822	595.087	-0.138	0.341
-441.807	55.143	0.163	0.158
-440.792	-24.910	-0.231	-0.137
-439.778	206.961	0.066	-0.104
-438.763	-3.491	0.337	0.235
-437.749	34.180	-0.049	-0.043
-436.734	-63.512	-0.120	0.050
-435.719	800.000	-0.026	0.097
-434.705	126.873	-0.176	0.224
-433.690	800.000	0.011	-0.049
-432.676	-64.474	-0.162	0.066
-431.661	-66.005	0.396	-0.159
-430.646	159.057	0.220	0.307
-429.632	782.674	-0.081	-0.223
-428.617	800.000	-0.068	-0.295
-427.603	-30.545	-0.191	0.109
-426.588	-200.000	-0.021	-0.094
-425.573	-107.546	-0.251	-0.055
-424.559	-42.526	-0.107	0.055
-423.544	-37.473	0.260	-0.139
-422.530	-160.845	0.210	-0.011
-421.515	-200.000	0.014	-0.255
-420.500	-7.978	0.266	-0.180
-419.486	82.729	-0.066	0.072
-418.471	-37.882	-0.226	0.120
-417.457	321.429	0.090	-0.171
-416.442	-12.283	0.206	0.135
-415.428	12.377	-0.237	0.183
-414.413	800.000	-0.060	-0.259
-413.398	439.565	-0.095	0.209
-412.384	751.563	-0.015	0.041
-411.369	-200.000	-0.070	0.307
-410.355	800.000	0.138	0.384
-409.340	8.871	-0.154	0.116
-408.325	49.908	-0.130	-0.123
-407.311	800.000	-0.022	0.094
-406.296	-200.000	0.015	-0.086
-405.282	631.908	0.080	0.204
-404.267	-7.418	0.201	-0.136
-403.252	199.065	0.099	0.152
-402.238	378.476	-0.009	0.019
-401.223	-47.195	-0.111	-0.054
-400.209	55.078	0.148	0.144
-399.194	800.000	-0.045	0.148
-398.179	800.000	-0.072	0.238
-397.165	-28.313	-0.197	0.114
-396.150	22.499	0.180	0.147
-395.136	-126.836	0.290	0.043
-394.121	68.947	0.439	-0.451
-393.106	26.430	-0.315	-0.263
-392.092	-172.030	0.157	0.005
-391.077	-65.756	-0.074	0.030
-390.063	-83.200	0.004	-0.001
-389.048	-17.539	-0.146	-0.092
-388.033	106.207	-0.114	0.135
-387.019	-46.980	-0.124	0.061
-386.004	-163.074	-0.228	0.011
-384.990	-163.687	-0.354	-0.017
-383.975	50.054	0.191	0.180
-382.960	491.266	0.149	0.341
-381.946	-115.127	0.041	0.008
-380.931	-165.218	-0.119	-0.005
-379.917	508.247	0.110	-0.256
-378.902	671.595	-0.070	-0.181
-377.888	-171.043	-0.281	0.010
-376.873	-49.093	0.164	-0.078
-375.858	800.000	-0.068	0.273
-374.844	-63.125	-0.154	0.063
-373.829	-53.256	0.206	0.095
-372.815	511.995	0.034	0.080
-371.800	800.000	-0.021	0.072
-370.785	87.465	-0.152	-0.169
-369.771	800.000	-0.146	0.490
-368.756	46.348	-0.031	-0.029
-367.742	-200.000	0.015	0.151
-366.727	707.679	0.162	0.427
-365.712	106.922	-0.128	0.153
-364.698	-106.866	-0.120	-0.027
-363.683	800.000	0.172	0.477
-362.669	-13.701	0.214	-0.139
-361.654	-89.013	0.300	0.089
-360.639	176.090	0.030	-0.044
-359.625	265.246	0.121	0.211
-358.610	72.721	0.173	0.180
-357.596	-200.000	-0.068	0.381
-356.581	-28.246	-0.270	0.156
-355.566	502.480	0.029	-0.068
-354.552	800.000	-0.078	-0.279
-353.537	-98.120	0.098	-0.025
-352.523	78.613	0.051	0.054
-351.508	-200.000	0.012	0.108
-350.493	-13.269	0.210	0.136
-349.479	-200.000	-0.009	-0.203
-348.464	-200.000	-0.031	-0.336
-347.450	-92.823	0.299	-0.084
-346.435	-40.950	-0.059	0.031
-345.420	22.001	0.171	-0.139
-344.406	60.679	-0.111	-0.110
-343.391	-116.165	-0.272	0.051
-342.377	-153.827	0.259	-0.018
-341.362	-129.878	0.295	-0.040
-340.348	-200.000	0.003	-0.072
-339.333	0.802	0.103	0.074
-338.318	85.839	0.189	0.207
-337.304	-200.000	-0.003	0.209
-336.289	-121.949	-0.162	-0.027
-335.275	45.033	0.099	-0.091
-334.260	-200.000	-0.009	-0.117
-333.245	209.523	-0.078	0.121
-332.231	-200.000	-0.032	0.247
-331.216	-200.000	0.028	-0.320
-330.202	-143.726	0.073	-0.007
-329.187	80.732	-0.137	-0.147
-328.172	148.678	0.117	-0.158
-327.158	-16.239	0.238	-0.151
-326.143	382.855	-0.156	-0.320
-325.129	334.060	-0.109	-0.210
-324.114	-16.172	0.277	-0.176
-323.099	-133.988	-0.247	0.030
-322.085	800.000	0.029	0.114
-321.070	-200.000	0.034	0.178
-320.056	-200.000	0.042	-0.390
-319.041	71.001	-0.131	0.135
-318.026	800.000	-0.086	0.352
-317.012	-200.000	-0.057	0.270
-315.997	-200.000	-0.029	0.169
-314.983	-29.458	-0.100	0.057
-313.968	-151.313	0.057	0.004
-312.953	-61.496	0.483	-0.202
-311.939	-56.964	-0.213	-0.094
-310.924	-137.810	0.103	0.011
-309.910	800.000	0.018	0.070
-308.895	-68.119	0.314	0.122
-307.880	-69.424	-0.439	-0.168
-306.866	800.000	-0.049	-0.175
-305.851	-60.056	-0.104	-0.044
-304.837	304.090	-0.045	-0.084
-303.822	800.000	-0.030	-0.088
-302.807	-112.756	0.103	-0.020
-301.793	-200.000	-0.027	0.334
-300.778	58.428	0.084	-0.082
-299.764	-95.140	-0.390	0.105
-298.749	142.456	-0.323	-0.428
-297.735	233.913	0.112	0.185
-296.720	-61.984	-0.136	-0.057
-295.705	-67.658	-0.107	0.042
-294.691	-200.000	0.001	0.292
-293.676	634.892	-0.055	0.139
-292.662	800.000	0.111	-0.452
-291.647	-200.000	0.033	0.174
-290.632	-200.000	0.027	0.210
-289.618	-200.000	-0.004	-0.027
-288.603	3.384	0.348	0.253
-287.589	-128.276	-0.107	-0.015
-286.574	-46.454	0.162	0.079
-285.559	-124.131	-0.180	-0.028
-284.545	-92.609	0.714	-0.200
-283.530	34.562	-0.089	0.077
-282.516	-120.824	0.110	-0.019
-281.501	47.017	0.319	-0.296
-280.486	-200.000	0.028	-0.221
-279.472	180.302	-0.131	-0.192
-278.457	-200.000	0.026	-0.149
-277.443	-184.832	0.164	0.003
-276.428	499.086	0.068	0.156
-275.413	-145.252	0.315	-0.028
-274.399	-48.444	0.244	-0.117
-273.384	-94.142	-0.614	0.168
-272.370	-101.735	0.297	0.072
-271.355	486.581	0.103	0.235
-270.340	-93.724	-0.355	-0.098
-269.326	800.000	0.059	0.228
-268.311	67.576	0.235	0.239
-267.297	44.128	0.068	-0.062
-266.282	52.174	0.233	-0.221
-265.267	14.578	0.207	0.161
-264.253	800.000	-0.008	-0.031
-263.238	22.491	-0.137	0.112
-262.224	-82.394	-0.109	-0.035
-261.209	-94.685	0.180	0.049
-260.195	800.000	-0.030	0.083
-259.180	-113.741	-0.072	-0.014
-258.165	388.971	-0.158	0.325
-257.151	-135.094	-0.169	0.020
-256.136	-88.160	0.494	0.148
-255.122	-2.799	0.304	0.212
-254.107	800.000	0.038	0.151
-253.092	-47.374	0.438	0.212
-252.078	-61.981	-0.242	-0.101
-251.063	175.318	-0.157	0.226
-250.049	-74.932	-0.242	-0.086
-249.034	-27.721	-0.192	-0.111
-248.019	-60.588	-0.287	-0.121
-247.005	79.818	-0.141	0.151
-245.990	34.016	-0.027	-0.024
-244.976	-41.927	-0.336	-0.171
-243.961	-119.706	0.145	0.025
-242.946	-200.000	-0.009	0.312
-241.932	-9.924	-0.317	0.210
-240.917	-154.547	0.455	-0.030
-239.903	-200.000	-0.003	0.070
-238.888	-182.110	0.266	0.005
-237.873	-200.000	-0.008	0.106
-236.859	-176.208	0.202	0.005
-235.844	303.744	-0.070	0.129
-234.830	279.353	-0.052	-0.093
-233.815	17.534	-0.230	0.182
-232.800	-43.989	0.424	0.212
-231.786	-10.200	0.319	-0.211
-230.771	800.000	-0.026	-0.071
-229.757	428.621	0.217	-0.467
-228.742	-70.006	-0.122	-0.046
-227.727	131.389	0.136	-0.173
-226.713	-73.346	0.288	0.105
-225.698	-51.446	-0.108	0.050
-224.684	-17.761	0.269	-0.168
-223.669	-110.148	0.228	0.047
-222.655	-102.867	0.298	-0.070
-221.640	32.123	-0.262	0.225
-220.625	-200.000	0.015	-0.183
-219.611	-49.214	0.216	-0.103
-218.596	800.000	0.059	0.163
-217.582	-200.000	-0.063	0.286
-216.567	-43.312	0.176	-0.088
-215.552	-118.155	0.138	-0.024
-214.538	-5.698	0.277	0.188
-213.523	-200.000	-0.045	0.253
-212.509	-200.000	-0.010	-0.134
-211.494	-99.141	0.062	0.016
-210.479	-200.000	0.026	0.182
-209.465	800.000	0.095	-0.403
-208.450	-142.639	0.098	-0.010
-207.436	-122.700	0.243	-0.039
-206.421	445.764	-0.164	0.359
-205.406	-200.000	0.010	0.208
-204.392	36.780	0.123	-0.108
-203.377	-113.154	0.130	0.025
-202.363	-75.564	-0.167	-0.059
-201.348	-78.858	-0.083	0.028
-200.333	21.487	-0.192	0.155
-199.319	800.000	-0.043	-0.168
-198.304	-145.701	-0.461	0.041
-197.290	-8.301	-0.240	0.161
-196.275	-26.573	0.435	0.253
-195.260	-4.012	0.203	0.140
-194.246	-159.299	0.129	-0.007
-193.231	520.167	0.096	-0.224
-192.217	-48.492	0.179	0.086
-191.202	219.056	-0.149	0.236
-190.187	-124.521	-0.147	0.023
-189.173	315.203	-0.156	-0.293
-188.158	-137.956	0.289	0.032
-187.144	176.955	0.218	-0.315
-186.129	-16.914	0.069	-0.043
-185.114	-94.198	-0.077	-0.021
-184.100	406.717	-0.175	0.366
-183.085	273.520	0.178	0.313
-182.071	-117.487	-0.302	0.054
-181.056	454.649	-0.196	-0.432
-180.042	-132.666	-0.301	0.038
-179.027	199.483	0.087	0.133
-178.012	-3.031	-0.310	-0.215
-176.998	455.259	-0.108	-0.238
-175.983	-200.000	-0.093	0.510
-174.969	320.543	0.038	-0.071
-173.954	-82.351	-0.119	-0.038
-172.939	-125.269	0.190	0.029
-171.925	-193.351	0.403	0.003
-170.910	499.700	0.064	0.147
-169.896	178.303	0.187	0.271
-168.881	76.031	0.061	0.064
-167.866	-105.792	-0.400	0.090
-166.852	-8.387	0.115	-0.077
-165.837	800.000	0.051	-0.211
-164.823	173.712	0.058	-0.083
-163.808	-200.000	-0.004	-0.207
-162.793	800.000	-0.072	-0.251
-161.779	46.661	-0.149	0.137
-160.764	-200.000	-0.052	-0.256
-159.750	-117.544	0.333	-0.060
-158.735	-200.000	-0.020	-0.223
-157.720	800.000	0.052	0.211
-156.706	328.190	-0.249	0.475
-155.691	25.081	-0.088	-0.072
-154.677	204.195	-0.148	-0.227
-153.662	129.938	0.192	-0.243
-152.647	-38.371	-0.135	-0.071
-151.633	-200.000	-0.012	0.058
-150.618	-84.884	0.130	0.041
-149.604	112.547	0.122	-0.146
-148.589	-200.000	-0.043	0.212
-147.574	-91.782	0.243	0.068
-146.560	-200.000	-0.002	0.146
-145.545	800.000	-0.033	0.121
-144.531	-192.334	0.085	0.001
-143.516	-18.623	0.179	-0.111
-142.502	-200.000	-0.009	0.331
-141.487	38.328	0.215	0.190
-140.472	-147.934	-0.256	0.021
-139.458	141.106	-0.145	0.190
-138.443	-65.643	0.182	0.072
-137.429	294.013	0.152	0.275
-136.414	181.585	0.078	-0.114
-135.399	253.192	0.191	-0.322
-134.385	113.863	0.191	0.230
-133.370	-200.000	0.058	0.319
-132.356	22.098	0.179	-0.145
-131.341	800.000	-0.070	0.231
-130.326	-31.162	-0.056	-0.031
-129.312	-71.141	0.088	0.033
-128.297	11.844	-0.212	-0.162
-127.283	754.570	-0.114	0.305
-126.268	89.852	0.159	-0.176
-125.253	-113.549	0.193	0.037
-124.239	16.906	-0.276	0.217
-123.224	-172.073	0.053	0.002
-122.210	232.507	-0.080	-0.130
-121.195	800.000	-0.094	0.335
