DTS Sentinel unit serial number:	SN413079Multiplexer serial number:	ORYXHardware model number:	OX4-SRSoftware version number:	ORYX F/W v4.00 Oryx Data Collector v3.7.2.0data status	okinstallation	princeton_trtdifferential loss correction	single-endedforward channel	channel 1reverse channel	N/Adate	2019/09/15time	03:38:35forward acquisition time	60.00reverse acquisition time	0.00gamma	496.2192k internal	0.2324k external	0.2324temperature offset calibration	0.9989default loss term (dB/km)	0.3790temperature slope calibration	1.0000multiplexer offset coefficient	1.0000multiplexer slope coefficient	1.0000fibre end	0.00T internal ref (°C)	30.98T ext. ref 1 (°C)	4.61T ext. ref 2 (°C)	25.86length (m)	temperature (°C)	Stokes	anti-Stokes-747.200	-5.072	0.083	-0.058
-746.185	-200.000	0.042	-0.327
-745.171	5.514	-0.114	-0.085
-744.156	-200.000	-0.005	-0.262
-743.142	7.045	0.110	0.083
-742.127	74.228	-0.171	0.182
-741.112	-200.000	0.042	-0.187
-740.098	117.783	-0.189	0.235
-739.083	800.000	0.107	-0.301
-738.069	-150.655	0.141	-0.011
-737.054	800.000	0.054	-0.219
-736.039	-32.252	-0.161	0.091
-735.025	289.930	0.143	0.262
-734.010	45.407	-0.198	-0.184
-732.996	600.378	0.043	-0.109
-731.981	-82.117	0.175	0.058
-730.966	-51.976	-0.074	-0.035
-729.952	413.352	0.089	-0.191
-728.937	-117.318	-0.249	0.046
-727.923	51.240	-0.124	-0.119
-726.908	-54.270	-0.090	-0.041
-725.894	-134.074	-0.207	0.026
-724.879	-29.084	-0.119	0.069
-723.864	344.779	0.087	-0.172
-722.850	-66.150	-0.327	-0.132
-721.835	446.240	-0.005	0.012
-720.821	-49.547	-0.115	0.055
-719.806	162.563	0.093	-0.131
-718.791	-83.636	-0.241	0.078
-717.777	-200.000	0.035	0.304
-716.762	-107.725	0.114	-0.025
-715.748	321.265	-0.101	-0.193
-714.733	-182.299	-0.448	-0.008
-713.718	117.860	-0.118	-0.146
-712.704	-87.273	0.269	-0.082
-711.689	-200.000	0.002	0.042
-710.675	-73.825	-0.199	0.073
-709.660	49.682	0.104	-0.099
-708.645	-100.074	-0.168	-0.042
-707.631	54.111	0.110	0.107
-706.616	-19.870	-0.285	-0.177
-705.602	-200.000	0.028	-0.284
-704.587	-80.423	-0.299	-0.101
-703.572	-87.816	0.166	0.050
-702.558	-66.175	0.184	0.074
-701.543	-37.354	-0.138	-0.075
-700.529	102.627	0.144	-0.170
-699.514	-9.388	0.222	0.149
-698.499	236.318	0.173	-0.288
-697.485	169.641	0.104	0.149
-696.470	-11.689	0.087	0.057
-695.456	-27.108	-0.320	0.188
-694.441	63.789	0.046	-0.046
-693.426	373.744	-0.109	0.224
-692.412	136.998	-0.129	-0.170
-691.397	-116.770	-0.227	-0.042
-690.383	-200.000	-0.078	-0.468
-689.368	-200.000	-0.019	-0.135
-688.354	71.029	0.233	-0.243
-687.339	-200.000	-0.010	-0.169
-686.324	-6.517	-0.055	0.038
-685.310	2.162	0.212	-0.154
-684.295	-200.000	-0.000	-0.235
-683.281	138.872	0.079	0.104
-682.266	-174.272	-0.170	0.005
-681.251	-200.000	-0.023	-0.124
-680.237	239.913	0.091	-0.153
-679.222	97.583	0.230	0.266
-678.208	-200.000	0.022	-0.147
-677.193	-21.148	-0.086	0.053
-676.178	800.000	-0.058	-0.252
-675.164	108.370	0.122	0.147
-674.149	-69.377	0.125	-0.048
-673.135	-134.236	-0.417	-0.052
-672.120	592.808	-0.200	0.497
-671.105	-77.308	0.123	0.043
-670.091	30.674	0.228	-0.197
-669.076	-30.897	-0.093	0.053
-668.062	-109.145	-0.339	-0.073
-667.047	3.032	-0.090	0.066
-666.032	518.179	0.130	0.306
-665.018	-200.000	-0.038	0.262
-664.003	-200.000	-0.061	-0.352
-662.989	153.557	-0.080	-0.111
-661.974	43.185	0.128	-0.118
-660.959	-118.915	-0.404	0.071
-659.945	190.732	-0.019	0.029
-658.930	520.406	0.087	-0.206
-657.916	-200.000	0.008	0.103
-656.901	-64.251	-0.206	0.084
-655.886	26.160	0.160	-0.134
-654.872	561.810	-0.118	-0.288
-653.857	-62.444	-0.121	0.051
-652.843	-50.579	-0.159	-0.076
-651.828	57.868	0.175	0.172
-650.814	-70.592	0.098	-0.037
-649.799	289.307	-0.188	0.343
-648.784	665.466	-0.117	-0.303
-647.770	-200.000	0.077	-0.537
-646.755	-68.748	-0.141	-0.055
-645.741	-200.000	0.025	0.226
-644.726	800.000	0.112	0.318
-643.711	-17.634	-0.154	0.097
-642.697	-200.000	-0.015	0.230
-641.682	-165.906	0.146	0.006
-640.668	-23.669	-0.220	0.132
-639.653	-81.905	-0.172	-0.057
-638.638	-96.725	-0.164	0.043
-637.624	800.000	0.020	0.068
-636.609	7.226	0.100	-0.075
-635.595	100.365	0.097	-0.113
-634.580	-91.598	0.334	-0.096
-633.565	-200.000	0.017	0.113
-632.551	-59.876	-0.231	-0.099
-631.536	-94.656	0.270	0.074
-630.522	128.452	-0.137	0.175
-629.507	-120.053	-0.168	0.029
-628.492	-68.848	-0.144	0.056
-627.478	112.447	0.159	-0.194
-626.463	172.236	-0.143	0.207
-625.449	111.253	0.357	-0.432
-624.434	-59.012	-0.104	-0.045
-623.419	-83.895	-0.347	-0.111
-622.405	100.006	-0.114	-0.133
-621.390	-116.365	-0.220	-0.041
-620.376	-115.492	0.163	0.031
-619.361	-158.567	0.229	0.013
-618.346	800.000	-0.081	-0.348
-617.332	259.416	-0.047	-0.081
-616.317	-128.459	-0.177	-0.025
-615.303	56.721	0.237	0.232
-614.288	-200.000	-0.030	0.234
-613.273	-200.000	0.011	0.095
-612.259	140.921	0.205	0.272
-611.244	800.000	0.049	-0.172
-610.230	109.522	-0.149	-0.180
-609.215	15.368	0.135	0.106
-608.201	-99.465	-0.295	-0.075
-607.186	-165.759	-0.269	-0.012
-606.171	200.175	0.249	-0.383
-605.157	-150.462	-0.165	-0.013
-604.142	-8.717	0.192	0.129
-603.128	-103.710	0.290	0.068
-602.113	800.000	0.033	0.122
-601.098	310.410	-0.128	-0.240
-600.084	-9.774	-0.044	0.029
-599.069	800.000	0.020	0.060
-598.055	-200.000	0.063	-0.305
-597.040	-200.000	-0.091	-0.478
-596.025	222.129	-0.242	-0.391
-595.011	-74.485	-0.326	-0.118
-593.996	-140.407	0.296	0.031
-592.982	-30.534	-0.041	0.023
-591.967	-49.841	-0.142	0.068
-590.952	219.808	-0.116	-0.186
-589.938	195.079	-0.124	-0.189
-588.923	481.912	0.119	0.270
-587.909	-75.631	-0.093	-0.033
-586.894	-82.449	0.144	0.047
-585.879	-31.881	0.270	-0.152
-584.865	800.000	0.100	0.331
-583.850	-200.000	0.011	-0.183
-582.836	14.974	-0.220	-0.172
-581.821	-17.898	-0.203	-0.128
-580.806	-157.854	-0.159	-0.009
-579.792	354.967	0.076	-0.151
-578.777	-200.000	0.027	0.171
-577.763	-200.000	-0.004	0.168
-576.748	-52.535	-0.326	0.151
-575.733	358.526	0.143	0.287
-574.719	-128.535	-0.192	0.027
-573.704	-200.000	0.012	0.166
-572.690	-75.163	0.042	0.015
-571.675	800.000	0.057	0.170
-570.661	-74.096	0.169	-0.061
-569.646	-163.120	0.049	0.002
-568.631	-55.898	0.198	0.089
-567.617	248.887	0.124	0.211
-566.602	151.780	-0.173	0.236
-565.588	290.801	-0.095	-0.174
-564.573	800.000	-0.072	-0.305
-563.558	762.483	-0.022	0.060
-562.544	44.882	0.077	-0.071
-561.529	255.547	-0.093	-0.159
-560.515	652.102	0.043	0.110
-559.500	65.225	-0.182	0.185
-558.485	-200.000	-0.004	0.105
-557.471	393.993	0.109	-0.228
-556.456	212.377	-0.159	-0.251
-555.442	61.853	0.115	-0.114
-554.427	112.737	-0.201	0.244
-553.412	-137.321	-0.082	-0.009
-552.398	114.470	-0.193	0.235
-551.383	-61.261	0.114	0.048
-550.369	-11.677	-0.231	0.152
-549.354	-170.272	0.197	0.007
-548.339	-200.000	-0.023	0.170
-547.325	-200.000	-0.035	0.186
-546.310	-53.939	-0.069	0.031
-545.296	-200.000	0.005	-0.035
-544.281	-110.007	0.266	0.056
-543.266	258.908	-0.120	0.208
-542.252	305.910	0.055	0.103
-541.237	219.126	0.081	-0.130
-540.223	800.000	-0.165	-0.634
-539.208	294.198	0.151	-0.276
-538.193	-59.552	-0.262	-0.113
-537.179	-77.041	-0.307	-0.107
-536.164	-200.000	-0.042	-0.372
-535.150	536.209	-0.113	0.269
-534.135	-43.258	-0.194	0.098
-533.121	800.000	0.107	-0.384
-532.106	206.982	0.169	-0.263
-531.091	211.188	0.132	-0.208
-530.077	-200.000	0.014	-0.180
-529.062	-109.242	-0.105	0.022
-528.048	-151.837	0.537	0.039
-527.033	454.832	0.027	-0.061
-526.018	-158.118	-0.300	-0.018
-525.004	141.272	0.243	0.322
-523.989	-81.768	0.251	0.082
-522.975	91.464	0.173	-0.194
-521.960	495.201	0.047	-0.108
-520.945	26.231	-0.114	-0.095
-519.931	-200.000	-0.044	-0.252
-518.916	-200.000	0.005	-0.312
-517.902	-21.689	-0.012	-0.007
-516.887	-115.019	0.394	-0.075
-515.872	-172.650	0.356	0.011
-514.858	152.950	0.141	0.193
-513.843	-120.187	-0.124	-0.021
-512.829	-49.105	0.351	-0.168
-511.814	258.289	0.079	0.136
-510.799	119.386	-0.173	0.215
-509.785	56.686	0.069	-0.067
-508.770	800.000	-0.028	0.113
-507.756	-95.212	-0.158	-0.043
-506.741	-200.000	0.038	0.249
-505.726	-200.000	0.013	-0.093
-504.712	-172.169	0.236	-0.008
-503.697	-200.000	-0.068	0.357
-502.683	-200.000	0.017	0.133
-501.668	113.298	0.257	-0.311
-500.653	-78.745	0.286	-0.098
-499.639	103.327	-0.145	0.170
-498.624	57.653	0.187	-0.183
-497.610	54.643	0.133	-0.128
-496.595	-80.321	-0.159	-0.053
-495.581	480.003	0.071	-0.161
-494.566	-116.371	0.348	0.064
-493.551	-145.615	-0.313	0.028
-492.537	-50.710	0.079	-0.037
-491.522	-200.000	-0.074	-0.418
-490.508	5.660	0.188	-0.139
-489.493	-35.385	-0.176	0.096
-488.478	123.794	-0.116	-0.146
-487.464	101.259	0.113	-0.132
-486.449	229.632	-0.119	0.194
-485.435	337.182	-0.181	-0.352
-484.420	92.684	0.077	-0.087
-483.405	-1.874	-0.092	-0.065
-482.391	-6.838	0.115	-0.078
-481.376	108.916	0.029	0.034
-480.362	26.979	-0.200	-0.168
-479.347	164.793	0.064	-0.091
-478.332	256.955	0.187	0.320
-477.318	-135.308	-0.301	0.036
-476.303	57.314	-0.064	0.062
-475.289	-121.040	0.185	0.031
-474.274	-99.105	0.204	-0.052
-473.259	156.177	0.084	0.116
-472.245	59.991	-0.265	-0.262
-471.230	-73.969	0.111	-0.040
-470.216	28.456	-0.117	-0.099
-469.201	-155.298	-0.061	-0.004
-468.186	66.814	-0.110	0.112
-467.172	630.013	-0.075	-0.191
-466.157	-85.848	0.263	0.081
-465.143	-36.448	0.389	0.209
-464.128	-21.596	-0.145	0.088
-463.113	-72.860	-0.326	0.120
-462.099	-92.132	-0.424	0.120
-461.084	13.002	0.061	-0.047
-460.070	800.000	0.047	0.187
-459.055	63.731	0.096	-0.097
-458.040	180.155	0.208	0.304
-457.026	-51.847	0.178	0.083
-456.011	70.524	-0.199	0.206
-454.997	-50.205	0.457	-0.216
-453.982	-131.449	0.050	-0.007
-452.968	-200.000	-0.002	0.010
-451.953	396.443	0.222	0.463
-450.938	-136.157	-0.349	-0.041
-449.924	223.344	0.132	0.212
-448.909	-102.945	0.302	0.071
-447.895	-200.000	-0.000	0.038
-446.880	558.850	-0.176	-0.423
-445.865	328.429	0.069	0.132
-444.851	-46.001	0.213	0.105
-443.836	247.535	0.108	-0.181
-442.822	196.764	-0.155	0.236
-441.807	-50.009	0.111	-0.052
-440.792	-16.540	0.183	-0.116
-439.778	69.843	0.215	0.221
-438.763	11.551	0.040	-0.031
-437.749	-32.958	0.108	0.060
-436.734	-107.641	0.290	0.063
-435.719	34.304	0.255	-0.222
-434.705	-47.365	-0.186	-0.091
-433.690	226.194	-0.110	0.179
-432.676	-55.058	0.171	0.077
-431.661	107.640	-0.153	-0.181
-430.646	-50.212	0.202	-0.095
-429.632	-36.249	0.274	-0.147
-428.617	595.001	-0.126	0.311
-427.603	244.121	-0.100	0.167
-426.588	-19.014	0.115	0.071
-425.573	203.228	0.203	0.313
-424.559	166.705	-0.073	-0.104
-423.544	-98.392	-0.345	-0.088
-422.530	42.794	0.051	0.046
-421.515	-127.352	-0.176	-0.026
-420.500	800.000	-0.075	-0.296
-419.486	34.904	-0.171	0.149
-418.471	-123.574	0.188	0.030
-417.457	7.755	0.104	-0.078
-416.442	-129.301	0.210	0.029
-415.428	-105.347	-0.172	0.039
-414.413	-147.417	-0.398	0.034
-413.398	-200.000	-0.033	-0.406
-412.384	131.772	0.109	0.140
-411.369	277.870	-0.038	0.067
-410.355	2.081	-0.199	0.143
-409.340	7.521	0.160	-0.119
-408.325	162.117	-0.126	0.176
-407.311	410.401	-0.186	-0.393
-406.296	465.772	0.121	-0.269
-405.282	-125.589	-0.061	-0.009
-404.267	-69.565	0.117	0.044
-403.252	-154.008	0.109	0.007
-402.238	125.379	-0.133	0.167
-401.223	-200.000	-0.039	0.190
-400.209	138.722	0.204	-0.266
-399.194	62.596	0.076	-0.076
-398.179	22.699	0.151	-0.123
-397.165	-200.000	-0.021	-0.323
-396.150	26.646	-0.282	-0.235
-395.136	-53.791	-0.128	0.058
-394.121	770.884	-0.086	-0.232
-393.106	-113.470	-0.265	0.052
-392.092	372.591	0.121	-0.246
-391.077	168.017	-0.070	0.100
-390.063	149.866	0.161	0.217
-389.048	-10.936	0.231	0.152
-388.033	-108.445	0.126	0.027
-387.019	-100.326	0.138	-0.034
-386.004	-110.725	0.226	0.046
-384.990	-41.173	0.073	0.038
-383.975	-200.000	-0.024	-0.170
-382.960	5.464	-0.251	0.184
-381.946	800.000	0.081	-0.225
-380.931	800.000	0.091	-0.335
-379.917	-175.761	0.209	-0.006
-378.902	-51.328	-0.228	0.106
-377.888	663.542	0.092	0.237
-376.873	219.400	-0.106	0.169
-375.858	-136.998	-0.182	0.021
-374.844	-122.065	-0.298	-0.049
-373.829	-155.769	-0.232	0.015
-372.815	800.000	0.072	-0.297
-371.800	-68.971	-0.188	-0.072
-370.785	-16.824	0.126	0.079
-369.771	736.764	-0.141	-0.375
-368.756	506.520	0.054	0.124
-367.742	800.000	0.057	0.202
-366.727	33.682	0.115	-0.099
-365.712	-73.366	0.144	0.052
-364.698	800.000	-0.021	-0.085
-363.683	-19.061	-0.131	0.081
-362.669	111.112	0.262	-0.314
-361.654	-200.000	-0.013	0.264
-360.639	17.675	0.123	0.098
-359.625	-200.000	-0.091	-0.491
-358.610	252.377	0.086	-0.147
-357.596	-16.122	0.139	0.088
-356.581	22.897	-0.103	0.084
-355.566	800.000	0.144	-0.487
-354.552	24.105	-0.092	0.076
-353.537	-45.188	-0.422	-0.208
-352.523	-47.510	-0.266	0.129
-351.508	800.000	-0.065	0.237
-350.493	29.927	-0.375	-0.317
-349.479	-65.636	-0.223	0.089
-348.464	800.000	-0.021	0.073
-347.450	58.478	0.206	-0.201
-346.435	-11.388	-0.160	0.105
-345.420	355.280	0.113	0.223
-344.406	-200.000	-0.009	0.038
-343.391	800.000	-0.054	-0.202
-342.377	212.049	-0.100	0.157
-341.362	59.761	-0.153	0.150
-340.348	52.036	-0.244	0.231
-339.333	-77.777	0.280	-0.096
-338.318	-200.000	-0.066	-0.356
-337.304	800.000	-0.018	0.072
-336.289	-88.713	-0.387	0.114
-335.275	-200.000	0.018	0.138
-334.260	167.718	0.143	0.202
-333.245	112.057	0.225	0.270
-332.231	-200.000	0.000	0.194
-331.216	800.000	-0.063	-0.240
-330.202	736.615	0.120	-0.320
-329.187	-156.701	-0.125	-0.008
-328.172	-200.000	0.014	0.258
-327.158	98.329	-0.224	0.257
-326.143	-70.856	0.184	0.069
-325.129	-200.000	0.058	0.497
-324.114	-200.000	-0.029	0.153
-323.099	29.500	-0.187	0.158
-322.085	-119.203	-0.165	-0.029
-321.070	-111.177	-0.088	0.018
-320.056	130.506	0.100	0.127
-319.041	-200.000	0.000	-0.115
-318.026	-53.256	-0.157	-0.072
-317.012	-64.822	0.251	-0.101
-315.997	-80.701	0.357	-0.118
-314.983	128.315	0.093	-0.117
-313.968	181.532	-0.144	0.211
-312.953	24.808	-0.359	0.295
-311.939	-200.000	0.019	-0.167
-310.924	427.372	0.053	0.114
-309.910	77.099	-0.142	0.150
-308.895	-200.000	-0.031	0.247
-307.880	201.007	0.113	-0.172
-306.866	-109.791	0.260	-0.054
-305.851	91.641	-0.133	-0.148
-304.837	-200.000	-0.014	0.130
-303.822	-200.000	0.008	-0.219
-302.807	62.557	-0.084	0.083
-301.793	-200.000	-0.012	0.063
-300.778	187.272	0.229	0.339
-299.764	61.199	-0.067	-0.066
-298.749	-79.260	0.374	0.126
-297.735	-200.000	-0.018	-0.103
-296.720	-47.140	-0.036	-0.017
-295.705	-100.103	-0.217	-0.054
-294.691	-26.013	-0.444	0.259
-293.676	-82.177	-0.049	0.016
-292.662	-47.345	0.286	-0.138
-291.647	-185.184	-0.413	0.006
-290.632	209.479	0.233	0.362
-289.618	-115.257	0.217	0.041
-288.603	-109.776	-0.268	-0.056
-287.589	73.362	-0.132	-0.137
-286.574	66.778	-0.147	0.149
-285.559	277.412	-0.113	-0.200
-284.545	-200.000	-0.402	0.001
-283.530	-200.000	-0.011	-0.079
-282.516	-200.000	-0.026	0.290
-281.501	-99.989	0.058	-0.014
-280.486	-200.000	0.052	-0.252
-279.472	333.301	0.082	0.156
-278.457	-131.494	0.232	-0.030
-277.443	-108.444	0.271	-0.058
-276.428	-95.777	-0.366	0.097
-275.413	-191.074	-0.085	0.001
-274.399	-77.605	0.352	-0.121
-273.384	85.166	0.044	-0.048
-272.370	-33.429	0.360	0.197
-271.355	800.000	0.040	-0.145
-270.340	150.620	0.242	0.326
-269.326	314.094	0.206	-0.383
-268.311	232.945	-0.009	0.014
-267.297	-57.644	-0.439	-0.191
-266.282	194.132	0.108	-0.162
-265.267	401.554	0.239	0.498
-264.253	-163.581	0.227	-0.011
-263.238	-62.171	-0.170	-0.070
-262.224	-200.000	0.003	0.149
-261.209	-200.000	0.066	-0.365
-260.195	800.000	0.043	-0.118
-259.180	-200.000	0.050	0.405
-258.165	-8.095	0.076	-0.050
-257.151	-65.947	-0.012	-0.005
-256.136	-118.294	0.132	0.023
-255.122	-47.758	0.173	0.083
-254.107	-49.746	-0.200	-0.094
-253.092	78.477	-0.085	0.090
-252.078	-200.000	0.006	0.122
-251.063	-71.670	-0.145	-0.054
-250.049	-119.715	-0.143	-0.024
-249.034	11.943	-0.143	-0.109
-248.019	-200.000	0.018	0.105
-247.005	538.647	0.051	-0.120
-245.990	-108.110	-0.098	-0.021
-244.976	-200.000	-0.007	0.085
-243.961	-200.000	-0.021	-0.213
-242.946	57.582	-0.039	-0.038
-241.932	168.303	0.142	0.200
-240.917	-58.298	0.114	-0.049
-239.903	-200.000	0.015	-0.149
-238.888	-106.992	-0.385	-0.084
-237.873	-101.958	0.404	0.097
-236.859	-47.539	0.087	0.042
-235.844	-22.155	-0.279	-0.167
-234.830	-200.000	0.036	0.225
-233.815	-30.745	0.522	0.292
-232.800	362.934	-0.071	-0.142
-231.786	800.000	-0.037	-0.134
-230.771	-200.000	0.019	0.227
-229.757	-118.769	-0.150	-0.026
-228.742	800.000	-0.112	0.445
-227.727	-31.094	-0.125	-0.070
-226.713	-100.247	0.456	0.112
-225.698	-194.947	-0.183	0.001
-224.684	141.036	-0.139	-0.182
-223.669	215.132	-0.105	0.165
-222.655	-159.347	0.037	0.002
-221.640	8.325	0.272	0.202
-220.625	279.006	-0.022	0.039
-219.611	800.000	0.098	-0.302
-218.596	61.518	0.167	-0.165
-217.582	-27.365	-0.269	0.155
-216.567	800.000	-0.094	0.295
-215.552	36.994	0.188	0.164
-214.538	31.018	-0.209	0.177
-213.523	281.316	-0.090	0.159
-212.509	-129.113	0.565	-0.078
-211.494	-100.144	-0.063	-0.015
-210.479	392.899	0.200	0.411
-209.465	267.742	-0.019	0.032
-208.450	162.717	0.027	0.037
-207.436	-46.712	0.280	0.136
-206.421	-200.000	-0.004	0.177
-205.406	-200.000	-0.010	0.411
-204.392	-200.000	0.111	0.000
-203.377	-56.584	-0.147	0.064
-202.363	-200.000	-0.011	0.266
-201.348	800.000	0.067	-0.227
-200.333	100.724	-0.221	-0.253
-199.319	-200.000	-0.053	-0.316
-198.304	101.554	0.219	-0.252
-197.290	-200.000	-0.007	-0.103
-196.275	-200.000	0.023	-0.312
-195.260	-30.027	-0.094	-0.053
-194.246	-47.368	-0.014	0.007
-193.231	-28.959	-0.157	0.089
-192.217	-200.000	-0.025	0.274
-191.202	46.434	-0.140	0.128
-190.187	-200.000	-0.031	-0.518
-189.173	800.000	0.060	-0.176
-188.158	-73.931	-0.202	0.073
-187.144	77.717	-0.251	0.264
-186.129	-70.896	-0.284	-0.106
-185.114	148.141	-0.258	0.344
-184.100	94.977	0.240	-0.270
-183.085	-149.419	0.049	-0.004
-182.071	-91.002	-0.210	-0.060
-181.056	490.901	0.048	-0.108
-180.042	-89.328	-0.079	-0.023
-179.027	295.833	0.109	0.197
-178.012	250.726	0.085	-0.142
-176.998	-106.169	0.264	0.059
-175.983	457.952	-0.037	0.082
-174.969	81.440	0.085	0.091
-173.954	-191.350	0.031	-0.000
-172.939	67.499	-0.253	-0.255
-171.925	0.545	0.246	-0.174
-170.910	-110.771	-0.057	-0.012
-169.896	-200.000	-0.012	0.198
-168.881	-154.793	0.301	0.020
-167.866	289.231	-0.016	0.029
-166.852	-106.541	-0.338	0.074
-165.837	291.287	-0.079	0.142
-164.823	-200.000	0.027	0.120
-163.808	-68.553	0.253	-0.097
-162.793	-60.995	0.142	0.059
-161.779	-200.000	-0.036	0.481
-160.764	-104.092	-0.251	-0.058
-159.750	-200.000	0.097	-0.441
-158.735	-200.000	0.034	-0.174
-157.720	800.000	0.091	0.347
-156.706	-200.000	-0.001	-0.285
-155.691	294.960	-0.265	0.478
-154.677	51.825	-0.115	-0.108
-153.662	140.554	0.124	-0.162
-152.647	-115.252	-0.288	0.054
-151.633	-159.627	0.122	0.007
-150.618	23.684	0.116	0.094
-149.604	-107.074	0.063	-0.014
-148.589	326.989	0.115	0.218
-147.574	42.226	-0.144	0.129
-146.560	-12.402	0.248	-0.160
-145.545	-92.052	0.269	-0.075
-144.531	356.023	0.225	0.442
-143.516	60.982	-0.115	0.113
-142.502	-102.430	0.258	-0.061
-141.487	38.409	0.227	0.199
-140.472	206.231	-0.106	0.163
-139.458	-101.095	-0.210	0.051
-138.443	37.074	-0.055	0.048
-137.429	-100.751	-0.297	0.072
-136.414	-142.352	0.114	0.011
-135.399	267.412	0.096	0.166
-134.385	247.169	0.147	-0.244
-133.370	-200.000	0.002	-0.175
-132.356	-200.000	-0.002	-0.084
-131.341	72.250	0.287	0.295
-130.326	-2.149	-0.099	0.069
-129.312	-177.112	-0.235	0.006
-128.297	-85.230	-0.240	-0.074
-127.283	-175.325	-0.438	0.012
-126.268	800.000	-0.027	-0.108
-125.253	-59.719	0.145	-0.061
-124.239	800.000	-0.007	0.029
-123.224	800.000	-0.081	-0.224
-122.210	121.370	0.220	0.270
-121.195	279.300	0.070	-0.123
