DTS Sentinel unit serial number:	SN413079Multiplexer serial number:	ORYXHardware model number:	OX4-SRSoftware version number:	ORYX F/W v4.00 Oryx Data Collector v3.7.2.0data status	okinstallation	princeton_trtdifferential loss correction	single-endedforward channel	channel 1reverse channel	N/Adate	2019/09/10time	17:04:11forward acquisition time	60.00reverse acquisition time	0.00gamma	496.2192k internal	0.2299k external	0.2299temperature offset calibration	0.9925default loss term (dB/km)	0.3790temperature slope calibration	1.0000multiplexer offset coefficient	1.0000multiplexer slope coefficient	1.0000fibre end	0.00T internal ref (°C)	37.62T ext. ref 1 (°C)	-0.31T ext. ref 2 (°C)	31.93length (m)	temperature (°C)	Stokes	anti-Stokes-747.200	-151.229	-0.192	0.015
-746.185	54.924	-0.089	0.088
-745.171	800.000	0.025	-0.084
-744.156	-38.032	0.298	0.161
-743.142	-42.594	0.187	0.097
-742.127	-200.000	0.061	0.447
-741.112	-200.000	0.014	-0.195
-740.098	800.000	0.033	0.139
-739.083	-200.000	0.002	0.161
-738.069	-38.614	0.154	0.083
-737.054	59.095	0.066	-0.067
-736.039	-200.000	-0.001	-0.079
-735.025	-200.000	0.042	0.335
-734.010	-4.489	-0.153	-0.108
-732.996	70.823	0.163	-0.172
-731.981	290.596	-0.139	-0.258
-730.966	2.738	-0.189	-0.140
-729.952	-49.086	-0.205	0.100
-728.937	-200.000	0.028	-0.137
-727.923	550.125	-0.087	0.213
-726.908	-164.642	-0.370	0.017
-725.894	-14.973	-0.256	0.168
-724.879	-0.168	-0.096	-0.070
-723.864	800.000	-0.059	0.166
-722.850	-57.999	0.308	-0.137
-721.835	-13.145	-0.095	0.063
-720.821	100.261	0.169	-0.200
-719.806	-119.310	-0.263	-0.047
-718.791	-148.915	-0.240	0.020
-717.777	48.224	-0.221	0.210
-716.762	-200.000	0.035	-0.159
-715.748	-19.660	-0.026	0.016
-714.733	64.575	-0.098	0.101
-713.718	800.000	0.007	0.026
-712.704	-13.964	0.131	0.087
-711.689	-96.245	-0.318	0.086
-710.675	-200.000	-0.002	-0.049
-709.660	-140.886	0.355	-0.037
-708.645	30.393	0.150	-0.130
-707.631	800.000	-0.024	-0.094
-706.616	190.939	0.058	0.089
-705.602	-87.807	0.035	-0.011
-704.587	-200.000	0.016	-0.453
-703.572	-142.225	0.127	-0.013
-702.558	88.988	0.085	-0.096
-701.543	-200.000	-0.020	-0.183
-700.529	224.111	-0.107	-0.176
-699.514	483.898	-0.026	-0.060
-698.499	-200.000	-0.009	-0.564
-697.485	-200.000	0.034	-0.331
-696.470	278.251	0.063	-0.114
-695.456	546.630	-0.142	-0.346
-694.441	24.942	-0.173	-0.146
-693.426	-151.361	0.146	-0.011
-692.412	-14.963	0.415	0.271
-691.397	214.151	-0.152	-0.245
-690.383	-82.375	0.039	0.013
-689.368	-95.793	0.250	0.068
-688.354	-92.056	-0.062	0.018
-687.339	66.850	0.401	0.416
-686.324	-125.557	0.309	0.048
-685.310	-107.148	-0.287	0.064
-684.295	51.210	0.116	0.112
-683.281	359.486	-0.135	-0.275
-682.266	-163.219	-0.013	-0.001
-681.251	670.680	-0.060	-0.159
-680.237	43.636	-0.215	-0.200
-679.222	-81.466	0.359	0.120
-678.208	-148.310	-0.316	-0.026
-677.193	27.937	-0.199	0.170
-676.178	-200.000	-0.027	0.430
-675.164	3.877	0.089	-0.066
-674.149	-161.035	-0.440	-0.023
-673.135	-134.667	-0.287	-0.036
-672.120	-139.354	0.118	-0.013
-671.105	-130.979	0.082	-0.011
-670.091	69.839	0.029	0.030
-669.076	-200.000	0.023	0.123
-668.062	-42.257	0.080	0.042
-667.047	-182.180	-0.106	0.002
-666.032	-46.279	-0.182	-0.091
-665.018	-200.000	-0.315	0.000
-664.003	-146.964	-0.228	0.020
-662.989	232.359	-0.078	-0.130
-661.974	-110.374	-0.136	-0.029
-660.959	211.770	-0.067	0.108
-659.945	380.011	-0.056	-0.117
-658.930	-200.000	-0.062	-0.292
-657.916	-29.527	-0.154	-0.090
-656.901	800.000	-0.097	0.364
-655.886	800.000	-0.034	0.096
-654.872	-111.939	-0.187	0.038
-653.857	-200.000	-0.010	0.208
-652.843	197.569	0.115	0.178
-651.828	133.536	-0.086	0.114
-650.814	-200.000	-0.000	0.138
-649.799	-150.848	0.171	0.013
-648.784	-176.562	0.174	0.005
-647.770	-143.039	0.050	0.005
-646.755	31.598	0.171	-0.150
-645.741	-52.082	0.170	-0.080
-644.726	-69.380	0.127	0.049
-643.711	800.000	-0.036	-0.107
-642.697	-104.490	-0.263	-0.062
-641.682	-200.000	-0.049	0.304
-640.668	281.957	0.043	0.078
-639.653	-32.571	-0.113	0.064
-638.638	800.000	-0.055	-0.156
-637.624	800.000	0.044	-0.135
-636.609	701.923	0.164	-0.440
-635.595	54.048	-0.206	0.201
-634.580	-9.886	0.077	0.052
-633.565	-200.000	-0.017	-0.496
-632.551	800.000	0.039	0.153
-631.536	157.710	0.058	-0.081
-630.522	-43.213	0.259	-0.133
-629.507	-83.853	0.056	-0.018
-628.492	-126.160	0.226	-0.034
-627.478	-171.105	-0.094	0.003
-626.463	737.884	-0.200	-0.544
-625.449	-200.000	-0.019	-0.168
-624.434	800.000	-0.050	-0.210
-623.419	467.631	0.097	0.221
-622.405	-32.004	0.148	-0.084
-621.390	-200.000	0.003	0.262
-620.376	-200.000	0.099	0.448
-619.361	67.561	0.154	0.160
-618.346	65.406	0.047	-0.049
-617.332	-200.000	0.034	0.258
-616.317	498.746	0.028	0.066
-615.303	89.409	0.102	0.115
-614.288	95.095	0.059	-0.068
-613.273	-166.466	0.132	0.006
-612.259	-69.538	-0.175	0.068
-611.244	-200.000	0.067	-0.403
-610.230	315.459	-0.096	-0.184
-609.215	144.416	-0.108	-0.146
-608.201	679.417	-0.027	-0.072
-607.186	-79.827	-0.218	-0.074
-606.171	800.000	-0.010	-0.034
-605.157	-10.169	0.230	-0.155
-604.142	-9.889	0.153	0.103
-603.128	285.278	-0.070	0.129
-602.113	-136.742	-0.289	0.034
-601.098	-200.000	-0.045	0.227
-600.084	-136.143	-0.282	-0.033
-599.069	-88.973	0.271	0.082
-598.055	-200.000	-0.062	0.328
-597.040	-200.000	-0.007	0.092
-596.025	5.388	-0.171	0.128
-595.011	-139.337	0.056	-0.006
-593.996	-200.000	0.010	-0.084
-592.982	-177.425	-0.293	-0.007
-591.967	232.971	-0.088	-0.147
-590.952	-200.000	0.028	-0.319
-589.938	133.405	0.177	-0.232
-588.923	29.238	0.268	-0.231
-587.909	-132.027	0.162	-0.021
-586.894	114.949	0.136	0.168
-585.879	-87.859	0.107	0.033
-584.865	-83.891	0.061	0.020
-583.850	-40.216	-0.225	-0.119
-582.836	800.000	0.083	0.276
-581.821	-99.183	-0.291	0.074
-580.806	-192.180	0.013	0.000
-579.792	-2.851	-0.077	-0.055
-578.777	-130.750	-0.184	-0.025
-577.763	-55.586	0.143	0.065
-576.748	-200.000	-0.038	-0.427
-575.733	537.886	0.096	-0.231
-574.719	-200.000	0.020	-0.329
-573.704	800.000	0.108	-0.344
-572.690	-46.657	0.037	0.018
-571.675	-104.199	0.294	-0.069
-570.661	450.572	-0.078	-0.175
-569.646	133.465	-0.108	0.142
-568.631	-68.321	0.136	-0.053
-567.617	-53.332	-0.177	-0.082
-566.602	336.283	-0.117	-0.231
-565.588	800.000	-0.029	-0.125
-564.573	214.268	0.061	-0.097
-563.558	57.706	0.166	-0.165
-562.544	61.040	-0.188	0.189
-561.529	-156.078	0.256	-0.016
-560.515	-60.299	0.219	0.095
-559.500	-200.000	-0.001	-0.153
-558.485	-88.024	-0.257	0.078
-557.471	800.000	0.104	-0.329
-556.456	-27.663	-0.174	-0.102
-555.442	-23.526	0.141	0.086
-554.427	-145.680	-0.132	-0.012
-553.412	383.201	-0.154	-0.320
-552.398	-6.382	0.197	0.136
-551.383	-200.000	-0.015	0.189
-550.369	-102.165	0.251	-0.061
-549.354	-141.892	-0.032	0.003
-548.339	-114.094	-0.083	0.016
-547.325	363.621	-0.020	0.042
-546.310	-108.552	0.235	0.051
-545.296	120.208	-0.185	-0.232
-544.281	-105.089	-0.220	-0.051
-543.266	29.674	0.315	-0.271
-542.252	-146.893	0.278	0.024
-541.237	34.022	0.067	-0.059
-540.223	-200.000	0.033	-0.234
-539.208	-158.338	0.261	0.015
-538.193	800.000	0.062	0.261
-537.179	-15.587	0.136	-0.088
-536.164	-118.686	-0.176	-0.031
-535.150	265.047	0.084	-0.147
-534.135	19.123	-0.181	0.147
-533.121	-46.859	-0.264	0.131
-532.106	432.429	-0.094	0.205
-531.091	800.000	0.098	-0.336
-530.077	238.099	0.129	-0.217
-529.062	-113.445	0.189	0.038
-528.048	-13.756	-0.278	-0.182
-527.033	800.000	0.056	-0.156
-526.018	149.469	0.095	-0.130
-525.004	-104.657	-0.117	0.027
-523.989	98.810	0.150	-0.176
-522.975	269.690	-0.030	0.053
-521.960	800.000	-0.055	-0.188
-520.945	-200.000	0.001	0.042
-519.931	-96.293	-0.390	-0.105
-518.916	5.094	0.089	-0.066
-517.902	-200.000	0.006	-0.094
-516.887	-165.536	-0.262	0.012
-515.872	-123.010	0.316	-0.051
-514.858	-21.974	0.174	-0.107
-513.843	-72.256	0.465	0.174
-512.829	59.640	-0.058	-0.058
-511.814	-21.830	-0.266	-0.164
-510.799	800.000	-0.055	-0.182
-509.785	115.608	-0.155	0.192
-508.770	254.700	0.019	0.033
-507.756	386.965	-0.185	0.386
-506.741	-200.000	-0.005	0.414
-505.726	-200.000	0.003	-0.077
-504.712	-200.000	-0.002	0.062
-503.697	151.669	-0.126	0.174
-502.683	-167.856	-0.331	0.013
-501.668	-6.102	-0.130	-0.090
-500.653	-46.245	-0.227	-0.113
-499.639	-200.000	0.023	0.200
-498.624	-200.000	-0.006	-0.125
-497.610	-16.489	0.158	0.101
-496.595	-170.093	-0.225	-0.008
-495.581	-61.677	-0.251	0.106
-494.566	-180.613	0.289	-0.006
-493.551	-77.535	0.236	-0.083
-492.537	-57.773	-0.302	0.133
-491.522	800.000	0.059	-0.165
-490.508	461.568	0.079	-0.179
-489.493	172.769	-0.078	-0.114
-488.478	-200.000	0.033	-0.343
-487.464	706.296	-0.063	-0.169
-486.449	18.764	-0.328	0.265
-485.435	245.097	0.155	0.264
-484.420	244.551	-0.115	0.195
-483.405	-200.000	-0.019	-0.360
-482.391	-99.084	0.473	-0.121
-481.376	5.101	-0.290	-0.216
-480.362	-115.075	-0.413	0.079
-479.347	-6.077	0.193	0.133
-478.332	85.877	0.143	0.159
-477.318	572.720	-0.062	-0.154
-476.303	-200.000	0.072	0.455
-475.289	-136.800	-0.099	-0.011
-474.274	266.482	-0.188	0.332
-473.259	-37.727	0.371	-0.200
-472.245	774.540	0.078	0.214
-471.230	-200.000	0.016	0.074
-470.216	-19.995	-0.131	0.082
-469.201	-15.034	-0.140	-0.090
-468.186	290.643	0.235	-0.431
-467.172	-8.772	0.195	-0.132
-466.157	383.844	0.010	-0.020
-465.143	286.664	-0.057	0.104
-464.128	345.183	0.049	-0.097
-463.113	-17.101	0.490	-0.312
-462.099	800.000	-0.007	0.027
-461.084	176.417	0.157	-0.230
-460.070	-200.000	0.001	0.017
-459.055	-65.119	0.112	0.045
-458.040	786.462	0.064	0.178
-457.026	383.535	0.159	0.330
-456.011	800.000	-0.076	0.251
-454.997	-48.709	-0.398	0.193
-453.982	-33.426	0.094	0.053
-452.968	134.281	0.173	-0.226
-451.953	-200.000	0.010	-0.298
-450.938	24.692	-0.141	-0.118
-449.924	800.000	0.079	-0.336
-448.909	259.042	-0.078	-0.136
-447.895	74.769	0.202	0.215
-446.880	-59.215	0.701	-0.305
-445.865	0.966	-0.155	0.112
-444.851	11.973	0.197	-0.152
-443.836	163.888	-0.190	0.269
-442.822	-200.000	0.050	0.223
-441.807	-11.827	-0.074	-0.049
-440.792	257.091	0.102	-0.177
-439.778	3.015	0.166	0.122
-438.763	654.537	-0.027	-0.071
-437.749	26.663	0.177	-0.149
-436.734	-0.606	0.313	0.224
-435.719	-152.300	0.085	0.006
-434.705	400.908	0.140	0.296
-433.690	-70.025	0.085	0.033
-432.676	-200.000	0.010	-0.070
-431.661	-160.254	-0.162	-0.009
-430.646	-193.425	-0.286	0.003
-429.632	-9.867	0.145	-0.097
-428.617	376.363	-0.077	0.158
-427.603	-50.962	-0.332	-0.157
-426.588	-95.792	-0.200	-0.054
-425.573	-122.716	-0.173	-0.028
-424.559	-200.000	0.060	-0.301
-423.544	534.315	-0.029	0.069
-422.530	800.000	0.019	0.058
-421.515	-145.939	-0.243	-0.022
-420.500	285.951	-0.033	-0.059
-419.486	800.000	0.032	-0.138
-418.471	6.668	-0.221	0.166
-417.457	-200.000	0.014	0.353
-416.442	248.779	-0.044	0.074
-415.428	-191.310	-0.254	0.003
-414.413	254.142	0.121	0.209
-413.398	279.880	0.291	0.525
-412.384	800.000	-0.067	-0.218
-411.369	-7.786	-0.259	0.176
-410.355	800.000	0.048	0.157
-409.340	-48.066	-0.242	0.118
-408.325	-200.000	-0.002	0.084
-407.311	800.000	0.097	0.336
-406.296	-200.000	-0.019	0.193
-405.282	475.803	0.099	0.224
-404.267	-200.000	-0.029	-0.141
-403.252	187.673	0.127	0.191
-402.238	247.876	-0.069	-0.117
-401.223	84.703	0.153	-0.169
-400.209	490.526	0.120	0.276
-399.194	-104.140	-0.175	0.041
-398.179	18.916	-0.144	-0.116
-397.165	-200.000	-0.012	0.055
-396.150	-148.801	0.244	0.020
-395.136	-137.580	-0.163	-0.018
-394.121	-200.000	0.044	-0.311
-393.106	-110.004	0.272	0.057
-392.092	-142.689	0.155	0.015
-391.077	-165.200	-0.045	-0.002
-390.063	156.368	0.108	-0.149
-389.048	800.000	-0.025	-0.103
-388.033	225.960	-0.074	0.121
-387.019	84.072	0.188	-0.207
-386.004	280.692	0.052	0.093
-384.990	-200.000	-0.007	0.077
-383.975	800.000	-0.072	-0.213
-382.960	800.000	-0.015	0.045
-381.946	661.152	-0.094	0.242
-380.931	-32.799	-0.193	0.108
-379.917	-40.146	0.083	-0.044
-378.902	101.767	-0.089	0.105
-377.888	86.714	-0.084	0.093
-376.873	-200.000	0.021	0.390
-375.858	224.423	0.185	0.300
-374.844	-200.000	0.004	0.026
-373.829	151.066	-0.145	0.199
-372.815	800.000	0.030	0.115
-371.800	800.000	0.044	0.162
-370.785	-200.000	-0.046	-0.307
-369.771	-27.238	-0.185	0.108
-368.756	-102.653	0.141	0.034
-367.742	782.515	-0.019	0.053
-366.727	-32.332	0.225	0.126
-365.712	88.098	0.228	0.255
-364.698	211.566	0.159	0.252
-363.683	-29.155	-0.084	0.048
-362.669	-200.000	-0.019	0.278
-361.654	447.830	-0.096	0.212
-360.639	-200.000	0.006	0.081
-359.625	800.000	0.019	-0.056
-358.610	62.063	-0.080	0.080
-357.596	-200.000	0.039	0.352
-356.581	212.374	0.026	0.041
-355.566	-145.907	0.246	0.022
-354.552	-200.000	0.047	-0.268
-353.537	-92.805	-0.253	-0.071
-352.523	-39.302	0.366	0.193
-351.508	-200.000	-0.040	-0.338
-350.493	800.000	-0.099	-0.352
-349.479	-12.270	-0.087	-0.057
-348.464	-26.495	0.170	0.100
-347.450	-69.881	-0.360	0.138
-346.435	78.076	0.136	-0.146
-345.420	268.380	-0.194	-0.342
-344.406	222.720	-0.095	-0.153
-343.391	377.114	0.100	0.205
-342.377	-200.000	-0.008	-0.066
-341.362	-200.000	-0.012	-0.214
-340.348	-61.304	0.405	-0.171
-339.333	-18.032	-0.288	-0.181
-338.318	-13.624	-0.249	0.162
-337.304	54.879	0.027	0.026
-336.289	156.455	-0.095	0.131
-335.275	-115.351	-0.470	-0.089
-334.260	-54.318	-0.160	-0.073
-333.245	-75.931	-0.061	0.022
-332.231	45.702	-0.382	-0.354
-331.216	800.000	-0.101	-0.390
-330.202	386.049	0.205	-0.426
-329.187	-71.615	-0.091	0.034
-328.172	31.896	0.287	-0.248
-327.158	-144.000	0.221	-0.021
-326.143	-200.000	-0.030	-0.278
-325.129	-200.000	-0.030	-0.310
-324.114	108.011	0.184	0.220
-323.099	225.659	-0.029	-0.047
-322.085	-74.693	0.185	0.067
-321.070	-134.030	0.197	-0.025
-320.056	78.604	-0.137	-0.147
-319.041	-78.092	0.430	0.149
-318.026	-151.626	-0.215	-0.016
-317.012	36.945	-0.046	-0.040
-315.997	-88.378	-0.299	0.090
-314.983	-122.296	0.050	-0.008
-313.968	25.836	-0.251	-0.210
-312.953	77.606	-0.062	-0.066
-311.939	-2.032	-0.119	-0.084
-310.924	48.159	0.123	-0.116
-309.910	-200.000	0.028	-0.132
-308.895	-130.674	-0.213	0.029
-307.880	-29.097	0.256	-0.147
-306.866	-200.000	-0.022	-0.255
-305.851	-200.000	-0.006	0.125
-304.837	-35.897	0.141	0.077
-303.822	800.000	-0.029	0.124
-302.807	-186.607	-0.221	-0.003
-301.793	-32.567	0.093	-0.052
-300.778	713.823	-0.069	0.185
-299.764	348.233	-0.061	-0.121
-298.749	-200.000	0.025	0.316
-297.735	537.301	-0.016	0.037
-296.720	-200.000	-0.029	0.181
-295.705	151.404	-0.118	-0.160
-294.691	-110.653	-0.174	0.036
-293.676	724.076	-0.118	-0.314
-292.662	156.434	-0.212	0.293
-291.647	-200.000	-0.057	0.359
-290.632	-61.340	0.328	-0.139
-289.618	-200.000	0.013	0.228
-288.603	675.568	-0.163	0.424
-287.589	486.709	0.105	0.240
-286.574	134.935	0.208	-0.271
-285.559	-82.636	0.039	0.013
-284.545	643.284	-0.090	-0.230
-283.530	-62.694	0.395	0.164
-282.516	69.029	0.231	0.238
-281.501	-116.614	-0.308	0.057
-280.486	36.330	-0.104	0.092
-279.472	-106.267	0.242	0.054
-278.457	201.548	0.067	0.104
-277.443	-35.224	0.114	0.062
-276.428	800.000	-0.016	-0.063
-275.413	-200.000	0.002	-0.126
-274.399	-44.267	0.062	-0.031
-273.384	-8.970	-0.314	0.211
-272.370	-55.938	-0.320	-0.143
-271.355	-65.431	-0.082	0.033
-270.340	-10.048	-0.083	0.056
-269.326	30.375	-0.299	-0.256
-268.311	-65.456	-0.062	0.025
-267.297	15.456	-0.188	0.148
-266.282	-200.000	-0.024	0.340
-265.267	519.109	0.031	-0.073
-264.253	800.000	-0.052	0.145
-263.238	237.344	0.144	0.239
-262.224	-26.044	-0.345	0.203
-261.209	191.850	0.258	0.390
-260.195	58.921	0.168	0.166
-259.180	-200.000	0.035	-0.172
-258.165	509.896	-0.169	0.393
-257.151	800.000	0.047	0.134
-256.136	-174.525	0.307	-0.009
-255.122	198.753	-0.141	0.216
-254.107	49.141	0.011	0.011
-253.092	11.553	-0.130	-0.100
-252.078	-10.033	-0.313	0.208
-251.063	43.106	-0.127	-0.116
-250.049	216.175	-0.169	-0.269
-249.034	103.287	-0.117	0.138
-248.019	519.728	-0.096	-0.225
-247.005	-42.035	0.142	0.073
-245.990	319.025	0.105	0.199
-244.976	252.428	0.143	0.243
-243.961	120.120	-0.138	0.171
-242.946	175.552	-0.122	0.177
-241.932	-2.633	-0.317	0.222
-240.917	-150.629	-0.086	-0.007
-239.903	105.924	0.118	-0.140
-238.888	800.000	0.050	-0.187
-237.873	91.977	-0.118	0.133
-236.859	41.703	-0.160	-0.145
-235.844	-49.140	-0.211	-0.101
-234.830	-129.691	0.212	0.029
-233.815	-134.345	-0.375	-0.046
-232.800	-104.310	-0.066	0.015
-231.786	308.499	0.181	-0.338
-230.771	105.472	0.127	0.150
-229.757	800.000	-0.101	-0.321
-228.742	74.716	0.178	-0.187
-227.727	-57.962	-0.155	0.068
-226.713	62.800	-0.094	0.094
-225.698	65.366	-0.170	0.172
-224.684	35.823	-0.097	0.085
-223.669	-200.000	0.056	0.569
-222.655	-104.652	-0.252	-0.058
-221.640	-200.000	-0.002	-0.173
-220.625	-135.826	0.090	-0.011
-219.611	-112.954	-0.053	-0.011
-218.596	418.589	-0.061	-0.131
-217.582	-114.562	-0.096	-0.018
-216.567	59.784	-0.276	0.272
-215.552	-200.000	-0.020	0.187
-214.538	-103.036	0.299	0.071
-213.523	99.390	-0.107	-0.124
-212.509	-25.839	-0.501	-0.295
-211.494	-200.000	0.041	-0.214
-210.479	-126.220	-0.120	-0.018
-209.465	29.229	0.232	-0.197
-208.450	-165.559	0.166	0.007
-207.436	626.701	-0.055	0.140
-206.421	90.331	0.310	-0.346
-205.406	105.564	0.229	-0.270
-204.392	-101.337	-0.333	0.081
-203.377	-200.000	-0.027	-0.128
-202.363	195.001	0.068	0.103
-201.348	-200.000	-0.003	-0.175
-200.333	-200.000	0.082	-0.379
-199.319	-169.487	0.358	0.013
-198.304	-146.598	0.140	0.012
-197.290	800.000	0.101	-0.380
-196.275	254.035	0.129	-0.220
-195.260	-200.000	0.023	-0.133
-194.246	800.000	0.030	0.108
-193.231	800.000	-0.032	0.119
-192.217	-61.595	0.139	0.058
-191.202	15.339	-0.309	0.242
-190.187	-200.000	-0.039	0.205
-189.173	-16.226	0.348	0.221
-188.158	-4.158	-0.476	0.329
-187.144	-200.000	0.064	0.374
-186.129	-120.961	-0.400	-0.067
-185.114	-124.091	0.113	0.018
-184.100	105.525	0.253	0.298
-183.085	-200.000	0.012	0.368
-182.071	-39.434	-0.227	-0.119
-181.056	800.000	0.032	-0.138
-180.042	-141.100	0.392	0.040
-179.027	-200.000	-0.009	0.095
-178.012	208.903	0.050	0.079
-176.998	291.541	0.064	0.116
-175.983	-200.000	0.009	0.190
-174.969	-66.805	0.373	0.147
-173.954	800.000	0.045	-0.159
-172.939	800.000	-0.038	-0.124
-171.925	-31.938	-0.235	0.131
-170.910	-200.000	0.021	0.116
-169.896	558.833	-0.062	-0.150
-168.881	518.508	-0.124	-0.290
-167.866	-97.448	0.290	-0.075
-166.852	-122.695	-0.042	-0.007
-165.837	-200.000	0.005	0.159
-164.823	39.440	0.333	-0.297
-163.808	290.598	0.138	0.249
-162.793	-18.825	0.077	-0.048
-161.779	36.809	0.289	0.254
-160.764	-44.284	0.110	-0.055
-159.750	-200.000	-0.095	-0.443
-158.735	125.798	-0.153	0.193
-157.720	800.000	0.033	-0.101
-156.706	332.038	0.078	-0.150
-155.691	-50.648	-0.043	-0.020
-154.677	-32.387	-0.287	-0.160
-153.662	-200.000	0.015	0.193
-152.647	-200.000	-0.021	0.292
-151.633	306.355	0.070	0.129
-150.618	-82.912	0.278	-0.089
-149.604	-134.503	0.170	-0.021
-148.589	13.678	-0.365	0.282
-147.574	435.079	-0.062	-0.134
-146.560	-138.429	0.084	0.009
-145.545	80.084	-0.130	-0.140
-144.531	41.954	-0.251	-0.227
-143.516	114.201	-0.038	-0.047
-142.502	-86.672	0.337	0.103
-141.487	-142.993	0.353	0.034
-140.472	-59.690	0.379	-0.162
-139.458	153.526	-0.147	-0.201
-138.443	56.947	0.198	0.193
-137.429	-41.109	0.090	0.046
-136.414	388.361	0.087	-0.179
-135.399	800.000	-0.092	0.272
-134.385	47.943	0.027	0.025
-133.370	800.000	-0.105	0.368
-132.356	-43.637	-0.280	0.141
-131.341	-169.576	0.179	0.006
-130.326	-94.755	-0.071	-0.019
-129.312	-130.391	0.110	0.015
-128.297	11.050	-0.106	-0.080
-127.283	-46.544	-0.216	0.105
-126.268	134.968	-0.231	-0.299
-125.253	-200.000	0.030	0.144
-124.239	-77.616	0.572	0.197
-123.224	-200.000	-0.000	0.029
-122.210	116.554	-0.099	0.121
