DTS Sentinel unit serial number:	SN413079Multiplexer serial number:	ORYXHardware model number:	OX4-SRSoftware version number:	ORYX F/W v4.00 Oryx Data Collector v3.7.2.0data status	okinstallation	princeton_trtdifferential loss correction	single-endedforward channel	channel 1reverse channel	N/Adate	2019/09/18time	20:42:35forward acquisition time	60.00reverse acquisition time	0.00gamma	496.2192k internal	0.2338k external	0.2338temperature offset calibration	1.0025default loss term (dB/km)	0.3790temperature slope calibration	1.0000multiplexer offset coefficient	1.0000multiplexer slope coefficient	1.0000fibre end	0.00T internal ref (°C)	27.52T ext. ref 1 (°C)	0.96T ext. ref 2 (°C)	18.64length (m)	temperature (°C)	Stokes	anti-Stokes-747.200	196.541	-0.327	-0.500
-746.185	436.457	-0.078	0.170
-745.171	-107.143	0.203	0.045
-744.156	-128.237	-0.223	-0.032
-743.142	101.294	0.128	-0.149
-742.127	-109.691	0.135	0.028
-741.112	-79.252	-0.078	-0.026
-740.098	718.520	-0.129	-0.345
-739.083	403.017	-0.102	-0.215
-738.069	-7.759	0.090	0.061
-737.054	65.022	-0.310	0.314
-736.039	35.664	-0.174	0.153
-735.025	-48.615	-0.099	-0.048
-734.010	30.767	-0.086	0.074
-732.996	800.000	-0.082	-0.263
-731.981	-64.422	-0.313	-0.127
-730.966	-196.757	-0.280	-0.002
-729.952	-34.130	-0.087	0.048
-728.937	-78.771	0.065	-0.022
-727.923	-123.403	-0.220	-0.035
-726.908	107.591	-0.305	-0.364
-725.894	-182.088	0.261	-0.005
-724.879	26.460	0.160	0.134
-723.864	332.076	-0.053	0.103
-722.850	800.000	0.087	-0.282
-721.835	-200.000	0.048	-0.338
-720.821	800.000	-0.083	-0.321
-719.806	709.509	-0.097	-0.258
-718.791	381.915	-0.094	-0.195
-717.777	-200.000	0.033	-0.404
-716.762	-151.947	-0.070	0.005
-715.748	-200.000	-0.037	0.587
-714.733	366.358	-0.067	-0.136
-713.718	515.930	-0.076	-0.178
-712.704	48.602	0.216	0.203
-711.689	800.000	0.044	-0.150
-710.675	95.318	0.239	-0.273
-709.660	-145.918	-0.346	0.031
-708.645	453.953	0.059	0.132
-707.631	-32.862	0.278	-0.155
-706.616	455.492	-0.031	-0.069
-705.602	99.946	-0.269	-0.312
-704.587	60.091	-0.204	-0.202
-703.572	-118.957	-0.437	-0.077
-702.558	800.000	-0.037	-0.119
-701.543	-66.472	0.330	0.131
-700.529	-200.000	-0.006	0.472
-699.514	-17.792	-0.121	0.076
-698.499	-133.740	-0.022	0.003
-697.485	800.000	-0.030	0.130
-696.470	-200.000	-0.025	-0.150
-695.456	489.573	-0.076	0.175
-694.441	10.119	0.307	0.234
-693.426	-200.000	0.026	-0.143
-692.412	-46.082	-0.233	-0.115
-691.397	-48.397	-0.144	-0.069
-690.383	655.456	0.078	0.202
-689.368	-167.061	-0.401	-0.016
-688.354	-200.000	0.013	-0.190
-687.339	-133.736	0.194	0.024
-686.324	-35.918	-0.125	0.068
-685.310	-200.000	-0.036	0.296
-684.295	430.131	-0.154	0.333
-683.281	49.607	-0.085	0.080
-682.266	800.000	-0.034	-0.105
-681.251	-182.930	0.142	-0.003
-680.237	-200.000	-0.044	-0.338
-679.222	100.903	0.105	-0.122
-678.208	-57.985	0.104	-0.045
-677.193	-129.301	-0.297	-0.041
-676.178	-72.431	0.052	-0.019
-675.164	335.982	0.137	0.265
-674.149	297.154	0.130	-0.238
-673.135	73.773	0.395	-0.415
-672.120	166.341	0.066	-0.093
-671.105	117.463	0.030	0.037
-670.091	5.158	-0.057	0.042
-669.076	61.674	0.113	-0.112
-668.062	-200.000	-0.060	0.316
-667.047	-53.193	-0.159	-0.073
-666.032	47.334	-0.223	-0.208
-665.018	-200.000	-0.002	0.175
-664.003	-200.000	0.063	0.315
-662.989	-112.618	-0.309	0.061
-661.974	-200.000	-0.055	-0.275
-660.959	800.000	-0.042	0.184
-659.945	152.355	0.127	0.173
-658.930	136.329	0.323	-0.421
-657.916	9.053	-0.251	0.190
-656.901	34.271	0.099	-0.086
-655.886	563.666	-0.121	0.292
-654.872	-50.326	-0.352	-0.166
-653.857	-132.269	-0.256	-0.033
-652.843	-200.000	-0.010	-0.467
-651.828	4.037	-0.235	0.172
-650.814	-200.000	0.018	0.172
-649.799	-162.864	-0.285	0.014
-648.784	-32.731	-0.090	-0.050
-647.770	800.000	0.038	-0.129
-646.755	23.396	0.110	0.091
-645.741	-200.000	0.011	-0.129
-644.726	202.648	-0.092	-0.142
-643.711	5.338	-0.127	0.094
-642.697	106.839	-0.176	0.208
-641.682	-14.026	0.231	-0.149
-640.668	637.500	-0.018	-0.045
-639.653	-200.000	0.028	0.177
-638.638	800.000	-0.029	0.088
-637.624	-200.000	0.000	0.123
-636.609	-179.718	0.446	0.010
-635.595	-3.865	0.129	-0.090
-634.580	214.342	0.059	0.093
-633.565	-145.898	0.183	0.016
-632.551	171.130	0.098	-0.140
-631.536	109.728	0.156	0.187
-630.522	-52.171	-0.120	0.055
-629.507	-200.000	-0.024	0.233
-628.492	-200.000	0.102	-0.506
-627.478	143.961	0.143	-0.191
-626.463	27.638	0.190	-0.160
-625.449	27.648	-0.250	0.210
-624.434	800.000	-0.045	-0.151
-623.419	-200.000	0.050	-0.437
-622.405	466.945	-0.057	-0.129
-621.390	-8.544	0.163	0.109
-620.376	-138.620	0.095	-0.010
-619.361	800.000	0.023	0.093
-618.346	-80.397	0.282	0.094
-617.332	539.674	-0.082	0.196
-616.317	-200.000	-0.003	-0.264
-615.303	0.184	0.059	-0.042
-614.288	800.000	-0.175	0.542
-613.273	800.000	-0.084	0.258
-612.259	121.014	0.125	-0.155
-611.244	-200.000	-0.049	-0.247
-610.230	200.155	0.223	0.342
-609.215	-141.107	0.410	0.042
-608.201	29.007	0.130	-0.110
-607.186	-22.333	0.110	0.066
-606.171	-48.809	0.205	0.098
-605.157	-10.059	-0.216	0.143
-604.142	208.521	-0.085	-0.133
-603.128	-200.000	-0.024	0.126
-602.113	-200.000	-0.024	-0.180
-601.098	-122.146	-0.264	-0.043
-600.084	-200.000	-0.004	0.101
-599.069	25.847	0.069	0.058
-598.055	-90.216	-0.300	-0.087
-597.040	-86.801	0.232	-0.071
-596.025	188.209	-0.157	0.234
-595.011	337.709	-0.078	0.151
-593.996	-47.994	-0.185	0.089
-592.982	-55.717	0.065	0.029
-591.967	14.839	0.152	-0.119
-590.952	-200.000	0.037	-0.189
-589.938	99.526	0.097	0.112
-588.923	312.633	-0.139	-0.260
-587.909	-19.902	-0.086	-0.053
-586.894	-200.000	-0.008	0.249
-585.879	281.056	-0.157	-0.281
-584.865	-200.000	-0.016	-0.173
-583.850	105.888	-0.172	-0.202
-582.836	1.804	0.248	-0.178
-581.821	579.039	0.074	-0.181
-580.806	-7.254	0.101	-0.068
-579.792	-84.283	0.247	0.078
-578.777	-161.150	-0.176	0.009
-577.763	-200.000	0.090	-0.436
-576.748	395.378	0.076	-0.158
-575.733	-143.921	-0.088	0.008
-574.719	-120.501	-0.225	-0.038
-573.704	485.082	0.095	-0.216
-572.690	144.698	-0.108	0.143
-571.675	-200.000	-0.013	-0.160
-570.661	-200.000	-0.023	0.119
-569.646	-138.133	0.071	0.008
-568.631	29.842	0.227	-0.192
-567.617	-40.358	0.129	0.067
-566.602	100.769	-0.083	0.096
-565.588	800.000	-0.026	0.100
-564.573	-150.495	-0.293	0.022
-563.558	206.167	0.145	-0.225
-562.544	-63.438	0.228	-0.093
-561.529	123.541	0.346	-0.433
-560.515	509.463	0.179	0.415
-559.500	-180.247	-0.250	-0.005
-558.485	-200.000	0.015	0.068
-557.471	-200.000	-0.028	-0.440
-556.456	225.940	-0.082	-0.133
-555.442	800.000	-0.034	-0.132
-554.427	4.295	-0.197	0.144
-553.412	-54.091	-0.196	0.089
-552.398	-200.000	-0.010	0.044
-551.383	161.990	-0.067	-0.093
-550.369	-200.000	-0.018	-0.082
-549.354	800.000	0.123	0.446
-548.339	-8.886	-0.135	0.090
-547.325	-200.000	0.013	-0.110
-546.310	-8.881	0.152	-0.101
-545.296	-39.610	-0.317	0.165
-544.281	33.289	-0.320	-0.277
-543.266	473.360	-0.047	-0.105
-542.252	167.629	0.049	-0.069
-541.237	-134.396	-0.207	0.025
-540.223	-51.783	0.234	0.109
-539.208	206.533	0.181	0.280
-538.193	2.608	-0.112	-0.081
-537.179	77.990	0.214	0.228
-536.164	-102.935	0.201	0.047
-535.150	256.283	0.046	0.079
-534.135	-17.221	0.145	0.091
-533.121	126.906	-0.153	0.192
-532.106	-186.095	0.300	0.004
-531.091	272.395	-0.247	-0.434
-530.077	-200.000	-0.007	-0.377
-529.062	-157.294	0.383	-0.023
-528.048	-90.360	-0.283	-0.082
-527.033	-159.855	-0.360	-0.020
-526.018	-91.342	-0.129	0.037
-525.004	-179.752	0.275	0.006
-523.989	-101.784	0.118	-0.028
-522.975	-109.964	-0.237	-0.049
-521.960	-130.867	0.227	0.030
-520.945	215.892	-0.088	0.139
-519.931	-50.697	0.208	-0.098
-518.916	-200.000	0.044	0.461
-517.902	-200.000	0.011	-0.149
-516.887	644.121	0.084	0.214
-515.872	83.422	-0.312	-0.338
-514.858	168.642	-0.047	0.066
-513.843	-130.979	-0.158	0.021
-512.829	-68.435	-0.257	-0.099
-511.814	800.000	0.110	0.318
-510.799	-176.649	0.141	-0.004
-509.785	-150.741	-0.093	0.007
-508.770	588.748	0.065	-0.160
-507.756	-47.245	-0.260	0.126
-506.741	-200.000	-0.027	0.179
-505.726	19.058	-0.168	-0.134
-504.712	-33.565	-0.196	0.108
-503.697	239.706	0.146	-0.241
-502.683	-66.975	-0.341	-0.134
-501.668	-40.005	-0.239	-0.124
-500.653	-200.000	0.015	-0.173
-499.639	305.043	-0.076	-0.140
-498.624	-200.000	-0.001	0.180
-497.610	73.009	0.103	0.107
-496.595	299.993	-0.137	0.251
-495.581	-81.516	0.193	-0.063
-494.566	800.000	-0.040	-0.128
-493.551	618.284	0.089	-0.222
-492.537	-45.737	0.106	0.052
-491.522	-200.000	-0.061	0.280
-490.508	-200.000	0.009	-0.222
-489.493	746.415	-0.089	-0.239
-488.478	39.007	-0.140	0.124
-487.464	-147.088	-0.448	0.038
-486.449	4.078	0.071	-0.051
-485.435	800.000	-0.028	-0.078
-484.420	527.573	-0.126	-0.295
-483.405	-124.565	-0.159	-0.025
-482.391	442.435	-0.103	-0.225
-481.376	800.000	-0.092	-0.346
-480.362	-116.064	0.038	0.007
-479.347	-183.171	-0.140	-0.002
-478.332	-59.846	0.114	-0.048
-477.318	26.729	0.101	0.084
-476.303	446.142	0.052	0.114
-475.289	800.000	-0.117	-0.395
-474.274	371.296	-0.069	0.140
-473.259	-35.351	0.075	-0.040
-472.245	-200.000	0.008	-0.235
-471.230	-72.878	-0.286	0.105
-470.216	253.060	0.028	-0.048
-469.201	9.876	0.045	-0.034
-468.186	242.997	-0.099	-0.164
-467.172	-160.034	-0.202	-0.011
-466.157	55.357	-0.033	0.031
-465.143	800.000	-0.025	-0.095
-464.128	99.192	0.063	-0.073
-463.113	384.971	0.076	-0.156
-462.099	-80.473	0.166	0.055
-461.084	-200.000	-0.018	-0.236
-460.070	800.000	0.029	0.082
-459.055	-200.000	-0.003	0.017
-458.040	800.000	0.058	0.244
-457.026	50.686	-0.177	0.166
-456.011	196.810	-0.191	-0.289
-454.997	-157.544	0.026	-0.002
-453.982	800.000	-0.115	0.317
-452.968	-135.285	-0.277	-0.033
-451.953	154.986	0.106	0.144
-450.938	51.224	-0.166	-0.156
-449.924	-200.000	0.001	-0.274
-448.909	-24.766	0.066	0.039
-447.895	-200.000	-0.021	-0.173
-446.880	457.804	-0.157	-0.346
-445.865	-200.000	0.062	-0.390
-444.851	-118.028	0.377	0.067
-443.836	-178.512	-0.115	0.003
-442.822	-92.635	0.110	0.031
-441.807	289.678	-0.106	0.191
-440.792	-120.793	-0.036	0.006
-439.778	-149.258	0.359	-0.028
-438.763	-9.081	0.221	-0.147
-437.749	-6.184	-0.425	-0.288
-436.734	-200.000	-0.000	-0.005
-435.719	-143.292	-0.222	-0.021
-434.705	-66.728	0.148	-0.058
-433.690	109.606	0.155	0.184
-432.676	670.034	-0.062	-0.159
-431.661	-121.084	-0.183	-0.030
-430.646	800.000	0.142	0.391
-429.632	-95.861	-0.238	-0.063
-428.617	-100.545	0.543	0.133
-427.603	800.000	-0.095	-0.286
-426.588	71.638	0.113	-0.117
-425.573	-103.716	-0.229	-0.053
-424.559	-14.119	0.420	0.269
-423.544	440.840	0.148	-0.321
-422.530	-14.713	0.222	-0.141
-421.515	-52.063	0.122	0.056
-420.500	-131.823	-0.200	0.026
-419.486	523.396	0.049	-0.114
-418.471	-27.459	0.082	-0.047
-417.457	322.644	0.165	0.310
-416.442	72.744	0.156	0.161
-415.428	-156.221	-0.019	0.001
-414.413	-86.114	-0.049	0.015
-413.398	226.883	0.126	-0.203
-412.384	-99.000	0.346	0.087
-411.369	64.372	-0.027	-0.027
-410.355	13.628	-0.213	-0.164
-409.340	-200.000	0.042	0.321
-408.325	130.997	-0.089	0.113
-407.311	458.187	0.136	0.299
-406.296	800.000	0.095	-0.307
-405.282	-200.000	-0.012	-0.086
-404.267	174.641	-0.179	0.256
-403.252	800.000	0.020	-0.078
-402.238	800.000	0.031	-0.101
-401.223	193.588	0.030	-0.045
-400.209	-30.065	-0.094	-0.053
-399.194	8.092	0.123	-0.092
-398.179	-200.000	0.038	-0.274
-397.165	252.694	0.153	0.258
-396.150	-147.845	0.060	0.005
-395.136	-92.283	-0.258	0.072
-394.121	272.325	0.020	0.035
-393.106	-200.000	0.002	-0.275
-392.092	-93.274	-0.269	0.074
-391.077	-200.000	0.007	0.231
-390.063	60.344	0.239	0.234
-389.048	285.906	-0.071	0.126
-388.033	110.053	0.030	-0.035
-387.019	-200.000	0.007	-0.335
-386.004	24.916	0.169	-0.139
-384.990	118.337	-0.084	0.102
-383.975	-200.000	0.012	0.236
-382.960	-56.818	0.486	0.213
-381.946	87.262	-0.094	-0.103
-380.931	-19.824	0.293	-0.179
-379.917	315.881	0.129	-0.240
-378.902	-109.376	0.352	-0.074
-377.888	800.000	0.057	-0.191
-376.873	-130.764	-0.275	0.037
-375.858	-169.422	0.076	-0.003
-374.844	-1.990	-0.128	0.089
-373.829	292.389	-0.123	-0.222
-372.815	-105.804	-0.296	0.066
-371.800	67.178	-0.119	0.120
-370.785	44.177	0.154	-0.139
-369.771	-200.000	0.020	0.300
-368.756	-200.000	-0.045	0.244
-367.742	-200.000	-0.026	-0.198
-366.727	-200.000	0.001	0.025
-365.712	122.596	-0.148	0.183
-364.698	-53.924	0.280	0.126
-363.683	-158.217	-0.197	-0.011
-362.669	437.389	-0.173	-0.373
-361.654	-200.000	-0.028	-0.300
-360.639	-14.595	-0.049	-0.031
-359.625	800.000	0.078	0.287
-358.610	-51.129	0.184	0.085
-357.596	-37.451	-0.133	0.070
-356.581	-200.000	-0.002	0.151
-355.566	-42.993	0.219	0.110
-354.552	346.277	0.075	-0.146
-353.537	-72.625	-0.186	0.068
-352.523	-133.290	-0.144	0.018
-351.508	-200.000	0.017	0.275
-350.493	-182.102	-0.169	-0.003
-349.479	209.474	-0.152	0.236
-348.464	-200.000	0.010	-0.317
-347.450	322.757	-0.158	-0.298
-346.435	-200.000	-0.013	0.277
-345.420	-19.025	0.118	0.073
-344.406	263.232	0.097	-0.167
-343.391	800.000	-0.083	-0.240
-342.377	-53.368	0.152	-0.069
-341.362	165.580	-0.113	0.158
-340.348	609.572	-0.074	0.183
-339.333	65.331	-0.199	0.199
-338.318	800.000	0.085	0.278
-337.304	181.435	-0.187	0.272
-336.289	-13.187	-0.204	-0.131
-335.275	71.728	0.218	-0.224
-334.260	113.591	0.050	-0.060
-333.245	62.476	-0.005	0.005
-332.231	-136.051	0.257	0.030
-331.216	800.000	0.109	0.419
-330.202	-165.136	-0.207	0.009
-329.187	-2.924	-0.144	0.099
-328.172	-200.000	0.041	0.236
-327.158	800.000	-0.081	-0.239
-326.143	264.949	-0.175	0.300
-325.129	800.000	0.013	0.039
-324.114	65.034	0.060	-0.060
-323.099	-172.192	0.321	0.010
-322.085	-109.129	0.290	-0.061
-321.070	-200.000	0.016	-0.259
-320.056	-175.731	0.225	-0.006
-319.041	24.392	0.027	0.022
-318.026	111.185	-0.217	0.257
-317.012	800.000	0.139	0.464
-315.997	198.952	-0.036	-0.055
-314.983	800.000	0.067	0.189
-313.968	-69.568	0.226	0.086
-312.953	-104.942	-0.114	-0.026
-311.939	800.000	-0.054	0.202
-310.924	800.000	-0.083	-0.244
-309.910	800.000	0.050	-0.176
-308.895	-56.461	0.148	0.065
-307.880	30.435	-0.193	-0.163
-306.866	-5.168	0.121	-0.082
-305.851	205.832	0.238	0.365
-304.837	267.032	0.022	-0.038
-303.822	-200.000	0.003	-0.070
-302.807	-44.550	0.213	0.105
-301.793	157.549	-0.058	-0.079
-300.778	-41.863	0.320	0.162
-299.764	14.683	-0.082	0.063
-298.749	-200.000	-0.002	0.110
-297.735	-200.000	-0.051	0.267
-296.720	90.825	0.190	0.210
-295.705	-24.377	0.380	0.224
-294.691	-200.000	0.007	-0.062
-293.676	-200.000	-0.028	0.173
-292.662	-200.000	-0.003	-0.072
-291.647	5.839	0.188	-0.137
-290.632	-160.025	0.364	-0.020
-289.618	-39.750	-0.122	0.063
-288.603	164.189	-0.113	-0.156
-287.589	-53.941	-0.179	-0.081
-286.574	800.000	0.119	0.357
-285.559	417.160	-0.092	0.194
-284.545	800.000	0.051	-0.202
-283.530	800.000	0.074	-0.280
-282.516	800.000	0.050	0.212
-281.501	140.198	0.140	0.182
-280.486	800.000	0.099	0.292
-279.472	-200.000	-0.029	-0.209
-278.457	-32.534	0.131	-0.072
-277.443	-200.000	0.037	0.371
-276.428	-0.569	0.378	-0.265
-275.413	13.158	-0.251	0.191
-274.399	-113.224	-0.124	0.024
-273.384	-133.633	0.278	0.034
-272.370	15.116	0.275	0.212
-271.355	79.369	-0.065	-0.069
-270.340	267.127	-0.077	0.132
-269.326	86.931	0.209	0.227
-268.311	55.459	-0.275	0.262
-267.297	770.286	-0.057	-0.154
-266.282	146.314	-0.213	-0.282
-265.267	-200.000	0.022	0.168
-264.253	-200.000	-0.005	0.056
-263.238	-1.442	-0.163	0.113
-262.224	-62.900	0.088	-0.036
-261.209	-84.894	-0.319	-0.099
-260.195	104.223	0.067	-0.078
-259.180	-3.158	0.097	-0.066
-258.165	-200.000	0.143	0.001
-257.151	-20.300	0.132	-0.080
-256.136	-150.786	-0.017	-0.001
-255.122	-200.000	0.009	-0.114
-254.107	800.000	0.055	0.200
-253.092	534.269	0.132	0.307
-252.078	-139.861	-0.163	-0.017
-251.063	62.204	0.235	0.230
-250.049	54.621	0.286	-0.271
-249.034	65.616	-0.193	-0.192
-248.019	198.421	0.109	0.164
-247.005	-36.469	-0.319	-0.169
-245.990	-37.983	-0.226	-0.118
-244.976	-27.514	-0.151	-0.086
-243.961	118.959	0.161	0.196
-242.946	-99.759	0.405	0.100
-241.932	-200.000	0.005	-0.058
-240.917	800.000	-0.056	0.210
-239.903	-127.158	-0.403	-0.058
-238.888	437.430	-0.171	0.366
-237.873	-200.000	-0.001	-0.092
-236.859	800.000	0.062	0.171
-235.844	-140.304	-0.499	0.051
-234.830	-39.396	0.246	0.127
-233.815	-97.109	-0.466	-0.120
-232.800	-200.000	-0.009	0.110
-231.786	-113.864	0.254	-0.049
-230.771	-189.939	-0.118	0.001
-229.757	595.206	-0.089	-0.216
-228.742	-142.542	-0.347	-0.033
-227.727	52.021	0.081	-0.076
-226.713	-113.165	0.193	-0.037
-225.698	208.498	-0.303	-0.466
-224.684	145.582	-0.073	0.096
-223.669	-80.026	0.149	-0.049
-222.655	-38.688	0.092	0.048
-221.640	-62.926	0.271	0.110
-220.625	-40.520	0.429	0.219
-219.611	-11.260	-0.211	-0.137
-218.596	-200.000	-0.001	-0.406
-217.582	283.913	-0.187	0.330
-216.567	-48.248	-0.235	0.112
-215.552	16.671	0.101	0.079
-214.538	-200.000	-0.027	0.158
-213.523	303.240	0.079	0.144
-212.509	-104.532	0.107	0.024
-211.494	142.918	-0.152	0.198
-210.479	217.047	0.115	0.179
-209.465	161.555	-0.241	-0.331
-208.450	104.243	-0.181	-0.209
-207.436	-50.856	-0.144	-0.066
-206.421	800.000	-0.073	0.231
-205.406	800.000	-0.064	0.250
-204.392	-81.862	0.282	-0.091
-203.377	-53.220	0.177	0.080
-202.363	-131.519	-0.040	-0.005
-201.348	-33.640	0.208	0.113
-200.333	-137.847	-0.375	-0.041
-199.319	-200.000	0.029	0.158
-198.304	-200.000	-0.019	-0.090
-197.290	403.934	-0.038	-0.080
-196.275	-151.450	0.253	-0.018
-195.260	-200.000	-0.016	-0.262
-194.246	-94.835	-0.639	-0.170
-193.231	125.872	-0.205	0.255
-192.217	308.442	-0.113	-0.207
-191.202	800.000	0.064	0.262
-190.187	-200.000	-0.004	-0.026
-189.173	-64.215	0.135	-0.054
-188.158	-144.087	0.216	0.020
-187.144	578.761	0.153	0.368
-186.129	587.836	0.055	0.133
-185.114	144.850	0.020	0.027
-184.100	-200.000	-0.005	0.072
-183.085	84.632	0.260	-0.280
-182.071	12.805	-0.185	-0.141
-181.056	-150.697	-0.130	0.010
-180.042	244.551	-0.158	0.261
-179.027	259.089	-0.201	-0.341
-178.012	-200.000	-0.015	-0.139
-176.998	-12.120	0.089	0.057
-175.983	800.000	0.068	-0.263
-174.969	-65.790	-0.219	-0.086
-173.954	-42.713	-0.079	0.039
-172.939	277.993	-0.148	0.258
-171.925	800.000	0.113	-0.339
-170.910	-200.000	0.063	-0.319
-169.896	36.221	0.051	0.044
-168.881	-71.719	-0.357	0.131
-167.866	180.334	-0.159	-0.229
-166.852	-200.000	0.050	-0.255
-165.837	-33.508	0.133	-0.072
-164.823	-34.724	-0.266	0.143
-163.808	-1.200	0.120	-0.083
-162.793	12.897	0.095	-0.072
-161.779	41.405	-0.284	0.252
-160.764	30.568	-0.221	0.186
-159.750	-103.014	0.172	0.040
-158.735	800.000	-0.126	0.537
-157.720	-21.128	-0.251	0.150
-156.706	239.835	-0.121	-0.198
-155.691	9.376	0.170	-0.126
-154.677	390.702	0.119	0.241
-153.662	146.469	0.202	-0.266
-152.647	-128.471	0.311	-0.043
-151.633	800.000	-0.087	0.355
-150.618	211.676	-0.147	-0.227
-149.604	79.698	0.098	0.103
-148.589	-102.467	-0.444	0.104
-147.574	-74.669	0.145	0.051
-146.560	-91.267	-0.316	-0.089
-145.545	57.434	-0.144	-0.138
-144.531	-151.430	-0.103	0.007
-143.516	489.618	0.016	0.036
-142.502	-200.000	-0.015	0.475
-141.487	-25.133	0.300	0.174
-140.472	192.838	-0.072	0.106
-139.458	-108.935	0.022	0.005
-138.443	34.915	-0.042	-0.036
-137.429	22.097	0.093	0.074
-136.414	184.457	0.208	-0.302
-135.399	-200.000	0.038	-0.259
-134.385	580.677	0.067	0.160
-133.370	-54.351	-0.243	0.108
-132.356	-200.000	0.210	0.001
-131.341	-200.000	-0.012	0.395
-130.326	32.685	0.243	-0.206
-129.312	406.175	-0.125	0.258
-128.297	-82.955	0.226	-0.071
-127.283	201.740	0.028	0.042
-126.268	719.820	-0.022	0.058
-125.253	-200.000	-0.011	-0.103
-124.239	-200.000	0.003	-0.099
-123.224	-200.000	-0.001	0.318
-122.210	-48.906	-0.152	-0.072
