DTS Sentinel unit serial number:	SN413079Multiplexer serial number:	ORYXHardware model number:	OX4-SRSoftware version number:	ORYX F/W v4.00 Oryx Data Collector v3.7.2.0data status	okinstallation	princeton_trtdifferential loss correction	single-endedforward channel	channel 1reverse channel	N/Adate	2019/09/10time	19:28:11forward acquisition time	60.00reverse acquisition time	0.00gamma	496.2192k internal	0.2320k external	0.2320temperature offset calibration	0.9923default loss term (dB/km)	0.3790temperature slope calibration	1.0000multiplexer offset coefficient	1.0000multiplexer slope coefficient	1.0000fibre end	0.00T internal ref (°C)	33.55T ext. ref 1 (°C)	-0.43T ext. ref 2 (°C)	26.06length (m)	temperature (°C)	Stokes	anti-Stokes-747.200	453.157	0.068	0.151
-746.185	-200.000	-0.105	0.479
-745.171	414.164	0.125	-0.268
-744.156	-94.268	0.049	0.014
-743.142	-133.283	-0.149	-0.019
-742.127	-96.197	-0.032	-0.009
-741.112	800.000	0.155	0.449
-740.098	-200.000	0.082	0.383
-739.083	-68.352	-0.168	-0.066
-738.069	148.523	0.228	-0.311
-737.054	723.471	-0.032	0.087
-736.039	253.960	-0.139	-0.241
-735.025	-116.933	0.292	0.054
-734.010	-1.461	-0.235	-0.167
-732.996	6.212	0.036	-0.027
-731.981	-200.000	-0.024	0.119
-730.966	-50.887	0.100	0.047
-729.952	106.468	0.131	-0.157
-728.937	249.132	-0.210	-0.359
-727.923	-151.382	-0.554	0.042
-726.908	-101.740	-0.205	0.050
-725.894	103.320	-0.196	-0.232
-724.879	146.488	0.064	-0.087
-723.864	224.041	-0.202	-0.330
-722.850	302.352	-0.181	-0.339
-721.835	-146.803	-0.347	0.030
-720.821	78.074	0.157	-0.169
-719.806	440.722	-0.145	-0.320
-718.791	-94.417	-0.317	-0.087
-717.777	-41.213	-0.146	0.076
-716.762	141.462	-0.187	0.250
-715.748	-24.478	0.061	0.037
-714.733	-200.000	0.021	-0.332
-713.718	346.156	-0.168	-0.333
-712.704	207.330	-0.049	0.076
-711.689	409.756	-0.097	0.208
-710.675	94.337	0.283	-0.325
-709.660	85.029	0.027	-0.030
-708.645	-156.926	-0.190	0.012
-707.631	-200.000	-0.038	-0.177
-706.616	-47.000	0.278	-0.137
-705.602	-176.718	0.160	0.004
-704.587	800.000	0.104	0.303
-703.572	-82.425	0.184	-0.060
-702.558	-200.000	0.010	0.352
-701.543	535.654	-0.098	0.235
-700.529	185.138	-0.168	-0.251
-699.514	-200.000	0.011	-0.403
-698.499	129.403	-0.185	0.239
-697.485	-200.000	0.001	0.070
-696.470	-80.710	0.329	-0.111
-695.456	800.000	-0.068	-0.227
-694.441	-107.225	-0.202	0.045
-693.426	-140.252	-0.257	-0.027
-692.412	-200.000	-0.020	-0.214
-691.397	-143.927	0.293	0.028
-690.383	-112.570	0.276	0.055
-689.368	168.777	0.103	0.148
-688.354	-200.000	0.031	-0.321
-687.339	4.325	-0.212	-0.157
-686.324	-131.960	-0.284	-0.037
-685.310	341.826	-0.178	-0.351
-684.295	762.199	-0.212	-0.580
-683.281	-120.875	0.436	0.074
-682.266	-105.544	-0.144	-0.033
-681.251	-192.100	-0.440	0.004
-680.237	13.491	-0.128	0.100
-679.222	469.593	-0.108	0.245
-678.208	239.296	-0.136	-0.229
-677.193	111.166	0.124	0.150
-676.178	-150.076	-0.407	0.032
-675.164	316.063	-0.123	-0.234
-674.149	-104.631	0.126	0.029
-673.135	-51.502	0.115	-0.054
-672.120	-57.892	-0.346	-0.152
-671.105	395.069	0.169	-0.356
-670.091	-114.943	-0.414	0.079
-669.076	-60.657	-0.171	0.073
-668.062	-171.420	-0.128	0.004
-667.047	470.729	-0.045	0.101
-666.032	388.049	0.151	-0.315
-665.018	3.065	0.239	-0.175
-664.003	-31.059	0.204	0.116
-662.989	-200.000	-0.013	-0.651
-661.974	-164.143	0.213	-0.010
-660.959	201.425	0.040	0.062
-659.945	800.000	-0.022	0.092
-658.930	489.852	0.123	0.283
-657.916	52.419	0.093	0.089
-656.901	119.225	-0.170	-0.212
-655.886	-200.000	-0.040	0.207
-654.872	-115.903	0.133	-0.025
-653.857	-200.000	-0.034	0.390
-652.843	725.857	0.039	-0.104
-651.828	-200.000	0.061	-0.459
-650.814	98.944	0.058	-0.067
-649.799	-51.640	0.254	-0.119
-648.784	-122.604	-0.538	-0.088
-647.770	-48.262	0.219	0.107
-646.755	-200.000	-0.036	-0.207
-645.741	-19.742	-0.208	0.130
-644.726	-34.962	0.311	-0.171
-643.711	-154.473	-0.270	-0.018
-642.697	-200.000	-0.021	0.356
-641.682	48.466	-0.154	-0.146
-640.668	70.983	0.061	0.064
-639.653	-153.429	0.373	-0.026
-638.638	-28.500	-0.235	-0.137
-637.624	50.399	-0.175	0.167
-636.609	-36.207	0.196	-0.107
-635.595	-23.462	-0.126	0.076
-634.580	800.000	-0.039	-0.138
-633.565	9.859	-0.196	-0.150
-632.551	-200.000	-0.042	0.280
-631.536	-99.882	-0.199	-0.050
-630.522	79.265	0.240	-0.259
-629.507	85.368	-0.196	-0.217
-628.492	-200.000	0.018	-0.112
-627.478	227.945	-0.157	0.258
-626.463	-34.970	-0.235	-0.129
-625.449	274.858	0.123	-0.220
-624.434	-71.990	0.119	-0.044
-623.419	85.237	-0.097	-0.107
-622.405	252.163	-0.103	-0.177
-621.390	442.112	-0.084	-0.185
-620.376	111.798	-0.053	-0.064
-619.361	511.240	-0.078	0.183
-618.346	-123.076	0.320	0.052
-617.332	79.674	0.180	0.194
-616.317	-200.000	0.005	-0.190
-615.303	-187.353	-0.296	0.004
-614.288	-31.780	0.084	0.047
-613.273	61.537	0.197	-0.197
-612.259	-44.027	-0.142	0.072
-611.244	-200.000	-0.030	0.405
-610.230	53.481	-0.155	-0.149
-609.215	-19.341	0.098	0.061
-608.201	84.947	0.094	0.104
-607.186	-32.288	-0.108	0.060
-606.171	-28.501	-0.228	-0.132
-605.157	25.047	0.225	0.188
-604.142	255.644	0.076	-0.131
-603.128	800.000	-0.035	-0.154
-602.113	800.000	-0.082	-0.341
-601.098	-0.975	0.260	-0.185
-600.084	800.000	0.086	0.318
-599.069	189.601	0.067	-0.101
-598.055	-103.168	-0.215	-0.051
-597.040	148.942	0.090	-0.123
-596.025	-119.959	0.268	0.046
-595.011	-73.145	0.602	0.222
-593.996	104.614	-0.240	0.284
-592.982	-10.422	-0.123	-0.082
-591.967	74.634	-0.150	-0.159
-590.952	-67.732	-0.245	0.096
-589.938	24.103	-0.196	0.163
-588.923	800.000	-0.013	0.039
-587.909	90.638	0.128	-0.144
-586.894	-92.249	-0.331	-0.094
-585.879	191.271	0.137	0.207
-584.865	-200.000	-0.000	0.223
-583.850	298.573	-0.075	-0.139
-582.836	117.156	0.254	-0.314
-581.821	800.000	-0.031	-0.106
-580.806	-32.313	0.087	0.049
-579.792	-80.961	0.114	-0.038
-578.777	108.117	-0.072	0.086
-577.763	-200.000	0.001	-0.046
-576.748	-200.000	-0.046	0.264
-575.733	77.868	0.150	-0.161
-574.719	66.266	-0.105	0.107
-573.704	-136.017	0.154	-0.018
-572.690	-79.274	0.100	0.034
-571.675	63.360	0.302	-0.304
-570.661	157.982	0.068	-0.095
-569.646	-58.531	-0.264	0.115
-568.631	-126.527	0.116	0.017
-567.617	11.028	0.220	-0.169
-566.602	194.377	0.086	-0.131
-565.588	800.000	0.025	-0.099
-564.573	-25.678	-0.133	0.079
-563.558	-48.790	-0.202	-0.097
-562.544	40.414	0.109	0.099
-561.529	460.311	0.107	-0.240
-560.515	-108.211	0.178	-0.039
-559.500	-89.272	-0.118	-0.035
-558.485	51.303	-0.142	-0.135
-557.471	-37.079	-0.058	-0.031
-556.456	-61.973	0.118	0.049
-555.442	163.702	0.129	0.182
-554.427	42.024	0.117	-0.106
-553.412	691.127	-0.126	-0.332
-552.398	137.168	0.231	-0.302
-551.383	294.816	-0.042	-0.078
-550.369	-58.816	0.358	0.155
-549.354	76.646	0.306	-0.326
-548.339	34.958	-0.050	0.044
-547.325	-200.000	0.035	-0.414
-546.310	23.119	0.152	0.125
-545.296	800.000	-0.081	-0.307
-544.281	-38.178	-0.364	-0.194
-543.266	296.002	0.145	0.266
-542.252	16.015	0.264	0.209
-541.237	174.683	0.070	-0.101
-540.223	-200.000	-0.000	0.041
-539.208	-93.687	-0.349	-0.097
-538.193	19.219	-0.121	0.097
-537.179	149.462	0.065	-0.088
-536.164	655.149	-0.058	0.149
-535.150	800.000	-0.086	0.285
-534.135	32.916	-0.099	0.086
-533.121	-46.526	0.260	0.128
-532.106	464.662	0.053	0.119
-531.091	800.000	-0.188	0.622
-530.077	-71.830	-0.266	0.099
-529.062	-200.000	-0.071	0.324
-528.048	-112.153	-0.155	-0.031
-527.033	-46.048	0.366	-0.181
-526.018	-54.677	-0.331	0.150
-525.004	54.949	0.125	0.121
-523.989	-173.964	-0.090	-0.003
-522.975	75.634	-0.168	0.178
-521.960	-84.391	0.230	-0.073
-520.945	-152.109	-0.180	-0.013
-519.931	-9.454	-0.128	-0.086
-518.916	800.000	0.010	0.030
-517.902	-200.000	0.006	0.288
-516.887	137.204	-0.104	0.137
-515.872	-191.513	0.326	0.003
-514.858	274.906	-0.020	-0.035
-513.843	-200.000	0.051	-0.402
-512.829	50.871	-0.142	0.135
-511.814	-124.870	-0.301	-0.047
-510.799	-12.659	0.148	-0.097
-509.785	-111.107	-0.214	-0.044
-508.770	-27.981	-0.295	-0.171
-507.756	6.053	0.126	-0.094
-506.741	800.000	-0.038	0.150
-505.726	438.623	-0.123	0.269
-504.712	390.131	-0.031	0.065
-503.697	3.379	0.196	-0.143
-502.683	-200.000	0.018	0.187
-501.668	526.585	0.067	-0.159
-500.653	800.000	-0.020	0.081
-499.639	-113.859	-0.243	-0.047
-498.624	277.060	-0.106	-0.189
-497.610	651.774	0.041	0.104
-496.595	-105.913	-0.395	-0.089
-495.581	102.571	-0.097	-0.114
-494.566	479.818	0.094	-0.213
-493.551	800.000	-0.028	-0.084
-492.537	-200.000	0.093	-0.432
-491.522	-200.000	-0.052	-0.273
-490.508	-178.246	-0.289	0.007
-489.493	-5.704	0.197	-0.135
-488.478	-138.524	0.176	0.019
-487.464	800.000	0.104	-0.439
-486.449	-14.784	-0.093	0.060
-485.435	-104.818	0.137	0.031
-484.420	-200.000	-0.010	0.094
-483.405	-200.000	-0.038	0.238
-482.391	-200.000	0.025	0.220
-481.376	-153.004	-0.297	0.021
-480.362	-83.191	-0.195	0.063
-479.347	-200.000	-0.026	-0.344
-478.332	98.855	-0.159	-0.184
-477.318	208.780	0.096	-0.150
-476.303	81.985	-0.132	0.143
-475.289	-122.538	0.171	-0.028
-474.274	800.000	-0.113	-0.352
-473.259	67.756	-0.125	-0.128
-472.245	-12.359	0.267	0.174
-471.230	800.000	-0.053	-0.146
-470.216	-84.175	0.306	0.097
-469.201	800.000	-0.121	-0.384
-468.186	78.922	0.230	-0.246
-467.172	3.208	-0.201	0.147
-466.157	-200.000	0.017	-0.096
-465.143	-114.913	0.042	0.008
-464.128	192.836	-0.207	0.312
-463.113	-194.924	0.229	-0.002
-462.099	-200.000	0.016	0.125
-461.084	642.798	0.101	0.256
-460.070	-27.347	-0.142	0.083
-459.055	106.809	0.053	-0.063
-458.040	61.596	0.102	-0.102
-457.026	800.000	-0.032	0.096
-456.011	22.553	-0.055	-0.045
-454.997	-200.000	-0.016	0.276
-453.982	123.206	-0.150	0.187
-452.968	-193.408	0.220	-0.002
-451.953	-35.948	0.270	-0.146
-450.938	-200.000	0.014	-0.293
-449.924	-200.000	-0.030	-0.197
-448.909	122.322	-0.182	-0.227
-447.895	-48.724	-0.187	0.090
-446.880	158.094	-0.038	-0.052
-445.865	152.954	-0.063	0.087
-444.851	294.537	0.075	0.138
-443.836	-66.177	-0.159	0.063
-442.822	-138.185	-0.095	-0.011
-441.807	38.844	-0.136	-0.122
-440.792	-200.000	0.015	-0.115
-439.778	800.000	-0.055	0.154
-438.763	-68.690	0.083	0.032
-437.749	-32.756	-0.380	-0.211
-436.734	800.000	-0.108	-0.377
-435.719	26.277	0.213	0.178
-434.705	-46.976	0.234	-0.114
-433.690	-38.657	0.365	0.193
-432.676	-14.947	-0.047	0.030
-431.661	-74.430	0.282	0.101
-430.646	-20.932	-0.131	0.080
-429.632	16.155	0.121	0.095
-428.617	-200.000	-0.046	0.232
-427.603	-200.000	-0.018	-0.401
-426.588	-200.000	0.010	0.168
-425.573	-200.000	-0.019	0.119
-424.559	-74.735	0.257	0.092
-423.544	167.245	-0.059	0.083
-422.530	66.922	0.212	0.216
-421.515	266.421	-0.211	0.367
-420.500	800.000	-0.145	0.525
-419.486	-180.833	-0.291	0.006
-418.471	-94.552	0.073	-0.020
-417.457	-32.116	0.473	-0.264
-416.442	-49.072	0.180	-0.086
-415.428	243.004	-0.095	-0.159
-414.413	-103.958	-0.273	-0.064
-413.398	25.840	-0.007	-0.006
-412.384	-137.913	0.311	-0.035
-411.369	164.873	0.126	0.177
-410.355	-26.775	-0.159	-0.093
-409.340	-38.798	-0.261	-0.138
-408.325	144.728	0.054	0.072
-407.311	161.971	0.257	0.359
-406.296	153.765	-0.008	-0.012
-405.282	745.134	0.038	-0.102
-404.267	-74.687	0.105	-0.038
-403.252	-74.188	0.209	-0.076
-402.238	-40.822	-0.135	-0.070
-401.223	237.114	-0.164	0.272
-400.209	-200.000	0.004	0.290
-399.194	61.211	-0.064	-0.064
-398.179	800.000	-0.041	0.177
-397.165	-200.000	0.017	-0.160
-396.150	-200.000	0.045	0.208
-395.136	-200.000	0.032	0.188
-394.121	-12.129	-0.263	-0.172
-393.106	800.000	0.099	0.294
-392.092	-33.199	0.050	0.027
-391.077	338.438	-0.109	-0.211
-390.063	-3.621	0.089	-0.062
-389.048	-51.783	0.059	-0.027
-388.033	308.634	-0.165	-0.308
-387.019	-37.547	0.236	-0.125
-386.004	-53.227	-0.258	0.118
-384.990	337.320	-0.077	-0.148
-383.975	-200.000	0.045	0.208
-382.960	16.656	0.082	0.065
-381.946	28.679	0.229	-0.193
-380.931	-159.631	-0.146	-0.008
-379.917	800.000	0.042	0.143
-378.902	-162.561	-0.108	0.005
-377.888	167.049	-0.140	0.197
-376.873	559.551	-0.122	0.293
-375.858	191.718	-0.055	0.083
-374.844	-128.096	0.088	0.013
-373.829	-137.196	-0.171	0.019
-372.815	800.000	-0.062	-0.195
-371.800	422.275	-0.076	0.162
-370.785	-168.622	0.191	0.007
-369.771	-78.197	-0.207	0.071
-368.756	800.000	-0.038	-0.133
-367.742	83.637	-0.129	-0.140
-366.727	-96.888	-0.262	0.069
-365.712	800.000	0.109	-0.336
-364.698	-8.840	0.074	0.049
-363.683	-53.522	-0.069	-0.031
-362.669	-79.151	-0.083	0.028
-361.654	-91.252	-0.055	0.016
-360.639	-189.221	-0.317	-0.004
-359.625	-162.363	-0.153	0.008
-358.610	-60.513	0.208	0.088
-357.596	800.000	-0.041	0.175
-356.581	36.247	0.146	-0.128
-355.566	-200.000	0.003	-0.075
-354.552	-52.646	-0.331	0.152
-353.537	-21.496	-0.172	0.105
-352.523	283.455	-0.088	0.158
-351.508	800.000	-0.043	-0.168
-350.493	125.463	-0.048	-0.060
-349.479	-200.000	-0.022	-0.234
-348.464	-23.303	0.364	-0.218
-347.450	-15.423	0.139	0.088
-346.435	-85.549	-0.171	0.053
-345.420	800.000	0.105	-0.360
-344.406	2.212	-0.309	0.222
-343.391	-122.997	0.446	-0.071
-342.377	33.172	0.037	0.032
-341.362	-200.000	-0.025	0.204
-340.348	-127.100	0.129	0.019
-339.333	-200.000	0.005	-0.041
-338.318	177.672	0.163	-0.236
-337.304	-37.378	0.323	-0.171
-336.289	523.014	0.062	0.146
-335.275	159.080	-0.292	-0.403
-334.260	-127.261	0.434	-0.063
-333.245	197.533	-0.063	0.096
-332.231	202.341	-0.210	-0.323
-331.216	99.974	0.189	0.218
-330.202	94.310	-0.119	0.134
-329.187	-37.233	0.213	-0.113
-328.172	-200.000	0.036	0.248
-327.158	-71.845	-0.112	0.042
-326.143	-65.498	0.051	0.020
-325.129	-148.518	0.195	0.016
-324.114	-200.000	0.019	0.377
-323.099	800.000	-0.088	-0.368
-322.085	147.853	0.093	0.125
-321.070	-161.540	-0.029	-0.001
-320.056	-200.000	0.039	0.454
-319.041	303.961	-0.147	0.272
-318.026	-118.386	0.150	0.027
-317.012	-193.555	0.172	-0.001
-315.997	-92.322	-0.048	-0.013
-314.983	-2.609	-0.087	0.060
-313.968	-108.010	0.253	0.055
-312.953	-139.992	0.155	-0.016
-311.939	160.378	0.151	0.210
-310.924	-91.148	-0.179	0.051
-309.910	-200.000	0.026	0.243
-308.895	800.000	-0.063	0.180
-307.880	7.531	-0.244	0.182
-306.866	-200.000	0.005	0.249
-305.851	-96.055	-0.207	-0.055
-304.837	39.494	0.207	0.185
-303.822	-121.178	-0.117	0.019
-302.807	-29.522	-0.119	0.068
-301.793	220.469	-0.082	-0.130
-300.778	683.967	-0.128	0.331
-299.764	800.000	0.087	-0.357
-298.749	-58.753	-0.100	0.043
-297.735	25.775	-0.059	-0.049
-296.720	255.632	0.088	-0.149
-295.705	-144.260	-0.130	-0.012
-294.691	169.304	0.127	0.180
-293.676	13.043	0.241	0.185
-292.662	14.363	0.057	0.044
-291.647	-17.463	0.270	0.169
-290.632	86.441	0.112	-0.123
-289.618	573.902	-0.057	0.138
-288.603	580.896	-0.111	0.270
-287.589	-130.849	0.257	-0.034
-286.574	-200.000	-0.026	0.174
-285.559	-200.000	0.372	-0.002
-284.545	141.053	0.313	0.411
-283.530	-200.000	-0.015	0.111
-282.516	63.270	-0.098	-0.098
-281.501	400.470	0.144	0.299
-280.486	-173.708	0.290	-0.009
-279.472	43.654	-0.155	-0.141
-278.457	467.585	-0.139	-0.309
-277.443	-109.310	0.213	0.045
-276.428	800.000	0.017	0.062
-275.413	-200.000	0.024	0.112
-274.399	26.167	-0.247	-0.205
-273.384	-200.000	-0.023	0.296
-272.370	-200.000	-0.011	0.172
-271.355	123.498	-0.028	0.035
-270.340	264.070	0.123	-0.213
-269.326	87.238	-0.117	-0.129
-268.311	-37.079	0.196	0.104
-267.297	800.000	0.038	0.134
-266.282	8.900	-0.291	-0.218
-265.267	-8.929	-0.144	-0.096
-264.253	-37.602	-0.280	-0.148
-263.238	83.442	0.116	-0.125
-262.224	800.000	-0.047	0.150
-261.209	-200.000	-0.012	0.115
-260.195	-91.829	-0.064	0.018
-259.180	-200.000	0.017	-0.168
-258.165	-143.058	-0.071	-0.007
-257.151	-101.083	0.138	0.033
-256.136	305.036	0.207	0.382
-255.122	790.277	0.063	-0.173
-254.107	-95.724	-0.124	-0.033
-253.092	-185.749	-0.396	0.006
-252.078	-23.616	-0.055	0.033
-251.063	179.881	0.017	0.025
-250.049	139.929	-0.095	-0.124
-249.034	-41.432	-0.229	-0.117
-248.019	53.467	0.260	0.247
-247.005	-200.000	0.036	-0.217
-245.990	-42.225	0.336	0.170
-244.976	800.000	0.139	0.486
-243.961	-122.389	0.340	0.055
-242.946	31.915	-0.105	-0.089
-241.932	59.122	0.110	-0.108
-240.917	137.837	0.101	0.132
-239.903	4.221	0.181	-0.131
-238.888	-9.410	-0.330	-0.219
-237.873	800.000	0.137	-0.398
-236.859	339.784	-0.074	0.144
-235.844	733.729	0.029	0.076
-234.830	800.000	-0.142	0.412
-233.815	-52.005	0.189	0.087
-232.800	-59.547	0.035	0.015
-231.786	800.000	-0.091	0.299
-230.771	-200.000	-0.062	0.451
-229.757	-200.000	-0.002	0.178
-228.742	-200.000	0.002	-0.050
-227.727	-19.086	0.093	0.057
-226.713	19.346	0.028	-0.022
-225.698	84.641	-0.173	-0.188
-224.684	171.358	0.200	-0.285
-223.669	442.665	0.133	-0.289
-222.655	-171.911	0.302	0.010
-221.640	-52.467	-0.218	-0.100
-220.625	-82.307	0.039	0.012
-219.611	-56.837	0.154	0.067
-218.596	233.309	-0.143	0.234
-217.582	-200.000	-0.054	0.311
-216.567	194.726	-0.168	0.252
-215.552	-117.515	-0.325	0.058
-214.538	-111.337	0.223	0.045
-213.523	110.633	-0.112	0.133
-212.509	-200.000	0.026	0.186
-211.494	-200.000	-0.022	-0.203
-210.479	-173.003	-0.200	-0.006
-209.465	-200.000	0.056	-0.334
-208.450	-5.576	0.460	-0.312
-207.436	181.381	-0.113	-0.165
-206.421	-200.000	-0.030	-0.146
-205.406	266.451	-0.055	0.095
-204.392	-73.236	0.434	0.157
-203.377	-200.000	-0.041	-0.278
-202.363	27.715	0.070	-0.058
-201.348	28.173	-0.247	-0.207
-200.333	43.477	-0.220	-0.199
-199.319	-69.005	-0.423	-0.161
-198.304	105.736	-0.099	-0.116
-197.290	333.576	-0.057	-0.109
-196.275	-122.226	0.203	-0.033
-195.260	134.641	0.211	0.271
-194.246	-104.858	-0.137	-0.031
-193.231	157.232	-0.128	0.175
-192.217	-200.000	-0.010	-0.233
-191.202	-88.667	0.399	0.118
-190.187	-147.524	-0.521	-0.044
-189.173	-26.847	0.052	0.030
-188.158	-189.516	-0.133	-0.002
-187.144	-193.816	0.159	-0.001
-186.129	-77.221	0.049	-0.017
-185.114	-200.000	-0.012	0.292
-184.100	421.122	-0.015	0.032
-183.085	-3.594	0.253	-0.174
-182.071	88.074	-0.055	-0.060
-181.056	-34.181	-0.161	0.088
-180.042	40.955	0.093	-0.083
-179.027	410.325	-0.147	-0.309
-178.012	-1.956	0.460	0.320
-176.998	-85.953	-0.215	-0.066
-175.983	800.000	-0.028	-0.099
-174.969	193.029	-0.160	-0.239
-173.954	-110.452	0.028	0.006
-172.939	56.961	-0.073	0.070
-171.925	-26.218	0.116	0.068
-170.910	400.020	-0.082	0.170
-169.896	89.256	-0.215	-0.237
-168.881	-45.148	0.174	-0.086
-167.866	-200.000	0.036	-0.196
-166.852	-200.000	-0.003	-0.085
-165.837	533.417	0.098	-0.230
-164.823	-68.346	-0.019	-0.007
-163.808	-200.000	0.046	-0.442
-162.793	-103.489	-0.081	-0.019
-161.779	450.839	0.050	-0.110
-160.764	800.000	-0.034	0.143
-159.750	-111.799	0.392	0.078
-158.735	100.134	0.141	-0.162
-157.720	-90.869	0.136	0.039
-156.706	-45.739	0.306	0.150
-155.691	-200.000	0.005	0.166
-154.677	279.108	-0.064	-0.112
-153.662	-113.017	-0.222	0.043
-152.647	22.170	-0.125	0.101
-151.633	-27.432	-0.399	-0.229
-150.618	-200.000	0.009	-0.039
-149.604	-200.000	0.008	0.373
-148.589	-200.000	-0.000	0.111
-147.574	-135.509	0.352	-0.041
-146.560	-116.953	0.158	0.028
-145.545	-73.738	0.278	0.100
-144.531	800.000	0.110	0.355
-143.516	-134.641	0.304	0.037
-142.502	-200.000	0.014	-0.219
-141.487	-131.251	0.215	0.028
-140.472	800.000	0.082	0.346
-139.458	-133.957	-0.073	-0.009
-138.443	800.000	-0.063	0.209
-137.429	-200.000	-0.008	0.234
-136.414	-200.000	0.012	-0.063
-135.399	-122.162	0.612	0.099
-134.385	800.000	-0.066	0.259
-133.370	97.900	-0.025	0.028
-132.356	-200.000	-0.022	-0.170
-131.341	626.902	-0.014	-0.034
-130.326	-160.356	-0.430	0.023
-129.312	13.478	-0.121	-0.093
-128.297	-133.224	-0.132	0.016
-127.283	152.533	-0.152	-0.205
-126.268	156.441	-0.184	0.250
-125.253	632.857	0.205	0.511
-124.239	800.000	-0.065	0.229
-123.224	-65.978	0.123	-0.048
-122.210	113.725	-0.208	-0.249
