DTS Sentinel unit serial number:	SN413079Multiplexer serial number:	ORYXHardware model number:	OX4-SRSoftware version number:	ORYX F/W v4.00 Oryx Data Collector v3.7.2.0data status	okinstallation	princeton_trtdifferential loss correction	single-endedforward channel	channel 1reverse channel	N/Adate	2019/09/16time	22:22:35forward acquisition time	60.00reverse acquisition time	0.00gamma	496.2192k internal	0.2324k external	0.2324temperature offset calibration	0.9953default loss term (dB/km)	0.3790temperature slope calibration	1.0000multiplexer offset coefficient	1.0000multiplexer slope coefficient	1.0000fibre end	0.00T internal ref (°C)	30.89T ext. ref 1 (°C)	0.08T ext. ref 2 (°C)	24.71length (m)	temperature (°C)	Stokes	anti-Stokes-747.200	12.189	0.193	0.150
-746.185	564.349	0.138	0.337
-745.171	789.805	0.058	0.161
-744.156	-58.601	-0.310	0.136
-743.142	139.033	0.157	0.208
-742.127	-27.140	-0.341	0.201
-741.112	-77.873	-0.203	-0.071
-740.098	-171.125	-0.303	-0.010
-739.083	21.870	0.109	-0.089
-738.069	99.649	-0.200	0.234
-737.054	-182.026	0.072	-0.001
-736.039	380.693	0.171	-0.354
-735.025	556.813	0.058	-0.142
-734.010	-200.000	0.025	0.140
-732.996	-200.000	0.031	-0.316
-731.981	11.096	-0.168	0.130
-730.966	515.479	-0.063	-0.148
-729.952	800.000	-0.027	-0.114
-728.937	-161.915	-0.174	0.009
-727.923	7.262	0.187	-0.141
-726.908	756.808	0.012	0.034
-725.894	-7.300	0.082	-0.056
-724.879	-119.689	-0.468	-0.082
-723.864	549.706	0.087	-0.210
-722.850	-117.002	-0.296	0.054
-721.835	-200.000	-0.008	-0.075
-720.821	-200.000	-0.014	0.066
-719.806	-91.905	-0.104	-0.030
-718.791	800.000	0.075	-0.245
-717.777	93.583	0.092	-0.105
-716.762	493.169	-0.087	-0.201
-715.748	-200.000	-0.024	0.208
-714.733	-79.485	-0.267	0.091
-713.718	-200.000	0.028	-0.221
-712.704	-49.980	-0.134	0.064
-711.689	-200.000	-0.035	-0.212
-710.675	800.000	0.071	0.220
-709.660	-24.456	0.187	-0.112
-708.645	-200.000	0.042	-0.273
-707.631	40.458	0.297	-0.270
-706.616	-68.831	-0.104	-0.041
-705.602	-188.401	0.230	-0.003
-704.587	-19.359	-0.265	-0.166
-703.572	78.840	0.184	0.198
-702.558	800.000	-0.006	-0.019
-701.543	-95.067	-0.149	-0.040
-700.529	-200.000	0.008	0.208
-699.514	357.840	-0.190	0.382
-698.499	138.042	-0.325	-0.429
-697.485	334.761	0.047	-0.091
-696.470	-132.055	0.157	0.021
-695.456	-200.000	0.018	0.281
-694.441	38.669	-0.188	-0.169
-693.426	-200.000	0.005	0.203
-692.412	157.851	0.212	-0.296
-691.397	-66.618	-0.251	0.100
-690.383	10.798	-0.025	0.019
-689.368	-122.469	-0.187	-0.031
-688.354	800.000	0.078	0.224
-687.339	-200.000	-0.023	-0.228
-686.324	-200.000	0.002	-0.013
-685.310	800.000	-0.128	-0.426
-684.295	800.000	0.025	0.073
-683.281	205.587	0.053	0.083
-682.266	82.698	0.198	-0.216
-681.251	-200.000	-0.040	-0.317
-680.237	336.675	0.019	-0.037
-679.222	117.510	-0.160	-0.198
-678.208	-42.323	0.124	0.064
-677.193	800.000	-0.066	-0.226
-676.178	-200.000	-0.008	-0.293
-675.164	141.557	-0.088	0.118
-674.149	20.083	0.148	-0.120
-673.135	45.864	0.213	-0.198
-672.120	-118.113	-0.173	-0.031
-671.105	-66.503	0.360	0.144
-670.091	198.429	0.133	0.204
-669.076	-200.000	0.016	-0.435
-668.062	245.142	-0.255	-0.431
-667.047	-150.564	-0.256	-0.020
-666.032	293.485	-0.052	0.096
-665.018	200.819	0.113	0.175
-664.003	-200.000	-0.000	-0.157
-662.989	-63.928	0.094	0.039
-661.974	60.362	0.188	0.187
-660.959	-169.017	0.200	-0.008
-659.945	-200.000	-0.064	-0.373
-658.930	-147.178	0.235	-0.020
-657.916	-94.566	-0.246	-0.067
-656.901	60.982	-0.176	-0.176
-655.886	727.224	-0.157	0.421
-654.872	800.000	0.034	0.104
-653.857	142.385	-0.179	-0.239
-652.843	800.000	-0.042	0.150
-651.828	-54.779	-0.233	0.106
-650.814	257.985	-0.157	0.272
-649.799	83.917	0.148	0.163
-648.784	-111.925	0.285	0.058
-647.770	52.234	-0.023	0.022
-646.755	-95.825	0.271	0.073
-645.741	28.760	-0.122	-0.104
-644.726	78.403	-0.273	-0.293
-643.711	-73.697	0.014	0.005
-642.697	632.132	0.046	0.117
-641.682	421.734	0.101	-0.219
-640.668	-200.000	0.040	-0.410
-639.653	102.699	-0.319	-0.376
-638.638	13.219	0.201	-0.156
-637.624	-129.205	-0.110	-0.015
-636.609	-92.961	0.033	0.009
-635.595	-32.406	-0.152	0.085
-634.580	-29.183	0.206	-0.118
-633.565	26.770	-0.174	-0.147
-632.551	616.930	-0.050	0.127
-631.536	-26.607	-0.204	0.120
-630.522	-200.000	0.050	0.258
-629.507	58.161	0.227	0.224
-628.492	45.089	-0.211	0.195
-627.478	-174.734	0.233	0.007
-626.463	49.702	-0.084	-0.079
-625.449	-1.835	0.253	-0.179
-624.434	-145.418	0.113	-0.010
-623.419	-61.939	0.132	-0.056
-622.405	18.264	-0.161	0.129
-621.390	351.421	-0.083	0.165
-620.376	-200.000	0.006	-0.153
-619.361	800.000	0.100	0.305
-618.346	15.126	0.114	0.090
-617.332	-174.026	0.243	-0.007
-616.317	72.765	-0.100	0.105
-615.303	36.346	0.090	0.080
-614.288	-140.117	-0.334	-0.035
-613.273	800.000	0.065	0.222
-612.259	-52.186	-0.055	-0.026
-611.244	-67.431	-0.187	-0.074
-610.230	-19.404	0.105	0.065
-609.215	800.000	0.080	0.241
-608.201	216.789	-0.066	-0.106
-607.186	-59.201	-0.309	-0.134
-606.171	105.079	0.358	-0.424
-605.157	423.197	-0.074	0.160
-604.142	800.000	0.069	-0.258
-603.128	-46.056	-0.103	-0.051
-602.113	53.519	0.284	-0.273
-601.098	-200.000	-0.026	-0.363
-600.084	-120.584	0.203	-0.035
-599.069	800.000	-0.095	0.364
-598.055	-200.000	-0.041	0.252
-597.040	-90.737	-0.290	-0.084
-596.025	445.143	-0.103	0.227
-595.011	-65.124	-0.127	0.051
-593.996	-200.000	0.048	0.265
-592.982	112.646	-0.156	-0.190
-591.967	800.000	0.053	0.171
-590.952	-27.498	0.058	-0.034
-589.938	6.002	-0.384	-0.285
-588.923	-71.396	0.153	-0.057
-587.909	-162.782	-0.268	0.013
-586.894	-107.994	-0.289	-0.063
-585.879	169.556	-0.195	0.280
-584.865	800.000	-0.118	0.337
-583.850	-200.000	0.040	-0.220
-582.836	800.000	-0.054	0.208
-581.821	391.400	0.090	0.189
-580.806	48.903	0.074	0.070
-579.792	260.419	-0.108	-0.187
-578.777	119.049	-0.124	0.153
-577.763	-200.000	-0.018	0.110
-576.748	-16.729	0.196	0.124
-575.733	549.989	-0.151	0.364
-574.719	-149.489	-0.315	0.025
-573.704	192.977	-0.150	0.228
-572.690	-99.565	-0.053	0.013
-571.675	-39.500	0.194	0.102
-570.661	315.388	-0.181	-0.343
-569.646	215.941	0.176	-0.281
-568.631	0.016	-0.200	-0.143
-567.617	800.000	0.014	-0.047
-566.602	106.882	0.136	0.162
-565.588	-101.135	0.491	0.120
-564.573	-91.277	-0.357	-0.103
-563.558	91.970	0.103	0.116
-562.544	-59.960	0.114	0.049
-561.529	-150.770	0.258	0.020
-560.515	-57.327	0.361	-0.159
-559.500	-27.274	-0.157	-0.092
-558.485	72.391	-0.126	0.132
-557.471	-200.000	0.016	-0.245
-556.456	-18.959	0.221	-0.138
-555.442	-70.989	0.188	0.071
-554.427	-200.000	-0.014	-0.206
-553.412	520.330	0.114	0.268
-552.398	-121.743	0.146	-0.024
-551.383	800.000	0.075	0.266
-550.369	-112.319	0.151	0.030
-549.354	313.207	-0.116	-0.219
-548.339	152.403	0.050	0.069
-547.325	68.273	0.097	0.099
-546.310	-32.077	-0.121	-0.068
-545.296	20.992	0.243	-0.198
-544.281	-107.812	-0.211	-0.046
-543.266	-65.301	0.144	-0.058
-542.252	800.000	0.112	0.324
-541.237	456.115	0.140	0.311
-540.223	-29.795	0.207	0.118
-539.208	-200.000	0.038	-0.331
-538.193	-103.364	0.367	0.087
-537.179	-200.000	-0.020	-0.333
-536.164	143.846	-0.292	0.389
-535.150	331.137	0.086	0.165
-534.135	-121.253	-0.048	0.008
-533.121	382.060	0.109	-0.224
-532.106	-200.000	0.059	0.291
-531.091	-95.168	-0.214	-0.058
-530.077	800.000	-0.142	0.436
-529.062	43.228	-0.180	0.164
-528.048	-200.000	0.053	0.266
-527.033	-66.351	0.209	-0.083
-526.018	-129.791	-0.379	0.052
-525.004	-200.000	0.005	-0.203
-523.989	-200.000	0.001	-0.138
-522.975	-47.464	0.182	-0.089
-521.960	5.790	0.332	0.246
-520.945	-186.971	-0.186	0.003
-519.931	-182.373	-0.203	-0.004
-518.916	-130.400	-0.336	0.045
-517.902	-200.000	-0.004	-0.094
-516.887	-200.000	-0.027	0.187
-515.872	59.930	0.042	0.042
-514.858	-115.669	0.163	0.030
-513.843	188.151	-0.142	0.212
-512.829	-19.316	-0.218	-0.136
-511.814	-139.601	0.236	-0.025
-510.799	-170.718	0.119	-0.004
-509.785	-36.745	-0.210	0.113
-508.770	-200.000	-0.080	-0.403
-507.756	248.630	-0.079	-0.133
-506.741	306.952	0.052	0.098
-505.726	59.298	-0.102	0.100
-504.712	-61.125	0.137	-0.058
-503.697	-3.946	-0.345	-0.240
-502.683	97.764	-0.207	-0.238
-501.668	-160.078	-0.308	0.017
-500.653	-1.414	0.139	0.098
-499.639	-185.039	0.135	-0.002
-498.624	-200.000	0.046	0.212
-497.610	-108.219	0.206	0.045
-496.595	-200.000	-0.013	0.252
-495.581	319.880	-0.103	0.195
-494.566	-78.280	0.152	-0.052
-493.551	-75.532	-0.118	0.042
-492.537	-21.025	-0.197	0.121
-491.522	-91.484	0.137	0.039
-490.508	304.784	0.078	-0.146
-489.493	-200.000	-0.007	-0.067
-488.478	83.952	0.207	0.226
-487.464	263.015	-0.147	-0.256
-486.449	-200.000	-0.002	-0.160
-485.435	-136.463	0.203	-0.024
-484.420	107.642	0.367	-0.436
-483.405	269.205	-0.055	-0.097
-482.391	30.423	0.091	-0.078
-481.376	-200.000	0.007	-0.138
-480.362	-47.779	-0.565	-0.274
-479.347	800.000	0.088	-0.262
-478.332	-200.000	-0.017	0.232
-477.318	-200.000	-0.015	0.283
-476.303	483.836	0.089	0.203
-475.289	223.116	0.136	0.219
-474.274	-200.000	0.005	0.153
-473.259	-118.506	0.102	-0.018
-472.245	-38.265	0.048	-0.025
-471.230	66.390	0.223	-0.227
-470.216	3.112	-0.160	-0.117
-469.201	-38.131	0.255	0.135
-468.186	184.789	-0.027	0.040
-467.172	800.000	0.047	0.163
-466.157	164.285	-0.049	0.069
-465.143	442.487	-0.167	-0.365
-464.128	158.146	-0.081	0.112
-463.113	543.250	-0.100	-0.239
-462.099	759.374	-0.056	0.150
-461.084	-200.000	-0.007	0.076
-460.070	800.000	-0.034	0.126
-459.055	-31.720	0.109	0.061
-458.040	132.538	-0.084	-0.108
-457.026	-43.846	0.175	-0.088
-456.011	-8.155	-0.111	-0.074
-454.997	800.000	0.033	-0.098
-453.982	-104.297	-0.215	-0.050
-452.968	427.113	-0.039	-0.084
-451.953	-14.931	0.072	0.046
-450.938	-103.732	0.030	0.007
-449.924	225.418	-0.085	-0.138
-448.909	-144.723	-0.278	0.025
-447.895	-200.000	-0.098	0.490
-446.880	-92.679	-0.070	0.020
-445.865	104.963	-0.093	0.110
-444.851	136.669	-0.173	-0.226
-443.836	-110.588	-0.048	-0.010
-442.822	-46.128	0.344	-0.169
-441.807	535.142	0.048	0.113
-440.792	596.839	-0.022	0.054
-439.778	-47.571	0.125	-0.060
-438.763	138.669	-0.158	-0.207
-437.749	800.000	-0.018	0.075
-436.734	-127.453	-0.141	-0.020
-435.719	340.078	-0.094	-0.184
-434.705	64.879	-0.125	0.126
-433.690	52.466	-0.192	0.183
-432.676	-134.432	-0.237	-0.029
-431.661	-54.176	0.204	0.092
-430.646	800.000	-0.055	-0.187
-429.632	21.184	-0.153	-0.124
-428.617	-46.706	-0.154	-0.075
-427.603	-69.741	-0.169	-0.064
-426.588	-170.055	0.154	0.005
-425.573	-116.271	0.459	-0.085
-424.559	-156.194	0.106	0.007
-423.544	219.698	0.257	-0.410
-422.530	94.664	0.154	0.175
-421.515	-200.000	0.224	0.001
-420.500	110.736	0.185	0.222
-419.486	-93.631	0.407	-0.112
-418.471	14.312	0.090	-0.070
-417.457	-74.977	0.073	0.026
-416.442	-200.000	0.030	-0.233
-415.428	8.305	-0.223	0.167
-414.413	-80.258	-0.386	0.129
-413.398	-56.536	-0.043	0.019
-412.384	60.227	0.229	0.226
-411.369	-122.570	-0.118	0.019
-410.355	800.000	0.045	0.140
-409.340	-200.000	-0.003	0.201
-408.325	-200.000	-0.017	-0.177
-407.311	221.353	-0.118	0.188
-406.296	251.799	-0.052	0.089
-405.282	36.962	-0.275	-0.242
-404.267	-183.549	-0.210	-0.004
-403.252	-27.122	-0.066	-0.038
-402.238	-174.710	0.312	-0.009
-401.223	-22.985	-0.169	-0.102
-400.209	694.651	0.127	-0.331
-399.194	-200.000	0.033	0.000
-398.179	520.394	-0.132	0.307
-397.165	-200.000	0.046	-0.333
-396.150	67.378	-0.261	-0.265
-395.136	-19.118	-0.161	0.100
-394.121	-56.977	0.262	0.115
-393.106	13.251	-0.197	0.152
-392.092	-124.457	-0.117	-0.018
-391.077	-2.350	0.235	0.164
-390.063	-200.000	0.012	-0.069
-389.048	-87.598	-0.338	0.102
-388.033	-200.000	-0.010	0.208
-387.019	-83.164	0.185	0.059
-386.004	-200.000	0.006	-0.030
-384.990	-31.135	0.273	0.153
-383.975	247.624	0.136	-0.229
-382.960	17.274	0.242	0.191
-381.946	-103.655	-0.186	0.043
-380.931	205.063	0.046	0.070
-379.917	-24.009	0.254	-0.151
-378.902	78.904	-0.201	-0.214
-377.888	593.294	-0.057	-0.139
-376.873	49.591	0.103	-0.097
-375.858	125.532	0.148	-0.185
-374.844	-25.025	0.219	-0.129
-373.829	218.174	0.104	-0.166
-372.815	221.829	-0.169	0.270
-371.800	18.052	-0.106	0.084
-370.785	256.063	-0.232	-0.396
-369.771	-200.000	0.051	0.287
-368.756	144.173	-0.075	0.099
-367.742	-200.000	0.024	-0.130
-366.727	-27.079	-0.110	0.064
-365.712	800.000	0.140	0.404
-364.698	-96.682	-0.109	-0.029
-363.683	-55.733	-0.088	0.039
-362.669	139.810	0.219	0.287
-361.654	117.928	0.074	0.090
-360.639	115.648	0.142	-0.173
-359.625	-87.603	0.247	-0.074
-358.610	-200.000	0.027	0.252
-357.596	42.954	-0.097	0.088
-356.581	800.000	0.011	-0.042
-355.566	-51.526	-0.179	-0.083
-354.552	160.548	-0.161	0.223
-353.537	-76.038	-0.258	0.091
-352.523	-167.493	-0.293	0.012
-351.508	-200.000	0.002	-0.201
-350.493	-8.766	0.139	-0.093
-349.479	76.321	0.054	-0.057
-348.464	677.331	0.043	0.111
-347.450	149.223	0.104	-0.140
-346.435	388.000	-0.006	-0.013
-345.420	228.802	0.104	-0.168
-344.406	69.557	-0.183	-0.187
-343.391	-55.107	-0.258	-0.115
-342.377	-85.063	-0.316	-0.098
-341.362	38.497	0.151	-0.133
-340.348	196.127	0.154	0.233
-339.333	-112.825	0.384	0.076
-338.318	-64.345	0.412	0.167
-337.304	-99.962	0.164	-0.041
-336.289	-200.000	0.014	0.223
-335.275	-73.907	-0.347	0.125
-334.260	576.762	0.058	0.140
-333.245	-132.267	0.034	-0.004
-332.231	16.858	-0.273	0.215
-331.216	-0.944	0.216	-0.152
-330.202	-6.605	0.140	0.094
-329.187	82.217	0.051	-0.055
-328.172	261.637	0.162	-0.279
-327.158	160.554	-0.229	-0.317
-326.143	89.241	0.138	0.153
-325.129	-131.984	-0.363	0.047
-324.114	153.061	0.230	0.312
-323.099	800.000	0.059	-0.241
-322.085	47.109	0.119	0.110
-321.070	-149.075	-0.293	-0.023
-320.056	30.704	-0.433	-0.368
-319.041	-140.008	0.339	0.035
-318.026	-31.037	-0.171	-0.096
-317.012	-134.748	0.197	0.024
-315.997	11.698	-0.137	0.104
-314.983	-159.231	0.118	-0.007
-313.968	24.401	-0.156	-0.128
-312.953	101.548	-0.095	-0.110
-311.939	470.812	0.071	-0.158
-310.924	-61.101	-0.220	-0.092
-309.910	-200.000	-0.050	0.261
-308.895	182.289	0.204	0.299
-307.880	533.249	0.077	-0.181
-306.866	96.321	0.224	0.254
-305.851	230.224	-0.097	0.157
-304.837	-200.000	-0.019	-0.407
-303.822	88.659	0.061	-0.067
-302.807	50.965	-0.084	-0.079
-301.793	-200.000	-0.030	-0.256
-300.778	512.790	0.040	0.092
-299.764	233.212	0.108	0.176
-298.749	140.356	0.362	0.475
-297.735	29.027	0.013	0.011
-296.720	-200.000	0.001	-0.022
-295.705	-134.605	0.139	0.017
-294.691	350.276	-0.070	-0.138
-293.676	800.000	-0.104	0.380
-292.662	199.297	0.188	0.286
-291.647	32.115	0.306	0.261
-290.632	33.659	0.050	-0.043
-289.618	-48.929	0.150	-0.071
-288.603	115.928	0.155	-0.188
-287.589	31.084	-0.128	0.109
-286.574	94.800	0.137	-0.155
-285.559	800.000	0.071	-0.202
-284.545	-171.646	0.142	-0.005
-283.530	-200.000	0.006	-0.148
-282.516	170.381	0.108	0.153
-281.501	20.774	0.035	-0.028
-280.486	-30.274	-0.433	0.244
-279.472	652.482	0.100	-0.254
-278.457	-0.391	-0.124	-0.087
-277.443	-93.199	0.331	-0.091
-276.428	-96.904	0.408	-0.106
-275.413	-200.000	-0.009	0.058
-274.399	80.001	-0.053	-0.056
-273.384	-17.161	0.192	-0.120
-272.370	-200.000	0.029	0.164
-271.355	51.824	0.198	-0.186
-270.340	439.220	-0.074	0.161
-269.326	115.924	-0.146	-0.177
-268.311	96.865	-0.107	-0.121
-267.297	167.745	-0.092	-0.129
-266.282	-200.000	0.079	-0.345
-265.267	124.766	0.136	0.169
-264.253	3.659	-0.131	0.095
-263.238	-13.851	-0.166	-0.107
-262.224	-43.145	0.144	-0.072
-261.209	-96.569	-0.108	-0.028
-260.195	-13.156	0.073	-0.047
-259.180	800.000	-0.023	0.083
-258.165	-57.083	-0.352	0.154
-257.151	143.340	-0.130	-0.172
-256.136	104.404	-0.111	0.129
-255.122	-24.121	-0.191	0.113
-254.107	-43.898	0.308	0.153
-253.092	-200.000	-0.038	0.305
-252.078	42.447	-0.221	-0.199
-251.063	307.904	0.100	-0.185
-250.049	-33.548	-0.148	0.081
-249.034	332.412	0.212	-0.406
-248.019	-24.932	-0.195	0.115
-247.005	-157.070	0.279	0.017
-245.990	424.402	-0.055	-0.118
-244.976	160.182	-0.218	-0.301
-243.961	-86.342	-0.211	-0.064
-242.946	-134.077	-0.123	0.015
-241.932	13.009	0.407	0.311
-240.917	-103.183	-0.219	0.051
-239.903	-200.000	-0.005	-0.275
-238.888	195.729	-0.015	0.022
-237.873	-98.515	-0.265	-0.067
-236.859	-13.835	0.374	0.239
-235.844	123.879	-0.097	-0.120
-234.830	52.803	0.129	-0.122
-233.815	361.242	0.074	0.146
-232.800	54.842	-0.300	-0.287
-231.786	169.486	0.055	0.078
-230.771	39.233	-0.207	-0.183
-229.757	367.498	0.130	-0.261
-228.742	-7.697	-0.396	0.265
-227.727	-130.079	0.091	0.012
-226.713	-87.523	-0.236	-0.071
-225.698	-200.000	0.038	-0.300
-224.684	800.000	0.046	0.131
-223.669	24.638	0.152	0.124
-222.655	800.000	-0.051	0.191
-221.640	-200.000	-0.005	-0.044
-220.625	53.070	-0.164	-0.156
-219.611	483.468	0.037	-0.082
-218.596	62.129	-0.144	0.142
-217.582	-200.000	-0.004	-0.093
-216.567	30.361	-0.108	-0.091
-215.552	-112.889	0.084	0.016
-214.538	-170.382	-0.131	-0.005
-213.523	-14.282	0.114	0.073
-212.509	-123.319	0.353	0.056
-211.494	-26.870	-0.121	-0.070
-210.479	-200.000	0.031	0.247
-209.465	800.000	0.067	0.204
-208.450	294.567	-0.171	-0.309
-207.436	226.336	-0.075	0.121
-206.421	-8.262	0.107	-0.071
-205.406	-200.000	0.153	0.000
-204.392	37.154	0.199	-0.175
-203.377	-48.757	0.117	-0.056
-202.363	-67.976	0.305	-0.118
-201.348	-188.413	-0.088	-0.001
-200.333	-200.000	-0.001	0.055
-199.319	-200.000	-0.064	-0.287
-198.304	64.842	0.058	0.057
-197.290	-18.078	-0.175	-0.108
-196.275	99.625	-0.119	-0.136
-195.260	-70.544	0.192	-0.072
-194.246	119.454	-0.165	0.202
-193.231	-200.000	-0.035	-0.153
-192.217	251.872	0.163	0.274
-191.202	445.184	0.145	-0.314
-190.187	6.203	0.078	0.057
-189.173	215.135	-0.169	0.265
-188.158	4.224	-0.109	-0.079
-187.144	-200.000	0.003	0.045
-186.129	162.332	-0.176	0.244
-185.114	-200.000	0.001	-0.187
-184.100	105.941	-0.119	0.140
-183.085	711.883	-0.170	0.445
-182.071	-200.000	-0.022	-0.275
-181.056	236.858	0.130	0.212
-180.042	-101.295	-0.133	0.032
-179.027	800.000	0.101	0.288
-178.012	-109.896	-0.277	-0.057
-176.998	-11.886	0.142	-0.092
-175.983	150.451	0.163	-0.219
-174.969	-180.040	0.232	0.005
-173.954	185.835	-0.185	-0.271
-172.939	800.000	-0.020	-0.070
-171.925	73.702	0.345	0.357
-170.910	401.792	0.121	0.250
-169.896	316.611	0.053	0.099
-168.881	-24.587	0.159	-0.094
-167.866	99.772	-0.367	-0.419
-166.852	305.608	-0.170	-0.312
-165.837	58.587	-0.229	-0.222
-164.823	800.000	0.011	0.036
-163.808	-46.125	0.210	0.102
-162.793	-200.000	-0.067	-0.308
-161.779	800.000	-0.033	0.140
-160.764	-96.055	-0.169	-0.044
-159.750	8.833	0.379	-0.282
-158.735	287.558	0.103	0.183
-157.720	-73.032	-0.190	0.069
-156.706	216.665	-0.200	0.314
-155.691	-62.794	-0.309	-0.126
-154.677	-200.000	-0.005	0.128
-153.662	-200.000	0.086	0.385
-152.647	800.000	0.039	-0.168
-151.633	494.857	-0.093	0.210
-150.618	800.000	-0.078	0.221
-149.604	436.744	0.035	0.074
-148.589	103.523	0.102	-0.118
-147.574	31.587	0.230	-0.195
-146.560	-94.057	-0.308	-0.083
-145.545	65.087	0.042	0.042
-144.531	83.223	0.147	0.158
-143.516	263.057	-0.005	0.008
-142.502	-19.986	-0.212	0.129
-141.487	-3.102	0.176	0.121
-140.472	-34.214	0.192	0.104
-139.458	5.802	-0.070	0.051
-138.443	-19.896	-0.187	-0.114
-137.429	40.257	0.152	0.135
-136.414	-5.005	0.217	-0.147
-135.399	-86.852	0.125	0.037
-134.385	800.000	0.045	-0.131
-133.370	-30.372	0.176	0.098
-132.356	152.120	0.039	-0.052
-131.341	-200.000	0.029	0.389
-130.326	71.919	0.238	-0.244
-129.312	34.167	0.108	-0.093
-128.297	-86.105	-0.193	-0.059
-127.283	-200.000	-0.027	0.251
-126.268	-200.000	0.071	0.310
-125.253	481.400	0.140	0.312
-124.239	243.936	-0.143	0.236
-123.224	-200.000	-0.010	0.169
-122.210	15.168	-0.264	-0.204
-121.195	22.114	-0.161	-0.129
-120.180	-21.811	0.218	0.131
