DTS Sentinel unit serial number:	SN413079Multiplexer serial number:	ORYXHardware model number:	OX4-SRSoftware version number:	ORYX F/W v4.00 Oryx Data Collector v3.7.2.0data status	okinstallation	princeton_trtdifferential loss correction	single-endedforward channel	channel 1reverse channel	N/Adate	2019/09/17time	11:14:35forward acquisition time	60.00reverse acquisition time	0.00gamma	496.2192k internal	0.2323k external	0.2323temperature offset calibration	0.9966default loss term (dB/km)	0.3790temperature slope calibration	1.0000multiplexer offset coefficient	1.0000multiplexer slope coefficient	1.0000fibre end	0.00T internal ref (°C)	30.47T ext. ref 1 (°C)	0.26T ext. ref 2 (°C)	26.21length (m)	temperature (°C)	Stokes	anti-Stokes-747.200	800.000	-0.017	0.060
-746.185	-172.931	-0.109	-0.003
-745.171	-155.827	0.257	-0.017
-744.156	78.751	-0.276	0.299
-743.142	30.285	0.036	-0.031
-742.127	-69.843	-0.379	0.146
-741.112	-200.000	-0.008	0.055
-740.098	-103.249	0.044	-0.010
-739.083	-96.636	-0.048	-0.013
-738.069	76.648	-0.340	0.364
-737.054	117.473	0.125	-0.155
-736.039	800.000	-0.145	-0.404
-735.025	296.000	-0.074	-0.137
-734.010	-89.635	-0.424	0.125
-732.996	-114.637	-0.207	-0.040
-731.981	43.649	0.108	0.100
-730.966	343.557	0.103	0.204
-729.952	46.796	0.119	-0.111
-728.937	-200.000	-0.045	-0.230
-727.923	26.451	-0.111	-0.094
-726.908	57.947	-0.289	-0.285
-725.894	-200.000	-0.101	0.496
-724.879	-66.870	0.123	-0.049
-723.864	-43.083	-0.055	-0.028
-722.850	39.649	-0.143	-0.129
-721.835	4.309	0.357	0.264
-720.821	-33.539	-0.093	0.052
-719.806	-129.056	-0.494	0.070
-718.791	-85.647	-0.219	-0.069
-717.777	768.109	0.028	0.078
-716.762	-28.759	0.113	-0.065
-715.748	-110.739	0.175	-0.036
-714.733	36.060	-0.071	0.063
-713.718	30.372	0.236	-0.203
-712.704	-58.379	0.261	-0.114
-711.689	-123.751	-0.273	-0.044
-710.675	-37.399	0.186	0.100
-709.660	-6.322	0.192	0.132
-708.645	704.421	0.137	-0.364
-707.631	-40.041	0.265	0.139
-706.616	-163.295	-0.156	-0.008
-705.602	20.354	0.114	-0.093
-704.587	-200.000	-0.002	-0.278
-703.572	188.903	-0.083	0.125
-702.558	800.000	-0.043	-0.175
-701.543	36.754	0.235	-0.209
-700.529	-200.000	0.052	0.271
-699.514	-100.039	-0.263	-0.066
-698.499	-200.000	-0.005	-0.151
-697.485	392.720	0.033	-0.070
-696.470	800.000	0.147	-0.415
-695.456	800.000	0.031	0.086
-694.441	220.177	-0.095	0.154
-693.426	-138.250	0.041	0.005
-692.412	-32.973	-0.194	-0.108
-691.397	-143.763	-0.178	-0.017
-690.383	44.736	0.115	-0.107
-689.368	-105.933	0.249	-0.057
-688.354	158.554	0.047	0.066
-687.339	446.255	0.192	-0.426
-686.324	248.569	0.040	-0.069
-685.310	-62.541	-0.098	0.041
-684.295	105.472	-0.110	-0.131
-683.281	127.229	0.202	-0.259
-682.266	57.812	0.142	-0.140
-681.251	-200.000	0.036	0.401
-680.237	160.277	-0.158	-0.222
-679.222	81.915	-0.081	0.088
-678.208	-16.956	0.067	0.043
-677.193	-2.251	-0.220	0.155
-676.178	-200.000	-0.005	-0.099
-675.164	-80.199	0.144	0.049
-674.149	-55.360	-0.147	-0.066
-673.135	24.381	0.066	-0.055
-672.120	155.547	-0.153	-0.212
-671.105	-173.411	0.570	0.017
-670.091	-138.443	-0.320	-0.035
-669.076	183.029	-0.188	0.280
-668.062	15.582	-0.125	-0.099
-667.047	-200.000	-0.025	0.242
-666.032	5.870	-0.138	0.103
-665.018	-98.495	-0.226	0.058
-664.003	33.815	0.109	-0.095
-662.989	38.001	-0.351	-0.314
-661.974	338.636	-0.097	-0.190
-660.959	-100.413	0.245	0.061
-659.945	293.558	-0.083	0.153
-658.930	-80.920	-0.174	0.058
-657.916	-126.130	-0.192	0.029
-656.901	318.113	0.110	-0.210
-655.886	-71.695	-0.233	-0.088
-654.872	-77.708	-0.119	-0.041
-653.857	57.854	0.114	-0.112
-652.843	-200.000	-0.018	-0.241
-651.828	800.000	-0.051	0.182
-650.814	242.723	0.027	0.045
-649.799	-110.346	-0.094	-0.020
-648.784	342.756	-0.196	-0.387
-647.770	-18.850	-0.116	0.073
-646.755	-200.000	0.005	0.068
-645.741	-200.000	0.003	0.280
-644.726	-20.509	-0.379	-0.234
-643.711	-44.267	0.412	-0.208
-642.697	-200.000	-0.029	0.299
-641.682	800.000	0.015	-0.064
-640.668	-104.154	0.112	-0.026
-639.653	337.559	0.070	-0.137
-638.638	608.144	0.068	-0.171
-637.624	227.926	-0.156	-0.255
-636.609	-68.571	-0.069	0.027
-635.595	-49.821	-0.243	0.116
-634.580	18.561	0.117	0.094
-633.565	74.890	0.139	-0.148
-632.551	194.375	-0.030	-0.046
-631.536	169.419	-0.196	-0.281
-630.522	284.165	-0.036	-0.066
-629.507	-128.551	0.080	0.011
-628.492	534.769	-0.080	-0.190
-627.478	189.369	0.056	0.085
-626.463	-114.775	-0.453	-0.087
-625.449	154.877	0.153	0.212
-624.434	331.894	-0.029	-0.056
-623.419	-88.032	0.142	-0.043
-622.405	91.458	-0.109	-0.123
-621.390	800.000	-0.031	-0.103
-620.376	-200.000	0.000	0.092
-619.361	-52.267	-0.231	-0.108
-618.346	128.955	0.202	-0.259
-617.332	-49.814	0.135	-0.064
-616.317	-6.918	-0.230	-0.157
-615.303	-200.000	0.017	-0.197
-614.288	193.912	0.249	-0.380
-613.273	708.613	0.046	-0.122
-612.259	-200.000	-0.006	0.057
-611.244	376.361	-0.076	-0.156
-610.230	-132.449	0.311	0.040
-609.215	-200.000	-0.005	0.122
-608.201	-70.316	0.092	0.035
-607.186	225.025	0.130	-0.211
-606.171	440.497	-0.055	-0.120
-605.157	254.850	-0.051	0.089
-604.142	-63.410	-0.245	-0.101
-603.128	216.050	-0.086	0.137
-602.113	61.260	-0.174	-0.174
-601.098	-56.841	0.380	-0.168
-600.084	235.202	0.167	0.277
-599.069	21.848	0.134	0.110
-598.055	512.832	0.019	0.044
-597.040	-84.917	-0.251	-0.079
-596.025	-94.075	-0.210	-0.058
-595.011	-95.116	0.038	-0.010
-593.996	327.722	-0.199	-0.384
-592.982	499.305	0.118	0.272
-591.967	-66.617	0.200	-0.080
-590.952	-77.612	-0.155	-0.054
-589.938	95.395	0.092	0.105
-588.923	-37.876	0.398	-0.212
-587.909	216.580	0.101	-0.162
-586.894	-200.000	-0.006	-0.414
-585.879	-118.238	-0.189	-0.034
-584.865	-99.293	-0.141	0.036
-583.850	269.534	0.103	0.181
-582.836	-53.573	-0.220	-0.101
-581.821	-165.703	0.175	-0.008
-580.806	800.000	-0.136	0.410
-579.792	-200.000	-0.021	0.357
-578.777	53.322	0.166	0.160
-577.763	9.000	0.190	0.144
-576.748	-33.620	-0.253	0.140
-575.733	196.204	0.193	0.294
-574.719	344.069	-0.105	-0.207
-573.704	150.871	-0.059	0.080
-572.690	229.520	-0.133	0.218
-571.675	-200.000	0.009	0.058
-570.661	-39.686	-0.306	0.161
-569.646	-170.561	0.055	-0.002
-568.631	-108.529	-0.165	-0.036
-567.617	519.443	0.017	0.040
-566.602	-53.198	-0.060	0.028
-565.588	282.956	-0.121	0.218
-564.573	87.247	-0.027	-0.030
-563.558	-112.402	-0.078	0.016
-562.544	49.222	0.333	-0.314
-561.529	351.050	-0.046	0.091
-560.515	39.989	0.108	0.097
-559.500	-200.000	-0.013	-0.080
-558.485	134.270	-0.093	0.121
-557.471	-114.785	0.113	0.022
-556.456	-200.000	0.015	0.510
-555.442	-96.204	-0.104	-0.028
-554.427	-200.000	-0.032	0.192
-553.412	-200.000	-0.007	-0.219
-552.398	-32.958	0.093	-0.052
-551.383	-200.000	0.023	0.220
-550.369	575.395	0.022	0.053
-549.354	223.684	0.091	-0.147
-548.339	2.293	0.177	-0.129
-547.325	-200.000	-0.032	-0.346
-546.310	-43.926	0.305	0.154
-545.296	-79.195	-0.138	0.047
-544.281	28.926	0.115	0.098
-543.266	-200.000	0.011	0.118
-542.252	641.926	0.063	-0.162
-541.237	16.402	0.106	0.084
-540.223	-119.522	-0.037	0.006
-539.208	-119.525	0.221	-0.038
-538.193	800.000	-0.073	0.222
-537.179	-135.931	-0.181	-0.021
-536.164	-81.815	0.436	-0.143
-535.150	-200.000	0.047	-0.275
-534.135	35.933	-0.048	0.042
-533.121	740.429	-0.114	0.306
-532.106	154.378	0.158	0.218
-531.091	-168.363	0.093	-0.004
-530.077	-77.670	0.370	-0.128
-529.062	-200.000	0.035	-0.274
-528.048	86.061	0.090	-0.100
-527.033	800.000	0.153	0.461
-526.018	16.678	-0.348	0.276
-525.004	-200.000	-0.001	-0.077
-523.989	-92.728	-0.119	0.033
-522.975	95.619	-0.187	-0.214
-521.960	-135.714	0.280	0.033
-520.945	710.458	-0.062	-0.164
-519.931	-160.920	-0.179	-0.009
-518.916	-24.017	-0.377	-0.226
-517.902	-200.000	0.015	-0.105
-516.887	-5.649	-0.082	-0.056
-515.872	-200.000	-0.031	-0.370
-514.858	569.089	0.216	0.526
-513.843	-95.937	-0.155	-0.041
-512.829	-200.000	0.018	-0.205
-511.814	-2.880	-0.296	-0.207
-510.799	-138.003	0.180	-0.020
-509.785	-200.000	0.090	-0.409
-508.770	-153.036	-0.439	-0.031
-507.756	-34.738	0.193	0.106
-506.741	-12.862	-0.233	0.152
-505.726	12.896	-0.076	0.059
-504.712	-200.000	0.013	0.101
-503.697	-27.529	-0.312	-0.182
-502.683	430.645	0.115	0.249
-501.668	-200.000	0.062	0.454
-500.653	-200.000	-0.025	-0.166
-499.639	-200.000	0.050	-0.308
-498.624	63.366	0.065	-0.066
-497.610	-200.000	0.022	-0.149
-496.595	-200.000	-0.003	0.026
-495.581	-47.119	-0.218	-0.106
-494.566	-7.796	-0.232	0.157
-493.551	59.364	0.191	0.188
-492.537	-156.446	-0.314	0.020
-491.522	-40.904	0.255	0.132
-490.508	-126.911	-0.080	0.012
-489.493	-49.071	-0.258	-0.123
-488.478	-200.000	-0.057	-0.359
-487.464	-42.528	0.281	-0.143
-486.449	-171.688	-0.320	0.011
-485.435	53.564	0.072	0.069
-484.420	140.347	0.176	0.232
-483.405	800.000	0.021	0.081
-482.391	-106.394	0.054	-0.012
-481.376	-200.000	-0.002	-0.021
-480.362	-185.849	0.149	0.002
-479.347	10.870	-0.168	0.128
-478.332	-3.039	0.062	-0.043
-477.318	-200.000	-0.044	0.256
-476.303	689.679	0.036	0.094
-475.289	202.571	0.096	-0.148
-474.274	-185.201	0.143	0.002
-473.259	-200.000	-0.012	0.186
-472.245	-9.510	-0.249	0.166
-471.230	-46.883	0.026	-0.013
-470.216	477.270	0.071	0.161
-469.201	188.460	0.037	0.056
-468.186	424.161	0.132	-0.285
-467.172	-200.000	-0.004	0.070
-466.157	-124.712	-0.186	-0.029
-465.143	-200.000	0.007	-0.490
-464.128	-19.184	0.132	-0.082
-463.113	107.345	-0.096	0.114
-462.099	-66.491	-0.175	0.069
-461.084	-176.783	0.148	0.004
-460.070	71.544	0.208	-0.216
-459.055	-200.000	-0.032	-0.253
-458.040	800.000	-0.091	-0.317
-457.026	294.801	-0.085	-0.155
-456.011	-87.175	-0.122	0.037
-454.997	800.000	0.031	0.130
-453.982	-119.374	0.244	-0.042
-452.968	-131.870	-0.246	-0.032
-451.953	5.139	0.254	-0.187
-450.938	800.000	-0.049	-0.169
-449.924	-200.000	-0.026	0.369
-448.909	95.545	0.287	0.327
-447.895	25.748	-0.231	-0.192
-446.880	282.864	-0.226	-0.404
-445.865	-200.000	0.008	-0.092
-444.851	30.022	-0.212	0.180
-443.836	-200.000	-0.008	-0.083
-442.822	-60.869	0.110	-0.046
-441.807	394.019	0.090	-0.187
-440.792	-200.000	0.003	0.019
-439.778	23.004	0.088	0.072
-438.763	68.284	0.114	0.117
-437.749	-22.600	0.210	-0.127
-436.734	-200.000	-0.009	-0.257
-435.719	-41.460	0.353	-0.181
-434.705	84.686	-0.267	0.292
-433.690	-0.431	0.219	0.155
-432.676	800.000	0.059	0.188
-431.661	22.642	-0.219	-0.179
-430.646	800.000	0.086	0.290
-429.632	-24.107	-0.091	-0.054
-428.617	-148.339	0.188	-0.015
-427.603	696.551	0.142	0.372
-426.588	126.696	-0.190	0.240
-425.573	591.386	-0.045	-0.110
-424.559	-86.055	-0.306	-0.094
-423.544	800.000	-0.062	-0.216
-422.530	-200.000	0.010	-0.102
-421.515	42.645	0.409	0.372
-420.500	520.305	-0.055	-0.128
-419.486	-200.000	-0.053	0.260
-418.471	8.682	-0.063	-0.047
-417.457	45.265	-0.027	0.024
-416.442	800.000	-0.139	0.388
-415.428	100.223	0.211	0.244
-414.413	-36.283	0.022	-0.012
-413.398	-35.531	-0.133	-0.072
-412.384	-107.671	0.152	-0.033
-411.369	3.696	0.167	0.122
-410.355	321.791	0.063	-0.120
-409.340	309.132	-0.056	-0.104
-408.325	-85.906	-0.078	-0.024
-407.311	-70.676	-0.173	-0.065
-406.296	-128.857	-0.408	-0.057
-405.282	-143.359	-0.345	0.033
-404.267	800.000	-0.037	0.107
-403.252	13.381	0.144	0.111
-402.238	97.296	-0.198	0.226
-401.223	-200.000	-0.014	0.172
-400.209	-18.358	-0.181	0.113
-399.194	-75.856	0.325	0.115
-398.179	179.634	-0.096	0.140
-397.165	-134.445	0.065	-0.008
-396.150	-109.109	-0.176	0.037
-395.136	-136.841	0.197	0.023
-394.121	180.762	-0.101	-0.147
-393.106	-57.115	0.094	-0.041
-392.092	-73.900	0.172	-0.062
-391.077	66.884	0.046	-0.046
-390.063	149.840	-0.069	-0.093
-389.048	-98.267	-0.030	0.008
-388.033	-200.000	0.054	0.304
-387.019	142.174	0.171	-0.226
-386.004	127.693	-0.313	-0.396
-384.990	-200.000	-0.005	0.227
-383.975	-51.320	0.195	0.091
-382.960	-179.101	0.373	-0.008
-381.946	179.542	-0.185	0.270
-380.931	-200.000	-0.024	0.332
-379.917	-39.371	-0.095	-0.049
-378.902	13.936	-0.166	-0.128
-377.888	800.000	-0.053	-0.200
-376.873	-80.176	-0.477	-0.159
-375.858	-200.000	-0.002	0.106
-374.844	-134.551	0.264	0.032
-373.829	800.000	-0.022	0.062
-372.815	432.396	0.125	-0.270
-371.800	-104.135	-0.209	-0.048
-370.785	-200.000	0.008	0.434
-369.771	-200.000	0.013	0.239
-368.756	-1.401	0.148	0.104
-367.742	-70.712	0.245	-0.092
-366.727	-184.397	-0.137	0.002
-365.712	-125.142	-0.294	-0.045
-364.698	151.715	-0.049	0.066
-363.683	26.725	-0.284	-0.237
-362.669	532.419	-0.143	-0.337
-361.654	-89.554	0.170	-0.050
-360.639	-200.000	-0.088	-0.387
-359.625	-20.104	0.087	-0.053
-358.610	59.687	0.078	0.076
-357.596	22.177	0.126	0.103
-356.581	323.539	0.039	-0.075
-355.566	-11.259	0.111	0.073
-354.552	-18.917	0.155	0.096
-353.537	-166.198	0.365	0.015
-352.523	-107.029	0.317	0.070
-351.508	177.297	0.029	0.041
-350.493	-27.844	0.082	0.047
-349.479	-38.282	0.256	0.135
-348.464	122.458	-0.102	0.127
-347.450	800.000	0.005	0.019
-346.435	86.076	0.071	-0.078
-345.420	338.210	0.036	-0.070
-344.406	800.000	-0.097	0.279
-343.391	570.421	-0.059	0.143
-342.377	112.186	0.143	0.172
-341.362	181.269	0.148	-0.217
-340.348	-11.252	-0.241	-0.158
-339.333	-28.291	-0.156	0.090
-338.318	36.567	-0.125	0.110
-337.304	9.325	0.097	-0.073
-336.289	-51.111	-0.211	-0.098
-335.275	665.609	-0.033	0.085
-334.260	-125.703	-0.150	-0.023
-333.245	-3.476	-0.179	-0.124
-332.231	800.000	-0.044	-0.135
-331.216	-85.482	0.245	-0.076
-330.202	-36.389	-0.129	0.069
-329.187	269.752	0.163	-0.285
-328.172	-155.326	-0.242	0.016
-327.158	-59.747	0.319	-0.136
-326.143	-0.582	-0.431	-0.304
-325.129	-16.554	0.124	0.078
-324.114	511.390	0.153	0.353
-323.099	575.861	-0.060	0.145
-322.085	49.134	0.111	-0.103
-321.070	-110.241	-0.086	0.018
-320.056	-200.000	0.052	0.227
-319.041	800.000	-0.070	0.243
-318.026	-45.381	0.139	0.068
-317.012	574.755	0.006	-0.014
-315.997	-200.000	0.021	0.186
-314.983	800.000	0.045	0.186
-313.968	-200.000	0.052	-0.269
-312.953	800.000	0.044	-0.159
-311.939	-51.237	-0.196	0.091
-310.924	-122.522	-0.218	0.035
-309.910	-68.979	0.214	0.082
-308.895	85.936	-0.125	0.136
-307.880	-27.432	0.199	0.115
-306.866	161.033	0.022	-0.031
-305.851	800.000	0.062	-0.183
-304.837	80.261	-0.132	-0.141
-303.822	353.683	0.078	-0.153
-302.807	33.451	0.120	0.104
-301.793	-73.801	-0.064	0.023
-300.778	217.152	0.164	-0.259
-299.764	-200.000	0.023	-0.175
-298.749	-55.039	0.284	0.127
-297.735	-176.442	-0.035	-0.001
-296.720	-73.164	0.225	0.082
-295.705	162.244	0.239	-0.333
-294.691	-70.783	-0.188	-0.070
-293.676	217.125	-0.149	0.235
-292.662	242.653	0.068	-0.114
-291.647	403.992	0.154	0.322
-290.632	-157.865	0.282	-0.017
-289.618	113.571	-0.253	0.305
-288.603	800.000	-0.051	-0.197
-287.589	79.071	-0.075	-0.080
-286.574	-14.045	0.144	-0.092
-285.559	-131.670	-0.321	-0.042
-284.545	402.941	-0.079	0.164
-283.530	124.720	-0.033	0.041
-282.516	206.072	0.074	0.114
-281.501	415.420	0.108	-0.228
-280.486	73.557	-0.072	-0.075
-279.472	341.556	0.049	0.095
-278.457	139.189	-0.155	-0.202
-277.443	130.653	0.062	-0.079
-276.428	-103.688	0.289	-0.067
-275.413	615.517	0.053	0.133
-274.399	-64.113	0.132	0.053
-273.384	800.000	0.093	0.366
-272.370	-81.602	0.405	0.132
-271.355	-175.802	0.073	0.002
-270.340	-86.202	0.125	0.038
-269.326	60.307	-0.205	-0.201
-268.311	-126.188	0.296	0.044
-267.297	800.000	-0.091	-0.293
-266.282	800.000	-0.025	0.079
-265.267	-24.900	0.190	-0.112
-264.253	800.000	0.012	0.044
-263.238	-200.000	-0.014	-0.355
-262.224	-131.020	0.096	-0.013
-261.209	-63.813	0.317	0.128
-260.195	-200.000	0.030	0.132
-259.180	5.764	-0.118	0.087
-258.165	-18.021	-0.041	-0.025
-257.151	-55.032	-0.110	-0.049
-256.136	-40.653	-0.264	0.136
-255.122	5.936	0.134	0.098
-254.107	800.000	0.034	-0.103
-253.092	-200.000	0.007	-0.224
-252.078	-200.000	0.039	-0.378
-251.063	-68.889	0.061	-0.023
-250.049	-53.144	0.062	0.028
-249.034	-186.031	0.183	0.003
-248.019	-78.165	-0.109	-0.037
-247.005	244.425	0.039	0.064
-245.990	-200.000	-0.036	-0.237
-244.976	-111.437	-0.244	0.049
-243.961	-87.835	-0.139	0.041
-242.946	59.479	0.260	-0.254
-241.932	-69.096	-0.049	0.019
-240.917	-151.444	-0.034	-0.003
-239.903	-86.233	-0.147	0.045
-238.888	-61.028	-0.108	0.045
-237.873	-86.801	0.229	-0.069
-236.859	-142.037	-0.089	0.009
-235.844	22.045	0.199	0.161
-234.830	-144.516	0.070	-0.006
-233.815	-148.539	0.357	0.029
-232.800	-25.529	-0.121	0.071
-231.786	522.177	0.064	-0.148
-230.771	373.193	0.124	0.249
-229.757	23.622	0.109	-0.089
-228.742	-80.788	0.181	0.060
-227.727	800.000	-0.061	-0.213
-226.713	-12.357	-0.090	0.058
-225.698	-156.645	0.118	-0.007
-224.684	-91.979	0.276	0.077
-223.669	-108.889	-0.066	-0.014
-222.655	-155.756	-0.073	0.005
-221.640	55.495	-0.203	0.194
-220.625	0.652	0.134	0.095
-219.611	149.330	-0.173	-0.231
-218.596	-124.844	-0.134	0.020
-217.582	-141.218	-0.079	-0.008
-216.567	-155.909	-0.387	-0.024
-215.552	231.170	-0.131	0.212
-214.538	64.715	-0.252	0.252
-213.523	-200.000	-0.028	0.334
-212.509	-24.153	-0.339	-0.200
-211.494	363.793	0.063	-0.126
-210.479	-28.849	-0.175	0.099
-209.465	-200.000	0.019	-0.128
-208.450	754.530	-0.012	0.032
-207.436	800.000	-0.023	-0.065
-206.421	-101.874	-0.032	-0.008
-205.406	-75.994	-0.336	0.118
-204.392	-13.746	0.085	0.054
-203.377	-200.000	-0.011	-0.179
-202.363	410.731	-0.181	-0.379
-201.348	-143.673	0.132	-0.012
-200.333	-98.598	0.266	0.067
-199.319	53.213	0.162	-0.153
-198.304	-200.000	-0.040	0.290
-197.290	106.926	-0.175	0.205
-196.275	-90.090	-0.240	0.069
-195.260	800.000	-0.070	0.231
-194.246	800.000	0.065	0.283
-193.231	91.186	-0.112	-0.125
-192.217	779.018	-0.098	-0.265
-191.202	137.653	-0.061	-0.079
-190.187	138.315	0.040	0.052
-189.173	98.923	-0.094	0.108
-188.158	800.000	0.096	-0.269
-187.144	108.463	-0.265	0.312
-186.129	189.932	0.182	0.270
-185.114	-200.000	0.010	0.202
-184.100	-25.404	0.111	-0.065
-183.085	800.000	-0.074	-0.258
-182.071	-200.000	-0.024	0.207
-181.056	-63.507	0.375	-0.152
-180.042	-200.000	-0.018	0.283
-179.027	-200.000	-0.007	0.180
-178.012	49.694	-0.084	-0.079
-176.998	800.000	0.087	-0.287
-175.983	800.000	0.039	0.127
-174.969	12.069	-0.303	0.230
-173.954	468.449	-0.053	0.117
-172.939	-200.000	-0.015	0.102
-171.925	308.047	0.155	-0.286
-170.910	-200.000	0.005	-0.148
-169.896	-153.927	-0.370	0.025
-168.881	-200.000	-0.013	-0.205
-167.866	20.835	-0.249	-0.199
-166.852	407.435	-0.109	0.227
-165.837	-67.312	0.196	-0.076
-164.823	81.664	0.109	0.116
-163.808	-72.883	0.363	0.132
-162.793	287.152	-0.291	-0.520
-161.779	93.483	-0.107	0.119
-160.764	-122.648	-0.269	0.043
-159.750	-60.128	-0.072	0.030
-158.735	229.713	-0.158	0.254
-157.720	298.837	0.192	-0.349
-156.706	53.183	0.119	0.113
-155.691	-89.655	0.367	-0.106
-154.677	-157.707	0.125	-0.007
-153.662	-5.070	-0.267	0.182
-152.647	-200.000	-0.005	0.354
-151.633	-94.656	0.350	0.094
-150.618	337.473	0.114	-0.219
-149.604	-121.832	0.319	0.052
-148.589	97.477	0.164	0.186
-147.574	-62.160	0.493	-0.203
-146.560	-59.754	0.086	-0.036
-145.545	-91.023	0.070	0.020
-144.531	-18.631	0.059	-0.036
-143.516	-145.201	0.140	-0.012
-142.502	-21.036	0.241	-0.145
-141.487	-60.989	0.195	0.081
-140.472	-29.052	0.119	0.067
-139.458	-200.000	0.043	-0.325
-138.443	-129.111	0.190	0.026
-137.429	-50.716	0.112	0.052
-136.414	-6.752	0.191	-0.128
-135.399	46.434	-0.368	0.337
-134.385	-200.000	0.013	-0.287
-133.370	79.701	0.223	0.236
-132.356	132.559	0.182	0.232
-131.341	-54.337	-0.271	0.121
-130.326	-139.748	-0.342	0.036
-129.312	-88.839	0.142	-0.041
-128.297	66.881	-0.172	0.172
-127.283	800.000	0.048	0.203
-126.268	800.000	0.043	0.118
-125.253	-94.345	-0.076	0.020
-124.239	507.791	-0.059	-0.134
-123.224	-44.742	-0.069	0.034
-122.210	53.418	-0.117	-0.110
-121.195	-115.970	0.120	0.022
