DTS Sentinel unit serial number:	SN413079Multiplexer serial number:	ORYXHardware model number:	OX4-SRSoftware version number:	ORYX F/W v4.00 Oryx Data Collector v3.7.2.0data status	okinstallation	princeton_trtdifferential loss correction	single-endedforward channel	channel 1reverse channel	N/Adate	2019/09/13time	16:14:35forward acquisition time	60.00reverse acquisition time	0.00gamma	496.2192k internal	0.2304k external	0.2304temperature offset calibration	1.0159default loss term (dB/km)	0.3790temperature slope calibration	1.0000multiplexer offset coefficient	1.0000multiplexer slope coefficient	1.0000fibre end	0.00T internal ref (°C)	34.84T ext. ref 1 (°C)	4.84T ext. ref 2 (°C)	31.66length (m)	temperature (°C)	Stokes	anti-Stokes-747.200	-200.000	-0.028	0.186
-746.185	-42.540	0.368	0.191
-745.171	-200.000	0.002	0.207
-744.156	-200.000	0.003	0.270
-743.142	81.386	0.166	0.183
-742.127	-35.468	-0.135	0.075
-741.112	51.615	-0.297	-0.287
-740.098	83.944	-0.078	0.087
-739.083	395.580	-0.150	0.318
-738.069	-87.573	-0.101	-0.031
-737.054	-15.082	-0.165	0.108
-736.039	800.000	0.087	0.380
-735.025	-53.598	0.215	0.100
-734.010	83.141	0.025	0.028
-732.996	66.945	-0.178	-0.185
-731.981	75.619	0.277	-0.297
-730.966	-200.000	-0.044	-0.365
-729.952	-19.729	-0.189	-0.119
-728.937	-36.270	0.131	-0.072
-727.923	-80.960	-0.203	0.069
-726.908	327.020	-0.037	0.073
-725.894	-52.320	-0.026	-0.012
-724.879	-21.571	0.179	0.111
-723.864	298.780	-0.237	-0.444
-722.850	-46.856	-0.358	0.178
-721.835	-67.002	0.229	-0.092
-720.821	56.407	-0.132	0.130
-719.806	-200.000	0.039	-0.259
-718.791	111.992	-0.221	-0.272
-717.777	610.202	-0.113	-0.286
-716.762	87.276	0.113	-0.128
-715.748	581.157	-0.024	0.061
-714.733	-200.000	-0.017	0.272
-713.718	-200.000	0.005	0.030
-712.704	62.645	0.085	-0.087
-711.689	-27.434	0.234	-0.138
-710.675	-200.000	-0.044	-0.341
-709.660	66.989	0.083	0.086
-708.645	144.798	-0.091	-0.124
-707.631	-103.869	0.173	0.041
-706.616	-117.168	0.195	0.036
-705.602	-62.092	0.338	0.143
-704.587	-148.591	0.245	0.020
-703.572	150.164	0.046	-0.063
-702.558	-152.051	0.293	0.022
-701.543	-30.260	-0.186	0.107
-700.529	-106.789	-0.277	-0.062
-699.514	-115.402	-0.253	-0.049
-698.499	-196.222	0.338	0.002
-697.485	-85.696	0.402	-0.127
-696.470	-78.590	-0.327	0.114
-695.456	-44.437	0.106	-0.054
-694.441	-200.000	0.048	-0.215
-693.426	-200.000	-0.007	-0.563
-692.412	91.416	0.270	0.308
-691.397	-185.227	-0.277	-0.004
-690.383	448.386	-0.059	0.133
-689.368	51.293	0.143	-0.138
-688.354	-69.137	-0.231	0.090
-687.339	-123.292	-0.029	0.005
-686.324	-164.858	-0.134	0.006
-685.310	132.393	-0.050	0.065
-684.295	-159.582	0.024	0.001
-683.281	597.150	0.022	-0.056
-682.266	-103.746	-0.208	-0.049
-681.251	-40.404	0.085	0.045
-680.237	-200.000	0.009	0.125
-679.222	800.000	0.046	0.199
-678.208	-171.466	-0.127	-0.004
-677.193	-97.071	-0.141	-0.037
-676.178	-200.000	-0.007	0.054
-675.164	173.156	-0.078	0.114
-674.149	-139.945	0.082	0.009
-673.135	-102.701	0.323	-0.078
-672.120	92.712	-0.093	-0.106
-671.105	103.638	0.160	0.191
-670.091	-28.780	-0.117	0.068
-669.076	-69.683	-0.087	0.034
-668.062	114.334	-0.117	0.145
-667.047	-183.453	-0.174	0.003
-666.032	599.220	0.298	-0.751
-665.018	263.693	-0.093	-0.164
-664.003	175.357	-0.055	-0.081
-662.989	-162.705	0.067	0.003
-661.974	800.000	0.119	-0.491
-660.959	-75.644	0.237	0.085
-659.945	-35.826	0.336	0.185
-658.930	84.653	-0.109	0.121
-657.916	800.000	0.060	-0.191
-656.901	87.394	0.239	-0.268
-655.886	800.000	0.024	-0.084
-654.872	636.701	0.128	-0.329
-653.857	-200.000	-0.016	0.176
-652.843	115.166	-0.016	-0.020
-651.828	800.000	0.050	-0.223
-650.814	58.803	-0.107	0.107
-649.799	-20.973	0.145	0.090
-648.784	206.448	0.144	0.228
-647.770	283.004	0.102	0.185
-646.755	314.562	-0.153	-0.292
-645.741	256.471	0.126	-0.219
-644.726	-200.000	0.025	-0.118
-643.711	-20.886	0.402	0.250
-642.697	-40.605	-0.095	0.050
-641.682	93.451	-0.034	0.039
-640.668	-0.776	-0.052	0.037
-639.653	99.902	0.152	0.179
-638.638	634.196	0.039	-0.101
-637.624	-131.973	0.114	-0.015
-636.609	-200.000	0.009	0.179
-635.595	409.440	0.048	0.102
-634.580	-158.001	0.167	-0.010
-633.565	-97.712	0.264	-0.069
-632.551	-200.000	-0.035	0.228
-631.536	800.000	-0.026	0.086
-630.522	-27.695	0.153	0.090
-629.507	-200.000	-0.015	0.134
-628.492	-182.308	-0.052	0.001
-627.478	-200.000	-0.001	0.247
-626.463	-200.000	-0.044	0.204
-625.449	456.126	0.063	0.143
-624.434	766.133	0.155	-0.428
-623.419	-98.845	0.057	0.015
-622.405	-19.778	0.223	0.139
-621.390	406.239	-0.062	0.133
-620.376	96.249	0.139	0.161
-619.361	-200.000	0.006	-0.056
-618.346	800.000	-0.088	0.256
-617.332	-200.000	-0.039	-0.288
-616.317	-200.000	0.025	-0.225
-615.303	136.163	-0.174	-0.230
-614.288	259.703	-0.080	-0.141
-613.273	-65.525	-0.117	0.047
-612.259	300.449	0.111	0.207
-611.244	-200.000	-0.025	-0.227
-610.230	-93.945	0.119	-0.033
-609.215	126.208	0.126	-0.162
-608.201	-117.601	0.248	-0.045
-607.186	800.000	-0.052	-0.229
-606.171	718.796	0.080	-0.214
-605.157	-144.477	-0.427	0.040
-604.142	4.671	-0.148	0.110
-603.128	-200.000	-0.010	0.349
-602.113	-200.000	0.028	0.176
-601.098	217.978	-0.077	0.124
-600.084	296.236	-0.087	-0.161
-599.069	-200.000	0.012	-0.068
-598.055	-11.460	-0.047	0.031
-597.040	-200.000	0.014	-0.162
-596.025	71.278	-0.173	-0.182
-595.011	-200.000	0.013	0.149
-593.996	-17.587	0.101	0.064
-592.982	-119.338	0.283	-0.050
-591.967	37.860	0.214	0.192
-590.952	-36.632	0.134	-0.073
-589.938	-135.863	-0.035	-0.004
-588.923	403.320	-0.100	0.213
-587.909	-82.955	0.248	0.081
-586.894	125.159	-0.220	-0.281
-585.879	118.119	0.096	0.120
-584.865	104.410	-0.274	-0.327
-583.850	-3.502	0.302	0.212
-582.836	661.966	-0.199	-0.519
-581.821	-153.733	-0.246	-0.017
-580.806	-36.492	0.255	0.139
-579.792	25.726	0.063	0.053
-578.777	-99.183	-0.325	-0.083
-577.763	100.899	0.111	-0.131
-576.748	15.740	0.157	0.125
-575.733	-83.918	-0.601	0.193
-574.719	-200.000	-0.011	0.074
-573.704	74.493	0.087	-0.092
-572.690	34.249	0.237	0.209
-571.675	-107.998	-0.159	0.035
-570.661	-200.000	0.001	-0.061
-569.646	-109.851	-0.155	-0.033
-568.631	63.549	-0.110	-0.112
-567.617	-200.000	-0.007	0.233
-566.602	-112.487	-0.331	0.067
-565.588	-128.556	0.478	0.068
-564.573	800.000	-0.089	-0.252
-563.558	681.548	-0.115	-0.303
-562.544	12.625	0.292	-0.228
-561.529	-200.000	0.002	-0.243
-560.515	-127.230	0.283	-0.042
-559.500	-178.268	0.423	0.010
-558.485	-53.983	-0.252	0.116
-557.471	-53.673	0.239	0.110
-556.456	-114.187	-0.219	-0.043
-555.442	-200.000	0.001	0.060
-554.427	-32.392	0.242	0.137
-553.412	51.401	-0.350	-0.336
-552.398	800.000	-0.119	-0.469
-551.383	-200.000	0.008	0.171
-550.369	-155.894	0.383	-0.025
-549.354	-33.331	-0.173	0.097
-548.339	53.847	-0.254	-0.246
-547.325	186.938	0.053	0.080
-546.310	-200.000	0.017	0.288
-545.296	16.013	0.275	0.219
-544.281	636.578	0.027	0.068
-543.266	511.439	0.039	-0.092
-542.252	-200.000	-0.075	-0.400
-541.237	348.296	-0.071	0.141
-540.223	63.975	0.194	0.197
-539.208	22.527	-0.363	-0.300
-538.193	-173.711	-0.507	-0.015
-537.179	78.908	0.150	0.162
-536.164	-137.015	-0.299	0.035
-535.150	-113.130	-0.282	-0.056
-534.135	96.567	0.083	0.096
-533.121	51.989	-0.164	0.158
-532.106	240.809	0.071	0.120
-531.091	-200.000	0.011	-0.146
-530.077	-75.128	0.215	-0.078
-529.062	95.559	-0.141	0.162
-528.048	-200.000	0.066	0.303
-527.033	296.472	-0.123	0.227
-526.018	-120.902	-0.195	-0.033
-525.004	526.214	-0.098	-0.232
-523.989	172.878	0.136	-0.198
-522.975	-200.000	-0.010	-0.108
-521.960	278.427	0.082	0.147
-520.945	156.640	0.084	-0.118
-519.931	196.629	0.115	-0.177
-518.916	-53.064	-0.115	-0.053
-517.902	298.787	0.014	-0.026
-516.887	-121.446	-0.307	-0.052
-515.872	410.033	0.092	-0.197
-514.858	-200.000	0.006	-0.266
-513.843	-200.000	-0.028	-0.447
-512.829	-200.000	0.007	-0.125
-511.814	-121.439	-0.226	0.038
-510.799	-91.102	0.107	0.031
-509.785	27.861	-0.144	-0.122
-508.770	45.161	0.023	0.021
-507.756	77.174	0.118	0.127
-506.741	308.424	0.086	-0.161
-505.726	800.000	0.044	0.162
-504.712	-52.430	0.142	-0.066
-503.697	-29.983	-0.212	-0.122
-502.683	800.000	0.027	-0.104
-501.668	-111.819	-0.174	0.035
-500.653	800.000	-0.091	0.290
-499.639	-85.722	-0.309	-0.097
-498.624	-200.000	-0.022	-0.117
-497.610	-67.747	-0.250	0.098
-496.595	8.834	0.213	0.162
-495.581	38.908	-0.206	-0.186
-494.566	-27.291	-0.289	-0.170
-493.551	74.734	0.246	-0.261
-492.537	-117.934	-0.256	-0.046
-491.522	-136.724	-0.241	-0.028
-490.508	-157.062	0.568	0.035
-489.493	-44.871	0.052	0.026
-488.478	-37.689	0.209	-0.112
-487.464	399.009	-0.139	0.294
-486.449	800.000	0.026	-0.076
-485.435	-71.043	0.267	0.101
-484.420	800.000	-0.079	0.249
-483.405	-33.246	-0.240	-0.134
-482.391	14.935	-0.152	0.120
-481.376	222.623	0.190	0.308
-480.362	-200.000	-0.077	0.418
-479.347	-131.942	0.097	0.013
-478.332	125.599	0.128	-0.163
-477.318	393.271	-0.146	-0.306
-476.303	189.085	-0.309	-0.467
-475.289	442.587	0.156	0.345
-474.274	-142.860	-0.169	0.017
-473.259	-5.852	-0.262	0.181
-472.245	-200.000	-0.048	0.256
-471.230	-72.565	-0.230	-0.086
-470.216	-200.000	-0.040	-0.179
-469.201	98.869	0.151	-0.175
-468.186	-200.000	0.015	0.079
-467.172	-72.803	-0.269	-0.100
-466.157	508.789	-0.217	-0.508
-465.143	-182.490	-0.232	-0.004
-464.128	-176.557	-0.175	0.005
-463.113	-200.000	0.030	0.220
-462.099	-200.000	0.021	-0.360
-461.084	178.849	-0.041	-0.060
-460.070	10.884	0.237	0.183
-459.055	800.000	0.041	-0.161
-458.040	233.676	-0.085	0.141
-457.026	-130.998	0.319	0.043
-456.011	107.141	0.070	0.084
-454.997	584.332	0.062	0.155
-453.982	800.000	-0.044	0.145
-452.968	332.486	-0.124	0.240
-451.953	-72.578	-0.115	-0.043
-450.938	-166.705	-0.156	-0.007
-449.924	-200.000	-0.036	0.224
-448.909	76.605	-0.104	0.111
-447.895	699.403	-0.030	-0.079
-446.880	-93.487	0.307	-0.085
-445.865	320.350	-0.144	0.275
-444.851	800.000	-0.022	0.087
-443.836	-91.168	-0.092	-0.027
-442.822	-191.762	0.179	-0.002
-441.807	-200.000	0.001	-0.063
-440.792	800.000	0.053	-0.177
-439.778	-112.270	0.364	-0.073
-438.763	398.888	-0.095	-0.200
-437.749	44.695	-0.084	-0.078
-436.734	-90.758	0.386	0.112
-435.719	-200.000	0.008	0.053
-434.705	-141.456	-0.288	0.029
-433.690	-200.000	-0.067	0.367
-432.676	-30.210	0.191	-0.109
-431.661	-189.970	0.205	0.002
-430.646	-66.823	-0.106	-0.042
-429.632	-178.736	-0.131	-0.003
-428.617	-200.000	-0.013	-0.134
-427.603	153.032	0.065	0.089
-426.588	76.137	0.112	0.119
-425.573	-63.145	0.140	-0.058
-424.559	-131.669	-0.184	0.024
-423.544	666.708	0.096	0.250
-422.530	-93.326	0.183	-0.051
-421.515	-200.000	-0.004	0.174
-420.500	-119.454	0.037	0.007
-419.486	227.887	0.037	-0.060
-418.471	-159.591	-0.112	-0.006
-417.457	188.296	-0.164	-0.246
-416.442	-200.000	-0.007	-0.073
-415.428	-47.025	-0.052	0.026
-414.413	738.869	-0.160	0.430
-413.398	-200.000	0.045	-0.353
-412.384	-200.000	-0.001	0.081
-411.369	800.000	0.023	-0.079
-410.355	-2.464	0.107	-0.075
-409.340	-3.757	0.087	-0.061
-408.325	-200.000	-0.035	-0.257
-407.311	29.946	-0.103	-0.088
-406.296	-200.000	-0.020	-0.089
-405.282	-8.440	-0.215	-0.146
-404.267	-74.095	0.330	-0.120
-403.252	-200.000	-0.034	-0.266
-402.238	-79.707	0.062	-0.021
-401.223	-200.000	-0.021	-0.226
-400.209	45.083	-0.079	-0.074
-399.194	-61.256	-0.150	-0.063
-398.179	577.230	-0.018	-0.044
-397.165	-45.215	-0.202	0.101
-396.150	800.000	0.058	0.200
-395.136	84.389	-0.096	-0.105
-394.121	15.418	-0.209	-0.165
-393.106	221.591	0.065	0.105
-392.092	28.098	0.223	0.189
-391.077	800.000	0.041	0.145
-390.063	119.017	-0.100	0.124
-389.048	170.326	0.100	-0.143
-388.033	48.824	0.193	0.182
-387.019	-63.848	-0.312	0.128
-386.004	455.361	-0.197	0.439
-384.990	141.829	-0.170	-0.226
-383.975	10.538	-0.107	-0.082
-382.960	279.219	-0.097	-0.173
-381.946	-200.000	-0.002	0.181
-380.931	52.480	-0.122	0.117
-379.917	800.000	0.028	0.104
-378.902	-158.167	-0.191	0.011
-377.888	53.804	-0.148	0.143
-376.873	117.491	0.013	0.016
-375.858	800.000	0.054	0.188
-374.844	-7.256	0.371	0.252
-373.829	-111.590	0.135	-0.027
-372.815	-89.715	0.237	-0.070
-371.800	800.000	0.062	0.270
-370.785	800.000	-0.074	0.286
-369.771	156.436	-0.185	0.256
-368.756	800.000	-0.073	-0.219
-367.742	-31.347	-0.076	0.043
-366.727	130.016	0.215	-0.276
-365.712	56.113	-0.171	-0.166
-364.698	-181.696	0.287	-0.006
-363.683	800.000	0.034	-0.133
-362.669	-53.953	-0.096	0.044
-361.654	-158.785	-0.181	0.010
-360.639	68.877	0.172	-0.177
-359.625	518.461	-0.117	-0.275
-358.610	-57.397	-0.142	0.063
-357.596	-166.415	0.116	0.005
-356.581	349.809	0.180	-0.357
-355.566	475.989	-0.036	0.082
-354.552	-177.784	-0.266	-0.006
-353.537	41.929	0.069	0.063
-352.523	-200.000	0.050	0.263
-351.508	376.919	-0.122	0.250
-350.493	-45.527	0.260	-0.129
-349.479	-61.048	0.141	-0.060
-348.464	-200.000	0.006	-0.058
-347.450	-200.000	0.011	0.158
-346.435	108.296	0.064	-0.076
-345.420	118.504	0.172	0.213
-344.406	76.217	-0.224	0.238
-343.391	-200.000	0.037	0.221
-342.377	-80.891	-0.111	0.037
-341.362	34.685	0.056	-0.049
-340.348	163.094	-0.216	-0.304
-339.333	543.025	0.079	0.188
-338.318	800.000	-0.064	0.246
-337.304	-72.476	0.076	0.028
-336.289	108.372	-0.083	0.099
-335.275	-41.949	0.115	0.059
-334.260	-200.000	-0.036	0.209
-333.245	-130.164	0.152	0.021
-332.231	-105.862	0.186	-0.042
-331.216	-20.138	0.125	0.077
-330.202	226.279	0.120	-0.195
-329.187	-141.472	0.417	-0.042
-328.172	-193.371	-0.550	-0.005
-327.158	-42.221	-0.083	0.042
-326.143	-103.183	0.095	-0.023
-325.129	270.440	-0.131	0.231
-324.114	290.909	-0.064	0.117
-323.099	-129.962	0.328	-0.045
-322.085	127.573	0.028	0.036
-321.070	-44.874	-0.258	0.129
-320.056	58.038	0.138	0.135
-319.041	101.751	0.267	-0.312
-318.026	-116.435	0.151	-0.028
-317.012	-81.945	-0.151	-0.049
-315.997	88.345	0.109	0.121
-314.983	-200.000	-0.019	-0.240
-313.968	-32.711	-0.277	0.154
-312.953	-52.955	0.347	0.160
-311.939	-108.379	-0.081	-0.017
-310.924	71.766	0.068	0.071
-309.910	-81.311	0.241	-0.080
-308.895	262.539	-0.189	-0.329
-307.880	-95.846	0.087	0.023
-306.866	4.050	-0.118	-0.086
-305.851	-57.723	-0.134	0.059
-304.837	-200.000	-0.025	-0.129
-303.822	-200.000	0.002	0.267
-302.807	368.418	0.028	-0.056
-301.793	33.177	-0.211	0.183
-300.778	-53.691	-0.093	0.042
-299.764	800.000	0.026	0.112
-298.749	-200.000	0.009	0.049
-297.735	-32.461	0.157	0.088
-296.720	164.483	-0.063	0.088
-295.705	270.381	-0.064	0.113
-294.691	-73.701	-0.053	0.019
-293.676	-176.472	0.232	-0.006
-292.662	101.473	-0.193	0.225
-291.647	65.790	0.075	-0.076
-290.632	800.000	-0.083	-0.266
-289.618	-161.093	-0.205	-0.011
-288.603	-33.482	-0.082	0.045
-287.589	-173.432	0.395	0.012
-286.574	-60.849	0.197	0.083
-285.559	-61.787	0.063	0.026
-284.545	-200.000	-0.015	-0.123
-283.530	-200.000	0.013	0.069
-282.516	16.921	0.106	-0.084
-281.501	383.157	-0.114	0.235
-280.486	-75.167	0.123	0.044
-279.472	20.947	-0.216	0.175
-278.457	-27.151	0.267	-0.156
-277.443	183.900	-0.140	0.207
-276.428	-43.777	-0.212	-0.107
-275.413	239.101	-0.087	0.145
-274.399	-99.653	-0.189	0.047
-273.384	-169.469	-0.222	0.008
-272.370	800.000	0.113	0.322
-271.355	-200.000	-0.003	-0.327
-270.340	639.586	-0.116	0.294
-269.326	-51.161	0.331	-0.155
-268.311	162.016	-0.176	0.246
-267.297	-82.262	0.126	-0.041
-266.282	39.099	-0.118	0.106
-265.267	-5.721	-0.138	-0.095
-264.253	-103.045	-0.126	0.030
-263.238	-48.089	-0.361	0.174
-262.224	90.447	-0.103	-0.115
-261.209	800.000	-0.058	-0.188
-260.195	-200.000	-0.065	0.299
-259.180	19.650	-0.382	0.307
-258.165	-60.994	0.070	-0.030
-257.151	103.250	-0.092	0.108
-256.136	800.000	-0.122	-0.477
-255.122	60.020	-0.140	0.138
-254.107	392.085	0.032	0.067
-253.092	52.710	0.314	-0.300
-252.078	-200.000	0.036	0.193
-251.063	-115.240	0.154	0.029
-250.049	479.748	0.084	-0.191
-249.034	-200.000	0.013	0.119
-248.019	123.878	-0.175	-0.220
-247.005	-199.913	0.190	-0.001
-245.990	-134.226	0.078	-0.010
-244.976	275.417	0.114	-0.201
-243.961	-200.000	0.012	-0.059
-242.946	800.000	-0.071	-0.250
-241.932	-200.000	-0.013	-0.366
-240.917	800.000	-0.069	-0.276
-239.903	181.486	-0.165	-0.242
-238.888	-8.481	0.116	0.078
-237.873	296.795	0.146	-0.267
-236.859	51.075	0.368	-0.348
-235.844	22.788	0.089	-0.073
-234.830	-84.599	0.225	0.071
-233.815	215.466	0.085	-0.135
-232.800	86.417	0.256	-0.282
-231.786	-117.731	-0.102	0.018
-230.771	-115.562	-0.301	-0.057
-229.757	33.084	-0.115	-0.100
-228.742	-126.104	-0.180	-0.027
-227.727	-200.000	0.021	-0.346
-226.713	-200.000	0.010	-0.229
-225.698	39.251	-0.211	-0.188
-224.684	-200.000	0.003	-0.022
-223.669	-103.775	-0.171	-0.040
-222.655	-77.984	0.251	-0.086
-221.640	800.000	0.043	-0.123
-220.625	-66.029	-0.229	-0.091
-219.611	-200.000	-0.002	0.083
-218.596	194.764	0.225	-0.341
-217.582	-71.245	-0.189	0.071
-216.567	143.810	-0.172	0.229
-215.552	-21.051	0.066	0.040
-214.538	-44.815	-0.129	0.064
-213.523	6.170	-0.397	-0.293
-212.509	800.000	0.091	-0.310
-211.494	-200.000	-0.040	0.288
-210.479	800.000	-0.056	-0.155
-209.465	800.000	0.112	-0.351
-208.450	-38.025	0.181	0.096
-207.436	342.247	-0.092	0.179
-206.421	-113.187	0.201	0.040
-205.406	-200.000	0.041	-0.308
-204.392	-72.472	0.132	-0.049
-203.377	-158.494	-0.476	0.027
-202.363	800.000	0.072	0.215
-201.348	-87.771	0.355	0.107
-200.333	-200.000	-0.009	0.408
-199.319	800.000	0.118	0.387
-198.304	-67.846	-0.331	0.129
-197.290	-8.768	0.141	-0.094
-196.275	-23.818	0.153	0.091
-195.260	48.981	0.130	0.122
-194.246	-200.000	0.010	-0.152
-193.231	-61.869	0.359	-0.150
-192.217	-71.817	-0.106	-0.039
-191.202	159.939	-0.101	0.140
-190.187	561.743	-0.092	-0.221
-189.173	-4.405	0.169	-0.116
-188.158	-155.282	-0.180	0.012
-187.144	110.885	0.062	0.075
-186.129	-200.000	0.002	-0.038
-185.114	60.208	0.174	0.172
-184.100	-101.250	0.078	0.019
-183.085	-87.471	-0.194	-0.059
-182.071	-200.000	0.016	0.192
-181.056	-42.061	0.028	-0.014
-180.042	788.713	0.087	0.237
-179.027	-115.290	-0.136	-0.026
-178.012	-200.000	0.012	0.137
-176.998	-121.380	-0.087	0.014
-175.983	477.229	0.187	0.420
-174.969	50.276	0.385	0.362
-173.954	19.521	0.103	0.082
-172.939	111.590	0.065	-0.078
-171.925	-96.929	-0.292	-0.076
-170.910	299.625	0.223	0.409
-169.896	-107.648	0.350	0.076
-168.881	800.000	0.100	-0.409
-167.866	222.266	0.042	-0.067
-166.852	-45.247	-0.185	-0.091
-165.837	-46.004	0.107	0.052
-164.823	-200.000	-0.009	0.206
-163.808	-200.000	-0.021	-0.122
-162.793	24.258	0.033	-0.027
-161.779	12.828	-0.099	-0.076
-160.764	56.306	0.029	-0.028
-159.750	225.473	-0.172	-0.277
-158.735	-136.645	0.218	0.025
-157.720	-127.065	0.238	-0.035
-156.706	10.905	0.067	0.051
-155.691	4.221	-0.057	0.041
-154.677	-200.000	0.018	0.129
-153.662	194.414	0.172	0.260
-152.647	-111.223	0.268	0.055
-151.633	-200.000	0.032	-0.174
-150.618	18.213	-0.307	-0.243
-149.604	-108.367	0.150	-0.032
-148.589	-29.622	-0.280	0.159
-147.574	75.480	-0.088	0.093
-146.560	227.773	-0.137	0.221
-145.545	800.000	0.027	-0.111
-144.531	800.000	0.053	-0.155
-143.516	80.619	-0.070	-0.075
-142.502	180.895	0.047	-0.069
-141.487	800.000	-0.032	-0.116
-140.472	396.944	-0.098	0.203
-139.458	236.553	-0.097	-0.159
-138.443	-112.397	0.066	-0.013
-137.429	-25.536	-0.054	0.032
-136.414	-112.028	-0.335	0.067
-135.399	150.681	0.077	-0.104
-134.385	-53.705	-0.096	0.044
-133.370	172.897	-0.249	0.357
-132.356	313.160	-0.203	0.379
-131.341	-65.707	0.247	-0.098
-130.326	-80.451	0.042	-0.014
-129.312	800.000	-0.086	-0.237
-128.297	254.828	0.168	0.287
-127.283	43.714	-0.068	-0.062
-126.268	-62.845	-0.159	-0.065
-125.253	-106.839	-0.044	-0.010
-124.239	228.723	0.187	-0.304
-123.224	-95.426	-0.271	0.072
-122.210	285.709	-0.100	-0.180
-121.195	-103.194	-0.173	-0.041
