DTS Sentinel unit serial number:	SN413079Multiplexer serial number:	ORYXHardware model number:	OX4-SRSoftware version number:	ORYX F/W v4.00 Oryx Data Collector v3.7.2.0data status	okinstallation	princeton_trtdifferential loss correction	single-endedforward channel	channel 1reverse channel	N/Adate	2019/09/14time	22:02:35forward acquisition time	60.00reverse acquisition time	0.00gamma	496.2192k internal	0.2319k external	0.2319temperature offset calibration	1.0005default loss term (dB/km)	0.3790temperature slope calibration	1.0000multiplexer offset coefficient	1.0000multiplexer slope coefficient	1.0000fibre end	0.00T internal ref (°C)	32.69T ext. ref 1 (°C)	4.71T ext. ref 2 (°C)	27.62length (m)	temperature (°C)	Stokes	anti-Stokes-747.200	118.040	0.120	-0.150
-746.185	574.688	0.019	0.046
-745.171	-200.000	-0.002	0.083
-744.156	-200.000	0.023	0.533
-743.142	5.092	0.036	0.027
-742.127	-200.000	0.040	0.342
-741.112	-99.264	-0.333	0.085
-740.098	-200.000	0.020	-0.197
-739.083	138.167	0.242	0.320
-738.069	-199.622	-0.239	0.001
-737.054	-200.000	0.049	-0.229
-736.039	800.000	-0.156	-0.493
-735.025	-27.859	0.172	0.101
-734.010	-66.503	-0.036	-0.014
-732.996	-82.646	0.198	0.065
-731.981	-200.000	-0.051	0.240
-730.966	-200.000	-0.050	0.313
-729.952	-20.639	0.060	-0.037
-728.937	-23.736	-0.244	-0.148
-727.923	77.237	0.258	0.277
-726.908	-200.000	-0.006	-0.061
-725.894	-150.613	0.315	-0.024
-724.879	258.954	0.118	-0.206
-723.864	-200.000	-0.005	-0.354
-722.850	-200.000	0.035	-0.200
-721.835	737.549	-0.060	0.164
-720.821	-82.585	-0.285	-0.093
-719.806	800.000	-0.007	0.025
-718.791	-200.000	-0.058	-0.347
-717.777	-33.594	-0.054	0.030
-716.762	-200.000	-0.000	-0.147
-715.748	283.161	0.146	0.265
-714.733	443.266	0.075	-0.166
-713.718	-49.120	-0.080	0.039
-712.704	-51.361	0.234	-0.111
-711.689	800.000	0.100	0.311
-710.675	-81.267	-0.137	-0.046
-709.660	-41.909	-0.274	-0.142
-708.645	62.714	-0.005	-0.005
-707.631	-190.924	-0.331	-0.004
-706.616	245.045	0.266	-0.452
-705.602	491.947	0.066	0.153
-704.587	248.518	0.225	0.385
-703.572	-110.564	0.071	-0.015
-702.558	424.363	-0.036	-0.078
-701.543	437.749	-0.039	-0.086
-700.529	227.198	0.171	-0.280
-699.514	-96.949	0.149	-0.039
-698.499	213.198	-0.007	-0.011
-697.485	-200.000	-0.049	0.257
-696.470	-200.000	0.042	0.195
-695.456	308.849	0.102	-0.192
-694.441	346.490	-0.122	-0.241
-693.426	-155.497	-0.181	-0.012
-692.412	800.000	0.103	-0.310
-691.397	-31.448	-0.168	0.095
-690.383	-200.000	0.058	0.369
-689.368	-200.000	0.001	0.205
-688.354	87.886	-0.150	0.168
-687.339	-123.343	-0.109	0.018
-686.324	-131.020	-0.126	0.017
-685.310	800.000	0.072	-0.304
-684.295	-3.901	0.226	-0.158
-683.281	-138.365	-0.303	0.034
-682.266	178.107	-0.283	-0.417
-681.251	1.807	0.304	-0.221
-680.237	800.000	-0.095	-0.352
-679.222	164.486	-0.070	0.100
-678.208	-128.349	-0.464	-0.067
-677.193	800.000	-0.037	-0.106
-676.178	-200.000	0.010	-0.469
-675.164	-102.736	0.092	-0.022
-674.149	183.682	-0.118	-0.177
-673.135	4.531	-0.128	0.095
-672.120	-200.000	-0.009	-0.162
-671.105	-85.203	0.142	-0.045
-670.091	-48.603	0.036	0.017
-669.076	-200.000	-0.030	0.191
-668.062	539.990	-0.120	0.287
-667.047	110.856	-0.146	0.177
-666.032	800.000	-0.031	-0.091
-665.018	-101.616	-0.365	-0.089
-664.003	800.000	0.068	-0.282
-662.989	-200.000	-0.018	-0.128
-661.974	-200.000	-0.001	0.153
-660.959	47.069	-0.130	-0.122
-659.945	164.168	-0.051	-0.073
-658.930	-200.000	0.057	-0.260
-657.916	-200.000	-0.020	0.158
-656.901	-132.586	-0.370	-0.048
-655.886	-105.060	0.400	-0.092
-654.872	-200.000	-0.002	0.184
-653.857	-99.354	-0.179	-0.046
-652.843	-46.192	0.211	-0.104
-651.828	-127.509	0.340	0.050
-650.814	-111.980	-0.621	0.126
-649.799	-22.148	-0.168	-0.103
-648.784	63.337	-0.135	0.137
-647.770	155.263	-0.120	-0.166
-646.755	-29.570	-0.294	-0.170
-645.741	800.000	-0.067	-0.207
-644.726	-105.333	0.319	0.073
-643.711	691.071	0.066	0.175
-642.697	-123.631	0.081	-0.013
-641.682	-104.146	-0.425	-0.100
-640.668	-116.524	0.144	-0.027
-639.653	-90.033	0.128	0.038
-638.638	25.889	-0.043	-0.036
-637.624	152.769	-0.121	-0.167
-636.609	-141.733	0.031	0.003
-635.595	126.055	0.131	-0.167
-634.580	-92.960	0.403	-0.113
-633.565	315.621	0.161	0.307
-632.551	-3.042	-0.254	-0.179
-631.536	-70.663	-0.035	0.013
-630.522	17.631	-0.261	-0.209
-629.507	397.325	-0.182	-0.383
-628.492	62.726	0.195	-0.196
-627.478	800.000	-0.072	0.237
-626.463	800.000	-0.016	0.060
-625.449	-130.627	0.387	-0.053
-624.434	-3.204	0.215	-0.151
-623.419	147.830	-0.122	-0.166
-622.405	-47.878	-0.136	0.066
-621.390	800.000	-0.031	0.101
-620.376	-132.856	0.114	-0.015
-619.361	11.797	0.075	-0.058
-618.346	-200.000	-0.014	0.248
-617.332	800.000	-0.085	0.270
-616.317	-151.413	-0.159	0.012
-615.303	-72.152	-0.438	-0.163
-614.288	-28.718	-0.155	-0.090
-613.273	-200.000	0.021	-0.219
-612.259	25.706	0.225	0.188
-611.244	-200.000	0.011	-0.118
-610.230	124.764	0.139	-0.176
-609.215	312.900	0.026	-0.048
-608.201	44.457	-0.136	-0.125
-607.186	79.828	-0.157	0.169
-606.171	150.097	-0.150	0.205
-605.157	800.000	0.046	0.175
-604.142	-5.080	-0.195	-0.135
-603.128	-200.000	-0.052	-0.249
-602.113	-200.000	-0.015	-0.131
-601.098	437.363	-0.035	-0.077
-600.084	460.950	-0.088	-0.197
-599.069	-200.000	0.026	-0.141
-598.055	479.175	0.108	-0.245
-597.040	-23.554	0.183	0.110
-596.025	-200.000	-0.013	0.278
-595.011	131.482	0.102	-0.132
-593.996	-16.841	-0.040	0.026
-592.982	-200.000	0.026	-0.261
-591.967	369.226	0.045	0.093
-590.952	546.672	-0.098	0.236
-589.938	58.946	0.115	-0.114
-588.923	18.129	-0.177	0.142
-587.909	114.214	-0.226	-0.276
-586.894	-125.752	0.139	0.021
-585.879	-74.242	0.039	-0.014
-584.865	430.424	0.025	0.054
-583.850	-34.053	0.263	0.146
-582.836	-136.599	-0.221	-0.026
-581.821	76.781	0.123	0.131
-580.806	51.818	0.241	0.230
-579.792	248.839	-0.097	-0.164
-578.777	292.170	0.088	0.160
-577.763	343.700	-0.118	-0.232
-576.748	70.065	-0.141	-0.146
-575.733	-112.236	0.271	-0.055
-574.719	800.000	0.050	-0.210
-573.704	-1.469	0.163	0.115
-572.690	-200.000	0.033	0.170
-571.675	800.000	-0.065	0.247
-570.661	-200.000	-0.050	-0.262
-569.646	16.370	0.174	0.138
-568.631	-98.228	0.104	-0.027
-567.617	42.839	-0.066	0.060
-566.602	574.982	-0.051	0.125
-565.588	-56.580	-0.440	-0.196
-564.573	66.312	-0.272	-0.277
-563.558	130.090	-0.064	-0.083
-562.544	-159.299	0.361	-0.020
-561.529	-71.626	0.158	-0.059
-560.515	-129.437	-0.115	0.016
-559.500	34.173	0.224	-0.196
-558.485	-200.000	-0.088	-0.402
-557.471	-200.000	0.023	-0.108
-556.456	-80.488	0.173	-0.058
-555.442	193.750	-0.196	-0.298
-554.427	28.158	-0.121	-0.102
-553.412	-135.039	-0.207	0.025
-552.398	-200.000	0.003	-0.123
-551.383	-154.847	0.147	-0.010
-550.369	-72.019	-0.154	-0.058
-549.354	-83.272	0.390	0.126
-548.339	-200.000	0.037	-0.221
-547.325	135.208	0.300	-0.392
-546.310	-119.042	0.234	0.041
-545.296	11.069	-0.192	0.148
-544.281	800.000	-0.108	-0.472
-543.266	486.860	0.081	-0.186
-542.252	800.000	-0.041	0.157
-541.237	66.813	-0.018	0.019
-540.223	-127.032	0.313	-0.046
-539.208	-34.641	-0.193	-0.106
-538.193	-53.656	0.251	-0.115
-537.179	64.653	0.251	-0.254
-536.164	-152.914	0.327	0.023
-535.150	2.933	-0.226	-0.164
-534.135	-200.000	0.013	-0.185
-533.121	162.363	-0.131	-0.185
-532.106	-200.000	-0.028	-0.175
-531.091	-43.633	-0.195	-0.099
-530.077	248.867	0.046	-0.078
-529.062	246.631	-0.151	-0.256
-528.048	-142.808	0.269	0.026
-527.033	190.163	-0.181	0.272
-526.018	-200.000	-0.023	-0.120
-525.004	214.446	-0.079	0.125
-523.989	-114.650	0.199	-0.038
-522.975	-112.727	-0.254	0.051
-521.960	800.000	0.059	-0.235
-520.945	800.000	0.031	-0.123
-519.931	-11.831	0.062	-0.041
-518.916	216.584	-0.101	0.161
-517.902	469.886	0.140	0.315
-516.887	800.000	-0.045	0.196
-515.872	-111.671	-0.335	0.068
-514.858	790.712	0.082	0.227
-513.843	-200.000	-0.005	-0.085
-512.829	-55.228	-0.050	0.022
-511.814	-129.830	-0.183	0.025
-510.799	88.781	-0.006	0.007
-509.785	100.344	-0.172	-0.200
-508.770	-90.263	-0.316	-0.092
-507.756	-65.815	0.054	-0.022
-506.741	-200.000	-0.006	0.031
-505.726	124.620	0.270	0.340
-504.712	-106.070	-0.145	0.033
-503.697	-12.701	0.025	0.016
-502.683	-3.512	-0.257	-0.179
-501.668	-142.027	-0.266	0.027
-500.653	-26.190	0.162	-0.096
-499.639	-132.948	-0.135	-0.017
-498.624	34.668	-0.102	-0.089
-497.610	-53.197	-0.149	0.069
-496.595	-64.366	0.168	0.069
-495.581	65.517	-0.047	0.047
-494.566	-200.000	0.015	0.177
-493.551	73.975	-0.176	-0.185
-492.537	504.768	0.086	-0.198
-491.522	352.860	0.030	0.060
-490.508	800.000	0.058	-0.181
-489.493	-60.704	0.221	0.094
-488.478	-47.578	0.180	-0.087
-487.464	300.956	0.017	-0.031
-486.449	50.221	0.088	0.083
-485.435	-107.764	0.165	0.036
-484.420	-107.586	-0.477	-0.104
-483.405	-200.000	0.021	-0.266
-482.391	148.468	-0.064	0.086
-481.376	-79.249	-0.037	0.012
-480.362	800.000	0.071	0.251
-479.347	-166.087	0.248	0.011
-478.332	84.346	-0.048	0.053
-477.318	-200.000	-0.005	-0.116
-476.303	-96.768	0.220	-0.058
-475.289	33.552	-0.093	0.081
-474.274	-200.000	0.015	-0.181
-473.259	356.582	0.104	-0.207
-472.245	425.071	-0.061	-0.131
-471.230	-41.626	0.091	-0.047
-470.216	34.624	0.140	0.122
-469.201	-68.727	-0.470	0.182
-468.186	137.212	-0.078	-0.102
-467.172	201.277	-0.203	0.313
-466.157	800.000	0.218	0.701
-465.143	467.681	-0.085	-0.191
-464.128	-183.682	-0.038	0.001
-463.113	123.823	0.213	-0.268
-462.099	-96.248	-0.238	0.063
-461.084	-71.221	-0.284	-0.107
-460.070	-98.661	0.139	0.035
-459.055	-8.786	-0.247	0.166
-458.040	-42.544	0.415	-0.211
-457.026	27.609	0.236	0.199
-456.011	31.947	-0.174	0.150
-454.997	-123.182	0.358	0.057
-453.982	-200.000	-0.028	-0.256
-452.968	-200.000	0.001	0.008
-451.953	-66.811	0.181	0.072
-450.938	-53.225	0.133	-0.061
-449.924	4.766	0.392	-0.288
-448.909	-1.348	-0.078	0.055
-447.895	104.993	0.066	-0.078
-446.880	8.276	0.138	0.104
-445.865	-200.000	-0.025	0.139
-444.851	407.271	-0.038	0.080
-443.836	-140.601	-0.353	-0.037
-442.822	256.492	-0.189	0.324
-441.807	-21.254	-0.468	-0.286
-440.792	800.000	-0.048	-0.147
-439.778	-17.081	0.158	0.100
-438.763	267.537	0.160	0.281
-437.749	800.000	0.080	-0.282
-436.734	-73.404	-0.465	0.170
-435.719	800.000	0.123	0.414
-434.705	254.918	0.103	-0.177
-433.690	19.987	-0.191	0.154
-432.676	168.207	0.237	0.337
-431.661	-200.000	-0.004	0.285
-430.646	365.977	0.075	0.151
-429.632	449.660	-0.096	0.212
-428.617	171.881	0.155	-0.222
-427.603	551.641	0.095	0.228
-426.588	-11.995	-0.130	-0.085
-425.573	219.018	-0.127	0.203
-424.559	47.288	0.240	0.223
-423.544	-200.000	-0.302	0.001
-422.530	3.020	0.161	-0.117
-421.515	-200.000	-0.009	-0.096
-420.500	-200.000	0.064	-0.290
-419.486	597.414	-0.153	-0.378
-418.471	187.633	-0.063	0.094
-417.457	-30.447	0.277	-0.157
-416.442	-200.000	0.012	-0.118
-415.428	-200.000	-0.012	0.114
-414.413	800.000	0.084	-0.350
-413.398	800.000	0.045	-0.191
-412.384	800.000	-0.088	0.306
-411.369	146.448	-0.222	-0.298
-410.355	289.479	0.118	-0.213
-409.340	-78.069	-0.234	0.081
-408.325	-200.000	-0.016	-0.242
-407.311	52.936	0.261	0.249
-406.296	-50.895	0.085	0.040
-405.282	192.924	0.224	-0.338
-404.267	-200.000	-0.021	0.170
-403.252	-48.301	0.223	-0.107
-402.238	194.775	0.157	0.238
-401.223	-149.971	-0.177	-0.014
-400.209	193.559	-0.137	-0.208
-399.194	-24.884	0.127	-0.076
-398.179	-200.000	0.012	-0.078
-397.165	14.744	0.419	-0.327
-396.150	42.533	-0.130	0.118
-395.136	141.254	-0.056	0.074
-394.121	800.000	0.124	-0.396
-393.106	-104.032	-0.153	-0.036
-392.092	-116.593	-0.145	0.027
-391.077	-11.388	0.138	-0.091
-390.063	-200.000	0.018	0.099
-389.048	-200.000	0.040	0.185
-388.033	-112.775	-0.076	-0.015
-387.019	-8.119	-0.070	0.047
-386.004	190.245	-0.028	0.041
-384.990	95.652	0.096	-0.109
-383.975	-56.018	0.376	-0.167
-382.960	-46.981	0.275	0.134
-381.946	54.856	-0.197	0.190
-380.931	800.000	-0.060	-0.211
-379.917	17.848	-0.115	-0.091
-378.902	-200.000	0.019	-0.131
-377.888	106.678	-0.209	-0.247
-376.873	-165.207	0.274	0.012
-375.858	8.260	0.110	-0.082
-374.844	-90.004	-0.123	-0.036
-373.829	57.058	-0.249	-0.242
-372.815	44.106	-0.062	-0.057
-371.800	-200.000	-0.072	0.366
-370.785	-41.883	0.288	-0.147
-369.771	-96.949	-0.161	-0.042
-368.756	-90.371	0.206	0.059
-367.742	800.000	-0.032	-0.104
-366.727	-158.037	-0.230	-0.013
-365.712	122.882	0.079	-0.098
-364.698	-200.000	0.026	-0.223
-363.683	66.011	-0.232	-0.235
-362.669	-81.479	-0.183	-0.060
-361.654	-83.579	0.069	-0.022
-360.639	189.818	0.138	0.206
-359.625	-42.204	0.038	0.019
-358.610	-200.000	-0.051	0.385
-357.596	-55.570	0.302	0.135
-356.581	92.532	-0.058	0.066
-355.566	-200.000	0.029	-0.171
-354.552	257.286	-0.212	0.363
-353.537	760.156	0.098	0.264
-352.523	-37.727	-0.021	-0.011
-351.508	653.276	-0.135	0.346
-350.493	-60.758	-0.118	-0.050
-349.479	44.309	-0.155	0.142
-348.464	223.196	0.072	-0.116
-347.450	-200.000	0.010	-0.281
-346.435	569.105	-0.096	0.232
-345.420	309.918	-0.212	0.395
-344.406	-200.000	0.043	0.242
-343.391	-61.153	-0.218	0.091
-342.377	32.503	-0.115	0.099
-341.362	-168.790	-0.332	-0.012
-340.348	-200.000	-0.019	-0.107
-339.333	-88.758	0.091	0.027
-338.318	800.000	0.107	0.369
-337.304	64.652	-0.124	0.125
-336.289	800.000	-0.094	0.334
-335.275	-200.000	0.019	0.275
-334.260	800.000	0.134	-0.477
-333.245	48.346	-0.030	-0.028
-332.231	4.759	0.123	-0.090
-331.216	-200.000	-0.026	0.161
-330.202	155.799	0.089	-0.122
-329.187	371.790	-0.193	-0.391
-328.172	298.964	-0.086	-0.158
-327.158	-32.753	0.197	0.109
-326.143	-138.422	-0.147	-0.016
-325.129	-200.000	0.055	-0.327
-324.114	-200.000	0.027	0.319
-323.099	-200.000	0.005	0.071
-322.085	7.523	0.143	0.106
-321.070	293.604	0.095	0.173
-320.056	-200.000	0.018	0.202
-319.041	278.139	0.196	0.347
-318.026	703.142	0.058	-0.151
-317.012	-8.404	0.117	0.078
-315.997	-74.560	0.295	-0.106
-314.983	800.000	0.033	-0.093
-313.968	-200.000	-0.011	0.265
-312.953	73.564	0.272	-0.284
-311.939	-50.320	-0.164	0.077
-310.924	176.022	-0.174	0.251
-309.910	-78.221	0.174	-0.059
-308.895	-200.000	-0.004	0.212
-307.880	-130.702	-0.580	-0.078
-306.866	-200.000	0.024	-0.143
-305.851	-143.949	0.085	0.008
-304.837	116.974	0.078	0.096
-303.822	800.000	-0.051	0.165
-302.807	330.412	-0.086	0.164
-301.793	-6.450	0.063	-0.043
-300.778	800.000	-0.061	0.208
-299.764	435.759	0.067	-0.146
-298.749	-200.000	-0.007	-0.196
-297.735	39.745	0.097	0.087
-296.720	-200.000	-0.025	0.118
-295.705	483.170	-0.210	0.474
-294.691	378.837	-0.179	0.365
-293.676	-123.571	0.195	-0.031
-292.662	74.895	0.126	0.132
-291.647	-81.470	0.374	0.122
-290.632	208.199	0.114	0.177
-289.618	204.103	-0.108	0.167
-288.603	103.092	-0.075	-0.088
-287.589	-59.079	-0.157	-0.067
-286.574	385.975	-0.224	0.460
-285.559	-42.527	0.388	-0.196
-284.545	-200.000	-0.010	0.089
-283.530	-57.299	-0.472	0.206
-282.516	800.000	0.033	-0.137
-281.501	-12.718	-0.274	-0.177
-280.486	800.000	-0.049	-0.181
-279.472	-200.000	0.021	-0.136
-278.457	-31.680	0.330	-0.184
-277.443	-19.782	0.068	-0.042
-276.428	226.319	0.165	0.266
-275.413	-200.000	-0.049	0.310
-274.399	800.000	-0.124	0.361
-273.384	42.183	0.165	0.149
-272.370	110.047	-0.182	0.217
-271.355	150.419	0.081	0.110
-270.340	-139.153	-0.519	-0.056
-269.326	191.329	-0.056	-0.084
-268.311	629.097	0.043	-0.108
-267.297	-12.612	-0.150	0.097
-266.282	-141.025	-0.264	-0.027
-265.267	-200.000	-0.021	-0.333
-264.253	596.932	-0.070	-0.172
-263.238	20.726	0.082	0.066
-262.224	80.434	-0.048	-0.051
-261.209	68.993	0.239	0.243
-260.195	-15.737	-0.176	-0.111
-259.180	174.255	-0.152	-0.218
-258.165	52.738	0.258	0.245
-257.151	-135.753	-0.083	-0.010
-256.136	800.000	-0.055	0.184
-255.122	-200.000	0.011	-0.273
-254.107	200.910	-0.029	0.044
-253.092	-200.000	-0.009	-0.093
-252.078	-40.502	0.217	-0.112
-251.063	-29.080	0.283	-0.161
-250.049	-160.432	0.270	-0.014
-249.034	89.499	-0.228	-0.253
-248.019	-3.792	0.090	0.062
-247.005	-190.859	0.218	0.002
-245.990	-87.153	0.454	-0.137
-244.976	-131.850	0.195	-0.025
-243.961	-39.329	0.226	0.118
-242.946	800.000	-0.066	0.237
-241.932	242.557	-0.211	-0.350
-240.917	568.521	-0.086	-0.208
-239.903	726.349	0.052	-0.136
-238.888	8.792	0.214	0.160
-237.873	168.566	-0.139	-0.197
-236.859	13.921	-0.248	-0.191
-235.844	-200.000	0.008	0.068
-234.830	-18.012	-0.247	0.154
-233.815	-129.104	-0.359	0.050
-232.800	-94.894	-0.232	0.062
-231.786	-200.000	-0.008	-0.035
-230.771	263.418	-0.170	0.293
-229.757	183.720	0.097	0.142
-228.742	-200.000	0.049	0.306
-227.727	-84.796	0.197	0.061
-226.713	-74.727	-0.287	-0.102
-225.698	-33.125	-0.356	0.196
-224.684	-200.000	-0.000	-0.001
-223.669	-200.000	-0.014	0.064
-222.655	-200.000	-0.009	0.199
-221.640	308.988	-0.136	0.253
-220.625	800.000	0.105	0.310
-219.611	-200.000	-0.010	0.060
-218.596	59.868	-0.271	-0.265
-217.582	-108.885	-0.114	-0.024
-216.567	715.918	0.039	-0.102
-215.552	584.703	-0.192	-0.466
-214.538	-97.412	0.133	0.034
-213.523	-200.000	0.034	-0.428
-212.509	-124.918	-0.250	0.038
-211.494	-110.989	-0.417	0.085
-210.479	221.298	0.079	-0.126
-209.465	-200.000	0.028	-0.317
-208.450	-200.000	0.036	0.196
-207.436	-67.231	0.201	-0.078
-206.421	-122.199	0.243	-0.039
-205.406	-42.886	0.135	-0.068
-204.392	162.357	0.272	0.378
-203.377	800.000	0.144	0.478
-202.363	121.922	0.200	0.247
-201.348	-200.000	-0.047	-0.242
-200.333	137.359	-0.124	0.161
-199.319	-80.892	0.127	-0.042
-198.304	131.903	-0.056	0.071
-197.290	-200.000	-0.012	0.150
-196.275	-200.000	-0.008	0.159
-195.260	102.897	0.204	0.236
-194.246	236.637	0.203	0.333
-193.231	308.681	0.061	0.112
-192.217	-70.704	-0.650	-0.243
-191.202	228.040	0.026	0.042
-190.187	325.173	0.129	0.244
-189.173	-51.764	0.146	0.067
-188.158	-127.055	0.249	-0.036
-187.144	-200.000	-0.003	0.112
-186.129	6.284	0.099	-0.073
-185.114	767.415	-0.031	-0.084
-184.100	-200.000	0.054	0.380
-183.085	261.842	-0.193	0.331
-182.071	-81.526	-0.175	-0.057
-181.056	32.478	0.128	0.110
-180.042	76.062	-0.072	-0.076
-179.027	800.000	0.108	-0.366
-178.012	-124.645	-0.166	-0.025
-176.998	-109.044	0.078	-0.016
-175.983	49.574	-0.065	-0.061
-174.969	242.145	-0.110	-0.182
-173.954	800.000	0.105	0.299
-172.939	-81.233	0.282	0.092
-171.925	21.913	0.046	-0.037
-170.910	800.000	0.088	0.313
-169.896	127.108	0.302	-0.379
-168.881	-79.165	-0.368	0.123
-167.866	-200.000	0.048	-0.239
-166.852	201.411	-0.151	-0.230
-165.837	765.199	0.146	-0.393
-164.823	-73.615	0.229	-0.083
-163.808	4.067	-0.132	0.096
-162.793	-152.548	0.294	-0.021
-161.779	-3.038	0.155	-0.107
-160.764	800.000	0.110	0.385
-159.750	800.000	0.063	0.233
-158.735	62.991	0.049	0.049
-157.720	212.538	-0.075	-0.117
-156.706	-49.576	-0.126	0.059
-155.691	-107.155	-0.280	0.061
-154.677	795.170	-0.008	-0.022
-153.662	-38.250	0.154	0.081
-152.647	4.059	0.273	0.198
-151.633	-38.250	0.173	0.091
-150.618	-200.000	0.030	-0.351
-149.604	-166.358	-0.144	0.006
-148.589	800.000	0.044	0.134
-147.574	290.750	-0.250	-0.450
-146.560	-180.172	-0.128	-0.003
-145.545	-163.895	0.124	-0.006
-144.531	-65.198	-0.219	0.087
-143.516	-200.000	0.029	0.146
-142.502	-72.660	-0.165	-0.060
-141.487	-114.393	-0.197	-0.037
-140.472	558.467	0.075	-0.178
-139.458	260.793	0.169	-0.290
-138.443	34.340	0.110	-0.095
-137.429	335.023	-0.100	-0.192
-136.414	-77.336	-0.203	-0.070
-135.399	-130.372	0.238	-0.032
-134.385	50.930	-0.153	-0.143
-133.370	353.747	-0.018	-0.036
-132.356	26.387	0.047	0.039
-131.341	-93.892	-0.130	-0.035
-130.326	378.230	0.045	-0.092
-129.312	800.000	0.123	0.415
-128.297	-138.213	0.175	0.019
-127.283	26.177	-0.144	0.119
-126.268	-52.943	0.260	0.118
-125.253	800.000	-0.071	0.232
-124.239	109.039	0.208	0.246
-123.224	-36.929	-0.249	-0.132
-122.210	110.817	0.216	0.257
