DTS Sentinel unit serial number:	SN413079Multiplexer serial number:	ORYXHardware model number:	OX4-SRSoftware version number:	ORYX F/W v4.00 Oryx Data Collector v3.7.2.0data status	okinstallation	princeton_trtdifferential loss correction	single-endedforward channel	channel 1reverse channel	N/Adate	2019/09/13time	20:02:35forward acquisition time	60.00reverse acquisition time	0.00gamma	496.2192k internal	0.2329k external	0.2329temperature offset calibration	1.0071default loss term (dB/km)	0.3790temperature slope calibration	1.0000multiplexer offset coefficient	1.0000multiplexer slope coefficient	1.0000fibre end	0.00T internal ref (°C)	29.73T ext. ref 1 (°C)	3.04T ext. ref 2 (°C)	24.15length (m)	temperature (°C)	Stokes	anti-Stokes-747.200	77.572	0.039	0.042
-746.185	616.478	-0.174	0.441
-745.171	106.458	-0.223	-0.267
-744.156	308.416	-0.067	0.126
-743.142	-200.000	-0.041	-0.255
-742.127	-200.000	0.033	0.195
-741.112	-66.969	-0.288	0.115
-740.098	800.000	-0.038	0.159
-739.083	41.961	-0.121	0.111
-738.069	31.406	-0.212	-0.184
-737.054	-200.000	-0.003	0.181
-736.039	-66.780	-0.034	0.013
-735.025	-200.000	0.011	0.154
-734.010	-29.664	-0.348	-0.200
-732.996	-200.000	-0.052	0.304
-731.981	-170.898	-0.312	-0.011
-730.966	-200.000	-0.001	-0.141
-729.952	159.016	-0.105	-0.146
-728.937	31.446	-0.247	-0.214
-727.923	-53.426	-0.109	0.050
-726.908	-200.000	-0.005	-0.232
-725.894	97.649	-0.226	-0.262
-724.879	800.000	-0.012	0.047
-723.864	-152.031	0.281	0.021
-722.850	-200.000	-0.032	-0.236
-721.835	-200.000	0.070	-0.352
-720.821	-155.260	0.162	-0.011
-719.806	-0.006	-0.108	0.077
-718.791	581.991	-0.069	-0.170
-717.777	-200.000	-0.017	-0.288
-716.762	-140.771	0.303	0.031
-715.748	-113.497	-0.297	-0.059
-714.733	-99.003	0.319	0.081
-713.718	203.275	0.116	-0.181
-712.704	-200.000	-0.026	0.218
-711.689	114.549	-0.079	-0.097
-710.675	-143.461	0.386	0.037
-709.660	482.602	-0.090	0.205
-708.645	187.800	0.108	-0.163
-707.631	-200.000	-0.002	-0.140
-706.616	-61.252	0.289	0.123
-705.602	-116.472	0.057	0.011
-704.587	-59.612	-0.256	0.111
-703.572	-69.030	0.196	0.076
-702.558	800.000	0.091	0.322
-701.543	-78.493	-0.226	-0.078
-700.529	-127.311	-0.320	0.047
-699.514	800.000	-0.099	0.407
-698.499	619.810	0.104	0.263
-697.485	-80.123	0.245	-0.083
-696.470	-110.642	-0.219	0.046
-695.456	-145.982	0.141	0.013
-694.441	-53.340	-0.380	0.175
-693.426	-200.000	-0.016	0.138
-692.412	-23.367	-0.362	-0.219
-691.397	-200.000	0.065	0.290
-690.383	-10.394	-0.195	0.130
-689.368	166.101	-0.122	-0.174
-688.354	-64.268	0.328	0.134
-687.339	-12.770	-0.327	-0.214
-686.324	-117.352	0.117	-0.021
-685.310	22.980	-0.148	-0.122
-684.295	-200.000	-0.026	-0.139
-683.281	-200.000	-0.058	-0.486
-682.266	256.707	0.037	-0.064
-681.251	-44.355	0.120	-0.060
-680.237	800.000	-0.068	0.262
-679.222	-112.602	-0.344	0.069
-678.208	-158.122	0.100	0.006
-677.193	331.863	0.187	-0.362
-676.178	-114.949	0.235	-0.045
-675.164	-200.000	-0.003	0.057
-674.149	-102.490	0.231	-0.056
-673.135	-200.000	-0.066	0.313
-672.120	762.674	0.142	-0.386
-671.105	350.416	0.102	-0.202
-670.091	-77.635	-0.257	-0.089
-669.076	148.975	-0.093	0.126
-668.062	-65.140	0.145	-0.059
-667.047	336.331	-0.085	0.166
-666.032	2.102	0.104	-0.076
-665.018	-200.000	0.022	-0.131
-664.003	-121.313	0.157	0.026
-662.989	45.347	0.119	0.110
-661.974	111.435	0.181	0.219
-660.959	-119.791	0.073	0.013
-659.945	292.766	0.059	-0.109
-658.930	96.133	-0.189	0.216
-657.916	200.315	-0.126	-0.195
-656.901	800.000	0.069	0.293
-655.886	204.039	-0.092	0.142
-654.872	43.304	-0.148	-0.135
-653.857	-87.189	-0.313	0.096
-652.843	-76.078	-0.166	-0.059
-651.828	-98.162	0.420	-0.108
-650.814	199.468	-0.220	-0.338
-649.799	-169.324	-0.206	-0.008
-648.784	64.379	0.191	-0.193
-647.770	110.623	0.065	0.078
-646.755	-68.068	-0.322	0.126
-645.741	800.000	-0.143	-0.479
-644.726	800.000	-0.030	-0.100
-643.711	8.531	-0.087	0.066
-642.697	-200.000	-0.006	0.083
-641.682	800.000	0.086	-0.311
-640.668	-47.089	0.293	-0.143
-639.653	-200.000	-0.039	-0.293
-638.638	339.298	-0.118	0.231
-637.624	-56.501	-0.289	0.129
-636.609	629.491	0.078	0.198
-635.595	-200.000	0.044	0.277
-634.580	800.000	0.013	-0.044
-633.565	-18.520	0.106	-0.066
-632.551	52.478	-0.103	0.099
-631.536	-11.966	-0.192	0.126
-630.522	-119.167	-0.235	0.041
-629.507	-200.000	-0.001	0.114
-628.492	-200.000	-0.019	0.084
-627.478	-133.762	-0.201	-0.025
-626.463	169.064	0.071	-0.102
-625.449	69.836	-0.119	-0.123
-624.434	-104.586	-0.236	0.055
-623.419	179.098	-0.065	0.095
-622.405	-111.054	-0.292	-0.060
-621.390	800.000	-0.056	-0.210
-620.376	-200.000	-0.035	0.158
-619.361	283.703	0.048	0.087
-618.346	-200.000	0.012	-0.140
-617.332	-200.000	0.039	0.313
-616.317	55.994	-0.128	0.124
-615.303	27.475	0.278	0.235
-614.288	-200.000	-0.009	0.240
-613.273	234.046	-0.152	-0.250
-612.259	800.000	-0.059	-0.236
-611.244	-82.411	0.055	0.018
-610.230	-172.448	0.278	0.009
-609.215	-158.064	-0.225	-0.013
-608.201	-61.589	0.263	-0.111
-607.186	99.064	-0.155	0.180
-606.171	-14.605	0.301	-0.194
-605.157	-110.928	0.137	0.028
-604.142	-2.713	-0.286	-0.201
-603.128	-72.702	0.234	0.086
-602.113	-49.729	0.247	0.118
-601.098	-144.348	-0.074	-0.007
-600.084	-2.778	0.104	0.073
-599.069	-28.550	0.364	-0.210
-598.055	-107.573	-0.096	-0.021
-597.040	285.903	-0.086	-0.155
-596.025	-18.398	0.179	0.112
-595.011	393.399	0.064	0.134
-593.996	-97.538	0.185	-0.048
-592.982	-46.824	-0.121	-0.059
-591.967	-80.914	0.142	0.047
-590.952	-200.000	0.009	-0.091
-589.938	78.694	-0.160	0.172
-588.923	-23.115	-0.173	0.104
-587.909	-28.362	0.120	-0.069
-586.894	227.598	-0.068	-0.110
-585.879	416.833	0.025	0.054
-584.865	24.851	-0.182	-0.151
-583.850	-43.439	0.151	0.077
-582.836	51.786	-0.118	-0.113
-581.821	-32.330	-0.296	0.165
-580.806	-69.404	0.240	0.092
-579.792	-81.599	-0.126	0.041
-578.777	7.043	-0.186	-0.139
-577.763	-200.000	-0.021	0.280
-576.748	-58.031	0.144	0.063
-575.733	-87.130	-0.136	0.041
-574.719	184.984	0.087	0.129
-573.704	800.000	-0.029	0.099
-572.690	63.557	-0.072	-0.073
-571.675	-92.143	0.084	0.024
-570.661	426.246	-0.012	-0.026
-569.646	-200.000	-0.061	0.379
-568.631	88.683	0.131	-0.145
-567.617	112.183	0.141	-0.171
-566.602	-111.187	0.126	-0.026
-565.588	52.239	-0.179	-0.171
-564.573	-33.767	0.193	0.107
-563.558	-35.322	0.176	-0.096
-562.544	800.000	-0.030	-0.107
-561.529	-200.000	-0.023	0.218
-560.515	-105.927	0.192	-0.043
-559.500	186.443	-0.084	-0.125
-558.485	125.044	0.075	0.095
-557.471	10.305	-0.100	0.076
-556.456	800.000	-0.076	0.292
-555.442	166.511	0.085	-0.120
-554.427	105.314	0.100	-0.118
-553.412	-71.500	-0.059	0.022
-552.398	-133.275	-0.253	-0.032
-551.383	-200.000	0.007	0.063
-550.369	67.389	0.111	0.113
-549.354	81.990	0.293	0.318
-548.339	-200.000	-0.038	0.252
-547.325	69.450	-0.113	-0.117
-546.310	-66.691	-0.209	-0.083
-545.296	4.048	0.201	-0.147
-544.281	97.432	0.179	0.205
-543.266	101.636	-0.043	-0.050
-542.252	-122.303	0.303	-0.049
-541.237	800.000	0.054	0.169
-540.223	-8.794	-0.170	-0.114
-539.208	147.007	-0.134	0.180
-538.193	286.310	0.250	-0.451
-537.179	-33.142	0.218	0.120
-536.164	-180.214	-0.038	-0.001
-535.150	-200.000	0.001	0.192
-534.135	-200.000	-0.054	-0.446
-533.121	-200.000	-0.002	-0.072
-532.106	-30.574	0.027	0.015
-531.091	-180.045	-0.137	0.003
-530.077	154.867	-0.100	0.137
-529.062	352.035	0.138	-0.273
-528.048	38.861	-0.214	-0.191
-527.033	800.000	-0.062	0.199
-526.018	-72.419	-0.247	-0.091
-525.004	-200.000	0.058	0.408
-523.989	-200.000	-0.004	-0.189
-522.975	168.594	0.129	-0.183
-521.960	154.262	0.143	-0.196
-520.945	-113.745	0.340	-0.066
-519.931	800.000	-0.116	0.424
-518.916	16.079	-0.144	0.113
-517.902	-200.000	-0.022	0.250
-516.887	251.029	0.092	0.155
-515.872	25.347	0.130	-0.108
-514.858	58.794	-0.138	0.135
-513.843	486.334	-0.068	-0.154
-512.829	-166.178	-0.166	-0.007
-511.814	-151.336	0.291	0.022
-510.799	107.025	0.161	-0.191
-509.785	2.495	-0.196	0.141
-508.770	-200.000	0.011	-0.422
-507.756	-14.480	0.226	-0.145
-506.741	101.943	0.059	0.068
-505.726	800.000	0.036	0.144
-504.712	-26.342	-0.108	-0.063
-503.697	65.625	-0.176	0.177
-502.683	-200.000	0.026	-0.132
-501.668	-153.971	-0.343	-0.023
-500.653	-155.434	0.272	-0.018
-499.639	-200.000	0.047	-0.232
-498.624	61.413	-0.162	-0.160
-497.610	-101.891	0.310	-0.075
-496.595	-20.964	0.267	0.163
-495.581	-117.298	-0.292	-0.053
-494.566	156.500	-0.382	-0.526
-493.551	-136.345	0.390	0.045
-492.537	21.457	0.078	-0.063
-491.522	199.026	0.262	-0.400
-490.508	-22.818	-0.228	0.138
-489.493	419.844	-0.077	0.164
-488.478	-81.276	0.056	0.018
-487.464	631.700	0.084	0.212
-486.449	-31.783	-0.030	0.017
-485.435	397.582	-0.058	0.121
-484.420	-48.345	0.178	-0.086
-483.405	-92.648	-0.204	0.057
-482.391	58.207	-0.141	0.138
-481.376	733.592	0.157	0.419
-480.362	186.889	-0.155	0.231
-479.347	-6.906	-0.090	0.061
-478.332	9.475	0.247	0.186
-477.318	-120.991	0.166	-0.028
-476.303	-17.997	-0.183	-0.114
-475.289	256.217	-0.224	-0.383
-474.274	-150.665	-0.288	0.022
-473.259	-134.399	-0.209	0.025
-472.245	455.109	-0.010	-0.023
-471.230	-77.787	0.069	-0.024
-470.216	800.000	-0.025	0.087
-469.201	-200.000	0.013	0.131
-468.186	-65.839	-0.180	-0.072
-467.172	-135.394	0.255	-0.030
-466.157	486.304	-0.081	0.184
-465.143	-39.418	-0.372	0.194
-464.128	298.739	0.150	-0.275
-463.113	800.000	0.052	-0.219
-462.099	239.936	-0.077	-0.128
-461.084	-33.744	0.059	-0.032
-460.070	-48.880	0.127	0.061
-459.055	-85.689	-0.140	-0.043
-458.040	240.180	0.233	0.387
-457.026	82.653	-0.249	0.269
-456.011	-82.067	-0.217	-0.071
-454.997	-79.802	-0.047	0.016
-453.982	800.000	0.025	-0.073
-452.968	-200.000	0.030	0.137
-451.953	800.000	0.043	-0.167
-450.938	297.090	0.119	-0.217
-449.924	-200.000	-0.024	0.401
-448.909	-17.328	-0.081	-0.051
-447.895	-48.924	0.102	0.049
-446.880	-92.599	-0.276	-0.077
-445.865	58.908	0.092	-0.090
-444.851	396.683	-0.071	-0.147
-443.836	-200.000	-0.029	-0.175
-442.822	59.881	-0.101	0.099
-441.807	800.000	0.086	-0.258
-440.792	400.231	0.078	-0.163
-439.778	29.009	0.193	0.163
-438.763	262.027	0.092	0.158
-437.749	-82.461	-0.134	0.043
-436.734	-62.430	-0.211	-0.087
-435.719	-91.832	-0.252	-0.071
-434.705	-28.113	0.159	0.092
-433.690	-200.000	-0.003	0.206
-432.676	-127.660	0.069	-0.010
-431.661	-200.000	0.027	0.258
-430.646	25.905	0.167	0.139
-429.632	-71.549	-0.064	-0.024
-428.617	133.422	0.089	-0.114
-427.603	-200.000	0.003	0.054
-426.588	800.000	-0.042	-0.137
-425.573	238.129	-0.098	-0.162
-424.559	-200.000	-0.021	-0.115
-423.544	-56.595	0.368	-0.162
-422.530	388.581	0.107	0.220
-421.515	-69.535	0.158	-0.060
-420.500	-200.000	0.034	-0.193
-419.486	-116.098	0.299	0.055
-418.471	200.982	-0.073	0.112
-417.457	-125.784	-0.108	0.016
-416.442	55.097	-0.071	0.068
-415.428	-2.287	0.086	0.060
-414.413	-62.748	-0.010	-0.004
-413.398	-58.769	-0.105	0.045
-412.384	-200.000	-0.042	-0.189
-411.369	-116.767	-0.044	-0.008
-410.355	267.036	0.153	-0.266
-409.340	-103.929	0.434	0.101
-408.325	-133.082	-0.241	-0.030
-407.311	-200.000	0.034	-0.181
-406.296	11.174	-0.015	-0.012
-405.282	-200.000	-0.063	-0.419
-404.267	-200.000	-0.011	0.184
-403.252	-12.478	-0.282	0.183
-402.238	223.271	0.167	-0.267
-401.223	800.000	-0.047	-0.136
-400.209	-200.000	-0.023	0.262
-399.194	684.278	0.114	0.296
-398.179	800.000	-0.015	0.042
-397.165	-155.252	-0.134	0.009
-396.150	-75.262	-0.280	-0.099
-395.136	47.168	0.061	0.057
-394.121	252.809	0.120	-0.203
-393.106	312.273	-0.100	0.187
-392.092	-200.000	0.009	-0.346
-391.077	-41.337	-0.169	0.086
-390.063	-35.672	0.481	-0.259
-389.048	564.330	0.113	-0.272
-388.033	43.100	-0.107	0.097
-387.019	-98.903	0.131	-0.033
-386.004	800.000	0.055	-0.152
-384.990	73.333	-0.076	-0.079
-383.975	-89.798	-0.337	0.098
-382.960	84.529	0.108	-0.117
-381.946	159.129	0.115	-0.158
-380.931	-165.814	-0.200	0.009
-379.917	-200.000	-0.015	0.152
-378.902	800.000	0.017	-0.066
-377.888	184.993	-0.200	0.295
-376.873	12.763	-0.188	-0.144
-375.858	-16.979	-0.480	0.301
-374.844	-146.667	0.360	0.031
-373.829	325.849	0.028	-0.053
-372.815	162.744	-0.111	-0.155
-371.800	317.252	-0.098	-0.184
-370.785	-30.118	0.176	0.099
-369.771	32.865	-0.073	-0.063
-368.756	173.566	-0.290	-0.416
-367.742	800.000	0.019	0.067
-366.727	-46.189	0.120	-0.059
-365.712	-122.941	-0.283	-0.045
-364.698	-88.237	0.513	-0.152
-363.683	48.127	0.157	-0.146
-362.669	-124.687	0.214	0.033
-361.654	296.564	-0.121	0.220
-360.639	131.047	-0.158	-0.202
-359.625	-59.683	0.063	-0.027
-358.610	146.614	0.135	-0.181
-357.596	317.989	-0.148	0.278
-356.581	-200.000	-0.023	-0.123
-355.566	-25.684	0.149	-0.087
-354.552	-28.289	0.223	-0.128
-353.537	52.790	0.099	-0.093
-352.523	-145.899	-0.316	0.028
-351.508	800.000	0.033	0.109
-350.493	1.046	-0.086	-0.061
-349.479	69.007	-0.172	-0.175
-348.464	-200.000	-0.028	-0.247
-347.450	800.000	0.030	0.113
-346.435	264.225	0.053	-0.091
-345.420	367.731	0.144	-0.289
-344.406	94.463	-0.195	-0.220
-343.391	-98.246	-0.252	-0.064
-342.377	61.002	0.130	0.128
-341.362	17.245	0.080	-0.063
-340.348	-82.309	0.301	-0.097
-339.333	339.223	0.065	-0.126
-338.318	-92.090	0.297	0.083
-337.304	-52.558	-0.023	0.010
-336.289	-107.725	-0.214	-0.046
-335.275	78.016	-0.070	-0.074
-334.260	197.767	-0.027	0.041
-333.245	800.000	0.055	0.176
-332.231	28.320	0.033	0.028
-331.216	143.668	0.129	-0.170
-330.202	-19.550	0.122	-0.075
-329.187	783.508	0.153	-0.415
-328.172	341.834	-0.155	-0.300
-327.158	-200.000	-0.037	0.266
-326.143	155.612	-0.113	0.154
-325.129	725.402	-0.094	0.248
-324.114	463.630	0.046	-0.102
-323.099	-46.448	0.218	-0.106
-322.085	-200.000	-0.061	0.386
-321.070	51.884	0.089	0.084
-320.056	346.799	0.149	-0.291
-319.041	-200.000	0.019	-0.211
-318.026	800.000	0.176	-0.527
-317.012	-84.373	-0.119	-0.037
-315.997	-200.000	0.002	0.341
-314.983	-200.000	-0.001	-0.181
-313.968	800.000	-0.131	0.366
-312.953	-134.172	-0.326	-0.040
-311.939	-88.540	-0.131	-0.039
-310.924	-53.688	-0.048	0.022
-309.910	313.302	0.147	-0.273
-308.895	-73.353	0.077	0.028
-307.880	463.949	0.085	0.189
-306.866	-68.115	-0.284	-0.110
-305.851	-162.452	-0.159	0.008
-304.837	276.457	0.041	-0.072
-303.822	-38.304	0.092	-0.048
-302.807	-200.000	-0.017	-0.179
-301.793	-27.412	0.145	0.083
-300.778	800.000	0.052	-0.194
-299.764	-49.030	-0.489	-0.232
-298.749	-129.305	-0.085	0.012
-297.735	721.631	-0.089	0.235
-296.720	-200.000	-0.009	0.192
-295.705	-107.851	-0.232	-0.050
-294.691	800.000	0.122	0.351
-293.676	-200.000	-0.017	0.334
-292.662	-142.731	0.290	0.028
-291.647	-137.120	0.178	0.020
-290.632	-116.818	-0.234	0.042
-289.618	-200.000	0.026	-0.151
-288.603	-200.000	-0.000	0.497
-287.589	632.746	-0.072	0.181
-286.574	168.168	-0.162	0.228
-285.559	43.043	0.076	0.069
-284.545	24.285	0.159	-0.130
-283.530	506.020	-0.122	-0.279
-282.516	26.647	0.217	-0.180
-281.501	-200.000	0.147	0.728
-280.486	-135.104	0.094	0.011
-279.472	-33.448	0.174	0.095
-278.457	384.816	-0.092	-0.187
-277.443	-78.119	-0.199	-0.068
-276.428	26.506	0.126	0.104
-275.413	219.589	-0.075	-0.119
-274.399	-200.000	0.004	-0.110
-273.384	800.000	0.018	0.058
-272.370	-159.692	-0.298	0.016
-271.355	362.525	-0.070	-0.140
-270.340	-107.719	0.254	0.055
-269.326	-200.000	0.050	0.583
-268.311	800.000	0.023	-0.064
-267.297	800.000	-0.052	-0.208
-266.282	63.094	0.201	-0.199
-265.267	-162.436	-0.423	0.021
-264.253	-200.000	0.013	-0.202
-263.238	527.704	0.094	-0.219
-262.224	424.646	-0.134	-0.286
-261.209	-200.000	-0.039	0.364
-260.195	-44.155	0.115	0.057
-259.180	-113.031	-0.333	-0.065
-258.165	-104.215	0.207	-0.048
-257.151	-182.234	-0.116	-0.002
-256.136	755.374	0.056	0.151
-255.122	800.000	-0.056	-0.197
-254.107	-54.051	0.135	-0.061
-253.092	24.246	-0.198	-0.162
-252.078	-150.418	0.091	0.007
-251.063	-200.000	-0.020	0.156
-250.049	-200.000	-0.001	-0.041
-249.034	-144.663	0.276	-0.025
-248.019	-61.334	-0.163	0.068
-247.005	304.037	-0.184	-0.337
-245.990	110.770	0.103	-0.122
-244.976	-123.624	0.057	-0.009
-243.961	-184.673	0.209	-0.003
-242.946	-200.000	-0.047	-0.227
-241.932	386.867	0.107	-0.218
-240.917	-15.103	-0.270	-0.171
-239.903	-200.000	-0.016	0.142
-238.888	-200.000	-0.027	0.208
-237.873	375.514	0.048	0.097
-236.859	65.512	-0.213	0.213
-235.844	-3.251	0.205	0.141
-234.830	405.996	0.029	-0.060
-233.815	-200.000	0.046	0.282
-232.800	505.987	-0.013	0.029
-231.786	-200.000	-0.002	-0.014
-230.771	235.281	0.178	0.290
-229.757	235.242	-0.165	0.269
-228.742	-145.216	-0.109	0.010
-227.727	-200.000	-0.019	0.126
-226.713	349.522	-0.266	-0.519
-225.698	-83.920	0.143	-0.045
-224.684	-200.000	-0.029	-0.134
-223.669	800.000	0.005	-0.013
-222.655	-164.504	0.306	0.014
-221.640	85.265	0.127	0.138
-220.625	-166.390	-0.134	-0.006
-219.611	219.811	-0.118	-0.187
-218.596	606.561	0.095	0.234
-217.582	98.150	0.200	0.227
-216.567	52.541	-0.140	0.132
-215.552	-26.946	0.060	0.035
-214.538	-200.000	0.008	0.079
-213.523	68.483	0.244	-0.246
-212.509	-111.420	0.310	-0.062
-211.494	0.199	-0.057	0.040
-210.479	800.000	-0.029	0.086
-209.465	-20.792	0.093	0.056
-208.450	55.060	-0.104	-0.099
-207.436	-142.771	0.148	0.014
-206.421	-22.603	0.063	-0.037
-205.406	415.046	0.124	0.260
-204.392	-73.372	-0.152	0.055
-203.377	-200.000	0.010	0.094
-202.363	-200.000	-0.013	-0.122
-201.348	-200.000	-0.006	0.220
-200.333	-4.704	0.131	-0.089
-199.319	-134.078	-0.194	0.024
-198.304	57.200	0.211	-0.203
-197.290	42.225	-0.247	-0.221
-196.275	-11.305	0.064	0.041
-195.260	-2.897	0.168	0.116
-194.246	-200.000	-0.009	0.064
-193.231	-200.000	0.204	0.001
-192.217	-80.891	0.323	0.106
-191.202	-200.000	0.014	-0.079
-190.187	100.098	-0.116	0.132
-189.173	9.983	0.126	0.094
-188.158	143.070	-0.287	-0.376
-187.144	55.543	0.130	0.124
-186.129	-200.000	-0.019	0.109
-185.114	99.137	0.137	0.156
-184.100	137.186	0.042	-0.054
-183.085	39.843	-0.309	-0.274
-182.071	-200.000	-0.024	0.130
-181.056	63.858	-0.205	0.203
-180.042	-91.756	0.273	0.077
-179.027	-200.000	0.014	-0.076
-178.012	-46.188	0.107	-0.052
-176.998	-72.741	-0.549	-0.199
-175.983	201.491	0.105	0.159
-174.969	-200.000	0.031	0.189
-173.954	-200.000	0.020	-0.254
-172.939	-200.000	-0.021	0.133
-171.925	-99.339	0.214	0.053
-170.910	-200.000	0.013	0.531
-169.896	-200.000	-0.050	0.413
-168.881	125.668	0.056	-0.070
-167.866	-122.651	-0.258	0.041
-166.852	126.151	0.089	0.111
-165.837	800.000	0.018	0.068
-164.823	172.786	0.146	0.207
-163.808	-75.369	0.110	0.039
-162.793	-11.168	-0.237	0.154
-161.779	-200.000	-0.044	-0.216
-160.764	800.000	0.078	0.249
-159.750	555.645	0.059	0.141
-158.735	319.512	-0.134	0.250
-157.720	-34.596	-0.120	-0.064
-156.706	800.000	0.048	-0.134
-155.691	92.922	-0.028	-0.031
-154.677	-86.794	0.424	-0.128
-153.662	-113.270	-0.135	-0.026
-152.647	238.843	-0.099	0.162
-151.633	-67.244	-0.114	-0.044
-150.618	-18.489	-0.316	-0.194
-149.604	800.000	0.116	0.342
-148.589	154.421	-0.113	-0.152
-147.574	-1.063	-0.017	0.012
-146.560	-108.412	0.210	-0.044
-145.545	-183.835	0.200	-0.003
-144.531	-27.320	-0.146	0.084
-143.516	-107.955	-0.131	-0.028
-142.502	109.235	0.084	0.098
-141.487	-58.790	-0.068	-0.029
-140.472	270.390	0.160	-0.277
-139.458	800.000	-0.057	0.166
-138.443	192.084	-0.113	0.168
-137.429	-163.721	0.223	0.010
-136.414	82.699	-0.159	0.170
-135.399	314.851	-0.101	-0.188
-134.385	494.510	-0.103	0.232
-133.370	-118.837	0.115	-0.020
-132.356	-200.000	-0.001	-0.296
-131.341	-131.377	0.156	-0.020
-130.326	173.072	0.129	0.183
-129.312	-112.931	-0.384	0.075
-128.297	209.057	0.080	-0.124
-127.283	-200.000	-0.020	-0.106
-126.268	-110.186	0.158	0.032
-125.253	621.198	-0.082	0.202
-124.239	-111.377	-0.194	0.039
-123.224	-200.000	0.012	0.266
-122.210	-92.295	-0.226	-0.063
