DTS Sentinel unit serial number:	SN413079Multiplexer serial number:	ORYXHardware model number:	OX4-SRSoftware version number:	ORYX F/W v4.00 Oryx Data Collector v3.7.2.0data status	okinstallation	princeton_trtdifferential loss correction	single-endedforward channel	channel 1reverse channel	N/Adate	2019/09/17time	11:02:35forward acquisition time	60.00reverse acquisition time	0.00gamma	496.2192k internal	0.2323k external	0.2323temperature offset calibration	0.9961default loss term (dB/km)	0.3790temperature slope calibration	1.0000multiplexer offset coefficient	1.0000multiplexer slope coefficient	1.0000fibre end	0.00T internal ref (°C)	30.31T ext. ref 1 (°C)	0.21T ext. ref 2 (°C)	25.87length (m)	temperature (°C)	Stokes	anti-Stokes-747.200	800.000	-0.080	-0.273
-746.185	129.020	-0.127	0.164
-745.171	-200.000	-0.019	-0.327
-744.156	274.312	-0.051	-0.091
-743.142	650.742	0.093	0.240
-742.127	573.779	0.118	0.292
-741.112	101.954	0.073	0.086
-740.098	-200.000	0.033	0.203
-739.083	562.611	-0.114	-0.278
-738.069	55.104	-0.241	0.235
-737.054	-200.000	-0.006	0.212
-736.039	800.000	-0.093	0.276
-735.025	-79.087	0.188	0.064
-734.010	-140.295	-0.454	0.048
-732.996	15.826	0.153	-0.122
-731.981	360.703	0.162	-0.328
-730.966	-167.585	0.165	-0.007
-729.952	-6.539	-0.166	-0.114
-728.937	87.200	-0.401	-0.447
-727.923	229.203	0.118	-0.194
-726.908	164.360	-0.019	-0.027
-725.894	-49.416	-0.197	0.095
-724.879	65.500	-0.062	0.064
-723.864	6.626	0.260	-0.196
-722.850	-54.310	-0.111	-0.051
-721.835	-185.119	0.040	-0.001
-720.821	-200.000	-0.045	-0.275
-719.806	-200.000	-0.061	-0.296
-718.791	-200.000	-0.056	-0.330
-717.777	-200.000	-0.006	-0.095
-716.762	111.706	0.036	-0.044
-715.748	-137.938	0.300	0.034
-714.733	-37.851	0.348	0.187
-713.718	-200.000	-0.033	0.235
-712.704	388.054	-0.146	-0.304
-711.689	277.172	0.202	-0.363
-710.675	6.285	-0.114	-0.085
-709.660	169.621	-0.142	-0.204
-708.645	-106.458	-0.086	-0.019
-707.631	-200.000	0.011	0.127
-706.616	-200.000	0.045	0.289
-705.602	-17.751	-0.104	-0.066
-704.587	49.133	0.396	0.375
-703.572	-64.481	-0.404	-0.166
-702.558	759.958	0.260	-0.710
-701.543	-200.000	0.013	0.127
-700.529	-150.737	-0.146	0.011
-699.514	-200.000	0.012	0.125
-698.499	6.532	0.150	-0.112
-697.485	50.225	0.195	-0.186
-696.470	111.040	-0.317	-0.385
-695.456	9.191	0.321	-0.244
-694.441	91.777	0.054	-0.061
-693.426	672.859	-0.052	0.137
-692.412	282.992	0.201	-0.363
-691.397	-98.578	-0.180	-0.046
-690.383	-84.232	0.036	0.011
-689.368	-104.461	-0.215	0.050
-688.354	800.000	-0.003	-0.012
-687.339	44.378	-0.209	0.194
-686.324	163.702	0.099	0.140
-685.310	549.064	-0.011	-0.026
-684.295	152.187	-0.138	-0.190
-683.281	-119.006	0.179	0.032
-682.266	-200.000	0.019	0.176
-681.251	327.249	-0.094	0.182
-680.237	63.813	-0.115	-0.116
-679.222	-107.616	0.085	-0.019
-678.208	-12.588	0.292	0.192
-677.193	800.000	0.079	-0.289
-676.178	-200.000	-0.013	-0.232
-675.164	1.004	0.134	0.097
-674.149	800.000	0.116	0.340
-673.135	-115.675	0.187	-0.035
-672.120	-28.004	0.121	0.071
-671.105	-200.000	0.008	0.357
-670.091	-146.034	-0.194	0.017
-669.076	800.000	-0.128	0.372
-668.062	15.608	-0.132	0.105
-667.047	-64.973	0.403	0.164
-666.032	-200.000	-0.007	0.217
-665.018	-200.000	-0.036	0.375
-664.003	-3.930	-0.222	-0.155
-662.989	-9.421	-0.012	0.008
-661.974	-50.861	0.018	0.008
-660.959	155.501	-0.065	0.090
-659.945	286.912	-0.148	0.270
-658.930	11.857	0.130	0.100
-657.916	-148.841	-0.153	-0.012
-656.901	26.420	-0.251	-0.211
-655.886	371.967	-0.127	-0.259
-654.872	-62.587	-0.359	0.150
-653.857	-104.247	0.324	0.076
-652.843	81.686	-0.097	-0.106
-651.828	-83.140	0.558	-0.181
-650.814	800.000	0.063	-0.227
-649.799	71.480	-0.159	0.166
-648.784	-91.667	0.238	0.068
-647.770	-147.362	-0.376	0.032
-646.755	402.278	0.078	-0.164
-645.741	-54.697	0.442	0.201
-644.726	103.048	-0.220	-0.259
-643.711	-200.000	-0.002	-0.061
-642.697	800.000	0.070	0.295
-641.682	377.111	-0.086	0.177
-640.668	-27.188	-0.397	0.233
-639.653	-80.604	-0.323	0.108
-638.638	-25.010	-0.135	0.080
-637.624	-200.000	-0.021	-0.173
-636.609	-171.517	-0.237	-0.008
-635.595	-200.000	0.028	-0.326
-634.580	-88.773	0.327	0.098
-633.565	-122.143	-0.316	0.052
-632.551	-200.000	-0.014	-0.079
-631.536	351.752	0.125	-0.249
-630.522	200.966	0.064	0.099
-629.507	142.182	-0.209	0.279
-628.492	-200.000	0.021	-0.145
-627.478	32.047	0.106	-0.092
-626.463	-200.000	-0.037	-0.307
-625.449	168.856	0.108	-0.156
-624.434	-28.888	-0.307	-0.177
-623.419	-123.359	-0.224	0.036
-622.405	186.649	0.140	0.210
-621.390	526.915	-0.052	-0.122
-620.376	69.489	0.149	-0.155
-619.361	-166.367	-0.408	0.017
-618.346	-11.265	0.173	0.115
-617.332	-200.000	-0.024	0.273
-616.317	800.000	-0.017	-0.067
-615.303	142.707	-0.090	-0.120
-614.288	-131.097	-0.499	-0.067
-613.273	-200.000	-0.024	-0.210
-612.259	30.435	-0.112	-0.096
-611.244	208.718	-0.069	-0.108
-610.230	-118.669	0.085	-0.015
-609.215	-61.001	0.370	0.157
-608.201	309.583	0.205	0.385
-607.186	-144.009	-0.441	0.042
-606.171	30.096	0.087	-0.075
-605.157	10.742	-0.190	-0.145
-604.142	129.096	0.202	0.259
-603.128	86.614	-0.120	-0.133
-602.113	120.681	-0.095	0.119
-601.098	150.545	-0.134	0.183
-600.084	-200.000	0.025	-0.200
-599.069	-18.648	-0.178	-0.111
-598.055	-200.000	0.029	0.350
-597.040	-53.516	0.426	-0.196
-596.025	-200.000	0.007	0.096
-595.011	-200.000	-0.014	0.181
-593.996	41.310	0.202	0.184
-592.982	114.272	0.164	0.200
-591.967	-133.641	0.106	-0.013
-590.952	-200.000	-0.056	-0.394
-589.938	86.377	0.098	-0.108
-588.923	389.348	-0.218	-0.453
-587.909	-108.309	0.224	0.049
-586.894	43.680	0.256	-0.235
-585.879	-115.669	0.251	-0.047
-584.865	-111.264	0.135	0.028
-583.850	130.163	-0.076	-0.098
-582.836	-200.000	0.010	-0.123
-581.821	-68.943	-0.204	0.079
-580.806	412.817	-0.026	0.055
-579.792	41.361	0.124	-0.112
-578.777	-43.217	-0.187	0.095
-577.763	800.000	-0.052	0.213
-576.748	-30.380	0.223	0.127
-575.733	-126.839	0.187	0.028
-574.719	-87.344	0.228	0.070
-573.704	-178.529	-0.280	0.006
-572.690	198.321	0.186	0.286
-571.675	-113.534	-0.467	0.092
-570.661	-200.000	0.022	-0.115
-569.646	-74.123	-0.367	0.133
-568.631	-58.011	0.190	0.083
-567.617	-182.305	0.102	0.002
-566.602	-36.927	-0.185	-0.099
-565.588	-200.000	-0.040	-0.348
-564.573	-200.000	0.007	-0.087
-563.558	-200.000	-0.017	-0.164
-562.544	199.933	-0.090	0.139
-561.529	-200.000	-0.031	-0.301
-560.515	-200.000	-0.046	0.213
-559.500	-64.037	0.068	0.028
-558.485	50.212	-0.161	-0.153
-557.471	-133.389	-0.129	-0.016
-556.456	59.907	-0.121	0.120
-555.442	49.134	0.060	0.056
-554.427	679.308	-0.113	0.296
-553.412	-149.098	0.300	0.024
-552.398	-71.578	0.400	-0.150
-551.383	800.000	-0.041	0.146
-550.369	38.685	-0.123	-0.110
-549.354	800.000	0.091	-0.297
-548.339	-116.979	0.171	-0.031
-547.325	-200.000	-0.172	-0.000
-546.310	105.018	0.081	0.096
-545.296	-48.065	0.012	0.006
-544.281	50.068	0.144	0.137
-543.266	15.111	0.097	0.076
-542.252	774.697	-0.074	-0.203
-541.237	8.322	-0.208	-0.157
-540.223	42.417	-0.097	0.088
-539.208	-200.000	0.047	0.308
-538.193	133.982	0.147	0.190
-537.179	-131.012	0.339	-0.045
-536.164	-72.328	-0.150	-0.056
-535.150	38.360	-0.362	0.323
-534.135	-59.624	-0.485	-0.208
-533.121	92.267	-0.227	-0.256
-532.106	-200.000	-0.016	-0.210
-531.091	800.000	0.013	0.048
-530.077	-65.409	-0.290	-0.117
-529.062	380.407	-0.063	0.129
-528.048	115.394	-0.271	0.331
-527.033	0.281	-0.123	-0.088
-526.018	-82.968	-0.085	-0.028
-525.004	-17.634	-0.284	-0.179
-523.989	-54.294	0.219	-0.100
-522.975	-198.931	-0.129	0.001
-521.960	107.953	0.172	0.206
-520.945	49.838	0.054	0.051
-519.931	800.000	-0.071	0.224
-518.916	-200.000	-0.031	0.150
-517.902	159.379	-0.249	0.347
-516.887	-200.000	-0.015	0.104
-515.872	103.166	0.090	-0.105
-514.858	11.376	0.351	0.269
-513.843	-103.111	0.168	-0.040
-512.829	-120.019	0.278	-0.048
-511.814	141.460	-0.163	0.216
-510.799	-124.661	0.228	0.035
-509.785	403.818	-0.256	0.540
-508.770	404.810	-0.248	0.524
-507.756	800.000	-0.107	0.420
-506.741	-171.663	0.145	-0.005
-505.726	-123.111	-0.286	0.046
-504.712	-141.856	0.281	-0.028
-503.697	-6.030	-0.231	0.158
-502.683	441.423	-0.095	0.207
-501.668	14.247	-0.139	-0.108
-500.653	-134.407	-0.149	-0.018
-499.639	-37.851	0.177	-0.094
-498.624	-200.000	0.050	0.284
-497.610	-92.574	0.321	-0.090
-496.595	-144.242	0.108	0.010
-495.581	353.539	-0.021	0.042
-494.566	-21.971	-0.115	-0.070
-493.551	-200.000	0.037	0.455
-492.537	1.112	0.339	0.244
-491.522	-200.000	-0.001	-0.060
-490.508	800.000	-0.049	0.141
-489.493	-36.752	-0.137	-0.073
-488.478	-35.054	0.086	0.047
-487.464	-200.000	-0.002	-0.051
-486.449	292.128	-0.136	0.248
-485.435	-32.619	-0.273	0.152
-484.420	-55.227	0.095	0.043
-483.405	-44.608	0.246	0.123
-482.391	69.716	-0.140	0.145
-481.376	152.081	0.093	0.127
-480.362	-104.567	0.131	-0.030
-479.347	152.763	-0.094	-0.129
-478.332	-70.780	0.244	0.092
-477.318	800.000	-0.056	0.196
-476.303	800.000	-0.085	0.299
-475.289	277.905	-0.075	0.133
-474.274	-116.066	0.179	0.033
-473.259	15.623	0.117	0.092
-472.245	246.926	-0.095	0.161
-471.230	-131.648	-0.149	-0.020
-470.216	62.891	0.330	-0.330
-469.201	113.144	0.100	0.122
-468.186	-61.418	-0.329	-0.138
-467.172	263.077	0.074	0.128
-466.157	-150.415	0.322	0.025
-465.143	44.676	0.086	-0.079
-464.128	-140.350	0.354	0.037
-463.113	-102.473	-0.103	0.025
-462.099	-154.268	0.404	-0.027
-461.084	-17.555	0.034	-0.021
-460.070	395.408	-0.056	0.118
-459.055	-96.045	-0.132	-0.035
-458.040	326.818	0.129	-0.247
-457.026	800.000	0.111	-0.348
-456.011	3.052	0.075	0.055
-454.997	211.955	0.291	0.458
-453.982	66.218	-0.204	-0.206
-452.968	-129.483	-0.233	0.032
-451.953	108.350	-0.184	-0.219
-450.938	-71.753	0.053	0.020
-449.924	-13.861	-0.163	0.105
-448.909	-102.974	0.309	0.073
-447.895	551.488	0.103	-0.248
-446.880	-79.833	-0.109	0.037
-445.865	-200.000	0.017	0.282
-444.851	-200.000	-0.049	-0.309
-443.836	87.068	0.170	-0.188
-442.822	-54.956	-0.479	-0.215
-441.807	-62.316	-0.129	0.054
-440.792	-200.000	0.006	0.138
-439.778	84.848	0.157	-0.172
-438.763	800.000	0.062	-0.180
-437.749	32.186	-0.140	0.121
-436.734	-125.244	0.174	-0.027
-435.719	56.112	0.104	-0.101
-434.705	-200.000	-0.015	-0.100
-433.690	641.677	-0.052	-0.133
-432.676	215.903	0.203	-0.322
-431.661	485.567	-0.069	0.157
-430.646	-200.000	0.015	-0.085
-429.632	359.061	-0.096	-0.192
-428.617	-52.430	0.105	-0.048
-427.603	-107.763	0.312	0.068
-426.588	-138.157	0.210	-0.023
-425.573	-50.468	-0.146	-0.069
-424.559	240.982	0.074	0.123
-423.544	800.000	-0.055	-0.199
-422.530	-131.467	-0.233	-0.031
-421.515	32.005	0.185	-0.159
-420.500	-76.889	0.074	0.026
-419.486	-136.366	0.260	-0.030
-418.471	-200.000	0.008	0.232
-417.457	153.890	0.071	-0.097
-416.442	59.435	0.044	-0.043
-415.428	-200.000	-0.035	-0.488
-414.413	-53.879	0.254	-0.115
-413.398	-88.382	0.214	-0.064
-412.384	-103.483	0.225	-0.053
-411.369	-49.297	0.147	0.070
-410.355	179.406	0.080	0.117
-409.340	-200.000	-0.001	-0.025
-408.325	11.551	-0.120	0.091
-407.311	-200.000	0.001	0.255
-406.296	-200.000	-0.014	-0.150
-405.282	110.694	0.152	0.182
-404.267	-16.343	-0.209	-0.132
-403.252	-48.303	0.101	0.049
-402.238	-71.869	0.146	0.054
-401.223	115.652	0.217	0.264
-400.209	-39.026	-0.238	0.125
-399.194	800.000	0.012	-0.042
-398.179	-37.343	0.311	0.166
-397.165	-26.142	-0.362	-0.212
-396.150	-170.825	-0.392	0.013
-395.136	-200.000	0.023	0.225
-394.121	-200.000	0.041	-0.223
-393.106	240.941	-0.149	0.248
-392.092	101.432	0.051	0.059
-391.077	-98.158	-0.103	0.026
-390.063	-88.217	0.229	0.068
-389.048	99.189	0.109	0.125
-388.033	-200.000	-0.003	0.042
-387.019	-18.388	0.266	-0.166
-386.004	312.767	-0.035	0.065
-384.990	-118.404	0.105	0.019
-383.975	100.195	-0.064	-0.074
-382.960	800.000	-0.061	-0.170
-381.946	-200.000	0.006	0.088
-380.931	645.275	0.112	0.284
-379.917	-88.573	0.173	-0.051
-378.902	-200.000	0.024	-0.114
-377.888	-62.874	-0.236	-0.097
-376.873	-63.147	0.238	-0.098
-375.858	-200.000	-0.021	-0.132
-374.844	-115.989	-0.125	-0.023
-373.829	-200.000	-0.024	0.117
-372.815	129.600	0.096	-0.122
-371.800	39.033	-0.150	-0.134
-370.785	-77.682	0.130	0.045
-369.771	215.828	0.146	0.230
-368.756	-40.898	-0.182	-0.094
-367.742	800.000	-0.073	-0.312
-366.727	-170.730	0.150	0.005
-365.712	88.273	0.117	0.129
-364.698	-200.000	0.022	-0.276
-363.683	20.959	0.181	0.146
-362.669	-200.000	-0.005	-0.192
-361.654	95.702	-0.236	0.269
-360.639	265.989	-0.045	0.078
-359.625	-200.000	0.001	-0.044
-358.610	404.028	0.058	-0.122
-357.596	-33.231	0.132	0.073
-356.581	-200.000	-0.021	0.191
-355.566	44.513	-0.417	-0.381
-354.552	-59.087	-0.060	-0.026
-353.537	607.615	-0.100	-0.249
-352.523	97.932	-0.059	0.068
-351.508	-46.025	-0.197	0.097
-350.493	-1.407	-0.203	0.142
-349.479	587.011	0.125	0.305
-348.464	-200.000	0.024	0.120
-347.450	202.363	0.111	-0.170
-346.435	231.414	0.053	-0.086
-345.420	-200.000	0.065	0.293
-344.406	-60.844	-0.307	0.129
-343.391	238.013	-0.091	0.151
-342.377	-84.289	-0.300	-0.095
-341.362	123.603	0.073	0.092
-340.348	-153.815	-0.344	0.023
-339.333	-115.534	0.290	-0.054
-338.318	-157.456	-0.085	-0.005
-337.304	800.000	-0.086	-0.274
-336.289	-200.000	-0.054	0.357
-335.275	-143.665	-0.254	0.024
-334.260	88.302	0.132	-0.146
-333.245	144.563	0.177	-0.236
-332.231	421.859	-0.030	0.064
-331.216	417.113	-0.154	-0.326
-330.202	-23.918	-0.185	0.110
-329.187	-80.532	0.285	0.094
-328.172	-193.971	0.175	0.001
-327.158	639.751	-0.023	-0.058
-326.143	-200.000	-0.009	0.110
-325.129	385.439	0.168	-0.344
-324.114	16.633	-0.311	0.244
-323.099	45.565	0.196	0.180
-322.085	31.471	0.185	0.158
-321.070	-138.085	0.170	0.019
-320.056	43.547	-0.077	0.070
-319.041	325.131	0.088	0.166
-318.026	134.459	-0.137	0.177
-317.012	692.748	0.065	-0.170
-315.997	18.201	-0.397	0.315
-314.983	-200.000	0.006	-0.051
-313.968	-41.136	-0.061	-0.032
-312.953	-167.532	-0.534	-0.021
-311.939	49.038	0.069	0.064
-310.924	-118.614	0.078	0.014
-309.910	-19.564	0.297	-0.183
-308.895	325.980	0.137	0.260
-307.880	-72.515	-0.189	-0.069
-306.866	-63.289	-0.190	-0.078
-305.851	800.000	0.065	-0.269
-304.837	5.312	-0.476	0.349
-303.822	113.968	-0.216	-0.260
-302.807	282.116	0.220	-0.391
-301.793	239.305	-0.044	-0.072
-300.778	-19.756	-0.062	0.038
-299.764	800.000	0.023	0.093
-298.749	800.000	-0.057	-0.176
-297.735	-81.390	0.159	-0.052
-296.720	-58.222	-0.173	-0.075
-295.705	46.878	-0.190	0.175
-294.691	-63.875	-0.125	-0.051
-293.676	322.947	0.116	-0.220
-292.662	263.066	0.086	0.148
-291.647	-58.797	0.170	0.073
-290.632	-136.254	-0.212	-0.025
-289.618	10.196	-0.154	-0.116
-288.603	800.000	0.079	0.287
-287.589	-200.000	-0.001	-0.087
-286.574	-50.557	-0.149	-0.070
-285.559	79.909	0.373	-0.398
-284.545	-126.746	0.157	0.023
-283.530	720.517	-0.091	0.240
-282.516	-187.361	0.175	-0.002
-281.501	655.494	0.065	0.166
-280.486	-67.470	0.218	-0.085
-279.472	45.041	-0.193	0.176
-278.457	203.742	-0.095	-0.145
-277.443	-200.000	-0.019	0.130
-276.428	-38.942	0.259	-0.135
-275.413	176.692	0.184	-0.265
-274.399	434.702	-0.124	0.267
-273.384	-60.543	0.070	0.030
-272.370	-200.000	-0.037	-0.275
-271.355	120.740	0.184	-0.227
-270.340	-178.622	-0.158	0.004
-269.326	-43.000	-0.161	-0.081
-268.311	740.386	-0.041	0.108
-267.297	-47.523	-0.326	0.157
-266.282	-126.592	0.415	0.061
-265.267	-139.047	-0.203	0.022
-264.253	-145.853	0.206	0.018
-263.238	-164.256	0.173	-0.008
-262.224	-200.000	-0.004	-0.021
-261.209	-106.994	-0.151	-0.033
-260.195	609.617	-0.218	-0.541
-259.180	-200.000	0.011	-0.122
-258.165	573.725	0.127	-0.306
-257.151	681.572	0.018	0.045
-256.136	188.880	0.108	-0.160
-255.122	800.000	-0.070	0.251
-254.107	-200.000	0.048	0.238
-253.092	553.524	-0.053	0.127
-252.078	330.413	0.073	-0.138
-251.063	-200.000	-0.110	0.484
-250.049	73.059	-0.130	0.135
-249.034	-200.000	-0.023	-0.231
-248.019	497.008	0.101	0.231
-247.005	-42.857	-0.126	-0.064
-245.990	-110.370	0.370	0.076
-244.976	26.961	-0.115	0.096
-243.961	189.602	-0.095	-0.142
-242.946	-88.591	0.129	-0.038
-241.932	-69.235	0.405	-0.154
-240.917	113.817	-0.192	-0.231
-239.903	-56.400	-0.233	-0.103
-238.888	16.262	0.113	0.088
-237.873	176.910	-0.049	-0.070
-236.859	-91.570	0.275	0.078
-235.844	372.603	-0.178	-0.358
-234.830	-85.802	-0.455	0.140
-233.815	-46.656	0.281	0.136
-232.800	127.877	-0.090	0.113
-231.786	-200.000	-0.052	-0.254
-230.771	219.943	0.054	-0.086
-229.757	41.497	0.149	-0.133
-228.742	-43.939	-0.285	-0.142
-227.727	5.758	-0.253	-0.185
-226.713	-148.051	-0.156	-0.013
-225.698	-125.938	-0.134	-0.020
-224.684	-36.669	0.233	-0.124
-223.669	-200.000	0.010	0.118
-222.655	-5.392	-0.220	-0.149
-221.640	800.000	-0.064	0.256
-220.625	663.328	-0.149	0.380
-219.611	289.718	-0.154	-0.276
-218.596	-179.913	-0.401	-0.008
-217.582	-63.810	-0.292	-0.118
-216.567	-17.601	0.236	-0.147
-215.552	-200.000	-0.005	0.245
-214.538	32.031	-0.017	0.015
-213.523	183.455	0.210	-0.307
-212.509	403.160	-0.121	-0.252
-211.494	507.825	0.106	0.242
-210.479	-29.247	-0.120	0.068
-209.465	800.000	0.034	0.141
-208.450	2.354	0.345	-0.247
-207.436	-200.000	-0.013	-0.253
-206.421	-37.960	-0.144	0.076
-205.406	-119.410	0.166	0.029
-204.392	-65.810	0.100	0.040
-203.377	592.652	0.022	-0.053
-202.363	-128.004	-0.165	-0.023
-201.348	-200.000	0.020	-0.185
-200.333	177.326	0.105	-0.151
-199.319	355.295	-0.253	0.497
-198.304	716.360	0.136	-0.356
-197.290	100.378	-0.175	0.201
-196.275	-200.000	0.020	-0.250
-195.260	800.000	0.077	0.330
-194.246	-42.378	0.192	0.097
-193.231	174.444	0.213	-0.304
-192.217	-101.444	0.193	-0.046
-191.202	36.925	0.156	-0.136
-190.187	-111.917	-0.171	-0.034
-189.173	-26.418	0.305	-0.177
-188.158	-121.668	-0.233	0.038
-187.144	800.000	0.070	0.242
-186.129	-200.000	0.039	-0.209
-185.114	676.147	-0.101	-0.260
-184.100	44.920	0.065	-0.060
-183.085	449.334	-0.086	-0.187
-182.071	-200.000	-0.046	-0.266
-181.056	-28.595	-0.226	-0.128
-180.042	-119.345	0.305	-0.052
-179.027	69.681	-0.038	-0.038
-178.012	-37.904	-0.158	-0.083
-176.998	-75.732	0.178	0.062
-175.983	64.098	-0.054	0.054
-174.969	-200.000	-0.012	0.148
-173.954	-64.804	-0.047	0.019
-172.939	-200.000	-0.027	-0.284
-171.925	221.652	0.088	-0.140
-170.910	341.617	0.037	0.072
-169.896	-43.172	0.476	0.238
-168.881	-200.000	0.002	0.380
-167.866	166.138	-0.105	-0.147
-166.852	-200.000	-0.008	0.101
-165.837	800.000	0.063	-0.180
-164.823	-122.521	0.422	0.068
-163.808	800.000	-0.026	-0.102
-162.793	-200.000	-0.042	0.181
-161.779	800.000	-0.049	-0.136
-160.764	16.530	0.137	0.107
-159.750	-22.634	-0.094	0.056
-158.735	305.589	0.200	-0.367
-157.720	44.515	0.163	-0.147
-156.706	67.433	0.087	0.087
-155.691	-168.782	0.166	0.006
-154.677	-149.642	0.150	-0.012
-153.662	800.000	-0.138	-0.387
-152.647	-50.155	0.481	0.225
-151.633	115.415	-0.105	0.127
-150.618	278.198	0.083	0.145
-149.604	-200.000	-0.003	0.252
-148.589	-140.678	0.258	0.026
-147.574	-111.320	0.288	-0.058
-146.560	-200.000	0.030	0.169
-145.545	47.818	-0.237	-0.219
-144.531	-200.000	0.036	-0.382
-143.516	-200.000	-0.008	0.186
-142.502	-31.366	0.026	-0.015
-141.487	-200.000	0.031	0.182
-140.472	-200.000	-0.028	-0.275
-139.458	-25.005	0.150	0.088
-138.443	-200.000	-0.001	0.061
-137.429	-122.767	0.561	0.089
-136.414	-200.000	-0.133	0.000
-135.399	107.472	0.154	-0.181
-134.385	-52.416	0.058	-0.027
-133.370	252.747	0.181	0.304
-132.356	119.942	0.285	0.348
-131.341	-200.000	0.003	0.373
-130.326	-200.000	0.000	0.441
-129.312	-40.972	0.019	-0.010
-128.297	-29.311	0.148	0.083
-127.283	121.935	0.072	-0.089
-126.268	-53.765	-0.394	-0.177
-125.253	58.314	0.300	0.290
-124.239	131.247	-0.171	0.216
-123.224	10.730	0.189	0.142
-122.210	180.104	-0.107	-0.155
