DTS Sentinel unit serial number:	SN413079Multiplexer serial number:	ORYXHardware model number:	OX4-SRSoftware version number:	ORYX F/W v4.00 Oryx Data Collector v3.7.2.0data status	okinstallation	princeton_trtdifferential loss correction	single-endedforward channel	channel 1reverse channel	N/Adate	2019/09/11time	07:36:11forward acquisition time	60.00reverse acquisition time	0.00gamma	496.2192k internal	0.2325k external	0.2325temperature offset calibration	0.9916default loss term (dB/km)	0.3790temperature slope calibration	1.0000multiplexer offset coefficient	1.0000multiplexer slope coefficient	1.0000fibre end	0.00T internal ref (°C)	31.30T ext. ref 1 (°C)	-0.04T ext. ref 2 (°C)	27.83length (m)	temperature (°C)	Stokes	anti-Stokes-747.200	750.945	-0.114	-0.311
-746.185	-120.491	-0.266	-0.046
-745.171	554.329	0.039	-0.094
-744.156	-200.000	0.022	0.107
-743.142	185.781	-0.136	-0.203
-742.127	-200.000	-0.115	0.538
-741.112	-58.549	-0.049	-0.022
-740.098	-200.000	0.063	0.358
-739.083	456.888	-0.088	-0.197
-738.069	800.000	-0.036	0.122
-737.054	-37.954	0.096	-0.051
-736.039	61.360	-0.045	0.045
-735.025	-173.889	0.308	-0.009
-734.010	-170.695	-0.098	-0.003
-732.996	-126.525	-0.083	0.012
-731.981	800.000	0.063	-0.225
-730.966	-200.000	-0.014	-0.089
-729.952	800.000	-0.022	0.068
-728.937	-56.935	-0.274	0.122
-727.923	-200.000	-0.023	-0.157
-726.908	-200.000	0.003	0.037
-725.894	-200.000	0.043	0.385
-724.879	-65.156	-0.260	-0.106
-723.864	684.281	0.052	-0.136
-722.850	33.176	-0.269	-0.235
-721.835	482.063	-0.060	-0.137
-720.821	0.612	-0.177	-0.128
-719.806	-200.000	0.014	-0.094
-718.791	16.487	-0.079	0.063
-717.777	0.220	-0.148	0.106
-716.762	800.000	-0.155	-0.447
-715.748	61.398	0.169	-0.169
-714.733	141.205	-0.150	-0.200
-713.718	74.824	-0.044	-0.046
-712.704	66.917	0.179	-0.184
-711.689	97.115	0.104	0.120
-710.675	40.002	-0.336	0.304
-709.660	-26.023	0.139	0.082
-708.645	-110.816	-0.145	0.030
-707.631	44.207	0.057	0.052
-706.616	402.992	-0.118	-0.251
-705.602	-200.000	0.022	-0.170
-704.587	191.825	0.147	-0.223
-703.572	-71.578	0.195	-0.073
-702.558	-200.000	-0.049	0.238
-701.543	800.000	-0.053	0.185
-700.529	37.360	0.257	-0.229
-699.514	-46.865	-0.217	-0.107
-698.499	-127.888	-0.073	-0.011
-697.485	100.912	0.064	-0.075
-696.470	338.439	-0.073	0.143
-695.456	424.748	0.141	-0.305
-694.441	-38.731	-0.224	-0.119
-693.426	-200.000	0.001	-0.302
-692.412	-152.672	-0.105	-0.008
-691.397	123.368	-0.113	0.143
-690.383	-120.242	-0.259	-0.045
-689.368	800.000	-0.038	0.121
-688.354	-200.000	-0.005	0.085
-687.339	-113.127	0.265	0.053
-686.324	-144.448	0.366	0.034
-685.310	-144.565	-0.059	0.005
-684.295	-200.000	0.001	0.184
-683.281	-163.079	0.043	0.002
-682.266	61.048	0.224	-0.223
-681.251	-25.240	-0.206	0.123
-680.237	-200.000	-0.029	-0.148
-679.222	409.223	-0.124	0.265
-678.208	-200.000	0.018	-0.297
-677.193	-200.000	0.023	-0.296
-676.178	-120.064	-0.256	-0.044
-675.164	84.973	0.051	0.056
-674.149	-200.000	0.008	0.304
-673.135	14.451	-0.188	0.148
-672.120	109.001	-0.095	-0.114
-671.105	800.000	0.056	-0.195
-670.091	353.182	0.018	-0.037
-669.076	-184.317	-0.315	-0.005
-668.062	370.070	0.120	-0.244
-667.047	405.729	-0.124	0.263
-666.032	-136.159	0.291	-0.034
-665.018	488.765	-0.067	0.154
-664.003	800.000	0.118	0.384
-662.989	40.392	0.221	0.200
-661.974	800.000	-0.053	-0.152
-660.959	-95.232	-0.090	0.024
-659.945	798.472	-0.073	0.202
-658.930	-66.093	-0.190	-0.076
-657.916	-32.513	0.137	0.077
-656.901	-64.208	0.383	-0.157
-655.886	-24.612	-0.367	0.220
-654.872	-106.519	-0.308	-0.069
-653.857	-158.605	-0.433	-0.025
-652.843	-129.920	-0.239	-0.033
-651.828	-200.000	-0.004	-0.190
-650.814	-200.000	-0.002	0.081
-649.799	-200.000	0.022	-0.258
-648.784	-123.812	-0.259	0.041
-647.770	345.670	-0.081	0.160
-646.755	-200.000	0.039	0.407
-645.741	614.440	-0.133	-0.336
-644.726	87.009	0.082	0.091
-643.711	76.553	-0.230	0.245
-642.697	81.859	0.197	0.214
-641.682	-200.000	0.037	0.508
-640.668	800.000	0.050	0.169
-639.653	329.274	-0.117	0.225
-638.638	746.683	0.109	0.294
-637.624	98.032	-0.169	0.196
-636.609	117.111	0.234	0.289
-635.595	63.480	-0.034	-0.034
-634.580	-53.919	-0.278	-0.127
-633.565	-0.679	-0.113	-0.081
-632.551	107.893	0.247	0.295
-631.536	326.202	0.106	0.204
-630.522	-200.000	-0.014	0.144
-629.507	-150.325	-0.187	-0.015
-628.492	161.853	0.127	-0.178
-627.478	-200.000	0.000	-0.342
-626.463	-94.188	0.137	0.038
-625.449	-134.488	-0.129	-0.016
-624.434	-118.762	0.243	0.043
-623.419	90.175	0.085	-0.096
-622.405	-61.166	0.287	-0.121
-621.390	-106.113	-0.128	-0.029
-620.376	184.138	-0.100	-0.148
-619.361	-58.520	-0.015	0.007
-618.346	212.164	0.156	-0.246
-617.332	163.308	-0.163	-0.230
-616.317	-200.000	-0.026	0.169
-615.303	523.818	-0.117	-0.276
-614.288	-99.083	0.096	0.024
-613.273	-142.781	-0.114	0.011
-612.259	-28.008	-0.556	-0.323
-611.244	-10.762	-0.302	-0.200
-610.230	-200.000	-0.049	-0.268
-609.215	-24.439	0.295	-0.176
-608.201	-200.000	0.032	-0.540
-607.186	-82.124	-0.288	-0.094
-606.171	23.597	0.218	0.180
-605.157	-140.436	-0.109	-0.011
-604.142	44.088	0.024	-0.022
-603.128	-102.720	0.322	-0.077
-602.113	193.720	0.192	-0.292
-601.098	-123.411	0.146	-0.023
-600.084	-64.615	0.042	0.017
-599.069	-200.000	-0.057	0.283
-598.055	-165.238	0.164	0.007
-597.040	94.159	-0.137	-0.156
-596.025	-136.859	-0.171	0.020
-595.011	-200.000	0.042	0.392
-593.996	800.000	-0.056	-0.195
-592.982	800.000	-0.107	0.337
-591.967	-200.000	-0.010	-0.203
-590.952	-200.000	0.002	-0.074
-589.938	-200.000	0.004	-0.113
-588.923	800.000	-0.105	-0.321
-587.909	183.966	-0.149	-0.221
-586.894	-87.905	0.141	0.043
-585.879	-2.333	0.192	-0.135
-584.865	-60.253	0.266	0.114
-583.850	-79.651	-0.215	0.073
-582.836	-200.000	0.048	-0.335
-581.821	76.763	-0.176	0.188
-580.806	89.008	-0.066	-0.074
-579.792	-95.092	-0.078	0.021
-578.777	-200.000	-0.012	-0.088
-577.763	-105.088	-0.251	-0.057
-576.748	107.346	-0.078	0.093
-575.733	-50.623	-0.108	0.051
-574.719	-55.451	-0.309	0.139
-573.704	302.036	0.106	-0.196
-572.690	-9.325	-0.113	-0.076
-571.675	800.000	0.067	0.187
-570.661	-101.738	0.156	0.038
-569.646	-70.141	0.040	-0.015
-568.631	56.894	0.177	-0.173
-567.617	67.656	0.064	-0.066
-566.602	164.048	0.120	-0.170
-565.588	-200.000	0.039	0.248
-564.573	-24.711	0.089	0.053
-563.558	-126.101	-0.413	0.062
-562.544	-16.520	-0.160	0.102
-561.529	112.179	-0.046	0.055
-560.515	-16.932	0.299	0.189
-559.500	-133.055	-0.315	0.040
-558.485	-200.000	0.038	0.219
-557.471	-77.080	-0.120	0.042
-556.456	91.866	-0.112	-0.126
-555.442	-12.231	0.264	-0.173
-554.427	-80.269	0.391	0.131
-553.412	-109.303	0.240	-0.051
-552.398	-200.000	-0.000	-0.091
-551.383	-66.993	0.134	-0.053
-550.369	-25.339	-0.248	-0.147
-549.354	173.258	0.136	-0.196
-548.339	800.000	-0.097	-0.349
-547.325	431.549	-0.103	-0.224
-546.310	-129.739	-0.301	0.041
-545.296	-75.768	0.061	0.022
-544.281	27.366	0.099	0.083
-543.266	-127.081	0.337	-0.049
-542.252	-94.960	0.114	0.031
-541.237	-42.148	0.184	-0.094
-540.223	800.000	0.060	-0.237
-539.208	800.000	0.065	0.210
-538.193	-113.991	0.390	0.076
-537.179	47.076	0.030	0.028
-536.164	481.796	0.040	0.090
-535.150	361.916	0.087	0.175
-534.135	274.389	-0.172	-0.305
-533.121	303.173	0.140	0.259
-532.106	-200.000	0.051	-0.232
-531.091	309.592	-0.168	0.315
-530.077	214.842	-0.139	0.221
-529.062	-120.777	-0.198	0.033
-528.048	144.238	-0.046	-0.061
-527.033	5.329	0.223	-0.165
-526.018	-66.875	-0.112	0.044
-525.004	142.267	-0.115	0.153
-523.989	114.141	0.181	-0.220
-522.975	-32.475	0.156	0.087
-521.960	11.212	0.321	-0.245
-520.945	112.940	0.073	0.088
-519.931	-10.538	-0.079	0.052
-518.916	-200.000	-0.005	0.067
-517.902	-62.117	-0.159	-0.066
-516.887	-117.341	-0.367	0.067
-515.872	44.502	0.178	-0.163
-514.858	89.438	0.148	-0.165
-513.843	800.000	-0.030	0.124
-512.829	486.381	-0.067	0.153
-511.814	-29.891	-0.201	-0.114
-510.799	-101.487	-0.262	0.064
-509.785	-60.470	-0.192	0.082
-508.770	287.036	-0.122	-0.221
-507.756	-165.910	0.311	-0.013
-506.741	-200.000	0.018	0.154
-505.726	186.300	0.016	0.024
-504.712	55.006	0.111	0.107
-503.697	800.000	-0.105	0.371
-502.683	-66.316	-0.182	0.072
-501.668	-200.000	0.005	0.028
-500.653	-111.513	-0.164	-0.033
-499.639	-11.989	-0.067	0.044
-498.624	184.092	-0.165	-0.244
-497.610	20.466	0.122	-0.098
-496.595	-163.165	0.139	0.007
-495.581	780.734	-0.110	-0.302
-494.566	800.000	-0.049	-0.138
-493.551	512.923	-0.021	-0.049
-492.537	-151.651	0.284	-0.021
-491.522	-200.000	0.035	-0.185
-490.508	-200.000	-0.025	-0.286
-489.493	-97.279	0.367	-0.096
-488.478	800.000	-0.053	0.185
-487.464	-42.487	0.271	0.138
-486.449	-85.142	-0.307	-0.096
-485.435	-132.996	-0.214	-0.027
-484.420	84.771	0.075	-0.082
-483.405	-141.797	0.181	-0.018
-482.391	800.000	0.084	-0.297
-481.376	800.000	0.054	0.204
-480.362	-119.464	0.267	-0.046
-479.347	14.844	0.154	-0.120
-478.332	206.086	-0.145	0.225
-477.318	800.000	-0.097	0.282
-476.303	-75.890	-0.158	0.056
-475.289	138.658	-0.252	-0.330
-474.274	-200.000	0.028	0.161
-473.259	-2.535	0.033	0.023
-472.245	19.599	-0.075	-0.061
-471.230	800.000	0.017	0.058
-470.216	-12.145	-0.220	-0.144
-469.201	-124.617	0.162	0.025
-468.186	-200.000	-0.006	0.268
-467.172	-34.951	-0.068	-0.037
-466.157	21.246	-0.042	-0.034
-465.143	640.943	0.111	0.281
-464.128	-8.985	0.129	0.086
-463.113	-200.000	-0.018	-0.129
-462.099	168.212	-0.131	-0.186
-461.084	-114.862	0.108	-0.020
-460.070	419.439	0.050	0.106
-459.055	189.940	0.237	-0.355
-458.040	-157.084	-0.415	0.025
-457.026	-134.967	-0.152	0.018
-456.011	-137.529	0.074	-0.008
-454.997	-200.000	-0.033	-0.225
-453.982	-23.553	0.018	0.011
-452.968	18.208	-0.332	0.264
-451.953	2.867	0.101	-0.073
-450.938	-200.000	0.015	-0.313
-449.924	239.313	0.126	0.210
-448.909	-200.000	-0.034	0.265
-447.895	199.639	0.190	0.291
-446.880	171.982	0.050	0.071
-445.865	306.912	-0.220	0.409
-444.851	-57.710	0.160	-0.070
-443.836	6.696	0.120	-0.089
-442.822	52.991	0.190	0.182
-441.807	5.416	-0.124	0.091
-440.792	-72.744	0.277	0.102
-439.778	-100.531	-0.261	0.064
-438.763	176.468	-0.176	-0.255
-437.749	-58.422	0.221	0.096
-436.734	-200.000	0.020	0.289
-435.719	5.900	0.242	-0.179
-434.705	435.897	0.032	0.069
-433.690	24.305	0.124	0.102
-432.676	140.577	-0.184	0.242
-431.661	-200.000	-0.008	0.161
-430.646	-200.000	0.013	-0.404
-429.632	709.581	-0.102	-0.268
-428.617	-200.000	0.011	-0.239
-427.603	-200.000	-0.009	0.059
-426.588	-32.924	0.023	-0.013
-425.573	64.747	0.090	-0.091
-424.559	-94.595	0.301	-0.081
-423.544	300.947	0.140	-0.258
-422.530	-40.458	0.184	-0.095
-421.515	473.386	0.084	0.188
-420.500	-200.000	-0.005	0.184
-419.486	-200.000	-0.027	-0.294
-418.471	-96.033	0.273	0.072
-417.457	96.555	-0.066	-0.075
-416.442	-144.233	0.178	0.017
-415.428	800.000	-0.107	0.321
-414.413	-200.000	-0.022	0.183
-413.398	-127.510	0.190	-0.027
-412.384	13.827	0.186	0.144
-411.369	-200.000	-0.000	-0.034
-410.355	64.996	0.118	-0.119
-409.340	-200.000	0.022	-0.122
-408.325	-18.193	-0.193	0.120
-407.311	709.037	-0.143	-0.377
-406.296	-68.994	-0.356	0.137
-405.282	189.787	-0.145	0.216
-404.267	-200.000	-0.067	-0.327
-403.252	-109.261	-0.247	0.052
-402.238	-200.000	0.033	0.212
-401.223	290.448	-0.026	0.047
-400.209	-59.332	-0.292	-0.125
-399.194	-200.000	0.005	0.293
-398.179	680.431	0.025	-0.065
-397.165	-109.670	-0.488	0.102
-396.150	-82.620	0.342	-0.110
-395.136	63.752	-0.057	-0.057
-394.121	203.844	-0.047	-0.072
-393.106	-39.538	0.046	0.024
-392.092	486.608	-0.042	-0.096
-391.077	-142.735	-0.260	-0.025
-390.063	365.242	-0.092	0.185
-389.048	-200.000	0.014	0.120
-388.033	-200.000	0.054	0.270
-387.019	800.000	-0.097	0.412
-386.004	-68.283	-0.253	0.098
-384.990	436.352	0.047	0.101
-383.975	-200.000	0.006	-0.199
-382.960	132.807	0.122	0.157
-381.946	-18.160	0.147	0.092
-380.931	370.831	-0.130	-0.262
-379.917	-34.500	0.039	-0.021
-378.902	800.000	0.048	0.164
-377.888	694.320	-0.048	-0.126
-376.873	-200.000	-0.023	-0.253
-375.858	-195.679	-0.221	-0.002
-374.844	327.709	-0.176	-0.336
-373.829	-72.721	0.371	-0.136
-372.815	462.492	0.043	0.097
-371.800	-200.000	-0.024	0.438
-370.785	-200.000	-0.012	0.076
-369.771	525.595	-0.095	-0.222
-368.756	800.000	-0.063	-0.203
-367.742	-200.000	0.047	0.310
-366.727	21.573	0.132	0.107
-365.712	-95.032	0.133	-0.036
-364.698	-200.000	0.057	-0.333
-363.683	-39.604	-0.116	0.060
-362.669	76.818	0.081	0.086
-361.654	800.000	-0.033	0.101
-360.639	536.727	0.146	-0.345
-359.625	-95.266	0.051	0.014
-358.610	-108.585	0.059	0.013
-357.596	386.931	-0.064	-0.131
-356.581	-70.676	-0.210	-0.079
-355.566	-130.090	0.121	-0.016
-354.552	800.000	-0.032	0.099
-353.537	-141.430	-0.067	0.007
-352.523	167.844	0.134	0.189
-351.508	800.000	-0.026	0.098
-350.493	282.935	-0.055	0.098
-349.479	-51.080	0.364	-0.169
-348.464	-200.000	-0.029	0.201
-347.450	-10.748	0.434	-0.285
-346.435	-10.481	0.101	-0.067
-345.420	16.709	-0.122	-0.096
-344.406	228.125	-0.150	0.243
-343.391	-200.000	-0.054	0.475
-342.377	-107.206	-0.157	-0.034
-341.362	-103.298	0.121	-0.028
-340.348	-15.557	-0.271	-0.172
-339.333	-18.143	-0.428	0.266
-338.318	499.975	0.136	0.312
-337.304	120.113	0.075	-0.093
-336.289	56.605	0.184	0.177
-335.275	42.247	-0.261	-0.236
-334.260	-200.000	-0.018	0.140
-333.245	-94.108	0.157	-0.043
-332.231	-101.789	0.230	-0.055
-331.216	-19.036	-0.104	-0.064
-330.202	-200.000	-0.071	-0.549
-329.187	495.459	-0.022	-0.049
-328.172	90.799	-0.084	-0.094
-327.158	-200.000	-0.055	0.401
-326.143	-17.448	0.122	-0.076
-325.129	85.609	0.202	0.220
-324.114	-154.014	-0.194	-0.013
-323.099	-200.000	0.001	0.474
-322.085	-53.187	-0.109	0.050
-321.070	800.000	0.035	-0.127
-320.056	-117.322	0.205	0.037
-319.041	764.486	-0.131	-0.352
-318.026	52.761	0.262	-0.248
-317.012	-7.405	0.015	0.010
-315.997	-157.684	-0.224	-0.013
-314.983	800.000	0.068	0.198
-313.968	800.000	0.144	-0.539
-312.953	244.038	0.118	-0.196
-311.939	-200.000	-0.080	0.405
-310.924	136.457	0.088	-0.113
-309.910	-81.217	-0.183	0.060
-308.895	-200.000	-0.009	-0.304
-307.880	-200.000	0.011	-0.143
-306.866	180.448	-0.117	-0.170
-305.851	559.617	-0.103	0.247
-304.837	650.074	0.052	-0.131
-303.822	800.000	0.032	0.130
-302.807	-68.654	-0.117	0.045
-301.793	314.395	-0.092	0.172
-300.778	333.530	-0.071	0.136
-299.764	30.992	-0.034	-0.029
-298.749	-108.636	0.173	-0.037
-297.735	155.469	-0.021	0.028
-296.720	800.000	-0.062	-0.229
-295.705	-200.000	0.058	-0.312
-294.691	-54.880	-0.172	-0.077
-293.676	-14.251	-0.209	-0.134
-292.662	67.890	0.267	-0.270
-291.647	-107.227	-0.095	0.021
-290.632	-20.867	-0.078	0.047
-289.618	-32.069	-0.063	-0.035
-288.603	645.620	-0.078	-0.198
-287.589	-200.000	0.022	-0.296
-286.574	-200.000	0.014	-0.201
-285.559	143.779	0.234	0.309
-284.545	123.939	0.136	0.169
-283.530	1.302	-0.130	-0.093
-282.516	34.426	-0.273	0.236
-281.501	36.592	0.165	-0.144
-280.486	-200.000	0.001	0.184
-279.472	-72.491	0.226	-0.083
-278.457	-35.554	-0.178	0.096
-277.443	-128.829	-0.047	0.007
-276.428	-62.149	-0.125	-0.052
-275.413	90.069	0.054	0.060
-274.399	8.971	0.139	0.104
-273.384	-76.862	0.247	-0.086
-272.370	-155.748	-0.093	-0.006
-271.355	-61.406	0.262	0.109
-270.340	25.902	-0.184	0.152
-269.326	800.000	0.159	0.472
-268.311	-141.696	-0.427	0.043
-267.297	452.688	-0.122	-0.268
-266.282	800.000	0.031	0.122
-265.267	191.054	0.077	0.115
-264.253	193.073	-0.133	0.199
-263.238	94.906	0.099	-0.111
-262.224	-58.841	0.241	0.103
-261.209	105.709	-0.186	0.218
-260.195	-36.539	-0.233	-0.124
-259.180	596.636	0.045	-0.110
-258.165	66.042	-0.184	0.185
-257.151	66.692	-0.227	-0.229
-256.136	324.572	-0.054	0.102
-255.122	-18.466	0.250	-0.154
-254.107	-168.417	-0.244	0.009
-253.092	16.305	0.066	-0.051
-252.078	43.294	0.158	-0.143
-251.063	259.392	-0.129	-0.221
-250.049	88.813	-0.171	-0.188
-249.034	-19.713	0.444	0.271
-248.019	-1.398	0.148	0.103
-247.005	591.796	-0.030	0.073
-245.990	157.999	0.102	-0.140
-244.976	-200.000	0.007	-0.122
-243.961	-62.841	0.307	-0.126
-242.946	-200.000	-0.015	-0.267
-241.932	-200.000	0.018	0.138
-240.917	-200.000	0.035	0.155
-239.903	90.652	0.148	-0.164
-238.888	800.000	-0.012	-0.035
-237.873	197.050	0.106	0.160
-236.859	798.262	-0.051	-0.140
-235.844	-79.452	0.311	0.104
-234.830	-200.000	-0.007	0.086
-233.815	800.000	-0.084	0.267
-232.800	-200.000	0.008	-0.135
-231.786	-200.000	0.041	0.369
-230.771	237.859	-0.049	-0.080
-229.757	800.000	-0.077	-0.247
-228.742	-136.080	0.164	-0.019
-227.727	-121.381	0.341	-0.056
-226.713	-8.001	0.199	0.132
-225.698	-100.074	-0.170	0.042
-224.684	-7.878	0.310	-0.207
-223.669	48.267	0.089	0.082
-222.655	187.280	-0.197	-0.291
-221.640	-90.896	-0.199	0.057
-220.625	-149.257	-0.086	0.007
-219.611	-31.833	0.120	0.067
-218.596	-80.144	-0.231	0.077
-217.582	-140.440	-0.122	-0.013
-216.567	-87.636	0.240	0.072
-215.552	-85.846	-0.366	-0.112
-214.538	-96.772	-0.203	0.053
-213.523	27.548	0.154	-0.128
-212.509	30.797	0.200	-0.169
-211.494	21.674	-0.194	0.156
-210.479	580.078	0.045	0.109
-209.465	194.336	0.060	-0.090
-208.450	800.000	-0.048	-0.204
-207.436	-60.630	-0.136	0.057
-206.421	77.606	-0.151	0.159
-205.406	628.099	-0.143	-0.357
-204.392	800.000	0.080	-0.313
-203.377	84.250	0.044	-0.047
-202.363	252.480	0.042	0.071
-201.348	-23.152	0.374	-0.222
-200.333	106.190	-0.288	0.337
-199.319	217.624	0.268	0.421
-198.304	-21.953	-0.259	-0.156
-197.290	-82.694	0.116	-0.037
-196.275	-11.271	-0.074	-0.048
-195.260	800.000	-0.041	0.152
-194.246	-49.041	0.255	0.121
-193.231	431.759	0.071	-0.151
-192.217	800.000	0.044	-0.171
-191.202	54.617	-0.107	0.102
-190.187	-200.000	-0.006	0.063
-189.173	284.133	0.048	0.086
-188.158	583.306	0.085	-0.207
-187.144	105.898	-0.139	-0.163
-186.129	800.000	0.044	-0.154
-185.114	-21.771	-0.193	-0.116
-184.100	290.665	0.098	0.177
-183.085	-200.000	0.042	-0.296
-182.071	-200.000	0.007	0.043
-181.056	-110.709	-0.099	-0.020
-180.042	-57.041	0.300	-0.131
-179.027	800.000	-0.051	0.196
-178.012	-200.000	-0.018	-0.157
-176.998	-41.322	0.205	-0.104
-175.983	776.546	0.111	0.298
-174.969	-112.655	0.274	-0.054
-173.954	354.607	0.079	-0.155
-172.939	800.000	0.007	0.026
-171.925	55.756	-0.319	0.305
-170.910	800.000	-0.051	-0.151
-169.896	352.236	-0.110	-0.214
-168.881	133.295	-0.215	0.274
-167.866	-146.716	0.122	-0.010
-166.852	-200.000	-0.061	0.291
-165.837	150.335	-0.101	-0.135
-164.823	598.069	-0.053	0.129
-163.808	-101.419	-0.363	-0.087
-162.793	-92.120	-0.127	0.035
-161.779	66.769	-0.117	-0.117
-160.764	74.623	-0.217	0.225
-159.750	-200.000	0.053	0.285
-158.735	-98.451	-0.195	0.049
-157.720	57.995	0.146	0.141
-156.706	47.530	0.171	0.157
-155.691	-200.000	0.097	0.446
-154.677	-35.260	0.263	0.141
-153.662	81.664	-0.275	0.294
-152.647	-23.068	0.097	0.058
-151.633	-41.860	0.137	0.069
-150.618	-11.635	0.281	-0.182
-149.604	178.936	-0.176	0.254
-148.589	-64.864	0.068	0.027
-147.574	12.345	-0.005	0.004
-146.560	800.000	-0.063	-0.252
-145.545	-5.861	0.215	-0.145
-144.531	469.096	0.118	0.261
-143.516	-200.000	0.055	0.322
-142.502	-53.895	0.106	0.048
-141.487	155.991	-0.068	-0.092
-140.472	-43.603	0.090	0.045
-139.458	2.134	-0.149	-0.106
-138.443	-69.805	-0.181	0.068
-137.429	-70.316	0.082	0.031
-136.414	570.277	-0.080	0.191
-135.399	-167.879	0.272	0.011
-134.385	-55.540	0.252	-0.111
-133.370	23.143	-0.024	0.020
-132.356	146.686	-0.069	-0.091
-131.341	1.388	0.449	0.318
-130.326	-129.398	0.084	0.011
-129.312	-200.000	0.015	-0.164
-128.297	3.381	0.122	0.087
-127.283	46.013	-0.086	0.078
-126.268	40.643	-0.225	-0.200
-125.253	-108.478	-0.309	0.065
-124.239	-200.000	-0.045	-0.395
-123.224	-141.067	-0.086	-0.009
-122.210	800.000	0.106	0.294
-121.195	-77.578	-0.175	0.060
