DTS Sentinel unit serial number:	SN413079Multiplexer serial number:	ORYXHardware model number:	OX4-SRSoftware version number:	ORYX F/W v4.00 Oryx Data Collector v3.7.2.0data status	okinstallation	princeton_trtdifferential loss correction	single-endedforward channel	channel 1reverse channel	N/Adate	2019/09/11time	09:12:11forward acquisition time	60.00reverse acquisition time	0.00gamma	496.2192k internal	0.2309k external	0.2309temperature offset calibration	0.9950default loss term (dB/km)	0.3790temperature slope calibration	1.0000multiplexer offset coefficient	1.0000multiplexer slope coefficient	1.0000fibre end	0.00T internal ref (°C)	34.31T ext. ref 1 (°C)	0.09T ext. ref 2 (°C)	29.98length (m)	temperature (°C)	Stokes	anti-Stokes-747.200	800.000	-0.103	0.334
-746.185	-200.000	0.028	0.248
-745.171	89.188	0.126	-0.142
-744.156	-101.897	-0.473	-0.116
-743.142	-76.515	-0.173	-0.062
-742.127	-191.724	-0.121	-0.001
-741.112	358.934	-0.140	0.285
-740.098	74.672	0.296	0.316
-739.083	-200.000	-0.029	0.223
-738.069	3.058	-0.188	0.138
-737.054	233.493	0.158	-0.265
-736.039	3.223	-0.210	0.155
-735.025	-27.674	0.293	0.173
-734.010	-9.197	-0.404	0.274
-732.996	79.485	-0.090	0.098
-731.981	-110.238	-0.088	0.019
-730.966	-77.761	-0.282	0.099
-729.952	583.829	-0.065	0.162
-728.937	111.024	-0.021	0.026
-727.923	-138.474	-0.426	0.048
-726.908	-200.000	0.063	-0.303
-725.894	-123.010	0.082	-0.013
-724.879	-200.000	-0.060	-0.408
-723.864	-26.705	-0.355	-0.211
-722.850	-200.000	-0.313	0.000
-721.835	-32.029	-0.223	-0.127
-720.821	-200.000	0.001	-0.061
-719.806	-200.000	0.016	-0.386
-718.791	80.030	-0.199	-0.217
-717.777	-88.632	0.245	0.074
-716.762	63.050	0.042	-0.043
-715.748	94.308	0.192	-0.222
-714.733	77.059	-0.050	0.054
-713.718	40.260	0.143	0.130
-712.704	-17.789	-0.187	-0.119
-711.689	-60.795	-0.080	-0.034
-710.675	45.837	-0.093	-0.087
-709.660	3.356	0.033	-0.025
-708.645	-121.545	0.115	0.019
-707.631	309.271	-0.097	-0.184
-706.616	-127.847	0.116	-0.017
-705.602	-134.787	-0.101	0.012
-704.587	198.076	0.153	0.237
-703.572	-53.403	-0.376	-0.175
-702.558	229.567	-0.126	-0.208
-701.543	267.643	-0.041	0.073
-700.529	65.152	-0.202	0.207
-699.514	-200.000	0.023	-0.172
-698.499	517.315	0.220	0.522
-697.485	447.612	-0.145	-0.324
-696.470	-200.000	0.001	-0.301
-695.456	-8.332	-0.227	0.155
-694.441	800.000	-0.028	-0.077
-693.426	327.900	0.036	-0.070
-692.412	-26.088	0.133	-0.079
-691.397	743.146	-0.074	-0.201
-690.383	20.544	-0.187	-0.153
-689.368	-33.316	-0.165	0.093
-688.354	27.302	-0.189	-0.161
-687.339	-55.560	-0.217	-0.098
-686.324	-17.631	-0.351	-0.224
-685.310	360.442	-0.167	-0.339
-684.295	54.971	-0.188	0.184
-683.281	800.000	-0.083	-0.322
-682.266	3.223	-0.077	0.057
-681.251	47.362	0.217	-0.205
-680.237	-107.139	-0.280	0.063
-679.222	109.097	0.089	-0.108
-678.208	-58.951	-0.171	0.075
-677.193	-168.063	0.243	0.010
-676.178	537.479	-0.063	-0.151
-675.164	-150.046	-0.141	0.011
-674.149	-82.890	-0.187	-0.061
-673.135	358.664	0.089	0.180
-672.120	800.000	-0.158	0.477
-671.105	-114.309	0.178	-0.035
-670.091	85.132	0.077	-0.086
-669.076	5.779	-0.241	-0.180
-668.062	13.085	-0.253	-0.198
-667.047	28.244	0.053	-0.045
-666.032	414.686	-0.054	0.117
-665.018	84.790	0.032	-0.036
-664.003	72.390	-0.164	0.173
-662.989	800.000	0.042	0.122
-661.974	353.599	0.157	0.315
-660.959	86.873	0.167	0.187
-659.945	-200.000	0.016	0.230
-658.930	-104.936	-0.183	0.042
-657.916	194.485	-0.074	-0.113
-656.901	-24.641	0.250	-0.151
-655.886	-90.357	-0.186	0.055
-654.872	-145.606	-0.213	-0.019
-653.857	-25.802	-0.259	-0.155
-652.843	-200.000	-0.011	-0.229
-651.828	2.988	-0.246	0.181
-650.814	751.634	0.077	-0.211
-649.799	-200.000	0.006	-0.033
-648.784	318.647	0.215	-0.412
-647.770	92.595	-0.075	-0.085
-646.755	157.753	-0.199	-0.279
-645.741	-7.583	0.092	-0.063
-644.726	11.683	0.337	-0.262
-643.711	-110.666	-0.207	0.043
-642.697	16.204	-0.074	0.059
-641.682	60.658	-0.127	-0.127
-640.668	-200.000	0.033	-0.180
-639.653	137.933	-0.133	0.176
-638.638	453.478	-0.042	-0.095
-637.624	-49.057	-0.384	-0.186
-636.609	800.000	0.068	-0.238
-635.595	-200.000	-0.007	-0.201
-634.580	-115.408	0.195	-0.037
-633.565	-200.000	0.014	-0.069
-632.551	87.475	-0.098	0.110
-631.536	800.000	-0.027	-0.079
-630.522	-200.000	-0.082	-0.413
-629.507	-200.000	-0.054	-0.304
-628.492	-148.297	0.051	0.004
-627.478	-104.491	-0.120	-0.028
-626.463	-41.785	-0.278	-0.144
-625.449	-26.593	0.418	0.248
-624.434	-45.865	-0.208	-0.104
-623.419	-200.000	-0.053	0.262
-622.405	175.604	0.020	0.030
-621.390	-200.000	0.001	0.265
-620.376	-99.402	-0.292	-0.074
-619.361	-200.000	-0.078	-0.436
-618.346	-158.871	0.153	-0.009
-617.332	-12.170	-0.220	-0.146
-616.317	445.888	-0.092	0.205
-615.303	800.000	-0.035	0.139
-614.288	-70.186	0.060	-0.023
-613.273	-200.000	0.024	-0.193
-612.259	-41.002	-0.173	0.090
-611.244	193.961	0.211	0.323
-610.230	-115.050	-0.263	-0.051
-609.215	-81.789	-0.221	-0.073
-608.201	-85.232	0.244	0.077
-607.186	-200.000	0.047	0.530
-606.171	53.255	0.123	-0.119
-605.157	800.000	-0.180	-0.745
-604.142	101.677	0.118	0.140
-603.128	800.000	0.144	-0.425
-602.113	600.206	-0.101	-0.253
-601.098	-200.000	0.002	-0.220
-600.084	-55.057	-0.234	-0.106
-599.069	166.498	0.163	0.233
-598.055	-20.246	0.059	0.037
-597.040	-200.000	-0.019	-0.107
-596.025	207.494	-0.194	-0.306
-595.011	212.806	0.105	0.168
-593.996	800.000	0.013	0.042
-592.982	89.098	-0.133	-0.149
-591.967	-22.584	-0.120	0.073
-590.952	-31.542	0.136	0.077
-589.938	-200.000	0.037	0.442
-588.923	-108.573	0.456	0.099
-587.909	62.469	0.104	0.105
-586.894	468.558	0.066	0.151
-585.879	-170.643	0.073	-0.003
-584.865	379.977	-0.089	0.184
-583.850	-129.699	0.202	-0.028
-582.836	-144.117	-0.177	-0.017
-581.821	-52.787	-0.216	0.101
-580.806	-38.280	-0.209	0.112
-579.792	-27.171	0.101	-0.060
-578.777	-101.932	0.320	-0.078
-577.763	199.637	-0.257	0.399
-576.748	135.813	-0.194	0.255
-575.733	236.885	0.042	0.071
-574.719	-31.510	0.323	-0.183
-573.704	-200.000	0.072	0.483
-572.690	35.568	0.061	0.054
-571.675	-130.525	-0.143	-0.019
-570.661	-119.493	-0.073	-0.013
-569.646	-108.064	0.223	-0.049
-568.631	-53.045	0.058	-0.027
-567.617	-135.746	-0.231	0.028
-566.602	792.531	0.055	0.153
-565.588	-120.183	-0.381	0.066
-564.573	-100.658	-0.413	-0.103
-563.558	313.423	-0.148	-0.281
-562.544	800.000	0.036	0.115
-561.529	60.854	0.048	0.048
-560.515	-200.000	-0.017	0.274
-559.500	-63.590	0.314	-0.130
-558.485	28.130	0.145	0.124
-557.471	-200.000	0.028	0.186
-556.456	-200.000	-0.005	0.409
-555.442	-200.000	0.003	-0.176
-554.427	-118.342	0.210	0.038
-553.412	106.783	-0.025	0.030
-552.398	780.571	-0.064	0.177
-551.383	68.900	-0.095	-0.098
-550.369	-91.654	-0.023	0.007
-549.354	-162.839	-0.353	0.017
-548.339	25.338	-0.135	0.113
-547.325	289.381	0.188	0.344
-546.310	36.114	0.161	0.143
-545.296	-200.000	0.001	0.014
-544.281	55.659	0.053	-0.052
-543.266	-200.000	0.040	0.264
-542.252	201.728	-0.158	-0.246
-541.237	64.028	-0.094	-0.096
-540.223	-67.556	0.282	0.112
-539.208	-200.000	-0.003	0.097
-538.193	-26.871	-0.040	0.024
-537.179	-200.000	0.053	-0.400
-536.164	52.716	0.050	0.048
-535.150	-15.936	-0.248	-0.159
-534.135	-200.000	-0.011	-0.129
-533.121	-118.425	0.298	0.053
-532.106	-98.834	0.091	0.023
-531.091	183.007	-0.191	-0.285
-530.077	2.555	-0.288	-0.210
-529.062	284.183	0.047	-0.086
-528.048	449.822	-0.129	-0.288
-527.033	-122.061	0.194	0.032
-526.018	743.943	-0.042	-0.115
-525.004	393.918	-0.051	-0.106
-523.989	-111.284	0.171	0.035
-522.975	800.000	-0.047	0.187
-521.960	-62.566	-0.217	-0.091
-520.945	-30.826	-0.214	-0.122
-519.931	-68.879	0.074	0.029
-518.916	-153.428	0.117	-0.008
-517.902	-142.632	-0.163	-0.016
-516.887	-111.462	-0.128	-0.026
-515.872	585.688	0.037	0.092
-514.858	800.000	-0.006	0.019
-513.843	-76.353	-0.057	-0.020
-512.829	86.501	-0.099	-0.110
-511.814	-200.000	0.006	0.056
-510.799	92.043	0.178	-0.202
-509.785	89.711	0.091	-0.102
-508.770	-133.906	-0.406	0.051
-507.756	-0.809	0.107	0.077
-506.741	576.798	-0.051	0.126
-505.726	87.767	0.186	0.208
-504.712	68.717	0.120	-0.124
-503.697	-80.825	0.267	0.089
-502.683	29.851	-0.069	-0.059
-501.668	316.805	-0.099	-0.187
-500.653	10.648	-0.294	-0.226
-499.639	87.950	0.100	-0.111
-498.624	-50.334	0.161	-0.077
-497.610	-200.000	0.004	0.128
-496.595	38.347	0.151	-0.135
-495.581	-200.000	0.047	-0.527
-494.566	-142.918	0.271	-0.026
-493.551	-200.000	-0.044	0.253
-492.537	-200.000	0.007	0.093
-491.522	469.476	-0.035	0.078
-490.508	372.077	0.075	0.152
-489.493	-77.150	-0.079	-0.028
-488.478	93.653	0.077	0.088
-487.464	-134.568	-0.435	0.053
-486.449	89.709	-0.048	-0.054
-485.435	-200.000	0.007	-0.181
-484.420	-200.000	0.059	0.345
-483.405	730.804	0.022	0.060
-482.391	-61.227	0.271	0.115
-481.376	-200.000	-0.007	-0.124
-480.362	-42.933	-0.347	-0.177
-479.347	501.731	0.135	-0.312
-478.332	-200.000	0.029	-0.230
-477.318	6.706	0.086	0.064
-476.303	2.496	-0.180	-0.131
-475.289	44.359	-0.214	0.197
-474.274	-117.144	0.396	0.072
-473.259	63.540	-0.057	-0.057
-472.245	48.682	-0.146	0.138
-471.230	-200.000	0.021	0.125
-470.216	-105.102	0.086	0.020
-469.201	800.000	0.059	-0.217
-468.186	-30.339	-0.156	-0.089
-467.172	-200.000	-0.012	0.142
-466.157	-155.944	-0.076	0.005
-465.143	-200.000	0.030	0.246
-464.128	-118.006	-0.253	0.046
-463.113	-200.000	-0.005	0.025
-462.099	800.000	-0.033	0.122
-461.084	14.757	-0.210	-0.165
-460.070	10.458	-0.106	0.081
-459.055	146.567	-0.100	0.135
-458.040	76.290	0.071	-0.075
-457.026	-200.000	-0.052	-0.400
-456.011	-200.000	0.037	-0.180
-454.997	37.731	-0.099	0.088
-453.982	218.748	0.041	0.065
-452.968	-200.000	-0.088	0.395
-451.953	-134.429	0.175	0.021
-450.938	34.460	0.173	-0.152
-449.924	-11.570	0.027	-0.018
-448.909	23.072	0.148	-0.122
-447.895	-32.991	-0.194	0.108
-446.880	68.286	0.101	-0.104
-445.865	-200.000	0.036	-0.165
-444.851	-191.625	-0.416	-0.004
-443.836	239.694	0.098	-0.164
-442.822	800.000	-0.096	-0.395
-441.807	-64.861	-0.134	0.054
-440.792	-200.000	-0.032	0.237
-439.778	-200.000	-0.007	-0.089
-438.763	-29.574	0.050	0.029
-437.749	321.556	-0.079	0.151
-436.734	800.000	0.078	-0.264
-435.719	8.668	0.020	0.015
-434.705	185.281	-0.171	-0.254
-433.690	-200.000	-0.000	-0.220
-432.676	22.353	-0.232	-0.190
-431.661	-115.161	0.302	0.057
-430.646	177.006	-0.205	0.299
-429.632	800.000	0.052	-0.146
-428.617	800.000	-0.040	-0.152
-427.603	800.000	-0.024	0.090
-426.588	295.176	-0.086	0.159
-425.573	38.550	-0.126	-0.113
-424.559	473.590	-0.101	0.228
-423.544	800.000	-0.053	-0.178
-422.530	27.973	0.144	-0.122
-421.515	-165.935	-0.402	-0.017
-420.500	54.644	0.188	-0.182
-419.486	-0.526	0.064	-0.045
-418.471	-200.000	-0.040	0.292
-417.457	-109.371	0.147	0.031
-416.442	-123.406	0.187	-0.030
-415.428	-37.586	0.117	-0.063
-414.413	-200.000	-0.054	0.346
-413.398	81.733	-0.124	0.134
-412.384	-200.000	0.016	-0.219
-411.369	308.492	0.105	0.197
-410.355	160.294	-0.218	-0.305
-409.340	280.319	0.043	0.076
-408.325	800.000	-0.079	-0.235
-407.311	-121.552	0.218	0.036
-406.296	104.243	0.126	-0.149
-405.282	-200.000	0.024	-0.158
-404.267	-120.846	-0.168	-0.028
-403.252	-6.903	0.176	0.120
-402.238	-147.046	-0.278	-0.024
-401.223	52.104	0.094	-0.090
-400.209	119.333	0.062	-0.077
-399.194	-84.172	-0.269	-0.086
-398.179	-134.266	0.208	-0.026
-397.165	737.706	-0.083	0.222
-396.150	-108.778	-0.553	-0.119
-395.136	-185.807	0.127	0.002
-394.121	147.563	-0.164	-0.221
-393.106	647.203	0.065	-0.166
-392.092	123.408	0.172	0.216
-391.077	-35.118	-0.048	-0.026
-390.063	405.634	-0.066	0.140
-389.048	-5.748	-0.132	-0.091
-388.033	-14.056	-0.304	-0.196
-387.019	-84.922	-0.134	0.042
-386.004	-166.071	0.119	-0.005
-384.990	-119.045	0.172	-0.030
-383.975	304.106	0.068	0.126
-382.960	-116.174	-0.143	-0.027
-381.946	-200.000	-0.025	0.186
-380.931	-155.605	0.019	-0.001
-379.917	67.015	0.265	-0.270
-378.902	-30.140	0.158	-0.090
-377.888	-200.000	-0.019	0.151
-376.873	-11.731	0.146	0.096
-375.858	-49.612	0.186	-0.088
-374.844	800.000	-0.033	0.122
-373.829	-195.742	0.246	0.002
-372.815	-200.000	-0.055	0.245
-371.800	-67.461	0.220	0.086
-370.785	-67.481	-0.161	0.063
-369.771	-61.002	0.358	0.152
-368.756	-24.850	-0.151	-0.090
-367.742	-102.233	-0.268	0.064
-366.727	226.069	0.077	-0.125
-365.712	-200.000	-0.016	0.152
-364.698	-167.804	-0.080	-0.003
-363.683	800.000	0.068	0.214
-362.669	800.000	0.057	0.225
-361.654	-26.147	-0.108	-0.064
-360.639	55.183	-0.236	0.229
-359.625	-200.000	0.026	0.256
-358.610	-200.000	0.014	0.121
-357.596	121.701	-0.226	0.283
-356.581	108.230	0.122	0.146
-355.566	-33.495	0.165	-0.091
-354.552	165.734	0.235	0.332
-353.537	184.694	-0.155	-0.229
-352.523	-12.080	0.169	0.111
-351.508	132.040	0.185	-0.239
-350.493	434.691	-0.064	-0.139
-349.479	70.868	0.142	0.147
-348.464	-84.018	0.201	0.064
-347.450	-156.076	0.307	0.019
-346.435	800.000	0.092	0.272
-345.420	179.338	0.196	0.287
-344.406	-200.000	-0.079	0.379
-343.391	262.096	0.075	0.131
-342.377	-17.669	-0.172	0.108
-341.362	-28.810	0.146	0.084
-340.348	-156.393	-0.094	0.006
-339.333	-84.477	0.094	-0.030
-338.318	-67.621	0.286	0.112
-337.304	-200.000	-0.006	0.296
-336.289	-166.611	0.060	0.002
-335.275	108.079	-0.168	-0.200
-334.260	-24.539	0.101	0.060
-333.245	-200.000	0.034	0.263
-332.231	-74.868	-0.310	0.111
-331.216	-200.000	-0.011	-0.062
-330.202	-200.000	-0.003	-0.152
-329.187	800.000	0.032	-0.118
-328.172	249.848	-0.070	-0.119
-327.158	70.220	-0.262	0.271
-326.143	-87.348	-0.156	0.047
-325.129	-23.572	0.044	0.027
-324.114	-110.205	-0.345	0.072
-323.099	-73.189	-0.229	0.084
-322.085	398.255	-0.040	-0.083
-321.070	800.000	-0.087	-0.249
-320.056	-96.365	-0.171	-0.045
-319.041	-104.734	0.336	-0.077
-318.026	-83.153	0.259	0.083
-317.012	-123.504	0.248	0.039
-315.997	-200.000	0.019	0.133
-314.983	-86.389	0.131	0.040
-313.968	-200.000	-0.007	-0.287
-312.953	-141.703	0.223	-0.022
-311.939	437.418	0.088	0.191
-310.924	-29.097	-0.223	-0.128
-309.910	800.000	-0.060	-0.218
-308.895	578.058	0.059	0.144
-307.880	118.833	0.056	0.069
-306.866	674.545	-0.122	0.315
-305.851	98.971	-0.169	-0.195
-304.837	70.148	-0.130	-0.134
-303.822	-88.907	0.021	-0.006
-302.807	24.374	0.191	0.158
-301.793	-9.262	0.296	-0.198
-300.778	800.000	0.040	0.157
-299.764	800.000	0.035	0.105
-298.749	500.626	-0.060	0.138
-297.735	-78.621	0.240	0.082
-296.720	523.023	0.042	-0.098
-295.705	45.263	0.216	-0.199
-294.691	59.568	0.080	-0.079
-293.676	352.700	0.145	-0.287
-292.662	123.050	0.226	0.283
-291.647	86.627	-0.234	0.257
-290.632	-56.717	-0.139	-0.062
-289.618	84.909	-0.280	-0.306
-288.603	-81.865	-0.266	-0.087
-287.589	64.722	-0.138	0.139
-286.574	8.316	0.192	0.144
-285.559	52.221	0.168	0.160
-284.545	-67.569	-0.109	-0.043
-283.530	-90.417	0.113	-0.033
-282.516	64.558	0.042	-0.042
-281.501	-200.000	0.029	0.224
-280.486	56.596	-0.176	-0.171
-279.472	31.548	0.091	0.078
-278.457	-28.690	0.112	-0.064
-277.443	503.307	-0.051	-0.119
-276.428	-60.906	-0.106	0.045
-275.413	-200.000	-0.005	-0.128
-274.399	800.000	0.049	0.163
-273.384	12.372	-0.069	0.053
-272.370	-27.490	-0.045	-0.026
-271.355	800.000	0.051	0.178
-270.340	-200.000	0.018	0.163
-269.326	-191.890	-0.308	-0.003
-268.311	-175.344	0.163	-0.004
-267.297	-69.344	-0.244	-0.093
-266.282	-91.950	0.138	-0.039
-265.267	-125.434	0.113	-0.017
-264.253	-200.000	-0.046	0.255
-263.238	392.246	0.122	0.252
-262.224	-143.830	0.456	-0.043
-261.209	103.771	-0.141	-0.165
-260.195	765.872	0.112	-0.302
-259.180	-200.000	0.006	0.051
-258.165	-90.037	-0.257	-0.075
-257.151	800.000	-0.031	0.103
-256.136	47.398	0.088	-0.082
-255.122	800.000	0.032	0.098
-254.107	-59.860	0.286	-0.122
-253.092	800.000	0.048	0.137
-252.078	800.000	-0.054	-0.163
-251.063	279.099	-0.031	0.055
-250.049	-200.000	0.008	0.096
-249.034	145.422	0.240	-0.320
-248.019	-200.000	-0.346	-0.000
-247.005	-53.808	0.165	-0.075
-245.990	-86.728	0.108	-0.033
-244.976	116.305	0.107	-0.130
-243.961	45.362	-0.270	-0.248
-242.946	-144.743	-0.164	-0.015
-241.932	-88.276	0.176	-0.052
-240.917	-200.000	-0.003	0.223
-239.903	-74.777	-0.134	0.048
-238.888	32.979	-0.040	-0.035
-237.873	-25.543	-0.174	-0.103
-236.859	-200.000	0.053	-0.402
-235.844	-13.251	0.066	-0.043
-234.830	60.835	-0.184	-0.182
-233.815	-53.162	-0.088	-0.040
-232.800	-200.000	-0.003	-0.146
-231.786	98.901	-0.048	0.055
-230.771	131.331	-0.103	0.132
-229.757	-85.006	-0.196	0.061
-228.742	188.962	0.108	0.161
-227.727	-176.738	-0.158	-0.004
-226.713	69.634	-0.275	-0.282
-225.698	3.016	-0.079	-0.057
-224.684	-157.127	0.222	0.013
-223.669	-200.000	0.000	-0.085
-222.655	207.946	0.120	0.186
-221.640	615.498	0.034	0.084
-220.625	-200.000	0.003	-0.157
-219.611	-200.000	0.072	-0.404
-218.596	-150.199	0.420	-0.032
-217.582	416.045	0.176	-0.373
-216.567	-60.201	-0.091	-0.039
-215.552	-111.376	0.138	-0.028
-214.538	28.839	-0.186	-0.157
-213.523	438.252	-0.106	0.230
-212.509	-200.000	0.057	0.288
-211.494	-58.813	0.170	-0.073
-210.479	73.740	0.322	0.336
-209.465	93.819	-0.066	-0.074
-208.450	-18.912	0.275	-0.170
-207.436	-200.000	-0.004	-0.199
-206.421	800.000	-0.014	0.058
-205.406	11.130	0.115	0.087
-204.392	-200.000	0.020	0.223
-203.377	-160.277	0.149	0.008
-202.363	-200.000	0.010	0.049
-201.348	-86.601	-0.157	-0.048
-200.333	368.591	-0.057	-0.115
-199.319	-200.000	0.001	0.149
-198.304	-21.980	0.090	0.054
-197.290	292.568	0.035	-0.063
-196.275	21.272	-0.147	-0.119
-195.260	800.000	0.086	-0.267
-194.246	115.681	0.132	-0.160
-193.231	-24.922	-0.082	0.049
-192.217	-101.113	0.083	0.020
-191.202	-78.013	-0.328	-0.113
-190.187	209.078	-0.067	0.104
-189.173	-58.436	0.153	0.066
-188.158	116.964	-0.057	0.070
-187.144	-74.619	-0.129	-0.046
-186.129	161.835	0.149	-0.208
-185.114	800.000	-0.037	0.142
-184.100	-0.699	-0.260	0.183
-183.085	183.204	-0.117	0.171
-182.071	-13.309	0.082	0.053
-181.056	-115.921	0.153	0.028
-180.042	-200.000	0.052	-0.243
-179.027	-89.757	-0.226	-0.066
-178.012	-167.165	-0.074	-0.003
-176.998	-42.114	0.165	0.084
-175.983	-51.139	0.330	0.154
-174.969	-90.777	0.215	-0.062
-173.954	-200.000	0.039	-0.222
-172.939	123.191	-0.129	-0.161
-171.925	-72.847	0.297	-0.108
-170.910	800.000	-0.035	-0.127
-169.896	771.952	0.109	0.296
-168.881	50.484	-0.088	0.082
-167.866	78.057	-0.102	-0.108
-166.852	320.002	0.127	0.239
-165.837	800.000	0.083	0.343
-164.823	-36.309	0.366	0.196
-163.808	-7.938	0.094	-0.063
-162.793	800.000	0.018	0.061
-161.779	238.888	0.184	0.304
-160.764	-44.576	0.253	-0.125
-159.750	800.000	0.063	0.254
-158.735	-200.000	0.005	0.309
-157.720	60.831	-0.143	0.140
-156.706	-200.000	0.064	0.340
-155.691	-35.858	0.134	-0.072
-154.677	199.439	-0.123	0.187
-153.662	52.389	-0.201	-0.190
-152.647	104.817	-0.046	-0.053
-151.633	-29.182	-0.234	0.133
-150.618	97.514	0.059	-0.067
-149.604	9.179	0.082	0.061
-148.589	427.222	0.223	0.479
-147.574	368.364	-0.043	0.087
-146.560	43.920	-0.271	0.247
-145.545	-200.000	-0.033	-0.179
-144.531	542.257	0.107	0.252
-143.516	-174.127	-0.150	-0.004
-142.502	-159.240	0.168	-0.009
-141.487	-200.000	0.042	0.294
-140.472	-97.981	0.142	0.036
-139.458	-200.000	-0.003	0.214
-138.443	1.253	-0.292	-0.208
-137.429	-10.132	-0.204	0.134
-136.414	800.000	-0.053	0.185
-135.399	221.162	0.137	-0.218
-134.385	149.929	-0.093	-0.126
-133.370	-91.873	-0.140	-0.039
-132.356	-16.956	-0.352	-0.221
-131.341	-127.332	0.263	-0.038
-130.326	-200.000	-0.005	-0.140
-129.312	64.672	-0.277	-0.277
-128.297	25.074	0.077	-0.063
-127.283	-78.992	-0.463	0.156
-126.268	72.647	0.118	-0.122
-125.253	64.061	-0.074	-0.074
-124.239	-68.160	0.119	-0.046
-123.224	800.000	0.097	0.296
-122.210	800.000	-0.125	-0.406
-121.195	360.537	-0.223	-0.443
