DTS Sentinel unit serial number:	SN413079Multiplexer serial number:	ORYXHardware model number:	OX4-SRSoftware version number:	ORYX F/W v4.00 Oryx Data Collector v3.7.2.0data status	okinstallation	princeton_trtdifferential loss correction	single-endedforward channel	channel 1reverse channel	N/Adate	2019/09/14time	19:58:35forward acquisition time	60.00reverse acquisition time	0.00gamma	496.2192k internal	0.2314k external	0.2314temperature offset calibration	1.0030default loss term (dB/km)	0.3790temperature slope calibration	1.0000multiplexer offset coefficient	1.0000multiplexer slope coefficient	1.0000fibre end	0.00T internal ref (°C)	34.12T ext. ref 1 (°C)	4.89T ext. ref 2 (°C)	28.41length (m)	temperature (°C)	Stokes	anti-Stokes-747.200	-86.168	0.313	-0.098
-746.185	546.620	-0.049	0.120
-745.171	-112.796	0.233	0.047
-744.156	-71.266	-0.405	-0.154
-743.142	-63.269	0.049	-0.021
-742.127	-75.198	-0.126	0.045
-741.112	-44.888	-0.278	-0.140
-740.098	4.225	-0.134	-0.099
-739.083	568.271	-0.137	0.336
-738.069	-35.204	0.084	-0.046
-737.054	163.041	0.083	-0.118
-736.039	-52.440	-0.170	-0.080
-735.025	22.656	-0.209	-0.173
-734.010	-200.000	0.011	0.158
-732.996	80.176	0.095	-0.103
-731.981	-200.000	0.069	-0.349
-730.966	800.000	-0.120	-0.472
-729.952	-7.800	-0.380	0.260
-728.937	380.323	0.009	-0.020
-727.923	-80.201	-0.222	0.075
-726.908	-200.000	0.001	0.011
-725.894	800.000	0.039	-0.124
-724.879	-126.504	-0.081	-0.012
-723.864	6.802	-0.087	0.065
-722.850	612.344	-0.098	-0.249
-721.835	165.861	-0.051	0.073
-720.821	-198.413	-0.123	-0.001
-719.806	-140.918	-0.052	0.005
-718.791	-143.036	-0.155	0.015
-717.777	459.113	-0.086	-0.194
-716.762	96.480	-0.073	0.084
-715.748	-200.000	-0.038	0.201
-714.733	800.000	-0.113	-0.339
-713.718	-200.000	0.040	-0.255
-712.704	-118.277	0.124	-0.022
-711.689	-61.164	-0.277	-0.118
-710.675	-135.099	-0.322	0.039
-709.660	324.354	0.179	-0.346
-708.645	-130.646	0.162	-0.022
-707.631	167.266	-0.208	-0.300
-706.616	73.171	-0.245	-0.259
-705.602	-167.676	-0.165	-0.007
-704.587	-3.336	-0.294	0.207
-703.572	19.400	-0.152	-0.124
-702.558	203.694	0.058	0.091
-701.543	-200.000	0.009	0.132
-700.529	-59.006	0.297	-0.130
-699.514	-110.726	-0.145	-0.030
-698.499	-133.929	-0.203	-0.026
-697.485	-170.552	-0.146	-0.005
-696.470	-91.937	-0.208	0.060
-695.456	9.123	0.131	-0.100
-694.441	-12.028	-0.458	-0.304
-693.426	570.279	0.013	0.032
-692.412	800.000	-0.066	-0.240
-691.397	189.597	0.159	-0.242
-690.383	-115.485	-0.200	-0.038
-689.368	192.585	0.222	0.340
-688.354	-200.000	0.001	0.256
-687.339	21.683	-0.159	-0.131
-686.324	-200.000	0.014	-0.296
-685.310	111.675	-0.157	0.191
-684.295	-200.000	-0.053	0.381
-683.281	-27.568	-0.226	0.133
-682.266	-79.852	-0.336	0.114
-681.251	66.991	-0.150	0.154
-680.237	800.000	-0.042	-0.154
-679.222	-160.695	-0.442	-0.024
-678.208	-96.265	0.203	0.054
-677.193	175.055	0.037	-0.054
-676.178	-27.370	0.147	-0.087
-675.164	-70.444	-0.279	-0.107
-674.149	76.055	-0.312	-0.334
-673.135	-16.650	-0.180	-0.115
-672.120	104.614	-0.285	-0.339
-671.105	378.222	0.073	0.151
-670.091	233.839	0.016	0.026
-669.076	40.095	0.127	-0.115
-668.062	-87.287	-0.317	-0.097
-667.047	-18.686	0.108	-0.068
-666.032	-131.163	-0.566	0.076
-665.018	-61.378	0.165	-0.070
-664.003	-108.400	0.174	-0.038
-662.989	81.346	0.136	-0.149
-661.974	16.175	0.314	0.250
-660.959	-170.668	-0.082	0.003
-659.945	-113.434	0.347	0.069
-658.930	-108.100	-0.253	-0.055
-657.916	-200.000	-0.048	-0.315
-656.901	69.651	0.257	-0.267
-655.886	-200.000	0.006	0.199
-654.872	800.000	-0.046	-0.181
-653.857	40.675	-0.366	-0.334
-652.843	139.145	-0.204	0.271
-651.828	236.718	0.178	-0.298
-650.814	-34.953	-0.110	0.061
-649.799	-175.579	-0.023	0.001
-648.784	243.661	-0.069	0.117
-647.770	-105.735	-0.446	0.102
-646.755	-102.579	0.088	0.021
-645.741	-91.522	0.209	0.060
-644.726	-77.599	0.114	0.040
-643.711	257.885	-0.065	0.112
-642.697	131.185	0.142	0.185
-641.682	168.718	-0.014	0.020
-640.668	91.886	-0.164	0.186
-639.653	241.295	0.029	0.048
-638.638	-6.950	0.129	0.088
-637.624	-124.033	-0.346	0.055
-636.609	-153.648	-0.189	-0.013
-635.595	-128.931	0.142	-0.020
-634.580	94.137	-0.089	-0.102
-633.565	-42.428	-0.227	-0.117
-632.551	184.425	0.085	0.127
-631.536	58.330	-0.034	0.034
-630.522	11.142	-0.215	-0.166
-629.507	-95.057	-0.179	0.049
-628.492	-88.056	-0.242	-0.073
-627.478	106.687	-0.048	0.057
-626.463	145.867	-0.242	0.328
-625.449	-200.000	-0.009	-0.181
-624.434	-7.678	-0.153	-0.105
-623.419	-65.921	-0.258	-0.104
-622.405	-115.395	0.316	0.060
-621.390	-126.940	0.264	-0.039
-620.376	-75.061	0.467	0.168
-619.361	59.534	0.283	0.281
-618.346	437.608	0.112	0.247
-617.332	-74.248	0.287	-0.105
-616.317	-122.956	-0.283	0.046
-615.303	-186.121	0.414	0.006
-614.288	-70.287	0.349	0.134
-613.273	-102.148	-0.401	0.097
-612.259	7.019	0.113	-0.085
-611.244	-56.279	-0.385	-0.173
-610.230	-126.692	0.274	0.041
-609.215	270.856	0.115	-0.204
-608.201	-72.878	-0.063	0.024
-607.186	-200.000	0.010	0.103
-606.171	-78.400	-0.173	-0.060
-605.157	7.476	-0.085	-0.064
-604.142	152.506	-0.044	-0.060
-603.128	5.240	-0.093	-0.069
-602.113	-36.125	-0.129	-0.070
-601.098	-200.000	0.101	-0.563
-600.084	91.287	0.098	0.111
-599.069	448.336	-0.083	-0.184
-598.055	31.106	0.108	-0.093
-597.040	51.262	-0.222	-0.212
-596.025	-154.781	-0.171	-0.011
-595.011	-200.000	0.012	-0.072
-593.996	800.000	-0.036	-0.130
-592.982	-57.109	-0.437	-0.194
-591.967	-88.319	0.159	0.048
-590.952	-130.754	-0.358	0.048
-589.938	800.000	0.057	-0.173
-588.923	7.590	-0.404	-0.305
-587.909	406.382	0.147	-0.312
-586.894	-66.246	-0.280	0.112
-585.879	52.785	-0.061	-0.059
-584.865	109.145	-0.158	0.191
-583.850	-120.452	0.081	0.014
-582.836	137.478	0.125	0.165
-581.821	-90.020	0.024	0.007
-580.806	-35.315	-0.174	0.095
-579.792	-68.553	-0.047	0.018
-578.777	35.907	-0.119	-0.106
-577.763	-200.000	0.002	-0.491
-576.748	-94.473	0.079	0.022
-575.733	-116.071	0.023	-0.004
-574.719	2.678	-0.046	0.034
-573.704	-129.248	-0.239	0.033
-572.690	347.316	-0.046	-0.091
-571.675	322.218	0.072	-0.139
-570.661	-104.872	0.403	-0.093
-569.646	186.145	0.107	0.160
-568.631	-140.721	0.150	-0.016
-567.617	105.270	0.125	0.149
-566.602	447.052	0.071	0.157
-565.588	12.490	0.269	0.209
-564.573	78.447	-0.216	0.232
-563.558	523.239	0.099	-0.233
-562.544	-200.000	0.002	-0.114
-561.529	0.440	-0.242	-0.174
-560.515	-113.534	-0.187	-0.037
-559.500	-200.000	0.020	0.160
-558.485	64.090	0.184	-0.186
-557.471	-59.466	0.145	0.063
-556.456	-15.913	-0.297	-0.191
-555.442	-200.000	0.019	-0.221
-554.427	800.000	0.037	-0.115
-553.412	96.385	-0.171	0.197
-552.398	-161.732	0.069	-0.004
-551.383	-200.000	-0.131	0.001
-550.369	800.000	-0.039	0.113
-549.354	549.769	0.126	-0.305
-548.339	-36.569	-0.359	-0.195
-547.325	157.304	0.144	-0.200
-546.310	25.220	0.103	-0.086
-545.296	-22.151	-0.252	0.154
-544.281	258.207	0.317	-0.549
-543.266	800.000	-0.041	-0.137
-542.252	-50.675	0.124	0.059
-541.237	194.763	0.061	-0.092
-540.223	-130.891	-0.027	0.004
-539.208	-18.204	-0.249	0.157
-538.193	-200.000	-0.001	-0.086
-537.179	-31.493	-0.352	0.199
-536.164	341.593	-0.150	0.294
-535.150	56.994	-0.210	-0.206
-534.135	-20.744	0.095	-0.058
-533.121	-17.396	0.179	0.113
-532.106	-79.838	-0.112	-0.038
-531.091	60.785	-0.299	0.298
-530.077	-200.000	-0.045	0.385
-529.062	-200.000	0.040	0.281
-528.048	503.369	-0.109	0.253
-527.033	-85.769	-0.210	-0.066
-526.018	-67.977	0.178	-0.070
-525.004	104.819	-0.321	-0.381
-523.989	128.257	0.008	-0.010
-522.975	800.000	0.048	-0.162
-521.960	259.805	0.238	0.414
-520.945	-84.109	-0.234	-0.075
-519.931	177.009	-0.061	-0.089
-518.916	-200.000	0.009	-0.073
-517.902	40.578	-0.115	0.104
-516.887	558.434	-0.120	-0.292
-515.872	226.207	0.285	-0.464
-514.858	-200.000	0.013	0.107
-513.843	800.000	0.032	-0.092
-512.829	-174.352	0.340	0.010
-511.814	-200.000	-0.022	0.371
-510.799	-28.773	0.165	0.095
-509.785	47.528	-0.277	0.259
-508.770	411.271	-0.138	-0.293
-507.756	380.962	-0.033	-0.069
-506.741	67.682	0.236	-0.242
-505.726	-200.000	-0.039	-0.244
-504.712	66.610	-0.200	-0.204
-503.697	463.224	-0.271	0.608
-502.683	185.107	-0.164	0.244
-501.668	150.587	0.217	-0.296
-500.653	26.089	0.121	-0.102
-499.639	-140.454	-0.280	-0.029
-498.624	800.000	0.053	-0.197
-497.610	180.145	-0.125	-0.184
-496.595	-200.000	-0.006	0.112
-495.581	-200.000	0.006	0.276
-494.566	2.154	-0.177	0.128
-493.551	-200.000	-0.004	-0.065
-492.537	-58.976	-0.204	-0.088
-491.522	-95.774	0.366	0.098
-490.508	-200.000	0.001	0.057
-489.493	800.000	-0.094	0.266
-488.478	-84.541	-0.318	0.101
-487.464	518.237	0.125	-0.293
-486.449	-200.000	0.052	0.244
-485.435	89.645	0.116	-0.130
-484.420	-27.680	0.190	0.111
-483.405	-153.821	0.172	-0.012
-482.391	632.272	-0.052	0.132
-481.376	800.000	0.101	0.308
-480.362	-80.563	-0.110	0.037
-479.347	715.415	-0.051	-0.136
-478.332	578.985	0.008	0.019
-477.318	1.524	-0.280	0.202
-476.303	8.947	0.078	-0.059
-475.289	-49.528	0.210	-0.101
-474.274	-67.826	0.047	0.018
-473.259	800.000	0.038	-0.135
-472.245	-8.156	-0.062	0.042
-471.230	800.000	-0.007	0.026
-470.216	594.815	-0.066	0.164
-469.201	-200.000	0.014	-0.334
-468.186	-200.000	0.016	0.189
-467.172	205.577	0.053	0.083
-466.157	-19.025	0.034	-0.021
-465.143	-200.000	-0.014	-0.118
-464.128	33.927	0.181	0.158
-463.113	-63.049	0.256	0.106
-462.099	-96.573	0.097	-0.026
-461.084	225.718	0.154	-0.250
-460.070	392.613	-0.036	0.075
-459.055	32.719	0.114	-0.099
-458.040	-129.763	-0.133	0.018
-457.026	-20.787	-0.198	-0.122
-456.011	-15.956	0.107	-0.068
-454.997	-54.616	0.064	0.029
-453.982	-200.000	-0.030	-0.313
-452.968	-50.749	-0.408	-0.192
-451.953	799.395	-0.148	-0.409
-450.938	59.863	0.080	-0.079
-449.924	90.559	0.103	-0.115
-448.909	426.107	0.065	0.139
-447.895	-79.010	0.213	-0.073
-446.880	-165.871	-0.276	-0.012
-445.865	-38.127	-0.241	-0.128
-444.851	-20.716	0.069	0.043
-443.836	-200.000	0.050	-0.381
-442.822	800.000	-0.061	-0.264
-441.807	-200.000	-0.030	0.202
-440.792	800.000	0.086	-0.259
-439.778	432.221	-0.013	0.029
-438.763	155.858	-0.145	-0.201
-437.749	-132.927	0.302	0.039
-436.734	-35.906	0.409	-0.222
-435.719	-121.924	0.186	0.031
-434.705	189.591	-0.212	0.318
-433.690	433.626	0.076	0.165
-432.676	-69.122	0.006	-0.002
-431.661	-36.817	-0.415	-0.223
-430.646	150.100	-0.298	0.405
-429.632	-31.993	0.035	0.020
-428.617	-140.717	0.437	-0.045
-427.603	19.902	0.114	0.092
-426.588	131.698	0.183	-0.236
-425.573	-24.148	-0.276	0.165
-424.559	-200.000	-0.009	-0.103
-423.544	-200.000	-0.017	0.333
-422.530	800.000	-0.072	-0.269
-421.515	54.227	0.123	-0.119
-420.500	81.640	0.252	0.273
-419.486	-116.408	0.266	-0.049
-418.471	-200.000	-0.051	0.371
-417.457	-200.000	-0.007	0.076
-416.442	800.000	-0.071	-0.255
-415.428	3.428	0.082	0.059
-414.413	113.254	0.160	-0.194
-413.398	-200.000	0.013	0.328
-412.384	800.000	-0.112	0.342
-411.369	800.000	-0.081	0.248
-410.355	-34.150	0.207	0.114
-409.340	-200.000	-0.024	0.231
-408.325	15.464	-0.074	0.058
-407.311	-39.821	0.195	0.102
-406.296	-128.094	0.406	0.058
-405.282	-36.932	0.097	-0.052
-404.267	-94.382	-0.259	-0.071
-403.252	-2.169	0.163	-0.114
-402.238	226.843	-0.088	-0.143
-401.223	-137.729	-0.125	0.014
-400.209	214.485	0.094	-0.149
-399.194	-62.438	-0.203	-0.085
-398.179	-200.000	-0.004	0.055
-397.165	-191.337	-0.156	-0.002
-396.150	-200.000	0.024	-0.201
-395.136	-63.305	0.140	0.058
-394.121	-200.000	0.017	0.087
-393.106	-116.237	-0.339	0.063
-392.092	800.000	0.016	-0.049
-391.077	376.959	0.078	0.160
-390.063	87.211	-0.085	0.094
-389.048	800.000	-0.021	0.084
-388.033	-32.591	0.386	0.215
-387.019	30.945	-0.182	0.156
-386.004	106.065	-0.161	0.190
-384.990	-21.946	-0.264	0.161
-383.975	48.444	0.043	-0.041
-382.960	258.104	0.059	0.101
-381.946	800.000	-0.089	0.288
-380.931	200.916	0.088	0.136
-379.917	114.679	-0.154	0.187
-378.902	636.143	-0.152	0.386
-377.888	-26.755	0.047	0.027
-376.873	-200.000	-0.046	0.211
-375.858	-186.701	0.403	0.006
-374.844	236.259	-0.131	-0.216
-373.829	191.353	-0.054	-0.081
-372.815	1.996	0.269	-0.194
-371.800	-37.727	0.208	-0.110
-370.785	342.398	-0.217	-0.425
-369.771	-118.741	-0.158	-0.028
-368.756	-131.716	-0.339	0.044
-367.742	540.865	0.168	0.400
-366.727	58.194	0.167	0.164
-365.712	655.244	0.024	0.062
-364.698	-51.909	0.208	0.097
-363.683	-158.062	0.097	0.006
-362.669	-83.420	0.190	0.061
-361.654	-56.190	-0.139	0.062
-360.639	-139.592	-0.255	-0.027
-359.625	241.956	0.085	0.142
-358.610	-20.654	0.149	0.091
-357.596	71.465	0.137	0.142
-356.581	-80.632	-0.194	0.064
-355.566	150.936	0.197	0.268
-354.552	169.824	0.148	-0.212
-353.537	-171.572	-0.279	0.009
-352.523	-28.082	0.104	-0.060
-351.508	-10.944	0.305	0.201
-350.493	-41.781	0.264	-0.135
-349.479	800.000	0.073	-0.218
-348.464	48.744	-0.194	-0.181
-347.450	-200.000	0.038	-0.401
-346.435	-200.000	-0.050	-0.292
-345.420	-200.000	-0.018	0.266
-344.406	256.507	-0.034	-0.059
-343.391	-200.000	0.031	0.187
-342.377	59.951	-0.086	-0.084
-341.362	-52.205	-0.227	-0.105
-340.348	-22.909	0.083	-0.050
-339.333	-118.201	0.173	-0.031
-338.318	-21.050	-0.110	-0.067
-337.304	469.722	0.065	-0.145
-336.289	219.402	-0.131	0.209
-335.275	-110.933	0.061	-0.013
-334.260	119.718	0.022	0.027
-333.245	-66.952	0.196	0.077
-332.231	267.686	-0.170	-0.297
-331.216	-119.216	0.171	0.030
-330.202	64.036	-0.175	-0.176
-329.187	166.882	-0.145	0.205
-328.172	-200.000	0.009	-0.164
-327.158	441.291	-0.041	0.089
-326.143	-29.800	0.250	-0.142
-325.129	-139.765	-0.365	0.039
-324.114	-27.724	0.489	-0.283
-323.099	-142.137	0.103	-0.010
-322.085	-100.948	-0.045	-0.011
-321.070	66.449	-0.252	0.255
-320.056	405.595	-0.139	0.293
-319.041	475.348	-0.112	-0.253
-318.026	-34.306	-0.187	-0.102
-317.012	-86.205	0.042	0.013
-315.997	193.822	-0.159	0.240
-314.983	425.032	-0.066	0.142
-313.968	-76.076	-0.129	-0.046
-312.953	412.046	0.110	-0.234
-311.939	-41.967	0.371	0.189
-310.924	776.397	0.024	0.066
-309.910	-200.000	-0.023	-0.123
-308.895	-83.223	-0.208	-0.067
-307.880	340.742	-0.063	-0.123
-306.866	48.012	-0.195	0.182
-305.851	800.000	0.081	-0.238
-304.837	59.910	-0.134	0.132
-303.822	-108.485	-0.120	-0.026
-302.807	573.263	-0.073	-0.178
-301.793	800.000	0.007	0.030
-300.778	38.993	0.255	0.227
-299.764	-200.000	-0.036	-0.210
-298.749	-58.090	0.150	-0.065
-297.735	-200.000	-0.007	0.066
-296.720	-24.222	-0.079	-0.047
-295.705	59.451	0.084	-0.083
-294.691	-200.000	0.023	-0.454
-293.676	661.644	0.048	0.124
-292.662	-71.505	-0.091	0.034
-291.647	41.128	-0.079	0.071
-290.632	-172.692	-0.304	-0.009
-289.618	167.941	-0.161	0.228
-288.603	-179.996	-0.225	0.005
-287.589	23.684	0.146	-0.120
-286.574	-16.317	-0.189	0.119
-285.559	320.704	-0.107	-0.203
-284.545	30.690	0.224	-0.191
-283.530	800.000	-0.058	-0.232
-282.516	83.977	0.206	0.224
-281.501	-200.000	-0.053	-0.260
-280.486	800.000	0.096	-0.367
-279.472	-17.852	0.067	-0.042
-278.457	-128.120	0.066	0.009
-277.443	54.794	-0.130	0.125
-276.428	111.869	-0.045	-0.054
-275.413	28.579	0.351	0.295
-274.399	-5.042	-0.055	0.038
-273.384	-200.000	0.056	0.322
-272.370	133.768	0.218	-0.281
-271.355	701.973	-0.074	0.193
-270.340	292.009	0.256	-0.464
-269.326	800.000	-0.094	-0.354
-268.311	206.280	0.098	0.151
-267.297	-158.060	0.111	-0.006
-266.282	-200.000	0.035	-0.192
-265.267	-95.997	-0.355	0.094
-264.253	71.830	0.161	-0.167
-263.238	307.864	0.066	-0.123
-262.224	-55.414	-0.130	0.058
-261.209	800.000	0.096	-0.285
-260.195	56.840	0.121	0.117
-259.180	108.034	-0.240	-0.284
-258.165	-183.908	0.223	0.004
-257.151	800.000	-0.050	-0.141
-256.136	-94.312	0.063	0.017
-255.122	589.643	0.132	-0.324
-254.107	-200.000	-0.031	0.279
-253.092	-61.083	-0.038	-0.016
-252.078	800.000	-0.040	-0.159
-251.063	-16.752	0.121	-0.076
-250.049	228.964	-0.113	0.184
-249.034	-66.013	-0.374	-0.148
-248.019	-34.233	-0.151	-0.082
-247.005	-200.000	0.003	0.187
-245.990	53.012	-0.121	-0.115
-244.976	244.699	0.240	-0.401
-243.961	4.319	0.417	0.304
-242.946	-82.304	0.391	-0.126
-241.932	-28.081	0.062	0.036
-240.917	550.639	-0.112	0.267
-239.903	-200.000	0.063	0.317
-238.888	-58.176	0.197	0.085
-237.873	-200.000	-0.027	0.144
-236.859	-98.897	-0.368	0.093
-235.844	-61.640	0.148	-0.062
-234.830	800.000	-0.086	0.238
-233.815	800.000	0.050	0.153
-232.800	72.695	0.325	-0.337
-231.786	-181.601	0.271	0.005
-230.771	-42.134	-0.086	-0.044
-229.757	131.645	-0.023	0.029
-228.742	-200.000	0.012	0.180
-227.727	305.990	-0.099	0.184
-226.713	144.313	-0.152	0.202
-225.698	-200.000	0.024	-0.110
-224.684	66.884	0.151	-0.152
-223.669	-200.000	-0.045	-0.248
-222.655	800.000	-0.032	0.133
-221.640	-32.093	0.173	-0.096
-220.625	-51.956	0.234	-0.108
-219.611	-53.489	0.154	0.070
-218.596	-120.325	0.076	0.013
-217.582	302.312	-0.048	-0.087
-216.567	185.280	-0.209	0.307
-215.552	20.309	0.121	-0.097
-214.538	-28.024	0.166	0.095
-213.523	337.182	-0.123	-0.237
-212.509	13.150	0.226	0.174
-211.494	102.138	-0.054	-0.063
-210.479	29.896	-0.059	0.050
-209.465	23.012	-0.174	-0.142
-208.450	-61.552	-0.177	-0.074
-207.436	-51.264	0.065	-0.030
-206.421	-90.854	0.386	-0.110
-205.406	-70.098	-0.319	-0.120
-204.392	-200.000	0.030	0.236
-203.377	-116.970	-0.318	0.058
-202.363	800.000	-0.092	0.374
-201.348	-138.177	-0.205	0.023
-200.333	-200.000	-0.021	0.123
-199.319	800.000	0.099	0.366
-198.304	-200.000	0.030	0.303
-197.290	-171.196	-0.067	0.002
-196.275	-106.847	-0.154	0.034
-195.260	535.650	0.027	0.064
-194.246	413.387	0.150	0.317
-193.231	-88.426	-0.252	0.075
-192.217	92.005	0.182	0.203
-191.202	7.475	-0.320	0.237
-190.187	686.996	-0.056	-0.146
-189.173	-36.372	0.193	0.103
-188.158	274.422	0.103	0.182
-187.144	51.718	0.115	-0.108
-186.129	-127.531	0.332	-0.048
-185.114	800.000	-0.106	0.309
-184.100	155.243	0.387	0.528
-183.085	53.090	0.250	0.238
-182.071	-121.975	-0.256	-0.042
-181.056	-98.000	0.108	0.028
-180.042	800.000	-0.053	-0.149
-179.027	45.794	-0.020	0.019
-178.012	-67.830	0.252	-0.098
-176.998	5.002	-0.082	0.060
-175.983	268.978	0.162	-0.282
-174.969	593.815	0.041	0.100
-173.954	-143.942	-0.031	-0.003
-172.939	-63.931	-0.072	0.029
-171.925	73.487	0.175	-0.182
-170.910	533.144	-0.035	-0.082
-169.896	-18.534	0.083	-0.052
-168.881	-200.000	-0.005	-0.182
-167.866	-23.725	-0.105	-0.062
-166.852	-27.049	0.168	0.097
-165.837	16.648	-0.270	-0.211
-164.823	40.574	0.083	-0.074
-163.808	-38.452	0.136	-0.071
-162.793	-54.543	-0.128	-0.058
-161.779	61.530	0.108	-0.106
-160.764	-200.000	0.003	0.057
-159.750	-200.000	0.004	-0.155
-158.735	-200.000	-0.016	0.186
-157.720	-104.616	-0.124	0.028
-156.706	-63.038	0.302	-0.124
-155.691	82.891	0.176	-0.190
-154.677	234.779	0.159	-0.259
-153.662	130.442	-0.399	0.506
-152.647	122.586	0.203	0.252
-151.633	-30.291	0.242	0.136
-150.618	-154.163	-0.326	0.022
-149.604	0.974	-0.087	0.062
-148.589	-65.245	0.190	0.076
-147.574	-21.853	-0.381	0.229
-146.560	108.818	-0.101	-0.120
-145.545	774.514	-0.022	-0.059
-144.531	-123.214	0.171	-0.027
-143.516	-142.305	0.073	0.007
-142.502	-63.784	0.475	0.193
-141.487	800.000	-0.181	0.512
-140.472	53.434	-0.222	-0.211
-139.458	282.342	-0.071	0.126
-138.443	60.047	0.244	-0.238
-137.429	-106.749	-0.102	-0.023
-136.414	-200.000	0.007	0.049
-135.399	149.701	-0.316	0.423
-134.385	-90.573	0.262	0.075
-133.370	-3.934	-0.187	-0.129
-132.356	422.918	-0.087	0.186
-131.341	800.000	0.124	-0.416
-130.326	-19.205	0.242	-0.149
-129.312	59.979	0.125	0.122
-128.297	-91.579	0.277	-0.078
-127.283	491.773	-0.128	-0.290
-126.268	-200.000	0.010	-0.139
-125.253	800.000	0.074	-0.253
-124.239	186.726	0.033	-0.049
-123.224	-200.000	-0.009	-0.075
-122.210	-19.205	0.145	0.089
-121.195	11.549	0.044	0.033
-120.180	203.813	-0.080	-0.123
