DTS Sentinel unit serial number:	SN413079Multiplexer serial number:	ORYXHardware model number:	OX4-SRSoftware version number:	ORYX F/W v4.00 Oryx Data Collector v3.7.2.0data status	okinstallation	princeton_trtdifferential loss correction	single-endedforward channel	channel 1reverse channel	N/Adate	2019/09/14time	04:18:35forward acquisition time	60.00reverse acquisition time	0.00gamma	496.2192k internal	0.2334k external	0.2334temperature offset calibration	1.0076default loss term (dB/km)	0.3790temperature slope calibration	1.0000multiplexer offset coefficient	1.0000multiplexer slope coefficient	1.0000fibre end	0.00T internal ref (°C)	26.73T ext. ref 1 (°C)	3.33T ext. ref 2 (°C)	21.88length (m)	temperature (°C)	Stokes	anti-Stokes-747.200	359.775	0.110	-0.220
-746.185	-89.119	-0.230	0.068
-745.171	-200.000	-0.069	0.335
-744.156	800.000	0.070	-0.273
-743.142	558.507	-0.055	0.135
-742.127	-64.278	-0.124	0.051
-741.112	-200.000	0.019	-0.197
-740.098	800.000	-0.086	-0.242
-739.083	374.881	-0.084	0.172
-738.069	261.777	0.089	0.155
-737.054	-161.643	0.362	0.019
-736.039	-38.235	-0.229	0.122
-735.025	604.588	0.057	-0.143
-734.010	206.572	-0.175	0.274
-732.996	-117.305	-0.184	-0.034
-731.981	-72.927	-0.162	-0.060
-730.966	800.000	-0.103	0.371
-729.952	54.329	-0.169	-0.163
-728.937	10.220	-0.247	-0.188
-727.923	-200.000	0.003	-0.179
-726.908	37.799	-0.122	-0.108
-725.894	-139.443	-0.245	-0.026
-724.879	-121.434	-0.088	0.015
-723.864	-135.782	-0.148	0.018
-722.850	28.981	-0.347	-0.296
-721.835	-200.000	0.008	-0.264
-720.821	129.176	0.199	-0.255
-719.806	-61.014	-0.173	-0.073
-718.791	-32.716	0.068	0.038
-717.777	-73.834	-0.080	0.029
-716.762	-200.000	0.035	-0.375
-715.748	-136.151	-0.254	-0.030
-714.733	781.752	-0.175	0.481
-713.718	-200.000	0.007	0.079
-712.704	369.648	-0.127	-0.259
-711.689	-77.998	-0.077	-0.027
-710.675	141.318	-0.275	-0.365
-709.660	-72.831	-0.373	-0.138
-708.645	399.044	0.193	0.406
-707.631	190.874	-0.124	0.187
-706.616	313.835	0.033	0.063
-705.602	800.000	0.023	-0.083
-704.587	79.517	-0.141	-0.152
-703.572	-148.524	-0.196	-0.016
-702.558	800.000	0.118	0.432
-701.543	-57.536	0.087	0.038
-700.529	-77.769	0.132	0.046
-699.514	-1.984	0.225	0.159
-698.499	-99.568	0.321	-0.081
-697.485	-77.009	0.077	-0.027
-696.470	-29.768	-0.130	-0.074
-695.456	-9.627	0.145	-0.097
-694.441	14.842	-0.161	-0.127
-693.426	100.409	0.268	0.312
-692.412	-96.953	-0.120	0.032
-691.397	317.425	-0.055	-0.104
-690.383	-158.656	0.274	0.016
-689.368	13.968	-0.156	-0.121
-688.354	-200.000	-0.009	-0.323
-687.339	12.292	-0.056	-0.043
-686.324	-21.695	-0.024	0.015
-685.310	-178.841	-0.173	0.004
-684.295	1.568	-0.231	-0.167
-683.281	129.903	-0.109	-0.140
-682.266	-172.608	-0.200	-0.006
-681.251	33.900	0.066	0.058
-680.237	99.298	-0.370	-0.429
-679.222	612.612	0.066	-0.165
-678.208	-111.281	0.072	-0.015
-677.193	-200.000	-0.023	0.311
-676.178	296.311	0.166	-0.306
-675.164	800.000	-0.055	0.179
-674.149	-51.376	0.098	0.046
-673.135	-200.000	-0.000	0.075
-672.120	-146.507	-0.117	-0.010
-671.105	19.884	0.174	0.141
-670.091	174.643	-0.247	0.358
-669.076	235.546	-0.090	0.149
-668.062	56.956	0.087	-0.085
-667.047	-126.726	-0.127	0.019
-666.032	-45.674	-0.383	-0.190
-665.018	800.000	-0.113	-0.364
-664.003	-139.032	-0.349	0.038
-662.989	-200.000	-0.042	0.511
-661.974	-38.497	-0.404	0.214
-660.959	141.422	0.066	-0.088
-659.945	-200.000	-0.010	0.164
-658.930	-89.452	-0.241	-0.071
-657.916	215.215	0.072	0.114
-656.901	-104.964	0.062	-0.014
-655.886	-200.000	-0.010	-0.052
-654.872	-46.141	-0.117	0.058
-653.857	-25.672	-0.226	-0.134
-652.843	23.891	0.123	-0.102
-651.828	649.901	0.035	0.089
-650.814	244.322	-0.161	-0.271
-649.799	-200.000	-0.021	-0.213
-648.784	-135.213	-0.462	-0.056
-647.770	361.865	-0.054	-0.108
-646.755	-19.290	0.191	0.119
-645.741	249.415	0.051	-0.086
-644.726	-29.845	0.045	0.026
-643.711	-20.176	-0.176	-0.109
-642.697	-13.315	0.266	-0.173
-641.682	-56.302	0.310	-0.138
-640.668	800.000	-0.067	-0.252
-639.653	-149.609	0.046	-0.004
-638.638	28.504	0.284	0.241
-637.624	342.973	0.119	0.233
-636.609	-200.000	0.005	0.113
-635.595	-79.792	-0.146	0.049
-634.580	520.082	-0.099	0.232
-633.565	500.222	-0.106	0.244
-632.551	-21.288	0.161	-0.098
-631.536	174.713	0.185	-0.267
-630.522	800.000	-0.030	0.086
-629.507	-200.000	-0.036	0.170
-628.492	115.145	0.050	0.061
-627.478	125.147	-0.179	-0.226
-626.463	128.971	0.031	-0.039
-625.449	-200.000	-0.004	-0.260
-624.434	348.158	0.139	-0.274
-623.419	-152.115	-0.138	0.010
-622.405	-47.902	0.232	0.112
-621.390	68.583	-0.085	-0.087
-620.376	337.965	0.282	0.549
-619.361	-200.000	-0.004	-0.086
-618.346	349.580	-0.090	0.179
-617.332	-179.101	0.188	0.004
-616.317	-30.618	0.276	-0.156
-615.303	455.780	-0.062	0.139
-614.288	-200.000	0.002	0.033
-613.273	529.275	0.107	0.253
-612.259	102.945	-0.048	0.057
-611.244	229.266	0.154	0.252
-610.230	-7.196	0.217	-0.147
-609.215	-200.000	0.002	-0.278
-608.201	8.428	-0.146	0.110
-607.186	126.400	-0.146	0.185
-606.171	-200.000	0.042	-0.190
-605.157	148.198	0.187	0.252
-604.142	800.000	-0.128	0.470
-603.128	103.022	0.073	0.086
-602.113	41.978	-0.169	-0.154
-601.098	-169.159	0.243	-0.009
-600.084	50.200	-0.043	0.041
-599.069	39.440	0.246	0.221
-598.055	-200.000	-0.032	0.252
-597.040	-172.055	0.195	-0.006
-596.025	800.000	0.057	0.245
-595.011	-129.113	0.196	0.027
-593.996	32.898	0.245	-0.212
-592.982	7.946	-0.034	0.025
-591.967	-177.833	-0.040	0.001
-590.952	-6.694	-0.181	0.123
-589.938	124.320	-0.170	-0.214
-588.923	-142.103	-0.275	-0.027
-587.909	65.386	-0.094	-0.095
-586.894	-200.000	0.011	-0.413
-585.879	-91.461	-0.146	0.042
-584.865	-200.000	-0.248	0.000
-583.850	49.190	0.239	0.225
-582.836	638.791	0.136	0.344
-581.821	-149.653	-0.380	0.030
-580.806	800.000	0.063	-0.185
-579.792	161.828	-0.051	0.071
-578.777	-11.978	0.157	-0.103
-577.763	216.789	-0.229	-0.363
-576.748	-120.615	-0.037	0.006
-575.733	-200.000	-0.034	-0.254
-574.719	517.816	0.054	-0.127
-573.704	571.062	-0.031	-0.075
-572.690	-0.074	0.290	0.206
-571.675	-200.000	-0.015	0.253
-570.661	-67.701	0.150	0.059
-569.646	-200.000	-0.079	-0.546
-568.631	-154.221	-0.291	0.020
-567.617	-200.000	0.021	-0.307
-566.602	552.099	0.050	-0.119
-565.588	-200.000	0.045	0.230
-564.573	-196.279	-0.160	0.001
-563.558	4.504	-0.067	-0.049
-562.544	-200.000	0.015	0.185
-561.529	0.502	-0.188	0.134
-560.515	-200.000	0.009	0.100
-559.500	800.000	-0.059	-0.180
-558.485	-15.331	-0.329	-0.210
-557.471	399.424	0.008	0.017
-556.456	800.000	-0.066	0.212
-555.442	-56.078	0.159	-0.071
-554.427	-99.651	-0.096	0.024
-553.412	800.000	0.082	-0.229
-552.398	-54.220	-0.381	-0.173
-551.383	215.203	-0.100	-0.158
-550.369	377.222	0.184	-0.375
-549.354	272.300	0.172	0.303
-548.339	800.000	-0.077	0.225
-547.325	549.872	0.033	-0.079
-546.310	800.000	0.045	-0.161
-545.296	800.000	-0.119	0.337
-544.281	-186.413	0.429	0.006
-543.266	-139.388	-0.213	0.023
-542.252	-139.666	-0.101	-0.011
-541.237	209.559	-0.115	0.180
-540.223	-129.586	0.328	-0.045
-539.208	-200.000	0.035	0.198
-538.193	103.931	0.087	0.101
-537.179	-28.684	0.135	0.078
-536.164	56.606	-0.085	-0.083
-535.150	-110.162	0.275	-0.057
-534.135	-64.482	-0.214	0.087
-533.121	-107.632	-0.122	-0.027
-532.106	168.247	0.072	-0.102
-531.091	353.823	-0.057	0.114
-530.077	-155.912	-0.195	0.012
-529.062	-117.103	0.277	-0.050
-528.048	-200.000	0.002	0.099
-527.033	104.095	0.086	-0.100
-526.018	-43.670	-0.496	0.249
-525.004	-131.597	0.314	0.041
-523.989	194.089	-0.198	-0.299
-522.975	383.301	0.024	0.048
-521.960	194.967	0.137	0.207
-520.945	199.966	-0.130	0.199
-519.931	-100.245	0.104	-0.026
-518.916	207.031	0.105	0.163
-517.902	-56.428	-0.298	0.132
-516.887	800.000	0.055	-0.165
-515.872	-200.000	0.031	-0.482
-514.858	-124.528	0.124	-0.019
-513.843	-13.052	0.219	-0.142
-512.829	-197.998	-0.865	-0.005
-511.814	109.202	0.124	-0.148
-510.799	-200.000	-0.023	-0.253
-509.785	440.325	-0.081	-0.177
-508.770	456.026	-0.125	-0.275
-507.756	-200.000	-0.015	0.235
-506.741	-200.000	0.048	0.380
-505.726	-200.000	0.023	-0.245
-504.712	320.886	0.110	0.209
-503.697	0.884	0.353	0.252
-502.683	-200.000	0.007	0.133
-501.668	-157.629	-0.318	-0.019
-500.653	-113.011	-0.150	0.029
-499.639	-72.035	-0.088	0.033
-498.624	800.000	-0.053	0.203
-497.610	58.714	0.112	-0.109
-496.595	-200.000	-0.003	-0.059
-495.581	-150.201	0.201	-0.016
-494.566	130.665	0.080	-0.102
-493.551	-70.582	-0.075	0.028
-492.537	-51.758	0.098	-0.046
-491.522	132.470	0.107	0.137
-490.508	-138.423	-0.171	0.019
-489.493	77.318	0.090	0.095
-488.478	-142.964	0.150	0.014
-487.464	-116.165	-0.113	0.021
-486.449	164.403	0.287	0.403
-485.435	261.735	0.029	0.049
-484.420	800.000	0.055	0.168
-483.405	800.000	0.021	-0.089
-482.391	800.000	-0.054	0.161
-481.376	-8.173	0.277	0.185
-480.362	-200.000	0.021	0.173
-479.347	298.529	0.137	-0.250
-478.332	239.917	0.121	0.200
-477.318	-107.567	0.272	0.059
-476.303	39.679	-0.110	-0.098
-475.289	-20.620	-0.134	-0.082
-474.274	34.809	-0.345	-0.300
-473.259	-44.946	-0.111	0.055
-472.245	-3.316	-0.303	0.210
-471.230	-98.905	-0.027	0.007
-470.216	214.175	0.118	-0.185
-469.201	-200.000	-0.050	0.305
-468.186	586.889	0.057	0.141
-467.172	-73.141	-0.214	-0.078
-466.157	116.668	-0.115	-0.141
-465.143	-71.128	-0.234	0.087
-464.128	41.044	0.036	-0.032
-463.113	16.962	-0.228	0.179
-462.099	294.503	-0.127	-0.230
-461.084	159.942	-0.050	-0.070
-460.070	6.810	-0.146	0.108
-459.055	426.211	-0.026	0.056
-458.040	-200.000	-0.008	-0.159
-457.026	-166.568	0.195	0.008
-456.011	-10.539	0.099	-0.065
-454.997	328.029	-0.050	0.095
-453.982	145.661	0.097	0.129
-452.968	22.453	0.069	0.056
-451.953	-12.359	-0.353	-0.229
-450.938	-180.779	-0.210	-0.004
-449.924	-4.928	-0.089	0.061
-448.909	60.750	-0.171	0.169
-447.895	-200.000	0.025	-0.117
-446.880	-114.764	-0.104	-0.020
-445.865	-41.829	0.131	-0.067
-444.851	-29.904	-0.036	0.020
-443.836	-27.396	0.097	0.056
-442.822	192.599	-0.052	-0.077
-441.807	3.225	-0.158	-0.114
-440.792	-200.000	0.008	-0.166
-439.778	87.203	-0.104	-0.114
-438.763	-200.000	-0.052	-0.452
-437.749	-200.000	0.041	0.000
-436.734	138.591	-0.195	-0.255
-435.719	114.147	0.061	0.073
-434.705	430.735	0.091	0.196
-433.690	-77.941	-0.356	0.122
-432.676	83.594	0.103	0.111
-431.661	60.152	0.152	-0.149
-430.646	-66.534	-0.161	0.063
-429.632	67.652	-0.164	0.166
-428.617	-149.630	0.092	0.007
-427.603	800.000	-0.108	-0.350
-426.588	193.075	-0.137	-0.206
-425.573	47.942	0.159	-0.147
-424.559	-48.213	-0.219	0.105
-423.544	-200.000	-0.016	-0.156
-422.530	-200.000	-0.003	0.027
-421.515	-200.000	0.035	-0.200
-420.500	-50.976	-0.198	-0.092
-419.486	279.879	-0.074	0.132
-418.471	-21.181	-0.234	-0.142
-417.457	-200.000	-0.006	-0.115
-416.442	-143.462	-0.157	0.015
-415.428	-174.409	0.236	-0.007
-414.413	-147.054	0.380	-0.032
-413.398	24.072	-0.151	-0.124
-412.384	-84.301	-0.363	-0.114
-411.369	-12.874	-0.151	0.097
-410.355	-82.436	-0.029	0.009
-409.340	-119.846	-0.020	0.003
-408.325	242.085	0.124	0.206
-407.311	800.000	-0.084	0.240
-406.296	-100.092	-0.069	-0.017
-405.282	-167.427	-0.062	0.002
-404.267	13.382	0.198	0.153
-403.252	-4.418	0.091	0.062
-402.238	36.786	-0.081	-0.071
-401.223	21.903	0.062	0.050
-400.209	-200.000	-0.000	0.148
-399.194	31.189	-0.157	0.133
-398.179	800.000	-0.052	0.191
-397.165	63.782	0.147	0.146
-396.150	-22.197	0.131	0.079
-395.136	-73.462	-0.153	-0.055
-394.121	327.654	0.086	-0.164
-393.106	25.267	0.281	-0.231
-392.092	65.515	0.217	0.218
-391.077	800.000	0.099	0.315
-390.063	-99.484	-0.216	-0.054
-389.048	800.000	-0.064	-0.270
-388.033	-58.766	-0.031	-0.013
-387.019	-189.232	-0.095	-0.001
-386.004	800.000	0.075	-0.300
-384.990	-200.000	0.004	-0.100
-383.975	800.000	0.034	-0.131
-382.960	-200.000	0.004	0.024
-381.946	-89.174	0.106	-0.031
-380.931	-87.977	0.238	-0.071
-379.917	-73.875	0.063	0.023
-378.902	320.537	-0.067	-0.126
-377.888	800.000	-0.031	-0.131
-376.873	-200.000	0.003	0.478
-375.858	48.469	-0.050	-0.046
-374.844	-9.904	-0.495	0.326
-373.829	16.570	0.393	-0.308
-372.815	-200.000	0.066	-0.303
-371.800	800.000	-0.096	-0.283
-370.785	-200.000	-0.049	-0.228
-369.771	-135.315	0.156	0.018
-368.756	-200.000	0.052	-0.359
-367.742	60.974	-0.159	0.156
-366.727	332.630	0.111	-0.212
-365.712	597.711	-0.116	0.284
-364.698	-37.406	0.371	0.196
-363.683	394.253	-0.061	0.126
-362.669	35.128	0.122	0.106
-361.654	323.493	0.040	-0.075
-360.639	-35.362	-0.318	-0.171
-359.625	665.132	-0.081	-0.206
-358.610	-121.419	-0.210	-0.035
-357.596	100.210	-0.046	-0.053
-356.581	800.000	-0.067	0.218
-355.566	195.529	-0.103	0.156
-354.552	252.939	-0.200	-0.338
-353.537	69.847	-0.012	0.012
-352.523	-49.121	-0.128	-0.060
-351.508	118.622	-0.160	-0.196
-350.493	-160.567	-0.103	-0.005
-349.479	59.677	-0.165	-0.161
-348.464	-146.621	0.362	0.031
-347.450	-68.937	0.390	0.149
-346.435	-79.728	0.331	-0.110
-345.420	719.437	0.120	0.315
-344.406	513.928	0.055	-0.128
-343.391	74.933	-0.246	-0.256
-342.377	359.943	-0.059	-0.117
-341.362	800.000	0.055	-0.236
-340.348	107.084	0.121	-0.142
-339.333	-125.258	-0.380	0.057
-338.318	449.499	-0.126	-0.275
-337.304	191.633	-0.256	0.382
-336.289	-200.000	0.057	0.408
-335.275	-136.568	0.188	0.022
-334.260	-200.000	-0.040	-0.280
-333.245	-200.000	-0.011	-0.203
-332.231	328.948	0.235	-0.446
-331.216	-200.000	0.000	-0.160
-330.202	-200.000	0.018	-0.092
-329.187	91.229	0.133	-0.147
-328.172	732.880	-0.025	-0.066
-327.158	378.380	-0.102	0.207
-326.143	43.785	-0.057	0.051
-325.129	-200.000	0.011	-0.063
-324.114	-94.636	-0.388	0.104
-323.099	180.462	0.170	0.247
-322.085	800.000	0.053	0.158
-321.070	800.000	0.057	0.164
-320.056	56.688	0.113	-0.109
-319.041	-122.610	0.081	-0.013
-318.026	-200.000	-0.005	0.152
-317.012	384.659	-0.068	-0.139
-315.997	-94.700	0.144	0.039
-314.983	29.751	-0.302	0.254
-313.968	-75.614	-0.340	0.119
-312.953	753.337	-0.040	0.106
-311.939	-83.851	-0.268	0.084
-310.924	-23.553	0.191	-0.113
-309.910	-200.000	-0.000	0.293
-308.895	-65.685	-0.116	-0.046
-307.880	444.567	0.062	-0.134
-306.866	-93.818	0.195	-0.053
-305.851	497.908	0.058	-0.133
-304.837	-131.849	-0.228	0.029
-303.822	-54.225	0.236	-0.106
-302.807	-51.883	-0.364	0.167
-301.793	-182.989	-0.282	0.005
-300.778	-108.484	0.139	0.029
-299.764	-86.368	0.254	-0.077
-298.749	-200.000	-0.001	0.268
-297.735	-200.000	-0.027	0.189
-296.720	-109.912	-0.149	0.031
-295.705	35.393	0.360	0.312
-294.691	-55.823	0.119	-0.052
-293.676	8.975	0.211	-0.158
-292.662	31.908	0.122	0.104
-291.647	662.042	0.083	-0.212
-290.632	153.935	-0.207	-0.280
-289.618	-21.311	0.169	0.102
-288.603	674.559	-0.105	-0.270
-287.589	-193.179	-0.280	-0.002
-286.574	-200.000	0.075	-0.481
-285.559	7.413	-0.339	0.250
-284.545	-50.559	0.234	-0.109
-283.530	91.379	0.063	-0.070
-282.516	66.381	0.118	-0.118
-281.501	-22.763	-0.324	0.193
-280.486	-20.421	0.303	0.184
-279.472	-200.000	0.038	0.169
-278.457	236.968	0.067	-0.110
-277.443	478.514	0.146	-0.326
-276.428	-200.000	0.068	-0.358
-275.413	-119.173	0.223	-0.038
-274.399	-127.558	0.054	0.008
-273.384	-33.431	0.102	-0.056
-272.370	79.037	0.249	0.264
-271.355	-108.765	-0.078	-0.017
-270.340	800.000	-0.055	-0.155
-269.326	-159.502	0.091	-0.005
-268.311	31.854	-0.341	-0.289
-267.297	-2.064	0.182	0.126
-266.282	-127.290	-0.199	-0.029
-265.267	138.944	0.085	-0.110
-264.253	-200.000	-0.071	-0.315
-263.238	-83.414	-0.297	-0.094
-262.224	-138.176	-0.371	-0.041
-261.209	61.344	0.096	-0.094
-260.195	60.485	0.169	-0.165
-259.180	-115.417	0.217	0.040
-258.165	16.260	0.334	-0.260
-257.151	-69.373	0.098	0.037
-256.136	-200.000	-0.053	0.239
-255.122	800.000	-0.108	0.306
-254.107	-43.316	-0.174	0.087
-253.092	-153.217	-0.188	0.013
-252.078	-200.000	-0.007	-0.138
-251.063	5.041	0.259	0.188
-250.049	-200.000	-0.108	-0.528
-249.034	212.318	-0.194	-0.301
-248.019	-106.679	0.363	-0.079
-247.005	-70.553	0.025	0.009
-245.990	66.074	0.121	0.121
-244.976	-108.489	-0.227	0.048
-243.961	44.421	0.208	-0.188
-242.946	-102.353	0.406	0.096
-241.932	314.652	0.065	0.121
-240.917	-20.759	0.174	0.105
-239.903	171.514	0.137	-0.194
-238.888	-60.166	-0.174	0.073
-237.873	-1.511	-0.310	0.215
-236.859	-84.594	0.358	0.111
-235.844	563.988	0.070	0.168
-234.830	-43.891	-0.133	0.066
-233.815	-200.000	0.012	0.373
-232.800	8.802	0.131	0.098
-231.786	181.161	-0.198	0.287
-230.771	369.593	0.136	-0.270
-229.757	186.650	0.064	-0.094
-228.742	262.745	0.040	0.069
-227.727	126.905	-0.162	-0.202
-226.713	24.546	0.130	-0.106
-225.698	85.076	-0.144	-0.156
-224.684	783.423	0.061	0.163
-223.669	496.938	0.032	-0.072
-222.655	118.896	-0.098	0.119
-221.640	-200.000	-0.019	0.129
-220.625	619.349	0.053	0.132
-219.611	-71.500	-0.217	0.080
-218.596	-79.870	-0.467	-0.155
-217.582	800.000	0.103	0.355
-216.567	800.000	0.051	-0.163
-215.552	-41.867	0.149	0.075
-214.538	-39.735	0.094	0.049
-213.523	-0.842	0.452	0.315
-212.509	189.910	0.204	-0.301
-211.494	222.822	-0.057	0.091
-210.479	7.468	0.265	-0.195
-209.465	-200.000	-0.040	0.532
-208.450	188.205	0.058	0.086
-207.436	-200.000	-0.007	0.225
-206.421	-200.000	-0.002	-0.110
-205.406	269.803	-0.102	0.176
-204.392	-200.000	0.018	0.118
-203.377	-200.000	0.028	-0.264
-202.363	1.910	0.343	-0.243
-201.348	-135.146	-0.058	-0.007
-200.333	-31.123	-0.103	0.057
-199.319	28.247	-0.211	-0.175
-198.304	31.645	0.133	-0.113
-197.290	-162.151	0.143	0.007
-196.275	18.621	0.160	0.126
-195.260	-200.000	0.011	-0.151
-194.246	-200.000	-0.017	-0.156
-193.231	-13.800	-0.349	0.222
-192.217	34.155	0.074	-0.063
-191.202	800.000	0.015	0.059
-190.187	-200.000	0.014	0.138
-189.173	-39.751	0.168	-0.086
-188.158	-51.182	-0.376	0.173
-187.144	-200.000	-0.052	-0.243
-186.129	-125.096	0.129	0.020
-185.114	-66.378	0.228	0.089
-184.100	-108.327	-0.334	0.071
-183.085	137.949	0.053	-0.069
-182.071	-11.287	-0.229	-0.148
-181.056	-200.000	-0.024	0.172
-180.042	269.300	-0.053	0.091
-179.027	51.091	-0.157	0.146
-178.012	-200.000	0.003	-0.062
-176.998	749.291	-0.144	0.381
-175.983	-20.838	-0.070	-0.042
-174.969	151.032	0.112	0.150
-173.954	800.000	0.021	-0.073
-172.939	323.489	0.087	0.162
-171.925	-200.000	-0.025	0.140
-170.910	800.000	-0.051	0.213
-169.896	352.620	-0.104	0.202
-168.881	-72.861	0.413	0.149
-167.866	-76.945	-0.088	-0.030
-166.852	175.222	0.100	-0.142
-165.837	-75.376	0.068	0.024
-164.823	-97.438	0.200	-0.051
-163.808	-152.357	0.265	-0.019
-162.793	-71.719	0.320	0.117
-161.779	-51.369	0.160	0.073
-160.764	-200.000	0.016	-0.146
-159.750	-200.000	-0.004	0.097
-158.735	-76.431	0.294	0.101
-157.720	467.941	0.050	-0.111
-156.706	69.371	0.128	-0.129
-155.691	-118.797	-0.173	-0.030
-154.677	-200.000	-0.057	0.274
-153.662	435.062	-0.149	0.318
-152.647	-200.000	-0.015	-0.189
-151.633	91.056	-0.230	-0.254
-150.618	-106.359	-0.445	0.098
-149.604	-20.608	0.131	-0.079
-148.589	-200.000	-0.044	-0.249
-147.574	-90.078	0.156	-0.045
-146.560	87.416	-0.399	0.434
-145.545	34.321	0.120	0.103
-144.531	-138.265	-0.249	-0.027
-143.516	44.761	0.196	-0.177
-142.502	800.000	-0.043	-0.143
-141.487	-68.874	-0.263	-0.100
-140.472	-75.792	0.249	0.087
-139.458	256.684	-0.148	0.250
-138.443	-22.560	-0.345	0.205
-137.429	108.003	0.048	0.056
-136.414	149.820	-0.068	0.091
-135.399	-105.782	-0.217	-0.048
-134.385	-200.000	0.028	-0.123
-133.370	-200.000	0.005	0.084
-132.356	760.628	-0.062	-0.164
-131.341	60.074	0.122	0.118
-130.326	-61.155	-0.375	-0.155
-129.312	381.296	0.094	0.189
-128.297	719.105	0.029	0.075
-127.283	-81.310	0.375	0.121
-126.268	-43.931	0.195	0.096
-125.253	-16.927	0.144	-0.089
-124.239	-59.331	-0.007	-0.003
-123.224	-200.000	-0.015	-0.120
-122.210	-13.053	-0.073	0.046
-121.195	-145.714	0.235	0.021
