DTS Sentinel unit serial number:	SN413079Multiplexer serial number:	ORYXHardware model number:	OX4-SRSoftware version number:	ORYX F/W v4.00 Oryx Data Collector v3.7.2.0data status	okinstallation	princeton_trtdifferential loss correction	single-endedforward channel	channel 1reverse channel	N/Adate	2019/09/11time	05:52:11forward acquisition time	60.00reverse acquisition time	0.00gamma	496.2192k internal	0.2331k external	0.2331temperature offset calibration	0.9923default loss term (dB/km)	0.3790temperature slope calibration	1.0000multiplexer offset coefficient	1.0000multiplexer slope coefficient	1.0000fibre end	0.00T internal ref (°C)	29.42T ext. ref 1 (°C)	-0.23T ext. ref 2 (°C)	23.40length (m)	temperature (°C)	Stokes	anti-Stokes-747.200	-1.286	-0.148	-0.105
-746.185	-61.351	0.325	0.138
-745.171	14.071	-0.009	-0.007
-744.156	-200.000	0.062	0.370
-743.142	264.548	-0.070	0.123
-742.127	-200.000	-0.100	-0.000
-741.112	-155.050	0.152	-0.010
-740.098	-11.838	-0.115	-0.076
-739.083	800.000	-0.058	-0.185
-738.069	-149.025	-0.344	0.028
-737.054	102.649	-0.065	-0.077
-736.039	-200.000	0.107	-0.477
-735.025	800.000	0.035	0.101
-734.010	87.266	0.181	-0.202
-732.996	30.477	-0.245	-0.211
-731.981	800.000	-0.042	0.123
-730.966	-76.843	0.264	0.093
-729.952	-200.000	-0.008	-0.278
-728.937	-103.872	0.072	0.017
-727.923	26.600	-0.199	0.167
-726.908	-15.944	0.056	0.036
-725.894	-123.179	-0.424	0.068
-724.879	234.238	-0.175	-0.290
-723.864	10.741	-0.077	-0.059
-722.850	-142.172	-0.246	0.025
-721.835	-128.676	-0.113	0.016
-720.821	-110.028	0.160	-0.034
-719.806	84.246	-0.039	0.043
-718.791	11.536	0.117	0.090
-717.777	167.055	0.181	0.259
-716.762	47.002	-0.030	0.028
-715.748	69.066	0.161	0.166
-714.733	-108.830	-0.343	-0.074
-713.718	-49.010	0.338	-0.163
-712.704	-200.000	-0.018	0.212
-711.689	-73.342	-0.135	-0.050
-710.675	-35.920	0.026	-0.014
-709.660	-200.000	0.002	-0.141
-708.645	397.681	-0.055	0.115
-707.631	-19.144	0.057	0.036
-706.616	416.979	0.053	0.113
-705.602	-59.928	0.208	0.089
-704.587	281.122	0.131	0.235
-703.572	-200.000	-0.033	-0.327
-702.558	705.262	0.111	0.295
-701.543	-6.282	-0.349	-0.239
-700.529	199.365	0.142	-0.219
-699.514	800.000	-0.015	-0.064
-698.499	-99.876	-0.326	-0.082
-697.485	800.000	0.032	0.120
-696.470	800.000	-0.103	-0.290
-695.456	-35.540	0.155	0.085
-694.441	-200.000	-0.014	-0.227
-693.426	-200.000	-0.022	0.162
-692.412	-115.191	-0.335	-0.064
-691.397	-30.291	-0.220	0.126
-690.383	-98.224	-0.038	-0.010
-689.368	-168.175	-0.249	-0.010
-688.354	-34.989	-0.278	-0.153
-687.339	90.908	-0.214	-0.241
-686.324	800.000	0.098	-0.352
-685.310	36.464	-0.139	0.123
-684.295	100.305	-0.227	-0.265
-683.281	28.295	-0.132	-0.112
-682.266	-99.472	0.142	-0.036
-681.251	-200.000	-0.066	0.485
-680.237	-200.000	-0.051	-0.227
-679.222	161.856	-0.135	0.190
-678.208	-200.000	-0.024	0.170
-677.193	-39.243	0.177	-0.093
-676.178	135.841	-0.193	0.252
-675.164	-33.870	-0.059	0.033
-674.149	196.907	0.189	-0.290
-673.135	-121.305	-0.357	0.060
-672.120	-200.000	0.029	-0.205
-671.105	30.588	-0.093	0.080
-670.091	-101.774	0.175	-0.043
-669.076	800.000	0.019	-0.064
-668.062	271.990	0.029	-0.052
-667.047	69.914	0.083	-0.086
-666.032	399.850	0.130	-0.273
-665.018	-127.014	-0.092	0.014
-664.003	4.244	-0.240	-0.176
-662.989	21.994	0.098	0.080
-661.974	74.942	-0.078	-0.083
-660.959	800.000	-0.135	-0.474
-659.945	69.762	0.161	0.167
-658.930	-177.342	0.022	0.001
-657.916	-157.167	0.313	-0.019
-656.901	174.882	0.076	-0.110
-655.886	690.320	0.029	-0.075
-654.872	86.449	-0.210	0.232
-653.857	-12.548	0.128	0.084
-652.843	-77.847	0.288	0.100
-651.828	-152.780	-0.218	0.016
-650.814	266.248	0.123	-0.215
-649.799	-26.875	-0.209	-0.122
-648.784	-200.000	-0.021	-0.205
-647.770	515.676	0.044	-0.104
-646.755	14.961	0.249	-0.196
-645.741	-200.000	-0.077	-0.403
-644.726	20.064	0.185	0.150
-643.711	-123.223	-0.120	0.019
-642.697	-71.941	0.170	-0.063
-641.682	-200.000	0.019	-0.228
-640.668	-25.214	-0.069	-0.041
-639.653	-200.000	-0.006	0.257
-638.638	800.000	0.052	-0.207
-637.624	-4.366	0.255	0.177
-636.609	-40.319	-0.133	0.069
-635.595	-200.000	0.041	-0.310
-634.580	800.000	-0.116	0.354
-633.565	21.498	-0.184	-0.150
-632.551	400.876	-0.146	-0.308
-631.536	252.333	0.077	0.132
-630.522	-200.000	0.008	0.368
-629.507	-200.000	0.012	0.156
-628.492	311.743	-0.075	-0.140
-627.478	-136.596	-0.205	-0.024
-626.463	-185.128	-0.425	0.007
-625.449	70.835	0.210	-0.218
-624.434	265.622	0.048	0.084
-623.419	-90.005	-0.176	-0.051
-622.405	-77.556	-0.203	0.070
-621.390	-195.574	0.090	-0.001
-620.376	-136.419	-0.314	-0.037
-619.361	-78.535	-0.279	0.096
-618.346	20.505	-0.165	0.133
-617.332	-200.000	0.068	-0.313
-616.317	800.000	0.054	-0.162
-615.303	2.518	0.038	0.027
-614.288	-93.519	-0.200	0.055
-613.273	-20.148	-0.165	-0.102
-612.259	-24.172	0.073	0.044
-611.244	-97.046	0.144	0.038
-610.230	-75.321	-0.198	-0.071
-609.215	-200.000	-0.019	0.253
-608.201	-198.982	0.171	-0.001
-607.186	112.136	-0.086	-0.104
-606.171	-200.000	0.008	-0.256
-605.157	-200.000	-0.001	-0.338
-604.142	70.625	-0.181	0.187
-603.128	-200.000	0.066	-0.401
-602.113	-65.124	-0.254	0.102
-601.098	-137.225	-0.192	0.022
-600.084	166.651	0.113	0.160
-599.069	-37.280	-0.190	0.102
-598.055	-46.280	-0.301	0.148
-597.040	-200.000	-0.049	-0.233
-596.025	800.000	0.170	-0.561
-595.011	434.871	0.086	-0.187
-593.996	800.000	-0.125	-0.401
-592.982	17.566	0.141	-0.112
-591.967	-7.897	-0.122	-0.082
-590.952	-10.441	0.085	0.056
-589.938	-52.042	-0.260	-0.121
-588.923	-200.000	0.012	-0.089
-587.909	-200.000	0.010	-0.323
-586.894	800.000	0.084	-0.359
-585.879	491.935	-0.043	0.099
-584.865	-40.261	0.161	-0.084
-583.850	-200.000	0.015	-0.119
-582.836	-45.114	-0.067	0.033
-581.821	609.928	0.067	0.166
-580.806	-200.000	-0.076	-0.435
-579.792	800.000	-0.025	0.088
-578.777	-12.189	-0.150	0.098
-577.763	-72.012	0.183	-0.068
-576.748	-34.176	-0.247	-0.136
-575.733	-101.641	0.120	0.029
-574.719	-200.000	0.087	0.405
-573.704	-200.000	0.021	-0.184
-572.690	-200.000	-0.004	0.149
-571.675	-0.476	0.159	-0.113
-570.661	-55.708	0.371	-0.166
-569.646	800.000	-0.103	-0.300
-568.631	429.414	-0.094	-0.204
-567.617	-172.292	0.133	0.004
-566.602	-167.449	-0.146	-0.006
-565.588	-35.413	-0.174	0.094
-564.573	41.075	-0.253	0.229
-563.558	800.000	-0.005	-0.023
-562.544	-200.000	0.024	0.161
-561.529	-67.346	-0.042	0.017
-560.515	-92.508	0.077	0.022
-559.500	-42.602	0.251	0.128
-558.485	155.859	-0.149	0.205
-557.471	-64.310	0.326	0.133
-556.456	-73.162	-0.164	-0.060
-555.442	-200.000	0.002	-0.315
-554.427	55.205	0.109	-0.105
-553.412	-143.469	0.301	-0.029
-552.398	800.000	-0.079	0.304
-551.383	153.074	-0.034	0.046
-550.369	103.627	0.091	-0.107
-549.354	-53.576	0.179	-0.082
-548.339	-200.000	0.015	-0.073
-547.325	43.316	-0.269	-0.246
-546.310	-32.026	0.398	0.222
-545.296	145.556	0.128	-0.171
-544.281	14.721	-0.112	-0.087
-543.266	-49.128	0.189	0.090
-542.252	-163.556	0.070	-0.003
-541.237	-200.000	0.039	0.335
-540.223	100.068	0.268	0.310
-539.208	61.566	-0.150	0.149
-538.193	-18.561	0.210	-0.131
-537.179	-112.312	0.214	0.043
-536.164	-5.324	-0.391	-0.268
-535.150	28.990	0.187	0.158
-534.135	-200.000	0.012	0.116
-533.121	279.008	0.070	-0.125
-532.106	-170.386	-0.197	-0.007
-531.091	-200.000	-0.073	-0.323
-530.077	-135.883	0.089	0.010
-529.062	-57.014	-0.253	-0.112
-528.048	32.045	-0.133	0.114
-527.033	56.154	0.093	-0.090
-526.018	-28.766	-0.279	0.160
-525.004	-200.000	-0.004	0.088
-523.989	-124.517	0.135	-0.021
-522.975	-49.946	-0.203	-0.096
-521.960	192.014	-0.043	0.064
-520.945	752.319	0.073	-0.196
-519.931	26.419	-0.293	-0.244
-518.916	-200.000	0.070	-0.332
-517.902	445.097	-0.056	0.124
-516.887	-200.000	-0.047	0.000
-515.872	-61.544	-0.413	-0.173
-514.858	-200.000	-0.063	0.280
-513.843	-200.000	-0.022	-0.348
-512.829	-200.000	-0.051	0.280
-511.814	-37.392	0.183	-0.097
-510.799	-41.719	-0.149	-0.076
-509.785	144.953	-0.107	0.142
-508.770	197.491	-0.096	0.147
-507.756	-26.274	0.248	-0.145
-506.741	-18.194	-0.247	-0.154
-505.726	800.000	-0.054	0.180
-504.712	-200.000	-0.009	-0.153
-503.697	51.991	0.383	-0.364
-502.683	76.811	-0.159	0.168
-501.668	-16.312	-0.190	0.120
-500.653	15.403	0.216	0.169
-499.639	182.875	-0.107	0.158
-498.624	-187.956	-0.169	0.002
-497.610	-200.000	0.073	-0.347
-496.595	-200.000	0.061	0.491
-495.581	7.952	0.054	-0.040
-494.566	-34.749	0.074	-0.041
-493.551	160.985	-0.193	0.269
-492.537	0.729	-0.161	0.115
-491.522	53.170	0.410	0.391
-490.508	-200.000	-0.115	0.596
-489.493	80.607	0.056	0.061
-488.478	206.622	-0.097	0.151
-487.464	552.172	0.065	0.155
-486.449	800.000	-0.114	-0.465
-485.435	800.000	0.061	-0.211
-484.420	-200.000	-0.008	-0.176
-483.405	155.743	0.358	-0.492
-482.391	194.967	0.161	0.244
-481.376	84.481	-0.089	-0.097
-480.362	49.581	-0.269	-0.252
-479.347	222.867	0.079	-0.126
-478.332	-9.579	-0.153	0.102
-477.318	-200.000	0.025	-0.247
-476.303	-105.121	0.098	0.022
-475.289	414.078	0.099	0.209
-474.274	-200.000	-0.048	0.244
-473.259	752.785	0.124	0.332
-472.245	49.680	0.206	0.193
-471.230	-121.313	0.384	0.064
-470.216	-71.432	0.141	0.053
-469.201	-19.859	0.233	0.143
-468.186	-14.173	0.161	0.104
-467.172	800.000	-0.116	-0.352
-466.157	-200.000	0.004	0.109
-465.143	-48.543	-0.157	-0.075
-464.128	344.964	0.117	-0.229
-463.113	-200.000	-0.024	0.204
-462.099	-200.000	0.010	-0.170
-461.084	-189.449	-0.172	-0.002
-460.070	285.365	0.065	0.117
-459.055	28.494	0.113	-0.095
-458.040	800.000	-0.041	-0.177
-457.026	-123.752	0.238	-0.037
-456.011	-95.495	0.230	0.061
-454.997	-50.790	0.224	0.105
-453.982	-200.000	0.010	-0.266
-452.968	-29.245	-0.427	-0.243
-451.953	-105.420	0.306	-0.069
-450.938	-32.386	-0.248	-0.138
-449.924	-48.180	-0.358	-0.172
-448.909	-84.061	-0.120	0.038
-447.895	-135.529	0.290	0.034
-446.880	-200.000	0.010	0.340
-445.865	-156.155	-0.256	-0.016
-444.851	-29.683	0.047	0.027
-443.836	-200.000	-0.040	-0.387
-442.822	81.526	0.080	-0.086
-441.807	-200.000	0.016	0.135
-440.792	6.935	0.336	-0.249
-439.778	-125.915	0.312	0.047
-438.763	800.000	-0.034	0.139
-437.749	119.395	-0.269	-0.331
-436.734	800.000	0.029	0.099
-435.719	361.301	-0.045	0.091
-434.705	102.762	-0.091	0.105
-433.690	-67.092	0.238	-0.093
-432.676	31.603	-0.125	-0.107
-431.661	29.943	-0.139	0.118
-430.646	178.775	-0.066	-0.096
-429.632	-45.852	0.319	0.157
-428.617	-200.000	0.018	0.132
-427.603	-120.700	-0.195	0.033
-426.588	-182.420	0.157	-0.003
-425.573	-125.093	0.365	-0.056
-424.559	-200.000	-0.064	0.448
-423.544	-155.516	0.130	-0.008
-422.530	-58.262	-0.117	0.051
-421.515	-5.318	0.295	-0.201
-420.500	-28.371	-0.223	0.128
-419.486	-37.510	0.135	0.072
-418.471	-120.878	0.176	0.029
-417.457	-24.490	-0.095	-0.056
-416.442	-75.854	-0.159	0.056
-415.428	-127.281	0.139	-0.020
-414.413	221.525	0.087	0.139
-413.398	-2.182	-0.199	-0.139
-412.384	-41.768	0.141	0.072
-411.369	565.548	-0.127	0.306
-410.355	-72.350	-0.166	-0.061
-409.340	107.111	0.130	0.154
-408.325	487.642	0.085	-0.193
-407.311	-147.212	0.150	-0.013
-406.296	-34.516	-0.166	-0.090
-405.282	-139.859	0.194	0.020
-404.267	472.759	-0.062	-0.139
-403.252	-200.000	-0.039	0.262
-402.238	-179.367	0.355	-0.008
-401.223	-200.000	0.015	0.215
-400.209	34.694	0.093	0.081
-399.194	-200.000	0.033	0.173
-398.179	135.360	-0.032	-0.041
-397.165	-95.646	-0.105	0.028
-396.150	232.726	-0.064	0.105
-395.136	-33.760	0.241	0.132
-394.121	-82.217	0.146	-0.047
-393.106	-18.942	-0.189	-0.117
-392.092	217.703	-0.040	-0.063
-391.077	87.301	-0.271	-0.298
-390.063	301.116	0.140	0.256
-389.048	-81.075	-0.194	0.064
-388.033	-53.657	0.117	0.053
-387.019	165.404	-0.051	0.072
-386.004	-57.581	0.487	0.212
-384.990	-91.689	-0.185	0.052
-383.975	800.000	0.077	0.258
-382.960	800.000	0.078	-0.280
-381.946	65.308	0.244	-0.245
-380.931	-200.000	0.006	0.047
-379.917	800.000	-0.023	-0.090
-378.902	-63.207	-0.075	0.031
-377.888	100.801	0.194	-0.223
-376.873	-127.923	0.263	0.038
-375.858	400.931	0.088	0.183
-374.844	-63.294	0.105	-0.043
-373.829	-63.173	0.134	-0.055
-372.815	-33.659	-0.472	-0.258
-371.800	607.124	-0.172	0.425
-370.785	-145.310	-0.212	-0.019
-369.771	-62.693	0.348	0.143
-368.756	151.937	-0.147	0.198
-367.742	40.987	-0.151	-0.135
-366.727	-26.530	-0.087	0.051
-365.712	-46.896	-0.373	-0.181
-364.698	19.087	0.178	0.141
-363.683	121.377	0.102	-0.126
-362.669	11.727	-0.042	0.032
-361.654	-200.000	0.003	-0.024
-360.639	-160.518	0.198	0.010
-359.625	800.000	-0.045	-0.159
-358.610	-30.347	-0.136	0.077
-357.596	-138.256	-0.233	-0.026
-356.581	-200.000	0.016	-0.094
-355.566	190.802	0.020	-0.030
-354.552	319.045	0.066	0.123
-353.537	-168.179	-0.384	-0.015
-352.523	123.935	-0.107	0.133
-351.508	126.717	0.180	0.225
-350.493	-29.104	-0.135	-0.076
-349.479	0.720	0.156	0.111
-348.464	29.951	-0.066	0.055
-347.450	74.963	-0.108	-0.113
-346.435	-28.251	0.101	0.058
-345.420	400.780	0.166	0.345
-344.406	463.363	0.097	-0.216
-343.391	-84.434	-0.300	0.094
-342.377	42.776	0.109	0.099
-341.362	-47.277	-0.078	0.038
-340.348	-200.000	-0.011	0.348
-339.333	77.828	-0.128	-0.135
-338.318	-54.598	0.350	-0.157
-337.304	-200.000	0.031	0.358
-336.289	800.000	-0.025	0.103
-335.275	-200.000	0.015	-0.089
-334.260	-119.570	-0.112	0.019
-333.245	-200.000	-0.016	-0.291
-332.231	87.616	-0.142	0.155
-331.216	800.000	0.061	-0.172
-330.202	-27.038	-0.077	-0.045
-329.187	-200.000	0.019	0.117
-328.172	332.614	0.080	-0.152
-327.158	402.459	0.061	-0.127
-326.143	165.794	0.189	-0.264
-325.129	-105.804	-0.548	0.123
-324.114	-26.414	-0.296	0.172
-323.099	-89.904	0.097	-0.028
-322.085	800.000	0.045	0.161
-321.070	93.753	-0.104	0.116
-320.056	-57.912	-0.165	-0.071
-319.041	-70.023	0.095	-0.036
-318.026	-116.291	-0.184	-0.034
-317.012	252.895	-0.162	-0.273
-315.997	-200.000	0.006	-0.426
-314.983	-200.000	-0.007	-0.220
-313.968	-43.348	0.146	0.073
-312.953	-143.644	-0.181	-0.017
-311.939	800.000	0.042	0.120
-310.924	800.000	0.141	0.414
-309.910	-111.079	0.270	-0.055
-308.895	112.331	0.100	0.120
-307.880	-200.000	-0.135	-0.740
-306.866	268.749	0.186	-0.323
-305.851	-96.456	0.095	0.025
-304.837	17.228	0.207	0.162
-303.822	159.441	0.092	-0.127
-302.807	24.928	0.284	-0.233
-301.793	-200.000	-0.003	0.263
-300.778	-200.000	0.036	0.205
-299.764	173.211	-0.066	-0.094
-298.749	-3.145	0.360	-0.248
-297.735	101.832	-0.119	0.137
-296.720	-200.000	-0.002	0.043
-295.705	284.537	0.146	-0.260
-294.691	-14.820	-0.107	-0.068
-293.676	312.239	-0.164	0.305
-292.662	-37.946	-0.264	0.139
-291.647	-70.801	0.310	0.116
-290.632	-200.000	-0.014	-0.165
-289.618	-27.809	-0.134	0.077
-288.603	-200.000	-0.009	0.164
-287.589	-28.614	0.129	-0.074
-286.574	-125.734	-0.230	-0.034
-285.559	-122.257	-0.083	0.013
-284.545	-91.571	-0.307	0.087
-283.530	-0.059	0.354	0.249
-282.516	-108.623	0.130	0.028
-281.501	128.508	0.123	0.154
-280.486	-59.677	0.237	0.100
-279.472	-109.181	0.175	0.037
-278.457	-200.000	-0.414	-0.001
-277.443	-151.821	-0.312	-0.023
-276.428	227.209	-0.132	0.213
-275.413	14.767	-0.101	0.078
-274.399	-200.000	-0.071	0.341
-273.384	471.199	0.065	0.144
-272.370	-200.000	-0.058	0.265
-271.355	-3.827	-0.290	0.199
-270.340	395.002	0.153	0.314
-269.326	-200.000	-0.016	0.291
-268.311	84.598	-0.162	0.176
-267.297	69.519	0.169	-0.172
-266.282	140.778	-0.096	0.125
-265.267	800.000	0.070	-0.264
-264.253	106.247	-0.137	0.160
-263.238	-74.741	-0.293	0.104
-262.224	-93.282	-0.131	0.036
-261.209	68.093	0.247	0.249
-260.195	431.196	-0.028	-0.060
-259.180	-103.247	0.123	0.029
-258.165	158.241	-0.166	-0.228
-257.151	-37.122	-0.065	-0.034
-256.136	375.884	-0.025	-0.050
-255.122	-106.951	-0.650	0.142
-254.107	22.610	-0.120	0.097
-253.092	7.202	0.251	-0.185
-252.078	85.524	0.182	-0.198
-251.063	-24.990	0.425	0.249
-250.049	800.000	-0.089	-0.344
-249.034	631.278	0.033	0.084
-248.019	800.000	-0.070	0.201
-247.005	233.815	0.018	0.029
-245.990	157.896	0.136	0.186
-244.976	-66.708	-0.328	-0.128
-243.961	-42.794	-0.072	0.036
-242.946	-88.303	0.055	-0.016
-241.932	165.708	0.023	-0.032
-240.917	-29.344	-0.223	0.126
-239.903	-138.378	-0.268	-0.029
-238.888	-6.643	-0.125	-0.084
-237.873	693.737	-0.042	0.108
-236.859	-67.498	0.309	0.120
-235.844	-36.784	0.078	-0.041
-234.830	-120.669	-0.336	-0.056
-233.815	-160.343	-0.227	-0.012
-232.800	-200.000	0.001	-0.216
-231.786	-39.681	0.165	0.085
-230.771	-200.000	0.009	-0.263
-229.757	11.712	0.077	0.058
-228.742	-200.000	-0.043	0.276
-227.727	-146.826	0.105	-0.009
-226.713	-1.924	0.200	-0.139
-225.698	106.927	0.050	-0.059
-224.684	-112.157	0.327	-0.065
-223.669	-200.000	-0.055	0.320
-222.655	201.371	0.179	0.271
-221.640	211.752	0.154	-0.238
-220.625	-161.842	0.136	0.007
-219.611	-66.918	0.196	0.077
-218.596	-108.437	-0.180	0.038
-217.582	218.334	0.223	-0.351
-216.567	-200.000	-0.008	-0.220
-215.552	203.737	0.050	-0.076
-214.538	86.280	0.045	0.049
-213.523	-200.000	0.004	-0.063
-212.509	79.697	0.110	0.116
-211.494	-111.975	-0.135	0.027
-210.479	402.150	0.025	-0.052
-209.465	606.848	-0.077	0.190
-208.450	434.256	-0.077	0.164
-207.436	800.000	0.109	0.349
-206.421	-78.232	-0.195	0.066
-205.406	-69.745	0.060	-0.023
-204.392	-43.493	0.313	-0.156
-203.377	-123.415	0.473	0.074
-202.363	-200.000	-0.010	-0.124
-201.348	68.401	-0.119	-0.120
-200.333	800.000	0.063	-0.266
-199.319	481.856	-0.139	-0.311
-198.304	161.122	0.069	0.095
-197.290	-61.454	-0.230	0.095
-196.275	-40.650	0.344	-0.176
-195.260	-200.000	0.002	-0.260
-194.246	-199.396	-0.050	0.000
-193.231	800.000	-0.042	-0.160
-192.217	225.179	0.045	-0.071
-191.202	30.508	0.198	-0.167
-190.187	-138.440	-0.117	0.013
-189.173	-51.139	-0.026	0.012
-188.158	-200.000	0.020	0.158
-187.144	92.228	-0.232	0.257
-186.129	-200.000	-0.005	0.226
-185.114	-146.040	0.305	0.027
-184.100	179.014	0.087	0.125
-183.085	93.218	0.174	0.194
-182.071	-18.438	0.055	0.034
-181.056	800.000	0.016	0.050
-180.042	-89.133	-0.336	0.098
-179.027	800.000	0.058	0.188
-178.012	-31.527	0.153	0.085
-176.998	150.349	-0.026	0.035
-175.983	-200.000	0.020	0.125
-174.969	-79.844	-0.172	0.057
-173.954	5.550	-0.184	-0.134
-172.939	800.000	-0.038	0.107
-171.925	181.070	0.111	-0.160
-170.910	-48.664	-0.199	-0.094
-169.896	-104.050	0.173	0.040
-168.881	-6.839	0.349	0.234
-167.866	-200.000	-0.033	-0.349
-166.852	-150.282	-0.192	-0.015
-165.837	800.000	-0.033	0.101
-164.823	13.190	0.115	-0.087
-163.808	-200.000	-0.034	-0.219
-162.793	-94.267	-0.192	0.052
-161.779	-46.341	-0.072	0.035
-160.764	5.923	0.135	0.099
-159.750	-200.000	0.018	-0.104
-158.735	800.000	-0.034	0.143
-157.720	-200.000	0.041	0.217
-156.706	309.256	0.094	-0.173
-155.691	166.684	-0.065	-0.090
-154.677	-102.448	-0.283	-0.067
-153.662	371.204	-0.215	0.429
-152.647	-9.850	0.223	-0.146
-151.633	800.000	-0.043	-0.159
-150.618	-200.000	0.038	-0.336
-149.604	800.000	0.058	0.209
-148.589	-65.691	-0.170	0.067
-147.574	-200.000	0.000	0.033
-146.560	111.210	0.192	0.228
-145.545	-184.203	0.240	-0.004
-144.531	800.000	-0.109	0.449
-143.516	248.894	-0.059	0.097
-142.502	29.946	-0.355	-0.297
-141.487	-200.000	0.079	0.387
-140.472	324.543	0.071	0.133
-139.458	550.823	-0.153	-0.362
-138.443	38.873	-0.186	0.163
-137.429	36.128	0.161	0.139
-136.414	-200.000	-0.019	0.180
-135.399	-151.639	-0.180	0.013
-134.385	647.016	0.164	0.411
-133.370	-183.479	0.172	0.003
-132.356	23.171	0.234	0.189
-131.341	-81.849	-0.370	-0.119
-130.326	312.832	0.301	-0.556
-129.312	-90.058	-0.096	-0.027
-128.297	4.595	0.249	0.180
-127.283	-60.689	0.056	-0.023
-126.268	-54.923	-0.106	-0.047
-125.253	-115.531	-0.355	0.066
-124.239	-112.199	0.292	-0.058
-123.224	669.501	0.083	0.210
-122.210	-200.000	0.038	-0.274
-121.195	-122.160	0.245	-0.039
