DTS Sentinel unit serial number:	SN413079Multiplexer serial number:	ORYXHardware model number:	OX4-SRSoftware version number:	ORYX F/W v4.00 Oryx Data Collector v3.7.2.0data status	okinstallation	princeton_trtdifferential loss correction	single-endedforward channel	channel 1reverse channel	N/Adate	2019/09/13time	17:38:35forward acquisition time	60.00reverse acquisition time	0.00gamma	496.2192k internal	0.2301k external	0.2301temperature offset calibration	1.0159default loss term (dB/km)	0.3790temperature slope calibration	1.0000multiplexer offset coefficient	1.0000multiplexer slope coefficient	1.0000fibre end	0.00T internal ref (°C)	35.91T ext. ref 1 (°C)	5.37T ext. ref 2 (°C)	29.33length (m)	temperature (°C)	Stokes	anti-Stokes-747.200	-200.000	0.012	0.151
-746.185	-200.000	-0.075	0.479
-745.171	234.628	0.165	0.278
-744.156	800.000	0.062	0.276
-743.142	110.750	0.144	0.177
-742.127	-200.000	-0.018	0.209
-741.112	-200.000	0.008	0.068
-740.098	-187.249	0.145	0.002
-739.083	9.365	0.259	-0.200
-738.069	-32.540	-0.251	0.142
-737.054	-200.000	0.021	0.109
-736.039	-167.076	0.231	-0.010
-735.025	-200.000	-0.007	0.060
-734.010	-41.147	-0.184	-0.097
-732.996	26.248	-0.212	-0.181
-731.981	-141.517	-0.034	-0.003
-730.966	-200.000	-0.002	-0.028
-729.952	-145.415	0.303	0.028
-728.937	-27.688	-0.293	-0.174
-727.923	150.822	-0.169	-0.233
-726.908	-42.378	-0.235	-0.122
-725.894	-157.412	0.137	0.008
-724.879	-200.000	-0.020	-0.344
-723.864	-200.000	-0.001	0.147
-722.850	325.061	-0.134	0.262
-721.835	37.510	-0.143	0.130
-720.821	98.930	0.218	-0.256
-719.806	800.000	-0.123	-0.466
-718.791	-6.790	0.242	-0.168
-717.777	20.533	0.127	0.104
-716.762	800.000	-0.122	0.450
-715.748	2.421	-0.064	-0.047
-714.733	-200.000	-0.022	0.149
-713.718	-92.216	0.137	0.039
-712.704	800.000	0.042	-0.145
-711.689	98.212	0.141	0.165
-710.675	-46.224	0.225	-0.113
-709.660	-3.571	0.103	0.073
-708.645	497.927	-0.102	-0.239
-707.631	-79.148	-0.217	0.075
-706.616	5.095	0.024	-0.018
-705.602	-96.406	0.224	0.060
-704.587	248.434	-0.041	0.071
-703.572	238.615	0.100	-0.169
-702.558	-71.973	0.059	-0.022
-701.543	-75.194	-0.212	-0.077
-700.529	-103.537	0.114	-0.027
-699.514	-200.000	-0.001	-0.062
-698.499	-34.377	-0.150	-0.084
-697.485	307.107	0.203	-0.386
-696.470	-100.310	-0.185	-0.047
-695.456	-66.733	-0.118	-0.048
-694.441	-16.608	-0.241	-0.155
-693.426	-168.838	-0.409	0.016
-692.412	-85.496	0.082	-0.026
-691.397	-19.489	0.031	-0.020
-690.383	-27.831	0.087	0.051
-689.368	-81.401	0.313	0.105
-688.354	412.530	-0.103	-0.223
-687.339	-112.143	0.172	-0.035
-686.324	800.000	0.035	0.144
-685.310	159.835	-0.093	-0.132
-684.295	-82.809	0.138	0.045
-683.281	-200.000	0.013	0.240
-682.266	21.602	0.128	-0.106
-681.251	800.000	0.132	0.421
-680.237	206.069	0.164	0.259
-679.222	-154.582	-0.198	-0.013
-678.208	33.433	-0.141	-0.125
-677.193	-200.000	0.002	-0.303
-676.178	0.306	0.264	-0.192
-675.164	-31.370	-0.170	-0.097
-674.149	87.247	0.079	0.089
-673.135	-133.999	0.186	-0.023
-672.120	89.201	-0.111	0.126
-671.105	-142.675	-0.096	-0.010
-670.091	162.120	0.203	-0.290
-669.076	358.656	0.106	-0.215
-668.062	-159.889	-0.206	-0.011
-667.047	-200.000	0.003	-0.281
-666.032	-73.056	-0.100	0.037
-665.018	92.711	0.406	-0.466
-664.003	-171.454	0.283	-0.010
-662.989	-200.000	-0.008	0.251
-661.974	-156.197	-0.073	-0.005
-660.959	254.722	-0.171	-0.298
-659.945	71.511	-0.354	-0.373
-658.930	17.247	-0.133	0.107
-657.916	212.785	-0.071	0.114
-656.901	141.454	0.127	-0.171
-655.886	-101.542	-0.165	0.041
-654.872	263.054	-0.151	0.266
-653.857	78.036	-0.149	-0.161
-652.843	-108.177	-0.176	0.039
-651.828	203.451	-0.075	0.119
-650.814	-46.166	0.153	0.077
-649.799	-67.080	-0.150	0.060
-648.784	-186.293	-0.551	-0.008
-647.770	-200.000	-0.031	0.421
-646.755	29.419	0.169	-0.146
-645.741	279.470	-0.113	-0.204
-644.726	-93.120	-0.215	-0.061
-643.711	-200.000	-0.045	0.223
-642.697	-86.896	0.329	-0.102
-641.682	-102.030	-0.562	0.138
-640.668	325.182	0.040	-0.078
-639.653	332.116	0.156	-0.305
-638.638	-89.908	-0.176	0.052
-637.624	8.927	0.252	-0.193
-636.609	-43.231	0.192	0.099
-635.595	169.148	-0.130	-0.189
-634.580	-36.857	0.041	-0.022
-633.565	-68.849	-0.252	-0.099
-632.551	-200.000	-0.039	0.322
-631.536	144.095	0.221	0.299
-630.522	-131.971	-0.350	0.046
-629.507	-128.354	0.321	0.046
-628.492	-113.404	-0.332	-0.066
-627.478	100.464	0.233	-0.274
-626.463	282.824	0.151	0.275
-625.449	-46.046	-0.385	-0.192
-624.434	-200.000	0.019	-0.221
-623.419	800.000	0.016	-0.048
-622.405	-152.902	-0.266	0.019
-621.390	-200.000	0.008	0.156
-620.376	800.000	-0.036	0.127
-619.361	800.000	-0.083	-0.245
-618.346	325.837	0.076	-0.147
-617.332	108.051	0.172	-0.208
-616.317	122.787	0.127	0.161
-615.303	800.000	-0.086	0.247
-614.288	-109.168	-0.228	-0.049
-613.273	-200.000	-0.004	0.158
-612.259	-200.000	-0.022	-0.208
-611.244	-77.540	0.482	-0.169
-610.230	26.149	0.157	-0.133
-609.215	800.000	0.045	-0.155
-608.201	800.000	-0.034	-0.139
-607.186	-82.059	-0.242	0.080
-606.171	-200.000	-0.017	-0.373
-605.157	-5.529	0.039	-0.027
-604.142	43.440	-0.018	-0.017
-603.128	-24.905	-0.227	-0.136
-602.113	-52.098	0.157	0.074
-601.098	-152.765	0.240	-0.017
-600.084	57.291	-0.201	0.199
-599.069	-200.000	-0.001	0.280
-598.055	40.831	-0.165	-0.151
-597.040	-30.937	0.267	-0.153
-596.025	-200.000	0.024	0.213
-595.011	286.256	0.081	0.149
-593.996	-24.747	0.089	-0.054
-592.982	-7.810	-0.242	-0.166
-591.967	548.318	0.071	-0.172
-590.952	429.536	-0.078	0.171
-589.938	-74.189	-0.153	-0.056
-588.923	460.665	0.182	-0.412
-587.909	159.044	0.098	0.139
-586.894	800.000	0.040	-0.151
-585.879	-105.233	-0.214	-0.050
-584.865	194.709	-0.117	0.179
-583.850	-48.243	0.031	-0.015
-582.836	-96.267	0.194	0.052
-581.821	18.377	-0.117	0.095
-580.806	701.163	0.101	0.270
-579.792	213.960	0.116	0.185
-578.777	491.970	-0.121	0.281
-577.763	73.278	0.303	0.321
-576.748	10.819	0.121	0.093
-575.733	62.507	0.146	0.147
-574.719	800.000	-0.040	0.120
-573.704	-200.000	0.002	-0.206
-572.690	-200.000	-0.051	0.349
-571.675	150.297	-0.271	0.373
-570.661	-200.000	0.011	0.315
-569.646	-172.200	0.107	0.003
-568.631	-68.196	-0.300	-0.118
-567.617	-67.817	-0.314	-0.124
-566.602	59.923	-0.107	0.107
-565.588	166.669	0.089	-0.128
-564.573	-200.000	0.017	-0.188
-563.558	-139.729	-0.154	-0.017
-562.544	-103.212	0.336	0.080
-561.529	-12.979	0.204	-0.134
-560.515	-200.000	-0.090	-0.442
-559.500	-70.343	-0.194	0.075
-558.485	140.413	-0.125	-0.166
-557.471	360.416	0.179	-0.363
-556.456	-200.000	-0.000	-0.027
-555.442	-129.650	-0.232	-0.032
-554.427	-142.223	0.256	0.026
-553.412	-146.319	-0.118	-0.010
-552.398	-72.230	-0.307	0.115
-551.383	800.000	-0.007	-0.023
-550.369	-117.629	0.411	-0.075
-549.354	17.930	0.239	-0.193
-548.339	42.636	0.200	0.184
-547.325	800.000	-0.082	-0.232
-546.310	316.635	-0.147	0.280
-545.296	-200.000	0.038	0.444
-544.281	-200.000	-0.007	0.425
-543.266	316.032	0.073	-0.140
-542.252	81.572	-0.137	0.150
-541.237	-75.843	-0.134	0.048
-540.223	-15.053	0.302	-0.196
-539.208	17.831	0.143	-0.115
-538.193	50.933	-0.335	-0.321
-537.179	26.345	0.111	0.094
-536.164	-6.673	-0.241	0.166
-535.150	41.791	0.183	0.167
-534.135	73.276	0.097	-0.103
-533.121	336.562	0.302	-0.594
-532.106	96.756	-0.233	-0.270
-531.091	-146.545	0.139	0.012
-530.077	-200.000	-0.026	-0.142
-529.062	-200.000	0.004	-0.224
-528.048	-99.869	-0.266	-0.067
-527.033	-200.000	0.076	-0.661
-526.018	141.488	-0.185	0.247
-525.004	118.293	-0.149	0.186
-523.989	78.142	-0.264	-0.285
-522.975	124.691	0.121	0.155
-521.960	800.000	0.063	0.211
-520.945	21.360	0.245	0.201
-519.931	40.495	-0.111	-0.101
-518.916	-96.515	-0.427	-0.114
-517.902	187.980	0.095	0.143
-516.887	246.403	-0.131	-0.223
-515.872	-200.000	0.047	-0.211
-514.858	-106.276	-0.123	-0.028
-513.843	-33.296	-0.172	0.096
-512.829	-200.000	-0.070	0.459
-511.814	-200.000	0.003	0.151
-510.799	-200.000	-0.016	0.225
-509.785	-21.834	-0.074	0.046
-508.770	727.496	0.113	-0.305
-507.756	624.038	0.087	0.223
-506.741	-200.000	0.007	0.279
-505.726	-75.460	0.262	-0.094
-504.712	-100.048	0.088	0.022
-503.697	800.000	0.138	0.424
-502.683	-128.514	0.042	0.006
-501.668	-115.264	-0.094	-0.018
-500.653	800.000	-0.098	-0.287
-499.639	-67.907	0.177	-0.070
-498.624	564.099	0.086	-0.211
-497.610	41.319	-0.204	-0.187
-496.595	-19.840	0.379	-0.236
-495.581	211.837	-0.112	0.179
-494.566	271.024	0.032	-0.057
-493.551	41.295	-0.116	-0.106
-492.537	-200.000	-0.028	0.233
-491.522	-159.661	-0.421	-0.024
-490.508	72.514	0.239	0.251
-489.493	-108.272	0.338	0.074
-488.478	-103.055	-0.343	0.082
-487.464	113.985	-0.118	-0.145
-486.449	-187.273	0.103	-0.001
-485.435	-178.534	0.378	-0.009
-484.420	-11.357	0.132	-0.088
-483.405	100.501	-0.108	0.127
-482.391	-200.000	-0.009	-0.209
-481.376	-135.071	-0.161	-0.020
-480.362	-184.110	0.270	-0.005
-479.347	-200.000	0.000	-0.104
-478.332	-200.000	0.074	0.495
-477.318	-200.000	-0.010	-0.118
-476.303	-90.995	-0.268	-0.078
-475.289	-134.971	-0.205	-0.025
-474.274	-78.256	0.097	-0.034
-473.259	-200.000	0.012	-0.329
-472.245	20.340	0.342	0.278
-471.230	-169.880	-0.080	-0.003
-470.216	-170.681	0.006	-0.000
-469.201	-34.844	0.073	-0.040
-468.186	-110.799	-0.294	0.061
-467.172	30.247	0.106	-0.091
-466.157	-200.000	0.005	-0.121
-465.143	-98.173	-0.360	0.093
-464.128	45.802	0.298	0.278
-463.113	129.584	0.057	-0.073
-462.099	-42.104	0.099	0.051
-461.084	-16.780	0.185	-0.118
-460.070	-200.000	0.041	-0.194
-459.055	-78.140	-0.279	0.097
-458.040	173.349	0.160	0.233
-457.026	128.618	0.081	-0.104
-456.011	-14.235	0.150	-0.098
-454.997	-124.178	0.285	0.045
-453.982	800.000	0.170	0.475
-452.968	245.594	0.099	-0.169
-451.953	-144.779	-0.340	-0.031
-450.938	-33.271	-0.400	-0.223
-449.924	4.433	-0.194	0.143
-448.909	-200.000	0.005	0.138
-447.895	-100.559	0.153	-0.038
-446.880	-65.696	0.259	0.105
-445.865	443.540	-0.063	0.140
-444.851	27.775	0.198	0.168
-443.836	-20.178	0.124	0.077
-442.822	228.271	-0.061	-0.100
-441.807	68.331	0.150	-0.155
-440.792	-200.000	-0.059	-0.331
-439.778	-160.021	-0.234	-0.013
-438.763	80.147	0.140	-0.151
-437.749	800.000	-0.018	0.065
-436.734	-164.518	0.128	0.006
-435.719	173.414	-0.143	0.208
-434.705	-200.000	0.003	-0.140
-433.690	-125.831	0.172	0.026
-432.676	-132.085	-0.195	0.025
-431.661	-12.160	0.221	0.146
-430.646	-90.360	-0.162	0.047
-429.632	-64.481	0.141	0.058
-428.617	800.000	-0.115	-0.322
-427.603	61.646	0.177	-0.177
-426.588	-97.740	0.218	-0.057
-425.573	111.156	-0.200	-0.243
-424.559	-175.180	0.258	-0.007
-423.544	-137.932	0.257	0.029
-422.530	11.773	-0.173	-0.134
-421.515	242.381	0.192	0.323
-420.500	-50.477	-0.267	0.127
-419.486	158.304	0.082	0.114
-418.471	-200.000	-0.059	0.266
-417.457	-156.349	-0.270	0.017
-416.442	-13.948	-0.099	-0.065
-415.428	152.791	-0.178	-0.245
-414.413	127.349	-0.066	0.084
-413.398	-11.602	-0.524	0.347
-412.384	-71.702	0.325	0.122
-411.369	-200.000	-0.031	0.224
-410.355	11.278	0.032	0.025
-409.340	97.316	0.086	-0.099
-408.325	-164.374	-0.137	0.006
-407.311	-200.000	-0.030	0.257
-406.296	54.729	0.213	0.207
-405.282	678.178	-0.127	-0.332
-404.267	321.658	-0.140	-0.268
-403.252	239.890	0.061	-0.102
-402.238	-200.000	0.021	-0.311
-401.223	-200.000	0.039	0.217
-400.209	-118.445	-0.233	-0.042
-399.194	800.000	-0.019	0.064
-398.179	-111.433	-0.160	0.033
-397.165	410.783	-0.094	0.201
-396.150	-12.573	0.195	0.128
-395.136	42.520	0.175	0.161
-394.121	-50.993	-0.194	-0.092
-393.106	-200.000	0.018	-0.228
-392.092	-52.546	0.090	-0.042
-391.077	-200.000	0.021	-0.170
-390.063	-146.105	0.132	0.012
-389.048	-134.297	-0.110	-0.014
-388.033	108.150	-0.137	0.165
-387.019	800.000	-0.137	-0.474
-386.004	-131.897	-0.315	0.041
-384.990	-77.971	-0.372	0.129
-383.975	91.301	-0.041	-0.047
-382.960	-200.000	0.001	0.039
-381.946	800.000	-0.097	0.277
-380.931	800.000	-0.037	0.157
-379.917	-82.131	-0.088	0.029
-378.902	218.418	0.164	0.263
-377.888	150.691	-0.091	0.124
-376.873	96.125	0.132	-0.151
-375.858	-119.684	-0.295	-0.051
-374.844	88.005	0.216	-0.241
-373.829	32.172	0.337	-0.293
-372.815	-100.391	-0.263	-0.065
-371.800	-91.821	0.309	0.088
-370.785	-47.404	0.330	0.161
-369.771	800.000	0.040	0.161
-368.756	-200.000	0.062	-0.323
-367.742	-200.000	-0.040	0.397
-366.727	800.000	0.046	-0.170
-365.712	116.852	-0.096	-0.118
-364.698	3.031	-0.194	-0.142
-363.683	-101.868	0.047	-0.011
-362.669	-200.000	-0.025	0.132
-361.654	-198.638	-0.300	-0.002
-360.639	361.457	0.132	0.265
-359.625	-200.000	-0.007	-0.165
-358.610	29.691	-0.030	0.025
-357.596	800.000	-0.152	0.455
-356.581	26.115	-0.163	-0.137
-355.566	215.369	0.053	-0.085
-354.552	-200.000	-0.046	-0.201
-353.537	425.391	-0.125	0.270
-352.523	65.555	0.079	0.080
-351.508	-189.705	0.289	-0.003
-350.493	-112.369	0.340	0.068
-349.479	4.231	-0.111	-0.082
-348.464	-15.019	-0.240	0.154
-347.450	111.854	-0.169	0.205
-346.435	-1.634	-0.365	-0.258
-345.420	111.677	-0.091	0.110
-344.406	-106.138	-0.093	-0.021
-343.391	-159.305	-0.096	-0.005
-342.377	-67.219	0.022	-0.009
-341.362	800.000	0.058	-0.238
-340.348	-34.464	0.160	-0.088
-339.333	-142.808	-0.202	0.020
-338.318	-68.527	0.337	0.131
-337.304	-200.000	-0.065	-0.322
-336.289	-200.000	0.025	-0.325
-335.275	-20.938	0.120	0.073
-334.260	-200.000	-0.007	-0.324
-333.245	-190.554	0.311	0.003
-332.231	59.025	0.151	-0.149
-331.216	271.871	0.196	0.346
-330.202	82.650	0.127	0.138
-329.187	-110.550	-0.199	-0.041
-328.172	379.004	0.089	-0.182
-327.158	-105.302	0.269	-0.062
-326.143	87.991	0.164	-0.182
-325.129	-102.850	0.195	0.046
-324.114	-80.318	-0.131	-0.044
-323.099	104.269	-0.068	-0.080
-322.085	-156.916	-0.233	-0.014
-321.070	800.000	0.025	-0.085
-320.056	24.595	-0.162	0.134
-319.041	-200.000	0.011	-0.198
-318.026	800.000	0.026	-0.096
-317.012	-56.267	0.416	0.186
-315.997	187.733	0.177	-0.264
-314.983	3.570	0.060	0.044
-313.968	800.000	-0.083	0.336
-312.953	197.198	0.012	0.018
-311.939	-57.495	0.265	-0.116
-310.924	-85.934	-0.087	0.027
-309.910	-90.681	0.168	0.049
-308.895	-200.000	0.025	-0.228
-307.880	591.648	0.097	0.240
-306.866	34.261	0.128	-0.112
-305.851	-112.592	-0.223	0.044
-304.837	365.608	-0.194	0.392
-303.822	-200.000	0.012	0.230
-302.807	-200.000	0.053	0.471
-301.793	800.000	0.129	0.358
-300.778	-200.000	-0.023	-0.385
-299.764	-34.899	-0.419	-0.229
-298.749	101.079	-0.182	-0.212
-297.735	41.503	0.093	0.084
-296.720	117.287	-0.264	0.325
-295.705	-104.435	-0.269	0.062
-294.691	710.999	-0.078	-0.206
-293.676	-93.206	0.093	-0.026
-292.662	-200.000	0.009	-0.053
-291.647	-200.000	0.061	-0.336
-290.632	493.696	0.183	-0.421
-289.618	62.654	-0.208	0.208
-288.603	-200.000	-0.007	-0.288
-287.589	-200.000	-0.020	0.131
-286.574	714.014	0.085	-0.225
-285.559	-144.733	-0.096	-0.009
-284.545	677.997	0.025	-0.065
-283.530	-200.000	0.016	-0.398
-282.516	10.875	-0.073	0.056
-281.501	-104.590	-0.295	0.068
-280.486	-200.000	0.314	-0.000
-279.472	182.836	0.070	-0.103
-278.457	245.625	0.128	-0.216
-277.443	170.133	-0.115	0.165
-276.428	800.000	0.071	-0.247
-275.413	-47.347	-0.224	0.109
-274.399	-200.000	-0.044	-0.200
-273.384	-8.922	-0.329	-0.221
-272.370	-103.577	-0.147	-0.035
-271.355	-66.417	-0.127	0.050
-270.340	228.185	0.091	0.148
-269.326	-54.588	0.066	0.030
-268.311	-190.155	0.182	0.002
-267.297	-126.755	0.287	-0.042
-266.282	-143.443	-0.321	-0.031
-265.267	273.356	0.063	0.111
-264.253	-39.394	0.287	-0.151
-263.238	-200.000	0.056	0.286
-262.224	338.570	-0.134	-0.260
-261.209	-200.000	-0.009	-0.224
-260.195	213.929	0.027	0.042
-259.180	-7.443	-0.203	-0.137
-258.165	-200.000	-0.008	0.079
-257.151	-84.262	0.585	-0.185
-256.136	100.031	-0.237	0.275
-255.122	-91.016	0.090	-0.026
-254.107	-200.000	-0.017	0.106
-253.092	764.404	0.030	0.082
-252.078	-81.521	0.463	0.152
-251.063	-118.958	-0.287	0.050
-250.049	165.570	0.243	0.343
-249.034	800.000	-0.046	-0.142
-248.019	19.344	0.088	0.070
-247.005	800.000	0.048	0.195
-245.990	153.188	0.094	0.129
-244.976	-143.124	0.381	-0.037
-243.961	-55.378	0.199	0.089
-242.946	707.996	0.021	-0.055
-241.932	326.976	-0.120	0.229
-240.917	-200.000	-0.094	-0.564
-239.903	-94.724	-0.263	-0.071
-238.888	41.431	0.123	-0.112
-237.873	-60.703	-0.065	-0.028
-236.859	-200.000	-0.009	0.126
-235.844	-200.000	0.015	-0.105
-234.830	-128.357	-0.207	-0.029
-233.815	-55.686	-0.350	-0.156
-232.800	615.645	0.024	0.060
-231.786	800.000	-0.058	-0.176
-230.771	134.901	0.135	0.175
-229.757	-26.692	-0.098	-0.058
-228.742	2.116	0.210	0.152
-227.727	530.719	-0.078	-0.184
-226.713	-79.532	0.211	0.071
-225.698	-41.284	0.058	0.030
-224.684	-200.000	0.023	0.253
-223.669	89.336	-0.018	-0.020
-222.655	229.905	-0.117	0.191
-221.640	800.000	-0.037	0.113
-220.625	5.459	-0.148	-0.109
-219.611	89.384	0.109	0.121
-218.596	-104.207	0.177	-0.041
-217.582	233.866	0.252	0.415
-216.567	-65.104	-0.275	-0.111
-215.552	-85.614	-0.166	0.051
-214.538	191.663	-0.012	0.018
-213.523	97.624	-0.106	-0.122
-212.509	120.367	0.121	0.150
-211.494	211.899	0.065	0.102
-210.479	-103.834	0.460	0.107
-209.465	184.040	-0.046	-0.068
-208.450	-68.791	0.316	-0.122
-207.436	150.424	-0.035	0.048
-206.421	-200.000	-0.026	-0.136
-205.406	-166.269	0.175	0.007
-204.392	205.608	-0.077	-0.120
-203.377	-108.007	0.425	0.092
-202.363	75.331	0.123	0.129
-201.348	126.555	0.236	-0.298
-200.333	81.912	-0.183	0.198
-199.319	-200.000	0.022	0.183
-198.304	13.169	0.280	0.216
-197.290	-114.786	0.169	-0.032
-196.275	81.874	-0.085	0.091
-195.260	413.136	0.067	-0.143
-194.246	-72.807	-0.058	-0.021
-193.231	341.205	-0.043	-0.084
-192.217	-200.000	-0.022	0.164
-191.202	-30.614	-0.277	0.156
-190.187	-15.764	-0.151	0.096
-189.173	-57.298	-0.316	0.139
-188.158	123.045	-0.147	-0.183
-187.144	-7.409	0.209	0.141
-186.129	800.000	-0.054	-0.214
-185.114	-100.758	-0.263	-0.065
-184.100	-76.731	0.306	-0.107
-183.085	-109.719	-0.176	-0.037
-182.071	346.086	0.057	0.111
-181.056	-17.984	0.142	0.089
-180.042	-0.637	-0.252	-0.178
-179.027	800.000	-0.046	0.140
-178.012	-98.102	-0.204	-0.052
-176.998	-200.000	-0.013	-0.300
-175.983	-200.000	-0.027	-0.246
-174.969	241.131	-0.124	-0.206
-173.954	-58.103	-0.182	-0.079
-172.939	7.873	0.159	-0.119
-171.925	668.677	0.045	-0.115
-170.910	-200.000	0.002	-0.126
-169.896	-147.844	-0.269	-0.022
-168.881	-200.000	0.032	0.156
-167.866	800.000	-0.016	0.045
-166.852	-127.338	0.221	0.032
-165.837	-46.165	-0.333	0.164
-164.823	-114.767	0.162	0.031
-163.808	-25.599	0.117	0.069
-162.793	-86.510	0.238	0.073
-161.779	225.809	0.091	0.147
-160.764	3.363	0.100	0.073
-159.750	800.000	-0.090	0.325
-158.735	210.988	-0.055	0.087
-157.720	217.489	-0.047	-0.075
-156.706	91.367	-0.052	-0.058
-155.691	275.446	0.051	0.090
-154.677	146.189	0.064	-0.085
-153.662	-156.047	-0.234	0.015
-152.647	60.895	0.409	0.405
-151.633	-75.393	0.071	-0.025
-150.618	39.488	0.142	-0.126
-149.604	27.174	-0.143	-0.120
-148.589	93.348	-0.185	0.208
-147.574	-104.188	0.286	-0.066
-146.560	160.394	-0.075	0.104
-145.545	-24.804	0.055	-0.033
-144.531	67.987	0.162	-0.165
-143.516	-193.885	-0.437	-0.004
-142.502	-200.000	-0.011	0.145
-141.487	-79.794	-0.211	0.071
-140.472	-28.763	-0.234	-0.134
-139.458	-11.651	-0.288	-0.188
-138.443	-94.272	-0.118	0.032
-137.429	196.851	-0.221	0.335
-136.414	17.978	0.276	-0.219
-135.399	-200.000	-0.026	-0.153
-134.385	-200.000	0.021	-0.121
-133.370	-23.021	-0.206	0.124
-132.356	-17.165	0.190	-0.119
-131.341	-45.652	0.255	0.126
-130.326	-200.000	-0.070	-0.309
-129.312	-12.888	0.245	0.159
-128.297	89.633	0.253	-0.281
-127.283	106.596	0.070	0.082
-126.268	-98.635	-0.188	0.048
-125.253	-200.000	0.008	-0.130
-124.239	-149.292	0.138	0.011
-123.224	268.248	-0.138	-0.241
-122.210	-200.000	-0.009	0.201
