DTS Sentinel unit serial number:	SN413079Multiplexer serial number:	ORYXHardware model number:	OX4-SRSoftware version number:	ORYX F/W v4.00 Oryx Data Collector v3.7.2.0data status	okinstallation	princeton_trtdifferential loss correction	single-endedforward channel	channel 1reverse channel	N/Adate	2019/09/18time	20:30:35forward acquisition time	60.00reverse acquisition time	0.00gamma	496.2192k internal	0.2335k external	0.2335temperature offset calibration	1.0027default loss term (dB/km)	0.3790temperature slope calibration	1.0000multiplexer offset coefficient	1.0000multiplexer slope coefficient	1.0000fibre end	0.00T internal ref (°C)	28.25T ext. ref 1 (°C)	0.93T ext. ref 2 (°C)	19.12length (m)	temperature (°C)	Stokes	anti-Stokes-747.200	77.189	-0.205	-0.219
-746.185	-182.000	-0.291	-0.006
-745.171	-86.133	-0.232	0.072
-744.156	-172.598	0.273	-0.009
-743.142	-200.000	0.052	0.394
-742.127	-200.000	-0.010	0.110
-741.112	800.000	-0.056	-0.216
-740.098	209.975	-0.179	0.283
-739.083	-34.234	0.320	0.176
-738.069	-200.000	0.003	0.147
-737.054	194.804	-0.105	0.160
-736.039	-200.000	-0.040	-0.226
-735.025	-29.309	0.395	0.227
-734.010	-148.204	0.200	0.017
-732.996	155.353	-0.122	-0.168
-731.981	20.625	0.064	-0.052
-730.966	205.325	0.300	-0.469
-729.952	-142.933	-0.213	0.021
-728.937	-179.165	-0.197	-0.004
-727.923	634.236	-0.058	-0.148
-726.908	440.603	-0.012	-0.027
-725.894	799.278	-0.093	0.257
-724.879	-101.565	-0.409	-0.100
-723.864	-55.055	-0.298	-0.135
-722.850	-200.000	-0.057	-0.281
-721.835	-70.339	0.235	0.090
-720.821	80.901	-0.233	0.253
-719.806	110.939	0.113	-0.136
-718.791	-90.493	-0.434	0.126
-717.777	-106.668	-0.205	0.046
-716.762	-200.000	-0.022	-0.142
-715.748	-15.184	0.138	-0.089
-714.733	800.000	-0.046	0.186
-713.718	-15.294	0.202	0.130
-712.704	594.030	0.044	-0.110
-711.689	16.129	-0.096	-0.076
-710.675	314.718	0.175	-0.331
-709.660	294.282	-0.118	0.216
-708.645	526.920	-0.125	0.295
-707.631	-200.000	-0.064	-0.361
-706.616	-73.935	0.285	0.104
-705.602	-130.121	-0.205	0.028
-704.587	121.410	-0.199	-0.249
-703.572	240.193	0.156	-0.261
-702.558	-200.000	-0.057	-0.304
-701.543	27.773	0.185	0.157
-700.529	-79.885	0.273	0.092
-699.514	-200.000	-0.002	0.016
-698.499	-96.358	0.230	-0.061
-697.485	17.676	-0.125	-0.100
-696.470	115.441	-0.185	0.226
-695.456	-129.114	0.258	-0.036
-694.441	143.184	0.271	0.362
-693.426	799.434	-0.018	-0.050
-692.412	-13.409	0.103	0.067
-691.397	154.583	0.107	0.147
-690.383	182.883	0.187	-0.277
-689.368	800.000	-0.041	-0.133
-688.354	-135.903	0.110	-0.013
-687.339	-23.181	-0.437	-0.264
-686.324	109.355	-0.159	-0.191
-685.310	-133.190	0.124	0.016
-684.295	223.349	-0.117	-0.188
-683.281	800.000	0.053	-0.208
-682.266	800.000	-0.060	0.254
-681.251	27.425	-0.061	0.052
-680.237	-200.000	0.018	0.211
-679.222	-72.949	-0.167	-0.062
-678.208	-200.000	-0.016	0.240
-677.193	-200.000	0.010	0.289
-676.178	-200.000	0.022	-0.186
-675.164	800.000	0.095	-0.380
-674.149	-107.575	-0.200	-0.044
-673.135	94.051	0.023	-0.026
-672.120	85.321	-0.131	-0.144
-671.105	800.000	0.119	-0.429
-670.091	7.549	0.263	-0.197
-669.076	149.070	0.243	-0.329
-668.062	47.762	0.020	-0.018
-667.047	205.869	-0.140	-0.218
-666.032	-200.000	0.001	0.010
-665.018	624.970	-0.127	0.320
-664.003	-20.945	0.386	-0.237
-662.989	-139.416	0.265	-0.028
-661.974	800.000	0.058	0.227
-660.959	-78.472	-0.265	-0.091
-659.945	-10.293	0.284	0.189
-658.930	157.372	-0.099	0.137
-657.916	-200.000	-0.017	-0.272
-656.901	217.161	-0.089	-0.141
-655.886	800.000	0.105	0.320
-654.872	-61.612	0.087	0.037
-653.857	-44.531	-0.193	-0.097
-652.843	40.031	-0.123	0.111
-651.828	537.433	-0.041	-0.097
-650.814	-200.000	0.024	0.461
-649.799	527.668	0.094	-0.223
-648.784	650.138	-0.130	-0.332
-647.770	40.026	-0.095	0.086
-646.755	800.000	0.067	-0.254
-645.741	-200.000	0.055	-0.366
-644.726	56.099	-0.134	-0.130
-643.711	-200.000	-0.027	0.211
-642.697	-165.043	0.184	-0.008
-641.682	-117.801	-0.175	-0.031
-640.668	37.726	-0.112	-0.099
-639.653	-9.214	-0.225	-0.150
-638.638	87.255	0.262	-0.290
-637.624	-200.000	-0.046	-0.361
-636.609	-200.000	-0.017	0.143
-635.595	-104.824	-0.229	0.053
-634.580	44.830	-0.115	-0.106
-633.565	108.156	0.251	-0.300
-632.551	19.887	-0.072	-0.058
-631.536	124.384	-0.080	-0.101
-630.522	800.000	0.053	0.177
-629.507	152.897	-0.108	-0.147
-628.492	-200.000	0.014	-0.139
-627.478	-66.497	0.278	-0.110
-626.463	-47.799	-0.200	0.097
-625.449	-92.170	-0.132	-0.037
-624.434	800.000	0.025	0.077
-623.419	-164.565	0.056	0.003
-622.405	275.629	-0.078	0.138
-621.390	85.491	-0.129	0.142
-620.376	800.000	-0.072	0.219
-619.361	800.000	-0.009	0.031
-618.346	800.000	-0.024	0.091
-617.332	94.223	0.208	0.236
-616.317	-200.000	-0.053	0.338
-615.303	486.483	0.083	0.190
-614.288	266.632	-0.181	0.317
-613.273	800.000	-0.071	-0.205
-612.259	-24.156	-0.298	0.178
-611.244	800.000	0.078	0.230
-610.230	-200.000	0.042	0.237
-609.215	-200.000	0.026	0.124
-608.201	-116.236	-0.210	-0.039
-607.186	-52.977	-0.213	-0.098
-606.171	-86.350	-0.036	-0.011
-605.157	-200.000	-0.001	0.048
-604.142	-200.000	-0.039	-0.242
-603.128	-41.735	-0.114	0.058
-602.113	-8.104	-0.093	0.063
-601.098	-57.354	0.006	0.003
-600.084	-128.502	0.280	0.040
-599.069	-90.462	-0.093	0.027
-598.055	-41.850	0.225	-0.115
-597.040	414.091	-0.065	-0.138
-596.025	-200.000	-0.011	-0.138
-595.011	-92.240	0.337	0.095
-593.996	-200.000	0.003	-0.083
-592.982	-200.000	0.038	-0.202
-591.967	121.949	-0.022	-0.027
-590.952	93.595	-0.253	-0.286
-589.938	790.425	-0.056	0.154
-588.923	24.859	0.195	-0.161
-587.909	-200.000	-0.013	-0.287
-586.894	-200.000	-0.005	0.195
-585.879	102.836	0.170	0.199
-584.865	-74.546	-0.132	-0.048
-583.850	-32.937	-0.143	0.079
-582.836	-5.234	0.222	-0.152
-581.821	-131.389	-0.355	0.047
-580.806	-61.099	-0.059	-0.025
-579.792	51.410	0.187	-0.177
-578.777	-52.074	0.200	-0.093
-577.763	-93.377	0.205	0.057
-576.748	-27.837	-0.190	-0.110
-575.733	-148.290	0.431	0.035
-574.719	-146.289	-0.098	-0.009
-573.704	-200.000	-0.000	-0.036
-572.690	324.959	-0.102	-0.195
-571.675	-13.858	-0.212	-0.137
-570.661	-200.000	-0.013	-0.092
-569.646	194.969	-0.090	-0.136
-568.631	-200.000	-0.003	-0.223
-567.617	-78.591	0.329	-0.112
-566.602	-200.000	0.010	-0.047
-565.588	-200.000	0.030	0.163
-564.573	131.779	-0.221	0.283
-563.558	242.753	-0.102	-0.171
-562.544	40.635	0.246	0.221
-561.529	800.000	-0.038	-0.148
-560.515	139.302	-0.105	0.138
-559.500	800.000	-0.083	-0.327
-558.485	675.810	0.103	0.266
-557.471	191.824	-0.108	0.163
-556.456	84.932	-0.108	0.118
-555.442	23.164	0.082	0.067
-554.427	-48.300	0.140	-0.067
-553.412	65.403	0.155	0.157
-552.398	-200.000	-0.068	0.317
-551.383	-91.353	0.422	-0.120
-550.369	-181.391	-0.127	-0.002
-549.354	-200.000	0.052	-0.384
-548.339	-129.506	0.215	0.030
-547.325	-112.180	-0.281	-0.056
-546.310	-103.441	0.263	-0.062
-545.296	800.000	-0.069	-0.237
-544.281	-106.921	0.137	0.030
-543.266	-16.033	-0.155	-0.098
-542.252	-200.000	-0.073	-0.350
-541.237	116.829	-0.334	-0.408
-540.223	464.341	0.143	-0.319
-539.208	209.049	-0.076	-0.118
-538.193	800.000	-0.030	-0.086
-537.179	247.909	-0.145	0.245
-536.164	356.422	-0.156	0.311
-535.150	-58.030	-0.304	0.132
-534.135	616.570	-0.072	0.181
-533.121	800.000	-0.067	-0.263
-532.106	263.854	-0.043	0.075
-531.091	-200.000	-0.033	0.261
-530.077	-4.615	0.257	-0.177
-529.062	-42.571	0.230	-0.117
-528.048	-59.774	0.068	0.029
-527.033	-59.585	0.068	0.029
-526.018	800.000	-0.032	0.138
-525.004	-175.150	0.085	0.002
-523.989	800.000	0.135	0.480
-522.975	40.306	-0.266	-0.238
-521.960	131.518	0.145	0.186
-520.945	654.237	0.143	-0.365
-519.931	-200.000	-0.004	-0.087
-518.916	-20.705	0.164	0.100
-517.902	226.769	-0.166	-0.269
-516.887	-84.000	-0.282	-0.089
-515.872	48.444	-0.295	0.275
-514.858	-200.000	-0.014	-0.212
-513.843	378.917	0.114	0.233
-512.829	-2.087	0.215	-0.150
-511.814	-14.892	-0.222	-0.142
-510.799	-200.000	-0.003	-0.015
-509.785	562.933	0.128	0.308
-508.770	12.185	-0.193	0.148
-507.756	-162.893	-0.068	0.003
-506.741	76.311	-0.140	-0.148
-505.726	86.201	0.204	-0.224
-504.712	499.866	0.039	-0.089
-503.697	-113.758	-0.119	0.023
-502.683	-47.511	0.185	0.090
-501.668	49.784	0.071	-0.067
-500.653	-200.000	0.015	0.066
-499.639	64.529	-0.095	-0.095
-498.624	-200.000	0.024	0.312
-497.610	7.112	-0.277	-0.206
-496.595	800.000	-0.074	0.250
-495.581	242.567	0.268	-0.446
-494.566	144.593	-0.177	-0.235
-493.551	236.324	-0.122	-0.200
-492.537	-94.569	-0.116	0.031
-491.522	-123.694	0.226	0.036
-490.508	214.025	-0.142	-0.224
-489.493	-200.000	-0.024	-0.320
-488.478	-200.000	0.025	-0.217
-487.464	-104.148	-0.194	0.045
-486.449	167.726	0.127	-0.179
-485.435	50.573	-0.265	-0.249
-484.420	-99.815	-0.197	-0.049
-483.405	-150.434	-0.185	0.014
-482.391	-37.239	0.164	-0.087
-481.376	-14.996	-0.120	0.076
-480.362	800.000	-0.134	0.433
-479.347	-126.357	0.283	0.042
-478.332	193.572	-0.171	0.257
-477.318	-2.903	-0.045	0.031
-476.303	-132.620	-0.075	-0.010
-475.289	102.843	-0.071	0.083
-474.274	-11.415	0.089	0.058
-473.259	800.000	-0.035	0.120
-472.245	-89.896	0.213	0.062
-471.230	-200.000	0.012	0.065
-470.216	800.000	0.087	-0.245
-469.201	200.095	0.257	0.392
-468.186	291.584	-0.120	0.217
-467.172	-200.000	-0.321	-0.001
-466.157	157.646	0.127	-0.175
-465.143	216.611	0.108	-0.172
-464.128	-68.655	0.081	0.031
-463.113	-91.297	-0.200	0.057
-462.099	140.000	0.167	-0.218
-461.084	295.766	0.064	0.116
-460.070	-140.625	0.220	0.023
-459.055	-78.880	-0.024	-0.008
-458.040	-67.336	-0.290	-0.113
-457.026	147.419	0.139	-0.186
-456.011	-110.381	0.508	0.105
-454.997	-100.411	0.236	0.058
-453.982	-41.452	-0.352	0.180
-452.968	-72.614	0.068	0.025
-451.953	2.244	0.048	-0.035
-450.938	-200.000	-0.042	0.187
-449.924	267.112	-0.089	-0.155
-448.909	-200.000	-0.007	0.119
-447.895	-71.596	0.198	0.073
-446.880	231.862	0.113	0.184
-445.865	-95.091	0.082	-0.022
-444.851	-200.000	-0.021	-0.123
-443.836	-37.909	-0.119	-0.063
-442.822	-132.345	-0.333	0.043
-441.807	-121.052	0.296	-0.049
-440.792	-200.000	-0.015	-0.114
-439.778	-113.924	-0.089	-0.017
-438.763	-139.750	0.341	-0.036
-437.749	319.852	-0.016	-0.030
-436.734	57.414	-0.259	-0.251
-435.719	7.092	0.380	0.281
-434.705	48.270	-0.260	0.242
-433.690	-182.478	-0.449	-0.008
-432.676	199.581	0.272	0.414
-431.661	17.303	-0.150	-0.118
-430.646	-150.192	-0.432	-0.033
-429.632	-200.000	0.035	0.282
-428.617	-200.000	-0.013	0.144
-427.603	-31.451	-0.228	0.127
-426.588	254.528	0.222	-0.377
-425.573	45.830	-0.184	0.169
-424.559	800.000	0.041	0.152
-423.544	44.930	-0.131	0.120
-422.530	134.900	-0.086	-0.111
-421.515	-200.000	0.020	0.091
-420.500	134.396	-0.061	0.079
-419.486	208.372	-0.083	0.128
-418.471	-200.000	0.060	0.276
-417.457	285.603	-0.139	0.249
-416.442	98.472	0.129	0.148
-415.428	-178.860	0.061	-0.001
-414.413	730.463	0.106	0.282
-413.398	-6.835	0.044	0.030
-412.384	-84.093	0.323	-0.102
-411.369	-58.668	-0.162	0.070
-410.355	-200.000	0.004	0.148
-409.340	677.862	0.097	-0.251
-408.325	-200.000	0.018	0.121
-407.311	-29.984	0.115	-0.065
-406.296	49.614	-0.309	0.289
-405.282	800.000	0.058	0.207
-404.267	103.780	-0.246	0.286
-403.252	-64.292	0.232	0.094
-402.238	-57.341	-0.315	-0.137
-401.223	133.150	-0.224	0.287
-400.209	335.075	0.112	0.215
-399.194	261.449	-0.154	0.264
-398.179	-13.089	-0.127	-0.082
-397.165	583.023	-0.045	0.109
-396.150	-42.878	0.112	0.057
-395.136	287.610	-0.104	0.186
-394.121	-158.938	0.176	-0.010
-393.106	-200.000	-0.004	-0.197
-392.092	629.075	-0.068	0.171
-391.077	88.591	0.033	0.036
-390.063	247.394	-0.071	0.119
-389.048	73.951	0.395	-0.411
-388.033	-200.000	0.004	-0.094
-387.019	-109.486	-0.123	0.026
-386.004	-97.755	0.241	0.062
-384.990	-98.122	0.196	-0.050
-383.975	-200.000	-0.025	-0.118
-382.960	-111.366	0.078	0.016
-381.946	-77.357	-0.114	0.039
-380.931	-87.012	-0.481	0.145
-379.917	-43.363	0.372	0.186
-378.902	34.304	-0.260	-0.224
-377.888	-102.603	-0.440	0.104
-376.873	800.000	-0.123	0.524
-375.858	470.004	0.103	-0.229
-374.844	-7.825	-0.125	-0.084
-373.829	-17.463	-0.225	0.140
-372.815	-55.425	-0.299	0.133
-371.800	209.662	0.194	0.302
-370.785	-80.371	-0.116	-0.038
-369.771	-182.893	-0.270	0.005
-368.756	674.349	0.084	0.215
-367.742	152.069	0.145	0.196
-366.727	140.749	-0.173	0.226
-365.712	-156.120	0.200	0.013
-364.698	-86.723	-0.205	-0.062
-363.683	-178.253	-0.017	-0.000
-362.669	-19.740	-0.088	-0.054
-361.654	800.000	-0.042	-0.120
-360.639	-200.000	-0.001	0.290
-359.625	776.888	0.061	0.164
-358.610	-200.000	0.030	0.462
-357.596	24.346	0.152	-0.125
-356.581	-200.000	-0.008	0.120
-355.566	-200.000	0.020	-0.091
-354.552	-200.000	0.017	0.470
-353.537	-120.947	-0.226	-0.038
-352.523	-200.000	-0.005	-0.033
-351.508	800.000	0.096	-0.291
-350.493	87.578	-0.132	0.145
-349.479	66.910	-0.186	0.188
-348.464	800.000	0.059	0.228
-347.450	800.000	-0.058	-0.228
-346.435	29.051	-0.078	-0.066
-345.420	-75.755	-0.180	0.063
-344.406	81.372	0.233	0.249
-343.391	236.293	-0.089	-0.146
-342.377	91.427	0.078	-0.086
-341.362	490.474	-0.031	-0.069
-340.348	800.000	0.060	-0.219
-339.333	-54.783	-0.096	-0.043
-338.318	800.000	-0.092	0.332
-337.304	669.191	-0.071	0.183
-336.289	800.000	-0.068	-0.234
-335.275	-200.000	-0.005	-0.041
-334.260	121.682	0.205	0.253
-333.245	-57.781	-0.192	0.083
-332.231	-138.928	-0.087	-0.009
-331.216	250.765	0.050	-0.083
-330.202	231.279	-0.172	0.279
-329.187	73.174	0.189	0.195
-328.172	781.496	0.011	0.030
-327.158	-93.740	-0.321	-0.088
-326.143	-200.000	-0.008	0.099
-325.129	-44.939	0.183	-0.090
-324.114	800.000	-0.111	0.310
-323.099	133.714	-0.052	-0.066
-322.085	800.000	0.030	0.116
-321.070	240.167	-0.039	-0.064
-320.056	-44.856	-0.307	0.151
-319.041	584.164	0.038	-0.092
-318.026	241.616	0.156	-0.258
-317.012	-96.815	0.258	0.067
-315.997	-84.651	-0.064	0.020
-314.983	100.403	-0.066	-0.075
-313.968	-97.057	0.133	-0.035
-312.953	441.420	0.048	0.104
-311.939	21.576	0.419	-0.337
-310.924	-200.000	0.035	0.237
-309.910	666.990	0.070	-0.179
-308.895	-200.000	0.043	-0.290
-307.880	-29.914	-0.406	-0.228
-306.866	-64.662	0.276	-0.111
-305.851	252.614	0.070	-0.118
-304.837	210.243	0.080	0.125
-303.822	0.247	0.191	-0.134
-302.807	-145.544	0.171	0.015
-301.793	-40.593	0.098	0.050
-300.778	-183.973	-0.397	0.007
-299.764	134.227	0.086	0.110
-298.749	-97.987	0.216	0.055
-297.735	-200.000	0.037	0.164
-296.720	800.000	-0.051	0.169
-295.705	225.809	-0.255	-0.409
-294.691	-96.172	-0.167	0.044
-293.676	-144.465	0.068	0.006
-292.662	-56.391	-0.205	0.090
-291.647	-114.932	0.214	-0.040
-290.632	-93.735	0.096	-0.026
-289.618	0.698	0.202	0.142
-288.603	120.912	-0.113	0.138
-287.589	626.821	0.067	-0.168
-286.574	-51.768	-0.225	-0.104
-285.559	10.198	-0.108	-0.081
-284.545	-57.878	0.091	0.039
-283.530	242.292	0.285	0.470
-282.516	-66.150	-0.165	-0.065
-281.501	42.479	0.194	-0.174
-280.486	-56.862	0.086	0.037
-279.472	35.337	0.168	0.146
-278.457	-200.000	-0.045	-0.232
-277.443	52.675	-0.142	-0.133
-276.428	-106.749	-0.132	-0.029
-275.413	-186.235	0.308	0.004
-274.399	-110.611	0.075	-0.015
-273.384	520.309	-0.096	-0.223
-272.370	-123.380	-0.305	0.048
-271.355	431.990	0.085	-0.181
-270.340	-178.123	0.310	-0.007
-269.326	83.235	-0.060	0.065
-268.311	-46.528	-0.028	0.014
-267.297	367.091	-0.119	-0.238
-266.282	-200.000	0.041	0.359
-265.267	201.154	-0.125	-0.190
-264.253	800.000	0.062	0.239
-263.238	142.554	-0.114	-0.149
-262.224	800.000	-0.116	-0.487
-261.209	-166.953	0.360	0.015
-260.195	467.588	-0.018	0.040
-259.180	-112.598	0.187	0.037
-258.165	-143.400	-0.228	-0.022
-257.151	197.397	0.140	-0.210
-256.136	-51.434	0.121	0.056
-255.122	162.033	0.116	-0.160
-254.107	-200.000	-0.015	-0.102
-253.092	-74.240	-0.328	-0.117
-252.078	198.062	0.083	-0.126
-251.063	84.953	-0.060	-0.065
-250.049	-195.620	-0.150	0.001
-249.034	345.699	0.101	-0.196
-248.019	437.622	-0.072	-0.156
-247.005	-107.389	0.233	0.050
-245.990	102.236	0.183	-0.211
-244.976	187.181	-0.065	0.096
-243.961	-200.000	0.023	-0.321
-242.946	216.473	0.163	0.255
-241.932	217.222	-0.212	-0.333
-240.917	394.305	0.178	-0.364
-239.903	182.833	0.115	0.167
-238.888	-177.182	0.123	-0.003
-237.873	137.032	0.196	-0.252
-236.859	694.934	0.143	-0.371
-235.844	-200.000	-0.027	0.122
-234.830	-200.000	-0.018	0.217
-233.815	-200.000	-0.017	-0.085
-232.800	-189.570	0.160	-0.002
-231.786	25.163	0.235	-0.192
-230.771	-200.000	0.002	-0.114
-229.757	-112.963	0.270	0.053
-228.742	119.147	0.133	0.162
-227.727	-200.000	0.045	-0.297
-226.713	139.797	0.158	-0.205
-225.698	-19.954	0.032	0.019
-224.684	-158.275	0.342	-0.020
-223.669	32.625	-0.099	-0.084
-222.655	54.641	-0.123	0.117
-221.640	800.000	0.067	-0.255
-220.625	800.000	0.025	0.071
-219.611	-140.883	-0.124	-0.013
-218.596	-200.000	0.008	0.190
-217.582	-106.891	-0.253	-0.055
-216.567	-200.000	-0.049	0.392
-215.552	-38.669	-0.086	-0.045
-214.538	800.000	0.088	0.241
-213.523	-200.000	0.013	0.129
-212.509	-85.943	0.093	0.028
-211.494	603.939	0.218	0.535
-210.479	800.000	-0.081	0.344
-209.465	135.390	0.043	0.055
-208.450	107.654	0.173	-0.203
-207.436	269.253	-0.170	-0.293
-206.421	48.061	0.100	-0.092
-205.406	-34.865	0.110	-0.059
-204.392	-200.000	0.010	-0.119
-203.377	233.179	-0.350	0.567
-202.363	800.000	-0.067	-0.203
-201.348	-160.993	0.178	-0.009
-200.333	800.000	-0.053	-0.218
-199.319	165.684	0.121	0.168
-198.304	13.244	-0.023	0.018
-197.290	364.812	0.143	0.283
-196.275	800.000	-0.024	0.099
-195.260	-200.000	0.080	-0.465
-194.246	-82.779	0.119	0.038
-193.231	800.000	0.038	0.129
-192.217	48.098	-0.317	0.292
-191.202	95.376	0.058	-0.065
-190.187	-70.908	-0.177	-0.066
-189.173	87.496	0.097	-0.105
-188.158	-200.000	-0.010	-0.422
-187.144	-200.000	0.015	-0.067
-186.129	-57.913	-0.255	0.110
-185.114	-178.332	0.490	-0.011
-184.100	132.447	0.084	0.106
-183.085	-30.799	0.161	-0.090
-182.071	-200.000	0.005	0.128
-181.056	-77.195	0.165	-0.057
-180.042	-109.503	0.196	-0.041
-179.027	-78.155	-0.423	0.143
-178.012	-121.909	0.170	0.027
-176.998	78.967	0.065	0.069
-175.983	-58.520	-0.366	0.156
-174.969	-75.600	0.278	0.097
-173.954	231.186	-0.122	-0.196
-172.939	95.750	0.136	0.152
-171.925	329.958	0.059	0.112
-170.910	-127.768	-0.097	0.014
-169.896	296.445	-0.119	-0.215
-168.881	234.020	-0.176	-0.285
-167.866	-117.926	0.199	0.035
-166.852	-86.410	0.595	0.180
-165.837	-200.000	0.001	0.033
-164.823	-115.118	-0.412	-0.077
-163.808	-76.116	0.238	0.083
-162.793	16.033	0.260	-0.202
-161.779	158.668	0.063	-0.086
-160.764	156.017	-0.125	-0.169
-159.750	-87.960	0.426	-0.126
-158.735	144.275	0.038	0.050
-157.720	800.000	-0.070	0.199
-156.706	-131.217	-0.217	0.028
-155.691	-200.000	0.007	-0.212
-154.677	-158.212	0.120	0.007
-153.662	113.812	-0.264	-0.315
-152.647	-74.806	0.265	0.093
-151.633	-200.000	-0.004	-0.054
-150.618	-166.296	-0.153	-0.006
-149.604	-44.464	-0.383	-0.188
-148.589	-200.000	0.025	-0.110
-147.574	-8.258	-0.367	-0.243
-146.560	-30.406	0.409	0.228
-145.545	-13.773	0.124	-0.079
-144.531	-200.000	0.004	-0.148
-143.516	-200.000	-0.009	-0.247
-142.502	-179.075	-0.029	0.001
-141.487	53.704	-0.111	0.104
-140.472	67.088	-0.035	-0.035
-139.458	11.105	-0.210	0.157
-138.443	208.761	0.104	0.159
-137.429	-200.000	-0.010	0.140
-136.414	111.820	0.127	-0.150
-135.399	454.357	-0.032	-0.070
-134.385	82.836	-0.134	-0.143
-133.370	-200.000	0.027	0.167
-132.356	800.000	0.090	-0.356
-131.341	-200.000	0.016	-0.169
-130.326	-33.288	-0.227	0.123
-129.312	248.407	-0.227	0.377
-128.297	-6.181	0.199	0.133
-127.283	-200.000	0.059	0.346
-126.268	87.573	0.179	-0.194
-125.253	355.097	-0.140	-0.273
-124.239	-73.882	-0.140	-0.050
-123.224	483.129	-0.139	0.310
-122.210	175.780	0.026	0.037
