DTS Sentinel unit serial number:	SN413079Multiplexer serial number:	ORYXHardware model number:	OX4-SRSoftware version number:	ORYX F/W v4.00 Oryx Data Collector v3.7.2.0data status	okinstallation	princeton_trtdifferential loss correction	single-endedforward channel	channel 1reverse channel	N/Adate	2019/09/10time	16:48:11forward acquisition time	60.00reverse acquisition time	0.00gamma	496.2192k internal	0.2301k external	0.2301temperature offset calibration	0.9924default loss term (dB/km)	0.3790temperature slope calibration	1.0000multiplexer offset coefficient	1.0000multiplexer slope coefficient	1.0000fibre end	0.00T internal ref (°C)	37.66T ext. ref 1 (°C)	-0.29T ext. ref 2 (°C)	31.50length (m)	temperature (°C)	Stokes	anti-Stokes-747.200	143.633	-0.369	0.501
-746.185	800.000	-0.039	-0.171
-745.171	-128.209	-0.305	-0.044
-744.156	290.769	0.097	-0.179
-743.142	248.975	-0.036	0.062
-742.127	173.176	-0.182	-0.267
-741.112	208.627	-0.098	-0.157
-740.098	20.428	-0.317	0.261
-739.083	800.000	0.086	0.298
-738.069	127.110	-0.067	0.086
-737.054	-200.000	0.009	0.186
-736.039	378.665	0.082	-0.171
-735.025	535.442	-0.037	-0.089
-734.010	-112.864	0.089	0.018
-732.996	-20.888	0.106	0.066
-731.981	800.000	0.069	0.309
-730.966	-54.352	-0.392	0.181
-729.952	800.000	-0.094	-0.321
-728.937	169.564	-0.136	-0.198
-727.923	-3.030	0.074	-0.053
-726.908	51.473	-0.139	0.135
-725.894	800.000	-0.143	-0.462
-724.879	400.930	0.057	0.123
-723.864	709.164	-0.134	0.362
-722.850	-178.690	-0.228	0.005
-721.835	289.408	0.035	-0.064
-720.821	97.750	0.212	-0.248
-719.806	-200.000	-0.014	0.340
-718.791	800.000	0.018	-0.064
-717.777	54.773	0.156	0.153
-716.762	8.153	0.102	0.078
-715.748	-59.805	-0.506	0.221
-714.733	5.644	-0.331	-0.249
-713.718	-88.255	-0.340	0.104
-712.704	-144.233	-0.188	-0.018
-711.689	800.000	-0.069	0.236
-710.675	-35.508	0.128	0.071
-709.660	-59.651	0.155	0.068
-708.645	765.520	0.046	0.127
-707.631	166.171	-0.049	-0.070
-706.616	189.047	-0.137	-0.209
-705.602	-32.483	0.163	-0.093
-704.587	-200.000	-0.017	-0.178
-703.572	61.157	-0.067	-0.068
-702.558	-43.771	0.399	0.205
-701.543	-19.153	-0.116	-0.074
-700.529	-190.272	-0.200	-0.002
-699.514	195.769	0.124	0.192
-698.499	103.861	-0.105	0.126
-697.485	-14.841	0.371	0.243
-696.470	-200.000	-0.048	0.246
-695.456	-98.832	-0.433	0.112
-694.441	-18.607	0.261	-0.166
-693.426	-200.000	-0.009	-0.221
-692.412	198.013	-0.108	-0.168
-691.397	418.553	0.119	0.259
-690.383	418.908	-0.102	-0.222
-689.368	66.352	-0.189	-0.196
-688.354	-29.095	-0.275	-0.161
-687.339	-151.156	0.133	-0.010
-686.324	96.069	0.051	0.059
-685.310	312.525	-0.174	-0.333
-684.295	29.389	0.033	-0.029
-683.281	-1.123	0.376	-0.270
-682.266	430.603	-0.082	0.180
-681.251	800.000	0.024	-0.072
-680.237	60.870	0.132	-0.133
-679.222	547.277	-0.083	0.201
-678.208	-66.360	0.162	-0.065
-677.193	800.000	-0.033	-0.121
-676.178	45.949	0.217	-0.204
-675.164	-200.000	-0.032	0.235
-674.149	-200.000	0.001	0.382
-673.135	41.023	0.182	0.167
-672.120	-53.730	0.162	-0.075
-671.105	-66.975	0.173	-0.070
-670.091	-113.350	-0.367	0.073
-669.076	-200.000	-0.008	0.169
-668.062	145.799	0.254	-0.347
-667.047	90.806	0.087	0.099
-666.032	800.000	0.015	-0.045
-665.018	286.238	0.236	-0.433
-664.003	-89.548	0.382	0.114
-662.989	26.890	0.149	0.127
-661.974	97.443	0.064	0.074
-660.959	-200.000	0.047	-0.324
-659.945	197.681	0.162	0.251
-658.930	-76.841	-0.335	-0.119
-657.916	301.123	0.097	-0.181
-656.901	-135.802	-0.319	0.038
-655.886	176.644	-0.260	-0.384
-654.872	800.000	0.028	0.101
-653.857	-200.000	-0.001	-0.063
-652.843	57.518	-0.142	-0.141
-651.828	800.000	-0.023	-0.091
-650.814	-19.631	-0.384	0.241
-649.799	38.649	-0.154	0.139
-648.784	-120.994	0.170	-0.029
-647.770	-16.639	-0.276	-0.178
-646.755	-192.607	-0.376	0.004
-645.741	617.737	0.173	0.441
-644.726	77.732	0.116	-0.126
-643.711	-108.666	-0.348	0.076
-642.697	238.703	-0.238	0.402
-641.682	183.665	0.064	-0.096
-640.668	-200.000	0.012	-0.058
-639.653	177.966	-0.115	-0.171
-638.638	-126.109	0.457	-0.070
-637.624	-67.236	0.097	0.039
-636.609	-65.565	-0.050	-0.021
-635.595	-124.492	-0.171	-0.027
-634.580	-14.965	-0.314	-0.205
-633.565	-154.821	0.314	0.021
-632.551	800.000	0.133	-0.414
-631.536	644.584	-0.108	-0.279
-630.522	79.199	0.195	-0.212
-629.507	452.538	-0.099	-0.223
-628.492	50.191	-0.104	-0.100
-627.478	3.731	0.013	0.009
-626.463	-200.000	-0.016	-0.269
-625.449	434.100	-0.078	0.171
-624.434	-7.998	0.158	0.108
-623.419	-46.462	-0.187	-0.093
-622.405	-95.003	-0.523	-0.144
-621.390	-69.817	-0.080	-0.031
-620.376	16.902	0.131	-0.105
-619.361	104.948	-0.207	0.247
-618.346	24.927	0.036	0.030
-617.332	-154.873	-0.239	0.016
-616.317	115.959	0.074	0.091
-615.303	294.277	-0.176	-0.327
-614.288	800.000	-0.044	-0.135
-613.273	-162.086	-0.119	0.006
-612.259	615.834	-0.123	-0.314
-611.244	195.137	0.198	0.305
-610.230	-168.009	0.173	-0.007
-609.215	284.153	-0.122	-0.223
-608.201	-200.000	-0.029	-0.268
-607.186	-200.000	0.021	-0.127
-606.171	151.848	-0.113	0.156
-605.157	-22.165	0.061	0.038
-604.142	-75.477	-0.217	0.078
-603.128	482.125	-0.127	0.293
-602.113	-200.000	-0.014	0.252
-601.098	-200.000	-0.004	-0.023
-600.084	185.206	-0.014	-0.021
-599.069	509.545	-0.084	-0.199
-598.055	-200.000	-0.017	-0.331
-597.040	-200.000	0.027	-0.170
-596.025	-200.000	0.054	-0.253
-595.011	-192.205	0.459	0.004
-593.996	133.077	-0.036	0.047
-592.982	-17.974	-0.196	0.124
-591.967	800.000	-0.059	-0.222
-590.952	49.096	0.153	0.146
-589.938	-200.000	-0.006	-0.056
-588.923	800.000	-0.009	-0.040
-587.909	31.538	0.155	-0.135
-586.894	800.000	-0.034	-0.144
-585.879	-115.909	-0.291	-0.055
-584.865	-200.000	0.015	-0.199
-583.850	800.000	-0.067	0.220
-582.836	12.507	-0.138	0.108
-581.821	512.761	0.079	0.186
-580.806	800.000	-0.045	0.142
-579.792	21.355	-0.157	-0.129
-578.777	-138.903	0.125	0.014
-577.763	-200.000	0.043	-0.200
-576.748	353.588	0.130	-0.262
-575.733	107.646	-0.054	0.066
-574.719	-83.192	-0.490	0.160
-573.704	354.251	0.245	-0.493
-572.690	-71.594	-0.274	0.104
-571.675	-172.096	0.223	-0.007
-570.661	800.000	-0.011	0.041
-569.646	311.045	-0.113	0.214
-568.631	800.000	0.030	-0.106
-567.617	148.465	0.165	-0.225
-566.602	-200.000	0.010	0.193
-565.588	-82.256	-0.158	-0.052
-564.573	30.239	0.036	-0.031
-563.558	36.765	0.202	-0.181
-562.544	-29.410	0.173	-0.100
-561.529	-24.801	-0.185	-0.111
-560.515	675.844	-0.049	-0.130
-559.500	-46.319	-0.082	0.041
-558.485	-49.297	0.269	0.130
-557.471	-200.000	0.006	0.075
-556.456	-7.125	0.194	-0.133
-555.442	800.000	-0.031	-0.132
-554.427	-121.296	-0.489	-0.083
-553.412	315.093	-0.103	-0.197
-552.398	-68.757	0.109	-0.042
-551.383	182.951	0.186	-0.277
-550.369	137.882	0.144	-0.191
-549.354	201.630	0.043	-0.066
-548.339	-6.752	-0.301	0.207
-547.325	472.006	-0.153	0.348
-546.310	36.940	-0.183	-0.164
-545.296	0.334	0.012	-0.008
-544.281	59.568	-0.253	0.253
-543.266	578.624	0.102	0.253
-542.252	31.605	-0.091	0.079
-541.237	376.583	0.100	0.207
-540.223	-82.820	0.275	-0.090
-539.208	151.444	0.251	0.346
-538.193	205.757	0.258	-0.406
-537.179	-91.349	-0.128	-0.037
-536.164	318.856	-0.226	0.433
-535.150	2.781	-0.090	0.066
-534.135	-135.562	0.194	0.023
-533.121	-65.620	-0.354	-0.143
-532.106	-200.000	-0.009	0.119
-531.091	-12.101	0.362	-0.240
-530.077	-159.694	0.273	0.015
-529.062	-16.558	0.260	-0.167
-528.048	202.000	0.146	-0.228
-527.033	-88.370	-0.250	0.076
-526.018	185.128	0.037	0.055
-525.004	12.895	0.117	-0.091
-523.989	202.155	-0.187	-0.292
-522.975	-200.000	-0.031	0.179
-521.960	-108.137	0.370	-0.081
-520.945	145.362	0.060	0.081
-519.931	720.319	0.060	-0.162
-518.916	-200.000	0.076	-0.396
-517.902	483.524	0.042	-0.096
-516.887	-200.000	0.013	0.201
-515.872	-119.327	-0.171	-0.030
-514.858	800.000	0.136	0.493
-513.843	-115.754	0.099	0.019
-512.829	59.990	0.147	-0.147
-511.814	-88.848	-0.285	0.085
-510.799	547.313	-0.087	-0.209
-509.785	184.401	-0.035	0.053
-508.770	327.840	0.028	-0.054
-507.756	-127.325	-0.121	0.018
-506.741	-172.849	-0.091	-0.003
-505.726	77.925	-0.074	-0.080
-504.712	149.442	0.229	-0.313
-503.697	-200.000	-0.063	-0.392
-502.683	-200.000	-0.055	0.272
-501.668	-38.563	-0.082	-0.044
-500.653	-145.972	-0.080	-0.007
-499.639	-192.871	-0.326	-0.003
-498.624	92.892	0.123	-0.140
-497.610	792.981	-0.042	0.116
-496.595	141.087	0.008	-0.010
-495.581	-200.000	0.005	-0.106
-494.566	174.304	-0.097	0.142
-493.551	59.971	0.140	0.140
-492.537	550.856	0.093	0.225
-491.522	800.000	0.019	-0.060
-490.508	342.898	0.067	-0.133
-489.493	384.837	-0.137	-0.284
-488.478	-200.000	0.029	-0.155
-487.464	-79.746	0.083	-0.028
-486.449	-158.057	-0.295	0.017
-485.435	-200.000	-0.004	-0.100
-484.420	105.851	-0.072	-0.086
-483.405	80.922	-0.072	-0.079
-482.391	-97.774	0.327	-0.085
-481.376	-200.000	0.132	0.000
-480.362	-200.000	-0.003	0.178
-479.347	-80.665	0.310	-0.104
-478.332	25.352	-0.236	0.198
-477.318	504.785	0.129	0.300
-476.303	-3.903	0.191	-0.134
-475.289	800.000	-0.052	0.174
-474.274	1.304	-0.140	-0.102
-473.259	-108.281	0.277	-0.060
-472.245	-88.119	-0.223	0.068
-471.230	132.391	0.038	0.049
-470.216	-85.875	0.152	0.048
-469.201	-66.682	0.156	-0.062
-468.186	494.041	0.035	-0.081
-467.172	508.984	0.018	-0.043
-466.157	60.749	0.086	0.086
-465.143	-65.956	-0.191	-0.077
-464.128	-194.130	-0.273	-0.002
-463.113	-42.082	-0.180	0.093
-462.099	-114.945	-0.199	-0.038
-461.084	-200.000	-0.004	-0.141
-460.070	107.057	-0.170	0.203
-459.055	-56.927	0.045	-0.020
-458.040	-163.670	0.154	-0.007
-457.026	58.161	-0.244	-0.241
-456.011	800.000	-0.062	0.234
-454.997	693.873	0.078	0.207
-453.982	-200.000	0.013	0.182
-452.968	-10.736	-0.215	0.143
-451.953	402.913	-0.034	0.072
-450.938	329.491	0.132	0.256
-449.924	-133.858	-0.155	-0.019
-448.909	-95.402	0.088	-0.024
-447.895	-29.895	0.184	0.106
-446.880	101.113	0.132	-0.155
-445.865	-99.634	-0.125	0.032
-444.851	-96.501	0.404	0.107
-443.836	-141.190	0.166	0.017
-442.822	225.495	-0.129	0.210
-441.807	-87.579	0.164	0.050
-440.792	800.000	0.126	-0.409
-439.778	800.000	-0.140	-0.408
-438.763	341.982	0.144	0.283
-437.749	-77.889	-0.088	-0.030
-436.734	293.242	0.112	-0.206
-435.719	-36.892	0.071	-0.038
-434.705	159.228	0.235	0.329
-433.690	58.143	-0.160	-0.158
-432.676	137.483	-0.123	0.162
-431.661	549.008	-0.186	0.449
-430.646	-94.206	0.433	0.119
-429.632	-159.056	-0.243	-0.014
-428.617	655.118	-0.073	0.188
-427.603	225.237	0.034	-0.055
-426.588	40.642	-0.141	-0.128
-425.573	638.381	0.116	-0.297
-424.559	-7.970	-0.299	-0.203
-423.544	402.926	-0.079	-0.168
-422.530	87.577	-0.167	-0.186
-421.515	647.373	0.110	-0.284
-420.500	-108.273	0.442	-0.096
-419.486	800.000	0.069	-0.236
-418.471	246.202	-0.181	-0.308
-417.457	-138.265	-0.282	0.031
-416.442	-168.771	-0.402	0.015
-415.428	429.677	0.045	0.097
-414.413	80.831	0.071	-0.077
-413.398	-200.000	-0.010	0.202
-412.384	69.025	0.237	-0.245
-411.369	119.435	-0.158	-0.197
-410.355	800.000	-0.034	-0.116
-409.340	125.084	0.262	0.332
-408.325	-15.982	0.150	0.096
-407.311	-45.262	0.068	0.034
-406.296	144.473	0.068	-0.092
-405.282	-19.278	0.060	0.038
-404.267	-200.000	0.009	0.407
-403.252	124.323	-0.103	-0.130
-402.238	-53.653	0.268	0.123
-401.223	-96.545	-0.203	-0.054
-400.209	62.323	0.099	-0.100
-399.194	-200.000	0.004	0.366
-398.179	800.000	-0.104	-0.342
-397.165	800.000	0.027	0.099
-396.150	161.554	0.095	0.133
-395.136	-30.130	0.117	-0.067
-394.121	-2.462	-0.368	0.259
-393.106	-77.973	0.098	0.034
-392.092	-40.189	-0.271	-0.142
-391.077	26.243	0.032	0.027
-390.063	385.665	-0.108	0.224
-389.048	-117.729	0.286	0.052
-388.033	-122.439	0.218	0.036
-387.019	79.272	0.160	0.173
-386.004	-31.669	0.108	0.061
-384.990	174.762	-0.210	0.305
-383.975	800.000	-0.104	0.372
-382.960	115.081	-0.176	0.216
-381.946	800.000	-0.023	-0.079
-380.931	-200.000	-0.040	0.304
-379.917	87.465	-0.060	-0.067
-378.902	88.139	-0.133	-0.148
-377.888	-49.377	0.131	-0.063
-376.873	-78.780	0.127	0.044
-375.858	110.748	-0.116	-0.140
-374.844	369.717	0.055	0.113
-373.829	800.000	0.092	-0.364
-372.815	800.000	-0.040	-0.145
-371.800	-187.226	-0.751	-0.010
-370.785	73.790	0.093	-0.098
-369.771	800.000	-0.097	-0.390
-368.756	39.087	0.230	0.206
-367.742	213.657	-0.235	0.373
-366.727	-200.000	-0.011	0.312
-365.712	781.774	-0.078	-0.215
-364.698	539.354	-0.106	0.254
-363.683	-200.000	-0.013	0.365
-362.669	-8.906	-0.431	0.290
-361.654	362.807	-0.141	0.284
-360.639	-167.840	0.140	-0.006
-359.625	-158.317	0.226	-0.013
-358.610	-29.369	-0.210	0.120
-357.596	-36.428	-0.388	0.210
-356.581	-55.350	0.263	0.119
-355.566	341.482	0.165	-0.324
-354.552	-200.000	-0.014	-0.118
-353.537	-9.428	-0.108	0.073
-352.523	-62.311	-0.340	0.142
-351.508	-120.831	-0.302	-0.051
-350.493	40.739	0.331	0.300
-349.479	-118.865	0.252	-0.044
-348.464	149.133	0.113	-0.153
-347.450	27.100	-0.106	-0.090
-346.435	2.957	0.181	-0.132
-345.420	-103.851	0.159	0.037
-344.406	-10.947	0.273	-0.181
-343.391	-200.000	0.016	-0.146
-342.377	143.836	0.043	0.057
-341.362	49.189	-0.147	0.138
-340.348	-20.720	0.266	0.164
-339.333	800.000	0.041	0.148
-338.318	284.694	-0.072	0.130
-337.304	589.047	0.135	-0.334
-336.289	-47.867	0.102	0.049
-335.275	-200.000	-0.015	-0.256
-334.260	-113.598	0.166	0.033
-333.245	800.000	0.075	0.285
-332.231	800.000	0.135	0.418
-331.216	-84.833	0.178	-0.056
-330.202	-140.382	0.215	0.023
-329.187	-50.272	0.090	-0.043
-328.172	120.205	-0.222	0.276
-327.158	-119.383	-0.291	-0.051
-326.143	-56.056	-0.137	0.061
-325.129	-167.071	0.113	-0.005
-324.114	45.393	0.111	-0.103
-323.099	333.668	-0.118	-0.228
-322.085	800.000	0.050	-0.218
-321.070	-183.794	-0.062	-0.001
-320.056	-182.547	-0.050	-0.001
-319.041	-200.000	0.010	-0.125
-318.026	-200.000	0.034	0.256
-317.012	-200.000	-0.004	0.090
-315.997	11.969	0.205	0.158
-314.983	800.000	-0.082	0.243
-313.968	-47.463	-0.092	0.045
-312.953	-103.170	-0.105	-0.025
-311.939	249.204	0.065	0.110
-310.924	1.161	-0.161	-0.116
-309.910	-200.000	0.022	-0.233
-308.895	318.137	0.184	0.349
-307.880	-200.000	-0.029	0.246
-306.866	-33.078	0.177	-0.098
-305.851	-90.592	-0.190	0.055
-304.837	506.163	-0.045	-0.105
-303.822	-66.555	-0.155	-0.062
-302.807	-63.422	0.520	0.214
-301.793	2.339	-0.288	0.209
-300.778	800.000	-0.069	0.282
-299.764	-74.288	-0.272	-0.099
-298.749	-52.559	0.117	0.054
-297.735	-111.158	0.247	-0.051
-296.720	224.360	-0.161	0.261
-295.705	-103.382	-0.252	-0.059
-294.691	792.351	-0.131	-0.362
-293.676	800.000	0.023	-0.076
-292.662	800.000	-0.064	-0.178
-291.647	-122.674	0.308	-0.050
-290.632	159.147	0.232	0.323
-289.618	673.482	0.058	0.152
-288.603	-200.000	0.007	0.091
-287.589	7.030	-0.154	0.115
-286.574	526.589	-0.047	0.111
-285.559	601.279	-0.196	-0.488
-284.545	-94.266	-0.184	-0.050
-283.530	251.752	0.042	-0.072
-282.516	-41.876	0.408	0.209
-281.501	-128.298	-0.263	0.038
-280.486	303.797	0.074	-0.137
-279.472	20.209	-0.161	0.130
-278.457	-200.000	-0.043	-0.251
-277.443	270.216	0.233	0.411
-276.428	-31.803	-0.356	0.200
-275.413	-187.902	0.174	-0.002
-274.399	-200.000	-0.017	0.192
-273.384	38.081	-0.189	0.168
-272.370	-78.400	-0.219	-0.075
-271.355	-30.345	-0.107	0.061
-270.340	199.175	-0.118	-0.181
-269.326	-128.135	-0.142	0.020
-268.311	118.663	0.226	0.280
-267.297	-200.000	-0.001	0.038
-266.282	-97.473	-0.163	0.042
-265.267	516.560	-0.103	-0.241
-264.253	-87.393	-0.107	0.032
-263.238	737.510	0.143	0.384
-262.224	-200.000	-0.044	-0.238
-261.209	336.264	-0.014	0.028
-260.195	-200.000	-0.056	-0.261
-259.180	800.000	-0.092	0.280
-258.165	43.457	-0.199	0.182
-257.151	5.809	-0.130	-0.096
-256.136	800.000	-0.122	0.485
-255.122	-200.000	0.019	0.224
-254.107	-200.000	-0.006	-0.214
-253.092	134.852	0.114	-0.149
-252.078	-26.136	0.248	-0.146
-251.063	90.982	0.093	0.104
-250.049	-7.881	-0.089	0.060
-249.034	800.000	-0.099	0.345
-248.019	171.607	-0.066	-0.095
-247.005	-129.246	-0.246	0.034
-245.990	40.942	0.100	0.090
-244.976	527.061	-0.083	0.195
-243.961	-200.000	0.029	0.210
-242.946	81.265	0.065	-0.071
-241.932	-117.739	-0.064	-0.011
-240.917	-139.263	0.113	0.012
-239.903	-119.142	0.320	-0.056
-238.888	-101.743	0.118	0.029
-237.873	-42.215	0.382	-0.195
-236.859	195.008	0.143	-0.217
-235.844	494.649	-0.042	0.097
-234.830	6.748	-0.126	-0.094
-233.815	-11.131	0.090	0.060
-232.800	-200.000	0.012	-0.348
-231.786	42.938	0.172	-0.157
-230.771	1.938	0.129	-0.093
-229.757	-65.977	0.174	-0.069
-228.742	162.452	0.191	-0.268
-227.727	-76.344	0.362	-0.127
-226.713	800.000	-0.097	-0.285
-225.698	-5.747	-0.119	0.082
-224.684	780.099	-0.037	0.101
-223.669	-161.827	0.100	-0.005
-222.655	800.000	0.074	-0.231
-221.640	-33.108	0.163	0.090
-220.625	72.363	-0.082	0.085
-219.611	-53.216	-0.218	0.100
-218.596	123.001	0.175	-0.219
-217.582	800.000	0.084	-0.254
-216.567	800.000	0.067	-0.203
-215.552	47.294	0.028	0.026
-214.538	-115.012	0.160	0.030
-213.523	-12.891	0.243	0.158
-212.509	17.552	0.234	-0.186
-211.494	800.000	0.044	-0.174
-210.479	-99.323	0.391	0.099
-209.465	-200.000	-0.003	0.026
-208.450	170.165	-0.108	-0.154
-207.436	117.445	0.193	-0.237
-206.421	-113.673	0.303	-0.059
-205.406	235.334	0.186	-0.307
-204.392	4.601	0.112	-0.082
-203.377	525.590	-0.073	-0.171
-202.363	-152.841	-0.386	0.027
-201.348	71.823	0.034	0.035
-200.333	-200.000	-0.027	-0.293
-199.319	-93.953	-0.226	0.062
-198.304	341.349	-0.128	0.249
-197.290	-143.086	0.522	-0.050
-196.275	413.696	-0.355	0.754
-195.260	-123.305	0.467	-0.075
-194.246	87.070	0.100	-0.110
-193.231	-88.870	0.092	0.027
-192.217	-56.152	0.176	0.078
-191.202	-31.247	0.200	0.112
-190.187	7.038	-0.115	-0.085
-189.173	-99.439	0.097	-0.024
-188.158	-2.714	-0.099	-0.069
-187.144	-136.659	0.141	0.016
-186.129	800.000	0.040	0.142
-185.114	476.532	-0.099	-0.224
-184.100	-139.068	-0.385	-0.042
-183.085	-70.565	-0.159	-0.060
-182.071	-30.110	0.270	-0.153
-181.056	197.221	0.124	-0.189
-180.042	460.270	-0.085	-0.189
-179.027	-40.656	0.137	0.071
-178.012	415.741	-0.047	-0.099
-176.998	-200.000	-0.067	0.439
-175.983	-129.100	0.145	-0.020
-174.969	-98.858	-0.198	-0.050
-173.954	314.763	0.019	0.036
-172.939	66.668	-0.116	-0.118
-171.925	-200.000	-0.034	-0.225
-170.910	-87.964	0.355	0.106
-169.896	140.054	-0.112	0.147
-168.881	-57.333	-0.479	0.210
-167.866	202.318	-0.143	-0.220
-166.852	233.045	-0.118	0.194
-165.837	535.710	-0.019	0.045
-164.823	-3.552	-0.123	0.085
-163.808	-33.044	0.173	0.096
-162.793	13.239	0.177	0.137
-161.779	173.028	0.118	-0.169
-160.764	-200.000	0.074	0.367
-159.750	180.134	0.050	-0.073
-158.735	-200.000	-0.026	0.187
-157.720	-200.000	-0.023	-0.173
-156.706	-113.391	-0.213	-0.042
-155.691	-30.150	-0.080	0.045
-154.677	-200.000	-0.029	0.414
-153.662	107.658	0.088	-0.104
-152.647	-200.000	0.032	0.198
-151.633	41.903	0.086	0.078
-150.618	85.607	0.180	-0.197
-149.604	163.695	0.184	0.257
-148.589	-38.465	0.352	0.186
-147.574	787.283	-0.070	0.192
-146.560	-188.257	0.081	0.001
-145.545	-112.752	0.486	0.096
-144.531	-176.452	-0.127	-0.003
-143.516	391.432	0.070	0.144
-142.502	255.404	0.049	0.083
-141.487	190.593	0.117	-0.175
-140.472	34.626	0.092	0.080
-139.458	-47.024	-0.336	0.164
-138.443	62.846	0.004	-0.004
-137.429	275.630	-0.186	-0.329
-136.414	638.448	-0.180	-0.455
-135.399	73.158	0.170	0.177
-134.385	-144.050	-0.327	0.031
-133.370	84.726	-0.195	0.213
-132.356	800.000	0.080	-0.334
-131.341	747.654	-0.136	-0.364
-130.326	169.573	-0.152	-0.217
-129.312	-200.000	-0.018	0.346
-128.297	218.585	0.045	-0.072
-127.283	95.472	0.241	-0.274
-126.268	-200.000	-0.011	0.055
-125.253	-18.209	-0.126	0.078
-124.239	-93.698	-0.090	0.025
-123.224	-139.275	-0.071	-0.008
-122.210	-130.045	0.203	-0.028
-121.195	-200.000	-0.006	0.233
