DTS Sentinel unit serial number:	SN413079Multiplexer serial number:	ORYXHardware model number:	OX4-SRSoftware version number:	ORYX F/W v4.00 Oryx Data Collector v3.7.2.0data status	okinstallation	princeton_trtdifferential loss correction	single-endedforward channel	channel 1reverse channel	N/Adate	2019/09/15time	14:22:35forward acquisition time	60.00reverse acquisition time	0.00gamma	496.2192k internal	0.2292k external	0.2292temperature offset calibration	0.9964default loss term (dB/km)	0.3790temperature slope calibration	1.0000multiplexer offset coefficient	1.0000multiplexer slope coefficient	1.0000fibre end	0.00T internal ref (°C)	39.12T ext. ref 1 (°C)	4.94T ext. ref 2 (°C)	36.03length (m)	temperature (°C)	Stokes	anti-Stokes-747.200	-200.000	0.012	-0.121
-746.185	-95.712	-0.426	0.116
-745.171	-150.128	0.164	0.013
-744.156	-67.096	-0.132	0.053
-743.142	194.227	-0.167	0.258
-742.127	800.000	0.030	0.111
-741.112	54.051	0.055	-0.054
-740.098	430.543	-0.149	-0.331
-739.083	127.832	-0.148	-0.193
-738.069	800.000	0.061	0.183
-737.054	155.539	0.071	0.100
-736.039	-88.579	-0.219	0.067
-735.025	-154.924	0.200	0.013
-734.010	-29.126	-0.205	-0.120
-732.996	-200.000	-0.009	-0.258
-731.981	-76.270	0.279	0.101
-730.966	-157.535	-0.226	-0.014
-729.952	68.620	-0.133	0.140
-728.937	-53.346	-0.248	0.116
-727.923	800.000	0.063	-0.180
-726.908	-14.588	-0.355	-0.233
-725.894	-112.292	-0.403	-0.083
-724.879	-200.000	0.011	0.243
-723.864	53.468	-0.141	-0.139
-722.850	22.502	-0.383	0.321
-721.835	11.727	0.346	-0.272
-720.821	276.069	0.129	-0.234
-719.806	361.026	-0.053	-0.109
-718.791	-93.317	-0.304	0.086
-717.777	-200.000	-0.016	-0.093
-716.762	105.578	0.227	0.274
-715.748	-120.125	0.068	-0.012
-714.733	-71.054	0.297	-0.114
-713.718	-47.287	-0.101	-0.050
-712.704	-57.901	0.129	0.057
-711.689	-200.000	-0.005	-0.404
-710.675	-97.286	0.068	-0.018
-709.660	800.000	-0.025	0.078
-708.645	91.747	-0.259	0.298
-707.631	524.241	-0.067	-0.161
-706.616	437.117	-0.075	0.168
-705.602	4.127	-0.211	-0.158
-704.587	-200.000	0.020	-0.104
-703.572	244.763	-0.170	-0.292
-702.558	49.488	-0.056	-0.054
-701.543	-39.201	-0.352	-0.189
-700.529	-66.037	-0.202	-0.083
-699.514	-118.036	0.102	-0.019
-698.499	800.000	-0.065	0.187
-697.485	800.000	-0.089	0.395
-696.470	-50.252	-0.110	-0.053
-695.456	-200.000	-0.001	-0.126
-694.441	800.000	-0.017	-0.062
-693.426	800.000	0.067	-0.282
-692.412	-200.000	0.029	-0.174
-691.397	121.895	-0.156	0.198
-690.383	74.151	0.105	-0.113
-689.368	103.177	0.090	0.107
-688.354	172.778	0.105	-0.154
-687.339	-200.000	0.074	-0.424
-686.324	800.000	0.046	0.131
-685.310	-40.919	-0.198	0.104
-684.295	800.000	0.079	-0.326
-683.281	82.630	-0.145	0.160
-682.266	169.258	-0.221	0.322
-681.251	-200.000	-0.007	-0.219
-680.237	-36.889	0.060	-0.033
-679.222	-34.951	-0.108	-0.060
-678.208	-57.650	-0.391	-0.175
-677.193	366.500	-0.169	-0.348
-676.178	-174.120	-0.232	0.007
-675.164	44.705	0.076	-0.072
-674.149	-140.440	0.247	0.026
-673.135	-102.754	0.247	0.060
-672.120	-200.000	-0.003	0.115
-671.105	-10.732	-0.284	-0.192
-670.091	-58.577	0.411	-0.182
-669.076	-200.000	-0.004	0.274
-668.062	163.511	-0.170	-0.243
-667.047	575.394	0.070	0.174
-666.032	-200.000	0.030	-0.193
-665.018	512.040	0.053	-0.126
-664.003	-200.000	-0.036	0.452
-662.989	-200.000	-0.018	0.132
-661.974	-11.095	-0.360	0.242
-660.959	196.770	0.070	-0.108
-659.945	-70.802	0.251	-0.097
-658.930	-200.000	-0.027	-0.187
-657.916	49.846	0.096	0.093
-656.901	94.367	-0.259	-0.300
-655.886	-18.985	0.250	-0.158
-654.872	-62.045	-0.175	0.074
-653.857	53.353	-0.061	0.060
-652.843	-10.960	0.416	0.280
-651.828	-112.739	0.166	-0.034
-650.814	-122.971	0.129	0.021
-649.799	-133.167	-0.405	0.052
-648.784	113.286	0.059	-0.073
-647.770	-104.038	-0.597	0.142
-646.755	-99.269	-0.093	-0.024
-645.741	800.000	-0.078	0.310
-644.726	389.449	0.045	0.096
-643.711	-18.786	-0.157	-0.100
-642.697	186.948	0.255	-0.387
-641.682	-119.536	0.461	-0.082
-640.668	-184.993	-0.197	-0.003
-639.653	-0.078	-0.118	0.086
-638.638	-143.235	0.312	0.031
-637.624	217.159	0.153	-0.248
-636.609	130.736	-0.058	0.075
-635.595	800.000	0.029	0.087
-634.580	303.333	-0.027	0.050
-633.565	49.612	0.248	-0.238
-632.551	-200.000	0.057	0.442
-631.536	-52.249	0.089	0.042
-630.522	-14.669	0.220	-0.144
-629.507	464.851	-0.132	-0.302
-628.492	651.132	-0.027	-0.072
-627.478	159.320	0.116	0.164
-626.463	93.288	-0.142	0.163
-625.449	713.084	0.102	-0.274
-624.434	-12.993	0.251	-0.167
-623.419	106.228	0.065	0.078
-622.405	-55.426	-0.126	-0.058
-621.390	80.499	-0.132	-0.145
-620.376	12.072	0.348	-0.273
-619.361	-200.000	-0.075	-0.417
-618.346	-122.340	0.230	0.038
-617.332	-145.956	0.070	-0.006
-616.317	-148.765	0.098	0.008
-615.303	30.504	-0.135	-0.117
-614.288	-200.000	-0.032	0.185
-613.273	95.404	-0.112	-0.130
-612.259	59.959	0.164	-0.165
-611.244	-40.815	-0.140	-0.074
-610.230	-200.000	-0.019	-0.270
-609.215	129.155	0.187	-0.242
-608.201	348.764	-0.058	-0.117
-607.186	120.406	0.108	0.137
-606.171	564.186	0.097	-0.239
-605.157	90.963	-0.133	-0.152
-604.142	-63.625	-0.310	-0.129
-603.128	-79.255	0.088	-0.031
-602.113	-200.000	0.038	-0.547
-601.098	614.565	0.209	-0.532
-600.084	-2.058	-0.218	-0.156
-599.069	800.000	0.057	-0.185
-598.055	-200.000	-0.016	0.079
-597.040	203.907	0.056	-0.088
-596.025	-185.397	0.412	-0.006
-595.011	800.000	-0.119	-0.368
-593.996	-97.374	-0.232	0.061
-592.982	-58.661	-0.097	0.043
-591.967	-6.405	-0.059	0.041
-590.952	-36.912	0.354	0.193
-589.938	1.694	-0.293	0.214
-588.923	131.592	-0.334	-0.437
-587.909	-90.823	-0.283	-0.083
-586.894	-157.384	-0.123	0.008
-585.879	-176.169	-0.630	-0.017
-584.865	-139.054	0.196	-0.022
-583.850	67.480	-0.069	-0.072
-582.836	510.071	-0.055	0.130
-581.821	-200.000	0.011	0.265
-580.806	-2.576	0.160	-0.114
-579.792	-144.481	0.103	-0.010
-578.777	-200.000	0.010	0.134
-577.763	-88.554	-0.113	0.034
-576.748	682.094	0.083	-0.220
-575.733	-175.410	0.202	0.006
-574.719	-1.272	-0.249	0.179
-573.704	-86.901	-0.367	-0.114
-572.690	80.078	0.229	-0.251
-571.675	-49.716	0.176	0.085
-570.661	-151.636	0.146	0.011
-569.646	18.046	0.189	-0.153
-568.631	440.947	0.033	-0.074
-567.617	-15.224	-0.184	-0.120
-566.602	-40.046	-0.531	0.281
-565.588	-80.903	0.204	0.069
-564.573	800.000	0.078	-0.304
-563.558	-48.899	0.332	0.162
-562.544	800.000	-0.030	-0.102
-561.529	-178.315	-0.286	0.007
-560.515	-98.115	0.208	-0.054
-559.500	55.314	-0.067	0.066
-558.485	271.701	0.098	-0.175
-557.471	186.476	-0.113	0.171
-556.456	-97.745	-0.167	0.044
-555.442	65.575	-0.113	-0.116
-554.427	-200.000	-0.031	0.224
-553.412	361.500	0.090	0.184
-552.398	-157.541	-0.255	0.016
-551.383	-19.236	-0.293	-0.185
-550.369	31.995	-0.050	0.044
-549.354	150.526	-0.202	0.279
-548.339	167.514	0.115	0.167
-547.325	-200.000	0.076	-0.407
-546.310	-200.000	0.017	-0.080
-545.296	-134.642	-0.315	-0.039
-544.281	228.867	0.051	0.084
-543.266	-29.093	0.141	-0.082
-542.252	-38.618	0.213	-0.115
-541.237	-200.000	-0.006	-0.062
-540.223	-29.244	-0.246	0.143
-539.208	528.902	-0.025	0.061
-538.193	-77.785	-0.221	-0.078
-537.179	60.818	-0.051	0.051
-536.164	-180.231	0.177	-0.004
-535.150	-127.561	-0.167	-0.025
-534.135	-104.150	-0.328	-0.077
-533.121	-200.000	0.038	0.495
-532.106	-200.000	0.031	-0.203
-531.091	422.193	0.077	-0.168
-530.077	-101.309	0.418	0.104
-529.062	618.130	0.032	-0.083
-528.048	-142.798	-0.127	0.013
-527.033	-19.740	-0.329	-0.206
-526.018	-61.399	0.231	-0.099
-525.004	800.000	0.036	0.117
-523.989	-200.000	0.012	0.158
-522.975	-200.000	-0.036	-0.361
-521.960	8.978	0.124	-0.095
-520.945	303.205	0.041	0.078
-519.931	-36.444	-0.079	0.043
-518.916	-82.168	0.213	-0.070
-517.902	114.761	-0.128	0.158
-516.887	-61.179	0.088	-0.037
-515.872	-168.646	0.083	-0.003
-514.858	-200.000	-0.046	-0.453
-513.843	-200.000	-0.012	0.100
-512.829	22.848	-0.196	-0.163
-511.814	800.000	0.063	-0.179
-510.799	-89.192	0.064	-0.019
-509.785	-73.310	-0.196	0.073
-508.770	-28.530	-0.064	0.038
-507.756	351.838	0.131	-0.263
-506.741	-200.000	0.023	0.194
-505.726	191.020	-0.081	0.123
-504.712	-200.000	0.166	-0.000
-503.697	146.873	-0.184	0.251
-502.683	160.989	-0.066	0.093
-501.668	239.642	-0.015	-0.026
-500.653	-107.214	-0.278	-0.062
-499.639	-72.293	-0.478	-0.179
-498.624	123.914	0.202	0.257
-497.610	681.278	0.095	0.250
-496.595	-200.000	-0.003	0.210
-495.581	40.303	-0.115	0.105
-494.566	800.000	-0.090	-0.397
-493.551	800.000	0.023	-0.072
-492.537	28.106	-0.188	-0.161
-491.522	-9.503	-0.327	0.221
-490.508	-32.065	-0.292	-0.165
-489.493	127.054	-0.205	-0.263
-488.478	124.525	0.111	0.141
-487.464	-45.385	-0.152	0.076
-486.449	-74.451	-0.287	0.105
-485.435	27.691	0.247	-0.211
-484.420	-69.956	0.229	0.089
-483.405	-22.676	0.152	0.093
-482.391	196.075	-0.337	0.520
-481.376	96.147	0.104	0.120
-480.362	-99.707	0.302	0.077
-479.347	800.000	0.110	-0.374
-478.332	124.395	0.105	0.133
-477.318	800.000	-0.054	-0.175
-476.303	-111.556	-0.171	-0.035
-475.289	-117.141	0.461	0.085
-474.274	-168.164	0.269	-0.011
-473.259	-200.000	-0.001	0.193
-472.245	-74.916	-0.193	0.070
-471.230	-200.000	-0.014	0.116
-470.216	-72.474	-0.500	0.187
-469.201	-110.532	-0.266	0.056
-468.186	52.860	-0.177	0.172
-467.172	307.461	0.046	0.087
-466.157	-80.451	-0.240	0.081
-465.143	-141.082	-0.434	-0.045
-464.128	-106.469	0.233	0.053
-463.113	-200.000	0.009	0.241
-462.099	298.886	0.127	-0.237
-461.084	-111.111	0.410	0.085
-460.070	60.115	0.125	-0.125
-459.055	-38.679	0.147	0.078
-458.040	-116.029	-0.228	-0.043
-457.026	-96.163	0.486	0.131
-456.011	43.440	0.100	-0.092
-454.997	-90.115	-0.290	-0.085
-453.982	42.233	0.349	0.321
-452.968	58.047	0.352	-0.349
-451.953	-200.000	0.013	-0.071
-450.938	3.015	-0.133	-0.098
-449.924	315.163	0.036	0.069
-448.909	-86.053	-0.334	0.104
-447.895	-122.255	-0.137	0.023
-446.880	201.652	-0.136	0.212
-445.865	343.103	0.105	-0.209
-444.851	-136.977	0.140	0.016
-443.836	-200.000	0.040	-0.253
-442.822	-88.194	0.466	-0.141
-441.807	-154.416	0.203	0.014
-440.792	-172.517	-0.192	-0.006
-439.778	-116.939	-0.277	-0.051
-438.763	-200.000	-0.020	-0.180
-437.749	-111.116	-0.118	-0.024
-436.734	470.070	0.059	0.135
-435.719	-132.464	-0.371	-0.048
-434.705	-200.000	0.022	0.221
-433.690	-200.000	0.024	0.216
-432.676	-24.329	-0.159	0.096
-431.661	410.560	-0.182	0.391
-430.646	800.000	-0.058	0.230
-429.632	-200.000	-0.032	0.153
-428.617	-77.081	-0.318	0.112
-427.603	-67.878	0.210	0.083
-426.588	-87.936	0.214	-0.065
-425.573	-200.000	0.008	-0.118
-424.559	-200.000	-0.050	-0.352
-423.544	-44.266	0.219	-0.111
-422.530	28.966	-0.115	0.098
-421.515	800.000	-0.028	-0.114
-420.500	-48.876	-0.191	0.093
-419.486	-200.000	0.002	0.074
-418.471	-200.000	-0.014	0.076
-417.457	176.017	0.116	-0.170
-416.442	-200.000	0.017	0.170
-415.428	109.419	-0.019	0.023
-414.413	65.030	0.274	0.279
-413.398	-97.845	0.348	0.091
-412.384	-58.556	-0.049	0.021
-411.369	-126.850	-0.304	-0.045
-410.355	-67.598	-0.174	-0.069
-409.340	-115.788	-0.170	0.032
-408.325	-110.519	0.217	0.045
-407.311	467.071	-0.134	0.303
-406.296	58.479	-0.089	0.088
-405.282	256.283	0.035	-0.061
-404.267	15.260	0.427	-0.339
-403.252	4.108	0.071	-0.053
-402.238	800.000	-0.020	-0.085
-401.223	630.029	0.040	0.102
-400.209	-200.000	0.025	-0.358
-399.194	14.610	-0.077	0.061
-398.179	-200.000	0.004	0.401
-397.165	-200.000	0.016	0.224
-396.150	-200.000	0.019	0.229
-395.136	-97.162	-0.023	-0.006
-394.121	-200.000	-0.069	0.334
-393.106	-113.589	-0.247	-0.049
-392.092	68.130	-0.044	0.045
-391.077	-123.306	0.097	0.016
-390.063	-154.187	0.304	0.021
-389.048	-200.000	-0.061	0.305
-388.033	-78.992	0.162	-0.056
-387.019	16.887	-0.116	0.093
-386.004	-75.244	-0.210	-0.076
-384.990	434.161	0.090	-0.198
-383.975	-95.210	0.029	0.008
-382.960	-106.232	0.115	-0.026
-381.946	71.594	0.145	0.152
-380.931	-152.170	-0.319	-0.023
-379.917	-42.555	0.319	-0.164
-378.902	-110.712	0.091	-0.019
-377.888	800.000	-0.043	0.169
-376.873	-200.000	-0.033	0.161
-375.858	378.509	-0.170	-0.351
-374.844	118.991	0.221	0.275
-373.829	18.814	0.115	0.093
-372.815	-99.883	0.484	-0.122
-371.800	-92.621	-0.382	0.108
-370.785	-129.970	0.220	-0.030
-369.771	-143.557	-0.145	-0.014
-368.756	-65.367	0.083	-0.034
-367.742	490.002	0.085	-0.197
-366.727	800.000	-0.073	-0.261
-365.712	-31.708	-0.132	-0.075
-364.698	-73.935	0.208	0.076
-363.683	303.224	0.175	0.327
-362.669	86.144	0.281	0.312
-361.654	165.539	0.172	-0.245
-360.639	-30.603	0.061	-0.035
-359.625	-40.775	-0.067	-0.035
-358.610	-51.626	0.133	-0.063
-357.596	800.000	0.065	0.215
-356.581	123.147	0.125	0.158
-355.566	421.074	-0.073	-0.157
-354.552	-200.000	0.010	-0.213
-353.537	74.854	0.146	0.155
-352.523	239.563	-0.032	0.053
-351.508	317.928	-0.193	-0.369
-350.493	-76.095	-0.166	0.059
-349.479	205.454	-0.028	0.044
-348.464	-80.689	0.042	0.014
-347.450	-2.035	0.169	0.120
-346.435	-149.751	0.223	0.018
-345.420	-101.206	-0.233	0.057
-344.406	-37.317	0.058	0.031
-343.391	6.651	-0.070	0.053
-342.377	108.375	0.183	0.220
-341.362	-200.000	0.007	0.112
-340.348	800.000	-0.106	0.405
-339.333	199.576	0.228	-0.352
-338.318	-156.705	-0.133	0.008
-337.304	-171.602	0.395	0.013
-336.289	-200.000	-0.034	-0.341
-335.275	182.053	0.114	0.170
-334.260	213.122	0.076	0.122
-333.245	40.189	-0.313	-0.283
-332.231	230.905	-0.047	0.078
-331.216	41.791	0.196	-0.179
-330.202	78.924	-0.178	0.192
-329.187	-200.000	-0.006	0.105
-328.172	69.224	0.079	0.082
-327.158	-138.171	-0.031	-0.003
-326.143	-31.169	-0.288	-0.163
-325.129	800.000	0.083	0.314
-324.114	4.475	-0.115	0.085
-323.099	-166.821	-0.148	-0.006
-322.085	187.218	-0.070	0.105
-321.070	-65.937	-0.081	0.033
-320.056	-69.291	0.175	-0.068
-319.041	-153.719	0.021	0.001
-318.026	744.318	-0.114	-0.309
-317.012	-57.398	0.055	-0.024
-315.997	103.362	0.203	-0.239
-314.983	-200.000	0.016	0.092
-313.968	98.713	0.037	-0.042
-312.953	-200.000	-0.004	0.099
-311.939	4.371	0.145	-0.107
-310.924	-200.000	-0.006	-0.078
-309.910	611.465	-0.066	-0.165
-308.895	-200.000	-0.018	-0.084
-307.880	121.661	0.268	-0.336
-306.866	800.000	-0.036	-0.142
-305.851	-200.000	0.054	0.404
-304.837	-146.180	-0.416	0.037
-303.822	71.600	-0.067	0.070
-302.807	800.000	-0.087	0.244
-301.793	326.114	-0.078	0.151
-300.778	-72.491	0.106	-0.039
-299.764	-16.575	-0.159	0.101
-298.749	382.089	-0.058	-0.119
-297.735	-138.618	0.251	-0.028
-296.720	6.917	0.285	0.213
-295.705	615.535	0.177	0.445
-294.691	164.518	0.078	0.111
-293.676	329.862	0.189	-0.365
-292.662	689.672	-0.126	0.332
-291.647	413.225	-0.062	0.133
-290.632	303.938	-0.045	-0.084
-289.618	64.384	0.276	0.280
-288.603	-82.832	-0.082	0.027
-287.589	-83.347	0.117	0.038
-286.574	-110.192	-0.406	-0.085
-285.559	800.000	-0.126	-0.356
-284.545	-73.247	-0.098	0.036
-283.530	95.822	-0.189	-0.217
-282.516	71.978	0.263	0.275
-281.501	18.226	-0.180	-0.144
-280.486	491.101	0.029	-0.066
-279.472	85.010	0.163	0.180
-278.457	-107.939	0.219	0.048
-277.443	120.703	-0.172	-0.215
-276.428	800.000	0.120	0.379
-275.413	-17.611	0.433	0.274
-274.399	-200.000	0.009	0.146
-273.384	248.621	-0.106	0.181
-272.370	109.652	-0.220	0.265
-271.355	282.603	0.080	0.145
-270.340	-60.480	-0.217	-0.093
-269.326	-79.109	-0.055	0.019
-268.311	279.890	-0.162	0.290
-267.297	215.754	-0.144	-0.230
-266.282	-78.623	0.198	0.068
-265.267	-15.444	0.178	0.114
-264.253	800.000	-0.054	0.214
-263.238	386.979	-0.061	0.126
-262.224	-200.000	-0.052	0.236
-261.209	-98.564	-0.122	-0.031
-260.195	-200.000	-0.010	0.118
-259.180	-47.499	0.176	-0.086
-258.165	-144.628	-0.232	0.021
-257.151	-200.000	0.010	0.089
-256.136	55.048	-0.071	0.069
-255.122	42.164	0.436	0.398
-254.107	24.380	0.194	0.161
-253.092	92.859	-0.150	0.170
-252.078	598.864	0.170	-0.422
-251.063	-117.990	-0.126	-0.023
-250.049	800.000	-0.048	-0.138
-249.034	27.520	0.228	-0.193
-248.019	482.021	0.009	-0.020
-247.005	499.650	-0.120	0.279
-245.990	-43.197	0.174	-0.089
-244.976	-200.000	0.031	0.268
-243.961	-39.473	0.171	0.090
-242.946	-19.884	-0.051	0.032
-241.932	-74.779	0.151	-0.055
-240.917	-41.607	-0.066	-0.034
-239.903	26.943	0.139	-0.117
-238.888	-128.363	-0.309	-0.044
-237.873	560.017	-0.049	-0.118
-236.859	-3.277	-0.041	-0.029
-235.844	472.337	0.018	0.041
-234.830	440.805	-0.010	-0.021
-233.815	273.517	0.105	0.186
-232.800	-138.845	-0.159	0.017
-231.786	-115.046	-0.093	-0.018
-230.771	107.666	0.088	-0.106
-229.757	-51.010	-0.249	0.117
-228.742	-200.000	0.034	-0.192
-227.727	354.681	0.127	0.254
-226.713	169.884	0.042	0.060
-225.698	-200.000	0.009	0.087
-224.684	82.691	-0.278	-0.303
-223.669	73.630	-0.125	0.132
-222.655	82.453	-0.032	0.035
-221.640	-2.307	-0.117	-0.082
-220.625	460.689	0.109	-0.243
-219.611	-87.456	-0.218	-0.066
-218.596	41.473	0.041	-0.037
-217.582	-114.858	-0.430	0.082
-216.567	225.413	-0.124	-0.202
-215.552	-122.102	-0.328	-0.054
-214.538	-11.705	0.051	-0.034
-213.523	-61.042	0.308	-0.130
-212.509	115.135	0.057	0.070
-211.494	800.000	0.036	0.152
-210.479	-132.521	0.102	-0.013
-209.465	103.827	0.264	-0.310
-208.450	-200.000	0.002	-0.349
-207.436	769.532	0.123	0.336
-206.421	21.762	0.073	0.059
-205.406	129.219	0.087	-0.112
-204.392	-53.598	-0.377	-0.173
-203.377	324.488	-0.111	0.212
-202.363	115.898	0.157	-0.192
-201.348	-199.801	0.277	-0.001
-200.333	101.034	0.053	-0.061
-199.319	800.000	-0.078	0.263
-198.304	667.803	0.045	0.117
-197.290	-78.895	-0.137	0.047
-196.275	-67.796	0.243	-0.095
-195.260	800.000	0.040	0.133
-194.246	-26.998	-0.100	0.059
-193.231	-200.000	-0.026	-0.328
-192.217	-200.000	0.025	-0.178
-191.202	-200.000	-0.008	-0.088
-190.187	800.000	-0.046	0.142
-189.173	-132.337	0.043	-0.006
-188.158	20.575	0.465	0.376
-187.144	-190.413	-0.253	0.003
-186.129	71.413	-0.172	-0.179
-185.114	267.980	0.113	0.198
-184.100	-28.693	-0.245	-0.141
-183.085	-14.579	0.250	0.161
-182.071	-6.814	0.127	-0.086
-181.056	43.575	0.031	0.029
-180.042	-49.176	0.509	-0.243
-179.027	800.000	0.068	-0.189
-178.012	129.489	0.371	0.475
-176.998	12.540	0.039	0.030
-175.983	-118.175	0.170	0.030
-174.969	153.056	0.063	0.086
-173.954	-54.834	-0.185	-0.084
-172.939	-56.570	0.216	-0.096
-171.925	157.754	-0.107	-0.149
-170.910	604.721	-0.033	0.083
-169.896	-94.470	-0.209	0.057
-168.881	-200.000	0.035	-0.386
-167.866	-200.000	0.001	-0.219
-166.852	-200.000	-0.049	-0.242
-165.837	-26.324	-0.117	-0.069
-164.823	219.778	-0.054	-0.087
-163.808	143.191	-0.007	0.009
-162.793	-200.000	0.037	-0.317
-161.779	-155.705	-0.177	-0.011
-160.764	-50.569	0.137	0.065
-159.750	76.813	-0.140	0.149
-158.735	42.795	-0.005	0.005
-157.720	9.450	0.031	0.024
-156.706	800.000	-0.049	-0.152
-155.691	800.000	0.067	0.266
-154.677	-164.487	0.282	-0.013
-153.662	152.569	-0.163	-0.222
-152.647	-47.474	-0.295	-0.144
-151.633	-40.885	0.114	0.059
-150.618	-75.657	0.079	-0.028
-149.604	45.905	0.068	-0.063
-148.589	-70.284	-0.194	0.074
-147.574	-106.903	0.172	0.038
-146.560	-200.000	-0.018	0.087
-145.545	-200.000	0.032	-0.166
-144.531	35.650	0.153	-0.134
-143.516	65.902	0.183	0.186
-142.502	403.262	0.029	0.060
-141.487	-200.000	0.074	-0.377
-140.472	49.010	-0.117	0.110
-139.458	-28.219	-0.302	-0.174
-138.443	613.244	-0.094	-0.235
-137.429	551.912	-0.016	0.038
-136.414	52.297	-0.090	0.086
-135.399	-98.419	0.072	-0.018
-134.385	-200.000	-0.018	0.166
-133.370	-58.808	0.239	0.103
-132.356	-153.542	0.158	0.011
-131.341	-35.752	0.478	0.259
-130.326	0.916	0.062	0.045
-129.312	800.000	-0.070	0.203
-128.297	101.667	0.216	0.252
-127.283	358.718	-0.125	0.250
-126.268	-200.000	-0.003	0.051
-125.253	-110.262	0.368	0.077
-124.239	800.000	-0.170	0.490
-123.224	-85.877	0.245	0.076
-122.210	77.296	0.224	-0.238
-121.195	-72.727	-0.137	-0.051
