DTS Sentinel unit serial number:	SN413079Multiplexer serial number:	ORYXHardware model number:	OX4-SRSoftware version number:	ORYX F/W v4.00 Oryx Data Collector v3.7.2.0data status	okinstallation	princeton_trtdifferential loss correction	single-endedforward channel	channel 1reverse channel	N/Adate	2019/09/18time	09:06:35forward acquisition time	60.00reverse acquisition time	0.00gamma	496.2192k internal	0.2336k external	0.2336temperature offset calibration	0.9970default loss term (dB/km)	0.3790temperature slope calibration	1.0000multiplexer offset coefficient	1.0000multiplexer slope coefficient	1.0000fibre end	0.00T internal ref (°C)	25.31T ext. ref 1 (°C)	0.24T ext. ref 2 (°C)	22.55length (m)	temperature (°C)	Stokes	anti-Stokes-747.200	-134.874	0.077	0.009
-746.185	-200.000	0.062	0.381
-745.171	21.279	-0.165	0.135
-744.156	207.092	-0.077	0.120
-743.142	-106.101	0.246	-0.056
-742.127	158.249	-0.259	0.360
-741.112	632.131	-0.153	0.390
-740.098	190.754	0.164	0.248
-739.083	449.350	-0.126	-0.280
-738.069	48.848	0.092	-0.087
-737.054	99.725	-0.059	-0.069
-736.039	-99.396	-0.228	-0.058
-735.025	-8.476	0.389	0.263
-734.010	-200.000	-0.032	0.147
-732.996	107.164	-0.253	-0.302
-731.981	648.391	0.181	-0.465
-730.966	-32.838	0.093	-0.052
-729.952	-200.000	0.023	-0.131
-728.937	7.893	0.116	-0.087
-727.923	-32.910	-0.109	-0.061
-726.908	110.661	0.112	-0.135
-725.894	511.980	-0.101	-0.236
-724.879	-200.000	-0.016	-0.101
-723.864	-45.344	-0.116	-0.058
-722.850	123.669	0.073	0.092
-721.835	104.327	0.162	-0.192
-720.821	33.438	-0.050	-0.043
-719.806	-183.175	-0.162	-0.003
-718.791	-53.929	-0.222	0.102
-717.777	-40.639	0.301	0.156
-716.762	800.000	-0.098	-0.295
-715.748	800.000	0.008	-0.033
-714.733	-35.159	0.332	-0.181
-713.718	633.345	-0.079	-0.202
-712.704	105.550	-0.214	0.254
-711.689	-130.902	-0.012	0.002
-710.675	-200.000	-0.006	0.042
-709.660	142.484	-0.041	-0.054
-708.645	128.454	-0.146	-0.186
-707.631	-42.735	-0.094	-0.048
-706.616	-50.067	0.244	-0.116
-705.602	-113.278	-0.257	-0.051
-704.587	800.000	-0.145	-0.425
-703.572	-169.828	0.283	0.010
-702.558	56.583	-0.079	0.077
-701.543	-62.895	-0.348	-0.145
-700.529	-200.000	-0.014	-0.205
-699.514	19.811	-0.233	-0.188
-698.499	800.000	-0.031	-0.099
-697.485	-200.000	0.073	-0.408
-696.470	800.000	0.025	-0.093
-695.456	-200.000	0.003	-0.055
-694.441	-181.131	-0.382	-0.008
-693.426	-19.539	0.078	-0.049
-692.412	-50.796	-0.166	-0.078
-691.397	706.428	-0.096	-0.253
-690.383	-48.695	-0.197	0.095
-689.368	353.807	0.131	0.261
-688.354	186.708	0.255	-0.381
-687.339	-42.353	-0.109	-0.056
-686.324	-73.053	0.152	-0.056
-685.310	-7.044	0.162	0.110
-684.295	11.225	0.152	0.117
-683.281	-200.000	-0.014	-0.439
-682.266	15.409	-0.070	-0.055
-681.251	618.460	0.101	0.255
-680.237	94.321	-0.037	0.042
-679.222	-85.166	0.461	-0.145
-678.208	-149.780	-0.150	0.012
-677.193	-105.078	0.118	0.027
-676.178	-200.000	0.005	-0.047
-675.164	-190.452	0.099	-0.001
-674.149	-127.377	-0.250	-0.036
-673.135	-104.371	-0.297	0.069
-672.120	-97.750	0.144	0.037
-671.105	215.672	0.178	-0.284
-670.091	-100.568	0.092	0.023
-669.076	-47.406	0.303	-0.147
-668.062	389.968	-0.108	0.224
-667.047	800.000	0.087	-0.317
-666.032	-113.220	-0.219	-0.043
-665.018	-145.755	-0.177	0.016
-664.003	-109.176	0.319	0.068
-662.989	-75.512	0.073	-0.026
-661.974	-42.853	0.213	0.108
-660.959	-40.599	-0.307	-0.159
-659.945	-200.000	0.067	0.353
-658.930	-19.888	0.180	0.111
-657.916	341.416	-0.114	-0.224
-656.901	19.931	-0.462	-0.373
-655.886	-200.000	-0.046	-0.504
-654.872	0.385	0.383	-0.274
-653.857	-85.797	0.259	0.080
-652.843	-118.815	-0.092	-0.016
-651.828	-200.000	-0.076	-0.346
-650.814	147.350	0.160	0.216
-649.799	800.000	-0.164	0.495
-648.784	-35.403	-0.316	0.172
-647.770	98.609	-0.124	-0.143
-646.755	303.540	0.128	-0.238
-645.741	-45.293	-0.083	-0.041
-644.726	-56.557	-0.422	0.187
-643.711	-19.643	0.114	0.071
-642.697	-98.598	-0.202	-0.052
-641.682	187.094	-0.084	-0.126
-640.668	-25.173	0.124	-0.074
-639.653	800.000	-0.059	-0.173
-638.638	-149.980	0.250	-0.019
-637.624	-188.486	-0.327	0.004
-636.609	-122.024	0.105	0.017
-635.595	97.520	0.240	-0.276
-634.580	-8.830	-0.113	0.075
-633.565	-200.000	0.018	0.131
-632.551	67.208	0.128	-0.131
-631.536	-69.915	0.240	-0.092
-630.522	-48.799	0.354	-0.170
-629.507	419.246	-0.126	-0.269
-628.492	-84.431	0.052	0.016
-627.478	-200.000	-0.036	-0.198
-626.463	-147.567	-0.489	0.041
-625.449	-90.611	0.060	-0.017
-624.434	-111.388	-0.261	-0.053
-623.419	313.883	-0.148	-0.278
-622.405	505.949	-0.031	-0.072
-621.390	-200.000	-0.001	0.121
-620.376	-123.701	-0.344	0.054
-619.361	-200.000	0.018	0.190
-618.346	21.552	0.196	0.160
-617.332	54.409	0.163	-0.157
-616.317	-141.018	-0.560	0.057
-615.303	-166.913	0.154	-0.006
-614.288	-179.117	-0.028	-0.001
-613.273	-89.465	-0.229	0.067
-612.259	800.000	-0.036	-0.139
-611.244	21.501	-0.030	-0.025
-610.230	15.789	0.177	-0.139
-609.215	58.626	-0.188	0.185
-608.201	45.889	-0.031	0.029
-607.186	-81.008	0.100	-0.033
-606.171	157.149	-0.336	-0.464
-605.157	-123.024	0.248	0.040
-604.142	332.746	-0.069	0.134
-603.128	-20.521	0.123	0.075
-602.113	10.712	-0.080	-0.061
-601.098	-122.517	-0.185	0.030
-600.084	-70.796	-0.114	-0.043
-599.069	-200.000	0.017	0.079
-598.055	-9.155	0.289	-0.193
-597.040	-200.000	0.000	-0.219
-596.025	800.000	0.011	-0.039
-595.011	-200.000	0.019	0.180
-593.996	800.000	-0.070	0.241
-592.982	34.982	-0.163	-0.142
-591.967	127.207	0.128	0.162
-590.952	230.783	0.110	0.180
-589.938	-75.361	0.114	0.040
-588.923	-38.324	-0.172	-0.091
-587.909	-59.132	-0.276	-0.119
-586.894	-200.000	0.043	0.256
-585.879	-91.162	0.068	-0.019
-584.865	189.168	0.063	0.094
-583.850	3.955	0.422	-0.308
-582.836	118.996	0.202	-0.249
-581.821	383.648	0.021	-0.044
-580.806	236.713	0.073	0.121
-579.792	-56.975	0.026	-0.011
-578.777	354.356	-0.118	0.235
-577.763	-7.249	-0.274	-0.186
-576.748	86.203	0.101	0.111
-575.733	55.976	0.035	0.034
-574.719	43.353	0.067	-0.061
-573.704	-68.509	-0.468	-0.181
-572.690	59.291	0.221	-0.217
-571.675	800.000	0.031	-0.094
-570.661	-162.718	-0.460	-0.022
-569.646	172.465	-0.032	0.046
-568.631	-162.368	-0.148	-0.007
-567.617	-93.081	0.428	0.119
-566.602	738.028	-0.111	0.298
-565.588	129.600	-0.268	0.342
-564.573	548.342	-0.080	0.191
-563.558	-88.085	0.200	0.060
-562.544	611.699	0.160	0.400
-561.529	-61.614	0.371	-0.155
-560.515	324.642	-0.131	0.249
-559.500	-81.603	0.078	0.026
-558.485	300.048	-0.168	0.308
-557.471	-73.943	0.123	0.044
-556.456	365.413	0.048	0.097
-555.442	-3.463	0.162	0.112
-554.427	573.190	-0.097	0.236
-553.412	172.605	0.109	0.156
-552.398	-34.939	-0.191	-0.104
-551.383	-184.469	0.098	0.002
-550.369	-114.122	0.060	0.012
-549.354	-200.000	0.033	0.155
-548.339	524.134	-0.086	-0.202
-547.325	-46.261	-0.455	-0.223
-546.310	800.000	-0.025	0.076
-545.296	151.959	0.266	0.362
-544.281	-101.568	-0.092	0.022
-543.266	120.965	-0.083	0.103
-542.252	286.795	0.180	0.323
-541.237	349.515	0.008	0.016
-540.223	-200.000	-0.099	0.000
-539.208	-35.868	-0.324	0.175
-538.193	255.960	-0.084	-0.144
-537.179	148.907	-0.031	-0.042
-536.164	-123.677	0.246	-0.039
-535.150	-51.228	0.203	-0.095
-534.135	2.419	-0.034	0.025
-533.121	-175.387	-0.314	0.009
-532.106	-73.148	0.132	-0.048
-531.091	181.887	-0.075	0.110
-530.077	314.711	-0.129	0.242
-529.062	-74.641	0.026	0.009
-528.048	-200.000	-0.010	0.181
-527.033	-48.585	0.374	0.179
-526.018	150.651	-0.223	-0.301
-525.004	-114.016	0.109	0.021
-523.989	752.765	-0.053	0.142
-522.975	278.113	-0.160	-0.284
-521.960	-132.415	-0.273	0.035
-520.945	-39.798	-0.138	-0.072
-519.931	800.000	-0.049	0.213
-518.916	66.517	0.274	0.278
-517.902	13.515	0.103	-0.080
-516.887	-67.583	-0.210	0.082
-515.872	215.901	-0.065	0.103
-514.858	-137.859	0.209	0.023
-513.843	242.589	-0.224	0.373
-512.829	238.343	0.157	-0.259
-511.814	-54.105	-0.240	0.109
-510.799	800.000	0.050	-0.164
-509.785	800.000	0.100	-0.291
-508.770	73.573	-0.175	0.183
-507.756	313.202	0.125	0.234
-506.741	13.936	0.134	0.104
-505.726	-200.000	-0.008	-0.073
-504.712	-15.621	-0.145	0.092
-503.697	32.775	-0.156	-0.134
-502.683	-200.000	0.010	0.097
-501.668	800.000	0.067	-0.242
-500.653	102.819	0.190	0.221
-499.639	106.798	-0.107	-0.127
-498.624	-92.336	-0.261	-0.073
-497.610	-85.572	0.222	0.069
-496.595	-200.000	-0.035	0.261
-495.581	-200.000	0.082	-0.402
-494.566	95.286	0.082	-0.093
-493.551	-37.957	-0.301	-0.159
-492.537	-200.000	0.055	0.332
-491.522	-66.461	-0.231	-0.091
-490.508	-24.825	-0.224	-0.132
-489.493	46.871	0.127	0.117
-488.478	58.884	0.033	-0.032
-487.464	800.000	-0.081	0.249
-486.449	-30.657	0.207	-0.116
-485.435	-200.000	0.020	-0.321
-484.420	139.608	0.114	0.150
-483.405	269.740	0.079	0.137
-482.391	-40.648	0.376	-0.194
-481.376	-97.018	-0.289	0.075
-480.362	800.000	0.153	-0.423
-479.347	326.055	0.118	-0.225
-478.332	88.728	0.059	-0.065
-477.318	-46.367	-0.392	0.191
-476.303	-200.000	-0.025	0.396
-475.289	-200.000	0.008	0.168
-474.274	113.196	0.196	-0.237
-473.259	-200.000	0.014	0.214
-472.245	5.708	0.035	-0.026
-471.230	14.503	0.110	-0.086
-470.216	310.396	-0.067	-0.125
-469.201	-127.594	-0.174	0.025
-468.186	154.854	0.375	-0.512
-467.172	-200.000	-0.007	-0.312
-466.157	154.047	0.082	0.111
-465.143	491.512	-0.116	0.263
-464.128	-138.853	0.127	-0.014
-463.113	-32.841	0.108	-0.059
-462.099	-200.000	-0.046	0.244
-461.084	800.000	0.085	-0.276
-460.070	-200.000	-0.009	-0.304
-459.055	-57.460	0.461	-0.201
-458.040	-131.027	0.276	-0.037
-457.026	315.904	-0.100	-0.187
-456.011	-97.990	-0.211	-0.054
-454.997	474.813	0.033	-0.074
-453.982	-200.000	-0.068	-0.314
-452.968	-49.049	0.103	-0.049
-451.953	-133.115	0.261	-0.033
-450.938	186.022	-0.047	-0.069
-449.924	-59.499	0.156	-0.067
-448.909	-200.000	-0.050	0.248
-447.895	109.898	-0.185	-0.220
-446.880	9.125	0.234	-0.176
-445.865	462.257	0.064	-0.142
-444.851	-91.294	0.206	0.058
-443.836	47.937	0.053	-0.049
-442.822	400.021	-0.129	-0.268
-441.807	333.606	-0.110	0.212
-440.792	233.915	-0.085	0.139
-439.778	460.953	-0.145	-0.320
-438.763	13.241	0.300	-0.230
-437.749	-106.575	-0.208	0.046
-436.734	478.451	0.165	-0.371
-435.719	108.486	-0.033	-0.040
-434.705	172.786	0.240	-0.343
-433.690	215.593	0.025	0.040
-432.676	-85.674	0.298	0.092
-431.661	78.626	0.054	-0.057
-430.646	330.918	-0.104	-0.199
-429.632	603.150	0.036	0.089
-428.617	-126.804	0.133	0.020
-427.603	-115.894	-0.296	0.055
-426.588	-125.902	-0.082	-0.012
-425.573	168.696	0.079	-0.112
-424.559	800.000	0.031	0.104
-423.544	-200.000	-0.002	0.251
-422.530	-200.000	-0.021	-0.122
-421.515	-120.422	0.155	-0.026
-420.500	-149.282	-0.106	-0.008
-419.486	-200.000	0.019	-0.286
-418.471	-200.000	0.036	-0.637
-417.457	-200.000	-0.007	-0.220
-416.442	-47.391	-0.247	-0.119
-415.428	-200.000	-0.005	0.365
-414.413	62.642	-0.388	0.385
-413.398	73.318	0.203	-0.211
-412.384	-35.015	0.218	-0.118
-411.369	-26.652	-0.144	0.083
-410.355	-153.281	-0.359	0.025
-409.340	95.883	0.096	0.109
-408.325	17.089	0.105	-0.083
-407.311	248.210	0.157	0.264
-406.296	-10.171	0.140	0.092
-405.282	800.000	0.053	0.179
-404.267	-200.000	0.040	0.253
-403.252	27.539	-0.283	-0.236
-402.238	54.038	0.170	-0.162
-401.223	-45.731	0.211	0.104
-400.209	-200.000	-0.025	0.411
-399.194	-29.560	-0.305	-0.172
-398.179	-25.193	-0.281	-0.165
-397.165	-42.622	-0.211	0.107
-396.150	-200.000	-0.038	0.206
-395.136	-123.884	0.063	-0.010
-394.121	-174.075	0.212	-0.006
-393.106	-200.000	0.020	-0.194
-392.092	-55.340	-0.084	-0.037
-391.077	-123.029	-0.207	0.033
-390.063	256.403	0.126	-0.215
-389.048	-200.000	-0.027	-0.216
-388.033	90.139	-0.066	0.073
-387.019	800.000	0.039	-0.115
-386.004	800.000	0.099	-0.283
-384.990	-116.763	0.319	-0.058
-383.975	-82.728	-0.160	0.051
-382.960	800.000	0.030	0.091
-381.946	304.326	0.128	0.235
-380.931	-144.126	-0.093	-0.009
-379.917	739.356	0.109	-0.290
-378.902	-119.040	0.456	-0.079
-377.888	-16.313	0.220	0.138
-376.873	-28.615	0.101	0.057
-375.858	-200.000	0.034	0.349
-374.844	-45.285	-0.185	-0.091
-373.829	800.000	-0.040	0.140
-372.815	571.253	0.109	-0.263
-371.800	-200.000	0.019	-0.178
-370.785	800.000	0.100	0.373
-369.771	551.484	-0.193	-0.458
-368.756	381.892	-0.250	-0.508
-367.742	336.583	-0.028	-0.054
-366.727	-32.784	-0.283	-0.156
-365.712	564.973	-0.082	0.197
-364.698	-117.545	-0.042	0.008
-363.683	141.855	-0.064	-0.084
-362.669	-106.081	-0.282	-0.063
-361.654	-132.014	0.040	-0.005
-360.639	-17.381	0.313	-0.195
-359.625	-84.780	0.127	-0.040
-358.610	-14.216	0.424	0.271
-357.596	-50.195	0.134	-0.063
-356.581	128.253	0.175	-0.220
-355.566	-86.532	-0.335	-0.102
-354.552	800.000	-0.098	-0.286
-353.537	31.708	-0.287	-0.244
-352.523	800.000	-0.111	0.380
-351.508	40.708	-0.070	0.062
-350.493	242.231	-0.082	-0.136
-349.479	-200.000	-0.032	-0.313
-348.464	183.778	-0.103	-0.151
-347.450	-65.875	-0.221	-0.087
-346.435	-45.915	-0.155	-0.076
-345.420	800.000	-0.090	-0.311
-344.406	-200.000	0.001	0.365
-343.391	800.000	0.087	-0.276
-342.377	11.943	-0.199	0.151
-341.362	800.000	0.213	0.657
-340.348	656.238	-0.050	0.126
-339.333	47.424	0.160	0.147
-338.318	223.626	0.177	0.283
-337.304	800.000	0.030	0.124
-336.289	-74.294	-0.372	0.133
-335.275	800.000	-0.009	-0.033
-334.260	800.000	0.127	0.416
-333.245	-104.494	0.271	-0.062
-332.231	-84.689	-0.044	-0.014
-331.216	280.740	0.166	-0.294
-330.202	770.594	-0.172	0.462
-329.187	-108.834	0.446	0.094
-328.172	266.711	-0.123	0.213
-327.158	-9.980	-0.213	0.140
-326.143	41.857	0.252	0.226
-325.129	-182.129	0.220	0.004
-324.114	166.066	-0.094	-0.132
-323.099	55.591	0.247	0.236
-322.085	-163.736	0.237	-0.011
-321.070	-103.069	0.196	0.046
-320.056	800.000	-0.032	-0.114
-319.041	-56.415	0.168	-0.074
-318.026	-200.000	-0.017	0.132
-317.012	708.989	-0.080	-0.209
-315.997	31.895	0.080	-0.068
-314.983	28.661	-0.095	0.079
-313.968	-95.592	-0.116	-0.031
-312.953	87.306	-0.172	-0.188
-311.939	-200.000	0.026	0.137
-310.924	334.637	0.129	0.247
-309.910	-200.000	-0.005	-0.276
-308.895	800.000	0.064	-0.196
-307.880	-200.000	-0.011	-0.146
-306.866	-39.836	-0.171	-0.088
-305.851	-106.177	0.186	-0.041
-304.837	69.722	-0.110	0.111
-303.822	-79.625	-0.144	-0.048
-302.807	-94.698	0.057	0.015
-301.793	-200.000	0.021	-0.362
-300.778	35.989	0.229	0.199
-299.764	-59.760	-0.136	-0.057
-298.749	-37.786	0.290	0.152
-297.735	61.707	-0.251	-0.247
-296.720	-7.424	-0.194	-0.130
-295.705	-35.783	0.382	-0.204
-294.691	-3.579	0.258	0.177
-293.676	51.490	-0.156	-0.146
-292.662	-143.301	0.228	0.022
-291.647	-90.418	-0.309	0.089
-290.632	-8.546	0.210	-0.139
-289.618	38.147	0.234	-0.205
-288.603	43.214	0.239	-0.215
-287.589	800.000	-0.013	0.047
-286.574	-93.947	0.205	0.056
-285.559	-17.984	-0.155	0.096
-284.545	-200.000	-0.005	-0.100
-283.530	-126.855	-0.250	-0.036
-282.516	621.053	0.127	0.315
-281.501	-29.078	0.103	0.058
-280.486	-199.334	0.101	0.001
-279.472	-60.921	-0.174	-0.072
-278.457	-52.994	0.374	0.169
-277.443	-200.000	0.007	-0.054
-276.428	-156.267	-0.133	-0.008
-275.413	795.113	0.031	-0.085
-274.399	485.869	-0.047	-0.106
-273.384	-61.075	0.203	-0.084
-272.370	614.180	-0.064	0.157
-271.355	-143.012	-0.154	0.015
-270.340	-56.060	-0.452	-0.199
-269.326	175.842	-0.177	0.253
-268.311	375.602	0.154	0.311
-267.297	217.403	-0.086	0.135
-266.282	27.850	0.262	0.218
-265.267	307.185	0.066	-0.122
-264.253	800.000	0.061	0.197
-263.238	371.108	-0.162	0.323
-262.224	459.573	-0.066	-0.145
-261.209	-200.000	-0.028	0.202
-260.195	-163.991	0.102	0.005
-259.180	181.339	0.099	-0.144
-258.165	-115.878	0.073	-0.013
-257.151	-45.587	-0.311	-0.152
-256.136	-45.085	-0.109	0.053
-255.122	-64.172	-0.083	0.033
-254.107	23.913	-0.087	0.071
-253.092	-200.000	0.081	0.603
-252.078	14.723	0.241	-0.185
-251.063	-144.972	-0.422	0.038
-250.049	-21.148	0.119	-0.072
-249.034	45.523	0.337	0.307
-248.019	-88.685	-0.504	0.148
-247.005	-1.819	0.156	-0.108
-245.990	-5.258	-0.139	-0.094
-244.976	-200.000	0.033	0.169
-243.961	450.158	0.115	0.249
-242.946	175.719	-0.141	0.202
-241.932	133.099	-0.210	0.267
-240.917	-200.000	0.011	0.214
-239.903	64.972	0.079	-0.079
-238.888	-176.856	-0.284	0.007
-237.873	156.199	-0.117	-0.158
-236.859	-151.035	-0.017	-0.001
-235.844	132.440	0.171	-0.217
-234.830	-2.395	-0.323	-0.223
-233.815	-46.642	-0.451	-0.217
-232.800	-41.009	-0.354	-0.180
-231.786	-81.143	0.242	0.079
-230.771	178.888	-0.154	0.222
-229.757	-10.755	-0.077	0.050
-228.742	-200.000	-0.036	0.182
-227.727	-200.000	0.045	-0.300
-226.713	-112.927	0.258	-0.050
-225.698	453.571	-0.078	-0.171
-224.684	134.699	-0.112	-0.142
-223.669	800.000	0.115	-0.366
-222.655	800.000	-0.080	0.221
-221.640	-9.134	-0.027	0.018
-220.625	-139.482	0.265	-0.028
-219.611	-200.000	-0.044	-0.364
-218.596	154.344	0.061	0.083
-217.582	591.789	-0.024	0.058
-216.567	-30.326	0.249	-0.139
-215.552	-200.000	0.009	-0.085
-214.538	-23.904	0.232	0.136
-213.523	-54.091	-0.146	-0.065
-212.509	-14.817	0.240	0.152
-211.494	-27.647	-0.202	0.115
-210.479	443.652	-0.188	0.406
-209.465	-200.000	-0.013	0.175
-208.450	-75.333	0.161	0.057
-207.436	-113.773	0.134	-0.026
-206.421	-84.072	-0.319	0.100
-205.406	-200.000	-0.023	0.101
-204.392	-200.000	0.062	-0.301
-203.377	-159.955	-0.363	0.020
-202.363	309.968	0.074	-0.137
-201.348	800.000	-0.024	0.085
-200.333	9.228	0.260	-0.193
-199.319	-33.067	0.133	-0.073
-198.304	800.000	0.076	0.218
-197.290	687.318	0.085	0.219
-196.275	800.000	-0.036	-0.136
-195.260	-75.612	-0.419	-0.146
-194.246	-94.753	0.280	0.075
-193.231	214.658	0.094	0.147
-192.217	381.639	0.106	0.214
-191.202	-200.000	-0.017	-0.130
-190.187	-9.247	-0.286	0.188
-189.173	-145.657	-0.268	0.024
-188.158	-39.032	0.118	0.061
-187.144	-41.629	0.128	-0.064
-186.129	211.769	-0.085	-0.131
-185.114	-200.000	-0.085	0.457
-184.100	-200.000	-0.038	0.175
-183.085	-200.000	-0.032	0.252
-182.071	83.324	0.150	-0.161
-181.056	-200.000	-0.036	0.170
-180.042	219.781	-0.183	-0.288
-179.027	-142.589	-0.201	-0.019
-178.012	-131.765	-0.222	-0.029
-176.998	90.298	-0.241	-0.265
-175.983	-200.000	0.044	0.243
-174.969	-200.000	0.015	0.280
-173.954	800.000	-0.030	-0.111
-172.939	-16.615	0.151	0.094
-171.925	-27.905	0.059	0.034
-170.910	271.951	0.086	0.149
-169.896	-167.590	-0.166	0.006
-168.881	-200.000	0.022	-0.137
-167.866	149.865	0.119	0.159
-166.852	95.334	-0.016	0.018
-165.837	22.095	0.289	-0.231
-164.823	-200.000	0.020	-0.159
-163.808	-29.532	0.385	-0.216
-162.793	67.624	0.412	-0.413
-161.779	-131.346	0.106	0.014
-160.764	130.967	0.075	0.095
-159.750	408.834	0.128	0.266
-158.735	-22.904	-0.260	0.154
-157.720	43.213	0.081	-0.073
-156.706	-31.287	0.336	0.186
-155.691	255.073	-0.142	-0.239
-154.677	158.405	0.094	0.127
-153.662	-200.000	-0.014	0.082
-152.647	-200.000	-0.031	0.148
-151.633	-194.837	0.317	-0.002
-150.618	64.563	-0.139	0.138
-149.604	-200.000	-0.062	0.474
-148.589	82.831	-0.213	-0.227
-147.574	112.704	0.153	-0.182
-146.560	42.623	-0.071	-0.063
-145.545	319.120	-0.143	-0.266
-144.531	-156.529	0.079	0.005
-143.516	-37.456	0.236	0.124
-142.502	360.901	0.172	0.338
-141.487	-200.000	0.059	-0.306
-140.472	68.082	0.300	-0.301
-139.458	-34.669	-0.259	-0.139
-138.443	368.432	-0.042	-0.083
-137.429	-200.000	-0.039	0.181
-136.414	-66.260	0.106	0.041
-135.399	-200.000	-0.048	-0.425
-134.385	25.555	0.268	-0.218
-133.370	-156.317	-0.262	0.016
-132.356	433.490	-0.062	-0.133
-131.341	-108.703	0.300	-0.063
-130.326	44.065	0.270	-0.243
-129.312	110.935	-0.228	0.269
-128.297	-200.000	-0.017	0.080
-127.283	-14.166	-0.055	0.035
-126.268	-165.566	0.225	0.010
-125.253	-200.000	-0.007	0.314
-124.239	275.813	0.184	-0.320
-123.224	-200.000	-0.029	0.600
-122.210	-29.335	0.233	0.130
