DTS Sentinel unit serial number:	SN413079Multiplexer serial number:	ORYXHardware model number:	OX4-SRSoftware version number:	ORYX F/W v4.00 Oryx Data Collector v3.7.2.0data status	okinstallation	princeton_trtdifferential loss correction	single-endedforward channel	channel 1reverse channel	N/Adate	2019/09/15time	22:38:35forward acquisition time	60.00reverse acquisition time	0.00gamma	496.2192k internal	0.2331k external	0.2331temperature offset calibration	0.9970default loss term (dB/km)	0.3790temperature slope calibration	1.0000multiplexer offset coefficient	1.0000multiplexer slope coefficient	1.0000fibre end	0.00T internal ref (°C)	28.98T ext. ref 1 (°C)	8.81T ext. ref 2 (°C)	22.43length (m)	temperature (°C)	Stokes	anti-Stokes-747.200	12.484	-0.088	0.068
-746.185	-52.705	-0.055	0.025
-745.171	20.126	0.253	-0.206
-744.156	-200.000	-0.008	0.391
-743.142	-117.803	0.275	0.050
-742.127	-26.275	-0.207	-0.122
-741.112	-6.487	-0.183	0.126
-740.098	775.455	0.067	0.183
-739.083	78.009	-0.344	0.369
-738.069	638.467	-0.122	0.313
-737.054	-55.075	-0.134	-0.061
-736.039	-39.862	-0.466	0.245
-735.025	15.217	0.162	0.128
-734.010	-200.000	-0.048	-0.346
-732.996	-86.067	-0.217	-0.067
-731.981	-6.136	0.318	-0.219
-730.966	117.939	-0.296	-0.366
-729.952	349.682	-0.205	-0.407
-728.937	800.000	0.122	-0.366
-727.923	206.146	-0.263	0.412
-726.908	-18.041	-0.502	0.316
-725.894	-90.649	-0.119	-0.035
-724.879	120.472	0.068	0.085
-723.864	-110.428	-0.233	-0.049
-722.850	110.655	-0.099	0.119
-721.835	-34.231	-0.205	0.113
-720.821	800.000	0.155	-0.437
-719.806	-19.920	0.192	0.119
-718.791	-107.660	0.245	0.054
-717.777	126.819	0.262	-0.334
-716.762	-56.170	-0.149	0.067
-715.748	-200.000	0.019	0.342
-714.733	44.178	-0.114	0.105
-713.718	-63.473	-0.263	-0.109
-712.704	-18.649	0.209	0.131
-711.689	-26.056	-0.306	0.181
-710.675	-110.234	0.139	0.029
-709.660	17.932	-0.270	-0.216
-708.645	-200.000	-0.020	-0.260
-707.631	-169.628	0.321	-0.012
-706.616	74.945	-0.161	-0.170
-705.602	-200.000	-0.074	-0.344
-704.587	30.117	-0.015	0.013
-703.572	79.301	0.255	-0.274
-702.558	-126.831	0.274	-0.041
-701.543	-59.796	-0.152	0.065
-700.529	28.385	0.091	-0.077
-699.514	-4.448	-0.271	0.188
-698.499	166.773	0.142	0.202
-697.485	-23.642	0.010	-0.006
-696.470	-190.925	-0.217	0.002
-695.456	187.151	0.045	0.068
-694.441	-133.271	0.176	0.022
-693.426	197.128	-0.149	0.229
-692.412	-183.070	0.180	-0.003
-691.397	-200.000	-0.045	-0.251
-690.383	-200.000	0.008	-0.287
-689.368	-200.000	-0.020	-0.395
-688.354	173.092	-0.119	-0.172
-687.339	-79.539	0.189	-0.064
-686.324	349.374	0.173	-0.344
-685.310	72.557	-0.105	-0.110
-684.295	800.000	0.046	-0.177
-683.281	-86.144	0.337	-0.105
-682.266	-62.465	-0.148	-0.062
-681.251	-5.971	-0.113	-0.078
-680.237	-200.000	-0.004	0.227
-679.222	344.510	-0.073	0.143
-678.208	-60.377	0.257	-0.110
-677.193	-60.462	-0.078	-0.033
-676.178	146.598	-0.173	-0.233
-675.164	800.000	-0.051	0.205
-674.149	62.458	-0.307	0.308
-673.135	787.756	-0.049	0.136
-672.120	-110.598	0.370	-0.077
-671.105	-151.263	0.065	-0.005
-670.091	-13.900	0.230	0.149
-669.076	-200.000	-0.001	-0.047
-668.062	-19.941	-0.112	-0.069
-667.047	800.000	-0.089	-0.290
-666.032	26.966	-0.134	0.112
-665.018	308.583	-0.055	-0.103
-664.003	83.064	-0.213	-0.232
-662.989	13.704	0.112	-0.087
-661.974	-138.839	-0.290	0.032
-660.959	35.621	0.108	0.095
-659.945	-155.324	-0.104	0.007
-658.930	54.315	0.037	0.035
-657.916	-134.307	-0.368	-0.045
-656.901	-122.757	-0.247	0.040
-655.886	-200.000	0.046	-0.226
-654.872	-129.907	0.069	-0.009
-653.857	278.323	-0.080	0.143
-652.843	52.058	-0.065	0.062
-651.828	181.808	-0.086	0.128
-650.814	-114.984	-0.217	0.041
-649.799	150.689	0.184	0.251
-648.784	800.000	0.118	-0.371
-647.770	37.982	0.168	0.149
-646.755	307.718	-0.093	-0.175
-645.741	800.000	-0.034	0.102
-644.726	29.555	-0.262	-0.223
-643.711	-13.603	-0.230	0.149
-642.697	520.553	-0.052	0.122
-641.682	295.161	-0.168	0.307
-640.668	214.481	0.031	-0.049
-639.653	306.786	-0.097	0.180
-638.638	-200.000	-0.023	0.199
-637.624	-6.793	0.211	0.143
-636.609	-139.349	0.112	-0.012
-635.595	800.000	0.010	0.041
-634.580	-48.720	-0.123	0.059
-633.565	329.865	0.044	0.085
-632.551	-200.000	-0.016	0.109
-631.536	-95.174	-0.265	-0.072
-630.522	-59.350	-0.123	0.053
-629.507	717.626	0.061	0.163
-628.492	-145.645	-0.253	-0.023
-627.478	479.849	0.080	-0.181
-626.463	-200.000	0.043	-0.221
-625.449	-21.272	-0.249	-0.152
-624.434	-55.380	-0.329	0.148
-623.419	-133.542	0.592	-0.074
-622.405	-156.683	-0.314	0.019
-621.390	-56.209	-0.355	0.158
-620.376	-52.744	0.125	0.058
-619.361	-82.405	0.136	0.044
-618.346	590.188	-0.067	0.165
-617.332	-48.519	-0.336	0.162
-616.317	-76.715	-0.132	0.046
-615.303	-78.568	0.126	0.043
-614.288	43.312	-0.147	-0.135
-613.273	330.460	0.257	-0.496
-612.259	-3.504	-0.140	-0.098
-611.244	-52.874	-0.207	0.095
-610.230	601.440	-0.038	-0.095
-609.215	-132.261	0.104	0.013
-608.201	800.000	0.109	-0.306
-607.186	33.776	0.264	-0.230
-606.171	-92.169	0.312	0.088
-605.157	420.393	-0.148	-0.318
-604.142	256.055	-0.099	-0.170
-603.128	800.000	0.039	-0.129
-602.113	-38.771	0.182	-0.096
-601.098	-118.231	-0.226	0.040
-600.084	32.938	0.029	-0.025
-599.069	80.899	-0.170	-0.184
-598.055	273.264	0.131	0.232
-597.040	800.000	-0.019	0.084
-596.025	-142.829	0.104	-0.010
-595.011	93.002	-0.136	-0.153
-593.996	-11.155	-0.025	0.017
-592.982	244.629	-0.080	0.134
-591.967	-118.224	0.297	-0.053
-590.952	36.324	-0.242	0.214
-589.938	-73.736	-0.036	-0.013
-588.923	493.392	0.168	0.386
-587.909	-200.000	-0.001	-0.093
-586.894	-148.501	0.170	0.014
-585.879	-65.492	-0.095	0.038
-584.865	255.212	-0.017	0.028
-583.850	158.495	0.166	0.231
-582.836	-200.000	0.052	-0.447
-581.821	-101.371	-0.350	0.085
-580.806	-165.678	0.129	-0.006
-579.792	-200.000	-0.038	0.343
-578.777	800.000	0.179	0.570
-577.763	-200.000	-0.030	0.358
-576.748	-129.552	0.246	0.034
-575.733	800.000	-0.060	0.235
-574.719	-75.068	0.167	0.060
-573.704	-36.557	-0.067	-0.036
-572.690	-149.405	0.199	0.016
-571.675	-114.875	-0.210	-0.040
-570.661	-50.515	-0.117	-0.055
-569.646	776.208	-0.035	-0.097
-568.631	-35.158	0.089	-0.048
-567.617	-25.278	-0.105	0.062
-566.602	800.000	0.077	-0.251
-565.588	118.078	0.029	0.036
-564.573	-84.091	-0.128	-0.041
-563.558	800.000	0.063	-0.234
-562.544	-122.586	-0.054	-0.009
-561.529	362.142	-0.096	0.192
-560.515	-149.939	-0.210	-0.016
-559.500	-79.308	-0.191	0.065
-558.485	-18.435	0.306	0.191
-557.471	-200.000	-0.061	0.334
-556.456	800.000	-0.043	0.179
-555.442	-128.993	0.323	0.045
-554.427	-3.148	0.143	0.099
-553.412	-150.610	-0.218	-0.017
-552.398	800.000	-0.070	0.205
-551.383	800.000	0.163	0.480
-550.369	649.100	-0.185	0.473
-549.354	-167.380	0.540	0.022
-548.339	-200.000	0.001	0.055
-547.325	-12.385	-0.205	-0.134
-546.310	-48.996	-0.164	-0.078
-545.296	535.174	0.121	0.286
-544.281	-15.369	-0.141	-0.090
-543.266	-200.000	-0.033	-0.205
-542.252	800.000	-0.124	0.401
-541.237	36.167	-0.203	-0.178
-540.223	-56.366	0.140	-0.062
-539.208	-110.054	0.241	0.050
-538.193	-98.649	-0.536	-0.136
-537.179	252.218	-0.245	-0.417
-536.164	-26.748	-0.177	0.103
-535.150	-102.993	0.155	0.037
-534.135	341.049	-0.112	-0.217
-533.121	800.000	-0.049	0.173
-532.106	-153.754	0.051	0.003
-531.091	-67.115	0.174	-0.068
-530.077	-138.569	-0.155	-0.017
-529.062	-22.101	0.310	0.188
-528.048	-38.705	0.142	0.075
-527.033	-164.672	-0.220	-0.010
-526.018	-200.000	-0.015	-0.161
-525.004	-143.676	0.230	-0.022
-523.989	485.196	0.080	-0.182
-522.975	-151.206	0.497	-0.037
-521.960	-200.000	-0.007	-0.149
-520.945	-69.554	0.239	0.091
-519.931	-38.425	0.161	-0.085
-518.916	800.000	0.091	0.313
-517.902	365.915	-0.057	0.115
-516.887	723.441	-0.085	0.227
-515.872	8.780	0.190	-0.143
-514.858	123.054	-0.159	-0.199
-513.843	-200.000	0.002	-0.355
-512.829	-30.075	-0.141	-0.080
-511.814	800.000	0.065	-0.210
-510.799	21.611	0.070	-0.057
-509.785	-184.166	-0.095	-0.002
-508.770	-40.963	-0.240	-0.124
-507.756	-59.700	0.062	0.027
-506.741	-1.657	-0.337	-0.237
-505.726	342.471	-0.087	-0.171
-504.712	3.173	-0.238	0.173
-503.697	-200.000	-0.022	0.136
-502.683	-8.175	0.064	0.043
-501.668	606.142	-0.113	0.282
-500.653	-200.000	-0.029	-0.163
-499.639	-200.000	-0.018	-0.143
-498.624	800.000	-0.050	-0.166
-497.610	539.767	0.077	0.182
-496.595	-200.000	0.014	-0.303
-495.581	-97.434	-0.150	0.039
-494.566	-200.000	0.036	0.245
-493.551	800.000	-0.050	-0.164
-492.537	-200.000	-0.048	-0.215
-491.522	62.358	0.338	0.336
-490.508	-151.792	0.128	-0.009
-489.493	-67.351	-0.134	-0.052
-488.478	-200.000	-0.024	-0.316
-487.464	-200.000	-0.013	0.143
-486.449	-116.740	0.071	-0.013
-485.435	-83.361	0.358	0.114
-484.420	-168.136	0.130	-0.005
-483.405	123.279	0.063	0.079
-482.391	161.080	0.077	0.107
-481.376	-71.863	0.065	0.024
-480.362	281.999	-0.175	-0.313
-479.347	277.873	0.098	-0.175
-478.332	418.277	-0.100	0.213
-477.318	-31.442	-0.069	0.039
-476.303	51.077	-0.148	0.140
-475.289	105.897	-0.127	-0.149
-474.274	-200.000	0.017	0.150
-473.259	113.927	0.093	0.113
-472.245	-72.310	0.376	-0.139
-471.230	334.142	0.017	-0.032
-470.216	410.369	0.044	0.093
-469.201	800.000	0.050	0.139
-468.186	361.060	-0.083	0.166
-467.172	122.230	-0.164	-0.204
-466.157	102.254	-0.096	0.112
-465.143	-200.000	0.031	0.412
-464.128	-44.120	-0.065	0.033
-463.113	-157.738	-0.127	-0.008
-462.099	-54.330	-0.322	-0.145
-461.084	419.401	-0.147	-0.314
-460.070	800.000	0.123	-0.397
-459.055	167.516	-0.232	-0.329
-458.040	-24.151	-0.106	-0.063
-457.026	800.000	-0.140	0.462
-456.011	-200.000	0.068	-0.302
-454.997	-200.000	0.044	-0.273
-453.982	-200.000	-0.041	-0.178
-452.968	-44.822	-0.097	-0.048
-451.953	-83.143	0.347	-0.111
-450.938	-9.253	-0.148	0.099
-449.924	-40.615	-0.346	0.179
-448.909	-12.113	0.301	-0.196
-447.895	-200.000	-0.055	0.354
-446.880	185.542	0.327	0.483
-445.865	-200.000	-0.010	-0.149
-444.851	-200.000	-0.042	0.183
-443.836	-118.230	0.035	-0.006
-442.822	50.720	0.192	-0.180
-441.807	-200.000	-0.050	0.326
-440.792	-46.139	0.080	0.039
-439.778	125.087	-0.012	0.015
-438.763	-200.000	-0.034	-0.157
-437.749	-95.444	-0.199	0.053
-436.734	-91.495	-0.435	-0.123
-435.719	-51.055	0.074	0.034
-434.705	132.128	-0.176	-0.226
-433.690	247.647	-0.137	-0.230
-432.676	200.795	0.068	-0.104
-431.661	-200.000	-0.032	-0.169
-430.646	-200.000	0.087	-0.425
-429.632	-102.986	-0.079	0.019
-428.617	354.036	0.112	0.222
-427.603	-83.489	-0.175	0.056
-426.588	106.792	0.177	-0.209
-425.573	78.565	0.175	-0.185
-424.559	374.922	0.029	-0.058
-423.544	42.560	0.235	0.213
-422.530	1.677	-0.086	-0.062
-421.515	54.946	-0.028	-0.027
-420.500	-200.000	0.014	0.146
-419.486	800.000	0.102	0.300
-418.471	-138.823	-0.346	0.037
-417.457	82.659	-0.072	0.078
-416.442	-133.518	0.283	-0.035
-415.428	599.241	0.104	-0.256
-414.413	129.138	-0.093	0.118
-413.398	310.878	-0.101	0.189
-412.384	50.962	-0.210	0.198
-411.369	-130.709	0.193	-0.026
-410.355	-41.048	0.143	-0.073
-409.340	17.415	-0.281	-0.222
-408.325	-100.934	-0.141	-0.034
-407.311	10.118	-0.151	-0.114
-406.296	575.781	-0.062	0.150
-405.282	-200.000	-0.019	0.180
-404.267	93.807	0.156	-0.175
-403.252	118.899	-0.140	-0.172
-402.238	43.369	0.030	0.027
-401.223	-97.457	-0.181	-0.047
-400.209	-127.263	0.170	-0.025
-399.194	-114.628	0.151	0.029
-398.179	-174.113	-0.192	0.006
-397.165	-99.293	-0.381	-0.095
-396.150	-98.633	-0.136	-0.035
-395.136	-139.880	-0.459	-0.048
-394.121	-30.443	-0.255	0.144
-393.106	270.343	0.061	-0.106
-392.092	-71.242	0.266	0.099
-391.077	-200.000	0.014	0.102
-390.063	-44.476	-0.022	-0.011
-389.048	17.565	0.110	0.087
-388.033	339.295	0.192	-0.372
-387.019	-200.000	0.012	-0.190
-386.004	38.891	-0.078	-0.069
-384.990	-200.000	0.007	-0.143
-383.975	621.659	-0.070	-0.175
-382.960	-83.970	0.425	0.134
-381.946	86.177	0.134	0.146
-380.931	-200.000	0.031	0.412
-379.917	-40.667	0.322	-0.166
-378.902	-200.000	-0.003	-0.400
-377.888	-179.577	0.099	0.002
-376.873	82.308	-0.171	0.184
-375.858	-200.000	0.057	0.259
-374.844	409.469	0.116	0.244
-373.829	528.383	-0.151	0.354
-372.815	-200.000	0.009	-0.051
-371.800	-65.050	0.101	0.040
-370.785	58.649	0.347	-0.338
-369.771	152.463	0.107	-0.145
-368.756	-32.645	0.372	-0.206
-367.742	-94.610	0.243	-0.066
-366.727	153.748	-0.117	0.159
-365.712	-200.000	-0.005	0.128
-364.698	69.718	0.098	0.101
-363.683	-200.000	-0.000	0.161
-362.669	800.000	0.060	0.212
-361.654	160.217	0.152	-0.211
-360.639	192.257	-0.098	-0.147
-359.625	-109.031	-0.372	-0.078
-358.610	233.621	-0.215	0.350
-357.596	-48.487	0.103	-0.049
-356.581	-134.150	-0.126	-0.015
-355.566	-200.000	-0.028	-0.183
-354.552	475.731	0.058	0.131
-353.537	96.860	-0.114	-0.130
-352.523	-87.630	0.477	-0.143
-351.508	-114.426	0.141	0.027
-350.493	67.889	0.094	0.095
-349.479	135.195	0.350	0.450
-348.464	800.000	-0.063	0.215
-347.450	234.740	0.118	0.193
-346.435	-28.128	0.063	0.036
-345.420	104.826	-0.177	0.207
-344.406	800.000	0.054	-0.151
-343.391	1.977	-0.208	-0.149
-342.377	-119.110	0.374	-0.065
-341.362	-92.855	0.340	-0.094
-340.348	-200.000	-0.017	0.076
-339.333	-60.599	0.103	0.043
-338.318	-200.000	-0.012	-0.159
-337.304	87.521	-0.265	-0.291
-336.289	800.000	0.050	0.183
-335.275	-200.000	-0.413	0.001
-334.260	-173.113	-0.113	0.003
-333.245	800.000	0.073	-0.212
-332.231	444.692	0.079	0.171
-331.216	-200.000	-0.001	0.150
-330.202	-180.543	-0.312	-0.006
-329.187	-25.734	0.363	0.212
-328.172	49.562	-0.369	0.344
-327.158	412.850	-0.023	0.048
-326.143	-95.725	-0.195	-0.052
-325.129	16.850	-0.422	-0.331
-324.114	-82.674	-0.109	0.035
-323.099	-200.000	0.001	0.181
-322.085	-200.000	0.092	0.486
-321.070	-200.000	0.078	-0.371
-320.056	22.674	0.106	0.086
-319.041	413.002	0.136	0.286
-318.026	-90.410	-0.302	-0.087
-317.012	-33.778	0.236	0.129
-315.997	-90.398	0.405	-0.116
-314.983	298.243	0.081	0.147
-313.968	-200.000	0.018	0.171
-312.953	266.429	0.128	-0.221
-311.939	800.000	0.115	-0.390
-310.924	-200.000	0.042	-0.234
-309.910	175.240	-0.239	-0.342
-308.895	307.872	-0.166	0.307
-307.880	-30.162	0.196	0.110
-306.866	-147.242	0.169	-0.014
-305.851	144.007	-0.044	0.059
-304.837	486.032	-0.011	0.025
-303.822	-164.193	0.488	-0.022
-302.807	75.166	-0.351	-0.367
-301.793	265.493	-0.073	0.126
-300.778	142.279	-0.165	-0.216
-299.764	800.000	-0.134	0.406
-298.749	-100.534	0.065	-0.016
-297.735	-200.000	-0.009	0.049
-296.720	66.808	0.171	-0.172
-295.705	-94.955	0.245	-0.066
-294.691	-118.132	-0.049	0.009
-293.676	41.540	-0.120	0.107
-292.662	554.455	0.118	-0.281
-291.647	-90.813	0.157	0.045
-290.632	-31.075	0.166	0.092
-289.618	268.747	-0.064	-0.110
-288.603	-10.156	-0.142	0.093
-287.589	-145.074	0.350	-0.031
-286.574	-19.812	-0.056	-0.034
-285.559	-31.608	-0.358	-0.199
-284.545	-1.329	0.069	0.048
-283.530	107.406	-0.107	-0.126
-282.516	-200.000	0.028	0.198
-281.501	275.837	-0.088	-0.155
-280.486	-69.884	0.120	0.045
-279.472	-40.591	-0.166	-0.085
-278.457	-21.734	0.189	0.114
-277.443	-200.000	0.008	-0.136
-276.428	57.607	0.032	0.031
-275.413	344.250	0.130	-0.253
-274.399	292.132	-0.133	0.239
-273.384	-200.000	-0.043	-0.242
-272.370	-61.426	-0.184	0.076
-271.355	-149.392	-0.051	-0.004
-270.340	-15.335	-0.133	0.084
-269.326	-113.392	0.293	0.057
-268.311	158.886	-0.242	-0.333
-267.297	449.603	0.108	0.236
-266.282	-200.000	0.000	0.370
-265.267	-106.402	0.134	-0.030
-264.253	-56.564	-0.091	0.040
-263.238	38.160	0.016	-0.014
-262.224	152.533	0.031	0.042
-261.209	-126.262	0.442	-0.065
-260.195	298.425	0.033	-0.060
-259.180	41.545	0.123	0.110
-258.165	555.472	-0.093	0.220
-257.151	800.000	-0.065	-0.197
-256.136	-10.726	-0.120	0.078
-255.122	-152.910	0.117	0.008
-254.107	-11.435	-0.166	0.108
-253.092	-128.763	-0.188	0.026
-252.078	-72.450	-0.037	-0.013
-251.063	-1.575	-0.280	-0.194
-250.049	377.435	0.084	-0.170
-249.034	-65.942	0.296	0.117
-248.019	-134.337	-0.243	0.029
-247.005	-89.460	-0.135	0.039
-245.990	-146.667	0.390	0.033
-244.976	207.089	-0.149	0.229
-243.961	204.682	0.209	-0.319
-242.946	-200.000	0.039	-0.278
-241.932	-16.889	-0.277	0.173
-240.917	-95.698	0.120	0.032
-239.903	-200.000	0.017	0.097
-238.888	130.263	0.045	0.057
-237.873	-200.000	0.005	-0.057
-236.859	800.000	-0.083	-0.293
-235.844	800.000	0.104	0.305
-234.830	800.000	-0.082	-0.266
-233.815	-58.832	-0.148	0.063
-232.800	-96.064	0.169	0.044
-231.786	-80.648	0.201	0.066
-230.771	-82.182	-0.213	-0.068
-229.757	-200.000	0.015	-0.192
-228.742	-84.642	-0.280	-0.087
-227.727	231.139	0.142	-0.229
-226.713	79.372	-0.042	-0.045
-225.698	-150.912	-0.111	-0.008
-224.684	-200.000	-0.026	-0.210
-223.669	-100.866	-0.304	0.074
-222.655	-72.958	0.368	-0.133
-221.640	-67.129	-0.491	-0.191
-220.625	800.000	-0.102	0.378
-219.611	-87.129	0.166	-0.050
-218.596	-22.734	-0.119	0.071
-217.582	295.556	0.114	-0.205
-216.567	800.000	-0.151	-0.465
-215.552	306.083	0.310	-0.569
-214.538	-31.453	-0.032	0.018
-213.523	-35.349	0.239	0.128
-212.509	-123.050	0.274	0.043
-211.494	800.000	-0.097	-0.344
-210.479	115.188	-0.111	-0.133
-209.465	-83.090	0.534	-0.170
-208.450	444.067	0.130	-0.281
-207.436	534.016	-0.047	-0.109
-206.421	-200.000	0.006	0.191
-205.406	92.653	-0.263	-0.292
-204.392	-171.958	-0.195	0.006
-203.377	-200.000	0.107	0.674
-202.363	12.021	-0.231	-0.175
-201.348	-200.000	-0.053	-0.436
-200.333	136.275	0.048	0.061
-199.319	-186.880	-0.275	0.004
-198.304	-200.000	-0.039	-0.217
-197.290	314.483	-0.143	0.266
-196.275	-200.000	0.026	0.347
-195.260	-87.206	0.061	-0.018
-194.246	137.702	0.178	0.229
-193.231	305.133	0.112	-0.205
-192.217	15.460	0.143	0.111
-191.202	20.564	-0.160	-0.128
-190.187	229.375	0.083	0.134
-189.173	342.216	0.065	0.126
-188.158	800.000	0.062	0.185
-187.144	800.000	-0.067	0.263
-186.129	800.000	-0.179	0.497
-185.114	39.843	-0.317	-0.280
-184.100	800.000	0.038	-0.158
-183.085	1.766	0.218	0.154
-182.071	152.496	0.036	0.048
-181.056	-199.087	0.268	-0.001
-180.042	71.334	-0.086	-0.088
-179.027	370.724	0.188	0.376
-178.012	-96.395	-0.118	0.031
-176.998	700.487	0.105	-0.273
-175.983	-115.588	0.152	0.028
-174.969	221.321	-0.214	-0.339
-173.954	-108.006	0.074	0.016
-172.939	392.838	-0.067	0.137
-171.925	-200.000	-0.039	-0.205
-170.910	132.836	0.195	-0.248
-169.896	-41.851	-0.093	0.047
-168.881	507.839	-0.082	-0.187
-167.866	800.000	-0.030	0.121
-166.852	-200.000	0.002	0.414
-165.837	-200.000	0.026	-0.258
-164.823	307.568	0.098	-0.179
-163.808	64.665	0.185	-0.184
-162.793	-128.114	-0.419	0.059
-161.779	-18.405	0.222	0.136
-160.764	84.127	-0.110	0.118
-159.750	-19.418	-0.141	0.086
-158.735	-127.967	0.337	0.048
-157.720	-108.642	-0.016	-0.003
-156.706	-148.078	-0.189	-0.015
-155.691	607.910	-0.060	-0.148
-154.677	800.000	-0.072	0.302
-153.662	-200.000	-0.001	0.107
-152.647	109.045	0.114	-0.134
-151.633	-52.265	0.447	0.204
-150.618	-80.536	-0.342	0.112
-149.604	-6.973	0.148	-0.099
-148.589	658.057	-0.123	-0.311
-147.574	54.121	-0.111	0.105
-146.560	185.415	-0.049	0.072
-145.545	535.490	-0.186	-0.433
-144.531	-200.000	-0.019	0.298
-143.516	412.586	0.112	0.233
-142.502	-21.534	-0.213	0.127
-141.487	234.026	-0.079	0.128
-140.472	31.314	0.165	0.139
-139.458	-68.387	0.374	0.143
-138.443	-200.000	-0.094	0.423
-137.429	661.527	0.073	-0.186
-136.414	-200.000	-0.038	0.169
-135.399	-111.207	-0.196	-0.039
-134.385	-200.000	-0.006	-0.067
-133.370	-200.000	-0.019	-0.310
-132.356	-72.525	0.255	0.092
-131.341	-200.000	0.046	0.343
-130.326	128.855	-0.166	0.208
-129.312	178.944	0.079	0.113
-128.297	332.360	-0.141	-0.267
-127.283	-84.803	0.376	0.116
-126.268	153.830	0.129	-0.174
-125.253	-18.564	-0.071	0.044
-124.239	-174.509	-0.135	-0.004
-123.224	66.336	-0.234	0.234
-122.210	-88.538	-0.129	-0.038
