DTS Sentinel unit serial number:	SN413079Multiplexer serial number:	ORYXHardware model number:	OX4-SRSoftware version number:	ORYX F/W v4.00 Oryx Data Collector v3.7.2.0data status	okinstallation	princeton_trtdifferential loss correction	single-endedforward channel	channel 1reverse channel	N/Adate	2019/09/16time	19:42:35forward acquisition time	60.00reverse acquisition time	0.00gamma	496.2192k internal	0.2317k external	0.2317temperature offset calibration	0.9955default loss term (dB/km)	0.3790temperature slope calibration	1.0000multiplexer offset coefficient	1.0000multiplexer slope coefficient	1.0000fibre end	0.00T internal ref (°C)	34.03T ext. ref 1 (°C)	0.13T ext. ref 2 (°C)	27.02length (m)	temperature (°C)	Stokes	anti-Stokes-747.200	800.000	-0.036	0.153
-746.185	800.000	-0.088	0.322
-745.171	-127.873	0.191	0.028
-744.156	-87.565	-0.154	-0.047
-743.142	181.493	-0.080	-0.120
-742.127	-62.662	0.240	0.101
-741.112	543.176	-0.072	0.173
-740.098	-38.747	-0.273	-0.146
-739.083	-64.510	0.202	0.083
-738.069	26.550	0.119	-0.101
-737.054	-83.420	-0.199	0.065
-736.039	18.256	0.151	0.122
-735.025	-100.419	0.442	0.111
-734.010	146.799	-0.192	0.261
-732.996	304.500	0.110	-0.207
-731.981	159.014	0.090	-0.127
-730.966	594.837	0.146	0.366
-729.952	100.539	0.084	-0.099
-728.937	64.130	0.092	-0.093
-727.923	86.807	-0.104	0.116
-726.908	-76.519	-0.094	-0.033
-725.894	35.759	-0.167	-0.148
-724.879	800.000	-0.082	0.304
-723.864	209.090	-0.193	0.306
-722.850	230.041	0.208	-0.344
-721.835	-200.000	-0.011	-0.236
-720.821	81.410	-0.213	-0.233
-719.806	-112.847	-0.210	0.042
-718.791	-20.698	-0.090	-0.056
-717.777	-200.000	-0.044	0.231
-716.762	669.793	-0.106	-0.277
-715.748	-15.375	-0.108	-0.070
-714.733	800.000	-0.021	-0.080
-713.718	-113.673	-0.254	-0.050
-712.704	-116.648	0.036	-0.007
-711.689	491.634	0.118	0.274
-710.675	-134.955	0.185	-0.023
-709.660	87.603	0.152	-0.170
-708.645	31.191	0.152	-0.132
-707.631	-122.380	-0.188	-0.031
-706.616	-200.000	-0.039	0.175
-705.602	-200.000	-0.023	0.112
-704.587	-200.000	-0.008	-0.185
-703.572	-182.847	0.229	-0.004
-702.558	22.977	-0.252	-0.209
-701.543	-68.279	0.209	0.082
-700.529	103.679	-0.205	-0.244
-699.514	-35.500	-0.134	0.073
-698.499	46.403	0.366	-0.343
-697.485	174.602	0.236	0.345
-696.470	188.020	0.208	-0.314
-695.456	-151.635	-0.295	0.022
-694.441	800.000	-0.090	-0.343
-693.426	-59.897	0.179	0.077
-692.412	309.913	-0.105	-0.198
-691.397	572.712	-0.119	0.293
-690.383	800.000	-0.213	-0.613
-689.368	24.395	0.149	-0.125
-688.354	281.064	0.240	0.434
-687.339	127.630	-0.081	0.104
-686.324	-200.000	0.061	-0.381
-685.310	-92.261	0.233	-0.066
-684.295	-158.689	0.206	0.012
-683.281	127.838	-0.206	-0.264
-682.266	405.945	-0.109	-0.233
-681.251	29.631	0.325	-0.279
-680.237	-199.288	-0.152	0.001
-679.222	800.000	-0.063	-0.216
-678.208	-44.475	0.352	0.178
-677.193	800.000	0.080	-0.235
-676.178	-17.512	-0.142	0.090
-675.164	800.000	0.049	0.167
-674.149	-155.453	-0.124	0.008
-673.135	-53.231	0.125	0.058
-672.120	-105.367	0.063	-0.014
-671.105	-87.704	0.290	-0.088
-670.091	-79.774	-0.167	-0.057
-669.076	77.756	0.239	0.257
-668.062	571.162	0.123	-0.302
-667.047	592.771	0.091	0.227
-666.032	-200.000	0.035	-0.184
-665.018	16.149	-0.140	0.112
-664.003	235.750	-0.117	-0.196
-662.989	800.000	-0.051	-0.193
-661.974	-77.344	0.151	0.053
-660.959	0.025	0.138	-0.099
-659.945	294.597	-0.178	-0.328
-658.930	205.157	-0.132	0.207
-657.916	-177.913	0.181	0.004
-656.901	800.000	-0.033	0.137
-655.886	800.000	-0.053	-0.172
-654.872	-44.577	0.302	0.152
-653.857	-200.000	0.007	0.099
-652.843	-67.917	-0.191	0.075
-651.828	-114.498	0.318	-0.062
-650.814	32.132	0.177	-0.154
-649.799	9.560	0.074	0.056
-648.784	-200.000	0.008	0.244
-647.770	-110.454	-0.211	-0.044
-646.755	755.181	0.043	-0.117
-645.741	122.397	-0.080	-0.101
-644.726	-200.000	0.069	0.426
-643.711	289.121	-0.030	-0.055
-642.697	800.000	-0.037	0.145
-641.682	116.458	0.310	0.383
-640.668	537.847	0.080	-0.192
-639.653	800.000	-0.056	-0.220
-638.638	226.052	0.106	0.173
-637.624	-158.306	-0.125	-0.007
-636.609	800.000	0.089	-0.303
-635.595	158.462	0.097	-0.136
-634.580	-200.000	-0.002	0.352
-633.565	-149.150	-0.109	0.009
-632.551	-67.536	-0.174	-0.069
-631.536	800.000	0.060	0.223
-630.522	552.756	0.040	0.097
-629.507	-45.507	-0.158	-0.079
-628.492	-103.800	0.125	0.029
-627.478	-103.846	0.240	-0.057
-626.463	-26.792	-0.291	-0.171
-625.449	-109.376	-0.287	-0.061
-624.434	-102.525	-0.132	0.032
-623.419	-200.000	0.003	-0.029
-622.405	10.211	-0.056	-0.043
-621.390	-46.015	-0.080	-0.040
-620.376	-200.000	-0.055	0.445
-619.361	-39.968	0.330	-0.173
-618.346	-113.074	0.152	-0.030
-617.332	223.919	-0.062	0.101
-616.317	-200.000	0.007	-0.102
-615.303	-60.500	-0.271	0.116
-614.288	175.135	-0.071	0.104
-613.273	800.000	-0.102	-0.324
-612.259	-8.408	-0.059	0.040
-611.244	-89.625	-0.341	0.101
-610.230	800.000	0.109	-0.361
-609.215	800.000	-0.060	0.212
-608.201	-106.311	0.173	-0.039
-607.186	-200.000	-0.010	-0.180
-606.171	800.000	0.064	-0.195
-605.157	-200.000	-0.020	0.521
-604.142	-200.000	0.024	0.295
-603.128	25.248	-0.168	-0.140
-602.113	-0.551	0.096	-0.068
-601.098	57.081	0.137	0.134
-600.084	800.000	0.039	-0.159
-599.069	-150.930	0.434	0.033
-598.055	215.079	0.082	-0.131
-597.040	-124.050	-0.247	0.039
-596.025	-200.000	-0.030	-0.139
-595.011	402.263	-0.136	0.287
-593.996	33.669	0.122	-0.107
-592.982	601.300	-0.076	-0.189
-591.967	-200.000	-0.007	0.109
-590.952	800.000	-0.017	0.065
-589.938	63.962	-0.149	-0.151
-588.923	800.000	-0.084	0.264
-587.909	724.493	0.032	0.087
-586.894	82.438	0.147	0.160
-585.879	-200.000	-0.028	-0.199
-584.865	40.629	0.288	-0.261
-583.850	-98.552	-0.042	-0.011
-582.836	-113.747	0.275	0.054
-581.821	281.590	-0.116	0.209
-580.806	-87.536	-0.175	-0.053
-579.792	-80.876	0.299	-0.100
-578.777	3.549	0.152	-0.111
-577.763	800.000	0.088	0.285
-576.748	-194.740	-0.085	0.001
-575.733	57.551	-0.191	-0.188
-574.719	70.503	-0.130	0.135
-573.704	-169.361	0.141	0.005
-572.690	-200.000	-0.047	0.325
-571.675	139.375	0.202	0.268
-570.661	-200.000	-0.028	-0.194
-569.646	356.991	-0.055	-0.110
-568.631	-46.099	-0.088	0.044
-567.617	74.184	0.019	0.020
-566.602	77.441	-0.123	0.132
-565.588	237.401	0.103	0.171
-564.573	800.000	-0.049	-0.174
-563.558	-97.348	-0.322	-0.084
-562.544	403.070	-0.060	0.127
-561.529	-200.000	-0.022	0.195
-560.515	-144.793	-0.231	0.021
-559.500	800.000	-0.070	0.201
-558.485	37.432	-0.362	-0.322
-557.471	-142.653	-0.496	-0.049
-556.456	-6.568	-0.084	-0.058
-555.442	71.540	-0.085	-0.088
-554.427	800.000	-0.070	0.222
-553.412	263.213	-0.237	0.413
-552.398	281.981	-0.157	0.283
-551.383	800.000	0.038	0.140
-550.369	11.078	0.112	-0.086
-549.354	-79.996	-0.036	-0.012
-548.339	-200.000	0.037	-0.204
-547.325	632.621	0.104	-0.264
-546.310	45.620	0.258	0.239
-545.296	-200.000	0.039	0.287
-544.281	412.416	0.111	0.238
-543.266	-136.607	-0.562	-0.065
-542.252	800.000	0.070	-0.222
-541.237	-144.186	0.312	0.029
-540.223	800.000	0.084	-0.266
-539.208	116.858	-0.143	-0.176
-538.193	-200.000	0.002	-0.023
-537.179	-200.000	-0.013	0.065
-536.164	-74.537	-0.453	0.164
-535.150	30.677	-0.122	-0.104
-534.135	-162.215	0.362	0.018
-533.121	20.978	0.178	0.145
-532.106	68.661	-0.217	0.223
-531.091	800.000	0.072	0.246
-530.077	-115.451	-0.249	0.047
-529.062	-20.449	0.027	-0.016
-528.048	209.310	0.168	-0.264
-527.033	-165.014	-0.130	0.006
-526.018	414.772	0.106	0.227
-525.004	243.344	0.133	-0.223
-523.989	80.191	-0.231	0.249
-522.975	-200.000	-0.011	-0.197
-521.960	-23.608	-0.114	0.069
-520.945	374.592	-0.093	-0.191
-519.931	65.613	-0.182	-0.185
-518.916	-29.304	-0.163	-0.094
-517.902	800.000	0.001	0.006
-516.887	79.400	0.321	0.345
-515.872	800.000	-0.074	0.287
-514.858	-61.888	0.148	0.062
-513.843	800.000	-0.039	-0.161
-512.829	-59.257	-0.107	0.046
-511.814	369.644	0.103	-0.210
-510.799	-151.855	-0.348	-0.026
-509.785	66.247	0.152	0.155
-508.770	-85.038	-0.115	-0.036
-507.756	-82.134	0.255	-0.083
-506.741	-20.117	0.082	0.051
-505.726	-91.975	0.096	0.027
-504.712	-200.000	-0.078	-0.503
-503.697	-22.446	-0.261	0.158
-502.683	245.657	0.118	0.199
-501.668	13.344	-0.117	0.091
-500.653	78.784	-0.177	-0.190
-499.639	-163.236	0.066	-0.003
-498.624	-21.959	-0.246	-0.150
-497.610	-200.000	-0.024	0.246
-496.595	-200.000	0.027	-0.161
-495.581	229.522	-0.125	-0.205
-494.566	103.845	-0.232	0.273
-493.551	-13.482	-0.275	-0.179
-492.537	-99.637	0.122	-0.031
-491.522	-120.333	0.183	0.031
-490.508	45.907	0.106	0.098
-489.493	-132.287	-0.218	-0.028
-488.478	-8.864	0.199	-0.134
-487.464	246.113	-0.124	0.209
-486.449	246.444	-0.107	-0.182
-485.435	-148.702	0.231	-0.019
-484.420	-77.566	0.313	0.109
-483.405	-91.214	0.193	0.055
-482.391	-200.000	0.065	-0.317
-481.376	-125.707	0.024	0.004
-480.362	19.378	-0.450	-0.362
-479.347	800.000	0.022	0.089
-478.332	-26.350	-0.187	-0.110
-477.318	-53.263	-0.189	0.087
-476.303	-91.221	-0.194	0.056
-475.289	161.011	-0.140	-0.197
-474.274	282.038	-0.051	-0.092
-473.259	800.000	0.030	-0.121
-472.245	-36.777	0.328	-0.177
-471.230	-138.488	-0.280	0.031
-470.216	657.539	0.074	0.191
-469.201	59.716	-0.102	-0.101
-468.186	-89.237	-0.195	0.058
-467.172	-93.522	0.284	-0.079
-466.157	-18.833	0.039	-0.024
-465.143	211.217	-0.034	0.053
-464.128	97.197	-0.200	-0.230
-463.113	-4.615	-0.183	0.127
-462.099	-97.041	0.311	-0.081
-461.084	-200.000	-0.037	-0.165
-460.070	-18.144	0.442	0.277
-459.055	197.349	-0.246	0.375
-458.040	-47.534	-0.082	0.040
-457.026	-152.660	-0.157	0.011
-456.011	-119.824	0.139	0.024
-454.997	537.189	0.049	-0.117
-453.982	-200.000	-0.014	0.067
-452.968	-200.000	0.018	0.214
-451.953	270.538	-0.106	0.186
-450.938	64.974	-0.220	0.223
-449.924	29.410	-0.209	-0.178
-448.909	-200.000	0.021	0.215
-447.895	28.526	0.144	-0.122
-446.880	-6.353	-0.125	-0.086
-445.865	106.240	-0.116	-0.138
-444.851	649.707	-0.083	-0.213
-443.836	-12.068	0.068	-0.045
-442.822	-200.000	0.010	-0.124
-441.807	-30.825	-0.050	-0.028
-440.792	-200.000	-0.020	0.088
-439.778	-200.000	-0.017	0.144
-438.763	-97.472	0.378	0.098
-437.749	-38.124	-0.109	-0.058
-436.734	800.000	-0.061	-0.184
-435.719	14.234	-0.053	0.042
-434.705	17.862	-0.303	0.241
-433.690	280.934	-0.161	-0.288
-432.676	166.754	-0.104	-0.148
-431.661	269.600	0.037	-0.065
-430.646	-134.219	0.154	-0.019
-429.632	800.000	0.059	-0.221
-428.617	27.704	0.089	-0.075
-427.603	-200.000	0.042	0.305
-426.588	47.365	0.104	-0.097
-425.573	-77.309	0.201	-0.070
-424.559	-21.706	0.093	-0.056
-423.544	-195.000	-0.155	-0.001
-422.530	-139.426	-0.242	0.026
-421.515	-40.637	0.203	0.105
-420.500	137.950	0.007	0.009
-419.486	-56.488	-0.151	-0.067
-418.471	200.509	-0.148	-0.228
-417.457	800.000	-0.093	0.350
-416.442	145.659	0.134	0.180
-415.428	-3.207	-0.154	0.108
-414.413	-117.510	-0.166	0.030
-413.398	-178.000	-0.325	0.008
-412.384	800.000	0.061	0.239
-411.369	-54.111	-0.175	-0.079
-410.355	800.000	-0.103	0.291
-409.340	-10.150	0.232	0.154
-408.325	-110.096	0.212	-0.044
-407.311	50.041	-0.247	0.233
-406.296	-200.000	0.017	0.162
-405.282	125.739	0.105	0.132
-404.267	-70.973	0.069	-0.026
-403.252	288.014	-0.047	0.086
-402.238	-80.510	-0.024	0.008
-401.223	-70.134	0.132	-0.050
-400.209	15.270	0.071	-0.056
-399.194	74.246	-0.254	-0.267
-398.179	533.244	-0.079	-0.186
-397.165	-93.689	-0.183	0.050
-396.150	306.706	-0.050	0.094
-395.136	-104.821	-0.194	0.045
-394.121	-128.727	-0.450	-0.063
-393.106	-200.000	-0.002	0.021
-392.092	39.859	0.043	-0.038
-391.077	-189.018	-0.037	0.000
-390.063	230.818	0.079	0.129
-389.048	-200.000	0.008	0.490
-388.033	503.004	-0.107	-0.247
-387.019	-105.448	0.185	-0.042
-386.004	89.243	0.123	-0.137
-384.990	-37.107	0.069	-0.037
-383.975	-17.746	0.041	0.026
-382.960	-171.396	-0.125	-0.004
-381.946	-161.571	0.289	0.015
-380.931	-0.282	0.250	-0.177
-379.917	-200.000	0.027	-0.174
-378.902	-4.327	-0.195	0.135
-377.888	-200.000	-0.019	0.154
-376.873	29.634	0.149	0.126
-375.858	144.983	0.209	0.279
-374.844	412.459	0.088	0.187
-373.829	5.716	0.095	0.070
-372.815	263.356	-0.226	0.392
-371.800	-200.000	0.072	-0.441
-370.785	190.372	0.186	-0.279
-369.771	-200.000	-0.045	-0.432
-368.756	16.308	-0.108	0.085
-367.742	-25.510	0.343	-0.202
-366.727	248.485	-0.060	-0.102
-365.712	581.587	-0.016	0.040
-364.698	-200.000	0.047	0.274
-363.683	-55.045	-0.052	0.023
-362.669	-117.807	0.034	0.006
-361.654	-200.000	0.029	0.172
-360.639	-34.711	0.159	-0.087
-359.625	100.663	-0.089	-0.103
-358.610	268.947	-0.067	-0.117
-357.596	99.548	-0.305	0.352
-356.581	51.400	0.143	0.135
-355.566	11.127	-0.184	-0.140
-354.552	-200.000	0.035	-0.237
-353.537	-63.040	-0.190	0.078
-352.523	-161.803	-0.246	0.012
-351.508	-94.809	-0.198	-0.054
-350.493	120.543	-0.070	-0.087
-349.479	-178.464	0.022	0.001
-348.464	-200.000	0.053	0.399
-347.450	-102.877	0.007	-0.002
-346.435	108.899	0.329	0.392
-345.420	-200.000	0.043	-0.441
-344.406	-200.000	-0.013	-0.062
-343.391	800.000	-0.051	0.195
-342.377	800.000	0.054	0.236
-341.362	49.394	0.128	-0.120
-340.348	219.211	-0.063	-0.100
-339.333	63.313	-0.167	-0.166
-338.318	671.071	-0.021	0.055
-337.304	48.435	0.173	0.161
-336.289	32.983	0.025	0.021
-335.275	-36.119	-0.112	0.060
-334.260	-200.000	0.038	-0.288
-333.245	241.432	0.087	-0.145
-332.231	157.301	0.191	-0.263
-331.216	800.000	0.098	-0.324
-330.202	-200.000	0.042	0.201
-329.187	-72.353	-0.171	0.063
-328.172	-200.000	0.030	-0.216
-327.158	520.145	0.098	0.228
-326.143	53.010	0.094	0.090
-325.129	-74.363	0.342	-0.123
-324.114	-200.000	-0.013	-0.096
-323.099	-128.664	-0.127	-0.018
-322.085	466.742	0.066	-0.147
-321.070	41.470	0.383	0.345
-320.056	-30.850	0.217	-0.122
-319.041	3.330	-0.131	-0.095
-318.026	-157.257	-0.323	-0.019
-317.012	40.020	0.228	0.204
-315.997	646.672	0.058	0.148
-314.983	104.202	-0.090	-0.106
-313.968	93.846	-0.125	-0.141
-312.953	-200.000	-0.011	-0.054
-311.939	-118.925	0.327	0.057
-310.924	83.115	0.088	-0.095
-309.910	23.900	0.163	0.134
-308.895	-200.000	0.005	-0.307
-307.880	235.378	0.233	-0.383
-306.866	739.382	-0.086	-0.231
-305.851	121.348	-0.095	-0.117
-304.837	251.520	-0.097	0.165
-303.822	-200.000	0.047	0.222
-302.807	-33.162	0.262	0.145
-301.793	-52.140	-0.204	0.094
-300.778	-156.491	-0.246	-0.015
-299.764	179.196	-0.034	-0.050
-298.749	-65.396	-0.235	0.094
-297.735	74.427	-0.094	0.098
-296.720	800.000	0.032	0.117
-295.705	159.692	0.142	-0.197
-294.691	-23.576	-0.020	-0.012
-293.676	-23.617	0.117	-0.070
-292.662	-3.465	0.262	-0.181
-291.647	800.000	-0.059	0.233
-290.632	-132.055	-0.115	0.015
-289.618	-28.016	0.142	-0.082
-288.603	800.000	0.055	-0.167
-287.589	79.133	0.130	-0.139
-286.574	-31.607	0.064	0.036
-285.559	27.668	-0.310	-0.260
-284.545	-123.646	-0.155	-0.024
-283.530	800.000	-0.024	0.094
-282.516	-200.000	-0.063	0.420
-281.501	26.593	-0.035	-0.029
-280.486	793.380	-0.037	0.102
-279.472	-112.131	0.348	0.070
-278.457	94.317	0.150	0.169
-277.443	-137.628	0.234	-0.026
-276.428	55.865	-0.070	0.068
-275.413	275.943	-0.123	0.217
-274.399	800.000	-0.038	0.119
-273.384	-33.454	-0.195	-0.107
-272.370	-200.000	0.014	-0.169
-271.355	-53.034	-0.308	0.141
-270.340	142.117	0.310	-0.408
-269.326	579.057	0.113	0.275
-268.311	759.830	-0.063	0.170
-267.297	-39.002	0.214	0.112
-266.282	-200.000	0.007	0.189
-265.267	333.245	0.044	-0.085
-264.253	-155.083	-0.097	0.006
-263.238	707.957	-0.089	0.232
-262.224	-129.577	0.149	-0.020
-261.209	-137.016	0.225	0.026
-260.195	-83.521	0.385	0.122
-259.180	249.572	-0.134	-0.226
-258.165	-200.000	-0.023	-0.316
-257.151	22.861	-0.290	-0.236
-256.136	-147.199	0.064	-0.005
-255.122	68.909	0.223	0.228
-254.107	-74.361	0.330	0.118
-253.092	72.271	0.173	-0.179
-252.078	113.604	0.151	-0.183
-251.063	290.595	-0.203	-0.366
-250.049	205.901	0.035	-0.054
-249.034	-111.107	-0.301	0.061
-248.019	382.876	0.070	0.142
-247.005	33.987	0.048	-0.042
-245.990	-0.553	-0.196	0.138
-244.976	-200.000	-0.080	0.411
-243.961	-148.002	-0.199	-0.016
-242.946	138.524	0.133	-0.173
-241.932	-41.137	-0.165	-0.084
-240.917	416.010	0.072	0.152
-239.903	800.000	0.061	-0.231
-238.888	-96.276	-0.105	0.028
-237.873	-62.216	-0.126	0.052
-236.859	105.316	0.159	-0.186
-235.844	-95.366	0.187	-0.050
-234.830	765.683	0.035	0.094
-233.815	800.000	0.050	0.204
-232.800	-107.775	-0.122	-0.026
-231.786	-200.000	-0.035	0.171
-230.771	-98.503	-0.119	0.030
-229.757	68.771	0.025	0.025
-228.742	-31.744	-0.238	-0.132
-227.727	14.049	-0.160	-0.124
-226.713	9.196	0.071	0.053
-225.698	-91.616	0.406	0.115
-224.684	759.650	0.051	0.138
-223.669	-200.000	0.019	0.334
-222.655	25.374	0.144	0.119
-221.640	101.983	-0.192	0.222
-220.625	-86.151	0.112	-0.034
-219.611	800.000	0.057	0.204
-218.596	-200.000	0.022	-0.096
-217.582	-85.216	-0.180	0.056
-216.567	800.000	0.145	-0.399
-215.552	158.191	0.034	0.047
-214.538	182.638	0.063	0.092
-213.523	115.642	0.163	-0.198
-212.509	196.871	0.087	-0.131
-211.494	241.632	-0.073	-0.120
-210.479	311.320	-0.070	0.130
-209.465	-200.000	0.028	-0.313
-208.450	-104.893	0.489	-0.111
-207.436	-200.000	-0.031	0.414
-206.421	178.840	-0.207	-0.300
-205.406	35.924	0.162	-0.142
-204.392	-57.067	-0.218	-0.095
-203.377	-117.610	0.344	-0.061
-202.363	-200.000	-0.013	0.102
-201.348	-200.000	-0.050	-0.299
-200.333	-200.000	0.029	-0.234
-199.319	162.529	0.125	-0.173
-198.304	-200.000	-0.022	-0.357
-197.290	-75.586	0.144	0.051
-196.275	-126.310	0.231	0.034
-195.260	68.238	-0.069	0.070
-194.246	-5.790	0.281	0.191
-193.231	-104.547	0.181	-0.041
-192.217	604.906	0.099	0.244
-191.202	67.325	0.126	0.128
-190.187	31.542	-0.116	0.099
-189.173	-168.152	0.261	-0.010
-188.158	-200.000	0.051	0.261
-187.144	341.288	0.109	0.211
-186.129	38.287	-0.222	0.196
-185.114	67.795	-0.296	0.300
-184.100	465.838	0.099	0.220
-183.085	-200.000	-0.008	-0.228
-182.071	121.438	-0.186	0.229
-181.056	52.576	0.285	-0.269
-180.042	175.076	0.145	-0.208
-179.027	-123.322	0.123	-0.019
-178.012	-126.242	0.421	0.062
-176.998	-123.062	0.302	-0.048
-175.983	183.389	0.166	-0.243
-174.969	-114.027	-0.168	-0.032
-173.954	-74.189	0.221	-0.079
-172.939	-92.691	-0.327	0.091
-171.925	98.817	0.106	-0.122
-170.910	-34.969	-0.134	-0.073
-169.896	313.060	0.137	-0.254
-168.881	774.636	0.132	-0.356
-167.866	160.223	0.125	-0.172
-166.852	-200.000	-0.013	-0.368
-165.837	736.066	0.108	-0.286
-164.823	27.128	0.020	0.017
-163.808	-200.000	0.036	0.237
-162.793	-122.859	0.248	-0.040
-161.779	2.686	-0.344	-0.247
-160.764	-124.206	0.119	0.018
-159.750	16.433	-0.216	0.169
-158.735	159.695	0.068	-0.094
-157.720	-166.938	-0.179	0.007
-156.706	8.749	0.389	-0.290
-155.691	-200.000	0.030	-0.152
-154.677	326.868	-0.126	-0.240
-153.662	51.472	-0.079	0.075
-152.647	241.272	0.085	-0.141
-151.633	-70.482	-0.297	0.111
-150.618	800.000	-0.146	-0.408
-149.604	-1.545	0.075	-0.052
-148.589	-9.374	0.266	0.176
-147.574	800.000	-0.016	-0.064
-146.560	-77.208	0.397	-0.137
-145.545	-170.652	0.069	-0.002
-144.531	800.000	-0.072	0.305
-143.516	-200.000	0.030	-0.371
-142.502	183.641	0.114	-0.166
-141.487	-55.790	-0.339	-0.150
-140.472	319.493	0.004	-0.007
-139.458	6.385	-0.305	-0.224
-138.443	-102.815	0.582	0.137
-137.429	327.856	-0.138	-0.261
-136.414	-144.810	-0.075	0.007
-135.399	-200.000	-0.036	0.307
-134.385	-182.711	-0.211	0.004
-133.370	800.000	0.162	0.517
-132.356	-200.000	0.003	0.023
-131.341	-165.371	-0.230	0.010
-130.326	-200.000	-0.005	-0.116
-129.312	54.496	-0.069	0.066
-128.297	291.514	0.170	-0.305
-127.283	125.929	0.181	-0.226
-126.268	-131.850	0.112	0.014
-125.253	405.014	0.074	-0.154
-124.239	24.788	0.296	0.242
-123.224	-89.629	0.208	0.060
-122.210	-119.268	-0.345	-0.059
-121.195	-149.780	0.239	0.019
