DTS Sentinel unit serial number:	SN413079Multiplexer serial number:	ORYXHardware model number:	OX4-SRSoftware version number:	ORYX F/W v4.00 Oryx Data Collector v3.7.2.0data status	okinstallation	princeton_trtdifferential loss correction	single-endedforward channel	channel 1reverse channel	N/Adate	2019/09/18time	04:34:35forward acquisition time	60.00reverse acquisition time	0.00gamma	496.2192k internal	0.2338k external	0.2338temperature offset calibration	0.9979default loss term (dB/km)	0.3790temperature slope calibration	1.0000multiplexer offset coefficient	1.0000multiplexer slope coefficient	1.0000fibre end	0.00T internal ref (°C)	23.39T ext. ref 1 (°C)	0.19T ext. ref 2 (°C)	17.67length (m)	temperature (°C)	Stokes	anti-Stokes-747.200	-29.662	0.096	-0.055
-746.185	800.000	-0.042	-0.146
-745.171	-200.000	-0.067	0.333
-744.156	200.116	-0.190	0.293
-743.142	-200.000	-0.010	-0.113
-742.127	-10.130	-0.307	-0.204
-741.112	29.017	0.226	0.192
-740.098	177.681	-0.204	-0.298
-739.083	-42.963	-0.097	0.049
-738.069	800.000	-0.029	-0.102
-737.054	-200.000	-0.045	0.309
-736.039	-86.116	-0.106	-0.033
-735.025	-12.963	0.212	0.138
-734.010	-200.000	-0.028	-0.208
-732.996	-200.000	-0.008	-0.169
-731.981	211.651	0.072	0.113
-730.966	-200.000	0.094	0.473
-729.952	-123.625	0.209	-0.033
-728.937	-137.062	-0.263	0.030
-727.923	-200.000	-0.036	0.170
-726.908	20.178	-0.182	0.148
-725.894	800.000	0.094	-0.356
-724.879	421.504	0.119	-0.256
-723.864	9.188	0.313	-0.237
-722.850	-200.000	0.017	-0.251
-721.835	-69.783	-0.089	-0.034
-720.821	-82.938	0.166	0.054
-719.806	29.946	0.205	-0.175
-718.791	94.959	-0.269	-0.307
-717.777	119.234	-0.277	-0.343
-716.762	-200.000	-0.045	0.303
-715.748	36.434	0.203	-0.180
-714.733	15.498	0.163	-0.128
-713.718	-157.515	-0.321	-0.019
-712.704	-100.231	0.595	-0.148
-711.689	502.224	-0.055	-0.128
-710.675	168.391	0.156	-0.222
-709.660	71.887	-0.176	-0.183
-708.645	-5.090	-0.293	0.202
-707.631	-118.809	0.118	-0.021
-706.616	156.638	-0.057	0.079
-705.602	-36.937	-0.170	-0.091
-704.587	800.000	0.047	0.142
-703.572	-30.475	-0.028	-0.016
-702.558	3.597	-0.041	0.030
-701.543	428.256	0.026	-0.057
-700.529	572.590	0.071	0.172
-699.514	121.628	0.077	-0.096
-698.499	800.000	0.061	-0.242
-697.485	-183.194	0.327	-0.006
-696.470	-11.008	0.199	-0.131
-695.456	800.000	-0.055	0.160
-694.441	800.000	-0.039	-0.149
-693.426	-52.579	-0.202	-0.094
-692.412	-200.000	-0.008	0.108
-691.397	120.413	-0.147	-0.183
-690.383	41.603	0.112	0.102
-689.368	-92.065	0.054	0.015
-688.354	-76.289	0.168	-0.059
-687.339	-133.164	-0.263	-0.033
-686.324	-47.118	-0.158	-0.077
-685.310	800.000	-0.085	-0.370
-684.295	-36.083	-0.268	-0.145
-683.281	240.362	0.130	-0.217
-682.266	-47.593	0.073	-0.035
-681.251	-27.736	-0.123	0.072
-680.237	306.838	0.132	-0.246
-679.222	-200.000	-0.043	-0.220
-678.208	310.778	-0.141	-0.265
-677.193	45.829	0.097	0.090
-676.178	529.190	0.131	-0.310
-675.164	-46.441	-0.315	-0.155
-674.149	176.885	-0.059	0.086
-673.135	-124.369	0.254	0.040
-672.120	-176.687	0.282	-0.007
-671.105	-81.273	0.094	-0.031
-670.091	-148.227	-0.436	0.036
-669.076	575.639	0.113	-0.275
-668.062	168.701	0.167	0.239
-667.047	193.128	0.148	-0.224
-666.032	75.287	0.147	0.155
-665.018	-200.000	-0.025	0.146
-664.003	-200.000	0.131	0.692
-662.989	-123.011	-0.120	-0.019
-661.974	-108.036	-0.140	0.030
-660.959	364.170	-0.128	-0.258
-659.945	-51.668	0.133	-0.062
-658.930	-36.128	-0.059	-0.032
-657.916	329.198	-0.080	-0.153
-656.901	-51.103	0.078	0.037
-655.886	800.000	-0.051	0.156
-654.872	654.427	0.113	-0.290
-653.857	266.570	-0.098	-0.171
-652.843	-49.749	-0.194	0.092
-651.828	-200.000	-0.013	-0.257
-650.814	281.817	0.087	-0.156
-649.799	23.149	-0.173	0.142
-648.784	2.697	0.159	0.116
-647.770	-168.845	0.163	0.006
-646.755	-10.455	-0.246	0.163
-645.741	235.675	-0.126	-0.208
-644.726	-200.000	0.003	0.013
-643.711	-132.675	-0.397	-0.051
-642.697	-56.062	0.153	-0.068
-641.682	261.992	-0.173	0.300
-640.668	-11.673	-0.164	-0.107
-639.653	-48.030	-0.153	-0.074
-638.638	253.998	-0.066	-0.112
-637.624	-200.000	-0.002	0.180
-636.609	317.464	-0.188	-0.355
-635.595	-200.000	-0.055	-0.000
-634.580	-167.409	-0.148	0.006
-633.565	167.473	-0.129	-0.183
-632.551	604.496	-0.039	0.098
-631.536	-50.154	0.071	0.034
-630.522	65.117	0.365	-0.369
-629.507	-200.000	0.055	-0.322
-628.492	157.023	0.184	0.254
-627.478	-200.000	0.025	-0.135
-626.463	209.808	0.125	0.195
-625.449	-200.000	0.017	-0.155
-624.434	-0.768	-0.095	-0.067
-623.419	-48.821	0.547	0.262
-622.405	105.355	0.129	-0.152
-621.390	681.120	0.103	-0.267
-620.376	-200.000	-0.016	0.274
-619.361	-61.549	0.333	0.140
-618.346	178.305	-0.136	0.198
-617.332	90.723	-0.413	0.462
-616.317	49.331	-0.185	-0.173
-615.303	-25.625	-0.089	-0.052
-614.288	195.436	-0.079	0.120
-613.273	-154.866	0.395	-0.026
-612.259	-200.000	0.007	0.040
-611.244	-133.001	-0.252	0.032
-610.230	-200.000	-0.043	-0.286
-609.215	800.000	0.067	-0.215
-608.201	1.596	0.051	-0.036
-607.186	181.792	0.059	-0.086
-606.171	571.496	-0.121	-0.293
-605.157	-200.000	-0.004	-0.158
-604.142	2.327	-0.112	-0.081
-603.128	-184.713	0.162	0.003
-602.113	-57.592	0.064	-0.028
-601.098	111.553	0.264	0.318
-600.084	-121.275	0.099	-0.016
-599.069	48.528	-0.149	-0.139
-598.055	800.000	-0.118	0.359
-597.040	-167.564	0.304	-0.012
-596.025	42.481	-0.090	0.081
-595.011	-200.000	0.055	0.280
-593.996	60.081	0.229	0.225
-592.982	-191.675	-0.233	-0.002
-591.967	-200.000	-0.024	-0.109
-590.952	-70.986	0.448	0.168
-589.938	-129.459	-0.099	-0.014
-588.923	-200.000	-0.017	-0.333
-587.909	643.910	-0.029	0.074
-586.894	93.984	0.111	0.125
-585.879	-200.000	-0.015	-0.146
-584.865	-200.000	-0.069	-0.306
-583.850	-101.981	-0.100	-0.024
-582.836	10.191	0.220	0.167
-581.821	-200.000	-0.025	-0.214
-580.806	9.697	0.117	0.089
-579.792	-137.033	-0.155	-0.018
-578.777	-163.617	0.556	-0.026
-577.763	-145.101	-0.205	0.019
-576.748	-85.776	0.104	-0.032
-575.733	122.994	0.071	-0.089
-574.719	-133.987	-0.240	-0.030
-573.704	170.377	0.103	0.146
-572.690	-50.871	-0.375	-0.176
-571.675	-56.277	-0.542	-0.240
-570.661	-200.000	-0.019	-0.165
-569.646	-17.722	0.223	0.140
-568.631	-48.653	0.104	-0.050
-567.617	77.565	0.042	-0.044
-566.602	-133.236	0.282	-0.036
-565.588	800.000	0.040	-0.117
-564.573	401.116	0.102	-0.214
-563.558	-104.210	-0.294	-0.068
-562.544	4.757	-0.309	-0.226
-561.529	62.305	-0.234	0.233
-560.515	258.404	0.029	-0.050
-559.500	510.626	0.113	-0.261
-558.485	-200.000	-0.022	-0.334
-557.471	-200.000	0.006	-0.111
-556.456	-79.852	-0.109	-0.036
-555.442	496.594	0.081	0.185
-554.427	800.000	0.024	-0.074
-553.412	-200.000	0.012	-0.269
-552.398	80.080	0.150	-0.161
-551.383	78.707	-0.087	0.093
-550.369	-122.167	-0.295	-0.048
-549.354	27.167	0.083	0.069
-548.339	-50.275	-0.411	0.194
-547.325	-68.590	-0.105	0.041
-546.310	277.053	0.145	0.256
-545.296	-81.357	0.121	0.040
-544.281	24.111	-0.432	-0.355
-543.266	142.223	0.081	0.107
-542.252	-200.000	0.034	0.156
-541.237	300.069	0.041	0.076
-540.223	-200.000	-0.036	-0.210
-539.208	111.512	0.195	0.234
-538.193	-50.091	0.130	0.061
-537.179	-200.000	-0.011	0.417
-536.164	-200.000	0.250	0.000
-535.150	137.854	-0.073	0.096
-534.135	-60.720	0.042	-0.018
-533.121	88.324	-0.316	-0.349
-532.106	-200.000	-0.033	0.373
-531.091	1.871	-0.132	0.095
-530.077	-104.771	0.118	0.027
-529.062	-200.000	-0.011	0.204
-528.048	-200.000	0.007	0.196
-527.033	48.087	-0.149	-0.138
-526.018	664.735	0.069	0.178
-525.004	-13.616	0.130	-0.084
-523.989	-88.808	-0.258	0.076
-522.975	-200.000	-0.024	0.198
-521.960	-89.740	0.146	0.043
-520.945	-86.970	0.205	-0.062
-519.931	-28.336	0.075	-0.043
-518.916	-12.200	-0.196	-0.127
-517.902	236.561	-0.052	-0.086
-516.887	151.880	-0.058	0.078
-515.872	-71.475	-0.282	-0.105
-514.858	209.376	0.143	0.222
-513.843	800.000	-0.086	0.319
-512.829	-51.892	0.182	-0.084
-511.814	-54.035	-0.145	-0.066
-510.799	-90.369	-0.105	-0.030
-509.785	-200.000	0.009	0.243
-508.770	-68.897	-0.078	0.030
-507.756	800.000	0.104	0.330
-506.741	116.505	-0.152	-0.185
-505.726	-197.220	-0.128	0.001
-504.712	-46.873	0.184	0.089
-503.697	-37.227	0.069	-0.037
-502.683	-90.803	0.046	-0.013
-501.668	-33.288	-0.081	0.045
-500.653	-106.627	0.134	0.030
-499.639	-109.603	-0.184	0.039
-498.624	-2.647	-0.088	0.061
-497.610	366.554	-0.113	-0.226
-496.595	-0.614	-0.073	-0.052
-495.581	-43.414	-0.356	-0.179
-494.566	800.000	-0.089	-0.374
-493.551	-200.000	0.019	0.191
-492.537	800.000	-0.107	-0.319
-491.522	45.829	-0.200	0.184
-490.508	418.295	-0.146	0.311
-489.493	50.033	-0.103	0.097
-488.478	71.353	0.106	-0.109
-487.464	40.548	-0.200	-0.179
-486.449	-200.000	-0.015	-0.095
-485.435	131.627	-0.146	0.187
-484.420	800.000	0.073	-0.249
-483.405	585.332	-0.058	0.141
-482.391	41.886	0.146	0.132
-481.376	-127.167	-0.163	0.024
-480.362	-101.640	0.255	0.061
-479.347	148.513	-0.217	-0.291
-478.332	-200.000	0.015	-0.237
-477.318	-7.027	0.230	0.155
-476.303	-112.979	-0.169	0.033
-475.289	-27.716	-0.169	-0.097
-474.274	305.059	-0.051	-0.095
-473.259	-182.336	-0.294	-0.005
-472.245	-200.000	0.031	0.143
-471.230	29.783	0.108	0.091
-470.216	-113.281	0.304	0.059
-469.201	95.482	-0.189	0.214
-468.186	325.335	-0.010	-0.020
-467.172	-171.150	0.179	0.006
-466.157	595.614	-0.106	-0.259
-465.143	-113.079	0.271	0.053
-464.128	105.148	0.251	0.293
-463.113	-146.299	0.151	0.013
-462.099	137.605	-0.246	0.320
-461.084	161.683	-0.077	-0.107
-460.070	-80.571	-0.102	0.034
-459.055	-69.130	0.113	-0.043
-458.040	-200.000	-0.002	0.333
-457.026	115.368	0.051	-0.062
-456.011	-200.000	-0.008	-0.089
-454.997	800.000	-0.059	0.206
-453.982	121.383	-0.207	0.255
-452.968	-119.956	0.224	-0.038
-451.953	163.442	0.270	0.377
-450.938	151.620	-0.233	-0.315
-449.924	-200.000	0.010	-0.120
-448.909	273.623	0.114	0.200
-447.895	17.690	-0.259	-0.204
-446.880	-26.692	0.091	0.053
-445.865	-36.026	-0.364	-0.195
-444.851	108.571	0.085	-0.101
-443.836	-50.951	0.224	0.104
-442.822	-18.725	-0.182	0.113
-441.807	-61.607	-0.254	-0.106
-440.792	-200.000	0.043	-0.217
-439.778	800.000	-0.003	0.012
-438.763	2.444	-0.232	0.167
-437.749	21.429	0.270	0.217
-436.734	-125.042	-0.161	0.025
-435.719	-18.358	0.318	0.197
-434.705	59.888	0.073	0.072
-433.690	-141.698	0.131	0.013
-432.676	-94.851	0.246	-0.066
-431.661	-176.005	0.418	0.011
-430.646	327.113	-0.116	-0.221
-429.632	142.861	0.227	0.299
-428.617	-42.162	0.145	0.073
-427.603	-68.013	-0.299	-0.116
-426.588	-179.765	0.156	0.003
-425.573	-125.830	0.252	-0.038
-424.559	-98.767	-0.210	0.053
-423.544	-160.409	0.201	0.011
-422.530	-60.551	0.218	-0.092
-421.515	250.265	0.125	-0.211
-420.500	-156.374	0.389	0.024
-419.486	137.644	0.043	0.056
-418.471	137.611	0.046	0.060
-417.457	65.804	0.193	0.193
-416.442	60.416	0.093	-0.092
-415.428	800.000	-0.044	0.140
-414.413	94.632	-0.267	0.300
-413.398	-116.868	0.201	0.037
-412.384	169.332	0.050	0.070
-411.369	800.000	0.073	0.226
-410.355	-106.326	-0.138	-0.031
-409.340	-110.943	-0.335	-0.068
-408.325	-200.000	0.026	0.153
-407.311	-88.262	0.566	0.168
-406.296	-124.883	0.203	-0.031
-405.282	-9.386	-0.194	0.128
-404.267	561.270	0.144	0.345
-403.252	-200.000	-0.000	-0.034
-402.238	-127.691	0.263	0.038
-401.223	-55.114	0.216	-0.096
-400.209	205.001	-0.248	-0.381
-399.194	248.319	-0.109	-0.183
-398.179	208.523	-0.130	-0.201
-397.165	22.740	0.181	-0.147
-396.150	800.000	0.030	-0.107
-395.136	61.326	-0.173	-0.170
-394.121	-200.000	-0.017	0.377
-393.106	-41.415	0.033	0.017
-392.092	-200.000	0.057	0.293
-391.077	38.954	-0.236	0.208
-390.063	-124.409	-0.326	-0.050
-389.048	282.180	-0.035	0.063
-388.033	-59.913	-0.490	-0.207
-387.019	-120.367	0.135	-0.023
-386.004	-186.668	-0.133	-0.002
-384.990	103.202	0.160	0.185
-383.975	-122.237	-0.452	0.073
-382.960	-83.817	-0.271	0.085
-381.946	-200.000	0.030	0.322
-380.931	-128.720	0.235	0.033
-379.917	-200.000	-0.030	0.139
-378.902	31.901	-0.286	-0.243
-377.888	-70.364	0.571	0.214
-376.873	-40.831	0.212	-0.108
-375.858	-200.000	0.022	-0.102
-374.844	147.202	0.077	-0.102
-373.829	-191.050	-0.194	0.002
-372.815	-200.000	0.018	-0.186
-371.800	-111.619	0.139	0.028
-370.785	677.201	0.040	-0.104
-369.771	-32.871	-0.128	0.070
-368.756	176.204	0.080	-0.114
-367.742	88.533	0.082	-0.090
-366.727	-15.756	-0.137	-0.086
-365.712	-191.450	0.291	-0.003
-364.698	-50.183	-0.033	-0.015
-363.683	504.738	0.015	0.035
-362.669	-133.836	-0.274	-0.034
-361.654	-7.678	-0.191	0.127
-360.639	800.000	-0.100	-0.293
-359.625	14.920	0.129	-0.100
-358.610	-148.114	0.209	0.017
-357.596	-134.100	-0.150	-0.018
-356.581	186.797	0.241	0.354
-355.566	-77.149	0.229	-0.079
-354.552	354.508	-0.131	0.257
-353.537	-188.274	0.244	-0.003
-352.523	184.134	0.087	-0.128
-351.508	-100.983	0.033	-0.008
-350.493	52.521	0.204	0.192
-349.479	47.729	-0.290	-0.268
-348.464	-123.548	0.093	-0.015
-347.450	-200.000	-0.036	-0.197
-346.435	291.009	-0.067	0.120
-345.420	-162.437	-0.184	-0.009
-344.406	-200.000	-0.043	-0.193
-343.391	157.787	0.096	0.132
-342.377	-200.000	0.001	0.153
-341.362	-26.579	0.097	0.056
-340.348	100.803	0.104	0.120
-339.333	-104.062	-0.249	0.057
-338.318	4.605	-0.227	-0.164
-337.304	-200.000	0.004	0.155
-336.289	-101.927	-0.130	-0.031
-335.275	-12.090	0.226	-0.146
-334.260	228.600	-0.131	0.210
-333.245	315.815	0.118	-0.220
-332.231	-200.000	-0.061	0.335
-331.216	-81.655	-0.181	0.059
-330.202	-200.000	-0.023	0.108
-329.187	-61.395	-0.080	0.033
-328.172	-120.851	-0.270	0.045
-327.158	-200.000	-0.006	0.208
-326.143	800.000	-0.007	0.022
-325.129	-122.861	0.035	-0.006
-324.114	99.482	-0.113	-0.129
-323.099	-89.331	0.274	-0.080
-322.085	-200.000	0.036	0.222
-321.070	299.026	-0.110	-0.199
-320.056	800.000	-0.026	-0.082
-319.041	-38.399	0.251	0.131
-318.026	800.000	-0.040	0.118
-317.012	-200.000	0.009	-0.064
-315.997	-122.764	-0.222	-0.035
-314.983	-34.261	0.212	0.115
-313.968	18.455	-0.058	0.046
-312.953	542.394	0.116	0.272
-311.939	-122.710	-0.065	-0.010
-310.924	9.810	0.019	0.014
-309.910	-200.000	-0.015	-0.242
-308.895	705.224	0.105	0.274
-307.880	-200.000	-0.008	0.319
-306.866	-64.152	-0.047	-0.019
-305.851	-200.000	-0.001	0.091
-304.837	3.141	-0.206	0.148
-303.822	22.114	0.213	0.171
-302.807	800.000	-0.077	0.292
-301.793	-198.679	0.213	-0.001
-300.778	-200.000	-0.003	0.020
-299.764	-200.000	-0.008	-0.197
-298.749	-200.000	0.005	-0.077
-297.735	143.790	0.100	-0.131
-296.720	-61.790	0.236	0.097
-295.705	-200.000	0.020	0.209
-294.691	800.000	-0.071	0.245
-293.676	383.805	-0.166	-0.337
-292.662	-200.000	0.036	0.195
-291.647	75.274	0.229	0.238
-290.632	-29.550	-0.416	0.234
-289.618	-93.153	0.133	-0.036
-288.603	105.254	-0.196	-0.228
-287.589	-39.779	0.178	0.092
-286.574	-200.000	0.014	0.280
-285.559	365.991	-0.110	0.218
-284.545	800.000	-0.043	-0.140
-283.530	329.541	-0.133	0.252
-282.516	-115.452	-0.456	0.085
-281.501	800.000	-0.068	-0.220
-280.486	-200.000	0.005	-0.066
-279.472	92.302	-0.150	-0.167
-278.457	169.569	-0.043	0.060
-277.443	-109.577	0.037	-0.008
-276.428	-200.000	0.044	-0.221
-275.413	238.564	0.127	-0.207
-274.399	-102.252	-0.231	0.055
-273.384	345.467	0.096	0.185
-272.370	-64.784	0.064	0.025
-271.355	156.446	-0.079	-0.107
-270.340	-8.355	0.063	0.042
-269.326	-37.735	-0.135	0.071
-268.311	402.865	-0.038	-0.079
-267.297	437.750	-0.004	0.009
-266.282	61.177	0.204	-0.200
-265.267	470.369	0.056	-0.123
-264.253	209.271	-0.056	-0.086
-263.238	207.514	0.025	0.038
-262.224	79.032	0.201	0.212
-261.209	-29.920	-0.185	0.104
-260.195	-200.000	0.030	0.225
-259.180	-200.000	0.016	-0.194
-258.165	173.050	0.213	-0.303
-257.151	10.860	-0.189	0.142
-256.136	-93.965	0.068	-0.018
-255.122	167.390	0.103	0.143
-254.107	584.597	-0.050	0.122
-253.092	216.686	0.061	0.096
-252.078	265.540	-0.092	-0.159
-251.063	263.722	0.065	-0.111
-250.049	-49.100	0.131	-0.062
-249.034	-125.445	-0.086	0.013
-248.019	-200.000	0.007	0.069
-247.005	-200.000	-0.018	0.152
-245.990	-109.565	0.133	-0.028
-244.976	282.547	-0.121	0.213
-243.961	23.314	-0.319	-0.258
-242.946	113.794	0.145	0.173
-241.932	33.166	-0.102	0.087
-240.917	-200.000	0.023	-0.184
-239.903	800.000	-0.072	-0.233
-238.888	-9.527	-0.192	0.126
-237.873	-200.000	0.009	0.137
-236.859	-16.401	0.163	-0.102
-235.844	-200.000	0.026	0.169
-234.830	-82.816	0.175	-0.056
-233.815	-155.351	0.213	0.014
-232.800	-82.062	0.325	0.104
-231.786	167.419	0.142	-0.198
-230.771	-200.000	-0.011	0.362
-229.757	0.363	0.258	0.181
-228.742	-200.000	-0.286	0.000
-227.727	-107.145	-0.031	-0.007
-226.713	-200.000	0.036	-0.306
-225.698	554.568	0.033	0.078
-224.684	-80.606	0.215	-0.070
-223.669	-42.312	0.117	0.059
-222.655	-31.427	0.206	0.114
-221.640	-200.000	-0.091	-0.497
-220.625	81.190	0.034	0.036
-219.611	-200.000	-0.084	-0.395
-218.596	779.364	0.083	-0.223
-217.582	-90.232	0.295	-0.084
-216.567	-200.000	0.002	-0.246
-215.552	-12.102	0.032	-0.021
-214.538	230.965	0.089	-0.143
-213.523	49.447	-0.210	-0.194
-212.509	-164.176	0.147	0.007
-211.494	-200.000	-0.029	0.277
-210.479	-45.935	-0.171	-0.083
-209.465	-200.000	-0.014	-0.175
-208.450	-108.957	0.095	-0.020
-207.436	-174.650	0.168	-0.005
-206.421	-82.923	0.493	-0.156
-205.406	-10.895	0.115	0.075
-204.392	-52.764	-0.220	0.100
-203.377	800.000	0.048	0.175
-202.363	151.542	-0.088	0.118
-201.348	-186.783	0.414	0.006
-200.333	-30.862	-0.401	-0.223
-199.319	-35.096	-0.135	-0.072
-198.304	407.131	-0.030	0.062
-197.290	173.861	0.075	-0.107
-196.275	430.294	0.045	-0.096
-195.260	-106.435	-0.296	-0.065
-194.246	213.205	-0.072	-0.112
-193.231	205.457	0.220	-0.335
-192.217	302.748	0.051	-0.093
-191.202	125.496	0.174	0.215
-190.187	-56.674	-0.204	-0.089
-189.173	-200.000	0.052	0.300
-188.158	12.395	-0.048	-0.036
-187.144	109.612	-0.111	0.131
-186.129	247.337	0.127	-0.211
-185.114	122.631	0.069	0.084
-184.100	-152.110	0.090	0.006
-183.085	83.368	0.128	-0.137
-182.071	-49.081	-0.151	0.071
-181.056	-200.000	0.069	-0.415
-180.042	23.911	0.168	0.136
-179.027	704.136	0.170	-0.439
-178.012	-79.571	-0.116	0.038
-176.998	26.897	-0.092	-0.076
-175.983	800.000	0.081	0.228
-174.969	138.467	0.214	0.275
-173.954	290.801	-0.035	-0.062
-172.939	-200.000	-0.023	-0.333
-171.925	-91.422	-0.221	-0.062
-170.910	123.276	0.118	0.145
-169.896	305.325	-0.082	-0.150
-168.881	-104.239	-0.451	-0.103
-167.866	-200.000	-0.017	0.098
-166.852	557.174	-0.045	-0.105
-165.837	-152.803	-0.162	0.011
-164.823	-121.572	0.173	-0.028
-163.808	522.832	0.084	-0.192
-162.793	800.000	-0.027	-0.115
-161.779	-154.364	0.065	0.004
-160.764	-200.000	0.006	-0.296
-159.750	-200.000	-0.008	-0.257
-158.735	800.000	-0.049	0.134
-157.720	228.605	-0.085	-0.135
-156.706	-49.769	-0.155	-0.072
-155.691	686.544	-0.118	-0.302
-154.677	-126.703	-0.241	-0.035
-153.662	465.094	-0.154	-0.338
-152.647	171.216	0.020	0.028
-151.633	-99.185	0.366	-0.091
-150.618	-119.785	0.307	-0.052
-149.604	34.188	-0.063	-0.054
-148.589	120.199	-0.130	0.158
-147.574	-18.635	-0.059	0.036
-146.560	800.000	-0.108	-0.324
-145.545	800.000	-0.048	0.136
-144.531	-170.168	0.246	0.009
-143.516	-200.000	0.032	0.140
-142.502	800.000	-0.103	0.358
-141.487	-126.859	-0.020	-0.003
-140.472	-200.000	0.031	0.144
-139.458	50.945	0.154	0.143
-138.443	-200.000	-0.001	-0.333
-137.429	375.529	-0.072	-0.144
-136.414	251.396	-0.033	-0.055
-135.399	-18.883	-0.209	-0.127
-134.385	-112.353	-0.063	-0.012
-133.370	-109.361	-0.188	0.039
-132.356	-32.889	0.336	0.183
-131.341	-200.000	0.074	0.393
-130.326	-95.260	-0.095	-0.025
-129.312	-200.000	0.039	-0.238
-128.297	-200.000	0.006	0.059
-127.283	800.000	-0.062	-0.200
-126.268	14.213	-0.090	-0.069
-125.253	-17.574	0.169	-0.104
-124.239	-153.383	-0.197	0.013
-123.224	800.000	-0.034	0.136
