DTS Sentinel unit serial number:	SN413079Multiplexer serial number:	ORYXHardware model number:	OX4-SRSoftware version number:	ORYX F/W v4.00 Oryx Data Collector v3.7.2.0data status	okinstallation	princeton_trtdifferential loss correction	single-endedforward channel	channel 1reverse channel	N/Adate	2019/09/10time	17:48:11forward acquisition time	60.00reverse acquisition time	0.00gamma	496.2192k internal	0.2300k external	0.2300temperature offset calibration	0.9930default loss term (dB/km)	0.3790temperature slope calibration	1.0000multiplexer offset coefficient	1.0000multiplexer slope coefficient	1.0000fibre end	0.00T internal ref (°C)	37.48T ext. ref 1 (°C)	-0.32T ext. ref 2 (°C)	30.31length (m)	temperature (°C)	Stokes	anti-Stokes-747.200	-117.227	-0.053	-0.010
-746.185	-200.000	0.008	0.066
-745.171	107.824	0.142	-0.172
-744.156	-200.000	-0.195	-0.000
-743.142	86.775	-0.074	-0.084
-742.127	-78.046	0.100	-0.035
-741.112	-123.848	0.402	0.065
-740.098	657.386	-0.086	0.225
-739.083	-92.866	-0.164	0.047
-738.069	800.000	0.083	0.339
-737.054	-75.445	-0.076	-0.028
-736.039	-115.661	-0.520	0.099
-735.025	-15.648	0.066	-0.043
-734.010	-116.100	0.202	-0.038
-732.996	368.997	-0.081	-0.166
-731.981	204.959	-0.107	-0.170
-730.966	-171.502	-0.039	-0.001
-729.952	182.988	0.132	-0.199
-728.937	52.827	-0.326	-0.318
-727.923	800.000	0.043	0.151
-726.908	50.062	0.229	-0.220
-725.894	-93.486	-0.449	-0.127
-724.879	-25.099	-0.304	-0.184
-723.864	-200.000	0.025	0.204
-722.850	340.902	-0.076	0.151
-721.835	-12.975	-0.159	0.105
-720.821	-38.552	-0.228	-0.123
-719.806	-66.668	-0.162	0.065
-718.791	303.599	-0.270	-0.509
-717.777	-35.268	0.143	-0.079
-716.762	800.000	-0.003	-0.011
-715.748	84.824	-0.221	-0.247
-714.733	-200.000	0.016	0.167
-713.718	-89.726	0.146	0.044
-712.704	-82.026	-0.164	0.055
-711.689	7.638	-0.162	-0.123
-710.675	-110.955	0.241	0.050
-709.660	-200.000	0.033	-0.277
-708.645	-193.500	0.135	0.001
-707.631	-200.000	0.010	0.205
-706.616	-200.000	-0.030	0.377
-705.602	709.345	0.037	0.099
-704.587	800.000	-0.026	-0.094
-703.572	800.000	-0.101	-0.407
-702.558	-131.335	-0.230	-0.031
-701.543	-178.720	0.188	-0.004
-700.529	-94.296	-0.177	-0.049
-699.514	-93.266	0.189	0.053
-698.499	441.386	-0.122	0.272
-697.485	-10.454	-0.138	0.093
-696.470	-200.000	-0.004	-0.172
-695.456	-200.000	-0.020	0.245
-694.441	257.872	0.055	-0.097
-693.426	-200.000	0.002	-0.013
-692.412	99.531	0.051	-0.060
-691.397	-78.461	-0.346	0.121
-690.383	-179.111	-0.273	0.006
-689.368	-92.377	0.344	0.098
-688.354	800.000	0.105	0.423
-687.339	-138.783	0.142	-0.016
-686.324	291.980	0.039	0.073
-685.310	-154.018	-0.160	0.011
-684.295	324.704	0.042	-0.081
-683.281	333.925	-0.024	0.047
-682.266	-93.565	-0.152	-0.043
-681.251	154.540	0.095	0.133
-680.237	66.572	-0.125	-0.129
-679.222	800.000	0.079	-0.240
-678.208	-200.000	-0.000	-0.195
-677.193	-67.470	0.079	-0.032
-676.178	-97.533	0.302	-0.080
-675.164	-175.082	-0.092	-0.003
-674.149	105.699	-0.075	-0.091
-673.135	152.846	-0.127	0.176
-672.120	153.354	0.132	0.183
-671.105	-55.309	-0.149	0.068
-670.091	-200.000	0.011	-0.261
-669.076	-36.540	-0.150	-0.082
-668.062	29.656	-0.160	0.138
-667.047	-200.000	-0.033	0.232
-666.032	290.154	0.113	-0.208
-665.018	96.018	-0.051	0.059
-664.003	-42.195	-0.227	-0.118
-662.989	-200.000	0.017	0.175
-661.974	-200.000	-0.005	-0.082
-660.959	-200.000	0.050	-0.239
-659.945	-99.935	0.280	0.071
-658.930	344.171	0.064	0.128
-657.916	208.904	-0.109	0.174
-656.901	257.242	0.126	-0.220
-655.886	-200.000	-0.008	-0.272
-654.872	-51.466	-0.244	-0.116
-653.857	-53.108	-0.256	0.119
-652.843	-61.731	-0.189	-0.080
-651.828	-200.000	-0.007	-0.085
-650.814	-127.226	0.039	0.006
-649.799	-11.989	-0.185	-0.123
-648.784	-89.128	-0.084	-0.025
-647.770	18.017	0.113	0.092
-646.755	105.028	0.168	0.202
-645.741	-21.364	-0.048	-0.030
-644.726	-28.166	-0.069	0.041
-643.711	-106.424	0.271	-0.062
-642.697	800.000	-0.032	-0.130
-641.682	85.149	-0.279	-0.311
-640.668	-48.181	-0.396	0.194
-639.653	800.000	-0.042	-0.171
-638.638	236.321	0.101	-0.169
-637.624	-200.000	-0.061	-0.315
-636.609	-200.000	0.013	0.097
-635.595	-186.485	-0.348	-0.005
-634.580	153.096	0.171	0.238
-633.565	-200.000	-0.001	0.060
-632.551	-200.000	-0.361	-0.001
-631.536	203.846	-0.042	0.066
-630.522	65.611	0.144	0.148
-629.507	-141.705	-0.287	-0.029
-628.492	-200.000	-0.042	-0.327
-627.478	-43.069	0.218	0.112
-626.463	800.000	-0.036	0.132
-625.449	-111.506	-0.119	-0.024
-624.434	-200.000	-0.044	0.410
-623.419	145.397	0.043	0.058
-622.405	-70.859	-0.176	-0.067
-621.390	447.414	0.124	-0.277
-620.376	-146.180	-0.257	0.023
-619.361	-93.290	0.239	-0.067
-618.346	-31.782	-0.122	0.069
-617.332	267.874	-0.216	0.383
-616.317	-200.000	-0.002	-0.260
-615.303	-200.000	0.076	-0.383
-614.288	5.523	0.213	0.160
-613.273	-114.388	-0.150	0.029
-612.259	-200.000	-0.009	-0.195
-611.244	-39.413	0.026	0.014
-610.230	426.633	0.044	-0.095
-609.215	-200.000	0.000	-0.231
-608.201	303.158	-0.158	0.297
-607.186	611.108	0.152	-0.386
-606.171	-197.324	0.313	-0.002
-605.157	322.213	0.146	-0.282
-604.142	800.000	0.111	-0.479
-603.128	-170.020	0.497	0.018
-602.113	796.743	-0.069	0.194
-601.098	515.370	0.066	-0.157
-600.084	-61.094	0.358	0.153
-599.069	-108.213	0.074	0.016
-598.055	-63.973	0.275	0.114
-597.040	743.509	-0.022	0.061
-596.025	-200.000	-0.031	-0.351
-595.011	-86.336	-0.166	0.052
-593.996	1.201	0.152	0.111
-592.982	-99.320	0.103	0.026
-591.967	-120.880	0.730	-0.125
-590.952	24.342	-0.092	0.077
-589.938	800.000	0.119	0.391
-588.923	-76.596	-0.351	0.125
-587.909	-200.000	0.004	0.113
-586.894	-177.078	0.146	-0.004
-585.879	-31.345	0.358	-0.204
-584.865	800.000	-0.096	0.396
-583.850	-102.092	-0.061	0.015
-582.836	352.598	-0.095	-0.191
-581.821	87.970	-0.082	0.093
-580.806	800.000	0.023	-0.069
-579.792	-97.559	0.278	0.073
-578.777	127.913	-0.136	-0.176
-577.763	-12.485	-0.397	0.263
-576.748	-129.774	-0.331	0.046
-575.733	-57.421	-0.240	0.107
-574.719	-92.668	-0.453	-0.128
-573.704	-27.588	-0.053	0.031
-572.690	-79.766	0.333	0.114
-571.675	579.504	0.082	-0.203
-570.661	-200.000	-0.009	0.172
-569.646	-200.000	0.011	0.079
-568.631	800.000	0.065	0.251
-567.617	-132.808	0.030	0.004
-566.602	-63.946	-0.110	0.045
-565.588	492.108	-0.068	0.157
-564.573	-40.594	0.147	-0.077
-563.558	-200.000	0.078	0.369
-562.544	81.118	-0.202	-0.221
-561.529	-127.607	0.156	-0.023
-560.515	110.545	0.168	-0.205
-559.500	-200.000	-0.006	0.098
-558.485	-36.999	-0.052	-0.028
-557.471	-200.000	-0.045	0.219
-556.456	-41.781	0.096	0.050
-555.442	-200.000	-0.044	-0.203
-554.427	800.000	-0.034	0.112
-553.412	800.000	0.067	-0.201
-552.398	395.114	0.081	0.170
-551.383	494.682	-0.080	-0.185
-550.369	72.928	0.205	0.217
-549.354	-113.468	0.476	-0.094
-548.339	795.140	0.118	0.329
-547.325	-36.390	-0.218	-0.119
-546.310	71.325	-0.306	0.321
-545.296	145.168	-0.020	-0.026
-544.281	58.422	0.100	0.099
-543.266	-121.534	0.018	0.003
-542.252	99.745	0.227	0.265
-541.237	136.740	-0.096	-0.127
-540.223	335.610	0.089	-0.174
-539.208	502.431	-0.065	0.153
-538.193	-77.520	0.096	0.034
-537.179	758.391	0.084	-0.230
-536.164	-200.000	-0.005	-0.290
-535.150	-200.000	0.055	-0.245
-534.135	-200.000	0.058	-0.356
-533.121	626.619	0.122	-0.311
-532.106	-61.050	-0.157	-0.067
-531.091	513.670	-0.043	0.101
-530.077	-200.000	0.017	0.278
-529.062	599.507	0.097	-0.243
-528.048	-200.000	-0.027	-0.164
-527.033	284.977	-0.073	-0.133
-526.018	200.765	-0.058	0.090
-525.004	158.412	-0.265	0.372
-523.989	-200.000	-0.002	-0.103
-522.975	-152.175	0.070	0.005
-521.960	-75.793	0.152	-0.054
-520.945	-144.035	-0.115	0.011
-519.931	287.656	-0.164	0.299
-518.916	-200.000	-0.027	0.230
-517.902	-200.000	0.007	0.236
-516.887	216.864	-0.193	0.311
-515.872	3.314	0.253	-0.186
-514.858	87.554	0.108	0.121
-513.843	-101.660	-0.475	0.116
-512.829	-101.790	0.323	-0.079
-511.814	482.642	-0.084	0.193
-510.799	-200.000	-0.066	0.292
-509.785	-148.680	-0.078	0.006
-508.770	-8.332	0.099	0.067
-507.756	-200.000	0.035	0.321
-506.741	-200.000	-0.036	-0.199
-505.726	208.906	0.219	-0.346
-504.712	69.628	-0.279	-0.290
-503.697	21.597	0.333	-0.273
-502.683	214.605	0.102	0.164
-501.668	-120.637	-0.188	-0.032
-500.653	800.000	-0.050	0.216
-499.639	800.000	0.053	0.208
-498.624	24.993	0.238	0.200
-497.610	800.000	-0.035	0.124
-496.595	-200.000	-0.027	0.176
-495.581	679.166	-0.112	0.295
-494.566	152.226	-0.106	-0.146
-493.551	37.892	-0.194	-0.174
-492.537	-178.481	-0.086	0.002
-491.522	-200.000	0.023	0.161
-490.508	800.000	0.080	-0.234
-489.493	-70.524	0.179	-0.069
-488.478	-60.649	-0.189	-0.081
-487.464	272.228	-0.141	0.251
-486.449	-55.353	-0.223	0.101
-485.435	-141.411	-0.367	-0.038
-484.420	-130.021	0.342	0.047
-483.405	-200.000	0.019	0.135
-482.391	-43.444	0.260	0.133
-481.376	312.119	0.178	0.338
-480.362	-13.479	0.314	0.205
-479.347	800.000	-0.047	0.143
-478.332	800.000	-0.073	0.280
-477.318	-200.000	0.012	0.129
-476.303	69.143	-0.220	-0.228
-475.289	18.615	0.209	-0.169
-474.274	195.663	-0.199	0.305
-473.259	479.544	-0.146	0.335
-472.245	-88.505	-0.409	-0.123
-471.230	-60.774	-0.175	-0.075
-470.216	-78.968	-0.262	0.090
-469.201	3.176	0.086	-0.063
-468.186	574.188	-0.025	-0.062
-467.172	-99.186	-0.190	-0.049
-466.157	-200.000	-0.004	-0.208
-465.143	218.610	-0.041	-0.065
-464.128	-109.796	0.240	-0.051
-463.113	238.758	-0.150	-0.251
-462.099	-200.000	0.018	-0.155
-461.084	-106.282	0.421	-0.095
-460.070	30.934	0.094	-0.081
-459.055	50.304	-0.192	-0.183
-458.040	800.000	-0.120	-0.398
-457.026	-73.857	-0.170	0.062
-456.011	-85.621	0.175	0.055
-454.997	-120.157	-0.239	0.041
-453.982	24.951	-0.374	-0.313
-452.968	-30.298	0.195	0.112
-451.953	479.178	0.072	0.165
-450.938	-62.189	-0.169	0.071
-449.924	133.205	-0.090	0.117
-448.909	-148.177	-0.137	0.011
-447.895	49.643	-0.242	0.229
-446.880	52.677	0.189	0.182
-445.865	193.386	0.110	-0.167
-444.851	-37.331	-0.300	-0.162
-443.836	134.677	0.190	0.248
-442.822	721.226	0.047	0.126
-441.807	-157.700	-0.103	0.006
-440.792	-113.867	0.231	0.045
-439.778	344.269	-0.071	0.140
-438.763	-200.000	-0.020	0.122
-437.749	800.000	0.045	0.179
-436.734	-200.000	-0.096	0.430
-435.719	-200.000	-0.019	0.243
-434.705	16.767	-0.288	0.229
-433.690	88.429	0.321	0.359
-432.676	-47.893	-0.067	0.033
-431.661	412.714	0.059	0.126
-430.646	-200.000	-0.028	0.250
-429.632	-143.358	-0.396	-0.038
-428.617	-160.274	-0.368	-0.020
-427.603	-200.000	0.005	0.104
-426.588	-166.914	-0.176	-0.007
-425.573	503.350	-0.108	0.252
-424.559	177.494	-0.111	-0.164
-423.544	89.135	-0.058	-0.065
-422.530	-25.580	-0.165	-0.098
-421.515	-78.142	0.077	0.027
-420.500	115.678	-0.099	0.122
-419.486	-6.234	0.081	-0.056
-418.471	-200.000	0.041	0.217
-417.457	800.000	-0.043	-0.154
-416.442	800.000	-0.035	-0.105
-415.428	-101.935	0.186	-0.045
-414.413	-100.231	-0.174	0.043
-413.398	-137.525	0.173	0.020
-412.384	715.698	-0.112	-0.298
-411.369	140.833	-0.250	0.332
-410.355	-200.000	-0.002	0.161
-409.340	10.706	0.168	0.129
-408.325	259.638	0.085	0.148
-407.311	-125.876	-0.217	0.033
-406.296	751.949	-0.095	-0.257
-405.282	156.609	0.058	-0.080
-404.267	-46.583	0.324	-0.160
-403.252	75.967	0.038	0.040
-402.238	89.952	0.200	-0.224
-401.223	-114.739	0.084	-0.016
-400.209	110.992	0.248	0.300
-399.194	-142.084	0.232	0.023
-398.179	32.783	0.130	-0.113
-397.165	-65.852	-0.074	0.030
-396.150	680.804	0.089	-0.232
-395.136	-23.933	0.190	-0.114
-394.121	800.000	0.046	0.191
-393.106	-87.199	0.189	-0.058
-392.092	-127.955	0.089	0.013
-391.077	-116.158	-0.370	0.069
-390.063	-51.728	0.386	0.181
-389.048	-71.373	0.207	0.078
-388.033	382.871	-0.050	-0.103
-387.019	-135.765	0.294	-0.035
-386.004	-54.059	0.115	-0.053
-384.990	-47.558	0.455	-0.222
-383.975	-102.125	0.238	0.058
-382.960	526.527	-0.029	-0.068
-381.946	-65.672	0.080	0.032
-380.931	-77.384	0.277	-0.097
-379.917	-107.930	0.347	-0.076
-378.902	-200.000	0.011	-0.277
-377.888	65.307	-0.053	-0.054
-376.873	-200.000	0.056	-0.246
-375.858	-200.000	0.011	0.138
-374.844	-9.910	-0.147	0.099
-373.829	-200.000	0.004	-0.194
-372.815	-104.224	0.279	0.065
-371.800	-99.632	-0.049	-0.012
-370.785	-200.000	-0.029	-0.335
-369.771	800.000	-0.066	0.195
-368.756	800.000	-0.016	-0.068
-367.742	-200.000	-0.001	0.103
-366.727	-94.724	0.302	-0.082
-365.712	-133.877	0.118	0.015
-364.698	48.076	-0.047	-0.044
-363.683	153.276	-0.021	0.029
-362.669	47.578	-0.290	-0.272
-361.654	-200.000	-0.033	-0.331
-360.639	39.553	0.134	-0.120
-359.625	34.763	-0.040	-0.035
-358.610	-91.896	-0.443	0.126
-357.596	800.000	-0.043	-0.135
-356.581	-170.760	0.345	-0.012
-355.566	800.000	-0.097	-0.314
-354.552	21.086	-0.185	-0.151
-353.537	51.071	0.283	-0.270
-352.523	21.190	0.524	-0.428
-351.508	116.588	0.306	-0.377
-350.493	800.000	-0.003	0.011
-349.479	20.046	-0.149	0.121
-348.464	51.681	0.210	0.200
-347.450	800.000	0.026	0.100
-346.435	-200.000	-0.049	0.266
-345.420	-84.765	0.355	0.112
-344.406	-84.157	-0.324	0.103
-343.391	-200.000	0.015	0.132
-342.377	416.022	0.023	0.050
-341.362	204.605	-0.215	0.335
-340.348	626.233	-0.083	0.209
-339.333	800.000	0.098	0.282
-338.318	37.202	-0.145	0.129
-337.304	48.918	0.107	-0.101
-336.289	-54.502	-0.129	-0.059
-335.275	445.563	0.189	-0.417
-334.260	150.315	-0.111	-0.152
-333.245	223.704	-0.052	-0.084
-332.231	22.531	0.229	-0.188
-331.216	65.420	0.126	0.128
-330.202	37.970	0.088	0.078
-329.187	196.747	-0.043	-0.065
-328.172	314.375	-0.103	0.195
-327.158	-40.123	0.183	-0.096
-326.143	68.645	-0.085	0.087
-325.129	643.139	-0.034	-0.088
-324.114	98.900	-0.031	0.036
-323.099	-92.518	-0.400	-0.113
-322.085	-19.021	-0.166	0.103
-321.070	-41.632	0.078	-0.040
-320.056	-91.180	0.016	0.005
-319.041	715.842	-0.116	0.309
-318.026	-121.704	0.068	0.011
-317.012	-200.000	0.096	-0.448
-315.997	-27.958	0.318	0.185
-314.983	37.575	0.175	-0.156
-313.968	32.914	-0.128	0.111
-312.953	-14.663	0.159	-0.102
-311.939	-136.757	-0.044	0.005
-310.924	-133.692	0.337	0.042
-309.910	-200.000	-0.102	-0.000
-308.895	311.647	-0.120	0.227
-307.880	-200.000	-0.024	0.300
-306.866	800.000	0.069	0.260
-305.851	-25.407	-0.251	0.149
-304.837	-91.570	-0.092	0.026
-303.822	49.776	0.235	0.222
-302.807	-200.000	-0.054	-0.239
-301.793	-200.000	0.010	-0.126
-300.778	800.000	-0.067	0.220
-299.764	-133.720	0.565	-0.071
-298.749	800.000	-0.042	-0.153
-297.735	616.050	0.108	-0.272
-296.720	417.014	0.073	0.155
-295.705	-22.285	-0.121	0.074
-294.691	174.709	0.062	-0.089
-293.676	-68.798	-0.107	-0.041
-292.662	94.792	0.206	-0.235
-291.647	213.283	0.042	-0.066
-290.632	800.000	-0.048	-0.171
-289.618	-200.000	-0.046	-0.230
-288.603	-108.533	0.114	0.024
-287.589	72.068	0.123	0.128
-286.574	68.885	0.145	0.149
-285.559	800.000	0.064	-0.194
-284.545	-72.331	-0.078	0.029
-283.530	658.538	0.043	-0.110
-282.516	245.712	0.159	0.268
-281.501	269.331	0.240	0.421
-280.486	-200.000	-0.064	0.284
-279.472	-136.138	-0.437	-0.051
-278.457	-123.929	0.225	-0.035
-277.443	-119.794	-0.144	0.025
-276.428	800.000	-0.070	-0.255
-275.413	285.356	-0.157	-0.283
-274.399	-200.000	0.089	0.424
-273.384	-66.733	-0.246	0.098
-272.370	-156.638	-0.120	0.007
-271.355	327.473	0.081	0.156
-270.340	55.885	0.086	0.084
-269.326	-104.043	-0.196	0.046
-268.311	-182.222	-0.302	-0.006
-267.297	678.305	-0.096	0.250
-266.282	-200.000	0.024	0.323
-265.267	179.559	-0.033	0.048
-264.253	-200.000	-0.039	-0.282
-263.238	367.878	0.129	0.261
-262.224	739.572	-0.097	-0.260
-261.209	-200.000	-0.089	-0.632
-260.195	-77.943	-0.054	0.019
-259.180	-200.000	0.067	0.448
-258.165	800.000	-0.067	-0.269
-257.151	221.976	0.209	-0.336
-256.136	-200.000	-0.012	-0.153
-255.122	-200.000	-0.019	-0.276
-254.107	-86.538	-0.249	0.076
-253.092	-159.118	-0.175	0.010
-252.078	51.285	-0.068	0.065
-251.063	-115.239	0.339	-0.064
-250.049	-200.000	0.038	-0.309
-249.034	-193.169	-0.160	0.001
-248.019	-53.327	-0.247	-0.113
-247.005	-62.786	-0.201	-0.083
-245.990	-157.878	0.379	-0.022
-244.976	-50.471	0.114	-0.054
-243.961	-144.466	-0.077	-0.007
-242.946	800.000	0.011	0.036
-241.932	-102.768	-0.160	0.038
-240.917	-200.000	0.006	-0.172
-239.903	-166.527	0.149	-0.006
-238.888	36.597	-0.119	0.105
-237.873	-101.377	-0.416	0.101
-236.859	14.248	-0.242	-0.188
-235.844	-200.000	-0.019	0.294
-234.830	-61.557	-0.166	-0.070
-233.815	-128.311	0.139	-0.020
-232.800	-123.376	0.058	0.009
-231.786	213.063	0.183	0.289
-230.771	-90.218	-0.374	0.109
-229.757	-168.886	0.249	0.009
-228.742	-3.810	-0.169	-0.117
-227.727	-55.054	0.190	-0.085
-226.713	-32.188	-0.117	0.065
-225.698	412.292	0.013	-0.029
-224.684	-48.309	-0.089	0.043
-223.669	-200.000	0.035	0.194
-222.655	672.913	0.114	-0.295
-221.640	-171.403	0.085	-0.003
-220.625	-153.910	-0.312	0.021
-219.611	-26.907	0.225	0.131
-218.596	-52.731	-0.303	-0.139
-217.582	-27.807	-0.248	-0.144
-216.567	64.367	-0.041	0.041
-215.552	307.084	-0.087	0.161
-214.538	-112.544	0.361	0.072
-213.523	-200.000	-0.039	0.256
-212.509	463.785	-0.062	0.138
-211.494	40.551	0.121	-0.109
-210.479	-155.353	-0.361	0.023
-209.465	-45.886	-0.106	0.052
-208.450	372.755	0.096	0.195
-207.436	-200.000	0.012	0.067
-206.421	-156.111	-0.382	-0.024
-205.406	-2.931	0.060	0.042
-204.392	-92.530	0.095	0.027
-203.377	519.950	0.122	-0.285
-202.363	60.751	-0.164	-0.162
-201.348	-50.694	0.104	-0.049
-200.333	-145.655	0.092	0.008
-199.319	-143.990	0.152	0.014
-198.304	-200.000	-0.004	-0.320
-197.290	33.244	-0.100	0.086
-196.275	800.000	0.006	-0.021
-195.260	-200.000	0.095	-0.521
-194.246	-200.000	0.000	-0.059
-193.231	517.835	-0.064	-0.150
-192.217	75.993	0.156	0.164
-191.202	-110.162	-0.177	-0.037
-190.187	-23.292	-0.061	0.037
-189.173	800.000	0.006	-0.020
-188.158	277.151	-0.096	-0.170
-187.144	159.924	-0.044	0.061
-186.129	-200.000	0.011	0.102
-185.114	-200.000	-0.034	0.206
-184.100	-4.396	0.128	-0.088
-183.085	33.599	0.114	0.099
-182.071	173.867	0.029	-0.042
-181.056	530.708	-0.119	0.280
-180.042	-16.576	-0.032	-0.020
-179.027	-89.254	0.115	0.034
-178.012	-91.532	0.293	-0.083
-176.998	-157.587	-0.269	0.016
-175.983	42.178	-0.112	-0.102
-174.969	-12.518	-0.273	0.178
-173.954	415.264	0.050	-0.106
-172.939	543.922	0.072	-0.171
-171.925	-80.209	-0.065	-0.022
-170.910	-200.000	-0.009	0.049
-169.896	-192.068	-0.115	-0.001
-168.881	151.574	0.106	-0.144
-167.866	86.594	0.273	-0.300
-166.852	-84.756	0.043	0.013
-165.837	-200.000	0.031	-0.460
-164.823	-200.000	-0.008	-0.316
-163.808	-179.474	0.193	-0.004
-162.793	-99.793	-0.091	0.023
-161.779	97.340	0.123	-0.140
-160.764	-200.000	-0.041	0.237
-159.750	-200.000	0.073	0.326
-158.735	-110.283	0.428	-0.089
-157.720	208.500	0.041	-0.064
-156.706	20.839	-0.408	-0.330
-155.691	-14.625	-0.379	-0.243
-154.677	139.365	-0.106	-0.139
-153.662	-200.000	-0.003	-0.030
-152.647	245.913	-0.170	-0.286
-151.633	-165.953	-0.190	-0.008
-150.618	528.347	0.056	0.131
-149.604	202.662	0.020	0.031
-148.589	-108.468	0.160	0.034
-147.574	455.459	-0.025	0.055
-146.560	-65.347	-0.257	-0.103
-145.545	800.000	-0.100	-0.310
-144.531	-200.000	-0.040	-0.287
-143.516	212.173	-0.150	0.236
-142.502	-200.000	0.012	-0.131
-141.487	-200.000	-0.015	-0.137
-140.472	382.715	-0.061	0.126
-139.458	-200.000	0.055	-0.487
-138.443	-85.375	0.313	0.097
-137.429	-102.310	0.079	-0.019
-136.414	0.982	0.246	0.176
-135.399	292.633	0.324	0.588
-134.385	-200.000	0.015	0.103
-133.370	-200.000	-0.005	-0.173
-132.356	-147.589	-0.225	-0.019
-131.341	-111.259	-0.217	-0.044
-130.326	-109.237	-0.194	-0.041
-129.312	-124.426	0.148	0.023
-128.297	275.991	0.202	0.357
-127.283	-53.996	0.191	-0.086
-126.268	-200.000	-0.033	0.214
-125.253	-200.000	0.058	-0.254
-124.239	-75.244	-0.213	0.076
-123.224	800.000	0.036	0.114
