DTS Sentinel unit serial number:	SN413079Multiplexer serial number:	ORYXHardware model number:	OX4-SRSoftware version number:	ORYX F/W v4.00 Oryx Data Collector v3.7.2.0data status	okinstallation	princeton_trtdifferential loss correction	single-endedforward channel	channel 1reverse channel	N/Adate	2019/09/15time	12:54:35forward acquisition time	60.00reverse acquisition time	0.00gamma	496.2192k internal	0.2296k external	0.2296temperature offset calibration	0.9978default loss term (dB/km)	0.3790temperature slope calibration	1.0000multiplexer offset coefficient	1.0000multiplexer slope coefficient	1.0000fibre end	0.00T internal ref (°C)	36.20T ext. ref 1 (°C)	5.02T ext. ref 2 (°C)	34.20length (m)	temperature (°C)	Stokes	anti-Stokes-747.200	800.000	0.087	0.258
-746.185	-200.000	0.014	0.249
-745.171	-200.000	-0.045	0.211
-744.156	-200.000	0.042	0.366
-743.142	-71.927	0.214	0.082
-742.127	113.328	-0.157	0.195
-741.112	404.572	-0.128	0.275
-740.098	263.485	0.041	0.074
-739.083	-147.915	0.270	0.023
-738.069	44.406	-0.106	0.100
-737.054	-43.300	0.316	0.163
-736.039	105.965	-0.126	-0.152
-735.025	92.056	-0.050	0.058
-734.010	386.949	-0.060	-0.127
-732.996	769.081	-0.100	0.277
-731.981	18.179	-0.198	-0.161
-730.966	17.527	-0.160	-0.130
-729.952	-97.287	-0.191	0.051
-728.937	-69.411	-0.222	-0.087
-727.923	222.606	-0.105	-0.172
-726.908	-64.763	-0.132	-0.054
-725.894	-125.922	-0.179	-0.027
-724.879	62.624	0.068	0.069
-723.864	-130.627	-0.356	0.049
-722.850	800.000	-0.085	0.357
-721.835	-200.000	-0.001	-0.396
-720.821	800.000	-0.026	0.102
-719.806	800.000	-0.024	-0.074
-718.791	-28.021	0.220	-0.130
-717.777	-14.504	-0.043	0.028
-716.762	27.978	-0.451	-0.388
-715.748	-29.519	0.059	-0.034
-714.733	-14.200	-0.128	0.084
-713.718	-85.033	0.065	0.021
-712.704	800.000	0.088	0.253
-711.689	354.288	-0.121	0.246
-710.675	-43.667	0.202	0.104
-709.660	-54.081	0.174	0.081
-708.645	66.057	-0.192	-0.199
-707.631	4.500	0.323	-0.242
-706.616	87.360	0.171	-0.193
-705.602	83.148	0.213	0.236
-704.587	-166.977	0.229	-0.010
-703.572	800.000	0.023	-0.090
-702.558	-200.000	-0.004	0.068
-701.543	-154.000	0.188	0.013
-700.529	800.000	0.091	-0.259
-699.514	2.424	-0.220	-0.162
-698.499	50.155	0.063	0.060
-697.485	29.725	0.041	-0.036
-696.470	169.184	-0.186	0.271
-695.456	-61.031	-0.481	-0.207
-694.441	540.334	-0.095	0.230
-693.426	-172.590	0.139	-0.004
-692.412	301.380	0.111	-0.210
-691.397	-78.935	0.235	-0.082
-690.383	26.607	0.150	-0.128
-689.368	-159.709	-0.647	-0.036
-688.354	143.158	-0.116	-0.158
-687.339	-200.000	0.022	-0.206
-686.324	-27.819	-0.193	-0.114
-685.310	-105.792	0.188	-0.043
-684.295	20.623	-0.175	-0.144
-683.281	-85.542	-0.335	0.106
-682.266	-161.734	-0.225	0.012
-681.251	-200.000	-0.015	-0.090
-680.237	-47.395	-0.232	-0.115
-679.222	-38.296	-0.115	-0.062
-678.208	800.000	0.036	-0.111
-677.193	-200.000	-0.012	-0.118
-676.178	54.281	0.219	-0.214
-675.164	-194.301	0.143	0.001
-674.149	335.319	-0.142	0.281
-673.135	12.724	0.152	-0.119
-672.120	-200.000	0.015	0.118
-671.105	-140.164	0.089	-0.010
-670.091	-20.029	-0.067	-0.042
-669.076	-127.544	-0.306	-0.045
-668.062	40.455	0.227	0.209
-667.047	477.134	0.075	0.172
-666.032	-15.072	0.262	-0.171
-665.018	800.000	0.031	-0.128
-664.003	379.032	0.081	-0.170
-662.989	17.051	0.065	0.052
-661.974	-159.267	-0.206	-0.012
-660.959	503.473	0.131	-0.310
-659.945	310.005	0.178	-0.339
-658.930	96.445	-0.193	-0.225
-657.916	46.597	0.133	-0.126
-656.901	-138.921	-0.170	0.019
-655.886	198.416	-0.226	0.352
-654.872	-137.880	-0.207	0.024
-653.857	-55.932	0.193	0.088
-652.843	356.805	-0.048	0.098
-651.828	82.175	0.281	0.310
-650.814	-200.000	-0.006	0.305
-649.799	-200.000	-0.048	0.349
-648.784	-24.123	-0.240	-0.146
-647.770	-200.000	-0.022	0.137
-646.755	109.279	-0.203	-0.247
-645.741	407.458	0.050	0.108
-644.726	60.691	0.225	0.227
-643.711	-98.855	0.092	0.024
-642.697	112.438	0.140	-0.173
-641.682	-69.472	0.240	-0.094
-640.668	-200.000	0.024	0.289
-639.653	-48.393	-0.215	0.105
-638.638	800.000	-0.104	0.334
-637.624	-48.979	0.052	0.025
-636.609	-200.000	0.008	-0.204
-635.595	-172.755	0.291	-0.009
-634.580	69.662	0.096	-0.101
-633.565	-95.001	-0.216	-0.059
-632.551	800.000	-0.055	0.167
-631.536	321.591	-0.135	0.260
-630.522	460.387	-0.071	0.161
-629.507	-79.868	0.077	-0.026
-628.492	800.000	0.028	-0.091
-627.478	105.758	0.239	-0.288
-626.463	458.047	0.098	-0.221
-625.449	74.601	0.220	-0.235
-624.434	-200.000	0.029	-0.213
-623.419	15.956	0.166	-0.133
-622.405	-95.626	0.079	0.021
-621.390	-200.000	-0.044	-0.277
-620.376	23.687	-0.107	-0.090
-619.361	-69.655	-0.161	-0.062
-618.346	-16.675	0.220	0.142
-617.332	-200.000	0.046	0.263
-616.317	-146.348	-0.040	0.004
-615.303	-200.000	0.014	0.143
-614.288	27.969	0.284	0.243
-613.273	800.000	0.087	0.249
-612.259	-7.908	-0.042	0.029
-611.244	-191.013	0.164	0.002
-610.230	-83.847	0.218	0.071
-609.215	-200.000	0.012	-0.155
-608.201	-109.271	0.205	-0.044
-607.186	529.627	-0.118	-0.283
-606.171	-28.703	-0.156	-0.091
-605.157	-85.308	-0.298	-0.094
-604.142	-86.658	-0.110	-0.034
-603.128	-200.000	-0.023	-0.281
-602.113	8.116	0.273	0.208
-601.098	92.435	0.154	0.177
-600.084	19.773	0.130	-0.106
-599.069	800.000	-0.138	0.452
-598.055	-200.000	-0.093	0.447
-597.040	-200.000	0.017	-0.205
-596.025	105.275	-0.286	-0.343
-595.011	800.000	0.046	0.157
-593.996	136.112	0.169	0.224
-592.982	-200.000	-0.028	-0.156
-591.967	800.000	-0.045	0.187
-590.952	239.727	0.076	-0.128
-589.938	-95.679	0.126	-0.034
-588.923	74.904	0.066	-0.071
-587.909	495.737	0.105	-0.245
-586.894	-20.362	-0.189	-0.118
-585.879	-116.510	-0.297	-0.056
-584.865	554.750	-0.062	0.151
-583.850	-73.742	-0.360	0.133
-582.836	-12.034	-0.206	0.137
-581.821	485.675	0.139	-0.321
-580.806	54.934	0.007	-0.007
-579.792	-133.496	-0.349	0.044
-578.777	800.000	0.021	-0.069
-577.763	-17.566	0.191	0.122
-576.748	-63.913	0.104	-0.043
-575.733	800.000	0.036	0.110
-574.719	-200.000	0.016	0.122
-573.704	74.217	0.118	0.126
-572.690	-100.934	-0.307	0.076
-571.675	-1.893	-0.067	0.048
-570.661	800.000	-0.128	-0.396
-569.646	57.513	0.136	0.135
-568.631	-134.514	-0.276	-0.034
-567.617	127.433	-0.193	-0.249
-566.602	-187.982	0.144	0.002
-565.588	224.308	0.137	0.225
-564.573	-69.025	-0.251	-0.098
-563.558	-37.122	0.285	-0.155
-562.544	772.786	-0.035	-0.098
-561.529	-105.507	-0.165	-0.038
-560.515	-200.000	-0.009	0.147
-559.500	3.192	-0.214	0.158
-558.485	118.555	-0.126	0.157
-557.471	-32.983	-0.203	-0.114
-556.456	150.385	-0.075	-0.103
-555.442	-200.000	-0.024	-0.150
-554.427	-200.000	-0.024	-0.277
-553.412	127.949	0.199	-0.257
-552.398	106.004	0.125	0.150
-551.383	84.869	-0.129	0.144
-550.369	-200.000	-0.028	-0.157
-549.354	160.817	-0.170	-0.240
-548.339	-84.834	-0.084	-0.027
-547.325	257.298	0.058	0.101
-546.310	10.758	0.198	-0.153
-545.296	-88.210	0.083	0.025
-544.281	-0.895	0.231	-0.166
-543.266	800.000	0.044	-0.144
-542.252	53.992	0.117	-0.114
-541.237	-187.962	0.237	0.003
-540.223	-200.000	0.007	-0.120
-539.208	-84.834	0.199	-0.063
-538.193	-93.040	0.141	-0.040
-537.179	331.463	-0.210	-0.411
-536.164	-128.863	0.386	-0.055
-535.150	-200.000	-0.061	-0.296
-534.135	-200.000	0.052	-0.395
-533.121	-80.660	0.044	-0.015
-532.106	314.912	0.117	-0.223
-531.091	800.000	-0.032	0.091
-530.077	747.010	0.135	0.369
-529.062	-3.580	-0.125	0.088
-528.048	-71.021	-0.166	-0.063
-527.033	461.003	-0.060	-0.135
-526.018	-110.742	0.331	0.069
-525.004	800.000	0.092	-0.363
-523.989	-118.598	-0.214	0.038
-522.975	131.047	0.245	-0.318
-521.960	89.564	-0.292	-0.330
-520.945	-200.000	0.049	-0.245
-519.931	225.044	-0.049	0.081
-518.916	55.579	0.106	-0.104
-517.902	-101.595	-0.117	-0.029
-516.887	-200.000	0.023	0.223
-515.872	113.906	-0.159	0.196
-514.858	-23.972	0.129	0.078
-513.843	146.531	0.038	-0.052
-512.829	-185.595	0.077	0.001
-511.814	-200.000	0.001	-0.027
-510.799	-200.000	0.013	0.149
-509.785	51.401	-0.058	0.056
-508.770	-118.420	0.508	-0.091
-507.756	151.135	0.140	0.192
-506.741	-91.355	-0.329	0.095
-505.726	-10.577	0.347	0.232
-504.712	-78.307	0.100	-0.035
-503.697	376.937	-0.037	-0.077
-502.683	-75.874	0.227	-0.081
-501.668	-78.920	-0.154	-0.053
-500.653	1.739	-0.066	0.048
-499.639	-59.749	-0.220	-0.095
-498.624	95.889	-0.105	-0.121
-497.610	800.000	-0.091	-0.293
-496.595	66.590	-0.117	-0.120
-495.581	-100.183	0.243	-0.061
-494.566	-161.812	-0.280	-0.014
-493.551	455.564	-0.142	0.319
-492.537	-73.129	0.268	0.099
-491.522	-200.000	0.046	0.272
-490.508	-97.991	0.409	0.107
-489.493	-79.004	0.096	0.033
-488.478	-28.182	0.177	0.104
-487.464	-75.506	0.115	0.041
-486.449	-14.931	0.078	-0.051
-485.435	319.825	0.009	0.017
-484.420	-200.000	0.028	-0.163
-483.405	-102.596	-0.144	0.035
-482.391	251.507	0.073	-0.126
-481.376	-131.280	0.202	0.027
-480.362	-143.437	0.283	0.027
-479.347	51.465	0.117	-0.113
-478.332	-2.263	0.164	-0.116
-477.318	711.434	-0.106	-0.285
-476.303	-200.000	-0.016	-0.099
-475.289	-87.527	-0.287	0.088
-474.274	-200.000	-0.046	0.257
-473.259	-142.643	-0.235	-0.023
-472.245	-200.000	0.035	0.269
-471.230	-177.518	-0.287	0.007
-470.216	-13.517	-0.092	0.060
-469.201	-156.437	0.291	0.018
-468.186	-200.000	0.012	-0.065
-467.172	-149.149	-0.201	-0.016
-466.157	-122.462	-0.328	-0.054
-465.143	-108.194	0.102	-0.022
-464.128	324.936	-0.090	0.174
-463.113	-116.599	0.278	0.052
-462.099	-144.199	-0.307	0.029
-461.084	-136.903	0.278	-0.032
-460.070	-131.252	-0.106	-0.014
-459.055	-19.319	0.116	0.073
-458.040	56.537	0.351	-0.345
-457.026	158.263	-0.074	0.103
-456.011	656.222	-0.051	-0.131
-454.997	-166.434	0.287	0.012
-453.982	-63.571	0.111	0.046
-452.968	800.000	0.054	-0.157
-451.953	279.596	-0.250	-0.451
-450.938	-200.000	-0.019	0.278
-449.924	-45.073	-0.111	0.056
-448.909	-136.078	0.186	-0.022
-447.895	-200.000	-0.051	0.230
-446.880	-200.000	0.003	-0.220
-445.865	28.924	-0.098	-0.084
-444.851	800.000	0.165	-0.587
-443.836	-31.234	0.215	0.122
-442.822	74.911	-0.216	0.229
-441.807	547.603	-0.024	0.059
-440.792	800.000	-0.014	0.045
-439.778	-41.283	0.405	-0.211
-438.763	-41.301	0.206	-0.107
-437.749	800.000	-0.083	0.263
-436.734	-200.000	-0.002	-0.095
-435.719	-200.000	-0.013	-0.089
-434.705	5.005	-0.079	-0.059
-433.690	-200.000	0.007	-0.296
-432.676	-25.378	0.138	0.082
-431.661	-142.909	-0.476	0.047
-430.646	2.893	0.081	-0.059
-429.632	-78.781	-0.152	0.052
-428.617	-200.000	-0.045	0.360
-427.603	244.870	-0.125	0.212
-426.588	-63.826	0.281	0.116
-425.573	-95.270	-0.259	-0.070
-424.559	-46.140	-0.050	-0.025
-423.544	614.499	0.048	0.122
-422.530	-8.076	-0.248	0.168
-421.515	31.247	-0.067	-0.058
-420.500	-18.817	-0.154	0.097
-419.486	800.000	0.024	0.085
-418.471	81.588	0.063	-0.069
-417.457	-146.313	0.007	-0.001
-416.442	764.068	0.050	0.136
-415.428	-200.000	-0.001	-0.020
-414.413	-200.000	-0.037	0.391
-413.398	-200.000	0.019	-0.229
-412.384	209.164	-0.215	-0.340
-411.369	269.909	-0.068	-0.121
-410.355	-124.719	-0.257	0.040
-409.340	-200.000	-0.042	-0.276
-408.325	-124.659	-0.067	-0.010
-407.311	601.788	-0.099	0.248
-406.296	135.885	-0.136	0.178
-405.282	317.936	0.056	-0.107
-404.267	-200.000	0.026	-0.289
-403.252	-200.000	0.039	-0.189
-402.238	4.104	-0.212	-0.156
-401.223	-200.000	-0.002	0.275
-400.209	800.000	0.040	-0.145
-399.194	-200.000	0.021	-0.207
-398.179	-15.715	0.338	-0.217
-397.165	800.000	0.105	-0.386
-396.150	323.819	0.110	0.212
-395.136	359.752	-0.014	0.027
-394.121	-87.749	-0.166	0.050
-393.106	-200.000	0.076	-0.358
-392.092	-200.000	0.033	-0.146
-391.077	-34.826	0.124	0.068
-390.063	-200.000	-0.043	-0.448
-389.048	68.655	0.238	-0.246
-388.033	113.498	-0.050	0.061
-387.019	-19.466	-0.243	-0.151
-386.004	-90.589	0.103	0.030
-384.990	800.000	0.013	-0.041
-383.975	-84.018	-0.199	-0.064
-382.960	560.091	0.109	0.266
-381.946	-200.000	-0.012	0.271
-380.931	-90.990	-0.150	0.043
-379.917	-200.000	-0.009	-0.241
-378.902	800.000	0.046	0.140
-377.888	564.245	-0.114	-0.278
-376.873	33.270	0.076	0.067
-375.858	-17.918	0.274	-0.173
-374.844	70.086	0.230	-0.239
-373.829	-66.221	-0.139	0.056
-372.815	-70.928	-0.141	-0.053
-371.800	-200.000	0.020	0.178
-370.785	-137.770	-0.147	-0.017
-369.771	-109.626	-0.163	-0.035
-368.756	261.265	0.061	-0.106
-367.742	-81.922	0.129	-0.042
-366.727	143.175	-0.088	0.118
-365.712	800.000	0.030	0.090
-364.698	137.506	-0.216	0.285
-363.683	274.082	-0.147	-0.261
-362.669	-144.251	0.248	0.023
-361.654	-68.060	0.265	0.104
-360.639	389.052	-0.092	0.192
-359.625	-100.535	-0.314	-0.078
-358.610	-87.802	-0.250	0.076
-357.596	800.000	0.102	0.375
-356.581	800.000	-0.052	0.154
-355.566	-46.810	0.181	-0.089
-354.552	-77.622	0.184	-0.064
-353.537	53.914	0.210	0.203
-352.523	335.791	-0.029	0.057
-351.508	86.071	0.039	-0.043
-350.493	-86.792	-0.319	0.098
-349.479	-96.992	-0.277	0.073
-348.464	800.000	0.050	0.180
-347.450	401.701	0.034	0.073
-346.435	-200.000	0.013	0.282
-345.420	-85.522	0.187	-0.058
-344.406	54.011	-0.209	-0.202
-343.391	-48.930	0.110	-0.053
-342.377	206.366	0.074	0.116
-341.362	-132.709	-0.243	-0.031
-340.348	-78.360	0.287	-0.099
-339.333	289.996	0.156	-0.285
-338.318	38.426	-0.330	0.296
-337.304	-37.649	-0.268	-0.143
-336.289	60.259	-0.175	0.174
-335.275	14.755	-0.226	-0.178
-334.260	-135.458	0.180	0.022
-333.245	98.237	0.067	-0.077
-332.231	-198.066	0.301	-0.002
-331.216	-200.000	0.017	0.119
-330.202	-200.000	-0.039	0.289
-329.187	-86.726	0.377	-0.116
-328.172	-176.396	0.143	-0.004
-327.158	85.153	0.219	0.242
-326.143	633.895	0.084	0.215
-325.129	300.553	-0.043	0.079
-324.114	-149.861	0.368	0.029
-323.099	246.517	0.098	-0.165
-322.085	-200.000	-0.003	0.261
-321.070	-126.197	-0.374	0.056
-320.056	299.405	-0.176	-0.325
-319.041	55.747	-0.108	0.105
-318.026	117.542	-0.090	-0.111
-317.012	800.000	-0.083	0.250
-315.997	-61.253	0.168	0.071
-314.983	404.191	0.078	-0.165
-313.968	-200.000	0.000	0.015
-312.953	-200.000	0.003	0.078
-311.939	56.894	0.146	0.142
-310.924	800.000	0.084	-0.252
-309.910	733.996	0.097	-0.260
-308.895	-78.556	-0.025	-0.009
-307.880	240.133	-0.122	0.205
-306.866	-98.083	-0.157	0.041
-305.851	-45.494	-0.292	0.145
-304.837	-24.074	-0.047	-0.028
-303.822	800.000	0.009	-0.026
-302.807	-76.515	0.274	-0.097
-301.793	-18.301	-0.252	0.158
-300.778	262.649	-0.144	0.251
-299.764	119.771	0.133	0.165
-298.749	-200.000	0.004	0.234
-297.735	800.000	0.030	-0.121
-296.720	104.472	-0.200	0.236
-295.705	-133.051	0.404	0.051
-294.691	-40.377	-0.156	-0.081
-293.676	-200.000	-0.007	0.093
-292.662	94.281	-0.113	0.128
-291.647	-36.754	0.293	-0.158
-290.632	800.000	0.080	0.322
-289.618	297.332	-0.242	0.445
-288.603	-81.274	0.288	-0.095
-287.589	-200.000	0.021	0.144
-286.574	-115.918	-0.331	-0.062
-285.559	706.811	0.057	-0.151
-284.545	-154.223	0.242	-0.016
-283.530	240.140	-0.053	-0.088
-282.516	-111.790	0.354	-0.072
-281.501	-111.957	-0.081	0.016
-280.486	781.475	0.024	0.065
-279.472	-155.734	0.296	-0.019
-278.457	-116.647	-0.356	0.066
-277.443	-81.950	0.083	0.027
-276.428	-11.705	-0.167	-0.110
-275.413	108.652	-0.117	0.141
-274.399	800.000	-0.051	0.164
-273.384	-200.000	-0.029	0.208
-272.370	-200.000	0.020	-0.113
-271.355	-119.924	-0.308	-0.053
-270.340	-200.000	0.034	0.286
-269.326	-26.796	-0.078	0.046
-268.311	-15.187	-0.185	-0.119
-267.297	42.484	0.017	0.015
-266.282	21.694	0.154	-0.126
-265.267	104.872	-0.179	-0.212
-264.253	-162.491	0.092	0.005
-263.238	186.585	0.097	-0.145
-262.224	800.000	-0.025	-0.090
-261.209	-114.771	-0.137	0.026
-260.195	800.000	-0.053	-0.183
-259.180	-148.253	-0.306	-0.025
-258.165	-86.161	-0.278	0.086
-257.151	366.504	-0.031	-0.062
-256.136	287.294	0.106	-0.192
-255.122	155.791	0.082	0.113
-254.107	800.000	-0.048	0.165
-253.092	-57.978	0.115	-0.050
-252.078	-133.805	0.224	-0.028
-251.063	-66.590	0.278	0.111
-250.049	-117.599	0.187	-0.034
-249.034	320.308	0.065	0.124
-248.019	-200.000	0.015	0.234
-247.005	-109.335	-0.633	0.134
-245.990	-28.836	-0.089	-0.051
-244.976	-114.044	-0.131	-0.025
-243.961	87.143	0.216	-0.239
-242.946	-200.000	-0.027	-0.301
-241.932	-145.997	-0.285	0.025
-240.917	359.475	-0.068	-0.136
-239.903	-144.248	-0.088	-0.008
-238.888	-200.000	0.012	0.122
-237.873	-168.167	0.029	0.001
-236.859	-200.000	-0.041	-0.252
-235.844	77.148	-0.212	0.226
-234.830	-5.581	-0.326	0.224
-233.815	-104.430	-0.335	-0.078
-232.800	-200.000	0.001	-0.132
-231.786	606.171	0.104	0.259
-230.771	800.000	0.067	-0.262
-229.757	534.420	-0.039	-0.093
-228.742	-200.000	-0.006	0.215
-227.727	393.374	0.074	-0.154
-226.713	-18.754	0.287	0.179
-225.698	-130.697	0.253	-0.034
-224.684	10.229	-0.189	-0.144
-223.669	227.256	-0.218	0.355
-222.655	-64.799	0.203	0.082
-221.640	74.648	0.289	0.305
-220.625	-131.397	-0.214	-0.028
-219.611	-13.633	0.081	0.053
-218.596	-83.906	-0.173	0.055
-217.582	-200.000	-0.039	0.250
-216.567	-13.686	-0.198	0.129
-215.552	800.000	0.042	-0.136
-214.538	800.000	-0.046	0.149
-213.523	21.191	0.082	0.067
-212.509	30.900	-0.088	-0.075
-211.494	368.694	-0.102	0.206
-210.479	-200.000	-0.048	0.330
-209.465	-160.137	0.218	0.012
-208.450	164.031	-0.133	-0.187
-207.436	-117.942	0.256	-0.046
-206.421	396.917	0.129	0.270
-205.406	-65.768	-0.164	-0.066
-204.392	-86.909	-0.242	-0.074
-203.377	800.000	-0.010	-0.030
-202.363	-41.558	-0.373	-0.192
-201.348	124.555	-0.421	0.529
-200.333	-75.526	0.183	0.065
-199.319	89.476	0.122	-0.136
-198.304	-200.000	-0.037	-0.247
-197.290	16.722	-0.185	-0.147
-196.275	-200.000	0.008	-0.146
-195.260	-52.232	-0.174	-0.081
-194.246	18.664	0.271	0.217
-193.231	-88.800	-0.299	-0.089
-192.217	-200.000	0.015	-0.069
-191.202	275.482	-0.129	0.229
-190.187	-112.797	0.181	-0.036
-189.173	297.674	-0.086	0.158
-188.158	13.135	-0.067	0.052
-187.144	-31.375	-0.134	0.075
-186.129	800.000	0.035	0.098
-185.114	128.794	-0.174	-0.222
-184.100	118.040	0.199	0.245
-183.085	-67.781	0.056	0.022
-182.071	255.251	0.052	-0.090
-181.056	-46.439	0.071	0.035
-180.042	303.448	-0.053	-0.097
-179.027	-93.205	-0.249	0.069
-178.012	-148.440	0.176	0.014
-176.998	-131.323	0.157	0.021
-175.983	643.210	0.085	-0.215
-174.969	514.002	-0.023	-0.054
-173.954	-200.000	0.014	-0.232
-172.939	800.000	0.069	-0.278
-171.925	-3.203	0.140	0.097
-170.910	-200.000	-0.016	0.124
-169.896	-89.002	0.423	0.125
-168.881	29.387	0.201	0.171
-167.866	-3.454	-0.056	0.039
-166.852	-46.692	0.096	0.047
-165.837	-69.778	-0.054	0.021
-164.823	-30.887	0.185	0.104
-163.808	-147.618	-0.058	0.005
-162.793	38.514	-0.020	-0.017
-161.779	111.572	-0.150	0.181
-160.764	-200.000	-0.027	0.140
-159.750	800.000	0.016	-0.060
-158.735	-75.875	0.238	0.084
-157.720	520.022	-0.127	-0.298
-156.706	23.698	0.195	0.161
-155.691	-121.084	-0.215	0.036
-154.677	-200.000	0.014	-0.340
-153.662	-200.000	0.030	0.238
-152.647	-189.311	0.206	-0.002
-151.633	-55.225	0.124	0.056
-150.618	800.000	0.130	0.366
-149.604	-100.512	0.144	0.036
-148.589	-72.170	0.096	0.036
-147.574	-76.619	0.150	0.053
-146.560	800.000	-0.063	-0.185
-145.545	-78.954	0.252	-0.086
-144.531	-58.296	-0.182	-0.079
-143.516	-200.000	0.330	0.001
-142.502	632.325	-0.066	0.167
-141.487	308.600	-0.088	0.163
-140.472	-21.464	-0.201	0.122
-139.458	83.693	0.239	-0.260
-138.443	631.422	0.069	-0.174
-137.429	800.000	-0.088	-0.313
-136.414	-67.276	0.374	0.147
-135.399	-87.276	-0.412	0.125
-134.385	78.805	0.026	-0.028
-133.370	800.000	0.033	-0.134
-132.356	-130.753	-0.305	0.041
-131.341	-200.000	0.002	-0.317
-130.326	-45.495	0.176	-0.087
-129.312	-200.000	-0.055	-0.000
-128.297	25.155	0.067	0.056
-127.283	-84.623	0.169	0.053
-126.268	345.010	0.150	-0.294
-125.253	10.843	-0.140	0.107
-124.239	-200.000	-0.033	0.180
-123.224	-117.970	-0.487	-0.087
-122.210	220.387	-0.093	0.148
-121.195	-119.421	0.019	0.003
