DTS Sentinel unit serial number:	SN413079Multiplexer serial number:	ORYXHardware model number:	OX4-SRSoftware version number:	ORYX F/W v4.00 Oryx Data Collector v3.7.2.0data status	okinstallation	princeton_trtdifferential loss correction	single-endedforward channel	channel 1reverse channel	N/Adate	2019/09/18time	13:18:35forward acquisition time	60.00reverse acquisition time	0.00gamma	496.2192k internal	0.2313k external	0.2313temperature offset calibration	0.9987default loss term (dB/km)	0.3790temperature slope calibration	1.0000multiplexer offset coefficient	1.0000multiplexer slope coefficient	1.0000fibre end	0.00T internal ref (°C)	34.06T ext. ref 1 (°C)	0.61T ext. ref 2 (°C)	29.84length (m)	temperature (°C)	Stokes	anti-Stokes-747.200	606.702	0.069	-0.175
-746.185	18.373	-0.101	0.081
-745.171	131.386	-0.015	-0.019
-744.156	22.033	-0.216	0.178
-743.142	-53.635	0.487	0.226
-742.127	356.066	0.035	0.070
-741.112	-123.062	0.133	0.022
-740.098	390.836	0.118	0.249
-739.083	314.754	0.023	-0.044
-738.069	-41.626	-0.181	0.094
-737.054	94.585	-0.323	-0.372
-736.039	41.132	-0.082	-0.075
-735.025	73.767	0.338	-0.359
-734.010	-200.000	-0.007	0.089
-732.996	-93.069	-0.158	0.045
-731.981	211.738	-0.111	0.177
-730.966	313.139	-0.063	0.120
-729.952	85.031	-0.075	-0.084
-728.937	-12.531	-0.213	-0.141
-727.923	355.847	0.056	-0.113
-726.908	-200.000	-0.016	-0.259
-725.894	61.217	-0.228	-0.229
-724.879	6.118	0.147	0.110
-723.864	800.000	0.071	0.243
-722.850	800.000	0.011	-0.036
-721.835	113.157	-0.234	-0.288
-720.821	-106.788	-0.290	0.065
-719.806	-200.000	0.030	-0.224
-718.791	98.550	-0.347	0.405
-717.777	800.000	0.032	0.133
-716.762	-63.743	-0.347	-0.144
-715.748	-42.769	-0.171	-0.088
-714.733	22.538	-0.193	0.160
-713.718	55.556	0.067	-0.066
-712.704	-200.000	0.116	0.000
-711.689	675.700	0.047	0.123
-710.675	-105.453	-0.171	-0.039
-709.660	91.558	0.105	-0.120
-708.645	1.294	0.211	-0.154
-707.631	-146.474	0.422	-0.037
-706.616	262.293	-0.153	-0.269
-705.602	-50.490	0.275	0.131
-704.587	-56.746	0.080	0.036
-703.572	-97.755	0.248	0.065
-702.558	-200.000	-0.011	-0.094
-701.543	116.487	-0.209	-0.260
-700.529	-89.520	-0.176	-0.052
-699.514	69.255	0.169	0.176
-698.499	-50.660	0.261	-0.125
-697.485	261.384	0.033	-0.058
-696.470	-151.311	-0.068	-0.005
-695.456	-45.065	-0.117	-0.059
-694.441	-149.316	-0.161	-0.013
-693.426	-200.000	-0.066	0.302
-692.412	-52.821	-0.166	0.077
-691.397	57.876	-0.119	0.118
-690.383	-22.746	-0.253	-0.155
-689.368	-200.000	-0.049	-0.325
-688.354	184.433	-0.070	0.105
-687.339	379.384	-0.090	-0.187
-686.324	134.156	-0.127	0.166
-685.310	-38.771	-0.341	0.182
-684.295	36.975	-0.169	-0.151
-683.281	-200.000	-0.016	-0.401
-682.266	3.740	0.170	0.126
-681.251	-58.737	-0.144	-0.063
-680.237	-200.000	0.055	-0.287
-679.222	-118.023	0.192	0.035
-678.208	-200.000	0.025	0.246
-677.193	-42.951	-0.304	0.156
-676.178	800.000	-0.027	-0.111
-675.164	8.410	0.146	0.111
-674.149	753.231	0.053	-0.146
-673.135	87.005	-0.176	-0.197
-672.120	-155.843	0.082	0.005
-671.105	-200.000	-0.022	0.254
-670.091	-115.372	-0.212	-0.040
-669.076	-152.336	0.143	-0.010
-668.062	-34.411	-0.194	0.107
-667.047	-103.306	0.264	0.063
-666.032	236.874	-0.086	0.145
-665.018	11.102	-0.295	0.228
-664.003	-27.795	-0.157	0.092
-662.989	-64.296	0.190	-0.078
-661.974	-200.000	-0.033	0.149
-660.959	-168.860	0.203	-0.008
-659.945	-169.128	0.346	-0.013
-658.930	-69.826	0.065	0.025
-657.916	-200.000	0.021	-0.138
-656.901	-200.000	-0.005	0.092
-655.886	23.593	0.311	-0.258
-654.872	-48.597	-0.207	-0.101
-653.857	53.882	-0.229	-0.222
-652.843	-57.351	-0.057	0.025
-651.828	737.934	0.012	-0.033
-650.814	140.798	-0.108	-0.144
-649.799	-46.890	0.053	0.026
-648.784	565.012	0.076	0.186
-647.770	-117.639	-0.230	0.042
-646.755	800.000	-0.034	-0.129
-645.741	-2.406	-0.038	0.027
-644.726	-11.886	-0.129	-0.086
-643.711	-200.000	0.042	-0.293
-642.697	27.720	0.252	0.214
-641.682	207.133	0.102	0.160
-640.668	-112.142	0.047	0.009
-639.653	401.508	0.059	-0.125
-638.638	196.456	-0.182	-0.281
-637.624	-16.171	0.205	-0.132
-636.609	84.317	-0.121	0.134
-635.595	-90.659	0.101	0.029
-634.580	195.355	-0.204	-0.313
-633.565	417.752	-0.076	-0.164
-632.551	10.536	-0.288	-0.221
-631.536	-59.928	0.087	-0.038
-630.522	391.127	-0.043	0.091
-629.507	130.016	-0.170	0.220
-628.492	80.076	0.156	-0.170
-627.478	-78.032	-0.125	-0.044
-626.463	-182.763	0.300	0.005
-625.449	111.168	-0.095	-0.116
-624.434	17.828	0.114	0.092
-623.419	-200.000	-0.013	0.079
-622.405	109.400	0.049	-0.059
-621.390	-146.071	0.149	0.013
-620.376	-121.189	0.264	0.045
-619.361	-106.310	0.257	-0.058
-618.346	161.269	-0.242	0.342
-617.332	-200.000	0.067	0.424
-616.317	-11.850	-0.110	0.073
-615.303	-16.820	0.255	0.163
-614.288	-200.000	-0.033	-0.170
-613.273	-200.000	0.071	0.370
-612.259	-200.000	0.047	-0.311
-611.244	160.845	0.086	0.121
-610.230	-200.000	0.066	-0.384
-609.215	-24.842	0.176	-0.106
-608.201	262.448	0.135	-0.237
-607.186	-78.033	-0.215	-0.075
-606.171	-142.039	-0.300	0.030
-605.157	-95.200	-0.097	-0.026
-604.142	19.248	-0.245	0.198
-603.128	-26.112	-0.210	0.124
-602.113	258.006	0.219	-0.381
-601.098	12.611	0.246	-0.192
-600.084	254.771	0.152	-0.263
-599.069	-107.032	0.124	0.028
-598.055	303.040	0.074	-0.139
-597.040	226.567	-0.124	0.202
-596.025	65.870	0.259	0.265
-595.011	288.990	-0.169	0.309
-593.996	196.508	0.242	0.371
-592.982	800.000	0.116	0.324
-591.967	-57.752	-0.380	-0.168
-590.952	800.000	-0.051	-0.153
-589.938	-200.000	0.020	-0.303
-588.923	-49.646	0.209	-0.100
-587.909	23.217	-0.201	-0.167
-586.894	800.000	0.085	-0.326
-585.879	316.995	-0.109	-0.208
-584.865	-61.994	0.140	0.059
-583.850	-200.000	-0.010	0.286
-582.836	68.903	0.052	0.054
-581.821	-200.000	-0.028	-0.186
-580.806	-125.424	-0.328	0.050
-579.792	9.080	-0.167	0.127
-578.777	2.251	-0.272	-0.198
-577.763	-200.000	0.018	-0.088
-576.748	-110.407	-0.404	-0.085
-575.733	-22.167	0.160	-0.098
-574.719	-200.000	0.002	-0.151
-573.704	-200.000	-0.023	-0.286
-572.690	75.416	-0.145	-0.154
-571.675	-200.000	0.003	0.332
-570.661	800.000	0.073	0.249
-569.646	565.319	0.175	-0.427
-568.631	32.198	-0.072	-0.062
-567.617	-94.115	0.330	0.091
-566.602	-98.104	-0.193	0.050
-565.588	-108.232	0.143	0.031
-564.573	-106.400	0.114	0.026
-563.558	-110.815	0.140	-0.029
-562.544	-104.797	-0.287	-0.067
-561.529	82.635	-0.160	0.175
-560.515	-81.763	-0.286	0.094
-559.500	800.000	0.047	0.152
-558.485	266.179	-0.063	0.110
-557.471	800.000	-0.039	-0.156
-556.456	-100.748	0.103	0.026
-555.442	530.851	-0.067	-0.160
-554.427	15.542	-0.307	-0.243
-553.412	27.374	0.062	0.052
-552.398	-200.000	0.033	-0.400
-551.383	33.315	-0.140	0.123
-550.369	-47.114	0.326	0.160
-549.354	755.527	-0.037	0.100
-548.339	425.470	0.051	-0.111
-547.325	-200.000	0.036	0.375
-546.310	132.245	-0.211	-0.274
-545.296	-116.771	-0.282	-0.052
-544.281	6.396	-0.078	0.059
-543.266	100.235	-0.366	-0.427
-542.252	116.825	-0.280	-0.346
-541.237	-200.000	-0.007	-0.082
-540.223	193.784	-0.090	-0.137
-539.208	-183.951	-0.174	0.003
-538.193	-154.335	0.155	0.010
-537.179	242.040	-0.044	-0.075
-536.164	721.008	0.010	0.027
-535.150	800.000	-0.089	-0.387
-534.135	32.950	0.326	-0.284
-533.121	176.914	-0.110	-0.161
-532.106	-200.000	0.015	0.387
-531.091	-72.357	0.118	0.044
-530.077	-25.789	0.315	-0.187
-529.062	-200.000	0.018	0.240
-528.048	-79.763	-0.182	-0.062
-527.033	78.039	0.164	-0.176
-526.018	800.000	-0.066	-0.191
-525.004	88.579	0.068	0.076
-523.989	800.000	-0.068	-0.227
-522.975	800.000	0.031	-0.131
-521.960	800.000	-0.086	-0.317
-520.945	96.184	-0.125	0.144
-519.931	40.511	-0.126	0.115
-518.916	0.565	-0.072	-0.052
-517.902	-200.000	0.033	0.154
-516.887	800.000	0.081	-0.333
-515.872	175.166	-0.093	-0.135
-514.858	-32.536	-0.058	-0.032
-513.843	94.760	-0.077	0.088
-512.829	-83.089	0.476	-0.154
-511.814	800.000	-0.094	-0.363
-510.799	544.988	-0.101	-0.242
-509.785	-200.000	0.001	0.054
-508.770	612.662	-0.141	0.355
-507.756	-200.000	0.085	-0.421
-506.741	-192.293	-0.111	-0.001
-505.726	-175.524	0.111	-0.003
-504.712	-200.000	0.053	0.310
-503.697	-200.000	0.059	-0.352
-502.683	-200.000	0.010	-0.106
-501.668	-125.106	-0.404	-0.062
-500.653	-56.854	0.343	0.152
-499.639	302.449	0.132	0.245
-498.624	31.923	-0.169	0.147
-497.610	39.678	-0.011	-0.010
-496.595	-52.374	-0.204	-0.095
-495.581	800.000	-0.070	0.209
-494.566	-123.417	0.046	0.007
-493.551	178.986	-0.158	-0.232
-492.537	172.398	0.154	-0.222
-491.522	55.652	0.120	0.116
-490.508	-67.762	0.112	0.044
-489.493	-30.615	0.277	-0.158
-488.478	-45.158	0.079	0.040
-487.464	582.875	0.092	0.227
-486.449	-69.437	-0.152	0.059
-485.435	476.151	0.045	0.103
-484.420	-7.731	-0.104	-0.070
-483.405	510.762	-0.081	0.190
-482.391	-127.515	0.388	-0.057
-481.376	211.847	-0.043	0.068
-480.362	800.000	-0.038	0.164
-479.347	435.432	0.120	0.263
-478.332	-200.000	0.017	0.317
-477.318	-54.713	0.117	0.053
-476.303	23.718	0.172	0.142
-475.289	42.161	-0.091	0.083
-474.274	800.000	-0.039	-0.133
-473.259	-200.000	-0.028	-0.229
-472.245	656.733	0.062	-0.160
-471.230	230.577	0.170	0.279
-470.216	54.935	-0.170	0.165
-469.201	294.858	-0.185	0.340
-468.186	-9.365	0.213	-0.143
-467.172	156.226	-0.018	0.024
-466.157	23.598	-0.328	-0.271
-465.143	20.142	0.100	-0.081
-464.128	284.677	0.120	-0.216
-463.113	748.920	0.045	-0.121
-462.099	-38.104	-0.269	0.143
-461.084	193.993	0.082	-0.124
-460.070	23.845	0.094	0.078
-459.055	29.815	0.116	0.099
-458.040	-137.562	0.207	0.023
-457.026	66.850	0.177	0.180
-456.011	414.302	-0.151	0.323
-454.997	347.731	-0.126	0.249
-453.982	-200.000	-0.065	-0.319
-452.968	446.280	-0.091	0.200
-451.953	-200.000	0.052	0.239
-450.938	-27.412	0.237	0.138
-449.924	-13.806	0.162	0.105
-448.909	-84.551	0.209	0.066
-447.895	328.755	0.111	-0.215
-446.880	17.780	0.096	-0.077
-445.865	73.355	-0.029	0.030
-444.851	-15.807	-0.183	0.117
-443.836	-101.264	0.095	0.023
-442.822	-200.000	-0.029	-0.334
-441.807	-2.899	0.324	-0.227
-440.792	140.231	0.182	-0.241
-439.778	-200.000	0.014	0.221
-438.763	-178.136	0.141	0.003
-437.749	-129.968	-0.388	-0.053
-436.734	-40.624	0.037	0.019
-435.719	-162.045	-0.192	-0.010
-434.705	-200.000	-0.043	-0.292
-433.690	616.390	-0.024	-0.059
-432.676	-145.074	0.154	0.014
-431.661	-200.000	-0.046	-0.215
-430.646	-40.486	-0.318	0.166
-429.632	800.000	-0.036	0.141
-428.617	-6.672	-0.261	0.178
-427.603	-113.261	-0.120	-0.024
-426.588	254.967	0.111	-0.191
-425.573	-96.607	-0.264	-0.070
-424.559	-50.489	-0.382	-0.181
-423.544	77.248	-0.027	-0.029
-422.530	38.607	-0.208	-0.186
-421.515	-86.891	0.204	0.062
-420.500	-200.000	-0.000	-0.586
-419.486	-200.000	-0.076	-0.528
-418.471	543.364	-0.127	-0.305
-417.457	-62.845	0.080	-0.033
-416.442	81.605	-0.231	0.250
-415.428	-164.409	0.221	-0.010
-414.413	-200.000	0.029	0.203
-413.398	-83.065	0.132	0.043
-412.384	176.374	0.218	0.317
-411.369	-200.000	-0.019	-0.399
-410.355	-200.000	-0.009	-0.170
-409.340	37.096	-0.240	-0.213
-408.325	48.508	-0.190	0.178
-407.311	108.492	-0.141	-0.169
-406.296	800.000	0.082	-0.351
-405.282	-42.533	-0.169	-0.086
-404.267	-81.145	-0.208	-0.069
-403.252	37.729	-0.044	-0.039
-402.238	800.000	0.096	-0.302
-401.223	234.295	-0.111	-0.183
-400.209	-44.158	-0.338	0.170
-399.194	106.604	0.017	0.020
-398.179	-142.203	-0.269	-0.027
-397.165	16.976	0.131	-0.104
-396.150	800.000	-0.104	0.312
-395.136	-78.481	-0.250	0.086
-394.121	117.336	0.105	-0.130
-393.106	-165.066	-0.177	0.008
-392.092	-131.457	0.106	0.014
-391.077	340.259	-0.095	-0.186
-390.063	-90.200	0.201	0.058
-389.048	-61.522	-0.479	-0.201
-388.033	37.114	0.337	0.298
-387.019	-74.774	-0.137	-0.049
-386.004	78.717	0.033	0.035
-384.990	144.969	0.067	-0.090
-383.975	68.123	-0.284	-0.291
-382.960	-62.144	-0.187	0.078
-381.946	211.846	0.151	0.238
-380.931	-156.196	0.174	0.011
-379.917	69.342	-0.182	0.188
-378.902	800.000	-0.120	0.476
-377.888	-82.775	-0.372	-0.120
-376.873	18.926	-0.331	-0.265
-375.858	553.696	-0.098	0.235
-374.844	-99.884	0.075	-0.019
-373.829	-200.000	0.001	-0.025
-372.815	26.714	0.096	0.080
-371.800	-113.599	0.267	0.052
-370.785	800.000	0.032	-0.117
-369.771	9.364	0.085	0.064
-368.756	14.534	0.210	0.164
-367.742	-56.069	0.285	-0.127
-366.727	-200.000	-0.012	-0.118
-365.712	-200.000	0.039	-0.233
-364.698	-200.000	-0.013	-0.311
-363.683	282.484	-0.198	0.355
-362.669	-200.000	0.002	-0.145
-361.654	120.006	-0.014	-0.017
-360.639	-60.076	-0.246	0.105
-359.625	-38.850	-0.215	-0.113
-358.610	-200.000	0.061	-0.273
-357.596	318.445	-0.075	-0.141
-356.581	-200.000	0.008	0.318
-355.566	-200.000	0.022	-0.164
-354.552	800.000	0.118	0.410
-353.537	-200.000	0.054	-0.458
-352.523	-163.654	0.249	-0.012
-351.508	36.111	-0.186	0.163
-350.493	-1.230	0.180	0.127
-349.479	-107.194	-0.031	-0.007
-348.464	-27.386	-0.144	0.084
-347.450	-137.599	-0.146	0.016
-346.435	-200.000	-0.044	0.222
-345.420	-34.885	0.165	-0.090
-344.406	-93.572	0.115	-0.032
-343.391	-114.340	-0.369	-0.071
-342.377	800.000	-0.084	0.254
-341.362	593.013	0.084	0.206
-340.348	-129.843	0.178	-0.024
-339.333	365.817	-0.154	0.311
-338.318	-200.000	0.019	-0.099
-337.304	800.000	-0.081	0.275
-336.289	800.000	-0.032	0.127
-335.275	-200.000	-0.061	0.288
-334.260	-200.000	-0.032	0.178
-333.245	686.422	0.038	0.099
-332.231	-14.643	0.078	-0.050
-331.216	179.282	-0.206	0.301
-330.202	-78.786	0.293	0.100
-329.187	-49.208	-0.083	0.040
-328.172	43.338	-0.069	-0.063
-327.158	214.033	0.057	-0.090
-326.143	-108.847	0.244	-0.052
-325.129	18.970	0.244	0.196
-324.114	91.765	-0.031	0.035
-323.099	-4.437	-0.152	-0.105
-322.085	242.473	0.110	0.184
-321.070	-169.857	0.056	-0.002
-320.056	-48.598	0.151	-0.072
-319.041	7.219	0.332	-0.248
-318.026	-200.000	0.038	-0.479
-317.012	-23.516	-0.201	-0.121
-315.997	-200.000	0.040	-0.178
-314.983	1.372	0.375	-0.269
-313.968	204.093	0.190	0.294
-312.953	-77.056	0.065	-0.023
-311.939	-200.000	-0.043	0.310
-310.924	-32.028	-0.175	0.098
-309.910	116.028	-0.072	0.088
-308.895	13.228	0.198	-0.153
-307.880	78.320	0.278	-0.296
-306.866	74.537	0.080	-0.084
-305.851	-7.546	-0.135	-0.091
-304.837	-89.236	-0.019	0.006
-303.822	-200.000	-0.003	0.269
-302.807	351.620	0.022	0.044
-301.793	-59.063	-0.064	0.028
-300.778	138.953	0.205	0.268
-299.764	346.204	-0.093	0.183
-298.749	-99.650	0.236	-0.059
-297.735	108.099	-0.274	0.325
-296.720	96.786	-0.276	-0.316
-295.705	-32.888	-0.186	0.103
-294.691	-60.323	0.418	-0.177
-293.676	-124.774	-0.083	0.013
-292.662	-119.084	-0.146	-0.025
-291.647	-80.128	-0.422	0.141
-290.632	-108.612	0.118	-0.025
-289.618	-60.765	-0.133	-0.056
-288.603	-151.143	-0.354	0.026
-287.589	68.313	0.082	-0.083
-286.574	-30.756	0.211	0.119
-285.559	261.100	0.185	0.319
-284.545	62.932	0.147	0.147
-283.530	5.260	0.139	-0.102
-282.516	-200.000	-0.053	0.336
-281.501	-87.507	-0.114	0.034
-280.486	-20.276	0.186	0.114
-279.472	289.087	-0.140	-0.253
-278.457	10.005	0.268	-0.203
-277.443	-58.411	-0.132	-0.057
-276.428	800.000	-0.103	-0.317
-275.413	76.452	0.108	-0.114
-274.399	-78.711	0.327	0.111
-273.384	-98.379	0.179	-0.046
-272.370	165.389	0.282	-0.397
-271.355	-200.000	0.008	-0.190
-270.340	-71.620	-0.183	-0.068
-269.326	523.040	0.002	0.006
-268.311	800.000	0.060	-0.191
-267.297	-16.967	0.135	0.085
-266.282	181.718	-0.033	-0.048
-265.267	-200.000	0.004	-0.026
-264.253	-200.000	-0.009	-0.117
-263.238	19.559	-0.136	0.109
-262.224	-38.776	0.136	0.071
-261.209	-83.362	-0.049	-0.016
-260.195	26.883	-0.192	-0.160
-259.180	85.736	0.322	0.352
-258.165	-128.928	0.297	-0.041
-257.151	-11.194	-0.169	-0.111
-256.136	-200.000	0.004	0.113
-255.122	43.507	0.148	0.134
-254.107	6.429	0.053	-0.039
-253.092	237.934	0.131	0.216
-252.078	-53.892	-0.191	-0.087
-251.063	-163.163	-0.062	0.003
-250.049	97.881	0.088	0.100
-249.034	-200.000	0.037	0.303
-248.019	800.000	0.061	0.206
-247.005	-200.000	0.047	0.423
-245.990	410.698	0.154	-0.325
-244.976	-39.245	0.177	-0.093
-243.961	-163.597	-0.362	-0.017
-242.946	8.839	-0.162	-0.122
-241.932	-199.346	-0.099	0.001
-240.917	-200.000	0.042	0.329
-239.903	-200.000	0.033	-0.184
-238.888	21.671	0.046	-0.038
-237.873	800.000	0.106	0.401
-236.859	349.732	-0.136	-0.268
-235.844	-24.127	0.099	-0.059
-234.830	-45.213	-0.250	-0.123
-233.815	-60.749	-0.058	0.025
-232.800	4.112	-0.304	0.221
-231.786	-116.306	-0.173	0.032
-230.771	-200.000	0.012	-0.107
-229.757	-91.774	0.208	0.059
-228.742	273.546	0.129	0.227
-227.727	-7.154	-0.224	-0.151
-226.713	-67.288	-0.067	-0.026
-225.698	-66.030	0.240	0.095
-224.684	-7.370	0.221	0.149
-223.669	-1.604	-0.101	0.071
-222.655	-200.000	0.053	0.285
-221.640	311.600	-0.087	-0.163
-220.625	-200.000	0.013	0.218
-219.611	41.189	-0.069	0.062
-218.596	-165.838	0.080	0.003
-217.582	-16.488	0.195	-0.123
-216.567	-200.000	0.012	0.321
-215.552	-200.000	-0.033	0.172
-214.538	104.065	0.306	0.358
-213.523	86.567	-0.074	-0.081
-212.509	800.000	0.070	-0.217
-211.494	73.860	-0.152	0.158
-210.479	-15.308	0.135	0.086
-209.465	350.458	0.037	0.072
-208.450	800.000	0.044	0.147
-207.436	-87.424	-0.243	0.073
-206.421	-62.888	0.142	-0.058
-205.406	31.537	-0.301	-0.257
-204.392	800.000	0.079	-0.259
-203.377	-200.000	-0.001	-0.049
-202.363	123.559	-0.210	0.262
-201.348	77.623	0.218	-0.230
-200.333	800.000	-0.051	0.144
-199.319	300.222	0.118	0.216
-198.304	333.072	-0.145	0.278
-197.290	-162.439	0.201	0.010
-196.275	-107.483	-0.125	0.027
-195.260	34.337	0.135	0.117
-194.246	-104.838	-0.293	0.067
-193.231	-7.291	-0.152	0.102
-192.217	210.799	0.191	0.298
-191.202	246.901	0.061	0.102
-190.187	197.558	-0.119	-0.180
-189.173	13.066	0.239	0.184
-188.158	-34.755	-0.426	0.231
-187.144	800.000	0.068	0.194
-186.129	328.098	0.041	-0.078
-185.114	800.000	0.031	0.097
-184.100	-200.000	0.060	-0.472
-183.085	-44.011	0.177	-0.088
-182.071	-200.000	0.032	0.215
-181.056	-200.000	-0.046	-0.307
-180.042	-60.888	0.444	0.186
-179.027	800.000	0.090	0.323
-178.012	-8.961	-0.232	0.154
-176.998	-200.000	-0.011	0.220
-175.983	-200.000	0.039	0.173
-174.969	101.656	-0.108	-0.125
-173.954	62.414	0.088	-0.087
-172.939	-39.278	0.377	-0.197
-171.925	90.675	-0.208	-0.231
-170.910	-3.106	0.075	0.052
-169.896	34.281	-0.154	-0.134
-168.881	-39.531	-0.210	0.109
-167.866	-200.000	-0.009	-0.216
-166.852	445.045	-0.148	0.322
-165.837	36.386	-0.115	0.101
-164.823	196.275	0.072	-0.108
-163.808	-200.000	0.077	-0.354
-162.793	174.442	0.127	0.183
-161.779	-31.478	0.324	0.181
-160.764	235.034	-0.130	0.212
-159.750	680.472	0.166	0.430
-158.735	800.000	0.052	0.184
-157.720	-111.761	0.285	0.057
-156.706	39.830	-0.066	0.059
-155.691	-70.786	0.323	0.121
-154.677	-200.000	0.017	0.079
-153.662	800.000	0.068	-0.263
-152.647	-200.000	0.013	0.189
-151.633	-200.000	0.002	-0.036
-150.618	-87.354	0.153	0.046
-149.604	800.000	-0.049	0.170
-148.589	65.300	0.215	0.215
-147.574	-79.509	-0.143	0.048
-146.560	180.951	-0.125	0.182
-145.545	-200.000	0.046	0.202
-144.531	35.088	0.394	-0.342
-143.516	-77.832	-0.180	0.062
-142.502	121.634	-0.118	0.146
-141.487	111.137	-0.190	-0.227
-140.472	800.000	0.021	0.087
-139.458	65.984	0.281	0.283
-138.443	305.816	0.257	0.473
-137.429	-200.000	0.036	0.179
-136.414	409.455	0.106	0.223
-135.399	212.220	-0.087	-0.136
-134.385	-132.178	0.191	0.025
-133.370	70.265	-0.016	0.016
-132.356	298.690	0.113	0.207
-131.341	72.009	-0.086	-0.089
-130.326	-24.518	0.029	-0.017
-129.312	193.411	0.133	-0.199
-128.297	66.948	-0.184	0.185
-127.283	342.359	-0.089	-0.173
-126.268	-200.000	0.061	0.288
-125.253	351.373	-0.122	0.239
-124.239	514.457	0.034	-0.079
-123.224	-93.420	0.365	0.100
-122.210	-200.000	-0.024	-0.141
-121.195	-40.175	0.115	0.060
-120.180	-104.491	0.265	0.061
-119.166	-168.636	-0.276	0.010
