DTS Sentinel unit serial number:	SN413079Multiplexer serial number:	ORYXHardware model number:	OX4-SRSoftware version number:	ORYX F/W v4.00 Oryx Data Collector v3.7.2.0data status	okinstallation	princeton_trtdifferential loss correction	single-endedforward channel	channel 1reverse channel	N/Adate	2019/09/18time	20:38:35forward acquisition time	60.00reverse acquisition time	0.00gamma	496.2192k internal	0.2337k external	0.2337temperature offset calibration	1.0036default loss term (dB/km)	0.3790temperature slope calibration	1.0000multiplexer offset coefficient	1.0000multiplexer slope coefficient	1.0000fibre end	0.00T internal ref (°C)	27.75T ext. ref 1 (°C)	1.05T ext. ref 2 (°C)	18.79length (m)	temperature (°C)	Stokes	anti-Stokes-747.200	-36.155	-0.162	0.088
-746.185	49.787	-0.204	0.193
-745.171	159.306	-0.123	-0.172
-744.156	308.250	-0.125	0.234
-743.142	-52.743	-0.169	-0.078
-742.127	32.639	-0.204	0.177
-741.112	-119.037	0.127	0.022
-740.098	-120.511	-0.458	0.078
-739.083	800.000	-0.098	0.305
-738.069	353.655	-0.162	0.323
-737.054	695.639	-0.092	-0.243
-736.039	16.869	-0.275	0.219
-735.025	23.155	0.190	0.156
-734.010	103.409	-0.159	0.187
-732.996	138.115	-0.075	-0.099
-731.981	89.097	0.223	0.249
-730.966	-200.000	0.019	-0.278
-729.952	-96.465	-0.121	-0.032
-728.937	-115.284	0.438	0.083
-727.923	800.000	-0.046	-0.136
-726.908	800.000	-0.084	-0.365
-725.894	234.291	0.072	0.119
-724.879	-200.000	-0.004	0.043
-723.864	79.633	0.178	-0.191
-722.850	-51.686	0.256	-0.120
-721.835	-65.354	-0.006	-0.003
-720.821	-88.134	-0.096	-0.029
-719.806	322.160	0.034	-0.065
-718.791	-200.000	0.079	0.380
-717.777	-170.878	-0.185	0.006
-716.762	62.227	-0.275	-0.275
-715.748	-200.000	0.038	-0.214
-714.733	-171.826	-0.251	-0.008
-713.718	-13.213	0.123	0.080
-712.704	71.002	0.228	-0.237
-711.689	-26.899	-0.164	0.096
-710.675	-104.292	0.190	0.044
-709.660	9.604	0.142	-0.108
-708.645	-200.000	-0.053	-0.260
-707.631	-200.000	0.007	0.159
-706.616	-200.000	0.012	-0.251
-705.602	-200.000	-0.057	-0.409
-704.587	-200.000	0.061	-0.306
-703.572	202.429	0.145	0.224
-702.558	800.000	-0.097	0.312
-701.543	800.000	-0.055	-0.157
-700.529	-74.986	-0.154	-0.055
-699.514	-121.745	-0.109	-0.018
-698.499	198.672	0.103	-0.158
-697.485	87.102	-0.133	0.147
-696.470	-200.000	0.013	-0.113
-695.456	-200.000	0.030	-0.211
-694.441	720.930	-0.058	0.155
-693.426	380.173	-0.176	0.361
-692.412	800.000	0.023	-0.096
-691.397	-200.000	0.025	-0.172
-690.383	-104.721	-0.309	-0.071
-689.368	-200.000	0.097	-0.474
-688.354	-200.000	-0.033	-0.695
-687.339	-131.315	-0.105	-0.014
-686.324	-1.777	0.119	-0.084
-685.310	-96.190	-0.193	0.051
-684.295	-79.502	0.245	0.083
-683.281	346.117	-0.163	-0.321
-682.266	800.000	-0.048	-0.194
-681.251	264.565	0.113	-0.197
-680.237	-9.632	-0.253	0.169
-679.222	71.080	0.034	-0.036
-678.208	118.136	-0.267	-0.329
-677.193	-55.418	0.125	0.056
-676.178	-200.000	-0.015	-0.179
-675.164	800.000	-0.089	-0.258
-674.149	251.836	0.067	0.115
-673.135	-5.001	-0.149	0.103
-672.120	-50.201	-0.175	0.083
-671.105	-78.706	-0.222	0.076
-670.091	20.646	0.164	-0.133
-669.076	5.407	0.442	-0.327
-668.062	303.881	0.351	-0.651
-667.047	800.000	-0.049	0.156
-666.032	-110.317	-0.293	-0.061
-665.018	249.518	0.071	0.121
-664.003	60.005	-0.170	-0.168
-662.989	60.471	-0.044	0.043
-661.974	150.912	-0.258	-0.351
-660.959	133.721	0.076	0.099
-659.945	9.972	-0.027	0.021
-658.930	-93.007	0.277	0.077
-657.916	-176.243	-0.332	0.009
-656.901	117.022	-0.131	-0.162
-655.886	186.329	-0.123	0.184
-654.872	83.096	0.191	-0.208
-653.857	235.271	-0.106	-0.175
-652.843	-18.455	-0.167	-0.104
-651.828	-200.000	0.036	-0.305
-650.814	-145.961	-0.246	0.022
-649.799	800.000	-0.032	0.094
-648.784	-200.000	0.003	-0.052
-647.770	295.098	-0.068	0.125
-646.755	402.854	0.166	0.348
-645.741	161.259	-0.105	0.147
-644.726	170.573	-0.216	-0.310
-643.711	-200.000	-0.020	-0.286
-642.697	-58.785	0.075	-0.033
-641.682	-30.240	-0.397	0.225
-640.668	800.000	-0.091	-0.254
-639.653	-105.886	0.297	0.067
-638.638	800.000	0.075	0.219
-637.624	-200.000	-0.020	-0.288
-636.609	501.060	-0.050	-0.116
-635.595	-18.303	-0.085	0.053
-634.580	329.779	-0.100	-0.193
-633.565	-19.978	-0.291	-0.179
-632.551	-9.259	0.024	-0.016
-631.536	156.193	0.136	-0.188
-630.522	315.815	-0.117	-0.220
-629.507	-103.767	-0.144	-0.034
-628.492	-147.482	0.109	-0.009
-627.478	-89.393	0.294	-0.087
-626.463	103.181	0.167	0.195
-625.449	800.000	0.032	0.104
-624.434	-200.000	-0.007	0.103
-623.419	-29.418	-0.121	-0.069
-622.405	158.993	-0.100	0.139
-621.390	-176.363	0.065	-0.002
-620.376	-44.987	-0.147	-0.073
-619.361	-19.659	0.285	-0.176
-618.346	-30.536	0.207	0.117
-617.332	800.000	0.105	0.336
-616.317	37.277	0.158	0.140
-615.303	-200.000	0.039	-0.227
-614.288	-89.010	0.240	-0.071
-613.273	106.079	-0.144	-0.170
-612.259	-94.754	-0.301	0.082
-611.244	800.000	0.066	-0.243
-610.230	86.924	0.122	0.134
-609.215	-129.697	-0.335	0.046
-608.201	-142.111	0.128	0.013
-607.186	-200.000	-0.051	-0.229
-606.171	45.553	0.152	0.140
-605.157	-65.250	-0.329	-0.132
-604.142	-200.000	-0.007	0.044
-603.128	-185.804	-0.303	-0.005
-602.113	256.692	-0.176	0.303
-601.098	599.311	0.118	-0.293
-600.084	-46.527	-0.294	0.144
-599.069	-200.000	0.014	-0.061
-598.055	-155.366	0.149	0.010
-597.040	800.000	-0.072	-0.305
-596.025	-192.659	-0.084	-0.001
-595.011	-79.887	0.184	0.062
-593.996	197.845	0.187	0.285
-592.982	32.113	-0.308	-0.265
-591.967	-93.662	0.267	0.073
-590.952	-71.790	-0.226	-0.084
-589.938	-102.971	0.142	-0.034
-588.923	-107.623	-0.152	-0.033
-587.909	-123.618	-0.300	0.047
-586.894	259.810	-0.081	-0.139
-585.879	-19.747	-0.164	-0.101
-584.865	144.599	-0.056	0.075
-583.850	-158.300	-0.261	-0.015
-582.836	419.520	-0.141	-0.302
-581.821	-200.000	0.053	-0.439
-580.806	-60.051	-0.324	-0.138
-579.792	-87.801	-0.285	-0.086
-578.777	-80.918	-0.331	0.109
-577.763	16.865	-0.128	0.101
-576.748	2.880	-0.261	-0.189
-575.733	63.942	0.022	0.022
-574.719	-21.961	0.375	0.227
-573.704	-53.574	-0.228	-0.104
-572.690	118.982	0.086	-0.106
-571.675	152.770	0.188	0.257
-570.661	-134.747	-0.067	0.008
-569.646	270.574	0.172	-0.301
-568.631	-200.000	0.020	-0.110
-567.617	-22.817	-0.155	-0.093
-566.602	-40.997	-0.155	0.080
-565.588	800.000	-0.078	-0.226
-564.573	-109.179	0.254	0.054
-563.558	13.377	0.116	-0.090
-562.544	-130.446	0.247	-0.033
-561.529	347.308	-0.139	-0.273
-560.515	161.557	-0.056	-0.078
-559.500	-2.353	0.297	-0.207
-558.485	-108.112	0.143	-0.031
-557.471	-28.784	0.191	0.110
-556.456	-153.318	0.102	0.007
-555.442	-35.644	-0.351	0.190
-554.427	301.220	-0.128	-0.236
-553.412	143.328	0.148	0.196
-552.398	-16.320	0.279	-0.177
-551.383	-120.258	0.107	0.018
-550.369	-71.127	-0.182	-0.068
-549.354	-200.000	0.029	0.131
-548.339	-114.749	0.351	-0.067
-547.325	-22.684	-0.286	0.172
-546.310	407.496	0.143	0.301
-545.296	-128.655	0.310	0.044
-544.281	-171.743	-0.134	0.004
-543.266	-122.183	-0.286	-0.047
-542.252	692.608	-0.063	0.164
-541.237	-178.912	-0.258	-0.006
-540.223	-91.840	0.373	-0.105
-539.208	141.490	-0.219	-0.289
-538.193	65.884	-0.127	0.128
-537.179	388.666	-0.082	0.168
-536.164	-200.000	-0.002	-0.096
-535.150	-37.153	-0.169	-0.090
-534.135	-64.875	0.576	-0.232
-533.121	198.119	-0.076	-0.116
-532.106	-200.000	-0.006	-0.109
-531.091	-200.000	-0.035	-0.276
-530.077	523.250	-0.018	0.043
-529.062	-200.000	0.066	-0.349
-528.048	-169.867	-0.036	0.001
-527.033	0.786	0.134	-0.095
-526.018	80.361	-0.144	0.154
-525.004	81.542	0.150	0.162
-523.989	-79.076	-0.198	0.067
-522.975	-200.000	-0.007	-0.034
-521.960	-3.917	-0.100	0.069
-520.945	20.727	-0.123	-0.099
-519.931	-97.692	-0.446	-0.115
-518.916	88.695	0.128	-0.142
-517.902	-200.000	0.046	0.240
-516.887	55.241	-0.101	0.097
-515.872	-186.149	-0.414	0.006
-514.858	38.543	-0.265	0.235
-513.843	676.658	0.099	0.257
-512.829	800.000	0.045	-0.178
-511.814	-23.089	-0.151	0.090
-510.799	-200.000	0.055	0.000
-509.785	493.813	0.101	0.231
-508.770	380.206	0.163	0.332
-507.756	29.126	-0.194	0.164
-506.741	-32.508	0.137	-0.076
-505.726	-41.667	0.044	0.023
-504.712	-147.790	-0.236	-0.020
-503.697	-2.336	0.184	-0.128
-502.683	150.678	0.127	-0.171
-501.668	-74.606	-0.142	0.051
-500.653	305.507	-0.108	-0.200
-499.639	-32.293	0.202	-0.112
-498.624	365.705	-0.072	0.145
-497.610	-2.983	-0.076	0.052
-496.595	-95.721	0.024	-0.006
-495.581	-154.004	-0.159	0.011
-494.566	178.706	-0.340	-0.494
-493.551	698.158	-0.110	-0.286
-492.537	67.086	0.164	0.166
-491.522	-104.593	0.081	-0.018
-490.508	87.606	-0.136	0.150
-489.493	-10.898	0.141	-0.092
-488.478	84.290	-0.089	-0.096
-487.464	46.737	0.122	-0.113
-486.449	131.878	-0.096	-0.123
-485.435	305.268	0.119	-0.219
-484.420	141.905	-0.045	-0.060
-483.405	25.976	-0.060	-0.050
-482.391	-117.016	0.124	-0.022
-481.376	283.415	0.101	0.180
-480.362	-152.303	-0.228	-0.016
-479.347	-15.800	0.326	-0.206
-478.332	430.142	-0.081	-0.175
-477.318	226.101	-0.141	-0.227
-476.303	82.364	-0.145	0.157
-475.289	800.000	0.050	0.153
-474.274	-36.039	0.111	-0.059
-473.259	131.008	-0.038	0.048
-472.245	-94.995	-0.138	-0.037
-471.230	37.603	0.119	0.105
-470.216	21.780	0.107	0.087
-469.201	-200.000	0.037	-0.177
-468.186	800.000	0.084	-0.277
-467.172	6.558	0.058	0.043
-466.157	509.160	0.041	0.095
-465.143	-159.610	0.376	-0.021
-464.128	-200.000	-0.067	0.596
-463.113	385.217	0.054	-0.110
-462.099	-166.743	-0.044	-0.002
-461.084	800.000	-0.028	0.119
-460.070	400.399	0.105	-0.219
-459.055	-70.651	0.184	-0.069
-458.040	13.268	-0.460	0.354
-457.026	127.399	0.139	-0.175
-456.011	-115.989	0.371	0.069
-454.997	204.027	-0.091	-0.140
-453.982	-35.222	0.311	-0.168
-452.968	685.574	0.006	0.014
-451.953	-177.913	-0.499	0.012
-450.938	800.000	-0.011	0.029
-449.924	193.543	0.165	0.248
-448.909	-97.041	0.259	-0.067
-447.895	-200.000	0.004	0.100
-446.880	578.902	0.094	-0.227
-445.865	-108.704	0.132	-0.028
-444.851	128.081	-0.038	0.048
-443.836	-200.000	0.040	-0.252
-442.822	221.073	0.091	0.144
-441.807	50.126	0.130	0.122
-440.792	737.021	0.019	-0.052
-439.778	597.015	-0.049	0.120
-438.763	-69.492	-0.019	0.007
-437.749	-92.900	0.109	-0.030
-436.734	294.623	0.137	0.248
-435.719	-14.885	-0.108	-0.069
-434.705	-20.891	0.321	0.195
-433.690	9.141	-0.235	-0.176
-432.676	146.292	0.153	0.204
-431.661	-200.000	-0.002	0.096
-430.646	-200.000	-0.105	0.491
-429.632	-34.907	0.428	-0.232
-428.617	117.385	0.148	0.180
-427.603	197.169	-0.101	0.152
-426.588	58.169	0.173	-0.168
-425.573	800.000	-0.053	0.205
-424.559	49.002	0.097	0.090
-423.544	800.000	-0.063	-0.201
-422.530	185.416	-0.050	0.074
-421.515	-47.346	-0.101	0.049
-420.500	-200.000	0.074	-0.326
-419.486	800.000	-0.028	-0.119
-418.471	-108.555	0.265	0.056
-417.457	-24.779	-0.241	-0.142
-416.442	92.519	0.185	0.207
-415.428	-105.044	0.209	0.047
-414.413	-48.136	-0.234	-0.112
-413.398	-96.138	-0.143	0.038
-412.384	9.011	-0.097	-0.073
-411.369	-26.162	0.173	0.100
-410.355	-86.098	-0.128	-0.039
-409.340	-200.000	-0.022	-0.112
-408.325	-71.049	0.370	0.138
-407.311	338.322	-0.109	-0.211
-406.296	95.279	0.237	-0.268
-405.282	-26.817	-0.151	-0.087
-404.267	800.000	-0.104	0.330
-403.252	105.332	-0.072	-0.084
-402.238	18.653	0.453	0.359
-401.223	-129.891	0.239	0.032
-400.209	-109.772	0.017	-0.003
-399.194	-200.000	0.041	-0.191
-398.179	-200.000	-0.000	0.077
-397.165	329.798	0.103	-0.196
-396.150	800.000	-0.033	-0.099
-395.136	-47.169	0.104	-0.050
-394.121	-26.921	-0.176	-0.102
-393.106	-62.568	-0.169	0.069
-392.092	509.171	-0.056	0.128
-391.077	17.772	0.244	0.192
-390.063	800.000	-0.028	-0.085
-389.048	9.470	0.174	-0.131
-388.033	-41.408	0.201	-0.103
-387.019	-13.972	-0.122	-0.078
-386.004	-36.127	0.220	0.118
-384.990	-200.000	0.039	0.239
-383.975	53.249	0.256	-0.243
-382.960	-78.250	0.254	0.086
-381.946	-1.486	0.112	-0.078
-380.931	241.496	0.085	-0.140
-379.917	230.923	-0.144	-0.234
-378.902	78.348	0.051	0.054
-377.888	375.421	-0.109	0.221
-376.873	-42.521	-0.265	0.134
-375.858	800.000	-0.091	0.329
-374.844	473.105	0.088	-0.196
-373.829	-34.448	-0.310	-0.168
-372.815	-200.000	-0.001	0.368
-371.800	-107.336	-0.404	-0.088
-370.785	-132.671	0.077	0.010
-369.771	-132.856	-0.328	0.041
-368.756	-102.552	0.142	0.034
-367.742	-200.000	-0.033	0.233
-366.727	-200.000	0.054	0.339
-365.712	-200.000	0.053	-0.320
-364.698	4.727	-0.212	0.154
-363.683	447.144	0.067	0.146
-362.669	-200.000	0.007	-0.071
-361.654	200.441	-0.087	0.132
-360.639	-35.859	0.080	0.043
-359.625	-200.000	-0.036	-0.279
-358.610	-200.000	-0.031	-0.218
-357.596	-200.000	0.035	-0.190
-356.581	304.459	-0.062	-0.114
-355.566	33.662	0.289	-0.248
-354.552	-200.000	-0.096	-0.502
-353.537	-174.351	0.279	0.008
-352.523	-43.500	0.156	0.078
-351.508	515.539	-0.184	-0.424
-350.493	561.076	-0.077	-0.185
-349.479	-200.000	0.018	0.271
-348.464	98.299	0.080	0.091
-347.450	-200.000	0.020	0.107
-346.435	31.671	-0.242	0.205
-345.420	12.570	-0.441	0.336
-344.406	-68.923	-0.118	0.045
-343.391	59.778	-0.264	0.258
-342.377	-200.000	0.023	-0.449
-341.362	-108.601	0.226	0.048
-340.348	110.407	-0.214	-0.255
-339.333	-200.000	0.391	-0.001
-338.318	-48.769	0.035	-0.017
-337.304	464.410	-0.120	-0.265
-336.289	-90.293	0.356	0.102
-335.275	46.936	-0.297	0.272
-334.260	135.593	-0.108	-0.139
-333.245	-64.525	0.468	0.188
-332.231	-89.152	-0.172	-0.050
-331.216	682.746	0.024	0.061
-330.202	-35.677	0.168	0.090
-329.187	-200.000	-0.009	0.178
-328.172	-6.713	-0.234	0.157
-327.158	-4.576	0.293	-0.200
-326.143	112.972	-0.012	0.014
-325.129	278.035	-0.217	0.381
-324.114	-145.882	-0.053	-0.005
-323.099	-200.000	-0.016	-0.074
-322.085	-66.641	-0.296	-0.116
-321.070	-132.703	0.335	-0.042
-320.056	-18.612	0.090	0.055
-319.041	-190.014	0.221	-0.002
-318.026	-119.271	-0.062	-0.011
-317.012	12.542	-0.129	0.098
-315.997	-200.000	-0.013	-0.154
-314.983	-200.000	-0.014	-0.071
-313.968	4.666	-0.077	-0.056
-312.953	-86.636	0.217	0.066
-311.939	-91.827	0.106	-0.030
-310.924	-121.181	0.275	-0.045
-309.910	351.068	-0.136	0.266
-308.895	317.671	-0.100	0.186
-307.880	-166.994	-0.158	0.006
-306.866	-200.000	0.012	0.183
-305.851	-56.339	0.167	0.073
-304.837	-180.011	0.173	-0.004
-303.822	-200.000	-0.008	0.129
-302.807	-200.000	0.004	0.065
-301.793	-33.499	0.262	0.143
-300.778	307.466	0.092	0.169
-299.764	40.102	0.099	0.088
-298.749	-200.000	-0.010	-0.109
-297.735	800.000	0.051	0.196
-296.720	-69.222	-0.071	0.027
-295.705	107.743	0.125	-0.147
-294.691	-53.303	-0.380	-0.172
-293.676	-200.000	-0.003	0.067
-292.662	800.000	-0.065	0.264
-291.647	-51.324	0.585	0.270
-290.632	20.847	-0.378	-0.302
-289.618	414.067	-0.128	-0.268
-288.603	17.902	0.330	0.259
-287.589	65.529	0.189	-0.189
-286.574	800.000	0.090	-0.337
-285.559	65.327	0.088	0.087
-284.545	800.000	-0.051	-0.192
-283.530	800.000	0.069	-0.229
-282.516	-138.359	0.526	0.057
-281.501	-37.060	-0.104	0.055
-280.486	-77.680	-0.082	-0.028
-279.472	-140.471	0.062	0.006
-278.457	309.340	-0.137	-0.252
-277.443	-62.695	-0.202	0.083
-276.428	-200.000	-0.035	-0.191
-275.413	-200.000	0.038	0.317
-274.399	24.375	-0.351	0.286
-273.384	13.438	-0.239	0.182
-272.370	22.267	-0.109	0.088
-271.355	-169.006	0.435	0.016
-270.340	-48.027	-0.388	0.185
-269.326	-28.471	-0.384	0.218
-268.311	800.000	0.034	-0.108
-267.297	177.058	0.153	0.220
-266.282	-198.626	-0.336	0.002
-265.267	-110.486	0.140	-0.029
-264.253	68.657	0.025	-0.025
-263.238	55.499	-0.140	0.134
-262.224	575.310	0.033	-0.079
-261.209	140.829	-0.191	0.248
-260.195	625.109	-0.143	0.354
-259.180	-67.753	0.079	-0.030
-258.165	425.587	0.099	0.211
-257.151	216.851	0.082	0.128
-256.136	-200.000	-0.032	0.268
-255.122	-179.992	0.327	-0.007
-254.107	45.772	-0.159	0.145
-253.092	800.000	0.110	0.389
-252.078	0.890	0.088	0.062
-251.063	97.623	-0.235	-0.266
-250.049	-200.000	0.034	0.220
-249.034	-90.300	0.172	0.049
-248.019	800.000	0.020	-0.085
-247.005	-158.214	-0.379	0.022
-245.990	0.356	-0.005	-0.003
-244.976	-7.718	-0.085	0.056
-243.961	-200.000	-0.033	0.202
-242.946	350.741	-0.045	-0.087
-241.932	-31.300	-0.072	0.040
-240.917	-200.000	-0.064	-0.355
-239.903	319.319	0.103	0.192
-238.888	-83.103	-0.162	0.051
-237.873	-81.852	0.294	0.095
-236.859	-200.000	-0.026	0.210
-235.844	106.347	0.103	-0.121
-234.830	800.000	-0.081	-0.294
-233.815	61.246	-0.211	-0.207
-232.800	126.938	0.130	-0.162
-231.786	-200.000	-0.037	0.245
-230.771	526.994	-0.076	-0.175
-229.757	-170.928	-0.245	0.008
-228.742	-200.000	0.007	0.140
-227.727	93.033	-0.303	0.337
-226.713	-167.392	0.217	0.009
-225.698	224.080	0.168	0.267
-224.684	221.925	0.323	0.511
-223.669	800.000	0.051	-0.146
-222.655	136.867	-0.119	0.153
-221.640	-13.203	0.222	-0.142
-220.625	232.895	-0.190	0.307
-219.611	-200.000	0.011	0.233
-218.596	-32.030	0.143	0.079
-217.582	-121.267	0.085	0.014
-216.567	-200.000	0.023	-0.167
-215.552	-14.716	0.238	0.150
-214.538	-200.000	-0.006	0.060
-213.523	-33.687	0.384	0.208
-212.509	-42.573	0.088	-0.044
-211.494	-200.000	0.005	0.114
-210.479	-200.000	0.033	0.464
-209.465	415.381	-0.028	-0.058
-208.450	800.000	0.090	0.347
-207.436	800.000	-0.056	0.207
-206.421	-200.000	-0.047	-0.599
-205.406	41.234	0.132	0.117
-204.392	800.000	-0.104	-0.305
-203.377	-91.439	-0.386	-0.108
-202.363	-135.893	0.059	-0.007
-201.348	-147.410	0.028	-0.002
-200.333	-102.863	-0.142	-0.033
-199.319	-36.555	0.201	0.106
-198.304	-6.929	0.138	-0.092
-197.290	-200.000	0.033	0.000
-196.275	800.000	0.124	0.338
-195.260	-27.271	-0.261	-0.149
-194.246	-126.185	0.229	-0.034
-193.231	-115.907	0.303	-0.056
-192.217	7.899	0.371	-0.273
-191.202	-200.000	-0.089	-0.494
-190.187	155.205	-0.050	-0.068
-189.173	-39.724	0.292	0.150
-188.158	800.000	0.016	-0.056
-187.144	-78.791	-0.179	-0.060
-186.129	128.806	0.290	0.363
-185.114	-107.097	-0.292	-0.063
-184.100	93.225	0.064	-0.071
-183.085	-75.887	0.085	-0.029
-182.071	-79.047	0.328	-0.110
-181.056	-53.226	-0.234	-0.105
-180.042	433.026	0.141	-0.301
-179.027	203.572	-0.076	-0.116
-178.012	-28.751	-0.142	0.080
-176.998	800.000	-0.060	0.215
-175.983	69.908	-0.195	-0.198
-174.969	-95.516	0.207	-0.055
-173.954	5.949	-0.053	-0.038
-172.939	113.713	-0.079	0.094
-171.925	194.254	-0.212	-0.316
-170.910	618.059	-0.073	-0.180
-169.896	402.751	-0.032	0.066
-168.881	-32.688	-0.275	0.150
-167.866	96.817	-0.161	0.181
-166.852	-81.755	-0.056	-0.018
-165.837	-129.157	0.045	-0.006
-164.823	171.666	-0.203	-0.286
-163.808	61.952	0.247	0.241
-162.793	-17.226	-0.198	0.123
-161.779	-200.000	0.020	0.098
-160.764	-200.000	-0.008	-0.062
-159.750	-56.459	0.109	-0.048
-158.735	-153.298	-0.170	-0.012
-157.720	103.090	-0.258	-0.296
-156.706	-200.000	-0.040	-0.196
-155.691	-65.907	-0.079	0.031
-154.677	465.278	0.183	-0.401
-153.662	-200.000	-0.018	-0.152
-152.647	-34.748	-0.283	0.152
-151.633	118.792	0.134	0.162
-150.618	-200.000	0.074	0.386
-149.604	-69.677	0.271	0.102
-148.589	-196.173	-0.249	-0.002
-147.574	-87.917	0.191	0.056
-146.560	-200.000	-0.004	0.133
-145.545	62.201	0.148	0.145
-144.531	268.841	-0.090	0.155
-143.516	582.948	-0.132	-0.317
-142.502	-110.912	0.331	0.067
-141.487	310.547	0.069	-0.127
-140.472	43.453	-0.037	0.033
-139.458	435.693	0.116	0.247
-138.443	220.541	-0.069	-0.108
-137.429	177.669	-0.158	0.226
-136.414	257.378	0.223	0.376
-135.399	-53.550	0.224	0.100
-134.385	84.673	-0.021	0.022
-133.370	84.009	0.229	-0.246
-132.356	-75.271	-0.021	-0.007
-131.341	283.633	0.100	0.175
-130.326	-72.712	0.057	0.021
-129.312	-42.434	0.258	0.129
-128.297	231.332	0.082	0.132
-127.283	246.889	0.217	0.359
-126.268	-200.000	0.001	0.551
-125.253	-124.340	-0.335	-0.051
-124.239	-126.975	-0.352	0.051
-123.224	-50.759	0.232	0.107
-122.210	-102.780	0.307	0.071
-121.195	800.000	-0.043	0.146
