DTS Sentinel unit serial number:	SN413079Multiplexer serial number:	ORYXHardware model number:	OX4-SRSoftware version number:	ORYX F/W v4.00 Oryx Data Collector v3.7.2.0data status	okinstallation	princeton_trtdifferential loss correction	single-endedforward channel	channel 1reverse channel	N/Adate	2019/09/18time	23:26:35forward acquisition time	60.00reverse acquisition time	0.00gamma	496.2192k internal	0.2341k external	0.2341temperature offset calibration	1.0025default loss term (dB/km)	0.3790temperature slope calibration	1.0000multiplexer offset coefficient	1.0000multiplexer slope coefficient	1.0000fibre end	0.00T internal ref (°C)	23.75T ext. ref 1 (°C)	0.78T ext. ref 2 (°C)	16.75length (m)	temperature (°C)	Stokes	anti-Stokes-747.200	800.000	0.057	0.157
-746.185	800.000	-0.188	0.549
-745.171	111.712	0.013	0.016
-744.156	-80.510	-0.438	0.146
-743.142	-7.888	-0.127	0.086
-742.127	411.228	0.086	0.182
-741.112	-23.204	0.230	-0.139
-740.098	-0.490	-0.042	-0.030
-739.083	800.000	0.007	0.021
-738.069	-92.050	-0.144	-0.041
-737.054	512.286	-0.059	0.138
-736.039	13.236	-0.314	-0.244
-735.025	-200.000	-0.003	-0.225
-734.010	229.780	0.175	-0.286
-732.996	-19.931	0.084	-0.052
-731.981	-200.000	0.027	-0.128
-730.966	-200.000	0.024	0.217
-729.952	79.084	-0.077	-0.082
-728.937	18.342	-0.196	-0.156
-727.923	-19.900	-0.102	0.063
-726.908	63.819	-0.095	-0.096
-725.894	-84.948	-0.295	0.093
-724.879	303.786	-0.179	0.332
-723.864	16.931	0.095	0.075
-722.850	199.062	-0.148	0.227
-721.835	-153.684	-0.283	0.020
-720.821	-175.094	-0.153	-0.004
-719.806	254.885	-0.067	0.116
-718.791	-200.000	-0.011	-0.143
-717.777	-53.394	-0.419	-0.192
-716.762	99.837	0.101	0.117
-715.748	86.106	-0.063	-0.070
-714.733	-200.000	0.033	-0.175
-713.718	-65.446	-0.291	0.117
-712.704	-104.280	0.227	-0.053
-711.689	-88.996	-0.036	0.011
-710.675	43.616	-0.130	0.119
-709.660	-64.302	0.148	0.060
-708.645	-98.111	-0.394	0.101
-707.631	-200.000	-0.039	-0.222
-706.616	460.574	-0.174	-0.388
-705.602	670.373	-0.059	0.154
-704.587	-200.000	0.033	-0.493
-703.572	-52.041	0.169	0.078
-702.558	645.249	-0.107	0.272
-701.543	16.171	0.038	0.030
-700.529	-15.262	-0.034	-0.022
-699.514	-200.000	0.016	-0.193
-698.499	190.131	0.088	-0.132
-697.485	-45.442	-0.051	-0.025
-696.470	228.817	0.088	-0.144
-695.456	46.879	-0.315	-0.293
-694.441	5.772	0.224	0.166
-693.426	-58.236	0.384	0.167
-692.412	-148.260	-0.107	0.009
-691.397	-200.000	0.025	-0.426
-690.383	212.374	0.173	-0.273
-689.368	-125.730	-0.199	0.030
-688.354	98.258	0.039	-0.045
-687.339	115.677	-0.088	0.108
-686.324	-152.082	-0.397	-0.029
-685.310	-150.055	-0.257	0.020
-684.295	-66.551	-0.086	0.034
-683.281	800.000	0.093	0.284
-682.266	-200.000	-0.009	-0.335
-681.251	18.055	-0.196	-0.156
-680.237	-136.301	-0.199	-0.023
-679.222	-117.595	0.132	0.024
-678.208	280.675	-0.139	0.249
-677.193	-92.383	0.410	-0.115
-676.178	281.120	-0.113	0.202
-675.164	-111.922	0.122	-0.025
-674.149	-115.673	0.270	-0.051
-673.135	-200.000	0.009	0.083
-672.120	-200.000	0.021	-0.133
-671.105	-200.000	0.005	-0.233
-670.091	-18.620	0.255	-0.159
-669.076	-200.000	-0.055	-0.320
-668.062	-200.000	-0.019	0.139
-667.047	-79.497	0.097	0.033
-666.032	312.844	-0.045	-0.085
-665.018	-76.535	-0.138	0.048
-664.003	-200.000	-0.009	0.106
-662.989	403.430	0.032	0.067
-661.974	-40.986	0.274	0.141
-660.959	194.018	-0.242	-0.366
-659.945	-147.194	0.126	0.011
-658.930	-16.743	0.400	-0.253
-657.916	423.404	-0.073	-0.157
-656.901	85.649	-0.202	-0.221
-655.886	384.195	-0.082	-0.168
-654.872	-60.379	-0.345	-0.147
-653.857	-99.453	-0.189	-0.048
-652.843	-143.615	-0.226	0.021
-651.828	90.412	-0.072	-0.081
-650.814	-151.809	-0.193	-0.014
-649.799	22.184	-0.264	0.215
-648.784	800.000	-0.038	0.108
-647.770	-123.233	-0.109	-0.017
-646.755	36.158	-0.313	-0.275
-645.741	76.683	0.235	-0.249
-644.726	224.142	0.138	-0.222
-643.711	-115.281	0.270	0.051
-642.697	800.000	0.047	0.178
-641.682	-27.338	-0.063	-0.037
-640.668	-82.620	0.153	-0.050
-639.653	241.223	-0.087	0.145
-638.638	26.282	-0.149	-0.125
-637.624	-200.000	0.029	-0.199
-636.609	-125.105	-0.202	0.031
-635.595	602.514	-0.119	0.295
-634.580	197.153	0.071	0.109
-633.565	61.290	-0.386	-0.382
-632.551	184.838	-0.150	-0.222
-631.536	-3.566	0.084	-0.058
-630.522	127.120	-0.233	0.295
-629.507	800.000	0.045	-0.124
-628.492	-200.000	0.055	0.309
-627.478	-160.245	0.225	-0.012
-626.463	54.377	0.108	0.104
-625.449	140.207	0.188	-0.247
-624.434	361.541	-0.024	0.047
-623.419	-125.522	-0.123	0.019
-622.405	800.000	0.044	0.126
-621.390	-200.000	-0.010	0.265
-620.376	-27.335	0.035	0.020
-619.361	103.514	0.157	0.183
-618.346	60.835	0.036	0.036
-617.332	-200.000	0.018	0.338
-616.317	211.235	0.152	0.238
-615.303	138.239	0.212	0.277
-614.288	-200.000	-0.035	0.325
-613.273	87.210	-0.245	-0.270
-612.259	121.719	-0.138	-0.172
-611.244	800.000	-0.060	-0.220
-610.230	-70.508	0.281	0.106
-609.215	-140.064	-0.302	0.032
-608.201	123.114	-0.054	-0.068
-607.186	-109.855	0.182	0.038
-606.171	69.610	0.333	-0.342
-605.157	-20.108	-0.010	0.006
-604.142	66.794	-0.100	0.101
-603.128	99.097	-0.200	0.231
-602.113	-200.000	0.008	-0.106
-601.098	800.000	0.016	-0.068
-600.084	179.399	0.207	-0.302
-599.069	800.000	-0.024	0.091
-598.055	-200.000	-0.024	0.293
-597.040	-200.000	-0.005	0.067
-596.025	-70.898	-0.231	-0.087
-595.011	332.349	-0.125	-0.241
-593.996	67.546	-0.057	-0.058
-592.982	147.579	0.335	-0.450
-591.967	124.569	0.092	-0.115
-590.952	800.000	-0.068	-0.198
-589.938	-8.977	-0.478	0.319
-588.923	-56.234	-0.344	-0.152
-587.909	-139.920	-0.084	-0.009
-586.894	218.306	-0.103	-0.163
-585.879	-200.000	0.006	-0.047
-584.865	-30.142	0.057	-0.032
-583.850	-37.212	0.172	0.092
-582.836	-200.000	-0.065	0.356
-581.821	-1.749	0.221	-0.155
-580.806	522.924	-0.080	-0.188
-579.792	-144.856	0.490	0.045
-578.777	-200.000	-0.007	-0.075
-577.763	800.000	0.006	-0.021
-576.748	61.080	0.202	-0.199
-575.733	-59.778	0.251	0.107
-574.719	618.096	0.071	0.178
-573.704	-14.926	-0.181	-0.115
-572.690	58.703	0.179	-0.175
-571.675	-200.000	-0.001	-0.110
-570.661	-113.474	0.247	0.048
-569.646	800.000	0.105	-0.338
-568.631	-64.506	0.032	-0.013
-567.617	-17.108	0.125	-0.079
-566.602	-126.739	0.091	-0.013
-565.588	70.992	0.134	-0.139
-564.573	258.069	-0.092	0.158
-563.558	260.192	-0.120	0.207
-562.544	-150.059	0.045	0.003
-561.529	-200.000	-0.022	0.250
-560.515	-114.176	-0.325	0.062
-559.500	-25.173	-0.180	0.106
-558.485	79.622	-0.155	-0.166
-557.471	3.907	-0.201	0.146
-556.456	-32.751	0.216	0.120
-555.442	-200.000	0.008	-0.224
-554.427	-43.597	0.080	-0.040
-553.412	77.296	-0.174	-0.184
-552.398	365.511	-0.092	-0.184
-551.383	98.454	0.254	-0.292
-550.369	374.314	0.076	-0.155
-549.354	-39.876	-0.216	0.112
-548.339	451.762	0.049	-0.107
-547.325	-151.955	0.385	0.028
-546.310	-200.000	0.134	-0.701
-545.296	-200.000	0.077	0.408
-544.281	-62.534	-0.176	0.073
-543.266	250.918	-0.182	-0.307
-542.252	-50.559	0.206	0.097
-541.237	-138.354	-0.264	0.029
-540.223	35.377	0.179	0.156
-539.208	-200.000	0.005	-0.055
-538.193	181.781	-0.159	-0.233
-537.179	-200.000	0.033	-0.209
-536.164	429.741	0.043	0.093
-535.150	41.887	0.076	-0.069
-534.135	145.235	-0.165	-0.219
-533.121	-93.134	0.061	-0.017
-532.106	-56.075	0.166	0.073
-531.091	139.289	-0.187	0.244
-530.077	800.000	-0.087	0.326
-529.062	5.987	0.262	-0.193
-528.048	705.464	-0.046	-0.120
-527.033	-21.798	-0.092	0.055
-526.018	-28.828	-0.235	0.134
-525.004	800.000	-0.026	0.097
-523.989	-7.311	0.167	-0.113
-522.975	-200.000	0.012	0.293
-521.960	56.378	0.151	0.146
-520.945	800.000	0.067	-0.263
-519.931	-68.194	0.178	0.069
-518.916	-42.662	0.170	-0.086
-517.902	494.537	0.093	-0.212
-516.887	-89.271	0.057	0.017
-515.872	199.058	-0.087	-0.133
-514.858	188.382	0.207	-0.308
-513.843	154.987	-0.130	0.177
-512.829	-144.246	-0.228	-0.021
-511.814	355.905	-0.030	-0.059
-510.799	10.222	-0.266	0.201
-509.785	112.503	-0.087	0.105
-508.770	759.028	-0.023	-0.063
-507.756	354.093	0.113	-0.223
-506.741	6.506	0.117	0.086
-505.726	536.546	0.105	0.247
-504.712	-89.152	0.280	-0.082
-503.697	-67.824	-0.223	-0.087
-502.683	-54.970	-0.484	0.216
-501.668	561.371	0.059	0.141
-500.653	-20.572	-0.110	0.067
-499.639	311.957	0.102	-0.189
-498.624	12.634	-0.211	0.161
-497.610	-200.000	-0.040	0.227
-496.595	-62.533	0.259	-0.107
-495.581	753.138	-0.027	-0.073
-494.566	470.649	-0.068	0.152
-493.551	-200.000	0.001	0.013
-492.537	-150.491	-0.038	-0.003
-491.522	-63.835	-0.256	-0.104
-490.508	180.624	0.121	-0.176
-489.493	-49.950	0.255	0.120
-488.478	-55.932	-0.533	0.236
-487.464	388.306	0.125	0.256
-486.449	-73.882	-0.344	-0.124
-485.435	-13.696	0.038	0.024
-484.420	620.893	0.094	0.235
-483.405	-9.959	-0.150	-0.099
-482.391	-97.110	-0.309	-0.080
-481.376	-126.906	0.108	-0.016
-480.362	-123.691	0.380	0.060
-479.347	-200.000	-0.037	-0.675
-478.332	-109.308	0.281	-0.059
-477.318	-10.242	-0.211	-0.139
-476.303	-90.607	-0.141	-0.041
-475.289	-97.982	0.126	-0.032
-474.274	239.333	-0.238	0.392
-473.259	-112.522	-0.155	-0.031
-472.245	-45.400	-0.232	-0.114
-471.230	-200.000	-0.018	-0.203
-470.216	-85.171	-0.090	0.028
-469.201	201.337	-0.186	-0.283
-468.186	392.492	-0.097	0.200
-467.172	800.000	0.038	0.143
-466.157	110.077	0.231	0.275
-465.143	19.549	-0.083	0.066
-464.128	-200.000	-0.026	-0.179
-463.113	-102.040	-0.216	0.052
-462.099	-37.090	0.116	0.061
-461.084	172.343	-0.054	-0.078
-460.070	800.000	0.054	-0.198
-459.055	745.208	0.111	0.295
-458.040	232.379	0.113	-0.184
-457.026	-143.000	-0.038	0.004
-456.011	-119.680	-0.085	0.014
-454.997	150.109	0.074	-0.100
-453.982	-165.068	0.274	-0.012
-452.968	-95.871	-0.051	0.014
-451.953	-76.261	-0.111	-0.039
-450.938	0.804	0.186	-0.132
-449.924	471.575	0.133	0.297
-448.909	-165.423	0.104	0.004
-447.895	-200.000	-0.015	-0.189
-446.880	56.440	0.389	-0.374
-445.865	488.413	0.138	0.311
-444.851	166.781	0.133	-0.187
-443.836	-4.710	-0.144	-0.099
-442.822	100.810	-0.137	0.158
-441.807	61.580	0.281	0.277
-440.792	583.396	0.083	-0.201
-439.778	-92.016	0.264	-0.074
-438.763	143.364	-0.077	0.101
-437.749	-200.000	0.148	-0.643
-436.734	-8.193	0.105	-0.070
-435.719	709.644	0.115	0.302
-434.705	-103.741	0.348	0.081
-433.690	-144.560	-0.284	-0.026
-432.676	-200.000	-0.037	-0.189
-431.661	-178.821	-0.135	0.003
-430.646	-200.000	0.032	0.205
-429.632	-6.040	-0.084	0.057
-428.617	400.328	0.043	-0.089
-427.603	-59.422	0.154	-0.065
-426.588	299.518	-0.103	-0.188
-425.573	-200.000	0.017	0.198
-424.559	64.626	0.127	-0.126
-423.544	761.819	0.084	-0.225
-422.530	-91.173	0.300	0.085
-421.515	-46.581	0.041	0.020
-420.500	21.259	0.015	-0.012
-419.486	165.509	0.240	-0.335
-418.471	-167.453	0.025	-0.001
-417.457	-200.000	-0.059	0.258
-416.442	-46.512	-0.057	-0.028
-415.428	649.149	0.085	-0.216
-414.413	-141.900	0.314	0.031
-413.398	-150.398	0.264	0.020
-412.384	26.276	-0.090	-0.074
-411.369	72.878	0.050	-0.052
-410.355	40.518	0.087	0.078
-409.340	800.000	-0.064	0.259
-408.325	3.964	-0.027	0.019
-407.311	-200.000	0.001	-0.128
-406.296	30.672	-0.122	0.103
-405.282	37.700	-0.188	-0.165
-404.267	-65.024	-0.173	-0.069
-403.252	-124.464	-0.051	-0.008
-402.238	-69.764	0.138	-0.052
-401.223	-18.035	-0.072	0.045
-400.209	-92.370	-0.137	-0.038
-399.194	-90.186	0.179	0.052
-398.179	-9.971	0.122	-0.080
-397.165	247.726	0.098	-0.163
-396.150	800.000	-0.057	0.189
-395.136	724.652	-0.180	0.473
-394.121	-92.358	-0.291	0.081
-393.106	28.297	0.176	0.147
-392.092	-13.147	-0.207	0.133
-391.077	82.239	-0.094	-0.101
-390.063	-62.820	-0.088	0.036
-389.048	-59.849	0.364	0.154
-388.033	-200.000	0.006	-0.292
-387.019	800.000	-0.061	0.175
-386.004	-200.000	0.011	0.129
-384.990	-76.952	-0.262	0.090
-383.975	-58.120	-0.226	0.097
-382.960	800.000	0.072	-0.308
-381.946	-32.286	0.124	0.068
-380.931	-1.208	0.118	-0.082
-379.917	-28.517	0.137	-0.078
-378.902	-139.383	-0.197	0.021
-377.888	-21.857	-0.299	-0.180
-376.873	54.040	0.177	0.168
-375.858	-107.436	-0.042	-0.009
-374.844	-56.643	-0.172	-0.075
-373.829	-200.000	0.037	0.196
-372.815	530.442	0.072	-0.169
-371.800	-200.000	-0.033	0.365
-370.785	-44.338	-0.052	0.026
-369.771	-10.190	0.120	-0.079
-368.756	620.994	-0.191	0.474
-367.742	800.000	-0.051	0.153
-366.727	95.089	0.244	0.274
-365.712	361.658	0.085	0.168
-364.698	-119.692	0.240	-0.041
-363.683	-117.149	0.152	-0.027
-362.669	-155.649	0.085	-0.005
-361.654	-200.000	0.044	0.369
-360.639	-37.819	0.085	-0.044
-359.625	-85.262	-0.393	0.121
-358.610	447.104	-0.092	0.201
-357.596	648.711	-0.031	-0.077
-356.581	63.557	0.315	0.312
-355.566	40.471	-0.269	0.239
-354.552	128.355	0.157	0.197
-353.537	-200.000	0.006	0.256
-352.523	-65.319	-0.129	-0.051
-351.508	800.000	0.035	0.103
-350.493	-200.000	-0.014	0.457
-349.479	-89.186	-0.100	-0.029
-348.464	50.160	0.254	-0.236
-347.450	-46.479	0.156	-0.075
-346.435	-3.620	0.213	-0.146
-345.420	1.503	-0.146	0.104
-344.406	-15.974	-0.145	-0.091
-343.391	345.960	-0.024	0.047
-342.377	-67.786	-0.184	0.071
-341.362	358.830	0.119	-0.234
-340.348	-200.000	0.044	0.324
-339.333	-118.418	0.136	-0.024
-338.318	235.310	0.140	-0.228
-337.304	81.202	-0.043	-0.046
-336.289	191.652	-0.165	-0.246
-335.275	532.173	-0.129	0.300
-334.260	-200.000	-0.004	-0.143
-333.245	9.877	0.354	0.265
-332.231	170.612	0.104	0.146
-331.216	-88.924	0.096	0.028
-330.202	35.206	-0.241	0.208
-329.187	223.544	0.112	0.179
-328.172	98.004	0.172	-0.195
-327.158	-164.295	-0.227	0.010
-326.143	28.292	-0.179	0.149
-325.129	-200.000	-0.016	0.073
-324.114	-51.043	-0.443	-0.205
-323.099	800.000	-0.113	0.313
-322.085	-200.000	0.025	-0.132
-321.070	-200.000	-0.013	0.072
-320.056	-121.538	0.296	0.048
-319.041	-35.936	0.251	0.134
-318.026	755.199	-0.114	-0.304
-317.012	-200.000	-0.002	-0.242
-315.997	800.000	0.088	-0.271
-314.983	-200.000	0.003	-0.294
-313.968	-200.000	-0.012	0.119
-312.953	558.003	-0.090	0.214
-311.939	135.771	-0.161	-0.206
-310.924	271.858	-0.084	-0.147
-309.910	286.781	0.150	0.267
-308.895	12.399	-0.177	-0.134
-307.880	-95.413	-0.196	0.052
-306.866	120.954	0.089	0.109
-305.851	43.945	0.146	-0.132
-304.837	-80.597	-0.387	-0.127
-303.822	-200.000	-0.040	0.427
-302.807	800.000	-0.007	-0.021
-301.793	-63.436	-0.457	-0.185
-300.778	-77.905	0.149	0.051
-299.764	-200.000	-0.001	-0.074
-298.749	-123.346	0.181	-0.028
-297.735	144.472	-0.154	-0.202
-296.720	325.425	-0.082	-0.155
-295.705	619.334	0.067	0.166
-294.691	92.291	-0.075	0.084
-293.676	-12.698	-0.132	-0.085
-292.662	-200.000	-0.002	0.053
-291.647	374.479	-0.088	0.176
-290.632	39.946	0.251	-0.222
-289.618	14.276	-0.084	-0.064
-288.603	35.956	0.237	0.206
-287.589	-38.494	0.206	0.107
-286.574	-15.505	0.227	0.143
-285.559	580.442	-0.138	-0.332
-284.545	-159.954	-0.175	0.009
-283.530	-200.000	0.013	-0.123
-282.516	-30.742	-0.234	0.130
-281.501	-126.445	0.165	-0.024
-280.486	-200.000	0.015	0.228
-279.472	75.859	0.148	-0.154
-278.457	-6.391	-0.098	-0.066
-277.443	-200.000	-0.006	-0.137
-276.428	-62.231	0.079	0.032
-275.413	-200.000	0.006	0.090
-274.399	-94.747	-0.239	-0.064
-273.384	87.514	-0.133	-0.145
-272.370	-200.000	-0.018	0.159
-271.355	-2.537	-0.186	-0.128
-270.340	-69.538	0.229	-0.086
-269.326	-46.024	-0.186	-0.090
-268.311	-14.779	-0.192	0.121
-267.297	-87.987	-0.298	0.088
-266.282	-72.246	0.102	0.037
-265.267	-166.407	0.157	0.006
-264.253	94.598	-0.300	0.336
-263.238	-200.000	0.046	0.271
-262.224	78.289	-0.312	-0.327
-261.209	-14.118	-0.102	-0.064
-260.195	-200.000	0.003	-0.081
-259.180	-200.000	0.010	-0.272
-258.165	62.844	-0.177	0.174
-257.151	-68.620	-0.068	0.026
-256.136	81.863	0.073	0.078
-255.122	-14.214	-0.238	-0.151
-254.107	800.000	0.079	-0.331
-253.092	-135.722	0.083	-0.010
-252.078	-41.692	-0.247	0.125
-251.063	-58.296	-0.315	0.135
-250.049	327.063	0.115	0.216
-249.034	-1.699	0.346	0.240
-248.019	-200.000	-0.037	0.207
-247.005	-200.000	-0.012	0.234
-245.990	-200.000	-0.062	0.303
-244.976	-200.000	-0.014	0.125
-243.961	64.445	-0.050	0.049
-242.946	-79.006	0.246	0.082
-241.932	-153.222	-0.141	0.010
-240.917	338.548	-0.089	-0.170
-239.903	-15.372	-0.057	-0.036
-238.888	4.748	0.328	0.237
-237.873	46.397	-0.123	-0.112
-236.859	308.732	-0.220	-0.404
-235.844	-200.000	-0.067	0.331
-234.830	-62.015	0.139	-0.057
-233.815	-147.196	-0.254	0.021
-232.800	199.034	-0.071	-0.106
-231.786	-183.981	0.390	0.006
-230.771	-200.000	-0.027	-0.236
-229.757	-200.000	-0.024	-0.277
-228.742	800.000	-0.029	-0.081
-227.727	6.285	-0.015	0.011
-226.713	-200.000	0.083	-0.357
-225.698	-55.146	-0.147	0.065
-224.684	-200.000	-0.027	0.168
-223.669	-159.717	0.466	0.025
-222.655	-39.238	-0.426	0.220
-221.640	-69.603	0.081	0.030
-220.625	-200.000	0.080	-0.425
-219.611	146.714	-0.119	-0.157
-218.596	8.376	0.247	-0.182
-217.582	-106.731	-0.293	-0.064
-216.567	-20.866	0.052	0.032
-215.552	800.000	0.084	0.246
-214.538	-115.045	0.367	-0.068
-213.523	-85.427	-0.106	-0.032
-212.509	86.985	-0.044	0.047
-211.494	-200.000	-0.015	-0.099
-210.479	149.318	0.089	-0.118
-209.465	800.000	0.133	-0.364
-208.450	-80.365	0.211	0.069
-207.436	493.333	0.084	-0.189
-206.421	70.389	0.128	-0.130
-205.406	-126.521	0.217	0.032
-204.392	37.801	0.157	0.137
-203.377	461.010	0.038	0.083
-202.363	113.493	-0.257	0.306
-201.348	7.803	-0.147	0.108
-200.333	14.956	-0.254	0.195
-199.319	-183.414	0.206	-0.004
-198.304	89.618	-0.095	-0.104
-197.290	-154.618	0.182	0.012
-196.275	229.077	-0.083	0.134
-195.260	-56.123	-0.040	0.017
-194.246	57.817	0.216	-0.207
-193.231	-62.722	-0.348	0.141
-192.217	-19.656	0.282	-0.171
-191.202	-200.000	-0.013	0.221
-190.187	135.907	0.179	0.228
-189.173	-27.526	-0.198	-0.113
-188.158	87.499	-0.258	-0.280
-187.144	15.977	-0.155	-0.120
-186.129	-73.021	0.242	0.087
-185.114	-144.024	-0.302	0.028
-184.100	-90.749	-0.125	0.035
-183.085	73.551	0.083	0.085
-182.071	800.000	0.138	-0.385
-181.056	-83.642	-0.195	-0.061
-180.042	-141.393	-0.059	0.006
-179.027	25.769	0.309	0.252
-178.012	639.930	-0.064	-0.159
-176.998	-112.658	0.240	-0.047
-175.983	141.666	-0.107	0.139
-174.969	-138.246	0.210	-0.023
-173.954	-200.000	0.043	0.268
-172.939	-167.451	0.228	0.009
-171.925	163.050	0.093	0.129
-170.910	800.000	-0.062	0.219
-169.896	-200.000	0.048	0.537
-168.881	-77.633	0.330	-0.112
-167.866	140.514	0.234	-0.302
-166.852	221.786	0.084	0.133
-165.837	13.529	-0.317	-0.241
-164.823	-200.000	-0.058	-0.276
-163.808	142.423	-0.193	-0.251
-162.793	-153.176	0.105	-0.007
-161.779	-16.375	-0.201	0.125
-160.764	-112.798	-0.164	0.032
-159.750	-89.730	-0.103	-0.029
-158.735	127.155	0.125	0.156
-157.720	-91.412	0.134	0.038
-156.706	24.669	0.323	-0.262
-155.691	-200.000	0.013	-0.094
-154.677	-65.401	0.087	-0.034
-153.662	-200.000	-0.016	-0.303
-152.647	-200.000	-0.020	-0.330
-151.633	78.565	-0.404	0.422
-150.618	419.873	-0.041	-0.085
-149.604	281.131	-0.171	0.299
-148.589	-116.719	0.184	-0.033
-147.574	-89.435	-0.048	0.014
-146.560	-177.156	0.381	-0.009
-145.545	-30.896	-0.243	0.135
-144.531	-200.000	-0.031	-0.185
-143.516	530.645	0.015	0.034
-142.502	19.670	0.148	-0.117
-141.487	-166.984	-0.447	0.018
-140.472	-158.294	-0.189	-0.011
-139.458	150.922	0.284	-0.377
-138.443	137.726	-0.111	0.143
-137.429	97.617	-0.232	-0.261
-136.414	800.000	0.027	-0.095
-135.399	180.950	-0.097	-0.139
-134.385	33.459	-0.099	-0.084
-133.370	800.000	0.063	0.199
-132.356	351.487	-0.108	0.210
-131.341	227.837	0.192	-0.305
-130.326	74.764	0.010	0.010
-129.312	394.206	0.055	0.112
-128.297	-133.010	0.393	0.049
-127.283	21.262	-0.183	-0.145
-126.268	342.486	-0.166	0.318
-125.253	149.431	0.189	-0.251
-124.239	227.274	-0.194	-0.309
-123.224	-27.755	-0.082	-0.046
-122.210	-200.000	-0.018	0.600
-121.195	800.000	0.117	0.323
