DTS Sentinel unit serial number:	SN413079Multiplexer serial number:	ORYXHardware model number:	OX4-SRSoftware version number:	ORYX F/W v4.00 Oryx Data Collector v3.7.2.0data status	okinstallation	princeton_trtdifferential loss correction	single-endedforward channel	channel 1reverse channel	N/Adate	2019/09/17time	03:50:35forward acquisition time	60.00reverse acquisition time	0.00gamma	496.2192k internal	0.2323k external	0.2323temperature offset calibration	0.9963default loss term (dB/km)	0.3790temperature slope calibration	1.0000multiplexer offset coefficient	1.0000multiplexer slope coefficient	1.0000fibre end	0.00T internal ref (°C)	29.94T ext. ref 1 (°C)	0.13T ext. ref 2 (°C)	24.44length (m)	temperature (°C)	Stokes	anti-Stokes-747.200	67.562	-0.173	0.178
-746.185	-40.876	-0.169	0.088
-745.171	314.228	0.029	0.055
-744.156	-39.779	-0.108	-0.057
-743.142	-129.467	0.374	-0.052
-742.127	-56.618	-0.194	0.087
-741.112	-200.000	0.014	0.204
-740.098	800.000	-0.019	0.073
-739.083	-149.809	0.086	-0.007
-738.069	189.255	-0.264	0.399
-737.054	-129.896	-0.130	-0.018
-736.039	800.000	-0.097	-0.424
-735.025	-33.440	0.131	0.073
-734.010	-50.509	-0.311	-0.148
-732.996	-177.927	0.320	-0.008
-731.981	-112.438	-0.020	-0.004
-730.966	-200.000	-0.034	0.200
-729.952	-200.000	-0.034	-0.160
-728.937	-200.000	0.007	0.130
-727.923	147.558	-0.144	0.195
-726.908	-24.213	-0.144	0.087
-725.894	-10.980	-0.183	0.122
-724.879	-200.000	-0.024	-0.321
-723.864	22.989	-0.072	-0.060
-722.850	-200.000	-0.019	0.399
-721.835	-161.180	-0.222	-0.012
-720.821	800.000	0.051	-0.211
-719.806	153.589	-0.104	-0.144
-718.791	748.023	0.149	-0.405
-717.777	-185.459	-0.362	-0.006
-716.762	724.848	-0.055	-0.149
-715.748	59.523	0.161	-0.160
-714.733	259.795	0.069	0.121
-713.718	-36.212	0.199	-0.108
-712.704	182.695	-0.257	-0.383
-711.689	82.258	0.193	-0.211
-710.675	800.000	0.041	0.137
-709.660	-200.000	0.009	-0.256
-708.645	-122.301	-0.355	0.059
-707.631	-41.965	-0.248	0.128
-706.616	800.000	-0.128	-0.426
-705.602	258.641	-0.119	-0.206
-704.587	-96.219	-0.342	0.092
-703.572	504.679	-0.032	-0.075
-702.558	669.159	-0.081	-0.213
-701.543	72.490	-0.087	0.091
-700.529	47.947	-0.329	-0.310
-699.514	12.229	-0.258	0.200
-698.499	-91.160	-0.336	-0.097
-697.485	-102.839	-0.092	-0.022
-696.470	-124.734	0.414	-0.065
-695.456	800.000	-0.069	-0.199
-694.441	-200.000	0.045	-0.386
-693.426	-116.152	-0.012	0.002
-692.412	-69.558	-0.391	-0.151
-691.397	-23.952	0.190	-0.115
-690.383	-23.824	-0.168	-0.101
-689.368	800.000	-0.097	0.298
-688.354	-73.493	-0.311	0.115
-687.339	82.482	-0.065	0.071
-686.324	34.548	0.008	0.007
-685.310	80.735	0.229	-0.249
-684.295	-76.400	-0.086	0.030
-683.281	21.905	-0.113	0.093
-682.266	800.000	0.071	0.214
-681.251	56.142	-0.082	0.080
-680.237	-0.680	-0.045	0.032
-679.222	-200.000	-0.032	0.384
-678.208	-18.509	0.056	0.035
-677.193	-65.710	-0.172	-0.069
-676.178	-126.528	0.326	0.049
-675.164	6.587	-0.170	-0.127
-674.149	-93.296	-0.341	0.095
-673.135	131.676	0.209	0.270
-672.120	483.738	0.094	0.215
-671.105	556.117	0.098	0.238
-670.091	-200.000	-0.063	-0.304
-669.076	-200.000	0.012	-0.508
-668.062	253.849	0.086	-0.148
-667.047	-2.089	0.019	-0.014
-666.032	-200.000	-0.029	-0.279
-665.018	29.811	0.034	0.029
-664.003	-200.000	0.026	0.155
-662.989	-144.089	0.132	-0.012
-661.974	-6.411	0.137	-0.094
-660.959	105.251	-0.133	-0.158
-659.945	-40.025	0.112	-0.059
-658.930	800.000	0.010	-0.039
-657.916	-200.000	0.082	0.412
-656.901	-200.000	0.028	0.176
-655.886	-200.000	-0.004	-0.221
-654.872	384.800	-0.163	-0.338
-653.857	-139.418	0.052	0.006
-652.843	-150.248	-0.192	-0.015
-651.828	800.000	0.144	-0.626
-650.814	-107.059	0.268	0.060
-649.799	294.001	0.144	0.265
-648.784	32.369	-0.592	-0.515
-647.770	14.721	-0.365	0.287
-646.755	-185.680	-0.241	-0.004
-645.741	405.766	-0.127	0.268
-644.726	-72.046	0.289	-0.108
-643.711	78.852	0.079	-0.085
-642.697	168.636	-0.054	0.078
-641.682	-54.491	0.183	0.084
-640.668	800.000	0.069	0.205
-639.653	-99.911	0.211	-0.053
-638.638	-200.000	-0.011	0.140
-637.624	4.396	0.111	-0.082
-636.609	-158.729	-0.218	0.013
-635.595	153.031	0.112	0.154
-634.580	-128.798	0.038	0.005
-633.565	689.430	0.110	-0.289
-632.551	29.241	0.104	0.088
-631.536	-85.955	-0.016	0.005
-630.522	296.303	-0.165	-0.305
-629.507	1.496	0.072	0.052
-628.492	-32.022	0.269	0.151
-627.478	-37.073	-0.065	0.035
-626.463	800.000	-0.054	-0.194
-625.449	-200.000	-0.023	-0.238
-624.434	-7.355	0.263	-0.179
-623.419	423.252	-0.034	0.073
-622.405	-200.000	-0.018	-0.257
-621.390	43.728	-0.060	0.055
-620.376	89.669	-0.095	0.107
-619.361	111.763	0.161	-0.196
-618.346	25.265	-0.250	-0.209
-617.332	430.696	-0.084	-0.182
-616.317	-200.000	0.016	-0.112
-615.303	223.021	-0.084	-0.137
-614.288	-200.000	-0.021	0.337
-613.273	-135.237	-0.324	0.039
-612.259	-100.639	-0.193	-0.048
-611.244	309.085	0.104	0.196
-610.230	-89.268	0.119	-0.035
-609.215	454.286	-0.139	-0.310
-608.201	-33.782	0.290	0.160
-607.186	800.000	0.071	-0.283
-606.171	-200.000	-0.036	-0.265
-605.157	-200.000	-0.017	-0.313
-604.142	800.000	-0.006	-0.026
-603.128	390.903	0.037	-0.076
-602.113	-109.694	0.091	0.019
-601.098	-107.320	-0.415	0.092
-600.084	100.260	-0.163	-0.190
-599.069	-200.000	-0.001	0.419
-598.055	148.273	0.197	0.267
-597.040	800.000	0.022	-0.069
-596.025	413.526	0.088	0.188
-595.011	-162.514	0.192	-0.010
-593.996	-65.821	-0.303	-0.122
-592.982	37.708	-0.203	-0.181
-591.967	-3.696	0.075	-0.052
-590.952	155.625	0.125	-0.173
-589.938	-63.167	-0.266	0.110
-588.923	800.000	0.098	-0.319
-587.909	-56.320	0.188	-0.084
-586.894	-16.979	0.240	0.152
-585.879	-82.811	-0.231	-0.075
-584.865	600.488	-0.066	-0.165
-583.850	-46.986	-0.246	0.121
-582.836	113.541	0.159	-0.193
-581.821	38.687	-0.161	0.144
-580.806	624.669	-0.037	0.094
-579.792	-200.000	-0.057	-0.353
-578.777	-45.176	-0.137	-0.068
-577.763	221.848	0.045	-0.073
-576.748	800.000	0.042	0.159
-575.733	-126.950	0.146	-0.021
-574.719	-160.654	0.145	-0.008
-573.704	-150.935	0.025	-0.002
-572.690	800.000	-0.072	-0.228
-571.675	-13.335	-0.222	-0.144
-570.661	68.353	-0.184	-0.190
-569.646	234.470	-0.163	-0.269
-568.631	-189.219	-0.462	-0.005
-567.617	-45.352	-0.355	-0.177
-566.602	-63.734	0.520	0.214
-565.588	461.629	-0.042	0.095
-564.573	-81.654	-0.269	0.089
-563.558	46.187	0.163	-0.151
-562.544	-84.845	0.213	-0.067
-561.529	-91.117	-0.285	-0.082
-560.515	102.118	-0.333	0.390
-559.500	348.381	0.210	-0.416
-558.485	57.057	-0.129	-0.126
-557.471	722.771	0.081	0.217
-556.456	-200.000	-0.013	-0.123
-555.442	441.582	0.158	-0.346
-554.427	-171.120	0.179	-0.006
-553.412	127.832	-0.215	0.274
-552.398	-79.765	-0.115	0.039
-551.383	-200.000	-0.005	-0.178
-550.369	354.328	-0.033	-0.066
-549.354	-171.658	0.110	-0.004
-548.339	-63.846	0.210	0.086
-547.325	92.718	0.134	0.151
-546.310	800.000	0.093	-0.305
-545.296	-200.000	-0.023	0.102
-544.281	13.793	0.143	-0.111
-543.266	800.000	-0.038	0.152
-542.252	-200.000	0.009	-0.075
-541.237	148.152	-0.136	0.184
-540.223	-200.000	-0.053	-0.359
-539.208	-31.223	0.105	0.059
-538.193	127.344	-0.150	0.191
-537.179	416.531	0.058	0.124
-536.164	-130.691	-0.237	0.032
-535.150	52.367	-0.031	0.029
-534.135	334.165	0.087	0.170
-533.121	-80.852	-0.272	0.090
-532.106	-20.457	-0.222	-0.137
-531.091	-200.000	-0.003	0.042
-530.077	368.351	-0.091	-0.185
-529.062	-92.422	-0.311	-0.088
-528.048	-115.985	-0.107	0.020
-527.033	85.799	-0.041	-0.045
-526.018	-89.577	-0.324	0.095
-525.004	137.411	0.333	0.436
-523.989	-5.334	0.266	0.183
-522.975	-200.000	-0.027	-0.336
-521.960	-200.000	0.050	-0.270
-520.945	-56.154	0.198	0.088
-519.931	-73.656	0.209	-0.076
-518.916	129.071	0.159	0.203
-517.902	-200.000	-0.010	-0.102
-516.887	573.814	-0.111	-0.271
-515.872	535.079	0.181	-0.429
-514.858	800.000	-0.049	-0.140
-513.843	-40.624	0.275	-0.142
-512.829	12.086	0.175	-0.135
-511.814	-42.308	0.220	0.112
-510.799	198.426	0.124	-0.190
-509.785	275.285	0.213	0.377
-508.770	39.496	0.276	0.247
-507.756	-200.000	0.017	0.130
-506.741	6.489	0.175	-0.130
-505.726	-5.276	0.207	-0.142
-504.712	224.214	-0.090	0.146
-503.697	-101.684	-0.229	0.056
-502.683	-138.238	0.162	0.018
-501.668	73.185	-0.183	0.191
-500.653	-111.391	-0.412	0.084
-499.639	48.698	0.061	-0.057
-498.624	800.000	0.057	-0.167
-497.610	-68.312	-0.082	-0.032
-496.595	800.000	0.048	-0.177
-495.581	18.969	0.072	0.057
-494.566	16.928	0.237	0.188
-493.551	-53.885	0.124	-0.056
-492.537	47.211	-0.177	-0.164
-491.522	477.995	0.199	-0.451
-490.508	32.738	0.319	-0.276
-489.493	-134.827	-0.099	0.012
-488.478	230.050	-0.206	-0.337
-487.464	800.000	0.066	-0.198
-486.449	-14.394	-0.319	0.205
-485.435	619.219	-0.129	0.325
-484.420	-94.797	-0.279	-0.076
-483.405	-68.998	0.177	0.068
-482.391	485.246	-0.084	0.192
-481.376	-78.014	0.069	0.024
-480.362	-6.785	-0.363	0.247
-479.347	800.000	0.098	0.275
-478.332	800.000	-0.036	-0.152
-477.318	-13.275	0.125	-0.081
-476.303	-200.000	0.087	0.463
-475.289	-55.370	0.317	-0.142
-474.274	-200.000	-0.074	0.402
-473.259	-83.378	-0.198	-0.063
-472.245	-13.858	-0.159	-0.102
-471.230	800.000	-0.016	0.065
-470.216	-200.000	-0.016	0.150
-469.201	-101.801	-0.317	-0.077
-468.186	-200.000	-0.020	-0.217
-467.172	101.036	-0.056	-0.066
-466.157	-59.039	0.222	-0.096
-465.143	-131.183	-0.025	-0.003
-464.128	74.732	0.067	-0.071
-463.113	53.899	-0.205	0.197
-462.099	115.305	-0.273	-0.333
-461.084	800.000	-0.066	0.210
-460.070	412.692	-0.095	-0.202
-459.055	46.153	-0.316	-0.292
-458.040	250.432	-0.161	0.273
-457.026	-200.000	0.017	0.396
-456.011	197.498	-0.044	-0.066
-454.997	-124.952	0.338	0.052
-453.982	-66.853	0.316	0.125
-452.968	-103.288	0.081	0.019
-451.953	-126.496	-0.215	-0.032
-450.938	-20.623	0.142	0.087
-449.924	800.000	-0.066	0.188
-448.909	-10.447	-0.210	0.139
-447.895	382.945	-0.163	-0.335
-446.880	-200.000	-0.001	-0.318
-445.865	800.000	0.107	0.304
-444.851	-137.754	-0.167	0.019
-443.836	60.053	-0.132	0.130
-442.822	421.104	0.133	-0.284
-441.807	-99.919	-0.255	0.064
-440.792	800.000	-0.081	0.239
-439.778	322.042	-0.130	-0.246
-438.763	132.020	-0.305	-0.392
-437.749	-200.000	-0.024	0.264
-436.734	-90.443	-0.189	-0.055
-435.719	-49.722	-0.118	0.056
-434.705	-33.753	-0.182	0.100
-433.690	-90.452	0.143	-0.041
-432.676	-90.467	0.090	0.026
-431.661	-200.000	0.007	0.030
-430.646	-101.069	-0.177	0.043
-429.632	-42.589	-0.098	-0.050
-428.617	-200.000	-0.002	0.263
-427.603	-200.000	-0.017	-0.100
-426.588	58.540	-0.059	0.058
-425.573	-86.610	0.077	0.024
-424.559	-99.244	-0.129	0.033
-423.544	800.000	-0.056	0.205
-422.530	-130.715	-0.304	0.041
-421.515	-200.000	0.014	0.353
-420.500	-132.623	-0.290	-0.037
-419.486	530.862	-0.083	-0.196
-418.471	111.495	-0.099	0.120
-417.457	374.862	-0.162	0.330
-416.442	44.215	0.090	0.082
-415.428	230.007	0.189	-0.309
-414.413	211.316	-0.079	-0.124
-413.398	-60.703	0.089	0.038
-412.384	123.463	0.014	-0.018
-411.369	261.637	0.014	-0.025
-410.355	-194.471	-0.150	0.001
-409.340	100.741	0.123	0.142
-408.325	-6.898	-0.288	-0.195
-407.311	62.984	0.067	0.067
-406.296	-112.761	0.164	0.033
-405.282	69.471	0.063	-0.065
-404.267	-21.349	-0.350	-0.213
-403.252	-56.443	0.044	-0.020
-402.238	800.000	-0.131	-0.471
-401.223	800.000	-0.072	-0.199
-400.209	139.087	-0.125	0.164
-399.194	-164.925	-0.205	-0.009
-398.179	-200.000	-0.013	0.172
-397.165	-104.660	-0.203	-0.047
-396.150	-38.218	0.160	0.085
-395.136	94.113	0.339	0.383
-394.121	-71.365	0.162	0.060
-393.106	109.459	-0.112	-0.133
-392.092	800.000	0.025	-0.080
-391.077	324.331	0.095	-0.180
-390.063	588.131	0.057	-0.139
-389.048	-200.000	-0.009	-0.084
-388.033	-126.796	0.108	-0.016
-387.019	153.888	-0.212	-0.289
-386.004	306.386	0.103	0.192
-384.990	379.194	-0.032	0.064
-383.975	800.000	-0.016	-0.050
-382.960	800.000	0.051	0.155
-381.946	-200.000	-0.042	0.492
-380.931	243.042	0.110	-0.184
-379.917	-154.643	-0.455	0.030
-378.902	86.596	-0.077	0.085
-377.888	-24.166	-0.197	-0.117
-376.873	172.262	-0.145	-0.208
-375.858	313.065	0.044	-0.082
-374.844	-70.543	0.335	0.126
-373.829	-144.261	-0.328	-0.030
-372.815	350.103	-0.120	-0.236
-371.800	-200.000	0.043	-0.218
-370.785	361.167	-0.096	-0.192
-369.771	72.413	-0.189	-0.196
-368.756	739.272	-0.104	-0.278
-367.742	190.056	-0.074	0.110
-366.727	151.545	-0.160	0.216
-365.712	32.554	0.230	0.198
-364.698	-101.045	-0.097	0.024
-363.683	2.675	-0.113	-0.082
-362.669	-124.374	-0.116	0.018
-361.654	138.314	0.268	0.349
-360.639	416.211	0.064	0.136
-359.625	-151.447	-0.125	0.009
-358.610	-200.000	-0.024	0.312
-357.596	-33.284	-0.291	0.160
-356.581	-200.000	-0.037	-0.170
-355.566	-151.540	0.280	0.021
-354.552	-58.964	-0.319	0.137
-353.537	-200.000	0.023	0.374
-352.523	-92.787	-0.285	-0.079
-351.508	-91.856	0.068	-0.019
-350.493	-91.018	0.196	0.056
-349.479	9.934	-0.380	0.287
-348.464	-113.711	-0.048	-0.009
-347.450	-200.000	-0.040	0.353
-346.435	74.377	0.182	0.191
-345.420	-14.074	0.204	0.131
-344.406	235.065	-0.056	-0.092
-343.391	237.231	0.114	0.188
-342.377	-60.175	-0.043	0.018
-341.362	-57.130	0.204	0.089
-340.348	-200.000	-0.016	0.289
-339.333	-200.000	-0.006	0.129
-338.318	74.249	0.139	0.145
-337.304	24.021	-0.088	-0.072
-336.289	-178.307	0.246	-0.006
-335.275	-200.000	0.005	0.129
-334.260	800.000	-0.101	0.337
-333.245	-62.055	-0.213	0.088
-332.231	275.475	-0.120	-0.212
-331.216	174.628	-0.148	-0.213
-330.202	800.000	0.077	0.268
-329.187	-71.555	0.197	-0.073
-328.172	-143.812	-0.197	0.018
-327.158	-96.880	-0.077	-0.020
-326.143	206.026	-0.121	0.187
-325.129	800.000	0.212	0.664
-324.114	-9.425	0.148	0.098
-323.099	-200.000	-0.096	0.471
-322.085	47.768	0.168	0.155
-321.070	294.539	0.096	-0.175
-320.056	20.847	0.164	0.132
-319.041	-144.215	-0.199	0.018
-318.026	-200.000	0.017	-0.289
-317.012	-4.204	0.083	0.057
-315.997	224.676	0.143	0.229
-314.983	-100.559	0.053	0.013
-313.968	-53.711	-0.122	-0.055
-312.953	800.000	-0.053	-0.196
-311.939	100.441	0.166	-0.192
-310.924	-136.893	0.186	0.021
-309.910	-117.144	0.322	0.058
-308.895	168.872	0.299	-0.423
-307.880	-78.952	0.360	-0.122
-306.866	48.258	-0.118	0.110
-305.851	-200.000	-0.031	0.253
-304.837	-200.000	-0.024	0.110
-303.822	376.394	-0.122	-0.247
-302.807	-7.637	0.144	-0.097
-301.793	536.037	-0.133	0.313
-300.778	-117.186	-0.077	-0.014
-299.764	-82.774	-0.311	0.100
-298.749	-200.000	0.017	-0.274
-297.735	41.316	0.380	-0.341
-296.720	-4.431	0.250	-0.172
-295.705	-91.492	0.254	-0.072
-294.691	223.665	-0.220	-0.352
-293.676	83.787	-0.372	-0.403
-292.662	-54.024	-0.099	-0.045
-291.647	-200.000	-0.055	-0.261
-290.632	341.765	0.106	-0.207
-289.618	194.628	0.194	0.291
-288.603	800.000	-0.032	-0.111
-287.589	-99.401	0.361	0.090
-286.574	166.833	-0.267	0.376
-285.559	-200.000	0.002	-0.032
-284.545	33.281	0.099	-0.085
-283.530	-200.000	0.034	-0.310
-282.516	570.656	-0.065	0.158
-281.501	-92.907	-0.243	-0.067
-280.486	-97.929	-0.161	0.041
-279.472	-130.873	0.357	-0.047
-278.457	494.673	0.112	0.255
-277.443	-200.000	0.026	-0.195
-276.428	-115.651	0.280	0.052
-275.413	-37.908	0.106	-0.056
-274.399	95.252	0.109	-0.123
-273.384	2.860	-0.029	0.021
-272.370	20.313	0.055	-0.044
-271.355	465.534	0.044	-0.097
-270.340	-200.000	0.011	-0.135
-269.326	800.000	-0.118	0.415
-268.311	-80.724	-0.176	-0.058
-267.297	-200.000	0.017	-0.115
-266.282	800.000	-0.063	0.268
-265.267	800.000	0.076	0.266
-264.253	800.000	0.028	0.114
-263.238	-185.913	-0.217	0.003
-262.224	-153.353	-0.039	-0.003
-261.209	-18.326	0.190	-0.118
-260.195	-64.601	-0.127	-0.051
-259.180	-170.059	-0.352	-0.012
-258.165	-65.003	0.091	-0.037
-257.151	-200.000	0.291	0.001
-256.136	227.925	0.135	0.218
-255.122	-200.000	0.021	0.098
-254.107	-48.405	-0.239	-0.114
-253.092	14.349	0.216	-0.167
-252.078	-200.000	0.026	0.203
-251.063	-200.000	-0.017	0.192
-250.049	-23.144	0.163	-0.097
-249.034	800.000	-0.094	-0.310
-248.019	800.000	0.179	0.509
-247.005	800.000	-0.088	-0.270
-245.990	-138.888	-0.250	0.027
-244.976	-45.673	0.237	-0.116
-243.961	294.504	0.053	-0.097
-242.946	-200.000	-0.035	-0.161
-241.932	175.502	0.157	-0.225
-240.917	133.476	-0.089	0.114
-239.903	763.628	0.054	0.144
-238.888	-167.369	-0.099	0.004
-237.873	244.639	0.191	-0.318
-236.859	13.374	-0.327	-0.251
-235.844	800.000	0.096	0.287
-234.830	98.227	0.137	0.156
-233.815	13.820	-0.039	-0.030
-232.800	-34.730	0.308	-0.167
-231.786	-200.000	0.024	-0.146
-230.771	-20.165	-0.071	-0.043
-229.757	800.000	-0.043	0.157
-228.742	-151.397	-0.288	-0.021
-227.727	-200.000	-0.004	0.041
-226.713	61.463	-0.198	0.195
-225.698	-104.376	0.183	-0.042
-224.684	-83.910	0.389	0.122
-223.669	233.975	-0.193	-0.315
-222.655	800.000	0.038	0.112
-221.640	800.000	0.023	0.071
-220.625	-113.718	0.342	-0.066
-219.611	293.298	0.050	0.091
-218.596	-74.235	0.268	0.096
-217.582	240.458	0.064	-0.105
-216.567	-173.554	0.127	0.004
-215.552	-200.000	-0.017	-0.084
-214.538	58.459	0.030	-0.029
-213.523	-200.000	0.009	0.232
-212.509	-14.123	-0.131	-0.084
-211.494	-87.633	0.317	-0.095
-210.479	48.840	0.213	0.197
-209.465	-81.985	0.459	-0.148
-208.450	63.546	-0.122	0.121
-207.436	-59.775	0.355	0.150
-206.421	-101.374	0.156	-0.038
-205.406	-200.000	-0.018	-0.335
-204.392	469.427	-0.130	-0.289
-203.377	-52.130	-0.089	-0.041
-202.363	-200.000	-0.045	0.285
-201.348	-200.000	0.019	-0.104
-200.333	83.621	0.124	-0.134
-199.319	-177.744	0.299	-0.007
-198.304	18.484	0.115	0.091
-197.290	-52.796	0.252	0.115
-196.275	686.676	0.122	-0.315
-195.260	32.626	0.083	-0.071
-194.246	651.142	-0.082	0.208
-193.231	-94.980	-0.231	-0.062
-192.217	2.564	-0.241	0.173
-191.202	278.626	0.029	0.051
-190.187	-200.000	0.038	0.253
-189.173	-200.000	-0.061	-0.329
-188.158	-9.692	0.247	-0.162
-187.144	133.761	0.121	0.155
-186.129	800.000	0.144	-0.406
-185.114	174.611	-0.104	-0.149
-184.100	67.516	0.170	0.171
-183.085	-44.151	0.221	0.110
-182.071	800.000	0.102	-0.305
-181.056	800.000	0.069	-0.214
-180.042	-200.000	0.049	0.366
-179.027	-154.606	-0.081	0.005
-178.012	-200.000	0.008	-0.186
-176.998	233.338	-0.207	-0.336
-175.983	-169.976	-0.301	0.011
-174.969	-69.727	0.187	0.071
-173.954	800.000	-0.032	0.093
-172.939	-13.815	0.138	-0.088
-171.925	-177.889	0.279	0.007
-170.910	-62.228	-0.199	0.082
-169.896	-200.000	0.012	-0.158
-168.881	800.000	-0.125	0.461
-167.866	800.000	-0.038	0.103
-166.852	79.597	-0.029	-0.030
-165.837	-26.371	0.133	0.077
-164.823	-62.057	0.525	-0.217
-163.808	-113.225	0.016	0.003
-162.793	175.153	-0.100	-0.143
-161.779	-186.326	0.484	0.007
-160.764	26.057	-0.179	0.147
-159.750	-109.482	0.200	0.042
-158.735	680.574	0.086	0.220
-157.720	789.656	0.114	0.310
-156.706	30.524	-0.106	0.089
-155.691	580.108	-0.071	0.172
-154.677	-74.622	0.196	-0.070
-153.662	800.000	-0.101	0.346
-152.647	-200.000	-0.011	0.258
-151.633	800.000	0.152	0.471
-150.618	378.120	0.130	-0.263
-149.604	-94.804	-0.107	-0.029
-148.589	339.981	0.075	0.144
-147.574	9.507	0.228	-0.171
-146.560	26.101	0.032	0.026
-145.545	19.001	0.070	0.055
-144.531	-200.000	0.016	-0.118
-143.516	800.000	0.076	0.232
-142.502	573.595	-0.015	-0.036
-141.487	-0.228	0.091	-0.064
-140.472	-66.658	-0.057	0.022
-139.458	800.000	-0.028	0.107
-138.443	69.191	-0.163	0.166
-137.429	-180.481	-0.236	0.005
-136.414	-150.258	-0.378	-0.029
-135.399	16.700	-0.055	0.043
-134.385	162.445	-0.119	-0.164
-133.370	590.553	-0.103	-0.250
-132.356	800.000	-0.142	0.486
-131.341	-147.222	-0.153	0.013
-130.326	-151.460	0.489	0.036
-129.312	-40.280	-0.135	-0.069
-128.297	-200.000	0.062	0.291
-127.283	60.444	-0.081	0.079
-126.268	800.000	-0.120	0.390
-125.253	-200.000	-0.041	-0.236
-124.239	-200.000	0.015	-0.256
-123.224	-32.448	-0.293	0.161
-122.210	-83.928	-0.286	-0.090
