DTS Sentinel unit serial number:	SN413079Multiplexer serial number:	ORYXHardware model number:	OX4-SRSoftware version number:	ORYX F/W v4.00 Oryx Data Collector v3.7.2.0data status	okinstallation	princeton_trtdifferential loss correction	single-endedforward channel	channel 1reverse channel	N/Adate	2019/09/17time	06:14:35forward acquisition time	60.00reverse acquisition time	0.00gamma	496.2192k internal	0.2326k external	0.2326temperature offset calibration	0.9970default loss term (dB/km)	0.3790temperature slope calibration	1.0000multiplexer offset coefficient	1.0000multiplexer slope coefficient	1.0000fibre end	0.00T internal ref (°C)	28.50T ext. ref 1 (°C)	0.13T ext. ref 2 (°C)	21.89length (m)	temperature (°C)	Stokes	anti-Stokes-747.200	146.398	0.141	-0.191
-746.185	134.829	-0.164	0.214
-745.171	800.000	-0.040	-0.172
-744.156	-119.018	-0.235	-0.042
-743.142	12.141	-0.085	-0.066
-742.127	3.609	-0.287	0.211
-741.112	-200.000	0.055	-0.302
-740.098	-94.827	-0.153	0.042
-739.083	45.625	-0.242	0.225
-738.069	-200.000	0.112	0.598
-737.054	247.068	-0.049	0.083
-736.039	-138.051	-0.164	-0.018
-735.025	37.814	0.130	-0.116
-734.010	800.000	-0.096	-0.418
-732.996	-200.000	-0.035	-0.325
-731.981	252.406	-0.013	0.023
-730.966	272.001	0.041	-0.074
-729.952	788.343	0.106	-0.292
-728.937	-200.000	-0.030	-0.136
-727.923	-87.181	-0.345	-0.106
-726.908	800.000	0.040	-0.169
-725.894	92.320	-0.083	0.094
-724.879	-54.666	0.085	-0.039
-723.864	-200.000	-0.050	-0.355
-722.850	74.335	0.293	-0.310
-721.835	370.620	0.069	0.142
-720.821	57.937	-0.128	-0.126
-719.806	542.805	-0.056	0.135
-718.791	-58.095	-0.257	-0.113
-717.777	-115.302	0.115	-0.022
-716.762	664.563	-0.212	-0.552
-715.748	-46.012	0.089	0.044
-714.733	-200.000	-0.048	0.238
-713.718	800.000	0.043	0.134
-712.704	-28.352	0.289	-0.168
-711.689	297.258	-0.143	-0.265
-710.675	-89.697	0.071	-0.021
-709.660	-161.743	0.050	0.003
-708.645	-200.000	-0.007	-0.174
-707.631	78.648	-0.036	-0.038
-706.616	-200.000	-0.011	-0.446
-705.602	-157.238	0.084	0.005
-704.587	509.601	-0.014	0.034
-703.572	-142.351	0.152	-0.015
-702.558	47.771	0.176	-0.165
-701.543	-200.000	0.002	-0.045
-700.529	534.414	-0.149	-0.355
-699.514	50.759	0.102	-0.097
-698.499	-91.253	0.332	-0.096
-697.485	153.599	-0.215	-0.296
-696.470	151.372	-0.139	0.190
-695.456	-200.000	0.003	0.442
-694.441	-200.000	-0.015	-0.303
-693.426	-116.738	-0.198	0.037
-692.412	309.196	-0.143	-0.270
-691.397	-91.089	0.177	-0.051
-690.383	-80.573	-0.014	0.005
-689.368	800.000	0.028	0.105
-688.354	68.263	0.193	0.199
-687.339	130.528	-0.237	-0.305
-686.324	436.531	-0.186	-0.407
-685.310	150.672	0.204	-0.279
-684.295	284.913	-0.068	0.123
-683.281	-77.884	-0.045	0.016
-682.266	-159.330	0.220	0.012
-681.251	-87.114	-0.240	-0.073
-680.237	-133.598	0.223	-0.028
-679.222	-8.418	-0.121	0.082
-678.208	201.586	-0.129	-0.200
-677.193	-31.329	-0.076	0.043
-676.178	221.869	-0.117	-0.189
-675.164	-87.853	0.260	0.079
-674.149	147.611	-0.161	-0.218
-673.135	-23.653	-0.188	0.113
-672.120	800.000	0.087	-0.356
-671.105	-45.862	-0.263	0.131
-670.091	-200.000	-0.022	-0.119
-669.076	311.969	-0.076	-0.143
-668.062	51.579	0.125	-0.120
-667.047	17.868	-0.152	-0.121
-666.032	108.070	0.031	0.037
-665.018	202.799	-0.071	0.111
-664.003	-20.082	0.093	-0.058
-662.989	-26.285	-0.519	0.306
-661.974	-56.986	0.134	-0.059
-660.959	-33.151	-0.116	-0.065
-659.945	-8.365	-0.184	-0.124
-658.930	-54.132	-0.008	0.004
-657.916	-141.085	0.330	-0.034
-656.901	-12.070	-0.143	-0.094
-655.886	-52.104	0.126	-0.059
-654.872	189.235	-0.075	-0.113
-653.857	-200.000	-0.003	0.165
-652.843	-74.932	0.404	-0.146
-651.828	693.729	0.041	-0.107
-650.814	190.439	0.204	-0.308
-649.799	157.054	-0.114	-0.158
-648.784	97.506	-0.226	-0.261
-647.770	-140.502	0.137	-0.014
-646.755	-133.419	0.013	0.002
-645.741	-68.943	0.170	0.066
-644.726	800.000	-0.064	0.183
-643.711	-52.946	-0.219	0.101
-642.697	723.292	-0.135	-0.361
-641.682	-200.000	-0.059	0.357
-640.668	-134.640	-0.278	0.034
-639.653	-200.000	0.007	-0.353
-638.638	800.000	-0.131	0.432
-637.624	229.713	-0.045	-0.074
-636.609	-106.420	0.152	-0.034
-635.595	27.444	-0.127	-0.107
-634.580	55.338	0.119	-0.116
-633.565	-59.601	0.209	-0.090
-632.551	-41.602	0.069	0.036
-631.536	15.960	0.142	-0.112
-630.522	-77.184	-0.224	-0.078
-629.507	-111.923	0.378	-0.077
-628.492	800.000	-0.125	-0.438
-627.478	-104.247	0.158	-0.037
-626.463	27.769	-0.180	-0.152
-625.449	-85.621	0.120	0.038
-624.434	-116.919	0.223	0.041
-623.419	239.001	-0.065	-0.108
-622.405	542.274	0.111	-0.266
-621.390	343.739	0.144	0.284
-620.376	-78.999	-0.264	-0.090
-619.361	-200.000	0.077	-0.407
-618.346	131.376	-0.103	0.132
-617.332	105.504	-0.080	-0.095
-616.317	-68.792	-0.114	-0.044
-615.303	-200.000	0.022	-0.233
-614.288	-15.626	-0.126	-0.080
-613.273	72.125	-0.184	-0.192
-612.259	-126.400	0.176	-0.026
-611.244	-48.636	-0.096	0.046
-610.230	-200.000	0.031	0.224
-609.215	300.854	-0.065	0.120
-608.201	-200.000	-0.009	0.209
-607.186	-200.000	0.017	-0.088
-606.171	-55.264	-0.336	0.152
-605.157	-200.000	0.018	-0.407
-604.142	-115.434	0.101	-0.019
-603.128	800.000	-0.103	-0.388
-602.113	-92.277	-0.206	-0.058
-601.098	800.000	0.090	0.333
-600.084	-62.381	-0.176	-0.073
-599.069	2.156	-0.186	-0.135
-598.055	25.382	-0.103	-0.086
-597.040	-200.000	0.037	-0.256
-596.025	687.110	0.140	0.366
-595.011	-200.000	-0.023	0.308
-593.996	12.054	0.159	0.122
-592.982	-65.973	-0.180	-0.072
-591.967	-200.000	-0.006	0.060
-590.952	91.399	-0.196	-0.221
-589.938	-74.364	0.051	-0.018
-588.923	57.384	0.072	-0.071
-587.909	-138.421	0.259	-0.029
-586.894	-142.270	-0.215	-0.021
-585.879	-55.965	-0.083	0.037
-584.865	517.882	0.064	-0.149
-583.850	-67.179	-0.225	-0.089
-582.836	151.758	-0.078	0.106
-581.821	508.647	-0.073	-0.169
-580.806	555.766	-0.119	-0.286
-579.792	348.299	-0.062	0.122
-578.777	-94.038	-0.301	0.083
-577.763	-200.000	0.019	-0.203
-576.748	-11.791	-0.251	0.165
-575.733	377.310	0.063	0.128
-574.719	-119.574	-0.242	-0.042
-573.704	54.446	-0.046	0.045
-572.690	3.758	-0.185	0.136
-571.675	-36.304	0.344	-0.186
-570.661	-132.781	0.304	-0.039
-569.646	-200.000	0.028	-0.206
-568.631	-168.332	-0.163	-0.006
-567.617	87.028	-0.230	0.255
-566.602	-75.563	-0.060	0.021
-565.588	-138.469	-0.200	-0.022
-564.573	117.944	0.143	-0.177
-563.558	69.956	0.111	0.114
-562.544	800.000	-0.099	0.278
-561.529	299.809	0.185	-0.341
-560.515	-13.023	0.148	-0.096
-559.500	15.503	-0.121	0.096
-558.485	-61.269	0.221	-0.093
-557.471	106.662	-0.123	0.146
-556.456	6.898	-0.227	0.169
-555.442	494.098	-0.125	-0.288
-554.427	-90.587	0.120	-0.035
-553.412	207.168	-0.163	0.255
-552.398	32.282	-0.198	0.171
-551.383	800.000	0.014	-0.044
-550.369	90.512	0.165	-0.185
-549.354	800.000	0.078	0.246
-548.339	800.000	-0.121	-0.362
-547.325	190.284	-0.050	0.075
-546.310	155.492	0.131	-0.180
-545.296	57.973	0.052	-0.051
-544.281	79.286	-0.125	-0.134
-543.266	800.000	-0.026	-0.100
-542.252	-200.000	0.030	-0.484
-541.237	-200.000	0.084	-0.378
-540.223	-99.773	0.425	-0.107
-539.208	800.000	0.049	-0.181
-538.193	-143.540	0.261	-0.025
-537.179	-90.409	0.192	-0.056
-536.164	-200.000	0.056	-0.317
-535.150	58.197	-0.049	-0.048
-534.135	-1.904	-0.202	-0.142
-533.121	-150.741	0.284	0.022
-532.106	80.678	0.074	-0.079
-531.091	51.971	-0.070	-0.067
-530.077	-102.456	-0.230	0.055
-529.062	146.782	0.087	0.117
-528.048	-69.140	0.140	-0.054
-527.033	174.316	-0.049	-0.072
-526.018	-8.502	-0.022	0.015
-525.004	287.264	0.029	0.052
-523.989	-200.000	0.002	-0.293
-522.975	333.488	0.108	-0.210
-521.960	395.008	-0.025	0.052
-520.945	-62.722	-0.325	0.135
-519.931	60.271	-0.062	0.061
-518.916	-157.463	0.096	-0.006
-517.902	145.087	0.055	-0.074
-516.887	23.647	-0.123	0.101
-515.872	-159.388	-0.209	0.012
-514.858	-200.000	0.005	-0.067
-513.843	-42.209	-0.221	0.113
-512.829	-56.035	-0.171	-0.076
-511.814	-45.593	-0.269	-0.133
-510.799	-147.502	0.219	0.018
-509.785	70.084	0.159	-0.164
-508.770	106.601	-0.214	0.254
-507.756	-115.229	0.314	-0.059
-506.741	355.365	0.050	0.100
-505.726	-21.118	0.428	0.261
-504.712	-152.581	0.080	0.006
-503.697	420.245	0.101	0.216
-502.683	-92.860	-0.172	0.048
-501.668	-200.000	0.007	-0.083
-500.653	2.323	-0.212	0.153
-499.639	-0.213	-0.183	0.130
-498.624	800.000	-0.079	0.295
-497.610	372.761	-0.095	0.194
-496.595	32.700	-0.129	-0.112
-495.581	-60.285	0.239	-0.102
-494.566	-200.000	-0.001	-0.187
-493.551	61.156	0.221	-0.219
-492.537	800.000	-0.048	-0.167
-491.522	-141.830	-0.192	0.019
-490.508	161.674	-0.171	-0.239
-489.493	-49.256	0.202	-0.096
-488.478	15.329	0.525	-0.411
-487.464	26.614	0.160	-0.134
-486.449	-200.000	-0.065	-0.302
-485.435	-149.082	-0.145	-0.012
-484.420	536.912	0.113	-0.268
-483.405	161.286	0.078	0.108
-482.391	-112.967	0.292	0.058
-481.376	259.851	-0.071	-0.122
-480.362	-31.686	0.343	-0.192
-479.347	-200.000	-0.004	-0.162
-478.332	240.827	0.127	0.211
-477.318	146.729	-0.140	-0.188
-476.303	800.000	0.024	0.065
-475.289	75.477	0.241	-0.254
-474.274	765.595	-0.009	-0.024
-473.259	188.198	-0.186	-0.278
-472.245	-200.000	0.047	-0.222
-471.230	219.230	-0.069	0.111
-470.216	119.362	0.102	-0.126
-469.201	-73.728	0.217	-0.079
-468.186	-200.000	-0.032	0.232
-467.172	800.000	-0.063	-0.200
-466.157	3.471	-0.220	-0.160
-465.143	39.434	-0.365	0.326
-464.128	382.613	-0.052	0.107
-463.113	103.259	0.300	0.350
-462.099	800.000	-0.018	0.073
-461.084	326.961	-0.094	-0.180
-460.070	-75.849	0.310	-0.110
-459.055	329.005	0.062	0.119
-458.040	558.527	0.022	-0.052
-457.026	-85.793	-0.049	-0.015
-456.011	-56.633	0.228	-0.101
-454.997	-183.763	0.329	0.006
-453.982	800.000	-0.086	-0.315
-452.968	-5.116	0.247	0.169
-451.953	-47.929	-0.095	0.046
-450.938	-191.912	0.147	0.001
-449.924	145.172	-0.283	0.377
-448.909	285.425	-0.115	-0.206
-447.895	-102.723	0.265	-0.063
-446.880	-200.000	0.013	-0.087
-445.865	156.031	-0.063	-0.086
-444.851	84.870	0.330	0.361
-443.836	308.665	0.048	-0.089
-442.822	470.558	-0.111	0.249
-441.807	21.749	-0.200	-0.162
-440.792	0.229	-0.372	0.264
-439.778	277.839	-0.081	0.144
-438.763	-200.000	0.025	-0.130
-437.749	-56.385	-0.100	0.044
-436.734	622.611	-0.109	0.274
-435.719	-56.552	-0.171	0.076
-434.705	-90.877	0.316	-0.091
-433.690	135.124	-0.110	-0.142
-432.676	-200.000	-0.014	-0.204
-431.661	682.413	-0.117	0.304
-430.646	-200.000	-0.014	0.132
-429.632	-200.000	0.009	0.200
-428.617	800.000	-0.078	0.243
-427.603	34.794	0.036	0.032
-426.588	-118.098	-0.280	0.050
-425.573	289.000	0.207	-0.374
-424.559	-200.000	0.012	0.093
-423.544	73.375	0.137	-0.143
-422.530	336.860	0.052	0.100
-421.515	-83.212	0.174	-0.056
-420.500	168.753	-0.268	0.381
-419.486	217.099	0.066	0.105
-418.471	-200.000	0.042	0.225
-417.457	800.000	0.037	0.154
-416.442	800.000	0.033	0.126
-415.428	171.643	0.043	0.061
-414.413	315.404	-0.144	0.270
-413.398	-200.000	0.002	0.077
-412.384	190.187	0.042	0.063
-411.369	-57.546	-0.042	-0.018
-410.355	-21.862	-0.329	-0.199
-409.340	-183.702	-0.134	0.002
-408.325	123.060	0.032	-0.040
-407.311	76.312	0.186	0.196
-406.296	-200.000	0.089	-0.416
-405.282	136.593	0.250	-0.324
-404.267	145.755	0.172	-0.230
-403.252	-134.689	-0.097	0.012
-402.238	284.380	-0.129	0.232
-401.223	-197.956	0.142	-0.001
-400.209	-131.952	-0.537	-0.070
-399.194	128.769	0.193	-0.244
-398.179	18.093	0.147	0.116
-397.165	354.918	0.042	0.083
-396.150	-5.949	0.212	0.144
-395.136	-200.000	-0.022	0.166
-394.121	-111.986	-0.273	0.055
-393.106	145.820	0.095	-0.127
-392.092	-13.055	0.202	-0.131
-391.077	393.432	-0.083	-0.172
-390.063	86.654	0.120	0.132
-389.048	-200.000	-0.022	-0.247
-388.033	-97.205	0.283	0.074
-387.019	461.323	-0.104	0.230
-386.004	-163.556	0.185	0.009
-384.990	-200.000	-0.278	0.001
-383.975	-116.280	-0.151	0.028
-382.960	25.629	-0.045	0.037
-381.946	-13.997	0.227	-0.146
-380.931	-47.742	0.167	-0.080
-379.917	-15.168	-0.251	0.160
-378.902	-200.000	0.014	0.068
-377.888	800.000	-0.047	0.164
-376.873	-82.760	0.211	-0.068
-375.858	2.132	-0.078	0.056
-374.844	636.881	0.133	0.335
-373.829	800.000	0.083	0.299
-372.815	-7.757	-0.122	-0.082
-371.800	9.971	0.216	-0.163
-370.785	-200.000	0.006	-0.122
-369.771	48.151	-0.086	-0.080
-368.756	-146.369	0.257	0.022
-367.742	36.419	-0.140	0.123
-366.727	99.692	0.092	-0.106
-365.712	472.931	-0.022	0.050
-364.698	789.437	0.032	0.087
-363.683	-89.313	-0.055	-0.016
-362.669	-200.000	-0.008	0.183
-361.654	403.124	0.121	0.252
-360.639	-52.413	-0.061	-0.028
-359.625	-117.015	-0.139	0.025
-358.610	800.000	-0.118	-0.397
-357.596	78.530	0.260	0.276
-356.581	800.000	-0.043	-0.141
-355.566	-116.403	0.122	-0.022
-354.552	76.848	0.232	0.244
-353.537	391.741	0.042	-0.087
-352.523	-10.749	0.091	0.060
-351.508	800.000	0.039	-0.120
-350.493	-51.871	0.187	-0.086
-349.479	800.000	0.064	-0.251
-348.464	-200.000	0.027	0.243
-347.450	-63.955	-0.180	-0.073
-346.435	-200.000	0.034	0.224
-345.420	343.803	-0.058	-0.113
-344.406	54.490	-0.064	-0.061
-343.391	240.000	0.049	-0.080
-342.377	141.701	-0.163	-0.215
-341.362	-80.978	-0.304	0.100
-340.348	135.842	0.011	0.014
-339.333	800.000	-0.085	-0.239
-338.318	59.752	-0.157	-0.153
-337.304	19.236	0.118	0.094
-336.289	243.728	0.080	-0.133
-335.275	-200.000	-0.007	0.174
-334.260	-122.803	-0.416	-0.067
-333.245	-2.404	-0.272	-0.189
-332.231	800.000	0.061	0.166
-331.216	687.771	0.110	-0.285
-330.202	-200.000	-0.012	-0.147
-329.187	41.298	0.088	0.079
-328.172	-193.784	0.384	-0.003
-327.158	63.784	-0.175	-0.174
-326.143	340.320	-0.088	-0.170
-325.129	-7.076	-0.207	-0.139
-324.114	60.726	-0.186	0.183
-323.099	-0.835	-0.242	0.170
-322.085	-109.439	-0.068	0.014
-321.070	800.000	0.059	-0.230
-320.056	-98.977	-0.215	-0.054
-319.041	715.610	-0.043	0.113
-318.026	-102.610	-0.354	0.084
-317.012	800.000	0.087	0.335
-315.997	207.353	-0.020	0.032
-314.983	-60.864	0.119	-0.050
-313.968	-29.307	0.153	-0.087
-312.953	-113.273	0.040	-0.008
-311.939	800.000	-0.081	0.238
-310.924	202.090	0.013	0.019
-309.910	1.505	0.295	-0.210
-308.895	-200.000	0.033	-0.190
-307.880	75.542	0.142	0.148
-306.866	375.287	-0.108	0.219
-305.851	82.308	0.079	-0.085
-304.837	-46.897	-0.154	0.074
-303.822	-96.558	0.233	-0.061
-302.807	249.255	0.144	0.241
-301.793	347.573	0.250	0.488
-300.778	440.033	-0.124	0.268
-299.764	-97.815	-0.191	0.049
-298.749	-109.332	0.212	0.044
-297.735	-93.342	0.265	0.073
-296.720	800.000	-0.050	0.210
-295.705	190.298	0.068	-0.102
-294.691	-62.964	0.113	-0.046
-293.676	-14.013	-0.223	-0.143
-292.662	-18.361	0.145	0.090
-291.647	-121.107	0.145	-0.024
-290.632	414.086	-0.059	-0.124
-289.618	-24.229	0.230	0.136
-288.603	-99.732	0.107	-0.027
-287.589	636.604	0.033	0.083
-286.574	160.385	-0.061	0.085
-285.559	68.258	0.224	-0.228
-284.545	101.346	-0.092	0.106
-283.530	215.618	-0.088	0.139
-282.516	-9.144	0.097	-0.064
-281.501	-184.296	-0.194	0.003
-280.486	24.206	0.155	0.127
-279.472	-23.443	0.289	-0.172
-278.457	800.000	-0.040	-0.169
-277.443	800.000	0.033	0.108
-276.428	-30.742	-0.248	0.139
-275.413	-36.321	-0.069	0.037
-274.399	800.000	0.094	-0.340
-273.384	-200.000	-0.011	-0.149
-272.370	800.000	-0.007	-0.023
-271.355	252.110	0.124	0.208
-270.340	323.945	-0.138	-0.261
-269.326	-148.705	0.474	-0.038
-268.311	68.280	0.263	-0.267
-267.297	-91.250	0.192	-0.054
-266.282	-200.000	0.043	-0.342
-265.267	-47.534	0.164	-0.079
-264.253	-200.000	0.002	0.024
-263.238	36.917	-0.269	0.235
-262.224	-4.293	-0.135	0.092
-261.209	185.872	0.135	-0.198
-260.195	231.116	-0.227	0.368
-259.180	800.000	0.139	0.396
-258.165	247.499	0.145	0.242
-257.151	800.000	-0.070	-0.209
-256.136	-142.930	0.248	0.024
-255.122	397.324	-0.109	0.225
-254.107	-200.000	0.035	0.202
-253.092	79.403	0.297	0.315
-252.078	30.199	-0.260	-0.220
-251.063	-200.000	0.033	-0.185
-250.049	63.804	0.273	-0.271
-249.034	129.425	-0.166	0.210
-248.019	429.110	-0.170	0.364
-247.005	324.030	-0.125	0.235
-245.990	-93.851	-0.131	0.036
-244.976	-200.000	-0.005	0.042
-243.961	145.746	0.075	0.100
-242.946	-200.000	0.005	0.069
-241.932	165.952	-0.040	0.055
-240.917	682.445	0.062	0.160
-239.903	41.454	-0.131	0.117
-238.888	-63.442	0.347	-0.141
-237.873	314.329	-0.182	-0.339
-236.859	-25.210	-0.143	-0.084
-235.844	800.000	-0.036	0.119
-234.830	-95.078	0.074	-0.020
-233.815	800.000	-0.074	0.242
-232.800	-200.000	-0.000	-0.068
-231.786	251.206	-0.129	0.217
-230.771	36.511	0.294	0.257
-229.757	-200.000	-0.094	0.598
-228.742	-43.182	-0.358	0.179
-227.727	57.209	-0.078	-0.075
-226.713	-157.410	-0.161	0.010
-225.698	715.219	0.022	0.057
-224.684	-55.929	0.047	0.021
-223.669	-200.000	0.055	-0.383
-222.655	-49.097	0.202	-0.096
-221.640	39.769	-0.186	-0.165
-220.625	18.200	0.058	-0.045
-219.611	90.149	-0.165	0.183
-218.596	-134.277	-0.378	0.046
-217.582	-61.924	0.298	0.123
-216.567	210.740	0.071	-0.111
-215.552	-40.098	0.174	0.089
-214.538	-39.060	-0.308	0.160
-213.523	-26.567	0.213	-0.123
-212.509	-25.035	-0.185	0.108
-211.494	-8.787	-0.273	-0.181
-210.479	279.133	0.039	-0.068
-209.465	418.494	0.040	0.085
-208.450	800.000	-0.079	0.282
-207.436	395.803	-0.162	0.334
-206.421	800.000	-0.031	0.093
-205.406	-163.016	0.154	0.007
-204.392	-172.093	0.211	0.007
-203.377	117.539	-0.223	-0.271
-202.363	-133.536	0.221	0.027
-201.348	-200.000	0.059	0.440
-200.333	-200.000	0.011	0.327
-199.319	-13.111	-0.144	0.092
-198.304	-200.000	0.005	-0.088
-197.290	-10.979	-0.301	0.196
-196.275	-200.000	-0.033	-0.166
-195.260	-130.597	0.371	0.049
-194.246	342.069	-0.011	0.021
-193.231	45.308	0.054	-0.049
-192.217	800.000	-0.061	-0.173
-191.202	74.310	0.202	0.209
-190.187	167.730	0.114	0.159
-189.173	-92.969	-0.267	0.074
-188.158	-45.375	0.064	0.031
-187.144	-12.480	0.154	0.099
-186.129	-112.302	-0.355	0.070
-185.114	-108.871	0.116	-0.024
-184.100	38.966	0.084	-0.074
-183.085	-200.000	0.005	0.139
-182.071	213.155	0.111	0.172
-181.056	-200.000	0.030	-0.163
-180.042	217.923	0.098	0.153
-179.027	154.799	0.306	0.414
-178.012	-146.955	-0.276	-0.023
-176.998	-139.471	0.339	-0.036
-175.983	162.001	0.116	-0.160
-174.969	-102.271	0.209	-0.049
-173.954	-83.647	0.243	0.077
-172.939	169.633	0.137	0.193
-171.925	-58.355	0.302	0.130
-170.910	-32.621	-0.301	-0.165
-169.896	-83.521	-0.184	-0.058
-168.881	-97.486	0.313	-0.080
-167.866	-41.788	-0.196	0.099
-166.852	17.206	-0.187	-0.146
-165.837	107.572	-0.046	-0.054
-164.823	113.904	0.031	0.037
-163.808	518.121	-0.058	0.134
-162.793	-88.172	-0.153	0.045
-161.779	-80.346	-0.189	0.062
-160.764	-15.206	0.133	-0.084
-159.750	181.295	-0.235	0.341
-158.735	-57.664	0.206	0.089
-157.720	-116.202	-0.352	0.064
-156.706	-200.000	0.013	-0.116
-155.691	5.602	-0.298	-0.217
-154.677	178.431	-0.065	0.094
-153.662	532.192	-0.077	-0.179
-152.647	117.305	-0.035	-0.043
-151.633	30.012	-0.243	-0.204
-150.618	635.256	0.045	-0.113
-149.604	-200.000	0.001	0.102
-148.589	-200.000	-0.015	0.209
-147.574	-66.701	0.037	-0.014
-146.560	39.021	0.184	0.162
-145.545	-92.804	-0.114	-0.031
-144.531	232.969	0.076	0.123
-143.516	201.837	-0.136	-0.207
-142.502	3.496	-0.106	0.076
-141.487	597.033	-0.086	0.210
-140.472	-200.000	-0.014	0.267
-139.458	186.483	-0.097	-0.142
-138.443	-68.712	-0.128	0.049
-137.429	-69.093	0.068	0.026
-136.414	34.692	0.048	-0.042
-135.399	-200.000	0.051	0.248
-134.385	168.487	0.053	0.075
-133.370	76.370	-0.252	0.263
-132.356	800.000	0.053	-0.193
-131.341	800.000	-0.007	0.019
-130.326	800.000	-0.007	0.030
-129.312	-200.000	0.016	0.238
-128.297	-121.607	-0.013	-0.002
-127.283	-122.198	-0.251	0.040
-126.268	585.835	-0.058	-0.141
-125.253	-90.832	-0.140	-0.040
-124.239	25.824	0.145	0.119
-123.224	-27.907	-0.335	-0.191
-122.210	65.337	0.209	-0.208
-121.195	43.375	0.215	-0.193
-120.180	-125.035	-0.258	0.039
