DTS Sentinel unit serial number:	SN413079Multiplexer serial number:	ORYXHardware model number:	OX4-SRSoftware version number:	ORYX F/W v4.00 Oryx Data Collector v3.7.2.0data status	okinstallation	princeton_trtdifferential loss correction	single-endedforward channel	channel 1reverse channel	N/Adate	2019/09/13time	13:50:35forward acquisition time	60.00reverse acquisition time	0.00gamma	496.2192k internal	0.2303k external	0.2303temperature offset calibration	1.0165default loss term (dB/km)	0.3790temperature slope calibration	1.0000multiplexer offset coefficient	1.0000multiplexer slope coefficient	1.0000fibre end	0.00T internal ref (°C)	35.14T ext. ref 1 (°C)	4.57T ext. ref 2 (°C)	31.13length (m)	temperature (°C)	Stokes	anti-Stokes-747.200	-200.000	0.063	-0.504
-746.185	41.313	-0.141	-0.130
-745.171	-3.552	-0.237	-0.168
-744.156	800.000	0.047	0.174
-743.142	-25.732	-0.162	-0.097
-742.127	176.991	0.155	0.230
-741.112	19.998	0.225	-0.185
-740.098	299.078	0.107	-0.201
-739.083	-200.000	0.021	0.148
-738.069	-38.117	0.103	0.056
-737.054	-53.181	0.312	0.146
-736.039	138.700	-0.241	0.322
-735.025	-200.000	0.034	0.170
-734.010	-145.303	-0.208	-0.019
-732.996	-7.833	-0.045	0.031
-731.981	-200.000	-0.009	-0.205
-730.966	-71.934	-0.216	-0.082
-729.952	77.938	0.106	-0.115
-728.937	-70.657	-0.198	0.076
-727.923	-111.793	0.081	-0.017
-726.908	-139.383	-0.340	0.037
-725.894	175.631	-0.212	-0.313
-724.879	311.480	-0.027	-0.051
-723.864	-14.064	-0.207	-0.136
-722.850	-136.503	0.151	-0.018
-721.835	104.136	0.158	-0.189
-720.821	469.732	-0.140	0.320
-719.806	-142.826	0.313	-0.031
-718.791	-69.836	-0.135	-0.052
-717.777	-13.704	0.170	-0.112
-716.762	-200.000	0.010	-0.240
-715.748	484.656	0.099	-0.230
-714.733	0.152	-0.278	-0.202
-713.718	10.372	0.053	-0.041
-712.704	513.141	0.046	-0.110
-711.689	-200.000	-0.017	-0.305
-710.675	165.093	-0.179	0.257
-709.660	-60.328	-0.298	-0.129
-708.645	-13.257	0.237	0.156
-707.631	10.855	0.246	0.191
-706.616	-200.000	-0.027	0.193
-705.602	83.213	-0.316	0.350
-704.587	-122.693	0.262	-0.043
-703.572	-130.720	-0.549	-0.075
-702.558	-0.841	-0.255	0.184
-701.543	-52.015	-0.221	0.105
-700.529	800.000	-0.091	-0.277
-699.514	104.693	0.294	-0.352
-698.499	379.463	-0.153	-0.319
-697.485	108.591	0.273	-0.332
-696.470	-95.557	-0.245	0.067
-695.456	-200.000	0.050	0.272
-694.441	800.000	0.052	0.150
-693.426	438.121	0.014	-0.031
-692.412	99.863	-0.110	-0.129
-691.397	302.837	0.160	0.301
-690.383	-59.920	-0.147	0.064
-689.368	108.265	-0.130	-0.158
-688.354	90.827	-0.273	-0.311
-687.339	-119.881	-0.270	-0.047
-686.324	709.760	0.135	-0.364
-685.310	287.739	0.077	-0.141
-684.295	800.000	-0.038	0.125
-683.281	-93.569	-0.262	0.074
-682.266	800.000	0.027	-0.109
-681.251	800.000	-0.060	-0.170
-680.237	-63.810	-0.239	0.100
-679.222	-200.000	-0.044	-0.323
-678.208	124.594	-0.141	-0.180
-677.193	-64.159	-0.267	-0.111
-676.178	61.166	0.173	-0.174
-675.164	-200.000	-0.005	0.043
-674.149	-200.000	0.008	0.342
-673.135	-51.036	0.217	-0.103
-672.120	-59.662	0.263	-0.115
-671.105	158.533	0.086	0.121
-670.091	-200.000	-0.005	-0.374
-669.076	-62.693	-0.336	-0.141
-668.062	-117.276	0.213	-0.039
-667.047	-200.000	-0.010	-0.085
-666.032	-143.999	-0.409	0.039
-665.018	-52.238	-0.322	0.152
-664.003	99.331	0.091	-0.107
-662.989	38.319	-0.195	0.176
-661.974	800.000	-0.020	0.063
-660.959	109.031	0.184	0.223
-659.945	-77.249	0.026	-0.009
-658.930	-200.000	-0.052	0.375
-657.916	-143.090	-0.473	-0.046
-656.901	800.000	0.008	0.030
-655.886	-25.164	0.306	-0.184
-654.872	131.589	-0.114	-0.148
-653.857	800.000	-0.033	0.093
-652.843	-85.842	-0.398	0.125
-651.828	-171.227	0.431	0.015
-650.814	-200.000	-0.012	-0.123
-649.799	66.911	-0.289	-0.298
-648.784	-62.626	0.362	-0.153
-647.770	-192.382	-0.185	-0.002
-646.755	800.000	0.068	-0.192
-645.741	-200.000	-0.006	-0.126
-644.726	-26.610	0.368	-0.219
-643.711	54.178	-0.173	0.169
-642.697	800.000	-0.092	-0.288
-641.682	-166.057	0.206	-0.009
-640.668	450.384	0.062	-0.140
-639.653	-166.480	-0.280	-0.012
-638.638	161.242	-0.067	0.095
-637.624	-89.146	-0.234	0.070
-636.609	-125.719	-0.263	-0.040
-635.595	-123.034	-0.028	-0.005
-634.580	-200.000	0.014	0.064
-633.565	-132.268	0.077	-0.010
-632.551	285.371	0.172	0.314
-631.536	159.227	-0.072	-0.102
-630.522	61.158	-0.111	-0.111
-629.507	-83.423	0.327	0.106
-628.492	-69.934	-0.302	0.117
-627.478	-147.412	0.410	-0.035
-626.463	-43.228	0.362	-0.186
-625.449	-95.990	-0.143	0.039
-624.434	-34.334	0.639	0.355
-623.419	-70.493	-0.230	-0.088
-622.405	298.723	-0.036	-0.068
-621.390	69.633	-0.112	0.117
-620.376	-200.000	0.013	-0.134
-619.361	800.000	-0.057	0.196
-618.346	-200.000	0.054	-0.401
-617.332	18.536	0.254	-0.206
-616.317	77.861	0.254	0.275
-615.303	-89.949	-0.090	-0.027
-614.288	430.775	-0.046	-0.100
-613.273	-135.093	0.079	0.010
-612.259	-200.000	-0.026	0.122
-611.244	321.111	0.064	0.123
-610.230	339.547	-0.155	0.306
-609.215	625.037	0.104	0.265
-608.201	42.628	0.167	0.154
-607.186	-97.840	0.082	-0.022
-606.171	131.676	0.144	0.187
-605.157	155.652	-0.118	-0.165
-604.142	66.959	0.179	0.185
-603.128	63.030	0.231	-0.234
-602.113	127.320	-0.194	-0.249
-601.098	338.153	-0.017	-0.034
-600.084	-52.142	-0.129	0.060
-599.069	53.588	0.023	0.022
-598.055	300.277	-0.143	0.268
-597.040	-200.000	-0.006	0.040
-596.025	112.221	0.244	-0.299
-595.011	88.219	-0.054	0.061
-593.996	-200.000	0.003	-0.054
-592.982	26.740	-0.081	0.068
-591.967	-76.683	-0.072	0.025
-590.952	-47.414	-0.235	-0.116
-589.938	-25.133	-0.103	0.062
-588.923	800.000	0.065	-0.195
-587.909	500.358	0.064	-0.150
-586.894	28.523	-0.060	-0.051
-585.879	-155.734	-0.143	0.009
-584.865	22.266	-0.200	0.165
-583.850	50.033	0.255	-0.244
-582.836	216.591	0.088	-0.142
-581.821	800.000	0.044	-0.144
-580.806	-10.187	0.255	0.171
-579.792	-89.514	0.122	0.036
-578.777	-200.000	0.002	0.043
-577.763	-113.317	0.218	0.043
-576.748	-200.000	-0.004	-0.192
-575.733	637.045	0.043	-0.109
-574.719	-200.000	0.003	-0.305
-573.704	-12.531	-0.109	-0.072
-572.690	-109.928	-0.148	-0.031
-571.675	-18.554	-0.090	0.057
-570.661	-200.000	-0.043	0.308
-569.646	138.097	-0.045	-0.060
-568.631	800.000	-0.066	0.262
-567.617	-86.692	-0.142	0.044
-566.602	-7.135	-0.145	-0.099
-565.588	-70.737	-0.499	-0.191
-564.573	-200.000	-0.014	-0.169
-563.558	-122.439	-0.149	-0.024
-562.544	116.087	0.038	0.047
-561.529	-200.000	0.062	0.487
-560.515	-69.488	0.183	0.071
-559.500	-110.917	0.322	-0.067
-558.485	75.838	0.292	0.312
-557.471	800.000	-0.045	-0.162
-556.456	-110.378	-0.351	-0.074
-555.442	-9.696	0.109	0.073
-554.427	-68.977	-0.287	-0.112
-553.412	-200.000	0.015	0.080
-552.398	16.366	0.111	0.089
-551.383	-0.694	-0.168	-0.121
-550.369	-61.060	0.156	0.066
-549.354	-200.000	-0.012	0.246
-548.339	-64.301	-0.152	-0.063
-547.325	-13.095	-0.080	-0.053
-546.310	199.964	-0.066	-0.102
-545.296	-81.420	0.321	0.107
-544.281	-133.413	0.039	0.005
-543.266	98.937	0.145	0.170
-542.252	-61.029	0.309	-0.132
-541.237	-93.445	0.135	-0.038
-540.223	-55.241	-0.233	-0.106
-539.208	5.229	0.127	-0.095
-538.193	438.997	0.017	-0.037
-537.179	-45.485	0.206	-0.103
-536.164	-141.671	0.206	-0.021
-535.150	779.832	-0.073	-0.202
-534.135	-121.514	0.065	-0.011
-533.121	-37.501	-0.246	0.132
-532.106	-200.000	-0.024	0.157
-531.091	-165.120	0.344	-0.015
-530.077	-25.471	-0.051	-0.031
-529.062	-153.292	-0.201	0.014
-528.048	-54.574	-0.130	-0.059
-527.033	800.000	-0.052	0.161
-526.018	-200.000	-0.037	-0.263
-525.004	-200.000	0.017	0.204
-523.989	-132.005	0.242	0.032
-522.975	112.480	0.043	0.052
-521.960	287.868	0.083	-0.152
-520.945	-200.000	-0.013	0.107
-519.931	-83.874	0.342	0.110
-518.916	-80.642	0.068	-0.023
-517.902	255.287	-0.131	0.226
-516.887	39.676	0.101	0.092
-515.872	-75.272	0.056	-0.020
-514.858	-138.844	-0.178	-0.020
-513.843	-66.560	0.097	0.039
-512.829	19.139	-0.040	-0.032
-511.814	-200.000	0.037	-0.375
-510.799	519.913	-0.075	-0.179
-509.785	-29.370	-0.278	-0.161
-508.770	800.000	-0.025	-0.105
-507.756	137.783	-0.027	0.036
-506.741	-73.626	0.437	0.161
-505.726	800.000	0.122	0.403
-504.712	-200.000	-0.002	0.105
-503.697	-184.574	0.310	0.005
-502.683	341.622	-0.063	0.123
-501.668	-200.000	-0.062	-0.278
-500.653	124.979	-0.047	0.060
-499.639	800.000	0.075	0.250
-498.624	503.936	0.067	0.157
-497.610	-165.557	-0.234	0.010
-496.595	800.000	-0.084	-0.237
-495.581	800.000	0.035	0.126
-494.566	13.345	-0.299	-0.234
-493.551	800.000	0.090	-0.253
-492.537	-200.000	0.028	-0.285
-491.522	31.235	0.220	0.191
-490.508	377.657	-0.219	-0.451
-489.493	99.638	0.228	0.267
-488.478	-52.597	0.078	0.037
-487.464	-97.898	-0.118	-0.031
-486.449	-99.444	0.052	-0.013
-485.435	800.000	0.018	-0.055
-484.420	789.906	-0.026	0.073
-483.405	-200.000	-0.096	0.000
-482.391	800.000	-0.116	0.410
-481.376	-178.004	0.081	0.002
-480.362	-200.000	0.000	0.082
-479.347	800.000	0.081	0.293
-478.332	800.000	-0.039	-0.116
-477.318	-81.509	0.118	0.039
-476.303	800.000	0.063	-0.219
-475.289	-36.900	-0.373	-0.202
-474.274	109.992	-0.102	0.123
-473.259	-200.000	0.033	-0.187
-472.245	-200.000	0.008	0.041
-471.230	-43.351	-0.159	0.081
-470.216	-200.000	-0.065	-0.304
-469.201	-146.160	-0.250	0.022
-468.186	112.563	0.070	0.085
-467.172	8.734	-0.192	0.146
-466.157	-93.269	-0.033	0.009
-465.143	21.933	-0.148	-0.121
-464.128	557.813	-0.094	-0.227
-463.113	-3.104	0.255	0.179
-462.099	-32.368	-0.133	0.075
-461.084	1.622	0.051	-0.037
-460.070	-200.000	0.002	-0.022
-459.055	179.809	-0.099	-0.146
-458.040	17.348	0.078	-0.062
-457.026	16.774	-0.140	-0.111
-456.011	-61.413	0.129	0.055
-454.997	-200.000	-0.319	-0.001
-453.982	159.475	0.208	0.291
-452.968	6.216	-0.303	0.226
-451.953	-139.843	-0.125	-0.013
-450.938	1.171	-0.074	-0.054
-449.924	-13.076	-0.060	-0.039
-448.909	-21.948	0.028	-0.017
-447.895	-51.704	-0.126	-0.059
-446.880	-48.945	0.212	0.102
-445.865	362.046	-0.044	-0.090
-444.851	432.381	0.147	-0.320
-443.836	-121.125	-0.363	-0.061
-442.822	-109.193	-0.130	-0.028
-441.807	21.844	0.224	-0.184
-440.792	142.190	0.160	-0.214
-439.778	-200.000	-0.010	-0.231
-438.763	800.000	-0.053	0.216
-437.749	-14.467	-0.233	0.151
-436.734	-34.683	0.045	-0.025
-435.719	183.538	-0.090	0.134
-434.705	-151.658	0.202	-0.015
-433.690	593.152	0.132	-0.328
-432.676	143.838	0.202	-0.272
-431.661	291.875	0.046	0.084
-430.646	-12.705	-0.141	-0.093
-429.632	129.682	-0.169	0.218
-428.617	-69.289	-0.291	0.112
-427.603	-200.000	0.026	0.249
-426.588	800.000	0.019	0.071
-425.573	-71.702	0.384	0.144
-424.559	385.794	0.106	-0.220
-423.544	-58.745	-0.184	-0.080
-422.530	-122.390	-0.359	-0.059
-421.515	7.854	-0.076	-0.057
-420.500	67.064	-0.157	0.161
-419.486	430.724	0.137	-0.298
-418.471	312.093	-0.085	0.160
-417.457	-12.653	-0.079	0.052
-416.442	111.927	-0.010	-0.012
-415.428	-200.000	-0.025	-0.173
-414.413	329.441	0.049	0.094
-413.398	-8.650	-0.279	0.188
-412.384	-100.535	-0.198	0.049
-411.369	14.452	-0.217	-0.170
-410.355	139.624	0.176	-0.233
-409.340	-125.585	-0.357	0.055
-408.325	767.148	0.060	-0.164
-407.311	155.950	0.136	-0.188
-406.296	-200.000	-0.021	-0.117
-405.282	207.454	0.180	0.283
-404.267	95.938	-0.158	0.181
-403.252	800.000	0.110	0.383
-402.238	245.104	0.123	0.207
-401.223	-52.044	0.278	0.130
-400.209	-200.000	-0.022	-0.172
-399.194	175.981	0.022	0.032
-398.179	118.183	0.104	0.129
-397.165	-71.862	-0.344	-0.129
-396.150	800.000	-0.060	-0.263
-395.136	641.085	-0.035	-0.089
-394.121	-22.421	0.159	0.097
-393.106	78.951	-0.111	-0.119
-392.092	-54.687	0.148	-0.067
-391.077	-200.000	-0.010	0.107
-390.063	-79.755	-0.120	-0.041
-389.048	26.734	-0.148	0.125
-388.033	-81.613	-0.167	0.055
-387.019	-85.733	0.056	-0.017
-386.004	403.503	-0.030	0.063
-384.990	-200.000	-0.005	-0.179
-383.975	-200.000	0.044	0.333
-382.960	-200.000	-0.013	-0.107
-381.946	-46.557	0.222	0.109
-380.931	15.015	0.206	0.162
-379.917	-136.221	-0.301	-0.035
-378.902	793.907	0.170	-0.471
-377.888	-200.000	-0.008	0.178
-376.873	79.673	0.119	0.128
-375.858	321.868	-0.069	0.131
-374.844	193.295	-0.138	0.210
-373.829	-45.503	0.207	0.103
-372.815	-172.285	-0.235	-0.008
-371.800	-115.828	-0.191	0.036
-370.785	-71.003	-0.159	-0.060
-369.771	-200.000	-0.001	-0.493
-368.756	-200.000	-0.043	0.190
-367.742	-168.974	0.099	-0.004
-366.727	-200.000	0.022	0.231
-365.712	-167.223	0.347	-0.014
-364.698	-134.988	0.163	-0.020
-363.683	14.906	-0.108	0.085
-362.669	165.151	-0.083	-0.118
-361.654	216.991	-0.174	0.278
-360.639	40.489	0.108	-0.097
-359.625	518.373	0.011	0.026
-358.610	-23.008	-0.097	-0.059
-357.596	-96.107	0.139	-0.037
-356.581	-147.442	-0.143	-0.012
-355.566	93.194	0.091	-0.103
-354.552	-40.368	-0.128	-0.067
-353.537	5.495	-0.069	-0.051
-352.523	-139.661	-0.170	0.018
-351.508	405.795	0.087	-0.184
-350.493	-41.965	-0.022	-0.011
-349.479	-200.000	-0.001	0.316
-348.464	193.979	-0.105	0.160
-347.450	19.781	0.065	0.053
-346.435	-74.279	-0.116	0.042
-345.420	-43.647	0.245	0.124
-344.406	-24.451	-0.192	0.115
-343.391	112.644	0.097	0.118
-342.377	16.502	0.254	-0.201
-341.362	738.525	0.140	0.377
-340.348	440.535	0.157	-0.343
-339.333	280.288	-0.107	-0.193
-338.318	-118.002	0.175	-0.031
-337.304	-13.371	-0.129	-0.084
-336.289	5.409	0.130	0.096
-335.275	-120.379	-0.161	-0.027
-334.260	69.047	-0.203	-0.209
-333.245	-68.465	-0.197	-0.077
-332.231	-103.699	0.100	-0.023
-331.216	-74.562	-0.139	0.050
-330.202	327.076	0.152	-0.292
-329.187	-47.519	0.035	0.017
-328.172	23.643	-0.239	0.197
-327.158	-99.654	-0.052	-0.013
-326.143	-127.408	0.097	-0.014
-325.129	-83.468	0.388	0.124
-324.114	223.984	-0.103	0.166
-323.099	141.793	-0.134	-0.178
-322.085	249.286	0.099	-0.168
-321.070	-21.470	-0.052	0.032
-320.056	-200.000	-0.079	0.565
-319.041	284.065	-0.050	0.089
-318.026	-200.000	-0.012	-0.096
-317.012	-200.000	-0.052	-0.428
-315.997	133.070	-0.130	-0.168
-314.983	-160.456	0.147	0.008
-313.968	-90.902	-0.121	0.035
-312.953	-200.000	-0.078	0.445
-311.939	-200.000	-0.012	-0.119
-310.924	10.717	-0.173	0.132
-309.910	353.653	0.114	0.226
-308.895	577.549	0.074	-0.182
-307.880	50.816	-0.189	-0.180
-306.866	291.442	0.100	0.182
-305.851	425.729	-0.157	0.339
-304.837	-104.550	0.199	-0.046
-303.822	-200.000	-0.020	0.090
-302.807	-200.000	0.037	0.301
-301.793	220.934	0.122	0.196
-300.778	-200.000	0.018	0.155
-299.764	186.699	-0.180	0.268
-298.749	800.000	0.046	-0.164
-297.735	51.368	0.057	-0.054
-296.720	-140.338	0.028	-0.003
-295.705	162.857	-0.085	0.120
-294.691	-89.504	-0.152	0.045
-293.676	671.449	0.054	-0.141
-292.662	-106.491	-0.160	0.036
-291.647	-11.403	0.108	0.071
-290.632	211.538	-0.255	-0.401
-289.618	250.446	-0.192	-0.327
-288.603	800.000	0.047	-0.178
-287.589	523.991	0.126	0.297
-286.574	-72.002	-0.124	0.046
-285.559	-125.446	0.178	-0.027
-284.545	800.000	0.010	-0.036
-283.530	-200.000	0.032	0.159
-282.516	637.754	-0.054	-0.137
-281.501	-80.990	0.327	0.108
-280.486	696.345	-0.047	0.124
-279.472	63.233	-0.135	-0.136
-278.457	140.297	0.238	-0.314
-277.443	26.744	0.153	-0.128
-276.428	20.085	0.272	0.219
-275.413	225.552	-0.067	0.109
-274.399	349.278	0.058	-0.114
-273.384	800.000	-0.052	0.170
-272.370	29.459	-0.155	0.132
-271.355	85.404	0.128	0.141
-270.340	-200.000	-0.009	0.056
-269.326	-73.026	-0.019	-0.007
-268.311	-142.815	0.278	0.027
-267.297	-200.000	-0.020	0.449
-266.282	220.172	-0.021	0.034
-265.267	40.364	-0.098	0.088
-264.253	800.000	-0.017	-0.073
-263.238	-129.915	-0.235	-0.032
-262.224	281.974	0.249	0.445
-261.209	301.631	0.026	0.048
-260.195	-200.000	0.047	0.367
-259.180	443.591	-0.129	-0.284
-258.165	17.915	0.172	-0.137
-257.151	-40.932	0.083	0.043
-256.136	-169.724	0.251	0.009
-255.122	-189.085	0.481	-0.006
-254.107	-200.000	0.004	0.148
-253.092	-200.000	0.009	-0.126
-252.078	-200.000	-0.039	-0.208
-251.063	-200.000	-0.009	0.256
-250.049	-200.000	-0.034	-0.369
-249.034	137.687	-0.131	-0.172
-248.019	324.112	-0.090	-0.172
-247.005	-57.670	0.173	0.076
-245.990	-200.000	-0.032	-0.183
-244.976	800.000	0.027	0.083
-243.961	-4.770	0.192	0.132
-242.946	121.462	-0.111	0.138
-241.932	-200.000	-0.011	0.204
-240.917	-48.772	-0.018	0.008
-239.903	-200.000	-0.001	-0.069
-238.888	302.920	0.179	-0.331
-237.873	-37.027	-0.164	0.088
-236.859	-200.000	-0.064	0.391
-235.844	272.731	0.156	0.275
-234.830	102.810	0.207	-0.242
-233.815	-16.627	0.108	-0.068
-232.800	-16.235	-0.129	-0.081
-231.786	-6.613	-0.056	0.038
-230.771	-114.288	0.157	-0.030
-229.757	209.283	0.104	0.163
-228.742	-64.120	-0.135	0.055
-227.727	92.670	0.241	-0.271
-226.713	-200.000	0.014	-0.231
-225.698	-200.000	0.031	-0.160
-224.684	-93.137	-0.225	-0.063
-223.669	663.032	0.074	0.191
-222.655	127.821	0.147	0.186
-221.640	-165.099	-0.091	0.004
-220.625	19.048	-0.059	0.047
-219.611	-200.000	0.058	0.329
-218.596	475.495	-0.107	-0.240
-217.582	800.000	0.025	-0.080
-216.567	-200.000	0.014	-0.200
-215.552	33.926	0.150	-0.130
-214.538	521.405	-0.118	0.277
-213.523	800.000	0.038	-0.123
-212.509	800.000	0.035	-0.117
-211.494	11.617	-0.176	-0.135
-210.479	-116.725	0.082	0.015
-209.465	343.453	0.082	-0.159
-208.450	127.328	0.081	-0.103
-207.436	-111.253	-0.266	-0.054
-206.421	93.842	-0.070	0.079
-205.406	142.858	0.061	0.081
-204.392	392.377	-0.088	0.182
-203.377	108.949	-0.205	0.244
-202.363	-200.000	-0.001	0.017
-201.348	42.699	0.364	-0.331
-200.333	-135.403	-0.361	0.043
-199.319	800.000	-0.053	0.151
-198.304	-62.132	-0.141	0.059
-197.290	411.932	-0.022	-0.047
-196.275	255.248	-0.060	-0.103
-195.260	-78.117	0.103	-0.035
-194.246	-99.129	0.248	-0.062
-193.231	610.557	-0.115	-0.286
-192.217	800.000	-0.035	-0.133
-191.202	93.409	-0.234	-0.264
-190.187	800.000	-0.090	-0.303
-189.173	569.314	-0.071	-0.172
-188.158	-71.642	-0.095	0.035
-187.144	357.035	0.068	-0.135
-186.129	3.105	0.138	-0.100
-185.114	800.000	-0.115	-0.351
-184.100	57.363	-0.094	0.092
-183.085	590.576	-0.031	-0.075
-182.071	-146.596	-0.148	0.013
-181.056	103.211	0.228	0.266
-180.042	53.338	0.199	0.190
-179.027	-81.176	-0.409	-0.135
-178.012	-200.000	-0.025	-0.220
-176.998	-123.679	-0.208	0.033
-175.983	-126.686	-0.157	-0.023
-174.969	-49.680	0.055	0.026
-173.954	209.200	0.312	0.487
-172.939	646.838	0.049	-0.125
-171.925	343.324	-0.078	0.153
-170.910	407.653	0.059	0.125
-169.896	800.000	-0.042	-0.124
-168.881	-133.554	-0.238	0.030
-167.866	-115.374	0.043	0.008
-166.852	22.678	0.061	0.050
-165.837	95.703	0.179	0.203
-164.823	-200.000	0.072	0.472
-163.808	-89.931	0.248	0.072
-162.793	-82.541	0.099	-0.032
-161.779	-127.870	-0.269	0.038
-160.764	-200.000	0.028	-0.145
-159.750	-44.335	-0.175	-0.087
-158.735	-147.549	-0.295	-0.025
-157.720	-200.000	0.022	-0.221
-156.706	-95.284	0.318	0.085
-155.691	-127.395	0.100	-0.015
-154.677	-200.000	0.041	0.265
-153.662	145.541	0.246	-0.329
-152.647	410.328	0.064	0.135
-151.633	629.568	0.072	-0.182
-150.618	110.818	0.302	-0.361
-149.604	-43.806	0.059	0.030
-148.589	-55.755	0.284	-0.126
-147.574	-117.135	0.358	0.065
-146.560	-53.115	-0.081	-0.037
-145.545	163.620	0.122	-0.171
-144.531	23.445	0.093	-0.076
-143.516	-61.527	0.185	-0.077
-142.502	-21.636	-0.084	0.051
-141.487	-79.430	-0.249	-0.084
-140.472	-123.322	0.139	0.022
-139.458	72.239	-0.124	-0.129
-138.443	-11.591	0.212	-0.139
-137.429	-119.638	0.064	0.011
-136.414	214.675	-0.191	0.300
-135.399	-20.000	-0.148	-0.091
-134.385	800.000	0.021	-0.063
-133.370	-200.000	-0.027	0.155
-132.356	-37.252	0.365	-0.194
-131.341	-174.270	0.251	-0.007
-130.326	170.622	-0.115	-0.164
-129.312	19.130	0.384	0.307
-128.297	-115.260	0.271	-0.051
-127.283	98.944	0.055	0.063
-126.268	-84.532	-0.451	0.142
-125.253	-200.000	0.017	0.222
-124.239	-50.941	-0.122	0.057
-123.224	-106.438	0.314	-0.070
-122.210	-200.000	-0.023	-0.293
