DTS Sentinel unit serial number:	SN413079Multiplexer serial number:	ORYXHardware model number:	OX4-SRSoftware version number:	ORYX F/W v4.00 Oryx Data Collector v3.7.2.0data status	okinstallation	princeton_trtdifferential loss correction	single-endedforward channel	channel 1reverse channel	N/Adate	2019/09/16time	14:50:35forward acquisition time	60.00reverse acquisition time	0.00gamma	496.2192k internal	0.2293k external	0.2293temperature offset calibration	0.9956default loss term (dB/km)	0.3790temperature slope calibration	1.0000multiplexer offset coefficient	1.0000multiplexer slope coefficient	1.0000fibre end	0.00T internal ref (°C)	41.37T ext. ref 1 (°C)	14.39T ext. ref 2 (°C)	35.75length (m)	temperature (°C)	Stokes	anti-Stokes-747.200	-11.965	-0.198	0.133
-746.185	-92.674	0.183	0.053
-745.171	-162.572	0.084	0.004
-744.156	-166.969	-0.235	-0.010
-743.142	-8.256	0.197	0.136
-742.127	-200.000	-0.027	0.167
-741.112	38.095	0.244	0.222
-740.098	-200.000	-0.067	0.357
-739.083	-84.406	0.181	0.058
-738.069	-200.000	-0.040	0.449
-737.054	800.000	0.046	0.138
-736.039	62.764	-0.230	-0.235
-735.025	-99.001	0.277	0.072
-734.010	90.375	-0.317	0.363
-732.996	334.785	0.264	-0.522
-731.981	-200.000	-0.037	-0.184
-730.966	226.830	-0.035	0.058
-729.952	204.524	-0.217	-0.344
-728.937	-200.000	0.011	-0.251
-727.923	54.976	0.033	0.033
-726.908	132.420	0.193	-0.254
-725.894	791.314	-0.081	0.226
-724.879	-200.000	-0.007	-0.072
-723.864	102.743	-0.048	-0.058
-722.850	-23.838	-0.191	-0.117
-721.835	12.758	0.209	-0.165
-720.821	-164.816	0.264	0.012
-719.806	-27.435	0.204	0.121
-718.791	-200.000	0.028	0.191
-717.777	602.499	0.030	-0.076
-716.762	62.170	-0.108	-0.110
-715.748	461.182	0.105	-0.239
-714.733	-128.726	-0.138	0.020
-713.718	-54.218	-0.183	0.085
-712.704	102.681	0.192	-0.230
-711.689	800.000	0.043	0.187
-710.675	-1.791	-0.069	0.050
-709.660	-1.519	-0.154	-0.111
-708.645	-66.117	0.095	0.039
-707.631	800.000	0.059	-0.183
-706.616	-131.984	-0.237	0.032
-705.602	800.000	-0.042	-0.131
-704.587	800.000	-0.048	-0.178
-703.572	-176.440	-0.147	-0.004
-702.558	-191.236	-0.304	-0.003
-701.543	137.393	0.095	0.127
-700.529	240.172	-0.128	0.217
-699.514	59.687	-0.253	0.255
-698.499	53.562	-0.064	0.062
-697.485	-41.338	-0.167	-0.088
-696.470	-53.731	0.385	-0.180
-695.456	800.000	-0.048	-0.206
-694.441	-87.838	-0.323	-0.099
-693.426	40.131	0.287	-0.263
-692.412	-115.985	-0.060	0.011
-691.397	-17.250	-0.230	0.148
-690.383	43.738	-0.249	0.233
-689.368	118.996	-0.109	-0.137
-688.354	-200.000	0.008	0.082
-687.339	-200.000	-0.004	-0.043
-686.324	250.010	-0.044	0.077
-685.310	-200.000	-0.073	0.676
-684.295	-200.000	-0.039	0.210
-683.281	145.329	0.179	0.245
-682.266	-200.000	-0.013	0.340
-681.251	-200.000	0.000	0.063
-680.237	800.000	0.110	-0.424
-679.222	414.858	-0.086	0.187
-678.208	-13.878	0.071	0.047
-677.193	58.699	0.040	-0.040
-676.178	69.253	-0.100	0.105
-675.164	263.758	-0.184	0.326
-674.149	477.813	0.045	-0.103
-673.135	800.000	-0.025	-0.109
-672.120	489.226	0.026	-0.061
-671.105	-200.000	0.014	-0.162
-670.091	56.377	0.132	-0.131
-669.076	800.000	0.059	0.176
-668.062	-175.848	0.106	-0.003
-667.047	304.485	0.225	-0.427
-666.032	-200.000	0.011	-0.135
-665.018	-4.981	-0.234	0.164
-664.003	-200.000	0.070	0.385
-662.989	125.073	0.233	-0.300
-661.974	-145.475	0.158	0.014
-660.959	164.557	0.135	-0.194
-659.945	725.539	0.033	0.089
-658.930	-61.705	-0.198	-0.085
-657.916	-111.582	-0.247	0.051
-656.901	300.076	0.046	0.087
-655.886	-200.000	-0.034	0.255
-654.872	-200.000	0.044	0.208
-653.857	-47.539	-0.241	-0.119
-652.843	-39.547	-0.225	0.120
-651.828	647.836	-0.032	0.084
-650.814	29.265	-0.276	0.239
-649.799	694.908	0.064	-0.172
-648.784	800.000	0.064	-0.236
-647.770	510.476	-0.010	0.024
-646.755	687.913	-0.027	-0.072
-645.741	-200.000	-0.058	0.265
-644.726	-200.000	-0.020	0.311
-643.711	186.439	-0.216	0.328
-642.697	232.856	-0.183	-0.306
-641.682	-92.526	0.290	-0.083
-640.668	800.000	0.065	0.200
-639.653	94.462	0.076	-0.088
-638.638	-77.530	-0.262	0.093
-637.624	800.000	-0.024	0.081
-636.609	76.450	0.048	-0.052
-635.595	-95.591	-0.102	0.028
-634.580	125.940	-0.089	-0.114
-633.565	158.947	-0.079	0.111
-632.551	-68.400	-0.207	0.082
-631.536	800.000	0.022	0.065
-630.522	140.368	-0.136	0.183
-629.507	-122.835	0.228	0.037
-628.492	-126.885	0.242	-0.036
-627.478	-171.298	-0.454	-0.016
-626.463	800.000	-0.005	-0.019
-625.449	-10.250	-0.205	-0.138
-624.434	-145.877	-0.110	-0.010
-623.419	-159.602	-0.233	-0.013
-622.405	800.000	0.066	0.280
-621.390	6.100	0.145	0.109
-620.376	772.957	0.067	-0.185
-619.361	30.117	-0.347	-0.301
-618.346	-10.697	-0.085	-0.057
-617.332	-103.028	-0.237	0.057
-616.317	142.011	0.237	0.320
-615.303	-84.619	0.157	-0.050
-614.288	800.000	0.126	-0.385
-613.273	-126.436	0.172	-0.026
-612.259	-40.396	-0.090	0.047
-611.244	-200.000	-0.009	0.092
-610.230	800.000	0.038	0.110
-609.215	51.574	-0.177	-0.171
-608.201	-200.000	-0.041	0.198
-607.186	800.000	0.062	0.242
-606.171	-72.674	-0.065	0.024
-605.157	-13.890	0.083	0.055
-604.142	106.602	-0.189	0.228
-603.128	81.521	0.141	-0.155
-602.113	234.120	-0.135	-0.227
-601.098	523.323	0.130	0.312
-600.084	126.993	-0.140	0.181
-599.069	800.000	-0.089	0.251
-598.055	-200.000	-0.026	-0.359
-597.040	-200.000	0.003	0.093
-596.025	-162.994	0.239	-0.012
-595.011	-200.000	-0.052	-0.244
-593.996	-26.378	-0.155	-0.093
-592.982	150.891	0.127	-0.176
-591.967	-63.489	-0.038	0.016
-590.952	542.502	0.021	0.051
-589.938	800.000	-0.103	-0.308
-588.923	-200.000	-0.015	-0.072
-587.909	-200.000	0.022	0.301
-586.894	-170.276	-0.089	-0.003
-585.879	-200.000	-0.005	-0.078
-584.865	-23.248	0.131	-0.080
-583.850	-148.928	0.199	-0.016
-582.836	-69.789	-0.119	-0.046
-581.821	-59.632	0.302	0.132
-580.806	90.546	0.149	0.169
-579.792	800.000	-0.056	0.192
-578.777	800.000	0.111	-0.458
-577.763	-161.671	0.197	0.010
-576.748	-200.000	-0.003	0.022
-575.733	736.266	-0.108	-0.295
-574.719	-2.012	-0.157	-0.112
-573.704	589.433	-0.032	0.080
-572.690	208.754	0.073	-0.117
-571.675	-70.351	0.336	-0.130
-570.661	800.000	0.041	-0.169
-569.646	68.291	0.293	0.306
-568.631	80.141	-0.104	-0.114
-567.617	118.848	0.074	-0.092
-566.602	-165.622	-0.066	0.003
-565.588	-37.919	0.230	-0.124
-564.573	-200.000	0.014	-0.213
-563.558	-200.000	0.016	-0.078
-562.544	-144.132	-0.183	-0.017
-561.529	-134.563	-0.214	0.027
-560.515	260.378	0.132	0.232
-559.500	-7.195	-0.094	0.065
-558.485	800.000	0.085	-0.321
-557.471	-49.554	-0.274	-0.133
-556.456	336.824	0.057	-0.112
-555.442	163.373	-0.209	-0.299
-554.427	-200.000	0.013	-0.163
-553.412	-79.414	-0.262	-0.090
-552.398	-102.090	-0.238	-0.058
-551.383	-127.778	-0.260	0.038
-550.369	186.296	0.138	0.208
-549.354	28.917	-0.201	-0.173
-548.339	-128.986	-0.128	-0.018
-547.325	476.584	0.079	0.181
-546.310	800.000	-0.076	-0.250
-545.296	-66.653	-0.491	0.198
-544.281	800.000	0.088	0.304
-543.266	-200.000	0.042	0.195
-542.252	261.873	-0.060	0.105
-541.237	-200.000	-0.012	0.210
-540.223	111.044	-0.119	0.146
-539.208	268.034	0.173	0.307
-538.193	-79.511	-0.239	-0.082
-537.179	126.122	-0.293	-0.376
-536.164	-183.340	0.356	-0.006
-535.150	800.000	0.114	-0.389
-534.135	-132.894	0.102	0.013
-533.121	-76.076	0.271	0.097
-532.106	-94.587	-0.402	0.111
-531.091	-200.000	0.006	0.326
-530.077	-200.000	0.024	0.151
-529.062	-15.245	0.222	-0.144
-528.048	489.477	0.116	-0.268
-527.033	27.120	0.227	-0.194
-526.018	-13.609	0.069	-0.045
-525.004	128.190	-0.086	0.111
-523.989	-200.000	0.022	-0.488
-522.975	73.937	0.085	-0.090
-521.960	151.576	0.112	-0.155
-520.945	258.516	0.031	0.054
-519.931	-71.418	-0.058	0.022
-518.916	-149.246	-0.189	-0.015
-517.902	394.675	-0.071	-0.149
-516.887	-99.639	0.070	0.018
-515.872	118.778	-0.034	0.042
-514.858	251.555	-0.140	-0.242
-513.843	-103.064	0.076	-0.018
-512.829	-200.000	0.019	-0.119
-511.814	-128.545	-0.200	0.029
-510.799	88.396	-0.185	0.209
-509.785	-92.140	0.042	-0.012
-508.770	197.774	0.085	-0.131
-507.756	325.817	0.053	-0.102
-506.741	244.927	0.081	-0.138
-505.726	-48.834	0.059	-0.029
-504.712	-200.000	0.012	-0.285
-503.697	-200.000	0.000	0.078
-502.683	-44.519	-0.355	-0.180
-501.668	-200.000	0.016	-0.093
-500.653	-83.441	-0.259	0.084
-499.639	178.361	0.068	-0.101
-498.624	-178.486	0.315	0.007
-497.610	-68.138	0.248	-0.098
-496.595	-200.000	0.008	-0.159
-495.581	-200.000	-0.030	0.136
-494.566	237.110	0.153	-0.257
-493.551	19.610	0.325	-0.265
-492.537	106.133	-0.155	-0.186
-491.522	674.934	-0.055	-0.146
-490.508	-156.036	-0.118	0.008
-489.493	-17.278	-0.130	0.083
-488.478	-200.000	0.000	-0.281
-487.464	137.631	-0.076	0.101
-486.449	518.526	-0.028	0.065
-485.435	85.514	0.249	-0.277
-484.420	-99.316	-0.317	-0.081
-483.405	-92.833	0.295	-0.084
-482.391	800.000	0.037	-0.111
-481.376	-113.671	-0.123	-0.024
-480.362	-168.993	-0.154	-0.006
-479.347	-36.507	0.208	-0.113
-478.332	-44.493	-0.068	-0.035
-477.318	404.129	0.046	0.097
-476.303	-200.000	-0.003	-0.256
-475.289	-71.778	0.036	0.013
-474.274	-1.246	-0.165	-0.118
-473.259	28.285	0.193	0.165
-472.245	-132.120	0.144	-0.019
-471.230	153.741	0.071	0.098
-470.216	-121.774	0.168	-0.028
-469.201	-59.478	0.264	-0.115
-468.186	-129.278	0.466	0.066
-467.172	449.677	0.040	-0.089
-466.157	137.503	0.154	0.204
-465.143	251.935	0.103	-0.178
-464.128	-6.146	-0.139	0.096
-463.113	237.525	0.030	-0.051
-462.099	-80.041	-0.288	0.098
-461.084	531.454	-0.034	0.081
-460.070	238.584	-0.120	-0.201
-459.055	-178.494	-0.396	-0.009
-458.040	-200.000	-0.032	-0.206
-457.026	-103.964	0.260	0.061
-456.011	-66.758	0.195	-0.078
-454.997	180.741	-0.064	-0.096
-453.982	-111.248	-0.093	0.019
-452.968	-22.513	0.189	0.116
-451.953	-168.813	0.211	-0.008
-450.938	16.827	-0.231	0.185
-449.924	-65.556	0.098	0.040
-448.909	138.200	-0.100	0.133
-447.895	-29.339	-0.238	-0.138
-446.880	-200.000	0.057	-0.270
-445.865	-53.375	-0.197	0.091
-444.851	-166.678	0.122	0.005
-443.836	-99.158	0.149	-0.038
-442.822	-65.360	0.345	0.141
-441.807	16.758	-0.211	-0.169
-440.792	-144.659	-0.394	-0.037
-439.778	-35.404	0.139	0.077
-438.763	-40.143	0.354	-0.186
-437.749	421.986	-0.039	-0.084
-436.734	-200.000	-0.014	-0.126
-435.719	-70.193	0.237	0.091
-434.705	-122.141	0.526	-0.087
-433.690	56.129	0.150	0.148
-432.676	-31.417	-0.078	-0.044
-431.661	796.083	-0.049	0.135
-430.646	77.200	0.129	-0.138
-429.632	-200.000	0.006	-0.131
-428.617	-24.349	-0.260	0.156
-427.603	800.000	0.040	-0.149
-426.588	-200.000	0.005	0.302
-425.573	-22.553	-0.171	-0.104
-424.559	63.677	0.026	-0.026
-423.544	-200.000	0.019	0.217
-422.530	281.477	-0.162	0.293
-421.515	33.369	-0.114	0.100
-420.500	-76.249	-0.235	0.084
-419.486	526.496	-0.057	0.137
-418.471	-200.000	0.042	-0.223
-417.457	-73.567	-0.105	-0.039
-416.442	237.610	0.087	0.145
-415.428	18.972	-0.121	-0.098
-414.413	360.084	0.039	-0.079
-413.398	783.574	0.096	0.266
-412.384	105.635	-0.093	-0.111
-411.369	7.486	0.124	-0.094
-410.355	-200.000	-0.007	-0.130
-409.340	-43.110	0.396	0.203
-408.325	-73.258	0.140	0.052
-407.311	800.000	0.076	-0.303
-406.296	327.950	0.101	0.196
-405.282	68.746	-0.067	0.069
-404.267	-186.510	-0.324	-0.005
-403.252	121.858	0.100	-0.127
-402.238	292.540	0.117	-0.216
-401.223	-27.568	0.068	0.040
-400.209	23.755	0.191	0.159
-399.194	-158.117	-0.130	0.008
-398.179	361.270	-0.162	0.327
-397.165	-58.751	0.115	-0.050
-396.150	800.000	-0.103	0.411
-395.136	136.717	0.162	-0.214
-394.121	216.374	-0.216	-0.347
-393.106	-12.688	0.129	-0.085
-392.092	-16.822	-0.133	-0.085
-391.077	109.899	-0.118	0.143
-390.063	67.791	-0.222	-0.229
-389.048	-80.238	0.265	-0.090
-388.033	342.183	-0.198	-0.392
-387.019	352.265	-0.056	0.111
-386.004	-91.577	0.171	-0.049
-384.990	93.760	-0.137	0.157
-383.975	8.400	-0.160	-0.121
-382.960	-91.016	-0.100	-0.029
-381.946	-200.000	0.046	0.330
-380.931	-76.123	0.169	-0.060
-379.917	-200.000	0.003	0.269
-378.902	-161.982	0.241	0.012
-377.888	-29.553	0.095	0.055
-376.873	-200.000	0.029	0.150
-375.858	-200.000	-0.057	-0.340
-374.844	134.843	-0.173	-0.227
-373.829	-61.318	0.200	-0.085
-372.815	259.719	0.201	0.349
-371.800	70.473	-0.127	0.132
-370.785	246.394	0.121	-0.206
-369.771	53.016	-0.232	-0.224
-368.756	-123.188	0.277	0.045
-367.742	-95.595	-0.266	0.072
-366.727	55.173	0.165	-0.161
-365.712	262.883	0.088	0.154
-364.698	800.000	-0.046	0.200
-363.683	-200.000	0.018	0.174
-362.669	25.226	-0.007	-0.006
-361.654	787.833	0.091	0.252
-360.639	-46.404	-0.089	0.044
-359.625	-141.955	-0.380	-0.038
-358.610	-2.954	0.161	0.114
-357.596	-200.000	0.011	0.150
-356.581	-200.000	0.031	0.224
-355.566	6.504	0.404	0.303
-354.552	111.875	0.136	0.165
-353.537	755.946	-0.050	0.137
-352.523	115.360	-0.139	-0.172
-351.508	-21.835	0.099	0.061
-350.493	-151.973	0.187	0.014
-349.479	-200.000	-0.017	0.292
-348.464	64.565	-0.088	0.090
-347.450	-130.415	-0.340	0.046
-346.435	373.345	0.063	0.129
-345.420	-10.154	0.168	0.113
-344.406	44.230	-0.044	0.041
-343.391	-59.820	-0.111	0.048
-342.377	800.000	-0.073	-0.319
-341.362	277.535	-0.136	-0.243
-340.348	140.150	0.096	-0.127
-339.333	-147.760	-0.432	0.036
-338.318	-200.000	-0.037	-0.524
-337.304	390.927	0.019	-0.040
-336.289	648.684	-0.184	0.473
-335.275	-91.520	0.266	-0.077
-334.260	-95.155	-0.046	0.012
-333.245	22.467	0.137	-0.112
-332.231	-200.000	-0.057	-0.289
-331.216	800.000	-0.110	-0.406
-330.202	204.076	-0.160	0.249
-329.187	-64.789	-0.214	-0.087
-328.172	286.725	-0.129	0.235
-327.158	-200.000	-0.345	0.001
-326.143	-200.000	0.004	-0.044
-325.129	-83.368	0.227	0.073
-324.114	-200.000	-0.011	0.181
-323.099	179.968	-0.016	-0.024
-322.085	34.019	0.021	-0.018
-321.070	134.957	0.239	-0.313
-320.056	275.502	0.083	0.148
-319.041	51.875	0.135	0.130
-318.026	800.000	-0.146	0.492
-317.012	-200.000	-0.063	0.301
-315.997	207.562	-0.146	0.229
-314.983	-136.809	-0.313	-0.036
-313.968	-200.000	-0.002	0.096
-312.953	-17.147	0.324	-0.206
-311.939	-200.000	0.000	0.152
-310.924	-200.000	-0.303	0.000
-309.910	-133.771	0.353	-0.044
-308.895	-200.000	0.013	0.151
-307.880	-74.452	-0.049	-0.018
-306.866	-200.000	0.011	0.164
-305.851	-7.927	-0.138	0.094
-304.837	38.346	-0.102	-0.092
-303.822	411.527	-0.104	-0.222
-302.807	-73.470	0.204	0.075
-301.793	-200.000	0.006	0.070
-300.778	121.545	-0.050	0.063
-299.764	-200.000	0.013	-0.099
-298.749	79.344	-0.162	-0.175
-297.735	-147.132	-0.346	-0.030
-296.720	-92.067	-0.281	0.080
-295.705	525.607	0.052	0.123
-294.691	440.967	0.076	0.167
-293.676	-148.920	-0.365	-0.030
-292.662	-11.660	0.253	0.167
-291.647	800.000	0.099	0.274
-290.632	800.000	0.082	0.267
-289.618	-64.696	0.250	0.102
-288.603	-200.000	-0.077	-0.370
-287.589	134.427	-0.037	-0.048
-286.574	-200.000	-0.010	0.319
-285.559	120.821	-0.169	-0.212
-284.545	-137.678	-0.411	0.046
-283.530	27.047	-0.213	0.179
-282.516	241.029	-0.074	0.123
-281.501	-92.012	-0.225	-0.064
-280.486	-115.759	0.158	0.030
-279.472	63.623	0.180	-0.182
-278.457	-200.000	0.001	-0.490
-277.443	97.025	-0.200	0.231
-276.428	800.000	-0.045	0.164
-275.413	-34.229	-0.312	-0.172
-274.399	-20.503	0.441	0.272
-273.384	-184.137	-0.149	0.002
-272.370	-200.000	0.039	-0.360
-271.355	-158.656	0.322	-0.019
-270.340	-36.868	0.079	0.042
-269.326	-96.215	0.067	0.018
-268.311	41.108	-0.195	0.177
-267.297	-120.890	0.171	-0.029
-266.282	-200.000	0.002	-0.233
-265.267	33.585	-0.043	-0.038
-264.253	800.000	0.097	0.326
-263.238	566.016	0.059	-0.144
-262.224	-200.000	0.004	-0.026
-261.209	107.885	-0.205	0.246
-260.195	-61.702	0.227	0.096
-259.180	-31.221	0.307	0.174
-258.165	-49.803	-0.348	0.166
-257.151	-2.093	0.152	0.107
-256.136	-97.554	-0.313	-0.082
-255.122	-142.837	0.133	-0.013
-254.107	-200.000	0.035	-0.380
-253.092	-73.052	0.064	-0.023
-252.078	-200.000	0.150	-0.001
-251.063	-139.891	0.216	-0.023
-250.049	800.000	-0.039	-0.111
-249.034	-12.823	-0.056	0.036
-248.019	-116.992	-0.218	0.040
-247.005	-6.777	0.220	-0.150
-245.990	39.334	0.214	-0.192
-244.976	-123.792	-0.205	-0.033
-243.961	800.000	0.110	0.338
-242.946	-144.470	0.353	0.033
-241.932	-49.254	0.236	-0.113
-240.917	800.000	-0.042	0.141
-239.903	36.434	0.029	-0.026
-238.888	-122.726	-0.244	0.040
-237.873	800.000	-0.062	-0.191
-236.859	-200.000	-0.021	-0.124
-235.844	250.126	0.042	0.071
-234.830	665.021	0.073	-0.188
-233.815	800.000	-0.097	0.291
-232.800	-51.695	0.089	0.042
-231.786	-200.000	0.313	-0.001
-230.771	-117.091	-0.147	-0.027
-229.757	-44.798	0.083	0.041
-228.742	800.000	-0.055	0.213
-227.727	-200.000	-0.012	-0.066
-226.713	154.946	0.073	0.101
-225.698	160.861	-0.098	-0.137
-224.684	122.155	0.092	-0.116
-223.669	-31.094	-0.366	0.207
-222.655	800.000	-0.068	0.294
-221.640	-82.062	-0.209	0.069
-220.625	40.984	0.277	0.250
-219.611	-99.820	-0.256	-0.064
-218.596	-137.605	-0.216	-0.024
-217.582	787.784	0.092	-0.253
-216.567	-18.932	-0.408	0.254
-215.552	-42.955	0.146	-0.074
-214.538	30.752	0.081	-0.069
-213.523	471.476	0.171	-0.387
-212.509	-42.096	-0.135	0.069
-211.494	-136.402	-0.217	-0.025
-210.479	800.000	0.027	-0.106
-209.465	66.174	0.065	-0.066
-208.450	93.148	-0.252	-0.286
-207.436	62.630	0.062	0.062
-206.421	-134.292	0.118	-0.015
-205.406	109.733	-0.174	0.209
-204.392	-79.651	0.045	-0.015
-203.377	58.098	-0.253	-0.248
-202.363	-68.200	0.258	-0.100
-201.348	-65.139	0.291	0.117
-200.333	329.316	0.004	-0.007
-199.319	-200.000	0.041	0.339
-198.304	-17.901	-0.225	0.142
-197.290	734.238	0.088	0.236
-196.275	10.221	0.188	0.143
-195.260	-109.014	0.039	0.008
-194.246	-121.135	-0.120	0.020
-193.231	6.086	-0.232	0.172
-192.217	-26.940	0.173	0.101
-191.202	-133.866	0.186	0.023
-190.187	800.000	-0.076	0.243
-189.173	-69.322	-0.154	0.059
-188.158	794.918	-0.034	-0.093
-187.144	-104.547	-0.209	0.048
-186.129	316.891	-0.048	-0.090
-185.114	286.298	-0.235	0.424
-184.100	156.844	-0.034	-0.047
-183.085	-145.230	0.310	-0.028
-182.071	-200.000	0.007	-0.236
-181.056	191.069	0.118	0.178
-180.042	73.990	0.073	-0.077
-179.027	-200.000	0.003	0.172
-178.012	430.974	-0.024	-0.053
-176.998	93.479	0.165	-0.187
-175.983	11.735	-0.211	-0.162
-174.969	-86.406	0.461	0.142
-173.954	-200.000	-0.002	0.166
-172.939	-200.000	-0.024	0.124
-171.925	107.515	0.054	-0.065
-170.910	800.000	0.202	-0.583
-169.896	604.553	0.107	-0.265
-168.881	-200.000	-0.049	-0.258
-167.866	302.274	0.038	-0.070
-166.852	285.357	-0.098	-0.176
-165.837	111.984	0.121	0.147
-164.823	14.652	0.083	-0.065
-163.808	-23.019	-0.104	-0.063
-162.793	26.495	0.067	0.056
-161.779	-200.000	0.024	0.216
-160.764	62.832	0.134	-0.134
-159.750	671.580	0.115	0.298
-158.735	380.539	0.200	0.410
-157.720	-102.007	0.231	0.056
-156.706	800.000	0.074	0.299
-155.691	-81.759	-0.153	0.050
-154.677	-200.000	0.011	0.446
-153.662	107.063	0.214	-0.254
-152.647	268.666	-0.118	-0.206
-151.633	-155.469	0.356	0.023
-150.618	25.656	-0.123	-0.102
-149.604	644.614	-0.067	-0.172
-148.589	31.718	0.492	0.423
-147.574	-200.000	0.070	-0.515
-146.560	-114.698	-0.177	-0.034
-145.545	-70.788	-0.205	-0.077
-144.531	-200.000	0.005	-0.362
-143.516	-200.000	0.009	-0.069
-142.502	227.395	0.039	0.063
-141.487	-166.769	-0.201	0.008
-140.472	40.756	0.143	-0.129
-139.458	146.930	0.232	0.312
-138.443	-200.000	0.015	-0.187
-137.429	89.607	0.194	0.216
-136.414	8.940	0.194	0.147
-135.399	-5.002	0.207	0.142
-134.385	-185.804	-0.095	0.001
-133.370	-132.201	-0.208	-0.027
-132.356	-84.309	-0.190	-0.060
-131.341	573.604	-0.088	-0.214
-130.326	-134.160	-0.196	0.024
-129.312	-108.502	0.418	0.090
-128.297	12.075	0.229	0.176
-127.283	-117.566	0.245	-0.044
-126.268	-186.764	-0.133	0.002
-125.253	-200.000	-0.017	-0.138
-124.239	30.738	-0.199	0.170
-123.224	367.470	0.081	-0.162
-122.210	63.413	0.140	-0.140
-121.195	678.257	0.135	0.350
