DTS Sentinel unit serial number:	SN413079Multiplexer serial number:	ORYXHardware model number:	OX4-SRSoftware version number:	ORYX F/W v4.00 Oryx Data Collector v3.7.2.0data status	okinstallation	princeton_trtdifferential loss correction	single-endedforward channel	channel 1reverse channel	N/Adate	2019/09/18time	21:34:35forward acquisition time	60.00reverse acquisition time	0.00gamma	496.2192k internal	0.2341k external	0.2341temperature offset calibration	1.0020default loss term (dB/km)	0.3790temperature slope calibration	1.0000multiplexer offset coefficient	1.0000multiplexer slope coefficient	1.0000fibre end	0.00T internal ref (°C)	25.14T ext. ref 1 (°C)	0.82T ext. ref 2 (°C)	18.25length (m)	temperature (°C)	Stokes	anti-Stokes-747.200	-16.625	0.319	0.202
-746.185	-109.232	-0.045	0.010
-745.171	209.009	-0.175	0.274
-744.156	44.593	0.158	-0.146
-743.142	555.264	-0.114	0.274
-742.127	-153.508	0.037	-0.003
-741.112	213.360	-0.049	-0.077
-740.098	-60.412	0.115	0.049
-739.083	114.499	-0.286	-0.350
-738.069	-125.386	-0.174	0.027
-737.054	26.588	0.091	-0.076
-736.039	428.026	0.064	-0.139
-735.025	138.350	-0.100	0.131
-734.010	-30.449	0.177	-0.100
-732.996	-200.000	-0.021	-0.224
-731.981	-200.000	0.031	-0.438
-730.966	800.000	0.084	-0.328
-729.952	-200.000	-0.058	0.366
-728.937	256.897	-0.147	-0.253
-727.923	-200.000	0.015	-0.123
-726.908	-200.000	0.036	0.284
-725.894	-80.373	-0.248	-0.083
-724.879	-167.272	-0.403	-0.016
-723.864	214.554	0.075	0.119
-722.850	-15.038	0.159	-0.102
-721.835	-200.000	0.017	-0.083
-720.821	-143.659	0.279	0.027
-719.806	-4.327	0.220	-0.152
-718.791	-200.000	0.022	-0.201
-717.777	-200.000	0.033	0.172
-716.762	150.420	0.098	-0.134
-715.748	800.000	0.075	-0.268
-714.733	81.204	0.070	-0.075
-713.718	-107.908	-0.518	-0.113
-712.704	-78.273	-0.218	-0.075
-711.689	159.457	0.075	-0.104
-710.675	-200.000	-0.064	-0.284
-709.660	284.244	-0.168	-0.303
-708.645	-30.057	0.512	-0.291
-707.631	-116.709	-0.128	-0.024
-706.616	-11.860	0.257	0.169
-705.602	800.000	0.039	0.167
-704.587	108.181	0.102	-0.122
-703.572	-200.000	-0.028	0.175
-702.558	131.892	-0.054	0.069
-701.543	-65.526	-0.412	-0.166
-700.529	-18.638	0.341	-0.213
-699.514	-41.630	-0.296	0.152
-698.499	800.000	0.034	0.105
-697.485	-200.000	0.059	0.361
-696.470	-111.700	0.145	0.029
-695.456	246.803	-0.200	0.338
-694.441	74.338	-0.081	-0.085
-693.426	28.123	0.316	-0.267
-692.412	607.488	-0.077	-0.192
-691.397	291.167	-0.337	-0.612
-690.383	-43.892	0.099	-0.050
-689.368	-42.080	-0.190	0.097
-688.354	-113.361	-0.179	-0.035
-687.339	188.822	0.126	0.189
-686.324	148.253	0.027	0.036
-685.310	-4.216	-0.122	-0.084
-684.295	-141.045	0.203	0.021
-683.281	800.000	-0.047	-0.167
-682.266	-15.337	-0.234	0.150
-681.251	-155.475	-0.195	0.013
-680.237	-46.642	0.304	0.149
-679.222	-200.000	0.057	0.315
-678.208	-39.550	-0.287	0.150
-677.193	-82.722	0.088	-0.029
-676.178	-69.707	-0.121	0.046
-675.164	-36.726	0.300	-0.161
-674.149	-33.021	-0.190	-0.105
-673.135	0.044	0.188	-0.134
-672.120	126.030	-0.153	0.194
-671.105	800.000	0.075	0.266
-670.091	-200.000	-0.051	-0.257
-669.076	624.458	-0.036	-0.092
-668.062	-37.539	0.301	-0.160
-667.047	-72.412	0.045	-0.017
-666.032	800.000	0.059	0.181
-665.018	1.109	-0.239	-0.171
-664.003	-200.000	-0.020	0.088
-662.989	800.000	-0.026	-0.084
-661.974	-15.553	-0.317	0.202
-660.959	-95.899	-0.148	-0.039
-659.945	218.714	0.218	-0.348
-658.930	168.613	-0.111	-0.158
-657.916	254.877	0.061	0.104
-656.901	9.868	-0.146	-0.111
-655.886	-191.437	-0.176	-0.002
-654.872	-97.789	-0.123	0.032
-653.857	96.280	0.323	-0.369
-652.843	-101.233	0.241	0.059
-651.828	679.127	-0.049	0.126
-650.814	-166.724	-0.072	-0.003
-649.799	-197.105	-0.232	0.001
-648.784	-4.056	-0.076	-0.053
-647.770	-164.527	-0.337	0.015
-646.755	-119.494	0.118	-0.020
-645.741	49.589	0.210	0.197
-644.726	800.000	0.077	-0.256
-643.711	271.449	-0.038	-0.067
-642.697	-150.035	-0.239	-0.019
-641.682	800.000	-0.048	0.135
-640.668	-14.766	0.107	-0.069
-639.653	-91.637	-0.067	0.019
-638.638	-108.527	-0.274	-0.059
-637.624	-59.840	0.092	-0.039
-636.609	14.071	0.323	0.251
-635.595	800.000	-0.068	0.226
-634.580	86.320	0.041	0.045
-633.565	154.918	-0.252	-0.346
-632.551	-157.685	-0.215	-0.013
-631.536	7.691	0.053	0.039
-630.522	800.000	-0.072	-0.270
-629.507	33.212	0.184	-0.159
-628.492	267.323	0.036	-0.063
-627.478	612.293	0.021	-0.053
-626.463	-22.746	0.318	-0.192
-625.449	800.000	0.032	0.088
-624.434	246.175	-0.026	0.044
-623.419	-200.000	-0.008	-0.219
-622.405	-61.015	-0.176	0.074
-621.390	-86.472	0.255	-0.078
-620.376	-156.632	0.101	-0.006
-619.361	36.083	0.108	-0.095
-618.346	800.000	-0.024	0.095
-617.332	-36.478	-0.122	-0.066
-616.317	-69.354	-0.209	0.080
-615.303	82.303	0.291	-0.315
-614.288	-200.000	0.007	-0.156
-613.273	-200.000	-0.011	-0.265
-612.259	-77.682	0.213	-0.074
-611.244	800.000	-0.046	-0.183
-610.230	-71.336	-0.030	-0.011
-609.215	204.397	0.130	-0.201
-608.201	245.294	-0.134	-0.225
-607.186	-200.000	-0.034	-0.260
-606.171	-200.000	0.065	-0.365
-605.157	-106.705	0.143	-0.032
-604.142	179.814	-0.088	-0.128
-603.128	37.029	-0.109	0.096
-602.113	114.843	-0.093	-0.112
-601.098	-200.000	0.001	0.272
-600.084	-69.556	0.293	0.112
-599.069	-200.000	0.013	-0.252
-598.055	-66.462	-0.086	0.034
-597.040	800.000	0.014	0.055
-596.025	-200.000	-0.292	0.000
-595.011	800.000	0.095	-0.361
-593.996	-200.000	0.038	-0.227
-592.982	-139.389	-0.512	0.055
-591.967	-29.826	-0.207	-0.117
-590.952	-104.108	-0.326	-0.076
-589.938	25.042	0.140	0.115
-588.923	-200.000	0.025	0.246
-587.909	-107.142	0.216	0.047
-586.894	130.627	-0.195	0.249
-585.879	-55.022	0.133	-0.060
-584.865	234.872	0.171	0.282
-583.850	-200.000	-0.032	-0.177
-582.836	-41.363	-0.349	-0.179
-581.821	54.975	-0.039	0.037
-580.806	-200.000	-0.006	-0.131
-579.792	-200.000	-0.003	0.256
-578.777	116.932	0.145	0.177
-577.763	-27.353	0.289	-0.167
-576.748	166.444	-0.186	-0.262
-575.733	800.000	0.047	0.193
-574.719	800.000	0.094	-0.379
-573.704	-70.703	0.204	-0.077
-572.690	-179.355	-0.337	-0.007
-571.675	-105.228	-0.208	-0.047
-570.661	-78.205	-0.253	-0.086
-569.646	174.593	-0.135	0.194
-568.631	78.201	0.174	-0.185
-567.617	89.260	-0.117	0.130
-566.602	-192.761	-0.358	-0.003
-565.588	-23.282	-0.033	-0.020
-564.573	48.796	-0.255	-0.238
-563.558	213.892	-0.207	0.325
-562.544	800.000	0.120	0.378
-561.529	372.676	-0.049	0.099
-560.515	34.436	-0.224	0.194
-559.500	800.000	-0.062	-0.218
-558.485	-200.000	-0.019	-0.262
-557.471	-23.839	-0.313	0.187
-556.456	123.319	0.058	0.073
-555.442	-91.664	0.131	0.037
-554.427	-107.039	0.211	0.046
-553.412	-80.372	-0.148	-0.049
-552.398	78.354	0.358	-0.380
-551.383	-140.687	0.084	-0.009
-550.369	150.846	-0.069	-0.094
-549.354	-200.000	0.022	-0.100
-548.339	133.371	0.124	-0.159
-547.325	71.415	-0.186	-0.192
-546.310	191.039	0.048	-0.071
-545.296	-96.182	-0.454	-0.120
-544.281	487.990	0.108	-0.246
-543.266	-200.000	0.082	-0.462
-542.252	-200.000	0.007	0.121
-541.237	-200.000	0.003	-0.092
-540.223	272.578	-0.070	-0.122
-539.208	136.048	-0.244	0.315
-538.193	-200.000	0.057	0.266
-537.179	800.000	-0.060	0.206
-536.164	-200.000	0.005	-0.035
-535.150	-152.922	0.268	0.019
-534.135	503.794	0.132	0.303
-533.121	-200.000	-0.016	-0.491
-532.106	-200.000	0.021	-0.138
-531.091	718.411	0.135	-0.356
-530.077	-46.887	-0.131	0.064
-529.062	-90.900	0.038	0.011
-528.048	-121.503	0.058	0.009
-527.033	99.891	-0.092	0.106
-526.018	-22.391	-0.140	-0.084
-525.004	-152.664	-0.157	0.011
-523.989	23.333	-0.085	-0.069
-522.975	-118.921	0.220	-0.038
-521.960	-96.440	-0.465	-0.122
-520.945	800.000	-0.038	0.138
-519.931	81.255	-0.123	-0.132
-518.916	545.762	0.087	0.206
-517.902	767.134	0.117	0.316
-516.887	105.930	-0.131	0.154
-515.872	-149.047	0.061	0.005
-514.858	-102.225	0.262	0.062
-513.843	23.333	-0.098	-0.080
-512.829	-106.035	-0.180	-0.040
-511.814	-200.000	0.027	0.248
-510.799	-136.405	0.163	0.019
-509.785	-113.505	-0.058	0.011
-508.770	-112.655	0.148	0.029
-507.756	-102.034	-0.176	-0.042
-506.741	-60.158	-0.038	-0.016
-505.726	-165.507	-0.082	0.004
-504.712	-200.000	0.031	-0.304
-503.697	-50.756	-0.199	-0.093
-502.683	114.468	0.096	-0.117
-501.668	800.000	-0.031	0.133
-500.653	800.000	-0.097	0.342
-499.639	-200.000	-0.006	-0.084
-498.624	-4.733	-0.052	-0.035
-497.610	-67.475	-0.193	0.075
-496.595	-33.846	-0.018	-0.010
-495.581	-200.000	0.017	-0.099
-494.566	29.907	-0.142	-0.120
-493.551	-100.300	0.290	0.071
-492.537	-200.000	-0.015	0.341
-491.522	230.421	0.077	0.125
-490.508	-121.094	0.225	0.037
-489.493	-10.671	-0.155	0.102
-488.478	-141.296	-0.266	0.027
-487.464	-129.193	-0.143	0.020
-486.449	108.997	0.135	0.160
-485.435	18.165	0.214	0.169
-484.420	-117.059	-0.241	-0.044
-483.405	108.559	-0.138	-0.164
-482.391	-110.391	0.110	-0.023
-481.376	-61.854	-0.288	0.120
-480.362	-13.981	-0.148	0.095
-479.347	-142.742	0.304	-0.029
-478.332	800.000	-0.134	0.438
-477.318	-48.575	0.307	0.146
-476.303	-113.638	0.074	0.014
-475.289	800.000	0.053	0.146
-474.274	-51.162	-0.250	0.116
-473.259	2.476	-0.377	0.271
-472.245	-104.425	0.014	-0.003
-471.230	-200.000	-0.007	0.156
-470.216	-200.000	-0.040	-0.235
-469.201	-200.000	0.078	0.344
-468.186	800.000	0.061	-0.203
-467.172	-169.594	-0.144	0.005
-466.157	-200.000	0.029	-0.247
-465.143	39.070	0.291	-0.258
-464.128	800.000	0.040	-0.170
-463.113	-200.000	0.013	0.098
-462.099	11.648	0.024	0.019
-461.084	252.559	0.203	-0.344
-460.070	242.913	0.063	-0.105
-459.055	-200.000	0.019	-0.195
-458.040	-200.000	0.029	0.267
-457.026	36.589	0.102	-0.089
-456.011	88.841	-0.092	-0.101
-454.997	297.734	0.017	0.031
-453.982	1.637	0.049	0.035
-452.968	-55.808	-0.140	0.062
-451.953	406.733	0.094	0.197
-450.938	800.000	0.065	0.278
-449.924	47.861	0.174	-0.161
-448.909	-110.536	-0.362	0.074
-447.895	800.000	0.065	0.194
-446.880	688.577	0.056	0.146
-445.865	-130.174	-0.238	0.032
-444.851	60.370	-0.308	0.302
-443.836	-200.000	-0.010	-0.198
-442.822	-200.000	-0.019	-0.116
-441.807	396.778	-0.052	0.108
-440.792	-4.887	0.303	0.206
-439.778	-81.096	0.322	-0.105
-438.763	232.778	-0.102	0.166
-437.749	133.148	-0.124	-0.159
-436.734	3.024	0.150	-0.108
-435.719	195.289	0.106	-0.159
-434.705	-38.255	-0.198	-0.104
-433.690	-18.777	-0.179	0.110
-432.676	-104.230	0.164	-0.038
-431.661	-200.000	0.007	0.056
-430.646	-115.572	0.191	-0.036
-429.632	-23.532	0.215	-0.128
-428.617	800.000	-0.073	-0.248
-427.603	-200.000	0.006	0.121
-426.588	800.000	0.003	-0.010
-425.573	-200.000	0.052	-0.451
-424.559	800.000	0.093	0.350
-423.544	-117.604	0.146	0.026
-422.530	-63.959	0.411	-0.166
-421.515	800.000	0.034	0.143
-420.500	163.282	-0.151	0.210
-419.486	800.000	-0.062	0.197
-418.471	-106.134	-0.321	0.071
-417.457	10.590	-0.214	-0.161
-416.442	13.347	0.100	0.077
-415.428	-200.000	0.030	-0.162
-414.413	-180.922	-0.438	-0.009
-413.398	-200.000	0.021	-0.329
-412.384	108.550	0.094	0.111
-411.369	-200.000	-0.003	0.290
-410.355	15.043	0.045	0.035
-409.340	800.000	0.097	-0.356
-408.325	252.959	0.018	-0.031
-407.311	49.615	0.066	0.061
-406.296	142.626	-0.049	0.065
-405.282	800.000	-0.027	-0.081
-404.267	800.000	0.043	-0.163
-403.252	55.595	0.313	0.300
-402.238	-80.323	0.099	0.033
-401.223	-78.231	0.227	-0.077
-400.209	11.676	0.346	-0.263
-399.194	-60.560	-0.263	0.110
-398.179	74.924	-0.259	-0.269
-397.165	-138.590	0.217	0.024
-396.150	167.033	0.089	-0.125
-395.136	104.434	0.061	0.071
-394.121	800.000	0.037	-0.117
-393.106	125.033	-0.204	-0.254
-392.092	-41.977	0.418	-0.212
-391.077	-164.494	-0.258	-0.012
-390.063	-33.334	0.043	-0.023
-389.048	765.177	0.083	-0.223
-388.033	75.416	-0.076	0.079
-387.019	4.563	-0.226	0.164
-386.004	602.732	-0.038	0.092
-384.990	-108.011	0.261	-0.056
-383.975	-200.000	-0.014	0.095
-382.960	-155.783	0.080	0.005
-381.946	-135.816	0.210	0.024
-380.931	-200.000	-0.023	0.236
-379.917	178.384	-0.132	-0.190
-378.902	-84.307	0.148	-0.046
-377.888	-169.323	0.351	0.013
-376.873	800.000	-0.045	0.171
-375.858	287.222	-0.221	0.394
-374.844	-200.000	0.012	-0.196
-373.829	104.374	0.199	-0.231
-372.815	-98.058	0.353	-0.090
-371.800	162.763	0.045	0.062
-370.785	-126.205	0.206	-0.030
-369.771	-48.156	0.233	-0.111
-368.756	262.550	0.083	-0.142
-367.742	-191.407	0.133	-0.001
-366.727	800.000	0.077	0.238
-365.712	-27.114	0.168	0.097
-364.698	-57.510	-0.157	-0.068
-363.683	-200.000	0.051	0.243
-362.669	-55.950	-0.139	-0.061
-361.654	-26.379	0.083	0.048
-360.639	57.169	0.134	0.129
-359.625	169.700	-0.079	0.112
-358.610	-146.111	0.109	-0.010
-357.596	30.460	0.090	-0.076
-356.581	70.334	-0.204	-0.208
-355.566	-44.347	0.170	-0.084
-354.552	-200.000	0.015	-0.242
-353.537	-63.886	0.129	-0.052
-352.523	-200.000	0.039	-0.222
-351.508	-139.401	-0.289	-0.031
-350.493	-200.000	0.004	-0.405
-349.479	143.563	0.188	-0.247
-348.464	267.068	0.096	0.166
-347.450	-120.105	-0.237	-0.040
-346.435	-81.813	0.106	-0.034
-345.420	56.969	0.323	-0.311
-344.406	173.046	-0.240	0.341
-343.391	-92.542	-0.016	-0.004
-342.377	800.000	0.027	0.077
-341.362	800.000	0.035	-0.117
-340.348	15.668	0.145	-0.112
-339.333	-70.671	0.094	-0.035
-338.318	308.800	-0.025	-0.046
-337.304	38.116	0.381	-0.335
-336.289	800.000	-0.017	0.067
-335.275	269.715	-0.130	-0.226
-334.260	76.324	-0.133	0.139
-333.245	213.457	0.211	-0.329
-332.231	-118.952	-0.114	-0.020
-331.216	761.225	0.087	-0.233
-330.202	134.523	0.132	-0.169
-329.187	-14.646	0.071	0.045
-328.172	-106.462	-0.111	-0.024
-327.158	10.483	-0.096	0.072
-326.143	70.451	-0.211	-0.216
-325.129	-200.000	0.037	-0.272
-324.114	800.000	0.045	-0.147
-323.099	-200.000	0.012	0.216
-322.085	-28.722	-0.259	0.147
-321.070	800.000	0.055	-0.217
-320.056	-146.436	0.283	-0.024
-319.041	-200.000	-0.027	-0.276
-318.026	210.783	-0.092	0.142
-317.012	9.154	-0.146	0.109
-315.997	371.527	0.158	-0.316
-314.983	9.732	0.035	-0.026
-313.968	-120.398	0.093	-0.016
-312.953	-36.001	0.129	-0.069
-311.939	229.102	0.095	0.153
-310.924	191.963	0.139	0.207
-309.910	-200.000	-0.009	-0.237
-308.895	54.594	-0.083	-0.079
-307.880	-200.000	0.016	-0.081
-306.866	800.000	-0.052	0.178
-305.851	298.499	0.038	-0.069
-304.837	-200.000	0.031	0.325
-303.822	157.303	0.082	0.112
-302.807	-43.229	0.303	0.151
-301.793	-47.536	0.260	0.124
-300.778	800.000	0.076	0.221
-299.764	7.104	-0.187	-0.137
-298.749	-40.931	0.185	-0.094
-297.735	800.000	-0.123	0.379
-296.720	-49.989	0.634	-0.296
-295.705	800.000	0.021	-0.081
-294.691	-200.000	0.013	0.180
-293.676	-34.738	-0.134	0.072
-292.662	14.006	0.015	0.012
-291.647	-200.000	-0.017	0.389
-290.632	237.130	0.070	0.114
-289.618	35.153	0.038	0.033
-288.603	-200.000	-0.008	0.153
-287.589	-121.473	0.299	-0.049
-286.574	-71.753	-0.240	0.088
-285.559	266.509	-0.005	-0.009
-284.545	800.000	0.059	0.244
-283.530	-200.000	-0.010	0.311
-282.516	-73.995	-0.339	0.121
-281.501	-53.149	-0.219	0.099
-280.486	-103.882	-0.142	0.033
-279.472	-23.880	0.218	-0.128
-278.457	-47.482	0.279	-0.134
-277.443	361.002	0.081	0.159
-276.428	296.808	0.156	0.282
-275.413	674.133	-0.043	0.109
-274.399	-139.203	-0.164	0.017
-273.384	563.156	-0.179	0.427
-272.370	-200.000	0.044	0.194
-271.355	-20.881	0.191	0.115
-270.340	-38.773	0.135	0.070
-269.326	-200.000	0.015	-0.068
-268.311	-200.000	0.319	0.000
-267.297	415.410	-0.072	-0.150
-266.282	800.000	-0.120	0.327
-265.267	-10.241	0.120	-0.078
-264.253	461.275	0.110	-0.240
-263.238	-200.000	0.006	0.092
-262.224	225.837	-0.147	0.235
-261.209	800.000	-0.046	0.159
-260.195	149.894	-0.364	-0.486
-259.180	-101.215	0.310	-0.075
-258.165	259.142	-0.294	0.498
-257.151	-200.000	-0.008	-0.103
-256.136	-200.000	0.035	-0.192
-255.122	-110.386	-0.024	0.005
-254.107	519.105	-0.063	0.144
-253.092	800.000	-0.106	0.361
-252.078	-200.000	0.006	0.161
-251.063	46.643	0.346	-0.316
-250.049	800.000	-0.029	-0.097
-249.034	-27.389	-0.039	0.022
-248.019	-104.414	-0.097	0.022
-247.005	316.408	0.129	0.240
-245.990	-200.000	0.030	0.175
-244.976	8.755	0.495	0.367
-243.961	379.055	0.017	0.034
-242.946	445.591	-0.043	-0.092
-241.932	-63.953	0.027	0.011
-240.917	-27.872	-0.145	-0.082
-239.903	40.649	0.059	-0.053
-238.888	-71.593	0.235	-0.086
-237.873	-200.000	0.016	0.386
-236.859	-200.000	-0.070	-0.312
-235.844	245.847	0.159	0.263
-234.830	548.871	0.157	0.370
-233.815	89.223	0.247	-0.270
-232.800	293.137	-0.129	-0.232
-231.786	359.469	-0.051	-0.101
-230.771	-200.000	-0.079	-0.364
-229.757	800.000	-0.069	-0.203
-228.742	-110.420	0.322	-0.066
-227.727	-62.221	0.271	-0.111
-226.713	585.160	-0.187	-0.451
-225.698	-200.000	0.039	0.219
-224.684	445.285	0.021	-0.045
-223.669	800.000	-0.137	0.394
-222.655	76.823	0.316	0.329
-221.640	-200.000	-0.006	0.167
-220.625	800.000	-0.118	-0.349
-219.611	619.450	0.052	0.129
-218.596	582.556	-0.139	0.335
-217.582	-47.036	-0.147	-0.070
-216.567	-3.799	-0.276	0.188
-215.552	486.331	-0.077	0.171
-214.538	-139.310	-0.182	-0.019
-213.523	82.661	0.137	-0.146
-212.509	156.005	-0.110	-0.149
-211.494	117.274	-0.258	0.311
-210.479	-200.000	-0.009	-0.084
-209.465	-200.000	0.022	0.356
-208.450	230.094	-0.109	0.174
-207.436	92.721	-0.020	0.023
-206.421	-200.000	-0.021	-0.091
-205.406	-87.785	-0.407	0.120
-204.392	-67.816	-0.153	-0.059
-203.377	-78.681	0.426	0.143
-202.363	-200.000	-0.021	0.104
-201.348	800.000	-0.012	0.032
-200.333	10.411	-0.185	0.138
-199.319	-81.123	0.220	-0.071
-198.304	800.000	-0.096	0.380
-197.290	-200.000	-0.048	-0.217
-196.275	584.619	0.051	0.123
-195.260	214.250	-0.056	0.087
-194.246	83.977	-0.280	0.300
-193.231	800.000	-0.022	-0.088
-192.217	-98.150	-0.218	-0.055
-191.202	800.000	-0.083	0.343
-190.187	-4.907	0.204	0.138
-189.173	-139.016	0.226	-0.024
-188.158	-200.000	-0.000	0.044
-187.144	-36.518	-0.166	-0.087
-186.129	19.960	-0.313	-0.247
-185.114	-88.001	0.168	0.049
-184.100	-58.636	0.188	0.080
-183.085	46.275	0.073	0.066
-182.071	-128.912	0.108	0.015
-181.056	800.000	-0.024	-0.093
-180.042	-5.057	0.062	-0.042
-179.027	800.000	0.083	-0.269
-178.012	36.120	-0.088	0.076
-176.998	-24.216	-0.212	-0.124
-175.983	-83.853	-0.265	0.083
-174.969	-91.754	-0.322	-0.090
-173.954	31.987	0.303	-0.256
-172.939	-80.508	0.171	-0.056
-171.925	-200.000	0.056	0.243
-170.910	7.186	0.264	-0.193
-169.896	23.726	-0.243	-0.196
-168.881	71.972	-0.305	0.311
-167.866	-178.490	-0.221	0.005
-166.852	174.584	0.248	-0.351
-165.837	117.591	0.316	0.381
-164.823	-106.340	-0.328	-0.072
-163.808	46.471	0.127	0.116
-162.793	-177.574	-0.310	-0.007
-161.779	-187.522	-0.260	0.003
-160.764	155.894	-0.141	0.190
-159.750	278.032	-0.159	0.277
-158.735	557.844	-0.270	-0.637
-157.720	64.793	0.409	0.405
-156.706	607.530	0.083	0.202
-155.691	800.000	-0.058	0.162
-154.677	-32.217	-0.144	-0.079
-153.662	46.231	-0.207	-0.188
-152.647	-19.261	-0.435	0.264
-151.633	84.600	-0.058	0.062
-150.618	-108.021	0.401	-0.085
-149.604	294.011	-0.148	-0.264
-148.589	23.723	0.110	-0.089
-147.574	111.197	0.255	-0.301
-146.560	-48.871	0.171	0.080
-145.545	-62.037	0.284	0.116
-144.531	-200.000	0.033	0.236
-143.516	-124.613	0.026	-0.004
-142.502	235.817	0.190	0.307
-141.487	143.452	-0.208	-0.271
-140.472	-200.000	0.001	-0.170
-139.458	-174.654	-0.166	-0.005
-138.443	65.064	-0.068	-0.067
-137.429	-200.000	0.042	0.242
-136.414	-106.012	-0.302	0.067
-135.399	-82.727	-0.319	0.101
-134.385	104.029	0.055	0.064
-133.370	-138.484	-0.233	-0.025
-132.356	269.521	-0.294	-0.505
-131.341	-191.991	-0.096	-0.001
-130.326	49.723	0.197	-0.182
-129.312	-77.077	-0.224	-0.077
-128.297	-200.000	0.020	-0.239
-127.283	-128.031	0.365	-0.051
-126.268	92.565	0.108	-0.119
-125.253	-200.000	0.070	0.492
-124.239	-64.765	0.076	-0.030
-123.224	15.513	-0.033	-0.025
-122.210	308.984	0.052	0.095
