DTS Sentinel unit serial number:	SN413079Multiplexer serial number:	ORYXHardware model number:	OX4-SRSoftware version number:	ORYX F/W v4.00 Oryx Data Collector v3.7.2.0data status	okinstallation	princeton_trtdifferential loss correction	single-endedforward channel	channel 1reverse channel	N/Adate	2019/09/19time	15:34:35forward acquisition time	60.00reverse acquisition time	0.00gamma	496.2192k internal	0.2311k external	0.2311temperature offset calibration	1.0021default loss term (dB/km)	0.3790temperature slope calibration	1.0000multiplexer offset coefficient	1.0000multiplexer slope coefficient	1.0000fibre end	0.00T internal ref (°C)	34.25T ext. ref 1 (°C)	1.16T ext. ref 2 (°C)	31.73length (m)	temperature (°C)	Stokes	anti-Stokes-747.200	-200.000	0.076	0.472
-746.185	92.136	-0.127	-0.145
-745.171	-200.000	-0.007	0.099
-744.156	-102.761	-0.303	-0.073
-743.142	-84.881	0.080	-0.026
-742.127	-200.000	0.001	0.425
-741.112	318.299	-0.076	0.146
-740.098	-37.873	0.348	0.188
-739.083	136.037	0.269	-0.356
-738.069	552.839	-0.187	0.457
-737.054	-53.749	0.190	-0.088
-736.039	-102.586	-0.382	0.093
-735.025	415.694	0.053	-0.115
-734.010	-200.000	0.001	0.027
-732.996	-200.000	0.069	-0.506
-731.981	124.565	-0.083	-0.106
-730.966	214.066	-0.063	-0.101
-729.952	22.668	-0.148	0.123
-728.937	-137.708	-0.215	-0.025
-727.923	206.326	0.150	0.237
-726.908	-200.000	0.016	0.215
-725.894	-200.000	0.047	0.220
-724.879	-16.518	-0.208	-0.134
-723.864	-200.000	-0.013	-0.238
-722.850	-55.723	-0.114	0.052
-721.835	-147.819	-0.116	-0.010
-720.821	-119.573	-0.132	0.023
-719.806	-200.000	-0.034	0.182
-718.791	-77.155	0.170	0.060
-717.777	102.562	0.128	-0.152
-716.762	-200.000	0.015	0.185
-715.748	-200.000	0.062	-0.330
-714.733	-83.278	0.219	0.071
-713.718	136.770	-0.147	0.195
-712.704	-52.412	0.217	-0.102
-711.689	-200.000	0.004	-0.077
-710.675	537.190	-0.073	0.176
-709.660	79.686	-0.230	0.250
-708.645	-200.000	-0.023	-0.189
-707.631	-51.665	-0.085	0.040
-706.616	-104.817	-0.316	-0.074
-705.602	-33.986	0.257	0.144
-704.587	800.000	0.043	-0.149
-703.572	178.700	0.184	0.272
-702.558	-200.000	-0.005	-0.061
-701.543	340.153	-0.063	-0.124
-700.529	-200.000	0.041	-0.395
-699.514	-51.244	-0.160	-0.076
-698.499	-67.038	0.163	0.065
-697.485	150.288	-0.065	-0.089
-696.470	52.535	-0.177	-0.171
-695.456	-200.000	-0.043	-0.429
-694.441	108.092	-0.200	0.242
-693.426	80.128	0.057	-0.063
-692.412	-200.000	0.024	0.159
-691.397	527.364	0.051	-0.121
-690.383	125.275	0.111	-0.141
-689.368	-200.000	-0.043	0.404
-688.354	-200.000	-0.026	0.139
-687.339	-110.746	0.324	-0.068
-686.324	-200.000	-0.052	0.323
-685.310	-43.831	0.223	0.113
-684.295	-125.704	-0.362	-0.056
-683.281	438.288	-0.090	0.199
-682.266	-43.272	-0.170	0.087
-681.251	-72.074	-0.132	-0.050
-680.237	-172.924	0.259	0.008
-679.222	68.920	0.198	-0.206
-678.208	74.731	0.260	-0.277
-677.193	28.534	-0.037	-0.032
-676.178	368.807	0.104	-0.212
-675.164	-72.571	0.142	-0.053
-674.149	-9.976	0.095	0.064
-673.135	125.254	0.216	-0.276
-672.120	-102.735	-0.130	-0.031
-671.105	30.665	-0.183	0.158
-670.091	-200.000	0.042	-0.357
-669.076	71.842	0.244	-0.257
-668.062	-28.959	-0.281	0.163
-667.047	800.000	0.035	0.139
-666.032	-200.000	0.022	0.300
-665.018	290.523	0.228	-0.420
-664.003	-76.174	-0.069	-0.025
-662.989	-82.798	-0.331	0.108
-661.974	-157.616	-0.136	-0.008
-660.959	-200.000	0.071	0.318
-659.945	-120.997	-0.355	-0.060
-658.930	41.895	-0.222	-0.204
-657.916	800.000	0.070	0.295
-656.901	2.160	-0.227	0.166
-655.886	76.763	0.292	-0.314
-654.872	800.000	-0.054	-0.234
-653.857	18.657	0.126	-0.102
-652.843	366.093	0.099	0.201
-651.828	48.417	-0.187	-0.178
-650.814	175.773	0.130	0.190
-649.799	191.860	-0.124	0.188
-648.784	-142.875	-0.188	-0.018
-647.770	258.375	0.132	0.231
-646.755	-45.046	-0.164	-0.082
-645.741	-33.030	0.107	0.060
-644.726	50.580	0.080	-0.077
-643.711	258.052	0.113	-0.197
-642.697	19.576	0.282	0.230
-641.682	10.684	0.239	0.184
-640.668	547.683	-0.196	-0.474
-639.653	329.168	-0.136	-0.264
-638.638	163.641	-0.168	-0.239
-637.624	-103.486	0.101	-0.024
-636.609	247.422	0.249	0.425
-635.595	29.611	-0.212	0.183
-634.580	399.735	0.102	-0.217
-633.565	369.995	-0.063	0.129
-632.551	-171.866	-0.376	0.012
-631.536	-62.696	-0.052	0.022
-630.522	-200.000	0.002	0.291
-629.507	-117.216	0.285	-0.052
-628.492	257.537	-0.024	-0.042
-627.478	800.000	0.064	-0.257
-626.463	-200.000	-0.001	-0.251
-625.449	-32.639	0.157	-0.088
-624.434	238.535	0.188	0.316
-623.419	-200.000	-0.004	-0.020
-622.405	419.877	-0.157	-0.340
-621.390	-200.000	0.017	0.209
-620.376	285.012	0.103	0.187
-619.361	87.868	0.082	-0.091
-618.346	-67.381	-0.313	0.124
-617.332	-107.195	0.166	-0.037
-616.317	444.375	-0.062	0.136
-615.303	-81.107	-0.159	0.053
-614.288	180.695	0.036	-0.053
-613.273	-156.673	0.188	-0.012
-612.259	270.578	-0.005	-0.009
-611.244	16.858	0.144	-0.115
-610.230	324.638	-0.203	-0.392
-609.215	-120.124	-0.443	-0.077
-608.201	-200.000	-0.051	0.322
-607.186	271.320	0.076	0.136
-606.171	109.371	-0.073	0.089
-605.157	-200.000	-0.029	-0.384
-604.142	-200.000	-0.070	-0.532
-603.128	-109.902	-0.118	-0.025
-602.113	-200.000	-0.013	0.253
-601.098	-25.061	0.033	-0.019
-600.084	89.157	0.116	-0.131
-599.069	-115.476	-0.180	0.034
-598.055	-95.825	0.160	-0.043
-597.040	-141.508	0.120	-0.012
-596.025	58.649	-0.207	-0.205
-595.011	382.669	-0.126	0.262
-593.996	160.949	-0.040	0.056
-592.982	-11.239	0.317	0.211
-591.967	800.000	0.069	-0.254
-590.952	-34.496	0.041	0.023
-589.938	-8.962	-0.199	-0.134
-588.923	-10.721	-0.271	-0.181
-587.909	-67.546	-0.277	0.110
-586.894	50.788	0.090	-0.086
-585.879	140.257	-0.110	-0.147
-584.865	-153.208	-0.311	0.022
-583.850	75.352	0.177	-0.188
-582.836	116.475	-0.238	-0.294
-581.821	-200.000	0.012	0.173
-580.806	-73.672	-0.281	0.103
-579.792	-130.093	0.162	-0.022
-578.777	-200.000	0.007	-0.092
-577.763	594.395	-0.037	0.093
-576.748	168.480	-0.156	-0.224
-575.733	75.233	0.163	-0.173
-574.719	380.588	-0.130	0.269
-573.704	-200.000	-0.014	-0.259
-572.690	630.206	0.057	0.144
-571.675	-154.019	0.144	0.010
-570.661	124.284	-0.086	0.109
-569.646	-200.000	-0.001	-0.152
-568.631	63.730	0.409	0.414
-567.617	-45.495	-0.385	0.192
-566.602	99.147	0.120	0.140
-565.588	-200.000	-0.012	-0.213
-564.573	40.421	-0.044	-0.040
-563.558	-200.000	-0.046	0.208
-562.544	-109.426	0.281	0.060
-561.529	124.893	-0.039	0.049
-560.515	-200.000	0.008	-0.302
-559.500	93.692	0.029	0.033
-558.485	176.220	0.075	0.109
-557.471	497.544	0.107	-0.248
-556.456	49.157	-0.136	-0.129
-555.442	-148.516	0.112	-0.009
-554.427	800.000	-0.059	-0.233
-553.412	515.403	-0.003	0.007
-552.398	-166.996	-0.183	0.008
-551.383	-149.302	-0.104	-0.008
-550.369	4.629	0.204	0.151
-549.354	68.152	0.240	0.247
-548.339	279.574	0.193	0.348
-547.325	-157.108	0.282	0.017
-546.310	-34.355	0.297	-0.164
-545.296	252.521	0.190	-0.326
-544.281	800.000	0.036	-0.132
-543.266	800.000	0.018	-0.067
-542.252	-69.656	-0.367	0.141
-541.237	-76.701	0.172	0.061
-540.223	618.821	0.032	0.082
-539.208	-200.000	0.032	-0.475
-538.193	-137.695	0.104	-0.012
-537.179	13.808	-0.281	0.220
-536.164	56.445	0.121	-0.119
-535.150	-56.267	-0.404	0.181
-534.135	207.465	0.055	-0.086
-533.121	-200.000	0.030	0.170
-532.106	-9.521	-0.189	-0.127
-531.091	-26.976	-0.174	-0.102
-530.077	800.000	0.065	-0.222
-529.062	359.707	-0.069	-0.139
-528.048	-77.256	-0.253	-0.089
-527.033	800.000	0.014	-0.050
-526.018	800.000	-0.043	-0.146
-525.004	297.657	-0.116	0.215
-523.989	-200.000	-0.012	0.101
-522.975	-17.931	-0.201	0.127
-521.960	452.925	-0.156	-0.347
-520.945	800.000	-0.095	-0.275
-519.931	286.149	-0.025	-0.046
-518.916	-125.051	0.063	-0.010
-517.902	66.989	0.071	-0.072
-516.887	31.078	0.097	-0.083
-515.872	205.723	-0.076	-0.120
-514.858	-200.000	0.048	-0.290
-513.843	-200.000	-0.035	0.300
-512.829	314.716	-0.060	0.113
-511.814	-105.753	-0.103	-0.023
-510.799	-20.250	0.331	-0.205
-509.785	-146.922	0.034	0.003
-508.770	-200.000	-0.037	-0.191
-507.756	-200.000	-0.039	0.221
-506.741	270.964	0.181	-0.321
-505.726	610.957	0.052	0.131
-504.712	287.257	-0.087	-0.158
-503.697	-200.000	0.011	-0.329
-502.683	-9.475	-0.156	0.104
-501.668	-94.624	-0.237	0.065
-500.653	-200.000	-0.019	-0.274
-499.639	-200.000	0.072	0.391
-498.624	800.000	0.045	0.172
-497.610	-124.933	-0.396	-0.061
-496.595	275.768	-0.197	-0.351
-495.581	-114.090	-0.228	-0.044
-494.566	97.933	-0.110	-0.127
-493.551	-54.087	-0.291	-0.133
-492.537	-77.045	-0.228	0.080
-491.522	-13.107	-0.173	0.113
-490.508	-109.728	0.209	0.044
-489.493	-129.111	-0.451	0.063
-488.478	-200.000	-0.011	0.071
-487.464	-99.638	0.290	-0.073
-486.449	40.616	-0.217	0.197
-485.435	-200.000	-0.000	0.215
-484.420	-51.105	0.425	0.200
-483.405	16.936	0.110	-0.087
-482.391	-48.166	0.172	0.084
-481.376	-200.000	0.072	0.325
-480.362	-79.218	0.313	0.107
-479.347	462.032	0.034	-0.075
-478.332	88.858	0.074	0.083
-477.318	-183.904	0.138	0.002
-476.303	-200.000	-0.020	0.452
-475.289	-200.000	0.120	-0.542
-474.274	68.364	-0.231	-0.238
-473.259	-99.545	0.026	-0.007
-472.245	-19.689	0.229	-0.142
-471.230	74.866	-0.055	-0.059
-470.216	-155.209	0.322	-0.021
-469.201	107.472	-0.139	-0.166
-468.186	693.979	-0.047	-0.123
-467.172	-73.366	0.196	0.072
-466.157	105.035	-0.068	-0.081
-465.143	-111.522	0.140	-0.029
-464.128	75.751	0.058	0.062
-463.113	128.695	0.140	0.179
-462.099	-200.000	-0.006	-0.108
-461.084	541.319	-0.085	-0.203
-460.070	-59.334	0.212	-0.091
-459.055	-95.845	-0.357	0.096
-458.040	161.366	-0.103	0.144
-457.026	116.634	-0.179	0.221
-456.011	-0.327	0.412	-0.294
-454.997	800.000	-0.047	-0.158
-453.982	181.685	0.113	0.168
-452.968	76.057	0.205	-0.218
-451.953	-18.761	-0.213	0.133
-450.938	266.359	0.084	0.147
-449.924	-55.343	0.209	0.094
-448.909	25.399	-0.264	0.221
-447.895	-18.839	0.141	0.088
-446.880	-69.158	0.245	-0.095
-445.865	154.388	-0.038	-0.053
-444.851	-200.000	-0.055	-0.469
-443.836	-11.477	0.443	-0.292
-442.822	36.569	-0.403	0.357
-441.807	-24.660	0.052	0.031
-440.792	106.989	-0.155	-0.185
-439.778	179.546	0.095	0.139
-438.763	279.082	-0.020	0.036
-437.749	69.978	-0.141	0.146
-436.734	-34.987	-0.212	0.116
-435.719	410.954	-0.123	0.261
-434.705	-89.320	-0.194	-0.057
-433.690	642.473	0.118	-0.302
-432.676	9.229	-0.080	0.061
-431.661	53.176	0.237	0.228
-430.646	-200.000	0.006	-0.032
-429.632	-109.327	-0.412	0.088
-428.617	305.350	-0.157	-0.293
-427.603	115.652	-0.056	-0.068
-426.588	130.684	0.335	0.430
-425.573	-54.732	-0.329	0.149
-424.559	75.710	0.084	0.089
-423.544	369.806	-0.106	0.215
-422.530	106.315	-0.176	-0.209
-421.515	-113.552	-0.062	0.012
-420.500	-200.000	0.013	-0.092
-419.486	-136.862	-0.071	-0.008
-418.471	113.141	-0.311	-0.378
-417.457	-75.435	0.124	-0.044
-416.442	-154.145	0.218	0.015
-415.428	-115.705	0.161	-0.030
-414.413	159.460	0.176	0.245
-413.398	-126.799	-0.271	0.040
-412.384	109.726	-0.241	-0.290
-411.369	-41.581	0.297	0.153
-410.355	0.164	-0.330	0.236
-409.340	-200.000	0.014	-0.090
-408.325	330.672	-0.039	-0.075
-407.311	-102.086	-0.051	0.012
-406.296	-45.527	-0.265	-0.132
-405.282	-162.652	-0.378	-0.019
-404.267	-200.000	0.005	0.131
-403.252	-200.000	-0.223	-0.001
-402.238	-44.328	-0.145	0.073
-401.223	194.196	0.094	-0.143
-400.209	-17.531	0.285	0.180
-399.194	800.000	0.079	0.227
-398.179	800.000	0.039	-0.124
-397.165	-99.481	-0.146	-0.037
-396.150	-79.852	0.126	0.042
-395.136	-0.059	0.105	-0.075
-394.121	53.095	0.191	-0.183
-393.106	206.723	0.089	0.139
-392.092	-170.795	0.374	0.013
-391.077	-145.247	-0.112	0.010
-390.063	-200.000	0.007	-0.083
-389.048	-62.411	-0.212	0.088
-388.033	10.481	0.102	0.078
-387.019	-68.648	-0.144	-0.056
-386.004	-94.656	0.202	0.055
-384.990	-56.059	-0.143	-0.064
-383.975	-200.000	0.041	-0.244
-382.960	-200.000	-0.074	0.338
-381.946	-200.000	-0.039	0.256
-380.931	-96.226	0.377	0.100
-379.917	-200.000	-0.054	0.305
-378.902	-45.291	0.245	0.122
-377.888	-200.000	-0.007	0.124
-376.873	-75.229	0.286	0.102
-375.858	-200.000	-0.020	-0.175
-374.844	-200.000	-0.009	0.091
-373.829	413.638	-0.062	0.133
-372.815	-200.000	-0.015	-0.127
-371.800	-200.000	-0.040	-0.529
-370.785	102.125	0.274	-0.321
-369.771	6.567	0.375	-0.279
-368.756	696.352	-0.076	-0.201
-367.742	-173.143	0.190	-0.006
-366.727	-97.798	0.183	0.047
-365.712	-56.723	0.090	-0.040
-364.698	-105.731	0.147	-0.033
-363.683	-200.000	-0.035	-0.158
-362.669	-200.000	0.080	0.353
-361.654	222.802	0.250	0.403
-360.639	-95.346	0.219	-0.059
-359.625	20.103	-0.134	-0.108
-358.610	-167.228	0.211	0.009
-357.596	700.809	0.046	0.122
-356.581	-60.250	-0.329	0.140
-355.566	46.035	0.111	0.103
-354.552	53.905	-0.117	0.112
-353.537	-200.000	0.005	-0.242
-352.523	-71.717	0.075	-0.028
-351.508	-60.081	-0.195	0.083
-350.493	-200.000	0.018	-0.177
-349.479	-200.000	0.058	0.364
-348.464	3.876	-0.049	-0.036
-347.450	-200.000	0.017	-0.162
-346.435	93.836	0.198	-0.225
-345.420	404.456	0.068	-0.144
-344.406	-25.583	0.192	0.113
-343.391	-84.708	-0.385	0.121
-342.377	-139.375	0.149	0.016
-341.362	-73.370	0.213	-0.078
-340.348	-123.414	-0.018	0.003
-339.333	398.501	0.067	0.139
-338.318	49.109	0.030	-0.028
-337.304	-200.000	0.026	-0.240
-336.289	211.673	-0.227	0.357
-335.275	-125.424	-0.100	-0.015
-334.260	-41.716	-0.079	0.041
-333.245	154.992	0.179	-0.247
-332.231	-55.595	-0.069	0.031
-331.216	22.042	0.151	0.123
-330.202	-6.668	0.262	0.178
-329.187	16.460	0.115	-0.091
-328.172	800.000	0.010	0.034
-327.158	-200.000	-0.009	-0.105
-326.143	-12.725	0.112	0.073
-325.129	632.041	-0.130	0.328
-324.114	-200.000	-0.000	0.042
-323.099	108.660	0.155	-0.185
-322.085	-18.895	0.190	-0.118
-321.070	-67.661	-0.175	-0.068
-320.056	-99.189	-0.108	0.027
-319.041	-200.000	0.004	0.124
-318.026	800.000	0.066	0.282
-317.012	-192.924	0.120	-0.001
-315.997	335.123	-0.108	0.208
-314.983	-14.390	0.219	0.141
-313.968	-200.000	-0.019	0.108
-312.953	-28.575	0.121	0.069
-311.939	-63.385	-0.257	-0.106
-310.924	-104.861	-0.211	-0.048
-309.910	221.427	0.123	0.197
-308.895	-200.000	0.001	0.044
-307.880	-96.353	0.104	-0.028
-306.866	-140.590	0.273	0.028
-305.851	41.866	0.146	-0.132
-304.837	800.000	-0.038	-0.106
-303.822	588.086	0.084	0.206
-302.807	344.548	0.152	0.298
-301.793	-156.680	-0.189	0.012
-300.778	104.986	0.075	-0.089
-299.764	-152.899	-0.325	-0.023
-298.749	-83.074	0.384	-0.123
-297.735	800.000	-0.071	0.216
-296.720	-9.241	0.153	0.102
-295.705	-32.512	0.041	-0.023
-294.691	-134.077	0.366	-0.045
-293.676	800.000	-0.062	-0.207
-292.662	126.812	-0.080	-0.101
-291.647	-123.962	-0.174	0.027
-290.632	635.196	-0.021	0.053
-289.618	-54.829	0.124	0.056
-288.603	-34.110	-0.143	-0.078
-287.589	-81.568	-0.120	0.039
-286.574	-49.847	-0.422	0.200
-285.559	-58.321	-0.134	-0.058
-284.545	-200.000	-0.003	0.025
-283.530	800.000	0.011	-0.036
-282.516	87.342	0.061	0.067
-281.501	-178.504	0.197	0.005
-280.486	207.677	0.081	0.126
-279.472	-200.000	0.020	0.268
-278.457	118.588	-0.100	0.123
-277.443	-200.000	-0.007	-0.299
-276.428	-25.696	-0.312	0.183
-275.413	200.742	0.146	-0.224
-274.399	-200.000	0.032	-0.212
-273.384	-94.081	0.041	-0.011
-272.370	124.265	0.045	0.056
-271.355	800.000	-0.030	-0.120
-270.340	-126.523	0.137	-0.020
-269.326	215.754	0.079	-0.125
-268.311	15.018	0.075	0.058
-267.297	-94.144	-0.108	-0.029
-266.282	-13.450	0.161	-0.104
-265.267	-104.449	-0.457	-0.105
-264.253	-200.000	0.006	-0.065
-263.238	-136.994	-0.175	-0.020
-262.224	-14.446	0.133	0.085
-261.209	170.978	0.031	0.044
-260.195	-90.154	0.187	0.054
-259.180	-183.542	-0.141	-0.002
-258.165	348.868	-0.092	-0.181
-257.151	-200.000	0.046	0.290
-256.136	-200.000	-0.013	0.132
-255.122	-117.789	-0.305	-0.055
-254.107	-200.000	0.023	0.111
-253.092	-200.000	-0.006	0.039
-252.078	104.713	-0.155	0.183
-251.063	-200.000	0.069	0.306
-250.049	800.000	-0.104	-0.298
-249.034	-25.068	-0.249	-0.147
-248.019	277.934	0.090	-0.159
-247.005	-129.260	0.215	-0.030
-245.990	800.000	-0.020	-0.062
-244.976	-15.797	-0.159	-0.101
-243.961	133.790	0.149	-0.192
-242.946	234.959	-0.079	0.130
-241.932	192.012	0.110	0.166
-240.917	217.339	-0.061	-0.096
-239.903	39.350	0.127	-0.113
-238.888	800.000	-0.041	0.139
-237.873	86.430	-0.184	-0.202
-236.859	-83.495	-0.278	0.089
-235.844	-200.000	-0.026	0.132
-234.830	-200.000	-0.003	0.134
-233.815	64.201	0.254	-0.254
-232.800	88.057	-0.300	0.331
-231.786	-122.284	-0.189	-0.031
-230.771	402.604	0.100	-0.209
-229.757	-79.101	0.153	-0.052
-228.742	227.388	0.160	0.259
-227.727	727.722	-0.074	0.197
-226.713	-95.738	0.055	-0.015
-225.698	181.796	-0.126	0.184
-224.684	-94.019	-0.068	0.018
-223.669	-32.809	-0.429	0.237
-222.655	-97.419	0.255	-0.066
-221.640	-155.353	0.202	0.013
-220.625	-56.245	0.148	0.066
-219.611	-15.938	-0.062	0.039
-218.596	-200.000	0.006	0.132
-217.582	-35.811	0.166	-0.089
-216.567	223.396	0.101	0.162
-215.552	-43.348	0.108	0.054
-214.538	-95.045	-0.348	0.093
-213.523	115.210	0.121	0.147
-212.509	-146.746	0.600	-0.052
-211.494	-200.000	0.010	-0.252
-210.479	1.710	0.025	-0.018
-209.465	-4.888	0.129	-0.088
-208.450	34.589	0.095	-0.083
-207.436	19.688	-0.104	0.083
-206.421	168.573	-0.114	0.161
-205.406	800.000	0.156	0.494
-204.392	-152.503	0.276	0.020
-203.377	-86.689	0.206	0.063
-202.363	-139.228	-0.167	0.018
-201.348	-92.174	-0.149	0.042
-200.333	-42.046	-0.104	-0.053
-199.319	37.528	0.100	0.088
-198.304	-200.000	-0.025	0.199
-197.290	800.000	-0.057	0.176
-196.275	800.000	-0.025	-0.082
-195.260	12.494	-0.214	0.164
-194.246	62.199	-0.070	-0.070
-193.231	-26.900	-0.170	0.099
-192.217	116.228	0.090	0.110
-191.202	-200.000	-0.009	0.195
-190.187	251.006	0.125	-0.211
-189.173	-200.000	-0.038	0.180
-188.158	-200.000	-0.018	0.261
-187.144	24.266	-0.251	-0.206
-186.129	800.000	0.046	0.171
-185.114	128.845	0.129	-0.163
-184.100	70.566	-0.151	-0.155
-183.085	800.000	-0.057	0.171
-182.071	282.689	-0.118	0.210
-181.056	52.398	-0.359	-0.341
-180.042	3.402	0.063	-0.046
-179.027	122.288	0.248	-0.308
-178.012	739.456	-0.106	-0.284
-176.998	206.786	-0.160	-0.248
-175.983	4.931	-0.351	0.257
-174.969	-19.835	-0.008	0.005
-173.954	-124.365	0.140	0.022
-172.939	5.886	0.186	0.137
-171.925	207.956	0.165	-0.255
-170.910	438.284	0.144	-0.312
-169.896	105.028	0.118	0.138
-168.881	-200.000	0.015	0.318
-167.866	-200.000	0.027	-0.311
-166.852	496.925	0.121	0.275
-165.837	-24.866	0.269	0.158
-164.823	-33.343	-0.390	0.214
-163.808	800.000	-0.060	0.210
-162.793	-36.377	0.207	-0.111
-161.779	-108.912	-0.200	-0.042
-160.764	-200.000	-0.005	-0.078
-159.750	-200.000	0.010	-0.197
-158.735	409.508	-0.016	-0.033
-157.720	-13.574	-0.058	0.037
-156.706	-169.612	-0.386	0.014
-155.691	-200.000	0.033	-0.274
-154.677	800.000	-0.059	-0.176
-153.662	-114.717	0.093	0.018
-152.647	-84.999	0.313	0.097
-151.633	-200.000	0.079	-0.572
-150.618	2.534	0.172	-0.124
-149.604	-73.966	-0.165	0.059
-148.589	-200.000	0.021	-0.096
-147.574	-200.000	0.012	-0.125
-146.560	-127.385	0.350	0.051
-145.545	132.721	0.070	-0.090
-144.531	800.000	-0.100	0.354
-143.516	114.235	-0.031	-0.037
-142.502	405.343	0.093	0.195
-141.487	9.355	-0.084	0.063
-140.472	-106.936	0.332	0.073
-139.458	193.190	-0.226	-0.338
-138.443	-142.252	0.246	0.024
-137.429	348.533	-0.124	0.243
-136.414	-149.084	-0.397	0.032
-135.399	800.000	-0.053	0.215
-134.385	-200.000	-0.009	-0.101
-133.370	-200.000	0.016	0.198
-132.356	-78.345	-0.315	-0.107
-131.341	-128.060	0.489	0.069
-130.326	524.328	0.037	0.087
-129.312	-102.013	0.034	0.008
-128.297	800.000	-0.053	-0.201
-127.283	65.800	0.264	0.265
-126.268	-200.000	-0.020	-0.320
-125.253	530.659	0.094	-0.220
-124.239	195.052	0.011	0.017
-123.224	-124.502	-0.218	-0.034
-122.210	346.381	-0.181	-0.353
