DTS Sentinel unit serial number:	SN413079Multiplexer serial number:	ORYXHardware model number:	OX4-SRSoftware version number:	ORYX F/W v4.00 Oryx Data Collector v3.7.2.0data status	okinstallation	princeton_trtdifferential loss correction	single-endedforward channel	channel 1reverse channel	N/Adate	2019/09/14time	13:38:35forward acquisition time	60.00reverse acquisition time	0.00gamma	496.2192k internal	0.2295k external	0.2295temperature offset calibration	1.0085default loss term (dB/km)	0.3790temperature slope calibration	1.0000multiplexer offset coefficient	1.0000multiplexer slope coefficient	1.0000fibre end	0.00T internal ref (°C)	37.91T ext. ref 1 (°C)	4.91T ext. ref 2 (°C)	32.65length (m)	temperature (°C)	Stokes	anti-Stokes-747.200	504.764	-0.113	-0.267
-746.185	68.738	0.190	-0.199
-745.171	77.473	-0.105	-0.115
-744.156	-94.106	-0.084	-0.024
-743.142	-87.531	-0.163	0.051
-742.127	-124.821	0.068	0.011
-741.112	63.564	0.072	-0.074
-740.098	707.490	-0.142	0.383
-739.083	-26.586	0.175	-0.105
-738.069	-134.593	-0.409	0.051
-737.054	-200.000	-0.028	-0.228
-736.039	239.772	0.104	0.178
-735.025	-129.948	0.136	-0.019
-734.010	10.846	-0.155	0.121
-732.996	8.955	0.068	0.053
-731.981	-90.586	-0.322	0.095
-730.966	-27.378	0.061	-0.036
-729.952	306.234	0.102	0.193
-728.937	268.429	-0.223	0.399
-727.923	-200.000	0.043	-0.235
-726.908	-139.552	-0.209	-0.023
-725.894	184.618	-0.111	0.169
-724.879	139.335	-0.073	-0.099
-723.864	126.481	0.023	-0.030
-722.850	11.855	-0.064	-0.050
-721.835	-95.315	0.172	-0.047
-720.821	-77.526	0.134	0.047
-719.806	800.000	0.050	0.189
-718.791	489.903	0.128	-0.298
-717.777	115.724	0.130	0.163
-716.762	-26.284	-0.065	0.039
-715.748	-200.000	0.001	0.127
-714.733	-200.000	0.024	0.139
-713.718	117.516	-0.067	-0.085
-712.704	196.629	0.113	-0.176
-711.689	646.561	0.160	-0.418
-710.675	-200.000	0.021	-0.406
-709.660	207.857	-0.105	-0.167
-708.645	-142.944	0.227	-0.022
-707.631	-175.166	-0.390	-0.011
-706.616	-118.746	-0.180	-0.032
-705.602	28.506	0.133	-0.115
-704.587	-123.730	-0.237	-0.038
-703.572	208.044	0.183	-0.291
-702.558	601.752	0.112	-0.285
-701.543	-200.000	-0.024	-0.405
-700.529	-200.000	-0.058	-0.387
-699.514	-142.272	0.158	-0.016
-698.499	267.241	-0.088	0.156
-697.485	800.000	-0.018	-0.059
-696.470	800.000	0.119	-0.344
-695.456	44.154	0.026	0.025
-694.441	-153.240	-0.353	0.025
-693.426	-110.751	0.297	-0.063
-692.412	272.185	0.129	0.231
-691.397	800.000	0.115	-0.349
-690.383	425.789	0.081	-0.179
-689.368	-9.125	-0.110	-0.075
-688.354	645.531	-0.117	0.304
-687.339	30.949	0.184	-0.161
-686.324	103.782	-0.176	0.211
-685.310	800.000	0.040	0.123
-684.295	-116.975	0.191	0.036
-683.281	800.000	0.018	0.051
-682.266	800.000	0.086	0.367
-681.251	285.303	0.109	-0.200
-680.237	43.835	0.032	0.030
-679.222	471.880	-0.246	0.564
-678.208	47.339	0.138	-0.131
-677.193	-120.828	0.385	0.066
-676.178	-84.128	-0.222	0.072
-675.164	-69.538	-0.240	-0.094
-674.149	-149.799	0.086	0.007
-673.135	96.842	-0.088	-0.103
-672.120	-14.677	0.202	-0.132
-671.105	67.937	-0.421	0.440
-670.091	3.664	0.070	-0.052
-669.076	-41.090	-0.151	-0.079
-668.062	-34.739	0.198	0.110
-667.047	-200.000	0.016	-0.095
-666.032	-200.000	0.007	-0.080
-665.018	-129.102	-0.095	0.014
-664.003	193.367	0.279	-0.430
-662.989	77.943	0.106	0.115
-661.974	800.000	-0.085	-0.376
-660.959	-39.222	0.071	-0.038
-659.945	-200.000	-0.036	0.190
-658.930	-200.000	0.020	-0.100
-657.916	-99.018	-0.061	0.016
-656.901	42.207	-0.127	-0.117
-655.886	-87.078	-0.271	0.084
-654.872	562.202	-0.045	-0.110
-653.857	282.018	0.101	-0.185
-652.843	-200.000	-0.013	-0.134
-651.828	41.039	-0.176	0.162
-650.814	-24.691	0.077	0.047
-649.799	-126.538	-0.032	-0.005
-648.784	18.201	-0.300	0.244
-647.770	378.056	-0.124	0.258
-646.755	-159.254	0.251	0.014
-645.741	0.008	0.088	0.064
-644.726	-129.695	-0.297	0.042
-643.711	-200.000	0.026	-0.181
-642.697	-200.000	0.040	-0.201
-641.682	-109.061	-0.223	-0.048
-640.668	-181.495	0.204	-0.004
-639.653	800.000	-0.035	0.146
-638.638	26.161	-0.194	0.165
-637.624	158.508	0.095	-0.134
-636.609	-140.699	0.251	-0.026
-635.595	-94.867	-0.233	-0.064
-634.580	30.164	0.117	-0.102
-633.565	341.955	-0.140	-0.279
-632.551	-200.000	-0.009	0.121
-631.536	-200.000	-0.028	-0.241
-630.522	-0.649	-0.157	0.113
-629.507	-200.000	-0.012	0.173
-628.492	135.306	0.085	-0.113
-627.478	-18.804	-0.134	-0.085
-626.463	800.000	-0.090	-0.314
-625.449	-112.002	-0.178	-0.037
-624.434	22.218	0.173	-0.144
-623.419	45.240	0.333	0.313
-622.405	-75.648	0.162	0.058
-621.390	-111.793	-0.377	-0.078
-620.376	-200.000	-0.009	-0.056
-619.361	-77.669	-0.267	-0.094
-618.346	271.575	-0.098	-0.175
-617.332	6.610	-0.228	-0.173
-616.317	447.012	-0.072	-0.161
-615.303	196.458	-0.214	0.332
-614.288	128.539	-0.156	-0.202
-613.273	-30.241	-0.267	0.155
-612.259	-85.191	-0.372	-0.118
-611.244	-135.760	-0.171	-0.021
-610.230	-78.249	-0.053	-0.018
-609.215	82.820	-0.136	0.150
-608.201	791.772	0.175	0.490
-607.186	348.931	0.229	0.459
-606.171	-64.182	-0.136	-0.056
-605.157	2.049	-0.113	-0.083
-604.142	-55.808	0.348	-0.158
-603.128	-122.369	0.165	-0.027
-602.113	-200.000	0.002	-0.017
-601.098	-200.000	-0.011	-0.075
-600.084	-200.000	0.012	0.456
-599.069	-116.309	0.153	0.029
-598.055	-200.000	-0.035	-0.216
-597.040	64.847	0.356	0.365
-596.025	28.988	0.265	-0.229
-595.011	1.730	-0.188	-0.138
-593.996	73.494	0.122	0.129
-592.982	175.379	-0.117	0.172
-591.967	41.986	0.069	0.064
-590.952	39.206	-0.053	-0.048
-589.938	-42.899	0.325	0.168
-588.923	258.561	0.302	-0.529
-587.909	-34.848	0.141	-0.078
-586.894	-116.146	-0.137	0.026
-585.879	-126.138	0.149	-0.023
-584.865	433.356	0.097	-0.214
-583.850	-48.653	0.156	0.076
-582.836	49.823	-0.048	-0.046
-581.821	800.000	0.021	0.091
-580.806	304.765	0.111	-0.210
-579.792	2.444	-0.240	0.176
-578.777	67.398	-0.123	-0.128
-577.763	-55.274	-0.361	-0.165
-576.748	-200.000	-0.020	0.162
-575.733	-91.315	0.160	-0.046
-574.719	-102.758	-0.343	-0.083
-573.704	-49.552	0.186	0.090
-572.690	240.274	-0.087	0.147
-571.675	-23.931	0.254	0.154
-570.661	-41.232	-0.128	-0.067
-569.646	-100.084	0.317	0.080
-568.631	-126.021	-0.167	-0.025
-567.617	379.365	0.122	-0.253
-566.602	68.852	-0.071	0.074
-565.588	-200.000	-0.042	-0.247
-564.573	419.730	0.095	0.205
-563.558	800.000	0.097	0.284
-562.544	237.205	0.204	0.343
-561.529	111.250	-0.119	0.145
-560.515	-41.839	0.221	-0.115
-559.500	200.357	-0.180	0.280
-558.485	-154.049	-0.149	0.010
-557.471	235.211	-0.106	-0.178
-556.456	-121.036	-0.273	0.047
-555.442	-177.086	-0.249	0.006
-554.427	-110.010	-0.147	0.031
-553.412	-108.076	-0.055	0.012
-552.398	-0.588	-0.353	0.254
-551.383	83.866	-0.174	-0.193
-550.369	-200.000	0.005	-0.059
-549.354	800.000	0.070	-0.223
-548.339	800.000	-0.034	-0.132
-547.325	-121.254	0.133	-0.022
-546.310	-35.427	0.235	-0.129
-545.296	588.323	-0.102	0.255
-544.281	140.456	-0.237	0.318
-543.266	-97.014	0.425	0.113
-542.252	800.000	-0.031	-0.124
-541.237	213.714	0.065	-0.104
-540.223	-115.831	0.076	0.014
-539.208	94.912	-0.071	-0.082
-538.193	684.174	0.134	-0.355
-537.179	-105.903	0.250	0.057
-536.164	-200.000	0.012	-0.079
-535.150	70.675	-0.302	0.317
-534.135	-200.000	-0.046	0.368
-533.121	610.049	-0.101	0.256
-532.106	-200.000	0.036	0.215
-531.091	-82.485	0.282	-0.093
-530.077	3.306	-0.079	0.058
-529.062	-86.273	0.365	0.114
-528.048	800.000	-0.051	-0.200
-527.033	-126.048	-0.351	0.053
-526.018	71.450	-0.055	-0.058
-525.004	-71.395	0.175	0.066
-523.989	-200.000	0.022	-0.106
-522.975	-74.818	0.302	-0.110
-521.960	800.000	-0.077	0.263
-520.945	-172.093	0.239	0.008
-519.931	217.084	0.100	0.162
-518.916	190.812	0.162	0.247
-517.902	433.480	-0.139	-0.306
-516.887	52.693	0.266	-0.257
-515.872	-92.716	0.034	-0.010
-514.858	-200.000	0.020	-0.251
-513.843	-10.487	-0.131	0.088
-512.829	189.972	-0.059	0.090
-511.814	-121.485	0.187	-0.032
-510.799	419.302	-0.026	-0.056
-509.785	-200.000	0.109	-0.506
-508.770	90.547	-0.150	-0.170
-507.756	170.831	-0.086	-0.125
-506.741	-86.909	-0.406	0.126
-505.726	17.832	0.214	-0.173
-504.712	271.386	-0.095	0.170
-503.697	47.853	0.092	-0.087
-502.683	34.787	-0.097	0.086
-501.668	267.385	-0.041	-0.073
-500.653	88.209	0.099	-0.111
-499.639	163.749	0.077	-0.110
-498.624	-181.661	0.202	0.004
-497.610	-200.000	0.025	0.366
-496.595	493.323	-0.004	0.009
-495.581	22.201	0.268	0.221
-494.566	-15.722	-0.150	0.097
-493.551	-73.303	-0.141	-0.052
-492.537	-71.670	-0.275	0.104
-491.522	129.007	-0.176	0.228
-490.508	-152.906	0.233	-0.017
-489.493	-63.096	-0.202	-0.085
-488.478	800.000	-0.030	-0.088
-487.464	-200.000	0.029	0.144
-486.449	682.899	-0.101	0.266
-485.435	-200.000	-0.008	-0.186
-484.420	-57.040	0.229	-0.102
-483.405	-105.753	-0.123	0.028
-482.391	2.645	0.053	-0.039
-481.376	169.311	0.289	-0.417
-480.362	-102.343	-0.140	0.034
-479.347	800.000	0.065	0.217
-478.332	-112.564	-0.186	-0.038
-477.318	152.382	0.107	0.148
-476.303	-200.000	0.014	-0.415
-475.289	417.048	0.055	-0.120
-474.274	27.935	-0.072	-0.062
-473.259	-97.108	-0.193	0.051
-472.245	335.104	-0.047	-0.093
-471.230	-200.000	0.033	-0.184
-470.216	393.302	-0.066	-0.138
-469.201	800.000	0.030	0.093
-468.186	-62.237	0.233	0.098
-467.172	-200.000	0.024	-0.223
-466.157	-90.384	-0.160	-0.047
-465.143	222.349	0.199	-0.323
-464.128	89.720	0.077	0.087
-463.113	-72.779	0.221	-0.082
-462.099	-200.000	-0.008	-0.147
-461.084	-200.000	0.003	0.148
-460.070	-200.000	0.041	0.252
-459.055	-200.000	-0.041	-0.328
-458.040	11.360	-0.345	0.267
-457.026	-94.837	0.219	0.060
-456.011	-23.678	0.064	0.039
-454.997	-200.000	-0.036	0.298
-453.982	287.976	0.077	0.141
-452.968	-60.965	-0.160	0.068
-451.953	-105.129	0.169	0.039
-450.938	-109.701	0.205	-0.044
-449.924	-76.472	-0.282	0.100
-448.909	3.036	-0.177	-0.130
-447.895	20.311	0.232	0.190
-446.880	61.245	0.132	-0.133
-445.865	1.072	-0.170	0.123
-444.851	28.993	0.388	0.333
-443.836	9.545	-0.190	-0.145
-442.822	-83.972	0.097	0.031
-441.807	136.147	0.195	0.257
-440.792	-200.000	-0.020	0.199
-439.778	-66.549	0.038	0.015
-438.763	38.379	0.192	-0.173
-437.749	-119.987	-0.181	-0.031
-436.734	800.000	-0.042	0.149
-435.719	106.412	0.214	-0.257
-434.705	518.989	0.110	-0.261
-433.690	-42.637	0.122	0.063
-432.676	128.378	-0.142	0.183
-431.661	28.575	0.344	-0.294
-430.646	502.882	0.142	-0.332
-429.632	167.344	0.119	-0.171
-428.617	-3.963	-0.224	-0.157
-427.603	-11.224	-0.323	-0.215
-426.588	-12.911	0.213	-0.140
-425.573	800.000	-0.080	0.284
-424.559	-14.380	-0.125	0.082
-423.544	-200.000	-0.035	0.263
-422.530	43.102	-0.156	0.143
-421.515	-200.000	-0.022	-0.135
-420.500	158.916	-0.082	0.115
-419.486	-41.312	0.279	0.145
-418.471	-110.953	0.080	0.017
-417.457	-103.494	-0.087	0.021
-416.442	-200.000	-0.035	0.180
-415.428	325.974	-0.173	0.334
-414.413	55.234	0.120	0.117
-413.398	-157.174	-0.241	-0.015
-412.384	247.199	-0.060	0.101
-411.369	-94.982	-0.331	-0.090
-410.355	-116.960	0.249	0.046
-409.340	-200.000	-0.091	-0.478
-408.325	39.537	0.335	0.303
-407.311	398.966	-0.116	-0.245
-406.296	54.484	0.039	-0.038
-405.282	75.088	-0.018	0.019
-404.267	800.000	0.041	-0.125
-403.252	-77.626	0.259	-0.091
-402.238	-200.000	0.038	0.407
-401.223	681.783	-0.098	-0.257
-400.209	-200.000	-0.011	-0.194
-399.194	-13.180	0.066	0.043
-398.179	800.000	0.069	0.232
-397.165	196.436	0.058	0.089
-396.150	-37.995	-0.089	-0.048
-395.136	420.775	0.006	-0.013
-394.121	-8.561	0.136	0.092
-393.106	-112.830	0.156	0.031
-392.092	-200.000	-0.056	-0.288
-391.077	-89.787	0.014	0.004
-390.063	-6.587	0.391	-0.269
-389.048	54.134	0.162	-0.157
-388.033	-200.000	-0.009	-0.132
-387.019	-51.003	-0.220	-0.104
-386.004	116.927	-0.030	0.037
-384.990	-82.378	0.107	0.035
-383.975	-66.686	0.378	-0.151
-382.960	8.051	-0.310	0.234
-381.946	44.261	-0.080	0.074
-380.931	147.012	-0.113	-0.153
-379.917	-200.000	0.139	-0.000
-378.902	-44.242	0.299	-0.151
-377.888	800.000	-0.034	-0.120
-376.873	-156.655	0.184	-0.011
-375.858	-200.000	-0.010	0.189
-374.844	800.000	-0.038	-0.127
-373.829	-130.362	-0.020	0.003
-372.815	-91.580	-0.263	0.076
-371.800	-106.904	-0.399	0.089
-370.785	41.355	0.150	-0.137
-369.771	-67.871	0.264	0.104
-368.756	102.429	0.190	-0.223
-367.742	84.723	0.177	0.196
-366.727	-200.000	-0.020	-0.201
-365.712	68.043	0.228	0.235
-364.698	-200.000	0.027	-0.192
-363.683	158.816	-0.125	-0.176
-362.669	-81.155	-0.247	0.082
-361.654	-8.655	0.192	0.130
-360.639	-21.780	0.219	-0.134
-359.625	-10.622	-0.348	-0.232
-358.610	381.540	0.108	-0.223
-357.596	-200.000	0.035	0.249
-356.581	-19.104	-0.255	0.160
-355.566	-120.141	0.299	0.052
-354.552	169.880	0.024	-0.034
-353.537	-131.807	0.115	-0.015
-352.523	-200.000	0.023	-0.336
-351.508	56.031	-0.159	-0.155
-350.493	-176.617	-0.136	0.004
-349.479	3.497	0.251	-0.184
-348.464	44.012	-0.191	-0.177
-347.450	-200.000	0.070	0.341
-346.435	-194.655	-0.237	0.002
-345.420	186.126	-0.109	-0.164
-344.406	-58.112	-0.168	0.074
-343.391	-91.617	0.345	-0.099
-342.377	293.809	-0.125	-0.230
-341.362	-200.000	0.043	0.211
-340.348	671.651	-0.019	-0.050
-339.333	-200.000	-0.004	0.228
-338.318	800.000	-0.125	0.383
-337.304	-200.000	0.018	0.198
-336.289	-137.371	-0.080	-0.009
-335.275	116.217	0.115	0.142
-334.260	310.630	0.134	-0.253
-333.245	345.830	0.134	-0.266
-332.231	-174.473	-0.362	-0.010
-331.216	800.000	-0.056	0.227
-330.202	14.972	-0.233	0.183
-329.187	299.073	0.104	0.192
-328.172	-86.980	-0.328	-0.101
-327.158	-200.000	-0.009	-0.413
-326.143	-200.000	-0.021	-0.171
-325.129	-172.080	-0.162	0.005
-324.114	-104.405	-0.241	0.056
-323.099	-124.358	-0.091	-0.014
-322.085	225.576	-0.088	-0.144
-321.070	-120.285	0.154	-0.026
-320.056	-200.000	-0.007	-0.116
-319.041	800.000	-0.036	0.143
-318.026	-127.734	-0.220	-0.032
-317.012	-29.999	0.066	-0.038
-315.997	32.482	-0.085	-0.074
-314.983	-200.000	-0.004	-0.063
-313.968	-200.000	-0.000	-0.055
-312.953	47.570	-0.149	0.140
-311.939	33.228	0.107	0.093
-310.924	62.739	0.293	0.294
-309.910	-3.724	0.142	-0.099
-308.895	-123.160	0.103	0.017
-307.880	-147.877	-0.387	0.032
-306.866	33.060	-0.127	0.111
-305.851	50.981	-0.152	0.144
-304.837	-128.828	0.108	-0.015
-303.822	-59.780	-0.165	0.071
-302.807	-115.938	0.157	-0.029
-301.793	536.794	-0.095	0.226
-300.778	252.617	0.159	0.272
-299.764	-200.000	-0.016	-0.139
-298.749	800.000	-0.077	0.263
-297.735	58.816	0.111	0.110
-296.720	-120.131	-0.267	0.046
-295.705	147.754	-0.207	0.281
-294.691	107.716	0.116	-0.139
-293.676	98.044	0.257	0.297
-292.662	22.275	-0.069	0.057
-291.647	-200.000	0.002	0.138
-290.632	-40.776	0.203	-0.105
-289.618	-186.631	-0.017	0.000
-288.603	78.176	0.356	0.382
-287.589	77.274	0.272	0.291
-286.574	137.131	-0.087	-0.114
-285.559	-92.083	0.251	-0.071
-284.545	800.000	-0.034	-0.101
-283.530	-155.493	0.230	-0.015
-282.516	-200.000	-0.006	0.306
-281.501	26.855	-0.145	0.122
-280.486	-158.277	0.083	-0.005
-279.472	-200.000	-0.070	0.313
-278.457	1.640	0.076	-0.055
-277.443	-145.007	0.108	-0.010
-276.428	9.055	-0.189	-0.143
-275.413	-188.863	-0.211	-0.003
-274.399	800.000	0.059	0.173
-273.384	-21.998	-0.232	-0.142
-272.370	-200.000	0.003	0.024
-271.355	-200.000	0.018	0.123
-270.340	222.496	-0.188	-0.304
-269.326	-166.701	0.049	0.002
-268.311	800.000	-0.073	0.212
-267.297	-200.000	-0.016	0.307
-266.282	-64.654	-0.481	-0.196
-265.267	800.000	-0.039	-0.166
-264.253	-24.776	0.200	-0.120
-263.238	-200.000	0.009	-0.360
-262.224	-200.000	-0.008	-0.258
-261.209	-131.953	-0.253	-0.033
-260.195	-200.000	0.003	-0.205
-259.180	74.599	-0.165	-0.174
-258.165	-34.408	0.312	0.171
-257.151	-200.000	-0.011	-0.058
-256.136	-91.382	-0.325	-0.093
-255.122	-22.817	0.504	-0.305
-254.107	-157.395	-0.343	0.021
-253.092	-172.180	-0.343	0.011
-252.078	-91.754	0.171	0.049
-251.063	-19.130	-0.066	-0.041
-250.049	81.531	0.141	0.153
-249.034	-200.000	0.041	-0.525
-248.019	-122.370	0.135	0.022
-247.005	56.830	0.093	-0.091
-245.990	-57.129	0.176	0.078
-244.976	246.147	0.204	0.345
-243.961	306.778	-0.199	-0.372
-242.946	-72.549	0.151	0.056
-241.932	-52.198	-0.180	-0.084
-240.917	126.212	-0.171	-0.217
-239.903	800.000	-0.028	0.109
-238.888	551.454	-0.097	0.234
-237.873	105.221	0.203	-0.240
-236.859	800.000	0.116	0.455
-235.844	-2.921	-0.152	-0.106
-234.830	-117.940	-0.118	-0.021
-233.815	-72.604	0.214	-0.079
-232.800	-200.000	-0.023	-0.174
-231.786	-153.654	-0.425	-0.029
-230.771	481.951	0.086	0.197
-229.757	-118.435	-0.137	-0.024
-228.742	-118.020	-0.169	0.030
-227.727	-34.134	0.217	-0.120
-226.713	-27.367	-0.128	-0.074
-225.698	199.354	-0.084	-0.129
-224.684	-142.180	0.273	0.027
-223.669	-137.753	0.063	-0.007
-222.655	9.739	0.309	-0.235
-221.640	-75.459	-0.253	0.090
-220.625	800.000	0.014	-0.040
-219.611	716.504	-0.043	0.114
-218.596	-29.228	-0.167	0.096
-217.582	-95.388	-0.118	-0.032
-216.567	-173.629	0.225	-0.007
-215.552	688.684	-0.074	-0.193
-214.538	-98.340	0.251	-0.064
-213.523	25.479	0.145	-0.121
-212.509	-53.224	0.040	0.018
-211.494	216.780	0.114	0.182
-210.479	306.964	-0.176	0.329
-209.465	-150.154	-0.175	-0.014
-208.450	23.005	0.403	0.331
-207.436	-148.875	-0.151	0.012
-206.421	-144.298	0.289	-0.027
-205.406	800.000	0.080	-0.269
-204.392	263.171	-0.108	-0.188
-203.377	-200.000	0.011	-0.083
-202.363	-26.477	0.114	-0.067
-201.348	-200.000	0.015	-0.220
-200.333	-200.000	0.006	-0.354
-199.319	-56.803	-0.292	-0.129
-198.304	31.493	0.315	0.271
-197.290	800.000	-0.036	0.129
-196.275	169.650	0.142	-0.203
-195.260	-30.403	0.037	0.021
-194.246	-200.000	-0.035	0.257
-193.231	-65.263	0.205	0.083
-192.217	800.000	0.026	0.101
-191.202	129.388	0.109	0.140
-190.187	-200.000	-0.008	0.157
-189.173	-200.000	0.001	0.132
-188.158	-42.714	-0.290	-0.148
-187.144	63.371	0.119	-0.119
-186.129	-67.527	-0.391	-0.154
-185.114	352.090	-0.145	-0.288
-184.100	-200.000	0.021	-0.212
-183.085	182.363	0.061	0.089
-182.071	21.858	-0.069	0.056
-181.056	-78.441	-0.044	0.015
-180.042	-62.380	0.108	-0.045
-179.027	800.000	-0.058	-0.247
-178.012	55.877	0.252	0.245
-176.998	385.396	-0.146	-0.301
-175.983	-150.550	-0.354	-0.027
-174.969	-100.960	0.204	-0.050
-173.954	-14.675	-0.141	-0.090
-172.939	-200.000	-0.016	-0.131
-171.925	181.029	0.080	-0.118
-170.910	166.450	-0.218	-0.308
-169.896	800.000	0.028	0.086
-168.881	679.726	0.060	0.156
-167.866	-200.000	0.064	0.283
-166.852	-18.745	-0.450	0.280
-165.837	90.619	0.237	0.265
-164.823	800.000	0.088	0.250
-163.808	-103.232	0.178	0.042
-162.793	-50.288	-0.179	0.084
-161.779	-100.977	-0.391	-0.096
-160.764	-53.756	0.090	0.041
-159.750	-77.865	0.394	0.136
-158.735	800.000	-0.074	-0.235
-157.720	-122.969	0.232	-0.037
-156.706	4.526	-0.044	-0.032
-155.691	-84.582	-0.130	0.041
-154.677	-200.000	-0.046	0.291
-153.662	470.834	-0.085	0.191
-152.647	-51.298	0.139	0.065
-151.633	8.349	0.128	0.096
-150.618	-79.116	0.039	-0.013
-149.604	110.398	-0.277	-0.332
-148.589	240.014	-0.135	-0.225
-147.574	268.842	0.121	0.212
-146.560	-200.000	-0.017	-0.206
-145.545	652.260	0.052	-0.132
-144.531	39.164	0.308	0.276
-143.516	258.976	0.057	-0.098
-142.502	6.639	0.054	-0.040
-141.487	-7.002	-0.087	-0.059
-140.472	-200.000	-0.056	0.460
-139.458	104.860	-0.179	0.211
-138.443	102.280	0.274	0.319
-137.429	-200.000	0.007	0.150
-136.414	48.391	0.135	0.127
-135.399	118.566	-0.147	0.181
-134.385	-41.874	-0.201	-0.103
-133.370	-200.000	0.047	0.342
-132.356	800.000	-0.026	-0.083
-131.341	-93.540	-0.275	-0.076
-130.326	28.874	0.085	0.072
-129.312	-200.000	0.053	0.288
-128.297	-200.000	-0.050	0.425
-127.283	-90.637	0.098	-0.028
-126.268	-24.986	-0.051	-0.030
-125.253	-94.624	-0.275	-0.075
-124.239	-78.629	0.132	-0.045
-123.224	-92.335	0.095	0.027
-122.210	-101.748	-0.078	0.019
-121.195	521.370	0.117	0.273
