DTS Sentinel unit serial number:	SN413079Multiplexer serial number:	ORYXHardware model number:	OX4-SRSoftware version number:	ORYX F/W v4.00 Oryx Data Collector v3.7.2.0data status	okinstallation	princeton_trtdifferential loss correction	single-endedforward channel	channel 1reverse channel	N/Adate	2019/09/18time	11:26:35forward acquisition time	60.00reverse acquisition time	0.00gamma	496.2192k internal	0.2326k external	0.2326temperature offset calibration	0.9973default loss term (dB/km)	0.3790temperature slope calibration	1.0000multiplexer offset coefficient	1.0000multiplexer slope coefficient	1.0000fibre end	0.00T internal ref (°C)	30.27T ext. ref 1 (°C)	0.42T ext. ref 2 (°C)	28.20length (m)	temperature (°C)	Stokes	anti-Stokes-747.200	462.494	-0.069	0.156
-746.185	90.468	-0.082	0.093
-745.171	15.997	-0.125	-0.100
-744.156	800.000	-0.006	0.021
-743.142	-47.911	0.323	0.158
-742.127	26.415	-0.183	-0.154
-741.112	153.801	0.132	0.182
-740.098	800.000	-0.060	0.263
-739.083	2.877	-0.194	-0.142
-738.069	-200.000	0.037	0.288
-737.054	-25.454	0.244	0.145
-736.039	-200.000	-0.030	0.137
-735.025	-100.837	-0.423	0.105
-734.010	-77.049	-0.099	0.035
-732.996	-200.000	0.007	-0.276
-731.981	336.189	0.062	0.122
-730.966	360.351	-0.055	0.110
-729.952	29.582	0.077	0.066
-728.937	-76.766	-0.290	0.102
-727.923	45.023	-0.104	-0.097
-726.908	-81.081	-0.358	-0.119
-725.894	-200.000	-0.063	-0.293
-724.879	82.973	-0.145	0.158
-723.864	1.169	-0.174	0.126
-722.850	30.686	-0.238	-0.205
-721.835	677.466	0.214	0.561
-720.821	394.570	-0.063	-0.132
-719.806	-96.949	0.027	-0.007
-718.791	800.000	-0.068	0.236
-717.777	-30.921	-0.283	-0.161
-716.762	-9.594	0.301	-0.202
-715.748	-161.165	0.116	-0.006
-714.733	800.000	0.093	-0.300
-713.718	-118.217	0.133	-0.024
-712.704	-200.000	0.053	-0.326
-711.689	89.295	-0.100	0.112
-710.675	257.218	-0.183	-0.318
-709.660	7.546	0.149	0.112
-708.645	-16.051	-0.301	0.193
-707.631	-118.367	0.196	0.035
-706.616	38.998	0.194	-0.175
-705.602	232.937	0.179	0.297
-704.587	39.269	-0.121	0.109
-703.572	-200.000	0.033	0.184
-702.558	-200.000	-0.016	0.318
-701.543	-5.569	-0.072	-0.049
-700.529	-51.951	0.066	-0.031
-699.514	291.375	-0.098	0.180
-698.499	-122.746	-0.154	0.025
-697.485	-76.445	-0.065	-0.023
-696.470	-8.667	-0.320	0.216
-695.456	-42.382	-0.114	-0.059
-694.441	357.223	-0.126	-0.252
-693.426	-157.878	0.164	0.010
-692.412	-172.130	0.090	0.003
-691.397	150.341	-0.079	-0.108
-690.383	800.000	0.070	-0.216
-689.368	198.242	0.180	-0.277
-688.354	740.076	-0.079	0.215
-687.339	-139.106	-0.183	-0.020
-686.324	246.913	0.032	0.054
-685.310	800.000	0.081	0.337
-684.295	-147.183	0.168	-0.014
-683.281	360.515	-0.163	-0.329
-682.266	16.814	-0.359	-0.286
-681.251	800.000	-0.037	-0.125
-680.237	-200.000	0.110	-0.526
-679.222	-68.041	0.268	-0.105
-678.208	-130.305	-0.190	-0.026
-677.193	72.141	-0.103	-0.107
-676.178	112.211	0.248	-0.302
-675.164	32.245	-0.126	-0.110
-674.149	144.054	0.096	-0.128
-673.135	-29.825	-0.272	-0.156
-672.120	-87.652	-0.147	-0.045
-671.105	800.000	-0.056	-0.242
-670.091	-40.831	0.201	-0.105
-669.076	-127.210	0.295	0.043
-668.062	800.000	-0.064	-0.271
-667.047	-33.746	0.188	0.104
-666.032	-134.194	-0.128	0.016
-665.018	690.320	0.045	-0.119
-664.003	-46.329	-0.324	-0.160
-662.989	-43.075	0.062	0.031
-661.974	-76.448	0.118	-0.042
-660.959	97.922	0.252	0.292
-659.945	-37.074	-0.005	0.002
-658.930	-189.472	0.149	0.002
-657.916	800.000	-0.021	-0.061
-656.901	130.444	0.168	0.216
-655.886	-166.874	0.092	0.004
-654.872	-200.000	0.051	0.257
-653.857	-159.565	-0.161	0.009
-652.843	-200.000	-0.017	-0.167
-651.828	46.574	0.116	-0.108
-650.814	800.000	0.064	-0.179
-649.799	-112.388	-0.425	-0.085
-648.784	-47.734	0.214	0.104
-647.770	335.635	-0.034	-0.066
-646.755	218.908	-0.131	-0.210
-645.741	800.000	0.069	-0.223
-644.726	-37.814	-0.164	0.088
-643.711	-146.772	-0.324	0.028
-642.697	800.000	0.003	-0.012
-641.682	44.794	-0.189	0.174
-640.668	81.170	-0.083	0.090
-639.653	-77.257	-0.498	-0.174
-638.638	-10.749	-0.052	0.034
-637.624	-58.427	-0.051	0.022
-636.609	127.769	-0.306	0.390
-635.595	-16.691	-0.153	0.097
-634.580	-94.363	0.180	0.049
-633.565	122.309	0.174	0.218
-632.551	-79.272	-0.197	0.067
-631.536	-95.949	0.068	0.018
-630.522	-200.000	0.009	-0.105
-629.507	-200.000	0.018	0.153
-628.492	-132.581	0.257	-0.033
-627.478	-108.904	-0.092	-0.020
-626.463	-161.409	-0.185	0.010
-625.449	-200.000	0.007	-0.264
-624.434	-200.000	0.039	0.192
-623.419	-162.846	-0.451	0.022
-622.405	-21.077	-0.240	0.148
-621.390	-149.656	-0.084	0.007
-620.376	19.779	0.075	-0.061
-619.361	156.736	0.074	0.102
-618.346	-109.144	0.260	0.055
-617.332	-200.000	-0.017	-0.492
-616.317	-81.018	0.089	-0.030
-615.303	-86.206	0.113	-0.035
-614.288	160.639	-0.072	-0.101
-613.273	-78.392	0.129	-0.044
-612.259	242.641	0.291	-0.488
-611.244	344.977	-0.137	-0.270
-610.230	-62.463	0.061	-0.025
-609.215	4.038	-0.192	-0.141
-608.201	800.000	-0.045	-0.184
-607.186	95.258	0.144	-0.164
-606.171	800.000	0.043	0.139
-605.157	50.347	0.145	-0.137
-604.142	-200.000	0.098	-0.519
-603.128	-165.863	0.032	-0.001
-602.113	800.000	-0.110	-0.344
-601.098	453.923	-0.060	0.134
-600.084	178.933	-0.251	-0.368
-599.069	-67.973	0.245	-0.096
-598.055	800.000	-0.052	-0.153
-597.040	-110.200	0.175	-0.037
-596.025	-171.469	-0.241	-0.008
-595.011	-126.230	-0.032	0.005
-593.996	-18.655	-0.194	0.121
-592.982	-55.212	0.255	-0.115
-591.967	-25.468	0.132	-0.078
-590.952	143.303	-0.042	-0.056
-589.938	-66.882	-0.251	-0.099
-588.923	-200.000	0.001	0.027
-587.909	142.866	-0.218	0.291
-586.894	-200.000	-0.000	0.043
-585.879	-32.442	0.089	-0.050
-584.865	-200.000	-0.081	0.462
-583.850	-48.516	-0.238	0.115
-582.836	-32.988	-0.216	0.120
-581.821	-87.830	-0.243	0.073
-580.806	99.521	-0.276	0.320
-579.792	81.755	0.033	-0.036
-578.777	-140.713	0.116	0.012
-577.763	-63.984	-0.189	-0.077
-576.748	-166.267	-0.212	-0.009
-575.733	-64.101	-0.254	-0.104
-574.719	625.634	0.034	-0.086
-573.704	-11.334	-0.593	0.391
-572.690	-10.328	0.204	-0.135
-571.675	-200.000	-0.029	0.218
-570.661	69.333	-0.083	-0.086
-569.646	464.706	-0.178	0.398
-568.631	-200.000	-0.015	0.289
-567.617	170.138	0.205	-0.293
-566.602	760.801	-0.117	0.317
-565.588	-200.000	0.048	-0.352
-564.573	-200.000	-0.001	-0.007
-563.558	800.000	0.031	0.092
-562.544	-124.053	0.254	0.040
-561.529	800.000	-0.055	-0.175
-560.515	-200.000	0.137	-0.611
-559.500	-200.000	0.006	-0.194
-558.485	800.000	-0.026	0.101
-557.471	62.843	-0.190	0.190
-556.456	149.467	-0.142	0.193
-555.442	-2.922	0.257	-0.180
-554.427	-200.000	-0.051	0.229
-553.412	-69.090	-0.256	0.099
-552.398	-23.288	-0.214	0.129
-551.383	-101.990	0.287	0.069
-550.369	800.000	-0.065	-0.252
-549.354	703.107	0.193	-0.510
-548.339	13.502	0.163	-0.127
-547.325	-44.637	0.154	-0.077
-546.310	-45.791	-0.340	-0.168
-545.296	-200.000	-0.014	-0.160
-544.281	-3.792	0.118	0.082
-543.266	-130.287	-0.256	-0.035
-542.252	-200.000	-0.056	-0.289
-541.237	-45.801	-0.157	-0.078
-540.223	-20.365	0.154	0.095
-539.208	-75.882	-0.179	-0.064
-538.193	-139.137	-0.121	-0.013
-537.179	30.995	-0.079	-0.068
-536.164	-200.000	-0.084	-0.451
-535.150	-200.000	0.078	-0.656
-534.135	32.450	0.127	-0.110
-533.121	-88.774	-0.436	0.130
-532.106	-101.809	-0.264	0.064
-531.091	-0.998	-0.304	-0.215
-530.077	22.818	-0.189	-0.155
-529.062	72.546	-0.171	-0.179
-528.048	-200.000	-0.005	-0.028
-527.033	59.032	0.263	0.259
-526.018	-200.000	-0.060	-0.427
-525.004	-200.000	-0.017	-0.113
-523.989	121.763	0.221	0.275
-522.975	800.000	-0.134	0.401
-521.960	-134.711	-0.155	-0.019
-520.945	-160.481	0.292	-0.016
-519.931	-200.000	0.006	0.076
-518.916	-200.000	0.027	-0.193
-517.902	260.612	0.067	0.116
-516.887	-200.000	-0.035	0.266
-515.872	144.029	0.014	-0.018
-514.858	-17.733	-0.317	-0.199
-513.843	-88.144	0.317	-0.095
-512.829	800.000	0.064	-0.214
-511.814	-200.000	-0.054	-0.262
-510.799	-200.000	0.041	-0.196
-509.785	-35.756	-0.026	-0.014
-508.770	341.840	-0.162	0.317
-507.756	-50.599	0.052	-0.025
-506.741	-67.522	-0.174	0.068
-505.726	107.868	0.221	0.263
-504.712	745.960	-0.066	-0.178
-503.697	-200.000	0.008	-0.047
-502.683	-200.000	-0.004	-0.021
-501.668	-68.021	0.219	0.085
-500.653	-60.542	0.555	-0.236
-499.639	409.106	0.152	0.321
-498.624	396.270	-0.134	-0.279
-497.610	39.346	0.289	-0.259
-496.595	353.950	-0.056	0.112
-495.581	800.000	-0.031	-0.085
-494.566	146.335	0.220	0.294
-493.551	-200.000	0.042	-0.249
-492.537	44.000	0.065	-0.060
-491.522	-200.000	0.008	0.101
-490.508	461.849	-0.026	-0.057
-489.493	800.000	0.100	0.366
-488.478	-179.327	-0.210	-0.005
-487.464	-200.000	0.030	0.227
-486.449	18.023	0.122	-0.097
-485.435	182.867	-0.086	0.127
-484.420	203.267	-0.209	0.322
-483.405	150.731	-0.074	0.100
-482.391	-158.277	0.358	-0.021
-481.376	345.803	-0.104	-0.205
-480.362	-64.876	0.267	-0.108
-479.347	-153.322	-0.306	-0.021
-478.332	75.825	-0.074	0.078
-477.318	-200.000	0.001	0.074
-476.303	-160.753	0.215	0.011
-475.289	-68.777	-0.049	-0.019
-474.274	343.377	-0.036	-0.070
-473.259	-113.993	0.309	-0.060
-472.245	0.485	0.166	0.119
-471.230	-200.000	0.022	0.234
-470.216	800.000	0.099	0.407
-469.201	347.397	-0.097	-0.190
-468.186	-86.421	0.220	-0.067
-467.172	800.000	0.058	0.188
-466.157	114.045	-0.016	-0.019
-465.143	-200.000	0.041	-0.350
-464.128	800.000	-0.073	0.220
-463.113	155.798	-0.251	0.345
-462.099	113.342	-0.348	0.421
-461.084	-134.696	0.495	0.060
-460.070	534.295	0.059	0.141
-459.055	218.675	-0.120	0.192
-458.040	-200.000	0.008	-0.228
-457.026	-104.259	0.216	-0.050
-456.011	144.322	0.086	0.115
-454.997	-87.746	0.380	0.114
-453.982	685.624	-0.034	0.089
-452.968	-200.000	-0.031	-0.276
-451.953	-17.024	0.340	-0.214
-450.938	800.000	0.032	0.135
-449.924	-141.713	-0.316	-0.032
-448.909	742.440	0.152	-0.407
-447.895	-102.390	-0.135	0.032
-446.880	112.618	0.145	-0.175
-445.865	-200.000	0.019	-0.117
-444.851	800.000	0.078	-0.242
-443.836	19.901	0.145	-0.117
-442.822	800.000	0.049	0.212
-441.807	49.580	0.218	-0.205
-440.792	-28.333	-0.185	-0.106
-439.778	-14.246	0.154	0.099
-438.763	32.734	-0.174	0.150
-437.749	-200.000	0.019	0.153
-436.734	-107.931	-0.263	0.057
-435.719	-28.662	0.317	-0.182
-434.705	-147.736	0.116	-0.010
-433.690	91.583	0.243	0.272
-432.676	181.339	-0.072	0.105
-431.661	-95.106	-0.540	-0.145
-430.646	-185.842	-0.423	-0.006
-429.632	800.000	0.074	0.236
-428.617	234.594	0.239	0.393
-427.603	-55.478	-0.031	-0.014
-426.588	160.992	-0.067	-0.093
-425.573	-158.134	-0.510	0.030
-424.559	800.000	-0.023	0.080
-423.544	95.370	-0.108	0.122
-422.530	-8.090	0.131	-0.088
-421.515	800.000	0.080	-0.240
-420.500	800.000	0.004	-0.017
-419.486	53.078	-0.180	0.172
-418.471	-26.513	0.474	0.277
-417.457	800.000	-0.074	0.243
-416.442	-77.077	-0.178	0.062
-415.428	170.351	0.102	-0.146
-414.413	-125.969	0.232	0.035
-413.398	800.000	0.022	-0.078
-412.384	800.000	0.015	0.051
-411.369	174.877	0.209	0.301
-410.355	120.350	0.230	-0.284
-409.340	-127.482	-0.289	-0.042
-408.325	-73.998	0.307	-0.111
-407.311	-200.000	0.013	0.082
-406.296	-97.791	-0.051	-0.013
-405.282	50.678	-0.075	-0.071
-404.267	379.495	-0.039	-0.080
-403.252	-28.442	0.286	0.164
-402.238	242.115	0.071	-0.118
-401.223	31.738	0.166	-0.142
-400.209	418.308	0.076	-0.162
-399.194	353.577	-0.223	0.441
-398.179	-200.000	-0.018	0.482
-397.165	-102.805	-0.251	-0.060
-396.150	-128.103	-0.361	-0.051
-395.136	-200.000	0.006	0.256
-394.121	490.803	0.039	-0.090
-393.106	31.527	0.246	0.210
-392.092	800.000	-0.073	0.210
-391.077	-200.000	-0.057	0.260
-390.063	-46.679	0.225	0.109
-389.048	300.237	0.142	-0.261
-388.033	519.407	0.157	-0.365
-387.019	330.610	-0.075	-0.144
-386.004	-106.625	0.199	-0.044
-384.990	291.982	-0.045	-0.082
-383.975	59.646	-0.174	0.171
-382.960	192.852	0.060	-0.090
-381.946	-200.000	0.015	0.076
-380.931	-173.050	0.369	-0.011
-379.917	-200.000	-0.003	-0.064
-378.902	-83.372	-0.228	-0.073
-377.888	490.857	-0.107	-0.243
-376.873	380.925	-0.086	-0.176
-375.858	226.904	0.077	0.125
-374.844	48.651	-0.207	0.192
-373.829	221.827	-0.174	0.278
-372.815	-63.906	0.036	0.015
-371.800	-35.459	-0.259	0.140
-370.785	313.384	-0.083	-0.156
-369.771	-51.007	-0.245	0.114
-368.756	-200.000	-0.004	0.254
-367.742	42.632	0.158	-0.143
-366.727	-82.737	-0.070	-0.023
-365.712	198.469	-0.002	-0.003
-364.698	-10.245	-0.201	-0.133
-363.683	-200.000	0.069	-0.377
-362.669	-200.000	0.031	-0.198
-361.654	89.898	0.033	0.037
-360.639	169.760	0.181	-0.257
-359.625	338.937	-0.064	-0.123
-358.610	300.102	0.094	0.172
-357.596	-200.000	-0.022	-0.128
-356.581	-153.375	-0.176	0.012
-355.566	49.213	0.086	0.080
-354.552	67.853	0.201	0.204
-353.537	138.511	0.114	0.148
-352.523	-14.959	0.058	0.037
-351.508	-30.643	0.129	0.073
-350.493	-69.721	-0.423	-0.160
-349.479	594.588	-0.047	0.116
-348.464	55.386	0.134	-0.129
-347.450	-200.000	-0.028	-0.271
-346.435	-16.568	0.177	0.111
-345.420	198.643	0.148	0.224
-344.406	17.004	-0.358	0.282
-343.391	-121.506	-0.129	0.021
-342.377	-77.420	0.195	0.067
-341.362	-156.722	0.453	-0.028
-340.348	-194.517	-0.203	0.002
-339.333	367.642	-0.093	-0.187
-338.318	32.857	-0.201	0.173
-337.304	674.365	-0.144	-0.370
-336.289	139.157	0.257	-0.336
-335.275	-98.581	-0.496	-0.126
-334.260	-123.010	0.066	0.011
-333.245	302.267	0.202	-0.371
-332.231	112.935	0.097	-0.117
-331.216	-44.299	0.295	0.147
-330.202	-63.786	0.342	-0.139
-329.187	46.632	0.106	0.098
-328.172	277.647	0.165	0.291
-327.158	800.000	-0.061	-0.206
-326.143	303.650	0.121	-0.222
-325.129	380.054	0.072	-0.146
-324.114	-139.763	0.204	0.021
-323.099	-76.247	-0.163	0.057
-322.085	-100.933	0.350	-0.085
-321.070	-44.145	0.222	-0.110
-320.056	800.000	-0.045	-0.130
-319.041	100.869	-0.209	-0.242
-318.026	-61.046	-0.068	0.028
-317.012	800.000	-0.007	0.026
-315.997	-112.434	-0.191	-0.038
-314.983	-127.741	-0.344	0.049
-313.968	800.000	-0.055	0.187
-312.953	-81.870	-0.306	0.099
-311.939	-200.000	-0.030	0.162
-310.924	62.671	-0.109	0.108
-309.910	242.419	-0.054	-0.089
-308.895	49.355	0.110	-0.102
-307.880	-72.418	-0.282	-0.103
-306.866	-166.020	0.338	-0.014
-305.851	-126.984	-0.126	0.018
-304.837	-200.000	0.043	-0.218
-303.822	-156.284	0.222	-0.014
-302.807	-60.464	0.245	-0.103
-301.793	53.453	-0.182	0.173
-300.778	-164.818	0.081	-0.004
-299.764	52.853	-0.117	-0.111
-298.749	45.518	0.214	0.196
-297.735	284.277	0.087	-0.155
-296.720	-58.106	0.210	-0.091
-295.705	-76.827	0.332	-0.115
-294.691	-78.888	-0.139	-0.047
-293.676	-14.958	0.014	0.009
-292.662	-200.000	0.050	-0.278
-291.647	204.722	0.116	0.179
-290.632	47.163	0.206	-0.190
-289.618	14.512	-0.078	0.061
-288.603	-113.926	-0.092	0.018
-287.589	51.136	0.236	0.222
-286.574	-200.000	0.018	-0.080
-285.559	-200.000	-0.014	0.087
-284.545	53.146	0.200	0.190
-283.530	-200.000	-0.068	0.469
-282.516	50.874	0.100	0.093
-281.501	340.265	-0.131	0.252
-280.486	49.876	-0.275	0.257
-279.472	-200.000	0.006	-0.223
-278.457	-173.301	-0.218	-0.007
-277.443	139.917	0.003	0.004
-276.428	65.119	0.064	-0.064
-275.413	-29.296	0.276	0.156
-274.399	-200.000	-0.028	-0.217
-273.384	-40.792	0.263	0.135
-272.370	-200.000	0.025	-0.173
-271.355	373.618	0.127	-0.255
-270.340	205.351	0.174	-0.267
-269.326	800.000	0.086	-0.258
-268.311	36.771	-0.143	0.125
-267.297	-61.038	0.361	-0.151
-266.282	319.592	-0.074	-0.139
-265.267	-132.611	0.243	-0.031
-264.253	18.602	-0.283	0.224
-263.238	-11.470	-0.337	-0.220
-262.224	-56.790	0.066	-0.029
-261.209	-173.361	0.253	-0.008
-260.195	-63.244	-0.120	0.049
-259.180	135.783	0.065	0.084
-258.165	800.000	0.050	0.169
-257.151	-200.000	-0.052	0.481
-256.136	343.947	0.083	0.160
-255.122	-200.000	-0.006	0.086
-254.107	-92.478	-0.254	-0.071
-253.092	48.113	-0.231	0.214
-252.078	109.872	0.046	-0.054
-251.063	0.531	-0.257	0.182
-250.049	109.523	0.031	0.037
-249.034	800.000	-0.064	-0.199
-248.019	-200.000	0.004	0.162
-247.005	-83.083	-0.316	-0.101
-245.990	145.933	0.098	0.130
-244.976	-67.849	0.152	-0.059
-243.961	-200.000	-0.039	0.169
-242.946	17.172	0.111	0.087
-241.932	210.750	0.072	0.112
-240.917	-139.930	0.226	-0.024
-239.903	-57.935	0.225	0.097
-238.888	-70.077	0.243	-0.091
-237.873	212.938	0.262	0.409
-236.859	-100.241	0.074	-0.018
-235.844	98.068	0.018	0.020
-234.830	800.000	0.042	-0.141
-233.815	-200.000	-0.067	0.418
-232.800	-200.000	-0.003	-0.052
-231.786	92.285	0.171	-0.190
-230.771	16.632	-0.183	0.143
-229.757	-45.683	0.084	0.041
-228.742	189.411	-0.112	0.165
-227.727	-65.647	0.108	-0.043
-226.713	800.000	-0.039	-0.122
-225.698	-11.094	-0.027	-0.018
-224.684	-93.744	0.417	-0.114
-223.669	-200.000	-0.232	-0.001
-222.655	167.128	0.263	0.369
-221.640	-73.339	-0.173	0.063
-220.625	-141.343	0.341	-0.034
-219.611	800.000	-0.014	0.057
-218.596	-111.149	-0.193	0.039
-217.582	-200.000	0.026	0.162
-216.567	53.489	-0.294	0.278
-215.552	800.000	0.115	0.374
-214.538	-49.236	-0.124	0.059
-213.523	101.740	0.193	0.222
-212.509	-94.289	0.292	0.079
-211.494	-97.962	-0.270	0.069
-210.479	-105.374	-0.032	-0.007
-209.465	657.250	-0.016	-0.041
-208.450	226.302	0.097	0.156
-207.436	96.614	-0.160	0.180
-206.421	800.000	0.068	0.223
-205.406	-43.388	-0.234	0.117
-204.392	21.130	0.080	0.064
-203.377	-14.147	0.133	0.085
-202.363	-109.704	0.306	0.064
-201.348	111.202	-0.114	-0.135
-200.333	-53.940	0.049	-0.022
-199.319	108.028	0.189	-0.223
-198.304	-200.000	0.020	-0.092
-197.290	-200.000	-0.005	-0.100
-196.275	111.762	0.133	0.158
-195.260	-122.862	-0.571	-0.091
-194.246	-129.829	0.232	0.031
-193.231	122.663	-0.139	-0.172
-192.217	-200.000	-0.017	-0.190
-191.202	224.728	-0.315	-0.503
-190.187	800.000	0.009	-0.036
-189.173	58.141	-0.150	0.145
-188.158	-136.088	-0.391	-0.045
-187.144	355.181	-0.133	0.262
-186.129	-106.000	0.165	-0.037
-185.114	202.297	0.042	-0.063
-184.100	4.569	-0.133	-0.096
-183.085	63.446	-0.063	0.062
-182.071	648.750	-0.057	0.144
-181.056	-69.476	0.050	-0.019
-180.042	120.932	0.100	-0.123
-179.027	800.000	0.097	-0.333
-178.012	-143.237	-0.259	-0.025
-176.998	-73.625	0.068	0.025
-175.983	-200.000	-0.015	-0.182
-174.969	123.709	-0.065	0.080
-173.954	171.637	-0.180	0.255
-172.939	-88.896	0.243	-0.071
-171.925	102.283	-0.115	-0.132
-170.910	-200.000	-0.033	-0.167
-169.896	38.675	0.123	-0.108
-168.881	-200.000	0.022	0.207
-167.866	-137.191	-0.049	0.005
-166.852	323.374	-0.082	0.155
-165.837	-9.828	0.069	-0.045
-164.823	-129.536	0.270	-0.037
-163.808	-0.120	0.149	-0.105
-162.793	800.000	0.077	0.319
-161.779	-31.180	-0.221	0.123
-160.764	-194.952	0.163	-0.001
-159.750	800.000	0.106	-0.290
-158.735	-168.143	-0.238	-0.009
-157.720	-51.647	0.162	-0.075
-156.706	365.079	0.217	0.430
-155.691	-41.745	0.328	0.166
-154.677	241.338	-0.060	0.099
-153.662	-200.000	0.021	-0.151
-152.647	214.804	0.053	0.083
-151.633	-186.341	-0.259	0.004
-150.618	-200.000	0.350	-0.001
-149.604	69.942	0.285	-0.289
-148.589	609.837	0.028	0.069
-147.574	471.658	-0.167	-0.371
-146.560	-96.283	0.038	-0.010
-145.545	-28.106	0.112	0.064
-144.531	800.000	0.149	-0.419
-143.516	141.276	0.138	0.179
-142.502	-85.250	0.180	0.055
-141.487	-84.922	-0.131	-0.040
-140.472	-96.490	0.274	0.071
-139.458	416.198	-0.116	0.243
-138.443	-60.193	0.134	0.056
-137.429	101.913	-0.097	0.111
-136.414	-68.637	0.114	0.043
-135.399	-148.991	0.421	0.033
-134.385	14.470	0.074	-0.057
-133.370	101.135	-0.185	0.212
-132.356	75.595	0.105	-0.109
-131.341	63.838	-0.131	-0.130
-130.326	339.325	-0.150	-0.287
-129.312	-6.499	-0.295	-0.198
-128.297	-200.000	-0.015	-0.279
-127.283	-95.893	0.052	-0.014
-126.268	-109.295	-0.158	0.033
-125.253	199.578	-0.188	0.284
-124.239	-129.774	0.143	0.019
-123.224	-76.209	-0.126	-0.044
-122.210	-200.000	-0.007	0.095
