DTS Sentinel unit serial number:	SN413079Multiplexer serial number:	ORYXHardware model number:	OX4-SRSoftware version number:	ORYX F/W v4.00 Oryx Data Collector v3.7.2.0data status	okinstallation	princeton_trtdifferential loss correction	single-endedforward channel	channel 1reverse channel	N/Adate	2019/09/16time	00:26:35forward acquisition time	60.00reverse acquisition time	0.00gamma	496.2192k internal	0.2334k external	0.2334temperature offset calibration	0.9973default loss term (dB/km)	0.3790temperature slope calibration	1.0000multiplexer offset coefficient	1.0000multiplexer slope coefficient	1.0000fibre end	0.00T internal ref (°C)	27.61T ext. ref 1 (°C)	9.54T ext. ref 2 (°C)	21.60length (m)	temperature (°C)	Stokes	anti-Stokes-747.200	92.657	0.152	-0.172
-746.185	-200.000	0.033	0.382
-745.171	-70.339	-0.302	0.115
-744.156	-23.779	0.181	-0.109
-743.142	-200.000	0.028	-0.234
-742.127	-135.478	0.320	0.038
-741.112	800.000	0.060	0.182
-740.098	235.563	0.152	0.252
-739.083	87.822	-0.069	-0.077
-738.069	800.000	-0.134	0.393
-737.054	-97.810	-0.325	-0.085
-736.039	-62.769	-0.256	0.107
-735.025	793.052	0.052	0.145
-734.010	147.203	-0.210	-0.284
-732.996	393.580	0.190	-0.398
-731.981	-200.000	-0.064	0.380
-730.966	125.753	0.060	-0.076
-729.952	68.989	0.023	-0.023
-728.937	-48.404	-0.257	-0.125
-727.923	-200.000	-0.025	0.141
-726.908	-90.075	0.110	-0.032
-725.894	-54.863	0.078	-0.035
-724.879	-115.562	-0.091	-0.017
-723.864	-130.379	-0.273	-0.037
-722.850	-200.000	-0.002	0.298
-721.835	459.414	-0.055	0.123
-720.821	-40.306	0.222	0.116
-719.806	-67.680	-0.342	-0.134
-718.791	-86.115	-0.362	0.112
-717.777	-114.591	0.408	0.079
-716.762	177.832	-0.171	0.250
-715.748	358.606	0.038	0.075
-714.733	-76.396	0.391	-0.138
-713.718	-200.000	-0.003	-0.150
-712.704	-200.000	-0.071	-0.333
-711.689	-73.048	0.078	-0.029
-710.675	-69.355	-0.088	0.034
-709.660	55.742	0.150	0.146
-708.645	24.819	-0.210	0.174
-707.631	-121.670	-0.240	0.040
-706.616	68.624	-0.203	0.209
-705.602	50.809	0.127	-0.120
-704.587	-84.794	0.302	-0.095
-703.572	-16.560	-0.125	-0.080
-702.558	549.153	-0.185	-0.446
-701.543	800.000	0.102	0.359
-700.529	17.493	0.036	0.029
-699.514	-12.637	0.134	-0.088
-698.499	-30.049	-0.209	0.119
-697.485	-114.445	-0.409	0.079
-696.470	-128.578	-0.267	-0.038
-695.456	800.000	-0.052	0.145
-694.441	-200.000	0.028	-0.144
-693.426	51.391	-0.062	-0.059
-692.412	-200.000	0.022	-0.205
-691.397	-200.000	-0.002	-0.129
-690.383	-60.599	-0.348	0.148
-689.368	-53.634	0.170	0.078
-688.354	429.739	0.076	-0.164
-687.339	-157.764	0.433	0.026
-686.324	105.769	0.074	0.088
-685.310	-200.000	-0.036	-0.199
-684.295	678.417	0.034	-0.090
-683.281	-61.852	-0.221	0.093
-682.266	-140.597	0.269	0.028
-681.251	800.000	-0.075	0.248
-680.237	155.936	-0.135	0.186
-679.222	434.799	0.125	0.273
-678.208	-6.163	-0.239	-0.164
-677.193	109.346	-0.169	0.203
-676.178	-166.282	-0.174	0.007
-675.164	-24.800	-0.277	-0.165
-674.149	-14.778	0.160	-0.103
-673.135	-200.000	-0.023	0.283
-672.120	-5.767	-0.223	-0.153
-671.105	195.352	0.080	-0.122
-670.091	-103.215	-0.333	0.079
-669.076	27.487	0.230	0.194
-668.062	23.310	-0.223	0.184
-667.047	-134.806	0.148	0.018
-666.032	110.857	-0.110	-0.133
-665.018	332.120	0.184	0.356
-664.003	-49.080	-0.087	0.041
-662.989	2.813	0.169	-0.123
-661.974	-74.606	0.200	0.072
-660.959	30.639	-0.298	-0.256
-659.945	336.446	0.124	-0.241
-658.930	80.245	0.241	0.260
-657.916	800.000	-0.057	0.235
-656.901	-200.000	-0.007	-0.092
-655.886	28.596	0.120	-0.102
-654.872	738.741	0.063	0.170
-653.857	-120.494	-0.536	0.091
-652.843	573.877	0.073	0.179
-651.828	21.881	-0.123	0.101
-650.814	-128.415	0.130	0.019
-649.799	-62.657	0.139	0.058
-648.784	176.856	0.119	-0.173
-647.770	31.752	0.203	0.175
-646.755	-161.961	0.317	0.016
-645.741	-102.752	-0.162	0.039
-644.726	187.086	0.185	-0.276
-643.711	56.009	-0.091	-0.088
-642.697	674.303	-0.054	-0.140
-641.682	-200.000	-0.000	0.077
-640.668	-63.924	-0.228	-0.093
-639.653	310.699	-0.108	-0.203
-638.638	-29.457	0.142	-0.082
-637.624	-19.720	0.072	0.044
-636.609	-135.098	-0.255	-0.031
-635.595	-49.837	-0.198	-0.094
-634.580	-200.000	0.002	0.039
-633.565	-40.259	-0.201	-0.104
-632.551	128.320	-0.167	-0.213
-631.536	800.000	-0.038	-0.121
-630.522	-156.168	0.314	-0.020
-629.507	-168.524	-0.289	0.011
-628.492	38.510	-0.074	-0.066
-627.478	-105.674	0.287	0.065
-626.463	8.904	-0.086	-0.065
-625.449	472.556	0.122	-0.275
-624.434	114.590	-0.187	-0.228
-623.419	-144.608	0.265	-0.024
-622.405	800.000	0.147	-0.579
-621.390	17.268	-0.121	-0.096
-620.376	-154.386	-0.372	-0.025
-619.361	-53.851	-0.150	-0.069
-618.346	644.006	-0.103	0.264
-617.332	800.000	-0.037	-0.142
-616.317	-149.679	0.140	-0.011
-615.303	-73.486	0.214	0.078
-614.288	-200.000	-0.004	-0.371
-613.273	32.869	0.366	0.317
-612.259	301.505	-0.076	-0.140
-611.244	-200.000	-0.007	0.163
-610.230	-140.434	-0.081	0.008
-609.215	495.159	0.067	-0.153
-608.201	-13.074	-0.194	0.126
-607.186	626.776	-0.002	-0.006
-606.171	129.472	0.108	-0.138
-605.157	800.000	0.082	-0.285
-604.142	-98.146	0.248	-0.064
-603.128	214.666	-0.114	0.180
-602.113	-60.864	0.097	-0.041
-601.098	-200.000	-0.021	0.182
-600.084	-80.317	0.273	-0.091
-599.069	-200.000	0.014	0.094
-598.055	-200.000	0.026	0.163
-597.040	672.076	-0.113	-0.292
-596.025	800.000	-0.089	0.250
-595.011	61.270	0.182	-0.181
-593.996	-35.608	-0.348	-0.189
-592.982	-168.067	-0.326	-0.013
-591.967	56.092	-0.029	0.028
-590.952	147.067	0.028	-0.037
-589.938	-200.000	-0.012	0.084
-588.923	224.467	-0.045	-0.072
-587.909	-200.000	0.029	-0.274
-586.894	-120.759	0.254	0.043
-585.879	206.465	-0.252	0.392
-584.865	800.000	-0.030	0.115
-583.850	-200.000	0.003	-0.663
-582.836	-59.667	0.231	-0.099
-581.821	-200.000	0.079	0.451
-580.806	-200.000	0.039	0.265
-579.792	413.193	0.068	0.144
-578.777	482.177	0.111	-0.252
-577.763	-85.914	0.212	-0.066
-576.748	664.751	-0.054	0.139
-575.733	-200.000	0.049	-0.290
-574.719	-5.742	-0.093	0.063
-573.704	-111.689	-0.304	-0.061
-572.690	251.801	0.184	0.312
-571.675	-80.866	-0.155	-0.051
-570.661	80.679	0.211	-0.227
-569.646	192.079	0.068	0.103
-568.631	409.715	0.131	-0.276
-567.617	800.000	0.057	-0.225
-566.602	-200.000	-0.006	-0.032
-565.588	-192.048	-0.295	-0.003
-564.573	45.240	0.067	0.061
-563.558	-125.821	-0.247	0.037
-562.544	30.355	0.103	-0.088
-561.529	-200.000	-0.028	0.290
-560.515	800.000	0.064	0.230
-559.500	5.707	0.143	0.106
-558.485	-200.000	-0.000	0.267
-557.471	237.376	-0.042	0.069
-556.456	264.812	0.138	-0.240
-555.442	800.000	0.097	-0.283
-554.427	-200.000	0.010	-0.384
-553.412	18.969	-0.150	-0.120
-552.398	260.293	0.117	-0.202
-551.383	-41.148	-0.152	-0.078
-550.369	-19.894	-0.250	0.154
-549.354	-200.000	-0.044	0.283
-548.339	-200.000	-0.028	-0.199
-547.325	107.417	-0.195	0.231
-546.310	-18.802	0.280	0.174
-545.296	-133.241	-0.162	-0.020
-544.281	-182.690	-0.070	-0.001
-543.266	-200.000	-0.050	0.259
-542.252	40.216	0.306	0.275
-541.237	57.278	0.267	-0.260
-540.223	-65.122	-0.489	-0.197
-539.208	108.582	-0.177	0.211
-538.193	-198.701	-0.254	-0.001
-537.179	-59.583	-0.100	0.043
-536.164	-200.000	-0.035	-0.219
-535.150	-111.527	-0.290	-0.059
-534.135	800.000	-0.035	-0.106
-533.121	-200.000	0.031	-0.287
-532.106	800.000	0.017	-0.057
-531.091	-108.590	-0.182	-0.039
-530.077	-125.972	0.275	0.041
-529.062	-152.976	0.266	-0.019
-528.048	103.790	0.049	-0.057
-527.033	17.254	0.305	0.241
-526.018	-55.930	0.284	0.126
-525.004	-200.000	0.005	0.029
-523.989	-200.000	-0.038	-0.203
-522.975	-200.000	-0.037	-0.240
-521.960	-110.386	0.183	-0.038
-520.945	208.580	-0.078	0.121
-519.931	-6.180	-0.082	-0.055
-518.916	-23.360	0.335	-0.201
-517.902	85.058	0.078	-0.085
-516.887	800.000	0.108	0.353
-515.872	-130.953	-0.121	-0.016
-514.858	-143.884	-0.177	0.017
-513.843	18.888	-0.167	-0.133
-512.829	-118.262	0.402	0.071
-511.814	-12.181	-0.184	-0.120
-510.799	-200.000	-0.034	-0.178
-509.785	52.461	-0.098	0.093
-508.770	-200.000	-0.006	-0.201
-507.756	-57.009	-0.471	0.207
-506.741	-149.281	-0.129	0.010
-505.726	-9.464	0.237	0.157
-504.712	160.868	-0.167	0.233
-503.697	112.791	0.038	-0.046
-502.683	-104.531	0.452	0.104
-501.668	-57.178	0.275	-0.121
-500.653	-64.689	-0.222	-0.090
-499.639	-200.000	0.085	-0.437
-498.624	-149.249	-0.060	0.005
-497.610	800.000	-0.062	-0.211
-496.595	36.190	-0.031	-0.027
-495.581	-130.353	-0.290	0.039
-494.566	-63.240	0.166	0.068
-493.551	184.014	-0.035	0.052
-492.537	-200.000	-0.016	-0.092
-491.522	-31.679	0.177	-0.099
-490.508	-200.000	0.022	-0.210
-489.493	800.000	-0.091	0.276
-488.478	800.000	0.046	0.146
-487.464	337.515	0.084	0.162
-486.449	33.590	-0.179	-0.155
-485.435	-200.000	0.014	0.073
-484.420	800.000	-0.054	-0.188
-483.405	-83.005	0.066	0.021
-482.391	-17.316	-0.182	-0.114
-481.376	-143.209	0.224	-0.021
-480.362	36.769	0.038	0.034
-479.347	34.641	-0.071	0.062
-478.332	-16.833	-0.071	-0.045
-477.318	-90.995	0.189	0.054
-476.303	-58.576	0.089	-0.038
-475.289	800.000	0.064	-0.259
-474.274	14.984	0.103	-0.081
-473.259	800.000	-0.109	-0.354
-472.245	-35.386	0.105	0.057
-471.230	302.525	-0.075	0.137
-470.216	92.950	-0.322	0.362
-469.201	538.968	-0.135	-0.318
-468.186	20.141	-0.090	-0.072
-467.172	16.801	-0.163	-0.129
-466.157	-24.362	-0.078	-0.046
-465.143	-70.635	0.173	-0.065
-464.128	719.619	0.052	-0.138
-463.113	-200.000	0.009	0.134
-462.099	800.000	0.042	-0.162
-461.084	-200.000	0.004	0.029
-460.070	-7.228	0.223	-0.150
-459.055	-164.622	0.196	0.009
-458.040	800.000	0.088	-0.284
-457.026	-52.177	0.113	0.052
-456.011	-200.000	-0.012	0.217
-454.997	800.000	0.085	0.305
-453.982	-30.983	0.531	-0.298
-452.968	267.290	-0.152	-0.265
-451.953	-20.517	0.041	0.025
-450.938	-200.000	0.016	-0.117
-449.924	-200.000	-0.176	0.000
-448.909	800.000	-0.043	-0.125
-447.895	800.000	0.061	-0.232
-446.880	48.249	0.390	0.362
-445.865	-200.000	0.001	0.200
-444.851	-200.000	-0.024	-0.136
-443.836	-116.853	0.294	-0.053
-442.822	-200.000	0.040	-0.439
-441.807	800.000	0.017	-0.061
-440.792	327.726	0.173	0.330
-439.778	788.227	0.148	0.403
-438.763	800.000	0.091	0.314
-437.749	616.260	-0.081	-0.202
-436.734	-200.000	0.015	-0.332
-435.719	-77.793	-0.180	0.062
-434.705	-200.000	0.009	0.075
-433.690	509.078	-0.139	0.321
-432.676	-155.783	0.228	0.014
-431.661	172.245	0.148	0.212
-430.646	-200.000	-0.025	-0.132
-429.632	-93.404	-0.166	0.046
-428.617	318.784	0.231	0.435
-427.603	-40.042	-0.219	0.113
-426.588	48.887	0.225	-0.210
-425.573	-200.000	-0.011	-0.103
-424.559	86.724	0.097	-0.106
-423.544	129.581	0.077	-0.097
-422.530	-3.147	0.275	0.190
-421.515	-200.000	-0.064	-0.308
-420.500	32.378	0.047	-0.041
-419.486	-117.510	0.142	0.026
-418.471	212.706	-0.031	-0.048
-417.457	-118.027	0.148	-0.026
-416.442	800.000	0.064	-0.255
-415.428	-194.721	-0.284	0.002
-414.413	-171.147	0.308	-0.010
-413.398	1.789	-0.113	0.081
-412.384	-200.000	0.010	0.290
-411.369	-128.627	0.076	0.011
-410.355	-108.042	-0.118	0.025
-409.340	800.000	0.101	-0.280
-408.325	-101.311	0.544	-0.132
-407.311	800.000	-0.062	0.229
-406.296	347.960	0.082	0.161
-405.282	103.929	-0.081	-0.094
-404.267	46.553	0.138	-0.127
-403.252	-200.000	-0.010	-0.073
-402.238	-108.832	0.219	-0.047
-401.223	68.562	-0.070	0.071
-400.209	171.413	-0.267	0.380
-399.194	-41.189	0.131	0.067
-398.179	17.613	-0.226	-0.178
-397.165	800.000	-0.051	0.186
-396.150	76.272	-0.076	0.080
-395.136	31.354	0.361	0.307
-394.121	191.126	-0.192	0.287
-393.106	15.007	-0.148	0.115
-392.092	-161.164	-0.303	0.016
-391.077	32.032	-0.098	-0.083
-390.063	-99.597	-0.469	0.117
-389.048	-66.645	-0.251	-0.098
-388.033	-74.279	-0.210	-0.075
-387.019	154.413	0.169	-0.230
-386.004	-200.000	0.008	-0.113
-384.990	-81.422	0.126	0.041
-383.975	800.000	-0.051	0.159
-382.960	105.072	-0.131	0.153
-381.946	-200.000	0.045	0.271
-380.931	-200.000	0.078	0.372
-379.917	62.092	-0.132	0.130
-378.902	-200.000	0.008	0.068
-377.888	265.244	-0.220	-0.380
-376.873	-200.000	0.029	0.267
-375.858	-116.246	-0.074	0.014
-374.844	-6.890	0.150	0.101
-373.829	83.835	0.090	-0.098
-372.815	-152.990	-0.066	-0.005
-371.800	-83.356	-0.284	0.090
-370.785	-118.519	-0.361	0.063
-369.771	28.799	-0.071	0.059
-368.756	800.000	-0.131	-0.455
-367.742	-200.000	-0.019	-0.498
-366.727	10.571	0.224	0.169
-365.712	65.306	-0.140	0.141
-364.698	-141.177	0.278	0.028
-363.683	-9.699	0.093	0.061
-362.669	17.968	0.078	0.061
-361.654	78.986	0.109	0.116
-360.639	800.000	0.074	0.315
-359.625	35.367	-0.229	0.199
-358.610	36.658	-0.120	-0.105
-357.596	800.000	-0.008	0.033
-356.581	-46.753	-0.136	0.066
-355.566	22.709	-0.185	0.150
-354.552	-42.753	0.242	-0.122
-353.537	-42.873	0.448	-0.225
-352.523	273.578	-0.288	-0.504
-351.508	193.404	0.175	-0.262
-350.493	-200.000	-0.054	0.303
-349.479	382.287	0.127	-0.259
-348.464	-51.022	0.216	0.101
-347.450	800.000	-0.027	0.103
-346.435	74.369	-0.183	-0.191
-345.420	-7.117	-0.152	-0.102
-344.406	13.677	-0.147	0.113
-343.391	-28.121	-0.321	-0.184
-342.377	-200.000	0.002	-0.009
-341.362	-191.389	-0.526	-0.005
-340.348	23.494	-0.099	-0.081
-339.333	-49.406	0.074	-0.035
-338.318	322.332	0.053	0.100
-337.304	346.540	-0.048	0.093
-336.289	-89.299	-0.366	0.107
-335.275	-12.793	0.222	-0.143
-334.260	-37.819	-0.047	-0.025
-333.245	-27.458	0.147	0.085
-332.231	355.729	-0.026	-0.051
-331.216	-200.000	0.027	0.485
-330.202	91.978	-0.176	-0.196
-329.187	14.921	-0.113	0.088
-328.172	-132.606	0.193	0.024
-327.158	-21.060	-0.066	0.040
-326.143	539.019	-0.028	-0.067
-325.129	-157.972	0.358	0.021
-324.114	126.433	0.138	-0.172
-323.099	497.703	0.180	-0.409
-322.085	-200.000	-0.022	-0.143
-321.070	-62.656	-0.169	0.069
-320.056	129.346	-0.081	-0.102
-319.041	36.468	0.041	0.036
-318.026	-92.484	0.158	-0.044
-317.012	208.452	-0.148	-0.229
-315.997	-200.000	-0.054	0.278
-314.983	-56.753	-0.058	0.025
-313.968	-102.925	0.306	-0.072
-312.953	133.709	-0.256	0.328
-311.939	800.000	-0.061	0.243
-310.924	151.866	-0.084	0.114
-309.910	317.695	-0.021	-0.039
-308.895	-140.581	-0.248	-0.025
-307.880	-142.660	0.148	-0.014
-306.866	66.427	0.187	0.188
-305.851	-3.081	-0.218	0.150
-304.837	-200.000	0.025	-0.306
-303.822	-98.923	0.221	-0.056
-302.807	800.000	-0.125	0.401
-301.793	-200.000	0.027	0.167
-300.778	-84.624	0.236	0.073
-299.764	-200.000	-0.080	-0.405
-298.749	54.947	0.025	0.024
-297.735	800.000	0.044	0.169
-296.720	-161.086	-0.177	-0.009
-295.705	800.000	0.063	0.203
-294.691	-70.171	-0.172	0.065
-293.676	28.904	0.258	0.216
-292.662	-54.065	0.229	0.103
-291.647	374.575	-0.082	0.164
-290.632	-135.236	-0.303	-0.036
-289.618	-25.804	-0.154	-0.090
-288.603	-200.000	-0.016	-0.376
-287.589	510.922	-0.031	0.070
-286.574	-200.000	-0.010	-0.244
-285.559	-200.000	-0.013	0.216
-284.545	-200.000	0.006	-0.298
-283.530	78.275	0.211	0.222
-282.516	-118.150	0.473	0.083
-281.501	54.670	0.187	0.178
-280.486	58.270	-0.112	0.109
-279.472	157.540	0.128	-0.174
-278.457	-45.654	-0.203	0.099
-277.443	800.000	0.049	-0.177
-276.428	-200.000	-0.002	0.172
-275.413	-200.000	0.021	-0.268
-274.399	-200.000	-0.025	0.157
-273.384	9.113	0.219	-0.164
-272.370	-50.412	-0.211	0.099
-271.355	110.372	0.191	-0.227
-270.340	-31.609	-0.403	0.223
-269.326	637.492	0.024	-0.060
-268.311	800.000	0.068	0.188
-267.297	126.067	-0.144	-0.180
-266.282	-165.006	0.096	-0.004
-265.267	-200.000	-0.022	-0.270
-264.253	18.633	-0.124	0.097
-263.238	800.000	-0.062	0.205
-262.224	-39.566	0.192	0.099
-261.209	-200.000	-0.007	0.099
-260.195	-31.597	0.184	0.102
-259.180	-190.677	0.101	-0.001
-258.165	-53.689	-0.157	-0.071
-257.151	-164.422	-0.159	-0.007
-256.136	32.915	0.103	-0.088
-255.122	-55.703	-0.108	-0.048
-254.107	-200.000	0.052	0.467
-253.092	389.217	0.156	-0.318
-252.078	794.416	-0.063	-0.171
-251.063	14.970	-0.336	-0.260
-250.049	45.191	0.127	-0.115
-249.034	-122.080	0.228	0.037
-248.019	-99.647	0.544	0.135
-247.005	-93.280	0.294	0.081
-245.990	-91.106	-0.196	-0.055
-244.976	366.739	0.182	0.362
-243.961	363.734	-0.034	-0.067
-242.946	27.800	0.091	0.076
-241.932	-200.000	-0.012	0.127
-240.917	191.822	-0.213	0.316
-239.903	13.543	0.118	0.090
-238.888	173.755	-0.232	0.330
-237.873	-24.663	0.082	0.048
-236.859	-6.105	-0.184	0.124
-235.844	800.000	0.051	-0.160
-234.830	-106.297	-0.225	0.050
-233.815	-99.377	0.090	-0.022
-232.800	608.757	0.069	-0.170
-231.786	-99.383	-0.198	0.049
-230.771	424.234	-0.053	0.112
-229.757	-108.703	0.229	0.048
-228.742	8.191	0.070	-0.052
-227.727	25.309	0.160	-0.131
-226.713	23.916	-0.099	-0.080
-225.698	-200.000	0.033	0.239
-224.684	-112.464	-0.397	0.078
-223.669	-136.888	-0.198	-0.022
-222.655	800.000	0.007	-0.022
-221.640	-46.920	-0.516	0.248
-220.625	-200.000	-0.047	0.214
-219.611	800.000	-0.042	0.178
-218.596	-154.897	-0.281	0.018
-217.582	-200.000	-0.018	0.145
-216.567	-92.711	-0.044	-0.012
-215.552	532.418	0.197	0.459
-214.538	-191.881	0.307	0.003
-213.523	-135.410	-0.200	0.024
-212.509	-73.264	0.301	-0.108
-211.494	-59.815	-0.271	-0.114
-210.479	-134.667	-0.082	-0.010
-209.465	-200.000	-0.035	-0.288
-208.450	409.574	0.051	0.107
-207.436	397.117	-0.163	0.336
-206.421	-25.885	0.265	-0.153
-205.406	-51.906	0.247	0.113
-204.392	-166.195	0.090	-0.004
-203.377	-200.000	-0.020	0.099
-202.363	28.193	0.078	0.065
-201.348	-57.484	0.179	-0.077
-200.333	-200.000	-0.032	0.181
-199.319	-165.569	-0.453	-0.019
-198.304	-42.701	0.139	-0.070
-197.290	-112.147	-0.125	0.025
-196.275	549.601	0.167	0.394
-195.260	800.000	0.117	-0.370
-194.246	-122.159	-0.311	-0.050
-193.231	-139.079	0.164	-0.017
-192.217	-200.000	-0.003	0.093
-191.202	800.000	-0.032	-0.130
-190.187	-200.000	0.024	-0.173
-189.173	252.247	-0.101	0.168
-188.158	800.000	-0.150	0.422
-187.144	191.332	-0.321	0.476
-186.129	112.966	-0.045	-0.054
-185.114	529.959	0.065	0.151
-184.100	75.724	-0.148	0.154
-183.085	-200.000	0.017	-0.408
-182.071	800.000	0.060	0.173
-181.056	301.639	-0.167	-0.304
-180.042	800.000	0.055	0.190
-179.027	-127.626	-0.155	0.022
-178.012	377.411	-0.166	0.334
-176.998	206.048	-0.102	-0.156
-175.983	-200.000	0.050	-0.257
-174.969	-13.671	0.034	-0.021
-173.954	304.884	0.175	-0.319
-172.939	-143.815	-0.137	-0.013
-171.925	-78.386	-0.008	-0.003
-170.910	-70.757	-0.437	-0.162
-169.896	-98.074	0.161	0.041
-168.881	-81.789	0.305	-0.098
-167.866	-154.012	-0.156	-0.010
-166.852	409.360	0.088	0.183
-165.837	-200.000	0.006	-0.052
-164.823	800.000	-0.056	-0.152
-163.808	-200.000	0.027	-0.335
-162.793	-53.800	0.247	-0.111
-161.779	484.304	0.094	0.210
-160.764	5.564	-0.302	0.219
-159.750	41.461	0.236	-0.210
-158.735	-3.884	0.106	0.072
-157.720	-200.000	-0.043	0.449
-156.706	-200.000	0.002	-0.074
-155.691	-14.421	0.124	-0.078
-154.677	421.845	0.046	-0.097
-153.662	-200.000	-0.032	0.154
-152.647	800.000	0.041	0.141
-151.633	-200.000	0.030	0.163
-150.618	260.710	-0.030	-0.050
-149.604	-200.000	0.001	0.286
-148.589	-200.000	-0.013	-0.170
-147.574	431.172	-0.139	-0.295
-146.560	-89.527	0.492	0.142
-145.545	800.000	-0.086	0.321
-144.531	-200.000	0.018	-0.185
-143.516	-200.000	-0.014	-0.293
-142.502	-200.000	0.033	-0.153
-141.487	-200.000	0.045	0.258
-140.472	336.822	-0.195	-0.372
-139.458	-200.000	0.005	-0.157
-138.443	-122.903	0.253	0.040
-137.429	-200.000	0.035	0.305
-136.414	800.000	0.038	-0.163
-135.399	-63.943	0.185	0.074
-134.385	12.994	-0.153	0.116
-133.370	-76.556	-0.368	0.127
-132.356	63.955	-0.307	-0.303
-131.341	-86.566	-0.173	-0.052
-130.326	60.561	0.072	-0.070
-129.312	-81.842	0.147	0.047
-128.297	363.022	0.111	0.220
-127.283	58.387	0.028	-0.027
-126.268	490.244	0.053	-0.119
-125.253	631.295	-0.026	-0.065
-124.239	-35.734	0.161	0.086
-123.224	-200.000	-0.038	0.242
-122.210	800.000	-0.014	0.040
