DTS Sentinel unit serial number:	SN413079Multiplexer serial number:	ORYXHardware model number:	OX4-SRSoftware version number:	ORYX F/W v4.00 Oryx Data Collector v3.7.2.0data status	okinstallation	princeton_trtdifferential loss correction	single-endedforward channel	channel 1reverse channel	N/Adate	2019/09/17time	06:46:36forward acquisition time	60.00reverse acquisition time	0.00gamma	496.2192k internal	0.2329k external	0.2329temperature offset calibration	0.9967default loss term (dB/km)	0.3790temperature slope calibration	1.0000multiplexer offset coefficient	1.0000multiplexer slope coefficient	1.0000fibre end	0.00T internal ref (°C)	27.81T ext. ref 1 (°C)	0.12T ext. ref 2 (°C)	21.18length (m)	temperature (°C)	Stokes	anti-Stokes-747.200	-200.000	0.011	0.203
-746.185	155.640	-0.108	-0.150
-745.171	-14.406	0.272	-0.177
-744.156	-200.000	-0.015	0.198
-743.142	79.369	-0.146	0.158
-742.127	34.751	-0.263	0.232
-741.112	-136.436	0.118	-0.014
-740.098	264.323	-0.078	0.137
-739.083	280.207	-0.060	0.108
-738.069	266.339	-0.047	0.082
-737.054	-46.496	-0.244	-0.121
-736.039	-69.617	-0.394	-0.152
-735.025	-111.349	-0.039	0.008
-734.010	-200.000	0.023	-0.257
-732.996	1.163	0.013	-0.010
-731.981	-108.692	-0.291	0.063
-730.966	-104.028	-0.200	-0.047
-729.952	-123.053	0.177	-0.029
-728.937	800.000	-0.109	0.314
-727.923	0.316	0.252	0.181
-726.908	-167.608	0.084	-0.003
-725.894	100.513	0.182	0.212
-724.879	478.576	-0.124	-0.283
-723.864	-68.162	-0.252	0.099
-722.850	34.342	0.241	-0.212
-721.835	-94.020	-0.085	0.024
-720.821	-132.342	-0.401	-0.052
-719.806	314.854	0.049	0.093
-718.791	371.544	-0.245	-0.501
-717.777	250.517	0.122	-0.209
-716.762	141.697	0.116	0.155
-715.748	-95.485	0.162	0.044
-714.733	800.000	-0.066	-0.241
-713.718	-118.246	0.206	-0.037
-712.704	-200.000	-0.117	-0.000
-711.689	-121.866	-0.128	-0.021
-710.675	55.744	0.433	0.422
-709.660	82.060	-0.213	-0.233
-708.645	159.592	-0.061	-0.086
-707.631	42.103	-0.235	0.215
-706.616	-50.271	0.186	-0.088
-705.602	-54.152	-0.110	-0.050
-704.587	-106.144	0.348	0.079
-703.572	105.397	0.105	-0.124
-702.558	-200.000	-0.010	0.135
-701.543	-20.916	0.103	0.064
-700.529	-101.645	0.118	-0.029
-699.514	278.050	0.059	-0.106
-698.499	-3.261	-0.482	0.338
-697.485	381.335	0.065	-0.133
-696.470	415.864	0.120	-0.258
-695.456	-160.650	-0.297	0.016
-694.441	268.512	0.158	0.278
-693.426	327.354	0.087	-0.167
-692.412	800.000	0.123	0.377
-691.397	15.316	-0.061	-0.048
-690.383	90.136	-0.055	-0.062
-689.368	196.760	-0.169	-0.259
-688.354	-154.538	0.060	0.004
-687.339	180.304	-0.035	-0.052
-686.324	14.558	-0.095	0.074
-685.310	-45.480	0.057	-0.028
-684.295	-90.892	-0.215	-0.062
-683.281	-200.000	-0.013	0.274
-682.266	-200.000	-0.028	0.123
-681.251	285.854	0.138	-0.251
-680.237	-102.342	0.276	-0.066
-679.222	-100.370	0.313	-0.078
-678.208	17.818	0.221	0.177
-677.193	-200.000	0.025	-0.377
-676.178	279.149	-0.169	0.302
-675.164	610.946	-0.074	0.185
-674.149	-134.568	-0.406	-0.050
-673.135	-1.459	0.164	0.116
-672.120	274.340	-0.135	-0.240
-671.105	800.000	-0.056	-0.212
-670.091	52.493	0.115	-0.110
-669.076	800.000	-0.057	-0.224
-668.062	-67.730	0.258	-0.101
-667.047	117.689	0.107	-0.132
-666.032	233.719	-0.050	-0.083
-665.018	800.000	-0.034	0.148
-664.003	-77.735	0.116	-0.040
-662.989	-62.367	-0.195	-0.082
-661.974	-97.454	0.144	-0.038
-660.959	137.484	0.059	-0.078
-659.945	-200.000	0.028	0.307
-658.930	-127.973	-0.358	0.052
-657.916	-154.996	-0.141	-0.009
-656.901	-85.008	0.301	-0.095
-655.886	53.105	0.080	0.077
-654.872	-57.482	-0.283	-0.125
-653.857	79.073	0.236	-0.254
-652.843	532.183	-0.098	0.233
-651.828	21.562	-0.222	0.181
-650.814	-63.972	0.183	0.075
-649.799	18.770	-0.234	-0.188
-648.784	-97.298	-0.037	-0.010
-647.770	28.096	0.050	0.042
-646.755	94.422	-0.195	-0.222
-645.741	96.727	-0.107	0.123
-644.726	-118.846	-0.182	0.032
-643.711	-95.968	0.413	-0.110
-642.697	-146.558	0.313	-0.027
-641.682	37.883	0.137	0.122
-640.668	-65.144	0.193	0.078
-639.653	-85.449	0.186	0.058
-638.638	176.227	-0.104	-0.151
-637.624	-118.361	-0.176	0.031
-636.609	725.607	0.153	0.409
-635.595	-86.866	0.421	0.129
-634.580	-6.004	0.242	-0.166
-633.565	-23.726	-0.148	0.089
-632.551	-68.560	-0.138	0.054
-631.536	-46.544	-0.094	-0.046
-630.522	30.333	-0.111	-0.095
-629.507	97.553	0.199	-0.230
-628.492	291.494	-0.183	-0.335
-627.478	8.096	-0.069	0.052
-626.463	181.703	-0.224	0.330
-625.449	800.000	-0.146	-0.447
-624.434	-200.000	-0.060	-0.269
-623.419	-200.000	-0.054	-0.284
-622.405	-108.989	0.193	-0.041
-621.390	130.332	-0.172	-0.221
-620.376	-162.629	-0.039	-0.002
-619.361	-41.018	-0.061	-0.032
-618.346	-151.628	0.247	0.018
-617.332	-200.000	-0.091	0.484
-616.317	-200.000	0.113	0.520
-615.303	103.610	0.200	-0.236
-614.288	-200.000	0.021	0.297
-613.273	-200.000	0.017	-0.476
-612.259	-200.000	0.009	-0.122
-611.244	-173.485	-0.165	-0.005
-610.230	-200.000	0.020	0.298
-609.215	-81.043	-0.166	-0.055
-608.201	-200.000	-0.015	0.338
-607.186	800.000	0.048	0.185
-606.171	-200.000	0.102	-0.450
-605.157	311.316	-0.141	-0.264
-604.142	800.000	-0.061	-0.229
-603.128	74.287	0.313	-0.330
-602.113	236.450	-0.202	0.336
-601.098	-200.000	0.165	0.001
-600.084	-14.053	0.067	0.043
-599.069	-16.549	0.165	-0.105
-598.055	345.999	0.120	-0.237
-597.040	800.000	-0.113	0.382
-596.025	67.959	-0.125	0.128
-595.011	-200.000	0.014	0.226
-593.996	320.925	0.103	-0.196
-592.982	261.840	0.139	0.241
-591.967	415.964	0.060	0.128
-590.952	-31.024	-0.059	0.034
-589.938	-14.524	0.213	0.137
-588.923	-165.413	-0.185	-0.008
-587.909	287.320	-0.126	0.227
-586.894	-28.411	-0.154	0.089
-585.879	-50.643	-0.056	-0.026
-584.865	800.000	-0.085	-0.319
-583.850	162.721	0.164	-0.231
-582.836	-200.000	-0.004	-0.254
-581.821	800.000	0.052	-0.185
-580.806	800.000	0.061	0.199
-579.792	-200.000	0.005	0.217
-578.777	-26.853	0.069	0.041
-577.763	212.416	0.144	0.227
-576.748	116.176	-0.206	0.252
-575.733	-55.449	-0.245	0.110
-574.719	39.708	-0.096	-0.086
-573.704	-79.440	-0.409	0.138
-572.690	675.046	-0.051	-0.133
-571.675	-56.328	-0.169	0.075
-570.661	128.099	0.214	0.272
-569.646	800.000	-0.032	-0.113
-568.631	-200.000	-0.010	0.103
-567.617	141.404	-0.051	-0.068
-566.602	125.386	-0.093	-0.117
-565.588	-82.434	-0.279	0.091
-564.573	-200.000	0.029	-0.187
-563.558	15.672	-0.200	0.158
-562.544	28.386	0.242	0.205
-561.529	-101.263	0.024	0.006
-560.515	251.259	0.085	0.144
-559.500	241.957	0.071	0.119
-558.485	144.457	0.104	-0.139
-557.471	81.113	-0.053	-0.058
-556.456	-103.786	-0.363	-0.085
-555.442	-59.565	0.436	-0.187
-554.427	74.698	0.109	-0.115
-553.412	800.000	-0.094	-0.387
-552.398	-169.839	0.135	-0.005
-551.383	66.688	0.125	-0.127
-550.369	-188.871	0.387	-0.005
-549.354	-200.000	-0.005	0.237
-548.339	-132.232	-0.185	-0.024
-547.325	194.072	0.200	-0.302
-546.310	177.048	-0.042	0.062
-545.296	144.186	-0.294	-0.392
-544.281	70.689	-0.160	0.165
-543.266	641.901	0.087	-0.222
-542.252	54.001	0.219	-0.210
-541.237	-200.000	0.011	0.366
-540.223	189.896	-0.043	-0.065
-539.208	-66.163	-0.230	-0.092
-538.193	581.265	-0.073	0.180
-537.179	565.655	-0.098	0.238
-536.164	682.367	0.013	0.034
-535.150	75.385	0.234	0.247
-534.135	-200.000	-0.040	0.360
-533.121	-89.117	-0.175	-0.052
-532.106	-39.432	0.115	-0.060
-531.091	-200.000	0.003	0.050
-530.077	701.388	-0.065	-0.170
-529.062	-76.211	0.129	0.045
-528.048	800.000	0.075	0.226
-527.033	-156.171	0.302	0.019
-526.018	-58.484	0.167	-0.072
-525.004	129.762	0.098	-0.125
-523.989	-98.917	-0.318	0.081
-522.975	-68.532	0.283	-0.110
-521.960	-200.000	0.044	-0.341
-520.945	641.404	-0.086	0.219
-519.931	16.718	-0.172	-0.136
-518.916	-24.739	0.324	0.192
-517.902	-200.000	0.038	0.202
-516.887	-34.245	0.299	-0.164
-515.872	-200.000	0.039	0.264
-514.858	-110.199	-0.191	0.040
-513.843	-85.726	0.234	-0.073
-512.829	-15.816	-0.254	-0.161
-511.814	423.028	-0.063	-0.136
-510.799	-200.000	0.026	0.169
-509.785	-135.515	0.044	0.005
-508.770	70.192	0.084	-0.087
-507.756	-44.378	-0.080	-0.040
-506.741	288.669	0.134	0.242
-505.726	123.169	-0.154	0.193
-504.712	-200.000	-0.014	-0.081
-503.697	-48.911	-0.307	0.147
-502.683	-24.134	0.139	-0.083
-501.668	166.642	-0.187	-0.265
-500.653	-79.561	0.331	-0.111
-499.639	92.548	0.087	-0.097
-498.624	-92.412	0.182	-0.051
-497.610	-195.112	-0.144	0.001
-496.595	-35.379	-0.173	0.094
-495.581	-2.069	0.201	0.141
-494.566	640.714	0.045	-0.115
-493.551	-200.000	-0.040	0.183
-492.537	-118.194	0.297	-0.053
-491.522	-4.521	0.166	0.115
-490.508	-200.000	-0.046	-0.303
-489.493	333.652	0.101	-0.194
-488.478	-40.539	0.044	-0.023
-487.464	82.965	-0.040	0.043
-486.449	-200.000	0.004	-0.217
-485.435	85.529	0.190	-0.208
-484.420	33.236	-0.142	0.123
-483.405	-31.905	0.158	-0.088
-482.391	-74.683	0.349	0.125
-481.376	118.782	0.032	-0.039
-480.362	-200.000	-0.048	-0.231
-479.347	251.792	-0.174	0.294
-478.332	226.075	0.067	-0.108
-477.318	-200.000	0.134	0.000
-476.303	-110.006	0.447	0.093
-475.289	108.153	-0.035	0.042
-474.274	-200.000	0.051	0.267
-473.259	-2.962	-0.122	0.085
-472.245	-130.213	-0.202	0.027
-471.230	78.508	0.295	0.314
-470.216	2.741	0.115	-0.083
-469.201	-88.129	-0.269	0.080
-468.186	-140.300	-0.360	0.038
-467.172	-53.376	0.145	0.066
-466.157	-119.164	-0.310	-0.054
-465.143	-61.684	0.369	0.154
-464.128	-200.000	0.023	-0.221
-463.113	-20.649	-0.327	-0.200
-462.099	-35.928	-0.137	-0.074
-461.084	-157.514	0.118	-0.007
-460.070	168.604	-0.146	-0.207
-459.055	-200.000	0.023	-0.291
-458.040	-17.025	0.194	0.122
-457.026	143.365	0.039	-0.051
-456.011	141.421	-0.125	0.165
-454.997	-69.776	0.236	0.090
-453.982	800.000	0.067	-0.194
-452.968	164.528	-0.162	-0.228
-451.953	800.000	-0.013	0.046
-450.938	-42.266	0.136	-0.069
-449.924	-200.000	-0.011	-0.087
-448.909	576.683	-0.197	0.479
-447.895	178.508	-0.101	-0.146
-446.880	-174.925	-0.339	-0.009
-445.865	-122.073	-0.274	-0.045
-444.851	-200.000	0.032	-0.205
-443.836	-124.853	-0.179	-0.027
-442.822	-200.000	0.028	0.284
-441.807	-200.000	-0.016	-0.126
-440.792	-169.732	-0.250	-0.009
-439.778	287.077	-0.222	-0.399
-438.763	-140.163	0.149	-0.016
-437.749	35.948	0.039	0.034
-436.734	-151.957	0.405	0.029
-435.719	-104.080	-0.290	-0.067
-434.705	1.530	0.277	-0.198
-433.690	-200.000	-0.012	-0.396
-432.676	-71.728	0.138	0.051
-431.661	-200.000	0.043	-0.280
-430.646	800.000	0.045	0.165
-429.632	-48.611	0.179	-0.086
-428.617	-126.230	-0.189	0.028
-427.603	-84.157	0.245	0.077
-426.588	-200.000	0.009	0.153
-425.573	108.223	0.218	0.259
-424.559	-59.369	-0.210	0.090
-423.544	-25.544	-0.254	0.149
-422.530	306.748	-0.029	0.054
-421.515	70.451	0.259	0.267
-420.500	-82.693	-0.137	-0.044
-419.486	47.818	-0.240	-0.223
-418.471	-107.642	-0.316	-0.069
-417.457	102.756	-0.246	0.286
-416.442	97.835	-0.176	0.202
-415.428	-200.000	-0.001	0.213
-414.413	-102.380	-0.459	0.109
-413.398	-12.344	-0.227	-0.147
-412.384	611.339	0.079	-0.197
-411.369	197.472	0.117	0.178
-410.355	-74.654	0.152	-0.054
-409.340	-200.000	-0.054	-0.237
-408.325	149.599	0.019	-0.025
-407.311	-200.000	-0.006	-0.027
-406.296	-78.487	-0.095	0.032
-405.282	-101.257	0.080	-0.019
-404.267	-69.408	-0.383	0.146
-403.252	107.570	-0.129	-0.152
-402.238	368.671	0.189	-0.380
-401.223	-37.303	-0.152	0.080
-400.209	-174.433	0.080	0.002
-399.194	-135.238	-0.257	-0.031
-398.179	-200.000	-0.080	0.359
-397.165	70.662	-0.050	0.052
-396.150	-45.365	-0.265	-0.131
-395.136	-136.702	-0.171	-0.020
-394.121	79.956	0.127	-0.136
-393.106	-92.340	-0.391	0.109
-392.092	-200.000	0.033	0.248
-391.077	-73.527	-0.025	-0.009
-390.063	-115.191	-0.128	-0.024
-389.048	-82.482	-0.247	-0.080
-388.033	-149.449	0.310	0.024
-387.019	-200.000	0.003	0.123
-386.004	-150.518	-0.276	0.021
-384.990	100.630	0.104	-0.120
-383.975	-200.000	0.055	-0.240
-382.960	-80.596	0.372	0.123
-381.946	-200.000	-0.035	0.286
-380.931	-88.851	-0.263	-0.077
-379.917	800.000	0.043	0.182
-378.902	-37.019	0.078	-0.041
-377.888	-200.000	0.068	-0.453
-376.873	-103.815	0.195	-0.045
-375.858	-64.738	-0.366	0.147
-374.844	67.465	-0.073	-0.074
-373.829	-61.844	-0.171	0.071
-372.815	156.553	0.071	-0.097
-371.800	117.286	0.063	-0.077
-370.785	-18.984	-0.071	0.044
-369.771	-172.802	-0.117	0.004
-368.756	182.730	-0.226	0.331
-367.742	156.639	0.110	0.151
-366.727	567.384	-0.070	0.169
-365.712	-31.545	-0.339	0.189
-364.698	182.097	0.027	0.040
-363.683	-1.908	0.097	0.068
-362.669	154.976	-0.100	-0.136
-361.654	-51.617	0.256	-0.119
-360.639	-53.732	-0.309	0.140
-359.625	117.123	0.178	-0.217
-358.610	-16.598	0.182	-0.115
-357.596	-95.075	-0.275	0.074
-356.581	3.451	0.081	0.058
-355.566	1.500	0.287	-0.205
-354.552	-68.573	-0.245	0.094
-353.537	180.002	-0.099	-0.144
-352.523	-35.296	-0.057	0.031
-351.508	-200.000	-0.042	-0.195
-350.493	-200.000	-0.016	-0.120
-349.479	68.737	0.123	0.125
-348.464	-44.636	-0.282	-0.140
-347.450	13.728	0.532	-0.410
-346.435	651.081	0.122	-0.311
-345.420	-129.510	-0.344	0.047
-344.406	-85.485	0.076	0.023
-343.391	-200.000	0.017	0.154
-342.377	181.083	0.126	-0.184
-341.362	249.969	0.055	0.093
-340.348	103.718	-0.021	0.025
-339.333	-128.491	0.279	0.039
-338.318	-97.469	-0.368	-0.095
-337.304	-92.024	-0.296	0.083
-336.289	-71.286	-0.235	-0.087
-335.275	-32.536	0.135	-0.074
-334.260	62.333	0.094	0.093
-333.245	-117.920	-0.199	-0.035
-332.231	-54.385	-0.139	0.062
-331.216	-53.913	0.405	0.183
-330.202	122.576	0.235	-0.291
-329.187	-36.692	0.379	-0.202
-328.172	-200.000	-0.002	0.159
-327.158	2.252	0.169	0.121
-326.143	-46.060	-0.161	-0.079
-325.129	88.762	0.150	0.165
-324.114	800.000	-0.065	0.220
-323.099	-200.000	-0.013	0.201
-322.085	-107.428	-0.083	-0.018
-321.070	664.244	0.025	0.065
-320.056	-200.000	0.028	-0.207
-319.041	191.439	-0.084	-0.126
-318.026	-200.000	0.019	-0.243
-317.012	-200.000	0.002	-0.041
-315.997	-200.000	-0.056	-0.346
-314.983	-105.825	-0.055	-0.012
-313.968	-200.000	0.011	-0.284
-312.953	800.000	0.074	0.277
-311.939	-200.000	-0.093	0.000
-310.924	-61.838	-0.167	0.069
-309.910	-200.000	-0.010	0.047
-308.895	-33.440	0.123	-0.068
-307.880	-143.379	0.276	0.026
-306.866	-200.000	-0.017	0.141
-305.851	-200.000	-0.003	0.140
-304.837	29.105	0.182	-0.153
-303.822	158.763	0.092	-0.127
-302.807	-102.361	-0.353	-0.084
-301.793	-200.000	-0.001	0.355
-300.778	-104.151	-0.521	0.120
-299.764	-161.755	0.106	-0.005
-298.749	800.000	-0.027	-0.102
-297.735	-43.696	-0.284	-0.142
-296.720	94.003	-0.198	-0.222
-295.705	-78.661	0.211	-0.071
-294.691	670.908	0.131	-0.335
-293.676	-92.351	0.058	-0.016
-292.662	-85.091	0.140	-0.043
-291.647	-147.625	-0.344	-0.029
-290.632	-200.000	0.029	0.320
-289.618	322.381	-0.061	-0.116
-288.603	54.660	0.077	-0.074
-287.589	-121.287	0.322	-0.053
-286.574	58.713	-0.207	0.201
-285.559	-156.920	0.081	-0.005
-284.545	-200.000	0.027	0.175
-283.530	-70.160	0.117	0.044
-282.516	588.894	0.188	-0.457
-281.501	-200.000	0.006	-0.101
-280.486	-200.000	0.056	-0.291
-279.472	-147.257	0.132	-0.011
-278.457	12.613	-0.319	0.243
-277.443	73.950	0.025	-0.026
-276.428	-27.156	-0.039	0.022
-275.413	-75.835	0.204	-0.071
-274.399	-86.350	-0.195	-0.059
-273.384	144.657	-0.101	0.133
-272.370	-50.044	-0.065	-0.030
-271.355	-18.685	0.272	0.168
-270.340	118.827	0.048	0.059
-269.326	-200.000	0.029	0.247
-268.311	-29.024	-0.137	-0.078
-267.297	-121.218	-0.309	-0.051
-266.282	-173.329	0.204	0.006
-265.267	-0.070	0.141	0.099
-264.253	-70.790	-0.123	-0.046
-263.238	800.000	0.054	0.177
-262.224	55.555	-0.249	-0.238
-261.209	-188.986	-0.287	-0.003
-260.195	-125.047	0.353	0.054
-259.180	-200.000	0.014	0.139
-258.165	-36.989	0.405	-0.215
-257.151	155.887	-0.186	0.254
-256.136	-2.793	-0.321	0.222
-255.122	-101.351	0.209	-0.050
-254.107	105.395	-0.266	-0.311
-253.092	-200.000	-0.010	0.083
-252.078	-200.000	-0.031	-0.268
-251.063	-15.014	-0.190	-0.121
-250.049	-140.287	-0.180	-0.019
-249.034	171.465	0.182	-0.258
-248.019	800.000	-0.088	0.354
-247.005	222.797	-0.158	0.252
-245.990	177.012	0.089	0.127
-244.976	-200.000	0.035	-0.183
-243.961	-57.463	0.290	-0.126
-242.946	800.000	0.067	0.205
-241.932	-84.808	-0.112	-0.035
-240.917	22.563	-0.105	-0.085
-239.903	-94.150	-0.060	-0.016
-238.888	1.942	0.094	-0.067
-237.873	-141.068	0.168	-0.017
-236.859	-79.353	-0.331	0.111
-235.844	-52.314	0.160	0.073
-234.830	192.705	-0.145	0.216
-233.815	26.551	0.138	0.114
-232.800	-54.381	0.369	0.165
-231.786	728.698	0.062	0.165
-230.771	800.000	0.036	0.114
-229.757	-156.835	-0.095	-0.006
-228.742	-46.210	0.212	0.103
-227.727	-12.067	0.223	-0.144
-226.713	-200.000	-0.008	0.081
-225.698	-200.000	0.016	0.088
-224.684	-52.077	-0.294	0.135
-223.669	-153.217	-0.126	-0.009
-222.655	1.173	-0.123	-0.087
-221.640	40.113	-0.472	-0.419
-220.625	419.596	0.070	-0.147
-219.611	-26.272	0.312	-0.181
-218.596	693.563	-0.092	-0.239
-217.582	-28.763	0.287	-0.163
-216.567	800.000	-0.040	-0.130
-215.552	-3.749	0.264	-0.181
-214.538	83.059	0.154	0.166
-213.523	-137.022	-0.132	-0.015
-212.509	375.018	-0.161	0.323
-211.494	-184.440	-0.080	-0.001
-210.479	-200.000	-0.028	-0.246
-209.465	-111.931	-0.276	0.055
-208.450	-122.875	0.184	-0.029
-207.436	570.009	-0.070	0.168
-206.421	-200.000	-0.020	0.394
-205.406	800.000	-0.059	0.188
-204.392	12.813	0.293	-0.223
-203.377	459.690	0.070	-0.153
-202.363	-200.000	0.027	-0.247
-201.348	-200.000	0.161	-0.001
-200.333	-106.762	-0.051	0.011
-199.319	-200.000	0.113	0.512
-198.304	375.174	0.167	0.336
-197.290	-56.953	0.068	-0.029
-196.275	-49.005	0.337	0.159
-195.260	-82.070	-0.265	-0.085
-194.246	35.295	-0.062	0.053
-193.231	22.530	0.085	-0.069
-192.217	31.666	0.246	0.208
-191.202	-200.000	-0.037	0.276
-190.187	376.194	-0.107	0.215
-189.173	-200.000	0.055	0.383
-188.158	286.793	-0.171	-0.305
-187.144	800.000	0.014	-0.061
-186.129	-151.791	0.371	-0.027
-185.114	588.996	0.122	-0.297
-184.100	-25.328	0.169	0.099
-183.085	800.000	0.095	0.303
-182.071	89.623	0.081	0.089
-181.056	800.000	0.020	-0.059
-180.042	143.290	-0.107	-0.140
-179.027	121.679	0.058	-0.071
-178.012	800.000	0.061	0.211
-176.998	175.595	0.026	0.037
-175.983	132.600	-0.114	-0.145
-174.969	-200.000	0.007	0.337
-173.954	-200.000	-0.033	0.423
-172.939	239.252	-0.088	-0.144
-171.925	800.000	0.054	-0.215
-170.910	-69.464	0.229	-0.086
-169.896	-160.730	0.020	-0.001
-168.881	371.134	-0.092	-0.183
-167.866	-17.722	0.160	-0.099
-166.852	18.473	0.057	0.045
-165.837	19.281	0.061	-0.049
-164.823	-200.000	-0.002	0.033
-163.808	51.504	-0.119	-0.111
-162.793	-85.925	0.115	0.035
-161.779	-72.605	0.288	0.105
-160.764	194.476	-0.139	-0.207
-159.750	-22.560	0.280	-0.166
-158.735	-78.236	0.432	0.146
-157.720	71.222	0.038	0.039
-156.706	-124.652	-0.446	0.068
-155.691	-200.000	0.010	0.132
-154.677	-146.351	-0.301	-0.026
-153.662	-112.302	-0.120	-0.024
-152.647	-30.180	0.169	0.094
-151.633	-200.000	-0.072	0.405
-150.618	-200.000	0.030	-0.279
-149.604	-24.020	0.097	0.057
-148.589	35.658	0.234	0.202
-147.574	-90.952	-0.178	-0.050
-146.560	-67.089	0.346	0.134
-145.545	75.825	-0.191	0.199
-144.531	47.456	0.217	0.199
-143.516	-99.992	-0.322	-0.079
-142.502	800.000	0.060	-0.179
-141.487	800.000	-0.056	0.158
-140.472	-15.852	0.248	0.155
-139.458	-4.856	0.026	-0.017
-138.443	56.453	0.142	-0.136
-137.429	135.957	-0.108	0.139
-136.414	159.118	0.154	-0.211
-135.399	437.140	0.084	0.180
-134.385	-0.190	0.222	0.155
-133.370	93.060	0.163	-0.181
-132.356	26.787	-0.073	-0.060
-131.341	-200.000	-0.014	-0.071
-130.326	-200.000	-0.030	0.229
-129.312	135.569	0.192	0.246
-128.297	337.060	-0.157	-0.299
-127.283	800.000	0.038	-0.124
-126.268	-64.076	0.029	-0.012
-125.253	800.000	-0.108	-0.412
-124.239	-185.629	0.326	-0.005
-123.224	-61.681	0.325	-0.134
-122.210	800.000	0.071	-0.234
