DTS Sentinel unit serial number:	SN413079Multiplexer serial number:	ORYXHardware model number:	OX4-SRSoftware version number:	ORYX F/W v4.00 Oryx Data Collector v3.7.2.0data status	okinstallation	princeton_trtdifferential loss correction	single-endedforward channel	channel 1reverse channel	N/Adate	2019/09/12time	19:55:34forward acquisition time	15.00reverse acquisition time	0.00gamma	496.2192k internal	0.2323k external	0.2323temperature offset calibration	1.0137default loss term (dB/km)	0.3790temperature slope calibration	1.0000multiplexer offset coefficient	1.0000multiplexer slope coefficient	1.0000fibre end	0.00T internal ref (°C)	31.81T ext. ref 1 (°C)	3.44T ext. ref 2 (°C)	26.39length (m)	temperature (°C)	Stokes	anti-Stokes-747.200	-200.000	0.040	-0.331
-746.185	-123.230	0.409	0.066
-745.171	548.783	-0.330	0.798
-744.156	-200.000	0.231	1.252
-743.142	270.947	0.309	0.550
-742.127	106.148	-0.292	0.350
-741.112	-28.712	0.317	0.184
-740.098	165.775	-0.355	-0.508
-739.083	171.163	0.055	0.079
-738.069	183.621	0.116	-0.173
-737.054	190.825	-0.115	-0.174
-736.039	-83.223	-0.186	-0.060
-735.025	131.658	0.968	1.257
-734.010	-200.000	-0.022	0.716
-732.996	-66.320	-0.579	0.233
-731.981	247.381	0.063	0.107
-730.966	-200.000	-0.237	-1.078
-729.952	69.308	0.471	-0.489
-728.937	-68.709	0.288	-0.112
-727.923	480.626	0.469	1.073
-726.908	-33.332	0.140	0.078
-725.894	-200.000	-0.023	-0.243
-724.879	-117.173	0.540	-0.099
-723.864	-86.268	-0.483	0.150
-722.850	60.693	1.087	1.087
-721.835	-191.314	-0.590	0.006
-720.821	-53.186	0.117	-0.054
-719.806	-102.783	0.203	-0.049
-718.791	-100.365	0.855	0.214
-717.777	393.650	-0.262	-0.551
-716.762	384.172	-0.318	-0.660
-715.748	-38.429	-0.306	-0.164
-714.733	640.818	0.107	-0.275
-713.718	544.763	0.210	-0.507
-712.704	64.811	0.476	0.484
-711.689	-200.000	0.025	-0.330
-710.675	-200.000	0.113	0.647
-709.660	-200.000	0.221	1.077
-708.645	-89.129	1.013	0.302
-707.631	-33.253	0.263	-0.147
-706.616	800.000	0.147	-0.523
-705.602	-200.000	0.024	-0.368
-704.587	-200.000	0.831	-0.001
-703.572	800.000	-0.079	0.330
-702.558	66.647	-0.383	-0.393
-701.543	279.502	-0.244	-0.440
-700.529	67.945	-0.700	0.722
-699.514	87.118	0.118	0.132
-698.499	-200.000	-0.022	-0.429
-697.485	99.871	0.487	-0.569
-696.470	-34.574	-0.381	-0.210
-695.456	-6.928	0.761	0.521
-694.441	192.217	0.039	0.059
-693.426	281.254	0.196	-0.353
-692.412	209.665	-0.183	-0.289
-691.397	53.672	-0.286	-0.276
-690.383	-75.324	0.829	0.298
-689.368	-130.780	0.276	0.037
-688.354	63.355	-0.541	0.547
-687.339	500.738	-0.342	0.796
-686.324	800.000	0.069	0.221
-685.310	-39.158	0.920	-0.487
-684.295	441.392	0.384	-0.847
-683.281	-116.466	0.197	-0.037
-682.266	-63.271	-0.275	-0.114
-681.251	-112.236	0.865	0.175
-680.237	54.466	0.243	-0.236
-679.222	-38.287	-0.624	-0.333
-678.208	10.928	1.053	-0.811
-677.193	-97.847	0.791	-0.206
-676.178	-14.878	-0.681	-0.440
-675.164	-105.377	-0.521	0.120
-674.149	252.644	-0.123	0.212
-673.135	200.101	0.084	0.130
-672.120	3.059	0.161	0.118
-671.105	-66.758	-0.580	0.231
-670.091	-200.000	-0.020	1.085
-669.076	746.091	0.133	0.360
-668.062	151.865	0.369	0.507
-667.047	269.047	0.147	0.259
-666.032	142.734	0.400	-0.535
-665.018	-200.000	-0.006	-0.209
-664.003	101.237	0.589	-0.690
-662.989	374.675	-0.308	0.631
-661.974	501.119	-0.064	-0.150
-660.959	376.777	0.235	-0.483
-659.945	23.617	-1.316	-1.091
-658.930	800.000	0.278	-0.861
-657.916	-138.750	-0.261	-0.029
-656.901	180.703	0.366	-0.541
-655.886	217.578	-0.308	-0.495
-654.872	-200.000	0.075	-0.475
-653.857	11.290	-0.491	-0.378
-652.843	-133.396	0.354	0.045
-651.828	800.000	-0.142	0.426
-650.814	-71.722	-0.403	0.151
-649.799	348.159	-0.385	-0.763
-648.784	279.615	-0.320	-0.575
-647.770	-52.134	0.482	-0.225
-646.755	379.399	-0.090	0.185
-645.741	-200.000	-0.005	0.326
-644.726	-2.725	-0.166	-0.117
-643.711	16.286	0.437	0.347
-642.697	-57.193	0.442	0.196
-641.682	-140.286	-0.854	-0.090
-640.668	-90.213	0.272	-0.079
-639.653	-60.180	-0.434	0.186
-638.638	-54.719	1.255	0.571
-637.624	-137.780	-0.479	0.054
-636.609	218.695	-0.506	0.813
-635.595	20.682	0.677	0.551
-634.580	-106.377	-0.529	-0.119
-633.565	81.929	0.086	-0.093
-632.551	190.448	0.497	0.750
-631.536	800.000	-0.086	0.296
-630.522	309.145	0.395	0.742
-629.507	-108.086	1.167	-0.254
-628.492	101.895	-0.350	0.410
-627.478	-5.379	-0.449	-0.310
-626.463	-69.735	-0.671	0.258
-625.449	800.000	0.400	-1.281
-624.434	-104.396	0.396	-0.092
-623.419	479.582	0.114	0.260
-622.405	22.016	0.884	0.725
-621.390	-200.000	0.101	0.608
-620.376	-200.000	-0.006	-0.181
-619.361	800.000	-0.187	0.679
-618.346	42.746	-0.398	-0.364
-617.332	-200.000	-0.021	0.637
-616.317	800.000	0.015	0.045
-615.303	-42.581	-0.658	-0.337
-614.288	334.068	0.346	-0.673
-613.273	95.320	0.320	-0.367
-612.259	-5.180	0.185	0.128
-611.244	-200.000	-0.133	-0.589
-610.230	800.000	0.302	-1.103
-609.215	-29.231	0.143	0.082
-608.201	-200.000	-0.014	0.093
-607.186	2.767	-1.088	0.793
-606.171	-200.000	-0.099	-0.475
-605.157	0.011	0.446	-0.319
-604.142	-38.282	-0.783	0.417
-603.128	125.313	0.452	-0.572
-602.113	136.324	0.399	0.522
-601.098	245.007	0.449	0.758
-600.084	260.136	0.100	0.173
-599.069	212.633	0.697	1.104
-598.055	563.374	0.207	-0.503
-597.040	283.617	-0.368	-0.663
-596.025	157.844	-0.133	-0.185
-595.011	9.385	-1.083	-0.823
-593.996	189.792	0.270	0.406
-592.982	-109.796	1.421	0.300
-591.967	-150.549	0.524	-0.040
-590.952	81.459	0.074	-0.080
-589.938	-88.104	0.408	-0.123
-588.923	22.899	-0.186	0.153
-587.909	314.073	-0.201	-0.379
-586.894	-114.996	0.429	0.082
-585.879	-164.049	-0.330	0.015
-584.865	-52.148	0.933	-0.435
-583.850	-121.762	-0.795	-0.132
-582.836	-59.211	-0.399	0.173
-581.821	370.192	-0.219	-0.446
-580.806	800.000	-0.071	-0.231
-579.792	-15.691	-0.635	-0.406
-578.777	-135.968	-0.919	-0.109
-577.763	-101.764	-0.459	0.112
-576.748	-200.000	0.106	0.596
-575.733	-96.642	-0.468	0.124
-574.719	-29.333	-0.941	0.540
-573.704	-65.410	-0.437	0.176
-572.690	-36.416	-0.709	-0.383
-571.675	-51.802	0.909	-0.424
-570.661	800.000	0.045	0.157
-569.646	-1.835	0.332	0.234
-568.631	-38.039	0.835	0.445
-567.617	106.607	-0.244	-0.290
-566.602	-28.014	-0.415	0.241
-565.588	800.000	0.272	-0.905
-564.573	-200.000	0.185	-0.865
-563.558	-39.287	0.222	0.117
-562.544	-200.000	-0.071	0.605
-561.529	-2.027	-0.741	0.522
-560.515	36.019	-0.510	-0.450
-559.500	-66.371	0.593	0.236
-558.485	5.765	-0.404	-0.300
-557.471	99.916	0.068	-0.079
-556.456	108.456	0.329	-0.394
-555.442	-128.385	0.613	0.087
-554.427	489.256	-0.204	-0.468
-553.412	-16.230	-0.231	-0.147
-552.398	-73.252	0.231	-0.085
-551.383	-112.212	0.236	-0.047
-550.369	-114.521	0.347	0.067
-549.354	-126.413	0.523	-0.078
-548.339	3.617	-0.897	0.656
-547.325	-8.766	0.106	-0.071
-546.310	-50.358	0.464	0.220
-545.296	-200.000	0.140	0.850
-544.281	141.207	0.287	0.380
-543.266	27.356	0.221	-0.186
-542.252	6.684	-0.527	-0.393
-541.237	674.264	0.240	-0.625
-540.223	800.000	0.027	0.105
-539.208	94.655	-0.263	0.300
-538.193	569.708	0.459	1.119
-537.179	9.864	-0.241	0.183
-536.164	293.560	-0.095	-0.174
-535.150	-81.698	0.312	0.102
-534.135	-48.591	0.457	0.220
-533.121	-85.468	-0.234	0.073
-532.106	27.355	0.220	0.185
-531.091	-200.000	-0.140	-0.815
-530.077	315.477	0.621	1.173
-529.062	417.721	-0.329	-0.705
-528.048	-67.079	0.422	-0.166
-527.033	-200.000	0.181	-0.915
-526.018	538.554	0.231	-0.551
-525.004	65.159	-0.748	-0.757
-523.989	-128.045	-0.484	0.070
-522.975	91.866	0.777	0.875
-521.960	800.000	-0.107	-0.404
-520.945	-148.881	0.193	0.016
-519.931	-58.352	0.494	0.215
-518.916	69.209	-0.323	0.333
-517.902	-200.000	-0.008	0.162
-516.887	-111.615	-0.847	-0.172
-515.872	154.726	-0.715	-0.983
-514.858	79.398	0.602	-0.646
-513.843	28.910	0.206	-0.174
-512.829	382.745	0.166	0.343
-511.814	-58.805	0.541	0.234
-510.799	201.890	0.693	-1.069
-509.785	13.135	-0.341	-0.265
-508.770	-200.000	-0.000	-0.957
-507.756	-16.807	0.192	-0.121
-506.741	7.933	0.332	0.249
-505.726	-200.000	-0.072	0.661
-504.712	800.000	0.091	0.283
-503.697	-97.602	0.562	0.146
-502.683	-130.361	-0.309	0.042
-501.668	32.278	-0.402	-0.347
-500.653	142.796	0.700	0.931
-499.639	-75.869	-0.308	-0.109
-498.624	58.289	0.120	-0.118
-497.610	-80.986	-0.782	0.259
-496.595	-200.000	-0.045	0.270
-495.581	800.000	-0.047	-0.130
-494.566	800.000	-0.149	-0.613
-493.551	104.264	-0.457	0.537
-492.537	140.434	0.240	0.317
-491.522	-126.437	-0.480	0.072
-490.508	-93.975	-0.209	-0.057
-489.493	404.524	0.255	0.537
-488.478	456.911	-0.352	-0.781
-487.464	5.518	-0.469	0.347
-486.449	785.938	0.261	0.717
-485.435	-59.328	-0.388	0.167
-484.420	-200.000	0.100	0.795
-483.405	-2.211	0.425	-0.298
-482.391	-14.135	-0.262	-0.169
-481.376	105.341	0.314	0.371
-480.362	284.639	-0.566	-1.018
-479.347	235.596	-0.328	-0.542
-478.332	28.819	-0.553	0.469
-477.318	-200.000	-0.048	0.733
-476.303	151.370	0.321	-0.437
-475.289	-200.000	0.006	-0.384
-474.274	60.840	-0.575	0.570
-473.259	-200.000	0.035	-0.615
-472.245	-200.000	0.008	-0.501
-471.230	16.917	-0.661	0.523
-470.216	275.201	-0.220	0.390
-469.201	29.136	0.624	0.529
-468.186	-125.637	-0.683	0.104
-467.172	22.297	0.467	-0.381
-466.157	358.826	-0.107	-0.214
-465.143	-158.796	0.829	0.047
-464.128	-12.644	-0.503	0.328
-463.113	-81.539	0.221	0.073
-462.099	-10.138	0.154	-0.102
-461.084	40.555	-0.340	0.306
-460.070	-19.414	0.764	-0.473
-459.055	-200.000	-0.123	-1.124
-458.040	-36.144	0.620	-0.334
-457.026	800.000	0.101	-0.345
-456.011	-41.237	0.771	0.397
-454.997	-200.000	0.066	-0.558
-453.982	257.586	0.419	0.721
-452.968	800.000	-0.055	0.238
-451.953	-84.194	-1.153	-0.365
-450.938	34.986	-0.395	-0.345
-449.924	-85.725	-0.898	-0.278
-448.909	28.611	-0.455	-0.384
-447.895	-58.345	0.337	0.146
-446.880	46.650	0.397	-0.368
-445.865	2.961	-0.292	-0.212
-444.851	13.992	0.356	-0.276
-443.836	-152.554	0.180	-0.013
-442.822	244.283	0.092	-0.154
-441.807	243.430	0.589	0.986
-440.792	-136.548	-0.210	-0.024
-439.778	103.883	0.328	0.385
-438.763	113.285	-0.327	0.395
-437.749	323.766	-0.243	-0.462
-436.734	-121.722	-0.627	0.104
-435.719	800.000	-0.010	-0.043
-434.705	-69.876	-0.831	-0.316
-433.690	-68.032	-0.270	0.105
-432.676	162.205	-0.247	-0.346
-431.661	-39.003	-0.244	0.128
-430.646	107.835	0.177	-0.210
-429.632	-200.000	-0.154	-1.253
-428.617	800.000	-0.093	-0.335
-427.603	800.000	0.040	0.122
-426.588	-118.167	-0.247	0.044
-425.573	-75.201	-0.603	0.215
-424.559	-51.887	-0.011	0.005
-423.544	80.979	0.271	0.291
-422.530	474.066	0.051	-0.114
-421.515	-65.804	-0.589	0.235
-420.500	90.688	-0.660	0.737
-419.486	35.625	-0.232	0.204
-418.471	249.968	-0.182	-0.309
-417.457	-169.852	0.630	-0.023
-416.442	-112.847	-0.507	0.100
-415.428	-200.000	0.022	-0.494
-414.413	31.646	-0.251	0.215
-413.398	119.658	0.164	0.203
-412.384	422.612	0.157	-0.337
-411.369	20.066	1.040	-0.837
-410.355	-143.457	0.762	0.073
-409.340	-135.303	-0.177	-0.021
-408.325	-102.449	1.006	0.240
-407.311	455.487	0.396	-0.876
-406.296	-51.808	-0.682	-0.317
-405.282	205.323	0.120	-0.186
-404.267	-23.093	0.581	0.349
-403.252	-200.000	-0.033	-0.848
-402.238	68.539	0.330	0.337
-401.223	-108.808	-0.565	-0.120
-400.209	-200.000	-0.028	0.202
-399.194	241.383	0.411	-0.684
-398.179	-120.340	-0.704	0.120
-397.165	-200.000	0.004	0.861
-396.150	800.000	0.064	-0.176
-395.136	208.213	0.066	0.103
-394.121	494.607	-0.147	0.336
-393.106	290.165	-0.135	0.244
-392.092	-112.059	0.489	-0.098
-391.077	10.126	-0.254	-0.192
-390.063	-50.628	-1.177	-0.552
-389.048	10.207	0.079	-0.060
-388.033	399.562	0.119	0.248
-387.019	-57.623	0.289	-0.126
-386.004	-200.000	-0.115	-0.537
-384.990	752.473	0.232	0.623
-383.975	278.424	0.070	0.125
-382.960	-39.287	0.813	-0.425
-381.946	-72.478	0.345	0.127
-380.931	-200.000	0.118	0.536
-379.917	74.682	0.415	0.435
-378.902	12.628	0.508	0.391
-377.888	446.416	-0.401	0.877
-376.873	-200.000	-0.039	0.469
-375.858	-122.465	-0.655	-0.106
-374.844	-70.941	-0.428	0.160
-373.829	140.302	0.531	-0.698
-372.815	11.754	-0.196	0.150
-371.800	-174.858	-0.763	-0.021
-370.785	166.772	-0.394	-0.556
-369.771	800.000	0.195	0.669
-368.756	800.000	-0.128	-0.546
-367.742	800.000	0.211	0.717
-366.727	-200.000	0.065	-0.458
-365.712	-200.000	0.064	0.624
-364.698	10.220	-0.273	0.206
-363.683	24.027	0.541	0.444
-362.669	-51.042	0.087	-0.041
-361.654	-0.366	0.695	-0.492
-360.639	-74.742	0.056	-0.020
-359.625	301.967	-0.229	-0.422
-358.610	41.159	-0.273	0.246
-357.596	-39.418	0.630	0.329
-356.581	66.800	-0.722	0.732
-355.566	-69.958	-0.505	0.191
-354.552	-61.156	-0.270	-0.113
-353.537	8.223	-0.433	-0.324
-352.523	130.189	0.136	-0.173
-351.508	94.521	0.200	-0.226
-350.493	-47.922	0.788	0.379
-349.479	-200.000	0.007	0.464
-348.464	419.531	-0.099	0.211
-347.450	-172.035	-0.796	0.026
-346.435	-200.000	0.003	-0.071
-345.420	707.438	-0.165	-0.434
-344.406	140.978	-0.162	-0.212
-343.391	800.000	0.158	-0.498
-342.377	22.520	0.402	-0.327
-341.362	77.310	-0.055	-0.058
-340.348	9.009	0.453	0.340
-339.333	-200.000	0.013	0.461
-338.318	-200.000	0.032	0.491
-337.304	-200.000	-0.110	0.556
-336.289	-71.392	-0.423	-0.157
-335.275	283.077	0.144	-0.257
-334.260	-191.071	0.508	-0.005
-333.245	186.487	0.368	0.545
-332.231	800.000	-0.217	0.614
-331.216	-160.214	-0.724	-0.039
-330.202	-200.000	-0.008	0.468
-329.187	-115.214	-0.113	0.021
-328.172	41.038	0.389	-0.349
-327.158	-38.024	0.379	0.200
-326.143	42.490	-0.128	-0.116
-325.129	201.288	0.142	-0.218
-324.114	120.505	-0.136	-0.168
-323.099	-200.000	0.065	-0.348
-322.085	-35.883	0.349	0.188
-321.070	-98.145	-0.373	0.095
-320.056	-200.000	0.020	0.840
-319.041	178.529	0.562	0.816
-318.026	68.018	0.641	0.651
-317.012	120.846	0.399	0.493
-315.997	79.196	-0.559	-0.595
-314.983	-146.971	-0.824	-0.070
-313.968	800.000	-0.273	-0.851
-312.953	-200.000	0.018	-0.281
-311.939	-32.100	-0.638	0.354
-310.924	800.000	0.171	-0.564
-309.910	-182.450	0.233	0.004
-308.895	-80.353	0.346	0.115
-307.880	70.124	-0.439	0.451
-306.866	571.182	-0.162	0.392
-305.851	-156.031	0.742	-0.047
-304.837	800.000	-0.194	0.564
-303.822	-67.144	0.271	0.106
-302.807	-200.000	0.038	0.800
-301.793	-70.230	-0.158	-0.060
-300.778	53.914	0.185	0.177
-299.764	-140.244	1.192	-0.124
-298.749	-200.000	0.030	-0.206
-297.735	161.245	-0.588	-0.816
-296.720	-122.595	-1.460	-0.235
-295.705	800.000	-0.068	0.214
-294.691	41.605	0.271	0.244
-293.676	304.541	0.185	0.341
-292.662	800.000	-0.354	0.977
-291.647	32.899	0.438	0.377
-290.632	-200.000	0.022	-0.301
-289.618	-167.215	-0.431	-0.017
-288.603	-96.464	-0.247	0.065
-287.589	-12.144	-0.396	0.257
-286.574	-200.000	0.171	-1.405
-285.559	429.764	-0.120	-0.258
-284.545	-32.842	-0.325	0.179
-283.530	-57.331	0.319	-0.139
-282.516	-200.000	0.024	-0.809
-281.501	-22.198	0.227	-0.137
-280.486	-91.754	-1.057	0.298
-279.472	97.365	0.366	0.417
-278.457	435.780	0.088	0.190
-277.443	164.542	0.085	0.119
-276.428	521.202	0.499	1.162
-275.413	-150.438	0.793	-0.060
-274.399	-200.000	-0.075	-0.589
-273.384	800.000	-0.251	0.748
-272.370	19.762	-0.303	0.242
-271.355	-21.797	0.994	0.599
-270.340	123.854	0.067	-0.083
-269.326	50.354	0.049	-0.046
-268.311	58.114	-0.591	-0.574
-267.297	-184.694	-0.773	-0.012
-266.282	92.924	0.484	0.543
-265.267	-138.399	-0.526	-0.057
-264.253	-114.247	0.551	0.105
-263.238	188.294	-0.838	1.242
-262.224	-152.499	0.685	0.049
-261.209	-129.125	0.386	0.053
-260.195	-175.434	0.183	0.005
-259.180	152.792	-0.199	-0.269
-258.165	110.843	-0.349	-0.417
-257.151	-200.000	-0.067	-0.543
-256.136	-94.511	0.604	0.163
-255.122	1.109	-0.390	-0.277
-254.107	43.911	-0.745	-0.677
-253.092	321.609	-0.156	0.293
-252.078	-92.797	-0.696	-0.193
-251.063	-82.943	-0.440	-0.141
-250.049	800.000	0.124	0.526
-249.034	-77.307	-1.030	-0.355
-248.019	213.068	0.398	-0.622
-247.005	359.095	0.184	-0.365
-245.990	3.397	0.601	-0.434
-244.976	-81.014	-0.951	-0.312
-243.961	60.656	0.550	0.540
-242.946	-51.949	-1.117	-0.514
-241.932	800.000	0.077	-0.318
-240.917	115.500	-0.550	0.666
-239.903	738.028	0.185	-0.491
-238.888	44.964	0.526	-0.480
-237.873	-28.988	0.676	-0.384
-236.859	-51.610	0.691	-0.319
-235.844	229.757	0.075	-0.122
-234.830	-115.107	1.154	0.217
-233.815	-200.000	0.014	0.883
-232.800	-99.346	-0.773	-0.193
-231.786	-129.316	0.025	0.003
-230.771	-200.000	-0.180	0.877
-229.757	74.616	0.699	-0.728
-228.742	-73.509	0.194	-0.070
-227.727	74.549	0.177	-0.184
-226.713	-200.000	0.008	0.544
-225.698	-26.605	0.559	-0.324
-224.684	-118.388	-0.173	0.030
-223.669	-33.849	0.709	-0.387
-222.655	-111.071	-0.309	0.063
-221.640	67.272	0.453	0.457
-220.625	107.396	0.098	-0.116
-219.611	-35.736	-0.148	-0.080
-218.596	-94.824	0.894	0.240
-217.582	200.649	-0.456	0.693
-216.567	60.794	0.519	0.509
-215.552	41.089	0.108	-0.096
-214.538	29.848	-0.746	-0.629
-213.523	4.497	0.745	0.540
-212.509	-70.324	0.264	-0.099
-211.494	1.645	-0.640	-0.456
-210.479	-200.000	0.048	0.259
-209.465	-200.000	-0.012	-0.183
-208.450	-58.384	0.373	0.160
-207.436	-148.116	-1.194	-0.098
-206.421	-65.068	-0.841	0.336
-205.406	105.976	0.272	0.319
-204.392	176.972	-0.386	0.555
-203.377	-200.000	-0.053	0.355
-202.363	-171.509	0.604	0.020
-201.348	-200.000	0.032	-0.687
-200.333	-136.334	-0.459	0.053
-199.319	154.540	0.214	-0.290
-198.304	-200.000	0.072	-0.411
-197.290	12.629	-0.296	0.226
-196.275	76.527	-0.549	0.576
-195.260	-7.245	0.339	-0.227
-194.246	-156.436	-0.435	-0.027
-193.231	-85.346	0.293	0.090
-192.217	-135.471	-0.313	-0.037
-191.202	222.230	0.276	0.440
-190.187	-70.292	-0.596	-0.223
-189.173	800.000	-0.056	0.214
-188.158	-200.000	0.014	0.075
-187.144	271.836	0.089	-0.155
-186.129	629.350	-0.154	0.385
-185.114	-200.000	0.010	-0.105
-184.100	800.000	-0.191	-0.526
-183.085	580.101	0.075	0.181
-182.071	72.772	0.406	0.418
-181.056	46.413	-0.786	-0.720
-180.042	-200.000	-0.151	-0.790
-179.027	-95.586	0.699	0.185
-178.012	800.000	-0.211	-0.808
-176.998	29.241	0.590	-0.495
-175.983	-171.207	0.904	-0.030
-174.969	563.529	0.186	-0.444
-173.954	18.583	-0.125	0.099
-172.939	800.000	0.043	0.133
-171.925	-136.583	0.643	0.074
-170.910	-61.166	0.501	-0.209
-169.896	-17.789	0.579	-0.359
-168.881	-25.588	-0.974	-0.568
-167.866	134.506	0.298	0.382
-166.852	-38.455	-0.304	-0.159
-165.837	79.587	0.131	0.139
-164.823	-200.000	0.057	0.265
-163.808	167.973	0.156	0.219
-162.793	769.673	0.207	0.557
-161.779	164.700	-0.135	0.188
-160.764	-200.000	0.175	-0.884
-159.750	-200.000	-0.144	-1.214
-158.735	-93.655	0.493	-0.134
-157.720	252.542	0.162	-0.273
-156.706	-200.000	0.026	-0.322
-155.691	-7.947	-0.165	0.110
-154.677	-85.040	-0.519	-0.161
-153.662	-80.617	-0.454	0.149
-152.647	195.626	-0.107	-0.161
-151.633	384.198	-0.284	0.578
-150.618	-138.429	0.588	0.064
-149.604	-89.895	0.562	0.162
-148.589	164.587	0.428	0.596
-147.574	-89.548	0.671	0.195
-146.560	-168.341	0.262	-0.010
-145.545	-154.424	0.287	-0.019
-144.531	345.805	-0.436	0.845
-143.516	-200.000	-0.030	-0.571
-142.502	327.726	-0.324	0.612
-141.487	117.461	0.623	-0.756
-140.472	-130.190	-0.511	-0.069
-139.458	21.616	-0.319	0.256
-138.443	-84.047	-0.056	-0.018
-137.429	9.489	-0.153	-0.114
-136.414	275.411	-0.144	-0.252
-135.399	5.006	-0.495	-0.359
-134.385	-127.231	0.538	-0.078
-133.370	-200.000	0.006	-0.116
-132.356	-128.304	-0.526	-0.074
-131.341	-200.000	0.095	-0.511
-130.326	800.000	0.116	-0.325
-129.312	-200.000	-0.051	0.601
-128.297	-41.182	0.520	0.265
-127.283	33.400	0.264	-0.226
-126.268	-94.202	-0.125	-0.034
-125.253	61.780	0.354	-0.347
-124.239	218.361	0.247	0.389
-123.224	13.946	0.355	-0.272
-122.210	-200.000	0.067	-0.330
-121.195	39.371	0.511	0.451
-120.180	24.605	-0.272	0.222
-119.166	-120.027	-0.257	0.043
